DTS Sentinel unit serial number:	SN413079Multiplexer serial number:	ORYXHardware model number:	OX4-SRSoftware version number:	ORYX F/W v4.00 Oryx Data Collector v3.7.2.0data status	okinstallation	princeton_trtdifferential loss correction	single-endedforward channel	channel 2reverse channel	N/Adate	2019/09/16time	17:03:35forward acquisition time	60.00reverse acquisition time	0.00gamma	496.2192k internal	0.2307k external	0.2307temperature offset calibration	0.9945default loss term (dB/km)	0.3790temperature slope calibration	1.0000multiplexer offset coefficient	1.0000multiplexer slope coefficient	1.0000fibre end	0.00T internal ref (°C)	39.23T ext. ref 1 (°C)	15.31T ext. ref 2 (°C)	33.44length (m)	temperature (°C)	Stokes	anti-Stokes-747.200	-83.180	0.024	0.008
-746.185	800.000	-0.126	0.364
-745.171	-77.472	-0.233	-0.082
-744.156	800.000	-0.037	0.137
-743.142	530.834	0.043	0.104
-742.127	-125.929	0.144	0.022
-741.112	43.140	0.120	-0.111
-740.098	-151.014	-0.104	-0.008
-739.083	156.485	0.170	0.238
-738.069	800.000	0.075	0.230
-737.054	69.244	-0.140	-0.147
-736.039	206.550	-0.195	-0.308
-735.025	430.274	0.047	0.103
-734.010	-157.396	-0.323	-0.020
-732.996	216.972	-0.231	-0.374
-731.981	-200.000	-0.039	0.226
-730.966	414.325	-0.069	-0.148
-729.952	-32.574	-0.038	0.021
-728.937	-200.000	0.015	-0.174
-727.923	-200.000	-0.063	0.401
-726.908	-97.574	-0.212	-0.056
-725.894	-5.416	0.177	0.123
-724.879	-67.211	0.058	-0.023
-723.864	-129.110	0.344	-0.049
-722.850	-32.229	0.154	0.087
-721.835	-67.650	0.131	-0.052
-720.821	243.162	0.271	-0.462
-719.806	132.128	-0.017	0.022
-718.791	-1.183	-0.235	-0.169
-717.777	264.765	0.026	-0.047
-716.762	163.501	0.166	-0.237
-715.748	663.014	-0.063	-0.164
-714.733	-39.069	-0.250	0.134
-713.718	-48.859	-0.248	-0.121
-712.704	-29.537	-0.136	-0.079
-711.689	-6.669	-0.229	-0.158
-710.675	107.794	0.214	0.259
-709.660	12.728	0.129	-0.102
-708.645	-200.000	0.013	-0.146
-707.631	97.583	0.147	0.172
-706.616	-86.150	0.263	0.082
-705.602	-161.339	0.213	0.011
-704.587	-200.000	0.060	-0.302
-703.572	8.442	0.265	0.202
-702.558	121.510	0.105	-0.132
-701.543	231.271	0.032	0.053
-700.529	-200.000	0.080	0.407
-699.514	-91.450	-0.202	0.059
-698.499	431.347	0.078	-0.172
-697.485	-39.650	-0.238	-0.126
-696.470	-111.964	-0.152	-0.031
-695.456	-84.948	-0.036	-0.011
-694.441	-200.000	0.027	-0.202
-693.426	372.976	0.104	0.214
-692.412	168.045	-0.122	0.176
-691.397	47.352	0.408	0.386
-690.383	21.425	0.139	-0.115
-689.368	-200.000	0.029	0.461
-688.354	5.538	-0.281	0.211
-687.339	82.323	0.132	-0.145
-686.324	-200.000	-0.021	-0.360
-685.310	800.000	0.119	-0.382
-684.295	-200.000	-0.005	0.033
-683.281	188.368	0.039	0.059
-682.266	235.129	-0.113	0.189
-681.251	-83.332	-0.137	0.045
-680.237	-72.649	-0.164	0.061
-679.222	-75.149	0.121	0.044
-678.208	445.395	-0.056	-0.124
-677.193	-65.537	0.212	0.086
-676.178	274.057	0.124	-0.222
-675.164	676.825	0.039	0.103
-674.149	121.325	0.290	-0.366
-673.135	-58.224	0.245	0.108
-672.120	279.926	-0.021	-0.037
-671.105	-46.315	-0.250	-0.125
-670.091	800.000	0.096	-0.354
-669.076	-102.335	0.447	-0.109
-668.062	-165.444	-0.162	-0.007
-667.047	-200.000	0.016	-0.291
-666.032	270.489	-0.063	-0.113
-665.018	-34.056	-0.087	0.049
-664.003	52.265	0.054	0.052
-662.989	47.077	-0.325	-0.307
-661.974	-55.402	-0.104	0.047
-660.959	800.000	0.102	0.384
-659.945	-200.000	-0.049	-0.386
-658.930	-102.397	-0.360	-0.087
-657.916	-80.286	-0.036	-0.012
-656.901	-200.000	-0.008	-0.280
-655.886	125.380	0.290	-0.371
-654.872	-200.000	-0.007	0.233
-653.857	159.524	0.157	0.221
-652.843	-107.536	-0.145	0.032
-651.828	-200.000	0.018	0.135
-650.814	142.400	-0.193	0.259
-649.799	-157.403	-0.094	0.006
-648.784	-6.004	0.117	-0.081
-647.770	-75.128	-0.108	-0.039
-646.755	-140.854	-0.171	0.018
-645.741	14.364	-0.090	0.071
-644.726	36.014	-0.089	-0.079
-643.711	149.505	0.260	0.357
-642.697	10.629	-0.139	-0.107
-641.682	-200.000	-0.028	0.459
-640.668	298.358	-0.057	0.106
-639.653	-66.990	-0.016	0.006
-638.638	-155.918	-0.199	0.013
-637.624	57.601	-0.143	0.141
-636.609	715.127	-0.101	0.271
-635.595	-37.643	-0.287	0.155
-634.580	-153.802	-0.283	-0.020
-633.565	-200.000	-0.028	-0.354
-632.551	122.611	-0.061	-0.078
-631.536	-78.445	-0.242	0.084
-630.522	64.336	0.119	0.122
-629.507	584.705	-0.117	0.291
-628.492	390.661	0.136	-0.286
-627.478	-133.973	0.371	-0.047
-626.463	-200.000	-0.008	-0.173
-625.449	116.646	0.054	0.067
-624.434	-200.000	-0.025	-0.159
-623.419	-200.000	0.015	-0.154
-622.405	-7.527	0.175	0.120
-621.390	70.336	0.051	-0.054
-620.376	500.692	0.088	0.206
-619.361	397.354	-0.032	-0.067
-618.346	-200.000	0.041	0.240
-617.332	-43.779	0.058	0.029
-616.317	-67.039	0.070	-0.028
-615.303	-34.709	0.237	0.131
-614.288	17.741	-0.049	-0.040
-613.273	357.456	-0.080	-0.161
-612.259	-52.710	-0.150	-0.070
-611.244	-65.874	0.086	-0.035
-610.230	-103.034	0.162	-0.039
-609.215	133.391	0.120	-0.157
-608.201	30.836	-0.102	-0.088
-607.186	-9.784	0.199	0.134
-606.171	-53.488	0.201	-0.093
-605.157	-79.723	0.045	-0.016
-604.142	96.088	0.130	0.151
-603.128	9.450	0.292	-0.224
-602.113	35.727	0.058	-0.051
-601.098	36.038	0.196	-0.175
-600.084	217.037	-0.084	0.136
-599.069	-200.000	-0.005	-0.151
-598.055	-137.459	0.116	-0.013
-597.040	-139.411	0.248	0.027
-596.025	-150.717	0.371	-0.029
-595.011	286.799	0.030	0.054
-593.996	-200.000	0.007	-0.293
-592.982	-82.412	-0.335	-0.110
-591.967	-91.334	0.132	-0.038
-590.952	229.739	0.046	0.076
-589.938	-69.003	0.054	-0.021
-588.923	800.000	-0.062	0.186
-587.909	800.000	0.046	0.199
-586.894	800.000	-0.091	-0.309
-585.879	249.351	-0.181	-0.311
-584.865	-200.000	0.009	-0.136
-583.850	-11.615	0.356	0.236
-582.836	96.428	0.210	0.243
-581.821	-200.000	0.028	-0.357
-580.806	361.267	0.185	-0.374
-579.792	-150.242	-0.588	-0.046
-578.777	-80.036	0.193	0.065
-577.763	5.191	-0.259	-0.193
-576.748	-121.127	-0.171	0.029
-575.733	-9.171	-0.150	-0.101
-574.719	465.240	-0.138	-0.313
-573.704	800.000	0.051	0.147
-572.690	211.622	0.040	0.064
-571.675	187.644	-0.138	-0.209
-570.661	556.193	-0.020	-0.048
-569.646	800.000	0.129	0.372
-568.631	61.702	-0.359	-0.361
-567.617	-7.677	0.137	0.094
-566.602	-59.066	0.261	-0.114
-565.588	-200.000	-0.032	0.284
-564.573	41.107	0.102	0.093
-563.558	187.471	-0.127	0.192
-562.544	8.492	-0.206	0.157
-561.529	-145.291	0.219	-0.020
-560.515	223.528	-0.042	-0.069
-559.500	706.694	-0.033	0.089
-558.485	800.000	0.053	-0.177
-557.471	-110.895	0.244	0.051
-556.456	248.507	-0.157	-0.268
-555.442	-24.232	-0.285	0.172
-554.427	58.160	0.123	0.122
-553.412	-200.000	0.025	-0.221
-552.398	-82.600	-0.030	0.010
-551.383	194.565	-0.013	0.019
-550.369	198.918	0.010	0.016
-549.354	108.050	-0.138	-0.166
-548.339	-68.803	0.129	-0.050
-547.325	-150.454	-0.087	0.007
-546.310	-64.929	-0.182	-0.074
-545.296	-94.982	-0.340	-0.093
-544.281	-31.417	0.311	0.177
-543.266	-200.000	-0.024	-0.136
-542.252	-113.915	-0.195	0.038
-541.237	-200.000	0.009	0.183
-540.223	137.630	-0.141	0.186
-539.208	65.746	-0.149	0.152
-538.193	-121.803	0.087	0.014
-537.179	100.784	0.155	-0.181
-536.164	30.156	-0.169	0.146
-535.150	-127.600	-0.151	-0.022
-534.135	-85.795	0.230	0.072
-533.121	335.488	0.083	-0.163
-532.106	101.855	0.098	-0.116
-531.091	-200.000	-0.075	0.375
-530.077	800.000	-0.106	-0.320
-529.062	304.834	0.165	0.309
-528.048	107.399	0.094	0.112
-527.033	381.655	0.036	0.074
-526.018	-111.542	-0.280	-0.057
-525.004	-143.056	-0.214	-0.021
-523.989	590.804	0.024	0.059
-522.975	-83.321	-0.170	-0.055
-521.960	800.000	-0.029	0.082
-520.945	-200.000	-0.005	-0.304
-519.931	800.000	0.036	-0.140
-518.916	-7.538	0.136	-0.093
-517.902	800.000	-0.031	0.101
-516.887	-108.728	0.081	-0.018
-515.872	727.244	-0.118	-0.317
-514.858	-200.000	-0.083	0.439
-513.843	84.693	0.241	0.266
-512.829	38.606	0.132	0.119
-511.814	-107.664	-0.310	0.068
-510.799	-200.000	-0.005	0.172
-509.785	-44.634	-0.079	-0.040
-508.770	321.508	-0.060	-0.116
-507.756	800.000	-0.032	0.118
-506.741	-43.277	0.381	0.194
-505.726	-96.399	-0.364	-0.097
-504.712	26.476	0.151	0.127
-503.697	138.070	-0.155	0.204
-502.683	-88.966	-0.325	-0.097
-501.668	104.632	0.040	0.048
-500.653	222.930	0.087	0.141
-499.639	292.628	-0.064	-0.118
-498.624	662.114	0.115	0.297
-497.610	229.008	0.200	-0.328
-496.595	-50.261	0.146	-0.070
-495.581	71.217	-0.161	-0.168
-494.566	-92.153	0.370	0.105
-493.551	800.000	0.089	0.278
-492.537	315.332	-0.102	-0.194
-491.522	-125.702	0.033	-0.005
-490.508	43.297	-0.142	-0.130
-489.493	-200.000	-0.106	-0.001
-488.478	-14.926	0.209	0.135
-487.464	-100.720	0.031	0.008
-486.449	-136.654	-0.159	-0.018
-485.435	-42.319	-0.233	0.120
-484.420	-61.101	-0.306	0.130
-483.405	-200.000	0.061	0.343
-482.391	-200.000	0.015	0.254
-481.376	24.642	-0.179	0.149
-480.362	112.239	-0.081	0.098
-479.347	617.126	-0.056	0.141
-478.332	24.414	0.093	0.077
-477.318	135.749	0.034	-0.045
-476.303	3.022	0.136	-0.100
-475.289	-27.411	-0.171	-0.100
-474.274	-136.760	-0.400	-0.046
-473.259	198.763	0.123	0.190
-472.245	141.165	-0.172	-0.229
-471.230	-15.678	-0.014	-0.009
-470.216	800.000	0.037	0.155
-469.201	800.000	-0.050	0.172
-468.186	-96.775	-0.079	0.021
-467.172	-200.000	-0.014	0.261
-466.157	63.686	-0.077	-0.077
-465.143	-156.435	-0.070	0.004
-464.128	-76.279	-0.102	-0.036
-463.113	218.352	0.126	-0.203
-462.099	26.196	-0.147	0.124
-461.084	-161.999	-0.215	0.011
-460.070	133.602	-0.181	0.236
-459.055	35.105	0.176	-0.155
-458.040	-200.000	0.005	-0.127
-457.026	-3.307	0.225	-0.158
-456.011	800.000	-0.119	-0.417
-454.997	-84.923	0.190	-0.060
-453.982	-138.040	0.157	-0.018
-452.968	203.961	0.059	0.092
-451.953	-200.000	-0.016	0.163
-450.938	188.824	-0.110	0.166
-449.924	-139.246	-0.132	0.014
-448.909	-200.000	-0.135	0.001
-447.895	115.187	-0.183	-0.225
-446.880	22.410	0.056	-0.046
-445.865	63.272	-0.123	-0.124
-444.851	-200.000	-0.039	-0.221
-443.836	114.212	-0.069	-0.085
-442.822	-94.326	-0.088	-0.024
-441.807	-0.199	0.098	0.070
-440.792	-127.159	-0.150	-0.022
-439.778	-12.316	0.015	0.010
-438.763	800.000	0.052	0.144
-437.749	43.980	-0.236	-0.217
-436.734	-110.906	0.141	0.029
-435.719	-20.324	0.092	0.057
-434.705	-151.339	0.179	0.013
-433.690	-200.000	0.010	-0.109
-432.676	11.410	0.155	0.120
-431.661	-115.336	0.254	-0.048
-430.646	-54.561	0.300	0.137
-429.632	55.671	0.178	0.173
-428.617	-139.529	0.150	-0.016
-427.603	455.250	-0.071	0.157
-426.588	372.120	0.091	0.186
-425.573	-116.483	-0.242	0.045
-424.559	800.000	0.047	0.166
-423.544	100.831	0.235	-0.274
-422.530	55.480	-0.243	-0.237
-421.515	424.878	0.021	0.046
-420.500	70.714	-0.099	0.103
-419.486	-116.432	-0.155	0.029
-418.471	193.086	0.186	-0.282
-417.457	751.050	-0.149	-0.405
-416.442	661.734	0.159	-0.411
-415.428	-200.000	0.024	-0.470
-414.413	-186.740	0.236	-0.003
-413.398	-200.000	-0.016	0.195
-412.384	98.777	-0.065	-0.075
-411.369	570.971	0.049	-0.120
-410.355	-166.057	0.217	0.009
-409.340	-200.000	-0.011	-0.119
-408.325	57.948	-0.168	-0.166
-407.311	-109.774	-0.351	-0.074
-406.296	-200.000	-0.026	-0.286
-405.282	688.230	0.058	0.151
-404.267	-151.105	0.235	-0.018
-403.252	14.275	-0.125	0.097
-402.238	-200.000	-0.070	0.318
-401.223	-74.073	-0.085	0.031
-400.209	-65.525	-0.093	0.038
-399.194	-141.799	0.578	-0.058
-398.179	219.846	0.238	0.383
-397.165	-38.333	-0.104	-0.055
-396.150	160.744	-0.182	-0.255
-395.136	800.000	-0.036	0.132
-394.121	-150.708	-0.257	0.020
-393.106	169.717	0.158	-0.227
-392.092	71.132	0.242	0.251
-391.077	-81.617	0.293	-0.097
-390.063	-200.000	-0.034	-0.170
-389.048	140.197	-0.163	0.215
-388.033	281.364	0.048	0.086
-387.019	-94.606	0.297	-0.081
-386.004	-20.187	-0.299	-0.185
-384.990	235.655	0.131	-0.216
-383.975	-200.000	-0.028	-0.306
-382.960	26.196	-0.239	0.200
-381.946	196.833	-0.191	0.292
-380.931	800.000	0.128	0.363
-379.917	-128.617	0.447	-0.063
-378.902	-27.034	0.094	-0.055
-377.888	-82.608	0.123	0.040
-376.873	181.890	-0.098	-0.145
-375.858	-68.437	0.179	0.070
-374.844	-56.882	-0.364	-0.161
-373.829	-200.000	0.037	0.187
-372.815	167.284	-0.093	-0.132
-371.800	428.926	-0.030	-0.065
-370.785	401.118	-0.103	0.217
-369.771	-200.000	-0.035	0.354
-368.756	146.195	0.129	0.173
-367.742	-200.000	0.000	-0.056
-366.727	-200.000	0.012	-0.128
-365.712	33.428	-0.144	0.125
-364.698	86.319	0.198	0.219
-363.683	-150.070	-0.327	-0.025
-362.669	800.000	-0.064	0.204
-361.654	22.012	0.213	0.174
-360.639	-108.856	-0.611	0.131
-359.625	-37.032	0.147	0.079
-358.610	281.479	-0.199	0.356
-357.596	-200.000	0.008	0.160
-356.581	-200.000	-0.013	0.238
-355.566	-53.476	-0.302	-0.139
-354.552	209.111	-0.123	-0.193
-353.537	-200.000	-0.014	0.070
-352.523	-66.033	0.211	0.084
-351.508	64.817	-0.072	0.073
-350.493	166.670	0.264	0.375
-349.479	371.326	0.010	-0.021
-348.464	-66.710	0.137	0.054
-347.450	47.984	-0.216	0.202
-346.435	-12.213	0.166	0.109
-345.420	-200.000	0.010	-0.257
-344.406	-96.673	-0.196	-0.052
-343.391	23.107	-0.101	-0.083
-342.377	181.391	-0.098	0.144
-341.362	-88.221	-0.156	0.047
-340.348	288.343	-0.077	-0.140
-339.333	-114.807	-0.210	0.040
-338.318	256.460	0.093	0.159
-337.304	334.363	-0.086	0.167
-336.289	-29.515	-0.049	0.028
-335.275	-200.000	-0.024	-0.132
-334.260	91.247	-0.179	0.202
-333.245	-132.574	-0.020	0.003
-332.231	-6.448	0.016	0.011
-331.216	-37.585	0.148	0.079
-330.202	-128.166	-0.371	-0.053
-329.187	167.556	0.079	-0.112
-328.172	225.523	0.104	-0.169
-327.158	-13.952	-0.310	0.201
-326.143	-131.024	0.118	-0.016
-325.129	722.628	0.140	0.373
-324.114	-16.427	0.112	0.071
-323.099	-68.891	-0.054	0.021
-322.085	293.187	-0.066	0.121
-321.070	800.000	-0.059	-0.176
-320.056	244.670	0.146	-0.245
-319.041	51.814	-0.027	-0.026
-318.026	150.313	0.050	-0.068
-317.012	-104.174	0.208	-0.048
-315.997	-200.000	0.011	0.211
-314.983	800.000	-0.102	0.363
-313.968	-27.075	-0.186	0.109
-312.953	-31.484	0.174	-0.098
-311.939	-76.693	0.115	0.040
-310.924	800.000	0.088	0.360
-309.910	166.873	0.070	0.099
-308.895	23.526	0.144	-0.118
-307.880	-200.000	-0.009	0.187
-306.866	17.719	0.263	0.209
-305.851	162.469	0.197	-0.276
-304.837	511.170	0.035	-0.082
-303.822	-142.270	0.385	-0.038
-302.807	-200.000	-0.005	0.161
-301.793	800.000	-0.052	-0.146
-300.778	-79.651	0.255	0.086
-299.764	501.761	-0.110	-0.255
-298.749	734.723	0.044	-0.117
-297.735	800.000	0.123	0.352
-296.720	-200.000	0.031	0.170
-295.705	13.636	-0.456	0.354
-294.691	800.000	-0.055	-0.169
-293.676	88.157	-0.121	-0.134
-292.662	800.000	-0.008	0.034
-291.647	178.408	0.160	0.234
-290.632	189.895	-0.077	0.116
-289.618	-2.758	-0.227	-0.158
-288.603	-22.644	0.325	-0.196
-287.589	52.489	0.193	-0.184
-286.574	153.282	-0.107	-0.147
-285.559	-89.560	0.219	-0.064
-284.545	-24.916	0.283	0.168
-283.530	303.452	-0.016	0.029
-282.516	-52.373	-0.081	0.038
-281.501	68.511	-0.125	0.128
-280.486	-200.000	0.005	-0.075
-279.472	800.000	-0.048	0.194
-278.457	-200.000	-0.029	-0.251
-277.443	-200.000	-0.009	-0.305
-276.428	800.000	-0.153	-0.522
-275.413	-23.226	0.433	-0.260
-274.399	-102.480	0.139	0.033
-273.384	-28.822	-0.130	-0.075
-272.370	-200.000	0.032	0.280
-271.355	-43.586	0.107	0.054
-270.340	-190.863	-0.035	-0.000
-269.326	-99.014	-0.057	-0.014
-268.311	1.404	-0.196	0.141
-267.297	-200.000	0.002	0.183
-266.282	800.000	0.057	-0.193
-265.267	-136.764	-0.201	0.023
-264.253	-122.231	0.387	-0.063
-263.238	-134.130	0.151	0.019
-262.224	-180.493	-0.377	-0.008
-261.209	16.637	0.079	-0.062
-260.195	551.679	-0.060	0.143
-259.180	-166.274	0.421	-0.018
-258.165	474.945	0.008	0.019
-257.151	-200.000	0.016	-0.218
-256.136	-94.959	0.163	0.044
-255.122	800.000	-0.099	-0.344
-254.107	-88.905	-0.249	-0.074
-253.092	385.412	0.016	-0.032
-252.078	-58.819	-0.348	0.150
-251.063	-97.120	0.276	-0.072
-250.049	-200.000	0.058	-0.343
-249.034	132.033	0.153	-0.197
-248.019	-6.651	-0.112	0.076
-247.005	-46.859	-0.152	0.074
-245.990	-40.458	-0.160	0.083
-244.976	-53.882	-0.369	0.168
-243.961	-103.281	0.047	0.011
-242.946	45.509	0.287	0.264
-241.932	-200.000	-0.011	-0.338
-240.917	-200.000	-0.002	-0.133
-239.903	89.836	0.157	0.175
-238.888	249.370	-0.119	-0.201
-237.873	-102.783	0.289	0.068
-236.859	-114.726	0.311	-0.059
-235.844	-76.590	0.044	-0.016
-234.830	-116.586	-0.240	-0.044
-233.815	-200.000	-0.083	0.000
-232.800	133.524	-0.088	0.113
-231.786	113.723	-0.359	0.434
-230.771	-0.778	0.106	-0.075
-229.757	623.142	0.042	-0.105
-228.742	800.000	-0.019	-0.083
-227.727	800.000	0.063	-0.226
-226.713	-12.865	-0.022	0.014
-225.698	212.656	-0.036	-0.056
-224.684	-104.957	-0.262	0.060
-223.669	89.363	-0.207	-0.229
-222.655	369.861	-0.033	-0.067
-221.640	81.595	-0.376	0.405
-220.625	-110.584	0.308	-0.064
-219.611	101.787	-0.051	0.059
-218.596	670.440	-0.035	0.090
-217.582	720.766	0.073	-0.193
-216.567	520.043	0.078	-0.182
-215.552	-168.187	-0.036	-0.001
-214.538	-200.000	0.067	-0.471
-213.523	-1.911	0.081	-0.057
-212.509	800.000	-0.063	0.207
-211.494	174.311	0.081	-0.117
-210.479	5.190	-0.217	0.159
-209.465	-159.335	-0.283	-0.016
-208.450	-66.391	0.092	0.037
-207.436	269.599	0.132	-0.230
-206.421	-200.000	0.005	-0.121
-205.406	-200.000	0.025	-0.533
-204.392	-200.000	-0.027	-0.204
-203.377	-49.929	-0.098	0.046
-202.363	-200.000	-0.029	0.537
-201.348	308.161	-0.149	-0.277
-200.333	800.000	0.099	-0.279
-199.319	14.071	-0.200	0.155
-198.304	386.219	0.019	-0.039
-197.290	96.285	-0.119	0.136
-196.275	-121.357	-0.270	0.045
-195.260	-116.743	0.230	-0.042
-194.246	-77.035	0.293	-0.102
-193.231	59.393	0.200	0.196
-192.217	-164.623	-0.466	-0.021
-191.202	-125.228	0.344	0.052
-190.187	-0.497	0.277	-0.196
-189.173	-200.000	-0.000	-0.361
-188.158	140.431	-0.187	0.246
-187.144	685.036	0.129	0.336
-186.129	720.973	0.047	-0.125
-185.114	76.816	-0.454	-0.480
-184.100	98.192	-0.110	-0.126
-183.085	-143.565	0.134	-0.013
-182.071	800.000	-0.015	0.048
-181.056	-200.000	0.033	0.150
-180.042	-200.000	0.015	0.232
-179.027	-60.685	-0.391	-0.165
-178.012	374.968	0.201	-0.406
-176.998	82.689	-0.063	-0.068
-175.983	-92.457	0.418	-0.117
-174.969	-123.184	0.352	-0.056
-173.954	175.977	-0.249	-0.359
-172.939	-100.976	-0.384	0.094
-171.925	800.000	-0.051	0.183
-170.910	72.203	0.338	0.350
-169.896	800.000	0.146	0.423
-168.881	-135.619	-0.185	0.022
-167.866	185.090	-0.122	0.179
-166.852	-23.786	0.061	0.036
-165.837	-200.000	0.033	0.300
-164.823	-200.000	0.017	-0.200
-163.808	-200.000	-0.032	-0.329
-162.793	-49.156	0.425	-0.202
-161.779	-146.870	0.406	-0.035
-160.764	-77.373	0.322	0.111
-159.750	1.077	-0.132	0.094
-158.735	-13.346	-0.139	-0.090
-157.720	21.859	0.328	-0.266
-156.706	-69.572	0.180	0.069
-155.691	800.000	0.086	-0.262
-154.677	123.835	-0.073	-0.091
-153.662	-173.591	0.227	-0.007
-152.647	-145.706	-0.183	-0.016
-151.633	-94.859	0.226	0.061
-150.618	25.428	0.162	-0.134
-149.604	178.176	-0.204	-0.295
-148.589	-96.294	0.291	0.077
-147.574	76.164	-0.199	-0.210
-146.560	182.543	-0.108	0.159
-145.545	73.414	-0.020	-0.020
-144.531	-35.004	-0.141	-0.077
-143.516	800.000	0.057	-0.204
-142.502	-200.000	0.002	0.282
-141.487	163.706	0.104	-0.145
-140.472	-9.839	0.068	-0.045
-139.458	-105.747	0.285	-0.064
-138.443	38.274	0.339	-0.300
-137.429	-112.457	-0.252	0.050
-136.414	226.856	0.170	-0.275
-135.399	-76.288	0.275	0.096
-134.385	-78.571	-0.167	0.057
-133.370	257.912	-0.169	-0.288
-132.356	-200.000	0.013	-0.259
-131.341	-152.735	0.213	-0.015
-130.326	-22.549	0.029	-0.017
-129.312	210.659	0.174	0.271
-128.297	-200.000	0.063	-0.291
-127.283	-82.190	0.319	0.103
-126.268	-22.386	0.137	-0.083
-125.253	-142.005	-0.322	-0.032
-124.239	492.028	-0.068	-0.155
-123.224	-48.556	0.173	0.082
-122.210	50.360	-0.153	0.143
-121.195	-21.506	-0.213	0.129
