DTS Sentinel unit serial number:	SN413079Multiplexer serial number:	ORYXHardware model number:	OX4-SRSoftware version number:	ORYX F/W v4.00 Oryx Data Collector v3.7.2.0data status	okinstallation	princeton_trtdifferential loss correction	single-endedforward channel	channel 2reverse channel	N/Adate	2019/09/19time	00:31:35forward acquisition time	60.00reverse acquisition time	0.00gamma	496.2192k internal	0.2353k external	0.2353temperature offset calibration	1.0017default loss term (dB/km)	0.3790temperature slope calibration	1.0000multiplexer offset coefficient	1.0000multiplexer slope coefficient	1.0000fibre end	0.00T internal ref (°C)	22.44T ext. ref 1 (°C)	0.74T ext. ref 2 (°C)	15.37length (m)	temperature (°C)	Stokes	anti-Stokes-747.200	80.710	0.086	-0.092
-746.185	-3.146	-0.341	-0.237
-745.171	-20.231	0.310	-0.191
-744.156	21.352	0.029	0.023
-743.142	-148.323	-0.284	0.023
-742.127	-200.000	0.029	0.391
-741.112	-200.000	-0.027	-0.434
-740.098	800.000	-0.047	-0.135
-739.083	800.000	-0.037	0.156
-738.069	-47.258	-0.214	-0.104
-737.054	94.742	-0.100	-0.114
-736.039	124.954	-0.185	-0.233
-735.025	-130.301	-0.117	0.016
-734.010	711.616	-0.054	-0.141
-732.996	800.000	-0.175	-0.578
-731.981	679.500	0.026	0.069
-730.966	399.678	-0.020	-0.041
-729.952	800.000	-0.037	0.124
-728.937	308.260	0.099	-0.185
-727.923	302.952	0.157	-0.290
-726.908	152.690	-0.351	0.478
-725.894	76.579	0.248	-0.262
-724.879	218.892	-0.217	-0.346
-723.864	485.960	-0.122	-0.276
-722.850	31.878	-0.196	-0.168
-721.835	178.229	0.128	-0.186
-720.821	-200.000	-0.019	-0.252
-719.806	672.223	0.156	-0.403
-718.791	39.406	-0.174	0.155
-717.777	51.592	-0.063	-0.060
-716.762	-56.061	0.062	0.028
-715.748	78.254	-0.083	-0.088
-714.733	70.163	-0.314	-0.323
-713.718	-94.397	0.028	-0.008
-712.704	-129.667	-0.194	0.027
-711.689	72.497	0.211	-0.219
-710.675	197.797	-0.178	0.270
-709.660	9.691	0.417	0.315
-708.645	-150.136	-0.207	0.016
-707.631	-132.487	0.236	0.030
-706.616	-40.838	0.090	0.046
-705.602	56.518	0.194	-0.188
-704.587	94.113	0.022	0.025
-703.572	-200.000	-0.023	-0.337
-702.558	-86.867	0.329	0.100
-701.543	149.486	0.155	0.209
-700.529	165.771	-0.070	-0.099
-699.514	-37.441	0.264	-0.140
-698.499	-150.815	0.155	-0.012
-697.485	-200.000	0.004	-0.151
-696.470	206.396	0.106	0.164
-695.456	-166.949	-0.135	-0.005
-694.441	-132.155	0.259	-0.034
-693.426	-200.000	0.032	0.169
-692.412	-11.449	0.132	-0.087
-691.397	102.188	-0.178	-0.206
-690.383	800.000	0.062	-0.212
-689.368	-200.000	-0.022	-0.148
-688.354	-54.505	-0.054	-0.024
-687.339	623.854	0.059	-0.147
-686.324	48.939	0.136	-0.127
-685.310	-146.632	0.149	0.013
-684.295	14.250	0.195	0.151
-683.281	-200.000	0.005	-0.135
-682.266	-170.675	0.306	0.011
-681.251	800.000	0.045	-0.157
-680.237	800.000	0.072	-0.217
-679.222	256.950	0.092	-0.157
-678.208	-165.561	-0.250	-0.011
-677.193	165.614	-0.055	0.078
-676.178	800.000	-0.038	0.108
-675.164	147.831	-0.160	-0.215
-674.149	69.413	0.091	-0.093
-673.135	449.535	0.099	-0.218
-672.120	757.798	0.184	-0.496
-671.105	-110.582	0.217	-0.045
-670.091	223.846	-0.155	0.249
-669.076	800.000	0.029	0.090
-668.062	247.591	-0.059	-0.100
-667.047	-200.000	0.404	-0.001
-666.032	167.089	-0.100	-0.141
-665.018	795.805	-0.059	-0.162
-664.003	800.000	0.046	0.185
-662.989	68.134	-0.248	-0.253
-661.974	-43.856	-0.103	-0.052
-660.959	-24.716	0.145	-0.086
-659.945	-120.239	0.232	-0.039
-658.930	-165.326	0.177	-0.008
-657.916	-72.980	-0.403	-0.147
-656.901	-61.404	-0.312	-0.130
-655.886	800.000	-0.076	0.228
-654.872	-158.220	-0.128	0.007
-653.857	-200.000	-0.049	0.274
-652.843	-200.000	0.001	-0.232
-651.828	-57.242	0.179	0.078
-650.814	63.813	0.127	-0.127
-649.799	-80.820	-0.067	-0.022
-648.784	712.509	0.089	0.234
-647.770	-137.299	0.469	-0.053
-646.755	193.968	0.089	0.135
-645.741	80.362	-0.206	-0.220
-644.726	-200.000	0.004	0.204
-643.711	-180.904	0.170	-0.003
-642.697	-141.755	0.314	-0.031
-641.682	635.661	-0.111	0.279
-640.668	12.369	-0.074	-0.056
-639.653	-200.000	0.026	-0.378
-638.638	176.524	0.055	-0.080
-637.624	-77.450	-0.149	-0.051
-636.609	-101.886	-0.289	0.069
-635.595	43.761	-0.174	0.158
-634.580	30.412	0.130	0.110
-633.565	-59.135	0.285	0.122
-632.551	-200.000	-0.008	-0.127
-631.536	38.775	0.209	0.186
-630.522	799.106	0.029	-0.078
-629.507	-52.548	-0.107	-0.049
-628.492	-95.790	0.257	-0.068
-627.478	86.455	-0.218	0.238
-626.463	0.915	-0.305	0.217
-625.449	118.901	0.100	-0.123
-624.434	-200.000	-0.050	-0.265
-623.419	310.319	0.035	-0.066
-622.405	622.405	0.137	0.341
-621.390	161.046	-0.154	0.214
-620.376	-200.000	-0.016	-0.342
-619.361	-200.000	-0.008	-0.333
-618.346	74.896	0.196	0.205
-617.332	800.000	0.080	0.247
-616.317	373.865	-0.123	-0.249
-615.303	639.140	-0.079	-0.199
-614.288	-41.336	-0.342	-0.175
-613.273	-141.754	-0.507	0.050
-612.259	53.675	-0.142	-0.135
-611.244	-31.235	0.165	0.092
-610.230	276.305	0.164	0.288
-609.215	-3.301	0.132	-0.091
-608.201	122.322	0.087	-0.108
-607.186	80.542	-0.057	-0.061
-606.171	142.613	0.155	-0.204
-605.157	-44.776	-0.135	0.067
-604.142	241.418	-0.087	-0.144
-603.128	-141.247	-0.455	0.046
-602.113	0.557	-0.118	-0.084
-601.098	-11.454	0.096	0.062
-600.084	800.000	0.031	0.086
-599.069	-79.917	-0.150	0.050
-598.055	-6.048	0.045	-0.031
-597.040	12.087	0.020	0.015
-596.025	61.404	-0.172	0.170
-595.011	-15.825	-0.452	0.285
-593.996	179.733	0.221	0.321
-592.982	137.565	-0.224	0.291
-591.967	14.926	-0.295	-0.229
-590.952	-129.915	-0.464	-0.063
-589.938	-200.000	-0.003	-0.267
-588.923	-92.676	0.087	0.024
-587.909	-200.000	0.028	-0.268
-586.894	30.386	0.094	0.080
-585.879	-133.270	0.321	-0.040
-584.865	-148.369	-0.262	0.021
-583.850	3.769	-0.199	0.144
-582.836	-165.123	-0.095	0.004
-581.821	705.838	0.026	-0.067
-580.806	800.000	0.056	0.156
-579.792	-200.000	0.038	-0.250
-578.777	72.677	0.007	0.007
-577.763	-154.556	0.188	0.012
-576.748	-92.945	0.187	0.052
-575.733	103.812	-0.018	0.020
-574.719	-200.000	-0.011	0.104
-573.704	-200.000	-0.026	0.155
-572.690	527.640	0.138	0.323
-571.675	-38.858	-0.329	-0.172
-570.661	531.974	-0.076	0.177
-569.646	-200.000	-0.009	0.063
-568.631	670.182	-0.078	-0.201
-567.617	-159.530	-0.237	-0.013
-566.602	-200.000	0.022	-0.171
-565.588	31.371	0.219	0.186
-564.573	276.362	0.078	0.137
-563.558	-13.984	0.036	-0.023
-562.544	-20.246	-0.145	-0.088
-561.529	-200.000	0.013	0.059
-560.515	-84.135	-0.256	0.081
-559.500	-70.922	0.287	-0.107
-558.485	-154.624	-0.245	-0.016
-557.471	-110.807	0.228	0.047
-556.456	71.697	-0.126	0.130
-555.442	800.000	0.045	-0.141
-554.427	15.409	-0.012	0.009
-553.412	20.272	-0.130	-0.104
-552.398	-19.751	-0.157	-0.096
-551.383	74.057	0.079	0.082
-550.369	-200.000	0.019	0.247
-549.354	-30.242	-0.128	0.072
-548.339	-200.000	0.070	-0.330
-547.325	275.969	0.122	-0.214
-546.310	-79.924	0.015	0.005
-545.296	90.577	0.075	0.083
-544.281	33.045	0.149	-0.128
-543.266	80.273	0.226	0.240
-542.252	-22.633	-0.046	-0.028
-541.237	-115.663	0.444	0.082
-540.223	505.401	-0.043	0.098
-539.208	160.103	-0.112	-0.154
-538.193	443.044	0.086	0.186
-537.179	18.270	0.193	-0.152
-536.164	27.018	0.099	-0.082
-535.150	170.170	0.076	0.108
-534.135	156.285	0.043	-0.059
-533.121	186.319	-0.216	-0.318
-532.106	-98.488	0.099	0.025
-531.091	12.407	-0.230	0.175
-530.077	123.700	-0.040	0.049
-529.062	-200.000	-0.066	0.334
-528.048	-35.785	-0.297	0.159
-527.033	-200.000	-0.025	0.316
-526.018	302.144	-0.131	0.239
-525.004	308.380	-0.097	0.179
-523.989	800.000	-0.035	0.138
-522.975	12.846	-0.206	0.157
-521.960	800.000	0.078	0.252
-520.945	143.821	0.175	-0.231
-519.931	1.174	-0.360	-0.255
-518.916	113.304	-0.159	0.190
-517.902	-125.924	0.251	-0.037
-516.887	67.175	0.146	-0.147
-515.872	-92.717	0.094	0.026
-514.858	-200.000	0.001	-0.340
-513.843	-107.090	0.256	0.056
-512.829	292.369	-0.146	0.263
-511.814	597.928	-0.081	-0.198
-510.799	-200.000	0.020	-0.264
-509.785	12.498	-0.194	-0.148
-508.770	15.577	-0.037	-0.029
-507.756	-89.137	-0.459	-0.134
-506.741	-101.883	-0.031	-0.007
-505.726	-34.425	0.238	-0.129
-504.712	679.481	0.049	0.125
-503.697	106.862	0.018	0.021
-502.683	-82.573	-0.479	0.153
-501.668	-90.481	0.095	-0.027
-500.653	107.260	-0.212	-0.249
-499.639	800.000	-0.051	-0.157
-498.624	16.831	-0.098	-0.076
-497.610	-53.265	-0.203	-0.092
-496.595	-97.449	-0.415	-0.107
-495.581	-200.000	-0.033	0.210
-494.566	-200.000	-0.079	0.472
-493.551	710.109	0.013	-0.034
-492.537	385.933	0.110	-0.225
-491.522	-49.166	0.161	-0.076
-490.508	110.030	-0.256	-0.304
-489.493	118.181	0.094	0.114
-488.478	570.558	-0.028	0.067
-487.464	-25.736	0.189	0.110
-486.449	-135.170	0.088	-0.010
-485.435	42.717	-0.101	-0.091
-484.420	39.765	0.252	-0.223
-483.405	61.754	0.237	0.233
-482.391	-97.392	-0.233	-0.060
-481.376	-126.848	-0.461	-0.067
-480.362	608.611	0.072	0.177
-479.347	-33.184	0.177	0.097
-478.332	-81.632	0.388	0.126
-477.318	-23.272	-0.124	-0.074
-476.303	-66.383	0.045	-0.018
-475.289	-200.000	-0.013	-0.085
-474.274	23.960	-0.160	-0.130
-473.259	347.748	-0.245	0.476
-472.245	-139.293	0.225	-0.024
-471.230	-73.320	-0.058	-0.021
-470.216	376.349	-0.097	0.195
-469.201	211.463	-0.114	-0.178
-468.186	603.449	0.114	0.279
-467.172	-126.450	-0.205	-0.030
-466.157	-139.942	-0.201	-0.021
-465.143	357.810	0.112	-0.221
-464.128	7.814	0.038	-0.028
-463.113	248.364	-0.134	-0.224
-462.099	157.020	0.128	-0.175
-461.084	-68.583	0.100	0.038
-460.070	800.000	-0.066	0.253
-459.055	76.155	-0.120	0.125
-458.040	297.171	0.086	-0.155
-457.026	55.534	0.257	-0.245
-456.011	-200.000	-0.017	-0.190
-454.997	-200.000	-0.006	0.099
-453.982	156.584	-0.084	-0.115
-452.968	-146.184	0.428	0.037
-451.953	84.564	-0.236	-0.254
-450.938	-28.063	0.216	-0.123
-449.924	111.291	0.055	0.065
-448.909	-200.000	0.388	0.000
-447.895	63.424	0.138	-0.136
-446.880	800.000	0.026	-0.094
-445.865	-200.000	0.005	-0.150
-444.851	43.117	0.098	-0.088
-443.836	-160.214	0.378	0.020
-442.822	-98.398	-0.334	0.084
-441.807	-53.363	0.059	-0.027
-440.792	-172.038	0.056	-0.002
-439.778	800.000	0.036	-0.107
-438.763	-200.000	-0.003	-0.104
-437.749	260.671	0.092	0.156
-436.734	-41.903	0.156	-0.079
-435.719	617.726	-0.169	0.418
-434.705	-200.000	0.035	0.322
-433.690	30.963	0.291	0.246
-432.676	-131.931	-0.141	-0.018
-431.661	-200.000	0.033	-0.148
-430.646	256.966	-0.059	0.101
-429.632	18.593	0.131	0.103
-428.617	49.970	-0.096	-0.089
-427.603	612.388	0.088	0.217
-426.588	136.481	0.111	0.143
-425.573	-101.888	0.197	0.047
-424.559	-118.233	0.111	0.019
-423.544	351.529	0.097	0.190
-422.530	-26.419	0.091	-0.053
-421.515	236.948	0.057	0.094
-420.500	-59.314	-0.111	-0.047
-419.486	22.904	-0.083	-0.067
-418.471	-167.196	-0.282	-0.011
-417.457	-200.000	-0.066	0.315
-416.442	-101.675	-0.021	0.005
-415.428	-41.490	0.097	0.049
-414.413	2.129	-0.179	0.127
-413.398	-77.091	0.107	0.037
-412.384	-89.142	0.293	0.085
-411.369	-200.000	0.019	0.187
-410.355	243.999	0.133	-0.220
-409.340	-200.000	-0.013	0.339
-408.325	150.500	0.111	0.148
-407.311	256.626	0.107	0.180
-406.296	-46.340	-0.193	-0.094
-405.282	-77.240	-0.396	0.136
-404.267	-38.689	0.439	0.228
-403.252	161.890	0.228	-0.314
-402.238	-24.050	-0.150	-0.088
-401.223	-51.862	0.115	-0.053
-400.209	-179.557	0.111	0.002
-399.194	108.095	-0.129	0.151
-398.179	-200.000	-0.020	-0.202
-397.165	705.639	0.085	-0.222
-396.150	800.000	-0.135	-0.380
-395.136	-88.719	-0.315	0.092
-394.121	482.120	0.093	0.208
-393.106	205.325	-0.073	0.111
-392.092	11.468	0.282	0.212
-391.077	-54.389	-0.264	0.118
-390.063	-178.147	0.204	-0.005
-389.048	-78.396	-0.198	0.067
-388.033	-200.000	-0.008	0.367
-387.019	-200.000	0.002	0.014
-386.004	-200.000	0.040	-0.175
-384.990	-200.000	-0.053	-0.379
-383.975	-200.000	0.002	-0.262
-382.960	-200.000	-0.025	-0.178
-381.946	-200.000	-0.034	0.158
-380.931	800.000	-0.040	-0.112
-379.917	219.352	0.077	0.122
-378.902	-67.787	-0.331	-0.127
-377.888	16.391	-0.303	-0.235
-376.873	7.885	-0.147	-0.109
-375.858	-51.289	-0.155	-0.071
-374.844	800.000	0.149	0.531
-373.829	-5.428	0.237	-0.160
-372.815	-102.785	0.079	-0.019
-371.800	-200.000	-0.030	0.543
-370.785	-82.692	-0.148	0.047
-369.771	-200.000	0.021	-0.227
-368.756	54.496	0.068	0.065
-367.742	-94.561	-0.101	0.027
-366.727	-145.312	0.364	-0.032
-365.712	-135.264	-0.113	0.013
-364.698	33.218	0.157	-0.134
-363.683	14.214	0.166	0.127
-362.669	360.830	-0.148	-0.292
-361.654	-169.911	0.295	-0.010
-360.639	96.051	0.101	0.113
-359.625	800.000	-0.061	-0.233
-358.610	800.000	0.061	-0.261
-357.596	244.234	-0.077	-0.128
-356.581	85.879	-0.062	0.067
-355.566	-43.921	0.276	-0.136
-354.552	561.376	0.104	0.247
-353.537	137.468	0.115	-0.147
-352.523	74.862	-0.320	0.331
-351.508	-200.000	0.014	-0.303
-350.493	-8.524	0.363	0.239
-349.479	800.000	-0.016	-0.066
-348.464	800.000	0.076	-0.218
-347.450	651.665	0.094	-0.236
-346.435	-53.611	0.189	0.085
-345.420	257.505	0.173	-0.292
-344.406	176.589	0.127	0.181
-343.391	-155.354	0.284	-0.018
-342.377	464.277	-0.133	0.291
-341.362	94.893	0.072	-0.080
-340.348	800.000	-0.112	-0.306
-339.333	100.295	-0.106	-0.121
-338.318	-200.000	-0.001	-0.103
-337.304	262.540	-0.072	-0.123
-336.289	-90.374	-0.209	-0.059
-335.275	65.790	-0.100	-0.099
-334.260	168.718	-0.180	-0.252
-333.245	-192.310	-0.256	0.002
-332.231	-135.965	0.105	-0.012
-331.216	-8.754	-0.182	-0.120
-330.202	-200.000	-0.050	0.229
-329.187	272.712	-0.091	0.157
-328.172	800.000	-0.044	-0.127
-327.158	81.272	0.212	0.225
-326.143	-152.720	-0.274	0.019
-325.129	-21.090	0.253	0.152
-324.114	-200.000	0.027	-0.246
-323.099	153.285	-0.102	0.137
-322.085	43.839	-0.046	-0.041
-321.070	-112.425	-0.112	-0.022
-320.056	6.281	-0.061	-0.044
-319.041	6.004	-0.118	-0.086
-318.026	299.160	0.035	0.063
-317.012	-100.387	-0.235	-0.057
-315.997	188.437	-0.070	0.103
-314.983	-200.000	0.002	0.035
-313.968	5.754	-0.132	-0.096
-312.953	800.000	-0.038	-0.141
-311.939	-121.502	0.177	0.029
-310.924	272.621	-0.151	-0.262
-309.910	-12.459	-0.302	-0.193
-308.895	-42.002	0.353	-0.177
-307.880	-200.000	-0.023	0.261
-306.866	-200.000	-0.032	0.300
-305.851	-200.000	0.022	-0.144
-304.837	-132.842	0.107	-0.013
-303.822	158.060	0.147	0.200
-302.807	-112.624	-0.162	0.032
-301.793	106.307	0.107	-0.124
-300.778	800.000	-0.059	-0.184
-299.764	-200.000	0.049	-0.267
-298.749	-200.000	0.019	-0.140
-297.735	411.015	0.073	0.152
-296.720	-156.259	-0.065	0.004
-295.705	-17.795	0.168	-0.103
-294.691	-200.000	0.022	-0.093
-293.676	800.000	0.045	0.146
-292.662	-172.229	0.203	-0.006
-291.647	47.183	0.248	0.227
-290.632	71.195	-0.189	-0.192
-289.618	-111.222	-0.299	-0.060
-288.603	-200.000	0.049	-0.234
-287.589	800.000	-0.012	0.043
-286.574	53.504	0.030	0.028
-285.559	-153.625	-0.099	0.007
-284.545	-105.136	-0.074	0.017
-283.530	-92.270	-0.365	0.101
-282.516	488.862	0.127	-0.285
-281.501	-6.609	0.250	0.166
-280.486	45.867	-0.078	0.071
-279.472	-78.624	0.265	0.089
-278.457	380.228	-0.113	-0.227
-277.443	333.657	-0.014	-0.027
-276.428	13.967	0.226	-0.172
-275.413	199.217	0.110	-0.164
-274.399	57.200	-0.084	0.081
-273.384	-106.073	0.050	-0.011
-272.370	98.376	0.082	0.092
-271.355	150.100	0.103	0.137
-270.340	-200.000	0.028	0.167
-269.326	-128.410	0.101	0.014
-268.311	-56.008	-0.241	-0.105
-267.297	604.113	0.065	-0.158
-266.282	-148.356	0.131	0.011
-265.267	203.789	-0.135	-0.205
-264.253	800.000	0.072	-0.196
-263.238	-28.551	0.164	-0.093
-262.224	-14.534	-0.180	-0.113
-261.209	-162.358	0.058	-0.003
-260.195	-109.479	-0.340	0.070
-259.180	-200.000	-0.031	0.186
-258.165	62.490	-0.148	0.145
-257.151	85.635	-0.399	0.429
-256.136	3.118	-0.245	-0.175
-255.122	373.682	0.075	-0.150
-254.107	-86.858	0.102	0.030
-253.092	-17.354	-0.133	-0.082
-252.078	456.536	-0.020	0.043
-251.063	-129.913	-0.246	-0.033
-250.049	-2.666	0.188	0.129
-249.034	800.000	-0.050	-0.167
-248.019	-63.221	0.142	-0.057
-247.005	-51.531	0.293	-0.134
-245.990	455.746	-0.040	-0.087
-244.976	769.763	-0.075	-0.198
-243.961	-41.329	-0.122	-0.061
-242.946	249.209	0.131	0.217
-241.932	-85.941	0.262	0.079
-240.917	-167.481	-0.201	0.008
-239.903	-87.935	0.058	-0.017
-238.888	35.333	0.091	-0.078
-237.873	-18.666	-0.173	0.105
-236.859	164.738	0.263	0.362
-235.844	165.609	-0.144	0.199
-234.830	597.755	0.035	-0.084
-233.815	-114.888	0.307	-0.057
-232.800	432.452	-0.072	-0.152
-231.786	204.664	0.171	0.260
-230.771	-114.369	-0.217	0.041
-229.757	94.743	-0.171	-0.190
-228.742	-132.357	-0.075	-0.009
-227.727	-114.696	-0.198	0.037
-226.713	-148.545	-0.331	-0.026
-225.698	240.038	0.127	0.206
-224.684	113.760	0.153	0.182
-223.669	-77.290	0.378	0.128
-222.655	-53.571	0.508	-0.227
-221.640	61.682	-0.187	-0.182
-220.625	113.448	-0.237	-0.281
-219.611	448.451	-0.082	0.176
-218.596	-200.000	0.049	-0.418
-217.582	-28.233	0.145	0.082
-216.567	-52.736	-0.199	0.090
-215.552	-96.123	0.256	-0.066
-214.538	800.000	-0.114	-0.315
-213.523	-89.283	0.326	0.094
-212.509	-123.427	0.186	-0.029
-211.494	315.396	-0.025	-0.045
-210.479	43.651	0.170	-0.152
-209.465	-113.152	0.261	0.050
-208.450	168.929	-0.272	-0.378
-207.436	366.162	0.118	-0.233
-206.421	96.431	0.156	-0.175
-205.406	-200.000	0.008	0.052
-204.392	408.375	-0.054	-0.112
-203.377	-67.012	-0.158	-0.061
-202.363	-200.000	-0.016	0.238
-201.348	49.478	-0.144	-0.132
-200.333	-153.537	-0.231	-0.016
-199.319	-3.745	-0.192	0.130
-198.304	-93.533	0.098	-0.026
-197.290	124.057	-0.115	0.141
-196.275	800.000	-0.068	0.260
-195.260	257.453	0.086	-0.145
-194.246	231.105	-0.126	0.201
-193.231	83.073	0.143	0.152
-192.217	-72.339	0.365	0.132
-191.202	-159.484	-0.227	0.012
-190.187	479.983	-0.069	0.153
-189.173	402.648	-0.045	-0.093
-188.158	297.146	-0.055	-0.098
-187.144	-115.151	0.281	-0.052
-186.129	312.468	-0.052	-0.096
-185.114	767.105	-0.038	0.102
-184.100	-73.831	0.411	0.146
-183.085	-200.000	0.012	0.055
-182.071	-58.677	-0.402	0.170
-181.056	6.909	-0.189	0.137
-180.042	35.118	-0.334	0.285
-179.027	800.000	0.083	0.293
-178.012	26.888	0.291	-0.238
-176.998	-45.640	0.584	0.282
-175.983	-200.000	0.044	0.210
-174.969	-24.096	0.302	0.176
-173.954	-17.078	-0.228	0.140
-172.939	-3.120	0.100	0.068
-171.925	-98.305	-0.088	0.022
-170.910	189.430	0.070	0.102
-169.896	25.336	-0.241	-0.195
-168.881	-24.895	0.271	-0.157
-167.866	-17.124	0.232	0.143
-166.852	11.883	-0.104	0.078
-165.837	583.562	-0.130	-0.311
-164.823	-115.388	-0.086	-0.016
-163.808	10.094	-0.171	-0.127
-162.793	11.471	0.255	0.191
-161.779	118.826	0.201	0.242
-160.764	-200.000	0.023	-0.127
-159.750	235.818	0.131	0.211
-158.735	-50.449	0.099	-0.046
-157.720	-200.000	-0.001	-0.408
-156.706	179.404	-0.148	-0.211
-155.691	-141.864	0.271	-0.026
-154.677	-12.766	-0.209	0.133
-153.662	-120.341	0.154	-0.026
-152.647	611.785	0.021	0.051
-151.633	58.672	0.029	-0.028
-150.618	-82.038	-0.034	0.011
-149.604	-42.623	-0.252	0.125
-148.589	-50.021	0.199	-0.092
-147.574	-200.000	-0.007	-0.079
-146.560	176.660	0.060	-0.085
-145.545	800.000	0.028	-0.088
-144.531	86.047	0.135	0.145
-143.516	183.182	0.081	-0.117
-142.502	155.953	0.182	0.245
-141.487	135.455	0.033	-0.041
-140.472	800.000	0.047	0.194
-139.458	-33.930	-0.095	0.051
-138.443	-155.952	0.273	-0.017
-137.429	800.000	0.058	0.187
-136.414	213.137	-0.142	0.218
-135.399	392.013	-0.019	-0.038
-134.385	-200.000	-0.060	0.305
-133.370	191.323	0.135	-0.198
-132.356	434.200	-0.130	-0.274
-131.341	296.443	0.199	0.356
-130.326	95.244	0.108	0.120
-129.312	-157.108	0.220	-0.013
-128.297	-63.318	0.354	0.142
-127.283	18.593	-0.203	0.158
-126.268	-170.538	0.469	0.016
-125.253	-9.801	0.127	-0.082
-124.239	-136.972	0.204	0.023
-123.224	164.155	0.045	0.061
-122.210	-200.000	0.020	0.197
-121.195	243.351	-0.079	0.128
-120.180	-200.000	0.018	-0.145
