DTS Sentinel unit serial number:	SN413079Multiplexer serial number:	ORYXHardware model number:	OX4-SRSoftware version number:	ORYX F/W v4.00 Oryx Data Collector v3.7.2.0data status	okinstallation	princeton_trtdifferential loss correction	single-endedforward channel	channel 2reverse channel	N/Adate	2019/09/13time	07:27:34forward acquisition time	60.00reverse acquisition time	0.00gamma	496.2192k internal	0.2337k external	0.2337temperature offset calibration	1.0196default loss term (dB/km)	0.3790temperature slope calibration	1.0000multiplexer offset coefficient	1.0000multiplexer slope coefficient	1.0000fibre end	0.00T internal ref (°C)	26.17T ext. ref 1 (°C)	4.19T ext. ref 2 (°C)	21.91length (m)	temperature (°C)	Stokes	anti-Stokes-747.200	121.561	0.090	0.113
-746.185	-127.260	0.345	0.051
-745.171	713.630	0.118	0.313
-744.156	-159.869	-0.409	0.023
-743.142	40.947	0.285	-0.258
-742.127	-200.000	-0.052	0.321
-741.112	61.474	-0.148	-0.148
-740.098	800.000	-0.107	0.299
-739.083	-200.000	0.026	0.155
-738.069	800.000	-0.113	0.356
-737.054	82.386	0.277	-0.302
-736.039	-39.435	-0.527	0.277
-735.025	179.273	0.072	-0.106
-734.010	-200.000	0.024	-0.360
-732.996	800.000	0.035	-0.138
-731.981	-200.000	-0.002	0.116
-730.966	34.016	0.029	0.025
-729.952	-200.000	-0.031	-0.248
-728.937	146.991	-0.111	-0.150
-727.923	46.586	-0.360	-0.335
-726.908	800.000	-0.029	-0.092
-725.894	800.000	-0.014	0.054
-724.879	-200.000	-0.009	-0.059
-723.864	132.710	-0.097	-0.125
-722.850	490.074	0.057	0.130
-721.835	-96.863	-0.384	-0.101
-720.821	-200.000	0.002	0.192
-719.806	108.027	0.079	0.095
-718.791	800.000	0.071	-0.264
-717.777	290.001	-0.133	-0.243
-716.762	166.553	0.059	0.084
-715.748	-0.763	0.195	-0.139
-714.733	-5.078	-0.223	0.154
-713.718	240.628	-0.090	-0.151
-712.704	-99.473	0.163	-0.041
-711.689	177.517	-0.243	-0.355
-710.675	75.495	0.217	0.229
-709.660	-46.361	0.207	-0.102
-708.645	-200.000	0.007	0.140
-707.631	-14.779	0.215	0.138
-706.616	-87.392	-0.138	-0.042
-705.602	67.605	-0.182	-0.186
-704.587	761.631	0.112	-0.304
-703.572	-44.910	0.198	-0.099
-702.558	-119.238	-0.110	-0.019
-701.543	-200.000	-0.012	0.062
-700.529	-144.813	0.171	0.016
-699.514	-9.160	0.351	-0.235
-698.499	800.000	-0.045	-0.161
-697.485	8.497	-0.173	-0.130
-696.470	28.041	0.142	-0.120
-695.456	-125.084	0.157	-0.024
-694.441	232.559	0.086	-0.141
-693.426	800.000	-0.022	-0.081
-692.412	-5.692	-0.133	0.092
-691.397	666.392	0.131	-0.338
-690.383	-47.845	-0.151	0.073
-689.368	244.400	0.109	0.183
-688.354	-101.167	-0.206	-0.050
-687.339	-128.125	0.358	0.051
-686.324	-105.153	-0.480	-0.110
-685.310	6.539	-0.195	-0.145
-684.295	123.980	0.079	-0.099
-683.281	-124.570	0.048	0.007
-682.266	40.923	0.155	-0.140
-681.251	-23.823	-0.220	0.132
-680.237	236.109	-0.162	0.269
-679.222	800.000	-0.047	0.137
-678.208	-200.000	-0.011	0.051
-677.193	-200.000	0.006	-0.218
-676.178	71.438	0.231	0.240
-675.164	54.150	-0.176	0.170
-674.149	-200.000	0.040	-0.183
-673.135	-47.999	0.054	0.026
-672.120	-139.474	-0.168	-0.018
-671.105	-45.274	-0.194	-0.097
-670.091	-58.352	-0.287	-0.125
-669.076	7.455	-0.086	-0.064
-668.062	-200.000	-0.008	-0.053
-667.047	42.557	-0.342	0.312
-666.032	-93.541	0.177	-0.049
-665.018	-200.000	-0.019	-0.286
-664.003	700.817	-0.148	0.391
-662.989	58.582	0.123	0.121
-661.974	-200.000	0.001	0.103
-660.959	305.704	-0.102	-0.191
-659.945	-27.215	0.084	-0.049
-658.930	-200.000	-0.026	-0.156
-657.916	124.751	0.185	-0.233
-656.901	-8.693	-0.174	-0.117
-655.886	120.175	0.154	-0.191
-654.872	-200.000	0.000	-0.132
-653.857	126.743	-0.033	0.042
-652.843	-88.584	-0.176	0.052
-651.828	54.875	0.122	-0.117
-650.814	69.394	-0.177	0.183
-649.799	161.225	-0.224	-0.314
-648.784	-126.764	-0.243	-0.036
-647.770	104.915	-0.166	0.196
-646.755	362.502	0.060	-0.121
-645.741	104.420	0.180	-0.212
-644.726	-24.914	-0.093	-0.055
-643.711	800.000	0.037	0.147
-642.697	-10.757	0.400	0.265
-641.682	483.832	0.066	-0.149
-640.668	28.499	-0.108	0.091
-639.653	41.111	-0.149	0.134
-638.638	219.367	-0.287	0.459
-637.624	191.801	-0.070	0.105
-636.609	-200.000	0.050	0.245
-635.595	800.000	-0.054	0.218
-634.580	-66.028	0.254	-0.101
-633.565	45.847	-0.125	-0.116
-632.551	-154.714	0.302	0.020
-631.536	431.400	-0.171	-0.370
-630.522	332.837	0.116	-0.224
-629.507	-62.242	-0.055	0.023
-628.492	512.886	-0.117	-0.273
-627.478	304.374	-0.072	0.134
-626.463	-78.748	-0.073	0.025
-625.449	30.326	0.203	0.173
-624.434	-128.648	0.191	-0.027
-623.419	57.013	0.077	0.075
-622.405	-58.120	0.143	0.062
-621.390	-200.000	-0.094	-0.436
-620.376	800.000	0.092	-0.267
-619.361	15.464	-0.394	-0.309
-618.346	379.534	-0.069	-0.142
-617.332	-200.000	0.017	0.194
-616.317	-6.877	-0.115	-0.078
-615.303	800.000	-0.074	-0.247
-614.288	-94.076	-0.438	0.120
-613.273	-200.000	-0.024	-0.116
-612.259	-63.500	-0.176	-0.072
-611.244	350.636	0.123	-0.243
-610.230	467.293	0.091	-0.204
-609.215	93.019	0.049	-0.056
-608.201	174.022	-0.050	0.072
-607.186	-122.528	-0.326	-0.053
-606.171	-200.000	-0.013	0.178
-605.157	29.029	0.220	0.187
-604.142	217.413	0.028	-0.045
-603.128	78.496	-0.065	-0.070
-602.113	-31.495	-0.233	0.131
-601.098	-200.000	-0.006	-0.264
-600.084	-77.309	0.259	-0.090
-599.069	-146.138	-0.231	-0.020
-598.055	-200.000	0.010	-0.101
-597.040	5.198	-0.092	0.068
-596.025	-200.000	-0.061	-0.301
-595.011	-157.745	-0.230	-0.014
-593.996	-156.725	-0.070	0.004
-592.982	-30.120	0.080	0.046
-591.967	-199.268	-0.280	-0.001
-590.952	-75.766	-0.071	-0.025
-589.938	304.089	0.118	-0.219
-588.923	221.551	-0.160	-0.256
-587.909	-89.955	0.231	0.067
-586.894	800.000	-0.032	-0.119
-585.879	102.072	-0.048	0.056
-584.865	73.064	0.159	-0.166
-583.850	462.653	-0.063	0.139
-582.836	61.607	0.086	-0.085
-581.821	800.000	0.015	-0.060
-580.806	-50.303	-0.316	0.149
-579.792	44.552	-0.135	-0.124
-578.777	800.000	-0.058	-0.240
-577.763	-73.118	0.071	-0.026
-576.748	320.550	0.088	-0.167
-575.733	-150.951	0.189	0.014
-574.719	471.736	0.031	0.070
-573.704	56.789	0.157	0.152
-572.690	-70.313	0.372	-0.141
-571.675	-200.000	-0.003	0.016
-570.661	-200.000	0.050	0.513
-569.646	-200.000	0.009	0.125
-568.631	-200.000	-0.005	0.113
-567.617	21.586	-0.119	-0.097
-566.602	283.884	-0.124	-0.222
-565.588	-200.000	0.008	0.240
-564.573	307.915	0.139	-0.259
-563.558	47.576	0.157	0.146
-562.544	-200.000	-0.053	0.311
-561.529	440.166	0.055	0.120
-560.515	76.796	-0.297	0.315
-559.500	-200.000	-0.025	0.128
-558.485	800.000	0.051	-0.169
-557.471	-51.340	-0.256	0.120
-556.456	151.926	0.168	-0.228
-555.442	97.338	-0.084	0.096
-554.427	800.000	-0.107	-0.455
-553.412	-111.097	-0.126	-0.026
-552.398	-19.085	-0.245	-0.152
-551.383	-110.754	-0.297	-0.061
-550.369	-92.740	0.319	-0.089
-549.354	800.000	-0.089	-0.297
-548.339	26.035	-0.251	0.209
-547.325	-200.000	0.009	0.121
-546.310	-59.195	-0.252	-0.108
-545.296	-200.000	0.010	0.053
-544.281	611.668	-0.120	0.299
-543.266	787.780	-0.060	-0.164
-542.252	800.000	0.080	0.247
-541.237	-200.000	0.067	-0.000
-540.223	-200.000	0.002	0.409
-539.208	-56.902	-0.186	0.082
-538.193	-29.761	0.394	-0.224
-537.179	167.971	0.198	0.281
-536.164	53.787	-0.225	0.215
-535.150	-104.426	-0.208	-0.048
-534.135	321.178	-0.049	0.094
-533.121	-61.466	-0.124	-0.052
-532.106	-200.000	-0.053	-0.286
-531.091	-108.795	0.074	-0.016
-530.077	-65.006	-0.253	-0.102
-529.062	4.780	-0.089	-0.065
-528.048	420.211	0.147	-0.314
-527.033	-134.034	-0.500	0.062
-526.018	-18.464	0.142	0.088
-525.004	-90.559	-0.146	-0.042
-523.989	800.000	0.014	0.052
-522.975	-35.521	-0.138	-0.075
-521.960	-196.711	-0.049	-0.000
-520.945	46.573	-0.213	0.197
-519.931	583.630	-0.151	-0.368
-518.916	143.601	0.155	-0.205
-517.902	-15.061	-0.187	0.119
-516.887	249.106	-0.147	-0.249
-515.872	-200.000	0.033	0.145
-514.858	-39.870	-0.122	-0.064
-513.843	-22.508	0.310	-0.187
-512.829	-143.760	0.065	0.006
-511.814	394.531	-0.094	-0.196
-510.799	533.842	0.040	-0.093
-509.785	-200.000	-0.066	-0.477
-508.770	0.768	0.233	-0.166
-507.756	800.000	0.115	0.343
-506.741	800.000	-0.038	-0.121
-505.726	52.855	0.202	0.192
-504.712	800.000	-0.069	-0.206
-503.697	-80.810	0.287	0.095
-502.683	800.000	0.120	0.450
-501.668	107.852	-0.214	-0.253
-500.653	-200.000	0.021	0.164
-499.639	-200.000	-0.036	0.266
-498.624	-29.506	-0.060	-0.034
-497.610	151.982	-0.153	0.208
-496.595	30.762	0.158	0.135
-495.581	-140.088	0.177	0.019
-494.566	723.152	-0.066	0.176
-493.551	268.915	-0.200	0.348
-492.537	58.507	-0.052	0.051
-491.522	-49.401	0.227	-0.108
-490.508	8.093	-0.209	-0.156
-489.493	-74.641	0.401	-0.143
-488.478	35.766	0.129	-0.112
-487.464	-77.924	0.296	0.101
-486.449	19.541	-0.060	-0.048
-485.435	-109.446	-0.059	-0.012
-484.420	-200.000	-0.002	0.161
-483.405	-10.872	-0.137	-0.090
-482.391	-200.000	0.131	0.586
-481.376	-70.242	0.348	0.131
-480.362	-75.970	0.034	0.012
-479.347	-41.697	0.282	-0.144
-478.332	-97.247	0.162	0.042
-477.318	79.201	0.159	0.170
-476.303	492.653	-0.054	0.123
-475.289	-200.000	-0.020	0.220
-474.274	125.122	0.207	0.260
-473.259	-200.000	0.007	0.223
-472.245	800.000	0.140	-0.457
-471.230	-88.489	0.539	0.160
-470.216	800.000	0.164	-0.463
-469.201	-200.000	0.020	-0.280
-468.186	-83.758	0.190	-0.060
-467.172	-200.000	-0.027	0.397
-466.157	-149.445	0.154	-0.012
-465.143	-51.874	-0.261	-0.121
-464.128	146.475	0.035	-0.047
-463.113	23.143	0.185	0.151
-462.099	8.022	-0.183	0.136
-461.084	85.842	-0.279	0.304
-460.070	-136.994	-0.111	0.013
-459.055	-121.498	0.451	0.074
-458.040	-101.316	-0.119	-0.029
-457.026	-65.756	0.265	-0.105
-456.011	800.000	-0.085	0.336
-454.997	123.064	0.144	0.179
-453.982	37.243	-0.267	0.235
-452.968	95.388	0.082	0.093
-451.953	800.000	-0.032	-0.127
-450.938	57.262	-0.064	-0.062
-449.924	800.000	-0.050	-0.173
-448.909	-171.075	-0.215	0.007
-447.895	-119.076	0.179	0.031
-446.880	-96.080	0.379	0.100
-445.865	-56.538	-0.186	-0.082
-444.851	-116.258	0.331	0.061
-443.836	-87.570	-0.190	0.057
-442.822	10.463	-0.124	-0.094
-441.807	354.798	-0.017	0.034
-440.792	241.434	0.156	-0.258
-439.778	-161.226	0.141	0.007
-438.763	-100.504	-0.410	0.101
-437.749	800.000	0.070	-0.274
-436.734	-54.975	-0.202	0.090
-435.719	-153.420	-0.183	-0.013
-434.705	-0.389	0.226	-0.159
-433.690	535.806	-0.115	0.270
-432.676	-78.079	0.099	0.034
-431.661	0.767	0.092	-0.066
-430.646	-89.353	0.124	-0.036
-429.632	-25.080	-0.304	0.179
-428.617	-68.929	-0.521	0.199
-427.603	179.081	0.154	0.224
-426.588	-57.369	0.083	-0.036
-425.573	-200.000	-0.026	0.302
-424.559	-46.922	-0.082	0.040
-423.544	-69.476	-0.228	0.087
-422.530	19.069	-0.215	-0.171
-421.515	-171.408	0.157	-0.005
-420.500	-118.291	0.056	-0.010
-419.486	425.654	-0.096	0.205
-418.471	210.445	-0.099	-0.155
-417.457	-143.012	0.274	-0.026
-416.442	-124.531	0.356	-0.055
-415.428	-139.456	-0.131	-0.014
-414.413	800.000	-0.190	-0.576
-413.398	3.894	0.186	-0.135
-412.384	621.831	-0.171	0.427
-411.369	-127.355	-0.101	-0.015
-410.355	-114.937	0.350	0.066
-409.340	-200.000	-0.006	0.072
-408.325	800.000	0.042	0.128
-407.311	142.008	0.224	0.294
-406.296	-175.880	-0.235	0.006
-405.282	129.583	0.077	0.098
-404.267	-200.000	-0.001	-0.116
-403.252	-65.398	0.307	-0.122
-402.238	-155.532	-0.348	0.022
-401.223	-106.944	-0.273	-0.060
-400.209	800.000	0.065	-0.231
-399.194	219.026	0.165	-0.261
-398.179	751.023	0.051	0.137
-397.165	-155.356	0.014	0.001
-396.150	-144.536	0.056	0.005
-395.136	0.450	0.341	0.241
-394.121	-131.562	-0.327	0.043
-393.106	-200.000	-0.032	-0.205
-392.092	144.728	0.183	-0.242
-391.077	245.691	0.059	-0.099
-390.063	-111.815	0.170	-0.034
-389.048	48.583	-0.189	-0.175
-388.033	-37.748	0.055	-0.029
-387.019	800.000	-0.164	0.512
-386.004	158.794	0.275	-0.378
-384.990	-86.571	-0.217	-0.066
-383.975	-111.860	0.308	-0.062
-382.960	-26.356	-0.157	0.091
-381.946	74.400	-0.004	0.004
-380.931	61.813	-0.185	0.183
-379.917	-137.415	-0.338	-0.038
-378.902	416.227	-0.048	-0.101
-377.888	74.801	-0.117	0.122
-376.873	-200.000	0.005	0.140
-375.858	800.000	-0.094	0.320
-374.844	245.223	-0.220	0.366
-373.829	800.000	-0.025	-0.072
-372.815	-73.575	0.388	0.140
-371.800	800.000	0.054	0.161
-370.785	27.214	0.281	-0.234
-369.771	-200.000	-0.027	-0.361
-368.756	800.000	0.054	0.171
-367.742	-125.646	-0.177	-0.027
-366.727	84.061	-0.278	-0.301
-365.712	5.541	-0.220	0.160
-364.698	-117.337	0.207	-0.037
-363.683	800.000	0.056	0.172
-362.669	-200.000	-0.011	-0.274
-361.654	-57.395	-0.119	0.052
-360.639	269.194	0.139	-0.242
-359.625	34.413	0.134	0.116
-358.610	283.679	-0.095	-0.170
-357.596	-43.362	0.192	-0.096
-356.581	341.487	-0.128	-0.248
-355.566	-88.419	-0.139	-0.041
-354.552	-124.789	0.044	-0.007
-353.537	248.814	-0.094	0.158
-352.523	-157.056	0.406	-0.024
-351.508	-14.371	0.223	-0.142
-350.493	-64.591	0.148	0.059
-349.479	33.473	0.162	0.139
-348.464	655.321	-0.041	-0.103
-347.450	61.681	0.178	-0.175
-346.435	227.180	0.052	-0.083
-345.420	-55.484	-0.119	0.053
-344.406	198.827	-0.236	-0.358
-343.391	-83.675	0.086	-0.027
-342.377	-34.544	0.037	-0.020
-341.362	800.000	-0.110	0.324
-340.348	-85.482	-0.322	0.099
-339.333	-200.000	0.007	0.129
-338.318	-167.499	0.270	0.011
-337.304	-170.941	0.259	0.009
-336.289	-89.997	0.166	0.048
-335.275	800.000	-0.038	-0.129
-334.260	-88.399	-0.286	0.085
-333.245	-200.000	0.011	0.202
-332.231	-101.344	0.311	-0.075
-331.216	-124.142	0.102	-0.016
-330.202	-156.090	0.176	0.011
-329.187	-200.000	0.080	-0.387
-328.172	-200.000	0.022	0.129
-327.158	-200.000	-0.038	-0.433
-326.143	-145.611	0.290	-0.026
-325.129	-107.209	-0.279	0.061
-324.114	224.398	0.189	0.302
-323.099	293.466	-0.072	-0.130
-322.085	79.103	0.373	-0.395
-321.070	-155.019	-0.306	0.020
-320.056	109.933	-0.048	-0.057
-319.041	-102.741	0.221	0.052
-318.026	173.503	-0.161	-0.229
-317.012	-200.000	-0.002	-0.186
-315.997	67.956	-0.169	0.171
-314.983	67.118	-0.049	0.050
-313.968	-155.329	-0.643	-0.041
-312.953	438.464	0.133	0.287
-311.939	-200.000	-0.004	0.312
-310.924	800.000	0.037	-0.124
-309.910	-34.762	0.183	-0.099
-308.895	586.098	-0.105	0.254
-307.880	-16.078	-0.201	0.126
-306.866	69.982	0.117	0.120
-305.851	544.107	0.120	-0.283
-304.837	-200.000	-0.021	-0.230
-303.822	-14.084	0.569	-0.362
-302.807	-67.905	0.123	0.047
-301.793	-56.055	-0.152	-0.067
-300.778	-72.115	-0.419	-0.154
-299.764	241.350	0.171	0.281
-298.749	-200.000	0.049	0.222
-297.735	-73.817	0.265	-0.095
-296.720	-86.760	0.239	0.072
-295.705	-123.663	0.227	-0.035
-294.691	-200.000	-0.008	0.338
-293.676	-200.000	-0.037	0.324
-292.662	248.646	-0.058	-0.097
-291.647	90.375	0.095	-0.105
-290.632	368.557	0.048	0.095
-289.618	559.358	-0.044	-0.105
-288.603	800.000	0.019	0.061
-287.589	-81.189	-0.010	-0.003
-286.574	-62.441	-0.303	0.124
-285.559	-164.096	-0.182	-0.008
-284.545	-81.135	0.201	0.066
-283.530	297.139	0.128	-0.231
-282.516	-145.541	0.260	0.023
-281.501	699.768	-0.039	0.102
-280.486	-13.871	0.046	0.029
-279.472	161.459	-0.016	-0.022
-278.457	80.753	0.120	-0.127
-277.443	75.293	0.151	0.157
-276.428	206.894	0.145	-0.223
-275.413	-183.566	0.079	0.001
-274.399	800.000	0.038	-0.120
-273.384	140.096	-0.311	-0.404
-272.370	-12.600	0.132	-0.085
-271.355	-134.176	-0.083	0.010
-270.340	-80.293	-0.133	0.044
-269.326	117.704	-0.133	0.161
-268.311	149.571	-0.103	-0.138
-267.297	156.084	0.074	0.100
-266.282	296.946	-0.088	-0.158
-265.267	88.669	-0.122	0.133
-264.253	44.268	-0.183	0.165
-263.238	-46.327	0.224	-0.109
-262.224	-200.000	-0.028	0.172
-261.209	-200.000	-0.025	-0.165
-260.195	-197.927	-0.231	-0.001
-259.180	272.699	0.120	0.209
-258.165	-41.185	-0.131	-0.067
-257.151	-200.000	0.049	0.373
-256.136	800.000	0.059	-0.221
-255.122	52.682	0.044	-0.041
-254.107	-32.225	-0.240	0.132
-253.092	-63.214	-0.123	-0.050
-252.078	93.245	0.062	-0.069
-251.063	10.561	0.044	0.033
-250.049	124.612	0.170	-0.211
-249.034	-157.220	-0.417	0.025
-248.019	23.749	0.251	-0.204
-247.005	131.441	0.130	0.165
-245.990	-146.198	0.029	-0.003
-244.976	-195.864	-0.317	0.002
-243.961	-200.000	-0.005	0.022
-242.946	-200.000	0.006	0.164
-241.932	40.125	0.101	0.090
-240.917	207.731	0.037	-0.058
-239.903	-200.000	-0.022	0.293
-238.888	659.642	0.017	-0.044
-237.873	81.793	0.259	0.276
-236.859	-51.011	0.085	-0.039
-235.844	72.113	-0.129	-0.132
-234.830	-45.928	0.327	-0.159
-233.815	-110.840	-0.198	0.040
-232.800	60.384	0.134	0.130
-231.786	21.012	-0.080	-0.064
-230.771	398.237	0.030	-0.063
-229.757	-117.852	-0.075	0.013
-228.742	-200.000	-0.001	-0.601
-227.727	99.426	0.133	0.151
-226.713	31.007	-0.112	-0.095
-225.698	-92.066	-0.150	0.042
-224.684	33.836	-0.187	-0.160
-223.669	-90.624	0.246	0.070
-222.655	-105.040	0.237	-0.053
-221.640	37.144	-0.212	0.185
-220.625	-42.880	-0.289	0.144
-219.611	-9.936	-0.191	-0.125
-218.596	-25.108	-0.102	-0.060
-217.582	800.000	0.047	0.158
-216.567	30.791	0.182	0.153
-215.552	-53.519	-0.061	-0.028
-214.538	-200.000	-0.051	-0.236
-213.523	-106.801	0.124	0.027
-212.509	-118.041	-0.275	0.048
-211.494	-142.395	0.251	0.024
-210.479	206.758	0.129	-0.198
-209.465	517.699	-0.229	0.527
-208.450	117.406	-0.143	0.174
-207.436	58.112	-0.112	0.108
-206.421	-148.794	-0.127	0.010
-205.406	-11.006	0.172	-0.112
-204.392	108.644	0.137	0.160
-203.377	-113.500	0.143	-0.028
-202.363	551.281	-0.063	0.148
-201.348	9.621	-0.175	-0.131
-200.333	167.035	0.036	-0.050
-199.319	-200.000	0.008	0.064
-198.304	73.626	-0.303	-0.312
-197.290	37.831	-0.014	0.012
-196.275	-86.932	0.435	0.131
-195.260	-73.682	0.061	-0.022
-194.246	196.565	0.135	-0.202
-193.231	47.966	-0.257	-0.236
-192.217	-102.947	0.291	-0.068
-191.202	-21.970	-0.192	0.115
-190.187	51.793	-0.236	-0.221
-189.173	-179.781	-0.218	-0.005
-188.158	-68.146	0.224	0.086
-187.144	-62.713	-0.298	0.121
-186.129	15.436	0.239	-0.185
-185.114	-200.000	-0.023	0.120
-184.100	32.964	0.171	-0.146
-183.085	-141.458	0.342	-0.034
-182.071	-146.128	0.279	0.024
-181.056	711.645	0.031	-0.081
-180.042	263.535	-0.115	-0.196
-179.027	-200.000	0.021	0.203
-178.012	49.983	0.182	0.169
-176.998	-200.000	-0.005	0.042
-175.983	20.921	-0.202	0.161
-174.969	619.885	0.070	-0.174
-173.954	38.765	-0.104	-0.091
-172.939	143.486	0.114	0.149
-171.925	703.079	-0.025	-0.066
-170.910	17.355	0.251	-0.196
-169.896	33.664	-0.258	0.220
-168.881	-136.913	-0.093	0.011
-167.866	-200.000	0.025	-0.113
-166.852	-6.021	-0.231	-0.155
-165.837	800.000	-0.105	-0.361
-164.823	29.805	-0.356	-0.298
-163.808	-200.000	-0.041	0.435
-162.793	418.981	0.121	0.254
-161.779	-141.659	-0.233	0.023
-160.764	800.000	0.059	-0.203
-159.750	447.927	-0.098	0.211
-158.735	-2.587	0.226	0.155
-157.720	308.832	0.089	0.164
-156.706	-200.000	0.038	0.413
-155.691	-200.000	-0.004	0.131
-154.677	800.000	-0.039	0.135
-153.662	-5.858	0.132	0.089
-152.647	-63.319	0.168	-0.068
-151.633	-38.315	0.101	0.052
-150.618	-200.000	-0.022	-0.170
-149.604	279.510	-0.029	0.050
-148.589	57.782	0.251	0.241
-147.574	-45.872	0.261	0.126
-146.560	164.942	-0.029	0.040
-145.545	-61.914	-0.304	0.125
-144.531	-168.842	-0.140	0.005
-143.516	-67.386	-0.363	0.140
-142.502	206.428	0.189	-0.288
-141.487	-157.977	-0.290	-0.017
-140.472	153.378	0.024	-0.032
-139.458	-200.000	-0.025	-0.330
-138.443	-200.000	-0.007	-0.065
-137.429	-200.000	0.002	0.107
-136.414	800.000	-0.013	-0.042
-135.399	-50.302	-0.092	-0.043
-134.385	53.102	-0.038	0.036
-133.370	800.000	-0.019	0.058
-132.356	-32.557	0.301	0.165
-131.341	272.565	0.213	0.368
-130.326	122.639	0.108	0.132
-129.312	800.000	-0.099	0.272
-128.297	-27.687	0.019	0.011
-127.283	271.784	-0.045	0.077
-126.268	-154.938	0.213	0.014
-125.253	45.845	0.036	0.032
-124.239	94.633	0.077	-0.085
-123.224	13.548	-0.106	-0.080
-122.210	-64.689	0.197	0.078
-121.195	800.000	0.051	0.201
