DTS Sentinel unit serial number:	SN413079Multiplexer serial number:	ORYXHardware model number:	OX4-SRSoftware version number:	ORYX F/W v4.00 Oryx Data Collector v3.7.2.0data status	okinstallation	princeton_trtdifferential loss correction	single-endedforward channel	channel 2reverse channel	N/Adate	2019/09/15time	09:15:35forward acquisition time	60.00reverse acquisition time	0.00gamma	496.2192k internal	0.2318k external	0.2318temperature offset calibration	1.0012default loss term (dB/km)	0.3790temperature slope calibration	1.0000multiplexer offset coefficient	1.0000multiplexer slope coefficient	1.0000fibre end	0.00T internal ref (°C)	33.28T ext. ref 1 (°C)	4.97T ext. ref 2 (°C)	30.43length (m)	temperature (°C)	Stokes	anti-Stokes-747.200	-200.000	-0.002	-0.100
-746.185	800.000	0.059	0.228
-745.171	800.000	-0.027	0.112
-744.156	-200.000	0.053	0.620
-743.142	-132.770	0.081	0.010
-742.127	800.000	0.041	0.156
-741.112	-3.807	0.332	-0.233
-740.098	-93.987	-0.067	0.019
-739.083	-135.860	-0.262	0.031
-738.069	-189.178	0.267	-0.003
-737.054	403.737	-0.087	-0.186
-736.039	353.425	-0.169	0.339
-735.025	-200.000	-0.018	-0.133
-734.010	295.311	-0.114	-0.212
-732.996	-137.112	-0.302	-0.035
-731.981	-99.786	0.189	0.048
-730.966	-29.674	-0.027	0.016
-729.952	498.874	-0.024	0.057
-728.937	9.007	-0.377	-0.288
-727.923	-14.686	-0.082	-0.053
-726.908	123.048	-0.175	-0.221
-725.894	-73.328	0.220	-0.081
-724.879	-121.952	0.375	0.062
-723.864	199.227	-0.111	-0.172
-722.850	82.743	-0.127	-0.140
-721.835	-116.073	-0.256	-0.048
-720.821	-200.000	0.028	-0.291
-719.806	320.861	-0.080	-0.154
-718.791	-200.000	-0.016	0.144
-717.777	-200.000	-0.020	0.145
-716.762	-200.000	0.051	0.225
-715.748	-8.168	0.210	0.143
-714.733	-49.589	0.036	-0.017
-713.718	163.211	0.118	-0.168
-712.704	800.000	0.022	-0.084
-711.689	107.142	-0.037	-0.044
-710.675	800.000	0.041	0.114
-709.660	107.919	0.056	0.067
-708.645	259.879	-0.073	0.128
-707.631	32.565	0.201	0.176
-706.616	43.387	0.050	0.047
-705.602	95.890	0.053	-0.061
-704.587	127.460	-0.140	0.180
-703.572	-200.000	-0.011	0.210
-702.558	-200.000	-0.052	-0.362
-701.543	-132.910	0.363	0.047
-700.529	-17.139	-0.247	-0.158
-699.514	125.473	-0.142	0.181
-698.499	-92.926	0.142	-0.040
-697.485	123.117	-0.073	-0.092
-696.470	575.715	0.047	-0.117
-695.456	18.941	0.096	-0.078
-694.441	503.622	0.087	-0.203
-693.426	592.203	-0.026	-0.066
-692.412	-200.000	-0.093	-0.429
-691.397	52.257	-0.181	-0.174
-690.383	170.042	0.068	0.098
-689.368	-200.000	0.027	0.246
-688.354	-51.732	0.283	0.133
-687.339	195.727	-0.212	0.326
-686.324	116.239	-0.230	0.284
-685.310	147.342	0.071	-0.097
-684.295	800.000	0.066	-0.184
-683.281	-200.000	0.109	-0.529
-682.266	6.977	-0.062	-0.046
-681.251	-82.335	0.186	-0.061
-680.237	32.009	0.136	-0.119
-679.222	-200.000	0.001	-0.120
-678.208	102.602	0.085	0.101
-677.193	-15.198	-0.284	0.183
-676.178	-75.958	0.169	0.060
-675.164	-142.358	0.353	-0.035
-674.149	70.041	-0.096	-0.100
-673.135	-85.760	-0.126	0.039
-672.120	800.000	0.071	0.302
-671.105	-200.000	-0.009	0.088
-670.091	-46.280	0.305	0.152
-669.076	37.218	0.287	0.256
-668.062	-167.341	-0.163	0.007
-667.047	-200.000	0.068	0.365
-666.032	440.060	-0.090	0.198
-665.018	-79.573	-0.329	0.112
-664.003	-200.000	0.032	0.218
-662.989	-22.966	0.206	-0.125
-661.974	-200.000	0.039	-0.218
-660.959	91.553	0.180	0.204
-659.945	-200.000	-0.170	0.000
-658.930	-35.058	-0.072	0.039
-657.916	-200.000	-0.003	0.387
-656.901	-74.392	0.471	0.171
-655.886	121.124	-0.200	-0.251
-654.872	-200.000	-0.014	-0.182
-653.857	50.405	0.202	-0.193
-652.843	726.180	-0.164	-0.442
-651.828	-200.000	0.001	-0.109
-650.814	16.173	0.022	0.017
-649.799	-50.205	0.166	0.079
-648.784	-200.000	-0.015	-0.289
-647.770	423.188	0.245	0.531
-646.755	120.712	0.072	0.090
-645.741	285.771	0.290	-0.527
-644.726	19.575	0.044	-0.036
-643.711	-63.534	-0.255	0.105
-642.697	439.459	-0.150	0.331
-641.682	-200.000	-0.013	0.173
-640.668	-80.584	0.070	0.023
-639.653	101.363	-0.216	-0.253
-638.638	349.334	0.067	-0.133
-637.624	800.000	-0.056	0.222
-636.609	58.655	0.364	-0.360
-635.595	-86.683	-0.194	-0.060
-634.580	800.000	-0.079	0.291
-633.565	-112.529	-0.145	-0.029
-632.551	35.678	0.137	-0.121
-631.536	568.897	0.165	-0.405
-630.522	800.000	-0.047	0.155
-629.507	800.000	0.081	0.356
-628.492	550.809	0.120	0.290
-627.478	-122.567	-0.395	0.065
-626.463	-200.000	0.034	0.232
-625.449	-39.086	0.223	-0.118
-624.434	-200.000	-0.022	0.311
-623.419	-51.598	0.072	0.034
-622.405	-148.679	-0.120	0.010
-621.390	12.404	0.216	-0.168
-620.376	-69.903	-0.106	-0.041
-619.361	121.191	0.035	-0.044
-618.346	349.460	-0.191	-0.381
-617.332	414.509	-0.051	0.110
-616.317	-200.000	-0.016	0.134
-615.303	-200.000	-0.010	-0.057
-614.288	-200.000	-0.047	0.220
-613.273	-200.000	0.008	0.122
-612.259	-73.757	0.365	0.134
-611.244	-27.153	0.215	-0.126
-610.230	319.043	0.134	-0.255
-609.215	-200.000	-0.021	-0.241
-608.201	19.674	0.047	-0.038
-607.186	-200.000	0.002	-0.247
-606.171	-17.954	-0.349	0.220
-605.157	90.575	-0.157	-0.177
-604.142	22.017	-0.282	-0.231
-603.128	-160.161	-0.156	-0.008
-602.113	-35.482	-0.271	-0.148
-601.098	50.796	0.095	0.091
-600.084	-200.000	-0.036	-0.227
-599.069	385.569	-0.091	-0.189
-598.055	-200.000	0.007	0.073
-597.040	-104.070	0.205	0.048
-596.025	74.593	-0.056	-0.060
-595.011	-200.000	0.019	-0.283
-593.996	269.645	0.100	-0.177
-592.982	-38.741	0.199	0.106
-591.967	-131.584	0.187	-0.025
-590.952	-117.498	-0.304	0.055
-589.938	-10.001	-0.295	0.197
-588.923	-160.329	-0.430	-0.023
-587.909	-48.661	0.075	0.036
-586.894	300.859	0.003	0.005
-585.879	703.855	-0.102	-0.271
-584.865	800.000	0.079	-0.339
-583.850	800.000	-0.083	-0.279
-582.836	11.625	-0.192	0.148
-581.821	146.365	-0.143	-0.193
-580.806	-20.203	0.269	0.167
-579.792	233.740	-0.193	-0.320
-578.777	21.648	-0.284	-0.233
-577.763	-96.155	0.174	0.046
-576.748	442.202	0.077	0.170
-575.733	-93.744	-0.412	-0.114
-574.719	800.000	-0.015	-0.061
-573.704	-65.498	0.111	-0.045
-572.690	-41.804	0.305	-0.157
-571.675	800.000	-0.111	-0.308
-570.661	-200.000	-0.052	-0.243
-569.646	362.442	0.130	-0.263
-568.631	-61.285	-0.314	0.133
-567.617	675.452	0.036	0.093
-566.602	130.344	0.110	-0.142
-565.588	-54.866	0.122	-0.055
-564.573	-123.407	-0.174	-0.028
-563.558	97.143	-0.249	0.287
-562.544	-200.000	-0.043	-0.234
-561.529	166.172	-0.099	0.141
-560.515	306.665	0.170	0.318
-559.500	37.295	-0.179	0.159
-558.485	-130.048	-0.067	0.009
-557.471	-4.748	0.013	-0.009
-556.456	324.770	0.112	0.216
-555.442	800.000	-0.050	-0.188
-554.427	-177.958	0.119	-0.003
-553.412	-160.972	0.077	0.004
-552.398	800.000	0.049	-0.195
-551.383	-200.000	0.041	-0.197
-550.369	-176.042	-0.136	-0.004
-549.354	-128.340	0.156	-0.022
-548.339	-187.393	0.139	0.002
-547.325	-33.190	0.233	-0.130
-546.310	-200.000	-0.002	0.216
-545.296	-49.011	-0.024	-0.011
-544.281	-42.249	0.221	-0.113
-543.266	-86.625	-0.186	-0.057
-542.252	800.000	0.022	0.069
-541.237	800.000	-0.077	-0.249
-540.223	157.597	-0.107	0.148
-539.208	37.497	-0.168	-0.149
-538.193	-159.833	0.278	-0.015
-537.179	-74.768	-0.158	0.057
-536.164	-45.337	-0.445	0.222
-535.150	-135.117	0.084	0.010
-534.135	-200.000	0.045	0.379
-533.121	373.634	0.050	0.102
-532.106	-137.210	-0.142	-0.016
-531.091	154.215	-0.235	0.324
-530.077	465.856	0.112	0.251
-529.062	399.765	-0.037	-0.078
-528.048	-76.674	0.179	-0.063
-527.033	-31.964	0.127	0.071
-526.018	158.195	-0.299	0.416
-525.004	301.535	-0.049	0.092
-523.989	80.910	-0.390	0.422
-522.975	46.298	-0.193	0.180
-521.960	-200.000	0.029	-0.191
-520.945	-101.908	-0.349	0.085
-519.931	-6.341	-0.065	0.045
-518.916	50.911	-0.202	0.192
-517.902	29.555	-0.066	-0.056
-516.887	-200.000	0.056	0.325
-515.872	86.468	-0.283	0.313
-514.858	-2.163	0.109	0.077
-513.843	-145.463	-0.040	-0.004
-512.829	-92.082	0.075	-0.021
-511.814	800.000	0.057	-0.201
-510.799	153.801	-0.075	-0.102
-509.785	800.000	0.040	-0.159
-508.770	233.745	0.034	-0.056
-507.756	-50.753	0.265	0.125
-506.741	-150.362	-0.216	0.017
-505.726	-136.172	-0.211	-0.025
-504.712	122.260	-0.078	-0.097
-503.697	-99.578	-0.252	-0.063
-502.683	-15.584	-0.205	0.131
-501.668	438.378	-0.161	-0.351
-500.653	64.504	0.153	0.154
-499.639	-116.966	0.057	-0.010
-498.624	-59.047	0.034	0.015
-497.610	368.747	-0.100	-0.204
-496.595	66.380	-0.130	-0.132
-495.581	136.264	-0.092	0.121
-494.566	-105.786	-0.179	-0.041
-493.551	-22.804	0.037	-0.023
-492.537	-200.000	-0.039	-0.296
-491.522	-120.389	0.080	0.014
-490.508	42.363	-0.122	0.111
-489.493	-40.597	0.369	0.192
-488.478	800.000	-0.123	-0.366
-487.464	461.956	0.205	-0.457
-486.449	-13.307	-0.221	-0.144
-485.435	37.468	-0.104	-0.092
-484.420	800.000	-0.053	0.207
-483.405	798.922	-0.052	-0.143
-482.391	162.553	0.171	0.240
-481.376	-118.836	0.387	0.068
-480.362	-122.786	0.205	0.033
-479.347	-58.903	-0.238	-0.103
-478.332	-19.865	-0.112	0.070
-477.318	440.682	0.087	-0.191
-476.303	-200.000	0.057	0.264
-475.289	-62.494	-0.243	0.101
-474.274	-148.558	-0.274	0.022
-473.259	-75.254	0.232	0.083
-472.245	-3.346	-0.223	0.156
-471.230	-150.756	0.249	0.019
-470.216	280.731	0.150	0.269
-469.201	-2.946	-0.194	-0.136
-468.186	-144.824	0.059	-0.005
-467.172	242.624	0.177	0.297
-466.157	55.957	0.159	-0.155
-465.143	-85.410	-0.182	0.057
-464.128	327.360	0.253	0.486
-463.113	36.268	-0.407	-0.359
-462.099	-96.096	0.270	0.072
-461.084	214.503	0.031	-0.049
-460.070	-172.289	0.372	0.012
-459.055	-23.295	-0.352	0.212
-458.040	82.726	-0.257	0.280
-457.026	171.427	-0.113	-0.163
-456.011	-24.334	0.123	0.074
-454.997	-16.787	0.197	0.125
-453.982	210.955	0.181	-0.285
-452.968	257.695	0.081	-0.140
-451.953	800.000	-0.058	0.222
-450.938	-200.000	-0.002	-0.171
-449.924	-1.223	0.164	-0.116
-448.909	-200.000	0.011	0.287
-447.895	396.515	-0.208	-0.435
-446.880	177.764	0.149	-0.218
-445.865	-200.000	0.001	-0.078
-444.851	-57.045	-0.108	-0.048
-443.836	-165.594	0.080	0.003
-442.822	-200.000	-0.013	0.215
-441.807	-173.794	-0.371	0.011
-440.792	254.644	-0.056	0.095
-439.778	-99.388	0.410	0.103
-438.763	436.931	0.126	-0.275
-437.749	-46.684	-0.374	-0.183
-436.734	183.481	-0.019	0.028
-435.719	-125.972	0.146	-0.022
-434.705	140.116	-0.154	-0.203
-433.690	800.000	-0.022	-0.098
-432.676	-56.196	0.091	0.040
-431.661	333.419	-0.161	0.312
-430.646	-100.450	0.350	0.087
-429.632	139.603	0.098	0.129
-428.617	-200.000	0.036	-0.327
-427.603	-200.000	0.013	-0.470
-426.588	584.294	0.117	-0.287
-425.573	87.085	0.163	-0.180
-424.559	-200.000	0.019	-0.090
-423.544	-126.615	0.102	0.015
-422.530	-114.614	-0.257	-0.049
-421.515	84.683	0.234	0.256
-420.500	-38.783	0.353	-0.186
-419.486	-23.443	0.409	-0.245
-418.471	32.190	0.017	-0.014
-417.457	367.404	-0.045	0.090
-416.442	800.000	-0.022	-0.090
-415.428	-117.316	0.327	-0.059
-414.413	-200.000	0.001	-0.135
-413.398	376.428	0.096	-0.196
-412.384	-44.105	0.270	-0.136
-411.369	-108.776	-0.075	0.016
-410.355	-44.914	-0.089	-0.045
-409.340	-128.277	-0.323	0.046
-408.325	169.208	-0.197	-0.281
-407.311	-200.000	0.053	-0.285
-406.296	-200.000	-0.054	0.275
-405.282	-164.450	-0.097	-0.004
-404.267	-63.672	0.232	-0.095
-403.252	-200.000	-0.055	0.261
-402.238	138.110	0.113	-0.148
-401.223	-200.000	-0.057	-0.322
-400.209	-126.674	-0.109	0.016
-399.194	94.994	0.238	0.271
-398.179	-109.284	0.397	-0.084
-397.165	-18.490	0.072	-0.045
-396.150	221.308	0.142	0.227
-395.136	-29.405	0.281	-0.160
-394.121	427.554	-0.033	0.070
-393.106	-54.192	0.136	-0.062
-392.092	121.174	-0.249	-0.309
-391.077	-200.000	0.010	-0.085
-390.063	-88.856	-0.263	-0.078
-389.048	-99.219	0.441	0.111
-388.033	51.802	-0.050	-0.048
-387.019	-200.000	-0.004	0.186
-386.004	500.393	-0.079	-0.182
-384.990	-162.406	-0.248	-0.012
-383.975	-80.146	0.070	0.023
-382.960	282.434	-0.136	-0.244
-381.946	-100.949	-0.131	0.032
-380.931	-155.504	-0.252	0.016
-379.917	-200.000	-0.009	0.140
-378.902	183.652	0.034	-0.050
-377.888	-103.155	0.134	-0.032
-376.873	632.687	-0.084	0.211
-375.858	800.000	0.042	0.166
-374.844	-173.859	0.323	0.010
-373.829	-59.453	-0.183	0.078
-372.815	-65.653	0.326	-0.130
-371.800	-170.056	0.523	-0.019
-370.785	-43.223	-0.326	-0.165
-369.771	-44.794	0.093	-0.046
-368.756	-22.137	0.246	0.149
-367.742	-113.753	0.256	0.050
-366.727	37.839	-0.114	0.101
-365.712	-57.854	0.165	0.072
-364.698	-200.000	-0.007	-0.063
-363.683	36.643	0.087	-0.077
-362.669	-200.000	-0.017	-0.250
-361.654	-35.801	-0.221	-0.119
-360.639	78.395	-0.219	0.233
-359.625	108.899	-0.064	0.077
-358.610	29.924	0.073	-0.062
-357.596	-4.956	-0.085	0.058
-356.581	800.000	0.029	0.081
-355.566	321.685	0.118	-0.224
-354.552	517.247	0.048	0.112
-353.537	-200.000	-0.028	-0.157
-352.523	408.027	-0.050	-0.106
-351.508	-84.992	0.090	-0.028
-350.493	176.130	0.154	-0.222
-349.479	-200.000	-0.013	-0.068
-348.464	-21.988	-0.091	-0.055
-347.450	-200.000	0.016	-0.076
-346.435	77.716	0.061	-0.064
-345.420	-33.269	-0.399	0.220
-344.406	800.000	0.095	0.355
-343.391	-103.278	-0.233	-0.055
-342.377	267.218	0.114	-0.199
-341.362	16.981	0.168	-0.132
-340.348	-44.851	-0.158	-0.079
-339.333	-85.491	0.091	-0.028
-338.318	-164.020	-0.238	0.011
-337.304	-88.437	0.276	-0.082
-336.289	-155.909	0.254	0.016
-335.275	91.710	0.057	-0.064
-334.260	-200.000	-0.016	-0.093
-333.245	-48.437	-0.297	-0.143
-332.231	-200.000	0.002	0.435
-331.216	63.856	-0.155	-0.155
-330.202	107.372	0.135	0.160
-329.187	800.000	0.068	0.283
-328.172	-79.617	0.158	0.053
-327.158	268.403	0.008	0.014
-326.143	-71.736	-0.231	-0.086
-325.129	-200.000	0.038	-0.168
-324.114	47.533	-0.027	0.025
-323.099	-62.166	0.218	0.091
-322.085	0.756	-0.180	0.128
-321.070	255.449	-0.168	-0.287
-320.056	-108.275	-0.228	-0.049
-319.041	-65.216	0.190	-0.076
-318.026	-168.994	0.037	0.001
-317.012	101.871	-0.073	-0.084
-315.997	-162.153	0.081	0.004
-314.983	300.795	-0.092	0.169
-313.968	800.000	0.105	0.313
-312.953	395.211	0.061	0.128
-311.939	366.498	0.172	-0.344
-310.924	-14.119	-0.389	-0.250
-309.910	-25.952	0.127	0.074
-308.895	-200.000	-0.020	0.235
-307.880	-120.715	-0.357	-0.060
-306.866	357.677	0.078	0.154
-305.851	-75.346	0.162	0.058
-304.837	800.000	0.033	0.130
-303.822	105.160	-0.097	0.114
-302.807	187.979	-0.238	0.353
-301.793	326.194	-0.052	-0.098
-300.778	-47.150	-0.114	0.055
-299.764	713.372	-0.055	-0.146
-298.749	-200.000	0.020	-0.200
-297.735	-155.366	0.146	0.009
-296.720	-95.565	-0.141	-0.038
-295.705	800.000	0.023	-0.078
-294.691	-200.000	-0.097	0.468
-293.676	39.900	-0.030	-0.027
-292.662	-183.638	0.154	0.003
-291.647	-10.237	-0.199	0.131
-290.632	800.000	0.031	0.119
-289.618	341.474	0.206	0.400
-288.603	-20.080	0.401	0.246
-287.589	-200.000	0.001	0.080
-286.574	-75.488	-0.225	-0.080
-285.559	80.018	0.132	-0.141
-284.545	136.636	-0.308	0.400
-283.530	-167.744	0.135	-0.005
-282.516	758.895	0.059	-0.158
-281.501	-78.730	0.162	-0.055
-280.486	-200.000	0.025	0.137
-279.472	-45.407	-0.115	-0.057
-278.457	238.283	0.053	0.087
-277.443	69.609	0.192	0.196
-276.428	-103.555	0.479	-0.112
-275.413	371.501	0.157	-0.316
-274.399	-128.156	0.103	-0.015
-273.384	-137.530	-0.397	0.045
-272.370	-110.720	0.412	0.084
-271.355	42.463	0.126	-0.114
-270.340	-200.000	-0.003	0.318
-269.326	-200.000	-0.013	0.201
-268.311	-200.000	0.054	-0.250
-267.297	-200.000	-0.009	-0.338
-266.282	-112.258	-0.223	-0.044
-265.267	-105.384	-0.216	-0.049
-264.253	351.894	0.101	-0.200
-263.238	130.886	0.030	0.038
-262.224	800.000	-0.056	0.205
-261.209	-150.837	0.131	-0.010
-260.195	549.024	-0.189	0.450
-259.180	-31.906	-0.262	0.146
-258.165	-99.762	-0.248	0.062
-257.151	21.702	0.178	0.144
-256.136	-55.866	0.241	0.107
-255.122	-93.992	0.185	-0.050
-254.107	800.000	0.075	0.287
-253.092	-16.305	0.130	0.082
-252.078	-54.101	-0.267	-0.121
-251.063	-200.000	-0.026	-0.123
-250.049	97.057	-0.203	0.231
-249.034	42.412	0.263	0.237
-248.019	-58.827	-0.325	0.140
-247.005	279.495	0.160	0.283
-245.990	-38.425	0.223	-0.117
-244.976	-200.000	0.011	-0.152
-243.961	-12.051	-0.238	0.155
-242.946	-200.000	-0.049	0.450
-241.932	335.183	0.281	0.540
-240.917	-124.003	-0.228	0.036
-239.903	372.675	-0.010	0.020
-238.888	-50.891	-0.189	0.088
-237.873	69.899	-0.167	0.170
-236.859	449.635	-0.032	-0.070
-235.844	277.357	0.185	0.327
-234.830	-67.440	-0.104	-0.041
-233.815	34.439	0.167	-0.144
-232.800	523.816	-0.060	-0.139
-231.786	-17.755	-0.171	0.106
-230.771	667.531	0.064	0.164
-229.757	105.063	0.029	0.034
-228.742	207.491	-0.057	-0.088
-227.727	-200.000	0.046	-0.327
-226.713	-200.000	0.004	0.211
-225.698	-200.000	0.019	-0.294
-224.684	-96.262	-0.453	-0.119
-223.669	346.215	-0.095	0.186
-222.655	-89.030	0.290	0.085
-221.640	-25.995	0.098	-0.057
-220.625	-137.143	0.284	0.032
-219.611	52.981	-0.235	-0.223
-218.596	133.577	0.095	0.122
-217.582	-200.000	0.031	-0.243
-216.567	615.242	0.042	-0.104
-215.552	-43.092	-0.154	-0.077
-214.538	-31.609	-0.156	0.087
-213.523	65.684	-0.152	0.153
-212.509	202.826	-0.310	0.474
-211.494	-140.546	-0.088	-0.009
-210.479	10.540	0.293	0.221
-209.465	-48.633	-0.269	-0.128
-208.450	121.184	0.203	-0.250
-207.436	20.456	0.086	-0.069
-206.421	-62.960	-0.219	-0.090
-205.406	-97.602	0.143	-0.037
-204.392	-73.037	0.270	0.098
-203.377	-27.194	-0.182	0.105
-202.363	231.753	0.160	-0.260
-201.348	-58.739	-0.277	0.119
-200.333	800.000	-0.084	-0.256
-199.319	-200.000	0.036	0.387
-198.304	10.780	-0.126	0.095
-197.290	48.620	-0.010	-0.010
-196.275	180.895	-0.094	0.137
-195.260	-164.217	0.261	-0.012
-194.246	122.868	0.318	-0.394
-193.231	366.867	0.164	-0.328
-192.217	300.376	0.075	-0.137
-191.202	-54.858	-0.145	0.065
-190.187	125.955	0.033	0.042
-189.173	-54.311	0.307	0.138
-188.158	188.435	-0.007	0.010
-187.144	-72.492	0.122	0.045
-186.129	-62.106	0.066	0.027
-185.114	-14.285	0.134	-0.086
-184.100	-69.313	-0.043	0.016
-183.085	27.780	-0.147	0.123
-182.071	-144.266	0.288	0.027
-181.056	-130.923	0.055	0.007
-180.042	-200.000	0.044	-0.368
-179.027	800.000	-0.043	0.152
-178.012	-164.978	-0.283	0.013
-176.998	-17.790	-0.047	-0.029
-175.983	91.468	0.127	-0.141
-174.969	800.000	0.048	-0.156
-173.954	123.122	-0.048	0.059
-172.939	292.594	0.167	-0.302
-171.925	-143.265	0.185	-0.018
-170.910	662.724	-0.082	0.211
-169.896	-192.834	-0.154	0.001
-168.881	-22.736	-0.203	0.122
-167.866	100.528	-0.109	0.126
-166.852	204.482	0.085	0.131
-165.837	-76.277	-0.217	0.076
-164.823	584.910	0.085	0.206
-163.808	-200.000	-0.006	0.053
-162.793	-37.042	0.366	-0.194
-161.779	393.319	-0.042	-0.087
-160.764	-200.000	0.031	0.281
-159.750	93.518	0.228	0.256
-158.735	79.760	-0.176	-0.187
-157.720	376.727	0.169	-0.341
-156.706	-97.238	0.384	0.099
-155.691	-73.532	-0.377	0.136
-154.677	-12.766	-0.194	-0.125
-153.662	-200.000	0.028	-0.238
-152.647	-37.308	0.171	-0.091
-151.633	-84.224	-0.038	0.012
-150.618	-23.893	0.159	-0.094
-149.604	-189.883	-0.230	0.003
-148.589	276.927	0.146	-0.257
-147.574	-41.927	0.057	0.029
-146.560	318.574	0.100	0.187
-145.545	-116.543	-0.247	0.045
-144.531	235.064	-0.077	-0.126
-143.516	-120.379	-0.193	-0.032
-142.502	-151.657	0.074	-0.005
-141.487	-200.000	0.016	0.117
-140.472	-80.343	0.307	-0.101
-139.458	-200.000	0.028	0.249
-138.443	-83.029	0.128	0.041
-137.429	22.761	-0.170	-0.138
-136.414	397.377	0.122	0.251
-135.399	-43.287	0.144	0.072
-134.385	673.049	-0.194	0.496
-133.370	503.469	0.054	-0.123
-132.356	-139.005	0.129	-0.014
-131.341	-200.000	-0.013	-0.128
-130.326	25.589	0.136	0.112
-129.312	-71.057	-0.343	0.127
-128.297	-200.000	-0.028	0.168
-127.283	-92.563	0.110	-0.031
-126.268	-200.000	-0.015	0.375
-125.253	-142.744	0.161	-0.016
-124.239	-200.000	0.024	-0.253
-123.224	-153.804	-0.159	-0.011
-122.210	60.188	0.143	-0.140
