DTS Sentinel unit serial number:	SN413079Multiplexer serial number:	ORYXHardware model number:	OX4-SRSoftware version number:	ORYX F/W v4.00 Oryx Data Collector v3.7.2.0data status	okinstallation	princeton_trtdifferential loss correction	single-endedforward channel	channel 2reverse channel	N/Adate	2019/09/17time	15:51:34forward acquisition time	60.00reverse acquisition time	0.00gamma	496.2192k internal	0.2300k external	0.2300temperature offset calibration	0.9983default loss term (dB/km)	0.3790temperature slope calibration	1.0000multiplexer offset coefficient	1.0000multiplexer slope coefficient	1.0000fibre end	0.00T internal ref (°C)	39.30T ext. ref 1 (°C)	0.38T ext. ref 2 (°C)	37.99length (m)	temperature (°C)	Stokes	anti-Stokes-747.200	207.794	-0.231	0.368
-746.185	-200.000	-0.016	0.335
-745.171	-200.000	0.228	-0.000
-744.156	-60.513	-0.101	-0.044
-743.142	800.000	-0.099	-0.304
-742.127	800.000	-0.110	0.323
-741.112	-200.000	0.041	0.236
-740.098	800.000	-0.032	0.134
-739.083	405.670	0.085	-0.183
-738.069	800.000	0.063	0.229
-737.054	800.000	-0.072	-0.301
-736.039	165.328	0.107	0.154
-735.025	-99.855	0.446	0.114
-734.010	-97.137	-0.183	-0.049
-732.996	800.000	-0.067	-0.281
-731.981	-200.000	0.009	-0.258
-730.966	43.729	0.210	0.196
-729.952	-47.843	0.230	-0.114
-728.937	-40.119	-0.079	-0.042
-727.923	0.137	-0.289	-0.210
-726.908	-78.200	-0.378	-0.133
-725.894	-86.614	0.234	0.073
-724.879	169.608	-0.101	-0.147
-723.864	-200.000	-0.004	0.120
-722.850	125.065	0.011	0.014
-721.835	39.122	-0.110	-0.100
-720.821	321.387	-0.140	0.272
-719.806	587.133	0.080	-0.200
-718.791	500.041	-0.127	-0.298
-717.777	-176.800	0.373	0.010
-716.762	228.299	0.160	-0.266
-715.748	-200.000	0.037	-0.258
-714.733	56.904	0.126	-0.125
-713.718	-49.950	-0.275	-0.133
-712.704	-104.168	-0.389	0.092
-711.689	514.501	-0.065	-0.154
-710.675	800.000	-0.056	-0.202
-709.660	20.045	0.118	0.097
-708.645	-120.250	-0.156	0.027
-707.631	-82.111	0.274	-0.091
-706.616	54.476	0.137	-0.135
-705.602	-175.963	0.607	-0.016
-704.587	-87.619	0.150	-0.046
-703.572	577.966	-0.008	-0.019
-702.558	-200.000	-0.030	0.175
-701.543	-104.524	0.047	-0.011
-700.529	-200.000	0.022	-0.257
-699.514	-101.242	-0.100	-0.025
-698.499	-67.782	0.292	0.116
-697.485	-200.000	0.001	0.242
-696.470	127.809	0.120	-0.156
-695.456	800.000	-0.050	0.177
-694.441	-50.741	0.151	-0.072
-693.426	64.661	-0.268	-0.275
-692.412	42.971	0.262	0.243
-691.397	215.668	-0.077	-0.124
-690.383	67.889	-0.098	0.102
-689.368	-200.000	0.039	0.288
-688.354	145.315	0.109	0.149
-687.339	800.000	0.053	0.191
-686.324	-119.593	-0.236	-0.042
-685.310	8.715	-0.097	-0.074
-684.295	179.142	0.090	0.134
-683.281	-100.574	0.310	-0.078
-682.266	-139.134	0.180	-0.020
-681.251	-143.918	0.286	0.027
-680.237	800.000	0.004	0.012
-679.222	-200.000	0.041	0.224
-678.208	-200.000	0.015	-0.085
-677.193	1.076	-0.176	0.129
-676.178	-169.049	-0.233	-0.009
-675.164	550.679	0.087	-0.211
-674.149	60.053	0.160	-0.161
-673.135	300.108	0.091	0.171
-672.120	195.149	-0.128	-0.198
-671.105	34.745	0.185	0.164
-670.091	350.244	-0.098	-0.198
-669.076	62.614	-0.211	0.215
-668.062	48.706	-0.102	0.098
-667.047	-200.000	0.008	-0.250
-666.032	152.775	-0.111	0.154
-665.018	75.950	0.065	-0.070
-664.003	800.000	0.068	-0.219
-662.989	5.949	0.161	-0.122
-661.974	800.000	0.071	0.294
-660.959	33.083	-0.163	0.143
-659.945	-71.228	0.087	-0.033
-658.930	-89.528	-0.147	-0.044
-657.916	38.892	0.105	-0.096
-656.901	-20.764	-0.128	0.080
-655.886	264.607	0.240	-0.425
-654.872	142.755	-0.113	-0.152
-653.857	100.602	-0.162	0.192
-652.843	-38.190	-0.227	-0.122
-651.828	-106.923	-0.153	0.034
-650.814	-200.000	-0.063	0.472
-649.799	800.000	-0.067	0.224
-648.784	800.000	-0.178	-0.526
-647.770	656.777	-0.143	-0.374
-646.755	-163.270	-0.104	0.005
-645.741	-120.847	0.194	0.033
-644.726	-42.996	-0.297	-0.153
-643.711	-200.000	-0.002	-0.073
-642.697	251.245	0.114	-0.198
-641.682	-87.851	-0.370	-0.113
-640.668	-200.000	-0.000	-0.223
-639.653	-173.409	0.247	0.008
-638.638	800.000	-0.043	0.146
-637.624	-62.219	0.341	0.144
-636.609	235.116	0.039	0.066
-635.595	800.000	0.026	0.081
-634.580	-200.000	-0.036	0.186
-633.565	-66.298	-0.154	-0.062
-632.551	-94.833	-0.197	0.054
-631.536	-39.621	-0.207	0.110
-630.522	474.485	0.020	-0.045
-629.507	58.020	-0.135	0.134
-628.492	161.152	-0.067	-0.095
-627.478	-200.000	0.045	0.266
-626.463	800.000	0.032	0.104
-625.449	-122.014	-0.209	-0.035
-624.434	-179.328	-0.170	-0.004
-623.419	-200.000	0.006	0.060
-622.405	-135.433	-0.067	-0.008
-621.390	-3.017	-0.184	-0.130
-620.376	-105.298	-0.273	-0.063
-619.361	-9.358	-0.207	-0.140
-618.346	347.717	-0.116	-0.232
-617.332	338.857	0.103	-0.203
-616.317	591.654	-0.061	0.154
-615.303	357.841	0.053	-0.107
-614.288	8.399	-0.224	-0.171
-613.273	263.594	0.094	-0.165
-612.259	-60.930	0.082	0.035
-611.244	439.952	-0.059	0.131
-610.230	-200.000	0.010	0.116
-609.215	-40.395	0.245	-0.129
-608.201	173.844	0.085	0.124
-607.186	-176.964	-0.346	-0.009
-606.171	90.063	-0.077	-0.087
-605.157	-104.631	0.253	0.059
-604.142	-128.783	0.212	-0.030
-603.128	298.963	0.058	0.109
-602.113	-200.000	0.048	0.347
-601.098	-200.000	0.041	-0.229
-600.084	-42.785	-0.194	0.100
-599.069	-200.000	0.021	-0.243
-598.055	-142.125	0.212	0.021
-597.040	800.000	0.060	-0.237
-596.025	63.486	0.171	0.174
-595.011	23.834	0.071	-0.059
-593.996	-200.000	0.024	0.267
-592.982	184.704	-0.057	-0.086
-591.967	47.071	0.282	0.266
-590.952	800.000	-0.027	-0.117
-589.938	-159.965	-0.305	0.017
-588.923	-141.264	0.195	-0.020
-587.909	-130.747	0.131	-0.018
-586.894	-106.854	-0.313	0.070
-585.879	-46.501	-0.348	-0.173
-584.865	-200.000	0.033	0.315
-583.850	21.339	0.086	0.071
-582.836	-40.649	0.065	-0.034
-581.821	-78.860	0.195	0.067
-580.806	297.013	0.047	-0.087
-579.792	-200.000	0.017	0.089
-578.777	-138.446	0.247	-0.028
-577.763	800.000	0.031	-0.106
-576.748	-16.842	0.136	-0.087
-575.733	-99.576	0.418	0.106
-574.719	507.281	-0.061	0.144
-573.704	-200.000	0.016	-0.110
-572.690	-200.000	0.051	-0.284
-571.675	306.330	0.041	-0.077
-570.661	183.781	-0.147	-0.220
-569.646	464.651	-0.072	0.162
-568.631	-60.678	0.010	-0.004
-567.617	5.124	0.073	0.054
-566.602	181.180	0.075	-0.112
-565.588	-200.000	-0.002	0.172
-564.573	-200.000	-0.015	0.294
-563.558	800.000	-0.109	-0.349
-562.544	-24.492	0.207	0.125
-561.529	800.000	-0.084	-0.243
-560.515	-200.000	0.048	-0.244
-559.500	137.897	0.059	-0.078
-558.485	-200.000	-0.047	-0.372
-557.471	697.182	0.055	-0.146
-556.456	-200.000	-0.012	-0.129
-555.442	65.351	0.070	0.071
-554.427	-200.000	-0.011	0.141
-553.412	-117.037	-0.367	0.068
-552.398	-12.576	-0.112	-0.074
-551.383	-200.000	-0.028	-0.505
-550.369	-152.333	0.356	0.026
-549.354	-145.741	-0.196	0.018
-548.339	657.868	0.059	-0.152
-547.325	-39.487	-0.064	-0.034
-546.310	800.000	0.048	0.137
-545.296	-39.076	0.151	-0.080
-544.281	289.294	-0.180	-0.331
-543.266	40.553	0.134	-0.123
-542.252	-82.956	0.200	0.065
-541.237	21.666	0.083	-0.069
-540.223	166.904	0.013	0.019
-539.208	-132.022	0.185	-0.024
-538.193	-58.582	0.191	0.084
-537.179	609.242	-0.069	-0.175
-536.164	-149.475	-0.176	0.014
-535.150	800.000	-0.030	0.098
-534.135	2.894	0.045	-0.033
-533.121	-200.000	0.028	0.178
-532.106	-8.818	0.163	-0.111
-531.091	92.738	-0.060	0.069
-530.077	-112.897	-0.157	-0.031
-529.062	-200.000	0.058	-0.361
-528.048	96.799	-0.149	-0.173
-527.033	-67.892	-0.228	0.090
-526.018	-147.970	-0.195	-0.016
-525.004	52.752	0.078	0.076
-523.989	-100.983	-0.242	-0.060
-522.975	-200.000	0.010	-0.091
-521.960	605.312	0.065	-0.163
-520.945	-52.580	-0.151	-0.070
-519.931	-119.581	0.266	-0.047
-518.916	-121.288	0.255	-0.043
-517.902	115.766	-0.115	-0.143
-516.887	425.684	0.080	0.174
-515.872	100.110	0.135	0.159
-514.858	-200.000	-0.023	0.273
-513.843	189.622	-0.156	0.237
-512.829	-114.023	-0.169	-0.033
-511.814	-200.000	-0.032	0.187
-510.799	321.854	0.118	-0.227
-509.785	209.150	-0.154	-0.244
-508.770	-100.799	0.321	0.080
-507.756	65.798	-0.225	0.230
-506.741	-200.000	-0.017	-0.131
-505.726	-60.778	0.259	0.111
-504.712	-200.000	0.003	0.135
-503.697	-134.453	-0.332	-0.041
-502.683	363.031	-0.085	-0.173
-501.668	489.562	-0.078	-0.181
-500.653	63.735	0.054	0.055
-499.639	66.299	0.359	-0.369
-498.624	-200.000	-0.003	0.352
-497.610	692.737	0.074	0.197
-496.595	199.902	0.279	-0.433
-495.581	-133.131	0.327	0.042
-494.566	28.861	0.111	-0.095
-493.551	394.998	0.070	-0.147
-492.537	237.205	0.153	0.256
-491.522	-53.493	0.289	0.134
-490.508	-200.000	-0.030	0.153
-489.493	595.811	-0.031	-0.077
-488.478	-135.715	-0.218	-0.026
-487.464	295.859	0.049	-0.091
-486.449	101.072	-0.122	-0.144
-485.435	-16.816	-0.066	0.042
-484.420	192.475	-0.227	0.346
-483.405	-56.719	0.116	-0.052
-482.391	800.000	0.045	0.159
-481.376	390.019	0.075	-0.156
-480.362	646.329	-0.084	-0.215
-479.347	-100.700	-0.526	-0.131
-478.332	704.198	0.061	0.164
-477.318	-33.223	0.217	-0.122
-476.303	-33.871	0.450	0.250
-475.289	-49.423	0.355	0.171
-474.274	-58.257	-0.172	0.076
-473.259	671.333	-0.100	0.263
-472.245	800.000	0.106	0.315
-471.230	-2.161	0.284	0.201
-470.216	-10.749	0.268	-0.179
-469.201	129.500	-0.160	0.207
-468.186	800.000	-0.062	0.193
-467.172	3.109	-0.202	0.148
-466.157	-127.718	-0.209	0.030
-465.143	800.000	0.054	0.192
-464.128	703.843	-0.056	0.150
-463.113	-200.000	-0.009	0.092
-462.099	-101.669	0.121	0.030
-461.084	-200.000	-0.035	-0.232
-460.070	800.000	0.112	0.327
-459.055	-102.255	0.206	0.050
-458.040	120.988	-0.233	0.292
-457.026	-56.078	-0.102	0.046
-456.011	-63.207	0.072	-0.030
-454.997	800.000	-0.012	0.052
-453.982	108.291	0.068	-0.082
-452.968	366.439	-0.044	-0.089
-451.953	-30.016	-0.206	0.118
-450.938	-7.914	-0.248	-0.169
-449.924	460.209	-0.135	-0.303
-448.909	-136.730	-0.221	0.026
-447.895	800.000	0.030	-0.125
-446.880	800.000	-0.094	0.324
-445.865	-200.000	0.025	0.342
-444.851	800.000	0.039	-0.130
-443.836	26.264	0.175	0.148
-442.822	-36.724	0.197	-0.107
-441.807	-200.000	0.002	-0.126
-440.792	-27.924	-0.252	-0.147
-439.778	-117.459	-0.007	-0.001
-438.763	-18.114	-0.130	-0.082
-437.749	-61.582	0.144	0.061
-436.734	-200.000	-0.031	0.195
-435.719	423.425	-0.045	0.098
-434.705	-199.415	0.244	-0.001
-433.690	-70.131	0.157	0.060
-432.676	97.365	-0.059	-0.068
-431.661	-103.564	-0.271	-0.064
-430.646	382.605	0.085	-0.176
-429.632	800.000	-0.084	0.347
-428.617	26.899	0.135	-0.114
-427.603	-128.809	-0.151	0.021
-426.588	-200.000	0.031	0.160
-425.573	107.826	-0.184	0.220
-424.559	113.415	0.108	-0.133
-423.544	800.000	0.056	0.174
-422.530	-144.634	-0.368	-0.034
-421.515	139.504	0.224	-0.297
-420.500	800.000	-0.088	0.293
-419.486	-75.878	-0.108	0.039
-418.471	295.479	0.088	-0.163
-417.457	-76.853	0.116	-0.041
-416.442	-200.000	-0.017	-0.090
-415.428	-43.413	-0.108	0.055
-414.413	-200.000	-0.052	-0.474
-413.398	-200.000	-0.001	0.239
-412.384	-151.660	0.114	0.008
-411.369	-5.325	-0.214	0.148
-410.355	314.996	0.182	-0.346
-409.340	-140.703	0.217	0.023
-408.325	7.553	0.282	0.212
-407.311	230.494	0.172	-0.283
-406.296	-53.131	-0.136	-0.063
-405.282	-51.531	-0.210	-0.099
-404.267	-178.736	0.236	-0.005
-403.252	-36.438	-0.211	0.114
-402.238	239.627	-0.143	0.240
-401.223	-169.670	-0.253	0.009
-400.209	255.295	-0.134	-0.231
-399.194	-106.670	0.234	0.052
-398.179	305.135	-0.103	-0.193
-397.165	-156.771	0.176	-0.011
-396.150	-200.000	-0.000	-0.264
-395.136	-135.699	-0.184	-0.022
-394.121	-113.234	0.017	0.003
-393.106	51.379	0.337	-0.322
-392.092	217.286	0.125	0.200
-391.077	-69.005	0.235	-0.091
-390.063	-116.097	-0.244	-0.046
-389.048	-200.000	0.032	-0.332
-388.033	-14.344	-0.171	0.111
-387.019	473.647	-0.061	0.139
-386.004	-200.000	-0.020	0.226
-384.990	800.000	0.055	-0.221
-383.975	470.064	0.066	-0.148
-382.960	84.072	0.215	0.237
-381.946	16.441	0.280	-0.223
-380.931	800.000	0.045	0.179
-379.917	158.116	0.123	0.172
-378.902	647.735	-0.037	-0.094
-377.888	177.352	-0.099	-0.146
-376.873	-186.658	-0.263	0.004
-375.858	255.723	-0.163	0.281
-374.844	453.618	-0.127	-0.284
-373.829	39.137	0.218	-0.196
-372.815	89.720	0.061	0.069
-371.800	145.378	0.031	0.041
-370.785	121.271	0.229	0.287
-369.771	800.000	0.057	-0.168
-368.756	182.138	0.171	-0.254
-367.742	34.586	-0.185	0.163
-366.727	341.224	0.170	0.333
-365.712	-5.281	-0.351	0.242
-364.698	-100.539	0.163	-0.040
-363.683	800.000	-0.078	0.315
-362.669	156.083	-0.185	0.257
-361.654	-200.000	0.028	0.140
-360.639	-151.628	0.231	-0.017
-359.625	54.890	0.062	0.060
-358.610	-200.000	-0.015	0.215
-357.596	-43.065	-0.157	-0.080
-356.581	184.597	0.270	-0.403
-355.566	5.087	0.039	-0.029
-354.552	-97.106	0.114	0.030
-353.537	-200.000	0.016	0.114
-352.523	88.301	0.060	0.067
-351.508	-33.074	-0.380	0.212
-350.493	-11.942	-0.099	-0.065
-349.479	-12.718	0.115	-0.075
-348.464	-139.523	0.317	0.034
-347.450	261.174	-0.027	-0.046
-346.435	-122.043	-0.239	-0.039
-345.420	-200.000	-0.022	0.209
-344.406	67.485	0.102	0.105
-343.391	-54.246	-0.169	-0.077
-342.377	126.953	0.200	-0.254
-341.362	131.933	0.119	-0.154
-340.348	-38.843	0.343	0.182
-339.333	800.000	0.098	0.276
-338.318	156.072	0.174	0.241
-337.304	44.973	-0.100	-0.092
-336.289	323.394	0.150	0.288
-335.275	-200.000	0.002	-0.051
-334.260	203.776	0.077	-0.120
-333.245	-74.977	-0.090	-0.032
-332.231	-138.164	-0.326	0.036
-331.216	800.000	0.016	0.063
-330.202	40.242	-0.442	-0.399
-329.187	-148.923	-0.198	0.016
-328.172	-200.000	-0.012	-0.100
-327.158	73.666	0.195	-0.205
-326.143	-124.642	-0.429	-0.067
-325.129	16.657	0.150	0.119
-324.114	-200.000	-0.029	0.188
-323.099	58.099	0.272	-0.268
-322.085	-66.894	-0.273	0.108
-321.070	-91.511	-0.329	0.094
-320.056	156.955	-0.262	-0.363
-319.041	9.487	-0.117	0.089
-318.026	270.102	-0.063	-0.111
-317.012	50.071	-0.321	0.304
-315.997	119.946	0.197	0.245
-314.983	-32.860	-0.272	0.151
-313.968	7.234	-0.103	0.077
-312.953	-75.063	-0.302	0.108
-311.939	-3.130	-0.172	0.121
-310.924	347.265	0.121	0.238
-309.910	-200.000	0.001	-0.119
-308.895	-93.024	-0.153	0.043
-307.880	-200.000	-0.020	0.220
-306.866	-105.785	0.488	-0.111
-305.851	751.219	-0.124	-0.334
-304.837	366.303	0.185	0.374
-303.822	286.095	-0.059	0.106
-302.807	450.937	-0.214	0.473
-301.793	756.378	0.092	-0.250
-300.778	800.000	-0.063	0.186
-299.764	-200.000	-0.012	0.107
-298.749	-41.441	-0.051	-0.026
-297.735	800.000	-0.130	-0.509
-296.720	294.399	0.032	-0.058
-295.705	800.000	0.043	0.178
-294.691	-112.170	0.366	0.074
-293.676	-51.055	0.212	-0.100
-292.662	-200.000	0.020	0.108
-291.647	11.705	-0.253	0.195
-290.632	64.691	0.102	0.104
-289.618	-200.000	-0.014	0.198
-288.603	800.000	-0.015	-0.058
-287.589	-39.521	0.231	-0.121
-286.574	138.758	0.145	-0.191
-285.559	-200.000	-0.009	-0.132
-284.545	-119.923	0.340	-0.059
-283.530	65.680	0.133	0.135
-282.516	-8.532	0.104	-0.070
-281.501	188.766	0.060	-0.090
-280.486	418.710	-0.055	0.118
-279.472	-101.137	-0.374	-0.092
-278.457	305.212	0.062	-0.115
-277.443	-178.021	-0.456	0.011
-276.428	-200.000	0.066	-0.334
-275.413	-200.000	0.021	-0.122
-274.399	-163.779	0.178	0.008
-273.384	-6.254	-0.104	-0.071
-272.370	-109.182	0.092	-0.020
-271.355	-75.357	-0.156	-0.056
-270.340	-46.633	0.043	-0.021
-269.326	800.000	0.019	-0.055
-268.311	-58.459	-0.116	-0.051
-267.297	-108.198	-0.183	0.040
-266.282	-92.355	0.155	0.044
-265.267	220.723	-0.083	-0.133
-264.253	-200.000	-0.007	0.199
-263.238	-6.656	0.203	-0.138
-262.224	37.379	-0.113	-0.100
-261.209	-44.031	-0.152	0.077
-260.195	-98.319	0.248	-0.064
-259.180	-153.823	-0.166	-0.011
-258.165	6.602	-0.155	-0.115
-257.151	522.804	-0.053	-0.125
-256.136	2.907	-0.139	-0.101
-255.122	-84.145	0.139	-0.044
-254.107	136.193	-0.204	-0.266
-253.092	800.000	-0.104	-0.451
-252.078	431.794	-0.052	-0.113
-251.063	-1.292	0.478	0.338
-250.049	74.382	-0.136	-0.143
-249.034	22.358	-0.261	0.214
-248.019	-200.000	0.021	-0.233
-247.005	300.810	-0.121	-0.223
-245.990	-112.696	0.232	0.046
-244.976	9.859	0.129	-0.098
-243.961	-13.254	0.250	0.163
-242.946	4.451	-0.107	0.078
-241.932	-51.854	-0.201	0.094
-240.917	58.043	0.179	0.175
-239.903	-200.000	-0.045	-0.279
-238.888	-200.000	-0.023	-0.191
-237.873	-117.682	-0.277	0.050
-236.859	-44.727	-0.152	-0.076
-235.844	211.112	0.139	0.218
-234.830	-96.414	0.123	0.033
-233.815	-171.433	0.562	0.019
-232.800	-11.905	0.225	0.148
-231.786	-200.000	-0.059	-0.496
-230.771	4.058	-0.501	-0.367
-229.757	34.277	-0.209	0.182
-228.742	-48.881	0.226	-0.109
-227.727	800.000	0.103	0.314
-226.713	9.045	-0.236	0.178
-225.698	-10.201	-0.140	0.093
-224.684	105.409	0.075	0.089
-223.669	214.566	0.274	0.434
-222.655	60.349	0.204	-0.202
-221.640	-14.457	-0.136	-0.088
-220.625	357.558	0.055	0.110
-219.611	-75.736	0.098	0.035
-218.596	108.657	0.248	-0.296
-217.582	416.150	-0.072	-0.154
-216.567	393.119	0.061	0.128
-215.552	223.496	0.283	0.456
-214.538	-200.000	0.127	-0.000
-213.523	13.500	-0.099	-0.077
-212.509	-30.338	0.227	-0.129
-211.494	214.761	0.129	0.205
-210.479	14.095	-0.037	0.029
-209.465	138.500	-0.182	-0.239
-208.450	-87.468	0.079	0.024
-207.436	-200.000	0.008	-0.051
-206.421	-170.561	0.149	-0.005
-205.406	-200.000	-0.006	0.038
-204.392	-96.043	0.118	0.031
-203.377	-200.000	0.046	0.207
-202.363	50.380	-0.152	-0.144
-201.348	-94.857	-0.247	-0.067
-200.333	-145.502	0.096	0.009
-199.319	-200.000	0.002	0.101
-198.304	248.880	-0.048	-0.081
-197.290	-114.850	-0.064	-0.012
-196.275	-66.429	-0.216	0.086
-195.260	3.263	-0.102	0.074
-194.246	800.000	-0.079	0.240
-193.231	-90.158	0.110	-0.032
-192.217	-33.371	-0.085	0.047
-191.202	-104.937	-0.340	0.078
-190.187	140.257	-0.160	0.211
-189.173	60.016	0.197	-0.194
-188.158	-135.107	-0.091	-0.011
-187.144	-28.816	-0.147	0.084
-186.129	100.080	0.329	-0.381
-185.114	-144.446	-0.182	-0.017
-184.100	166.493	0.110	0.156
-183.085	7.531	0.250	0.187
-182.071	69.946	0.168	0.173
-181.056	-200.000	0.019	0.170
-180.042	684.783	0.024	0.062
-179.027	800.000	0.044	0.190
-178.012	149.816	0.078	-0.106
-176.998	-200.000	0.188	-0.000
-175.983	43.535	0.152	-0.139
-174.969	10.615	-0.134	0.102
-173.954	-147.771	-0.092	-0.008
-172.939	800.000	-0.052	-0.205
-171.925	45.735	0.023	-0.021
-170.910	-171.026	-0.283	-0.010
-169.896	125.437	-0.063	-0.080
-168.881	-53.355	0.169	-0.077
-167.866	-151.514	0.123	0.009
-166.852	9.799	0.095	0.072
-165.837	-81.342	0.320	-0.105
-164.823	20.053	-0.139	0.112
-163.808	-9.068	-0.246	-0.164
-162.793	800.000	0.043	0.175
-161.779	-200.000	0.013	0.203
-160.764	-165.041	-0.162	0.007
-159.750	242.221	-0.101	0.169
-158.735	-19.718	-0.117	-0.072
-157.720	-200.000	0.005	-0.320
-156.706	11.708	0.104	0.080
-155.691	-169.738	-0.091	0.003
-154.677	-200.000	0.038	0.237
-153.662	-5.291	-0.131	0.090
-152.647	684.425	-0.064	-0.168
-151.633	-200.000	-0.025	0.251
-150.618	671.237	0.172	-0.444
-149.604	-200.000	-0.031	0.344
-148.589	-76.143	-0.192	-0.068
-147.574	-70.605	-0.321	-0.121
-146.560	-111.160	-0.206	0.042
-145.545	-95.611	0.111	-0.030
-144.531	146.034	0.117	0.156
-143.516	267.452	0.078	0.135
-142.502	-34.671	0.266	0.145
-141.487	-200.000	0.019	0.110
-140.472	506.963	0.059	0.135
-139.458	-15.995	-0.311	0.197
-138.443	-59.037	0.235	-0.101
-137.429	-138.150	-0.187	-0.021
-136.414	-124.045	-0.279	-0.044
-135.399	-121.278	0.191	0.032
-134.385	-121.918	-0.154	0.025
-133.370	336.165	0.057	-0.110
-132.356	-200.000	0.009	0.313
-131.341	66.869	-0.124	0.126
-130.326	91.929	-0.238	0.267
-129.312	-18.541	-0.123	0.076
-128.297	-186.394	-0.159	0.002
-127.283	261.423	-0.242	0.417
-126.268	-26.723	0.052	0.030
-125.253	743.787	-0.017	0.047
-124.239	-143.494	-0.527	0.050
-123.224	-24.296	-0.158	0.094
-122.210	-86.764	0.198	-0.060
-121.195	-19.326	-0.423	0.261
