DTS Sentinel unit serial number:	SN413079Multiplexer serial number:	ORYXHardware model number:	OX4-SRSoftware version number:	ORYX F/W v4.00 Oryx Data Collector v3.7.2.0data status	okinstallation	princeton_trtdifferential loss correction	single-endedforward channel	channel 2reverse channel	N/Adate	2019/09/15time	02:55:35forward acquisition time	60.00reverse acquisition time	0.00gamma	496.2192k internal	0.2326k external	0.2326temperature offset calibration	1.0034default loss term (dB/km)	0.3790temperature slope calibration	1.0000multiplexer offset coefficient	1.0000multiplexer slope coefficient	1.0000fibre end	0.00T internal ref (°C)	31.27T ext. ref 1 (°C)	4.57T ext. ref 2 (°C)	25.67length (m)	temperature (°C)	Stokes	anti-Stokes-747.200	-22.374	-0.378	0.231
-746.185	-0.009	-0.160	0.115
-745.171	-200.000	-0.014	-0.258
-744.156	-200.000	0.029	0.186
-743.142	800.000	0.043	-0.150
-742.127	-200.000	-0.035	0.213
-741.112	800.000	-0.132	-0.513
-740.098	-200.000	-0.313	-0.001
-739.083	68.429	0.073	0.076
-738.069	163.237	-0.199	0.282
-737.054	-200.000	0.011	0.225
-736.039	229.976	-0.188	-0.310
-735.025	-200.000	0.000	0.038
-734.010	9.947	-0.117	0.090
-732.996	-18.509	-0.055	-0.035
-731.981	407.142	-0.069	-0.148
-730.966	-33.022	-0.071	-0.040
-729.952	-93.728	-0.262	0.073
-728.937	33.112	-0.177	-0.155
-727.923	-151.650	-0.267	0.020
-726.908	-100.026	-0.182	-0.046
-725.894	303.227	-0.136	-0.255
-724.879	-200.000	0.008	-0.138
-723.864	11.594	-0.078	-0.060
-722.850	45.753	0.118	-0.110
-721.835	208.917	0.106	0.168
-720.821	60.750	-0.103	-0.103
-719.806	89.879	-0.142	-0.160
-718.791	58.750	-0.293	-0.290
-717.777	800.000	-0.046	0.185
-716.762	-200.000	-0.022	-0.445
-715.748	122.175	0.157	-0.198
-714.733	768.838	0.171	0.470
-713.718	288.390	-0.069	-0.125
-712.704	800.000	0.045	-0.145
-711.689	405.813	0.081	-0.173
-710.675	484.979	0.041	-0.095
-709.660	-200.000	-0.003	0.076
-708.645	168.774	0.038	-0.054
-707.631	117.403	0.088	-0.110
-706.616	254.118	0.123	0.212
-705.602	800.000	0.042	-0.165
-704.587	800.000	-0.029	0.097
-703.572	90.854	0.273	0.308
-702.558	-29.184	-0.282	0.163
-701.543	471.556	0.112	-0.255
-700.529	-73.083	-0.198	-0.073
-699.514	800.000	-0.142	-0.418
-698.499	249.296	-0.199	-0.340
-697.485	-200.000	0.017	-0.183
-696.470	-95.502	-0.037	0.010
-695.456	-86.880	-0.335	0.103
-694.441	460.925	-0.154	0.346
-693.426	-2.379	-0.078	-0.055
-692.412	-200.000	0.046	-0.211
-691.397	-23.976	-0.305	0.184
-690.383	-83.772	0.226	0.072
-689.368	-7.310	-0.191	-0.130
-688.354	-200.000	-0.091	-0.451
-687.339	800.000	-0.106	-0.449
-686.324	-200.000	-0.028	0.137
-685.310	-41.012	-0.256	0.133
-684.295	-56.059	0.155	-0.070
-683.281	-142.960	-0.392	0.038
-682.266	40.710	-0.161	-0.146
-681.251	-131.128	-0.315	-0.042
-680.237	-200.000	0.055	-0.302
-679.222	-113.177	0.576	-0.114
-678.208	229.601	0.079	-0.131
-677.193	169.576	0.323	0.464
-676.178	-76.759	0.160	-0.056
-675.164	164.303	-0.094	0.133
-674.149	-28.837	0.289	0.167
-673.135	-156.761	-0.218	-0.014
-672.120	-200.000	-0.055	-0.297
-671.105	-85.722	0.280	-0.087
-670.091	-150.498	-0.126	0.010
-669.076	207.052	-0.144	0.225
-668.062	698.218	0.082	-0.217
-667.047	-12.413	0.334	0.220
-666.032	-18.780	0.238	-0.149
-665.018	-50.282	-0.120	-0.057
-664.003	-200.000	-0.015	0.248
-662.989	244.979	-0.087	-0.148
-661.974	-200.000	0.033	-0.381
-660.959	166.159	0.064	0.091
-659.945	-88.058	0.049	-0.015
-658.930	800.000	0.050	-0.140
-657.916	78.016	-0.159	-0.170
-656.901	-8.652	-0.424	-0.286
-655.886	-169.685	-0.088	0.003
-654.872	181.635	-0.100	-0.148
-653.857	-8.095	0.169	-0.115
-652.843	-200.000	-0.016	-0.330
-651.828	380.242	-0.189	-0.389
-650.814	800.000	0.146	-0.466
-649.799	11.241	0.134	0.103
-648.784	80.120	0.172	-0.185
-647.770	-151.967	0.332	-0.024
-646.755	113.582	-0.124	0.152
-645.741	-200.000	0.052	0.231
-644.726	-40.774	0.214	0.111
-643.711	-200.000	-0.001	-0.158
-642.697	800.000	0.010	-0.038
-641.682	-81.472	-0.215	-0.071
-640.668	-138.079	-0.084	-0.009
-639.653	-79.509	-0.127	0.043
-638.638	-200.000	0.019	0.162
-637.624	800.000	0.094	-0.301
-636.609	192.807	-0.128	0.194
-635.595	28.653	-0.148	0.126
-634.580	800.000	-0.077	0.321
-633.565	-74.164	-0.139	0.050
-632.551	115.273	-0.263	-0.322
-631.536	156.488	0.126	-0.175
-630.522	35.028	0.171	0.150
-629.507	-33.896	0.189	0.105
-628.492	-145.339	-0.204	0.018
-627.478	-99.629	-0.467	-0.118
-626.463	-34.865	-0.166	0.091
-625.449	-16.590	-0.239	-0.152
-624.434	-128.166	-0.217	0.031
-623.419	21.824	-0.080	-0.066
-622.405	800.000	-0.110	0.476
-621.390	-76.845	0.152	0.053
-620.376	-127.732	-0.248	0.036
-619.361	-51.257	-0.186	-0.087
-618.346	-200.000	0.020	-0.299
-617.332	73.864	0.135	0.142
-616.317	-94.244	0.423	0.116
-615.303	-200.000	0.024	0.262
-614.288	800.000	-0.061	0.215
-613.273	40.574	-0.247	-0.223
-612.259	-86.680	-0.230	-0.071
-611.244	-84.125	0.188	-0.060
-610.230	800.000	0.036	-0.103
-609.215	-132.272	-0.255	-0.033
-608.201	66.489	-0.194	-0.197
-607.186	-117.959	-0.325	-0.058
-606.171	-66.998	0.327	-0.130
-605.157	800.000	0.065	-0.261
-604.142	293.383	-0.058	0.105
-603.128	-11.969	-0.053	-0.035
-602.113	-8.523	0.355	-0.240
-601.098	367.404	0.057	0.115
-600.084	47.689	-0.194	-0.182
-599.069	800.000	-0.088	0.282
-598.055	535.808	-0.015	-0.036
-597.040	-41.738	-0.406	0.209
-596.025	-28.983	-0.363	-0.209
-595.011	-200.000	-0.030	0.141
-593.996	786.900	0.120	-0.330
-592.982	386.648	-0.055	0.114
-591.967	800.000	0.069	0.195
-590.952	800.000	-0.007	0.026
-589.938	-10.735	-0.214	-0.142
-588.923	26.980	-0.014	-0.011
-587.909	-200.000	-0.012	-0.069
-586.894	-43.938	0.126	-0.064
-585.879	350.786	-0.102	0.202
-584.865	-78.843	0.276	-0.094
-583.850	-200.000	-0.005	0.163
-582.836	-200.000	0.044	-0.299
-581.821	-200.000	-0.002	0.031
-580.806	-200.000	-0.026	0.248
-579.792	330.752	0.123	-0.237
-578.777	433.702	-0.140	-0.304
-577.763	337.148	0.035	-0.068
-576.748	-143.275	0.201	-0.019
-575.733	32.398	-0.158	0.137
-574.719	-200.000	0.024	-0.183
-573.704	-200.000	0.022	0.339
-572.690	-200.000	-0.088	-0.473
-571.675	40.887	-0.163	0.148
-570.661	210.480	0.220	0.347
-569.646	28.001	0.229	-0.194
-568.631	85.751	-0.034	-0.038
-567.617	800.000	-0.061	0.214
-566.602	172.115	0.230	0.331
-565.588	-26.995	0.235	-0.138
-564.573	-200.000	0.055	0.257
-563.558	800.000	0.021	0.060
-562.544	326.922	-0.136	-0.261
-561.529	-148.226	0.298	-0.025
-560.515	-200.000	0.032	0.149
-559.500	-200.000	0.017	-0.359
-558.485	662.177	-0.030	-0.079
-557.471	-170.042	-0.176	-0.006
-556.456	-154.285	-0.166	-0.011
-555.442	-103.627	-0.158	-0.037
-554.427	-15.522	-0.229	-0.146
-553.412	-200.000	0.025	-0.145
-552.398	407.468	-0.132	-0.279
-551.383	317.572	-0.127	0.240
-550.369	-115.333	0.450	0.085
-549.354	584.789	-0.023	0.057
-548.339	800.000	-0.103	-0.327
-547.325	-127.057	-0.098	-0.014
-546.310	-97.583	0.178	-0.046
-545.296	10.896	-0.068	0.052
-544.281	111.774	-0.158	-0.190
-543.266	800.000	0.073	-0.221
-542.252	-200.000	-0.035	-0.179
-541.237	41.912	0.019	-0.017
-540.223	-65.985	0.044	-0.018
-539.208	98.624	-0.178	0.205
-538.193	-159.352	-0.314	0.018
-537.179	-103.144	0.131	0.031
-536.164	-5.330	0.250	0.172
-535.150	-95.225	0.167	-0.045
-534.135	-200.000	-0.029	0.391
-533.121	158.361	0.196	-0.272
-532.106	-26.133	-0.084	-0.049
-531.091	-200.000	0.095	0.528
-530.077	-11.798	-0.061	0.040
-529.062	0.464	0.273	0.195
-528.048	94.524	-0.070	-0.079
-527.033	-200.000	-0.003	0.028
-526.018	59.639	0.247	-0.244
-525.004	122.246	0.136	-0.170
-523.989	-200.000	-0.044	-0.246
-522.975	-200.000	0.063	0.348
-521.960	800.000	-0.040	-0.153
-520.945	-200.000	0.082	-0.395
-519.931	800.000	0.036	-0.110
-518.916	277.371	-0.069	0.122
-517.902	150.349	-0.087	0.118
-516.887	-130.665	-0.028	0.004
-515.872	-84.398	0.090	-0.029
-514.858	14.744	-0.144	-0.112
-513.843	-123.628	0.197	0.031
-512.829	199.305	-0.048	-0.073
-511.814	-200.000	-0.323	0.001
-510.799	-200.000	-0.003	0.086
-509.785	-94.791	0.089	-0.024
-508.770	185.027	0.123	0.183
-507.756	2.627	0.037	-0.027
-506.741	313.444	-0.125	0.235
-505.726	630.699	-0.109	0.277
-504.712	35.927	0.033	0.029
-503.697	-44.677	-0.446	-0.222
-502.683	120.968	0.357	-0.444
-501.668	800.000	0.039	0.165
-500.653	22.427	-0.262	-0.214
-499.639	201.508	0.102	0.157
-498.624	30.109	0.074	-0.063
-497.610	-90.518	0.099	-0.029
-496.595	800.000	0.102	-0.312
-495.581	-200.000	0.023	0.153
-494.566	25.718	-0.080	-0.067
-493.551	37.927	-0.050	0.044
-492.537	58.730	-0.265	0.260
-491.522	-200.000	-0.001	0.113
-490.508	5.852	0.096	0.071
-489.493	-86.712	-0.363	0.111
-488.478	6.026	0.263	-0.195
-487.464	-29.775	0.108	-0.061
-486.449	32.340	0.070	0.060
-485.435	-50.200	-0.292	-0.138
-484.420	-8.890	0.075	0.050
-483.405	-200.000	-0.022	-0.310
-482.391	800.000	-0.127	0.405
-481.376	21.015	0.191	-0.155
-480.362	24.274	-0.265	0.219
-479.347	-43.358	0.238	0.120
-478.332	305.584	-0.119	-0.222
-477.318	-166.812	0.207	0.009
-476.303	-142.143	0.237	-0.023
-475.289	-180.955	-0.180	-0.004
-474.274	-200.000	0.009	0.278
-473.259	60.327	0.172	-0.170
-472.245	-59.522	0.102	0.044
-471.230	399.836	0.158	0.330
-470.216	-106.407	-0.004	0.001
-469.201	-200.000	-0.013	-0.107
-468.186	62.143	0.033	0.033
-467.172	-77.259	-0.076	-0.026
-466.157	-45.169	-0.195	0.097
-465.143	-162.121	-0.357	-0.018
-464.128	-200.000	-0.004	-0.203
-463.113	-101.486	0.184	0.045
-462.099	800.000	-0.059	-0.182
-461.084	52.427	-0.271	-0.258
-460.070	-158.144	0.187	0.011
-459.055	3.463	0.183	-0.133
-458.040	-200.000	-0.007	-0.080
-457.026	-200.000	-0.001	0.048
-456.011	-78.500	0.219	-0.075
-454.997	-110.906	0.102	0.021
-453.982	-24.327	0.166	-0.099
-452.968	10.630	0.234	0.178
-451.953	800.000	-0.089	0.285
-450.938	-91.149	-0.131	0.037
-449.924	4.495	0.169	0.124
-448.909	800.000	0.098	0.311
-447.895	-200.000	-0.072	0.354
-446.880	239.172	0.137	0.228
-445.865	800.000	0.078	0.318
-444.851	-12.290	0.322	0.210
-443.836	56.219	-0.182	-0.176
-442.822	122.459	-0.050	0.063
-441.807	633.344	0.060	0.152
-440.792	800.000	-0.013	0.049
-439.778	352.997	-0.044	0.086
-438.763	3.033	-0.027	-0.019
-437.749	258.926	-0.141	0.242
-436.734	-27.643	-0.220	0.127
-435.719	-129.495	0.162	-0.022
-434.705	98.216	0.096	-0.110
-433.690	800.000	-0.011	-0.047
-432.676	314.986	0.125	0.236
-431.661	143.204	-0.097	0.128
-430.646	191.171	-0.062	-0.093
-429.632	4.793	0.229	-0.168
-428.617	53.208	0.219	0.209
-427.603	-50.330	0.247	0.116
-426.588	800.000	0.063	0.195
-425.573	607.946	0.119	-0.295
-424.559	-166.819	0.215	0.009
-423.544	23.245	-0.063	0.052
-422.530	278.304	-0.075	0.134
-421.515	172.023	0.119	-0.170
-420.500	-180.368	0.339	-0.007
-419.486	-85.056	-0.320	0.100
-418.471	-200.000	-0.005	-0.234
-417.457	-200.000	0.024	0.127
-416.442	283.044	-0.054	-0.096
-415.428	-153.259	-0.167	-0.012
-414.413	6.967	-0.171	-0.127
-413.398	8.627	0.312	-0.234
-412.384	200.089	0.014	0.021
-411.369	433.557	-0.152	-0.329
-410.355	794.668	-0.099	0.271
-409.340	-200.000	0.072	-0.332
-408.325	800.000	-0.049	-0.165
-407.311	-137.074	-0.419	-0.048
-406.296	9.664	0.084	-0.063
-405.282	-74.998	-0.145	0.052
-404.267	-143.395	0.222	-0.021
-403.252	58.276	-0.098	-0.096
-402.238	484.363	0.161	-0.364
-401.223	-200.000	-0.013	-0.113
-400.209	40.889	-0.097	0.087
-399.194	69.654	0.143	-0.147
-398.179	-200.000	0.054	-0.237
-397.165	-119.747	-0.229	0.039
-396.150	-17.537	0.304	-0.190
-395.136	-200.000	-0.019	-0.151
-394.121	-30.188	-0.120	-0.068
-393.106	48.679	-0.061	0.057
-392.092	1.707	-0.211	0.151
-391.077	215.547	-0.050	-0.080
-390.063	-147.711	0.196	0.016
-389.048	-75.706	0.166	0.059
-388.033	-155.142	0.149	0.010
-387.019	11.816	0.068	-0.052
-386.004	-200.000	0.001	-0.207
-384.990	65.701	-0.272	-0.274
-383.975	-0.086	-0.158	-0.112
-382.960	-19.867	-0.145	0.089
-381.946	800.000	0.024	0.091
-380.931	-99.526	0.247	-0.062
-379.917	-96.895	-0.189	-0.049
-378.902	-54.738	0.230	-0.103
-377.888	14.674	0.138	0.107
-376.873	-200.000	0.061	-0.376
-375.858	-37.724	-0.247	-0.131
-374.844	160.245	-0.101	-0.139
-373.829	-200.000	-0.046	-0.213
-372.815	800.000	0.058	0.217
-371.800	170.961	-0.115	0.164
-370.785	735.323	0.019	-0.050
-369.771	376.646	0.159	-0.323
-368.756	-156.104	-0.451	0.028
-367.742	-162.743	0.511	0.025
-366.727	5.611	0.103	0.075
-365.712	-19.130	0.123	0.076
-364.698	-68.182	-0.246	-0.095
-363.683	800.000	-0.021	-0.081
-362.669	-155.652	0.343	0.022
-361.654	172.537	0.194	0.277
-360.639	-157.254	-0.416	0.025
-359.625	-165.803	-0.089	0.004
-358.610	212.765	0.091	-0.142
-357.596	61.672	-0.304	0.300
-356.581	-200.000	0.067	0.441
-355.566	507.648	-0.168	-0.388
-354.552	-99.586	-0.498	0.124
-353.537	-200.000	-0.024	0.151
-352.523	1.684	0.143	0.103
-351.508	308.737	-0.097	-0.180
-350.493	-200.000	0.065	0.283
-349.479	-52.324	0.183	0.084
-348.464	-43.190	-0.283	-0.142
-347.450	-57.332	-0.344	-0.150
-346.435	-86.510	0.249	0.076
-345.420	-42.427	-0.194	0.098
-344.406	-144.362	-0.159	-0.015
-343.391	-16.101	0.201	0.127
-342.377	-200.000	-0.066	-0.352
-341.362	-128.333	0.175	0.025
-340.348	249.615	0.096	0.162
-339.333	1.072	-0.119	-0.085
-338.318	625.608	0.043	-0.109
-337.304	-200.000	0.029	0.216
-336.289	-150.376	-0.264	-0.020
-335.275	642.864	-0.023	0.059
-334.260	92.748	-0.089	-0.099
-333.245	19.970	-0.043	0.034
-332.231	-200.000	0.059	-0.357
-331.216	-44.746	-0.208	-0.103
-330.202	-3.174	-0.233	-0.161
-329.187	160.841	0.112	0.155
-328.172	361.414	0.018	-0.036
-327.158	31.526	0.253	0.216
-326.143	-200.000	-0.007	-0.101
-325.129	-3.993	0.224	0.154
-324.114	-163.957	-0.118	0.005
-323.099	350.926	-0.216	-0.423
-322.085	800.000	-0.102	-0.299
-321.070	800.000	-0.095	0.324
-320.056	35.207	-0.217	-0.189
-319.041	-95.291	-0.366	-0.098
-318.026	55.938	-0.071	-0.068
-317.012	-19.437	-0.254	-0.156
-315.997	-4.537	0.144	-0.099
-314.983	79.036	-0.280	-0.297
-313.968	-98.491	0.043	0.011
-312.953	46.162	0.010	-0.009
-311.939	5.338	-0.176	-0.128
-310.924	16.847	-0.129	-0.102
-309.910	-200.000	-0.003	-0.121
-308.895	-83.449	-0.377	0.120
-307.880	-200.000	-0.018	-0.256
-306.866	800.000	-0.109	-0.314
-305.851	109.785	-0.229	-0.272
-304.837	-58.234	0.368	-0.159
-303.822	-78.604	0.083	0.028
-302.807	9.838	0.134	-0.101
-301.793	126.075	0.156	0.195
-300.778	205.056	0.138	0.212
-299.764	-71.224	0.047	0.017
-298.749	-124.433	0.313	-0.048
-297.735	-101.454	-0.207	-0.050
-296.720	-200.000	0.016	0.239
-295.705	800.000	-0.038	0.143
-294.691	283.085	0.222	0.394
-293.676	161.072	-0.146	0.202
-292.662	92.376	0.137	-0.153
-291.647	-5.604	-0.109	-0.074
-290.632	-65.740	-0.228	-0.091
-289.618	-32.907	0.220	-0.121
-288.603	-181.725	0.338	-0.006
-287.589	-70.227	0.250	-0.094
-286.574	306.013	0.186	-0.344
-285.559	404.181	0.041	-0.085
-284.545	800.000	-0.085	0.364
-283.530	-41.768	0.263	-0.134
-282.516	800.000	-0.127	0.360
-281.501	-27.558	-0.046	-0.027
-280.486	364.864	0.033	-0.067
-279.472	-59.794	-0.294	0.125
-278.457	-200.000	-0.014	0.131
-277.443	-31.993	-0.108	0.060
-276.428	546.273	-0.116	-0.276
-275.413	-156.501	0.489	-0.030
-274.399	-18.349	0.116	0.072
-273.384	-47.844	0.249	0.119
-272.370	-195.501	0.235	0.002
-271.355	-200.000	-0.008	0.136
-270.340	70.306	0.204	0.209
-269.326	-8.962	0.221	-0.146
-268.311	800.000	-0.027	-0.103
-267.297	800.000	0.020	0.055
-266.282	9.677	-0.247	0.185
-265.267	800.000	-0.092	-0.288
-264.253	-141.142	0.360	0.036
-263.238	-28.275	-0.417	0.238
-262.224	57.195	-0.137	-0.132
-261.209	800.000	-0.014	0.046
-260.195	-33.952	0.189	-0.103
-259.180	-127.934	0.203	0.029
-258.165	190.764	0.022	0.033
-257.151	177.258	0.113	-0.163
-256.136	-200.000	0.021	0.183
-255.122	-200.000	0.009	-0.080
-254.107	-39.090	0.273	-0.142
-253.092	800.000	-0.043	0.166
-252.078	-75.831	0.124	-0.044
-251.063	74.284	0.185	0.192
-250.049	-74.861	0.088	-0.031
-249.034	130.921	-0.167	-0.212
-248.019	-152.467	-0.143	-0.010
-247.005	276.773	0.062	-0.108
-245.990	35.380	0.248	0.216
-244.976	-200.000	-0.031	-0.200
-243.961	-7.602	0.287	0.192
-242.946	-200.000	-0.002	0.072
-241.932	499.823	-0.061	-0.140
-240.917	-200.000	0.003	0.270
-239.903	270.103	0.057	0.100
-238.888	287.277	0.111	0.198
-237.873	-13.080	0.057	-0.037
-236.859	800.000	0.037	0.159
-235.844	335.047	0.091	0.174
-234.830	158.865	-0.185	0.254
-233.815	-181.807	-0.332	-0.006
-232.800	-200.000	0.238	-0.001
-231.786	-8.377	-0.137	-0.091
-230.771	236.842	0.264	-0.432
-229.757	-200.000	-0.019	-0.184
-228.742	800.000	-0.023	-0.083
-227.727	402.276	0.032	-0.066
-226.713	-4.503	0.393	0.268
-225.698	-158.033	0.137	0.008
-224.684	467.910	0.123	-0.274
-223.669	-39.366	0.338	0.175
-222.655	800.000	-0.049	0.191
-221.640	-200.000	0.022	0.404
-220.625	-119.413	0.142	-0.024
-219.611	112.364	0.237	0.284
-218.596	-129.041	-0.441	-0.061
-217.582	84.148	0.081	0.088
-216.567	-200.000	-0.041	-0.217
-215.552	-200.000	0.004	0.043
-214.538	-164.604	-0.153	-0.007
-213.523	-140.676	-0.128	0.013
-212.509	78.971	0.086	-0.091
-211.494	-176.727	0.133	0.003
-210.479	35.574	0.184	-0.160
-209.465	48.264	0.289	0.267
-208.450	132.954	0.092	-0.118
-207.436	-144.354	0.290	-0.027
-206.421	-200.000	-0.007	0.104
-205.406	-118.698	-0.287	0.050
-204.392	-200.000	0.019	0.085
-203.377	17.970	-0.164	-0.129
-202.363	800.000	0.093	0.367
-201.348	99.664	0.124	-0.142
-200.333	800.000	0.040	0.169
-199.319	26.088	-0.145	0.119
-198.304	-118.390	-0.142	-0.025
-197.290	-200.000	-0.035	0.347
-196.275	-112.173	-0.228	-0.045
-195.260	-200.000	-0.029	-0.197
-194.246	720.940	0.058	0.153
-193.231	-99.132	0.145	0.036
-192.217	-60.460	0.292	0.122
-191.202	98.878	-0.115	0.131
-190.187	-167.693	-0.086	0.003
-189.173	-80.216	0.158	-0.052
-188.158	-200.000	-0.027	0.120
-187.144	-124.796	-0.310	-0.047
-186.129	122.365	-0.051	0.063
-185.114	56.415	0.187	0.180
-184.100	450.124	-0.136	0.296
-183.085	211.248	-0.194	-0.301
-182.071	-200.000	-0.003	0.145
-181.056	-200.000	-0.059	-0.317
-180.042	-87.486	0.240	-0.072
-179.027	-113.350	-0.243	0.047
-178.012	-200.000	0.013	0.081
-176.998	160.412	-0.167	-0.230
-175.983	217.076	-0.175	-0.274
-174.969	-200.000	0.042	-0.222
-173.954	-154.665	0.091	-0.006
-172.939	-123.857	-0.307	0.048
-171.925	-141.759	0.178	0.018
-170.910	-200.000	-0.040	0.213
-169.896	37.375	0.108	-0.094
-168.881	-200.000	0.007	0.182
-167.866	13.320	-0.039	0.030
-166.852	-90.332	-0.334	-0.096
-165.837	-200.000	-0.017	0.086
-164.823	-104.630	-0.293	0.067
-163.808	-200.000	-0.046	0.470
-162.793	800.000	-0.106	-0.395
-161.779	308.069	0.118	0.217
-160.764	28.425	0.165	0.138
-159.750	-119.136	0.083	-0.014
-158.735	-15.909	-0.311	0.195
-157.720	184.500	0.164	0.239
-156.706	173.705	-0.100	0.142
-155.691	-81.491	-0.194	-0.063
-154.677	12.901	-0.428	-0.326
-153.662	800.000	0.054	0.175
-152.647	-132.310	0.465	0.059
-151.633	-50.691	0.184	0.086
-150.618	-200.000	0.016	0.119
-149.604	40.160	-0.276	-0.244
-148.589	-98.170	-0.246	0.062
-147.574	536.963	0.046	-0.108
-146.560	-36.131	-0.046	0.025
-145.545	-144.294	-0.229	0.021
-144.531	-79.341	0.127	0.042
-143.516	-12.419	0.115	-0.074
-142.502	-200.000	-0.008	0.049
-141.487	639.899	-0.058	0.145
-140.472	-139.188	0.136	0.014
-139.458	-124.061	0.426	-0.066
-138.443	419.937	-0.120	-0.252
-137.429	-200.000	0.028	-0.329
-136.414	48.722	0.040	-0.037
-135.399	-122.372	0.258	0.041
-134.385	12.770	0.135	0.103
-133.370	224.472	0.158	0.252
-132.356	-167.150	-0.210	0.008
-131.341	104.282	0.035	0.040
-130.326	115.766	-0.110	0.132
-129.312	-104.695	0.252	0.057
-128.297	-200.000	-0.005	-0.084
-127.283	-108.430	0.062	-0.013
-126.268	500.247	-0.067	0.152
-125.253	-99.725	0.123	0.030
-124.239	496.629	0.041	-0.094
-123.224	800.000	-0.133	-0.457
-122.210	-200.000	-0.017	0.196
-121.195	403.406	-0.039	-0.081
