DTS Sentinel unit serial number:	SN413079Multiplexer serial number:	ORYXHardware model number:	OX4-SRSoftware version number:	ORYX F/W v4.00 Oryx Data Collector v3.7.2.0data status	okinstallation	princeton_trtdifferential loss correction	single-endedforward channel	channel 2reverse channel	N/Adate	2019/09/15time	06:51:35forward acquisition time	60.00reverse acquisition time	0.00gamma	496.2192k internal	0.2326k external	0.2326temperature offset calibration	1.0028default loss term (dB/km)	0.3790temperature slope calibration	1.0000multiplexer offset coefficient	1.0000multiplexer slope coefficient	1.0000fibre end	0.00T internal ref (°C)	30.48T ext. ref 1 (°C)	4.81T ext. ref 2 (°C)	25.51length (m)	temperature (°C)	Stokes	anti-Stokes-747.200	-17.716	0.218	0.138
-746.185	-142.696	-0.188	0.018
-745.171	-81.535	-0.393	0.131
-744.156	137.565	-0.276	0.364
-743.142	-52.339	-0.506	-0.237
-742.127	63.189	0.145	-0.147
-741.112	800.000	-0.041	-0.121
-740.098	-17.943	-0.179	0.113
-739.083	469.673	-0.083	-0.189
-738.069	-2.919	-0.373	0.262
-737.054	-79.978	-0.311	0.105
-736.039	-126.429	0.103	0.016
-735.025	67.515	0.127	0.131
-734.010	-25.834	0.085	-0.050
-732.996	92.560	0.187	-0.212
-731.981	-29.355	-0.268	0.155
-730.966	-200.000	0.067	0.385
-729.952	126.492	0.084	-0.107
-728.937	342.011	-0.012	0.024
-727.923	-24.561	-0.085	-0.051
-726.908	9.718	-0.108	-0.083
-725.894	-200.000	0.007	0.453
-724.879	-73.013	-0.282	-0.104
-723.864	778.530	-0.068	-0.186
-722.850	450.788	-0.058	0.128
-721.835	-185.846	0.269	-0.004
-720.821	-200.000	0.021	-0.171
-719.806	568.674	0.070	-0.171
-718.791	800.000	-0.107	-0.336
-717.777	-162.882	-0.274	0.013
-716.762	612.370	0.103	0.259
-715.748	-200.000	0.014	0.072
-714.733	240.653	-0.194	0.327
-713.718	-144.384	0.068	0.006
-712.704	64.754	-0.230	-0.234
-711.689	36.184	-0.015	-0.013
-710.675	100.330	-0.152	-0.178
-709.660	201.958	0.191	-0.297
-708.645	-200.000	0.013	0.347
-707.631	800.000	-0.102	-0.296
-706.616	800.000	0.052	0.160
-705.602	23.990	-0.384	0.319
-704.587	-55.820	-0.144	-0.065
-703.572	38.988	0.111	0.100
-702.558	385.809	-0.079	-0.163
-701.543	224.193	0.064	-0.105
-700.529	131.469	-0.180	0.233
-699.514	800.000	0.016	0.049
-698.499	-172.927	-0.123	-0.004
-697.485	-138.445	-0.378	0.042
-696.470	56.057	0.208	-0.203
-695.456	800.000	0.037	-0.120
-694.441	263.234	-0.163	0.286
-693.426	-52.990	0.487	-0.226
-692.412	-27.913	-0.218	0.127
-691.397	-144.471	-0.147	0.014
-690.383	-200.000	-0.063	0.411
-689.368	-30.129	-0.085	0.049
-688.354	-133.034	0.283	-0.036
-687.339	-200.000	0.040	0.197
-686.324	-65.192	0.268	0.109
-685.310	127.903	0.070	0.089
-684.295	-140.252	0.132	-0.014
-683.281	-171.738	-0.326	0.011
-682.266	800.000	-0.042	0.140
-681.251	368.019	-0.111	0.226
-680.237	135.372	0.149	-0.195
-679.222	800.000	0.043	-0.189
-678.208	-81.373	-0.184	-0.061
-677.193	800.000	0.090	0.320
-676.178	-10.120	-0.059	0.039
-675.164	143.080	-0.078	-0.104
-674.149	-43.709	-0.128	0.065
-673.135	382.477	-0.090	0.186
-672.120	-84.599	-0.045	0.014
-671.105	800.000	0.113	-0.336
-670.091	800.000	-0.130	-0.497
-669.076	404.450	0.121	-0.256
-668.062	512.941	0.059	0.138
-667.047	800.000	-0.059	0.184
-666.032	136.917	0.098	-0.129
-665.018	155.414	-0.133	0.184
-664.003	800.000	-0.054	-0.229
-662.989	800.000	0.032	-0.114
-661.974	760.150	-0.140	-0.381
-660.959	-187.863	0.082	-0.001
-659.945	-50.321	-0.146	0.070
-658.930	-112.419	-0.577	0.116
-657.916	800.000	-0.103	-0.324
-656.901	-79.400	-0.446	-0.152
-655.886	-18.044	-0.226	0.143
-654.872	-56.248	0.209	0.093
-653.857	99.507	-0.197	0.229
-652.843	16.225	-0.119	-0.094
-651.828	3.271	-0.269	-0.197
-650.814	-153.142	-0.054	0.004
-649.799	245.297	0.077	-0.130
-648.784	49.191	0.154	-0.145
-647.770	311.723	-0.055	0.103
-646.755	125.773	0.090	-0.114
-645.741	462.103	0.124	-0.278
-644.726	-36.506	-0.193	-0.104
-643.711	800.000	0.039	0.143
-642.697	-186.558	-0.060	0.001
-641.682	352.815	-0.086	0.171
-640.668	77.125	-0.142	-0.152
-639.653	-154.381	0.389	0.026
-638.638	-27.235	0.201	0.118
-637.624	135.418	-0.099	0.129
-636.609	800.000	0.004	-0.014
-635.595	-182.493	-0.386	0.007
-634.580	1.778	0.218	-0.158
-633.565	-84.486	-0.271	-0.086
-632.551	285.418	0.300	0.542
-631.536	78.069	-0.070	0.076
-630.522	-14.120	0.061	0.040
-629.507	-22.393	0.116	-0.070
-628.492	-68.242	0.094	0.037
-627.478	106.615	0.182	0.217
-626.463	66.857	-0.016	0.017
-625.449	81.844	-0.237	-0.258
-624.434	-47.147	-0.355	-0.174
-623.419	-83.455	-0.057	-0.018
-622.405	-85.061	-0.039	0.012
-621.390	-9.599	0.095	-0.063
-620.376	211.288	0.215	-0.340
-619.361	-74.653	-0.194	0.070
-618.346	480.116	0.049	-0.112
-617.332	363.029	-0.068	-0.138
-616.317	587.616	0.036	-0.089
-615.303	800.000	0.054	0.194
-614.288	114.928	0.160	-0.195
-613.273	-134.133	0.180	0.022
-612.259	-23.769	0.261	0.157
-611.244	800.000	0.018	0.057
-610.230	800.000	-0.085	-0.337
-609.215	800.000	-0.024	0.088
-608.201	-23.366	-0.266	-0.161
-607.186	45.183	-0.194	-0.180
-606.171	800.000	-0.100	-0.348
-605.157	800.000	0.123	0.421
-604.142	-142.289	0.089	0.009
-603.128	87.246	0.063	0.070
-602.113	550.441	-0.201	-0.484
-601.098	800.000	0.103	-0.389
-600.084	-88.657	-0.187	0.056
-599.069	56.974	-0.088	-0.086
-598.055	738.401	-0.040	0.109
-597.040	800.000	0.238	-0.668
-596.025	-200.000	0.001	-0.053
-595.011	63.742	0.087	0.087
-593.996	382.107	-0.140	0.288
-592.982	-46.816	-0.208	-0.102
-591.967	-133.114	0.422	0.054
-590.952	-67.610	-0.349	-0.137
-589.938	25.107	-0.207	-0.172
-588.923	-72.131	-0.193	-0.072
-587.909	800.000	-0.075	0.219
-586.894	679.417	-0.130	0.340
-585.879	120.729	-0.133	0.166
-584.865	-21.758	0.239	0.146
-583.850	-143.263	0.060	-0.006
-582.836	-103.309	0.166	0.039
-581.821	-118.624	-0.177	-0.031
-580.806	800.000	0.099	0.292
-579.792	800.000	-0.047	-0.181
-578.777	-97.055	0.228	0.060
-577.763	-200.000	0.048	-0.229
-576.748	91.634	0.108	0.122
-575.733	-65.157	-0.125	0.051
-574.719	800.000	0.055	-0.211
-573.704	83.235	0.233	0.254
-572.690	102.682	0.065	0.076
-571.675	-84.414	-0.283	0.090
-570.661	-68.655	0.066	-0.026
-569.646	-200.000	-0.017	0.207
-568.631	-115.957	0.305	0.057
-567.617	-77.714	0.309	0.107
-566.602	-200.000	0.016	-0.118
-565.588	800.000	0.063	-0.176
-564.573	-156.965	-0.242	-0.015
-563.558	-22.359	-0.341	-0.207
-562.544	-200.000	0.024	-0.485
-561.529	800.000	0.074	-0.283
-560.515	-200.000	0.027	-0.176
-559.500	-149.371	-0.485	0.039
-558.485	-32.482	-0.128	-0.071
-557.471	-81.449	-0.372	-0.123
-556.456	37.281	-0.154	0.137
-555.442	69.108	-0.083	0.086
-554.427	-37.351	0.083	-0.044
-553.412	83.709	-0.017	0.018
-552.398	2.834	-0.041	-0.030
-551.383	-108.605	-0.555	-0.119
-550.369	114.987	-0.343	-0.419
-549.354	-59.300	0.052	-0.022
-548.339	0.766	0.270	0.194
-547.325	-200.000	0.022	0.168
-546.310	395.908	-0.126	0.263
-545.296	104.559	-0.087	0.103
-544.281	370.205	0.072	0.146
-543.266	-35.808	-0.209	-0.113
-542.252	-200.000	-0.004	-0.232
-541.237	-200.000	0.011	0.102
-540.223	-200.000	-0.014	-0.126
-539.208	-200.000	-0.036	-0.276
-538.193	-32.430	-0.204	-0.114
-537.179	386.575	-0.123	0.254
-536.164	-95.235	-0.143	-0.039
-535.150	-91.937	0.114	-0.032
-534.135	-178.513	-0.186	0.004
-533.121	-195.111	0.073	0.001
-532.106	-128.936	0.224	-0.031
-531.091	58.035	-0.216	0.212
-530.077	-22.864	-0.378	0.228
-529.062	-81.973	-0.358	0.117
-528.048	-77.474	0.031	0.011
-527.033	9.971	-0.287	-0.218
-526.018	-135.147	-0.102	-0.012
-525.004	229.809	0.169	-0.275
-523.989	92.049	0.082	0.092
-522.975	163.019	0.072	-0.101
-521.960	800.000	-0.033	0.114
-520.945	-163.197	-0.221	0.011
-519.931	800.000	0.092	0.263
-518.916	-102.355	0.162	-0.039
-517.902	-50.095	-0.098	0.047
-516.887	-108.067	-0.073	0.016
-515.872	-55.285	-0.015	0.007
-514.858	-200.000	0.004	0.073
-513.843	-40.248	0.188	0.098
-512.829	304.255	-0.049	0.091
-511.814	35.047	0.182	0.159
-510.799	-42.867	0.478	0.243
-509.785	-200.000	-0.067	0.420
-508.770	-200.000	-0.057	-0.409
-507.756	284.753	0.125	0.224
-506.741	800.000	0.184	0.511
-505.726	-200.000	-0.003	-0.487
-504.712	195.769	0.159	-0.242
-503.697	-200.000	0.037	0.322
-502.683	-174.892	-0.070	-0.002
-501.668	-200.000	-0.029	-0.226
-500.653	145.340	0.150	-0.201
-499.639	-200.000	-0.007	0.231
-498.624	0.198	-0.182	0.130
-497.610	-24.222	0.113	-0.067
-496.595	-55.397	-0.218	0.098
-495.581	-90.026	0.228	0.066
-494.566	-191.946	-0.302	0.003
-493.551	-22.834	-0.369	0.222
-492.537	144.422	-0.137	0.183
-491.522	-200.000	-0.004	0.225
-490.508	-200.000	-0.051	0.224
-489.493	-10.982	0.243	0.160
-488.478	-200.000	-0.062	0.319
-487.464	211.612	0.034	0.053
-486.449	-59.999	0.211	0.090
-485.435	-200.000	0.027	-0.344
-484.420	-8.103	0.087	0.058
-483.405	54.058	-0.168	0.162
-482.391	800.000	0.029	0.114
-481.376	180.666	0.065	0.096
-480.362	-32.602	0.130	0.072
-479.347	-133.315	0.114	0.014
-478.332	-78.094	-0.247	-0.085
-477.318	-39.704	-0.442	-0.231
-476.303	0.208	-0.230	0.164
-475.289	404.798	0.071	-0.148
-474.274	-96.127	0.158	0.042
-473.259	302.523	0.063	0.117
-472.245	-200.000	0.010	0.047
-471.230	141.523	-0.144	-0.190
-470.216	-5.261	0.065	-0.045
-469.201	-200.000	-0.010	-0.185
-468.186	800.000	0.076	0.240
-467.172	-200.000	0.063	-0.388
-466.157	97.163	-0.152	-0.175
-465.143	32.356	-0.067	-0.058
-464.128	624.397	0.005	0.013
-463.113	-128.690	-0.494	-0.070
-462.099	-101.549	0.187	-0.045
-461.084	137.510	-0.149	-0.194
-460.070	-5.876	0.187	0.127
-459.055	-200.000	-0.048	0.254
-458.040	357.702	0.165	0.329
-457.026	652.478	0.082	-0.209
-456.011	103.589	-0.156	0.182
-454.997	800.000	0.102	-0.292
-453.982	-22.142	0.156	0.095
-452.968	-99.629	0.196	-0.049
-451.953	-150.730	0.200	-0.015
-450.938	800.000	-0.033	-0.132
-449.924	-0.658	-0.046	0.032
-448.909	42.219	-0.288	0.261
-447.895	-16.375	-0.165	-0.104
-446.880	-200.000	-0.017	-0.177
-445.865	88.264	-0.022	-0.025
-444.851	116.385	-0.047	0.058
-443.836	-32.417	0.092	-0.051
-442.822	5.306	-0.277	-0.204
-441.807	90.699	0.126	0.140
-440.792	-111.655	0.222	-0.045
-439.778	351.323	-0.203	0.401
-438.763	481.015	0.054	0.122
-437.749	67.283	-0.088	-0.090
-436.734	-114.986	0.057	0.011
-435.719	-200.000	0.006	0.305
-434.705	-86.705	-0.137	-0.042
-433.690	-200.000	-0.014	0.180
-432.676	-58.831	-0.213	-0.092
-431.661	33.363	-0.338	-0.293
-430.646	23.431	-0.282	0.231
-429.632	-124.120	0.101	-0.016
-428.617	-65.790	-0.022	0.009
-427.603	-200.000	0.044	0.328
-426.588	11.369	-0.203	0.155
-425.573	800.000	-0.049	-0.170
-424.559	-45.033	0.115	0.057
-423.544	87.469	0.064	-0.071
-422.530	451.102	0.049	-0.108
-421.515	132.794	-0.143	0.183
-420.500	504.540	0.041	-0.094
-419.486	45.313	-0.234	-0.215
-418.471	571.031	0.174	-0.421
-417.457	255.376	0.002	-0.003
-416.442	-13.694	-0.216	-0.139
-415.428	-127.517	0.131	0.019
-414.413	271.881	0.140	-0.246
-413.398	-136.231	-0.286	0.033
-412.384	-140.120	0.189	0.020
-411.369	-200.000	0.019	-0.264
-410.355	-200.000	0.005	-0.214
-409.340	-67.382	-0.210	-0.082
-408.325	-200.000	0.002	-0.258
-407.311	322.177	0.077	-0.146
-406.296	-103.030	-0.102	-0.024
-405.282	40.043	0.239	0.214
-404.267	90.673	0.112	-0.125
-403.252	800.000	-0.045	-0.167
-402.238	179.446	-0.130	0.190
-401.223	129.919	-0.068	0.086
-400.209	374.956	-0.077	-0.155
-399.194	533.386	0.037	-0.088
-398.179	53.831	0.114	-0.109
-397.165	-200.000	-0.055	0.298
-396.150	800.000	-0.040	-0.161
-395.136	-111.539	-0.366	0.074
-394.121	173.956	0.166	-0.238
-393.106	637.643	-0.094	-0.237
-392.092	-18.414	0.079	-0.049
-391.077	-4.973	-0.356	0.244
-390.063	-49.891	-0.297	-0.140
-389.048	-82.772	0.084	-0.027
-388.033	-71.116	0.168	0.063
-387.019	-160.956	-0.131	-0.007
-386.004	-62.893	0.116	-0.048
-384.990	16.382	-0.128	-0.101
-383.975	-22.611	-0.085	0.051
-382.960	176.017	-0.103	0.149
-381.946	-93.855	-0.136	-0.037
-380.931	47.355	0.049	-0.046
-379.917	-166.714	0.123	0.005
-378.902	800.000	0.098	0.351
-377.888	800.000	-0.054	0.191
-376.873	457.197	0.057	-0.127
-375.858	-47.346	0.256	0.124
-374.844	800.000	0.057	-0.206
-373.829	-54.747	-0.385	0.173
-372.815	-99.336	-0.034	0.008
-371.800	243.244	0.204	-0.340
-370.785	-120.765	0.230	0.039
-369.771	-200.000	0.053	0.347
-368.756	-200.000	0.002	-0.250
-367.742	112.910	-0.159	0.192
-366.727	469.319	-0.121	-0.270
-365.712	-200.000	-0.018	-0.329
-364.698	19.688	0.254	-0.203
-363.683	82.582	0.107	0.116
-362.669	-147.528	0.228	0.019
-361.654	800.000	0.037	0.156
-360.639	800.000	0.028	0.085
-359.625	800.000	-0.027	0.089
-358.610	-11.675	0.059	-0.038
-357.596	-53.514	-0.251	-0.114
-356.581	84.513	0.186	-0.203
-355.566	800.000	0.053	0.185
-354.552	-200.000	0.012	0.302
-353.537	126.643	-0.156	0.196
-352.523	-63.669	-0.207	-0.084
-351.508	637.533	-0.151	0.381
-350.493	-200.000	-0.281	0.001
-349.479	-43.799	0.245	0.122
-348.464	-78.014	-0.361	0.123
-347.450	-95.166	0.010	-0.003
-346.435	-131.934	0.130	0.017
-345.420	-200.000	0.002	0.453
-344.406	-200.000	-0.037	0.368
-343.391	-200.000	0.043	0.310
-342.377	-200.000	-0.024	-0.245
-341.362	-86.379	-0.203	0.062
-340.348	-200.000	0.051	0.269
-339.333	-119.729	-0.338	-0.058
-338.318	46.870	0.135	-0.125
-337.304	-200.000	-0.052	-0.268
-336.289	-57.781	0.169	0.073
-335.275	117.586	0.045	-0.055
-334.260	-200.000	0.014	0.393
-333.245	-200.000	0.035	0.233
-332.231	-200.000	-0.009	-0.387
-331.216	23.969	-0.038	0.031
-330.202	617.099	-0.112	0.278
-329.187	-200.000	-0.117	0.586
-328.172	44.895	-0.050	-0.046
-327.158	13.975	0.148	-0.115
-326.143	210.202	0.119	0.185
-325.129	66.472	-0.271	0.273
-324.114	-142.898	0.267	0.026
-323.099	-70.119	-0.531	-0.200
-322.085	157.617	0.082	-0.112
-321.070	20.552	0.188	-0.151
-320.056	24.638	-0.136	-0.112
-319.041	800.000	0.022	0.067
-318.026	-11.525	-0.112	0.073
-317.012	-19.025	0.140	0.086
-315.997	484.511	-0.104	-0.234
-314.983	-200.000	-0.023	-0.211
-313.968	-133.554	0.469	0.058
-312.953	-47.319	0.091	-0.044
-311.939	-114.180	0.133	-0.025
-310.924	152.240	0.047	0.064
-309.910	800.000	0.034	-0.138
-308.895	2.723	0.126	-0.091
-307.880	-31.825	-0.104	0.058
-306.866	-27.936	0.148	-0.085
-305.851	335.317	0.197	-0.378
-304.837	-200.000	-0.009	-0.104
-303.822	-27.242	-0.300	-0.174
-302.807	761.410	0.076	-0.203
-301.793	36.332	0.267	0.234
-300.778	244.170	0.102	-0.169
-299.764	184.084	0.195	-0.286
-298.749	-200.000	-0.046	0.222
-297.735	677.718	0.050	-0.128
-296.720	40.309	0.037	-0.033
-295.705	-91.797	0.232	0.065
-294.691	-83.522	0.231	0.073
-293.676	55.797	-0.048	0.046
-292.662	-200.000	0.010	0.104
-291.647	34.157	0.032	0.027
-290.632	800.000	-0.053	-0.224
-289.618	800.000	0.040	-0.148
-288.603	21.923	-0.081	-0.066
-287.589	-34.617	0.242	-0.131
-286.574	12.942	-0.057	0.043
-285.559	-122.421	-0.266	0.043
-284.545	-3.927	-0.163	0.112
-283.530	-54.463	-0.435	0.195
-282.516	-32.735	0.160	0.088
-281.501	76.642	0.070	0.074
-280.486	-98.765	0.114	-0.029
-279.472	-142.792	0.294	-0.028
-278.457	-19.171	0.147	0.090
-277.443	480.949	0.126	-0.284
-276.428	-200.000	-0.027	0.148
-275.413	-160.390	0.147	0.008
-274.399	71.092	-0.261	0.268
-273.384	-29.945	0.112	-0.063
-272.370	78.397	0.337	-0.356
-271.355	50.336	0.080	-0.074
-270.340	-106.291	-0.352	-0.078
-269.326	10.874	-0.200	-0.151
-268.311	-31.169	0.140	-0.078
-267.297	-200.000	0.066	-0.339
-266.282	-28.325	0.336	-0.192
-265.267	-200.000	-0.006	0.031
-264.253	57.450	0.030	0.029
-263.238	142.533	0.203	0.266
-262.224	216.014	0.040	-0.063
-261.209	-70.796	-0.082	0.031
-260.195	-41.937	-0.099	-0.050
-259.180	762.840	0.056	-0.150
-258.165	-200.000	-0.007	-0.129
-257.151	16.508	-0.061	-0.047
-256.136	-4.726	-0.114	-0.078
-255.122	-200.000	0.006	0.034
-254.107	-15.997	-0.201	0.127
-253.092	-39.023	0.078	0.041
-252.078	800.000	0.061	-0.222
-251.063	150.284	0.183	-0.245
-250.049	-200.000	0.026	-0.118
-249.034	313.538	0.105	-0.194
-248.019	63.902	-0.246	0.245
-247.005	190.311	0.176	0.262
-245.990	-111.293	-0.332	-0.067
-244.976	103.640	0.115	0.133
-243.961	-34.640	0.186	0.101
-242.946	72.115	-0.229	-0.236
-241.932	-200.000	0.047	0.474
-240.917	-200.000	-0.011	0.316
-239.903	39.683	0.094	0.084
-238.888	8.481	-0.106	0.079
-237.873	35.656	0.241	0.209
-236.859	271.010	0.020	0.035
-235.844	800.000	0.142	0.392
-234.830	-138.789	0.081	0.009
-233.815	800.000	-0.084	-0.362
-232.800	-166.428	0.427	-0.018
-231.786	117.256	0.223	-0.271
-230.771	-200.000	0.046	-0.224
-229.757	131.013	0.130	0.165
-228.742	406.571	-0.112	0.234
-227.727	162.258	-0.073	0.101
-226.713	-34.153	0.178	-0.097
-225.698	-200.000	-0.012	0.103
-224.684	104.867	0.070	0.082
-223.669	131.875	-0.085	-0.108
-222.655	800.000	0.024	-0.069
-221.640	462.131	0.136	0.300
-220.625	-5.367	-0.135	-0.092
-219.611	-148.611	-0.136	-0.011
-218.596	6.132	-0.106	0.078
-217.582	800.000	-0.034	-0.119
-216.567	800.000	0.063	0.238
-215.552	156.291	-0.256	0.349
-214.538	796.827	0.065	0.177
-213.523	334.500	0.054	-0.103
-212.509	-200.000	-0.043	0.374
-211.494	-200.000	-0.032	-0.301
-210.479	60.306	0.098	0.096
-209.465	112.384	0.089	0.107
-208.450	-122.272	0.256	-0.041
-207.436	476.866	0.082	-0.182
-206.421	-200.000	-0.012	-0.187
-205.406	-34.174	0.182	0.099
-204.392	-103.564	0.183	0.042
-203.377	281.079	0.076	0.134
-202.363	-200.000	0.021	0.134
-201.348	498.456	-0.023	-0.053
-200.333	-200.000	-0.010	-0.095
-199.319	32.853	0.201	-0.172
-198.304	118.860	-0.024	-0.030
-197.290	0.773	0.110	0.078
-196.275	-200.000	-0.038	0.212
-195.260	-120.296	0.301	-0.051
-194.246	-105.281	0.037	0.008
-193.231	-59.284	0.078	-0.033
-192.217	800.000	-0.042	0.171
-191.202	16.059	0.262	-0.203
-190.187	-68.855	0.174	-0.066
-189.173	-50.380	-0.202	0.094
-188.158	-200.000	-0.002	0.059
-187.144	29.220	0.317	0.266
-186.129	-54.007	0.195	-0.088
-185.114	-50.539	-0.168	-0.078
-184.100	-114.301	-0.174	0.033
-183.085	102.012	0.237	0.273
-182.071	-38.463	0.158	-0.083
-181.056	-68.812	0.154	-0.059
-180.042	-23.618	0.288	0.171
-179.027	-37.945	-0.189	0.099
-178.012	-93.302	-0.205	0.056
-176.998	420.934	-0.103	0.217
-175.983	-200.000	-0.017	0.157
-174.969	277.479	0.103	0.181
-173.954	-1.843	0.119	0.082
-172.939	-89.546	-0.145	0.042
-171.925	38.248	0.209	-0.183
-170.910	130.020	0.183	0.231
-169.896	-69.840	-0.092	0.035
-168.881	-104.945	0.640	-0.145
-167.866	-51.895	0.031	0.014
-166.852	323.497	-0.057	-0.107
-165.837	800.000	0.078	-0.225
-164.823	436.492	0.102	-0.219
-163.808	-200.000	0.000	-0.321
-162.793	-131.631	-0.147	0.019
-161.779	-200.000	-0.011	0.166
-160.764	-127.738	0.090	0.013
-159.750	-87.183	-0.204	-0.061
-158.735	-200.000	0.005	0.060
-157.720	-191.355	0.352	0.004
-156.706	25.249	-0.200	-0.164
-155.691	-30.736	-0.293	-0.163
-154.677	-200.000	0.026	-0.220
-153.662	-115.797	0.118	0.022
-152.647	-200.000	-0.041	-0.244
-151.633	-33.386	-0.335	-0.183
-150.618	-122.629	0.218	-0.035
-149.604	800.000	-0.081	0.219
-148.589	343.988	-0.170	0.328
-147.574	-200.000	-0.041	0.288
-146.560	-95.470	-0.190	0.050
-145.545	800.000	-0.045	-0.139
-144.531	-97.560	-0.194	-0.050
-143.516	-200.000	0.011	-0.142
-142.502	-200.000	0.029	-0.354
-141.487	266.754	0.067	-0.116
-140.472	380.959	0.139	-0.282
-139.458	-35.811	-0.412	-0.220
-138.443	800.000	0.017	-0.051
-137.429	95.643	-0.160	0.179
-136.414	800.000	0.064	0.197
-135.399	158.941	0.275	0.377
-134.385	56.686	-0.302	0.290
-133.370	-42.600	-0.154	0.077
-132.356	33.635	-0.288	-0.247
-131.341	203.447	-0.157	-0.239
-130.326	800.000	0.103	-0.445
-129.312	-110.943	-0.327	0.066
-128.297	800.000	-0.115	0.389
-127.283	-200.000	0.016	-0.139
-126.268	16.145	-0.165	0.128
-125.253	141.874	0.071	0.093
-124.239	126.203	-0.161	0.200
-123.224	358.482	-0.013	0.025
-122.210	513.268	0.077	0.176
-121.195	119.493	0.102	-0.124
-120.180	-86.595	-0.106	0.032
