DTS Sentinel unit serial number:	SN413079Multiplexer serial number:	ORYXHardware model number:	OX4-SRSoftware version number:	ORYX F/W v4.00 Oryx Data Collector v3.7.2.0data status	okinstallation	princeton_trtdifferential loss correction	single-endedforward channel	channel 2reverse channel	N/Adate	2019/09/11time	23:01:11forward acquisition time	60.00reverse acquisition time	0.00gamma	496.2192k internal	0.2325k external	0.2325temperature offset calibration	1.0074default loss term (dB/km)	0.3790temperature slope calibration	1.0000multiplexer offset coefficient	1.0000multiplexer slope coefficient	1.0000fibre end	0.00T internal ref (°C)	34.61T ext. ref 1 (°C)	1.79T ext. ref 2 (°C)	29.10length (m)	temperature (°C)	Stokes	anti-Stokes-747.200	-200.000	-0.020	-0.190
-746.185	-200.000	0.001	-0.023
-745.171	72.815	-0.170	0.179
-744.156	-126.535	-0.044	-0.007
-743.142	649.719	0.053	-0.137
-742.127	-200.000	-0.049	0.420
-741.112	447.675	0.129	0.286
-740.098	134.493	-0.098	0.128
-739.083	-103.423	-0.235	-0.056
-738.069	800.000	0.171	0.487
-737.054	394.610	0.132	0.277
-736.039	-9.485	-0.242	-0.163
-735.025	111.792	0.129	0.158
-734.010	94.755	0.275	0.316
-732.996	83.163	-0.188	0.207
-731.981	458.547	0.135	-0.303
-730.966	-110.324	-0.027	-0.006
-729.952	800.000	-0.043	-0.144
-728.937	419.495	-0.057	-0.123
-727.923	-63.726	-0.281	-0.116
-726.908	-200.000	0.050	0.225
-725.894	-121.508	0.193	0.032
-724.879	324.680	0.096	-0.184
-723.864	398.406	-0.067	-0.142
-722.850	-4.655	0.011	0.008
-721.835	-33.162	-0.208	-0.116
-720.821	46.338	-0.025	-0.024
-719.806	-52.390	-0.163	0.076
-718.791	-200.000	0.006	-0.556
-717.777	800.000	0.035	-0.133
-716.762	451.452	-0.113	0.251
-715.748	-108.507	-0.369	0.080
-714.733	667.750	-0.102	-0.265
-713.718	10.069	0.225	-0.173
-712.704	16.685	-0.131	-0.104
-711.689	800.000	-0.051	-0.179
-710.675	-200.000	-0.003	-0.179
-709.660	-200.000	-0.109	0.660
-708.645	-200.000	0.049	-0.250
-707.631	-107.454	0.151	0.033
-706.616	800.000	0.080	-0.259
-705.602	-13.313	-0.106	0.070
-704.587	-82.684	0.254	-0.083
-703.572	28.326	0.170	-0.145
-702.558	800.000	0.054	0.158
-701.543	96.073	-0.105	-0.120
-700.529	-15.546	0.086	-0.055
-699.514	-101.946	0.508	0.124
-698.499	-137.572	-0.246	-0.028
-697.485	15.522	0.136	0.108
-696.470	-200.000	-0.036	0.271
-695.456	-119.461	-0.317	-0.055
-694.441	-200.000	-0.018	-0.308
-693.426	-97.637	-0.110	0.029
-692.412	-200.000	0.028	0.193
-691.397	519.159	-0.052	-0.124
-690.383	-200.000	0.017	-0.156
-689.368	758.002	-0.022	0.061
-688.354	-23.533	0.205	0.124
-687.339	46.307	-0.131	0.122
-686.324	800.000	-0.050	-0.142
-685.310	402.654	-0.110	-0.233
-684.295	-159.010	-0.203	0.012
-683.281	800.000	-0.080	0.241
-682.266	800.000	0.066	0.191
-681.251	330.526	0.136	-0.264
-680.237	437.432	0.102	-0.224
-679.222	558.658	-0.106	-0.258
-678.208	-18.381	-0.136	-0.085
-677.193	-130.232	-0.208	0.028
-676.178	475.124	-0.043	0.098
-675.164	-107.232	-0.324	-0.072
-674.149	363.668	0.069	-0.139
-673.135	180.602	-0.155	0.229
-672.120	317.791	0.137	-0.260
-671.105	-151.320	0.338	-0.025
-670.091	-64.502	-0.229	0.093
-669.076	-51.102	-0.205	-0.097
-668.062	-9.844	0.262	0.175
-667.047	237.511	-0.172	-0.287
-666.032	354.131	0.135	-0.270
-665.018	-200.000	-0.000	-0.161
-664.003	238.326	0.249	-0.416
-662.989	414.550	0.130	-0.279
-661.974	232.732	-0.204	0.337
-660.959	-61.840	-0.179	-0.076
-659.945	104.607	-0.113	-0.134
-658.930	109.501	0.126	0.152
-657.916	57.243	-0.097	-0.095
-656.901	11.878	-0.221	-0.171
-655.886	34.331	0.211	-0.185
-654.872	130.599	0.150	0.193
-653.857	-87.508	0.209	-0.063
-652.843	800.000	-0.073	-0.279
-651.828	62.743	-0.314	-0.316
-650.814	299.114	0.089	0.166
-649.799	800.000	0.042	0.155
-648.784	-200.000	-0.020	-0.312
-647.770	-176.418	0.260	-0.007
-646.755	-151.099	-0.146	-0.011
-645.741	-9.803	-0.211	0.141
-644.726	-149.326	-0.309	0.025
-643.711	-200.000	0.024	-0.121
-642.697	800.000	-0.046	-0.161
-641.682	-31.510	0.085	-0.048
-640.668	552.706	-0.022	0.053
-639.653	-80.517	0.269	-0.090
-638.638	800.000	-0.039	-0.139
-637.624	-140.537	0.153	-0.016
-636.609	-113.355	-0.464	0.091
-635.595	-200.000	-0.034	-0.286
-634.580	-193.302	-0.348	0.003
-633.565	-200.000	-0.014	0.219
-632.551	-93.735	0.519	0.144
-631.536	-85.035	0.058	-0.018
-630.522	-166.331	-0.097	0.004
-629.507	-200.000	-0.011	0.294
-628.492	-200.000	0.037	0.357
-627.478	384.382	0.124	0.257
-626.463	476.231	-0.081	0.184
-625.449	-114.894	-0.266	0.051
-624.434	-91.727	0.230	0.066
-623.419	540.061	-0.107	0.256
-622.405	-45.558	0.182	-0.091
-621.390	-153.345	-0.237	-0.017
-620.376	488.277	-0.049	0.113
-619.361	-200.000	0.021	0.126
-618.346	-200.000	-0.032	-0.332
-617.332	-52.338	-0.208	-0.097
-616.317	145.398	0.044	-0.059
-615.303	800.000	-0.190	-0.588
-614.288	56.035	-0.046	0.045
-613.273	85.707	-0.190	-0.210
-612.259	-72.711	-0.050	0.019
-611.244	-200.000	-0.024	0.216
-610.230	255.383	-0.072	-0.123
-609.215	-133.467	0.179	-0.023
-608.201	90.813	-0.211	-0.237
-607.186	-68.245	0.114	0.045
-606.171	-200.000	-0.039	0.276
-605.157	-200.000	-0.001	0.012
-604.142	-185.440	-0.428	-0.007
-603.128	800.000	-0.077	0.283
-602.113	-42.600	-0.175	-0.089
-601.098	-144.625	0.067	-0.006
-600.084	36.419	0.032	-0.029
-599.069	113.632	-0.284	0.346
-598.055	800.000	-0.104	-0.291
-597.040	-200.000	0.029	-0.305
-596.025	-152.023	-0.348	-0.025
-595.011	16.153	-0.323	-0.255
-593.996	85.576	-0.149	-0.164
-592.982	-200.000	-0.005	-0.095
-591.967	402.400	0.175	0.369
-590.952	-8.013	0.207	0.140
-589.938	24.247	0.378	0.314
-588.923	4.829	-0.216	-0.160
-587.909	265.375	0.133	0.233
-586.894	-200.000	-0.010	-0.176
-585.879	-77.700	0.104	-0.036
-584.865	194.593	-0.172	0.262
-583.850	800.000	0.020	-0.061
-582.836	-69.605	0.253	-0.097
-581.821	800.000	0.032	-0.134
-580.806	800.000	-0.063	-0.214
-579.792	4.868	-0.214	0.158
-578.777	-43.486	-0.054	-0.027
-577.763	-127.557	0.133	-0.019
-576.748	-115.370	-0.383	0.072
-575.733	-200.000	-0.054	-0.350
-574.719	-200.000	-0.012	0.264
-573.704	-200.000	0.000	-0.147
-572.690	-7.456	-0.129	0.088
-571.675	134.031	-0.216	0.280
-570.661	3.490	-0.268	-0.195
-569.646	-45.161	0.026	-0.013
-568.631	-200.000	-0.020	0.126
-567.617	-200.000	0.015	-0.257
-566.602	-183.705	0.124	0.002
-565.588	800.000	-0.055	-0.219
-564.573	-35.164	-0.176	-0.096
-563.558	-69.121	0.195	-0.075
-562.544	-13.812	-0.293	0.190
-561.529	-87.529	0.221	0.067
-560.515	-200.000	0.057	0.295
-559.500	-200.000	0.012	0.069
-558.485	-123.642	-0.172	0.027
-557.471	-103.481	0.132	-0.031
-556.456	-35.732	-0.229	-0.125
-555.442	188.040	-0.123	0.185
-554.427	800.000	-0.140	-0.395
-553.412	-200.000	0.074	-0.340
-552.398	22.785	-0.077	0.064
-551.383	57.120	-0.251	-0.245
-550.369	-54.529	0.168	0.076
-549.354	228.003	0.074	-0.120
-548.339	-200.000	-0.023	-0.407
-547.325	48.414	0.200	-0.187
-546.310	-188.590	0.105	-0.001
-545.296	137.266	-0.259	-0.339
-544.281	-95.137	0.389	-0.105
-543.266	23.320	-0.039	-0.032
-542.252	-8.939	0.275	-0.184
-541.237	-48.968	-0.085	0.041
-540.223	-82.041	-0.271	0.089
-539.208	36.198	0.286	-0.253
-538.193	33.852	0.105	0.091
-537.179	800.000	0.048	0.141
-536.164	-118.078	0.137	-0.025
-535.150	-89.008	0.267	0.079
-534.135	-161.090	0.161	-0.008
-533.121	13.018	0.077	-0.060
-532.106	545.769	-0.087	0.209
-531.091	11.960	-0.216	-0.166
-530.077	38.044	-0.152	0.135
-529.062	-200.000	-0.062	-0.279
-528.048	-200.000	0.003	0.218
-527.033	800.000	-0.049	0.139
-526.018	-200.000	0.057	-0.280
-525.004	-200.000	-0.013	0.158
-523.989	-145.650	-0.529	0.047
-522.975	800.000	0.123	0.393
-521.960	-200.000	0.048	-0.268
-520.945	-79.309	-0.092	-0.031
-519.931	87.225	0.181	-0.201
-518.916	-75.028	-0.120	-0.043
-517.902	435.520	0.133	-0.289
-516.887	-115.345	0.148	-0.028
-515.872	-111.002	0.215	0.044
-514.858	85.896	0.055	0.061
-513.843	-200.000	0.118	-0.000
-512.829	97.783	0.177	-0.204
-511.814	51.977	0.309	-0.294
-510.799	-116.907	-0.037	-0.007
-509.785	-200.000	0.027	0.143
-508.770	101.551	-0.160	0.186
-507.756	-50.945	0.311	-0.146
-506.741	-159.415	0.333	-0.019
-505.726	800.000	-0.063	0.199
-504.712	122.204	0.056	-0.070
-503.697	-122.835	-0.319	-0.051
-502.683	680.955	-0.104	0.271
-501.668	13.259	-0.164	-0.127
-500.653	-200.000	0.009	0.432
-499.639	-114.988	0.207	-0.039
-498.624	800.000	-0.055	-0.194
-497.610	94.937	0.304	-0.346
-496.595	-108.908	0.312	0.067
-495.581	125.598	0.163	0.205
-494.566	675.990	-0.070	0.182
-493.551	81.858	0.122	-0.132
-492.537	800.000	0.018	0.068
-491.522	79.949	0.174	-0.187
-490.508	-200.000	0.015	-0.120
-489.493	-112.964	0.295	-0.058
-488.478	-103.026	0.176	0.042
-487.464	-19.055	0.187	0.116
-486.449	800.000	0.101	-0.285
-485.435	-200.000	0.006	0.118
-484.420	-200.000	0.069	0.379
-483.405	42.001	0.272	0.247
-482.391	-52.680	0.340	0.157
-481.376	-200.000	0.039	-0.238
-480.362	459.410	-0.122	-0.271
-479.347	-83.485	-0.052	0.016
-478.332	-35.031	0.223	0.122
-477.318	-72.671	-0.307	0.113
-476.303	396.095	-0.158	0.330
-475.289	-94.690	-0.270	0.073
-474.274	-198.840	-0.197	-0.001
-473.259	147.084	-0.065	0.088
-472.245	-63.042	0.245	-0.101
-471.230	157.443	0.076	-0.106
-470.216	48.673	-0.066	-0.062
-469.201	184.419	-0.039	0.058
-468.186	124.401	0.274	0.344
-467.172	-93.566	-0.182	-0.050
-466.157	424.862	-0.033	-0.071
-465.143	188.885	0.073	0.109
-464.128	-129.513	0.234	0.032
-463.113	-49.996	-0.250	0.119
-462.099	-163.415	0.221	0.010
-461.084	-200.000	-0.006	0.318
-460.070	216.953	-0.090	0.142
-459.055	-112.438	0.225	-0.045
-458.040	-200.000	0.004	0.215
-457.026	171.896	-0.118	0.169
-456.011	-200.000	0.007	-0.249
-454.997	-200.000	-0.010	-0.290
-453.982	-7.599	-0.164	0.111
-452.968	18.791	0.201	0.161
-451.953	-200.000	0.015	-0.193
-450.938	-0.079	0.142	-0.101
-449.924	-126.018	0.243	-0.036
-448.909	205.541	0.107	-0.166
-447.895	-24.521	-0.156	0.093
-446.880	-2.861	-0.326	0.227
-445.865	-108.412	0.123	0.026
-444.851	371.862	-0.107	-0.217
-443.836	800.000	0.037	-0.130
-442.822	9.076	-0.264	-0.199
-441.807	566.973	-0.062	0.150
-440.792	16.001	-0.256	0.201
-439.778	28.350	-0.103	0.087
-438.763	-200.000	-0.009	-0.123
-437.749	-3.933	-0.209	-0.144
-436.734	31.118	-0.036	-0.031
-435.719	-89.382	-0.202	0.059
-434.705	-200.000	-0.061	0.379
-433.690	162.714	-0.195	0.272
-432.676	-200.000	0.002	-0.308
-431.661	-119.475	0.204	0.035
-430.646	204.114	-0.073	0.113
-429.632	800.000	0.045	0.127
-428.617	262.182	-0.087	0.150
-427.603	800.000	-0.077	-0.217
-426.588	48.414	0.112	-0.104
-425.573	253.156	-0.126	-0.214
-424.559	45.090	0.172	0.158
-423.544	723.961	0.116	0.307
-422.530	-184.585	0.136	-0.002
-421.515	-7.929	0.295	-0.198
-420.500	800.000	0.095	-0.338
-419.486	-200.000	0.029	0.306
-418.471	18.635	0.254	-0.202
-417.457	-200.000	-0.001	0.068
-416.442	800.000	-0.052	0.226
-415.428	566.107	0.118	-0.285
-414.413	800.000	-0.020	-0.069
-413.398	248.953	-0.092	-0.155
-412.384	800.000	0.082	0.262
-411.369	800.000	-0.056	0.159
-410.355	-200.000	-0.021	0.154
-409.340	261.046	0.098	-0.170
-408.325	78.182	-0.115	-0.122
-407.311	-200.000	0.025	0.276
-406.296	0.852	0.179	0.128
-405.282	74.388	0.169	-0.177
-404.267	316.076	0.121	-0.228
-403.252	482.251	-0.072	0.163
-402.238	-142.034	0.160	0.016
-401.223	800.000	0.046	-0.143
-400.209	143.744	0.148	0.196
-399.194	286.627	-0.131	0.236
-398.179	-200.000	0.001	-0.149
-397.165	-48.350	-0.161	-0.077
-396.150	800.000	0.050	-0.176
-395.136	800.000	-0.057	0.159
-394.121	408.221	0.111	0.234
-393.106	-200.000	-0.007	-0.039
-392.092	-162.512	-0.081	-0.004
-391.077	-145.655	-0.259	0.023
-390.063	264.603	-0.099	0.172
-389.048	-35.302	0.119	-0.064
-388.033	195.964	0.149	-0.226
-387.019	-88.467	0.156	-0.046
-386.004	-200.000	-0.006	-0.131
-384.990	198.802	-0.049	-0.074
-383.975	52.378	-0.017	0.016
-382.960	-25.605	0.192	-0.113
-381.946	126.870	0.169	-0.213
-380.931	10.828	-0.157	-0.119
-379.917	156.350	-0.148	0.203
-378.902	86.392	-0.137	0.150
-377.888	-139.507	-0.258	-0.027
-376.873	-200.000	-0.030	-0.162
-375.858	199.725	0.109	-0.166
-374.844	-177.509	-0.093	-0.002
-373.829	-200.000	-0.045	0.408
-372.815	222.243	0.201	0.322
-371.800	92.364	0.175	0.197
-370.785	241.747	0.105	-0.175
-369.771	1.099	-0.247	0.176
-368.756	-60.895	-0.224	0.094
-367.742	108.416	-0.169	0.201
-366.727	-200.000	-0.043	-0.217
-365.712	195.433	0.138	0.208
-364.698	108.322	-0.236	0.279
-363.683	-114.909	-0.229	-0.043
-362.669	-200.000	0.036	-0.158
-361.654	324.143	0.049	0.093
-360.639	-108.703	-0.280	0.060
-359.625	90.835	-0.205	-0.228
-358.610	800.000	0.036	0.102
-357.596	-26.308	-0.151	0.088
-356.581	133.551	-0.102	0.131
-355.566	91.156	-0.043	0.048
-354.552	-200.000	-0.035	-0.293
-353.537	251.737	-0.086	-0.145
-352.523	148.722	0.152	0.205
-351.508	80.392	0.115	0.123
-350.493	-32.330	0.117	-0.065
-349.479	-30.222	-0.140	0.079
-348.464	-77.699	0.131	-0.045
-347.450	300.777	-0.084	0.155
-346.435	-126.211	-0.170	-0.025
-345.420	-45.646	0.119	0.058
-344.406	-112.652	0.103	0.020
-343.391	-200.000	0.049	-0.635
-342.377	-108.367	0.104	0.022
-341.362	800.000	-0.078	0.287
-340.348	-200.000	-0.008	-0.262
-339.333	756.352	-0.045	-0.120
-338.318	4.943	-0.141	0.103
-337.304	-200.000	0.005	-0.225
-336.289	61.336	-0.230	0.227
-335.275	800.000	0.043	0.156
-334.260	-200.000	0.019	0.493
-333.245	111.576	0.090	0.108
-332.231	-200.000	0.068	0.421
-331.216	-200.000	0.045	-0.309
-330.202	-198.934	-0.227	-0.001
-329.187	-99.444	0.090	0.022
-328.172	180.033	0.065	-0.095
-327.158	-65.683	-0.615	-0.245
-326.143	142.540	0.189	0.249
-325.129	38.232	-0.153	0.135
-324.114	10.439	0.030	0.023
-323.099	-200.000	0.005	0.099
-322.085	-47.884	0.194	0.093
-321.070	-69.292	0.150	-0.057
-320.056	58.069	-0.101	0.098
-319.041	-51.633	0.367	0.170
-318.026	-79.609	0.087	-0.029
-317.012	-25.126	0.309	-0.182
-315.997	-81.691	-0.178	-0.058
-314.983	68.407	0.176	0.179
-313.968	11.211	0.227	0.172
-312.953	-49.851	-0.253	0.119
-311.939	561.854	-0.219	-0.526
-310.924	-98.826	0.062	-0.016
-309.910	-74.334	-0.183	0.065
-308.895	-200.000	-0.079	0.407
-307.880	-16.214	0.113	-0.071
-306.866	-200.000	0.013	-0.171
-305.851	115.235	-0.119	-0.144
-304.837	-25.400	-0.104	0.061
-303.822	-41.353	-0.228	0.117
-302.807	800.000	-0.117	0.368
-301.793	800.000	-0.116	0.459
-300.778	800.000	-0.070	-0.234
-299.764	-23.722	-0.175	-0.104
-298.749	67.145	0.165	0.167
-297.735	25.720	-0.058	0.048
-296.720	-68.027	-0.269	0.104
-295.705	-48.109	0.267	-0.128
-294.691	37.856	-0.243	-0.214
-293.676	48.786	0.190	0.177
-292.662	12.238	-0.244	0.186
-291.647	800.000	-0.048	0.178
-290.632	-121.774	-0.055	0.009
-289.618	636.231	0.045	-0.112
-288.603	-110.206	-0.320	-0.066
-287.589	800.000	0.038	0.114
-286.574	-4.921	-0.166	-0.113
-285.559	-136.878	-0.459	0.052
-284.545	741.462	-0.087	0.233
-283.530	422.597	-0.086	-0.182
-282.516	206.093	0.087	-0.134
-281.501	-66.570	-0.331	0.130
-280.486	-86.068	-0.174	0.053
-279.472	-47.033	0.368	-0.178
-278.457	19.147	0.248	-0.197
-277.443	-115.815	-0.243	0.045
-276.428	-150.330	-0.098	0.007
-275.413	-200.000	0.064	-0.405
-274.399	10.384	0.120	-0.090
-273.384	-200.000	0.047	0.232
-272.370	124.727	-0.021	0.026
-271.355	-75.062	0.488	0.173
-270.340	-58.136	-0.083	-0.036
-269.326	52.517	-0.381	-0.360
-268.311	211.578	0.184	-0.288
-267.297	800.000	-0.083	0.323
-266.282	317.925	-0.110	-0.206
-265.267	40.064	-0.081	0.072
-264.253	-47.714	-0.264	0.127
-263.238	195.185	-0.121	-0.181
-262.224	37.574	0.149	0.131
-261.209	174.593	0.131	-0.187
-260.195	-76.203	-0.247	-0.086
-259.180	20.503	0.277	0.222
-258.165	-200.000	-0.008	-0.157
-257.151	-200.000	-0.021	-0.134
-256.136	800.000	-0.022	-0.066
-255.122	4.368	0.204	0.148
-254.107	-168.584	-0.444	-0.017
-253.092	-26.322	0.278	0.161
-252.078	-113.204	0.536	0.104
-251.063	-200.000	-0.069	-0.302
-250.049	-81.979	0.299	0.097
-249.034	249.835	-0.140	-0.235
-248.019	372.672	-0.132	-0.265
-247.005	800.000	0.049	0.139
-245.990	128.349	0.229	0.289
-244.976	800.000	-0.108	-0.458
-243.961	-86.705	-0.103	-0.031
-242.946	-131.735	0.196	-0.025
-241.932	15.240	-0.061	0.047
-240.917	54.535	-0.393	0.375
-239.903	-64.200	0.270	0.109
-238.888	800.000	0.076	-0.289
-237.873	746.317	0.050	-0.132
-236.859	313.080	0.195	-0.363
-235.844	-200.000	0.005	0.048
-234.830	-200.000	-0.023	0.114
-233.815	-41.735	-0.254	-0.129
-232.800	-112.396	0.283	-0.056
-231.786	376.658	-0.118	0.238
-230.771	-200.000	0.025	-0.114
-229.757	800.000	-0.070	-0.280
-228.742	183.671	-0.048	-0.071
-227.727	-37.344	0.043	0.023
-226.713	-49.517	0.435	-0.205
-225.698	118.099	0.193	0.236
-224.684	-105.534	-0.230	-0.052
-223.669	12.212	0.039	-0.029
-222.655	33.241	0.150	0.128
-221.640	26.007	0.141	-0.116
-220.625	-33.820	0.327	-0.178
-219.611	-46.281	-0.109	-0.053
-218.596	201.257	-0.066	-0.101
-217.582	-108.241	0.069	-0.015
-216.567	110.472	0.105	0.125
-215.552	-19.649	0.110	0.067
-214.538	-73.629	0.068	0.024
-213.523	94.322	0.250	0.281
-212.509	-200.000	0.019	0.090
-211.494	425.556	-0.039	0.082
-210.479	-115.236	0.430	0.080
-209.465	-128.148	0.270	0.038
-208.450	-129.089	-0.134	-0.019
-207.436	4.165	0.130	0.094
-206.421	-200.000	0.001	-0.076
-205.406	-200.000	-0.040	-0.358
-204.392	339.692	0.095	-0.183
-203.377	-17.326	-0.277	-0.172
-202.363	106.814	0.135	0.158
-201.348	-118.360	-0.160	-0.028
-200.333	-25.120	0.084	0.049
-199.319	-135.146	0.375	-0.045
-198.304	800.000	-0.063	-0.187
-197.290	679.222	-0.076	0.195
-196.275	-175.616	0.352	-0.009
-195.260	-138.565	0.347	-0.038
-194.246	181.094	-0.204	-0.296
-193.231	-63.400	0.255	-0.104
-192.217	418.705	-0.064	0.135
-191.202	40.406	0.258	-0.230
-190.187	34.728	-0.157	-0.135
-189.173	-34.828	0.217	-0.117
-188.158	800.000	0.050	-0.138
-187.144	302.685	-0.062	-0.113
-186.129	800.000	0.029	-0.116
-185.114	76.141	0.111	-0.116
-184.100	-152.446	0.057	-0.004
-183.085	101.530	-0.049	0.056
-182.071	-57.881	0.246	-0.106
-181.056	-200.000	-0.005	-0.041
-180.042	800.000	0.018	0.073
-179.027	-200.000	0.017	-0.087
-178.012	-71.224	-0.140	-0.052
-176.998	-166.144	0.201	-0.008
-175.983	321.086	0.019	0.036
-174.969	-200.000	-0.055	0.290
-173.954	800.000	0.069	0.268
-172.939	-200.000	0.053	-0.266
-171.925	422.996	0.110	0.234
-170.910	584.985	-0.197	0.477
-169.896	1.858	-0.361	-0.257
-168.881	800.000	0.030	0.113
-167.866	88.139	0.118	0.129
-166.852	-26.562	-0.208	0.120
-165.837	-200.000	-0.125	0.649
-164.823	-76.644	0.447	-0.154
-163.808	-193.089	-0.315	0.003
-162.793	-84.770	0.170	0.053
-161.779	800.000	-0.044	-0.176
-160.764	-200.000	-0.000	0.067
-159.750	-135.916	0.234	-0.027
-158.735	-16.208	-0.260	0.163
-157.720	-176.050	-0.252	-0.007
-156.706	-199.730	0.347	-0.002
-155.691	-136.965	-0.463	0.052
-154.677	-21.708	-0.165	0.099
-153.662	28.710	-0.103	-0.086
-152.647	346.348	-0.125	-0.242
-151.633	312.346	0.072	-0.133
-150.618	179.829	0.179	0.258
-149.604	297.582	-0.075	-0.135
-148.589	-105.969	-0.295	0.066
-147.574	-34.260	-0.300	0.162
-146.560	800.000	0.055	0.213
-145.545	-122.986	0.114	-0.018
-144.531	170.465	0.112	-0.158
-143.516	-83.783	-0.163	-0.051
-142.502	800.000	-0.012	0.043
-141.487	-103.938	0.225	0.052
-140.472	-200.000	0.058	-0.384
-139.458	39.115	0.106	-0.094
-138.443	800.000	0.075	-0.276
-137.429	95.426	0.087	0.098
-136.414	-200.000	-0.019	0.145
-135.399	36.346	-0.142	-0.123
-134.385	-3.474	-0.212	-0.146
-133.370	-200.000	0.120	0.589
-132.356	-62.330	-0.109	0.045
-131.341	-26.076	0.140	-0.081
-130.326	325.477	0.136	0.256
-129.312	44.709	0.163	0.148
-128.297	556.036	0.041	-0.098
-127.283	22.719	-0.158	-0.128
-126.268	800.000	0.074	0.254
-125.253	-200.000	0.010	-0.056
-124.239	800.000	-0.063	0.235
-123.224	230.959	0.139	0.225
-122.210	-97.545	-0.227	0.058
