DTS Sentinel unit serial number:	SN413079Multiplexer serial number:	ORYXHardware model number:	OX4-SRSoftware version number:	ORYX F/W v4.00 Oryx Data Collector v3.7.2.0data status	okinstallation	princeton_trtdifferential loss correction	single-endedforward channel	channel 2reverse channel	N/Adate	2019/09/16time	21:59:34forward acquisition time	60.00reverse acquisition time	0.00gamma	496.2192k internal	0.2328k external	0.2328temperature offset calibration	0.9968default loss term (dB/km)	0.3790temperature slope calibration	1.0000multiplexer offset coefficient	1.0000multiplexer slope coefficient	1.0000fibre end	0.00T internal ref (°C)	31.19T ext. ref 1 (°C)	0.07T ext. ref 2 (°C)	25.37length (m)	temperature (°C)	Stokes	anti-Stokes-747.200	275.688	-0.061	-0.109
-746.185	-200.000	-0.004	-0.057
-745.171	-7.246	0.377	0.258
-744.156	185.079	-0.115	0.171
-743.142	800.000	0.055	0.212
-742.127	56.873	-0.181	0.177
-741.112	254.385	0.113	-0.195
-740.098	44.319	-0.171	0.158
-739.083	605.523	0.037	-0.094
-738.069	-200.000	-0.051	0.383
-737.054	254.776	0.138	-0.237
-736.039	213.302	-0.139	0.221
-735.025	644.526	0.080	0.205
-734.010	-83.343	-0.334	-0.108
-732.996	-57.936	0.041	-0.018
-731.981	-77.096	0.429	0.151
-730.966	-83.734	-0.407	-0.131
-729.952	-68.888	0.576	-0.224
-728.937	-116.954	-0.380	-0.070
-727.923	-114.364	-0.481	0.093
-726.908	-20.163	-0.215	-0.133
-725.894	-200.000	0.019	-0.109
-724.879	-64.644	0.389	-0.159
-723.864	-130.953	-0.161	-0.022
-722.850	132.586	-0.140	-0.182
-721.835	7.981	-0.208	-0.157
-720.821	336.365	-0.149	0.292
-719.806	-102.421	-0.255	0.061
-718.791	108.652	-0.196	-0.236
-717.777	-200.000	0.006	-0.284
-716.762	259.731	0.214	-0.373
-715.748	195.751	-0.215	-0.329
-714.733	-7.545	-0.239	-0.163
-713.718	-200.000	-0.018	-0.121
-712.704	484.262	-0.107	-0.245
-711.689	106.096	-0.170	-0.202
-710.675	-179.702	0.267	-0.006
-709.660	-107.036	0.158	-0.035
-708.645	-74.972	-0.135	0.049
-707.631	-120.764	0.355	-0.060
-706.616	29.999	-0.176	-0.151
-705.602	50.298	-0.215	0.204
-704.587	800.000	-0.022	0.076
-703.572	-132.547	-0.330	0.043
-702.558	-122.096	0.337	0.056
-701.543	-54.597	-0.117	0.053
-700.529	18.863	0.266	-0.214
-699.514	199.759	0.078	-0.121
-698.499	162.255	-0.205	-0.290
-697.485	-83.436	-0.388	-0.125
-696.470	-200.000	-0.036	-0.184
-695.456	62.796	0.220	0.221
-694.441	237.507	-0.065	0.109
-693.426	245.116	0.115	0.194
-692.412	44.710	-0.234	-0.217
-691.397	-97.241	0.204	-0.054
-690.383	-56.254	-0.245	-0.109
-689.368	-174.393	0.294	-0.009
-688.354	-200.000	0.026	-0.393
-687.339	-37.216	0.254	-0.137
-686.324	-146.342	0.105	-0.009
-685.310	-33.732	0.208	-0.115
-684.295	43.337	-0.161	-0.148
-683.281	-84.574	-0.321	-0.102
-682.266	-113.036	0.207	0.041
-681.251	88.159	-0.074	0.083
-680.237	39.829	-0.119	-0.108
-679.222	2.139	-0.042	0.031
-678.208	534.823	0.097	-0.230
-677.193	490.099	0.120	0.275
-676.178	114.863	0.036	-0.044
-675.164	-200.000	0.036	-0.185
-674.149	-172.241	0.204	-0.007
-673.135	-200.000	-0.009	-0.188
-672.120	800.000	-0.034	0.100
-671.105	-145.249	-0.320	0.029
-670.091	645.733	-0.024	-0.060
-669.076	-16.885	0.110	-0.070
-668.062	800.000	-0.075	0.211
-667.047	479.433	-0.189	0.431
-666.032	182.924	-0.060	-0.089
-665.018	90.513	-0.419	-0.471
-664.003	-112.801	0.269	0.054
-662.989	464.570	-0.163	0.366
-661.974	101.124	0.158	0.185
-660.959	113.223	-0.020	-0.025
-659.945	-200.000	0.030	-0.144
-658.930	-200.000	-0.002	-0.145
-657.916	44.620	-0.376	-0.348
-656.901	669.063	0.129	-0.336
-655.886	800.000	-0.150	-0.443
-654.872	-41.136	0.225	0.117
-653.857	800.000	-0.067	0.252
-652.843	211.966	-0.190	0.301
-651.828	800.000	-0.090	0.369
-650.814	200.480	-0.143	-0.221
-649.799	-78.020	0.090	0.031
-648.784	-68.185	-0.185	-0.072
-647.770	-200.000	-0.001	0.119
-646.755	800.000	-0.042	-0.146
-645.741	-78.841	0.248	-0.085
-644.726	-128.285	-0.243	0.035
-643.711	498.494	0.086	0.200
-642.697	565.887	-0.037	-0.091
-641.682	-5.422	0.108	-0.074
-640.668	-130.285	0.043	-0.006
-639.653	-200.000	-0.035	-0.187
-638.638	19.285	-0.175	-0.141
-637.624	-153.336	-0.233	0.016
-636.609	77.724	0.209	-0.223
-635.595	538.812	0.086	0.204
-634.580	87.123	-0.271	0.301
-633.565	243.367	-0.033	0.056
-632.551	-81.120	0.084	0.028
-631.536	-180.367	0.115	-0.002
-630.522	715.469	-0.081	0.215
-629.507	60.830	0.105	0.105
-628.492	-95.430	0.142	-0.038
-627.478	-132.253	0.231	-0.030
-626.463	-78.043	-0.125	0.043
-625.449	-9.512	0.146	0.098
-624.434	111.104	-0.108	0.131
-623.419	-71.946	0.171	0.064
-622.405	125.892	-0.192	-0.243
-621.390	-200.000	0.051	-0.390
-620.376	298.279	0.147	-0.270
-619.361	800.000	0.061	-0.221
-618.346	5.534	0.089	0.066
-617.332	-200.000	-0.012	0.213
-616.317	44.622	-0.323	0.298
-615.303	-85.992	0.125	0.039
-614.288	-146.009	0.255	0.023
-613.273	-100.863	0.133	-0.033
-612.259	262.052	-0.053	-0.092
-611.244	142.225	0.137	-0.183
-610.230	-96.666	0.119	0.031
-609.215	-85.226	0.074	0.023
-608.201	124.128	-0.261	0.329
-607.186	470.549	-0.015	-0.034
-606.171	95.497	-0.116	0.132
-605.157	-200.000	-0.012	-0.296
-604.142	800.000	-0.060	-0.249
-603.128	-30.479	-0.127	0.072
-602.113	-80.973	0.152	-0.050
-601.098	-120.441	-0.305	0.052
-600.084	80.957	-0.271	-0.293
-599.069	-157.205	0.116	0.007
-598.055	-146.657	-0.450	-0.039
-597.040	-71.606	0.107	-0.040
-596.025	-90.465	-0.444	0.129
-595.011	-200.000	-0.028	0.164
-593.996	174.922	0.106	0.153
-592.982	322.557	0.153	-0.292
-591.967	-200.000	-0.012	0.121
-590.952	-200.000	-0.012	-0.167
-589.938	5.556	0.029	-0.021
-588.923	-29.270	0.109	0.062
-587.909	213.081	-0.219	-0.346
-586.894	155.835	-0.131	-0.181
-585.879	9.895	0.143	0.108
-584.865	317.388	-0.226	-0.427
-583.850	-35.077	-0.196	-0.107
-582.836	-90.988	-0.419	-0.121
-581.821	0.606	-0.176	-0.126
-580.806	-49.882	0.252	-0.120
-579.792	220.387	-0.126	-0.203
-578.777	-110.850	-0.446	0.092
-577.763	267.591	-0.070	0.122
-576.748	800.000	0.045	-0.178
-575.733	337.154	0.035	-0.069
-574.719	468.646	0.152	0.343
-573.704	-6.331	0.144	-0.099
-572.690	800.000	0.104	0.294
-571.675	318.599	0.093	-0.176
-570.661	800.000	-0.049	-0.175
-569.646	800.000	0.021	-0.070
-568.631	800.000	-0.118	0.434
-567.617	800.000	0.132	0.391
-566.602	98.718	-0.147	0.169
-565.588	-32.756	0.189	0.105
-564.573	-60.650	0.277	0.117
-563.558	11.140	-0.376	0.288
-562.544	-7.530	0.051	0.034
-561.529	593.550	0.050	0.124
-560.515	272.189	0.156	-0.275
-559.500	306.088	-0.070	-0.130
-558.485	-118.025	0.273	-0.049
-557.471	156.657	-0.141	-0.195
-556.456	-200.000	-0.024	0.151
-555.442	800.000	0.092	0.321
-554.427	-164.547	-0.201	0.009
-553.412	144.941	0.142	-0.190
-552.398	-1.115	0.050	-0.035
-551.383	-200.000	-0.012	0.161
-550.369	-12.469	0.168	-0.110
-549.354	10.758	-0.335	-0.255
-548.339	-105.346	0.272	0.062
-547.325	-168.869	0.223	0.008
-546.310	-91.915	-0.334	-0.095
-545.296	-200.000	-0.001	-0.152
-544.281	-34.734	-0.163	0.089
-543.266	35.959	-0.189	-0.167
-542.252	-123.813	0.173	0.027
-541.237	-85.515	0.136	-0.042
-540.223	81.008	-0.188	-0.203
-539.208	213.986	-0.174	0.275
-538.193	326.608	0.105	-0.202
-537.179	-22.723	0.316	-0.191
-536.164	-16.784	-0.229	0.145
-535.150	98.691	0.143	-0.165
-534.135	743.234	0.011	0.031
-533.121	-200.000	-0.007	0.087
-532.106	20.119	-0.182	0.147
-531.091	-161.584	-0.337	-0.017
-530.077	-200.000	0.023	0.116
-529.062	-72.626	0.221	0.082
-528.048	85.824	-0.101	-0.111
-527.033	97.250	-0.110	-0.126
-526.018	35.833	-0.030	-0.026
-525.004	-108.827	0.111	0.024
-523.989	-200.000	-0.048	0.244
-522.975	-19.359	-0.140	0.087
-521.960	-200.000	0.027	-0.322
-520.945	-123.871	-0.053	0.008
-519.931	239.069	-0.113	-0.187
-518.916	99.068	-0.079	0.091
-517.902	-200.000	-0.035	-0.280
-516.887	800.000	-0.041	0.121
-515.872	-5.620	0.178	0.122
-514.858	267.406	0.006	0.011
-513.843	-82.771	-0.445	0.144
-512.829	140.908	0.156	-0.206
-511.814	-1.969	0.230	0.161
-510.799	12.932	0.161	0.124
-509.785	130.860	-0.248	0.318
-508.770	-60.509	-0.185	-0.078
-507.756	521.929	0.086	-0.203
-506.741	-200.000	0.011	0.289
-505.726	-49.508	-0.429	0.204
-504.712	-200.000	-0.028	0.154
-503.697	-200.000	0.005	0.144
-502.683	681.438	0.093	0.242
-501.668	112.175	-0.224	0.271
-500.653	45.853	-0.099	0.091
-499.639	366.529	0.138	-0.277
-498.624	800.000	0.058	0.163
-497.610	-37.857	0.501	-0.266
-496.595	-30.791	0.155	0.088
-495.581	115.701	-0.077	0.094
-494.566	-200.000	-0.076	-0.378
-493.551	-17.134	0.142	0.089
-492.537	-31.705	0.063	-0.035
-491.522	-76.410	0.120	0.042
-490.508	-98.737	-0.262	0.067
-489.493	-200.000	-0.060	-0.285
-488.478	800.000	0.073	-0.304
-487.464	-17.964	-0.149	0.093
-486.449	-164.326	-0.216	0.010
-485.435	57.880	-0.314	0.306
-484.420	-200.000	0.065	0.339
-483.405	800.000	-0.037	0.130
-482.391	211.980	0.193	0.303
-481.376	-200.000	-0.007	-0.055
-480.362	-200.000	0.011	0.064
-479.347	-200.000	0.003	-0.106
-478.332	800.000	-0.072	-0.201
-477.318	286.138	0.022	-0.039
-476.303	-88.407	0.029	0.009
-475.289	-200.000	-0.006	-0.055
-474.274	91.491	0.250	0.280
-473.259	800.000	-0.024	-0.095
-472.245	46.772	0.334	-0.309
-471.230	-136.628	-0.212	0.024
-470.216	54.085	-0.131	-0.126
-469.201	92.593	0.233	-0.262
-468.186	368.021	0.151	0.305
-467.172	-37.081	-0.039	-0.021
-466.157	-82.083	-0.152	-0.049
-465.143	298.742	0.139	0.256
-464.128	209.032	-0.140	-0.218
-463.113	-63.176	-0.273	-0.112
-462.099	-70.127	0.215	0.082
-461.084	552.981	0.039	-0.093
-460.070	181.933	0.232	-0.340
-459.055	-26.858	-0.075	-0.044
-458.040	-42.910	-0.189	0.095
-457.026	-200.000	-0.010	-0.085
-456.011	60.730	0.046	-0.045
-454.997	-200.000	-0.010	0.161
-453.982	-92.527	-0.192	0.054
-452.968	338.646	0.137	-0.266
-451.953	1.939	-0.119	0.086
-450.938	-38.718	-0.155	0.081
-449.924	337.007	0.051	-0.098
-448.909	7.616	-0.208	0.155
-447.895	72.233	0.360	0.373
-446.880	227.347	-0.138	0.223
-445.865	-200.000	0.058	0.275
-444.851	-200.000	0.059	-0.267
-443.836	-18.933	-0.096	-0.060
-442.822	-141.240	-0.195	-0.020
-441.807	311.529	-0.020	-0.038
-440.792	800.000	0.045	0.171
-439.778	-200.000	0.002	0.239
-438.763	-131.662	0.345	0.045
-437.749	567.421	-0.126	0.305
-436.734	-200.000	-0.048	0.223
-435.719	-52.882	-0.107	-0.049
-434.705	-70.718	0.352	0.132
-433.690	800.000	0.073	0.270
-432.676	9.531	-0.442	-0.333
-431.661	422.976	-0.075	0.160
-430.646	-63.300	0.348	0.143
-429.632	319.868	-0.139	-0.263
-428.617	800.000	-0.051	-0.155
-427.603	-68.546	0.267	0.103
-426.588	10.241	-0.155	-0.117
-425.573	-108.925	0.097	-0.021
-424.559	-2.467	0.154	0.107
-423.544	-165.802	-0.275	-0.012
-422.530	-100.776	-0.043	-0.011
-421.515	-18.472	0.137	0.085
-420.500	-200.000	0.083	-0.384
-419.486	-148.612	0.081	0.007
-418.471	-200.000	0.033	-0.145
-417.457	417.344	0.091	0.194
-416.442	800.000	-0.079	0.229
-415.428	272.242	0.139	-0.243
-414.413	800.000	-0.072	0.216
-413.398	-200.000	-0.040	0.192
-412.384	-55.948	0.251	0.111
-411.369	72.172	-0.445	0.461
-410.355	-56.313	0.041	-0.018
-409.340	-200.000	0.059	-0.583
-408.325	-200.000	0.003	-0.180
-407.311	199.006	0.073	0.112
-406.296	-200.000	0.004	-0.034
-405.282	-200.000	-0.010	-0.075
-404.267	60.008	-0.119	0.117
-403.252	58.023	-0.030	-0.029
-402.238	11.424	-0.235	-0.179
-401.223	800.000	-0.043	-0.165
-400.209	-200.000	0.009	0.324
-399.194	-133.286	0.230	0.029
-398.179	211.344	-0.029	0.046
-397.165	-107.576	0.125	-0.027
-396.150	-137.272	-0.066	-0.007
-395.136	-157.269	-0.245	-0.015
-394.121	-200.000	-0.030	-0.654
-393.106	-200.000	0.019	-0.251
-392.092	800.000	0.040	-0.129
-391.077	-200.000	-0.002	0.261
-390.063	-78.507	-0.053	0.018
-389.048	-88.732	-0.255	-0.075
-388.033	68.135	0.055	0.056
-387.019	171.464	0.176	0.251
-386.004	-176.966	0.138	-0.003
-384.990	-154.015	0.152	-0.010
-383.975	-89.874	-0.020	-0.006
-382.960	-38.547	0.306	0.161
-381.946	26.142	-0.143	-0.119
-380.931	-30.748	0.211	-0.119
-379.917	-142.510	0.271	-0.026
-378.902	-81.961	0.207	0.067
-377.888	-200.000	0.016	-0.295
-376.873	498.313	0.043	-0.098
-375.858	685.370	0.101	0.262
-374.844	-194.648	-0.295	0.002
-373.829	-116.677	-0.321	-0.059
-372.815	-200.000	-0.013	0.196
-371.800	-15.827	-0.179	-0.113
-370.785	-127.375	-0.263	-0.038
-369.771	-107.787	0.261	0.057
-368.756	196.705	-0.212	0.322
-367.742	-200.000	-0.029	-0.327
-366.727	-8.745	-0.205	-0.136
-365.712	47.084	0.243	0.224
-364.698	-38.668	-0.068	-0.036
-363.683	800.000	0.086	-0.253
-362.669	-75.685	-0.231	-0.081
-361.654	-35.183	-0.333	-0.180
-360.639	-53.513	0.061	-0.028
-359.625	47.686	0.147	-0.136
-358.610	-46.266	0.090	-0.044
-357.596	-143.385	-0.292	0.028
-356.581	-110.091	0.158	0.033
-355.566	-11.303	-0.165	0.108
-354.552	304.506	0.156	-0.287
-353.537	-200.000	0.006	0.044
-352.523	-154.820	0.211	0.014
-351.508	-94.595	0.196	-0.053
-350.493	-154.532	-0.055	-0.004
-349.479	-200.000	-0.031	-0.145
-348.464	-121.572	0.472	-0.078
-347.450	31.261	-0.110	-0.093
-346.435	79.935	0.173	0.184
-345.420	-150.665	0.367	-0.028
-344.406	-10.730	0.074	0.049
-343.391	-200.000	-0.048	0.247
-342.377	-200.000	0.007	0.227
-341.362	35.236	0.283	-0.247
-340.348	-48.060	-0.209	-0.100
-339.333	-60.474	-0.084	0.036
-338.318	-200.000	-0.024	-0.166
-337.304	-14.739	0.207	0.132
-336.289	180.278	-0.239	0.347
-335.275	-159.078	-0.106	-0.006
-334.260	-6.735	0.170	-0.115
-333.245	-200.000	0.028	-0.225
-332.231	800.000	-0.072	0.292
-331.216	-200.000	-0.008	0.202
-330.202	-61.344	0.160	-0.067
-329.187	-46.683	0.196	0.095
-328.172	-99.769	0.252	-0.062
-327.158	24.091	-0.068	0.055
-326.143	-40.047	-0.040	-0.021
-325.129	800.000	-0.047	-0.174
-324.114	-200.000	-0.034	0.219
-323.099	-74.926	0.470	-0.167
-322.085	-44.103	-0.250	0.124
-321.070	-106.413	0.390	-0.086
-320.056	0.383	0.099	-0.070
-319.041	-59.056	-0.143	-0.061
-318.026	-52.265	0.210	0.096
-317.012	-172.820	-0.174	-0.005
-315.997	800.000	0.039	-0.112
-314.983	-148.463	0.219	0.018
-313.968	-16.038	0.197	0.124
-312.953	-26.601	0.185	0.107
-311.939	-12.393	0.065	-0.042
-310.924	-29.998	0.156	0.088
-309.910	17.602	-0.171	-0.135
-308.895	-200.000	0.130	0.000
-307.880	-115.434	0.334	0.062
-306.866	-29.112	0.119	0.067
-305.851	-168.126	0.433	0.017
-304.837	-16.418	-0.155	-0.098
-303.822	792.015	-0.040	-0.108
-302.807	-5.718	-0.360	0.244
-301.793	-62.327	-0.172	-0.071
-300.778	-148.789	0.256	0.021
-299.764	-174.380	0.272	-0.008
-298.749	800.000	-0.117	0.384
-297.735	-167.308	0.265	-0.011
-296.720	470.831	-0.247	-0.549
-295.705	-197.277	0.084	0.001
-294.691	-200.000	-0.036	-0.244
-293.676	292.051	-0.033	0.060
-292.662	-92.713	-0.266	0.074
-291.647	-108.141	-0.088	0.019
-290.632	-200.000	-0.011	0.098
-289.618	85.949	-0.144	0.157
-288.603	-200.000	-0.009	-0.137
-287.589	61.943	0.219	-0.216
-286.574	472.737	-0.221	0.493
-285.559	-67.383	-0.073	-0.029
-284.545	-132.524	0.047	-0.006
-283.530	362.445	-0.022	0.044
-282.516	266.950	0.147	-0.254
-281.501	-200.000	-0.025	-0.304
-280.486	-45.310	-0.179	-0.088
-279.472	107.165	-0.108	0.127
-278.457	-83.789	0.489	0.154
-277.443	800.000	0.169	-0.475
-276.428	-110.185	-0.228	0.047
-275.413	-67.404	0.072	-0.028
-274.399	19.468	0.163	0.130
-273.384	-200.000	-0.005	-0.045
-272.370	-163.113	0.349	-0.017
-271.355	-200.000	-0.033	-0.236
-270.340	-90.939	-0.390	0.111
-269.326	-109.409	-0.089	0.019
-268.311	763.469	0.109	0.293
-267.297	800.000	0.066	0.244
-266.282	-200.000	0.034	-0.213
-265.267	-12.377	0.280	-0.181
-264.253	20.724	-0.134	0.107
-263.238	800.000	-0.030	-0.115
-262.224	-200.000	-0.057	-0.375
-261.209	44.376	-0.144	-0.131
-260.195	-149.210	0.276	-0.022
-259.180	46.318	-0.082	0.075
-258.165	91.575	0.152	-0.168
-257.151	48.990	0.213	-0.198
-256.136	-200.000	-0.039	0.173
-255.122	279.208	0.045	-0.079
-254.107	321.101	-0.135	0.254
-253.092	-200.000	0.004	0.320
-252.078	540.208	0.113	0.267
-251.063	-200.000	0.010	0.276
-250.049	3.374	-0.257	0.185
-249.034	-200.000	0.008	-0.101
-248.019	87.731	0.077	0.084
-247.005	152.890	0.056	-0.076
-245.990	-109.756	-0.086	-0.018
-244.976	-124.142	-0.287	0.044
-243.961	-155.997	0.205	0.013
-242.946	108.567	0.065	0.077
-241.932	171.552	-0.078	-0.111
-240.917	115.579	-0.055	0.067
-239.903	-200.000	0.090	0.404
-238.888	-14.172	-0.101	0.064
-237.873	171.937	0.129	-0.183
-236.859	10.571	-0.455	0.342
-235.844	-200.000	-0.008	0.400
-234.830	-200.000	0.038	0.271
-233.815	-31.635	0.079	-0.044
-232.800	639.288	-0.018	-0.044
-231.786	20.701	0.157	0.126
-230.771	800.000	-0.148	-0.448
-229.757	97.065	-0.131	0.148
-228.742	-200.000	0.011	-0.312
-227.727	6.113	-0.151	-0.111
-226.713	280.559	-0.191	-0.337
-225.698	7.516	-0.253	-0.187
-224.684	-200.000	0.058	-0.556
-223.669	-200.000	-0.049	-0.260
-222.655	-200.000	-0.016	0.274
-221.640	-116.334	0.278	0.051
-220.625	-97.782	-0.345	0.088
-219.611	-10.853	-0.326	0.213
-218.596	-114.902	-0.267	-0.050
-217.582	268.548	-0.050	-0.087
-216.567	-200.000	-0.014	-0.097
-215.552	-200.000	-0.001	-0.172
-214.538	800.000	0.072	-0.234
-213.523	637.723	-0.095	-0.238
-212.509	-125.720	-0.249	-0.037
-211.494	-165.329	0.151	-0.007
-210.479	-200.000	0.032	0.177
-209.465	341.060	-0.120	-0.231
-208.450	-200.000	-0.026	-0.157
-207.436	-187.570	0.037	-0.000
-206.421	-82.705	0.283	-0.090
-205.406	235.554	0.158	0.257
-204.392	-163.607	-0.256	-0.012
-203.377	52.197	-0.298	0.280
-202.363	-129.709	0.044	0.006
-201.348	-85.771	-0.452	-0.138
-200.333	69.526	0.188	0.191
-199.319	-200.000	-0.016	-0.099
-198.304	25.234	-0.290	-0.238
-197.290	302.998	-0.062	0.114
-196.275	-200.000	0.034	-0.208
-195.260	-106.657	-0.432	0.095
-194.246	82.845	-0.114	-0.122
-193.231	-200.000	-0.027	0.138
-192.217	-200.000	0.000	-0.094
-191.202	-100.310	-0.226	0.055
-190.187	219.045	0.026	-0.041
-189.173	-92.909	0.020	-0.006
-188.158	-149.102	0.231	-0.018
-187.144	-146.366	0.181	-0.016
-186.129	800.000	0.107	-0.346
-185.114	-200.000	0.037	-0.494
-184.100	439.612	0.056	0.121
-183.085	-97.911	0.195	-0.050
-182.071	800.000	-0.047	0.203
-181.056	-103.668	0.229	0.053
-180.042	-41.111	0.278	-0.142
-179.027	-32.374	-0.302	-0.166
-178.012	-104.840	-0.207	0.047
-176.998	-58.148	-0.242	-0.104
-175.983	43.381	0.129	0.116
-174.969	477.370	-0.048	0.107
-173.954	800.000	-0.018	-0.065
-172.939	-200.000	-0.024	-0.136
-171.925	-165.309	0.368	0.016
-170.910	-80.438	0.388	0.127
-169.896	-154.016	0.132	0.009
-168.881	-148.553	-0.214	-0.017
-167.866	-24.296	0.470	0.276
-166.852	-200.000	0.025	0.401
-165.837	-69.726	-0.265	0.100
-164.823	-200.000	-0.005	0.325
-163.808	800.000	0.031	-0.130
-162.793	487.252	0.172	-0.387
-161.779	-85.130	0.388	0.120
-160.764	-28.576	-0.317	0.180
-159.750	-200.000	-0.005	0.132
-158.735	800.000	0.106	0.371
-157.720	-200.000	0.005	-0.097
-156.706	-45.929	0.300	0.146
-155.691	-72.241	-0.121	0.044
-154.677	-180.419	0.324	0.007
-153.662	305.116	-0.139	-0.255
-152.647	485.851	-0.167	0.375
-151.633	130.946	0.170	0.215
-150.618	-200.000	-0.029	0.132
-149.604	38.420	0.302	-0.265
-148.589	141.872	0.138	0.180
-147.574	-44.606	0.243	-0.120
-146.560	40.869	0.128	-0.113
-145.545	-66.598	0.405	-0.158
-144.531	-190.666	-0.187	-0.002
-143.516	168.684	0.205	0.288
-142.502	-200.000	0.051	0.251
-141.487	11.416	0.134	-0.101
-140.472	800.000	-0.095	-0.286
-139.458	145.960	-0.165	-0.218
-138.443	469.881	-0.023	0.050
-137.429	503.436	0.200	-0.456
-136.414	-98.063	0.191	0.048
-135.399	800.000	0.033	0.134
-134.385	540.158	0.215	0.503
-133.370	800.000	0.067	0.233
-132.356	433.868	-0.081	-0.173
-131.341	-97.069	0.271	-0.070
-130.326	-58.657	0.448	0.191
-129.312	153.103	0.157	0.211
-128.297	120.099	0.113	0.137
-127.283	-118.798	-0.153	-0.026
-126.268	-112.730	0.327	0.064
-125.253	70.770	-0.159	-0.162
-124.239	-28.041	0.118	-0.067
-123.224	-155.647	-0.245	-0.015
-122.210	-200.000	0.018	-0.232
