DTS Sentinel unit serial number:	SN413079Multiplexer serial number:	ORYXHardware model number:	OX4-SRSoftware version number:	ORYX F/W v4.00 Oryx Data Collector v3.7.2.0data status	okinstallation	princeton_trtdifferential loss correction	single-endedforward channel	channel 2reverse channel	N/Adate	2019/09/18time	05:47:34forward acquisition time	60.00reverse acquisition time	0.00gamma	496.2192k internal	0.2349k external	0.2349temperature offset calibration	0.9985default loss term (dB/km)	0.3790temperature slope calibration	1.0000multiplexer offset coefficient	1.0000multiplexer slope coefficient	1.0000fibre end	0.00T internal ref (°C)	23.27T ext. ref 1 (°C)	0.19T ext. ref 2 (°C)	16.96length (m)	temperature (°C)	Stokes	anti-Stokes-747.200	-101.473	-0.218	-0.053
-746.185	114.424	0.202	0.245
-745.171	90.605	0.238	-0.267
-744.156	-42.041	-0.199	0.102
-743.142	-33.948	0.124	-0.068
-742.127	147.637	0.100	0.134
-741.112	751.308	0.099	0.266
-740.098	33.274	-0.249	0.215
-739.083	-164.052	-0.217	-0.010
-738.069	2.907	0.068	-0.049
-737.054	48.283	-0.240	0.225
-736.039	-200.000	-0.016	0.220
-735.025	-200.000	-0.054	0.579
-734.010	-95.260	0.228	0.061
-732.996	-200.000	0.062	-0.289
-731.981	52.001	-0.163	0.155
-730.966	3.945	0.075	0.055
-729.952	800.000	0.131	-0.402
-728.937	-29.550	-0.215	-0.123
-727.923	-200.000	-0.004	0.071
-726.908	-60.521	-0.212	0.090
-725.894	29.086	-0.018	-0.015
-724.879	-100.455	0.140	-0.035
-723.864	-200.000	0.007	0.311
-722.850	-41.243	-0.156	0.080
-721.835	144.596	0.054	-0.072
-720.821	-200.000	-0.032	-0.388
-719.806	-200.000	-0.027	0.244
-718.791	800.000	0.079	-0.260
-717.777	-104.389	0.324	0.075
-716.762	800.000	0.042	-0.118
-715.748	756.860	-0.038	-0.101
-714.733	800.000	-0.051	-0.165
-713.718	30.893	-0.205	-0.176
-712.704	800.000	0.131	-0.387
-711.689	-200.000	0.058	-0.258
-710.675	-39.406	-0.228	-0.119
-709.660	-70.059	-0.148	-0.056
-708.645	666.298	-0.182	-0.469
-707.631	-200.000	0.076	0.373
-706.616	152.106	-0.100	-0.136
-705.602	51.158	-0.116	0.109
-704.587	800.000	0.045	-0.128
-703.572	-200.000	0.082	0.360
-702.558	-200.000	-0.001	0.139
-701.543	800.000	0.019	-0.061
-700.529	-54.516	0.267	0.121
-699.514	800.000	-0.062	-0.209
-698.499	295.206	0.057	0.104
-697.485	183.822	0.023	0.034
-696.470	800.000	-0.030	0.104
-695.456	20.488	0.170	-0.137
-694.441	-67.776	0.151	-0.059
-693.426	-49.789	-0.213	0.101
-692.412	800.000	-0.048	-0.205
-691.397	40.417	-0.226	-0.203
-690.383	-75.778	-0.110	-0.039
-689.368	-200.000	-0.026	0.447
-688.354	15.308	0.174	-0.136
-687.339	703.808	-0.029	0.075
-686.324	170.121	-0.052	-0.074
-685.310	229.963	-0.091	-0.149
-684.295	-133.878	-0.173	0.021
-683.281	225.539	-0.197	0.318
-682.266	-38.830	0.219	-0.115
-681.251	-14.438	0.103	-0.066
-680.237	8.536	0.048	0.036
-679.222	-200.000	-0.071	-0.313
-678.208	-147.431	0.178	0.015
-677.193	800.000	0.100	-0.331
-676.178	197.973	0.269	-0.409
-675.164	-115.593	-0.325	-0.061
-674.149	9.797	-0.240	0.182
-673.135	-200.000	-0.030	0.256
-672.120	144.913	0.079	-0.106
-671.105	-55.522	-0.422	0.188
-670.091	-115.885	0.354	-0.066
-669.076	272.057	-0.262	-0.461
-668.062	0.261	-0.160	-0.114
-667.047	64.847	0.300	-0.301
-666.032	582.182	0.126	-0.307
-665.018	-79.913	-0.169	-0.056
-664.003	1.334	0.111	-0.080
-662.989	-23.593	-0.114	-0.068
-661.974	-131.400	-0.464	-0.061
-660.959	-136.776	0.083	-0.009
-659.945	308.423	0.040	0.075
-658.930	260.037	0.172	0.295
-657.916	52.514	0.127	-0.121
-656.901	161.017	0.143	-0.199
-655.886	-176.270	-0.181	-0.005
-654.872	94.785	-0.074	0.084
-653.857	152.111	0.049	0.067
-652.843	164.590	-0.195	0.274
-651.828	800.000	0.072	0.260
-650.814	66.813	0.208	-0.210
-649.799	-88.505	0.445	-0.132
-648.784	-178.326	0.298	-0.007
-647.770	-37.958	-0.197	-0.104
-646.755	800.000	0.067	-0.224
-645.741	-136.730	0.397	-0.046
-644.726	35.153	0.061	0.053
-643.711	497.436	-0.015	0.034
-642.697	-103.476	0.351	-0.082
-641.682	800.000	-0.085	-0.328
-640.668	-102.947	0.072	0.017
-639.653	296.946	-0.109	-0.199
-638.638	-112.948	-0.113	-0.022
-637.624	-10.228	-0.337	0.222
-636.609	800.000	-0.013	-0.046
-635.595	165.366	0.187	-0.263
-634.580	-83.924	-0.254	-0.080
-633.565	746.005	-0.110	-0.293
-632.551	-83.089	-0.145	-0.046
-631.536	14.250	-0.204	0.158
-630.522	-64.722	-0.116	0.047
-629.507	-79.488	0.151	-0.051
-628.492	-200.000	-0.047	-0.430
-627.478	45.835	0.207	-0.190
-626.463	-100.967	-0.267	-0.065
-625.449	48.660	-0.050	-0.046
-624.434	800.000	0.021	0.080
-623.419	642.405	0.181	0.459
-622.405	54.224	0.146	-0.140
-621.390	18.967	0.151	-0.120
-620.376	757.664	-0.123	-0.331
-619.361	-50.740	0.252	-0.118
-618.346	47.668	0.097	0.090
-617.332	239.406	0.077	0.127
-616.317	-112.398	0.131	-0.026
-615.303	315.221	0.134	-0.252
-614.288	-124.677	-0.354	-0.055
-613.273	-103.135	-0.128	-0.030
-612.259	33.759	0.136	0.118
-611.244	-73.165	0.108	0.039
-610.230	23.500	0.226	-0.185
-609.215	269.878	0.128	0.224
-608.201	-89.168	-0.319	-0.094
-607.186	-116.419	-0.153	0.028
-606.171	-120.119	0.120	-0.020
-605.157	19.502	-0.180	-0.143
-604.142	800.000	0.064	0.222
-603.128	800.000	-0.060	0.238
-602.113	-200.000	0.010	0.209
-601.098	93.441	0.258	0.290
-600.084	-157.901	0.069	0.004
-599.069	-200.000	-0.063	0.499
-598.055	-161.623	-0.149	0.008
-597.040	131.943	-0.166	-0.212
-596.025	800.000	-0.096	-0.385
-595.011	-156.924	0.063	-0.004
-593.996	-73.317	-0.166	-0.060
-592.982	-77.974	0.251	0.086
-591.967	71.093	0.016	-0.016
-590.952	40.553	0.100	0.089
-589.938	-58.427	0.220	-0.095
-588.923	-200.000	-0.039	0.339
-587.909	138.527	-0.239	-0.311
-586.894	-71.176	0.151	-0.056
-585.879	-200.000	-0.024	-0.107
-584.865	-41.071	-0.176	-0.090
-583.850	-92.420	-0.263	-0.073
-582.836	-94.019	-0.098	0.027
-581.821	19.468	0.164	-0.131
-580.806	255.269	0.157	-0.266
-579.792	166.242	0.278	-0.391
-578.777	-166.982	0.081	0.003
-577.763	-66.086	-0.109	-0.043
-576.748	-52.724	-0.503	0.230
-575.733	137.325	0.146	-0.190
-574.719	-200.000	-0.012	0.142
-573.704	800.000	0.080	-0.317
-572.690	-127.104	-0.284	-0.041
-571.675	79.706	-0.196	0.208
-570.661	-176.862	0.147	-0.004
-569.646	-37.092	0.121	0.064
-568.631	-156.659	-0.083	0.005
-567.617	800.000	-0.087	0.247
-566.602	471.063	0.066	0.148
-565.588	-200.000	0.023	0.241
-564.573	405.184	-0.069	-0.145
-563.558	109.949	-0.188	0.224
-562.544	-78.628	0.240	-0.081
-561.529	55.443	0.263	0.253
-560.515	-114.613	-0.315	0.060
-559.500	-200.000	-0.015	-0.176
-558.485	-116.936	-0.138	0.025
-557.471	94.830	-0.092	-0.104
-556.456	-200.000	-0.069	0.357
-555.442	-199.607	-0.470	0.002
-554.427	-120.263	0.296	0.050
-553.412	256.133	-0.083	-0.141
-552.398	-115.994	0.160	-0.029
-551.383	217.954	-0.189	-0.299
-550.369	-147.895	-0.303	-0.025
-549.354	206.079	-0.132	-0.204
-548.339	-33.905	0.300	0.164
-547.325	-94.003	-0.127	-0.035
-546.310	-21.478	0.165	-0.100
-545.296	636.555	0.041	-0.102
-544.281	204.102	-0.117	0.180
-543.266	-101.512	0.166	0.040
-542.252	123.387	-0.052	-0.065
-541.237	-157.892	-0.170	0.010
-540.223	-75.522	-0.252	0.089
-539.208	443.375	0.137	0.298
-538.193	-200.000	-0.037	-0.269
-537.179	89.235	-0.054	0.060
-536.164	259.798	-0.090	-0.154
-535.150	240.104	-0.135	-0.223
-534.135	-200.000	-0.032	-0.198
-533.121	37.843	0.126	-0.111
-532.106	800.000	0.043	-0.171
-531.091	407.831	0.092	-0.193
-530.077	-46.046	0.253	-0.124
-529.062	95.790	0.046	0.052
-528.048	159.598	0.057	0.079
-527.033	-56.152	-0.107	-0.047
-526.018	-31.851	0.170	-0.095
-525.004	690.125	-0.047	0.121
-523.989	-53.111	-0.280	-0.127
-522.975	581.134	-0.018	0.044
-521.960	98.591	0.202	0.230
-520.945	209.618	-0.125	-0.195
-519.931	26.878	0.228	0.190
-518.916	115.655	-0.037	0.045
-517.902	40.948	-0.156	-0.139
-516.887	-102.706	0.433	0.102
-515.872	-200.000	-0.001	-0.246
-514.858	17.707	-0.154	-0.121
-513.843	25.096	0.078	0.064
-512.829	403.768	0.116	-0.242
-511.814	-200.000	-0.051	-0.336
-510.799	-200.000	-0.105	0.482
-509.785	-128.314	-0.439	-0.062
-508.770	-35.668	0.199	-0.107
-507.756	800.000	-0.073	-0.254
-506.741	174.462	-0.156	0.223
-505.726	468.370	-0.137	0.305
-504.712	32.914	-0.178	-0.152
-503.697	800.000	-0.055	-0.203
-502.683	-200.000	-0.053	0.434
-501.668	312.832	0.117	0.217
-500.653	-172.620	-0.104	-0.003
-499.639	-193.494	0.518	-0.004
-498.624	-72.623	0.065	-0.024
-497.610	-59.441	-0.114	0.049
-496.595	-122.772	-0.088	0.014
-495.581	-134.824	0.266	0.032
-494.566	294.369	0.026	-0.047
-493.551	367.296	0.083	-0.166
-492.537	1.944	-0.153	-0.109
-491.522	122.004	0.185	-0.228
-490.508	-112.020	-0.686	0.137
-489.493	327.608	0.102	-0.193
-488.478	254.808	-0.157	0.266
-487.464	87.837	-0.211	-0.231
-486.449	-57.860	-0.200	0.086
-485.435	142.869	0.051	-0.067
-484.420	-27.882	0.385	-0.220
-483.405	-113.998	0.126	0.024
-482.391	-200.000	0.049	0.254
-481.376	-99.761	-0.250	-0.062
-480.362	596.254	0.063	-0.155
-479.347	-37.077	-0.220	-0.117
-478.332	18.394	0.141	-0.111
-477.318	-2.988	0.154	-0.106
-476.303	87.765	-0.022	0.024
-475.289	-56.309	0.163	-0.072
-474.274	384.893	0.066	-0.134
-473.259	-92.300	0.114	-0.032
-472.245	-30.814	-0.059	-0.033
-471.230	31.267	-0.141	-0.119
-470.216	-58.913	-0.178	0.076
-469.201	800.000	-0.024	0.073
-468.186	-130.043	-0.185	0.025
-467.172	-128.195	-0.147	-0.021
-466.157	13.157	0.185	0.141
-465.143	-164.270	0.257	-0.012
-464.128	142.713	-0.326	0.428
-463.113	100.030	0.074	0.085
-462.099	-22.775	-0.286	-0.171
-461.084	-30.048	0.274	0.154
-460.070	-110.420	0.450	0.092
-459.055	-200.000	-0.019	0.132
-458.040	800.000	-0.056	0.157
-457.026	267.408	-0.115	-0.198
-456.011	-116.517	0.082	-0.015
-454.997	-74.125	-0.106	-0.038
-453.982	-130.305	0.190	0.026
-452.968	-134.683	0.310	0.037
-451.953	19.041	0.050	0.040
-450.938	38.032	-0.333	-0.293
-449.924	62.872	0.232	-0.229
-448.909	136.393	0.131	-0.169
-447.895	-200.000	0.015	0.133
-446.880	-17.719	-0.112	-0.069
-445.865	800.000	0.053	-0.204
-444.851	77.300	0.178	-0.187
-443.836	331.297	-0.100	-0.191
-442.822	13.125	0.078	0.060
-441.807	40.794	-0.168	0.149
-440.792	241.419	-0.071	-0.117
-439.778	-200.000	0.007	-0.043
-438.763	97.677	0.099	-0.112
-437.749	-108.467	0.211	-0.045
-436.734	-134.286	-0.277	-0.034
-435.719	154.209	-0.262	-0.354
-434.705	-118.608	0.267	0.047
-433.690	12.876	0.098	0.075
-432.676	-200.000	0.027	-0.160
-431.661	-38.051	-0.122	0.064
-430.646	303.736	-0.266	-0.487
-429.632	39.964	0.153	0.136
-428.617	-200.000	0.093	0.407
-427.603	-88.922	-0.171	0.050
-426.588	98.358	-0.108	0.123
-425.573	680.018	-0.156	0.401
-424.559	154.685	-0.093	-0.126
-423.544	101.265	-0.094	0.108
-422.530	698.044	0.059	-0.154
-421.515	-15.931	-0.198	0.124
-420.500	-70.281	0.161	0.060
-419.486	115.826	-0.140	-0.169
-418.471	90.912	-0.040	-0.044
-417.457	-90.260	-0.136	-0.039
-416.442	800.000	0.114	-0.331
-415.428	-94.404	0.305	0.082
-414.413	27.740	-0.297	0.246
-413.398	442.883	0.092	0.199
-412.384	-63.403	-0.116	0.047
-411.369	197.942	-0.067	-0.101
-410.355	-187.245	-0.301	0.004
-409.340	-200.000	0.009	-0.098
-408.325	-200.000	-0.027	0.253
-407.311	-200.000	-0.037	-0.200
-406.296	800.000	0.087	0.340
-405.282	289.779	-0.086	0.155
-404.267	800.000	0.107	0.420
-403.252	-88.590	-0.078	0.023
-402.238	328.639	0.088	0.167
-401.223	632.900	0.078	0.194
-400.209	39.012	-0.099	-0.087
-399.194	800.000	-0.014	0.057
-398.179	131.736	0.154	-0.196
-397.165	451.978	-0.021	0.047
-396.150	45.926	-0.075	-0.068
-395.136	-18.682	0.279	-0.172
-394.121	-86.361	0.262	-0.079
-393.106	-72.068	0.183	0.067
-392.092	-200.000	0.010	-0.290
-391.077	-200.000	-0.028	0.151
-390.063	73.998	0.047	-0.048
-389.048	-107.932	-0.140	-0.030
-388.033	-86.378	-0.154	-0.047
-387.019	-27.576	0.331	-0.189
-386.004	-22.788	-0.066	0.039
-384.990	-111.210	-0.099	-0.020
-383.975	-151.558	-0.175	-0.013
-382.960	800.000	0.075	0.219
-381.946	-200.000	0.041	0.201
-380.931	543.348	-0.131	0.308
-379.917	800.000	-0.032	0.093
-378.902	22.591	-0.162	-0.131
-377.888	-200.000	-0.009	0.142
-376.873	143.993	-0.170	0.223
-375.858	-78.093	0.127	-0.043
-374.844	168.553	-0.059	0.083
-373.829	86.425	-0.103	-0.112
-372.815	-118.872	0.293	0.051
-371.800	35.232	-0.146	0.126
-370.785	-200.000	0.002	-0.214
-369.771	210.779	0.052	-0.080
-368.756	-104.990	0.267	-0.060
-367.742	44.795	0.116	0.105
-366.727	184.984	-0.021	-0.030
-365.712	154.902	-0.186	-0.252
-364.698	10.467	-0.335	-0.251
-363.683	72.262	0.142	0.145
-362.669	-20.080	-0.070	0.043
-361.654	-116.836	-0.315	0.057
-360.639	-135.523	0.210	-0.025
-359.625	10.380	-0.132	-0.099
-358.610	-128.215	0.382	-0.054
-357.596	-95.658	-0.145	-0.038
-356.581	131.637	-0.117	0.148
-355.566	-200.000	-0.035	-0.408
-354.552	242.862	0.299	0.492
-353.537	-168.284	0.159	-0.006
-352.523	27.913	-0.241	-0.200
-351.508	-99.710	0.150	-0.037
-350.493	53.125	-0.250	-0.235
-349.479	-200.000	0.003	0.170
-348.464	-69.286	0.083	-0.031
-347.450	345.246	0.113	0.219
-346.435	800.000	0.089	-0.257
-345.420	-125.516	0.275	0.041
-344.406	93.641	0.166	0.185
-343.391	-200.000	0.095	-0.447
-342.377	80.214	-0.109	-0.116
-341.362	42.989	-0.031	0.028
-340.348	-130.605	0.376	-0.050
-339.333	74.311	0.070	-0.073
-338.318	35.126	0.148	-0.128
-337.304	336.054	-0.110	-0.209
-336.289	-89.979	-0.254	-0.073
-335.275	800.000	-0.037	-0.111
-334.260	-128.274	0.429	-0.060
-333.245	159.355	0.054	-0.074
-332.231	30.599	-0.155	0.131
-331.216	-128.218	-0.346	0.049
-330.202	74.775	-0.056	0.058
-329.187	-46.789	-0.222	0.107
-328.172	-39.230	0.203	-0.105
-327.158	-170.695	0.215	0.007
-326.143	61.725	0.224	-0.219
-325.129	-1.824	-0.201	-0.139
-324.114	420.163	-0.093	-0.195
-323.099	740.071	-0.027	-0.071
-322.085	-71.038	0.063	-0.023
-321.070	142.946	-0.018	-0.024
-320.056	800.000	0.069	0.256
-319.041	-122.131	0.085	-0.014
-318.026	-200.000	0.023	-0.255
-317.012	-200.000	-0.029	-0.285
-315.997	-30.644	0.122	0.068
-314.983	-53.124	0.074	0.034
-313.968	-200.000	0.006	0.173
-312.953	-91.344	0.167	-0.047
-311.939	-73.356	-0.151	-0.054
-310.924	-93.260	-0.284	0.077
-309.910	367.403	-0.169	-0.335
-308.895	81.983	-0.143	0.152
-307.880	16.792	-0.106	0.082
-306.866	27.060	0.099	0.082
-305.851	800.000	-0.009	-0.026
-304.837	-20.471	-0.168	-0.101
-303.822	-33.093	0.110	-0.060
-302.807	-109.612	-0.405	-0.084
-301.793	-111.883	0.338	0.067
-300.778	-200.000	-0.026	-0.156
-299.764	-43.810	0.093	0.046
-298.749	39.896	-0.217	0.191
-297.735	-24.534	-0.149	-0.087
-296.720	48.243	0.173	-0.159
-295.705	800.000	0.031	-0.110
-294.691	180.903	-0.106	0.153
-293.676	-1.649	-0.096	-0.067
-292.662	206.859	0.072	0.111
-291.647	-163.748	0.171	0.008
-290.632	281.506	0.151	0.266
-289.618	-56.774	0.367	0.159
-288.603	-30.145	-0.438	0.244
-287.589	77.682	0.170	0.178
-286.574	-200.000	-0.036	-0.285
-285.559	800.000	-0.025	-0.101
-284.545	695.671	-0.184	0.475
-283.530	193.495	-0.085	0.127
-282.516	-105.166	0.504	-0.113
-281.501	-10.809	0.102	0.066
-280.486	127.708	-0.030	-0.037
-279.472	196.365	-0.114	-0.170
-278.457	800.000	-0.036	0.101
-277.443	-38.026	-0.334	0.174
-276.428	-108.780	0.209	-0.044
-275.413	433.754	-0.251	0.534
-274.399	90.443	-0.188	0.206
-273.384	69.449	0.097	-0.098
-272.370	-75.505	-0.375	0.131
-271.355	35.979	0.152	-0.131
-270.340	-26.450	0.228	-0.131
-269.326	800.000	-0.077	-0.292
-268.311	277.478	-0.118	-0.206
-267.297	-47.045	-0.509	0.244
-266.282	-200.000	0.007	0.048
-265.267	-200.000	-0.052	0.279
-264.253	-200.000	0.018	-0.139
-263.238	130.304	-0.112	-0.140
-262.224	-88.949	-0.080	-0.023
-261.209	-125.760	-0.302	-0.045
-260.195	800.000	-0.087	-0.283
-259.180	15.393	0.007	0.005
-258.165	-200.000	-0.001	0.157
-257.151	-74.245	0.495	0.175
-256.136	4.932	-0.146	0.105
-255.122	-86.659	0.183	0.055
-254.107	-5.675	-0.247	-0.166
-253.092	-86.616	0.111	0.033
-252.078	-77.093	-0.131	0.045
-251.063	193.665	-0.026	-0.039
-250.049	-108.650	-0.231	-0.049
-249.034	-143.852	0.013	-0.001
-248.019	800.000	0.085	-0.263
-247.005	-84.616	0.304	0.094
-245.990	-29.771	0.288	0.161
-244.976	-180.865	-0.328	-0.007
-243.961	192.023	-0.098	0.144
-242.946	100.004	-0.243	0.275
-241.932	-56.609	-0.301	-0.131
-240.917	-200.000	0.072	0.359
-239.903	800.000	0.071	-0.253
-238.888	46.429	-0.049	-0.045
-237.873	47.379	0.240	0.219
-236.859	167.105	-0.177	0.246
-235.844	800.000	0.025	0.106
-234.830	74.002	-0.118	-0.121
-233.815	460.373	-0.037	-0.081
-232.800	88.563	0.226	-0.246
-231.786	59.683	0.136	-0.132
-230.771	800.000	0.102	-0.307
-229.757	-168.589	-0.196	0.007
-228.742	-27.732	0.199	-0.113
-227.727	-28.389	-0.148	-0.083
-226.713	-139.547	-0.327	-0.034
-225.698	168.848	-0.055	-0.076
-224.684	-146.733	0.184	-0.016
-223.669	71.718	0.190	0.194
-222.655	152.493	-0.107	0.143
-221.640	-75.142	0.106	0.037
-220.625	84.850	0.098	0.105
-219.611	265.312	0.192	0.327
-218.596	-76.879	0.242	0.083
-217.582	800.000	0.109	0.352
-216.567	-200.000	-0.172	0.000
-215.552	800.000	-0.077	0.209
-214.538	800.000	0.097	0.283
-213.523	184.842	0.127	0.184
-212.509	-25.854	-0.071	0.041
-211.494	554.835	0.110	0.259
-210.479	-0.019	0.051	-0.036
-209.465	-118.335	-0.119	-0.021
-208.450	508.840	-0.056	-0.127
-207.436	-200.000	0.043	-0.215
-206.421	-200.000	-0.065	0.320
-205.406	352.788	-0.071	0.138
-204.392	-38.412	0.196	-0.101
-203.377	800.000	0.059	0.227
-202.363	119.237	0.184	0.222
-201.348	-102.029	0.481	0.113
-200.333	-67.178	-0.144	0.056
-199.319	7.880	0.194	0.142
-198.304	68.579	-0.197	-0.198
-197.290	-200.000	0.029	0.202
-196.275	-40.820	-0.173	0.088
-195.260	-200.000	-0.038	0.325
-194.246	-164.715	0.276	0.012
-193.231	-143.272	-0.267	0.025
-192.217	-10.006	-0.058	0.038
-191.202	73.572	0.053	-0.055
-190.187	6.032	-0.095	-0.069
-189.173	-12.541	0.079	0.050
-188.158	42.343	0.088	0.078
-187.144	-200.000	0.060	0.296
-186.129	2.689	-0.215	0.152
-185.114	30.466	-0.144	0.121
-184.100	-84.668	0.335	0.103
-183.085	109.593	0.064	-0.075
-182.071	-120.623	0.195	0.032
-181.056	-89.698	0.097	0.028
-180.042	-35.531	-0.121	-0.064
-179.027	-69.824	0.221	-0.083
-178.012	395.460	0.013	-0.027
-176.998	-118.095	-0.304	-0.053
-175.983	716.321	-0.043	0.111
-174.969	433.904	-0.014	-0.030
-173.954	-90.038	0.213	-0.061
-172.939	125.510	-0.063	0.077
-171.925	-169.992	0.267	-0.009
-170.910	-200.000	0.002	-0.150
-169.896	-200.000	0.010	0.111
-168.881	-94.374	-0.165	-0.044
-167.866	195.243	0.131	0.195
-166.852	-162.092	0.221	0.011
-165.837	38.900	-0.108	-0.095
-164.823	333.536	0.076	0.144
-163.808	257.184	-0.142	-0.238
-162.793	171.447	0.096	0.135
-161.779	-200.000	0.003	0.354
-160.764	-8.071	-0.174	0.115
-159.750	226.212	0.176	-0.278
-158.735	800.000	0.045	0.159
-157.720	800.000	0.043	0.123
-156.706	-115.566	0.323	0.059
-155.691	-200.000	-0.009	0.058
-154.677	-51.364	-0.069	0.031
-153.662	-184.519	0.130	-0.002
-152.647	-80.045	-0.051	0.017
-151.633	-200.000	0.004	-0.141
-150.618	-200.000	0.011	-0.098
-149.604	114.349	0.088	0.104
-148.589	92.230	0.146	-0.160
-147.574	519.159	-0.069	-0.158
-146.560	92.376	0.196	0.215
-145.545	-138.227	0.082	-0.009
-144.531	-172.830	-0.136	-0.004
-143.516	-53.731	-0.136	0.060
-142.502	-200.000	0.012	0.103
-141.487	-200.000	0.004	0.210
-140.472	-129.462	-0.238	-0.032
-139.458	-200.000	0.012	-0.426
-138.443	-200.000	0.000	0.053
-137.429	145.244	0.145	-0.189
-136.414	84.475	-0.206	-0.220
-135.399	-28.905	0.045	0.025
-134.385	161.930	0.139	-0.190
-133.370	-89.164	0.333	0.096
-132.356	238.407	-0.021	-0.034
-131.341	-200.000	0.017	-0.359
-130.326	-200.000	-0.051	-0.238
-129.312	-52.273	-0.248	0.112
-128.297	116.232	0.036	-0.043
-127.283	-200.000	-0.049	0.315
-126.268	164.786	-0.069	0.095
-125.253	800.000	-0.131	-0.365
-124.239	-53.893	-0.117	-0.052
-123.224	-200.000	-0.013	-0.151
-122.210	-200.000	-0.003	0.111
-121.195	3.337	0.404	0.287
