DTS Sentinel unit serial number:	SN413079Multiplexer serial number:	ORYXHardware model number:	OX4-SRSoftware version number:	ORYX F/W v4.00 Oryx Data Collector v3.7.2.0data status	okinstallation	princeton_trtdifferential loss correction	single-endedforward channel	channel 2reverse channel	N/Adate	2019/09/13time	22:03:34forward acquisition time	60.00reverse acquisition time	0.00gamma	496.2192k internal	0.2335k external	0.2335temperature offset calibration	1.0134default loss term (dB/km)	0.3790temperature slope calibration	1.0000multiplexer offset coefficient	1.0000multiplexer slope coefficient	1.0000fibre end	0.00T internal ref (°C)	28.00T ext. ref 1 (°C)	3.25T ext. ref 2 (°C)	22.71length (m)	temperature (°C)	Stokes	anti-Stokes-747.200	-200.000	0.010	-0.185
-746.185	-200.000	-0.010	0.108
-745.171	-16.491	-0.190	0.121
-744.156	10.259	0.172	-0.132
-743.142	-200.000	-0.020	-0.174
-742.127	-148.820	-0.060	-0.005
-741.112	347.559	-0.141	0.278
-740.098	7.597	-0.400	0.301
-739.083	267.626	-0.082	0.144
-738.069	800.000	-0.082	-0.280
-737.054	333.067	-0.140	-0.271
-736.039	-30.500	-0.380	-0.216
-735.025	601.531	-0.124	0.310
-734.010	58.658	0.201	-0.199
-732.996	-104.800	-0.535	0.124
-731.981	300.205	-0.191	0.354
-730.966	-97.819	0.041	0.011
-729.952	112.187	-0.138	-0.168
-728.937	-200.000	-0.036	-0.262
-727.923	-148.864	0.356	-0.029
-726.908	44.978	0.171	-0.158
-725.894	-200.000	0.025	0.386
-724.879	445.436	0.047	-0.105
-723.864	153.482	0.225	-0.310
-722.850	41.711	0.353	-0.321
-721.835	-166.437	-0.237	-0.010
-720.821	-66.069	0.327	-0.131
-719.806	800.000	-0.066	0.241
-718.791	800.000	0.065	0.186
-717.777	77.926	-0.186	-0.199
-716.762	450.969	-0.145	-0.322
-715.748	-133.824	0.065	-0.008
-714.733	15.045	-0.258	0.203
-713.718	-200.000	0.239	0.000
-712.704	-107.415	-0.224	-0.049
-711.689	333.088	0.145	-0.281
-710.675	344.855	0.104	-0.206
-709.660	169.972	0.048	0.069
-708.645	-200.000	0.017	0.136
-707.631	-108.878	0.119	0.025
-706.616	-26.992	0.036	-0.021
-705.602	-18.098	0.172	0.108
-704.587	68.518	-0.152	-0.157
-703.572	-63.334	-0.173	0.071
-702.558	571.846	0.056	0.137
-701.543	-9.445	-0.097	-0.065
-700.529	800.000	-0.083	0.239
-699.514	-43.584	0.302	-0.153
-698.499	46.029	-0.237	-0.220
-697.485	2.991	-0.261	-0.190
-696.470	800.000	0.039	0.116
-695.456	-123.126	-0.083	-0.013
-694.441	800.000	-0.055	-0.162
-693.426	425.591	0.093	0.202
-692.412	-105.734	-0.090	-0.021
-691.397	-74.261	-0.175	-0.063
-690.383	235.692	0.083	-0.137
-689.368	800.000	-0.065	-0.267
-688.354	232.268	0.288	-0.474
-687.339	-130.405	0.098	-0.013
-686.324	471.754	0.164	0.371
-685.310	-28.660	0.136	-0.079
-684.295	-105.581	0.246	0.056
-683.281	-200.000	-0.052	0.289
-682.266	-14.303	-0.224	0.144
-681.251	28.470	0.204	0.173
-680.237	178.479	0.140	0.204
-679.222	-165.380	0.057	0.002
-678.208	800.000	-0.049	0.148
-677.193	-200.000	-0.013	-0.072
-676.178	19.119	-0.238	-0.191
-675.164	-45.764	-0.203	-0.101
-674.149	-59.251	-0.062	-0.027
-673.135	39.836	-0.161	-0.145
-672.120	310.213	0.063	0.118
-671.105	-7.990	0.030	0.020
-670.091	800.000	0.064	-0.192
-669.076	-200.000	-0.012	0.114
-668.062	-200.000	-0.043	0.216
-667.047	-197.310	-0.238	-0.002
-666.032	-93.232	-0.206	0.057
-665.018	-21.139	-0.279	0.171
-664.003	800.000	0.086	-0.270
-662.989	33.774	0.107	-0.093
-661.974	83.251	-0.115	-0.126
-660.959	-104.658	0.220	-0.051
-659.945	-200.000	-0.056	-0.462
-658.930	67.143	-0.367	-0.375
-657.916	11.413	0.091	-0.070
-656.901	-200.000	-0.014	-0.114
-655.886	-90.187	-0.188	0.055
-654.872	-48.165	-0.267	0.129
-653.857	175.570	-0.169	-0.245
-652.843	-84.799	0.213	-0.067
-651.828	-56.057	-0.190	-0.085
-650.814	800.000	-0.065	0.237
-649.799	13.474	-0.161	-0.125
-648.784	-200.000	0.012	0.078
-647.770	-200.000	-0.034	-0.294
-646.755	-16.719	0.129	-0.082
-645.741	32.110	-0.225	-0.194
-644.726	1.001	0.093	0.067
-643.711	17.582	0.155	0.123
-642.697	-200.000	0.016	0.209
-641.682	-68.767	-0.314	-0.121
-640.668	-25.324	-0.155	-0.092
-639.653	-26.715	0.216	0.126
-638.638	41.850	-0.107	0.097
-637.624	290.164	0.022	0.039
-636.609	800.000	-0.091	-0.296
-635.595	76.875	-0.090	-0.095
-634.580	-32.446	-0.157	-0.088
-633.565	354.690	0.090	0.178
-632.551	461.988	-0.064	0.143
-631.536	-128.315	0.197	0.028
-630.522	-128.837	-0.196	0.028
-629.507	-161.266	-0.086	-0.004
-628.492	-200.000	-0.002	-0.143
-627.478	-200.000	0.032	-0.224
-626.463	258.584	0.093	-0.161
-625.449	-99.329	0.189	0.048
-624.434	-119.999	-0.222	-0.038
-623.419	-200.000	0.016	-0.198
-622.405	-200.000	-0.019	0.170
-621.390	-82.464	0.544	0.177
-620.376	-142.508	-0.188	-0.018
-619.361	-200.000	0.025	-0.481
-618.346	178.352	0.185	-0.270
-617.332	-112.564	0.292	0.058
-616.317	800.000	0.049	0.193
-615.303	-200.000	-0.023	-0.132
-614.288	-62.440	0.065	-0.027
-613.273	340.081	0.092	0.179
-612.259	-200.000	-0.036	-0.274
-611.244	-33.443	-0.327	-0.181
-610.230	-200.000	-0.018	0.264
-609.215	-200.000	0.028	-0.140
-608.201	579.092	-0.059	-0.145
-607.186	113.543	0.244	0.296
-606.171	-200.000	0.011	0.238
-605.157	107.948	-0.362	-0.431
-604.142	244.425	-0.163	0.273
-603.128	-73.794	0.088	-0.032
-602.113	426.191	-0.057	-0.123
-601.098	-168.036	-0.022	0.001
-600.084	94.074	0.235	0.266
-599.069	-200.000	-0.008	-0.216
-598.055	103.799	-0.093	0.110
-597.040	-141.458	0.061	-0.006
-596.025	-200.000	0.016	0.173
-595.011	244.298	-0.065	0.109
-593.996	-123.530	0.215	0.034
-592.982	-125.420	-0.123	-0.019
-591.967	-200.000	-0.002	-0.392
-590.952	-200.000	-0.046	0.232
-589.938	800.000	-0.049	0.140
-588.923	111.840	-0.150	-0.181
-587.909	-51.095	0.237	-0.111
-586.894	599.654	0.064	-0.157
-585.879	-46.198	-0.196	0.097
-584.865	143.542	0.055	0.074
-583.850	-92.229	0.214	0.060
-582.836	85.740	0.134	0.147
-581.821	-21.897	-0.067	0.041
-580.806	-115.749	-0.033	-0.006
-579.792	704.715	0.099	0.260
-578.777	51.464	0.083	-0.079
-577.763	800.000	0.006	0.021
-576.748	-200.000	-0.011	-0.306
-575.733	-139.956	0.137	-0.014
-574.719	-77.300	-0.334	-0.116
-573.704	42.928	-0.183	-0.167
-572.690	-200.000	0.041	-0.311
-571.675	-10.238	-0.129	0.086
-570.661	-200.000	0.009	0.228
-569.646	800.000	-0.018	-0.052
-568.631	770.282	-0.036	0.098
-567.617	-24.787	0.084	-0.050
-566.602	346.321	-0.104	-0.204
-565.588	176.305	0.243	-0.352
-564.573	-14.251	-0.150	0.096
-563.558	-139.768	-0.246	0.026
-562.544	665.292	-0.173	-0.445
-561.529	188.325	0.257	-0.383
-560.515	301.703	-0.079	-0.146
-559.500	275.769	-0.068	0.120
-558.485	-200.000	-0.000	0.043
-557.471	-169.297	0.415	0.015
-556.456	-200.000	0.006	-0.089
-555.442	35.069	-0.106	0.093
-554.427	33.504	-0.227	-0.197
-553.412	78.948	-0.173	-0.184
-552.398	-82.451	-0.280	0.091
-551.383	16.720	0.283	-0.224
-550.369	-100.541	0.206	-0.051
-549.354	11.764	0.158	-0.121
-548.339	180.044	0.235	0.343
-547.325	-146.078	0.088	-0.008
-546.310	2.953	-0.082	-0.059
-545.296	140.718	-0.070	0.093
-544.281	669.838	-0.172	0.444
-543.266	102.139	0.159	-0.186
-542.252	777.505	0.105	-0.287
-541.237	123.253	0.060	-0.076
-540.223	800.000	0.107	0.325
-539.208	12.358	-0.165	-0.126
-538.193	-181.531	-0.189	0.004
-537.179	800.000	-0.065	0.183
-536.164	511.428	0.097	-0.224
-535.150	436.149	-0.050	-0.109
-534.135	-200.000	0.023	-0.235
-533.121	45.082	0.204	-0.187
-532.106	142.541	-0.135	-0.179
-531.091	800.000	0.045	-0.175
-530.077	179.928	0.101	0.148
-529.062	-12.059	-0.124	0.081
-528.048	-110.088	0.270	0.056
-527.033	-48.859	0.273	0.130
-526.018	800.000	-0.098	0.310
-525.004	8.674	-0.103	0.077
-523.989	-200.000	-0.002	0.369
-522.975	169.677	-0.109	-0.155
-521.960	-50.163	0.135	0.064
-520.945	224.073	-0.084	0.135
-519.931	391.309	-0.127	0.262
-518.916	-200.000	-0.047	-0.446
-517.902	34.130	-0.116	0.101
-516.887	158.225	-0.002	-0.003
-515.872	-200.000	-0.014	0.247
-514.858	111.758	-0.055	0.066
-513.843	800.000	-0.113	-0.419
-512.829	155.051	-0.096	-0.131
-511.814	-200.000	-0.007	0.042
-510.799	275.678	-0.089	0.158
-509.785	-200.000	-0.059	0.285
-508.770	226.434	-0.096	-0.154
-507.756	18.914	0.430	-0.343
-506.741	-51.527	-0.154	-0.072
-505.726	-45.903	0.168	-0.082
-504.712	22.540	-0.175	0.142
-503.697	70.268	-0.218	-0.224
-502.683	-83.914	0.270	-0.085
-501.668	-94.840	0.131	-0.035
-500.653	-100.795	0.090	-0.022
-499.639	-85.819	-0.270	-0.083
-498.624	-200.000	0.290	-0.001
-497.610	-79.078	-0.392	-0.133
-496.595	-82.297	-0.187	0.060
-495.581	79.505	-0.259	0.276
-494.566	136.612	-0.149	-0.194
-493.551	-200.000	0.060	-0.333
-492.537	-48.316	-0.181	0.087
-491.522	590.123	-0.016	-0.040
-490.508	485.610	-0.040	0.090
-489.493	-126.623	0.512	0.075
-488.478	262.489	0.092	0.159
-487.464	800.000	-0.089	-0.330
-486.449	-200.000	-0.039	0.241
-485.435	-142.910	0.295	0.028
-484.420	800.000	-0.075	-0.223
-483.405	483.173	0.112	-0.253
-482.391	51.088	-0.051	0.048
-481.376	104.772	0.040	-0.046
-480.362	212.264	0.112	0.175
-479.347	-109.863	-0.153	-0.032
-478.332	-124.998	0.326	-0.050
-477.318	608.472	-0.102	-0.253
-476.303	-15.526	0.136	-0.086
-475.289	119.215	-0.196	-0.241
-474.274	-200.000	0.015	0.170
-473.259	-200.000	-0.051	-0.225
-472.245	-79.857	0.148	0.049
-471.230	-99.738	-0.318	0.079
-470.216	21.580	-0.083	0.067
-469.201	324.134	0.088	0.167
-468.186	224.784	-0.046	0.074
-467.172	800.000	-0.092	0.326
-466.157	62.214	-0.112	-0.111
-465.143	489.583	0.070	-0.159
-464.128	-4.468	0.238	-0.163
-463.113	-137.072	-0.045	0.005
-462.099	159.155	-0.029	0.039
-461.084	70.851	0.077	-0.079
-460.070	1.248	0.070	0.050
-459.055	252.973	0.094	-0.159
-458.040	-200.000	-0.045	-0.239
-457.026	296.417	0.089	-0.162
-456.011	-5.387	-0.204	-0.139
-454.997	100.390	0.128	-0.147
-453.982	-29.184	0.099	0.057
-452.968	-159.271	0.268	0.015
-451.953	-36.424	-0.176	0.094
-450.938	23.673	-0.406	0.332
-449.924	-200.000	-0.039	0.194
-448.909	-82.022	0.334	0.109
-447.895	345.051	0.101	-0.198
-446.880	-49.184	-0.526	0.250
-445.865	30.077	-0.052	-0.044
-444.851	54.678	-0.072	-0.069
-443.836	-200.000	0.008	-0.137
-442.822	-76.919	0.198	0.069
-441.807	66.651	-0.197	0.199
-440.792	-176.816	0.249	-0.006
-439.778	492.590	0.081	0.184
-438.763	-200.000	0.024	-0.213
-437.749	18.053	-0.258	-0.205
-436.734	10.885	0.129	-0.098
-435.719	-80.447	0.308	0.102
-434.705	94.848	0.159	0.179
-433.690	-136.026	-0.193	-0.023
-432.676	-150.426	0.192	0.015
-431.661	-200.000	-0.033	0.435
-430.646	-200.000	0.009	-0.176
-429.632	800.000	-0.048	0.164
-428.617	800.000	-0.102	0.305
-427.603	-42.470	0.337	0.171
-426.588	-87.368	0.399	0.120
-425.573	549.960	-0.109	-0.259
-424.559	258.710	-0.092	0.157
-423.544	-151.615	0.320	-0.023
-422.530	-200.000	0.056	0.277
-421.515	13.387	0.084	-0.065
-420.500	-173.120	0.274	-0.008
-419.486	-94.583	0.297	0.080
-418.471	800.000	0.047	0.158
-417.457	325.704	0.155	0.293
-416.442	800.000	0.049	-0.174
-415.428	364.041	-0.194	-0.386
-414.413	-113.498	-0.355	-0.069
-413.398	761.648	-0.046	0.124
-412.384	123.797	0.151	0.188
-411.369	502.499	0.102	0.235
-410.355	115.890	-0.098	0.119
-409.340	-200.000	-0.007	-0.177
-408.325	-20.817	0.043	-0.026
-407.311	-175.286	0.104	-0.003
-406.296	-200.000	0.010	0.229
-405.282	-200.000	0.015	-0.155
-404.267	49.396	-0.204	-0.190
-403.252	21.358	-0.139	0.112
-402.238	-12.275	-0.214	0.139
-401.223	-27.626	-0.042	-0.024
-400.209	-103.181	-0.095	0.022
-399.194	-30.120	-0.481	-0.271
-398.179	800.000	0.093	0.287
-397.165	-189.539	0.092	-0.001
-396.150	-123.560	0.187	-0.029
-395.136	-64.057	-0.183	-0.074
-394.121	-162.878	0.168	0.008
-393.106	158.637	-0.174	0.240
-392.092	275.360	0.174	0.306
-391.077	-111.144	0.066	0.013
-390.063	-4.268	0.295	-0.202
-389.048	-90.680	-0.328	0.094
-388.033	-137.995	0.417	-0.046
-387.019	85.038	0.200	0.217
-386.004	348.434	0.233	-0.455
-384.990	310.147	-0.167	0.309
-383.975	-200.000	-0.035	0.173
-382.960	28.612	0.179	0.150
-381.946	90.640	-0.198	-0.220
-380.931	350.031	-0.119	0.233
-379.917	-200.000	-0.051	0.266
-378.902	-200.000	0.046	-0.265
-377.888	-54.790	0.026	-0.012
-376.873	26.413	-0.296	0.245
-375.858	170.951	-0.133	-0.188
-374.844	394.359	-0.052	0.106
-373.829	410.018	-0.112	-0.236
-372.815	-12.445	-0.148	-0.096
-371.800	-200.000	-0.007	0.290
-370.785	471.801	0.103	-0.230
-369.771	6.053	0.215	0.158
-368.756	-3.628	0.125	0.086
-367.742	35.707	-0.225	0.196
-366.727	-200.000	0.056	-0.387
-365.712	800.000	-0.039	0.130
-364.698	-200.000	-0.035	-0.158
-363.683	-200.000	-0.033	0.319
-362.669	12.144	0.291	0.221
-361.654	-200.000	0.035	-0.164
-360.639	-124.740	-0.320	0.049
-359.625	-63.300	0.050	-0.021
-358.610	-5.330	0.209	-0.142
-357.596	371.302	-0.089	-0.179
-356.581	-200.000	-0.052	-0.310
-355.566	-78.210	0.138	0.047
-354.552	95.395	-0.056	-0.064
-353.537	-57.927	-0.113	0.049
-352.523	141.113	0.024	0.031
-351.508	-88.873	-0.069	-0.020
-350.493	571.310	-0.122	-0.294
-349.479	583.698	0.120	-0.293
-348.464	-200.000	0.080	0.405
-347.450	140.438	-0.232	0.303
-346.435	800.000	0.053	-0.207
-345.420	144.742	-0.074	0.097
-344.406	-44.626	-0.277	0.137
-343.391	233.513	-0.024	-0.039
-342.377	-200.000	-0.075	-0.361
-341.362	224.690	0.099	-0.158
-340.348	-108.507	0.097	0.021
-339.333	-200.000	0.007	-0.299
-338.318	547.424	0.074	-0.175
-337.304	138.730	-0.095	-0.123
-336.289	348.041	-0.078	-0.152
-335.275	-200.000	0.014	0.069
-334.260	731.915	0.076	0.201
-333.245	-80.430	0.164	0.054
-332.231	73.940	0.133	0.138
-331.216	800.000	0.028	0.103
-330.202	109.497	0.254	-0.301
-329.187	-200.000	-0.069	-0.321
-328.172	407.917	0.100	-0.209
-327.158	-105.272	-0.203	0.046
-326.143	-115.739	-0.297	-0.055
-325.129	233.934	0.132	-0.214
-324.114	-200.000	0.038	0.372
-323.099	601.160	-0.085	0.208
-322.085	153.102	0.045	-0.061
-321.070	-62.549	0.160	0.066
-320.056	-154.229	0.342	0.023
-319.041	800.000	0.079	0.276
-318.026	258.213	0.080	0.136
-317.012	800.000	-0.006	0.022
-315.997	503.590	0.055	0.127
-314.983	-118.935	0.212	-0.037
-313.968	-48.232	-0.161	0.077
-312.953	26.771	0.082	0.068
-311.939	-155.461	0.055	0.004
-310.924	-200.000	0.033	0.150
-309.910	-200.000	-0.021	-0.208
-308.895	402.621	0.145	0.301
-307.880	-200.000	-0.014	0.225
-306.866	143.657	0.089	-0.117
-305.851	-26.401	0.123	-0.071
-304.837	683.851	0.058	-0.150
-303.822	-72.272	0.276	-0.101
-302.807	175.129	-0.096	0.137
-301.793	800.000	0.059	0.225
-300.778	120.902	-0.282	-0.347
-299.764	800.000	-0.087	-0.240
-298.749	-26.637	0.290	0.168
-297.735	800.000	0.081	-0.319
-296.720	-21.708	-0.319	-0.192
-295.705	-200.000	0.027	0.287
-294.691	422.468	0.117	0.247
-293.676	-200.000	-0.011	0.098
-292.662	430.643	0.095	0.204
-291.647	-113.629	-0.163	-0.031
-290.632	206.724	-0.032	0.049
-289.618	800.000	-0.044	0.161
-288.603	-200.000	0.012	0.121
-287.589	-200.000	-0.022	0.125
-286.574	800.000	0.037	-0.144
-285.559	557.456	0.088	-0.210
-284.545	42.427	0.020	-0.018
-283.530	-200.000	-0.013	-0.283
-282.516	246.135	-0.144	-0.239
-281.501	140.509	0.194	-0.253
-280.486	6.017	0.192	-0.140
-279.472	-200.000	-0.006	0.033
-278.457	-173.497	0.056	-0.002
-277.443	118.326	-0.102	-0.124
-276.428	-200.000	-0.066	-0.386
-275.413	740.025	-0.060	-0.160
-274.399	120.976	-0.220	-0.269
-273.384	-200.000	0.002	0.103
-272.370	800.000	-0.108	-0.330
-271.355	-5.876	-0.145	0.098
-270.340	-37.051	-0.091	0.048
-269.326	359.320	-0.164	0.324
-268.311	-200.000	0.025	0.337
-267.297	-200.000	0.064	-0.324
-266.282	23.258	-0.148	-0.120
-265.267	-61.770	0.171	-0.071
-264.253	42.583	0.113	-0.101
-263.238	-188.349	-0.261	0.003
-262.224	609.495	0.059	-0.144
-261.209	-74.936	0.470	-0.166
-260.195	508.500	-0.121	-0.276
-259.180	-40.229	-0.039	-0.020
-258.165	-65.382	0.319	0.126
-257.151	-101.544	-0.183	0.044
-256.136	-57.569	-0.163	-0.071
-255.122	800.000	-0.139	0.425
-254.107	297.706	0.092	0.166
-253.092	-49.689	0.209	0.098
-252.078	214.945	0.106	0.166
-251.063	-200.000	-0.013	-0.092
-250.049	51.045	0.124	-0.116
-249.034	-101.595	0.196	-0.047
-248.019	31.753	-0.046	0.039
-247.005	-86.275	-0.261	0.079
-245.990	0.099	0.225	-0.158
-244.976	-168.271	0.351	-0.013
-243.961	-200.000	-0.015	0.125
-242.946	800.000	0.012	-0.039
-241.932	800.000	-0.044	0.121
-240.917	-74.999	0.352	0.124
-239.903	-200.000	0.007	0.107
-238.888	29.107	0.223	-0.186
-237.873	-53.530	-0.301	0.136
-236.859	800.000	0.075	0.214
-235.844	8.749	-0.311	0.231
-234.830	-200.000	-0.016	0.193
-233.815	171.886	0.307	-0.434
-232.800	47.212	-0.058	-0.053
-231.786	-200.000	-0.050	0.230
-230.771	-200.000	-0.017	-0.228
-229.757	-75.291	0.106	-0.037
-228.742	372.537	-0.063	-0.126
-227.727	-127.280	-0.419	0.060
-226.713	-0.719	-0.130	0.091
-225.698	-53.128	-0.125	-0.056
-224.684	133.319	0.102	0.130
-223.669	-190.227	0.277	-0.003
-222.655	-4.490	-0.202	0.137
-221.640	-200.000	-0.058	0.304
-220.625	21.220	-0.150	0.120
-219.611	14.811	0.088	0.068
-218.596	800.000	-0.090	0.248
-217.582	-90.159	0.128	0.037
-216.567	-115.190	0.257	-0.048
-215.552	800.000	-0.064	0.176
-214.538	-200.000	0.016	0.183
-213.523	800.000	-0.020	0.073
-212.509	-200.000	0.002	0.198
-211.494	-200.000	-0.013	0.194
-210.479	50.143	0.195	-0.182
-209.465	81.678	-0.058	-0.062
-208.450	50.499	-0.035	0.033
-207.436	-40.308	-0.169	0.086
-206.421	304.884	-0.183	0.334
-205.406	53.650	-0.434	0.410
-204.392	74.869	0.096	0.100
-203.377	22.933	-0.213	0.172
-202.363	-16.257	-0.157	0.098
-201.348	800.000	0.141	-0.505
-200.333	-135.479	-0.377	0.044
-199.319	800.000	-0.105	0.376
-198.304	-200.000	-0.008	-0.203
-197.290	66.663	-0.269	0.269
-196.275	-200.000	0.007	0.379
-195.260	-166.614	0.360	-0.015
-194.246	631.375	-0.069	-0.172
-193.231	-200.000	-0.002	0.045
-192.217	149.992	0.035	0.047
-191.202	28.199	-0.166	-0.138
-190.187	-52.487	-0.067	-0.031
-189.173	-55.416	-0.277	-0.122
-188.158	-28.292	0.363	-0.206
-187.144	42.838	-0.131	0.117
-186.129	146.615	-0.111	0.146
-185.114	-27.101	0.140	0.080
-184.100	-73.858	-0.521	0.186
-183.085	-182.217	-0.285	-0.005
-182.071	-200.000	-0.020	-0.191
-181.056	-100.896	-0.175	0.042
-180.042	-200.000	-0.002	-0.242
-179.027	-200.000	-0.011	-0.147
-178.012	125.932	-0.049	0.060
-176.998	-84.514	0.348	0.108
-175.983	800.000	-0.105	0.434
-174.969	800.000	-0.055	0.224
-173.954	-102.228	-0.120	-0.028
-172.939	267.541	0.230	0.396
-171.925	64.123	0.136	-0.135
-170.910	382.051	-0.026	0.052
-169.896	-200.000	0.010	0.152
-168.881	301.862	-0.227	-0.412
-167.866	-49.267	0.329	0.155
-166.852	384.570	0.118	0.239
-165.837	15.219	0.267	-0.205
-164.823	-10.968	0.165	-0.107
-163.808	177.828	0.172	-0.246
-162.793	387.901	-0.102	-0.208
-161.779	-139.679	-0.352	0.037
-160.764	-200.000	0.026	0.137
-159.750	131.874	0.050	-0.063
-158.735	258.479	0.181	0.307
-157.720	-34.079	-0.231	0.125
-156.706	800.000	0.091	0.368
-155.691	104.370	0.060	-0.069
-154.677	800.000	-0.028	-0.111
-153.662	120.776	-0.263	-0.320
-152.647	644.355	-0.073	-0.184
-151.633	36.668	-0.133	0.116
-150.618	558.792	-0.131	0.310
-149.604	-200.000	-0.038	0.348
-148.589	393.750	-0.075	0.154
-147.574	-12.967	0.204	0.130
-146.560	71.649	-0.112	0.114
-145.545	-111.250	0.188	-0.038
-144.531	800.000	-0.016	0.055
-143.516	-85.419	-0.129	0.040
-142.502	-68.988	-0.250	0.094
-141.487	27.379	-0.199	-0.164
-140.472	-69.084	-0.111	0.042
-139.458	800.000	0.090	-0.293
-138.443	800.000	-0.074	-0.212
-137.429	-189.493	0.210	-0.002
-136.414	-94.989	0.214	0.057
-135.399	-56.607	0.095	-0.041
-134.385	-79.485	0.114	0.038
-133.370	26.592	0.062	0.051
-132.356	-78.039	0.140	0.047
-131.341	-200.000	0.016	-0.072
-130.326	-200.000	-0.003	-0.215
-129.312	-125.576	-0.345	-0.051
-128.297	327.368	0.172	-0.324
-127.283	143.134	0.244	0.318
-126.268	-200.000	0.066	0.394
-125.253	17.333	-0.017	0.013
-124.239	-49.104	-0.239	0.112
-123.224	132.598	-0.079	-0.100
-122.210	-200.000	0.016	-0.142
