DTS Sentinel unit serial number:	SN413079Multiplexer serial number:	ORYXHardware model number:	OX4-SRSoftware version number:	ORYX F/W v4.00 Oryx Data Collector v3.7.2.0data status	okinstallation	princeton_trtdifferential loss correction	single-endedforward channel	channel 2reverse channel	N/Adate	2019/09/16time	11:43:35forward acquisition time	60.00reverse acquisition time	0.00gamma	496.2192k internal	0.2308k external	0.2308temperature offset calibration	0.9957default loss term (dB/km)	0.3790temperature slope calibration	1.0000multiplexer offset coefficient	1.0000multiplexer slope coefficient	1.0000fibre end	0.00T internal ref (°C)	38.08T ext. ref 1 (°C)	13.04T ext. ref 2 (°C)	35.26length (m)	temperature (°C)	Stokes	anti-Stokes-747.200	-8.274	0.278	0.190
-746.185	77.596	-0.052	-0.057
-745.171	754.049	-0.099	0.273
-744.156	-50.740	-0.259	-0.124
-743.142	-12.446	0.439	-0.291
-742.127	-178.586	-0.390	0.009
-741.112	39.982	0.087	-0.079
-740.098	120.114	-0.195	-0.245
-739.083	8.780	0.175	0.134
-738.069	800.000	-0.072	0.277
-737.054	-5.599	-0.261	-0.182
-736.039	214.635	0.084	0.136
-735.025	-49.143	0.400	0.194
-734.010	220.062	-0.077	0.125
-732.996	-53.416	0.046	0.021
-731.981	175.805	0.030	0.044
-730.966	112.810	-0.061	0.075
-729.952	-51.780	-0.481	-0.228
-728.937	162.968	0.110	0.157
-727.923	-16.189	0.099	-0.064
-726.908	76.591	-0.220	0.237
-725.894	-200.000	-0.033	0.444
-724.879	167.355	-0.216	0.311
-723.864	-18.665	-0.102	0.065
-722.850	-59.038	0.120	0.052
-721.835	-200.000	-0.040	-0.208
-720.821	-158.830	-0.054	0.003
-719.806	125.441	-0.141	-0.180
-718.791	6.339	-0.388	-0.292
-717.777	-30.759	-0.109	0.063
-716.762	-200.000	0.028	0.137
-715.748	302.571	0.105	0.197
-714.733	-108.984	0.238	0.052
-713.718	-200.000	-0.042	-0.189
-712.704	-200.000	0.004	-0.252
-711.689	-43.411	-0.197	-0.101
-710.675	-98.465	0.253	0.066
-709.660	-170.557	-0.170	-0.006
-708.645	-200.000	-0.021	0.169
-707.631	-97.550	0.168	-0.044
-706.616	-4.830	-0.090	0.063
-705.602	-26.594	-0.187	-0.111
-704.587	366.685	-0.133	-0.272
-703.572	-29.824	0.044	0.025
-702.558	-200.000	0.027	0.135
-701.543	-76.303	-0.072	-0.026
-700.529	30.207	-0.277	0.240
-699.514	-100.455	0.100	-0.025
-698.499	395.992	-0.011	0.024
-697.485	76.453	-0.482	-0.518
-696.470	-17.170	-0.205	0.131
-695.456	-58.589	0.309	-0.136
-694.441	-122.136	0.149	0.025
-693.426	-150.754	0.386	-0.030
-692.412	-94.937	-0.136	0.037
-691.397	-200.000	0.015	0.104
-690.383	-110.208	-0.184	0.039
-689.368	-200.000	-0.005	-0.064
-688.354	-34.823	0.126	0.070
-687.339	-200.000	0.063	-0.427
-686.324	268.479	-0.076	0.135
-685.310	-81.968	-0.378	-0.125
-684.295	656.118	-0.071	-0.186
-683.281	1.679	-0.059	0.043
-682.266	370.765	-0.049	-0.101
-681.251	240.086	-0.115	-0.195
-680.237	-122.350	-0.288	0.048
-679.222	-200.000	0.018	0.157
-678.208	-185.890	0.323	-0.005
-677.193	-71.786	0.291	0.110
-676.178	-200.000	0.031	0.214
-675.164	96.974	0.011	-0.013
-674.149	450.909	-0.126	0.283
-673.135	-200.000	0.054	0.361
-672.120	109.571	-0.125	0.152
-671.105	-200.000	0.010	-0.149
-670.091	149.860	0.298	-0.410
-669.076	-129.073	-0.166	-0.024
-668.062	123.444	0.094	-0.119
-667.047	124.430	0.143	0.183
-666.032	-200.000	-0.023	0.134
-665.018	-4.744	0.253	-0.177
-664.003	800.000	-0.093	-0.275
-662.989	800.000	0.066	-0.201
-661.974	800.000	0.093	-0.321
-660.959	-200.000	-0.052	-0.238
-659.945	-14.082	0.212	-0.138
-658.930	800.000	-0.029	-0.086
-657.916	13.842	0.247	0.195
-656.901	-85.341	0.265	0.084
-655.886	-200.000	0.024	-0.228
-654.872	800.000	0.042	-0.158
-653.857	-73.368	0.103	0.038
-652.843	-200.000	0.045	-0.327
-651.828	-62.270	-0.339	0.143
-650.814	-200.000	-0.036	0.449
-649.799	-44.719	0.187	-0.095
-648.784	-30.872	0.212	-0.121
-647.770	-200.000	-0.019	-0.198
-646.755	800.000	-0.044	-0.162
-645.741	67.485	-0.179	-0.185
-644.726	-81.626	-0.126	-0.042
-643.711	800.000	-0.074	0.218
-642.697	-200.000	0.004	0.134
-641.682	-144.840	0.187	-0.017
-640.668	-58.800	0.101	0.044
-639.653	-120.213	-0.172	-0.030
-638.638	-139.223	-0.215	-0.024
-637.624	246.756	-0.150	-0.257
-636.609	14.921	0.203	0.161
-635.595	-103.499	0.191	-0.045
-634.580	-107.744	-0.102	0.022
-633.565	51.991	0.193	-0.186
-632.551	284.029	0.166	-0.302
-631.536	-40.919	-0.357	-0.187
-630.522	45.893	-0.144	-0.135
-629.507	-65.154	0.373	-0.152
-628.492	800.000	0.056	-0.208
-627.478	-1.683	0.109	-0.078
-626.463	-47.197	-0.240	0.118
-625.449	-5.556	-0.071	0.049
-624.434	-200.000	0.030	0.209
-623.419	800.000	0.018	-0.075
-622.405	800.000	0.013	0.056
-621.390	-22.605	-0.188	-0.115
-620.376	489.825	-0.123	-0.284
-619.361	81.808	-0.130	-0.143
-618.346	-5.226	0.118	0.082
-617.332	77.810	0.267	-0.288
-616.317	-200.000	-0.014	0.105
-615.303	-57.836	0.118	0.052
-614.288	-138.316	0.411	-0.046
-613.273	800.000	0.049	-0.162
-612.259	-0.449	0.096	0.069
-611.244	2.599	-0.170	-0.125
-610.230	800.000	0.109	0.467
-609.215	-1.408	0.158	0.112
-608.201	-117.222	0.268	0.049
-607.186	-200.000	-0.018	-0.086
-606.171	-170.964	-0.157	-0.005
-605.157	27.695	0.097	-0.082
-604.142	-106.871	-0.185	-0.041
-603.128	43.101	-0.061	0.056
-602.113	16.281	0.223	0.178
-601.098	-176.555	-0.098	0.003
-600.084	-200.000	0.010	0.092
-599.069	-81.264	-0.125	0.042
-598.055	-169.821	-0.231	0.008
-597.040	-93.044	0.135	-0.038
-596.025	313.273	0.023	-0.044
-595.011	786.650	0.047	-0.131
-593.996	800.000	-0.074	-0.232
-592.982	-79.097	0.390	0.134
-591.967	-200.000	-0.041	0.185
-590.952	166.998	0.064	0.091
-589.938	50.451	0.096	-0.092
-588.923	-200.000	-0.079	-0.390
-587.909	-200.000	-0.006	-0.317
-586.894	213.411	-0.211	-0.337
-585.879	-200.000	0.090	0.425
-584.865	-200.000	-0.029	-0.144
-583.850	-103.696	-0.147	-0.035
-582.836	-14.880	0.290	0.188
-581.821	-107.113	-0.241	-0.054
-580.806	-129.841	0.151	-0.021
-579.792	-56.900	0.232	-0.103
-578.777	41.549	-0.108	-0.099
-577.763	-200.000	-0.023	0.114
-576.748	-18.683	-0.179	0.113
-575.733	408.087	0.156	-0.333
-574.719	114.222	0.040	-0.049
-573.704	-144.093	0.264	0.025
-572.690	-200.000	0.036	-0.278
-571.675	97.019	0.162	-0.187
-570.661	176.234	0.167	0.244
-569.646	126.055	0.075	0.095
-568.631	-53.566	-0.131	-0.060
-567.617	800.000	-0.021	0.068
-566.602	-200.000	-0.008	0.150
-565.588	65.693	-0.119	0.122
-564.573	-200.000	-0.009	-0.062
-563.558	-70.472	0.074	0.028
-562.544	653.795	-0.100	0.258
-561.529	-159.214	-0.289	-0.016
-560.515	-200.000	0.027	0.121
-559.500	-127.228	-0.153	0.023
-558.485	800.000	0.024	0.071
-557.471	360.624	0.060	-0.122
-556.456	199.427	0.097	-0.149
-555.442	-65.153	0.343	0.140
-554.427	-200.000	0.050	0.300
-553.412	13.770	0.093	-0.073
-552.398	-11.702	-0.149	0.099
-551.383	-200.000	0.005	-0.166
-550.369	-9.551	-0.081	-0.054
-549.354	43.307	-0.136	0.125
-548.339	-200.000	0.002	-0.084
-547.325	-112.651	-0.213	0.043
-546.310	-152.928	-0.428	-0.031
-545.296	800.000	-0.092	-0.338
-544.281	286.210	0.212	-0.386
-543.266	-116.506	-0.187	-0.035
-542.252	428.662	0.081	-0.176
-541.237	800.000	-0.040	0.114
-540.223	679.956	0.036	0.096
-539.208	-114.570	-0.464	0.090
-538.193	-118.551	0.368	0.066
-537.179	11.444	0.031	0.024
-536.164	259.601	-0.071	0.123
-535.150	181.645	-0.038	-0.057
-534.135	-80.043	0.189	-0.064
-533.121	-119.196	0.204	-0.036
-532.106	-107.526	0.108	0.024
-531.091	-86.749	-0.156	-0.048
-530.077	-137.714	-0.054	0.006
-529.062	88.804	-0.179	-0.200
-528.048	216.118	-0.099	-0.159
-527.033	-200.000	-0.014	-0.262
-526.018	126.598	0.153	0.196
-525.004	51.664	0.092	0.088
-523.989	-200.000	0.012	-0.201
-522.975	-56.106	-0.134	0.060
-521.960	215.550	0.102	0.164
-520.945	-169.513	-0.131	-0.005
-519.931	-200.000	-0.027	0.444
-518.916	-156.143	-0.407	-0.026
-517.902	146.495	-0.207	-0.281
-516.887	-200.000	0.055	-0.341
-515.872	192.707	-0.205	0.312
-514.858	-95.895	0.279	-0.075
-513.843	-29.959	-0.317	-0.182
-512.829	-175.862	-0.207	-0.006
-511.814	335.277	0.088	0.172
-510.799	24.355	0.108	-0.090
-509.785	-200.000	-0.001	-0.197
-508.770	116.405	-0.025	-0.031
-507.756	800.000	0.032	-0.136
-506.741	-180.040	-0.274	-0.006
-505.726	219.999	-0.101	-0.163
-504.712	8.327	-0.181	-0.137
-503.697	105.882	-0.188	0.224
-502.683	158.638	-0.109	0.152
-501.668	370.938	-0.181	0.370
-500.653	800.000	0.172	0.504
-499.639	-117.029	-0.334	-0.061
-498.624	0.552	-0.127	0.092
-497.610	13.002	-0.132	-0.103
-496.595	132.368	0.035	0.045
-495.581	-200.000	0.017	-0.125
-494.566	-40.244	0.148	-0.077
-493.551	142.532	0.266	0.356
-492.537	54.579	0.234	-0.227
-491.522	470.190	0.073	0.166
-490.508	51.375	0.422	0.403
-489.493	159.268	-0.212	0.297
-488.478	52.686	0.093	-0.089
-487.464	-200.000	0.006	-0.048
-486.449	-148.774	-0.128	-0.010
-485.435	-152.132	-0.446	-0.033
-484.420	76.858	0.181	0.194
-483.405	-192.257	-0.043	-0.000
-482.391	-200.000	0.007	-0.196
-481.376	312.222	0.107	-0.203
-480.362	201.743	0.316	-0.490
-479.347	-53.889	-0.149	-0.069
-478.332	800.000	-0.043	-0.129
-477.318	-21.675	-0.110	0.067
-476.303	-155.719	-0.084	0.005
-475.289	800.000	-0.086	0.345
-474.274	453.557	0.187	0.417
-473.259	554.921	-0.092	-0.223
-472.245	364.288	-0.101	0.204
-471.230	800.000	0.088	0.248
-470.216	361.628	-0.051	0.103
-469.201	26.755	-0.015	0.013
-468.186	78.895	-0.129	0.139
-467.172	-165.072	-0.130	0.006
-466.157	800.000	0.097	0.362
-465.143	-148.545	-0.243	-0.020
-464.128	320.470	-0.178	-0.339
-463.113	-200.000	-0.007	0.094
-462.099	418.075	0.069	-0.149
-461.084	-190.220	-0.217	0.002
-460.070	55.257	-0.132	-0.129
-459.055	-37.951	0.167	0.089
-458.040	-150.707	0.321	0.025
-457.026	-77.993	-0.161	0.056
-456.011	-99.973	0.166	0.042
-454.997	180.095	0.181	-0.266
-453.982	-140.005	-0.216	0.023
-452.968	-200.000	-0.027	-0.128
-451.953	12.325	0.330	0.255
-450.938	95.845	-0.224	-0.257
-449.924	-200.000	0.024	-0.244
-448.909	-200.000	0.024	0.117
-447.895	83.778	0.079	-0.086
-446.880	-106.508	-0.235	-0.053
-445.865	91.789	0.131	0.148
-444.851	228.970	0.195	0.319
-443.836	242.792	-0.127	-0.213
-442.822	31.377	0.190	-0.164
-441.807	-19.474	-0.117	-0.073
-440.792	-200.000	0.012	0.319
-439.778	-140.656	-0.401	-0.042
-438.763	-108.688	0.327	0.070
-437.749	5.289	0.306	-0.227
-436.734	-109.426	0.268	0.057
-435.719	-200.000	0.003	-0.112
-434.705	60.145	0.135	0.134
-433.690	-101.585	-0.047	-0.011
-432.676	-200.000	0.009	-0.259
-431.661	119.974	0.126	-0.157
-430.646	158.541	-0.034	0.047
-429.632	115.391	-0.200	-0.246
-428.617	101.331	-0.237	-0.278
-427.603	800.000	0.046	0.182
-426.588	-107.058	-0.172	0.038
-425.573	93.130	0.132	0.150
-424.559	-74.956	-0.192	-0.069
-423.544	-200.000	0.029	0.335
-422.530	470.748	0.095	-0.214
-421.515	-98.136	0.277	0.071
-420.500	800.000	0.028	0.102
-419.486	-57.911	0.072	-0.032
-418.471	800.000	0.104	0.314
-417.457	159.507	-0.026	-0.037
-416.442	-200.000	-0.056	0.245
-415.428	-200.000	-0.023	-0.103
-414.413	-3.746	-0.223	0.155
-413.398	-158.021	0.227	0.013
-412.384	-157.076	0.311	0.019
-411.369	-138.517	0.314	0.035
-410.355	-69.568	-0.178	0.068
-409.340	800.000	0.005	-0.020
-408.325	178.167	-0.144	0.210
-407.311	-62.722	-0.538	0.224
-406.296	-127.089	0.295	-0.043
-405.282	765.217	0.049	-0.134
-404.267	-40.520	-0.350	-0.182
-403.252	-59.289	-0.381	-0.164
-402.238	-68.015	0.263	0.103
-401.223	-200.000	0.141	0.000
-400.209	239.885	0.215	0.359
-399.194	50.848	-0.092	-0.087
-398.179	800.000	0.071	-0.201
-397.165	68.681	0.138	-0.142
-396.150	800.000	-0.071	0.254
-395.136	-200.000	-0.002	0.123
-394.121	-86.638	-0.326	-0.100
-393.106	12.360	0.266	0.206
-392.092	-28.161	-0.102	0.059
-391.077	-136.587	-0.105	-0.012
-390.063	-130.550	0.285	0.039
-389.048	-200.000	0.023	0.221
-388.033	-77.004	-0.199	0.069
-387.019	31.998	0.253	0.218
-386.004	44.293	-0.132	-0.122
-384.990	200.390	-0.196	0.303
-383.975	781.673	0.082	0.225
-382.960	9.299	0.212	0.161
-381.946	-117.504	0.251	0.045
-380.931	605.037	-0.224	0.559
-379.917	-128.924	0.365	0.051
-378.902	71.730	-0.158	-0.164
-377.888	46.879	-0.186	-0.174
-376.873	-109.438	-0.166	0.035
-375.858	-200.000	-0.022	0.136
-374.844	800.000	-0.080	-0.238
-373.829	-25.140	0.185	0.110
-372.815	-182.247	-0.322	0.006
-371.800	-137.816	-0.196	0.022
-370.785	-190.134	-0.179	-0.002
-369.771	20.096	0.232	0.188
-368.756	654.989	-0.107	0.276
-367.742	800.000	-0.060	0.241
-366.727	214.984	0.085	-0.135
-365.712	-97.835	-0.104	0.027
-364.698	-200.000	0.008	-0.051
-363.683	-200.000	0.040	-0.174
-362.669	173.907	-0.075	0.108
-361.654	-200.000	-0.025	0.301
-360.639	-200.000	-0.101	-0.534
-359.625	26.754	0.123	0.103
-358.610	800.000	-0.105	0.321
-357.596	-200.000	-0.002	0.312
-356.581	35.136	-0.116	-0.102
-355.566	190.356	0.187	-0.281
-354.552	43.216	-0.114	-0.104
-353.537	-138.684	0.302	0.033
-352.523	-175.294	0.192	0.005
-351.508	800.000	0.082	0.287
-350.493	-186.996	0.198	-0.003
-349.479	-65.724	-0.247	-0.099
-348.464	209.229	0.124	0.194
-347.450	-200.000	0.012	-0.092
-346.435	27.267	0.112	0.094
-345.420	118.345	0.095	0.118
-344.406	-93.006	-0.356	-0.099
-343.391	119.204	0.175	-0.216
-342.377	-77.082	0.121	0.042
-341.362	-126.985	0.095	0.014
-340.348	-100.321	0.219	0.054
-339.333	-29.370	0.313	-0.179
-338.318	-138.690	-0.372	-0.041
-337.304	-55.955	-0.040	0.018
-336.289	8.803	-0.107	0.080
-335.275	418.582	0.111	0.237
-334.260	-200.000	-0.067	0.339
-333.245	-200.000	0.005	0.093
-332.231	83.868	0.212	0.232
-331.216	-200.000	-0.023	-0.147
-330.202	-200.000	-0.027	0.197
-329.187	73.431	0.182	0.191
-328.172	288.558	0.162	0.294
-327.158	49.665	-0.116	-0.109
-326.143	-200.000	0.024	0.158
-325.129	-79.411	0.167	-0.056
-324.114	-144.633	0.467	-0.043
-323.099	111.569	-0.166	0.201
-322.085	64.541	0.231	0.233
-321.070	-79.264	-0.058	0.020
-320.056	-200.000	-0.004	-0.173
-319.041	800.000	0.011	0.038
-318.026	1.019	-0.271	0.194
-317.012	-128.959	-0.386	-0.054
-315.997	174.037	0.168	0.243
-314.983	-143.104	-0.420	0.041
-313.968	-200.000	0.023	0.308
-312.953	-200.000	0.001	-0.319
-311.939	29.291	0.332	-0.281
-310.924	676.792	-0.072	0.186
-309.910	-83.890	0.404	-0.129
-308.895	-22.726	0.112	-0.067
-307.880	615.477	0.099	-0.247
-306.866	58.055	-0.097	0.095
-305.851	-100.826	-0.270	0.066
-304.837	22.463	0.087	0.071
-303.822	-16.040	-0.084	0.053
-302.807	723.116	-0.073	0.193
-301.793	800.000	0.026	-0.107
-300.778	-200.000	-0.021	0.122
-299.764	91.354	-0.096	-0.108
-298.749	771.834	0.061	0.166
-297.735	-130.787	-0.260	0.035
-296.720	7.941	0.215	0.161
-295.705	90.376	0.092	0.103
-294.691	69.382	0.059	-0.060
-293.676	-67.466	-0.412	0.162
-292.662	89.612	-0.081	-0.091
-291.647	800.000	-0.103	-0.370
-290.632	2.222	-0.166	-0.120
-289.618	-23.417	0.133	0.080
-288.603	-200.000	-0.047	0.457
-287.589	-200.000	0.017	-0.222
-286.574	-82.410	0.163	-0.053
-285.559	164.000	-0.115	0.162
-284.545	-22.723	0.260	-0.157
-283.530	614.875	0.026	0.065
-282.516	-18.152	0.333	0.208
-281.501	69.488	-0.091	0.094
-280.486	774.581	-0.132	0.358
-279.472	-131.182	0.278	-0.037
-278.457	-163.592	0.153	-0.007
-277.443	109.146	-0.053	-0.064
-276.428	57.665	0.079	-0.078
-275.413	-90.822	0.191	0.055
-274.399	17.303	0.239	0.189
-273.384	-200.000	0.005	0.052
-272.370	-97.720	-0.119	-0.031
-271.355	-131.679	-0.268	0.035
-270.340	334.152	0.092	-0.178
-269.326	369.178	0.247	-0.498
-268.311	-163.268	-0.147	0.007
-267.297	-135.167	0.123	-0.015
-266.282	-200.000	-0.051	-0.508
-265.267	-38.538	-0.266	0.140
-264.253	-58.796	-0.115	-0.050
-263.238	-51.801	0.066	-0.031
-262.224	-200.000	0.190	0.000
-261.209	800.000	-0.101	-0.302
-260.195	-85.396	-0.333	-0.104
-259.180	-200.000	-0.195	-0.001
-258.165	-200.000	0.002	-0.295
-257.151	681.260	-0.068	-0.176
-256.136	278.798	-0.162	-0.288
-255.122	748.997	-0.091	-0.245
-254.107	436.397	-0.146	0.316
-253.092	48.562	-0.296	-0.276
-252.078	-106.193	-0.195	0.043
-251.063	145.291	-0.112	-0.150
-250.049	800.000	-0.062	-0.247
-249.034	85.909	-0.209	-0.229
-248.019	-15.210	0.076	-0.049
-247.005	33.954	0.193	0.168
-245.990	-55.025	-0.462	-0.207
-244.976	-200.000	0.080	0.349
-243.961	310.145	0.189	-0.353
-242.946	-89.172	-0.135	0.040
-241.932	-126.046	0.301	0.045
-240.917	21.499	-0.092	-0.074
-239.903	167.241	0.031	0.043
-238.888	800.000	-0.100	-0.363
-237.873	111.993	-0.069	-0.083
-236.859	-49.348	-0.114	-0.054
-235.844	-24.009	0.178	-0.106
-234.830	54.819	-0.154	0.148
-233.815	-116.013	0.203	0.038
-232.800	-156.489	0.157	0.010
-231.786	-142.424	-0.144	0.014
-230.771	800.000	-0.137	-0.379
-229.757	-200.000	0.001	-0.219
-228.742	-42.308	0.323	-0.164
-227.727	-138.155	0.111	-0.012
-226.713	100.653	0.010	-0.012
-225.698	159.091	-0.170	-0.235
-224.684	-200.000	-0.027	-0.293
-223.669	538.534	0.080	-0.189
-222.655	-120.712	0.434	0.073
-221.640	9.389	0.093	-0.070
-220.625	-110.609	0.357	-0.074
-219.611	98.454	-0.186	-0.214
-218.596	48.441	0.092	0.086
-217.582	-104.793	0.225	-0.051
-216.567	-200.000	0.023	0.267
-215.552	-200.000	0.003	0.159
-214.538	-79.402	0.229	0.077
-213.523	648.250	0.126	0.321
-212.509	79.064	-0.074	0.079
-211.494	353.173	0.056	0.110
-210.479	763.835	0.089	-0.242
-209.465	-39.353	-0.111	0.058
-208.450	54.874	-0.144	-0.138
-207.436	162.493	0.189	0.264
-206.421	159.613	-0.106	-0.147
-205.406	800.000	0.016	-0.047
-204.392	-98.989	0.271	0.068
-203.377	-6.043	-0.152	-0.104
-202.363	491.454	-0.060	0.137
-201.348	-57.883	-0.182	0.079
-200.333	-200.000	-0.018	-0.264
-199.319	-138.453	-0.127	-0.014
-198.304	-200.000	0.004	-0.042
-197.290	-200.000	0.006	-0.166
-196.275	-110.976	-0.260	-0.053
-195.260	-45.131	-0.036	-0.018
-194.246	26.388	0.253	0.210
-193.231	-200.000	-0.021	-0.140
-192.217	-200.000	-0.021	-0.105
-191.202	-200.000	-0.042	-0.182
-190.187	-146.276	0.200	0.017
-189.173	192.786	-0.163	0.245
-188.158	-28.158	-0.152	0.087
-187.144	10.828	-0.067	-0.051
-186.129	-157.636	0.189	0.011
-185.114	-81.801	0.062	-0.020
-184.100	-72.196	-0.182	0.067
-183.085	-193.221	0.318	-0.003
-182.071	296.121	-0.050	-0.090
-181.056	306.846	0.057	0.106
-180.042	86.681	0.099	-0.109
-179.027	-103.023	-0.203	-0.048
-178.012	-200.000	0.009	0.065
-176.998	-39.328	-0.042	-0.022
-175.983	800.000	-0.025	0.104
-174.969	800.000	-0.049	0.206
-173.954	800.000	0.059	0.198
-172.939	-193.739	0.198	0.002
-171.925	277.902	-0.064	0.113
-170.910	-200.000	0.000	0.120
-169.896	357.948	-0.103	0.204
-168.881	66.678	0.148	-0.149
-167.866	31.923	0.176	0.151
-166.852	797.194	-0.050	0.136
-165.837	-200.000	0.007	0.057
-164.823	-131.838	-0.228	-0.030
-163.808	-36.071	-0.098	0.053
-162.793	45.196	0.076	-0.070
-161.779	-200.000	-0.006	0.173
-160.764	106.700	-0.062	-0.073
-159.750	-159.846	-0.086	0.005
-158.735	-86.706	0.063	0.019
-157.720	-200.000	-0.050	-0.456
-156.706	181.765	-0.047	0.069
-155.691	-197.760	-0.309	0.002
-154.677	235.137	-0.071	0.117
-153.662	-61.976	-0.108	0.045
-152.647	56.571	0.364	-0.351
-151.633	-162.446	0.107	-0.005
-150.618	800.000	-0.042	-0.121
-149.604	-62.874	0.220	0.090
-148.589	800.000	0.046	0.176
-147.574	221.534	-0.130	-0.207
-146.560	-130.011	-0.156	-0.021
-145.545	-182.484	0.199	-0.004
-144.531	38.543	0.325	-0.287
-143.516	-103.980	0.025	0.006
-142.502	725.086	0.081	0.213
-141.487	-200.000	-0.008	-0.287
-140.472	58.668	0.207	-0.202
-139.458	-127.820	0.262	-0.037
-138.443	-200.000	0.002	-0.115
-137.429	106.119	-0.092	-0.108
-136.414	-200.000	-0.026	0.242
-135.399	800.000	0.109	0.444
-134.385	151.677	-0.088	-0.119
-133.370	-15.130	-0.151	0.096
-132.356	-18.809	0.523	-0.324
-131.341	-82.234	0.235	-0.076
-130.326	-19.851	-0.304	-0.186
-129.312	-142.103	0.198	-0.019
-128.297	-87.438	-0.293	-0.088
-127.283	256.392	0.128	0.217
-126.268	77.959	0.260	0.275
-125.253	143.499	-0.098	0.129
-124.239	-75.005	0.347	0.123
-123.224	543.963	-0.087	0.207
-122.210	-121.110	-0.199	-0.033
