DTS Sentinel unit serial number:	SN413079Multiplexer serial number:	ORYXHardware model number:	OX4-SRSoftware version number:	ORYX F/W v4.00 Oryx Data Collector v3.7.2.0data status	okinstallation	princeton_trtdifferential loss correction	single-endedforward channel	channel 2reverse channel	N/Adate	2019/09/17time	05:31:35forward acquisition time	60.00reverse acquisition time	0.00gamma	496.2192k internal	0.2330k external	0.2330temperature offset calibration	0.9974default loss term (dB/km)	0.3790temperature slope calibration	1.0000multiplexer offset coefficient	1.0000multiplexer slope coefficient	1.0000fibre end	0.00T internal ref (°C)	29.25T ext. ref 1 (°C)	0.14T ext. ref 2 (°C)	23.19length (m)	temperature (°C)	Stokes	anti-Stokes-747.200	-18.273	-0.082	0.052
-746.185	-200.000	-0.076	-0.434
-745.171	30.065	0.291	-0.250
-744.156	4.312	0.247	0.182
-743.142	-200.000	-0.031	0.240
-742.127	-50.677	0.165	0.078
-741.112	-128.864	0.209	0.030
-740.098	-200.000	-0.002	-0.017
-739.083	-85.810	-0.021	0.006
-738.069	556.463	0.059	0.143
-737.054	-200.000	-0.041	-0.385
-736.039	116.042	-0.070	-0.086
-735.025	-69.394	0.418	0.161
-734.010	800.000	-0.038	0.133
-732.996	418.476	0.097	-0.209
-731.981	-200.000	-0.009	0.079
-730.966	4.650	-0.090	-0.066
-729.952	337.934	-0.191	0.374
-728.937	423.874	-0.111	0.240
-727.923	-19.218	-0.055	0.034
-726.908	-56.858	-0.269	0.120
-725.894	192.860	-0.229	-0.348
-724.879	571.324	-0.039	0.096
-723.864	-109.243	-0.130	0.028
-722.850	97.825	-0.108	0.125
-721.835	-141.393	0.366	0.037
-720.821	149.515	-0.198	0.270
-719.806	178.628	0.111	0.163
-718.791	759.238	-0.037	0.100
-717.777	800.000	-0.046	-0.138
-716.762	6.067	-0.212	-0.158
-715.748	-102.827	-0.211	0.051
-714.733	800.000	0.056	-0.171
-713.718	455.932	-0.113	-0.253
-712.704	88.287	0.119	-0.133
-711.689	353.825	-0.033	-0.065
-710.675	-11.784	0.129	0.085
-709.660	-45.560	0.204	-0.101
-708.645	248.477	-0.102	0.173
-707.631	-24.382	0.177	0.106
-706.616	-200.000	-0.038	-0.224
-705.602	354.809	-0.098	-0.195
-704.587	134.562	0.091	0.118
-703.572	27.230	-0.276	-0.233
-702.558	-107.823	-0.141	0.031
-701.543	356.352	0.200	-0.400
-700.529	662.939	0.114	-0.295
-699.514	-119.480	-0.315	0.055
-698.499	112.363	0.123	-0.149
-697.485	-104.372	-0.265	-0.062
-696.470	-153.674	-0.245	-0.017
-695.456	16.279	0.080	-0.063
-694.441	-58.155	-0.057	-0.025
-693.426	-200.000	0.031	0.417
-692.412	-31.863	-0.275	0.155
-691.397	800.000	-0.097	0.271
-690.383	-103.747	-0.331	-0.078
-689.368	800.000	0.106	-0.346
-688.354	116.027	0.234	-0.288
-687.339	-34.003	0.384	-0.212
-686.324	-17.402	-0.205	-0.129
-685.310	-17.107	-0.264	-0.167
-684.295	-118.732	0.329	-0.058
-683.281	-200.000	-0.038	-0.178
-682.266	-180.099	-0.246	-0.005
-681.251	351.564	0.045	0.089
-680.237	-164.101	-0.654	0.030
-679.222	-200.000	0.060	0.510
-678.208	-144.400	0.155	-0.014
-677.193	-165.590	0.328	-0.014
-676.178	390.144	0.086	0.180
-675.164	-49.043	-0.099	-0.048
-674.149	-30.876	0.126	-0.072
-673.135	108.887	-0.058	0.069
-672.120	-95.080	-0.109	-0.029
-671.105	-200.000	0.030	-0.200
-670.091	38.378	-0.332	-0.297
-669.076	-116.531	0.172	0.032
-668.062	-200.000	0.040	-0.180
-667.047	-78.824	-0.268	0.092
-666.032	-200.000	0.069	0.309
-665.018	150.428	0.063	0.086
-664.003	18.802	0.176	0.142
-662.989	-125.916	0.342	0.052
-661.974	128.296	-0.190	-0.243
-660.959	-200.000	0.043	-0.470
-659.945	246.574	-0.110	-0.186
-658.930	-200.000	0.101	0.459
-657.916	800.000	-0.065	0.261
-656.901	548.976	-0.102	-0.245
-655.886	-200.000	-0.008	-0.397
-654.872	-134.069	-0.309	0.038
-653.857	-200.000	-0.028	-0.124
-652.843	77.079	-0.178	0.189
-651.828	800.000	0.105	-0.322
-650.814	-65.673	0.363	0.146
-649.799	259.043	-0.121	0.209
-648.784	-200.000	0.006	0.423
-647.770	61.713	-0.052	0.051
-646.755	-157.508	0.167	0.010
-645.741	-94.344	-0.238	-0.065
-644.726	-14.427	-0.063	-0.041
-643.711	-80.257	0.417	0.140
-642.697	-32.105	0.130	0.073
-641.682	28.826	-0.125	0.106
-640.668	151.704	-0.178	-0.244
-639.653	170.263	0.082	0.118
-638.638	21.931	-0.145	-0.118
-637.624	-147.169	-0.144	0.012
-636.609	800.000	0.114	-0.403
-635.595	-129.538	0.324	-0.045
-634.580	-5.582	-0.156	-0.107
-633.565	-21.963	-0.202	0.123
-632.551	-200.000	-0.055	-0.266
-631.536	-173.397	0.123	-0.004
-630.522	184.911	0.046	0.069
-629.507	-200.000	0.008	0.125
-628.492	44.768	0.087	0.081
-627.478	-100.226	-0.177	-0.044
-626.463	-200.000	0.011	0.147
-625.449	-53.008	0.179	-0.083
-624.434	783.288	0.073	0.200
-623.419	23.184	0.272	0.224
-622.405	79.652	-0.098	0.105
-621.390	-11.309	-0.263	-0.174
-620.376	-58.379	0.175	-0.076
-619.361	-8.713	-0.078	0.052
-618.346	-39.319	0.163	0.086
-617.332	-45.352	0.214	-0.106
-616.317	-200.000	-0.009	-0.264
-615.303	-107.056	0.059	-0.013
-614.288	339.821	-0.102	-0.198
-613.273	-200.000	-0.041	0.433
-612.259	-33.357	-0.528	0.292
-611.244	286.049	-0.099	0.179
-610.230	800.000	0.044	-0.141
-609.215	182.854	0.051	0.076
-608.201	-78.607	-0.268	0.092
-607.186	94.472	0.109	0.124
-606.171	723.011	0.116	0.308
-605.157	158.328	-0.095	-0.132
-604.142	-200.000	-0.023	0.266
-603.128	504.574	0.124	-0.288
-602.113	342.722	-0.054	0.106
-601.098	800.000	-0.059	0.195
-600.084	12.332	-0.202	0.156
-599.069	65.712	0.190	-0.193
-598.055	176.758	-0.230	0.335
-597.040	-11.438	-0.197	-0.130
-596.025	64.673	0.063	0.064
-595.011	-98.980	-0.111	-0.028
-593.996	-47.761	-0.285	-0.138
-592.982	263.515	0.270	-0.470
-591.967	-200.000	0.020	-0.276
-590.952	67.780	-0.193	-0.197
-589.938	-178.709	-0.023	0.001
-588.923	-87.444	-0.072	0.022
-587.909	-23.747	-0.234	-0.140
-586.894	-115.539	0.346	-0.065
-585.879	-48.405	0.154	0.074
-584.865	-200.000	-0.002	0.022
-583.850	176.524	0.241	0.351
-582.836	-59.124	0.099	0.043
-581.821	-200.000	0.000	-0.118
-580.806	231.129	0.196	-0.321
-579.792	606.154	-0.031	-0.078
-578.777	282.140	0.061	-0.110
-577.763	-200.000	0.066	-0.324
-576.748	149.111	-0.103	-0.140
-575.733	104.006	-0.100	-0.118
-574.719	254.111	0.127	0.218
-573.704	-57.308	-0.085	-0.037
-572.690	449.686	0.053	0.118
-571.675	18.569	0.121	0.097
-570.661	-108.321	-0.216	0.047
-569.646	213.796	0.100	-0.159
-568.631	14.432	0.080	-0.063
-567.617	64.774	-0.051	0.051
-566.602	-200.000	0.031	-0.224
-565.588	504.189	-0.048	0.112
-564.573	130.005	0.201	-0.257
-563.558	800.000	0.102	-0.292
-562.544	250.559	-0.144	-0.245
-561.529	-200.000	0.061	0.298
-560.515	-34.556	0.308	0.169
-559.500	-20.259	-0.111	0.068
-558.485	-145.339	-0.107	-0.010
-557.471	-200.000	0.002	-0.195
-556.456	-200.000	-0.087	0.415
-555.442	-102.543	-0.275	-0.066
-554.427	79.100	0.228	-0.244
-553.412	-200.000	-0.022	0.192
-552.398	51.270	-0.126	0.119
-551.383	-200.000	0.048	-0.265
-550.369	-54.980	-0.308	-0.139
-549.354	-200.000	0.054	-0.282
-548.339	-80.510	0.151	0.050
-547.325	-97.427	0.056	0.014
-546.310	-138.949	0.317	0.034
-545.296	-111.439	-0.164	-0.033
-544.281	800.000	-0.039	0.159
-543.266	-200.000	-0.030	-0.185
-542.252	73.824	-0.224	0.235
-541.237	65.696	0.186	0.189
-540.223	-49.590	0.040	0.019
-539.208	-82.640	-0.164	-0.053
-538.193	-40.644	-0.415	-0.215
-537.179	-200.000	0.012	0.144
-536.164	121.837	-0.101	-0.126
-535.150	160.696	0.049	0.068
-534.135	-88.113	0.211	-0.063
-533.121	800.000	0.064	0.219
-532.106	123.170	-0.175	0.219
-531.091	-200.000	-0.019	0.235
-530.077	-200.000	0.031	0.470
-529.062	-40.125	-0.251	-0.130
-528.048	165.310	0.067	-0.095
-527.033	-12.957	-0.172	-0.112
-526.018	-64.419	0.095	0.039
-525.004	385.678	0.090	-0.186
-523.989	-33.783	0.149	0.082
-522.975	-71.923	0.098	0.036
-521.960	490.612	-0.054	-0.123
-520.945	-169.154	0.051	0.002
-519.931	-200.000	0.024	-0.144
-518.916	46.496	0.036	-0.034
-517.902	-168.028	0.330	0.013
-516.887	410.550	-0.068	-0.144
-515.872	107.592	-0.094	0.111
-514.858	800.000	0.025	-0.087
-513.843	27.422	-0.125	-0.105
-512.829	262.099	0.133	0.230
-511.814	-200.000	-0.001	-0.107
-510.799	-200.000	0.018	0.242
-509.785	-147.135	0.080	0.007
-508.770	-200.000	0.082	-0.406
-507.756	6.945	-0.116	0.086
-506.741	205.887	-0.121	0.187
-505.726	137.442	0.149	0.194
-504.712	-200.000	0.001	-0.224
-503.697	173.500	0.080	-0.116
-502.683	800.000	0.064	-0.193
-501.668	-154.782	0.306	-0.020
-500.653	-52.487	0.093	-0.043
-499.639	147.821	-0.221	-0.297
-498.624	-6.617	0.143	0.097
-497.610	245.547	0.189	0.317
-496.595	-117.520	-0.127	0.023
-495.581	5.385	0.277	-0.204
-494.566	344.894	-0.033	0.065
-493.551	-200.000	-0.028	0.130
-492.537	-13.435	-0.155	-0.100
-491.522	-58.438	0.218	-0.094
-490.508	217.476	0.037	-0.059
-489.493	-200.000	-0.071	-0.373
-488.478	800.000	0.052	-0.171
-487.464	-38.916	0.129	0.068
-486.449	101.073	-0.217	0.252
-485.435	82.855	0.116	-0.126
-484.420	137.838	-0.090	-0.117
-483.405	145.304	0.145	-0.194
-482.391	-54.505	-0.055	0.025
-481.376	-200.000	-0.050	0.314
-480.362	-25.824	-0.041	-0.024
-479.347	-35.955	0.230	0.124
-478.332	91.939	-0.082	0.092
-477.318	-108.748	0.262	-0.056
-476.303	24.663	0.400	-0.330
-475.289	-23.267	0.181	-0.109
-474.274	25.986	-0.032	0.027
-473.259	165.244	-0.253	0.356
-472.245	-77.198	-0.016	0.005
-471.230	-83.536	-0.378	-0.121
-470.216	-93.144	-0.192	-0.053
-469.201	-161.368	-0.362	0.019
-468.186	141.494	0.167	-0.221
-467.172	-131.268	-0.096	-0.013
-466.157	-200.000	0.013	0.065
-465.143	358.402	0.095	0.188
-464.128	116.582	-0.062	0.075
-463.113	97.791	0.164	0.188
-462.099	64.374	-0.041	-0.041
-461.084	-194.881	0.149	0.001
-460.070	479.381	0.046	0.104
-459.055	62.476	0.227	0.226
-458.040	-25.460	0.168	0.099
-457.026	368.190	0.137	-0.277
-456.011	-30.464	0.098	0.056
-454.997	-86.090	-0.366	0.112
-453.982	239.805	0.060	0.100
-452.968	55.410	-0.018	0.017
-451.953	-98.259	0.241	0.062
-450.938	81.596	0.053	-0.057
-449.924	215.613	0.066	-0.104
-448.909	-53.871	-0.171	0.078
-447.895	-137.099	0.201	0.023
-446.880	800.000	-0.010	-0.041
-445.865	-6.146	-0.193	0.131
-444.851	-42.161	-0.128	0.065
-443.836	155.086	-0.108	-0.148
-442.822	-2.059	-0.171	-0.120
-441.807	-200.000	-0.014	0.185
-440.792	-114.106	0.112	0.021
-439.778	-150.231	0.157	0.012
-438.763	365.969	-0.166	0.332
-437.749	-89.862	-0.182	0.053
-436.734	-46.539	0.089	0.043
-435.719	113.679	-0.085	0.103
-434.705	669.330	-0.044	0.114
-433.690	-159.343	-0.278	-0.015
-432.676	-87.596	0.262	0.079
-431.661	-103.402	-0.286	-0.067
-430.646	-37.318	0.058	-0.031
-429.632	-169.403	-0.259	0.009
-428.617	800.000	0.086	-0.264
-427.603	116.702	0.209	-0.255
-426.588	-57.365	-0.201	0.088
-425.573	-48.602	0.343	0.164
-424.559	-200.000	0.050	-0.260
-423.544	4.041	0.272	-0.198
-422.530	-122.792	0.343	-0.055
-421.515	-200.000	-0.004	-0.184
-420.500	800.000	0.049	0.207
-419.486	-70.375	-0.273	-0.103
-418.471	151.715	0.123	-0.167
-417.457	-12.767	0.120	-0.078
-416.442	174.011	-0.126	-0.181
-415.428	13.541	-0.244	0.188
-414.413	-119.589	0.279	-0.048
-413.398	-130.773	0.341	-0.045
-412.384	-6.743	-0.362	0.245
-411.369	-34.475	0.290	-0.158
-410.355	-136.069	-0.198	0.023
-409.340	-200.000	-0.028	0.193
-408.325	338.995	-0.051	-0.099
-407.311	-200.000	0.040	0.243
-406.296	119.377	-0.213	0.262
-405.282	-136.934	0.208	-0.024
-404.267	72.243	0.184	-0.191
-403.252	678.536	-0.058	-0.150
-402.238	-61.641	-0.165	0.069
-401.223	495.548	-0.122	-0.278
-400.209	-200.000	-0.058	0.409
-399.194	377.938	0.112	0.227
-398.179	161.654	-0.194	-0.270
-397.165	159.811	0.239	0.331
-396.150	800.000	0.075	0.209
-395.136	-200.000	0.008	-0.215
-394.121	44.515	-0.141	-0.129
-393.106	114.180	-0.185	-0.223
-392.092	-148.731	-0.046	-0.004
-391.077	-22.093	0.097	-0.058
-390.063	-51.292	0.353	0.164
-389.048	40.863	0.214	-0.192
-388.033	-200.000	-0.008	-0.114
-387.019	634.517	-0.098	0.248
-386.004	-134.924	-0.344	-0.041
-384.990	187.591	0.091	0.135
-383.975	-27.181	-0.043	0.025
-382.960	112.501	-0.222	-0.267
-381.946	-200.000	-0.006	-0.045
-380.931	5.654	0.209	-0.153
-379.917	-200.000	-0.009	-0.197
-378.902	-153.080	0.133	0.009
-377.888	595.165	-0.088	-0.217
-376.873	168.410	0.041	0.057
-375.858	163.040	0.182	-0.253
-374.844	88.075	-0.109	-0.120
-373.829	-52.645	-0.432	0.198
-372.815	188.309	0.214	0.318
-371.800	-118.748	-0.344	-0.060
-370.785	-89.125	-0.221	-0.065
-369.771	-96.970	0.166	0.043
-368.756	195.579	-0.103	0.156
-367.742	-27.298	-0.075	-0.043
-366.727	-37.560	-0.190	-0.100
-365.712	551.316	0.077	0.183
-364.698	-200.000	0.001	0.126
-363.683	135.273	-0.130	-0.167
-362.669	135.205	-0.226	0.292
-361.654	-200.000	-0.046	0.208
-360.639	-83.061	-0.194	-0.062
-359.625	-159.318	-0.387	0.021
-358.610	167.748	0.060	0.084
-357.596	-150.680	-0.269	0.020
-356.581	216.458	-0.178	-0.281
-355.566	-133.207	-0.150	0.019
-354.552	-36.751	0.311	0.166
-353.537	800.000	0.102	0.335
-352.523	392.492	0.050	0.102
-351.508	40.135	0.118	0.105
-350.493	128.127	0.048	0.061
-349.479	-21.927	-0.193	-0.116
-348.464	-200.000	0.015	-0.191
-347.450	405.604	-0.141	-0.296
-346.435	195.980	-0.209	0.315
-345.420	-31.155	-0.288	-0.161
-344.406	229.762	-0.078	-0.126
-343.391	56.754	-0.096	0.092
-342.377	-200.000	0.015	-0.193
-341.362	180.511	-0.087	-0.126
-340.348	43.418	-0.142	0.128
-339.333	-137.693	-0.190	-0.021
-338.318	112.849	-0.154	-0.185
-337.304	-191.893	-0.272	0.003
-336.289	-200.000	0.039	0.173
-335.275	-45.898	-0.120	-0.059
-334.260	146.191	0.291	0.387
-333.245	-200.000	-0.078	-0.362
-332.231	243.749	0.106	-0.177
-331.216	800.000	0.008	-0.023
-330.202	-71.575	-0.233	-0.086
-329.187	-143.348	-0.197	-0.019
-328.172	-121.551	0.269	-0.044
-327.158	-200.000	-0.056	-0.376
-326.143	-200.000	-0.046	-0.224
-325.129	-20.276	0.089	-0.054
-324.114	800.000	-0.107	-0.350
-323.099	22.745	0.167	0.135
-322.085	114.573	-0.190	0.230
-321.070	-4.959	-0.250	-0.170
-320.056	132.150	0.107	0.137
-319.041	-119.883	0.126	-0.021
-318.026	800.000	0.075	-0.254
-317.012	35.620	-0.102	0.089
-315.997	181.178	0.140	-0.203
-314.983	-113.404	0.234	-0.045
-313.968	196.410	-0.099	0.150
-312.953	-78.230	0.223	-0.076
-311.939	520.157	-0.122	0.284
-310.924	800.000	-0.096	0.356
-309.910	240.227	-0.162	-0.267
-308.895	61.148	-0.237	-0.233
-307.880	-103.672	0.151	0.035
-306.866	259.753	-0.125	-0.214
-305.851	121.459	-0.060	0.075
-304.837	-159.981	-0.071	0.004
-303.822	-0.085	0.253	0.178
-302.807	-58.775	-0.344	0.147
-301.793	-200.000	-0.027	0.172
-300.778	-200.000	-0.005	-0.033
-299.764	225.665	-0.075	-0.120
-298.749	-139.539	0.214	0.023
-297.735	152.363	0.221	-0.299
-296.720	3.935	0.274	-0.198
-295.705	-200.000	0.012	-0.128
-294.691	-43.207	-0.026	-0.013
-293.676	-138.539	-0.356	0.039
-292.662	800.000	-0.042	0.128
-291.647	-116.353	0.081	-0.015
-290.632	-200.000	0.017	-0.156
-289.618	464.535	0.076	-0.168
-288.603	-187.717	-0.373	0.005
-287.589	-87.354	0.053	0.016
-286.574	37.343	-0.112	0.099
-285.559	-148.282	0.238	-0.019
-284.545	69.995	-0.236	0.241
-283.530	-86.940	-0.384	0.116
-282.516	-200.000	-0.025	-0.171
-281.501	454.401	0.064	0.141
-280.486	125.041	-0.028	0.035
-279.472	-181.008	-0.147	0.003
-278.457	-22.884	-0.084	0.050
-277.443	138.200	0.045	0.058
-276.428	53.149	-0.280	0.265
-275.413	57.675	0.106	0.103
-274.399	32.098	-0.128	-0.109
-273.384	4.579	-0.157	0.114
-272.370	-200.000	-0.002	-0.341
-271.355	88.157	0.351	0.385
-270.340	221.982	0.157	0.250
-269.326	-200.000	-0.050	-0.265
-268.311	-200.000	0.040	-0.292
-267.297	-17.220	-0.315	0.196
-266.282	82.482	0.104	0.111
-265.267	-6.221	0.243	0.164
-264.253	21.150	0.289	0.232
-263.238	-127.437	0.094	0.013
-262.224	800.000	0.055	0.217
-261.209	-69.000	0.100	-0.038
-260.195	-66.275	-0.047	0.019
-259.180	22.164	-0.090	0.072
-258.165	-200.000	0.017	-0.111
-257.151	537.193	0.084	0.198
-256.136	163.185	0.059	-0.082
-255.122	-48.687	0.126	0.060
-254.107	800.000	0.072	0.223
-253.092	211.948	0.106	-0.165
-252.078	80.949	-0.103	0.109
-251.063	36.715	-0.278	0.243
-250.049	800.000	-0.031	0.098
-249.034	-111.621	0.153	-0.031
-248.019	-34.355	0.347	0.188
-247.005	154.604	-0.021	0.028
-245.990	204.981	-0.147	-0.226
-244.976	82.533	-0.175	0.188
-243.961	-102.625	0.114	0.027
-242.946	165.649	-0.203	-0.284
-241.932	-122.054	0.306	-0.050
-240.917	28.826	0.150	-0.125
-239.903	-200.000	0.008	-0.233
-238.888	-91.910	-0.297	-0.083
-237.873	89.406	0.226	-0.249
-236.859	-104.904	0.300	-0.068
-235.844	-50.696	-0.315	0.147
-234.830	-184.859	0.752	-0.012
-233.815	-90.826	0.206	0.059
-232.800	-115.525	0.159	-0.029
-231.786	190.690	0.163	-0.242
-230.771	800.000	0.057	0.157
-229.757	34.251	0.101	-0.087
-228.742	-167.542	-0.213	0.008
-227.727	540.707	0.067	0.157
-226.713	-176.269	-0.188	0.005
-225.698	-91.436	0.367	0.103
-224.684	448.301	0.252	-0.548
-223.669	579.380	-0.059	-0.143
-222.655	-81.640	-0.315	0.102
-221.640	50.996	0.096	0.090
-220.625	800.000	-0.105	0.353
-219.611	-93.874	-0.225	-0.061
-218.596	-8.602	0.324	0.215
-217.582	-200.000	0.008	-0.267
-216.567	-200.000	0.020	0.172
-215.552	0.905	-0.172	0.122
-214.538	-38.577	0.258	-0.134
-213.523	232.771	-0.085	-0.138
-212.509	-50.411	0.102	0.048
-211.494	9.287	0.117	0.087
-210.479	299.322	0.097	-0.177
-209.465	-17.213	-0.083	0.051
-208.450	-200.000	0.061	-0.302
-207.436	-200.000	-0.007	-0.080
-206.421	-200.000	0.111	-0.571
-205.406	93.417	-0.124	-0.139
-204.392	-33.311	0.173	0.095
-203.377	-200.000	0.003	0.282
-202.363	247.730	0.111	-0.185
-201.348	135.679	0.103	0.132
-200.333	33.266	0.227	-0.194
-199.319	800.000	0.062	0.179
-198.304	-37.603	-0.260	0.136
-197.290	-200.000	0.042	0.270
-196.275	27.204	-0.097	-0.080
-195.260	255.860	0.040	0.068
-194.246	-200.000	-0.016	0.477
-193.231	-106.297	0.125	0.028
-192.217	59.059	0.151	-0.147
-191.202	444.041	0.112	-0.242
-190.187	-52.258	-0.250	-0.114
-189.173	-132.914	0.255	-0.032
-188.158	-200.000	0.001	0.114
-187.144	163.611	0.229	0.318
-186.129	24.009	0.103	0.084
-185.114	36.188	-0.195	0.169
-184.100	-60.197	0.103	0.043
-183.085	-85.262	0.143	-0.044
-182.071	520.453	0.110	0.253
-181.056	-153.813	0.482	-0.033
-180.042	590.124	0.084	-0.205
-179.027	-97.045	-0.322	-0.083
-178.012	4.906	-0.163	0.118
-176.998	94.095	-0.179	0.200
-175.983	-154.543	0.004	0.000
-174.969	-200.000	-0.028	0.140
-173.954	-35.382	-0.262	0.140
-172.939	-68.480	0.063	-0.024
-171.925	141.703	0.176	-0.230
-170.910	-99.206	0.223	-0.056
-169.896	-200.000	-0.001	0.209
-168.881	-92.651	-0.165	-0.046
-167.866	-154.067	0.123	-0.008
-166.852	440.644	0.120	0.258
-165.837	437.308	-0.146	-0.314
-164.823	114.589	0.219	-0.263
-163.808	-200.000	-0.044	0.259
-162.793	-200.000	0.008	0.088
-161.779	-66.624	-0.224	0.087
-160.764	-200.000	0.265	-0.001
-159.750	149.146	0.111	-0.148
-158.735	27.597	-0.218	-0.181
-157.720	306.296	0.036	-0.065
-156.706	-200.000	-0.006	0.196
-155.691	78.245	-0.021	0.022
-154.677	-69.548	-0.236	-0.089
-153.662	90.077	-0.247	0.272
-152.647	426.191	0.128	-0.271
-151.633	-10.906	-0.395	0.256
-150.618	127.596	0.126	-0.157
-149.604	-60.188	-0.268	0.112
-148.589	-200.000	-0.045	0.282
-147.574	-58.812	-0.148	0.063
-146.560	-200.000	-0.035	0.437
-145.545	117.131	-0.151	0.182
-144.531	30.792	-0.297	0.250
-143.516	-63.647	0.422	0.170
-142.502	-139.853	-0.273	-0.028
-141.487	15.776	-0.286	0.221
-140.472	2.231	-0.158	-0.112
-139.458	-106.960	0.450	-0.098
-138.443	-56.583	-0.185	0.080
-137.429	800.000	0.061	-0.167
-136.414	-200.000	-0.013	0.087
-135.399	-91.464	-0.102	-0.029
-134.385	-49.046	0.059	0.028
-133.370	-71.224	0.341	-0.126
-132.356	-107.431	0.568	0.122
-131.341	-11.454	-0.261	-0.169
-130.326	100.752	-0.070	0.080
-129.312	-34.669	0.322	0.173
-128.297	-79.019	-0.139	-0.046
-127.283	-76.230	-0.267	0.092
-126.268	-200.000	-0.003	-0.069
-125.253	-145.447	-0.338	-0.030
-124.239	-200.000	-0.073	0.321
-123.224	-101.943	0.135	0.032
-122.210	591.505	0.082	-0.200
-121.195	-90.653	-0.134	-0.038
