DTS Sentinel unit serial number:	SN413079Multiplexer serial number:	ORYXHardware model number:	OX4-SRSoftware version number:	ORYX F/W v4.00 Oryx Data Collector v3.7.2.0data status	okinstallation	princeton_trtdifferential loss correction	single-endedforward channel	channel 2reverse channel	N/Adate	2019/09/10time	23:01:11forward acquisition time	60.00reverse acquisition time	0.00gamma	496.2192k internal	0.2330k external	0.2330temperature offset calibration	0.9944default loss term (dB/km)	0.3790temperature slope calibration	1.0000multiplexer offset coefficient	1.0000multiplexer slope coefficient	1.0000fibre end	0.00T internal ref (°C)	30.03T ext. ref 1 (°C)	-0.31T ext. ref 2 (°C)	23.49length (m)	temperature (°C)	Stokes	anti-Stokes-747.200	-21.804	-0.245	-0.150
-746.185	229.800	-0.038	0.063
-745.171	800.000	0.093	0.302
-744.156	-165.585	-0.128	-0.006
-743.142	-167.012	-0.195	0.008
-742.127	472.185	-0.039	0.089
-741.112	-200.000	-0.021	-0.140
-740.098	23.812	-0.049	-0.041
-739.083	64.960	0.178	-0.181
-738.069	-144.137	-0.151	-0.014
-737.054	625.683	-0.108	0.273
-736.039	-32.769	-0.208	-0.117
-735.025	-200.000	-0.016	0.144
-734.010	-200.000	0.007	-0.191
-732.996	800.000	0.079	-0.342
-731.981	328.784	0.140	-0.272
-730.966	12.442	-0.183	0.142
-729.952	248.779	0.116	-0.197
-728.937	286.103	-0.157	0.285
-727.923	174.176	-0.119	-0.172
-726.908	130.171	0.120	-0.154
-725.894	-53.404	-0.249	-0.115
-724.879	-116.161	-0.325	0.061
-723.864	87.295	-0.140	0.155
-722.850	-30.730	0.184	0.105
-721.835	5.251	0.008	0.006
-720.821	800.000	-0.043	-0.152
-719.806	-11.143	-0.095	0.063
-718.791	-200.000	0.007	-0.199
-717.777	-174.012	-0.019	-0.001
-716.762	62.600	0.138	0.139
-715.748	-158.550	-0.112	-0.006
-714.733	-200.000	-0.043	-0.360
-713.718	-200.000	-0.007	0.057
-712.704	-103.699	0.137	-0.032
-711.689	-200.000	0.022	-0.124
-710.675	76.520	-0.124	0.132
-709.660	213.795	-0.104	-0.165
-708.645	187.628	0.182	-0.273
-707.631	-69.745	-0.067	-0.026
-706.616	-38.947	-0.091	-0.048
-705.602	57.494	0.270	0.266
-704.587	147.184	-0.249	0.337
-703.572	-178.955	-0.230	0.005
-702.558	173.160	0.182	-0.263
-701.543	344.466	0.005	-0.010
-700.529	29.483	-0.098	0.083
-699.514	-200.000	-0.094	-0.452
-698.499	172.569	0.089	0.129
-697.485	39.089	-0.316	0.284
-696.470	94.722	0.239	0.273
-695.456	-159.790	0.110	0.006
-694.441	5.942	-0.446	-0.332
-693.426	-149.923	-0.176	0.014
-692.412	193.766	-0.146	-0.223
-691.397	8.662	-0.076	-0.058
-690.383	294.253	-0.202	-0.371
-689.368	146.003	-0.098	-0.133
-688.354	599.365	-0.060	-0.150
-687.339	177.710	0.090	0.132
-686.324	-14.317	0.314	-0.203
-685.310	-126.179	0.296	0.045
-684.295	-58.271	-0.073	-0.032
-683.281	-93.566	0.195	-0.054
-682.266	-87.303	0.108	0.033
-681.251	-200.000	-0.010	-0.068
-680.237	98.324	0.173	0.200
-679.222	-94.178	-0.271	0.074
-678.208	-69.483	-0.170	-0.065
-677.193	-7.389	0.169	-0.115
-676.178	178.391	-0.086	0.126
-675.164	800.000	-0.028	-0.104
-674.149	-199.974	-0.148	0.001
-673.135	-148.738	0.402	0.033
-672.120	-200.000	0.001	-0.227
-671.105	-4.770	-0.270	-0.187
-670.091	-11.558	-0.180	-0.119
-669.076	-128.672	-0.209	-0.030
-668.062	10.452	0.113	0.087
-667.047	19.361	-0.148	-0.119
-666.032	112.135	-0.084	0.101
-665.018	-200.000	-0.004	-0.113
-664.003	-95.143	0.153	0.042
-662.989	7.019	0.099	0.074
-661.974	337.900	0.137	0.268
-660.959	-53.558	-0.124	-0.057
-659.945	13.620	0.208	-0.162
-658.930	800.000	-0.041	0.133
-657.916	-5.782	-0.128	0.088
-656.901	-200.000	-0.020	-0.102
-655.886	226.347	0.069	0.112
-654.872	353.268	-0.119	-0.237
-653.857	-74.878	0.145	0.052
-652.843	-63.481	0.206	0.085
-651.828	-35.023	-0.137	0.075
-650.814	-132.703	-0.062	-0.008
-649.799	199.768	0.063	-0.098
-648.784	-200.000	-0.032	-0.210
-647.770	122.621	0.104	-0.131
-646.755	416.579	-0.015	-0.033
-645.741	-76.671	0.100	0.035
-644.726	603.165	0.077	-0.192
-643.711	-66.499	0.384	-0.153
-642.697	133.266	0.083	0.108
-641.682	-118.305	0.142	0.025
-640.668	-200.000	-0.004	0.060
-639.653	88.683	0.037	-0.042
-638.638	-200.000	-0.008	0.089
-637.624	-200.000	-0.002	0.113
-636.609	-163.350	0.176	-0.008
-635.595	272.061	0.118	-0.208
-634.580	-119.414	-0.306	-0.053
-633.565	-60.020	-0.249	0.107
-632.551	562.418	-0.116	-0.281
-631.536	-132.319	0.179	0.023
-630.522	-200.000	0.013	-0.277
-629.507	-89.795	0.142	-0.042
-628.492	-150.162	-0.141	-0.011
-627.478	-140.812	-0.266	-0.027
-626.463	-200.000	0.008	-0.541
-625.449	-77.786	-0.164	0.057
-624.434	-200.000	-0.006	0.067
-623.419	-128.705	-0.265	-0.038
-622.405	800.000	-0.122	-0.347
-621.390	-105.939	-0.131	0.030
-620.376	676.770	-0.069	-0.179
-619.361	-27.194	0.506	0.295
-618.346	89.981	-0.116	-0.130
-617.332	-200.000	0.010	0.087
-616.317	-117.728	0.082	0.015
-615.303	106.111	0.252	0.298
-614.288	-40.925	0.213	-0.110
-613.273	692.944	0.051	-0.135
-612.259	-113.541	-0.241	-0.047
-611.244	-180.108	-0.196	-0.004
-610.230	-200.000	-0.054	-0.268
-609.215	296.832	0.026	-0.047
-608.201	800.000	0.048	0.155
-607.186	190.205	0.010	-0.015
-606.171	-100.644	-0.109	0.027
-605.157	271.812	-0.151	0.266
-604.142	23.582	-0.160	0.132
-603.128	100.340	-0.030	0.035
-602.113	35.393	-0.167	-0.147
-601.098	173.914	-0.065	0.094
-600.084	-12.696	0.075	0.049
-599.069	165.706	-0.067	-0.096
-598.055	104.377	0.091	-0.107
-597.040	-200.000	-0.009	-0.065
-596.025	-200.000	-0.018	0.241
-595.011	800.000	0.025	0.074
-593.996	34.764	-0.280	0.245
-592.982	249.371	-0.142	-0.241
-591.967	-3.889	-0.079	-0.055
-590.952	-200.000	-0.018	0.161
-589.938	-109.993	-0.175	-0.037
-588.923	-200.000	0.006	-0.271
-587.909	800.000	0.021	-0.069
-586.894	57.389	-0.141	-0.138
-585.879	-28.872	0.078	-0.045
-584.865	714.693	-0.074	0.195
-583.850	-200.000	0.025	0.135
-582.836	-135.831	0.065	-0.008
-581.821	58.806	-0.055	-0.054
-580.806	-106.398	-0.310	-0.069
-579.792	-36.325	0.188	0.101
-578.777	45.543	0.230	-0.212
-577.763	-110.543	-0.139	0.029
-576.748	493.643	-0.067	0.154
-575.733	800.000	0.140	-0.406
-574.719	-2.036	0.101	0.071
-573.704	-153.408	-0.179	-0.012
-572.690	31.406	0.107	0.091
-571.675	-141.019	0.085	-0.009
-570.661	-200.000	0.030	0.165
-569.646	526.574	-0.037	0.087
-568.631	-200.000	0.026	0.236
-567.617	-77.415	0.227	-0.079
-566.602	82.260	0.170	-0.184
-565.588	800.000	0.055	-0.163
-564.573	4.636	-0.206	0.151
-563.558	-200.000	-0.210	-0.001
-562.544	-13.363	0.165	0.107
-561.529	288.787	0.119	0.216
-560.515	-84.268	0.349	0.110
-559.500	-200.000	-0.001	-0.143
-558.485	-81.789	-0.092	0.030
-557.471	173.558	0.083	-0.120
-556.456	-163.601	-0.358	0.017
-555.442	-7.190	-0.180	0.122
-554.427	-3.948	0.050	-0.035
-553.412	-132.590	-0.065	-0.008
-552.398	-143.338	0.319	0.031
-551.383	125.586	0.194	0.245
-550.369	-133.403	-0.089	0.011
-549.354	800.000	0.076	0.260
-548.339	23.117	0.097	0.079
-547.325	-200.000	0.015	0.129
-546.310	784.966	0.035	-0.097
-545.296	-200.000	-0.042	0.306
-544.281	800.000	-0.057	-0.171
-543.266	-50.921	-0.267	0.125
-542.252	-97.249	-0.224	0.058
-541.237	-200.000	0.000	-0.002
-540.223	-200.000	0.009	0.138
-539.208	-35.262	-0.093	-0.051
-538.193	-69.457	0.257	-0.098
-537.179	-59.709	0.267	-0.114
-536.164	145.076	-0.113	-0.151
-535.150	43.235	0.215	0.196
-534.135	-200.000	0.046	0.254
-533.121	374.070	0.087	-0.177
-532.106	-123.971	-0.221	0.035
-531.091	161.174	0.217	-0.303
-530.077	201.243	-0.146	-0.224
-529.062	318.688	-0.104	0.196
-528.048	-33.861	0.084	0.046
-527.033	96.200	0.172	-0.196
-526.018	87.828	0.199	-0.221
-525.004	-83.759	-0.293	-0.093
-523.989	3.470	-0.183	-0.133
-522.975	673.140	-0.045	-0.117
-521.960	800.000	-0.061	0.201
-520.945	324.570	0.092	-0.175
-519.931	129.305	-0.137	0.174
-518.916	154.974	-0.017	0.023
-517.902	-85.700	0.303	-0.094
-516.887	-124.981	-0.332	-0.051
-515.872	171.533	0.207	-0.296
-514.858	275.039	0.144	-0.255
-513.843	-155.264	-0.206	-0.013
-512.829	-68.149	0.100	-0.039
-511.814	-157.631	-0.266	0.016
-510.799	-108.220	-0.060	0.013
-509.785	393.407	-0.038	-0.078
-508.770	103.544	-0.350	-0.409
-507.756	88.046	-0.197	0.218
-506.741	-119.992	-0.257	0.044
-505.726	-77.239	0.161	-0.056
-504.712	-67.645	-0.399	0.156
-503.697	-200.000	-0.022	-0.153
-502.683	-94.347	-0.092	0.025
-501.668	370.047	0.019	0.039
-500.653	800.000	-0.103	0.284
-499.639	-200.000	0.003	0.108
-498.624	-166.917	0.539	-0.022
-497.610	-8.324	0.328	0.220
-496.595	-88.044	-0.287	-0.086
-495.581	255.852	-0.153	-0.262
-494.566	614.441	-0.060	-0.149
-493.551	395.427	0.109	-0.227
-492.537	-42.059	0.076	0.039
-491.522	-19.710	0.164	0.101
-490.508	800.000	0.072	0.280
-489.493	88.005	-0.082	-0.090
-488.478	627.424	0.064	0.161
-487.464	282.124	-0.155	-0.277
-486.449	-162.587	0.283	-0.014
-485.435	168.902	0.166	-0.236
-484.420	800.000	0.040	0.165
-483.405	-56.779	-0.129	-0.057
-482.391	800.000	0.114	0.341
-481.376	290.841	0.054	-0.097
-480.362	-55.606	0.138	0.062
-479.347	-2.319	-0.208	0.145
-478.332	-200.000	-0.023	-0.160
-477.318	386.570	-0.104	-0.214
-476.303	287.798	-0.065	-0.117
-475.289	-165.563	-0.335	0.015
-474.274	15.875	-0.152	0.119
-473.259	800.000	-0.090	0.303
-472.245	168.567	-0.090	-0.127
-471.230	-72.970	0.393	0.144
-470.216	-200.000	-0.032	0.353
-469.201	-200.000	0.050	-0.263
-468.186	-200.000	0.030	-0.302
-467.172	-118.531	-0.122	-0.022
-466.157	-62.527	-0.038	0.016
-465.143	-200.000	-0.001	0.095
-464.128	-68.260	-0.103	0.040
-463.113	-148.732	0.345	0.028
-462.099	-76.023	0.391	0.138
-461.084	-70.364	-0.181	0.068
-460.070	242.117	-0.036	0.060
-459.055	-40.810	0.196	0.101
-458.040	-58.497	-0.259	0.112
-457.026	149.207	0.204	0.274
-456.011	-200.000	-0.054	0.241
-454.997	128.244	0.055	0.070
-453.982	800.000	-0.080	0.237
-452.968	2.514	0.281	0.202
-451.953	-106.722	-0.497	-0.110
-450.938	-200.000	0.009	-0.111
-449.924	-58.404	0.057	0.024
-448.909	-200.000	-0.001	0.243
-447.895	-73.915	0.067	0.024
-446.880	37.377	0.302	0.266
-445.865	268.253	-0.084	-0.147
-444.851	-200.000	0.007	-0.214
-443.836	800.000	0.048	-0.180
-442.822	-200.000	0.049	-0.396
-441.807	120.162	-0.133	-0.164
-440.792	-74.907	0.076	0.027
-439.778	87.956	-0.038	-0.042
-438.763	613.167	0.127	-0.317
-437.749	-134.400	-0.247	-0.030
-436.734	253.429	-0.023	0.039
-435.719	-37.216	-0.198	-0.105
-434.705	129.552	-0.246	0.313
-433.690	62.444	-0.223	0.222
-432.676	155.495	0.114	-0.157
-431.661	-2.631	0.112	-0.078
-430.646	-200.000	-0.046	-0.318
-429.632	-200.000	0.021	0.216
-428.617	800.000	0.070	-0.242
-427.603	410.187	0.119	0.251
-426.588	-200.000	-0.028	0.525
-425.573	800.000	0.073	0.238
-424.559	295.761	0.113	0.206
-423.544	-43.157	0.076	-0.038
-422.530	169.975	0.096	-0.136
-421.515	-112.029	0.518	-0.104
-420.500	228.564	0.184	-0.299
-419.486	33.676	0.125	-0.108
-418.471	-56.700	-0.331	-0.145
-417.457	-200.000	-0.003	0.295
-416.442	800.000	-0.013	-0.054
-415.428	-54.303	0.200	-0.090
-414.413	800.000	-0.093	-0.383
-413.398	-200.000	0.021	-0.111
-412.384	-97.605	-0.082	-0.021
-411.369	-200.000	0.020	0.244
-410.355	800.000	-0.071	0.210
-409.340	-80.268	-0.077	0.026
-408.325	-100.949	-0.394	0.096
-407.311	272.733	-0.103	-0.181
-406.296	-200.000	0.068	-0.382
-405.282	622.967	0.140	-0.350
-404.267	127.585	0.337	0.426
-403.252	316.243	0.066	0.124
-402.238	-131.225	-0.311	-0.041
-401.223	36.414	-0.156	-0.137
-400.209	800.000	-0.054	-0.230
-399.194	9.511	-0.060	0.045
-398.179	-200.000	-0.051	-0.331
-397.165	-200.000	-0.034	-0.152
-396.150	800.000	-0.023	0.068
-395.136	5.622	0.268	0.197
-394.121	-53.345	0.278	0.127
-393.106	112.915	0.032	0.038
-392.092	-25.308	0.168	0.099
-391.077	-37.706	0.322	-0.170
-390.063	-200.000	0.002	-0.388
-389.048	-130.620	-0.072	0.010
-388.033	-105.024	-0.132	0.030
-387.019	-169.964	-0.233	-0.008
-386.004	-119.512	-0.183	-0.031
-384.990	800.000	-0.057	0.181
-383.975	-200.000	0.056	0.280
-382.960	-25.961	0.133	0.078
-381.946	35.931	0.113	0.098
-380.931	800.000	-0.045	0.185
-379.917	141.550	0.148	-0.194
-378.902	-200.000	-0.000	-0.189
-377.888	-72.461	-0.156	0.057
-376.873	454.413	-0.103	0.227
-375.858	800.000	0.011	-0.040
-374.844	297.541	0.125	0.228
-373.829	199.175	0.185	0.282
-372.815	29.156	0.249	0.209
-371.800	85.670	0.186	-0.203
-370.785	-94.376	0.034	-0.009
-369.771	164.249	0.152	0.213
-368.756	-102.979	-0.257	0.061
-367.742	-200.000	-0.027	-0.164
-366.727	-200.000	0.004	-0.144
-365.712	162.783	0.127	-0.176
-364.698	-171.278	-0.152	0.005
-363.683	-11.280	-0.170	0.111
-362.669	120.915	0.305	-0.376
-361.654	-73.373	-0.415	-0.151
-360.639	-81.374	0.223	0.073
-359.625	385.521	-0.089	-0.181
-358.610	-50.294	0.184	-0.086
-357.596	-107.837	-0.212	-0.046
-356.581	322.293	-0.038	-0.071
-355.566	800.000	0.064	0.252
-354.552	8.356	0.174	-0.129
-353.537	-27.725	-0.288	0.166
-352.523	-102.712	0.275	-0.065
-351.508	800.000	-0.094	0.264
-350.493	800.000	-0.104	0.384
-349.479	-29.914	-0.166	-0.094
-348.464	-200.000	-0.011	-0.050
-347.450	-21.634	0.048	0.029
-346.435	-181.486	-0.351	-0.007
-345.420	-200.000	0.008	0.424
-344.406	-140.591	-0.143	-0.015
-343.391	-163.179	0.202	-0.010
-342.377	48.262	0.272	-0.252
-341.362	472.704	0.081	-0.182
-340.348	800.000	0.098	-0.283
-339.333	-18.454	0.347	0.215
-338.318	-200.000	0.060	0.282
-337.304	581.886	-0.014	-0.034
-336.289	-200.000	0.049	0.370
-335.275	800.000	-0.045	-0.181
-334.260	596.733	-0.108	-0.264
-333.245	96.600	-0.183	0.208
-332.231	-13.769	0.199	-0.128
-331.216	-87.167	0.361	-0.109
-330.202	-113.134	-0.280	0.055
-329.187	800.000	0.080	-0.277
-328.172	203.759	-0.041	-0.063
-327.158	-9.593	0.089	-0.059
-326.143	-200.000	0.008	-0.130
-325.129	-42.738	-0.104	0.052
-324.114	258.502	0.157	0.268
-323.099	-200.000	0.020	0.251
-322.085	-200.000	-0.039	0.227
-321.070	95.923	-0.162	-0.183
-320.056	33.044	0.205	-0.176
-319.041	-55.509	-0.225	-0.100
-318.026	-129.937	-0.164	-0.022
-317.012	-66.826	0.226	0.089
-315.997	414.531	-0.078	-0.164
-314.983	-70.540	-0.296	0.111
-313.968	52.688	-0.101	0.096
-312.953	-104.919	0.151	-0.034
-311.939	-75.849	0.181	0.063
-310.924	-147.232	-0.144	0.012
-309.910	-200.000	0.003	0.232
-308.895	68.444	0.080	-0.081
-307.880	137.252	-0.100	-0.130
-306.866	800.000	0.115	0.331
-305.851	17.606	0.278	-0.219
-304.837	5.525	-0.213	0.156
-303.822	-48.246	0.323	0.154
-302.807	581.486	0.050	-0.121
-301.793	-120.356	-0.269	0.045
-300.778	-200.000	-0.093	0.456
-299.764	138.712	-0.014	0.019
-298.749	-38.939	-0.120	0.063
-297.735	-98.402	-0.183	0.046
-296.720	-200.000	0.062	-0.333
-295.705	-61.631	0.109	0.045
-294.691	601.356	0.033	0.081
-293.676	17.513	-0.058	-0.046
-292.662	-65.648	0.288	-0.114
-291.647	7.644	-0.202	-0.150
-290.632	541.504	-0.112	0.264
-289.618	-129.304	0.249	0.034
-288.603	112.132	-0.050	-0.060
-287.589	248.975	0.093	-0.155
-286.574	-200.000	0.002	0.010
-285.559	529.523	0.156	0.363
-284.545	-123.966	0.567	0.088
-283.530	-22.103	-0.099	-0.059
-282.516	102.234	-0.058	0.066
-281.501	-200.000	-0.015	0.131
-280.486	40.632	-0.065	-0.058
-279.472	169.995	0.006	-0.009
-278.457	-82.646	0.193	0.062
-277.443	459.139	0.137	-0.301
-276.428	163.737	-0.165	-0.230
-275.413	-28.136	-0.264	-0.151
-274.399	399.543	0.087	-0.180
-273.384	261.072	-0.058	0.100
-272.370	-26.729	0.509	-0.294
-271.355	-97.009	0.272	0.070
-270.340	-0.093	-0.114	-0.081
-269.326	238.396	-0.035	0.058
-268.311	-13.151	-0.205	-0.131
-267.297	800.000	0.024	-0.078
-266.282	603.490	0.057	0.139
-265.267	-93.997	-0.179	-0.049
-264.253	19.178	-0.364	-0.288
-263.238	-200.000	0.041	-0.307
-262.224	-125.384	-0.077	-0.012
-261.209	379.416	0.013	-0.026
-260.195	-100.783	0.034	0.008
-259.180	-155.048	-0.161	0.010
-258.165	42.155	-0.140	0.125
-257.151	582.520	0.141	0.341
-256.136	-200.000	-0.016	-0.260
-255.122	-155.040	-0.276	-0.018
-254.107	128.048	0.031	-0.038
-253.092	46.764	-0.250	0.229
-252.078	70.732	-0.088	0.090
-251.063	98.771	0.129	0.147
-250.049	800.000	-0.041	0.174
-249.034	-115.505	0.404	0.075
-248.019	-74.264	0.421	-0.150
-247.005	-15.583	-0.025	0.016
-245.990	-101.005	-0.314	0.076
-244.976	56.275	-0.074	-0.071
-243.961	-81.047	0.348	-0.114
-242.946	50.319	-0.217	-0.203
-241.932	455.272	0.125	0.275
-240.917	-123.511	0.156	-0.024
-239.903	-112.576	-0.253	-0.050
-238.888	800.000	-0.084	0.320
-237.873	148.409	0.057	-0.077
-236.859	-29.414	0.290	-0.164
-235.844	11.025	-0.107	-0.081
-234.830	-52.270	0.291	-0.133
-233.815	-87.066	-0.276	-0.083
-232.800	-107.782	-0.341	-0.073
-231.786	-65.956	-0.116	-0.046
-230.771	-176.899	-0.037	0.001
-229.757	121.312	-0.062	0.076
-228.742	800.000	-0.081	0.234
-227.727	7.961	-0.241	0.178
-226.713	800.000	0.035	0.096
-225.698	516.822	0.080	0.184
-224.684	-200.000	0.007	0.255
-223.669	690.835	-0.117	0.301
-222.655	-23.057	0.160	0.095
-221.640	59.273	-0.295	0.286
-220.625	-71.244	0.099	0.037
-219.611	60.943	0.119	-0.116
-218.596	87.349	-0.390	-0.426
-217.582	800.000	0.050	-0.185
-216.567	-22.364	0.124	0.074
-215.552	-0.248	0.181	-0.127
-214.538	34.293	0.154	-0.132
-213.523	58.690	-0.178	-0.173
-212.509	-45.225	0.126	-0.062
-211.494	-143.803	-0.242	0.023
-210.479	-200.000	0.092	0.446
-209.465	-73.740	0.120	0.043
-208.450	76.701	-0.158	-0.165
-207.436	346.739	0.100	0.193
-206.421	246.656	-0.102	0.170
-205.406	135.659	-0.116	-0.149
-204.392	-44.723	0.209	0.103
-203.377	-72.534	0.138	0.050
-202.363	254.151	-0.136	0.229
-201.348	-61.646	-0.062	0.026
-200.333	-200.000	-0.031	0.271
-199.319	-163.796	0.337	-0.016
-198.304	432.756	-0.101	0.216
-197.290	-200.000	0.053	0.255
-196.275	-200.000	-0.055	-0.262
-195.260	317.521	-0.042	0.078
-194.246	12.882	0.238	0.181
-193.231	69.894	-0.056	-0.057
-192.217	-200.000	0.001	0.244
-191.202	190.437	-0.099	-0.146
-190.187	800.000	-0.090	-0.327
-189.173	195.589	-0.197	0.295
-188.158	-20.321	-0.170	0.103
-187.144	-116.437	0.183	-0.033
-186.129	800.000	0.096	-0.348
-185.114	164.435	-0.143	0.198
-184.100	414.335	0.158	0.332
-183.085	-143.461	-0.091	-0.009
-182.071	319.364	0.187	-0.350
-181.056	-200.000	0.019	0.272
-180.042	-200.000	0.021	-0.108
-179.027	671.815	-0.034	-0.087
-178.012	105.798	0.204	-0.238
-176.998	333.547	0.101	-0.193
-175.983	341.230	0.074	-0.142
-174.969	61.438	0.093	-0.091
-173.954	-77.953	-0.388	0.132
-172.939	800.000	-0.055	-0.183
-171.925	-57.264	-0.224	0.097
-170.910	800.000	-0.023	-0.063
-169.896	387.476	0.044	0.089
-168.881	-74.629	-0.306	0.108
-167.866	233.484	0.097	0.156
-166.852	-54.655	-0.042	0.019
-165.837	-102.333	0.198	0.047
-164.823	-200.000	-0.008	-0.116
-163.808	155.905	0.096	-0.130
-162.793	-11.416	-0.139	0.090
-161.779	50.250	-0.269	0.251
-160.764	-17.869	0.114	-0.071
-159.750	3.513	-0.147	0.105
-158.735	800.000	0.035	-0.102
-157.720	373.307	0.159	-0.317
-156.706	31.539	-0.118	0.100
-155.691	148.488	0.099	-0.132
-154.677	28.811	0.054	-0.045
-153.662	-200.000	0.031	-0.134
-152.647	2.930	0.021	0.015
-151.633	54.322	0.083	0.079
-150.618	-200.000	0.017	0.198
-149.604	-200.000	0.031	-0.135
-148.589	113.104	0.169	-0.202
-147.574	-102.270	-0.200	0.047
-146.560	298.185	-0.109	-0.196
-145.545	3.755	0.041	-0.029
-144.531	126.663	0.115	-0.144
-143.516	-63.952	0.077	0.031
-142.502	798.986	-0.051	0.139
-141.487	800.000	0.045	-0.124
-140.472	-65.802	-0.603	0.237
-139.458	-165.906	0.365	-0.015
-138.443	-113.567	-0.167	-0.032
-137.429	-14.302	0.319	0.202
-136.414	211.530	0.181	-0.280
-135.399	-200.000	-0.039	-0.286
-134.385	-200.000	0.051	0.221
-133.370	-71.880	-0.078	-0.028
-132.356	-200.000	-0.010	-0.271
-131.341	223.134	-0.077	-0.121
-130.326	-200.000	0.001	0.014
-129.312	800.000	-0.023	-0.063
-128.297	38.762	-0.204	0.179
-127.283	-139.682	0.276	-0.029
-126.268	158.875	-0.227	-0.309
-125.253	153.668	0.191	0.257
-124.239	-67.315	0.103	-0.040
-123.224	-50.910	-0.090	-0.041
-122.210	305.045	-0.132	0.241
