DTS Sentinel unit serial number:	SN413079Multiplexer serial number:	ORYXHardware model number:	OX4-SRSoftware version number:	ORYX F/W v4.00 Oryx Data Collector v3.7.2.0data status	okinstallation	princeton_trtdifferential loss correction	single-endedforward channel	channel 2reverse channel	N/Adate	2019/09/19time	10:03:35forward acquisition time	60.00reverse acquisition time	0.00gamma	496.2192k internal	0.2345k external	0.2345temperature offset calibration	1.0004default loss term (dB/km)	0.3790temperature slope calibration	1.0000multiplexer offset coefficient	1.0000multiplexer slope coefficient	1.0000fibre end	0.00T internal ref (°C)	23.81T ext. ref 1 (°C)	0.68T ext. ref 2 (°C)	19.59length (m)	temperature (°C)	Stokes	anti-Stokes-747.200	328.305	-0.016	0.031
-746.185	251.860	-0.158	0.269
-745.171	263.522	-0.094	0.163
-744.156	800.000	-0.122	0.359
-743.142	508.304	0.259	0.601
-742.127	-75.240	-0.217	0.077
-741.112	44.474	0.212	0.194
-740.098	-200.000	-0.037	0.166
-739.083	-8.671	0.245	0.165
-738.069	-200.000	-0.092	0.591
-737.054	66.826	-0.126	0.128
-736.039	675.008	0.060	0.155
-735.025	800.000	-0.064	0.192
-734.010	800.000	-0.134	-0.462
-732.996	800.000	0.201	-0.601
-731.981	370.984	-0.097	-0.197
-730.966	-126.931	-0.356	0.052
-729.952	-200.000	0.056	-0.317
-728.937	-143.903	-0.270	-0.025
-727.923	11.618	-0.084	0.065
-726.908	800.000	-0.105	0.374
-725.894	60.601	-0.102	0.101
-724.879	-113.953	-0.191	0.037
-723.864	-5.866	-0.207	-0.142
-722.850	-146.102	0.393	-0.035
-721.835	311.037	-0.098	-0.183
-720.821	800.000	-0.034	-0.118
-719.806	800.000	0.051	0.214
-718.791	-108.576	-0.089	0.019
-717.777	-11.644	0.089	0.058
-716.762	-31.562	0.370	-0.208
-715.748	-23.474	0.206	-0.124
-714.733	-200.000	-0.002	0.164
-713.718	-23.241	0.029	-0.018
-712.704	-58.766	0.187	-0.081
-711.689	33.403	-0.118	0.103
-710.675	713.696	-0.051	0.134
-709.660	22.231	0.337	0.275
-708.645	-115.273	-0.307	-0.058
-707.631	800.000	-0.067	-0.201
-706.616	100.676	0.057	0.066
-705.602	-200.000	-0.021	0.172
-704.587	134.877	0.151	-0.196
-703.572	304.326	0.086	-0.159
-702.558	28.888	-0.318	-0.269
-701.543	179.632	0.256	-0.374
-700.529	144.501	-0.005	0.007
-699.514	-200.000	0.009	-0.055
-698.499	-179.108	-0.071	-0.002
-697.485	800.000	0.059	-0.185
-696.470	-176.993	0.273	0.007
-695.456	-200.000	-0.025	-0.118
-694.441	-200.000	-0.028	0.155
-693.426	-89.423	-0.183	-0.054
-692.412	-200.000	-0.008	-0.344
-691.397	130.456	0.078	0.100
-690.383	-160.436	0.189	0.010
-689.368	90.068	0.175	-0.196
-688.354	314.901	0.139	-0.261
-687.339	-200.000	0.059	-0.281
-686.324	-66.147	0.074	-0.030
-685.310	-200.000	-0.030	0.454
-684.295	-77.689	0.205	0.071
-683.281	-72.983	-0.240	0.088
-682.266	73.356	-0.113	-0.118
-681.251	800.000	0.047	0.186
-680.237	79.062	-0.062	-0.067
-679.222	-69.669	-0.224	0.085
-678.208	-10.887	-0.040	0.026
-677.193	-200.000	0.017	-0.404
-676.178	46.596	-0.175	-0.162
-675.164	-45.906	0.056	-0.028
-674.149	22.242	-0.208	0.169
-673.135	-103.034	-0.471	-0.111
-672.120	-113.734	0.307	0.060
-671.105	-200.000	-0.008	-0.124
-670.091	107.026	-0.083	0.098
-669.076	-5.414	-0.120	-0.082
-668.062	-18.239	0.134	-0.083
-667.047	2.438	-0.174	0.125
-666.032	-200.000	0.001	0.128
-665.018	210.900	-0.227	0.355
-664.003	800.000	-0.102	-0.299
-662.989	182.512	-0.019	-0.028
-661.974	-200.000	-0.008	0.044
-660.959	-200.000	-0.049	0.218
-659.945	38.717	0.060	0.054
-658.930	-35.189	0.038	-0.021
-657.916	208.494	-0.096	-0.150
-656.901	800.000	0.065	-0.194
-655.886	194.527	-0.200	0.302
-654.872	-73.980	-0.149	0.054
-653.857	78.647	-0.111	0.119
-652.843	-200.000	-0.001	-0.173
-651.828	3.116	-0.129	0.093
-650.814	-59.862	0.299	-0.127
-649.799	338.877	0.258	-0.501
-648.784	429.927	-0.178	-0.384
-647.770	-20.055	0.296	-0.182
-646.755	-200.000	0.021	-0.331
-645.741	-200.000	0.002	0.094
-644.726	179.403	-0.099	0.144
-643.711	558.351	-0.110	0.265
-642.697	-200.000	0.055	0.416
-641.682	-90.569	0.307	-0.088
-640.668	16.006	-0.237	-0.186
-639.653	-200.000	-0.389	0.002
-638.638	520.400	-0.027	0.064
-637.624	-65.928	-0.323	0.128
-636.609	76.214	0.140	-0.148
-635.595	82.520	0.100	0.109
-634.580	69.546	-0.105	-0.108
-633.565	-160.883	-0.115	-0.006
-632.551	800.000	0.080	-0.269
-631.536	260.147	-0.195	-0.335
-630.522	800.000	-0.067	0.237
-629.507	-65.608	0.211	0.084
-628.492	771.524	-0.143	-0.388
-627.478	32.275	-0.109	-0.094
-626.463	520.344	0.073	-0.170
-625.449	-200.000	-0.021	0.482
-624.434	-19.060	0.043	-0.026
-623.419	547.264	-0.042	0.101
-622.405	-172.798	0.327	-0.010
-621.390	-183.235	0.485	0.008
-620.376	-98.895	-0.139	-0.035
-619.361	-185.663	0.249	0.004
-618.346	345.183	0.198	-0.386
-617.332	29.447	-0.245	-0.207
-616.317	-200.000	-0.005	0.153
-615.303	-200.000	-0.066	0.382
-614.288	332.849	0.193	-0.370
-613.273	800.000	-0.034	-0.130
-612.259	-166.719	0.207	0.009
-611.244	179.635	-0.079	-0.115
-610.230	71.619	-0.177	0.183
-609.215	82.619	-0.180	0.195
-608.201	109.059	-0.147	-0.175
-607.186	-62.092	0.305	-0.127
-606.171	800.000	-0.059	-0.211
-605.157	469.408	-0.025	0.056
-604.142	-106.497	-0.060	0.013
-603.128	434.626	0.058	-0.126
-602.113	-200.000	-0.009	-0.363
-601.098	309.414	-0.177	0.329
-600.084	125.266	-0.120	0.150
-599.069	181.630	-0.070	-0.102
-598.055	-200.000	-0.015	-0.283
-597.040	800.000	0.154	0.470
-596.025	-21.527	-0.212	-0.128
-595.011	-11.861	-0.223	-0.145
-593.996	-200.000	0.016	-0.276
-592.982	-164.956	0.163	-0.007
-591.967	244.436	-0.022	0.036
-590.952	-121.788	0.268	0.044
-589.938	167.566	-0.107	0.151
-588.923	800.000	-0.049	0.212
-587.909	800.000	-0.123	0.354
-586.894	800.000	0.038	-0.144
-585.879	66.241	-0.130	0.131
-584.865	-9.805	0.040	-0.026
-583.850	379.104	-0.089	-0.181
-582.836	-140.620	0.085	0.009
-581.821	191.752	-0.120	-0.179
-580.806	-200.000	-0.034	0.368
-579.792	-200.000	0.055	-0.300
-578.777	-200.000	0.003	-0.036
-577.763	260.674	0.043	0.074
-576.748	102.355	0.063	0.073
-575.733	-78.873	0.356	-0.120
-574.719	-52.061	-0.166	-0.077
-573.704	-200.000	-0.054	-0.384
-572.690	-138.131	-0.080	0.009
-571.675	-71.731	0.247	0.092
-570.661	47.385	-0.206	-0.191
-569.646	-200.000	0.023	0.115
-568.631	-34.405	0.072	-0.039
-567.617	-114.876	-0.290	-0.055
-566.602	-200.000	-0.028	-0.270
-565.588	-163.954	-0.306	0.014
-564.573	-126.270	0.119	-0.018
-563.558	5.314	-0.107	-0.078
-562.544	144.455	0.134	-0.178
-561.529	-200.000	-0.041	0.202
-560.515	-42.930	0.114	-0.058
-559.500	630.584	-0.139	-0.349
-558.485	800.000	0.074	0.285
-557.471	800.000	0.068	0.240
-556.456	-101.601	-0.412	0.099
-555.442	800.000	0.024	-0.075
-554.427	-85.853	-0.379	-0.117
-553.412	649.581	-0.020	-0.052
-552.398	-109.017	-0.242	-0.051
-551.383	225.294	-0.080	0.128
-550.369	-200.000	0.023	-0.110
-549.354	310.081	0.111	-0.205
-548.339	127.232	0.197	0.248
-547.325	9.984	-0.332	-0.250
-546.310	659.226	-0.159	-0.407
-545.296	607.055	0.083	-0.206
-544.281	174.667	-0.081	0.117
-543.266	78.376	0.123	-0.130
-542.252	-43.145	-0.467	-0.235
-541.237	4.950	-0.283	-0.206
-540.223	-200.000	0.031	0.328
-539.208	1.277	-0.274	0.195
-538.193	85.303	-0.205	0.223
-537.179	30.227	0.083	-0.070
-536.164	-123.526	0.192	-0.030
-535.150	-143.746	0.217	-0.020
-534.135	89.176	0.151	0.167
-533.121	55.164	0.344	-0.330
-532.106	96.602	-0.183	-0.208
-531.091	23.924	0.301	-0.246
-530.077	-75.481	0.175	-0.062
-529.062	800.000	0.114	0.342
-528.048	-200.000	0.020	-0.135
-527.033	-137.624	0.287	-0.032
-526.018	800.000	-0.092	0.329
-525.004	-107.335	-0.116	0.025
-523.989	26.804	-0.137	0.113
-522.975	81.603	-0.432	0.464
-521.960	-158.601	0.306	-0.017
-520.945	-16.873	0.093	0.058
-519.931	-200.000	0.069	0.323
-518.916	-200.000	-0.004	0.072
-517.902	-27.987	-0.137	-0.079
-516.887	-200.000	0.024	-0.196
-515.872	-43.468	-0.156	-0.078
-514.858	63.972	-0.174	0.173
-513.843	98.476	-0.051	-0.058
-512.829	-59.280	0.034	-0.015
-511.814	67.899	0.249	0.253
-510.799	800.000	0.024	0.096
-509.785	-77.420	-0.008	0.003
-508.770	-68.855	0.198	-0.076
-507.756	-142.592	0.033	-0.003
-506.741	-200.000	-0.063	0.282
-505.726	-102.739	0.048	-0.011
-504.712	-200.000	0.013	0.077
-503.697	84.888	-0.439	0.477
-502.683	54.835	0.174	-0.167
-501.668	8.282	0.104	-0.078
-500.653	52.179	-0.135	-0.128
-499.639	232.650	0.085	-0.138
-498.624	-21.796	0.464	-0.280
-497.610	528.539	-0.181	-0.424
-496.595	-200.000	-0.029	-0.170
-495.581	800.000	0.075	0.235
-494.566	-13.524	0.188	0.121
-493.551	-66.210	0.333	0.131
-492.537	-105.924	0.032	-0.007
-491.522	151.205	0.080	0.108
-490.508	-63.098	-0.179	0.073
-489.493	-200.000	-0.001	0.062
-488.478	-101.280	0.509	-0.123
-487.464	60.692	-0.070	0.068
-486.449	-69.227	-0.378	-0.144
-485.435	-30.345	0.273	-0.153
-484.420	138.662	-0.032	0.041
-483.405	-200.000	0.004	-0.054
-482.391	221.093	-0.114	-0.181
-481.376	-87.940	-0.021	0.006
-480.362	58.873	-0.070	0.068
-479.347	-27.246	-0.362	0.209
-478.332	142.521	0.156	0.205
-477.318	-151.855	-0.168	0.012
-476.303	-22.961	-0.074	-0.044
-475.289	800.000	0.126	-0.405
-474.274	-200.000	0.011	0.077
-473.259	800.000	-0.060	-0.188
-472.245	-19.051	-0.080	0.049
-471.230	330.765	0.180	-0.344
-470.216	3.910	0.038	0.028
-469.201	-135.698	0.397	-0.047
-468.186	-102.284	-0.192	0.046
-467.172	218.156	0.162	-0.256
-466.157	307.548	0.110	-0.203
-465.143	-200.000	0.009	-0.103
-464.128	-200.000	-0.005	-0.108
-463.113	-62.081	-0.404	0.167
-462.099	-115.533	-0.129	0.024
-461.084	478.280	0.142	0.318
-460.070	-200.000	-0.047	-0.264
-459.055	-200.000	-0.032	-0.232
-458.040	535.933	-0.154	0.361
-457.026	-121.670	0.338	-0.055
-456.011	279.061	-0.074	0.130
-454.997	605.075	0.092	-0.227
-453.982	-200.000	0.018	-0.186
-452.968	7.846	-0.388	-0.287
-451.953	-126.664	-0.233	-0.034
-450.938	-134.034	0.297	0.036
-449.924	701.773	-0.198	0.516
-448.909	438.524	-0.139	0.299
-447.895	-133.593	0.162	0.020
-446.880	-26.212	-0.134	0.078
-445.865	-44.372	0.119	-0.059
-444.851	800.000	-0.112	0.423
-443.836	102.172	-0.023	0.027
-442.822	-200.000	-0.012	-0.232
-441.807	-121.447	-0.216	0.036
-440.792	-117.467	-0.172	-0.031
-439.778	-96.312	-0.380	0.099
-438.763	291.092	-0.111	-0.199
-437.749	62.599	0.053	-0.052
-436.734	-200.000	0.019	-0.138
-435.719	-200.000	-0.023	0.314
-434.705	258.327	-0.063	0.107
-433.690	134.225	-0.069	-0.088
-432.676	42.851	-0.085	-0.077
-431.661	16.077	0.118	0.092
-430.646	290.827	-0.100	0.180
-429.632	800.000	-0.022	-0.085
-428.617	-137.173	0.112	0.013
-427.603	-58.874	-0.081	0.034
-426.588	19.362	0.174	0.138
-425.573	-141.158	-0.152	0.015
-424.559	148.900	0.232	0.310
-423.544	-118.830	0.274	0.048
-422.530	17.297	-0.163	0.127
-421.515	-200.000	-0.028	-0.122
-420.500	-51.402	0.257	-0.119
-419.486	-40.588	0.139	-0.071
-418.471	278.248	0.029	0.051
-417.457	-77.066	-0.347	-0.120
-416.442	46.722	-0.102	0.093
-415.428	16.906	-0.185	-0.145
-414.413	60.786	0.243	-0.238
-413.398	800.000	-0.049	0.193
-412.384	71.225	0.124	0.127
-411.369	-75.396	-0.150	0.053
-410.355	449.439	-0.213	0.464
-409.340	260.370	0.079	-0.136
-408.325	427.808	-0.147	-0.313
-407.311	14.739	-0.248	-0.191
-406.296	-142.253	-0.173	-0.017
-405.282	95.114	-0.117	-0.132
-404.267	629.126	0.179	-0.446
-403.252	128.661	0.247	0.311
-402.238	800.000	0.051	0.166
-401.223	-200.000	-0.025	-0.254
-400.209	-200.000	0.011	0.073
-399.194	800.000	0.024	-0.075
-398.179	-44.717	0.146	-0.072
-397.165	800.000	-0.133	0.442
-396.150	800.000	0.051	0.221
-395.136	-200.000	0.055	0.312
-394.121	-3.740	-0.199	-0.137
-393.106	482.385	0.056	-0.125
-392.092	-68.570	0.096	-0.037
-391.077	50.286	0.136	0.127
-390.063	375.538	0.155	0.311
-389.048	257.365	0.030	0.052
-388.033	308.565	0.100	0.185
-387.019	-200.000	-0.036	0.243
-386.004	-25.847	0.109	-0.063
-384.990	132.452	-0.252	0.321
-383.975	-34.057	-0.204	-0.111
-382.960	-56.338	0.165	-0.072
-381.946	219.003	0.194	0.305
-380.931	800.000	-0.055	0.169
-379.917	-127.714	-0.214	-0.031
-378.902	653.237	-0.093	0.234
-377.888	138.310	0.063	-0.082
-376.873	223.246	0.280	0.445
-375.858	176.717	-0.132	0.190
-374.844	-1.711	-0.165	-0.114
-373.829	-108.479	0.244	-0.052
-372.815	-49.320	0.232	0.109
-371.800	-18.600	0.062	0.038
-370.785	214.556	-0.102	0.159
-369.771	58.453	0.162	0.157
-368.756	220.861	-0.144	0.227
-367.742	800.000	0.019	-0.079
-366.727	332.117	-0.029	0.054
-365.712	647.806	-0.116	0.293
-364.698	800.000	-0.083	-0.291
-363.683	183.635	0.031	-0.045
-362.669	-108.489	0.119	0.025
-361.654	178.664	0.042	0.060
-360.639	538.959	-0.098	-0.229
-359.625	97.556	0.084	-0.095
-358.610	800.000	-0.115	-0.448
-357.596	122.456	-0.253	-0.311
-356.581	-17.351	-0.154	-0.095
-355.566	-50.492	0.242	0.112
-354.552	-37.963	-0.247	-0.129
-353.537	-200.000	0.014	-0.164
-352.523	-121.663	-0.412	-0.067
-351.508	-138.943	0.317	-0.034
-350.493	-48.933	-0.133	-0.063
-349.479	489.408	-0.042	-0.095
-348.464	-200.000	-0.005	0.330
-347.450	132.077	0.092	0.117
-346.435	-173.076	0.095	0.003
-345.420	87.268	-0.051	-0.056
-344.406	-25.141	-0.194	0.113
-343.391	-18.182	0.157	0.097
-342.377	-111.969	-0.074	-0.015
-341.362	651.280	-0.019	0.049
-340.348	-48.507	0.387	0.183
-339.333	800.000	-0.020	0.073
-338.318	-45.575	0.176	0.086
-337.304	-49.270	-0.145	-0.068
-336.289	-83.608	-0.121	-0.038
-335.275	290.884	0.128	-0.229
-334.260	800.000	0.075	-0.247
-333.245	-132.564	-0.142	0.018
-332.231	-200.000	0.008	0.286
-331.216	26.407	0.094	0.078
-330.202	24.146	0.052	-0.043
-329.187	-148.903	-0.080	-0.006
-328.172	-75.885	0.467	-0.163
-327.158	-127.274	-0.191	-0.027
-326.143	40.238	0.199	0.176
-325.129	-170.088	-0.105	-0.004
-324.114	664.727	0.027	-0.070
-323.099	-34.766	0.336	0.181
-322.085	-184.426	0.161	0.003
-321.070	39.203	0.099	0.087
-320.056	152.253	-0.215	0.289
-319.041	-98.929	-0.352	0.088
-318.026	-69.580	-0.519	0.195
-317.012	690.027	0.196	-0.504
-315.997	-98.735	-0.257	-0.064
-314.983	224.362	0.119	0.190
-313.968	230.574	0.203	-0.327
-312.953	-75.960	-0.112	-0.039
-311.939	66.877	0.068	-0.068
-310.924	-127.879	0.504	-0.071
-309.910	26.166	-0.125	-0.103
-308.895	-38.524	0.263	0.137
-307.880	-200.000	-0.027	-0.218
-306.866	20.749	0.186	0.148
-305.851	-87.560	0.155	0.046
-304.837	-142.702	0.102	0.010
-303.822	-4.295	0.253	-0.172
-302.807	-200.000	-0.058	-0.449
-301.793	23.875	0.106	-0.086
-300.778	-200.000	0.021	-0.426
-299.764	-150.362	-0.252	0.019
-298.749	253.230	-0.103	-0.172
-297.735	-102.220	0.453	0.107
-296.720	31.344	0.112	0.095
-295.705	-128.887	-0.348	-0.048
-294.691	8.553	0.260	-0.192
-293.676	-12.429	0.263	0.169
-292.662	7.634	-0.322	-0.237
-291.647	-30.739	0.162	-0.090
-290.632	-66.083	0.223	0.087
-289.618	-200.000	-0.053	-0.306
-288.603	-87.143	-0.287	0.086
-287.589	463.569	0.207	-0.455
-286.574	-116.996	-0.301	0.054
-285.559	309.339	0.180	0.330
-284.545	-200.000	-0.011	-0.144
-283.530	-42.869	0.589	-0.294
-282.516	-75.024	-0.186	-0.066
-281.501	-52.204	-0.252	-0.115
-280.486	-200.000	-0.042	-0.226
-279.472	171.320	0.141	0.199
-278.457	-155.475	-0.175	-0.011
-277.443	-200.000	0.013	0.062
-276.428	7.284	0.148	-0.109
-275.413	39.873	0.151	0.133
-274.399	-124.933	0.171	-0.026
-273.384	-26.316	0.103	0.059
-272.370	-119.451	-0.199	-0.034
-271.355	-39.293	0.063	0.032
-270.340	180.424	0.102	0.147
-269.326	217.518	-0.073	-0.114
-268.311	-200.000	0.002	-0.100
-267.297	235.560	-0.161	0.261
-266.282	-35.081	-0.111	-0.059
-265.267	-30.726	-0.128	0.071
-264.253	-132.344	-0.382	-0.048
-263.238	178.428	0.261	0.374
-262.224	254.965	-0.231	0.388
-261.209	-200.000	0.036	0.166
-260.195	83.661	0.296	-0.317
-259.180	-200.000	-0.062	0.299
-258.165	167.328	-0.137	-0.191
-257.151	75.744	0.226	0.235
-256.136	-98.814	0.114	-0.028
-255.122	568.622	0.077	0.185
-254.107	649.341	-0.053	0.134
-253.092	-171.215	0.150	0.005
-252.078	718.137	0.044	0.115
-251.063	157.234	0.246	-0.334
-250.049	-200.000	-0.023	-0.572
-249.034	-181.386	0.096	0.002
-248.019	-90.888	-0.163	0.046
-247.005	800.000	-0.015	0.040
-245.990	185.598	-0.103	0.150
-244.976	-121.036	-0.234	-0.038
-243.961	800.000	0.056	0.196
-242.946	-91.831	0.245	0.068
-241.932	-142.750	0.263	-0.025
-240.917	56.310	-0.053	0.050
-239.903	800.000	-0.067	0.233
-238.888	382.984	-0.088	-0.177
-237.873	-72.236	0.143	-0.052
-236.859	-126.489	-0.153	0.022
-235.844	-200.000	0.027	-0.231
-234.830	613.622	-0.109	0.268
-233.815	800.000	0.095	-0.316
-232.800	-127.980	0.197	-0.028
-231.786	-89.724	0.102	-0.029
-230.771	-180.953	-0.387	-0.008
-229.757	41.485	-0.115	-0.102
-228.742	-106.050	0.253	-0.056
-227.727	62.912	-0.111	-0.109
-226.713	31.485	0.070	-0.059
-225.698	-200.000	-0.009	-0.152
-224.684	4.869	0.135	-0.097
-223.669	-135.750	-0.016	-0.002
-222.655	-115.798	-0.254	-0.047
-221.640	65.608	0.195	0.193
-220.625	76.007	-0.151	0.156
-219.611	102.928	0.274	-0.314
-218.596	-25.245	-0.126	0.073
-217.582	124.234	-0.087	0.107
-216.567	-94.948	-0.220	-0.058
-215.552	-32.285	-0.155	0.085
-214.538	210.153	0.062	-0.095
-213.523	8.002	-0.314	-0.231
-212.509	645.197	0.073	0.183
-211.494	-200.000	-0.005	-0.204
-210.479	269.271	0.124	-0.213
-209.465	-32.376	0.198	0.108
-208.450	-100.351	-0.216	-0.053
-207.436	414.749	0.126	0.262
-206.421	-115.823	-0.264	-0.048
-205.406	-90.220	0.090	-0.026
-204.392	441.175	-0.057	0.123
-203.377	-27.731	0.251	0.142
-202.363	-6.473	0.578	-0.386
-201.348	114.846	0.071	-0.085
-200.333	-200.000	-0.058	0.293
-199.319	260.196	-0.021	0.036
-198.304	-150.093	0.531	0.040
-197.290	-200.000	0.034	-0.182
-196.275	612.413	-0.141	-0.346
-195.260	-57.265	0.269	0.116
-194.246	-149.536	-0.173	0.013
-193.231	-83.651	0.264	-0.082
-192.217	-114.074	0.180	0.034
-191.202	-129.852	-0.321	-0.043
-190.187	235.618	-0.108	0.175
-189.173	6.678	0.277	-0.201
-188.158	-200.000	-0.033	0.321
-187.144	292.225	-0.145	0.258
-186.129	-123.930	-0.127	0.020
-185.114	800.000	-0.150	0.458
-184.100	-118.871	0.113	-0.020
-183.085	498.824	-0.085	0.191
-182.071	-42.459	-0.154	0.077
-181.056	-124.669	-0.264	-0.040
-180.042	800.000	0.125	-0.358
-179.027	-200.000	-0.006	-0.046
-178.012	-86.461	0.231	0.069
-176.998	26.091	-0.155	-0.126
-175.983	81.050	0.234	0.248
-174.969	-20.885	-0.298	0.178
-173.954	268.455	0.069	0.119
-172.939	123.815	-0.131	-0.160
-171.925	278.638	0.035	0.062
-170.910	-133.234	0.241	-0.030
-169.896	733.021	0.106	0.278
-168.881	65.348	-0.135	0.133
-167.866	-200.000	0.020	-0.105
-166.852	-188.147	-0.234	-0.003
-165.837	-200.000	-0.010	-0.049
-164.823	152.892	0.006	0.008
-163.808	135.098	0.141	0.179
-162.793	800.000	-0.038	0.155
-161.779	-200.000	-0.013	-0.058
-160.764	164.973	0.168	0.232
-159.750	17.283	-0.052	0.040
-158.735	66.292	-0.163	0.162
-157.720	-200.000	-0.004	0.260
-156.706	-113.684	-0.122	-0.023
-155.691	139.611	0.161	0.207
-154.677	192.353	-0.215	0.317
-153.662	800.000	-0.065	0.269
-152.647	181.290	-0.116	-0.167
-151.633	-200.000	-0.020	0.176
-150.618	-22.142	0.198	0.117
-149.604	800.000	0.040	-0.156
-148.589	-200.000	0.008	-0.095
-147.574	130.951	-0.110	-0.138
-146.560	2.917	-0.226	-0.161
-145.545	95.655	0.068	0.076
-144.531	11.804	-0.107	-0.080
-143.516	51.663	-0.232	-0.215
-142.502	-102.551	0.106	-0.025
-141.487	-23.125	-0.211	0.124
-140.472	483.460	0.040	0.089
-139.458	-55.126	-0.235	-0.103
-138.443	230.705	-0.061	-0.098
-137.429	-169.804	-0.415	0.015
-136.414	130.872	0.300	0.377
-135.399	-151.432	-0.205	0.015
-134.385	-200.000	0.007	-0.036
-133.370	800.000	0.061	0.195
-132.356	-150.064	0.151	0.011
-131.341	-200.000	-0.047	0.450
-130.326	422.488	0.184	0.386
-129.312	89.303	0.134	0.146
-128.297	-21.084	0.203	0.121
-127.283	-6.996	0.030	-0.020
-126.268	648.133	0.152	0.380
-125.253	91.165	0.297	0.325
-124.239	80.381	-0.075	-0.079
-123.224	-39.600	0.048	0.024
-122.210	104.425	-0.060	0.069
-121.195	-139.316	0.303	0.032
