DTS Sentinel unit serial number:	SN413079Multiplexer serial number:	ORYXHardware model number:	OX4-SRSoftware version number:	ORYX F/W v4.00 Oryx Data Collector v3.7.2.0data status	okinstallation	princeton_trtdifferential loss correction	single-endedforward channel	channel 2reverse channel	N/Adate	2019/09/18time	13:55:35forward acquisition time	60.00reverse acquisition time	0.00gamma	496.2192k internal	0.2319k external	0.2319temperature offset calibration	0.9998default loss term (dB/km)	0.3790temperature slope calibration	1.0000multiplexer offset coefficient	1.0000multiplexer slope coefficient	1.0000fibre end	0.00T internal ref (°C)	34.50T ext. ref 1 (°C)	0.65T ext. ref 2 (°C)	29.36length (m)	temperature (°C)	Stokes	anti-Stokes-747.200	-42.524	0.116	0.060
-746.185	-143.764	-0.135	-0.013
-745.171	-200.000	-0.017	-0.154
-744.156	-200.000	0.028	0.161
-743.142	-78.214	0.056	0.020
-742.127	5.379	-0.256	0.191
-741.112	31.347	0.240	-0.209
-740.098	31.536	-0.221	0.192
-739.083	-33.092	0.046	-0.026
-738.069	-125.097	-0.236	0.037
-737.054	-111.416	-0.091	0.019
-736.039	32.151	0.142	0.124
-735.025	99.791	0.098	-0.115
-734.010	785.955	0.073	-0.203
-732.996	718.710	0.057	-0.153
-731.981	-114.152	0.153	-0.030
-730.966	50.700	-0.142	0.136
-729.952	297.596	-0.062	-0.114
-728.937	237.694	-0.184	0.308
-727.923	800.000	-0.111	-0.332
-726.908	-87.584	-0.371	-0.113
-725.894	-95.469	-0.150	0.041
-724.879	-200.000	0.001	-0.085
-723.864	688.328	0.155	-0.409
-722.850	-200.000	-0.040	-0.179
-721.835	-68.453	-0.212	-0.083
-720.821	114.466	-0.045	-0.056
-719.806	-130.813	-0.199	-0.027
-718.791	-54.072	0.288	-0.133
-717.777	800.000	-0.085	0.341
-716.762	-200.000	-0.030	-0.172
-715.748	-200.000	0.001	-0.191
-714.733	-124.486	0.184	0.029
-713.718	-17.370	0.172	0.109
-712.704	-65.070	0.161	0.066
-711.689	48.901	-0.037	0.035
-710.675	-200.000	0.000	0.147
-709.660	63.056	-0.119	-0.120
-708.645	692.344	-0.090	-0.238
-707.631	-200.000	0.028	-0.145
-706.616	-111.705	0.244	0.050
-705.602	-111.078	-0.137	0.028
-704.587	-57.919	0.156	0.069
-703.572	-3.061	-0.104	0.073
-702.558	-61.524	0.153	0.065
-701.543	-95.823	-0.214	-0.058
-700.529	-200.000	-0.011	0.080
-699.514	144.133	-0.160	0.215
-698.499	38.616	0.148	0.133
-697.485	-200.000	-0.010	0.136
-696.470	55.457	0.061	-0.060
-695.456	-115.540	-0.076	0.014
-694.441	282.886	-0.058	0.105
-693.426	5.926	-0.372	-0.278
-692.412	-136.916	-0.300	0.035
-691.397	-44.313	0.163	-0.083
-690.383	-66.398	-0.344	0.138
-689.368	800.000	0.052	-0.190
-688.354	-54.387	-0.298	-0.136
-687.339	25.088	0.183	-0.153
-686.324	800.000	0.032	-0.108
-685.310	-58.988	0.116	-0.050
-684.295	208.906	0.105	0.165
-683.281	493.047	0.047	0.108
-682.266	77.626	-0.056	-0.061
-681.251	596.094	-0.060	-0.150
-680.237	779.822	0.084	0.231
-679.222	800.000	-0.031	-0.097
-678.208	-34.156	-0.253	-0.140
-677.193	-174.703	0.263	0.008
-676.178	166.667	-0.106	-0.152
-675.164	800.000	-0.078	-0.240
-674.149	65.267	0.049	-0.050
-673.135	-19.724	0.166	0.104
-672.120	-78.676	-0.152	-0.052
-671.105	605.912	-0.043	-0.109
-670.091	-200.000	0.026	0.236
-669.076	-91.217	-0.258	0.075
-668.062	-117.722	-0.141	-0.026
-667.047	-172.736	0.206	0.006
-666.032	-47.328	-0.065	0.032
-665.018	-66.275	-0.253	-0.102
-664.003	-200.000	-0.057	-0.382
-662.989	267.656	-0.173	-0.305
-661.974	678.012	0.015	-0.040
-660.959	-57.156	0.102	-0.045
-659.945	119.469	0.108	0.135
-658.930	-98.578	0.047	-0.012
-657.916	284.601	0.099	-0.180
-656.901	255.385	0.056	0.096
-655.886	800.000	-0.108	-0.331
-654.872	131.118	0.092	0.119
-653.857	68.030	0.302	0.312
-652.843	87.370	-0.200	0.223
-651.828	69.405	0.270	0.280
-650.814	-2.860	-0.182	0.128
-649.799	800.000	0.118	-0.399
-648.784	-126.373	0.281	-0.042
-647.770	-43.114	-0.114	-0.058
-646.755	-200.000	0.032	-0.526
-645.741	28.599	-0.297	-0.253
-644.726	-163.100	0.201	0.010
-643.711	-5.953	0.176	0.121
-642.697	81.132	0.248	0.270
-641.682	-200.000	-0.030	0.212
-640.668	568.408	0.137	-0.336
-639.653	647.293	0.037	0.096
-638.638	310.139	0.044	0.083
-637.624	787.386	-0.013	-0.036
-636.609	-100.974	0.201	-0.050
-635.595	-54.448	-0.006	-0.003
-634.580	-21.200	-0.308	-0.190
-633.565	-78.381	0.152	0.053
-632.551	345.690	0.057	0.114
-631.536	102.983	0.108	0.127
-630.522	-59.981	-0.146	-0.063
-629.507	-200.000	0.011	0.096
-628.492	-16.398	-0.282	-0.180
-627.478	698.780	-0.156	-0.412
-626.463	154.380	0.079	0.109
-625.449	-78.847	0.589	-0.202
-624.434	-90.895	-0.027	0.008
-623.419	63.230	-0.196	0.197
-622.405	-200.000	-0.023	0.275
-621.390	395.183	0.070	0.147
-620.376	-200.000	0.000	0.225
-619.361	-25.592	0.077	0.046
-618.346	-200.000	0.005	0.225
-617.332	-60.542	-0.332	0.142
-616.317	493.943	-0.098	0.227
-615.303	89.399	0.077	0.086
-614.288	-154.549	0.140	-0.009
-613.273	-125.922	-0.256	-0.039
-612.259	-77.049	-0.127	-0.045
-611.244	-21.822	-0.107	0.066
-610.230	-84.479	0.245	-0.078
-609.215	-29.209	-0.201	0.116
-608.201	125.021	-0.327	-0.415
-607.186	-80.750	-0.227	0.076
-606.171	-38.254	-0.167	-0.089
-605.157	-12.238	0.261	-0.172
-604.142	800.000	-0.040	-0.157
-603.128	137.849	0.099	-0.130
-602.113	-69.572	0.269	0.104
-601.098	-200.000	-0.008	0.228
-600.084	161.977	-0.217	-0.306
-599.069	-200.000	-0.029	0.269
-598.055	14.020	-0.238	0.186
-597.040	-59.066	0.150	0.065
-596.025	225.968	0.157	-0.255
-595.011	-200.000	0.018	0.086
-593.996	800.000	0.096	0.422
-592.982	42.522	-0.230	-0.210
-591.967	108.693	-0.166	-0.199
-590.952	0.326	0.204	0.147
-589.938	-200.000	-0.044	-0.292
-588.923	-200.000	-0.013	0.426
-587.909	-130.208	-0.154	-0.021
-586.894	-89.829	0.249	0.073
-585.879	471.114	0.041	0.092
-584.865	-78.299	-0.163	0.056
-583.850	-125.284	-0.310	0.048
-582.836	1.365	-0.097	-0.070
-581.821	305.715	-0.240	-0.448
-580.806	-2.768	-0.104	-0.073
-579.792	-79.660	0.106	0.036
-578.777	-200.000	0.012	-0.472
-577.763	-200.000	0.048	0.240
-576.748	-98.639	0.167	-0.043
-575.733	-16.876	0.130	0.082
-574.719	-178.501	-0.230	-0.005
-573.704	-200.000	-0.033	-0.198
-572.690	-42.297	0.047	0.024
-571.675	560.086	0.103	0.251
-570.661	-2.072	0.371	0.262
-569.646	118.266	-0.085	-0.106
-568.631	-164.595	-0.150	0.007
-567.617	-148.449	-0.188	-0.015
-566.602	26.152	0.084	-0.070
-565.588	-200.000	-0.014	-0.129
-564.573	-86.113	-0.113	-0.035
-563.558	264.258	-0.140	-0.246
-562.544	-33.838	0.258	-0.143
-561.529	254.028	-0.239	0.410
-560.515	-43.797	0.177	-0.089
-559.500	800.000	-0.029	-0.112
-558.485	298.546	-0.122	-0.225
-557.471	-70.280	-0.345	0.132
-556.456	800.000	0.030	-0.098
-555.442	800.000	0.026	-0.094
-554.427	800.000	0.017	-0.058
-553.412	-200.000	-0.008	-0.496
-552.398	-148.570	-0.149	-0.012
-551.383	800.000	-0.025	0.109
-550.369	-200.000	0.018	-0.184
-549.354	22.050	-0.143	0.117
-548.339	514.237	0.022	0.052
-547.325	-104.407	-0.279	0.065
-546.310	88.795	-0.133	-0.148
-545.296	-88.479	-0.116	-0.035
-544.281	41.457	-0.079	-0.072
-543.266	-94.812	0.242	0.066
-542.252	354.634	-0.070	-0.139
-541.237	-76.091	0.448	0.159
-540.223	-54.263	0.285	-0.130
-539.208	-200.000	0.017	0.077
-538.193	-200.000	-0.003	0.096
-537.179	-152.381	0.102	0.007
-536.164	384.243	-0.070	-0.145
-535.150	-200.000	0.065	-0.504
-534.135	-66.720	-0.258	-0.102
-533.121	800.000	0.040	0.155
-532.106	68.747	0.217	-0.223
-531.091	444.264	-0.131	0.289
-530.077	542.196	-0.065	-0.155
-529.062	601.120	-0.085	-0.211
-528.048	29.304	0.280	-0.239
-527.033	-53.914	-0.137	0.063
-526.018	-91.146	0.261	0.075
-525.004	80.583	0.115	0.124
-523.989	784.136	0.115	0.317
-522.975	800.000	-0.036	0.120
-521.960	40.607	-0.016	-0.015
-520.945	193.014	0.138	-0.209
-519.931	94.899	-0.299	-0.341
-518.916	-66.692	0.159	0.063
-517.902	308.242	-0.111	0.208
-516.887	-200.000	-0.013	0.266
-515.872	-160.688	-0.078	0.004
-514.858	-161.556	-0.142	-0.007
-513.843	-152.192	0.388	0.028
-512.829	-38.944	0.172	-0.091
-511.814	-200.000	0.024	0.167
-510.799	413.088	0.083	-0.177
-509.785	-152.795	-0.238	-0.017
-508.770	-114.921	-0.223	-0.043
-507.756	800.000	0.023	0.093
-506.741	-140.079	0.153	0.016
-505.726	67.710	-0.350	-0.359
-504.712	416.954	-0.082	-0.175
-503.697	461.788	-0.092	-0.205
-502.683	150.752	0.120	-0.164
-501.668	-200.000	0.047	-0.319
-500.653	23.804	0.376	-0.310
-499.639	26.076	-0.135	0.113
-498.624	192.867	-0.141	0.214
-497.610	800.000	-0.040	0.123
-496.595	-135.968	-0.168	0.020
-495.581	417.763	0.055	0.118
-494.566	800.000	-0.080	-0.248
-493.551	-135.405	0.308	-0.037
-492.537	406.455	-0.155	0.328
-491.522	-200.000	-0.277	-0.000
-490.508	-12.041	0.263	0.172
-489.493	336.321	-0.116	0.226
-488.478	48.324	-0.066	0.062
-487.464	29.245	-0.146	-0.124
-486.449	212.622	-0.060	-0.096
-485.435	-200.000	0.055	-0.262
-484.420	-142.074	0.120	0.012
-483.405	-200.000	0.040	0.294
-482.391	-200.000	-0.030	-0.270
-481.376	136.650	0.205	0.268
-480.362	-129.176	-0.062	0.009
-479.347	-41.521	-0.085	0.044
-478.332	-122.379	-0.097	-0.016
-477.318	-6.062	0.340	0.232
-476.303	228.168	-0.201	0.327
-475.289	-0.941	-0.159	0.113
-474.274	-34.532	-0.192	-0.105
-473.259	-175.837	0.073	-0.002
-472.245	356.301	0.047	0.093
-471.230	-95.614	0.121	-0.033
-470.216	-56.917	0.119	-0.053
-469.201	-90.974	0.107	0.031
-468.186	-52.657	0.197	0.091
-467.172	215.215	0.020	0.032
-466.157	14.755	0.146	0.115
-465.143	-158.265	0.165	-0.010
-464.128	-200.000	-0.013	-0.570
-463.113	-127.573	0.238	0.035
-462.099	87.327	0.225	-0.249
-461.084	800.000	0.047	-0.198
-460.070	-41.106	0.009	-0.005
-459.055	-42.847	-0.082	0.042
-458.040	-91.247	0.264	0.076
-457.026	137.617	0.180	0.236
-456.011	-200.000	-0.044	0.195
-454.997	800.000	-0.080	-0.315
-453.982	607.573	-0.151	0.377
-452.968	-200.000	0.028	-0.155
-451.953	327.328	0.066	-0.127
-450.938	800.000	0.032	0.108
-449.924	210.907	0.023	0.036
-448.909	107.915	-0.123	0.147
-447.895	263.499	-0.053	-0.093
-446.880	91.429	0.235	0.264
-445.865	176.435	0.213	0.309
-444.851	351.011	0.116	-0.229
-443.836	-6.236	0.065	-0.044
-442.822	-200.000	0.004	0.104
-441.807	68.900	-0.168	-0.173
-440.792	-200.000	0.047	0.271
-439.778	-94.200	-0.190	0.052
-438.763	-153.256	-0.346	0.024
-437.749	-60.241	-0.181	-0.077
-436.734	474.119	0.032	-0.071
-435.719	-78.231	0.241	-0.083
-434.705	-91.452	-0.244	0.070
-433.690	148.614	-0.089	0.120
-432.676	83.676	-0.225	-0.245
-431.661	-200.000	-0.002	-0.051
-430.646	12.406	0.186	0.144
-429.632	-81.440	-0.257	0.085
-428.617	261.953	-0.250	-0.433
-427.603	-200.000	0.053	0.443
-426.588	-200.000	-0.011	-0.237
-425.573	-200.000	-0.019	0.097
-424.559	-76.381	-0.299	-0.105
-423.544	-55.176	-0.249	0.112
-422.530	-200.000	0.017	-0.216
-421.515	800.000	0.112	-0.334
-420.500	-200.000	0.000	0.200
-419.486	59.393	-0.084	0.083
-418.471	800.000	-0.075	0.262
-417.457	122.122	0.103	0.128
-416.442	404.541	-0.164	-0.346
-415.428	-200.000	-0.008	0.048
-414.413	-6.688	-0.239	0.163
-413.398	-113.325	-0.217	0.043
-412.384	-18.185	0.350	0.219
-411.369	368.846	0.104	0.210
-410.355	-14.706	0.318	0.204
-409.340	-92.172	-0.034	-0.010
-408.325	11.112	0.045	0.034
-407.311	-41.625	0.211	0.108
-406.296	800.000	-0.022	0.077
-405.282	-200.000	-0.016	0.115
-404.267	-49.824	0.471	0.223
-403.252	-30.097	0.065	0.037
-402.238	63.883	-0.105	-0.106
-401.223	-35.107	-0.254	-0.138
-400.209	-200.000	-0.017	-0.467
-399.194	-65.833	0.312	-0.125
-398.179	53.365	-0.223	0.213
-397.165	-146.160	-0.201	-0.018
-396.150	20.457	0.219	-0.177
-395.136	148.296	-0.130	0.176
-394.121	-27.615	0.381	0.221
-393.106	322.829	0.113	-0.214
-392.092	-149.209	-0.282	0.023
-391.077	269.912	0.073	0.129
-390.063	-200.000	-0.057	-0.341
-389.048	-26.112	-0.272	0.160
-388.033	-74.778	0.359	0.128
-387.019	-200.000	-0.010	0.126
-386.004	50.661	0.246	0.233
-384.990	-87.670	0.172	-0.052
-383.975	-31.866	-0.108	0.061
-382.960	486.922	0.113	0.256
-381.946	246.901	0.214	-0.361
-380.931	38.676	0.060	0.054
-379.917	469.687	0.027	0.061
-378.902	-200.000	0.038	-0.275
-377.888	98.108	-0.050	-0.057
-376.873	-122.869	-0.200	0.032
-375.858	-57.995	-0.229	0.100
-374.844	-71.099	0.213	0.080
-373.829	-200.000	0.186	-0.000
-372.815	-16.608	0.134	-0.084
-371.800	800.000	0.060	0.258
-370.785	62.860	0.233	0.232
-369.771	-79.641	-0.045	-0.015
-368.756	-200.000	-0.002	0.007
-367.742	725.350	0.114	-0.302
-366.727	138.458	-0.267	0.349
-365.712	-200.000	0.012	-0.188
-364.698	-200.000	-0.023	0.269
-363.683	778.845	0.046	-0.125
-362.669	10.530	-0.136	0.104
-361.654	50.718	-0.065	-0.061
-360.639	-87.117	-0.183	0.055
-359.625	626.291	-0.053	-0.134
-358.610	-200.000	-0.012	0.079
-357.596	-80.095	-0.198	0.066
-356.581	-52.455	-0.327	0.151
-355.566	-140.778	0.166	-0.017
-354.552	-107.399	-0.167	0.036
-353.537	-142.440	-0.502	0.049
-352.523	3.841	-0.055	0.040
-351.508	-50.245	0.177	0.083
-350.493	-122.422	0.181	-0.029
-349.479	-14.966	0.252	0.161
-348.464	54.331	-0.185	0.178
-347.450	-66.103	-0.152	0.061
-346.435	-200.000	-0.002	0.193
-345.420	-200.000	0.049	0.243
-344.406	-71.423	0.122	0.046
-343.391	-93.720	0.464	-0.127
-342.377	-200.000	-0.041	-0.289
-341.362	56.503	-0.136	0.132
-340.348	460.591	0.049	0.108
-339.333	502.056	-0.030	0.069
-338.318	172.811	0.027	0.039
-337.304	-87.476	0.105	0.032
-336.289	-200.000	-0.033	-0.219
-335.275	82.960	-0.314	-0.340
-334.260	800.000	-0.036	-0.145
-333.245	291.594	0.070	0.127
-332.231	71.872	0.054	-0.056
-331.216	111.399	0.118	0.142
-330.202	-155.769	0.076	0.005
-329.187	800.000	0.038	0.127
-328.172	421.546	0.085	-0.182
-327.158	9.385	0.285	-0.215
-326.143	-200.000	-0.019	-0.249
-325.129	152.643	-0.143	-0.195
-324.114	83.732	-0.065	-0.071
-323.099	-164.412	0.267	0.012
-322.085	800.000	0.142	-0.435
-321.070	36.260	0.122	0.107
-320.056	-200.000	-0.029	-0.134
-319.041	800.000	0.072	0.220
-318.026	-81.174	0.291	-0.096
-317.012	102.940	-0.170	0.198
-315.997	-2.062	-0.207	-0.145
-314.983	53.778	-0.065	-0.062
-313.968	105.519	0.225	0.265
-312.953	-63.234	0.186	-0.076
-311.939	-162.566	-0.114	0.006
-310.924	-200.000	-0.028	-0.134
-309.910	-200.000	-0.006	-0.152
-308.895	194.768	-0.119	0.180
-307.880	-168.343	-0.148	-0.006
-306.866	-103.021	-0.218	-0.051
-305.851	-200.000	-0.016	0.404
-304.837	48.991	-0.102	-0.095
-303.822	-96.665	-0.101	0.027
-302.807	150.504	-0.132	0.178
-301.793	165.855	-0.131	-0.185
-300.778	-9.322	0.217	-0.144
-299.764	184.199	0.087	0.127
-298.749	264.729	-0.177	0.307
-297.735	131.953	-0.020	0.025
-296.720	147.734	-0.110	-0.147
-295.705	800.000	-0.048	0.147
-294.691	50.541	-0.283	0.266
-293.676	4.173	-0.096	0.070
-292.662	-25.952	-0.139	0.081
-291.647	800.000	0.032	-0.130
-290.632	-176.608	-0.204	-0.005
-289.618	-104.191	0.231	-0.053
-288.603	565.472	0.134	0.324
-287.589	-200.000	0.028	0.419
-286.574	-190.962	0.198	0.002
-285.559	-200.000	-0.012	0.136
-284.545	-54.562	0.355	-0.160
-283.530	-59.211	0.367	-0.157
-282.516	59.326	-0.074	-0.072
-281.501	800.000	0.041	0.135
-280.486	-200.000	-0.005	0.107
-279.472	800.000	0.099	-0.298
-278.457	-33.312	-0.125	0.069
-277.443	133.837	0.081	0.104
-276.428	289.084	-0.095	-0.171
-275.413	800.000	-0.059	-0.180
-274.399	442.707	-0.182	0.395
-273.384	-4.093	-0.183	0.126
-272.370	-200.000	0.006	0.214
-271.355	221.978	-0.147	0.235
-270.340	318.915	0.040	0.076
-269.326	-115.681	0.370	-0.069
-268.311	800.000	-0.045	0.128
-267.297	242.199	0.178	0.296
-266.282	-200.000	0.038	-0.167
-265.267	-79.831	-0.389	0.130
-264.253	1.216	0.211	0.151
-263.238	-144.265	0.096	-0.009
-262.224	-200.000	0.043	-0.616
-261.209	-144.233	-0.074	-0.007
-260.195	-83.593	-0.073	-0.023
-259.180	522.570	-0.095	0.221
-258.165	-200.000	-0.007	0.062
-257.151	271.901	0.146	-0.256
-256.136	-38.633	-0.054	-0.028
-255.122	10.338	-0.127	-0.096
-254.107	48.912	-0.240	-0.224
-253.092	149.502	0.077	0.103
-252.078	-88.426	-0.196	0.058
-251.063	56.206	-0.179	-0.172
-250.049	313.611	-0.060	0.113
-249.034	-200.000	-0.029	-0.147
-248.019	-53.561	-0.194	0.088
-247.005	273.666	-0.163	-0.287
-245.990	-200.000	-0.006	0.112
-244.976	-59.662	-0.070	0.030
-243.961	-67.869	0.077	-0.030
-242.946	445.419	0.051	-0.111
-241.932	-200.000	-0.012	-0.088
-240.917	-200.000	-0.032	-0.144
-239.903	-51.901	-0.068	-0.031
-238.888	209.107	0.021	-0.033
-237.873	-52.130	-0.134	0.062
-236.859	-158.777	-0.026	0.001
-235.844	345.538	-0.189	0.369
-234.830	435.269	-0.102	-0.220
-233.815	-200.000	-0.007	0.103
-232.800	-200.000	-0.035	-0.160
-231.786	-115.952	0.160	-0.030
-230.771	-50.261	-0.411	0.193
-229.757	290.132	0.125	-0.226
-228.742	-4.780	0.308	-0.211
-227.727	40.056	-0.100	0.089
-226.713	-200.000	-0.005	-0.144
-225.698	-200.000	-0.019	0.217
-224.684	-186.820	0.362	0.005
-223.669	-113.947	-0.235	-0.045
-222.655	800.000	-0.029	0.114
-221.640	-175.714	0.418	-0.011
-220.625	-122.957	0.301	-0.048
-219.611	-52.105	0.278	0.128
-218.596	204.798	0.122	-0.188
-217.582	-0.030	-0.052	-0.037
-216.567	51.214	0.278	0.262
-215.552	16.762	0.208	-0.163
-214.538	-65.047	0.421	0.168
-213.523	-200.000	0.000	-0.161
-212.509	-130.857	0.322	-0.043
-211.494	12.783	0.241	-0.185
-210.479	-83.096	0.096	0.031
-209.465	-99.989	-0.215	0.053
-208.450	148.124	-0.096	0.128
-207.436	31.650	0.154	-0.131
-206.421	800.000	0.019	-0.055
-205.406	491.177	0.058	-0.132
-204.392	-200.000	0.046	-0.347
-203.377	-10.993	-0.126	0.082
-202.363	-58.564	-0.060	-0.026
-201.348	-78.143	0.107	-0.036
-200.333	-10.999	-0.221	-0.145
-199.319	-80.384	0.078	-0.026
-198.304	-84.366	0.098	0.031
-197.290	-200.000	-0.001	0.222
-196.275	242.671	0.082	-0.136
-195.260	-183.432	-0.396	0.007
-194.246	602.716	-0.062	0.154
-193.231	264.348	-0.142	-0.244
-192.217	488.120	0.171	-0.387
-191.202	-200.000	-0.012	-0.068
-190.187	800.000	-0.106	-0.349
-189.173	-200.000	0.018	-0.125
-188.158	-200.000	0.018	0.180
-187.144	43.215	0.065	0.059
-186.129	155.194	0.139	0.189
-185.114	375.728	0.049	0.098
-184.100	491.404	0.057	0.129
-183.085	-200.000	0.052	0.294
-182.071	800.000	0.053	0.204
-181.056	230.970	0.059	-0.095
-180.042	800.000	-0.104	0.288
-179.027	-125.537	-0.236	0.035
-178.012	-159.100	0.282	-0.016
-176.998	569.681	-0.054	0.129
-175.983	714.470	-0.078	0.204
-174.969	61.122	-0.338	0.332
-173.954	-187.214	-0.075	0.001
-172.939	177.238	0.046	-0.066
-171.925	94.517	-0.182	-0.205
-170.910	1.442	-0.087	-0.062
-169.896	-200.000	0.013	-0.366
-168.881	245.074	-0.084	-0.140
-167.866	-130.451	-0.352	0.047
-166.852	345.033	-0.034	0.067
-165.837	-82.231	-0.067	-0.022
-164.823	-94.377	0.171	0.046
-163.808	800.000	0.100	0.328
-162.793	-200.000	0.032	0.146
-161.779	-98.600	0.179	0.045
-160.764	41.927	-0.193	0.173
-159.750	-97.948	-0.175	-0.045
-158.735	-8.276	-0.173	-0.115
-157.720	139.726	0.119	0.155
-156.706	-57.557	0.152	-0.066
-155.691	599.469	0.096	0.235
-154.677	617.952	-0.156	-0.387
-153.662	800.000	-0.091	-0.323
-152.647	456.100	0.095	-0.209
-151.633	-200.000	-0.010	0.140
-150.618	-87.613	0.217	-0.065
-149.604	-112.505	0.268	0.053
-148.589	73.664	0.228	-0.236
-147.574	84.118	0.130	-0.140
-146.560	529.575	0.083	0.194
-145.545	-50.334	0.171	-0.080
-144.531	25.402	0.268	0.220
-143.516	228.536	-0.143	-0.231
-142.502	126.529	0.213	-0.266
-141.487	87.705	0.152	-0.166
-140.472	143.823	0.062	-0.081
-139.458	438.992	-0.051	0.109
-138.443	42.463	0.176	-0.158
-137.429	-34.458	0.206	0.112
-136.414	-71.116	-0.154	0.057
-135.399	-15.182	-0.008	-0.005
-134.385	-123.288	-0.045	-0.007
-133.370	800.000	-0.018	0.051
-132.356	11.760	-0.156	0.119
-131.341	-200.000	-0.000	-0.427
-130.326	-39.300	-0.141	0.073
-129.312	-85.535	0.154	-0.047
-128.297	-200.000	0.033	-0.370
-127.283	-77.192	-0.120	0.041
-126.268	-73.936	-0.036	0.013
-125.253	189.350	0.094	0.139
-124.239	170.278	-0.050	0.070
-123.224	37.203	-0.097	0.085
-122.210	800.000	0.020	-0.079
-121.195	204.755	0.109	0.166
