DTS Sentinel unit serial number:	SN413079Multiplexer serial number:	ORYXHardware model number:	OX4-SRSoftware version number:	ORYX F/W v4.00 Oryx Data Collector v3.7.2.0data status	okinstallation	princeton_trtdifferential loss correction	single-endedforward channel	channel 2reverse channel	N/Adate	2019/09/16time	12:27:34forward acquisition time	60.00reverse acquisition time	0.00gamma	496.2192k internal	0.2303k external	0.2303temperature offset calibration	0.9947default loss term (dB/km)	0.3790temperature slope calibration	1.0000multiplexer offset coefficient	1.0000multiplexer slope coefficient	1.0000fibre end	0.00T internal ref (°C)	39.50T ext. ref 1 (°C)	13.35T ext. ref 2 (°C)	36.85length (m)	temperature (°C)	Stokes	anti-Stokes-747.200	-200.000	-0.042	0.310
-746.185	-200.000	-0.002	0.086
-745.171	-85.271	0.029	-0.009
-744.156	569.925	0.199	0.494
-743.142	666.187	0.122	-0.321
-742.127	800.000	0.135	0.526
-741.112	266.226	-0.123	-0.218
-740.098	87.758	-0.067	0.076
-739.083	-179.800	0.244	0.005
-738.069	131.199	0.089	0.116
-737.054	85.959	0.132	0.148
-736.039	114.839	-0.258	-0.321
-735.025	-68.466	0.389	-0.154
-734.010	-200.000	0.018	0.086
-732.996	117.205	-0.139	0.174
-731.981	-64.662	-0.056	-0.023
-730.966	-16.246	0.065	-0.042
-729.952	-61.895	0.078	0.033
-728.937	-110.813	-0.359	0.075
-727.923	47.116	-0.343	-0.325
-726.908	-1.112	-0.262	-0.189
-725.894	160.531	0.168	0.239
-724.879	155.762	0.041	0.057
-723.864	-200.000	0.022	-0.345
-722.850	-200.000	-0.001	-0.020
-721.835	800.000	0.069	0.211
-720.821	73.104	-0.262	0.279
-719.806	-200.000	0.008	0.222
-718.791	42.767	0.117	0.108
-717.777	157.039	0.125	0.176
-716.762	-145.416	-0.130	0.012
-715.748	-60.075	-0.221	-0.096
-714.733	-79.930	-0.180	0.061
-713.718	-88.227	-0.204	0.062
-712.704	800.000	-0.103	0.347
-711.689	459.470	-0.154	-0.348
-710.675	-71.041	0.051	-0.020
-709.660	-138.385	0.131	0.015
-708.645	-200.000	-0.044	0.267
-707.631	-200.000	0.004	-0.132
-706.616	47.743	-0.280	-0.266
-705.602	16.871	0.165	-0.133
-704.587	424.252	0.041	0.090
-703.572	-125.950	0.243	-0.037
-702.558	93.214	0.210	0.242
-701.543	-67.725	-0.101	-0.040
-700.529	38.838	-0.118	0.108
-699.514	-34.064	-0.138	0.077
-698.499	333.538	-0.109	0.215
-697.485	-92.789	0.263	0.075
-696.470	-122.817	-0.206	0.034
-695.456	507.540	-0.022	0.052
-694.441	800.000	-0.109	0.326
-693.426	-47.037	-0.299	0.148
-692.412	800.000	0.021	-0.086
-691.397	151.591	0.148	0.205
-690.383	25.396	-0.256	-0.217
-689.368	-200.000	-0.033	0.257
-688.354	323.488	0.046	0.090
-687.339	334.677	-0.078	0.154
-686.324	137.384	-0.014	-0.018
-685.310	-200.000	-0.016	0.151
-684.295	-5.627	-0.239	0.166
-683.281	333.642	-0.191	-0.376
-682.266	-200.000	-0.001	-0.023
-681.251	68.496	-0.182	-0.190
-680.237	-67.960	0.293	-0.116
-679.222	-129.739	-0.136	-0.019
-678.208	49.075	-0.194	-0.185
-677.193	-75.893	0.365	0.131
-676.178	-200.000	-0.018	0.367
-675.164	411.688	0.214	0.462
-674.149	-200.000	0.004	-0.227
-673.135	-200.000	0.062	-0.462
-672.120	-200.000	-0.042	0.222
-671.105	28.364	0.256	0.220
-670.091	186.322	-0.120	-0.181
-669.076	-103.675	-0.491	-0.117
-668.062	356.424	0.114	0.230
-667.047	-200.000	0.044	-0.204
-666.032	-21.583	0.130	-0.081
-665.018	-119.733	0.091	-0.016
-664.003	-200.000	-0.025	-0.140
-662.989	-88.001	0.171	0.052
-661.974	-17.957	-0.333	-0.212
-660.959	-200.000	0.018	-0.209
-659.945	-61.514	0.102	-0.043
-658.930	-0.714	-0.132	-0.095
-657.916	-76.216	0.298	0.107
-656.901	192.200	0.075	0.115
-655.886	0.472	-0.114	0.083
-654.872	99.553	-0.082	-0.096
-653.857	7.591	-0.079	-0.060
-652.843	-23.477	-0.101	-0.062
-651.828	134.497	0.109	0.144
-650.814	800.000	0.057	-0.180
-649.799	800.000	0.016	0.056
-648.784	-5.655	-0.351	-0.244
-647.770	323.875	0.085	-0.165
-646.755	223.739	0.131	-0.215
-645.741	-200.000	-0.026	0.136
-644.726	139.509	0.068	0.091
-643.711	-112.798	-0.278	-0.056
-642.697	-98.548	-0.369	-0.096
-641.682	800.000	-0.048	-0.161
-640.668	800.000	0.082	-0.306
-639.653	158.590	-0.149	-0.209
-638.638	-107.495	0.274	-0.061
-637.624	195.886	0.133	0.206
-636.609	-85.291	0.229	-0.073
-635.595	0.611	0.231	0.167
-634.580	710.152	0.040	0.107
-633.565	-200.000	0.022	-0.126
-632.551	27.457	0.153	-0.131
-631.536	-200.000	0.017	-0.161
-630.522	254.015	0.153	-0.265
-629.507	573.031	0.079	0.195
-628.492	-2.333	0.407	0.289
-627.478	-108.043	0.314	0.069
-626.463	-200.000	-0.009	0.208
-625.449	-200.000	0.019	-0.120
-624.434	-19.904	-0.298	-0.187
-623.419	-3.977	0.358	-0.251
-622.405	108.944	0.040	0.049
-621.390	-76.963	-0.191	-0.068
-620.376	-24.633	0.130	-0.079
-619.361	800.000	-0.012	-0.046
-618.346	-152.773	0.282	0.020
-617.332	800.000	0.098	-0.407
-616.317	-58.649	0.322	-0.141
-615.303	-30.829	0.155	0.089
-614.288	81.937	0.245	0.269
-613.273	800.000	0.026	-0.077
-612.259	-152.600	-0.071	0.005
-611.244	800.000	-0.052	0.161
-610.230	-128.452	0.011	-0.002
-609.215	464.338	-0.069	0.156
-608.201	72.535	0.083	-0.088
-607.186	-200.000	-0.025	0.142
-606.171	800.000	-0.060	0.191
-605.157	124.271	-0.112	-0.143
-604.142	-200.000	0.043	0.205
-603.128	101.465	0.141	-0.166
-602.113	800.000	-0.016	0.045
-601.098	-65.578	-0.135	-0.055
-600.084	147.896	0.124	0.169
-599.069	27.143	-0.172	0.146
-598.055	367.276	-0.166	0.340
-597.040	-79.739	-0.128	-0.044
-596.025	-200.000	0.057	-0.300
-595.011	-55.153	-0.263	0.120
-593.996	-168.781	-0.202	-0.008
-592.982	-200.000	0.003	-0.202
-591.967	-200.000	-0.175	-0.000
-590.952	619.912	-0.093	0.238
-589.938	-123.585	-0.211	0.034
-588.923	141.857	0.142	0.191
-587.909	-102.300	0.483	-0.117
-586.894	800.000	0.009	0.034
-585.879	31.604	0.248	-0.216
-584.865	-37.929	0.243	0.131
-583.850	-88.019	-0.215	-0.065
-582.836	-200.000	-0.020	-0.117
-581.821	-200.000	0.018	0.116
-580.806	67.642	0.149	-0.154
-579.792	-200.000	0.037	0.175
-578.777	0.750	-0.177	0.129
-577.763	103.005	0.027	-0.032
-576.748	-146.699	0.164	0.014
-575.733	56.668	0.248	-0.244
-574.719	-43.365	-0.165	0.084
-573.704	531.560	-0.026	-0.062
-572.690	-182.877	0.205	0.004
-571.675	-101.666	-0.240	0.059
-570.661	-200.000	0.031	-0.443
-569.646	317.917	-0.135	0.258
-568.631	77.747	0.102	-0.109
-567.617	-143.453	-0.408	0.039
-566.602	-200.000	-0.008	0.255
-565.588	74.578	-0.147	0.156
-564.573	-176.631	-0.178	0.005
-563.558	344.517	-0.074	0.146
-562.544	96.123	0.152	-0.176
-561.529	-98.272	-0.425	-0.110
-560.515	-106.890	-0.367	-0.082
-559.500	27.396	0.078	0.066
-558.485	800.000	0.037	-0.123
-557.471	206.587	-0.217	-0.341
-556.456	-92.527	0.306	0.087
-555.442	28.851	0.164	0.141
-554.427	-200.000	0.018	0.359
-553.412	50.620	0.183	-0.175
-552.398	-60.056	-0.221	-0.095
-551.383	12.747	0.077	0.061
-550.369	99.740	0.073	-0.086
-549.354	37.413	-0.185	-0.166
-548.339	496.027	0.137	0.319
-547.325	110.293	0.081	-0.098
-546.310	-52.309	-0.430	0.202
-545.296	-200.000	-0.008	-0.082
-544.281	423.724	-0.161	0.349
-543.266	-200.000	0.008	0.251
-542.252	116.909	0.174	-0.216
-541.237	-75.871	0.183	-0.065
-540.223	333.347	0.226	-0.442
-539.208	-72.549	0.261	0.097
-538.193	-0.190	0.092	-0.066
-537.179	38.480	-0.214	0.192
-536.164	-55.390	-0.101	-0.046
-535.150	-92.646	-0.232	-0.066
-534.135	-31.675	0.285	-0.162
-533.121	-154.839	-0.140	0.009
-532.106	50.554	-0.128	0.123
-531.091	67.352	-0.155	0.160
-530.077	-52.107	-0.300	-0.141
-529.062	800.000	0.059	-0.205
-528.048	-21.274	-0.045	-0.028
-527.033	800.000	0.035	-0.144
-526.018	127.766	-0.138	-0.178
-525.004	-32.624	-0.074	-0.042
-523.989	-32.386	0.105	0.059
-522.975	800.000	0.061	-0.189
-521.960	800.000	-0.052	0.197
-520.945	-70.936	-0.435	0.165
-519.931	-188.752	-0.217	0.003
-518.916	-17.019	-0.053	-0.034
-517.902	-64.220	0.130	0.054
-516.887	-6.065	-0.295	-0.203
-515.872	75.304	0.156	-0.166
-514.858	585.450	0.126	0.313
-513.843	132.028	-0.050	-0.065
-512.829	-55.446	0.367	-0.166
-511.814	234.399	-0.138	0.229
-510.799	-200.000	-0.016	0.267
-509.785	513.877	0.177	0.416
-508.770	352.818	0.046	-0.093
-507.756	-98.243	-0.564	-0.146
-506.741	103.407	-0.128	0.151
-505.726	-68.792	-0.318	0.124
-504.712	199.894	0.233	0.361
-503.697	-179.422	-0.180	-0.004
-502.683	73.365	0.025	0.027
-501.668	-80.462	0.105	-0.035
-500.653	139.094	-0.176	-0.233
-499.639	179.129	0.118	0.175
-498.624	-135.171	0.134	0.016
-497.610	800.000	-0.120	0.472
-496.595	-74.127	0.227	-0.083
-495.581	45.219	-0.198	0.184
-494.566	800.000	-0.051	-0.190
-493.551	-122.696	0.136	-0.022
-492.537	-125.412	0.085	-0.013
-491.522	-5.394	0.212	-0.147
-490.508	-53.520	-0.130	-0.060
-489.493	162.734	0.172	0.243
-488.478	-39.885	0.079	0.042
-487.464	-40.120	-0.183	0.096
-486.449	7.895	-0.170	0.129
-485.435	-200.000	-0.009	0.096
-484.420	508.547	-0.136	0.317
-483.405	-138.994	0.183	0.020
-482.391	-138.967	-0.186	0.020
-481.376	-128.952	-0.069	0.010
-480.362	-200.000	0.018	-0.097
-479.347	-105.342	0.271	0.062
-478.332	-200.000	-0.022	-0.326
-477.318	-121.744	-0.202	-0.034
-476.303	800.000	-0.050	0.179
-475.289	-95.919	0.482	-0.129
-474.274	370.191	0.078	0.160
-473.259	-40.040	-0.345	0.181
-472.245	-43.828	-0.091	0.046
-471.230	-90.512	-0.105	0.031
-470.216	-128.121	-0.099	0.014
-469.201	231.619	-0.286	-0.472
-468.186	800.000	0.078	-0.319
-467.172	144.977	-0.145	-0.196
-466.157	-200.000	0.013	0.409
-465.143	-73.998	0.157	0.057
-464.128	800.000	-0.069	0.216
-463.113	-200.000	0.087	0.393
-462.099	459.522	0.041	-0.091
-461.084	136.896	0.158	0.208
-460.070	-55.322	-0.100	0.045
-459.055	-27.029	-0.267	-0.157
-458.040	725.319	-0.060	-0.162
-457.026	-21.536	0.275	-0.169
-456.011	-164.340	0.168	-0.008
-454.997	-49.593	-0.326	0.156
-453.982	514.914	0.043	0.102
-452.968	800.000	-0.015	-0.045
-451.953	18.118	-0.153	0.123
-450.938	-200.000	-0.011	-0.449
-449.924	-200.000	0.042	0.226
-448.909	-116.890	-0.325	-0.060
-447.895	-9.189	-0.009	0.006
-446.880	-200.000	0.007	0.267
-445.865	-154.550	0.612	-0.041
-444.851	-91.721	-0.271	0.078
-443.836	-200.000	-0.001	-0.034
-442.822	192.033	0.061	-0.093
-441.807	-169.240	0.331	-0.012
-440.792	28.867	0.256	-0.219
-439.778	87.957	0.142	-0.158
-438.763	-200.000	0.012	-0.186
-437.749	666.636	-0.036	-0.093
-436.734	-151.385	-0.115	-0.009
-435.719	800.000	-0.100	0.389
-434.705	-200.000	0.000	-0.062
-433.690	351.612	0.154	-0.307
-432.676	61.745	-0.034	-0.034
-431.661	-55.163	-0.205	0.093
-430.646	-69.212	0.151	0.058
-429.632	-84.447	0.166	0.053
-428.617	-200.000	-0.009	0.317
-427.603	85.510	-0.157	0.173
-426.588	338.239	0.095	0.187
-425.573	-30.337	0.283	0.162
-424.559	-200.000	0.013	0.074
-423.544	-57.857	-0.222	-0.098
-422.530	800.000	0.074	-0.279
-421.515	-200.000	-0.005	-0.217
-420.500	-2.056	-0.025	0.018
-419.486	-167.187	0.044	-0.002
-418.471	-50.310	-0.222	-0.106
-417.457	135.794	-0.126	-0.165
-416.442	538.652	-0.077	-0.185
-415.428	114.574	-0.078	0.096
-414.413	-12.691	0.197	0.129
-413.398	365.721	0.030	0.060
-412.384	350.009	0.093	0.184
-411.369	50.244	-0.085	-0.080
-410.355	-111.546	-0.256	-0.052
-409.340	-9.221	0.100	0.067
-408.325	-93.018	-0.195	0.055
-407.311	-81.606	-0.501	0.165
-406.296	33.124	-0.080	0.070
-405.282	448.817	-0.046	0.101
-404.267	-200.000	-0.052	-0.318
-403.252	57.720	0.307	-0.302
-402.238	-109.105	-0.274	0.059
-401.223	16.799	0.206	0.164
-400.209	-1.205	0.072	-0.051
-399.194	-28.862	0.064	-0.037
-398.179	42.339	-0.291	-0.266
-397.165	249.990	-0.052	-0.089
-396.150	131.988	0.116	-0.150
-395.136	103.411	0.082	0.096
-394.121	-200.000	-0.008	0.392
-393.106	-113.806	-0.256	0.050
-392.092	213.191	0.067	-0.107
-391.077	18.503	0.174	0.140
-390.063	-92.160	-0.258	-0.073
-389.048	-94.726	-0.119	0.032
-388.033	0.043	0.001	-0.001
-387.019	569.227	0.009	-0.023
-386.004	52.077	-0.077	0.074
-384.990	800.000	-0.081	-0.338
-383.975	-200.000	-0.002	0.083
-382.960	-114.564	-0.229	0.044
-381.946	800.000	-0.109	0.315
-380.931	800.000	-0.023	0.076
-379.917	587.270	-0.006	-0.015
-378.902	7.183	-0.428	0.321
-377.888	2.317	0.019	0.014
-376.873	-113.733	0.406	-0.079
-375.858	80.593	-0.114	0.123
-374.844	-6.210	0.264	0.181
-373.829	-43.490	-0.289	-0.147
-372.815	-54.646	-0.274	-0.124
-371.800	9.474	-0.079	0.060
-370.785	-200.000	-0.072	-0.330
-369.771	11.315	0.095	-0.073
-368.756	-200.000	-0.002	0.249
-367.742	571.195	-0.084	0.205
-366.727	108.093	-0.108	0.129
-365.712	269.265	-0.053	0.093
-364.698	800.000	0.059	-0.191
-363.683	-200.000	-0.026	0.282
-362.669	-89.518	0.123	-0.036
-361.654	-200.000	-0.031	0.239
-360.639	79.288	-0.165	0.177
-359.625	-120.148	0.525	-0.090
-358.610	-6.578	-0.036	0.025
-357.596	160.566	-0.137	-0.191
-356.581	-83.023	0.118	-0.038
-355.566	-92.739	0.503	-0.141
-354.552	47.359	-0.222	-0.207
-353.537	-200.000	0.005	0.291
-352.523	-200.000	-0.021	-0.306
-351.508	800.000	0.163	-0.502
-350.493	-11.982	0.268	-0.176
-349.479	-66.922	0.229	-0.091
-348.464	-200.000	-0.004	0.165
-347.450	364.988	-0.123	-0.248
-346.435	-23.318	-0.052	0.031
-345.420	55.655	-0.174	0.169
-344.406	-18.078	-0.262	0.165
-343.391	101.427	-0.161	-0.188
-342.377	-70.161	-0.121	-0.046
-341.362	242.024	-0.051	-0.085
-340.348	530.214	-0.116	0.275
-339.333	612.166	-0.123	-0.308
-338.318	111.549	0.206	0.249
-337.304	-114.568	0.169	-0.032
-336.289	61.556	0.068	-0.067
-335.275	-200.000	0.012	0.210
-334.260	-122.922	-0.268	-0.043
-333.245	-82.889	0.224	-0.072
-332.231	221.407	0.029	0.046
-331.216	-120.947	-0.324	-0.055
-330.202	-78.735	-0.107	0.036
-329.187	-92.269	-0.149	-0.042
-328.172	13.797	-0.087	0.068
-327.158	345.315	0.105	-0.207
-326.143	172.651	0.053	-0.076
-325.129	275.617	0.063	0.113
-324.114	-200.000	-0.070	0.321
-323.099	-139.329	0.256	0.028
-322.085	195.935	0.176	0.269
-321.070	28.327	-0.191	-0.162
-320.056	-46.626	-0.260	-0.128
-319.041	70.916	-0.163	-0.169
-318.026	-74.682	-0.089	-0.032
-317.012	-200.000	0.039	0.235
-315.997	221.166	-0.255	0.411
-314.983	-200.000	-0.000	0.374
-313.968	205.781	-0.207	-0.322
-312.953	-54.704	-0.282	-0.128
-311.939	-2.531	-0.131	0.092
-310.924	204.755	0.243	-0.377
-309.910	800.000	-0.033	-0.099
-308.895	800.000	-0.028	-0.083
-307.880	-107.582	0.522	0.114
-306.866	800.000	0.041	-0.146
-305.851	800.000	-0.086	0.307
-304.837	-200.000	-0.034	-0.195
-303.822	72.683	0.132	-0.138
-302.807	-118.040	0.394	0.070
-301.793	-86.561	0.204	0.063
-300.778	5.034	0.166	0.122
-299.764	74.908	-0.077	0.081
-298.749	242.953	-0.187	0.314
-297.735	-200.000	-0.010	0.268
-296.720	-200.000	-0.060	-0.279
-295.705	800.000	-0.025	0.105
-294.691	13.763	-0.133	-0.104
-293.676	128.813	0.112	-0.143
-292.662	-152.818	0.056	-0.004
-291.647	185.358	-0.125	-0.186
-290.632	-152.219	-0.198	-0.014
-289.618	800.000	-0.055	0.198
-288.603	-200.000	-0.041	-0.339
-287.589	-200.000	0.065	-0.333
-286.574	-152.034	0.214	0.016
-285.559	-200.000	-0.013	-0.091
-284.545	-6.240	0.152	-0.104
-283.530	-129.835	0.314	0.043
-282.516	4.935	-0.084	-0.062
-281.501	-91.593	0.219	0.062
-280.486	22.476	0.249	0.204
-279.472	112.787	0.160	-0.193
-278.457	800.000	-0.033	-0.103
-277.443	-200.000	0.011	-0.165
-276.428	154.491	-0.063	-0.086
-275.413	92.752	0.078	-0.088
-274.399	380.451	0.168	0.345
-273.384	800.000	0.024	0.082
-272.370	-200.000	0.067	0.317
-271.355	-129.560	-0.332	0.046
-270.340	-200.000	0.018	-0.196
-269.326	800.000	0.031	0.130
-268.311	-152.497	-0.238	-0.017
-267.297	383.134	-0.106	-0.218
-266.282	96.320	0.206	-0.235
-265.267	-151.815	-0.451	-0.033
-264.253	390.016	-0.123	0.255
-263.238	-200.000	-0.065	-0.351
-262.224	-74.622	0.058	-0.021
-261.209	-200.000	-0.008	-0.051
-260.195	800.000	0.108	-0.311
-259.180	252.936	-0.188	-0.320
-258.165	-83.413	0.355	0.114
-257.151	390.268	-0.156	0.323
-256.136	47.937	0.147	-0.137
-255.122	54.148	-0.125	-0.121
-254.107	-75.888	0.180	0.064
-253.092	180.011	0.175	0.257
-252.078	12.426	-0.150	0.116
-251.063	-21.311	-0.075	0.046
-250.049	-149.942	-0.076	0.006
-249.034	247.154	0.154	-0.260
-248.019	-92.990	-0.060	0.017
-247.005	123.037	-0.136	0.170
-245.990	-48.068	-0.214	-0.103
-244.976	355.224	-0.131	-0.260
-243.961	605.481	0.176	0.438
-242.946	-200.000	0.005	-0.107
-241.932	-125.451	0.203	0.031
-240.917	8.242	-0.136	-0.102
-239.903	-200.000	-0.017	-0.109
-238.888	-32.746	0.110	0.061
-237.873	304.235	-0.104	-0.192
-236.859	-200.000	0.011	-0.127
-235.844	-200.000	0.003	0.142
-234.830	-200.000	-0.008	0.119
-233.815	-129.804	-0.401	0.055
-232.800	800.000	0.118	-0.413
-231.786	-200.000	-0.037	-0.250
-230.771	800.000	-0.039	0.123
-229.757	-49.063	0.145	0.069
-228.742	-182.703	-0.328	-0.006
-227.727	236.087	-0.105	0.174
-226.713	-200.000	0.013	0.104
-225.698	-89.302	-0.307	-0.090
-224.684	116.613	0.154	0.188
-223.669	-31.325	0.007	-0.004
-222.655	76.481	-0.324	-0.343
-221.640	-47.957	-0.483	-0.233
-220.625	209.009	-0.074	-0.115
-219.611	-200.000	0.048	-0.409
-218.596	-200.000	-0.038	-0.374
-217.582	-200.000	0.053	0.237
-216.567	683.066	0.049	0.127
-215.552	108.455	-0.123	0.147
-214.538	-63.342	0.108	0.044
-213.523	800.000	-0.084	0.304
-212.509	87.717	-0.121	0.134
-211.494	48.628	0.148	-0.139
-210.479	-85.559	0.389	-0.121
-209.465	243.605	-0.125	-0.209
-208.450	-149.216	-0.125	-0.010
-207.436	-82.340	0.263	0.085
-206.421	-128.179	0.225	0.032
-205.406	287.911	0.155	-0.280
-204.392	-117.478	0.157	0.028
-203.377	-200.000	-0.024	0.384
-202.363	279.573	0.117	0.208
-201.348	-115.469	0.153	0.029
-200.333	-200.000	-0.034	0.261
-199.319	-200.000	0.011	0.116
-198.304	-200.000	0.064	0.337
-197.290	-200.000	-0.019	-0.242
-196.275	400.468	-0.098	-0.206
-195.260	22.744	-0.185	-0.151
-194.246	-30.074	-0.172	-0.097
-193.231	-86.597	-0.164	-0.050
-192.217	69.834	0.157	0.161
-191.202	190.640	0.048	-0.072
-190.187	-200.000	-0.027	-0.203
-189.173	-200.000	0.046	-0.416
-188.158	482.338	0.036	0.080
-187.144	800.000	-0.064	0.230
-186.129	15.016	0.123	0.096
-185.114	103.844	-0.054	-0.063
-184.100	-76.180	-0.173	0.061
-183.085	-87.662	0.482	-0.145
-182.071	26.736	0.250	-0.208
-181.056	230.283	0.205	0.335
-180.042	75.218	0.037	0.039
-179.027	-17.135	-0.143	0.090
-178.012	285.707	-0.274	-0.493
-176.998	-124.018	0.186	-0.029
-175.983	-162.579	0.309	-0.015
-174.969	-86.323	0.178	0.054
-173.954	-87.748	0.124	0.037
-172.939	113.187	0.162	0.196
-171.925	-200.000	-0.045	0.237
-170.910	800.000	-0.113	0.409
-169.896	-2.019	0.147	0.103
-168.881	-24.426	0.245	0.145
-167.866	-96.163	-0.064	0.017
-166.852	-2.644	0.222	0.155
-165.837	65.912	-0.187	-0.189
-164.823	-14.152	-0.200	0.129
-163.808	-98.283	-0.281	0.072
-162.793	-87.930	0.194	0.058
-161.779	-28.622	0.359	-0.206
-160.764	158.949	0.143	0.197
-159.750	-168.393	0.457	0.017
-158.735	-6.607	0.237	0.161
-157.720	79.538	0.171	0.182
-156.706	186.973	0.168	-0.250
-155.691	-93.350	0.205	-0.057
-154.677	800.000	-0.027	-0.102
-153.662	6.249	0.162	0.120
-152.647	-13.775	0.236	0.152
-151.633	-200.000	0.015	-0.410
-150.618	-127.496	-0.234	-0.034
-149.604	-128.849	0.137	-0.019
-148.589	-1.603	-0.326	-0.229
-147.574	180.105	0.163	-0.237
-146.560	780.241	-0.064	-0.175
-145.545	614.353	-0.003	-0.008
-144.531	139.702	-0.059	-0.077
-143.516	37.726	0.103	-0.091
-142.502	-169.090	0.037	0.001
-141.487	-131.962	-0.291	-0.038
-140.472	-200.000	-0.007	0.101
-139.458	53.414	-0.221	-0.210
-138.443	800.000	0.017	0.063
-137.429	185.089	-0.186	0.275
-136.414	52.033	-0.227	0.215
-135.399	800.000	-0.122	-0.375
-134.385	-200.000	0.008	-0.173
-133.370	-54.262	0.097	-0.044
-132.356	181.371	-0.158	-0.231
-131.341	-200.000	0.025	-0.177
-130.326	-128.524	-0.220	0.031
-129.312	-200.000	-0.004	-0.121
-128.297	-200.000	0.034	-0.229
-127.283	-200.000	0.012	0.072
-126.268	-152.620	0.454	0.032
-125.253	-80.489	0.273	0.090
-124.239	-200.000	0.060	0.371
-123.224	89.462	-0.070	0.077
-122.210	-200.000	0.016	0.455
-121.195	96.674	0.077	-0.088
