DTS Sentinel unit serial number:	SN413079Multiplexer serial number:	ORYXHardware model number:	OX4-SRSoftware version number:	ORYX F/W v4.00 Oryx Data Collector v3.7.2.0data status	okinstallation	princeton_trtdifferential loss correction	single-endedforward channel	channel 2reverse channel	N/Adate	2019/09/17time	01:07:34forward acquisition time	60.00reverse acquisition time	0.00gamma	496.2192k internal	0.2328k external	0.2328temperature offset calibration	0.9970default loss term (dB/km)	0.3790temperature slope calibration	1.0000multiplexer offset coefficient	1.0000multiplexer slope coefficient	1.0000fibre end	0.00T internal ref (°C)	29.45T ext. ref 1 (°C)	0.10T ext. ref 2 (°C)	24.14length (m)	temperature (°C)	Stokes	anti-Stokes-747.200	-200.000	0.016	0.084
-746.185	-17.488	-0.402	0.255
-745.171	-97.942	-0.105	-0.027
-744.156	-200.000	0.041	0.433
-743.142	-121.394	-0.189	0.032
-742.127	-136.173	-0.283	-0.033
-741.112	52.760	-0.290	-0.279
-740.098	680.009	0.046	0.122
-739.083	664.676	0.083	-0.215
-738.069	800.000	0.060	-0.169
-737.054	800.000	0.060	0.235
-736.039	-200.000	-0.003	0.390
-735.025	259.192	0.075	-0.130
-734.010	800.000	-0.061	-0.173
-732.996	-98.967	-0.396	-0.101
-731.981	-13.465	-0.254	0.166
-730.966	70.289	0.082	0.085
-729.952	-200.000	-0.001	-0.204
-728.937	216.931	-0.228	-0.365
-727.923	272.104	-0.142	0.251
-726.908	800.000	-0.017	0.061
-725.894	-18.642	-0.247	-0.155
-724.879	240.072	0.302	-0.507
-723.864	74.774	-0.198	0.210
-722.850	-100.211	0.023	-0.006
-721.835	156.179	0.178	0.248
-720.821	-94.306	-0.228	-0.063
-719.806	-96.579	0.284	-0.075
-718.791	800.000	0.020	-0.059
-717.777	58.648	0.161	-0.159
-716.762	333.836	-0.155	-0.302
-715.748	-183.639	-0.111	-0.002
-714.733	800.000	0.043	-0.188
-713.718	-200.000	0.005	-0.156
-712.704	-200.000	-0.019	-0.096
-711.689	79.372	0.108	-0.116
-710.675	-4.705	0.429	-0.298
-709.660	257.818	-0.064	0.110
-708.645	-28.624	-0.128	-0.074
-707.631	-11.517	-0.359	0.238
-706.616	26.164	-0.130	0.109
-705.602	155.610	-0.027	-0.038
-704.587	53.111	-0.131	0.126
-703.572	-42.424	0.129	0.066
-702.558	-107.699	0.184	-0.040
-701.543	79.103	-0.482	0.519
-700.529	-66.701	0.372	-0.148
-699.514	733.655	0.107	-0.288
-698.499	-120.883	-0.197	-0.033
-697.485	50.431	-0.044	0.042
-696.470	800.000	0.107	-0.312
-695.456	-200.000	-0.009	0.266
-694.441	160.046	-0.108	-0.151
-693.426	-127.412	0.202	0.030
-692.412	-200.000	0.018	0.141
-691.397	-200.000	0.011	0.064
-690.383	-1.702	0.066	-0.047
-689.368	-5.837	-0.310	-0.213
-688.354	406.012	-0.102	-0.217
-687.339	32.314	0.196	-0.170
-686.324	2.135	-0.137	0.100
-685.310	-200.000	-0.005	0.083
-684.295	77.781	0.272	0.292
-683.281	165.869	-0.142	0.202
-682.266	-158.944	-0.523	0.030
-681.251	800.000	0.044	0.135
-680.237	-200.000	-0.254	-0.001
-679.222	58.594	-0.240	0.236
-678.208	-103.843	-0.305	0.072
-677.193	116.181	0.124	-0.152
-676.178	800.000	0.022	0.088
-675.164	-23.611	-0.240	-0.145
-674.149	-1.077	-0.217	-0.154
-673.135	-200.000	-0.031	-0.337
-672.120	-200.000	0.026	0.188
-671.105	-200.000	0.046	0.205
-670.091	79.140	-0.063	-0.068
-669.076	482.343	-0.108	-0.246
-668.062	-200.000	-0.023	-0.230
-667.047	-104.019	0.070	0.016
-666.032	305.115	0.132	-0.247
-665.018	-170.918	-0.332	-0.011
-664.003	278.366	0.182	-0.325
-662.989	81.671	-0.216	-0.235
-661.974	97.980	-0.090	-0.104
-660.959	94.360	-0.179	-0.204
-659.945	-119.575	-0.363	0.063
-658.930	-9.732	-0.182	0.121
-657.916	132.473	-0.296	-0.384
-656.901	-86.183	0.345	-0.107
-655.886	800.000	-0.094	0.306
-654.872	-60.068	-0.301	-0.129
-653.857	-140.905	-0.251	0.026
-652.843	-63.044	0.299	0.124
-651.828	156.111	-0.042	-0.057
-650.814	-174.488	0.248	0.007
-649.799	800.000	-0.075	0.209
-648.784	-195.197	0.315	0.002
-647.770	-12.152	-0.206	-0.135
-646.755	-18.204	-0.141	-0.089
-645.741	119.976	-0.217	-0.271
-644.726	-200.000	-0.030	-0.175
-643.711	-200.000	-0.069	-0.512
-642.697	-128.651	0.144	0.020
-641.682	-200.000	0.040	-0.180
-640.668	-200.000	0.020	0.122
-639.653	-200.000	0.003	0.261
-638.638	-200.000	0.618	0.000
-637.624	-77.233	-0.256	0.089
-636.609	-101.605	-0.107	0.026
-635.595	800.000	-0.087	0.244
-634.580	108.678	-0.230	-0.275
-633.565	800.000	0.024	0.093
-632.551	-35.424	-0.059	0.032
-631.536	-200.000	0.049	-0.291
-630.522	800.000	0.013	0.057
-629.507	-16.318	-0.212	-0.135
-628.492	-73.007	0.196	-0.072
-627.478	-33.433	0.181	-0.100
-626.463	224.083	-0.218	-0.353
-625.449	-32.933	-0.142	-0.079
-624.434	-140.339	0.270	-0.028
-623.419	-72.796	0.009	0.003
-622.405	346.399	-0.065	0.127
-621.390	800.000	0.103	0.297
-620.376	-200.000	0.003	0.044
-619.361	199.790	-0.105	-0.161
-618.346	672.124	0.135	-0.352
-617.332	-99.226	-0.227	-0.057
-616.317	-200.000	0.005	-0.120
-615.303	-29.632	0.159	0.091
-614.288	-167.438	-0.181	-0.007
-613.273	-17.937	-0.387	0.243
-612.259	51.004	0.121	-0.115
-611.244	110.361	0.075	0.090
-610.230	-151.801	0.304	-0.022
-609.215	34.538	0.184	-0.161
-608.201	-62.055	0.145	0.061
-607.186	489.200	-0.051	-0.118
-606.171	-200.000	0.003	0.096
-605.157	37.631	-0.233	0.207
-604.142	800.000	-0.072	0.240
-603.128	-100.909	-0.124	-0.031
-602.113	325.677	-0.202	-0.387
-601.098	-46.683	0.337	-0.165
-600.084	688.887	0.049	-0.130
-599.069	-65.612	-0.322	-0.130
-598.055	-200.000	-0.073	-0.420
-597.040	-200.000	-0.015	0.108
-596.025	76.773	-0.253	0.269
-595.011	3.120	0.308	-0.224
-593.996	-15.347	0.085	-0.054
-592.982	376.013	0.070	-0.142
-591.967	-173.505	0.093	-0.003
-590.952	392.499	-0.035	0.073
-589.938	-137.953	0.151	-0.017
-588.923	-200.000	0.027	-0.365
-587.909	-48.844	0.243	-0.117
-586.894	124.252	0.251	0.316
-585.879	762.144	-0.060	0.163
-584.865	-93.949	-0.112	-0.031
-583.850	169.885	0.091	0.130
-582.836	-50.432	0.177	0.084
-581.821	24.872	-0.139	0.115
-580.806	-188.218	0.448	0.006
-579.792	800.000	0.042	-0.159
-578.777	-100.389	-0.291	-0.072
-577.763	664.216	0.155	-0.399
-576.748	172.737	0.087	-0.126
-575.733	-200.000	-0.012	-0.157
-574.719	-41.793	-0.204	-0.105
-573.704	503.338	0.064	-0.148
-572.690	156.552	-0.138	-0.191
-571.675	-65.298	-0.158	0.064
-570.661	-47.318	0.099	0.048
-569.646	-200.000	0.003	-0.099
-568.631	504.050	0.089	0.206
-567.617	348.196	0.086	0.170
-566.602	-116.176	-0.280	-0.052
-565.588	-12.893	-0.117	-0.076
-564.573	89.834	0.084	0.094
-563.558	284.101	0.115	0.207
-562.544	800.000	0.026	0.073
-561.529	-45.248	-0.179	-0.089
-560.515	-150.108	-0.051	-0.004
-559.500	-70.617	-0.046	0.017
-558.485	201.856	0.074	0.114
-557.471	-200.000	-0.001	-0.035
-556.456	-11.359	0.189	-0.125
-555.442	-29.998	0.045	0.025
-554.427	443.392	-0.035	0.077
-553.412	-178.415	0.109	0.003
-552.398	-200.000	-0.004	-0.099
-551.383	44.378	-0.115	-0.106
-550.369	162.896	0.049	0.069
-549.354	259.349	0.174	-0.300
-548.339	23.933	0.192	-0.158
-547.325	-142.794	-0.509	0.050
-546.310	-68.815	-0.168	0.065
-545.296	-200.000	0.006	0.180
-544.281	461.969	0.038	-0.085
-543.266	-200.000	-0.003	-0.062
-542.252	84.956	0.190	0.208
-541.237	351.923	0.059	-0.118
-540.223	-59.357	-0.249	0.107
-539.208	69.424	-0.228	-0.235
-538.193	399.299	-0.109	-0.228
-537.179	288.982	-0.101	-0.183
-536.164	163.358	0.163	-0.229
-535.150	554.051	0.121	0.292
-534.135	800.000	0.051	-0.211
-533.121	-200.000	-0.003	-0.073
-532.106	-27.409	0.343	-0.200
-531.091	800.000	0.011	-0.049
-530.077	-164.239	0.253	0.012
-529.062	2.138	-0.236	-0.171
-528.048	-62.270	-0.102	-0.043
-527.033	800.000	-0.053	-0.164
-526.018	321.063	0.055	-0.105
-525.004	16.648	0.041	-0.033
-523.989	-200.000	-0.047	0.208
-522.975	326.884	-0.113	-0.216
-521.960	800.000	0.115	0.376
-520.945	-136.482	0.127	0.015
-519.931	-120.546	-0.031	-0.005
-518.916	108.261	-0.092	-0.109
-517.902	-200.000	-0.005	-0.083
-516.887	-1.037	-0.168	0.119
-515.872	107.762	-0.067	0.080
-514.858	-106.171	0.324	-0.073
-513.843	-58.824	-0.075	-0.032
-512.829	-200.000	-0.033	0.214
-511.814	197.562	-0.074	-0.112
-510.799	-7.996	0.107	0.072
-509.785	-126.464	0.251	0.037
-508.770	-117.489	0.209	-0.038
-507.756	65.607	-0.116	0.117
-506.741	-200.000	-0.009	0.047
-505.726	-200.000	-0.025	0.335
-504.712	800.000	0.049	0.189
-503.697	800.000	-0.117	-0.352
-502.683	-198.587	-0.209	-0.001
-501.668	800.000	0.106	-0.411
-500.653	-200.000	-0.047	-0.316
-499.639	517.483	-0.196	-0.458
-498.624	408.342	0.088	-0.186
-497.610	29.756	-0.183	0.155
-496.595	-200.000	0.031	0.168
-495.581	-200.000	0.015	0.337
-494.566	129.988	-0.168	-0.214
-493.551	-67.114	0.169	-0.066
-492.537	-32.792	-0.190	-0.106
-491.522	-200.000	0.036	0.280
-490.508	166.213	-0.182	-0.257
-489.493	471.696	0.041	-0.093
-488.478	-37.074	-0.215	-0.115
-487.464	93.278	-0.114	-0.129
-486.449	-112.988	-0.227	0.045
-485.435	-200.000	0.070	-0.481
-484.420	234.601	0.035	-0.057
-483.405	-65.618	-0.174	-0.070
-482.391	-200.000	0.002	-0.013
-481.376	-82.048	-0.291	-0.095
-480.362	153.245	0.042	0.057
-479.347	-7.328	0.269	-0.181
-478.332	800.000	-0.086	-0.296
-477.318	-117.760	-0.115	-0.021
-476.303	-2.777	0.196	0.136
-475.289	-200.000	0.004	0.047
-474.274	56.350	-0.131	0.127
-473.259	18.390	0.147	0.117
-472.245	-42.928	-0.236	-0.120
-471.230	176.966	0.050	0.072
-470.216	-200.000	0.026	0.278
-469.201	-93.833	-0.497	-0.136
-468.186	-92.409	0.364	-0.102
-467.172	-67.837	-0.071	-0.028
-466.157	439.096	0.220	0.478
-465.143	-37.151	0.235	0.126
-464.128	265.232	-0.227	-0.394
-463.113	104.323	-0.106	0.124
-462.099	539.266	-0.037	-0.088
-461.084	31.560	-0.179	0.153
-460.070	-62.724	0.079	0.032
-459.055	-189.893	-0.192	-0.002
-458.040	-145.634	0.308	0.027
-457.026	-200.000	0.031	-0.144
-456.011	-93.598	0.309	0.085
-454.997	-152.621	0.076	-0.005
-453.982	800.000	-0.087	0.243
-452.968	-78.636	-0.179	-0.061
-451.953	4.659	-0.251	0.184
-450.938	800.000	0.048	0.185
-449.924	-143.755	0.165	0.016
-448.909	126.836	0.041	0.052
-447.895	73.153	0.088	0.092
-446.880	-58.001	0.373	0.162
-445.865	-107.071	0.103	-0.023
-444.851	27.824	-0.215	-0.180
-443.836	68.872	-0.148	0.151
-442.822	450.115	0.142	0.311
-441.807	-200.000	0.011	0.096
-440.792	800.000	-0.050	0.151
-439.778	-2.106	-0.110	-0.077
-438.763	76.451	-0.147	0.155
-437.749	320.808	-0.174	0.329
-436.734	-105.748	-0.249	-0.056
-435.719	-200.000	-0.056	0.331
-434.705	160.525	-0.204	0.283
-433.690	498.968	-0.136	0.313
-432.676	-165.012	-0.122	0.005
-431.661	-104.322	0.145	0.033
-430.646	-126.149	-0.085	0.013
-429.632	-8.981	0.162	0.108
-428.617	-44.278	-0.316	0.158
-427.603	-98.271	0.181	-0.046
-426.588	171.366	-0.225	0.321
-425.573	295.357	-0.034	-0.062
-424.559	50.023	-0.314	0.295
-423.544	81.050	0.049	0.053
-422.530	800.000	-0.059	-0.241
-421.515	-122.051	-0.301	0.049
-420.500	800.000	0.028	0.078
-419.486	-40.823	0.221	0.114
-418.471	59.744	0.135	0.133
-417.457	53.826	0.131	0.126
-416.442	214.167	0.261	-0.411
-415.428	90.952	0.030	-0.034
-414.413	-85.660	-0.330	0.102
-413.398	-0.962	0.251	0.177
-412.384	-144.839	0.123	-0.011
-411.369	52.305	0.154	0.146
-410.355	126.739	-0.270	-0.340
-409.340	-58.211	-0.102	0.044
-408.325	460.481	-0.064	0.141
-407.311	-200.000	0.009	-0.100
-406.296	-200.000	-0.003	-0.177
-405.282	-37.861	-0.123	0.065
-404.267	659.019	0.119	0.305
-403.252	800.000	-0.075	0.322
-402.238	692.866	0.163	-0.424
-401.223	385.002	0.129	-0.265
-400.209	131.422	0.181	0.231
-399.194	-47.463	0.193	-0.093
-398.179	-65.922	-0.055	-0.022
-397.165	-200.000	0.034	0.302
-396.150	-200.000	-0.079	0.398
-395.136	800.000	-0.016	0.065
-394.121	-200.000	0.009	0.112
-393.106	-60.267	-0.184	-0.078
-392.092	800.000	0.010	-0.033
-391.077	469.075	0.070	-0.156
-390.063	-108.346	-0.120	0.026
-389.048	348.592	0.103	0.202
-388.033	-200.000	-0.399	0.001
-387.019	-34.808	-0.163	-0.089
-386.004	14.253	0.268	0.208
-384.990	-200.000	-0.043	-0.379
-383.975	-129.609	0.395	0.054
-382.960	232.413	-0.049	0.081
-381.946	161.049	0.059	-0.082
-380.931	215.481	-0.048	0.076
-379.917	800.000	-0.102	-0.314
-378.902	728.803	-0.018	0.047
-377.888	-200.000	0.013	-0.274
-376.873	63.224	-0.112	0.111
-375.858	-90.977	0.254	0.073
-374.844	800.000	0.056	0.188
-373.829	81.512	0.294	0.315
-372.815	-200.000	0.059	-0.323
-371.800	67.133	-0.250	0.253
-370.785	-186.340	-0.258	-0.004
-369.771	519.852	-0.086	0.200
-368.756	-53.062	-0.189	0.086
-367.742	88.098	-0.203	0.223
-366.727	-47.414	-0.137	-0.066
-365.712	122.249	0.092	0.114
-364.698	40.414	-0.073	0.065
-363.683	800.000	-0.035	-0.105
-362.669	137.925	-0.056	0.073
-361.654	-108.457	-0.382	-0.082
-360.639	-200.000	0.002	0.082
-359.625	800.000	-0.034	-0.131
-358.610	-124.072	-0.337	0.053
-357.596	-145.113	-0.096	0.009
-356.581	-200.000	0.031	0.320
-355.566	107.209	-0.017	-0.020
-354.552	-51.752	-0.087	0.040
-353.537	109.331	-0.168	-0.199
-352.523	-127.756	-0.284	-0.041
-351.508	-149.911	0.206	-0.016
-350.493	-101.126	0.019	-0.005
-349.479	475.950	-0.133	-0.298
-348.464	-99.846	-0.045	0.011
-347.450	56.038	0.070	0.068
-346.435	72.841	-0.126	-0.130
-345.420	-131.743	0.086	0.011
-344.406	-200.000	0.004	-0.137
-343.391	-24.825	0.162	0.095
-342.377	-200.000	-0.050	0.370
-341.362	-91.763	-0.450	0.127
-340.348	-30.653	0.101	0.057
-339.333	262.002	0.139	0.239
-338.318	11.210	0.075	0.057
-337.304	290.265	0.084	0.151
-336.289	-49.602	0.174	-0.082
-335.275	321.998	0.088	0.166
-334.260	-92.708	0.330	0.092
-333.245	-3.520	0.111	-0.076
-332.231	-200.000	0.098	0.000
-331.216	12.603	0.190	0.146
-330.202	294.405	-0.107	0.194
-329.187	123.625	-0.052	0.065
-328.172	167.015	-0.248	-0.349
-327.158	-4.420	-0.026	-0.018
-326.143	36.236	-0.195	0.170
-325.129	-200.000	0.014	0.070
-324.114	-134.117	0.397	-0.049
-323.099	20.651	-0.077	0.062
-322.085	-62.507	-0.082	-0.034
-321.070	-96.534	-0.081	-0.021
-320.056	-67.321	-0.123	0.048
-319.041	-124.596	0.153	0.023
-318.026	42.227	0.207	0.186
-317.012	-200.000	-0.003	-0.125
-315.997	-200.000	-0.007	-0.194
-314.983	184.915	0.098	0.144
-313.968	20.799	0.128	-0.103
-312.953	175.465	-0.131	-0.188
-311.939	-200.000	-0.010	0.049
-310.924	280.357	-0.112	0.199
-309.910	660.945	0.053	0.135
-308.895	-58.590	0.214	-0.092
-307.880	-109.593	0.175	-0.036
-306.866	-38.466	-0.181	-0.095
-305.851	-21.916	-0.208	0.125
-304.837	800.000	-0.113	-0.348
-303.822	120.484	-0.135	0.166
-302.807	-16.485	0.267	-0.168
-301.793	-200.000	0.005	0.119
-300.778	-106.520	0.309	0.068
-299.764	-200.000	0.000	-0.116
-298.749	-29.534	-0.243	-0.138
-297.735	800.000	0.130	0.373
-296.720	-147.740	0.146	-0.012
-295.705	-119.854	0.153	-0.026
-294.691	-76.964	0.090	-0.031
-293.676	-112.768	-0.236	0.046
-292.662	184.329	0.070	-0.103
-291.647	9.493	-0.093	0.070
-290.632	41.346	0.198	-0.177
-289.618	800.000	0.098	0.390
-288.603	-20.082	-0.058	0.036
-287.589	-46.415	0.077	-0.038
-286.574	-84.480	0.223	0.070
-285.559	414.121	-0.088	-0.184
-284.545	-35.545	-0.251	0.135
-283.530	-44.426	-0.074	-0.037
-282.516	178.341	-0.127	0.183
-281.501	-147.641	0.282	0.023
-280.486	74.352	-0.193	0.201
-279.472	800.000	0.049	0.167
-278.457	40.838	-0.187	-0.167
-277.443	-200.000	-0.049	-0.553
-276.428	104.936	-0.087	0.101
-275.413	110.098	0.197	-0.233
-274.399	115.596	0.128	-0.155
-273.384	800.000	0.024	-0.071
-272.370	758.372	-0.040	0.107
-271.355	-200.000	0.036	-0.296
-270.340	796.349	-0.049	-0.133
-269.326	-200.000	-0.011	0.168
-268.311	800.000	-0.048	0.187
-267.297	-191.730	0.198	0.002
-266.282	-125.841	-0.134	0.020
-265.267	82.491	-0.045	-0.048
-264.253	-136.863	0.320	-0.036
-263.238	-16.913	-0.284	0.177
-262.224	376.729	0.057	0.116
-261.209	163.702	-0.148	-0.206
-260.195	-9.861	-0.362	-0.238
-259.180	59.531	-0.168	-0.164
-258.165	-62.801	0.231	0.095
-257.151	45.970	0.262	0.239
-256.136	2.504	0.174	0.125
-255.122	-82.406	0.213	0.068
-254.107	-38.911	0.200	0.104
-253.092	-113.451	-0.062	0.012
-252.078	8.121	-0.227	-0.169
-251.063	-200.000	0.005	-0.066
-250.049	-108.391	0.096	0.020
-249.034	353.044	-0.213	0.418
-248.019	-118.463	0.324	0.057
-247.005	-200.000	-0.004	0.092
-245.990	800.000	0.047	0.175
-244.976	-125.622	-0.194	-0.029
-243.961	-200.000	-0.024	-0.181
-242.946	-14.184	-0.228	-0.145
-241.932	494.387	-0.046	-0.104
-240.917	800.000	0.140	-0.557
-239.903	92.327	0.212	-0.236
-238.888	-111.205	-0.508	-0.103
-237.873	-132.787	-0.009	-0.001
-236.859	-76.124	-0.071	-0.025
-235.844	-149.210	0.168	-0.013
-234.830	84.733	0.295	-0.319
-233.815	22.004	-0.290	-0.234
-232.800	-179.593	-0.221	0.005
-231.786	352.326	0.148	0.290
-230.771	102.438	-0.064	0.074
-229.757	616.867	-0.016	0.039
-228.742	-200.000	-0.006	0.070
-227.727	800.000	0.075	0.258
-226.713	-25.172	0.193	-0.113
-225.698	-200.000	-0.004	-0.243
-224.684	-53.305	-0.084	-0.038
-223.669	800.000	-0.021	0.087
-222.655	-126.048	-0.129	0.019
-221.640	-122.615	0.195	-0.031
-220.625	40.124	-0.168	0.149
-219.611	-51.262	0.163	0.075
-218.596	-121.109	-0.140	0.023
-217.582	-153.387	0.159	0.011
-216.567	-98.289	0.487	-0.123
-215.552	-70.052	0.089	0.033
-214.538	-200.000	0.032	0.313
-213.523	-140.483	0.219	-0.022
-212.509	-172.176	-0.182	-0.006
-211.494	-164.919	0.247	-0.011
-210.479	13.665	-0.180	0.138
-209.465	270.854	-0.172	0.298
-208.450	-200.000	-0.027	0.141
-207.436	-200.000	0.009	-0.103
-206.421	-142.811	-0.150	-0.014
-205.406	87.879	0.131	-0.143
-204.392	54.474	0.199	-0.189
-203.377	-200.000	0.059	-0.293
-202.363	-79.003	0.269	0.090
-201.348	-39.174	-0.150	-0.078
-200.333	-200.000	-0.033	-0.158
-199.319	110.514	0.246	0.291
-198.304	95.756	0.202	-0.228
-197.290	248.979	0.152	0.253
-196.275	69.561	0.034	0.035
-195.260	36.539	0.128	0.111
-194.246	-149.989	0.124	0.010
-193.231	-163.778	0.258	0.012
-192.217	94.931	0.068	0.076
-191.202	238.641	0.104	-0.171
-190.187	2.444	0.175	0.125
-189.173	152.911	-0.095	-0.128
-188.158	-60.214	0.316	0.133
-187.144	-74.895	0.315	-0.111
-186.129	-81.167	0.210	0.069
-185.114	-123.939	-0.079	0.012
-184.100	-6.940	-0.127	-0.085
-183.085	-200.000	0.055	0.251
-182.071	-34.929	-0.138	-0.074
-181.056	185.570	0.056	-0.082
-180.042	16.457	-0.268	-0.209
-179.027	-200.000	-0.073	-0.382
-178.012	179.002	-0.094	-0.135
-176.998	800.000	-0.066	-0.204
-175.983	800.000	0.042	-0.166
-174.969	106.938	0.200	0.234
-173.954	-49.330	-0.178	0.084
-172.939	-127.567	-0.173	-0.025
-171.925	377.259	0.071	0.142
-170.910	-123.839	0.197	-0.031
-169.896	-136.513	-0.176	-0.020
-168.881	-105.922	-0.082	0.018
-167.866	239.660	0.184	0.302
-166.852	800.000	-0.069	-0.215
-165.837	81.128	0.113	0.121
-164.823	800.000	0.031	0.117
-163.808	-172.467	0.337	0.011
-162.793	455.539	0.059	0.129
-161.779	-200.000	-0.021	0.105
-160.764	255.465	-0.189	0.319
-159.750	800.000	0.067	0.185
-158.735	204.996	-0.180	0.276
-157.720	-81.439	0.166	-0.054
-156.706	-200.000	0.010	-0.097
-155.691	157.721	-0.110	-0.150
-154.677	626.112	0.006	-0.015
-153.662	-28.493	-0.240	0.136
-152.647	711.820	-0.095	-0.248
-151.633	-200.000	0.013	0.063
-150.618	103.178	0.210	0.243
-149.604	-200.000	-0.009	0.077
-148.589	-40.390	0.172	0.088
-147.574	-92.338	-0.302	-0.084
-146.560	92.403	-0.016	0.017
-145.545	-35.113	-0.322	0.173
-144.531	-85.692	-0.013	-0.004
-143.516	-200.000	-0.004	-0.093
-142.502	-83.286	-0.100	-0.032
-141.487	-12.850	-0.110	-0.070
-140.472	-200.000	-0.020	0.122
-139.458	-200.000	-0.015	-0.124
-138.443	39.599	0.148	-0.130
-137.429	-109.790	0.195	-0.040
-136.414	213.510	0.132	-0.205
-135.399	-90.098	-0.082	0.023
-134.385	-44.871	0.324	0.159
-133.370	-19.869	-0.058	-0.035
-132.356	50.920	0.316	0.295
-131.341	49.314	0.203	0.187
-130.326	-0.409	-0.096	0.067
-129.312	-94.849	-0.202	-0.054
-128.297	800.000	-0.042	0.150
-127.283	423.867	-0.098	-0.207
-126.268	-151.159	0.445	0.033
-125.253	-97.607	0.132	-0.034
-124.239	464.906	-0.047	-0.104
-123.224	-92.651	-0.067	-0.018
-122.210	45.268	0.149	0.135
