DTS Sentinel unit serial number:	SN413079Multiplexer serial number:	ORYXHardware model number:	OX4-SRSoftware version number:	ORYX F/W v4.00 Oryx Data Collector v3.7.2.0data status	okinstallation	princeton_trtdifferential loss correction	single-endedforward channel	channel 2reverse channel	N/Adate	2019/09/17time	18:43:35forward acquisition time	60.00reverse acquisition time	0.00gamma	496.2192k internal	0.2293k external	0.2293temperature offset calibration	0.9983default loss term (dB/km)	0.3790temperature slope calibration	1.0000multiplexer offset coefficient	1.0000multiplexer slope coefficient	1.0000fibre end	0.00T internal ref (°C)	42.37T ext. ref 1 (°C)	0.30T ext. ref 2 (°C)	33.55length (m)	temperature (°C)	Stokes	anti-Stokes-747.200	-200.000	0.038	-0.254
-746.185	200.561	-0.271	0.426
-745.171	-140.863	-0.111	0.012
-744.156	-40.115	-0.257	0.137
-743.142	-0.694	-0.378	0.274
-742.127	70.184	-0.166	0.175
-741.112	-200.000	-0.032	-0.489
-740.098	800.000	-0.083	0.250
-739.083	125.261	-0.078	0.100
-738.069	-96.904	-0.286	0.077
-737.054	726.128	-0.050	0.136
-736.039	42.773	0.011	0.010
-735.025	-20.430	0.179	0.113
-734.010	-66.811	-0.299	-0.121
-732.996	502.686	-0.032	0.075
-731.981	-92.514	0.076	-0.022
-730.966	800.000	-0.125	0.360
-729.952	-5.289	0.174	0.122
-728.937	-200.000	0.016	-0.100
-727.923	11.167	-0.037	0.029
-726.908	49.449	0.134	-0.129
-725.894	-123.333	-0.168	-0.027
-724.879	170.299	0.202	0.295
-723.864	-128.912	-0.202	0.029
-722.850	-200.000	-0.022	-0.124
-721.835	-22.068	-0.109	0.068
-720.821	106.963	0.113	0.137
-719.806	219.430	-0.180	-0.294
-718.791	372.397	-0.060	-0.124
-717.777	-72.364	-0.209	-0.079
-716.762	-65.653	0.176	0.072
-715.748	-76.788	0.190	-0.068
-714.733	-200.000	-0.054	0.243
-713.718	65.254	0.089	0.092
-712.704	-38.623	-0.231	-0.125
-711.689	534.891	-0.127	-0.307
-710.675	800.000	-0.037	0.110
-709.660	214.515	-0.135	-0.218
-708.645	283.013	-0.108	-0.197
-707.631	3.521	0.159	0.118
-706.616	-29.268	0.038	0.022
-705.602	56.016	0.085	0.084
-704.587	-94.428	-0.062	-0.017
-703.572	-153.593	0.125	0.009
-702.558	-44.029	-0.196	0.101
-701.543	124.134	0.165	-0.212
-700.529	-65.289	0.212	0.087
-699.514	-54.435	-0.171	-0.079
-698.499	-200.000	-0.001	-0.072
-697.485	-180.114	0.299	0.006
-696.470	-168.414	-0.111	-0.004
-695.456	800.000	-0.030	0.088
-694.441	-186.130	-0.153	-0.002
-693.426	77.942	0.164	-0.179
-692.412	-200.000	-0.013	-0.173
-691.397	-112.926	-0.211	-0.043
-690.383	409.504	-0.057	-0.124
-689.368	-88.795	-0.178	-0.054
-688.354	-171.731	-0.082	0.003
-687.339	45.708	0.199	0.188
-686.324	535.957	0.028	-0.068
-685.310	-44.005	0.376	-0.193
-684.295	393.943	0.051	0.109
-683.281	-136.273	-0.072	0.009
-682.266	-200.000	0.029	-0.198
-681.251	213.401	0.179	-0.289
-680.237	-15.458	0.057	-0.037
-679.222	-200.000	0.023	-0.298
-678.208	-200.000	0.061	-0.389
-677.193	8.565	0.378	-0.290
-676.178	-200.000	-0.078	-0.674
-675.164	-98.879	0.222	-0.058
-674.149	1.889	0.342	-0.252
-673.135	31.182	0.157	0.138
-672.120	-110.510	0.213	-0.045
-671.105	-40.840	0.301	-0.159
-670.091	800.000	-0.018	0.060
-669.076	-200.000	-0.050	0.234
-668.062	-29.494	0.055	-0.032
-667.047	-92.560	0.282	0.081
-666.032	-200.000	0.016	0.253
-665.018	-200.000	0.056	-0.350
-664.003	-82.857	0.292	-0.096
-662.989	800.000	-0.140	-0.455
-661.974	-74.088	0.332	-0.123
-660.959	-51.239	-0.252	0.120
-659.945	88.904	-0.098	-0.111
-658.930	51.714	0.172	-0.167
-657.916	-162.041	0.085	-0.004
-656.901	282.698	0.109	0.200
-655.886	-57.019	-0.176	-0.079
-654.872	-97.018	0.311	-0.083
-653.857	18.055	0.261	0.212
-652.843	118.454	0.086	0.108
-651.828	-200.000	0.047	0.273
-650.814	-29.791	-0.081	-0.047
-649.799	-200.000	0.006	-0.110
-648.784	19.318	-0.279	-0.228
-647.770	759.120	-0.093	0.258
-646.755	-200.000	-0.007	-0.055
-645.741	6.018	0.093	0.070
-644.726	47.305	0.126	0.119
-643.711	323.191	-0.031	0.061
-642.697	-86.985	-0.091	0.028
-641.682	-140.733	-0.499	0.053
-640.668	319.818	-0.097	-0.187
-639.653	-200.000	-0.049	0.301
-638.638	99.524	-0.367	-0.433
-637.624	-200.000	-0.040	0.306
-636.609	-200.000	0.023	0.223
-635.595	-18.334	0.214	0.136
-634.580	-73.651	-0.313	0.116
-633.565	-149.307	-0.286	-0.023
-632.551	-120.398	-0.180	0.031
-631.536	391.634	0.079	0.166
-630.522	-200.000	-0.052	-0.265
-629.507	-67.431	0.229	-0.092
-628.492	153.843	0.037	0.052
-627.478	-44.730	-0.295	0.150
-626.463	-81.503	-0.058	0.019
-625.449	-60.691	-0.215	-0.093
-624.434	800.000	-0.048	-0.205
-623.419	-124.987	-0.207	0.032
-622.405	-101.393	-0.110	-0.027
-621.390	26.536	-0.243	-0.207
-620.376	615.007	0.068	-0.175
-619.361	151.385	-0.158	-0.219
-618.346	-200.000	0.029	-0.294
-617.332	23.044	0.277	-0.232
-616.317	800.000	0.022	0.067
-615.303	23.170	0.124	-0.104
-614.288	0.478	0.109	-0.079
-613.273	-200.000	-0.012	-0.057
-612.259	-146.017	0.202	-0.018
-611.244	34.065	-0.123	-0.109
-610.230	800.000	-0.112	0.382
-609.215	-49.649	-0.335	-0.162
-608.201	-200.000	-0.046	-0.307
-607.186	800.000	0.096	-0.279
-606.171	-200.000	0.003	-0.241
-605.157	41.085	0.272	-0.250
-604.142	-200.000	0.067	-0.310
-603.128	277.717	0.062	0.112
-602.113	-17.064	-0.369	-0.237
-601.098	538.874	-0.043	0.103
-600.084	313.394	-0.174	0.333
-599.069	679.973	0.070	-0.186
-598.055	-98.528	0.188	-0.049
-597.040	-174.211	0.082	-0.002
-596.025	331.257	0.188	0.369
-595.011	43.973	0.201	-0.188
-593.996	-77.912	-0.118	0.041
-592.982	-200.000	-0.022	0.234
-591.967	142.636	0.153	-0.207
-590.952	-164.825	-0.151	-0.007
-589.938	-58.289	-0.293	0.130
-588.923	-103.713	-0.141	-0.034
-587.909	90.326	0.039	0.044
-586.894	226.069	0.140	0.231
-585.879	-200.000	0.025	-0.226
-584.865	-55.947	-0.210	-0.095
-583.850	-60.967	0.267	-0.115
-582.836	-44.873	0.268	-0.136
-581.821	181.592	-0.079	0.119
-580.806	-144.534	0.160	0.015
-579.792	87.564	-0.131	-0.148
-578.777	135.039	0.041	-0.054
-577.763	-42.195	-0.177	0.092
-576.748	-176.128	-0.109	0.003
-575.733	59.505	-0.079	-0.079
-574.719	37.619	0.143	-0.129
-573.704	-63.248	-0.336	0.141
-572.690	800.000	-0.155	0.483
-571.675	800.000	-0.046	-0.140
-570.661	40.028	0.079	-0.072
-569.646	-97.370	0.078	-0.021
-568.631	57.357	0.153	-0.152
-567.617	-42.321	-0.363	0.188
-566.602	244.598	-0.162	-0.276
-565.588	-200.000	0.048	-0.326
-564.573	-5.743	0.156	0.109
-563.558	775.059	0.098	0.271
-562.544	800.000	0.086	0.261
-561.529	42.706	0.182	-0.168
-560.515	194.301	0.105	-0.161
-559.500	-124.027	-0.310	0.049
-558.485	-9.227	-0.469	-0.319
-557.471	-200.000	0.004	0.117
-556.456	-17.568	-0.154	0.098
-555.442	-200.000	0.031	0.408
-554.427	-200.000	0.029	0.192
-553.412	-158.935	0.171	0.010
-552.398	251.371	-0.143	0.247
-551.383	-200.000	0.012	-0.137
-550.369	67.730	-0.213	-0.221
-549.354	31.014	0.175	0.152
-548.339	-200.000	-0.026	0.189
-547.325	55.396	-0.134	-0.132
-546.310	216.558	0.040	0.064
-545.296	414.374	0.099	0.214
-544.281	122.949	0.124	-0.157
-543.266	-125.469	-0.060	0.009
-542.252	344.711	0.130	-0.259
-541.237	-101.450	-0.148	-0.037
-540.223	800.000	0.115	-0.371
-539.208	-181.770	0.209	0.004
-538.193	290.480	0.115	0.213
-537.179	389.720	0.041	0.086
-536.164	-200.000	0.067	0.346
-535.150	-12.623	0.243	-0.161
-534.135	69.964	0.082	0.086
-533.121	-30.728	0.250	0.143
-532.106	-57.762	0.151	-0.067
-531.091	-48.743	0.364	0.177
-530.077	362.016	0.089	-0.181
-529.062	521.785	0.076	0.182
-528.048	-98.273	-0.033	-0.009
-527.033	39.872	-0.442	-0.402
-526.018	250.394	-0.046	0.079
-525.004	268.168	0.056	-0.099
-523.989	-106.894	0.196	-0.044
-522.975	-78.189	0.123	-0.043
-521.960	-200.000	0.019	0.085
-520.945	-11.157	-0.239	0.160
-519.931	-78.804	-0.315	0.109
-518.916	32.828	0.062	0.054
-517.902	126.827	-0.005	-0.007
-516.887	-200.000	-0.014	-0.123
-515.872	-114.313	0.280	0.055
-514.858	-200.000	0.016	-0.425
-513.843	800.000	-0.037	0.135
-512.829	-93.223	0.371	-0.104
-511.814	266.788	0.052	0.092
-510.799	718.540	-0.035	-0.094
-509.785	464.653	-0.149	-0.338
-508.770	763.543	-0.084	-0.232
-507.756	102.243	-0.119	0.140
-506.741	-40.112	-0.194	-0.102
-505.726	-91.312	-0.151	-0.044
-504.712	-200.000	-0.056	-0.257
-503.697	82.539	-0.214	-0.236
-502.683	169.945	0.054	-0.079
-501.668	216.281	0.188	0.303
-500.653	-57.279	0.181	0.081
-499.639	-11.053	0.075	-0.050
-498.624	60.983	-0.053	0.054
-497.610	-137.579	0.286	-0.033
-496.595	-52.524	0.097	-0.045
-495.581	109.783	-0.267	-0.324
-494.566	-83.157	0.139	0.045
-493.551	93.865	0.325	0.373
-492.537	-20.556	0.235	0.146
-491.522	-165.232	0.293	-0.013
-490.508	170.750	-0.145	0.211
-489.493	451.647	-0.033	0.074
-488.478	47.466	0.178	0.168
-487.464	-54.481	-0.290	0.133
-486.449	-127.779	0.111	-0.016
-485.435	126.991	0.084	0.108
-484.420	129.989	-0.172	-0.223
-483.405	148.916	0.020	-0.027
-482.391	-64.546	0.203	0.084
-481.376	39.093	0.076	-0.069
-480.362	-85.254	-0.079	0.025
-479.347	-2.721	-0.248	-0.176
-478.332	38.757	-0.057	-0.052
-477.318	800.000	0.037	-0.154
-476.303	458.053	0.049	-0.110
-475.289	-200.000	-0.075	-0.357
-474.274	-165.671	0.293	-0.013
-473.259	-44.341	-0.281	0.143
-472.245	622.871	0.005	-0.013
-471.230	-143.674	0.186	-0.018
-470.216	-84.692	0.239	-0.076
-469.201	-200.000	0.037	-0.209
-468.186	-144.113	-0.278	0.026
-467.172	-30.127	-0.067	0.038
-466.157	-200.000	-0.037	0.274
-465.143	-133.767	-0.128	0.016
-464.128	-111.618	0.536	0.110
-463.113	-78.342	0.308	0.107
-462.099	469.688	-0.095	0.217
-461.084	791.867	0.095	-0.264
-460.070	22.174	0.113	0.094
-459.055	800.000	-0.020	0.081
-458.040	-20.698	-0.223	-0.138
-457.026	-0.235	0.245	0.176
-456.011	-107.185	0.395	-0.088
-454.997	-200.000	0.029	0.554
-453.982	270.664	-0.099	-0.175
-452.968	-46.048	0.140	-0.070
-451.953	303.154	-0.188	0.352
-450.938	-100.940	-0.252	0.063
-449.924	800.000	-0.098	-0.348
-448.909	3.286	-0.238	-0.175
-447.895	254.801	-0.112	-0.194
-446.880	-200.000	0.011	0.084
-445.865	800.000	-0.073	0.220
-444.851	-124.341	-0.061	-0.010
-443.836	-43.526	-0.075	-0.038
-442.822	-200.000	-0.033	-0.196
-441.807	-200.000	-0.013	-0.229
-440.792	-67.325	-0.318	0.126
-439.778	505.347	-0.065	-0.153
-438.763	104.781	0.102	-0.121
-437.749	-200.000	0.019	-0.221
-436.734	254.485	-0.154	0.266
-435.719	34.670	0.075	0.066
-434.705	-114.478	0.094	-0.018
-433.690	208.517	0.021	-0.033
-432.676	166.133	-0.217	-0.311
-431.661	-109.862	0.352	-0.075
-430.646	800.000	0.036	-0.137
-429.632	-88.190	-0.116	0.035
-428.617	452.247	0.083	0.184
-427.603	-36.098	-0.014	0.007
-426.588	-100.857	0.130	0.032
-425.573	515.986	0.076	0.179
-424.559	-169.514	0.115	0.004
-423.544	-172.919	0.225	-0.007
-422.530	27.359	-0.178	0.151
-421.515	-78.757	-0.205	-0.071
-420.500	-94.811	-0.298	-0.082
-419.486	-5.898	0.162	-0.112
-418.471	-96.749	0.260	-0.069
-417.457	-143.677	-0.190	-0.018
-416.442	800.000	-0.083	-0.254
-415.428	546.638	0.029	0.069
-414.413	527.730	0.085	-0.202
-413.398	-94.899	-0.124	0.034
-412.384	95.705	0.222	0.255
-411.369	-50.730	0.332	0.158
-410.355	-96.605	-0.069	0.018
-409.340	-42.611	0.318	0.163
-408.325	-67.289	0.171	0.068
-407.311	-89.632	0.117	-0.035
-406.296	-75.808	0.160	-0.057
-405.282	-77.997	0.135	0.047
-404.267	-132.421	0.397	0.052
-403.252	-200.000	0.017	-0.087
-402.238	292.657	-0.226	-0.415
-401.223	-200.000	0.003	-0.063
-400.209	730.679	0.087	0.233
-399.194	449.649	-0.161	0.359
-398.179	160.869	-0.183	0.258
-397.165	-58.206	-0.281	-0.124
-396.150	-3.712	-0.102	0.072
-395.136	148.277	-0.184	0.251
-394.121	800.000	0.118	0.398
-393.106	-68.991	-0.126	0.049
-392.092	166.272	0.122	-0.174
-391.077	-96.553	0.166	0.044
-390.063	-120.675	0.215	-0.037
-389.048	708.309	-0.083	0.220
-388.033	-131.250	-0.286	0.038
-387.019	-200.000	-0.006	0.351
-386.004	-63.764	0.073	0.030
-384.990	-167.908	-0.110	0.004
-383.975	130.363	0.118	0.152
-382.960	-200.000	0.015	-0.077
-381.946	558.853	-0.061	-0.148
-380.931	159.435	0.025	0.035
-379.917	800.000	-0.076	0.215
-378.902	58.041	-0.374	0.369
-377.888	333.753	0.108	-0.211
-376.873	-195.343	-0.128	0.001
-375.858	-94.865	0.206	-0.056
-374.844	-160.965	-0.057	0.003
-373.829	206.261	-0.076	0.119
-372.815	-120.216	0.144	0.025
-371.800	73.257	-0.226	-0.238
-370.785	-158.488	0.357	0.021
-369.771	-172.852	-0.107	0.003
-368.756	-200.000	-0.034	0.223
-367.742	-171.787	0.231	-0.008
-366.727	2.379	0.096	0.070
-365.712	218.074	-0.263	0.423
-364.698	-200.000	0.017	-0.243
-363.683	800.000	0.112	-0.482
-362.669	-200.000	-0.038	-0.218
-361.654	-21.969	-0.205	0.126
-360.639	383.023	-0.032	0.065
-359.625	16.278	0.161	0.128
-358.610	-200.000	0.004	0.241
-357.596	800.000	-0.087	0.308
-356.581	113.989	-0.120	-0.147
-355.566	-66.544	0.050	-0.020
-354.552	-113.215	-0.053	-0.010
-353.537	800.000	0.051	0.153
-352.523	94.117	-0.131	-0.149
-351.508	45.304	0.061	-0.057
-350.493	203.143	-0.246	0.384
-349.479	40.825	-0.071	0.065
-348.464	212.505	-0.046	0.074
-347.450	800.000	0.054	-0.221
-346.435	-50.134	0.355	0.169
-345.420	677.055	0.052	-0.136
-344.406	-88.022	0.171	0.052
-343.391	73.998	0.068	0.072
-342.377	-117.054	0.231	0.042
-341.362	101.407	0.284	-0.333
-340.348	-53.706	0.117	-0.054
-339.333	800.000	0.044	-0.194
-338.318	-38.786	-0.133	-0.071
-337.304	-24.902	0.053	0.032
-336.289	-200.000	0.018	-0.285
-335.275	529.770	-0.195	-0.464
-334.260	-200.000	-0.016	0.170
-333.245	-92.291	-0.207	-0.059
-332.231	-99.967	0.128	0.032
-331.216	138.295	0.142	0.188
-330.202	148.957	-0.102	-0.139
-329.187	32.877	0.082	-0.072
-328.172	800.000	-0.066	-0.241
-327.158	-88.703	0.223	0.067
-326.143	768.026	-0.061	0.166
-325.129	445.251	-0.106	-0.233
-324.114	-78.196	-0.122	-0.042
-323.099	-200.000	-0.004	0.080
-322.085	70.631	-0.130	-0.135
-321.070	-145.021	-0.240	0.022
-320.056	-38.984	0.296	-0.157
-319.041	689.255	0.039	0.101
-318.026	-105.960	-0.248	0.056
-317.012	-64.552	-0.173	0.071
-315.997	-162.185	-0.399	-0.020
-314.983	311.358	0.114	0.215
-313.968	-111.524	-0.181	0.037
-312.953	-200.000	-0.060	-0.374
-311.939	423.027	-0.071	0.152
-310.924	-200.000	-0.008	0.319
-309.910	-20.652	-0.183	0.113
-308.895	-65.788	-0.118	0.048
-307.880	800.000	0.076	-0.221
-306.866	-67.082	0.158	0.063
-305.851	142.882	-0.163	-0.218
-304.837	615.485	-0.054	-0.135
-303.822	-81.835	0.210	0.069
-302.807	133.585	-0.313	0.407
-301.793	110.155	0.084	0.101
-300.778	183.580	-0.037	0.055
-299.764	39.155	-0.144	-0.130
-298.749	719.113	0.148	-0.395
-297.735	265.182	0.149	-0.261
-296.720	67.403	0.125	0.129
-295.705	35.537	-0.301	-0.265
-294.691	-200.000	0.030	-0.156
-293.676	48.864	0.044	-0.042
-292.662	-103.047	-0.314	0.075
-291.647	161.220	-0.274	-0.385
-290.632	-114.708	-0.327	-0.063
-289.618	-200.000	-0.048	0.390
-288.603	-200.000	0.004	0.200
-287.589	-200.000	0.005	0.147
-286.574	218.832	0.048	0.078
-285.559	-83.558	-0.228	0.073
-284.545	635.423	0.125	-0.320
-283.530	-200.000	-0.035	-0.431
-282.516	20.829	0.179	0.145
-281.501	-55.018	0.189	0.085
-280.486	-200.000	-0.007	0.180
-279.472	274.734	-0.101	0.180
-278.457	80.503	-0.156	0.169
-277.443	175.459	-0.111	0.161
-276.428	27.409	0.187	-0.158
-275.413	-200.000	-0.028	0.273
-274.399	548.245	0.039	0.093
-273.384	33.990	0.103	-0.090
-272.370	357.349	0.107	0.213
-271.355	800.000	-0.053	0.197
-270.340	-55.212	-0.190	-0.086
-269.326	-200.000	-0.002	0.105
-268.311	-200.000	0.010	0.088
-267.297	210.672	0.222	-0.350
-266.282	-148.335	0.299	0.025
-265.267	6.821	0.238	0.178
-264.253	2.913	-0.123	0.090
-263.238	-200.000	-0.006	-0.125
-262.224	-200.000	0.010	-0.086
-261.209	800.000	0.043	-0.131
-260.195	128.735	-0.141	0.181
-259.180	55.833	-0.133	0.130
-258.165	391.078	0.080	-0.166
-257.151	16.527	0.079	-0.062
-256.136	449.958	-0.068	-0.150
-255.122	-22.218	0.126	0.077
-254.107	6.414	0.225	-0.168
-253.092	-15.435	0.350	0.224
-252.078	-196.217	-0.141	0.001
-251.063	-98.068	-0.179	0.046
-250.049	164.852	0.129	0.183
-249.034	-200.000	0.001	-0.291
-248.019	-160.608	0.312	-0.017
-247.005	-78.606	-0.051	-0.018
-245.990	-75.883	0.345	-0.123
-244.976	356.624	0.097	0.195
-243.961	800.000	0.033	-0.103
-242.946	800.000	-0.111	-0.359
-241.932	30.388	0.059	-0.051
-240.917	164.984	-0.123	-0.175
-239.903	-17.862	0.385	0.242
-238.888	44.105	-0.168	-0.155
-237.873	-61.956	-0.213	-0.089
-236.859	253.810	-0.021	0.036
-235.844	-128.891	-0.167	0.024
-234.830	-96.727	0.041	0.011
-233.815	-61.840	-0.049	-0.020
-232.800	-175.236	0.324	0.009
-231.786	-172.740	0.120	-0.004
-230.771	184.195	-0.141	-0.210
-229.757	-85.257	0.410	0.128
-228.742	-24.806	-0.165	0.098
-227.727	56.767	0.262	0.256
-226.713	251.053	-0.152	0.260
-225.698	-110.159	-0.319	-0.067
-224.684	-43.554	-0.044	-0.022
-223.669	44.533	0.098	-0.091
-222.655	-126.514	0.167	0.025
-221.640	-124.175	0.090	0.014
-220.625	95.719	0.476	0.544
-219.611	295.251	-0.119	-0.219
-218.596	32.030	0.181	0.156
-217.582	5.036	-0.032	0.024
-216.567	308.001	0.118	-0.220
-215.552	-47.806	-0.279	-0.136
-214.538	-106.999	0.140	0.031
-213.523	40.051	-0.035	0.032
-212.509	4.040	0.194	-0.142
-211.494	9.067	0.194	-0.147
-210.479	-127.710	-0.516	0.075
-209.465	800.000	-0.068	-0.209
-208.450	-70.962	-0.105	0.040
-207.436	-56.636	-0.468	-0.208
-206.421	-129.668	0.294	-0.041
-205.406	800.000	-0.028	0.113
-204.392	-40.394	0.121	0.063
-203.377	800.000	0.025	-0.077
-202.363	800.000	-0.046	-0.140
-201.348	-200.000	-0.004	0.049
-200.333	315.821	0.077	0.146
-199.319	166.699	-0.063	0.089
-198.304	162.510	0.169	0.237
-197.290	800.000	0.057	-0.223
-196.275	-24.018	-0.069	0.041
-195.260	96.576	0.021	-0.024
-194.246	-111.930	-0.215	0.044
-193.231	-50.883	0.080	-0.038
-192.217	-200.000	-0.018	0.121
-191.202	31.206	0.178	-0.153
-190.187	-6.877	-0.232	-0.158
-189.173	151.460	-0.077	0.105
-188.158	-200.000	-0.028	0.257
-187.144	323.505	0.096	0.183
-186.129	-200.000	-0.067	0.302
-185.114	188.704	-0.135	-0.202
-184.100	-36.052	-0.228	0.123
-183.085	800.000	0.030	0.095
-182.071	51.736	-0.102	-0.097
-181.056	93.330	-0.180	0.204
-180.042	-2.548	0.289	0.203
-179.027	470.180	0.025	0.057
-178.012	84.149	0.167	0.182
-176.998	-104.510	0.099	0.023
-175.983	-200.000	-0.018	0.148
-174.969	-200.000	-0.000	0.158
-173.954	65.723	0.054	-0.055
-172.939	-114.532	-0.255	-0.049
-171.925	406.046	-0.023	0.049
-170.910	305.690	-0.076	0.142
-169.896	199.140	0.171	-0.262
-168.881	-61.530	-0.226	0.095
-167.866	-20.388	0.255	-0.157
-166.852	-143.197	0.169	-0.016
-165.837	-53.622	0.188	0.086
-164.823	245.863	-0.109	0.183
-163.808	51.094	0.158	-0.150
-162.793	-102.643	0.223	0.053
-161.779	-200.000	-0.009	0.089
-160.764	51.192	-0.269	-0.255
-159.750	-200.000	-0.008	-0.158
-158.735	-62.031	0.137	0.057
-157.720	-141.743	-0.095	0.010
-156.706	12.994	-0.083	0.064
-155.691	-200.000	-0.008	-0.122
-154.677	-42.284	0.085	-0.044
-153.662	136.895	-0.156	-0.204
-152.647	541.123	-0.054	0.129
-151.633	800.000	0.095	0.361
-150.618	19.585	0.327	0.263
-149.604	-91.611	0.008	-0.002
-148.589	-66.155	0.280	0.112
-147.574	78.772	-0.223	0.238
-146.560	306.388	0.107	0.198
-145.545	-200.000	0.009	-0.104
-144.531	-200.000	-0.052	0.242
-143.516	-62.578	0.357	-0.148
-142.502	74.646	0.037	0.039
-141.487	-200.000	0.039	0.213
-140.472	355.091	-0.131	-0.259
-139.458	-87.184	0.410	-0.124
-138.443	-200.000	0.010	0.128
-137.429	-130.055	-0.271	0.037
-136.414	246.045	0.022	0.038
-135.399	-149.095	0.108	0.009
-134.385	246.886	-0.033	-0.055
-133.370	-200.000	0.029	0.486
-132.356	430.513	0.011	0.024
-131.341	-142.633	-0.237	0.023
-130.326	17.237	0.132	0.105
-129.312	583.601	-0.115	-0.283
-128.297	-200.000	0.003	-0.189
-127.283	-43.775	0.440	0.221
-126.268	-30.097	-0.234	-0.133
-125.253	800.000	0.038	0.127
-124.239	271.200	0.101	0.178
-123.224	-25.166	0.150	0.089
-122.210	2.418	-0.146	0.105
-121.195	-153.168	0.099	0.007
-120.180	-200.000	-0.020	0.101
