DTS Sentinel unit serial number:	SN413079Multiplexer serial number:	ORYXHardware model number:	OX4-SRSoftware version number:	ORYX F/W v4.00 Oryx Data Collector v3.7.2.0data status	okinstallation	princeton_trtdifferential loss correction	single-endedforward channel	channel 2reverse channel	N/Adate	2019/09/12time	01:57:11forward acquisition time	60.00reverse acquisition time	0.00gamma	496.2192k internal	0.2326k external	0.2326temperature offset calibration	1.0089default loss term (dB/km)	0.3790temperature slope calibration	1.0000multiplexer offset coefficient	1.0000multiplexer slope coefficient	1.0000fibre end	0.00T internal ref (°C)	32.75T ext. ref 1 (°C)	2.06T ext. ref 2 (°C)	27.45length (m)	temperature (°C)	Stokes	anti-Stokes-747.200	-159.624	0.234	0.013
-746.185	137.138	-0.232	0.306
-745.171	800.000	-0.178	0.507
-744.156	62.144	-0.227	0.228
-743.142	-82.632	0.204	0.067
-742.127	-48.862	-0.207	0.100
-741.112	301.471	0.170	0.317
-740.098	704.834	-0.089	0.238
-739.083	-2.151	0.375	-0.266
-738.069	221.588	0.300	0.487
-737.054	100.371	0.063	0.074
-736.039	-200.000	0.008	0.094
-735.025	-85.780	0.028	-0.009
-734.010	-200.000	0.026	-0.236
-732.996	-141.605	0.149	-0.015
-731.981	245.068	-0.138	-0.234
-730.966	-89.443	-0.178	0.053
-729.952	-127.775	0.080	0.012
-728.937	-200.000	-0.034	-0.315
-727.923	280.904	-0.010	-0.019
-726.908	46.938	-0.183	0.171
-725.894	-14.094	-0.430	0.280
-724.879	-30.043	0.097	0.056
-723.864	-200.000	-0.012	0.239
-722.850	-200.000	-0.003	0.116
-721.835	396.610	0.020	0.041
-720.821	14.301	0.111	0.087
-719.806	86.023	0.160	-0.177
-718.791	220.436	0.128	0.207
-717.777	-126.628	-0.435	0.065
-716.762	288.298	-0.141	0.257
-715.748	145.021	0.150	0.203
-714.733	-118.146	0.196	0.035
-713.718	-138.359	-0.439	-0.049
-712.704	29.735	-0.161	-0.138
-711.689	609.938	0.117	-0.295
-710.675	214.679	0.080	-0.128
-709.660	-135.487	-0.063	-0.008
-708.645	-200.000	-0.041	0.215
-707.631	128.070	-0.129	0.166
-706.616	-200.000	0.001	0.099
-705.602	-129.084	-0.269	0.038
-704.587	-17.932	0.200	0.126
-703.572	66.765	-0.182	-0.186
-702.558	260.449	0.053	0.093
-701.543	-200.000	0.000	-0.080
-700.529	-113.040	0.142	-0.028
-699.514	-103.768	0.306	-0.072
-698.499	411.946	-0.057	-0.121
-697.485	26.436	-0.354	-0.298
-696.470	425.828	-0.137	0.297
-695.456	121.781	0.106	-0.134
-694.441	50.531	-0.058	-0.055
-693.426	-200.000	0.001	-0.057
-692.412	800.000	-0.042	0.130
-691.397	132.796	0.257	-0.334
-690.383	-131.078	-0.357	-0.048
-689.368	-200.000	-0.004	-0.339
-688.354	-25.119	-0.104	-0.062
-687.339	244.032	-0.130	-0.219
-686.324	26.553	0.224	0.189
-685.310	-188.102	-0.139	-0.002
-684.295	-18.973	0.383	0.240
-683.281	-43.494	0.078	-0.040
-682.266	2.671	-0.169	-0.123
-681.251	24.795	0.046	0.038
-680.237	-200.000	-0.000	0.023
-679.222	-185.713	-0.256	-0.004
-678.208	-200.000	0.034	0.412
-677.193	71.704	0.203	-0.213
-676.178	-86.623	-0.104	-0.032
-675.164	-24.188	-0.227	-0.136
-674.149	-3.964	0.130	-0.091
-673.135	582.117	0.040	-0.099
-672.120	-200.000	-0.012	-0.115
-671.105	-200.000	-0.044	0.451
-670.091	96.420	-0.150	-0.172
-669.076	448.787	0.136	0.301
-668.062	-115.626	-0.213	-0.040
-667.047	800.000	0.083	-0.242
-666.032	800.000	-0.039	-0.128
-665.018	753.444	-0.117	-0.317
-664.003	-132.633	-0.525	0.068
-662.989	-64.640	0.316	0.129
-661.974	800.000	0.042	-0.131
-660.959	46.118	0.150	-0.139
-659.945	-75.740	-0.143	0.051
-658.930	78.901	0.227	0.244
-657.916	800.000	-0.065	0.283
-656.901	39.947	0.097	-0.088
-655.886	-200.000	-0.034	-0.382
-654.872	-200.000	0.015	-0.423
-653.857	-11.026	0.331	-0.220
-652.843	-51.896	0.278	-0.130
-651.828	-33.579	0.467	-0.259
-650.814	150.092	-0.179	-0.245
-649.799	800.000	0.069	0.227
-648.784	-200.000	-0.061	0.413
-647.770	-156.656	0.083	-0.005
-646.755	800.000	-0.109	-0.312
-645.741	-200.000	-0.085	-0.398
-644.726	-94.301	-0.209	0.058
-643.711	222.202	0.127	-0.205
-642.697	356.894	-0.106	0.212
-641.682	40.941	0.294	0.266
-640.668	800.000	0.063	-0.224
-639.653	800.000	0.088	-0.345
-638.638	23.903	0.243	-0.201
-637.624	-200.000	-0.003	-0.073
-636.609	-133.636	-0.094	0.012
-635.595	178.249	-0.180	0.264
-634.580	-200.000	-0.006	0.059
-633.565	-23.811	0.238	-0.143
-632.551	135.960	0.271	0.354
-631.536	80.540	-0.083	0.089
-630.522	-200.000	-0.005	-0.029
-629.507	237.149	-0.043	0.071
-628.492	-200.000	0.048	0.231
-627.478	-84.189	0.281	0.090
-626.463	-200.000	0.002	0.047
-625.449	70.053	-0.219	0.227
-624.434	-1.143	-0.325	-0.231
-623.419	122.300	-0.162	-0.203
-622.405	57.402	0.238	-0.233
-621.390	-115.290	0.180	-0.034
-620.376	-200.000	-0.026	0.126
-619.361	-128.308	-0.063	-0.009
-618.346	-44.130	-0.143	0.072
-617.332	491.272	0.043	-0.098
-616.317	-117.281	0.579	0.106
-615.303	45.008	0.099	-0.092
-614.288	800.000	0.085	-0.330
-613.273	-43.622	-0.033	0.017
-612.259	-200.000	0.074	-0.483
-611.244	-13.168	0.230	-0.150
-610.230	35.270	0.398	-0.350
-609.215	-47.057	0.146	0.071
-608.201	-200.000	-0.025	0.130
-607.186	-44.557	0.132	0.066
-606.171	39.635	0.076	0.069
-605.157	-200.000	0.039	0.189
-604.142	113.549	0.276	-0.336
-603.128	800.000	-0.083	-0.270
-602.113	474.190	0.120	-0.272
-601.098	-107.594	-0.255	-0.056
-600.084	63.413	0.110	-0.110
-599.069	118.032	-0.259	0.320
-598.055	41.239	0.142	0.129
-597.040	141.645	-0.242	-0.322
-596.025	-81.212	-0.624	0.207
-595.011	800.000	-0.063	0.186
-593.996	-23.097	-0.382	0.231
-592.982	800.000	0.032	-0.130
-591.967	305.654	0.172	-0.320
-590.952	28.313	0.179	-0.152
-589.938	28.511	-0.283	-0.240
-588.923	66.866	0.182	0.186
-587.909	-200.000	-0.001	-0.012
-586.894	467.276	0.111	-0.249
-585.879	674.571	-0.118	-0.306
-584.865	800.000	0.022	-0.090
-583.850	692.238	0.112	-0.295
-582.836	281.311	0.089	-0.160
-581.821	43.204	-0.198	-0.181
-580.806	286.999	-0.070	0.126
-579.792	-135.510	-0.211	0.025
-578.777	20.860	0.142	0.115
-577.763	800.000	-0.093	-0.261
-576.748	728.668	0.215	0.574
-575.733	206.735	-0.143	-0.223
-574.719	800.000	0.046	0.168
-573.704	800.000	-0.049	-0.144
-572.690	-17.617	-0.076	-0.048
-571.675	-64.833	-0.263	0.107
-570.661	-200.000	0.028	-0.127
-569.646	800.000	0.048	-0.193
-568.631	24.748	-0.264	0.219
-567.617	197.337	-0.127	0.194
-566.602	455.484	-0.116	0.257
-565.588	-145.762	-0.406	-0.036
-564.573	-91.694	0.183	-0.052
-563.558	800.000	-0.087	0.346
-562.544	145.711	-0.213	0.285
-561.529	-120.533	0.258	-0.044
-560.515	-42.990	0.254	0.129
-559.500	-138.395	0.234	-0.026
-558.485	-40.666	-0.485	-0.252
-557.471	-200.000	-0.027	0.235
-556.456	-69.534	-0.167	-0.064
-555.442	56.352	-0.069	0.067
-554.427	-135.814	-0.215	0.025
-553.412	43.377	-0.112	0.103
-552.398	800.000	-0.116	0.420
-551.383	-200.000	-0.026	-0.215
-550.369	-200.000	0.004	0.145
-549.354	800.000	0.031	-0.128
-548.339	9.033	-0.244	0.185
-547.325	248.612	0.084	0.142
-546.310	579.939	0.106	-0.261
-545.296	-37.037	-0.181	0.097
-544.281	551.121	-0.073	-0.174
-543.266	34.432	-0.164	-0.143
-542.252	-73.724	-0.054	0.020
-541.237	140.561	0.060	0.079
-540.223	-173.559	0.094	0.003
-539.208	-68.179	-0.199	0.078
-538.193	-200.000	-0.012	-0.161
-537.179	-200.000	-0.013	-0.244
-536.164	127.667	-0.071	-0.091
-535.150	-200.000	-0.004	0.069
-534.135	-65.695	-0.249	0.100
-533.121	-200.000	-0.015	0.146
-532.106	-200.000	0.065	-0.325
-531.091	-8.812	-0.286	-0.192
-530.077	-84.099	-0.054	0.017
-529.062	-200.000	0.008	-0.082
-528.048	254.837	0.038	0.065
-527.033	-79.086	-0.056	0.019
-526.018	672.256	-0.030	0.078
-525.004	800.000	0.084	0.297
-523.989	0.835	-0.180	-0.129
-522.975	107.101	-0.063	0.075
-521.960	-70.824	-0.386	0.145
-520.945	800.000	0.147	0.470
-519.931	-41.948	0.198	0.102
-518.916	-81.650	-0.383	-0.126
-517.902	236.517	-0.196	-0.324
-516.887	-127.318	-0.058	-0.008
-515.872	92.760	0.330	0.373
-514.858	-91.424	0.172	-0.049
-513.843	132.628	-0.176	0.226
-512.829	-37.301	0.311	-0.166
-511.814	-149.468	0.197	0.016
-510.799	800.000	0.067	-0.236
-509.785	736.937	-0.130	-0.350
-508.770	265.698	-0.009	0.015
-507.756	-87.561	0.210	-0.064
-506.741	-151.683	-0.089	-0.007
-505.726	294.296	-0.061	0.111
-504.712	-200.000	-0.005	0.098
-503.697	759.635	-0.076	0.207
-502.683	-200.000	-0.028	-0.125
-501.668	-138.737	0.086	0.009
-500.653	-200.000	0.007	-0.102
-499.639	800.000	0.012	-0.037
-498.624	-108.398	-0.202	-0.044
-497.610	35.124	-0.325	-0.285
-496.595	-67.177	0.254	-0.100
-495.581	-80.885	0.274	-0.091
-494.566	-86.751	-0.443	-0.135
-493.551	-82.261	-0.293	-0.095
-492.537	10.114	-0.295	-0.224
-491.522	232.142	0.083	0.135
-490.508	800.000	-0.032	-0.090
-489.493	-200.000	0.012	0.134
-488.478	71.455	-0.066	0.069
-487.464	-47.617	0.220	0.106
-486.449	-169.663	-0.041	-0.001
-485.435	-129.980	0.132	-0.018
-484.420	98.380	-0.068	-0.078
-483.405	-192.956	0.278	-0.003
-482.391	-200.000	0.040	-0.258
-481.376	-16.845	0.110	-0.070
-480.362	474.019	-0.073	-0.163
-479.347	441.313	-0.188	-0.411
-478.332	800.000	-0.035	0.106
-477.318	-103.895	-0.229	-0.053
-476.303	404.424	-0.092	0.194
-475.289	181.079	-0.045	-0.065
-474.274	-101.865	0.138	-0.033
-473.259	-200.000	0.044	0.230
-472.245	-200.000	0.021	-0.200
-471.230	-126.588	0.121	-0.018
-470.216	-5.959	0.109	-0.074
-469.201	66.325	-0.050	0.050
-468.186	77.534	-0.185	-0.197
-467.172	86.710	0.209	0.230
-466.157	-102.214	0.180	-0.043
-465.143	363.111	0.135	-0.272
-464.128	110.902	-0.116	-0.140
-463.113	-200.000	0.006	-0.231
-462.099	-200.000	-0.003	-0.078
-461.084	800.000	-0.102	0.315
-460.070	-108.058	0.083	-0.018
-459.055	-200.000	0.007	-0.044
-458.040	-90.244	-0.188	-0.055
-457.026	2.784	-0.186	0.135
-456.011	-7.787	-0.120	0.081
-454.997	800.000	0.025	-0.084
-453.982	103.622	0.240	0.281
-452.968	781.170	-0.110	0.301
-451.953	-134.489	-0.098	0.012
-450.938	443.404	-0.048	-0.106
-449.924	131.380	0.125	0.160
-448.909	800.000	-0.062	-0.177
-447.895	-200.000	-0.000	-0.146
-446.880	-200.000	0.023	-0.283
-445.865	-74.023	-0.194	-0.070
-444.851	155.490	0.071	0.098
-443.836	-119.136	-0.246	-0.043
-442.822	-80.830	0.203	-0.067
-441.807	-65.524	-0.208	0.083
-440.792	109.641	-0.105	0.125
-439.778	-53.128	-0.115	-0.053
-438.763	-120.762	0.134	-0.023
-437.749	-1.940	0.090	-0.063
-436.734	-42.409	-0.398	-0.202
-435.719	-64.237	-0.466	0.189
-434.705	345.841	0.051	-0.099
-433.690	-56.270	0.035	0.015
-432.676	-159.218	0.251	-0.014
-431.661	415.997	0.124	0.264
-430.646	136.170	0.173	-0.224
-429.632	-156.494	0.179	0.011
-428.617	-128.264	-0.160	0.023
-427.603	-144.258	0.375	0.035
-426.588	239.635	0.042	0.070
-425.573	-10.795	-0.165	0.109
-424.559	-3.607	-0.039	0.027
-423.544	-200.000	-0.102	0.470
-422.530	-52.827	-0.220	-0.101
-421.515	116.223	-0.105	-0.128
-420.500	-47.046	0.218	-0.106
-419.486	-200.000	0.048	0.442
-418.471	800.000	-0.027	0.080
-417.457	-162.264	-0.123	-0.006
-416.442	48.008	-0.350	-0.326
-415.428	-76.060	-0.025	0.009
-414.413	17.050	-0.145	0.114
-413.398	-200.000	0.020	0.278
-412.384	800.000	-0.040	0.161
-411.369	800.000	0.045	-0.191
-410.355	89.569	-0.133	0.148
-409.340	-150.361	0.391	0.030
-408.325	171.414	0.195	-0.279
-407.311	-112.532	-0.123	0.024
-406.296	-200.000	0.002	0.139
-405.282	15.129	-0.137	-0.107
-404.267	182.041	0.113	-0.166
-403.252	-123.782	-0.336	0.053
-402.238	-19.073	-0.309	0.191
-401.223	-112.364	0.225	-0.045
-400.209	682.469	-0.042	-0.108
-399.194	284.182	-0.125	-0.224
-398.179	800.000	-0.048	-0.162
-397.165	102.085	0.139	0.161
-396.150	409.057	0.141	0.296
-395.136	565.481	-0.091	0.220
-394.121	39.215	-0.097	-0.086
-393.106	-92.347	-0.098	-0.027
-392.092	800.000	0.107	-0.380
-391.077	-200.000	-0.003	-0.056
-390.063	-80.001	-0.256	-0.085
-389.048	-22.347	0.063	-0.038
-388.033	-6.494	0.170	-0.115
-387.019	396.829	0.110	0.228
-386.004	-59.335	0.195	0.083
-384.990	249.717	0.027	0.045
-383.975	-200.000	0.062	0.402
-382.960	-200.000	0.185	0.001
-381.946	24.597	-0.051	0.042
-380.931	-83.116	-0.066	0.021
-379.917	-36.894	0.048	0.026
-378.902	434.019	0.036	-0.078
-377.888	-200.000	-0.032	0.198
-376.873	590.439	-0.069	0.170
-375.858	-200.000	-0.019	0.094
-374.844	62.092	0.151	0.150
-373.829	71.726	-0.149	0.154
-372.815	154.845	0.329	-0.449
-371.800	207.141	-0.143	0.221
-370.785	420.459	0.106	-0.226
-369.771	189.065	0.208	-0.309
-368.756	-84.099	-0.152	0.048
-367.742	-38.716	-0.229	0.120
-366.727	395.794	-0.104	0.216
-365.712	-200.000	0.025	0.219
-364.698	5.156	0.196	-0.144
-363.683	151.747	-0.064	0.086
-362.669	712.256	0.075	-0.198
-361.654	-115.003	0.209	-0.039
-360.639	-200.000	0.003	0.176
-359.625	59.420	-0.060	0.059
-358.610	800.000	-0.067	-0.251
-357.596	-200.000	-0.017	0.274
-356.581	-125.609	-0.186	-0.028
-355.566	-200.000	-0.022	-0.216
-354.552	-200.000	-0.017	0.128
-353.537	50.908	-0.293	-0.275
-352.523	140.160	-0.186	0.244
-351.508	-65.392	-0.251	-0.100
-350.493	-200.000	-0.019	0.313
-349.479	-71.841	0.315	0.117
-348.464	-108.316	-0.409	0.088
-347.450	-182.506	0.300	-0.005
-346.435	-200.000	-0.007	0.135
-345.420	36.663	-0.135	-0.118
-344.406	-80.762	0.334	0.110
-343.391	-149.841	-0.023	-0.002
-342.377	-22.267	0.411	-0.248
-341.362	-19.356	-0.209	0.128
-340.348	0.717	0.293	0.208
-339.333	-106.927	0.196	0.043
-338.318	137.790	-0.108	0.141
-337.304	-189.394	-0.053	0.001
-336.289	-140.381	0.255	0.026
-335.275	800.000	0.064	0.252
-334.260	108.110	-0.205	-0.242
-333.245	-29.110	0.108	-0.062
-332.231	130.714	0.143	-0.182
-331.216	645.220	0.021	-0.053
-330.202	-24.806	0.248	-0.146
-329.187	105.205	0.098	0.115
-328.172	-112.005	-0.177	-0.035
-327.158	800.000	-0.056	-0.187
-326.143	-200.000	0.000	-0.190
-325.129	-100.385	0.350	0.086
-324.114	229.647	0.186	0.302
-323.099	205.045	0.317	-0.489
-322.085	73.398	-0.245	-0.255
-321.070	-67.077	0.138	-0.054
-320.056	68.864	0.162	-0.165
-319.041	-119.350	0.081	0.014
-318.026	-52.023	-0.152	-0.070
-317.012	-90.292	0.280	-0.081
-315.997	-200.000	0.022	0.496
-314.983	-59.558	0.154	0.066
-313.968	409.354	-0.139	0.291
-312.953	-200.000	-0.002	0.295
-311.939	-200.000	0.017	-0.114
-310.924	800.000	0.021	-0.090
-309.910	-88.533	0.091	-0.027
-308.895	-200.000	-0.012	0.083
-307.880	1.660	-0.132	-0.095
-306.866	800.000	-0.031	0.126
-305.851	-138.721	0.145	0.016
-304.837	-162.847	0.283	0.014
-303.822	102.886	0.119	0.138
-302.807	-44.200	-0.146	0.073
-301.793	128.881	0.110	-0.139
-300.778	414.150	-0.202	0.426
-299.764	-103.240	0.122	-0.029
-298.749	-92.861	0.377	-0.105
-297.735	-200.000	-0.043	0.259
-296.720	-24.883	-0.096	-0.057
-295.705	-200.000	0.010	0.141
-294.691	136.179	-0.389	0.503
-293.676	175.236	0.029	0.041
-292.662	389.613	-0.237	0.486
-291.647	-200.000	-0.024	0.162
-290.632	-86.776	0.314	0.095
-289.618	-200.000	0.095	0.473
-288.603	-144.744	-0.337	0.031
-287.589	800.000	-0.051	-0.161
-286.574	282.711	0.028	-0.050
-285.559	260.899	-0.040	0.069
-284.545	-72.680	-0.260	-0.095
-283.530	409.579	0.062	-0.129
-282.516	293.355	-0.047	-0.085
-281.501	-77.049	0.150	0.052
-280.486	-11.376	-0.066	-0.043
-279.472	-122.743	0.107	0.017
-278.457	-79.080	0.291	0.098
-277.443	182.715	-0.229	0.335
-276.428	-200.000	-0.318	0.002
-275.413	53.933	0.202	0.192
-274.399	-39.543	-0.084	-0.044
-273.384	148.413	0.147	0.196
-272.370	-79.793	-0.299	0.100
-271.355	-23.323	0.076	0.046
-270.340	240.625	-0.142	0.235
-269.326	-119.672	0.426	0.073
-268.311	141.163	-0.141	-0.185
-267.297	25.254	0.057	0.047
-266.282	-200.000	0.027	0.242
-265.267	18.627	0.116	0.092
-264.253	-87.677	-0.256	0.077
-263.238	34.317	-0.127	-0.109
-262.224	800.000	-0.029	0.091
-261.209	14.576	0.294	-0.227
-260.195	524.888	-0.037	0.087
-259.180	-90.882	0.248	-0.071
-258.165	800.000	0.093	-0.285
-257.151	-162.060	-0.477	-0.024
-256.136	123.305	0.149	-0.185
-255.122	187.464	0.232	-0.343
-254.107	-129.195	0.210	0.029
-253.092	683.331	-0.068	0.177
-252.078	-126.683	0.445	-0.065
-251.063	-81.968	0.379	0.123
-250.049	-36.988	-0.216	-0.115
-249.034	-121.885	-0.129	0.021
-248.019	39.062	-0.208	-0.184
-247.005	-105.220	-0.097	-0.022
-245.990	291.978	0.025	-0.046
-244.976	0.755	-0.152	-0.107
-243.961	75.682	0.176	-0.184
-242.946	-70.959	-0.366	-0.136
-241.932	-85.413	-0.275	0.085
-240.917	120.985	-0.135	-0.166
-239.903	-42.595	0.241	0.121
-238.888	100.308	-0.279	0.320
-237.873	-200.000	-0.028	0.262
-236.859	339.432	0.037	-0.071
-235.844	361.426	-0.058	0.115
-234.830	100.766	-0.175	0.202
-233.815	65.170	0.348	0.348
-232.800	-84.049	0.135	-0.042
-231.786	24.598	0.236	0.193
-230.771	78.288	0.068	-0.072
-229.757	-50.158	0.162	-0.076
-228.742	-73.024	0.362	-0.131
-227.727	-155.743	-0.176	-0.011
-226.713	-200.000	-0.031	-0.391
-225.698	305.189	-0.071	0.130
-224.684	-200.000	0.012	0.292
-223.669	-200.000	0.033	-0.167
-222.655	126.210	-0.050	-0.062
-221.640	5.887	-0.189	-0.138
-220.625	-200.000	-0.002	0.022
-219.611	-148.521	0.344	0.028
-218.596	763.933	0.155	0.416
-217.582	673.189	0.063	-0.161
-216.567	-200.000	-0.008	-0.119
-215.552	-200.000	-0.047	-0.290
-214.538	-27.896	0.309	-0.177
-213.523	-4.409	0.252	-0.172
-212.509	800.000	0.046	-0.170
-211.494	-66.777	-0.067	0.026
-210.479	54.354	-0.136	0.129
-209.465	-110.583	0.204	-0.042
-208.450	-15.587	-0.084	-0.053
-207.436	-168.381	0.136	-0.005
-206.421	-92.584	-0.180	-0.050
-205.406	483.663	0.165	-0.372
-204.392	-41.312	0.102	0.052
-203.377	320.165	-0.244	0.458
-202.363	800.000	0.025	-0.098
-201.348	153.396	0.193	0.261
-200.333	-181.679	-0.093	0.002
-199.319	114.647	0.247	0.297
-198.304	49.229	0.216	-0.200
-197.290	800.000	-0.123	-0.418
-196.275	86.174	0.046	0.051
-195.260	285.862	0.074	0.132
-194.246	28.067	0.018	-0.015
-193.231	92.603	0.197	-0.220
-192.217	-62.016	-0.169	0.070
-191.202	-200.000	0.060	-0.277
-190.187	218.725	-0.121	0.190
-189.173	61.691	0.176	-0.172
-188.158	23.834	0.091	-0.074
-187.144	-153.839	-0.248	0.017
-186.129	800.000	-0.053	0.177
-185.114	-36.145	-0.158	-0.084
-184.100	-35.598	0.045	0.024
-183.085	-87.617	-0.139	-0.041
-182.071	225.547	0.138	0.220
-181.056	17.486	0.172	-0.135
-180.042	-68.868	0.496	0.189
-179.027	-200.000	0.074	0.330
-178.012	-200.000	-0.010	-0.210
-176.998	406.551	-0.067	-0.140
-175.983	-79.998	0.393	-0.130
-174.969	261.143	-0.193	0.329
-173.954	-200.000	0.009	-0.207
-172.939	111.622	0.110	-0.131
-171.925	800.000	0.108	-0.316
-170.910	-156.908	-0.275	0.017
-169.896	-200.000	0.006	0.250
-168.881	-12.012	0.097	-0.063
-167.866	-3.218	0.068	0.047
-166.852	1.681	-0.261	-0.185
-165.837	-112.500	0.112	0.022
-164.823	-200.000	-0.024	-0.212
-163.808	615.085	-0.088	-0.218
-162.793	64.736	-0.104	-0.104
-161.779	-85.070	-0.155	0.048
-160.764	-163.245	-0.194	-0.009
-159.750	283.129	-0.035	-0.062
-158.735	-38.039	-0.124	-0.065
-157.720	-200.000	-0.009	0.173
-156.706	325.681	0.076	-0.142
-155.691	154.497	-0.310	0.420
-154.677	-29.642	0.153	-0.086
-153.662	118.315	-0.112	0.137
-152.647	800.000	0.075	-0.325
-151.633	-63.439	0.132	-0.053
-150.618	183.659	0.150	0.218
-149.604	800.000	-0.074	0.246
-148.589	203.599	-0.042	-0.064
-147.574	-88.165	0.232	0.069
-146.560	42.419	-0.176	0.158
-145.545	-44.391	0.206	-0.102
-144.531	424.694	0.103	0.217
-143.516	-179.871	0.196	0.004
-142.502	192.089	0.058	0.086
-141.487	-36.734	-0.154	-0.082
-140.472	-20.820	-0.248	0.150
-139.458	140.357	-0.233	0.304
-138.443	105.524	0.113	0.131
-137.429	-85.039	-0.061	0.019
-136.414	270.621	0.086	-0.149
-135.399	607.048	-0.092	0.225
-134.385	150.097	0.181	0.241
-133.370	-134.233	-0.168	-0.020
-132.356	-200.000	-0.033	0.311
-131.341	-134.814	-0.184	0.022
-130.326	409.679	-0.116	-0.243
-129.312	800.000	0.061	0.250
-128.297	-146.763	0.247	-0.021
-127.283	-116.671	0.520	0.094
-126.268	-140.602	-0.128	-0.013
-125.253	-200.000	-0.005	-0.067
-124.239	-200.000	0.031	-0.319
-123.224	-120.739	-0.263	0.044
-122.210	-119.731	-0.266	-0.045
