DTS Sentinel unit serial number:	SN413079Multiplexer serial number:	ORYXHardware model number:	OX4-SRSoftware version number:	ORYX F/W v4.00 Oryx Data Collector v3.7.2.0data status	okinstallation	princeton_trtdifferential loss correction	single-endedforward channel	channel 2reverse channel	N/Adate	2019/09/17time	19:27:35forward acquisition time	60.00reverse acquisition time	0.00gamma	496.2192k internal	0.2323k external	0.2323temperature offset calibration	0.9988default loss term (dB/km)	0.3790temperature slope calibration	1.0000multiplexer offset coefficient	1.0000multiplexer slope coefficient	1.0000fibre end	0.00T internal ref (°C)	37.02T ext. ref 1 (°C)	0.25T ext. ref 2 (°C)	25.31length (m)	temperature (°C)	Stokes	anti-Stokes-747.200	-200.000	-0.035	-0.183
-746.185	-65.676	-0.307	0.124
-745.171	-111.545	0.072	0.015
-744.156	75.987	-0.329	0.351
-743.142	-156.627	-0.275	0.017
-742.127	-126.247	-0.326	-0.049
-741.112	-78.220	0.020	-0.007
-740.098	29.721	0.148	0.127
-739.083	94.193	0.178	-0.204
-738.069	-200.000	-0.005	0.161
-737.054	800.000	0.049	0.175
-736.039	41.156	-0.279	0.254
-735.025	-113.634	0.312	0.062
-734.010	-110.391	-0.076	-0.016
-732.996	54.903	0.019	0.019
-731.981	-200.000	0.018	0.259
-730.966	79.383	-0.067	-0.073
-729.952	-177.237	0.142	-0.004
-728.937	-152.905	-0.426	0.030
-727.923	12.611	-0.275	-0.214
-726.908	800.000	-0.076	0.218
-725.894	-122.067	-0.281	0.047
-724.879	-169.949	0.358	0.013
-723.864	35.182	-0.214	0.189
-722.850	134.978	-0.208	-0.272
-721.835	-16.900	-0.168	-0.107
-720.821	-172.372	0.101	-0.003
-719.806	-104.821	-0.096	-0.022
-718.791	-200.000	0.005	-0.231
-717.777	16.397	0.094	0.074
-716.762	800.000	0.042	-0.144
-715.748	79.810	0.108	-0.117
-714.733	-106.545	0.049	0.011
-713.718	143.077	0.041	0.055
-712.704	64.188	-0.179	-0.181
-711.689	221.641	-0.139	-0.225
-710.675	800.000	0.024	-0.071
-709.660	775.825	-0.055	0.153
-708.645	-200.000	0.018	-0.240
-707.631	-200.000	-0.034	-0.255
-706.616	-200.000	0.099	-0.540
-705.602	106.217	-0.104	0.124
-704.587	592.197	-0.092	-0.229
-703.572	-109.647	-0.235	0.050
-702.558	181.799	0.137	0.204
-701.543	-51.281	-0.068	-0.032
-700.529	-200.000	-0.024	-0.167
-699.514	-72.560	0.198	0.074
-698.499	-133.861	0.129	0.016
-697.485	-3.773	-0.210	-0.147
-696.470	-24.362	0.216	-0.130
-695.456	84.180	0.079	0.087
-694.441	126.884	-0.233	0.298
-693.426	652.810	0.141	-0.365
-692.412	800.000	-0.115	-0.360
-691.397	-200.000	-0.003	-0.167
-690.383	7.850	0.230	-0.174
-689.368	41.793	-0.216	-0.197
-688.354	-134.639	0.291	-0.036
-687.339	800.000	0.046	0.159
-686.324	378.822	-0.073	-0.150
-685.310	314.487	-0.024	-0.045
-684.295	-89.641	0.147	0.043
-683.281	-10.367	-0.159	-0.106
-682.266	-5.261	0.083	0.058
-681.251	-95.829	-0.135	0.036
-680.237	-200.000	0.011	-0.171
-679.222	-99.270	-0.132	0.034
-678.208	800.000	-0.048	0.153
-677.193	-200.000	0.055	-0.319
-676.178	-101.278	0.071	-0.017
-675.164	-200.000	0.004	0.032
-674.149	375.075	0.071	-0.146
-673.135	800.000	0.059	-0.259
-672.120	800.000	-0.101	0.374
-671.105	-200.000	0.027	0.265
-670.091	-18.223	-0.244	-0.154
-669.076	-49.724	0.221	-0.106
-668.062	235.627	0.166	-0.276
-667.047	-10.382	0.350	-0.233
-666.032	-47.669	-0.037	-0.018
-665.018	290.505	-0.074	0.136
-664.003	262.951	-0.114	-0.199
-662.989	558.853	0.056	-0.137
-661.974	51.847	0.080	-0.076
-660.959	-31.615	-0.331	0.187
-659.945	-167.855	0.367	-0.015
-658.930	-200.000	-0.020	0.576
-657.916	290.639	-0.187	0.342
-656.901	800.000	0.084	0.266
-655.886	450.770	-0.126	0.280
-654.872	-200.000	0.019	-0.126
-653.857	-163.871	-0.373	0.018
-652.843	-89.370	-0.176	0.052
-651.828	76.869	0.195	0.208
-650.814	508.155	-0.100	-0.235
-649.799	69.745	-0.118	0.122
-648.784	-45.770	0.112	0.056
-647.770	595.566	-0.092	-0.229
-646.755	12.793	-0.209	0.162
-645.741	800.000	0.092	0.377
-644.726	159.369	-0.047	0.066
-643.711	-200.000	0.010	0.102
-642.697	-132.658	0.181	0.023
-641.682	-34.316	0.029	-0.016
-640.668	-161.357	-0.066	0.003
-639.653	133.159	0.114	0.149
-638.638	-200.000	-0.007	-0.281
-637.624	-200.000	-0.009	-0.274
-636.609	23.140	-0.044	-0.036
-635.595	186.408	0.046	0.068
-634.580	-3.155	0.018	-0.012
-633.565	-42.144	0.473	0.243
-632.551	-41.405	-0.135	-0.070
-631.536	36.598	0.051	-0.045
-630.522	-200.000	0.056	-0.349
-629.507	-69.873	0.105	-0.040
-628.492	-36.347	0.122	0.066
-627.478	-100.169	-0.230	0.057
-626.463	29.572	-0.154	-0.132
-625.449	317.527	-0.145	-0.276
-624.434	69.370	0.123	-0.128
-623.419	-200.000	0.040	0.200
-622.405	26.367	0.321	-0.269
-621.390	-97.448	0.209	-0.055
-620.376	-200.000	0.013	-0.376
-619.361	-200.000	0.031	-0.409
-618.346	-114.773	0.400	0.077
-617.332	-200.000	-0.024	-0.108
-616.317	-82.673	-0.291	-0.095
-615.303	119.146	-0.179	0.223
-614.288	-200.000	-0.001	0.388
-613.273	-71.816	0.050	-0.019
-612.259	-78.398	-0.303	-0.104
-611.244	-156.875	0.293	-0.018
-610.230	800.000	-0.064	0.255
-609.215	539.550	-0.144	-0.345
-608.201	-79.055	0.182	0.062
-607.186	-30.343	0.159	0.091
-606.171	77.215	-0.351	-0.374
-605.157	20.068	0.134	-0.109
-604.142	-200.000	0.020	-0.365
-603.128	-200.000	-0.014	-0.170
-602.113	800.000	0.066	-0.231
-601.098	80.318	0.160	-0.173
-600.084	-52.768	0.510	0.236
-599.069	-128.443	-0.007	-0.001
-598.055	220.589	0.273	0.439
-597.040	-39.816	-0.103	-0.054
-596.025	641.713	-0.048	-0.123
-595.011	-200.000	0.000	0.030
-593.996	-98.527	0.056	0.014
-592.982	511.260	-0.125	0.292
-591.967	689.608	-0.086	0.226
-590.952	-200.000	-0.030	-0.267
-589.938	5.014	-0.050	0.037
-588.923	109.705	-0.137	0.165
-587.909	800.000	0.096	0.317
-586.894	7.541	-0.193	-0.145
-585.879	-21.504	0.211	0.129
-584.865	-46.914	0.198	0.097
-583.850	273.307	-0.046	-0.081
-582.836	-10.705	0.155	-0.103
-581.821	376.555	0.016	-0.034
-580.806	119.945	-0.097	0.121
-579.792	160.350	0.333	-0.465
-578.777	-200.000	-0.029	-0.000
-577.763	15.147	-0.260	-0.205
-576.748	8.862	-0.296	0.224
-575.733	160.203	0.202	0.283
-574.719	-200.000	-0.042	0.196
-573.704	-200.000	0.007	-0.243
-572.690	-16.094	0.209	-0.133
-571.675	-200.000	-0.015	0.131
-570.661	16.352	-0.294	-0.233
-569.646	800.000	-0.014	-0.061
-568.631	116.833	-0.281	0.346
-567.617	-200.000	0.007	-0.245
-566.602	-173.327	-0.131	-0.004
-565.588	8.431	-0.118	-0.089
-564.573	-200.000	0.003	0.057
-563.558	800.000	-0.031	0.133
-562.544	-200.000	-0.060	-0.347
-561.529	-91.267	0.128	-0.037
-560.515	-139.209	-0.176	0.019
-559.500	-60.560	-0.021	0.009
-558.485	800.000	-0.063	-0.210
-557.471	104.202	0.202	0.239
-556.456	408.177	-0.066	0.141
-555.442	46.511	-0.235	-0.219
-554.427	-79.357	0.048	0.016
-553.412	-71.478	0.155	0.058
-552.398	-103.588	0.207	-0.049
-551.383	-140.788	-0.178	0.018
-550.369	-138.892	-0.182	-0.020
-549.354	228.264	-0.069	-0.112
-548.339	-200.000	0.049	0.643
-547.325	-19.266	-0.189	0.118
-546.310	647.966	0.070	0.178
-545.296	4.680	-0.289	0.213
-544.281	800.000	-0.021	-0.083
-543.266	24.224	-0.329	0.273
-542.252	-200.000	-0.016	-0.112
-541.237	-200.000	-0.006	-0.133
-540.223	157.345	-0.111	0.154
-539.208	17.180	-0.078	-0.062
-538.193	-200.000	0.019	-0.421
-537.179	800.000	0.032	0.125
-536.164	-200.000	0.001	0.059
-535.150	-6.777	0.045	-0.031
-534.135	68.673	0.116	0.119
-533.121	-32.336	0.284	0.159
-532.106	-200.000	0.012	0.226
-531.091	-42.589	0.198	0.101
-530.077	665.127	-0.046	0.118
-529.062	800.000	-0.092	-0.305
-528.048	25.503	-0.386	-0.322
-527.033	-200.000	-0.024	0.219
-526.018	596.258	-0.090	0.223
-525.004	-144.662	0.233	0.022
-523.989	281.683	0.082	0.147
-522.975	120.671	-0.035	0.044
-521.960	-86.739	0.304	-0.093
-520.945	-115.022	-0.167	-0.032
-519.931	-200.000	0.036	-0.157
-518.916	-91.434	0.102	0.029
-517.902	-2.335	0.238	-0.167
-516.887	8.204	0.122	-0.091
-515.872	-124.772	-0.187	-0.029
-514.858	-122.412	-0.227	-0.037
-513.843	1.779	0.340	-0.245
-512.829	262.419	0.087	-0.151
-511.814	34.025	0.197	-0.172
-510.799	-123.175	-0.055	-0.009
-509.785	-106.626	-0.105	0.023
-508.770	493.204	-0.041	-0.094
-507.756	-77.528	0.241	-0.084
-506.741	112.858	-0.060	0.073
-505.726	-6.414	-0.266	0.182
-504.712	-134.345	0.202	-0.025
-503.697	415.138	-0.063	-0.134
-502.683	-62.405	-0.235	0.098
-501.668	-162.585	0.265	-0.013
-500.653	-200.000	0.003	0.194
-499.639	-200.000	-0.017	0.111
-498.624	-132.057	0.185	0.024
-497.610	-35.949	-0.119	0.064
-496.595	-14.902	0.165	-0.106
-495.581	-46.459	-0.234	0.115
-494.566	800.000	-0.083	0.364
-493.551	51.711	-0.044	0.042
-492.537	133.839	0.100	-0.130
-491.522	800.000	0.110	-0.344
-490.508	136.516	0.063	-0.082
-489.493	-200.000	-0.032	0.152
-488.478	-26.868	-0.094	-0.055
-487.464	-39.350	0.140	-0.074
-486.449	-23.039	0.199	0.120
-485.435	-188.709	-0.180	-0.002
-484.420	6.475	0.151	0.112
-483.405	322.242	0.155	-0.295
-482.391	-97.908	-0.129	-0.033
-481.376	800.000	-0.049	-0.213
-480.362	-200.000	-0.022	0.117
-479.347	-67.884	0.081	-0.032
-478.332	-129.974	0.141	0.019
-477.318	-135.195	0.152	0.018
-476.303	262.708	-0.123	0.213
-475.289	-200.000	0.002	-0.112
-474.274	29.321	0.192	0.163
-473.259	-108.456	0.103	0.022
-472.245	-87.527	-0.349	0.106
-471.230	800.000	0.080	-0.314
-470.216	800.000	-0.098	0.409
-469.201	387.668	0.075	-0.154
-468.186	527.945	-0.136	-0.319
-467.172	-24.053	-0.078	0.047
-466.157	800.000	-0.044	-0.124
-465.143	-79.114	-0.330	0.112
-464.128	800.000	-0.054	-0.156
-463.113	183.641	-0.129	-0.190
-462.099	315.897	-0.097	0.183
-461.084	45.533	0.056	0.052
-460.070	800.000	0.043	0.155
-459.055	-31.107	0.245	0.138
-458.040	-200.000	-0.008	-0.261
-457.026	-100.828	0.236	0.058
-456.011	123.496	0.219	0.275
-454.997	-164.054	0.016	0.001
-453.982	-86.780	0.233	0.071
-452.968	-120.804	0.127	0.021
-451.953	800.000	0.046	-0.135
-450.938	-56.575	0.118	-0.052
-449.924	-200.000	0.021	-0.188
-448.909	-200.000	0.033	0.186
-447.895	-97.247	0.109	0.028
-446.880	-198.166	-0.354	-0.002
-445.865	-104.342	-0.290	-0.067
-444.851	-124.511	-0.229	-0.036
-443.836	376.828	0.025	-0.050
-442.822	11.510	0.117	-0.089
-441.807	-200.000	-0.044	-0.211
-440.792	-7.067	0.283	0.191
-439.778	-200.000	-0.008	0.153
-438.763	8.547	-0.226	-0.170
-437.749	461.070	0.029	-0.064
-436.734	165.000	0.101	-0.142
-435.719	-21.234	-0.056	-0.034
-434.705	-200.000	0.000	0.104
-433.690	-97.918	0.142	0.037
-432.676	-107.855	-0.374	-0.081
-431.661	-32.617	-0.269	0.150
-430.646	-200.000	-0.009	0.082
-429.632	503.218	0.089	0.206
-428.617	-26.255	0.321	-0.188
-427.603	-79.313	0.061	-0.020
-426.588	-200.000	-0.040	0.262
-425.573	347.815	0.170	0.334
-424.559	-88.418	-0.346	-0.103
-423.544	-84.218	-0.023	-0.007
-422.530	148.674	-0.137	0.185
-421.515	-115.643	-0.189	-0.035
-420.500	800.000	0.035	-0.110
-419.486	-164.446	-0.245	0.011
-418.471	-147.070	0.172	-0.015
-417.457	800.000	-0.049	-0.140
-416.442	-62.388	0.118	-0.049
-415.428	-90.842	0.168	-0.048
-414.413	89.129	0.026	0.029
-413.398	-30.711	-0.105	-0.059
-412.384	7.836	-0.045	0.034
-411.369	2.427	-0.193	-0.139
-410.355	-200.000	-0.030	-0.292
-409.340	-87.573	-0.261	-0.078
-408.325	-31.767	-0.367	-0.205
-407.311	-24.871	-0.092	-0.055
-406.296	33.765	-0.260	-0.225
-405.282	-42.962	0.344	0.174
-404.267	-200.000	-0.020	-0.195
-403.252	735.085	-0.023	-0.061
-402.238	-70.429	-0.160	-0.060
-401.223	800.000	-0.058	-0.171
-400.209	65.498	-0.057	-0.058
-399.194	-200.000	0.016	-0.160
-398.179	241.963	-0.231	0.384
-397.165	26.270	0.323	0.269
-396.150	800.000	0.021	0.070
-395.136	48.039	-0.139	0.130
-394.121	-200.000	0.009	-0.154
-393.106	721.208	-0.215	0.568
-392.092	-160.090	-0.298	-0.016
-391.077	-178.518	-0.077	-0.002
-390.063	-168.439	0.296	0.011
-389.048	81.791	0.104	0.112
-388.033	-45.142	0.373	-0.185
-387.019	19.775	0.069	-0.055
-386.004	512.266	-0.230	-0.532
-384.990	268.671	0.128	-0.223
-383.975	-200.000	0.042	0.360
-382.960	-31.685	0.125	0.070
-381.946	57.808	0.099	0.097
-380.931	295.064	0.127	-0.231
-379.917	-59.149	0.197	0.085
-378.902	173.745	0.075	0.108
-377.888	-44.700	0.187	-0.093
-376.873	563.587	-0.127	0.307
-375.858	202.770	-0.160	0.246
-374.844	-200.000	0.001	0.297
-373.829	-37.488	0.243	0.129
-372.815	81.549	-0.111	0.120
-371.800	-200.000	-0.001	-0.212
-370.785	-200.000	-0.006	-0.115
-369.771	-200.000	0.030	-0.336
-368.756	-120.242	0.249	-0.042
-367.742	800.000	-0.045	-0.130
-366.727	375.277	-0.029	-0.059
-365.712	-47.333	0.211	-0.102
-364.698	-200.000	-0.030	0.131
-363.683	-109.248	-0.101	-0.021
-362.669	-53.071	0.199	-0.091
-361.654	800.000	0.071	-0.239
-360.639	-64.427	0.110	0.044
-359.625	800.000	0.037	-0.157
-358.610	9.263	0.400	-0.300
-357.596	125.452	-0.090	-0.113
-356.581	-52.964	-0.191	-0.087
-355.566	-200.000	-0.004	0.213
-354.552	-190.315	0.123	0.001
-353.537	120.550	-0.090	0.112
-352.523	50.048	-0.277	0.260
-351.508	-137.088	0.265	-0.030
-350.493	-52.561	-0.060	0.027
-349.479	-200.000	-0.041	-0.447
-348.464	800.000	0.016	0.066
-347.450	-108.955	-0.205	-0.043
-346.435	-191.255	0.160	-0.002
-345.420	-129.326	-0.288	-0.040
-344.406	-200.000	-0.005	-0.125
-343.391	-21.836	-0.123	-0.074
-342.377	90.303	0.137	-0.153
-341.362	779.540	-0.008	0.021
-340.348	60.989	0.168	0.166
-339.333	190.430	-0.211	0.315
-338.318	-33.998	-0.347	-0.190
-337.304	295.301	0.074	0.134
-336.289	99.379	-0.208	-0.239
-335.275	-71.011	-0.172	-0.064
-334.260	-23.169	0.154	-0.092
-333.245	-34.096	-0.132	-0.072
-332.231	-70.372	0.138	-0.052
-331.216	-200.000	-0.030	-0.401
-330.202	800.000	-0.071	-0.264
-329.187	-77.489	-0.194	0.067
-328.172	-45.138	-0.084	-0.041
-327.158	-151.185	0.215	0.016
-326.143	97.841	-0.194	0.221
-325.129	-101.634	-0.262	0.063
-324.114	39.019	0.039	0.034
-323.099	-200.000	0.016	0.101
-322.085	166.110	0.108	-0.152
-321.070	-200.000	-0.150	-0.001
-320.056	800.000	-0.136	0.492
-319.041	-153.185	0.228	0.016
-318.026	-178.362	-0.269	0.006
-317.012	-200.000	-0.007	0.063
-315.997	4.000	-0.145	0.105
-314.983	231.012	0.204	0.332
-313.968	800.000	0.064	-0.188
-312.953	-49.238	-0.338	-0.161
-311.939	4.880	-0.113	0.082
-310.924	-200.000	-0.011	0.124
-309.910	62.407	-0.135	0.134
-308.895	-14.490	-0.248	-0.158
-307.880	-200.000	-0.048	-0.233
-306.866	-69.070	0.086	-0.033
-305.851	144.307	0.140	-0.185
-304.837	-200.000	0.007	0.130
-303.822	12.095	0.184	-0.140
-302.807	-94.966	0.136	0.037
-301.793	800.000	0.134	0.406
-300.778	20.204	-0.028	-0.023
-299.764	132.917	0.176	0.226
-298.749	76.887	0.071	-0.074
-297.735	390.539	-0.168	-0.345
-296.720	-200.000	-0.007	-0.035
-295.705	26.767	-0.132	-0.110
-294.691	-200.000	0.014	0.268
-293.676	-200.000	-0.015	0.181
-292.662	-88.987	0.028	-0.008
-291.647	800.000	-0.115	0.342
-290.632	-32.533	-0.215	-0.119
-289.618	-21.575	-0.054	-0.033
-288.603	190.111	-0.110	0.163
-287.589	242.822	-0.109	0.182
-286.574	-200.000	-0.072	0.322
-285.559	800.000	-0.051	0.184
-284.545	-79.286	-0.242	0.081
-283.530	800.000	-0.072	-0.300
-282.516	-200.000	-0.066	-0.395
-281.501	327.157	0.242	-0.460
-280.486	2.880	-0.218	-0.157
-279.472	211.997	0.140	0.219
-278.457	456.844	-0.131	0.289
-277.443	-56.650	0.157	0.069
-276.428	-200.000	0.009	0.000
-275.413	800.000	0.084	0.266
-274.399	-200.000	-0.001	0.220
-273.384	49.352	-0.145	-0.135
-272.370	-88.835	0.552	0.162
-271.355	-187.058	-0.065	-0.001
-270.340	-58.665	-0.148	0.064
-269.326	-92.481	0.166	0.046
-268.311	-200.000	-0.013	0.298
-267.297	297.896	-0.102	0.185
-266.282	800.000	-0.062	0.214
-265.267	-200.000	-0.002	0.023
-264.253	323.612	0.053	0.099
-263.238	-26.296	-0.272	0.158
-262.224	10.564	-0.238	0.180
-261.209	21.433	0.129	-0.104
-260.195	285.287	0.095	0.170
-259.180	-81.513	-0.059	-0.019
-258.165	-43.547	-0.158	-0.079
-257.151	-108.466	0.106	-0.023
-256.136	195.955	0.170	0.256
-255.122	-77.888	0.176	-0.060
-254.107	560.471	-0.115	0.276
-253.092	240.051	0.005	-0.008
-252.078	152.671	-0.112	0.151
-251.063	-120.856	0.398	0.066
-250.049	249.783	-0.194	0.326
-249.034	-144.846	0.157	0.014
-248.019	257.209	0.124	0.211
-247.005	53.727	-0.111	0.106
-245.990	221.398	0.236	0.376
-244.976	133.020	0.044	-0.056
-243.961	800.000	0.069	0.263
-242.946	800.000	0.094	0.329
-241.932	-200.000	0.017	0.142
-240.917	10.461	0.078	-0.059
-239.903	333.958	0.009	-0.016
-238.888	-23.723	-0.206	0.122
-237.873	-109.018	0.170	0.036
-236.859	86.456	-0.158	-0.172
-235.844	283.299	-0.109	-0.194
-234.830	-37.201	-0.221	-0.117
-233.815	10.050	0.107	0.080
-232.800	595.145	0.200	-0.490
-231.786	-125.015	0.236	0.036
-230.771	-115.886	-0.376	-0.070
-229.757	-200.000	0.003	-0.265
-228.742	419.551	0.131	0.277
-227.727	189.659	0.033	0.049
-226.713	-200.000	-0.028	-0.200
-225.698	-200.000	0.005	0.207
-224.684	-101.671	-0.123	-0.030
-223.669	2.838	-0.083	0.060
-222.655	-152.227	0.506	-0.036
-221.640	309.033	0.161	0.297
-220.625	-200.000	-0.019	0.274
-219.611	119.234	-0.205	-0.251
-218.596	256.181	-0.069	0.118
-217.582	-101.440	-0.254	-0.061
-216.567	133.226	-0.140	-0.179
-215.552	131.707	0.082	0.104
-214.538	55.449	0.381	0.364
-213.523	-66.040	-0.077	-0.031
-212.509	-88.094	0.147	-0.043
-211.494	-200.000	-0.042	0.357
-210.479	-200.000	0.010	-0.168
-209.465	-200.000	0.005	0.060
-208.450	-105.440	-0.095	0.021
-207.436	527.209	-0.175	0.408
-206.421	-14.893	-0.251	0.160
-205.406	736.054	-0.027	-0.072
-204.392	800.000	-0.036	0.107
-203.377	-200.000	0.071	-0.333
-202.363	800.000	-0.090	-0.249
-201.348	14.016	0.237	0.183
-200.333	224.631	-0.076	0.121
-199.319	-76.238	-0.132	0.046
-198.304	800.000	-0.075	0.228
-197.290	124.677	0.177	-0.220
-196.275	-200.000	0.006	0.036
-195.260	-200.000	-0.015	-0.313
-194.246	64.981	-0.149	-0.149
-193.231	-166.147	0.233	-0.010
-192.217	-101.816	0.146	-0.035
-191.202	6.681	0.200	0.147
-190.187	-147.148	-0.320	0.027
-189.173	-85.729	-0.084	0.026
-188.158	800.000	-0.066	-0.221
-187.144	-60.751	0.200	0.084
-186.129	-60.008	0.140	-0.059
-185.114	19.056	-0.151	-0.119
-184.100	398.146	-0.118	-0.244
-183.085	-95.372	0.176	0.047
-182.071	-155.694	-0.398	-0.025
-181.056	80.115	0.177	0.188
-180.042	176.647	0.055	-0.078
-179.027	678.670	0.113	-0.289
-178.012	-200.000	0.087	0.409
-176.998	58.635	0.150	0.145
-175.983	145.852	-0.155	0.205
-174.969	20.488	-0.211	-0.169
-173.954	55.019	0.088	-0.084
-172.939	-200.000	-0.023	-0.306
-171.925	344.445	0.123	-0.238
-170.910	-10.693	0.358	-0.234
-169.896	48.912	-0.308	-0.285
-168.881	-52.311	0.139	-0.063
-167.866	-200.000	0.028	0.197
-166.852	244.305	-0.060	-0.100
-165.837	-4.328	-0.165	-0.112
-164.823	800.000	-0.071	-0.245
-163.808	-0.515	-0.064	-0.045
-162.793	-89.020	-0.266	0.078
-161.779	323.779	-0.040	0.075
-160.764	-57.222	0.417	0.181
-159.750	-121.522	0.288	-0.047
-158.735	-1.345	0.136	-0.095
-157.720	102.769	0.159	-0.184
-156.706	-111.090	0.366	-0.074
-155.691	-200.000	-0.001	-0.119
-154.677	401.925	-0.064	0.133
-153.662	-200.000	-0.085	-0.523
-152.647	146.269	0.144	-0.191
-151.633	-200.000	-0.010	-0.139
-150.618	-131.462	0.145	-0.019
-149.604	200.511	0.121	-0.184
-148.589	-19.452	0.076	0.046
-147.574	800.000	-0.092	0.282
-146.560	261.871	0.058	-0.100
-145.545	-92.306	-0.250	-0.070
-144.531	800.000	0.030	0.126
-143.516	253.935	0.190	-0.321
-142.502	-200.000	-0.001	-0.180
-141.487	-78.745	-0.337	0.113
-140.472	84.330	0.170	0.183
-139.458	-139.718	0.202	0.021
-138.443	457.225	0.087	-0.191
-137.429	-3.108	-0.173	0.119
-136.414	800.000	-0.055	-0.167
-135.399	-138.994	0.118	-0.013
-134.385	-200.000	0.022	0.108
-133.370	573.486	0.063	-0.150
-132.356	271.425	-0.156	-0.271
-131.341	17.387	0.398	0.312
-130.326	800.000	-0.056	-0.196
-129.312	113.139	0.119	0.142
-128.297	294.039	0.219	-0.395
-127.283	-30.778	-0.204	0.114
-126.268	-200.000	0.007	0.286
-125.253	-87.923	-0.353	0.105
-124.239	-102.559	-0.248	0.058
-123.224	148.113	-0.228	-0.303
-122.210	-0.557	-0.322	-0.225
