DTS Sentinel unit serial number:	SN413079Multiplexer serial number:	ORYXHardware model number:	OX4-SRSoftware version number:	ORYX F/W v4.00 Oryx Data Collector v3.7.2.0data status	okinstallation	princeton_trtdifferential loss correction	single-endedforward channel	channel 2reverse channel	N/Adate	2019/09/18time	22:39:35forward acquisition time	60.00reverse acquisition time	0.00gamma	496.2192k internal	0.2349k external	0.2349temperature offset calibration	1.0019default loss term (dB/km)	0.3790temperature slope calibration	1.0000multiplexer offset coefficient	1.0000multiplexer slope coefficient	1.0000fibre end	0.00T internal ref (°C)	24.14T ext. ref 1 (°C)	0.80T ext. ref 2 (°C)	18.00length (m)	temperature (°C)	Stokes	anti-Stokes-747.200	134.815	-0.045	-0.058
-746.185	368.743	-0.070	0.142
-745.171	-156.355	-0.247	0.015
-744.156	92.260	0.261	0.293
-743.142	-96.434	0.425	0.112
-742.127	513.275	-0.128	0.298
-741.112	800.000	-0.029	0.102
-740.098	186.469	-0.109	-0.162
-739.083	-20.310	-0.186	-0.114
-738.069	390.378	-0.011	0.024
-737.054	60.091	0.120	-0.118
-736.039	-28.937	-0.184	0.106
-735.025	25.482	-0.119	0.099
-734.010	-200.000	0.018	-0.156
-732.996	530.514	-0.231	-0.546
-731.981	265.919	-0.106	-0.185
-730.966	8.765	0.128	0.096
-729.952	113.018	-0.052	0.062
-728.937	-49.624	-0.170	0.081
-727.923	3.133	-0.320	0.232
-726.908	463.465	-0.147	0.327
-725.894	101.638	-0.193	0.224
-724.879	159.972	0.117	-0.163
-723.864	-49.131	-0.186	-0.089
-722.850	-137.345	0.078	-0.009
-721.835	-38.122	-0.088	-0.047
-720.821	-200.000	0.043	-0.239
-719.806	56.400	-0.314	-0.304
-718.791	-171.047	0.141	-0.005
-717.777	-200.000	-0.004	0.271
-716.762	-99.840	-0.032	-0.008
-715.748	-100.351	0.172	-0.043
-714.733	-4.104	-0.171	0.118
-713.718	-14.919	0.236	0.151
-712.704	122.774	0.202	-0.252
-711.689	-12.987	0.135	0.088
-710.675	90.802	0.163	-0.182
-709.660	-200.000	-0.026	-0.119
-708.645	-200.000	0.021	0.243
-707.631	-5.214	-0.202	0.138
-706.616	84.923	-0.096	-0.105
-705.602	694.069	0.078	-0.203
-704.587	-133.165	-0.283	0.036
-703.572	-23.646	-0.048	-0.028
-702.558	-166.673	-0.148	-0.006
-701.543	53.577	0.335	0.321
-700.529	800.000	-0.019	0.078
-699.514	351.232	-0.029	-0.058
-698.499	-70.919	-0.377	-0.142
-697.485	-110.162	0.103	-0.021
-696.470	800.000	-0.122	-0.339
-695.456	11.318	-0.372	-0.284
-694.441	-137.885	-0.292	-0.033
-693.426	-200.000	0.015	-0.213
-692.412	-200.000	-0.071	-0.316
-691.397	52.760	0.028	-0.027
-690.383	800.000	0.069	-0.204
-689.368	37.143	0.179	-0.158
-688.354	800.000	0.062	-0.241
-687.339	-200.000	0.044	-0.339
-686.324	-31.356	0.150	0.084
-685.310	-33.068	0.094	-0.052
-684.295	-80.674	-0.169	-0.056
-683.281	219.904	0.020	0.033
-682.266	-200.000	-0.048	-0.409
-681.251	82.939	0.255	0.276
-680.237	-114.279	-0.330	-0.063
-679.222	-200.000	-0.010	-0.451
-678.208	-115.330	0.424	-0.080
-677.193	-37.555	-0.070	0.037
-676.178	11.497	0.252	-0.192
-675.164	-5.149	0.307	0.211
-674.149	-132.010	-0.172	0.022
-673.135	-200.000	-0.045	-0.396
-672.120	800.000	0.011	-0.031
-671.105	800.000	0.051	0.184
-670.091	-15.582	-0.272	0.173
-669.076	-113.330	-0.023	-0.005
-668.062	120.193	0.261	0.322
-667.047	148.784	-0.113	0.152
-666.032	800.000	-0.084	0.256
-665.018	-82.651	-0.350	0.113
-664.003	-73.833	-0.135	-0.049
-662.989	306.729	0.268	0.497
-661.974	91.083	-0.179	0.200
-660.959	800.000	-0.066	0.214
-659.945	186.908	0.189	-0.280
-658.930	800.000	-0.110	0.394
-657.916	250.582	0.101	0.171
-656.901	800.000	-0.041	0.137
-655.886	-93.394	0.098	-0.027
-654.872	-93.351	0.170	-0.047
-653.857	101.753	0.077	0.089
-652.843	185.311	0.121	-0.178
-651.828	167.243	-0.180	0.255
-650.814	-116.194	0.106	0.020
-649.799	-80.716	-0.302	0.100
-648.784	-200.000	-0.001	-0.288
-647.770	-200.000	-0.025	0.349
-646.755	-107.531	-0.292	0.064
-645.741	-46.904	-0.422	0.205
-644.726	-200.000	-0.014	0.387
-643.711	-68.388	0.394	0.152
-642.697	-139.314	-0.228	0.024
-641.682	240.191	0.221	-0.366
-640.668	9.789	-0.152	-0.115
-639.653	-142.760	-0.157	-0.015
-638.638	-78.164	0.277	-0.095
-637.624	105.007	0.108	0.127
-636.609	-47.850	-0.261	0.126
-635.595	-114.372	-0.310	0.059
-634.580	189.068	0.145	-0.215
-633.565	-72.546	-0.232	0.085
-632.551	284.185	-0.131	0.234
-631.536	-151.004	-0.338	0.025
-630.522	61.960	0.212	0.210
-629.507	86.554	0.176	0.193
-628.492	500.363	0.058	0.134
-627.478	770.396	-0.070	-0.190
-626.463	-200.000	-0.021	-0.179
-625.449	-145.180	0.051	-0.005
-624.434	800.000	0.052	-0.163
-623.419	800.000	-0.020	-0.082
-622.405	138.502	0.038	-0.050
-621.390	-60.952	-0.363	-0.153
-620.376	670.960	-0.094	-0.241
-619.361	-157.773	-0.124	-0.007
-618.346	-122.745	-0.167	0.027
-617.332	251.054	-0.167	0.281
-616.317	212.065	0.126	-0.198
-615.303	-145.929	0.014	-0.001
-614.288	-75.114	-0.143	0.051
-613.273	49.662	-0.259	-0.242
-612.259	247.190	0.183	-0.307
-611.244	-200.000	0.030	0.362
-610.230	51.939	0.153	-0.145
-609.215	800.000	-0.028	0.098
-608.201	-200.000	0.015	0.130
-607.186	-128.596	-0.234	0.033
-606.171	66.707	-0.055	0.055
-605.157	800.000	-0.052	-0.171
-604.142	315.420	0.065	-0.121
-603.128	153.584	-0.048	0.065
-602.113	-166.414	0.276	0.011
-601.098	-200.000	-0.004	-0.065
-600.084	-105.614	0.302	-0.068
-599.069	89.807	0.204	0.226
-598.055	374.440	-0.194	-0.393
-597.040	783.522	-0.084	-0.228
-596.025	-104.930	-0.178	-0.041
-595.011	249.440	0.121	0.204
-593.996	-123.040	-0.270	-0.043
-592.982	469.416	0.084	-0.187
-591.967	-120.560	0.254	0.043
-590.952	-19.421	-0.252	-0.155
-589.938	-67.852	-0.188	-0.073
-588.923	114.391	0.240	-0.290
-587.909	30.697	-0.147	-0.125
-586.894	800.000	-0.133	0.488
-585.879	3.390	0.075	0.054
-584.865	164.763	0.137	-0.192
-583.850	-118.906	0.369	0.064
-582.836	49.477	0.116	-0.108
-581.821	64.700	-0.152	0.152
-580.806	-58.710	0.098	-0.042
-579.792	-71.333	0.174	0.065
-578.777	-200.000	0.026	-0.341
-577.763	3.872	0.114	-0.082
-576.748	800.000	-0.080	0.298
-575.733	800.000	-0.090	0.329
-574.719	-200.000	-0.231	0.001
-573.704	119.025	-0.177	-0.217
-572.690	10.558	0.163	-0.123
-571.675	-62.435	-0.148	0.061
-570.661	-166.083	-0.377	-0.016
-569.646	269.487	0.225	0.392
-568.631	-82.567	0.174	0.056
-567.617	193.019	-0.040	0.060
-566.602	58.283	0.129	0.125
-565.588	197.757	0.149	-0.226
-564.573	-93.915	0.089	0.024
-563.558	109.925	0.176	0.210
-562.544	-43.305	0.359	-0.180
-561.529	800.000	0.047	0.190
-560.515	397.631	-0.105	0.217
-559.500	-200.000	-0.020	-0.217
-558.485	687.241	-0.072	-0.187
-557.471	118.906	-0.110	-0.135
-556.456	-200.000	0.011	-0.298
-555.442	-142.671	0.254	0.025
-554.427	222.854	0.208	-0.332
-553.412	616.448	-0.095	0.235
-552.398	-72.116	0.200	0.073
-551.383	-200.000	0.031	0.288
-550.369	260.304	0.094	-0.162
-549.354	-200.000	-0.074	0.343
-548.339	200.156	-0.078	-0.119
-547.325	-131.680	0.213	0.028
-546.310	167.211	0.005	0.007
-545.296	-42.508	0.100	-0.051
-544.281	-200.000	0.067	0.324
-543.266	-200.000	-0.021	-0.218
-542.252	17.573	0.056	-0.044
-541.237	-156.578	-0.277	-0.017
-540.223	230.163	-0.155	0.252
-539.208	12.037	-0.323	0.246
-538.193	149.853	-0.149	0.200
-537.179	180.712	0.056	0.082
-536.164	174.710	-0.117	0.168
-535.150	524.735	-0.079	0.185
-534.135	-29.020	0.165	-0.094
-533.121	38.452	0.050	0.044
-532.106	-191.432	0.353	0.004
-531.091	-58.161	-0.272	-0.118
-530.077	-200.000	0.224	-0.001
-529.062	-68.608	0.045	0.017
-528.048	562.463	-0.032	0.077
-527.033	-62.736	-0.158	-0.065
-526.018	161.429	0.096	0.133
-525.004	132.078	0.103	-0.131
-523.989	-21.045	0.206	-0.125
-522.975	235.019	0.040	0.065
-521.960	158.212	-0.135	-0.185
-520.945	-200.000	-0.049	-0.236
-519.931	179.978	0.107	0.155
-518.916	800.000	0.071	0.291
-517.902	-83.746	-0.137	-0.043
-516.887	57.544	0.158	0.153
-515.872	200.501	0.094	-0.144
-514.858	328.296	-0.181	-0.343
-513.843	-106.540	0.095	0.021
-512.829	-158.265	0.163	0.009
-511.814	800.000	0.071	0.201
-510.799	43.424	-0.224	0.202
-509.785	355.237	0.087	-0.171
-508.770	-7.904	-0.317	0.212
-507.756	-71.781	-0.090	-0.033
-506.741	318.032	0.153	-0.287
-505.726	800.000	-0.101	-0.370
-504.712	489.568	0.016	-0.035
-503.697	-136.071	-0.137	0.016
-502.683	-200.000	-0.005	0.155
-501.668	190.068	-0.161	-0.239
-500.653	-200.000	0.005	0.147
-499.639	-102.425	0.172	0.041
-498.624	225.787	0.152	0.243
-497.610	-158.254	0.061	0.004
-496.595	337.785	0.171	-0.329
-495.581	-125.917	-0.264	-0.039
-494.566	-200.000	-0.003	-0.071
-493.551	69.947	-0.163	-0.166
-492.537	175.495	0.280	0.401
-491.522	800.000	0.056	-0.180
-490.508	-200.000	0.003	-0.128
-489.493	156.149	-0.105	-0.143
-488.478	-200.000	0.072	0.379
-487.464	28.035	0.152	0.127
-486.449	211.303	-0.168	-0.261
-485.435	-200.000	0.003	-0.209
-484.420	-137.080	-0.082	0.009
-483.405	-200.000	0.065	-0.295
-482.391	800.000	-0.027	0.114
-481.376	-200.000	-0.022	0.314
-480.362	16.142	0.063	0.049
-479.347	579.676	0.038	-0.092
-478.332	-104.389	0.209	0.048
-477.318	298.716	0.089	0.162
-476.303	-1.257	0.226	0.158
-475.289	-150.066	0.203	-0.016
-474.274	-99.939	-0.138	-0.034
-473.259	-200.000	-0.021	0.122
-472.245	339.887	0.190	-0.365
-471.230	141.541	-0.057	-0.075
-470.216	335.108	0.077	-0.148
-469.201	72.517	0.268	-0.276
-468.186	-101.897	0.112	-0.027
-467.172	-200.000	0.009	0.100
-466.157	63.555	-0.153	-0.152
-465.143	-165.549	0.374	-0.016
-464.128	-59.851	-0.289	0.122
-463.113	-86.439	0.088	-0.027
-462.099	-200.000	0.029	0.290
-461.084	-139.246	-0.221	-0.023
-460.070	-162.521	0.111	-0.005
-459.055	-200.000	-0.013	-0.057
-458.040	17.657	0.374	-0.294
-457.026	-31.607	-0.147	-0.082
-456.011	800.000	-0.063	-0.183
-454.997	-200.000	0.006	0.141
-453.982	-106.021	-0.496	0.110
-452.968	-58.952	-0.096	-0.041
-451.953	-200.000	-0.006	0.387
-450.938	-128.433	-0.170	-0.024
-449.924	800.000	-0.020	-0.063
-448.909	150.443	-0.132	0.177
-447.895	-63.294	-0.466	-0.190
-446.880	-192.636	0.470	0.004
-445.865	800.000	0.127	-0.364
-444.851	16.794	-0.145	0.113
-443.836	-1.878	0.311	0.216
-442.822	-4.971	-0.035	0.024
-441.807	-68.382	-0.371	-0.142
-440.792	-59.927	0.133	-0.056
-439.778	277.184	-0.115	0.202
-438.763	217.111	-0.176	-0.276
-437.749	499.470	-0.109	0.249
-436.734	253.057	0.027	-0.045
-435.719	-60.951	0.249	-0.104
-434.705	800.000	-0.089	-0.367
-433.690	-23.116	0.193	0.115
-432.676	800.000	0.033	-0.094
-431.661	54.416	0.096	0.091
-430.646	800.000	0.143	-0.396
-429.632	-76.110	-0.163	-0.057
-428.617	-200.000	0.070	0.511
-427.603	21.740	-0.083	0.067
-426.588	294.598	-0.062	-0.112
-425.573	-75.981	-0.260	-0.091
-424.559	-57.336	0.161	-0.070
-423.544	800.000	-0.093	0.352
-422.530	460.268	-0.113	-0.247
-421.515	-30.514	-0.152	-0.085
-420.500	-50.722	0.431	0.200
-419.486	244.968	-0.143	0.236
-418.471	-200.000	0.024	0.381
-417.457	-160.643	-0.459	0.024
-416.442	-93.764	-0.269	0.073
-415.428	-109.316	0.493	0.103
-414.413	-200.000	0.011	0.284
-413.398	-0.285	-0.048	-0.033
-412.384	-99.837	0.287	0.071
-411.369	18.001	0.072	-0.057
-410.355	195.161	0.138	0.206
-409.340	-200.000	0.014	0.306
-408.325	-200.000	0.004	-0.175
-407.311	-200.000	0.008	-0.334
-406.296	800.000	-0.019	-0.081
-405.282	-44.195	-0.166	0.082
-404.267	-34.323	0.120	0.065
-403.252	-200.000	0.002	-0.028
-402.238	-160.672	-0.623	0.033
-401.223	-200.000	-0.007	0.063
-400.209	-200.000	-0.043	0.236
-399.194	-100.068	0.231	-0.057
-398.179	45.616	-0.119	0.109
-397.165	-106.739	0.502	0.110
-396.150	-200.000	-0.027	0.134
-395.136	-70.777	0.238	0.089
-394.121	408.804	0.047	0.099
-393.106	-200.000	0.020	-0.146
-392.092	44.355	0.068	0.062
-391.077	-84.545	-0.226	0.070
-390.063	-160.720	0.137	-0.007
-389.048	33.035	-0.206	-0.176
-388.033	800.000	0.057	-0.192
-387.019	-137.844	0.276	-0.030
-386.004	-97.201	-0.113	-0.029
-384.990	-55.958	-0.178	0.078
-383.975	-112.199	0.140	-0.028
-382.960	-45.352	0.262	0.128
-381.946	-200.000	-0.068	0.324
-380.931	780.796	0.093	-0.249
-379.917	-200.000	0.013	0.079
-378.902	-200.000	0.000	-0.321
-377.888	-72.766	-0.067	0.024
-376.873	15.903	-0.106	0.082
-375.858	295.181	-0.064	-0.116
-374.844	282.706	-0.259	0.458
-373.829	14.672	-0.166	-0.128
-372.815	391.774	-0.181	0.371
-371.800	-45.847	-0.188	0.091
-370.785	-102.206	0.191	-0.045
-369.771	-156.260	-0.097	-0.006
-368.756	-200.000	-0.015	-0.198
-367.742	-64.598	-0.171	0.068
-366.727	800.000	-0.054	0.212
-365.712	268.257	0.071	0.122
-364.698	-31.771	-0.087	-0.048
-363.683	800.000	0.073	-0.252
-362.669	650.286	-0.079	-0.199
-361.654	-9.624	0.214	-0.140
-360.639	44.248	0.092	0.083
-359.625	161.629	-0.240	-0.331
-358.610	-200.000	-0.005	0.095
-357.596	800.000	-0.037	0.135
-356.581	59.446	0.218	0.212
-355.566	-21.118	0.277	-0.167
-354.552	800.000	0.033	-0.104
-353.537	296.932	0.028	-0.050
-352.523	-79.601	-0.220	-0.073
-351.508	-65.496	-0.225	-0.089
-350.493	138.767	0.129	0.167
-349.479	-200.000	-0.003	-0.183
-348.464	119.867	0.113	-0.138
-347.450	-106.596	0.138	0.030
-346.435	-2.501	-0.298	0.205
-345.420	-11.598	0.246	0.159
-344.406	0.288	-0.164	-0.115
-343.391	-34.343	-0.069	0.037
-342.377	800.000	-0.076	0.248
-341.362	-49.403	-0.261	-0.123
-340.348	-45.242	-0.212	0.103
-339.333	-11.555	-0.033	-0.021
-338.318	800.000	-0.044	-0.129
-337.304	650.418	-0.112	-0.283
-336.289	-76.312	-0.218	-0.075
-335.275	-133.863	-0.075	0.009
-334.260	278.521	-0.028	0.050
-333.245	-200.000	0.012	-0.329
-332.231	-63.879	0.104	0.042
-331.216	255.594	0.124	0.209
-330.202	31.505	0.024	0.020
-329.187	-63.719	-0.187	0.075
-328.172	166.851	-0.077	-0.107
-327.158	-180.519	-0.079	0.002
-326.143	176.680	0.028	0.040
-325.129	-168.424	-0.181	0.007
-324.114	800.000	0.085	-0.234
-323.099	-118.028	-0.088	0.015
-322.085	47.351	-0.183	-0.168
-321.070	-14.395	-0.166	-0.105
-320.056	326.267	-0.045	-0.085
-319.041	-193.873	0.195	0.002
-318.026	87.742	0.039	-0.042
-317.012	-6.738	-0.284	0.190
-315.997	-60.575	0.095	0.040
-314.983	-200.000	-0.027	0.134
-313.968	291.756	0.044	-0.078
-312.953	-200.000	-0.008	-0.035
-311.939	-54.232	-0.184	-0.082
-310.924	-27.854	-0.180	0.103
-309.910	-157.994	0.117	-0.007
-308.895	-200.000	-0.008	-0.097
-307.880	64.306	0.221	0.219
-306.866	-9.059	-0.249	0.164
-305.851	-200.000	-0.016	-0.190
-304.837	-200.000	-0.033	-0.302
-303.822	544.240	-0.086	0.201
-302.807	-29.581	0.309	-0.173
-301.793	188.955	-0.088	-0.129
-300.778	-200.000	0.045	-0.220
-299.764	-77.205	0.091	-0.031
-298.749	-200.000	-0.016	-0.112
-297.735	207.669	-0.057	0.087
-296.720	-200.000	-0.019	0.407
-295.705	-161.462	0.307	0.015
-294.691	-45.676	-0.441	0.214
-293.676	-200.000	0.008	0.205
-292.662	-54.065	0.261	-0.116
-291.647	-200.000	0.035	-0.207
-290.632	87.171	0.231	-0.250
-289.618	246.401	-0.121	0.200
-288.603	-200.000	-0.016	-0.243
-287.589	-163.541	0.146	-0.007
-286.574	425.367	-0.093	0.197
-285.559	-124.374	0.026	0.004
-284.545	190.960	0.084	0.124
-283.530	99.129	0.248	-0.281
-282.516	111.760	-0.123	-0.145
-281.501	-60.434	0.269	0.112
-280.486	528.776	0.050	-0.116
-279.472	-200.000	0.032	0.165
-278.457	-194.008	-0.350	-0.003
-277.443	174.085	0.459	0.651
-276.428	800.000	-0.081	-0.268
-275.413	-39.582	-0.238	-0.122
-274.399	-3.129	0.103	0.071
-273.384	-19.268	0.342	0.208
-272.370	286.935	-0.144	0.254
-271.355	172.938	-0.082	-0.116
-270.340	-110.646	-0.153	-0.031
-269.326	800.000	0.055	-0.201
-268.311	-126.256	0.410	-0.060
-267.297	152.529	-0.121	-0.162
-266.282	80.150	0.200	0.211
-265.267	800.000	-0.018	-0.057
-264.253	-86.175	0.236	0.071
-263.238	-83.317	-0.165	-0.052
-262.224	210.294	0.043	0.066
-261.209	68.820	-0.199	-0.201
-260.195	76.446	0.350	-0.363
-259.180	456.640	-0.024	-0.053
-258.165	800.000	0.043	0.118
-257.151	-8.830	-0.151	-0.099
-256.136	-74.127	0.180	-0.064
-255.122	-200.000	0.024	0.120
-254.107	-94.906	-0.210	0.056
-253.092	398.529	0.025	0.051
-252.078	-98.978	-0.195	0.049
-251.063	16.492	-0.073	-0.057
-250.049	-88.942	0.264	0.077
-249.034	49.085	0.231	0.212
-248.019	-150.469	0.079	0.006
-247.005	12.418	0.233	-0.176
-245.990	83.668	-0.192	-0.205
-244.976	-77.633	-0.244	-0.083
-243.961	800.000	-0.035	0.122
-242.946	-153.931	0.108	-0.007
-241.932	24.820	-0.168	-0.136
-240.917	-57.807	-0.185	0.079
-239.903	218.876	-0.101	0.158
-238.888	-200.000	-0.018	-0.260
-237.873	-200.000	-0.012	-0.060
-236.859	-200.000	-0.010	0.268
-235.844	20.044	0.326	0.257
-234.830	800.000	-0.073	-0.293
-233.815	-200.000	0.025	-0.165
-232.800	226.378	0.093	-0.148
-231.786	-200.000	-0.000	-0.176
-230.771	800.000	-0.105	-0.441
-229.757	-170.854	0.368	-0.012
-228.742	65.244	-0.128	0.127
-227.727	-48.013	-0.162	0.077
-226.713	423.702	-0.118	0.248
-225.698	-38.088	0.202	-0.105
-224.684	-52.964	0.141	-0.063
-223.669	4.161	-0.094	-0.067
-222.655	-34.619	-0.364	-0.195
-221.640	-102.660	-0.187	-0.044
-220.625	-84.507	0.071	0.022
-219.611	-136.336	-0.248	-0.028
-218.596	284.972	0.095	0.166
-217.582	-3.293	-0.114	-0.078
-216.567	-46.517	0.575	0.276
-215.552	-200.000	0.007	0.282
-214.538	-89.217	-0.335	-0.097
-213.523	-200.000	-0.009	-0.192
-212.509	299.155	0.119	-0.215
-211.494	3.402	0.271	0.193
-210.479	-1.065	-0.132	-0.092
-209.465	-62.160	-0.168	-0.069
-208.450	49.413	0.237	-0.218
-207.436	-153.533	0.206	0.014
-206.421	104.149	0.369	-0.425
-205.406	-96.371	0.194	0.050
-204.392	4.159	0.281	0.201
-203.377	23.573	-0.166	-0.134
-202.363	-200.000	-0.040	-0.310
-201.348	-7.908	-0.055	-0.036
-200.333	179.418	0.016	0.023
-199.319	-97.368	-0.083	0.021
-198.304	2.160	-0.348	0.246
-197.290	-57.172	0.338	-0.145
-196.275	210.115	0.118	-0.181
-195.260	800.000	0.070	0.224
-194.246	151.647	0.061	-0.081
-193.231	-152.285	-0.292	0.021
-192.217	-110.243	-0.236	-0.048
-191.202	-66.957	0.447	0.173
-190.187	-79.097	-0.152	0.051
-189.173	-24.076	-0.377	0.220
-188.158	368.525	0.100	-0.198
-187.144	22.557	-0.122	0.098
-186.129	800.000	-0.059	0.164
-185.114	-164.330	0.120	-0.005
-184.100	-80.541	-0.231	0.075
-183.085	-68.578	-0.017	0.006
-182.071	357.017	0.157	-0.305
-181.056	65.373	0.214	0.212
-180.042	800.000	0.055	-0.233
-179.027	624.489	0.031	-0.077
-178.012	800.000	0.087	0.272
-176.998	-200.000	0.018	0.401
-175.983	-168.895	-0.382	0.014
-174.969	125.101	0.118	0.146
-173.954	203.682	0.250	0.378
-172.939	515.637	-0.067	0.154
-171.925	-200.000	-0.057	0.400
-170.910	-118.861	0.216	0.037
-169.896	800.000	-0.056	-0.158
-168.881	31.620	-0.172	0.144
-167.866	-121.100	0.091	0.015
-166.852	176.409	-0.099	-0.141
-165.837	-200.000	-0.022	-0.246
-164.823	180.706	-0.055	0.079
-163.808	-109.543	0.199	0.041
-162.793	258.458	0.100	-0.168
-161.779	800.000	0.119	-0.343
-160.764	-139.144	0.094	0.010
-159.750	-117.691	-0.224	-0.039
-158.735	40.309	0.283	0.248
-157.720	120.923	0.004	-0.005
-156.706	-200.000	-0.015	0.135
-155.691	-25.634	0.148	-0.085
-154.677	-200.000	-0.015	0.070
-153.662	-200.000	-0.016	-0.119
-152.647	-99.703	0.173	-0.042
-151.633	-59.340	-0.204	0.086
-150.618	-109.196	-0.077	-0.016
-149.604	314.421	-0.061	-0.111
-148.589	22.059	0.179	-0.143
-147.574	102.039	-0.076	0.086
-146.560	800.000	0.066	0.265
-145.545	337.558	-0.186	0.353
-144.531	-125.570	-0.164	0.024
-143.516	-12.871	0.104	-0.066
-142.502	-78.423	-0.396	-0.132
-141.487	-31.632	0.148	-0.081
-140.472	407.202	-0.132	-0.272
-139.458	-91.625	0.137	-0.038
-138.443	160.701	0.127	-0.173
-137.429	-200.000	0.017	0.172
-136.414	411.936	0.078	0.161
-135.399	110.907	-0.153	-0.180
-134.385	-95.937	-0.219	-0.057
-133.370	800.000	-0.077	0.283
-132.356	800.000	-0.085	0.250
-131.341	800.000	-0.046	0.189
-130.326	329.038	0.095	-0.177
-129.312	268.665	-0.183	0.313
-128.297	286.031	0.114	0.201
-127.283	-95.078	0.382	-0.100
-126.268	-22.818	-0.203	-0.119
-125.253	-86.081	0.166	-0.050
-124.239	-134.168	0.303	-0.036
-123.224	-67.809	-0.122	0.047
-122.210	-20.147	0.143	-0.086
