DTS Sentinel unit serial number:	SN413079Multiplexer serial number:	ORYXHardware model number:	OX4-SRSoftware version number:	ORYX F/W v4.00 Oryx Data Collector v3.7.2.0data status	okinstallation	princeton_trtdifferential loss correction	single-endedforward channel	channel 2reverse channel	N/Adate	2019/09/16time	20:15:35forward acquisition time	60.00reverse acquisition time	0.00gamma	496.2192k internal	0.2327k external	0.2327temperature offset calibration	0.9963default loss term (dB/km)	0.3790temperature slope calibration	1.0000multiplexer offset coefficient	1.0000multiplexer slope coefficient	1.0000fibre end	0.00T internal ref (°C)	32.95T ext. ref 1 (°C)	0.05T ext. ref 2 (°C)	26.65length (m)	temperature (°C)	Stokes	anti-Stokes-747.200	-35.614	-0.362	-0.198
-746.185	-200.000	-0.037	0.188
-745.171	101.284	0.188	0.221
-744.156	800.000	0.100	-0.317
-743.142	-30.827	-0.091	-0.052
-742.127	-200.000	-0.014	0.266
-741.112	-5.348	-0.062	-0.043
-740.098	-57.832	-0.152	0.067
-739.083	-200.000	0.253	-0.001
-738.069	-17.372	-0.297	0.188
-737.054	-124.404	0.044	-0.007
-736.039	-200.000	0.024	-0.440
-735.025	-3.930	0.174	0.122
-734.010	2.769	0.120	-0.087
-732.996	-172.996	-0.334	-0.010
-731.981	329.975	-0.219	-0.424
-730.966	367.699	0.162	-0.330
-729.952	-96.276	-0.092	-0.025
-728.937	105.078	0.068	-0.081
-727.923	258.980	-0.159	0.276
-726.908	52.305	-0.096	-0.093
-725.894	-103.612	-0.212	0.050
-724.879	470.268	0.050	-0.114
-723.864	-174.762	-0.087	-0.002
-722.850	90.858	0.167	-0.189
-721.835	800.000	0.083	0.366
-720.821	-76.921	-0.220	0.078
-719.806	436.176	0.021	0.045
-718.791	-200.000	0.044	-0.199
-717.777	800.000	-0.088	-0.372
-716.762	173.375	0.172	-0.249
-715.748	-200.000	-0.007	-0.400
-714.733	425.600	0.038	-0.083
-713.718	800.000	-0.151	-0.425
-712.704	105.016	-0.096	0.113
-711.689	-67.026	-0.268	-0.107
-710.675	-45.509	-0.245	0.122
-709.660	-200.000	0.025	0.133
-708.645	-140.009	-0.196	-0.021
-707.631	-39.353	-0.419	-0.221
-706.616	88.599	-0.277	-0.310
-705.602	-200.000	-0.008	0.120
-704.587	-116.542	0.193	-0.036
-703.572	377.048	-0.113	-0.232
-702.558	-136.139	-0.282	-0.033
-701.543	800.000	-0.104	0.304
-700.529	299.582	0.182	0.338
-699.514	43.290	-0.022	-0.020
-698.499	-72.530	-0.225	-0.084
-697.485	106.061	-0.156	-0.186
-696.470	-102.618	0.290	0.070
-695.456	83.961	0.178	0.195
-694.441	-23.464	0.051	0.031
-693.426	-46.753	0.145	0.072
-692.412	-24.410	-0.090	-0.054
-691.397	57.686	0.178	-0.176
-690.383	53.882	0.137	-0.132
-689.368	303.593	0.124	-0.231
-688.354	-200.000	-0.085	-0.421
-687.339	-200.000	0.029	-0.317
-686.324	475.947	0.096	0.219
-685.310	-72.298	0.179	0.067
-684.295	-200.000	-0.037	0.287
-683.281	-200.000	0.070	-0.393
-682.266	104.646	0.092	0.109
-681.251	-119.349	-0.131	-0.023
-680.237	79.870	0.154	0.166
-679.222	35.684	0.264	-0.233
-678.208	-142.261	-0.094	0.009
-677.193	26.009	-0.208	0.175
-676.178	-200.000	-0.008	-0.178
-675.164	800.000	-0.043	-0.148
-674.149	101.051	-0.107	-0.125
-673.135	57.019	0.126	0.124
-672.120	83.235	-0.207	-0.226
-671.105	800.000	0.052	0.165
-670.091	800.000	0.094	0.402
-669.076	800.000	0.054	0.161
-668.062	800.000	-0.060	0.243
-667.047	-160.560	-0.403	-0.022
-666.032	-19.337	-0.258	0.161
-665.018	19.184	0.261	-0.211
-664.003	4.257	0.323	-0.238
-662.989	-200.000	-0.006	0.258
-661.974	800.000	0.047	-0.169
-660.959	-33.399	-0.255	0.141
-659.945	-110.361	-0.419	0.087
-658.930	-41.058	-0.081	-0.042
-657.916	-129.631	-0.132	0.018
-656.901	-62.983	0.060	0.025
-655.886	-200.000	-0.033	0.175
-654.872	508.920	0.078	-0.183
-653.857	-200.000	-0.071	-0.398
-652.843	72.020	0.138	0.144
-651.828	800.000	-0.069	-0.302
-650.814	-200.000	0.006	-0.056
-649.799	-79.058	-0.188	-0.064
-648.784	115.102	-0.132	-0.161
-647.770	-111.435	-0.119	-0.024
-646.755	-90.679	0.095	0.028
-645.741	-133.604	-0.095	0.012
-644.726	361.410	-0.057	0.115
-643.711	-149.034	0.127	-0.010
-642.697	-200.000	0.007	0.102
-641.682	800.000	0.122	-0.506
-640.668	-157.790	0.119	-0.007
-639.653	-34.087	-0.124	-0.068
-638.638	800.000	0.093	-0.281
-637.624	204.297	0.094	-0.146
-636.609	71.234	0.117	-0.121
-635.595	340.016	0.228	-0.447
-634.580	-23.447	-0.171	0.103
-633.565	-200.000	0.008	-0.132
-632.551	43.226	0.131	0.120
-631.536	-73.799	-0.240	0.087
-630.522	39.237	-0.125	-0.113
-629.507	-38.277	-0.294	-0.157
-628.492	800.000	0.066	0.187
-627.478	-142.584	-0.430	-0.042
-626.463	800.000	0.047	-0.162
-625.449	-200.000	-0.001	0.089
-624.434	129.169	-0.092	0.118
-623.419	-76.991	0.038	-0.013
-622.405	-200.000	-0.006	0.213
-621.390	123.502	0.062	0.078
-620.376	749.144	-0.101	-0.273
-619.361	795.231	-0.049	-0.136
-618.346	-67.074	0.479	0.190
-617.332	24.853	0.169	0.140
-616.317	102.610	-0.264	-0.310
-615.303	-55.362	0.107	-0.048
-614.288	-47.201	-0.367	-0.179
-613.273	44.259	0.137	0.126
-612.259	-18.586	0.055	-0.034
-611.244	-180.381	-0.178	0.004
-610.230	-74.333	-0.147	-0.053
-609.215	250.126	0.049	-0.084
-608.201	-66.115	0.257	-0.103
-607.186	-18.175	-0.128	0.080
-606.171	18.199	0.132	-0.106
-605.157	-90.505	-0.129	0.037
-604.142	27.080	0.148	-0.124
-603.128	-102.723	-0.122	-0.029
-602.113	-119.325	-0.167	-0.029
-601.098	800.000	0.070	0.242
-600.084	7.458	-0.219	0.164
-599.069	-200.000	0.011	0.179
-598.055	-113.454	0.098	-0.019
-597.040	-200.000	-0.022	-0.172
-596.025	-49.731	-0.285	-0.136
-595.011	800.000	-0.063	-0.214
-593.996	382.312	0.114	0.234
-592.982	800.000	0.038	-0.139
-591.967	35.419	0.087	-0.076
-590.952	-200.000	-0.049	0.266
-589.938	21.355	0.211	-0.172
-588.923	-200.000	-0.026	0.219
-587.909	225.411	-0.023	-0.037
-586.894	207.248	-0.108	-0.169
-585.879	-160.567	-0.137	0.007
-584.865	4.107	0.186	0.137
-583.850	79.763	-0.080	0.086
-582.836	-200.000	-0.032	-0.222
-581.821	-132.596	0.231	-0.030
-580.806	654.137	-0.090	-0.233
-579.792	270.540	0.332	0.585
-578.777	141.757	-0.039	0.052
-577.763	431.373	0.045	-0.099
-576.748	800.000	0.032	-0.139
-575.733	168.106	-0.395	0.562
-574.719	-90.046	0.263	0.077
-573.704	46.817	0.112	-0.105
-572.690	-145.244	0.178	-0.016
-571.675	4.054	-0.165	0.120
-570.661	-22.480	-0.192	-0.117
-569.646	-92.977	-0.143	-0.040
-568.631	416.934	-0.068	0.145
-567.617	-136.643	0.208	-0.024
-566.602	-95.512	0.163	-0.044
-565.588	176.371	-0.073	-0.106
-564.573	43.913	-0.256	0.235
-563.558	-120.249	-0.128	-0.022
-562.544	331.440	-0.167	0.322
-561.529	-22.891	-0.293	0.177
-560.515	-46.131	-0.158	0.078
-559.500	-112.168	0.203	-0.041
-558.485	800.000	-0.021	-0.060
-557.471	-107.519	-0.317	-0.069
-556.456	-93.398	0.203	0.056
-555.442	800.000	0.054	-0.203
-554.427	-116.646	0.239	0.044
-553.412	-100.035	0.108	-0.027
-552.398	72.177	-0.038	-0.039
-551.383	-200.000	-0.005	-0.197
-550.369	-200.000	-0.014	0.064
-549.354	-88.327	-0.363	0.108
-548.339	-151.455	-0.166	-0.012
-547.325	-200.000	-0.004	-0.235
-546.310	789.058	-0.077	0.211
-545.296	800.000	-0.085	-0.352
-544.281	164.679	-0.056	-0.079
-543.266	-106.327	0.255	-0.057
-542.252	800.000	-0.025	-0.086
-541.237	-200.000	-0.007	0.356
-540.223	422.079	0.060	-0.130
-539.208	-65.380	-0.357	-0.144
-538.193	-67.535	0.182	-0.072
-537.179	292.041	-0.036	-0.066
-536.164	-137.754	0.076	0.008
-535.150	27.047	0.243	-0.204
-534.135	204.326	0.085	-0.132
-533.121	54.449	-0.118	0.114
-532.106	39.943	-0.118	0.106
-531.091	-94.735	0.341	-0.092
-530.077	119.616	0.225	0.279
-529.062	-3.067	-0.195	0.136
-528.048	-6.645	0.170	-0.115
-527.033	-200.000	0.018	-0.081
-526.018	-140.915	0.109	0.011
-525.004	-200.000	0.056	0.388
-523.989	116.460	0.140	-0.171
-522.975	383.996	-0.088	-0.181
-521.960	-200.000	0.049	-0.513
-520.945	106.830	0.194	-0.230
-519.931	-144.315	0.262	0.024
-518.916	188.730	-0.150	-0.225
-517.902	299.248	0.142	-0.262
-516.887	10.143	-0.211	0.160
-515.872	-45.021	-0.202	-0.100
-514.858	-200.000	0.028	-0.219
-513.843	17.424	-0.137	0.109
-512.829	-200.000	0.046	-0.266
-511.814	186.636	-0.160	0.237
-510.799	-4.339	0.253	0.175
-509.785	-127.614	0.278	0.040
-508.770	-200.000	0.003	0.107
-507.756	-185.364	-0.059	0.001
-506.741	-87.285	0.294	0.089
-505.726	-138.107	-0.084	0.009
-504.712	143.312	0.328	-0.436
-503.697	93.073	-0.114	-0.128
-502.683	614.485	-0.091	-0.228
-501.668	-2.497	0.262	0.183
-500.653	-90.786	-0.133	0.038
-499.639	-151.215	-0.133	0.010
-498.624	442.589	-0.103	-0.225
-497.610	-185.603	0.304	-0.005
-496.595	800.000	-0.079	-0.338
-495.581	497.710	-0.140	-0.322
-494.566	269.674	0.063	0.110
-493.551	-163.723	-0.225	0.011
-492.537	18.078	0.072	-0.057
-491.522	-33.900	0.196	-0.108
-490.508	297.696	0.232	-0.425
-489.493	8.822	0.192	0.145
-488.478	-200.000	-0.044	-0.233
-487.464	800.000	0.028	-0.094
-486.449	84.904	0.105	0.114
-485.435	-178.764	-0.255	0.006
-484.420	89.996	-0.187	0.208
-483.405	514.194	0.054	0.126
-482.391	24.934	-0.255	-0.211
-481.376	205.314	-0.033	-0.051
-480.362	-103.188	0.234	0.055
-479.347	-78.154	-0.397	-0.136
-478.332	-200.000	0.005	0.239
-477.318	-93.010	0.193	0.054
-476.303	393.548	-0.073	-0.151
-475.289	407.022	-0.048	-0.100
-474.274	-200.000	0.007	-0.184
-473.259	60.021	-0.096	-0.095
-472.245	-200.000	0.010	-0.206
-471.230	123.397	0.170	0.213
-470.216	-200.000	-0.018	-0.267
-469.201	-73.153	0.403	-0.147
-468.186	336.205	0.115	-0.223
-467.172	-179.464	0.203	-0.004
-466.157	-60.791	-0.202	0.085
-465.143	-200.000	-0.037	-0.198
-464.128	324.837	0.147	0.279
-463.113	-70.783	0.066	-0.025
-462.099	75.299	0.247	0.260
-461.084	163.168	0.089	-0.124
-460.070	-40.111	0.214	-0.111
-459.055	567.358	0.043	0.105
-458.040	-164.938	-0.216	-0.010
-457.026	203.489	0.218	-0.336
-456.011	-72.412	0.254	-0.094
-454.997	-142.032	0.326	0.032
-453.982	-97.411	0.279	-0.072
-452.968	240.784	-0.073	-0.122
-451.953	-200.000	-0.008	0.168
-450.938	101.954	0.115	-0.134
-449.924	122.876	-0.156	-0.195
-448.909	8.575	0.328	-0.246
-447.895	608.564	0.024	0.059
-446.880	36.354	0.116	-0.102
-445.865	375.567	-0.081	-0.166
-444.851	488.940	0.048	-0.109
-443.836	-200.000	0.006	-0.300
-442.822	-7.228	-0.148	-0.100
-441.807	-200.000	0.001	-0.183
-440.792	-26.047	0.134	-0.079
-439.778	-101.528	0.307	0.074
-438.763	-200.000	0.018	-0.082
-437.749	800.000	-0.023	-0.095
-436.734	-134.961	0.132	0.016
-435.719	800.000	0.025	0.075
-434.705	233.332	-0.213	0.349
-433.690	-200.000	0.025	0.167
-432.676	-54.907	-0.114	0.051
-431.661	159.814	-0.117	-0.162
-430.646	-200.000	-0.004	0.026
-429.632	-135.614	-0.232	-0.027
-428.617	31.067	0.409	-0.349
-427.603	-200.000	0.053	-0.411
-426.588	-98.929	0.127	0.032
-425.573	-0.556	0.284	0.201
-424.559	96.860	0.036	0.041
-423.544	800.000	-0.096	0.326
-422.530	417.493	-0.164	0.349
-421.515	-10.369	-0.241	0.159
-420.500	727.052	-0.110	-0.292
-419.486	-28.232	0.297	0.171
-418.471	232.859	0.156	-0.256
-417.457	60.044	-0.162	-0.159
-416.442	800.000	-0.092	-0.348
-415.428	600.165	0.039	-0.095
-414.413	800.000	0.050	-0.204
-413.398	-15.934	0.192	0.121
-412.384	-55.654	0.243	-0.108
-411.369	16.379	-0.299	0.235
-410.355	-137.399	-0.176	-0.020
-409.340	114.299	-0.062	0.075
-408.325	-102.541	-0.267	-0.064
-407.311	38.076	0.142	0.126
-406.296	-10.510	0.284	0.187
-405.282	95.410	-0.095	0.108
-404.267	697.289	0.094	0.246
-403.252	363.371	0.049	0.098
-402.238	265.349	-0.129	0.224
-401.223	800.000	0.093	-0.348
-400.209	212.828	-0.072	-0.114
-399.194	100.984	0.200	0.231
-398.179	651.202	-0.009	-0.022
-397.165	800.000	-0.007	-0.021
-396.150	-200.000	0.029	0.361
-395.136	800.000	0.041	-0.174
-394.121	1.774	0.170	-0.122
-393.106	142.147	-0.103	0.135
-392.092	-161.019	-0.242	0.013
-391.077	22.339	-0.119	-0.096
-390.063	-71.852	-0.427	-0.158
-389.048	-107.369	0.324	0.071
-388.033	-200.000	0.020	0.269
-387.019	-82.789	-0.234	0.075
-386.004	-4.414	0.228	0.157
-384.990	-200.000	0.052	0.243
-383.975	12.130	0.192	0.147
-382.960	800.000	0.123	-0.532
-381.946	408.152	0.081	0.170
-380.931	-183.159	-0.180	0.003
-379.917	90.295	0.096	0.107
-378.902	456.513	0.121	-0.266
-377.888	66.600	-0.067	0.067
-376.873	-70.939	0.258	0.097
-375.858	800.000	-0.052	0.193
-374.844	17.429	-0.257	-0.203
-373.829	-96.002	-0.204	-0.054
-372.815	-92.847	0.272	0.075
-371.800	176.299	-0.210	-0.304
-370.785	-28.513	-0.328	0.188
-369.771	-200.000	0.047	0.216
-368.756	800.000	0.061	0.215
-367.742	299.914	-0.172	-0.315
-366.727	-46.415	0.201	-0.098
-365.712	148.411	-0.038	0.051
-364.698	-58.279	-0.075	-0.032
-363.683	-200.000	-0.042	-0.339
-362.669	176.990	-0.156	0.226
-361.654	64.454	0.298	0.298
-360.639	34.850	-0.079	0.068
-359.625	-200.000	0.046	-0.279
-358.610	388.274	-0.244	0.502
-357.596	65.937	-0.209	0.210
-356.581	-187.630	-0.229	0.003
-355.566	88.974	-0.192	-0.212
-354.552	433.291	-0.105	-0.226
-353.537	22.113	0.170	0.137
-352.523	-200.000	-0.180	-0.000
-351.508	-69.328	0.235	0.090
-350.493	21.724	-0.160	-0.129
-349.479	-200.000	0.017	-0.174
-348.464	800.000	-0.110	0.305
-347.450	657.968	-0.032	-0.081
-346.435	107.218	-0.197	-0.233
-345.420	-123.483	0.125	-0.020
-344.406	325.341	-0.078	-0.148
-343.391	-135.848	-0.137	-0.016
-342.377	-162.274	-0.248	-0.012
-341.362	-200.000	0.033	-0.288
-340.348	57.744	-0.309	0.300
-339.333	-200.000	0.048	0.308
-338.318	561.339	-0.128	0.307
-337.304	-180.342	-0.164	-0.003
-336.289	4.568	-0.047	0.034
-335.275	-116.361	-0.140	-0.026
-334.260	-55.262	0.167	0.074
-333.245	-2.800	-0.156	-0.108
-332.231	392.119	-0.135	0.279
-331.216	800.000	0.028	-0.086
-330.202	800.000	0.045	-0.132
-329.187	290.132	-0.102	-0.184
-328.172	-27.550	-0.174	0.100
-327.158	62.176	-0.047	-0.046
-326.143	-67.281	-0.304	-0.118
-325.129	-193.243	-0.101	-0.001
-324.114	39.064	-0.194	0.172
-323.099	800.000	-0.099	-0.285
-322.085	-200.000	-0.018	0.104
-321.070	290.404	-0.021	0.038
-320.056	-200.000	-0.040	-0.426
-319.041	-5.580	0.187	-0.127
-318.026	-87.101	-0.264	-0.080
-317.012	-116.759	0.173	0.031
-315.997	-61.899	-0.280	-0.116
-314.983	140.366	-0.133	-0.174
-313.968	25.321	0.175	0.144
-312.953	134.498	0.107	0.137
-311.939	-200.000	0.005	-0.208
-310.924	-200.000	-0.055	0.369
-309.910	-200.000	0.035	-0.496
-308.895	-92.475	-0.116	-0.032
-307.880	-197.515	0.235	-0.001
-306.866	407.693	-0.121	0.254
-305.851	-76.419	-0.196	0.068
-304.837	133.302	-0.302	0.387
-303.822	156.563	0.049	-0.068
-302.807	190.681	-0.117	0.174
-301.793	-200.000	0.050	0.326
-300.778	-200.000	-0.041	0.323
-299.764	-200.000	0.028	-0.452
-298.749	-200.000	-0.002	0.070
-297.735	-13.279	-0.106	0.068
-296.720	115.170	0.093	-0.113
-295.705	-76.707	-0.264	-0.092
-294.691	-200.000	0.001	-0.165
-293.676	18.561	-0.193	0.153
-292.662	207.338	0.048	0.074
-291.647	480.816	-0.097	0.217
-290.632	78.785	0.083	-0.088
-289.618	188.718	0.171	-0.253
-288.603	-200.000	-0.041	-0.214
-287.589	800.000	0.074	0.238
-286.574	292.240	0.009	-0.017
-285.559	-200.000	-0.047	0.305
-284.545	800.000	-0.085	0.365
-283.530	124.154	0.125	0.155
-282.516	-200.000	-0.082	0.399
-281.501	533.998	0.123	-0.288
-280.486	-23.103	0.199	-0.119
-279.472	41.930	-0.359	0.322
-278.457	-109.893	-0.115	-0.024
-277.443	800.000	-0.031	-0.117
-276.428	583.449	-0.041	-0.099
-275.413	42.261	-0.084	-0.076
-274.399	-200.000	0.003	0.023
-273.384	-44.062	-0.133	-0.066
-272.370	136.674	0.149	-0.192
-271.355	-30.869	0.258	0.145
-270.340	235.420	-0.169	-0.277
-269.326	-144.787	0.164	0.015
-268.311	65.054	-0.141	-0.141
-267.297	155.876	-0.124	0.170
-266.282	-74.431	0.107	-0.038
-265.267	208.441	-0.157	-0.243
-264.253	456.154	0.047	0.103
-263.238	-7.731	0.093	0.062
-262.224	-200.000	0.050	0.322
-261.209	800.000	0.005	0.022
-260.195	-200.000	-0.042	0.262
-259.180	355.326	-0.125	0.245
-258.165	125.488	0.086	0.108
-257.151	-105.920	0.092	0.021
-256.136	313.132	-0.082	0.152
-255.122	-51.484	0.215	-0.099
-254.107	-105.272	-0.496	-0.112
-253.092	-48.194	-0.327	0.156
-252.078	800.000	-0.022	0.075
-251.063	-33.037	0.395	0.217
-250.049	42.005	-0.294	0.264
-249.034	-107.918	0.202	-0.043
-248.019	50.064	-0.145	-0.135
-247.005	800.000	0.056	0.232
-245.990	-99.580	-0.157	0.039
-244.976	-158.776	0.144	-0.008
-243.961	418.838	0.128	0.271
-242.946	173.243	-0.106	0.152
-241.932	178.891	-0.029	0.042
-240.917	79.755	0.163	-0.173
-239.903	-200.000	0.025	0.202
-238.888	-41.441	0.138	0.070
-237.873	800.000	-0.068	0.201
-236.859	157.248	0.115	-0.158
-235.844	-93.875	-0.365	-0.099
-234.830	-200.000	0.015	0.126
-233.815	138.615	-0.052	0.068
-232.800	-1.208	-0.111	-0.078
-231.786	153.567	-0.056	-0.076
-230.771	800.000	0.070	0.221
-229.757	279.949	-0.135	-0.238
-228.742	800.000	0.054	0.198
-227.727	-71.765	0.202	-0.075
-226.713	-188.695	-0.082	-0.001
-225.698	165.681	0.230	-0.321
-224.684	85.364	-0.034	-0.036
-223.669	303.185	0.196	0.359
-222.655	800.000	-0.049	-0.148
-221.640	108.947	0.251	0.297
-220.625	-200.000	-0.034	0.271
-219.611	-101.858	-0.286	0.068
-218.596	-12.724	0.172	-0.110
-217.582	-200.000	0.007	0.103
-216.567	-200.000	-0.032	0.186
-215.552	285.695	0.200	-0.356
-214.538	-200.000	0.016	0.242
-213.523	-48.162	0.019	-0.009
-212.509	-200.000	0.013	0.436
-211.494	31.038	0.113	-0.096
-210.479	-200.000	0.041	-0.252
-209.465	4.616	-0.099	0.072
-208.450	-2.490	0.164	0.113
-207.436	74.439	-0.106	0.110
-206.421	-43.501	0.137	-0.068
-205.406	258.306	-0.126	0.213
-204.392	-8.485	0.275	0.183
-203.377	68.524	0.251	0.254
-202.363	-57.933	-0.419	0.181
-201.348	-55.805	0.073	-0.032
-200.333	-64.110	-0.135	-0.054
-199.319	-17.132	-0.095	-0.059
-198.304	-121.818	0.289	0.047
-197.290	-166.319	-0.140	0.006
-196.275	2.912	-0.184	-0.132
-195.260	67.602	0.061	-0.062
-194.246	-200.000	-0.033	-0.145
-193.231	445.164	-0.035	0.076
-192.217	32.362	-0.035	0.030
-191.202	800.000	0.060	-0.190
-190.187	-2.293	0.222	-0.154
-189.173	800.000	-0.076	-0.223
-188.158	93.820	0.126	0.141
-187.144	-111.934	0.246	-0.049
-186.129	-113.684	0.140	-0.027
-185.114	253.269	-0.185	-0.311
-184.100	800.000	-0.040	0.172
-183.085	-177.362	-0.110	0.003
-182.071	-51.780	-0.177	0.081
-181.056	-102.674	0.309	0.073
-180.042	800.000	0.066	0.237
-179.027	-132.903	-0.233	0.029
-178.012	698.332	0.084	-0.218
-176.998	800.000	-0.098	0.292
-175.983	16.793	0.049	0.039
-174.969	-169.068	0.412	-0.015
-173.954	-54.144	0.037	0.017
-172.939	800.000	0.077	0.304
-171.925	-200.000	0.001	0.081
-170.910	54.581	0.557	0.529
-169.896	-200.000	-0.037	-0.344
-168.881	-38.749	-0.137	0.071
-167.866	348.902	0.174	0.337
-166.852	57.954	-0.305	0.294
-165.837	-109.834	0.346	0.071
-164.823	-129.172	-0.043	0.006
-163.808	557.461	0.183	-0.434
-162.793	-200.000	-0.008	0.128
-161.779	45.491	0.211	0.192
-160.764	507.113	-0.076	-0.174
-159.750	-72.496	-0.145	0.053
-158.735	152.211	0.064	0.086
-157.720	54.766	0.354	0.337
-156.706	152.324	0.119	0.160
-155.691	-200.000	0.008	-0.164
-154.677	-200.000	-0.018	0.087
-153.662	87.099	-0.084	-0.091
-152.647	193.114	-0.040	-0.060
-151.633	254.630	0.092	0.156
-150.618	379.789	-0.045	0.090
-149.604	-31.577	-0.206	0.114
-148.589	-192.157	0.316	0.003
-147.574	444.699	0.043	0.093
-146.560	-130.709	-0.150	0.020
-145.545	-190.815	-0.404	0.004
-144.531	280.469	-0.102	0.180
-143.516	-47.214	-0.399	-0.191
-142.502	105.675	0.096	0.112
-141.487	3.486	-0.191	-0.137
-140.472	-200.000	-0.032	-0.348
-139.458	767.726	0.058	-0.156
-138.443	23.283	0.212	-0.171
-137.429	-141.821	-0.165	-0.016
-136.414	-200.000	-0.020	0.180
-135.399	-52.248	-0.129	-0.059
-134.385	-200.000	0.072	-0.410
-133.370	-200.000	0.044	0.290
-132.356	87.778	-0.100	0.109
-131.341	-86.290	0.254	0.077
-130.326	597.976	0.099	-0.242
-129.312	15.506	-0.018	-0.014
-128.297	-200.000	-0.041	0.307
-127.283	800.000	-0.079	0.268
-126.268	-200.000	-0.026	-0.126
-125.253	-110.985	-0.025	0.005
-124.239	-120.355	-0.175	-0.029
-123.224	-118.800	0.084	-0.015
-122.210	-82.229	0.025	0.008
