DTS Sentinel unit serial number:	SN413079Multiplexer serial number:	ORYXHardware model number:	OX4-SRSoftware version number:	ORYX F/W v4.00 Oryx Data Collector v3.7.2.0data status	okinstallation	princeton_trtdifferential loss correction	single-endedforward channel	channel 2reverse channel	N/Adate	2019/09/16time	09:07:35forward acquisition time	60.00reverse acquisition time	0.00gamma	496.2192k internal	0.2324k external	0.2324temperature offset calibration	0.9971default loss term (dB/km)	0.3790temperature slope calibration	1.0000multiplexer offset coefficient	1.0000multiplexer slope coefficient	1.0000fibre end	0.00T internal ref (°C)	30.80T ext. ref 1 (°C)	12.09T ext. ref 2 (°C)	28.25length (m)	temperature (°C)	Stokes	anti-Stokes-747.200	-45.100	0.231	-0.116
-746.185	-123.972	-0.130	0.021
-745.171	478.485	0.101	-0.232
-744.156	-100.171	0.170	-0.043
-743.142	-130.935	0.051	0.007
-742.127	65.127	-0.289	0.294
-741.112	-200.000	-0.020	-0.345
-740.098	12.753	0.287	0.224
-739.083	-200.000	0.006	0.455
-738.069	-200.000	-0.052	0.381
-737.054	-164.361	0.300	0.014
-736.039	800.000	-0.049	0.170
-735.025	-2.381	0.048	0.034
-734.010	-123.308	-0.247	0.040
-732.996	-200.000	0.071	-0.356
-731.981	-126.286	-0.564	0.085
-730.966	1.780	0.173	0.126
-729.952	-37.803	-0.132	-0.071
-728.937	-54.372	-0.159	0.073
-727.923	327.648	-0.084	-0.164
-726.908	101.417	-0.260	-0.305
-725.894	-63.433	-0.230	-0.095
-724.879	257.929	-0.069	0.119
-723.864	473.887	-0.058	0.131
-722.850	-63.940	0.374	-0.154
-721.835	-41.648	-0.296	0.154
-720.821	54.518	0.206	0.200
-719.806	-77.565	0.191	0.067
-718.791	-6.290	-0.309	-0.212
-717.777	-18.248	-0.158	0.100
-716.762	390.091	-0.167	-0.349
-715.748	-200.000	-0.011	-0.141
-714.733	-98.272	0.154	-0.040
-713.718	-200.000	-0.062	0.364
-712.704	-9.686	-0.216	-0.145
-711.689	17.867	-0.088	0.071
-710.675	-137.685	0.211	0.024
-709.660	25.136	0.195	0.163
-708.645	-200.000	-0.003	-0.232
-707.631	-200.000	0.009	0.109
-706.616	47.241	-0.221	0.207
-705.602	-13.305	0.063	0.041
-704.587	-51.161	-0.081	-0.038
-703.572	81.270	-0.187	-0.203
-702.558	-140.405	-0.023	0.002
-701.543	-96.812	0.224	-0.059
-700.529	800.000	0.067	0.266
-699.514	-52.165	0.144	-0.067
-698.499	164.866	-0.247	-0.351
-697.485	51.854	0.158	-0.151
-696.470	-125.235	-0.346	-0.053
-695.456	317.395	0.109	0.208
-694.441	-200.000	-0.006	0.045
-693.426	-80.537	0.366	-0.123
-692.412	-110.314	0.080	-0.017
-691.397	5.173	-0.101	0.075
-690.383	-110.286	-0.083	-0.017
-689.368	-200.000	-0.000	-0.191
-688.354	266.153	0.013	-0.024
-687.339	-94.158	0.216	-0.060
-686.324	-76.855	-0.129	0.045
-685.310	-200.000	-0.002	0.098
-684.295	8.968	-0.101	-0.077
-683.281	-200.000	0.034	-0.165
-682.266	-7.577	-0.127	-0.087
-681.251	291.912	0.128	-0.234
-680.237	257.044	-0.255	-0.441
-679.222	241.949	0.164	0.277
-678.208	40.202	-0.258	-0.234
-677.193	84.206	-0.176	0.193
-676.178	-25.035	-0.177	0.105
-675.164	-161.359	-0.252	-0.013
-674.149	-20.015	0.078	-0.048
-673.135	-129.931	0.194	0.027
-672.120	-73.567	-0.071	0.026
-671.105	-152.002	0.078	-0.006
-670.091	278.864	-0.101	0.182
-669.076	92.406	-0.230	-0.261
-668.062	-69.969	0.132	0.051
-667.047	-5.987	-0.246	0.169
-666.032	-76.724	-0.248	-0.087
-665.018	-200.000	-0.037	0.185
-664.003	402.888	-0.098	0.208
-662.989	800.000	-0.098	0.307
-661.974	437.184	-0.112	0.245
-660.959	96.763	-0.215	0.247
-659.945	123.830	-0.113	-0.143
-658.930	2.704	-0.327	0.238
-657.916	-69.156	-0.168	-0.065
-656.901	-48.568	-0.445	0.215
-655.886	108.677	-0.054	0.065
-654.872	168.627	-0.293	0.419
-653.857	68.996	-0.099	0.102
-652.843	800.000	0.073	0.250
-651.828	699.666	0.083	0.219
-650.814	-126.133	0.148	0.022
-649.799	318.480	0.087	-0.165
-648.784	-29.610	-0.317	0.182
-647.770	-200.000	0.010	0.223
-646.755	7.393	-0.163	-0.122
-645.741	24.208	-0.150	0.125
-644.726	182.874	-0.212	-0.315
-643.711	-200.000	-0.015	0.123
-642.697	-109.983	0.108	0.023
-641.682	21.613	0.134	-0.110
-640.668	800.000	-0.005	0.018
-639.653	103.338	-0.051	0.060
-638.638	130.504	0.273	0.352
-637.624	-140.435	0.164	-0.017
-636.609	703.834	0.145	-0.384
-635.595	-25.797	0.088	-0.052
-634.580	-188.325	0.111	0.001
-633.565	152.020	-0.285	0.390
-632.551	-133.456	-0.324	0.041
-631.536	-70.373	0.199	-0.076
-630.522	21.496	-0.124	-0.101
-629.507	70.660	0.392	0.408
-628.492	52.682	-0.116	0.112
-627.478	800.000	-0.052	-0.205
-626.463	-137.681	-0.157	0.018
-625.449	503.409	0.126	-0.293
-624.434	27.785	-0.157	-0.133
-623.419	-200.000	0.031	-0.256
-622.405	-200.000	0.006	-0.108
-621.390	-127.203	-0.160	0.024
-620.376	-200.000	0.001	-0.244
-619.361	-77.660	0.210	-0.073
-618.346	315.493	0.014	-0.026
-617.332	-161.558	-0.148	-0.008
-616.317	800.000	0.015	0.060
-615.303	78.931	-0.153	-0.164
-614.288	33.194	0.197	0.172
-613.273	-6.980	0.249	-0.170
-612.259	294.865	-0.264	-0.485
-611.244	-175.267	0.056	-0.002
-610.230	-89.986	0.061	0.018
-609.215	-61.328	0.205	0.087
-608.201	171.660	0.063	-0.091
-607.186	98.365	-0.123	-0.142
-606.171	15.902	-0.157	0.124
-605.157	329.945	0.045	0.088
-604.142	-53.105	-0.131	-0.061
-603.128	-200.000	0.006	-0.071
-602.113	-200.000	0.074	0.352
-601.098	-57.863	0.365	-0.160
-600.084	257.720	-0.094	0.162
-599.069	-56.781	-0.337	0.149
-598.055	155.746	0.106	0.146
-597.040	-82.123	0.126	-0.041
-596.025	800.000	-0.053	-0.201
-595.011	250.406	-0.165	-0.281
-593.996	124.022	-0.226	-0.285
-592.982	445.429	-0.174	0.383
-591.967	705.368	0.065	0.172
-590.952	103.836	-0.155	0.182
-589.938	290.993	-0.123	-0.224
-588.923	104.356	-0.095	-0.112
-587.909	-130.121	0.159	0.022
-586.894	745.780	0.077	0.208
-585.879	-200.000	0.033	0.207
-584.865	-84.052	0.249	0.079
-583.850	-22.843	-0.204	-0.123
-582.836	134.988	0.435	-0.566
-581.821	-61.274	-0.104	0.044
-580.806	-89.280	0.171	0.050
-579.792	-0.636	-0.320	-0.228
-578.777	-200.000	-0.043	0.250
-577.763	-80.135	0.341	0.115
-576.748	-62.998	-0.178	-0.074
-575.733	-83.023	0.091	0.029
-574.719	136.402	-0.235	-0.307
-573.704	800.000	-0.119	0.412
-572.690	20.585	0.101	0.082
-571.675	-57.792	0.341	0.149
-570.661	800.000	-0.183	0.523
-569.646	-36.512	0.338	-0.182
-568.631	-52.123	-0.327	0.152
-567.617	290.296	0.241	-0.439
-566.602	-98.332	0.194	0.050
-565.588	26.678	0.219	0.184
-564.573	-46.161	-0.092	0.046
-563.558	800.000	-0.099	-0.313
-562.544	106.810	0.269	-0.320
-561.529	-174.519	-0.173	0.005
-560.515	369.297	0.090	-0.183
-559.500	-200.000	-0.008	-0.179
-558.485	-13.910	-0.085	0.055
-557.471	800.000	-0.044	0.140
-556.456	168.652	-0.104	-0.148
-555.442	-150.013	-0.206	-0.016
-554.427	188.639	0.071	-0.107
-553.412	-128.477	0.167	-0.024
-552.398	-89.948	-0.181	-0.053
-551.383	425.503	0.074	0.159
-550.369	-71.043	-0.167	-0.063
-549.354	-200.000	-0.009	0.138
-548.339	433.531	0.120	0.261
-547.325	-79.691	0.227	-0.077
-546.310	-54.716	0.162	0.073
-545.296	625.711	0.003	0.006
-544.281	152.222	-0.103	0.141
-543.266	-151.427	0.322	-0.024
-542.252	-97.975	0.217	-0.056
-541.237	35.865	0.082	-0.072
-540.223	-200.000	-0.031	0.162
-539.208	800.000	-0.092	0.275
-538.193	-47.131	0.175	0.085
-537.179	800.000	0.050	-0.205
-536.164	-119.076	-0.296	-0.052
-535.150	-192.912	-0.271	-0.002
-534.135	-97.921	0.224	0.058
-533.121	188.741	-0.088	0.131
-532.106	40.634	0.117	-0.106
-531.091	800.000	0.075	0.238
-530.077	-172.348	-0.156	0.005
-529.062	-200.000	-0.026	0.243
-528.048	204.188	0.123	0.191
-527.033	800.000	0.114	-0.414
-526.018	103.346	-0.053	0.062
-525.004	-19.080	0.145	0.090
-523.989	35.340	-0.235	-0.206
-522.975	96.289	-0.162	-0.185
-521.960	-120.000	-0.062	-0.011
-520.945	103.894	0.098	-0.115
-519.931	330.320	0.189	0.364
-518.916	90.921	0.054	-0.061
-517.902	-140.325	-0.521	0.055
-516.887	469.570	0.047	-0.107
-515.872	-57.835	0.433	0.189
-514.858	800.000	0.092	0.262
-513.843	-200.000	0.018	-0.300
-512.829	35.142	0.175	-0.153
-511.814	-103.601	-0.171	0.040
-510.799	-53.593	0.215	-0.098
-509.785	149.467	-0.111	-0.150
-508.770	-200.000	0.026	-0.161
-507.756	208.038	-0.057	0.090
-506.741	47.180	0.124	-0.115
-505.726	127.643	-0.121	-0.154
-504.712	22.948	0.151	0.124
-503.697	497.928	0.043	0.099
-502.683	248.791	-0.179	0.303
-501.668	67.043	-0.057	0.058
-500.653	59.609	-0.448	0.442
-499.639	24.488	-0.200	0.166
-498.624	-5.992	-0.166	0.113
-497.610	-52.388	-0.205	-0.095
-496.595	12.678	-0.173	0.134
-495.581	29.287	-0.031	0.026
-494.566	-120.864	0.255	0.043
-493.551	447.163	-0.188	-0.413
-492.537	-200.000	-0.036	-0.415
-491.522	-91.395	-0.109	0.031
-490.508	-114.005	0.277	-0.054
-489.493	224.822	-0.116	0.188
-488.478	-43.729	0.080	0.040
-487.464	-200.000	-0.024	-0.184
-486.449	800.000	-0.041	-0.169
-485.435	-77.094	-0.044	0.015
-484.420	800.000	-0.060	0.250
-483.405	-200.000	-0.080	-0.359
-482.391	593.749	0.076	0.186
-481.376	-77.952	0.385	-0.133
-480.362	197.632	0.135	-0.206
-479.347	-200.000	0.031	-0.204
-478.332	800.000	-0.033	-0.123
-477.318	800.000	-0.038	-0.143
-476.303	800.000	0.098	-0.348
-475.289	-74.013	-0.148	0.054
-474.274	30.820	-0.101	-0.086
-473.259	-128.091	-0.255	-0.036
-472.245	182.909	-0.192	-0.283
-471.230	557.929	0.033	0.081
-470.216	-144.153	0.318	0.030
-469.201	-165.815	0.109	0.005
-468.186	-24.891	0.276	0.164
-467.172	-121.788	-0.159	-0.026
-466.157	23.331	-0.119	0.098
-465.143	19.042	-0.068	-0.055
-464.128	-200.000	-0.001	-0.014
-463.113	155.528	0.072	-0.098
-462.099	238.133	0.102	0.168
-461.084	-200.000	-0.050	-0.235
-460.070	800.000	0.097	-0.417
-459.055	117.766	-0.183	0.225
-458.040	21.399	-0.215	-0.175
-457.026	176.247	0.134	-0.194
-456.011	144.793	-0.129	-0.172
-454.997	11.833	0.101	-0.077
-453.982	-200.000	0.022	0.105
-452.968	35.626	-0.142	-0.124
-451.953	18.014	-0.075	0.060
-450.938	422.999	-0.115	-0.246
-449.924	79.927	0.235	-0.252
-448.909	359.722	0.102	-0.204
-447.895	779.980	-0.105	0.286
-446.880	-70.116	0.258	0.098
-445.865	800.000	-0.051	-0.194
-444.851	16.141	-0.054	-0.042
-443.836	86.357	0.287	0.316
-442.822	-48.808	-0.184	0.088
-441.807	-72.523	-0.546	0.201
-440.792	391.499	-0.172	0.357
-439.778	9.813	0.203	0.154
-438.763	534.654	-0.033	-0.077
-437.749	636.985	-0.105	0.266
-436.734	-68.542	-0.058	-0.022
-435.719	-200.000	-0.036	-0.182
-434.705	-200.000	-0.018	0.101
-433.690	50.211	-0.019	0.018
-432.676	-200.000	-0.026	0.152
-431.661	-200.000	-0.023	-0.116
-430.646	552.816	-0.040	0.096
-429.632	-69.678	0.472	0.180
-428.617	-4.658	-0.083	0.057
-427.603	734.139	0.040	0.108
-426.588	-200.000	0.048	0.272
-425.573	-157.007	-0.230	0.014
-424.559	168.594	-0.118	0.168
-423.544	82.673	-0.293	-0.318
-422.530	800.000	0.045	-0.145
-421.515	-85.616	0.140	-0.043
-420.500	-144.317	0.141	-0.013
-419.486	694.438	0.085	0.221
-418.471	491.587	-0.063	0.144
-417.457	-79.842	-0.264	-0.089
-416.442	223.080	0.235	-0.377
-415.428	800.000	-0.094	0.299
-414.413	-71.991	-0.127	-0.047
-413.398	-42.692	0.160	-0.081
-412.384	-184.262	0.185	0.003
-411.369	-170.157	-0.157	0.006
-410.355	-200.000	0.009	-0.051
-409.340	371.976	-0.203	-0.411
-408.325	243.610	-0.242	-0.404
-407.311	-200.000	0.022	-0.134
-406.296	800.000	0.185	0.521
-405.282	23.644	-0.146	0.120
-404.267	-31.230	0.066	0.037
-403.252	-61.510	-0.103	-0.043
-402.238	3.637	0.295	0.214
-401.223	-128.276	0.295	0.042
-400.209	-66.790	-0.330	0.130
-399.194	95.849	0.148	-0.168
-398.179	13.410	-0.197	-0.152
-397.165	-200.000	-0.017	-0.077
-396.150	13.456	-0.173	-0.133
-395.136	98.020	0.062	0.071
-394.121	62.720	-0.061	-0.061
-393.106	6.935	-0.140	-0.104
-392.092	-200.000	0.004	-0.019
-391.077	-94.265	0.235	-0.064
-390.063	55.421	0.041	0.040
-389.048	409.543	-0.137	0.288
-388.033	62.448	-0.097	-0.096
-387.019	126.600	-0.280	0.353
-386.004	800.000	-0.016	0.056
-384.990	277.308	0.091	-0.161
-383.975	800.000	0.073	0.235
-382.960	-54.100	-0.062	-0.028
-381.946	-200.000	0.018	-0.204
-380.931	269.294	0.104	0.181
-379.917	573.234	0.030	0.074
-378.902	800.000	0.055	0.186
-377.888	-81.067	0.230	0.076
-376.873	-200.000	0.030	-0.144
-375.858	-143.568	-0.099	-0.009
-374.844	-82.106	-0.223	0.072
-373.829	-131.440	0.324	-0.043
-372.815	55.294	0.100	-0.096
-371.800	-20.705	-0.121	0.074
-370.785	-200.000	-0.005	0.060
-369.771	-151.804	0.228	-0.017
-368.756	-3.094	-0.140	0.097
-367.742	-200.000	0.332	-0.001
-366.727	-200.000	-0.093	-0.489
-365.712	30.831	-0.366	-0.311
-364.698	67.364	0.307	-0.312
-363.683	3.441	0.147	-0.107
-362.669	123.263	-0.122	0.152
-361.654	-137.599	-0.171	0.019
-360.639	-115.307	-0.106	0.020
-359.625	92.272	0.213	0.239
-358.610	-200.000	-0.002	-0.125
-357.596	-58.979	0.147	0.063
-356.581	-200.000	-0.021	-0.213
-355.566	-150.912	-0.400	0.030
-354.552	800.000	-0.008	-0.025
-353.537	800.000	0.019	-0.076
-352.523	256.149	-0.179	-0.306
-351.508	644.845	0.148	-0.375
-350.493	-61.895	-0.292	-0.121
-349.479	-200.000	-0.040	-0.198
-348.464	87.160	-0.192	0.211
-347.450	-111.391	0.167	-0.034
-346.435	-200.000	-0.002	-0.045
-345.420	313.362	-0.060	-0.112
-344.406	-89.229	-0.121	0.036
-343.391	800.000	0.147	0.444
-342.377	125.973	0.196	0.246
-341.362	53.618	0.173	-0.165
-340.348	56.404	-0.226	0.219
-339.333	-31.236	0.107	-0.060
-338.318	42.089	-0.109	0.099
-337.304	70.031	-0.060	0.062
-336.289	139.617	-0.086	0.112
-335.275	-59.975	-0.189	0.080
-334.260	266.199	0.018	0.031
-333.245	800.000	0.014	-0.054
-332.231	-70.647	0.142	-0.053
-331.216	23.440	0.262	0.214
-330.202	-200.000	0.042	0.317
-329.187	93.819	0.234	0.263
-328.172	-173.693	0.258	-0.008
-327.158	152.963	-0.084	0.114
-326.143	-17.084	0.214	0.134
-325.129	800.000	-0.090	0.376
-324.114	800.000	0.100	0.324
-323.099	-19.041	0.042	-0.026
-322.085	249.115	-0.192	-0.322
-321.070	-116.339	-0.224	-0.041
-320.056	-98.366	0.124	0.032
-319.041	3.338	-0.168	0.122
-318.026	59.901	-0.160	-0.157
-317.012	-35.088	0.089	-0.048
-315.997	-71.049	-0.191	0.071
-314.983	-200.000	0.021	-0.151
-313.968	-200.000	-0.008	0.062
-312.953	-66.766	-0.188	0.074
-311.939	-200.000	0.017	0.374
-310.924	-200.000	0.016	-0.118
-309.910	-200.000	0.005	0.406
-308.895	-43.512	-0.050	-0.025
-307.880	165.158	0.156	-0.219
-306.866	-21.918	-0.101	0.061
-305.851	-97.385	-0.310	-0.080
-304.837	-15.337	-0.064	-0.041
-303.822	-126.197	0.094	0.014
-302.807	-200.000	0.047	0.483
-301.793	-9.960	-0.297	0.196
-300.778	723.130	0.109	-0.288
-299.764	-69.982	-0.300	-0.114
-298.749	-70.836	0.220	0.082
-297.735	-188.592	-0.102	0.001
-296.720	131.315	0.188	0.240
-295.705	198.420	0.084	0.127
-294.691	159.723	-0.203	-0.280
-293.676	-141.313	0.142	0.014
-292.662	-200.000	-0.009	-0.175
-291.647	-119.691	0.192	0.033
-290.632	472.004	-0.100	-0.222
-289.618	-34.018	-0.201	0.110
-288.603	124.483	0.137	0.170
-287.589	-200.000	0.015	-0.303
-286.574	221.108	-0.185	-0.295
-285.559	445.242	0.096	0.208
-284.545	800.000	0.052	0.141
-283.530	11.399	-0.168	0.127
-282.516	-132.728	0.073	-0.009
-281.501	-134.778	0.073	0.009
-280.486	112.579	-0.141	-0.169
-279.472	-131.444	-0.141	0.018
-278.457	425.859	-0.072	-0.154
-277.443	219.625	-0.165	0.261
-276.428	-121.285	-0.090	-0.015
-275.413	8.435	-0.026	-0.019
-274.399	-25.209	0.241	0.142
-273.384	-112.282	0.246	-0.049
-272.370	-117.632	0.102	-0.018
-271.355	306.126	-0.138	-0.255
-270.340	-200.000	-0.025	0.331
-269.326	-52.348	0.151	0.069
-268.311	160.107	-0.060	0.082
-267.297	6.703	0.136	0.100
-266.282	-139.269	0.181	-0.019
-265.267	-73.765	0.055	0.020
-264.253	26.873	-0.050	0.042
-263.238	97.973	0.113	-0.129
-262.224	-41.251	-0.040	0.020
-261.209	-179.821	-0.206	-0.004
-260.195	9.462	-0.116	-0.087
-259.180	475.271	-0.064	0.143
-258.165	-157.915	0.328	-0.019
-257.151	800.000	0.066	-0.193
-256.136	-117.035	0.110	-0.020
-255.122	-200.000	0.111	-0.543
-254.107	131.435	-0.065	-0.083
-253.092	-200.000	-0.014	0.373
-252.078	-8.033	-0.432	-0.289
-251.063	-174.585	0.318	0.009
-250.049	-45.308	0.092	-0.045
-249.034	-81.695	0.131	-0.042
-248.019	800.000	-0.077	0.238
-247.005	-67.392	0.345	0.134
-245.990	-200.000	0.061	0.377
-244.976	-200.000	0.004	0.100
-243.961	800.000	-0.066	0.198
-242.946	-72.855	-0.152	0.055
-241.932	800.000	-0.034	-0.107
-240.917	-157.949	0.232	0.014
-239.903	24.084	-0.164	-0.134
-238.888	-65.000	-0.087	-0.035
-237.873	-185.812	0.286	0.004
-236.859	484.981	-0.131	0.296
-235.844	86.207	0.114	-0.124
-234.830	40.959	0.229	0.204
-233.815	247.710	-0.038	0.064
-232.800	327.151	-0.083	0.158
-231.786	-157.708	0.354	-0.021
-230.771	-200.000	0.006	-0.080
-229.757	173.442	-0.074	0.105
-228.742	-105.033	0.158	0.036
-227.727	-132.440	-0.417	0.053
-226.713	-72.772	0.375	-0.137
-225.698	-200.000	-0.013	0.113
-224.684	-200.000	-0.008	-0.109
-223.669	800.000	0.081	-0.291
-222.655	40.214	-0.102	0.091
-221.640	286.673	0.167	0.299
-220.625	294.499	0.092	0.166
-219.611	644.853	-0.049	-0.124
-218.596	800.000	-0.044	-0.119
-217.582	-46.641	-0.541	0.262
-216.567	-200.000	-0.004	-0.043
-215.552	456.983	-0.064	-0.140
-214.538	-4.000	0.369	0.253
-213.523	-120.118	-0.249	-0.042
-212.509	379.916	0.098	-0.199
-211.494	117.941	-0.157	0.191
-210.479	63.989	-0.033	0.032
-209.465	493.047	0.073	0.166
-208.450	-82.603	0.295	0.095
-207.436	119.115	-0.048	-0.058
-206.421	30.141	0.075	-0.064
-205.406	228.874	0.106	0.172
-204.392	-45.457	-0.224	0.110
-203.377	-200.000	0.003	0.188
-202.363	-149.657	-0.039	0.003
-201.348	61.324	0.068	-0.067
-200.333	21.598	0.093	0.075
-199.319	81.132	-0.069	-0.074
-198.304	800.000	-0.046	-0.180
-197.290	-101.777	0.306	-0.073
-196.275	-4.789	-0.333	-0.227
-195.260	95.384	-0.080	0.090
-194.246	80.346	-0.058	-0.062
-193.231	-24.445	0.090	-0.053
-192.217	171.984	0.132	0.188
-191.202	166.049	-0.079	-0.110
-190.187	41.507	-0.346	-0.309
-189.173	-100.888	0.107	-0.026
-188.158	800.000	-0.030	0.090
-187.144	800.000	-0.061	-0.185
-186.129	-101.946	0.274	0.065
-185.114	372.623	-0.112	-0.224
-184.100	-147.214	0.461	0.039
-183.085	-29.230	-0.371	-0.210
-182.071	-200.000	0.022	0.172
-181.056	56.883	0.129	0.124
-180.042	800.000	-0.041	-0.149
-179.027	128.589	0.136	0.171
-178.012	-156.190	-0.166	-0.010
-176.998	-113.863	-0.197	-0.038
-175.983	-200.000	-0.006	-0.283
-174.969	-60.327	0.130	-0.054
-173.954	-14.045	0.062	-0.039
-172.939	-78.496	0.160	0.054
-171.925	62.409	-0.291	-0.286
-170.910	-133.164	0.197	0.025
-169.896	-200.000	-0.018	-0.452
-168.881	-70.544	0.321	-0.120
-167.866	-160.002	0.051	-0.003
-166.852	251.179	0.017	-0.029
-165.837	119.835	0.265	0.325
-164.823	-85.594	0.250	-0.077
-163.808	38.769	-0.074	0.065
-162.793	43.912	-0.328	-0.297
-161.779	-26.116	-0.247	0.143
-160.764	660.694	-0.085	0.215
-159.750	289.285	0.050	-0.090
-158.735	96.487	0.244	0.275
-157.720	166.646	-0.165	0.230
-156.706	234.030	0.111	-0.180
-155.691	309.199	0.007	-0.014
-154.677	-55.321	0.180	0.080
-153.662	-37.416	-0.269	-0.142
-152.647	174.385	0.116	0.165
-151.633	-105.670	0.101	-0.023
-150.618	-127.514	0.213	0.030
-149.604	101.881	0.128	0.148
-148.589	800.000	-0.082	-0.345
-147.574	-200.000	0.076	-0.426
-146.560	370.854	0.159	0.317
-145.545	245.639	0.105	-0.174
-144.531	83.385	0.082	0.088
-143.516	73.658	0.033	-0.034
-142.502	199.612	-0.074	0.113
-141.487	-54.815	-0.176	0.079
-140.472	49.028	-0.203	0.188
-139.458	800.000	-0.070	0.233
-138.443	-99.216	0.024	0.006
-137.429	-2.651	0.176	0.122
-136.414	227.142	-0.243	0.389
-135.399	36.697	0.158	-0.137
-134.385	-61.757	0.180	0.074
-133.370	-60.240	-0.123	-0.052
-132.356	44.002	-0.352	-0.318
-131.341	283.011	0.178	0.315
-130.326	118.206	0.096	-0.116
-129.312	-6.002	0.162	-0.109
-128.297	-200.000	0.010	-0.197
-127.283	-131.431	0.217	0.028
-126.268	-43.534	-0.064	-0.032
-125.253	54.488	-0.188	-0.178
-124.239	800.000	0.028	0.081
-123.224	-68.845	0.447	-0.170
-122.210	41.040	-0.172	-0.153
-121.195	85.154	-0.289	0.312
-120.180	98.747	0.123	0.139
