DTS Sentinel unit serial number:	SN413079Multiplexer serial number:	ORYXHardware model number:	OX4-SRSoftware version number:	ORYX F/W v4.00 Oryx Data Collector v3.7.2.0data status	okinstallation	princeton_trtdifferential loss correction	single-endedforward channel	channel 2reverse channel	N/Adate	2019/09/13time	07:43:34forward acquisition time	60.00reverse acquisition time	0.00gamma	496.2192k internal	0.2336k external	0.2336temperature offset calibration	1.0196default loss term (dB/km)	0.3790temperature slope calibration	1.0000multiplexer offset coefficient	1.0000multiplexer slope coefficient	1.0000fibre end	0.00T internal ref (°C)	26.44T ext. ref 1 (°C)	4.22T ext. ref 2 (°C)	22.67length (m)	temperature (°C)	Stokes	anti-Stokes-747.200	88.064	0.193	-0.215
-746.185	19.105	-0.057	0.046
-745.171	800.000	0.024	0.096
-744.156	475.975	-0.017	0.038
-743.142	800.000	-0.038	0.113
-742.127	-122.926	-0.169	-0.027
-741.112	247.838	-0.162	0.276
-740.098	800.000	0.049	-0.156
-739.083	-79.012	-0.065	0.022
-738.069	278.981	-0.035	-0.063
-737.054	462.508	-0.068	0.152
-736.039	105.212	-0.166	-0.196
-735.025	93.563	0.046	-0.052
-734.010	-200.000	-0.005	0.040
-732.996	-200.000	-0.030	-0.365
-731.981	-66.595	-0.229	-0.091
-730.966	-155.924	-0.176	0.011
-729.952	-97.288	0.311	-0.081
-728.937	-200.000	-0.059	0.303
-727.923	-164.308	-0.330	0.015
-726.908	-48.077	-0.355	-0.172
-725.894	-118.543	0.142	-0.025
-724.879	800.000	-0.025	-0.106
-723.864	113.211	-0.155	-0.189
-722.850	233.182	-0.177	-0.292
-721.835	-23.138	-0.063	-0.038
-720.821	-90.721	0.069	-0.020
-719.806	360.402	-0.268	-0.539
-718.791	117.451	0.063	0.078
-717.777	-107.436	0.266	-0.059
-716.762	-41.318	0.090	0.047
-715.748	-11.771	0.143	0.094
-714.733	74.431	0.275	-0.290
-713.718	131.971	-0.101	-0.131
-712.704	-158.844	-0.285	-0.016
-711.689	-200.000	0.026	-0.158
-710.675	-200.000	0.098	-0.486
-709.660	164.660	0.186	-0.263
-708.645	95.374	-0.231	-0.264
-707.631	31.812	-0.200	-0.173
-706.616	-39.281	0.308	-0.162
-705.602	132.450	0.167	-0.215
-704.587	524.298	0.115	-0.272
-703.572	-62.636	-0.399	0.166
-702.558	-200.000	0.012	0.059
-701.543	-148.364	-0.053	-0.004
-700.529	39.864	0.164	0.147
-699.514	-161.219	0.337	0.018
-698.499	-114.697	-0.432	-0.083
-697.485	405.558	-0.112	0.236
-696.470	100.187	0.101	-0.118
-695.456	127.841	0.082	0.104
-694.441	655.057	-0.059	-0.152
-693.426	165.755	0.055	-0.079
-692.412	684.505	0.171	-0.448
-691.397	147.772	0.214	-0.289
-690.383	125.308	-0.086	-0.109
-689.368	-108.652	-0.133	0.029
-688.354	800.000	0.015	-0.053
-687.339	800.000	-0.060	0.185
-686.324	705.205	0.053	-0.141
-685.310	-131.494	-0.192	-0.025
-684.295	74.063	0.121	-0.127
-683.281	-200.000	-0.023	0.142
-682.266	-52.634	-0.335	-0.155
-681.251	-137.450	-0.150	-0.017
-680.237	-137.570	0.211	0.024
-679.222	-39.742	0.023	0.012
-678.208	-63.684	0.323	-0.133
-677.193	-151.535	-0.455	0.034
-676.178	645.499	-0.039	-0.101
-675.164	-59.998	-0.271	0.116
-674.149	-145.167	-0.199	0.018
-673.135	-121.586	-0.250	-0.042
-672.120	800.000	0.127	0.416
-671.105	-51.279	0.142	0.066
-670.091	-200.000	0.002	0.130
-669.076	-69.621	-0.162	0.062
-668.062	141.031	0.092	-0.121
-667.047	-200.000	-0.006	-0.138
-666.032	-120.844	0.273	0.046
-665.018	-117.184	-0.339	-0.062
-664.003	320.660	-0.100	-0.190
-662.989	-106.913	-0.339	-0.075
-661.974	-200.000	-0.023	0.114
-660.959	-101.372	-0.206	0.050
-659.945	-200.000	0.049	-0.282
-658.930	50.227	0.297	-0.281
-657.916	4.181	0.170	-0.125
-656.901	41.418	-0.260	-0.235
-655.886	-4.375	0.174	-0.121
-654.872	35.011	0.035	0.030
-653.857	-200.000	0.017	0.151
-652.843	60.779	-0.174	-0.173
-651.828	-8.574	-0.061	0.041
-650.814	-146.262	0.124	-0.011
-649.799	-200.000	0.015	-0.335
-648.784	800.000	-0.083	-0.312
-647.770	-140.055	0.149	-0.016
-646.755	-78.939	0.163	0.055
-645.741	-200.000	0.052	0.277
-644.726	-49.262	-0.317	-0.151
-643.711	800.000	0.101	-0.322
-642.697	-8.021	0.449	0.303
-641.682	40.494	-0.051	0.046
-640.668	-79.233	0.069	-0.023
-639.653	-11.143	-0.290	-0.191
-638.638	-71.134	0.142	0.053
-637.624	-79.488	-0.131	-0.044
-636.609	-169.776	0.072	-0.003
-635.595	-1.055	-0.110	0.078
-634.580	-157.149	-0.016	-0.001
-633.565	86.503	0.183	0.202
-632.551	-65.481	-0.209	0.084
-631.536	-39.939	0.407	-0.213
-630.522	18.646	0.012	-0.009
-629.507	-129.306	-0.131	-0.018
-628.492	-119.586	-0.199	-0.034
-627.478	-24.945	0.075	0.045
-626.463	52.409	-0.116	-0.111
-625.449	-56.142	-0.231	-0.103
-624.434	-200.000	0.031	-0.275
-623.419	-68.429	0.071	0.028
-622.405	34.826	0.200	-0.174
-621.390	800.000	-0.014	0.044
-620.376	8.168	0.224	0.168
-619.361	-69.708	0.264	0.101
-618.346	349.178	0.052	0.102
-617.332	159.442	0.118	0.165
-616.317	-31.963	0.138	-0.077
-615.303	-87.512	-0.092	-0.028
-614.288	800.000	-0.060	-0.167
-613.273	-53.501	0.245	-0.112
-612.259	-132.117	-0.174	0.023
-611.244	-115.119	-0.422	-0.080
-610.230	146.884	-0.295	-0.396
-609.215	655.398	0.092	-0.235
-608.201	-200.000	0.062	-0.295
-607.186	800.000	0.084	-0.286
-606.171	505.669	0.116	0.269
-605.157	-200.000	0.004	-0.035
-604.142	-180.150	0.355	0.007
-603.128	-200.000	-0.062	-0.469
-602.113	-200.000	-0.022	0.182
-601.098	-9.168	0.159	-0.106
-600.084	-115.592	0.153	-0.029
-599.069	-200.000	0.035	0.417
-598.055	-27.492	0.200	-0.116
-597.040	32.289	0.207	-0.179
-596.025	-7.777	-0.047	-0.032
-595.011	-91.959	-0.166	-0.047
-593.996	579.815	0.091	-0.223
-592.982	-19.441	-0.149	-0.092
-591.967	94.277	-0.291	0.330
-590.952	-200.000	-0.071	0.505
-589.938	-104.281	0.077	-0.018
-588.923	-80.807	-0.179	-0.059
-587.909	425.988	0.079	0.170
-586.894	-200.000	0.022	-0.123
-585.879	80.822	-0.141	0.152
-584.865	-44.722	0.097	0.048
-583.850	66.322	0.150	-0.152
-582.836	-62.189	-0.537	-0.223
-581.821	800.000	-0.062	0.173
-580.806	-111.521	0.123	0.025
-579.792	449.185	0.060	-0.132
-578.777	396.271	0.191	0.398
-577.763	-200.000	-0.001	-0.025
-576.748	-7.054	-0.206	0.140
-575.733	-105.356	0.134	0.030
-574.719	436.744	-0.190	-0.413
-573.704	-23.450	-0.159	-0.095
-572.690	-200.000	0.022	0.175
-571.675	-200.000	-0.008	0.149
-570.661	115.681	0.188	0.229
-569.646	29.758	0.143	-0.121
-568.631	-6.646	0.248	0.169
-567.617	-49.865	0.049	-0.023
-566.602	-85.903	-0.200	-0.062
-565.588	800.000	0.048	-0.209
-564.573	-200.000	0.063	-0.313
-563.558	195.675	0.220	-0.334
-562.544	-200.000	0.030	0.310
-561.529	427.867	-0.132	-0.285
-560.515	800.000	0.059	0.205
-559.500	-31.560	0.100	-0.056
-558.485	-200.000	0.046	-0.363
-557.471	-5.384	-0.277	-0.189
-556.456	-131.029	0.281	0.037
-555.442	-138.418	-0.088	-0.010
-554.427	-200.000	0.022	0.125
-553.412	-200.000	0.018	0.081
-552.398	-163.999	0.086	0.004
-551.383	-161.173	0.161	0.008
-550.369	48.190	-0.125	-0.116
-549.354	145.999	-0.139	0.186
-548.339	71.640	0.092	-0.095
-547.325	547.579	0.073	0.174
-546.310	56.556	-0.087	-0.084
-545.296	-200.000	0.092	0.408
-544.281	-9.486	-0.125	0.083
-543.266	-140.941	-0.370	-0.038
-542.252	-117.710	-0.446	-0.080
-541.237	-65.505	0.071	0.028
-540.223	88.004	-0.181	0.200
-539.208	32.203	0.213	-0.183
-538.193	752.710	-0.068	-0.182
-537.179	-200.000	-0.015	0.119
-536.164	-111.780	0.228	-0.046
-535.150	800.000	0.020	0.073
-534.135	-129.598	-0.110	-0.015
-533.121	-200.000	0.014	-0.120
-532.106	16.173	0.107	-0.084
-531.091	-170.552	-0.212	-0.007
-530.077	-33.528	0.051	0.028
-529.062	76.072	0.135	0.142
-528.048	-200.000	-0.011	-0.226
-527.033	800.000	0.026	-0.075
-526.018	-168.543	0.612	0.023
-525.004	25.573	0.118	-0.098
-523.989	800.000	0.066	-0.249
-522.975	-200.000	0.014	-0.109
-521.960	-7.893	0.123	-0.083
-520.945	160.605	-0.077	0.107
-519.931	-200.000	0.011	0.291
-518.916	14.249	-0.077	-0.060
-517.902	738.853	0.051	0.137
-516.887	57.247	-0.115	0.112
-515.872	-66.434	0.043	-0.017
-514.858	191.550	-0.077	-0.115
-513.843	-200.000	0.030	-0.255
-512.829	20.244	0.143	-0.115
-511.814	-200.000	-0.014	0.235
-510.799	247.383	0.180	-0.303
-509.785	-200.000	0.035	-0.250
-508.770	686.528	0.027	-0.071
-507.756	-131.184	0.218	0.029
-506.741	-118.246	0.230	0.041
-505.726	800.000	-0.021	-0.073
-504.712	-200.000	0.088	0.481
-503.697	43.350	-0.316	0.288
-502.683	-96.283	0.298	-0.079
-501.668	121.120	0.127	-0.157
-500.653	54.424	0.131	-0.126
-499.639	-200.000	-0.042	0.226
-498.624	-200.000	0.037	-0.320
-497.610	-6.227	-0.156	-0.106
-496.595	12.046	0.150	-0.114
-495.581	-200.000	-0.018	0.137
-494.566	-200.000	-0.030	0.174
-493.551	67.088	0.185	-0.187
-492.537	643.818	-0.095	-0.242
-491.522	-192.769	-0.247	-0.002
-490.508	-46.944	0.123	-0.060
-489.493	-200.000	0.011	0.254
-488.478	-154.758	0.111	0.007
-487.464	302.740	-0.117	0.216
-486.449	48.222	0.100	0.093
-485.435	104.941	-0.054	-0.064
-484.420	-1.109	-0.026	-0.019
-483.405	139.594	0.093	0.122
-482.391	-39.206	-0.064	0.034
-481.376	-151.982	-0.214	0.016
-480.362	47.569	0.197	0.183
-479.347	54.733	0.123	-0.118
-478.332	-81.463	0.328	-0.107
-477.318	-167.676	0.500	0.020
-476.303	-200.000	0.003	0.022
-475.289	-77.999	0.184	-0.063
-474.274	112.186	-0.058	0.070
-473.259	176.107	-0.128	0.184
-472.245	149.213	-0.043	0.058
-471.230	-200.000	-0.050	-0.307
-470.216	76.155	0.117	0.123
-469.201	800.000	0.108	-0.390
-468.186	-200.000	0.010	0.321
-467.172	28.602	0.121	-0.102
-466.157	342.078	-0.112	0.217
-465.143	156.966	-0.048	-0.066
-464.128	800.000	0.021	-0.067
-463.113	-60.238	-0.247	-0.105
-462.099	-200.000	-0.048	-0.487
-461.084	-200.000	-0.035	0.234
-460.070	-180.145	-0.280	-0.006
-459.055	-67.462	0.164	-0.064
-458.040	43.619	0.367	0.333
-457.026	138.197	-0.069	0.090
-456.011	4.256	0.121	0.088
-454.997	800.000	0.145	-0.463
-453.982	-157.057	0.168	-0.010
-452.968	-99.811	-0.211	-0.052
-451.953	79.609	0.104	0.111
-450.938	-134.360	-0.170	0.021
-449.924	90.045	-0.146	0.162
-448.909	162.834	0.353	0.493
-447.895	273.634	0.121	0.212
-446.880	448.930	0.061	0.132
-445.865	244.141	0.079	0.132
-444.851	-79.623	-0.014	-0.005
-443.836	193.568	-0.249	0.374
-442.822	-25.008	0.115	-0.068
-441.807	756.575	-0.079	-0.211
-440.792	437.822	0.076	0.164
-439.778	-175.335	-0.291	0.008
-438.763	-200.000	0.005	0.083
-437.749	-80.509	-0.286	0.095
-436.734	1.628	-0.307	-0.219
-435.719	-71.529	-0.170	0.063
-434.705	105.388	0.252	-0.296
-433.690	-68.598	-0.306	-0.118
-432.676	-200.000	-0.024	0.167
-431.661	-127.061	-0.083	0.012
-430.646	135.658	-0.080	0.104
-429.632	482.569	-0.198	-0.446
-428.617	57.627	0.236	-0.228
-427.603	-200.000	-0.045	-0.265
-426.588	94.968	0.240	-0.271
-425.573	36.815	-0.400	-0.350
-424.559	-177.690	-0.234	0.006
-423.544	-171.280	-0.332	-0.011
-422.530	52.109	-0.143	-0.135
-421.515	-96.312	0.192	-0.051
-420.500	90.728	0.024	0.026
-419.486	126.568	0.108	0.135
-418.471	-96.617	-0.054	-0.014
-417.457	490.481	0.057	0.130
-416.442	-109.541	0.237	-0.050
-415.428	-54.110	-0.175	0.079
-414.413	20.722	-0.132	0.106
-413.398	-82.868	0.139	0.045
-412.384	800.000	-0.032	0.116
-411.369	-46.424	0.058	-0.028
-410.355	800.000	-0.032	0.120
-409.340	410.485	0.063	0.133
-408.325	-77.292	0.236	0.081
-407.311	56.902	0.065	-0.062
-406.296	-70.602	0.258	0.097
-405.282	800.000	-0.131	0.461
-404.267	-108.304	-0.102	0.022
-403.252	30.911	-0.182	0.155
-402.238	-99.300	0.137	0.034
-401.223	-142.300	0.239	0.023
-400.209	222.476	-0.098	-0.157
-399.194	-189.101	-0.406	0.005
-398.179	-149.334	-0.272	0.021
-397.165	9.373	0.051	0.038
-396.150	378.409	-0.143	-0.290
-395.136	-51.130	0.176	-0.082
-394.121	108.268	-0.249	0.294
-393.106	8.176	-0.102	-0.076
-392.092	-30.469	-0.221	0.124
-391.077	-200.000	0.035	-0.211
-390.063	370.831	-0.121	0.242
-389.048	-121.491	0.722	-0.119
-388.033	164.960	-0.123	-0.172
-387.019	800.000	0.095	0.358
-386.004	-7.322	0.173	0.116
-384.990	453.565	-0.053	-0.116
-383.975	-200.000	-0.012	0.297
-382.960	65.283	0.210	-0.210
-381.946	17.950	0.232	0.183
-380.931	96.657	0.052	-0.059
-379.917	800.000	0.040	-0.159
-378.902	-200.000	-0.004	0.221
-377.888	-100.981	-0.241	-0.059
-376.873	-112.185	-0.149	-0.030
-375.858	-128.126	-0.199	-0.028
-374.844	9.268	0.138	0.103
-373.829	314.019	-0.078	0.145
-372.815	98.195	-0.182	0.208
-371.800	50.678	-0.054	0.051
-370.785	503.582	0.114	-0.260
-369.771	-200.000	-0.026	-0.215
-368.756	47.660	-0.341	0.315
-367.742	157.906	-0.125	0.172
-366.727	-117.278	-0.206	-0.037
-365.712	-36.781	0.344	0.183
-364.698	800.000	-0.074	0.228
-363.683	-80.323	0.313	0.104
-362.669	-21.531	-0.119	0.072
-361.654	-200.000	-0.022	0.180
-360.639	571.451	0.082	-0.197
-359.625	-54.017	-0.062	0.028
-358.610	-3.782	0.347	-0.238
-357.596	577.641	-0.063	0.153
-356.581	-200.000	0.070	-0.349
-355.566	-141.222	0.244	-0.025
-354.552	162.265	-0.239	0.331
-353.537	-200.000	-0.030	-0.344
-352.523	95.643	-0.123	-0.139
-351.508	800.000	0.074	0.228
-350.493	-124.351	-0.300	-0.046
-349.479	74.815	-0.242	-0.252
-348.464	-200.000	0.099	0.478
-347.450	253.741	-0.160	-0.271
-346.435	-200.000	-0.030	-0.144
-345.420	-27.616	0.171	-0.098
-344.406	52.149	-0.274	0.258
-343.391	-88.911	-0.329	-0.096
-342.377	-124.602	0.348	-0.053
-341.362	-87.917	-0.256	-0.076
-340.348	800.000	-0.062	-0.180
-339.333	33.514	-0.161	-0.138
-338.318	-88.302	-0.097	-0.029
-337.304	-200.000	0.003	0.165
-336.289	-95.264	0.385	-0.102
-335.275	174.319	0.221	0.315
-334.260	4.219	-0.264	-0.191
-333.245	178.719	0.114	0.164
-332.231	-17.742	0.175	-0.109
-331.216	18.635	0.113	0.090
-330.202	-49.419	0.220	-0.104
-329.187	-200.000	0.025	-0.110
-328.172	-144.346	-0.301	-0.028
-327.158	-142.415	0.284	-0.028
-326.143	800.000	0.025	0.102
-325.129	-200.000	0.036	0.183
-324.114	-48.969	-0.096	-0.045
-323.099	-200.000	0.010	-0.465
-322.085	-115.393	-0.234	-0.044
-321.070	-200.000	0.021	0.191
-320.056	-200.000	0.025	-0.160
-319.041	-70.145	-0.211	-0.079
-318.026	291.245	0.092	-0.166
-317.012	97.957	0.055	0.063
-315.997	-32.299	-0.293	0.162
-314.983	-52.815	0.154	0.070
-313.968	-200.000	-0.012	0.164
-312.953	-200.000	-0.028	-0.158
-311.939	-142.910	0.245	0.023
-310.924	-82.570	-0.111	-0.036
-309.910	-56.232	-0.137	-0.060
-308.895	-134.435	-0.196	-0.024
-307.880	-112.699	0.241	-0.047
-306.866	-57.505	-0.195	0.084
-305.851	-200.000	0.009	-0.200
-304.837	-168.246	0.257	-0.010
-303.822	102.111	-0.142	-0.163
-302.807	118.455	-0.172	-0.210
-301.793	-63.758	-0.332	-0.134
-300.778	-30.845	0.092	0.051
-299.764	84.505	-0.209	0.226
-298.749	73.373	-0.166	0.172
-297.735	36.133	-0.244	-0.212
-296.720	-200.000	0.046	0.270
-295.705	70.100	0.284	0.289
-294.691	225.252	0.136	-0.217
-293.676	-90.271	-0.197	-0.057
-292.662	13.883	0.147	-0.113
-291.647	-122.577	0.212	0.034
-290.632	-33.823	0.221	-0.120
-289.618	-89.553	0.146	-0.042
-288.603	-200.000	-0.051	0.322
-287.589	-69.235	-0.111	-0.042
-286.574	-130.351	-0.151	-0.020
-285.559	-200.000	-0.024	-0.152
-284.545	-76.806	-0.268	0.093
-283.530	800.000	-0.030	0.130
-282.516	-200.000	-0.026	-0.250
-281.501	-145.089	-0.255	-0.023
-280.486	-200.000	-0.065	0.481
-279.472	-3.930	-0.131	-0.090
-278.457	7.151	-0.256	0.188
-277.443	100.266	0.183	0.209
-276.428	800.000	0.067	0.231
-275.413	-69.122	-0.253	0.096
-274.399	27.732	-0.043	-0.035
-273.384	-146.762	-0.363	-0.031
-272.370	34.673	-0.131	-0.113
-271.355	345.553	0.095	-0.185
-270.340	7.648	-0.213	0.157
-269.326	246.847	-0.170	0.284
-268.311	302.527	-0.101	-0.184
-267.297	227.490	-0.047	-0.075
-266.282	215.190	-0.136	0.213
-265.267	-51.531	-0.210	0.097
-264.253	-68.085	0.212	-0.082
-263.238	-91.053	0.037	0.011
-262.224	452.330	0.118	0.257
-261.209	-200.000	-0.003	-0.024
-260.195	9.799	-0.320	-0.239
-259.180	168.413	-0.067	0.094
-258.165	92.533	-0.105	0.117
-257.151	-93.242	0.148	-0.040
-256.136	-34.464	-0.008	-0.004
-255.122	-127.689	0.198	-0.028
-254.107	439.096	0.118	0.255
-253.092	27.597	0.306	0.253
-252.078	-82.723	-0.168	-0.054
-251.063	-200.000	-0.041	-0.312
-250.049	679.888	-0.116	-0.299
-249.034	-70.963	0.204	-0.076
-248.019	-200.000	0.058	-0.432
-247.005	-200.000	-0.002	0.123
-245.990	800.000	0.110	0.344
-244.976	111.504	-0.099	0.118
-243.961	-19.644	0.207	0.126
-242.946	-89.592	0.221	-0.064
-241.932	800.000	-0.080	0.332
-240.917	-89.214	0.128	-0.037
-239.903	-192.679	-0.215	-0.002
-238.888	343.239	0.041	0.078
-237.873	285.286	-0.116	-0.205
-236.859	186.608	-0.107	0.157
-235.844	25.952	0.233	0.191
-234.830	71.879	-0.179	-0.183
-233.815	800.000	0.023	0.075
-232.800	115.573	-0.148	0.178
-231.786	-200.000	0.023	-0.249
-230.771	-200.000	0.017	-0.084
-229.757	-200.000	0.037	0.220
-228.742	-91.570	0.301	0.084
-227.727	-76.282	-0.108	-0.037
-226.713	-112.955	0.032	-0.006
-225.698	-50.980	0.123	-0.057
-224.684	-101.430	-0.208	-0.050
-223.669	457.429	0.186	-0.407
-222.655	43.238	-0.143	-0.129
-221.640	541.658	-0.173	-0.406
-220.625	-12.273	-0.067	-0.043
-219.611	204.970	-0.211	-0.322
-218.596	-59.142	0.209	-0.089
-217.582	-0.161	-0.353	0.247
-216.567	291.995	-0.052	-0.093
-215.552	-200.000	0.022	-0.095
-214.538	394.928	0.138	-0.284
-213.523	17.882	0.245	0.192
-212.509	-58.788	-0.164	0.070
-211.494	-200.000	0.048	0.349
-210.479	-200.000	-0.013	0.202
-209.465	12.253	0.105	0.080
-208.450	-92.749	-0.048	-0.013
-207.436	151.890	0.163	-0.218
-206.421	157.084	0.194	0.264
-205.406	44.086	0.158	-0.143
-204.392	-161.030	0.321	-0.017
-203.377	16.710	0.119	0.093
-202.363	-200.000	0.088	0.500
-201.348	622.903	-0.135	0.335
-200.333	-41.602	0.230	-0.116
-199.319	-100.502	-0.283	0.069
-198.304	194.155	-0.129	0.192
-197.290	-48.116	-0.264	0.125
-196.275	621.454	0.028	-0.070
-195.260	800.000	0.024	-0.078
-194.246	271.486	-0.105	0.182
-193.231	-85.097	-0.140	-0.043
-192.217	-82.658	-0.386	0.123
-191.202	-27.267	0.163	-0.093
-190.187	85.271	-0.092	-0.100
-189.173	-200.000	-0.022	-0.255
-188.158	69.887	-0.174	-0.176
-187.144	266.564	-0.080	-0.137
-186.129	20.483	-0.080	-0.064
-185.114	-28.069	0.286	-0.163
-184.100	800.000	-0.081	0.254
-183.085	-200.000	-0.060	0.383
-182.071	-200.000	0.031	0.146
-181.056	-127.072	0.220	0.032
-180.042	98.565	0.188	-0.212
-179.027	-133.619	0.332	-0.041
-178.012	75.425	-0.104	0.108
-176.998	-27.788	-0.162	0.092
-175.983	58.594	-0.301	-0.290
-174.969	195.164	0.086	0.128
-173.954	800.000	0.083	0.306
-172.939	87.943	0.195	0.212
-171.925	38.641	0.310	0.272
-170.910	52.071	-0.124	-0.116
-169.896	-111.234	0.188	-0.038
-168.881	-200.000	0.059	-0.303
-167.866	13.699	0.082	0.063
-166.852	40.887	0.244	-0.216
-165.837	-40.224	-0.070	-0.036
-164.823	800.000	-0.014	0.039
-163.808	-115.314	0.023	0.004
-162.793	800.000	-0.032	-0.098
-161.779	-94.052	-0.176	0.048
-160.764	800.000	0.044	0.172
-159.750	-17.021	-0.300	-0.186
-158.735	568.768	0.049	0.117
-157.720	800.000	0.114	0.328
-156.706	-56.695	-0.314	0.136
-155.691	-58.948	0.306	-0.130
-154.677	-160.157	0.172	0.009
-153.662	198.783	0.185	-0.278
-152.647	157.127	-0.070	0.095
-151.633	-164.836	-0.183	0.008
-150.618	37.233	-0.296	-0.257
-149.604	157.654	0.076	0.104
-148.589	-91.203	-0.342	-0.096
-147.574	-25.348	-0.160	0.093
-146.560	-183.069	-0.229	0.004
-145.545	49.722	-0.142	0.131
-144.531	-136.344	0.267	-0.031
-143.516	-110.857	0.119	-0.024
-142.502	-46.126	0.182	0.088
-141.487	-69.200	-0.339	-0.128
-140.472	-60.199	0.112	0.047
-139.458	-165.375	-0.426	-0.018
-138.443	800.000	-0.056	0.161
-137.429	68.570	-0.049	-0.049
-136.414	5.244	0.129	0.093
-135.399	197.285	0.206	0.309
-134.385	-45.489	-0.344	0.167
-133.370	3.075	0.368	0.262
-132.356	432.916	0.148	0.315
-131.341	-117.646	-0.349	0.062
-130.326	-111.757	0.375	-0.074
-129.312	-200.000	-0.030	0.222
-128.297	-32.944	0.156	-0.085
-127.283	800.000	0.111	0.378
-126.268	-200.000	-0.044	0.418
-125.253	-93.758	0.126	-0.034
-124.239	201.460	-0.097	0.146
-123.224	106.923	0.075	-0.087
-122.210	147.315	-0.325	0.429
-121.195	100.845	0.289	-0.329
