DTS Sentinel unit serial number:	SN413079Multiplexer serial number:	ORYXHardware model number:	OX4-SRSoftware version number:	ORYX F/W v4.00 Oryx Data Collector v3.7.2.0data status	okinstallation	princeton_trtdifferential loss correction	single-endedforward channel	channel 2reverse channel	N/Adate	2019/09/19time	13:31:34forward acquisition time	60.00reverse acquisition time	0.00gamma	496.2192k internal	0.2326k external	0.2326temperature offset calibration	1.0019default loss term (dB/km)	0.3790temperature slope calibration	1.0000multiplexer offset coefficient	1.0000multiplexer slope coefficient	1.0000fibre end	0.00T internal ref (°C)	30.05T ext. ref 1 (°C)	0.97T ext. ref 2 (°C)	26.97length (m)	temperature (°C)	Stokes	anti-Stokes-747.200	15.324	0.179	-0.141
-746.185	-50.496	0.175	-0.083
-745.171	97.916	-0.023	0.027
-744.156	-200.000	0.042	0.318
-743.142	94.018	0.260	0.298
-742.127	-11.318	-0.265	-0.176
-741.112	563.314	0.103	-0.252
-740.098	51.126	-0.346	0.331
-739.083	-5.114	-0.099	0.068
-738.069	800.000	-0.016	0.054
-737.054	-112.216	0.234	0.047
-736.039	800.000	-0.091	0.310
-735.025	-102.573	0.186	0.045
-734.010	-131.911	-0.055	-0.007
-732.996	358.640	-0.023	0.047
-731.981	-200.000	0.062	-0.276
-730.966	258.850	-0.088	-0.152
-729.952	-136.261	-0.454	-0.053
-728.937	-87.521	-0.229	0.070
-727.923	-81.941	0.185	0.061
-726.908	29.770	-0.184	-0.158
-725.894	94.310	-0.193	0.221
-724.879	-138.062	-0.154	0.017
-723.864	-12.006	0.186	-0.123
-722.850	386.030	-0.113	0.236
-721.835	24.484	0.328	0.273
-720.821	-63.487	-0.186	0.077
-719.806	-200.000	0.005	-0.047
-718.791	11.330	-0.159	0.123
-717.777	12.287	0.185	-0.144
-716.762	-93.997	-0.132	-0.036
-715.748	-35.268	0.322	0.176
-714.733	709.971	0.037	-0.098
-713.718	-200.000	-0.020	0.322
-712.704	135.557	-0.106	-0.139
-711.689	465.167	-0.078	0.176
-710.675	-35.467	0.183	-0.100
-709.660	489.595	-0.067	0.154
-708.645	7.746	0.029	-0.022
-707.631	138.926	-0.060	-0.080
-706.616	-200.000	-0.037	0.420
-705.602	246.713	-0.118	-0.200
-704.587	396.774	-0.147	-0.310
-703.572	-167.403	-0.231	0.009
-702.558	-147.998	0.162	-0.014
-701.543	-81.233	0.161	-0.053
-700.529	114.050	0.131	0.161
-699.514	492.904	0.051	0.117
-698.499	89.191	-0.209	0.234
-697.485	14.284	0.012	-0.010
-696.470	299.080	-0.105	-0.195
-695.456	-146.311	0.209	0.018
-694.441	577.558	0.068	-0.168
-693.426	-72.022	0.159	0.059
-692.412	-200.000	-0.027	-0.467
-691.397	125.225	-0.033	0.042
-690.383	458.654	0.084	-0.188
-689.368	432.372	0.103	-0.224
-688.354	8.771	-0.174	-0.132
-687.339	-200.000	0.022	-0.130
-686.324	-152.567	-0.333	0.024
-685.310	116.598	-0.152	-0.187
-684.295	-37.243	0.201	-0.108
-683.281	-19.021	-0.115	-0.072
-682.266	217.403	-0.013	0.020
-681.251	800.000	0.056	0.243
-680.237	8.976	0.304	-0.230
-679.222	800.000	-0.084	0.272
-678.208	51.944	-0.197	-0.188
-677.193	-120.074	-0.143	0.025
-676.178	-79.490	0.325	-0.111
-675.164	227.748	-0.143	0.235
-674.149	318.471	-0.051	-0.098
-673.135	800.000	0.089	-0.311
-672.120	800.000	-0.006	0.023
-671.105	-200.000	0.023	-0.108
-670.091	91.777	-0.051	-0.058
-669.076	12.371	-0.309	0.239
-668.062	350.876	-0.011	0.022
-667.047	800.000	-0.027	-0.098
-666.032	-157.734	-0.113	-0.007
-665.018	35.990	0.044	0.039
-664.003	-200.000	-0.021	-0.268
-662.989	-200.000	-0.002	0.181
-661.974	-60.715	-0.157	-0.067
-660.959	-200.000	0.014	0.160
-659.945	125.556	0.113	0.144
-658.930	-26.434	-0.386	0.228
-657.916	247.820	-0.121	0.206
-656.901	-121.214	0.302	-0.051
-655.886	-111.413	0.156	-0.032
-654.872	-200.000	-0.014	-0.144
-653.857	-130.318	-0.134	0.018
-652.843	768.428	0.109	0.299
-651.828	-200.000	0.037	-0.314
-650.814	477.650	0.158	0.360
-649.799	84.605	0.133	0.146
-648.784	-62.623	-0.244	0.102
-647.770	34.463	-0.108	-0.095
-646.755	132.825	-0.191	-0.247
-645.741	800.000	-0.025	-0.076
-644.726	315.875	-0.224	0.425
-643.711	800.000	0.037	0.102
-642.697	-52.049	-0.085	-0.040
-641.682	-186.454	-0.191	0.003
-640.668	-200.000	0.041	0.307
-639.653	650.285	0.032	0.082
-638.638	165.704	-0.250	-0.355
-637.624	-164.842	-0.272	-0.012
-636.609	-200.000	-0.014	-0.191
-635.595	186.456	-0.125	0.187
-634.580	-6.252	0.278	-0.191
-633.565	80.596	0.301	0.326
-632.551	691.774	0.055	0.144
-631.536	-95.228	-0.195	0.053
-630.522	73.871	-0.212	0.223
-629.507	-140.777	0.098	-0.010
-628.492	-144.419	-0.408	-0.038
-627.478	94.617	-0.138	-0.157
-626.463	800.000	0.077	-0.273
-625.449	-62.956	-0.399	0.166
-624.434	800.000	0.012	0.042
-623.419	-24.351	0.217	-0.130
-622.405	93.413	-0.176	-0.200
-621.390	-200.000	0.039	-0.352
-620.376	-33.008	-0.103	0.057
-619.361	-135.699	0.355	0.042
-618.346	-35.924	-0.188	0.102
-617.332	800.000	-0.008	-0.033
-616.317	-109.997	0.104	-0.022
-615.303	-54.324	-0.033	0.015
-614.288	5.341	0.039	0.029
-613.273	-200.000	-0.001	-0.119
-612.259	-130.421	-0.217	-0.030
-611.244	-152.153	-0.246	-0.018
-610.230	259.152	0.129	-0.223
-609.215	179.055	-0.039	0.058
-608.201	800.000	0.095	-0.345
-607.186	-70.119	0.349	-0.133
-606.171	-200.000	-0.030	0.162
-605.157	-85.170	-0.161	0.050
-604.142	800.000	-0.090	0.283
-603.128	365.081	0.058	-0.117
-602.113	800.000	0.086	-0.370
-601.098	10.230	0.024	-0.018
-600.084	-92.701	0.137	-0.038
-599.069	99.724	-0.135	-0.157
-598.055	-93.516	-0.283	0.079
-597.040	-200.000	-0.023	-0.106
-596.025	52.077	0.156	-0.149
-595.011	270.663	0.063	0.111
-593.996	84.978	0.144	-0.158
-592.982	-117.368	0.140	0.025
-591.967	800.000	0.020	-0.059
-590.952	68.458	0.158	-0.162
-589.938	156.808	-0.097	0.135
-588.923	-53.551	0.069	0.032
-587.909	800.000	-0.110	0.370
-586.894	800.000	0.071	-0.270
-585.879	-170.669	-0.201	0.007
-584.865	-90.019	0.040	-0.012
-583.850	-0.046	-0.370	-0.264
-582.836	134.136	0.065	0.085
-581.821	-120.430	-0.223	-0.038
-580.806	800.000	-0.039	0.110
-579.792	-64.476	-0.105	-0.043
-578.777	-161.533	0.082	-0.004
-577.763	496.094	0.077	0.178
-576.748	800.000	0.071	0.244
-575.733	-12.303	-0.199	-0.131
-574.719	-180.349	-0.224	0.005
-573.704	-50.793	-0.189	-0.089
-572.690	-200.000	0.069	-0.352
-571.675	-48.265	-0.275	0.133
-570.661	114.482	-0.208	0.254
-569.646	-154.112	-0.218	-0.015
-568.631	-200.000	0.000	0.103
-567.617	-15.558	-0.222	0.142
-566.602	101.210	-0.120	-0.140
-565.588	-8.316	-0.113	0.076
-564.573	48.869	0.087	-0.082
-563.558	-200.000	0.017	-0.189
-562.544	-27.299	-0.179	0.104
-561.529	800.000	0.062	0.193
-560.515	333.952	0.067	-0.130
-559.500	-21.116	0.112	0.069
-558.485	-168.695	0.143	0.005
-557.471	70.550	-0.078	-0.081
-556.456	458.294	-0.093	-0.206
-555.442	414.820	-0.123	-0.261
-554.427	-133.100	-0.327	0.041
-553.412	526.691	0.059	0.139
-552.398	-55.810	-0.273	-0.122
-551.383	-122.233	0.116	0.019
-550.369	-200.000	0.043	-0.258
-549.354	-49.245	0.135	-0.065
-548.339	-200.000	0.001	0.102
-547.325	148.819	-0.111	0.150
-546.310	109.232	-0.218	0.262
-545.296	-200.000	-0.102	-0.490
-544.281	-65.703	0.058	0.023
-543.266	-200.000	-0.032	0.258
-542.252	-200.000	-0.036	-0.161
-541.237	167.041	-0.058	0.083
-540.223	130.748	-0.276	0.354
-539.208	-28.967	-0.353	-0.203
-538.193	-50.449	0.318	-0.150
-537.179	63.211	0.176	-0.177
-536.164	-97.925	0.167	-0.043
-535.150	84.036	-0.190	-0.208
-534.135	-200.000	-0.014	-0.079
-533.121	-102.481	0.104	-0.025
-532.106	800.000	-0.073	0.271
-531.091	-200.000	0.007	-0.059
-530.077	-125.073	-0.144	-0.022
-529.062	156.519	-0.069	0.095
-528.048	97.029	0.036	0.041
-527.033	184.604	0.039	0.058
-526.018	78.979	-0.255	-0.273
-525.004	-76.996	-0.322	0.112
-523.989	-85.785	-0.316	-0.098
-522.975	613.406	-0.044	-0.109
-521.960	-57.776	0.393	-0.172
-520.945	213.105	0.185	0.291
-519.931	7.615	0.252	0.189
-518.916	-83.919	0.153	0.049
-517.902	-142.638	0.145	0.014
-516.887	32.010	0.404	-0.348
-515.872	-200.000	0.037	-0.210
-514.858	-23.058	-0.072	0.043
-513.843	-47.304	-0.174	-0.085
-512.829	-116.586	0.188	-0.035
-511.814	60.372	-0.270	-0.267
-510.799	300.942	-0.042	-0.077
-509.785	113.741	-0.202	-0.246
-508.770	-200.000	0.004	0.132
-507.756	-128.730	0.096	-0.014
-506.741	-18.872	0.371	-0.231
-505.726	-179.144	0.183	0.004
-504.712	-97.798	0.173	0.045
-503.697	-34.035	0.262	-0.144
-502.683	-78.595	0.281	0.096
-501.668	-179.398	-0.199	-0.004
-500.653	-69.758	0.252	-0.096
-499.639	-200.000	-0.014	0.150
-498.624	59.244	0.107	0.106
-497.610	-33.328	0.069	0.038
-496.595	800.000	0.043	0.180
-495.581	-4.336	-0.165	-0.114
-494.566	800.000	-0.015	-0.055
-493.551	99.407	-0.013	0.015
-492.537	-178.059	0.131	-0.003
-491.522	510.017	0.144	0.336
-490.508	-107.382	0.369	-0.081
-489.493	76.945	-0.109	0.116
-488.478	-170.617	0.163	-0.006
-487.464	-112.492	-0.128	-0.026
-486.449	65.805	-0.231	0.234
-485.435	655.574	0.091	0.234
-484.420	28.327	0.142	-0.120
-483.405	-95.472	0.198	-0.053
-482.391	-21.848	-0.026	-0.016
-481.376	-22.132	0.383	-0.232
-480.362	-198.642	-0.212	0.001
-479.347	202.957	-0.266	-0.410
-478.332	348.378	0.106	-0.209
-477.318	800.000	-0.046	0.197
-476.303	-200.000	0.013	0.188
-475.289	-15.546	0.232	-0.148
-474.274	80.238	-0.056	-0.060
-473.259	229.037	0.099	-0.162
-472.245	-200.000	-0.016	-0.452
-471.230	36.079	0.042	0.037
-470.216	249.606	-0.114	0.193
-469.201	-135.071	0.239	0.029
-468.186	-78.754	-0.414	-0.141
-467.172	-81.751	0.233	0.076
-466.157	800.000	-0.023	-0.084
-465.143	-200.000	0.086	-0.611
-464.128	-8.973	-0.191	0.127
-463.113	511.916	0.105	0.243
-462.099	-200.000	0.007	-0.209
-461.084	-141.439	-0.258	-0.026
-460.070	-105.947	-0.109	-0.024
-459.055	-107.027	0.492	-0.108
-458.040	-134.685	-0.170	-0.021
-457.026	-6.354	-0.171	0.116
-456.011	-1.993	0.155	0.108
-454.997	-111.639	-0.215	-0.044
-453.982	120.765	-0.073	-0.090
-452.968	100.672	-0.225	-0.260
-451.953	-130.004	-0.225	-0.031
-450.938	-200.000	-0.048	0.367
-449.924	151.868	0.129	-0.175
-448.909	211.898	0.066	0.103
-447.895	800.000	0.095	-0.339
-446.880	173.766	-0.054	0.078
-445.865	-125.882	-0.062	0.009
-444.851	137.017	0.078	-0.101
-443.836	-128.211	0.251	-0.036
-442.822	157.037	0.064	0.089
-441.807	33.981	-0.245	-0.213
-440.792	800.000	-0.085	0.236
-439.778	281.877	0.112	0.200
-438.763	800.000	0.022	0.068
-437.749	-200.000	0.012	0.273
-436.734	321.889	0.188	0.357
-435.719	510.801	0.164	-0.380
-434.705	-18.654	0.040	0.025
-433.690	-126.515	0.266	-0.039
-432.676	444.881	-0.052	0.115
-431.661	-69.709	-0.201	-0.076
-430.646	44.210	0.147	-0.135
-429.632	-200.000	0.004	-0.073
-428.617	-69.511	-0.165	0.063
-427.603	505.251	-0.052	-0.121
-426.588	800.000	0.062	-0.260
-425.573	-200.000	-0.016	-0.238
-424.559	653.388	0.015	0.037
-423.544	35.069	-0.205	0.179
-422.530	-138.025	-0.450	-0.050
-421.515	-33.869	0.138	-0.076
-420.500	800.000	-0.041	-0.145
-419.486	206.541	0.069	-0.107
-418.471	-135.934	-0.232	-0.027
-417.457	35.844	0.254	-0.223
-416.442	-179.826	-0.024	-0.001
-415.428	50.159	0.153	0.144
-414.413	-200.000	-0.130	-0.675
-413.398	-62.450	-0.050	-0.021
-412.384	53.644	0.192	-0.183
-411.369	12.421	-0.026	-0.020
-410.355	81.476	-0.181	-0.195
-409.340	55.382	0.265	-0.256
-408.325	-74.305	0.221	-0.079
-407.311	199.144	0.157	0.240
-406.296	553.868	-0.024	0.058
-405.282	-200.000	0.012	-0.204
-404.267	-64.521	-0.254	0.103
-403.252	105.798	0.094	0.111
-402.238	-33.455	-0.284	0.156
-401.223	92.609	0.207	0.232
-400.209	-120.727	-0.247	-0.041
-399.194	800.000	-0.060	0.170
-398.179	-127.148	0.167	-0.024
-397.165	13.625	0.267	-0.207
-396.150	-42.692	-0.129	-0.065
-395.136	-126.649	-0.313	-0.046
-394.121	-130.755	0.103	-0.014
-393.106	-172.474	-0.193	0.006
-392.092	16.196	-0.140	-0.110
-391.077	-53.411	0.460	0.209
-390.063	-97.208	0.016	0.004
-389.048	52.872	0.207	0.197
-388.033	-8.021	-0.200	-0.134
-387.019	-28.977	0.146	-0.084
-386.004	-111.204	0.159	0.032
-384.990	-139.750	0.138	0.015
-383.975	-142.179	0.111	0.011
-382.960	-54.873	-0.122	0.055
-381.946	-142.745	0.316	0.031
-380.931	-30.215	-0.130	-0.073
-379.917	503.597	0.186	0.429
-378.902	74.799	0.369	0.387
-377.888	201.886	0.123	-0.188
-376.873	-74.133	0.060	0.022
-375.858	-60.908	0.091	0.038
-374.844	104.484	-0.115	-0.135
-373.829	276.489	-0.088	0.155
-372.815	-200.000	0.002	0.091
-371.800	71.309	0.273	0.281
-370.785	800.000	0.046	-0.200
-369.771	-112.418	0.104	-0.021
-368.756	-117.842	0.097	-0.017
-367.742	584.814	0.152	0.371
-366.727	52.605	0.143	-0.136
-365.712	-200.000	-0.022	0.187
-364.698	16.586	0.078	0.061
-363.683	206.827	-0.132	0.205
-362.669	50.799	0.143	0.135
-361.654	76.864	0.126	0.133
-360.639	800.000	0.077	0.263
-359.625	-98.558	0.120	0.030
-358.610	-200.000	0.012	0.348
-357.596	38.967	0.272	0.241
-356.581	-1.742	-0.283	0.198
-355.566	-200.000	-0.012	0.219
-354.552	464.928	0.031	-0.069
-353.537	800.000	0.134	0.383
-352.523	784.952	-0.110	0.300
-351.508	-158.747	-0.127	0.007
-350.493	800.000	0.066	-0.244
-349.479	272.065	-0.127	0.222
-348.464	531.624	-0.104	0.243
-347.450	-65.425	0.196	-0.078
-346.435	12.200	-0.068	0.052
-345.420	-41.187	0.080	0.041
-344.406	-34.780	-0.054	-0.029
-343.391	-157.219	-0.144	-0.009
-342.377	-115.844	0.158	-0.029
-341.362	-173.283	-0.199	0.006
-340.348	-150.337	-0.145	0.011
-339.333	150.297	-0.201	0.271
-338.318	-70.919	-0.154	0.058
-337.304	-200.000	0.136	0.001
-336.289	800.000	0.043	0.146
-335.275	84.724	0.129	-0.140
-334.260	88.070	0.115	-0.126
-333.245	319.732	0.059	-0.111
-332.231	-32.539	-0.052	-0.028
-331.216	-137.476	0.228	0.026
-330.202	-104.869	0.176	-0.040
-329.187	293.828	0.094	0.171
-328.172	-102.996	-0.402	-0.095
-327.158	122.563	-0.132	-0.164
-326.143	800.000	-0.083	0.231
-325.129	-26.335	0.174	-0.101
-324.114	-200.000	-0.007	-0.056
-323.099	-165.337	-0.543	0.024
-322.085	-67.873	-0.180	0.070
-321.070	-200.000	0.019	0.458
-320.056	-155.776	0.321	0.020
-319.041	433.329	-0.026	-0.057
-318.026	-200.000	0.005	-0.130
-317.012	800.000	0.039	-0.161
-315.997	-200.000	0.048	-0.489
-314.983	75.073	0.055	0.057
-313.968	9.664	-0.288	-0.216
-312.953	-91.912	0.090	-0.025
-311.939	110.305	0.197	0.235
-310.924	298.279	0.077	0.141
-309.910	138.350	0.164	-0.214
-308.895	-200.000	-0.091	-0.442
-307.880	89.938	-0.082	-0.091
-306.866	-200.000	0.012	0.286
-305.851	-200.000	0.007	0.182
-304.837	102.435	-0.075	0.087
-303.822	-120.261	0.090	-0.015
-302.807	125.719	-0.121	0.151
-301.793	-67.644	0.215	0.084
-300.778	-97.267	-0.129	-0.033
-299.764	442.539	-0.067	-0.146
-298.749	-168.486	0.131	-0.005
-297.735	-200.000	-0.041	0.265
-296.720	-12.345	0.300	0.194
-295.705	88.137	0.349	0.383
-294.691	-10.563	0.351	-0.230
-293.676	51.420	-0.094	-0.089
-292.662	21.845	0.190	0.153
-291.647	-73.850	0.291	0.105
-290.632	-43.751	0.244	0.122
-289.618	16.447	0.255	-0.200
-288.603	800.000	-0.038	-0.161
-287.589	-99.243	0.164	0.041
-286.574	222.022	-0.144	-0.229
-285.559	337.247	0.127	0.244
-284.545	513.251	-0.051	0.118
-283.530	-200.000	-0.004	0.029
-282.516	261.990	-0.061	-0.105
-281.501	-200.000	-0.014	-0.097
-280.486	-23.562	0.157	0.094
-279.472	60.194	-0.269	0.263
-278.457	119.688	0.154	0.189
-277.443	-3.651	0.115	0.079
-276.428	33.942	0.136	-0.117
-275.413	-71.505	0.187	0.069
-274.399	-71.386	0.181	-0.067
-273.384	368.052	-0.078	-0.157
-272.370	417.494	-0.181	-0.382
-271.355	-200.000	-0.022	-0.208
-270.340	-71.491	0.211	0.078
-269.326	800.000	0.058	0.178
-268.311	-200.000	0.004	-0.083
-267.297	64.537	-0.156	0.155
-266.282	247.241	-0.207	-0.346
-265.267	239.079	0.163	-0.268
-264.253	-57.436	0.101	0.044
-263.238	3.157	0.167	-0.120
-262.224	27.891	-0.233	-0.195
-261.209	-200.000	0.019	0.456
-260.195	-151.215	-0.283	0.021
-259.180	-65.338	-0.090	-0.036
-258.165	592.763	0.031	-0.076
-257.151	141.112	0.144	0.188
-256.136	-93.003	-0.430	0.119
-255.122	-46.342	-0.028	0.014
-254.107	-37.369	0.282	0.149
-253.092	-200.000	-0.017	-0.165
-252.078	800.000	-0.114	0.347
-251.063	256.892	-0.139	0.236
-250.049	-168.011	0.140	0.005
-249.034	800.000	-0.061	0.187
-248.019	210.726	0.133	0.207
-247.005	350.226	0.039	0.075
-245.990	158.147	0.155	0.213
-244.976	-47.416	-0.275	-0.132
-243.961	-200.000	0.013	-0.134
-242.946	-72.602	0.277	-0.101
-241.932	800.000	0.036	-0.101
-240.917	-96.344	0.193	0.050
-239.903	-49.131	-0.247	-0.117
-238.888	800.000	0.121	-0.355
-237.873	187.030	-0.140	0.207
-236.859	744.187	0.142	-0.378
-235.844	-200.000	-0.007	-0.220
-234.830	10.848	0.239	0.180
-233.815	-62.411	0.343	0.141
-232.800	-73.269	0.453	-0.164
-231.786	-85.968	0.060	-0.018
-230.771	138.307	0.097	-0.125
-229.757	-33.086	-0.149	-0.082
-228.742	-92.132	-0.091	-0.025
-227.727	-7.274	-0.454	0.304
-226.713	-200.000	-0.023	0.219
-225.698	101.452	0.151	0.174
-224.684	57.981	0.096	-0.092
-223.669	94.267	-0.115	-0.129
-222.655	-119.574	-0.149	-0.026
-221.640	58.038	-0.049	0.047
-220.625	-200.000	-0.010	0.232
-219.611	495.165	-0.097	-0.220
-218.596	-52.815	-0.198	0.090
-217.582	-200.000	0.037	0.184
-216.567	-200.000	0.022	0.232
-215.552	-90.206	0.228	-0.066
-214.538	45.134	-0.141	-0.129
-213.523	800.000	-0.027	-0.110
-212.509	-110.481	-0.356	-0.073
-211.494	-200.000	0.015	-0.155
-210.479	151.397	-0.155	0.208
-209.465	136.142	-0.156	0.200
-208.450	-200.000	0.005	-0.215
-207.436	-200.000	0.040	-0.251
-206.421	800.000	-0.066	-0.207
-205.406	-200.000	0.012	0.382
-204.392	282.847	0.132	0.234
-203.377	800.000	-0.140	0.404
-202.363	-39.922	0.059	0.030
-201.348	31.985	-0.176	-0.150
-200.333	158.897	0.144	-0.198
-199.319	-20.773	-0.410	-0.248
-198.304	800.000	0.053	-0.159
-197.290	800.000	0.056	-0.162
-196.275	-73.045	-0.256	0.093
-195.260	-15.073	-0.253	-0.160
-194.246	507.453	-0.219	-0.502
-193.231	274.664	-0.043	0.076
-192.217	330.898	0.055	0.105
-191.202	-8.067	-0.097	0.065
-190.187	-200.000	-0.041	0.483
-189.173	-200.000	-0.075	-0.439
-188.158	800.000	-0.083	0.351
-187.144	-85.251	0.309	-0.095
-186.129	82.469	0.061	0.065
-185.114	-116.033	0.087	-0.016
-184.100	207.898	0.181	-0.279
-183.085	-146.494	-0.284	-0.024
-182.071	800.000	-0.016	-0.055
-181.056	392.326	0.116	0.238
-180.042	509.877	0.016	-0.036
-179.027	-130.920	-0.314	-0.041
-178.012	-200.000	0.023	-0.126
-176.998	12.188	-0.365	0.278
-175.983	232.076	-0.175	0.284
-174.969	800.000	0.078	-0.326
-173.954	-200.000	0.024	0.435
-172.939	75.008	0.279	0.290
-171.925	-21.248	0.158	0.095
-170.910	-96.175	-0.116	0.030
-169.896	40.967	0.282	0.251
-168.881	240.939	0.214	-0.352
-167.866	363.921	0.049	-0.097
-166.852	105.602	0.226	-0.264
-165.837	84.779	-0.131	0.142
-164.823	-45.520	0.069	0.034
-163.808	-106.134	-0.209	0.046
-162.793	-200.000	-0.009	0.295
-161.779	-95.582	-0.112	0.030
-160.764	-200.000	0.007	0.294
-159.750	75.408	0.148	-0.154
-158.735	-90.910	0.329	0.093
-157.720	8.952	-0.142	0.106
-156.706	-200.000	0.010	-0.470
-155.691	44.557	-0.175	-0.159
-154.677	113.939	-0.102	0.122
-153.662	41.085	-0.253	0.225
-152.647	89.748	0.099	-0.109
-151.633	-50.602	-0.226	0.105
-150.618	59.401	-0.116	0.113
-149.604	-149.040	-0.232	0.018
-148.589	-158.454	-0.243	0.014
-147.574	28.697	0.082	-0.069
-146.560	560.634	-0.105	-0.251
-145.545	-200.000	0.001	0.069
-144.531	-148.439	-0.328	-0.026
-143.516	-200.000	-0.030	0.371
-142.502	-151.035	0.363	-0.027
-141.487	-40.631	-0.299	0.153
-140.472	800.000	0.066	0.182
-139.458	215.116	0.034	-0.053
-138.443	37.260	0.087	-0.076
-137.429	-200.000	0.038	0.222
-136.414	598.129	0.177	0.433
-135.399	-5.491	-0.185	0.125
-134.385	-106.631	-0.229	-0.050
-133.370	-171.207	0.197	0.007
-132.356	-189.139	-0.006	0.000
-131.341	-64.140	-0.134	0.054
-130.326	-200.000	-0.038	0.203
-129.312	-200.000	-0.050	0.254
-128.297	134.007	-0.170	0.217
-127.283	3.098	0.043	0.031
-126.268	570.971	0.030	0.071
-125.253	-106.790	0.233	-0.051
-124.239	-200.000	-0.057	0.337
-123.224	800.000	0.049	0.142
-122.210	-200.000	0.024	0.135
-121.195	5.936	0.111	-0.081
-120.180	-81.814	0.029	-0.009
