DTS Sentinel unit serial number:	SN413079Multiplexer serial number:	ORYXHardware model number:	OX4-SRSoftware version number:	ORYX F/W v4.00 Oryx Data Collector v3.7.2.0data status	okinstallation	princeton_trtdifferential loss correction	single-endedforward channel	channel 2reverse channel	N/Adate	2019/09/17time	20:35:34forward acquisition time	60.00reverse acquisition time	0.00gamma	496.2192k internal	0.2335k external	0.2335temperature offset calibration	0.9988default loss term (dB/km)	0.3790temperature slope calibration	1.0000multiplexer offset coefficient	1.0000multiplexer slope coefficient	1.0000fibre end	0.00T internal ref (°C)	30.25T ext. ref 1 (°C)	0.21T ext. ref 2 (°C)	20.96length (m)	temperature (°C)	Stokes	anti-Stokes-747.200	23.457	-0.273	-0.226
-746.185	-34.033	-0.173	-0.096
-745.171	289.448	-0.032	-0.058
-744.156	800.000	-0.144	0.418
-743.142	-104.216	0.220	0.051
-742.127	-68.614	-0.497	0.193
-741.112	54.190	0.296	-0.286
-740.098	108.297	-0.223	0.267
-739.083	-166.851	-0.471	-0.019
-738.069	800.000	-0.038	-0.128
-737.054	304.841	-0.046	0.085
-736.039	-68.640	-0.116	0.045
-735.025	-133.751	0.279	0.035
-734.010	-55.326	-0.373	-0.168
-732.996	-200.000	-0.016	0.078
-731.981	-45.198	0.069	0.034
-730.966	636.792	-0.146	-0.373
-729.952	-146.615	-0.399	0.035
-728.937	-92.935	-0.441	0.123
-727.923	800.000	0.032	-0.138
-726.908	-179.807	-0.430	0.009
-725.894	642.289	-0.092	-0.235
-724.879	-200.000	0.026	-0.155
-723.864	63.789	-0.140	0.142
-722.850	-137.217	-0.116	0.013
-721.835	-107.881	-0.273	-0.060
-720.821	-183.654	0.244	-0.004
-719.806	-200.000	0.021	0.296
-718.791	-48.148	-0.114	0.055
-717.777	-200.000	-0.041	-0.191
-716.762	-200.000	0.027	-0.212
-715.748	800.000	0.140	-0.394
-714.733	244.457	0.078	-0.132
-713.718	-197.831	0.279	0.002
-712.704	800.000	-0.048	0.145
-711.689	-200.000	0.005	-0.250
-710.675	-39.795	-0.047	-0.025
-709.660	-100.306	-0.221	-0.055
-708.645	-110.349	0.168	0.035
-707.631	-200.000	0.028	0.428
-706.616	-180.755	0.118	-0.002
-705.602	21.912	0.180	0.147
-704.587	-200.000	0.007	-0.261
-703.572	602.951	-0.088	0.219
-702.558	-200.000	-0.029	0.126
-701.543	456.674	-0.125	-0.278
-700.529	800.000	-0.058	0.226
-699.514	-146.329	-0.644	-0.057
-698.499	236.514	-0.073	0.122
-697.485	-200.000	0.021	0.108
-696.470	592.605	0.043	0.105
-695.456	800.000	-0.050	0.172
-694.441	-102.929	0.211	-0.050
-693.426	-29.972	-0.276	0.158
-692.412	-79.958	-0.102	0.035
-691.397	-9.140	0.108	0.072
-690.383	248.109	-0.085	-0.144
-689.368	-12.303	-0.196	0.128
-688.354	-148.853	-0.332	0.027
-687.339	-65.175	-0.272	-0.110
-686.324	43.875	-0.294	0.270
-685.310	-92.555	-0.292	-0.082
-684.295	-95.943	0.079	-0.021
-683.281	18.362	-0.186	-0.149
-682.266	-146.005	0.141	-0.013
-681.251	-17.511	-0.186	-0.117
-680.237	-99.260	0.196	-0.050
-679.222	-22.117	-0.206	-0.125
-678.208	181.437	-0.116	0.171
-677.193	-57.095	-0.267	-0.118
-676.178	30.880	0.249	0.214
-675.164	-103.794	-0.104	-0.024
-674.149	143.168	-0.059	-0.079
-673.135	168.814	-0.130	-0.186
-672.120	-96.422	-0.124	0.033
-671.105	141.605	0.199	-0.264
-670.091	-200.000	0.046	-0.264
-669.076	113.473	-0.065	-0.080
-668.062	-62.191	-0.202	-0.084
-667.047	-200.000	-0.002	-0.048
-666.032	164.324	-0.232	-0.328
-665.018	-102.280	-0.342	-0.082
-664.003	147.343	-0.145	0.195
-662.989	18.464	-0.185	-0.148
-661.974	800.000	-0.027	-0.111
-660.959	-200.000	-0.074	0.000
-659.945	-113.807	-0.114	-0.022
-658.930	-200.000	-0.002	-0.124
-657.916	-200.000	0.007	-0.116
-656.901	-143.406	-0.238	-0.023
-655.886	800.000	-0.053	0.151
-654.872	-200.000	-0.002	0.051
-653.857	6.007	0.051	-0.038
-652.843	314.955	-0.082	-0.155
-651.828	131.467	-0.095	-0.122
-650.814	-119.872	0.347	-0.060
-649.799	-84.735	-0.248	-0.078
-648.784	-102.765	-0.318	-0.076
-647.770	-119.854	-0.246	-0.042
-646.755	349.618	0.084	0.166
-645.741	-75.655	-0.071	-0.025
-644.726	-62.226	-0.032	-0.013
-643.711	-4.256	0.124	-0.086
-642.697	-200.000	-0.037	-0.204
-641.682	81.388	0.061	-0.066
-640.668	162.997	-0.178	0.250
-639.653	-140.147	0.245	-0.026
-638.638	114.015	0.171	0.209
-637.624	-200.000	-0.009	-0.063
-636.609	-200.000	-0.019	-0.119
-635.595	-140.298	-0.144	-0.015
-634.580	-71.930	-0.225	0.084
-633.565	8.433	0.099	-0.075
-632.551	-75.143	0.139	-0.050
-631.536	-200.000	-0.035	-0.307
-630.522	-200.000	-0.156	0.000
-629.507	-200.000	0.009	-0.042
-628.492	62.309	0.210	0.209
-627.478	-200.000	0.019	-0.265
-626.463	254.976	-0.126	0.216
-625.449	-200.000	-0.054	-0.367
-624.434	-61.473	-0.189	0.080
-623.419	275.695	0.066	-0.117
-622.405	-200.000	-0.047	-0.311
-621.390	134.292	0.138	0.178
-620.376	134.699	0.111	-0.144
-619.361	-129.680	-0.132	0.018
-618.346	175.939	0.119	0.172
-617.332	604.870	-0.123	0.307
-616.317	27.351	-0.132	0.111
-615.303	-200.000	-0.039	-0.405
-614.288	-200.000	-0.032	0.186
-613.273	-200.000	0.014	0.233
-612.259	-47.542	-0.325	0.158
-611.244	-58.863	0.135	-0.058
-610.230	-82.862	0.513	-0.166
-609.215	72.209	-0.055	-0.058
-608.201	288.943	-0.138	-0.250
-607.186	800.000	0.059	0.192
-606.171	800.000	-0.072	0.304
-605.157	-132.860	-0.164	-0.021
-604.142	800.000	0.103	0.311
-603.128	575.313	0.022	0.054
-602.113	-48.005	0.303	0.146
-601.098	21.094	0.078	0.063
-600.084	-21.954	-0.039	-0.024
-599.069	-31.326	-0.298	-0.167
-598.055	785.036	0.087	-0.237
-597.040	-47.177	0.048	0.024
-596.025	619.777	0.107	-0.270
-595.011	11.141	0.131	-0.100
-593.996	-200.000	-0.012	0.271
-592.982	517.744	0.068	0.159
-591.967	279.802	0.071	-0.126
-590.952	631.430	-0.068	0.173
-589.938	-31.700	0.289	-0.162
-588.923	188.802	0.114	0.170
-587.909	738.611	0.063	-0.168
-586.894	83.690	0.087	-0.095
-585.879	337.794	-0.051	-0.099
-584.865	-56.342	0.363	0.161
-583.850	-70.683	-0.114	0.043
-582.836	-42.932	-0.069	0.035
-581.821	-75.709	-0.497	0.176
-580.806	-106.524	-0.193	-0.043
-579.792	-83.855	0.393	-0.125
-578.777	17.417	-0.132	-0.104
-577.763	224.651	-0.011	-0.017
-576.748	-143.497	0.139	-0.013
-575.733	-151.379	-0.136	0.010
-574.719	38.917	0.095	0.084
-573.704	-1.716	-0.270	-0.190
-572.690	-200.000	0.052	-0.368
-571.675	-119.729	0.071	-0.012
-570.661	-200.000	-0.019	-0.098
-569.646	159.690	0.195	-0.271
-568.631	-106.247	0.153	-0.034
-567.617	-81.727	0.264	0.086
-566.602	-95.675	-0.344	0.092
-565.588	-34.322	0.200	-0.109
-564.573	800.000	-0.071	-0.222
-563.558	-133.013	-0.336	0.043
-562.544	-11.880	0.186	0.122
-561.529	109.847	-0.104	0.124
-560.515	56.396	-0.226	0.219
-559.500	-200.000	0.022	0.125
-558.485	-200.000	-0.023	0.213
-557.471	195.640	0.064	-0.097
-556.456	-109.233	0.184	-0.039
-555.442	-112.557	0.120	-0.024
-554.427	139.631	0.113	-0.148
-553.412	-138.579	0.272	0.030
-552.398	-200.000	0.002	0.029
-551.383	800.000	-0.060	-0.243
-550.369	800.000	-0.076	-0.329
-549.354	-18.295	-0.230	0.143
-548.339	-17.929	0.152	-0.095
-547.325	509.966	-0.064	-0.149
-546.310	708.792	-0.162	-0.426
-545.296	-200.000	-0.019	-0.148
-544.281	58.305	-0.104	-0.101
-543.266	127.242	-0.179	-0.226
-542.252	63.327	0.162	-0.162
-541.237	-49.595	-0.118	0.056
-540.223	58.328	-0.356	0.348
-539.208	-35.243	-0.246	0.133
-538.193	-76.866	0.124	-0.043
-537.179	28.577	0.206	0.173
-536.164	-200.000	0.076	0.469
-535.150	-200.000	0.033	-0.235
-534.135	-166.754	-0.039	0.002
-533.121	-200.000	-0.010	0.079
-532.106	-200.000	-0.007	0.158
-531.091	-60.074	-0.283	-0.120
-530.077	-166.476	0.266	0.011
-529.062	-160.050	-0.360	-0.020
-528.048	-200.000	0.014	-0.380
-527.033	340.504	0.046	0.089
-526.018	-153.773	0.126	-0.009
-525.004	209.274	0.024	0.037
-523.989	-55.115	-0.083	0.037
-522.975	800.000	-0.087	0.258
-521.960	-200.000	0.000	0.156
-520.945	-132.341	-0.223	0.029
-519.931	135.214	0.177	0.229
-518.916	406.495	-0.114	0.240
-517.902	-200.000	-0.034	-0.206
-516.887	107.816	0.146	-0.173
-515.872	-146.554	0.389	-0.034
-514.858	-134.325	-0.268	0.033
-513.843	800.000	0.018	0.060
-512.829	-156.862	0.375	-0.023
-511.814	31.921	-0.152	0.131
-510.799	45.388	0.121	0.111
-509.785	187.256	-0.080	-0.119
-508.770	253.823	-0.057	-0.097
-507.756	800.000	-0.030	0.122
-506.741	-99.738	-0.416	-0.104
-505.726	241.112	-0.124	-0.206
-504.712	297.631	-0.029	-0.053
-503.697	287.028	0.153	0.275
-502.683	-117.719	0.161	-0.029
-501.668	-53.833	0.075	0.034
-500.653	-200.000	0.026	-0.357
-499.639	169.946	-0.142	-0.202
-498.624	-37.672	0.165	0.088
-497.610	-63.833	0.243	-0.099
-496.595	-41.182	-0.405	-0.208
-495.581	523.458	0.133	-0.311
-494.566	800.000	0.052	-0.187
-493.551	40.950	-0.088	0.079
-492.537	-23.316	0.081	-0.049
-491.522	605.590	-0.047	0.117
-490.508	311.790	0.100	0.186
-489.493	800.000	-0.028	0.088
-488.478	-200.000	-0.019	-0.318
-487.464	223.265	-0.052	-0.084
-486.449	599.628	-0.070	-0.172
-485.435	392.011	-0.067	-0.139
-484.420	-46.169	0.160	-0.078
-483.405	188.371	0.188	-0.279
-482.391	123.503	0.157	-0.195
-481.376	-200.000	-0.006	0.173
-480.362	-200.000	-0.006	0.032
-479.347	-36.189	-0.199	0.107
-478.332	-31.445	0.141	-0.079
-477.318	734.381	-0.073	-0.195
-476.303	319.616	0.087	-0.164
-475.289	302.737	-0.180	0.332
-474.274	-193.989	0.370	-0.003
-473.259	73.215	-0.077	0.080
-472.245	800.000	-0.033	-0.122
-471.230	63.165	-0.087	0.086
-470.216	-101.336	-0.275	0.067
-469.201	458.567	0.107	-0.236
-468.186	387.908	-0.119	0.245
-467.172	327.739	-0.117	0.223
-466.157	-73.643	-0.220	-0.080
-465.143	16.485	-0.140	-0.110
-464.128	-200.000	-0.064	-0.676
-463.113	-105.701	-0.403	0.091
-462.099	800.000	-0.050	0.195
-461.084	125.852	0.039	-0.049
-460.070	-146.107	-0.287	-0.025
-459.055	288.428	-0.110	-0.198
-458.040	139.694	-0.167	0.219
-457.026	-200.000	0.008	-0.055
-456.011	800.000	0.012	0.034
-454.997	-86.528	0.277	-0.084
-453.982	-3.332	-0.341	0.236
-452.968	495.469	0.074	-0.169
-451.953	14.954	0.199	0.155
-450.938	-200.000	-0.046	-0.212
-449.924	17.385	-0.134	0.106
-448.909	-84.904	0.055	0.017
-447.895	-200.000	0.009	-0.084
-446.880	-112.498	0.425	0.084
-445.865	140.577	-0.278	0.364
-444.851	-200.000	0.031	0.179
-443.836	-200.000	0.031	0.323
-442.822	-4.621	-0.083	-0.057
-441.807	-59.029	0.059	-0.025
-440.792	-200.000	0.005	-0.126
-439.778	-136.775	0.228	-0.026
-438.763	17.474	-0.168	-0.133
-437.749	-89.589	-0.315	-0.092
-436.734	-72.844	-0.297	-0.109
-435.719	-148.079	0.192	0.016
-434.705	-200.000	-0.015	-0.117
-433.690	800.000	0.103	-0.336
-432.676	-90.146	-0.026	-0.007
-431.661	-17.125	-0.120	0.075
-430.646	92.940	-0.141	-0.158
-429.632	-200.000	-0.032	-0.347
-428.617	496.684	0.053	-0.120
-427.603	-158.410	-0.136	-0.008
-426.588	-122.142	-0.078	0.013
-425.573	-157.887	-0.115	0.007
-424.559	35.574	-0.040	0.035
-423.544	800.000	0.047	0.164
-422.530	36.777	0.265	0.232
-421.515	-200.000	-0.021	-0.162
-420.500	140.723	-0.090	-0.118
-419.486	-75.862	-0.051	-0.018
-418.471	800.000	0.043	-0.163
-417.457	800.000	-0.038	-0.161
-416.442	800.000	0.054	0.178
-415.428	180.814	0.098	0.143
-414.413	-200.000	-0.012	0.184
-413.398	-75.570	-0.194	-0.068
-412.384	132.377	0.080	-0.102
-411.369	-0.061	0.314	-0.222
-410.355	-20.395	0.165	0.101
-409.340	-13.294	-0.151	0.097
-408.325	439.482	0.044	-0.096
-407.311	-99.483	-0.262	0.065
-406.296	-49.722	-0.497	0.234
-405.282	188.654	-0.198	-0.294
-404.267	-200.000	-0.021	0.218
-403.252	-137.771	-0.356	-0.040
-402.238	-54.817	-0.103	0.046
-401.223	-200.000	-0.073	-0.353
-400.209	-57.266	0.057	-0.025
-399.194	-39.012	0.122	-0.063
-398.179	-200.000	0.005	-0.027
-397.165	-45.452	-0.250	0.123
-396.150	-33.366	0.185	-0.102
-395.136	136.259	0.172	0.222
-394.121	-40.629	-0.503	0.258
-393.106	13.095	-0.217	0.166
-392.092	-32.594	0.267	0.147
-391.077	161.438	0.028	0.039
-390.063	323.660	-0.082	-0.156
-389.048	800.000	0.058	-0.250
-388.033	800.000	-0.039	0.170
-387.019	-92.935	0.104	-0.029
-386.004	157.566	-0.225	0.308
-384.990	644.454	0.137	0.347
-383.975	329.774	0.174	-0.332
-382.960	-129.062	-0.219	0.030
-381.946	14.432	-0.224	0.173
-380.931	5.305	0.268	-0.196
-379.917	201.077	-0.053	-0.081
-378.902	-119.595	0.301	0.052
-377.888	-96.148	0.167	-0.044
-376.873	22.751	0.250	-0.203
-375.858	144.463	0.089	-0.118
-374.844	-35.810	-0.201	0.108
-373.829	193.025	-0.141	-0.211
-372.815	-25.718	0.126	0.074
-371.800	-53.622	-0.165	0.075
-370.785	-2.554	0.134	-0.093
-369.771	-112.047	0.383	-0.076
-368.756	8.196	-0.202	-0.150
-367.742	800.000	0.147	0.409
-366.727	290.782	0.194	0.348
-365.712	-2.449	0.143	-0.099
-364.698	-89.491	0.380	-0.111
-363.683	-142.426	-0.109	0.011
-362.669	-142.828	0.214	-0.021
-361.654	105.709	0.128	-0.150
-360.639	-101.110	-0.339	-0.082
-359.625	-42.743	-0.307	-0.154
-358.610	-200.000	0.123	0.000
-357.596	-31.685	0.121	0.067
-356.581	176.644	0.145	-0.209
-355.566	-91.436	0.340	0.096
-354.552	29.775	-0.233	-0.197
-353.537	-200.000	-0.013	-0.265
-352.523	706.578	-0.078	0.204
-351.508	-57.159	0.027	0.012
-350.493	26.988	-0.286	-0.238
-349.479	111.271	0.069	0.082
-348.464	-200.000	0.005	0.109
-347.450	309.444	-0.114	0.210
-346.435	-96.901	-0.125	-0.033
-345.420	-167.817	-0.219	0.009
-344.406	588.032	0.169	-0.411
-343.391	13.177	-0.135	-0.103
-342.377	90.196	0.123	-0.136
-341.362	-166.195	-0.027	0.001
-340.348	-200.000	0.025	0.159
-339.333	89.754	-0.352	0.388
-338.318	252.845	0.261	-0.441
-337.304	365.693	0.031	-0.061
-336.289	800.000	-0.018	0.065
-335.275	282.092	-0.067	-0.119
-334.260	-73.158	0.134	0.048
-333.245	-200.000	0.014	0.189
-332.231	-200.000	-0.003	0.100
-331.216	-165.034	0.407	0.018
-330.202	613.297	-0.032	-0.080
-329.187	-121.663	0.254	0.042
-328.172	-75.031	-0.057	-0.020
-327.158	82.859	0.216	0.232
-326.143	-92.189	0.519	0.145
-325.129	479.024	-0.052	-0.116
-324.114	800.000	-0.059	-0.169
-323.099	119.829	-0.137	0.168
-322.085	99.478	-0.088	0.101
-321.070	145.671	-0.124	0.164
-320.056	-21.688	-0.322	-0.194
-319.041	270.670	0.090	-0.157
-318.026	-80.564	-0.108	0.035
-317.012	800.000	0.034	-0.134
-315.997	800.000	0.109	-0.343
-314.983	-200.000	0.041	0.446
-313.968	141.955	-0.260	0.340
-312.953	800.000	0.028	-0.119
-311.939	-63.337	-0.070	-0.028
-310.924	-106.683	0.048	0.010
-309.910	-114.671	0.123	0.023
-308.895	367.678	-0.226	0.451
-307.880	800.000	-0.030	0.109
-306.866	800.000	0.122	0.483
-305.851	37.866	0.312	0.274
-304.837	-103.798	-0.131	0.030
-303.822	262.604	0.091	-0.155
-302.807	-1.096	0.243	-0.169
-301.793	-11.325	0.142	0.092
-300.778	-83.681	0.247	-0.078
-299.764	129.716	0.177	0.223
-298.749	-200.000	-0.010	0.201
-297.735	90.308	0.136	0.150
-296.720	49.757	0.035	0.032
-295.705	-200.000	-0.040	-0.199
-294.691	800.000	0.057	-0.176
-293.676	-200.000	-0.046	0.572
-292.662	-150.095	0.034	0.003
-291.647	110.823	-0.265	0.314
-290.632	-82.962	0.118	-0.038
-289.618	-42.503	0.110	-0.056
-288.603	-65.250	-0.220	0.088
-287.589	535.402	0.057	-0.134
-286.574	457.132	-0.073	-0.160
-285.559	-200.000	-0.011	0.231
-284.545	-39.033	-0.261	-0.135
-283.530	40.446	0.406	-0.360
-282.516	94.008	0.077	0.086
-281.501	24.516	-0.221	0.180
-280.486	-200.000	0.007	0.067
-279.472	-150.622	-0.280	0.021
-278.457	186.251	0.088	0.129
-277.443	31.879	-0.275	0.234
-276.428	-144.074	0.314	0.029
-275.413	395.554	0.052	-0.106
-274.399	209.389	-0.198	0.305
-273.384	-99.142	0.271	0.068
-272.370	84.583	0.217	-0.234
-271.355	20.916	0.055	0.044
-270.340	488.644	-0.164	0.370
-269.326	800.000	0.017	-0.068
-268.311	21.680	-0.170	0.137
-267.297	726.787	-0.108	0.283
-266.282	-33.808	0.075	-0.041
-265.267	168.674	-0.052	0.073
-264.253	66.322	0.226	-0.226
-263.238	404.663	0.174	0.361
-262.224	-154.561	-0.074	0.005
-261.209	12.274	-0.155	0.117
-260.195	760.283	-0.134	0.359
-259.180	-18.288	0.302	0.186
-258.165	101.466	0.198	-0.228
-257.151	-5.738	-0.077	-0.052
-256.136	-200.000	0.034	0.181
-255.122	-53.094	0.240	-0.109
-254.107	-135.443	-0.187	-0.022
-253.092	-181.108	-0.140	-0.003
-252.078	143.713	0.223	-0.292
-251.063	-67.339	0.230	-0.089
-250.049	-131.842	-0.288	-0.037
-249.034	-60.732	0.163	-0.068
-248.019	-66.216	0.387	0.152
-247.005	-13.590	-0.354	0.226
-245.990	-105.343	0.230	-0.052
-244.976	-200.000	0.032	0.174
-243.961	-200.000	-0.000	0.067
-242.946	181.785	0.068	0.098
-241.932	-200.000	0.013	0.264
-240.917	-168.870	0.214	0.008
-239.903	1.687	0.350	-0.248
-238.888	69.303	0.184	0.187
-237.873	800.000	-0.080	0.239
-236.859	20.018	-0.210	-0.167
-235.844	134.774	0.149	-0.190
-234.830	89.838	0.154	0.169
-233.815	242.201	0.161	-0.266
-232.800	-200.000	0.025	-0.169
-231.786	455.279	-0.153	0.333
-230.771	-116.581	-0.220	-0.040
-229.757	-200.000	0.004	0.162
-228.742	-10.979	-0.224	-0.146
-227.727	112.006	0.104	-0.124
-226.713	227.761	-0.032	-0.052
-225.698	155.420	-0.052	0.070
-224.684	211.460	0.162	-0.252
-223.669	-188.016	-0.230	0.003
-222.655	-200.000	-0.022	0.116
-221.640	-107.082	0.306	-0.066
-220.625	95.182	-0.113	-0.127
-219.611	176.293	-0.246	0.351
-218.596	715.920	-0.121	0.316
-217.582	-25.998	-0.088	-0.051
-216.567	-103.893	0.289	0.066
-215.552	-25.562	-0.133	-0.077
-214.538	647.345	0.101	-0.255
-213.523	555.493	0.053	-0.126
-212.509	145.191	-0.057	-0.075
-211.494	-65.200	-0.262	-0.104
-210.479	-118.585	0.193	0.034
-209.465	120.810	-0.145	-0.177
-208.450	239.466	-0.155	0.255
-207.436	-82.632	0.429	-0.137
-206.421	226.432	-0.057	-0.091
-205.406	-123.821	-0.415	0.064
-204.392	102.011	-0.239	-0.275
-203.377	800.000	0.031	0.093
-202.363	-64.074	0.263	0.106
-201.348	-200.000	-0.030	0.245
-200.333	73.922	0.163	0.168
-199.319	-52.183	-0.414	0.189
-198.304	-7.222	-0.140	-0.093
-197.290	378.755	0.033	0.067
-196.275	-140.502	-0.249	-0.025
-195.260	207.239	-0.126	0.193
-194.246	-102.674	0.364	0.085
-193.231	48.130	0.184	0.170
-192.217	-123.698	0.132	0.021
-191.202	-133.960	0.037	0.005
-190.187	-98.179	-0.294	0.074
-189.173	633.532	-0.072	-0.179
-188.158	-200.000	-0.002	0.225
-187.144	-200.000	0.040	0.205
-186.129	86.115	0.048	-0.052
-185.114	-108.471	0.216	0.046
-184.100	54.638	0.202	-0.191
-183.085	81.248	-0.200	-0.212
-182.071	-110.034	-0.142	0.029
-181.056	591.977	-0.066	0.159
-180.042	34.812	0.123	0.106
-179.027	78.905	0.133	-0.140
-178.012	-200.000	0.040	0.283
-176.998	-16.703	0.112	-0.070
-175.983	-123.777	0.349	-0.054
-174.969	-28.662	-0.147	0.083
-173.954	258.285	-0.050	-0.084
-172.939	-200.000	-0.023	-0.199
-171.925	-120.750	-0.128	0.021
-170.910	-41.611	-0.207	-0.104
-169.896	225.553	0.099	-0.158
-168.881	222.498	0.063	-0.099
-167.866	-200.000	-0.037	0.262
-166.852	300.754	0.059	0.106
-165.837	115.413	0.187	0.224
-164.823	51.923	-0.157	-0.147
-163.808	354.850	0.078	-0.152
-162.793	-46.671	0.256	-0.123
-161.779	-97.151	0.189	0.049
-160.764	27.472	0.311	-0.257
-159.750	800.000	-0.089	-0.332
-158.735	-200.000	0.001	0.045
-157.720	-41.928	0.274	-0.138
-156.706	59.509	-0.267	-0.259
-155.691	-115.772	-0.304	-0.056
-154.677	-52.198	-0.207	0.094
-153.662	311.462	0.034	0.062
-152.647	303.475	0.123	-0.223
-151.633	800.000	0.155	0.462
-150.618	406.102	0.161	0.334
-149.604	-145.194	-0.158	-0.014
-148.589	-200.000	-0.024	0.140
-147.574	-134.642	-0.182	-0.022
-146.560	179.521	-0.230	-0.330
-145.545	392.654	-0.040	-0.082
-144.531	-145.857	0.175	0.015
-143.516	-6.636	0.219	-0.147
-142.502	800.000	-0.051	0.208
-141.487	-46.849	0.284	0.136
-140.472	68.545	-0.110	0.111
-139.458	-35.409	0.022	0.012
-138.443	-97.841	0.207	0.053
-137.429	800.000	0.060	0.209
-136.414	-75.533	0.484	0.169
-135.399	470.968	0.081	0.179
-134.385	606.906	0.075	0.185
-133.370	-43.904	0.236	0.117
-132.356	-159.954	-0.136	-0.007
-131.341	-13.293	-0.363	0.231
-130.326	-200.000	-0.016	-0.165
-129.312	336.551	-0.085	0.163
-128.297	800.000	0.024	0.068
-127.283	185.291	-0.225	0.327
-126.268	-80.472	0.260	0.085
-125.253	-48.519	-0.212	0.100
-124.239	164.556	-0.161	0.222
-123.224	-41.028	-0.156	-0.079
