DTS Sentinel unit serial number:	SN413079Multiplexer serial number:	ORYXHardware model number:	OX4-SRSoftware version number:	ORYX F/W v4.00 Oryx Data Collector v3.7.2.0data status	okinstallation	princeton_trtdifferential loss correction	single-endedforward channel	channel 2reverse channel	N/Adate	2019/09/16time	08:07:35forward acquisition time	60.00reverse acquisition time	0.00gamma	496.2192k internal	0.2329k external	0.2329temperature offset calibration	0.9982default loss term (dB/km)	0.3790temperature slope calibration	1.0000multiplexer offset coefficient	1.0000multiplexer slope coefficient	1.0000fibre end	0.00T internal ref (°C)	28.62T ext. ref 1 (°C)	11.80T ext. ref 2 (°C)	24.81length (m)	temperature (°C)	Stokes	anti-Stokes-747.200	-110.381	0.129	0.027
-746.185	-95.427	-0.530	0.143
-745.171	546.261	0.109	0.262
-744.156	376.648	-0.159	0.327
-743.142	11.708	-0.077	-0.059
-742.127	-200.000	0.016	0.071
-741.112	-14.419	-0.275	0.178
-740.098	6.568	-0.101	-0.076
-739.083	5.506	-0.083	0.062
-738.069	-200.000	0.034	0.158
-737.054	-187.446	-0.191	0.003
-736.039	-52.044	-0.215	-0.101
-735.025	-115.068	0.205	-0.039
-734.010	-91.176	-0.301	0.087
-732.996	-52.557	0.129	0.060
-731.981	-122.285	-0.324	-0.053
-730.966	203.299	0.169	-0.264
-729.952	-88.017	-0.497	0.150
-728.937	-80.498	0.126	0.042
-727.923	90.516	-0.225	-0.253
-726.908	22.018	-0.189	0.155
-725.894	-200.000	-0.024	0.383
-724.879	-200.000	-0.007	-0.038
-723.864	-105.417	-0.287	-0.066
-722.850	-189.360	-0.196	-0.002
-721.835	-121.349	0.036	-0.006
-720.821	-129.185	-0.122	0.017
-719.806	-200.000	0.045	0.329
-718.791	-77.950	-0.274	0.095
-717.777	800.000	0.099	0.388
-716.762	-150.780	0.205	-0.016
-715.748	-84.727	0.205	0.065
-714.733	-63.319	-0.074	0.031
-713.718	72.078	-0.221	-0.231
-712.704	494.644	0.060	0.139
-711.689	439.105	-0.129	-0.284
-710.675	230.003	0.162	-0.266
-709.660	-200.000	-0.043	0.229
-708.645	5.035	-0.056	-0.042
-707.631	-28.579	0.582	-0.337
-706.616	-73.493	-0.135	-0.050
-705.602	-49.811	-0.116	0.055
-704.587	-150.337	-0.181	0.014
-703.572	19.261	-0.215	-0.174
-702.558	800.000	-0.040	0.140
-701.543	-200.000	-0.005	0.257
-700.529	245.752	0.062	-0.106
-699.514	83.113	-0.118	-0.129
-698.499	-200.000	-0.056	-0.368
-697.485	-113.092	0.362	-0.072
-696.470	-4.331	0.100	-0.070
-695.456	18.183	0.162	0.130
-694.441	-24.314	-0.148	0.089
-693.426	-151.882	0.105	-0.008
-692.412	-200.000	-0.055	-0.268
-691.397	285.770	0.064	-0.115
-690.383	439.489	-0.049	-0.107
-689.368	334.205	-0.211	0.410
-688.354	-103.253	-0.249	-0.059
-687.339	204.842	0.129	-0.202
-686.324	34.164	-0.079	0.070
-685.310	800.000	-0.072	-0.222
-684.295	186.956	0.034	0.051
-683.281	-72.408	0.097	-0.036
-682.266	207.632	-0.130	0.204
-681.251	-104.627	0.123	-0.029
-680.237	32.270	-0.195	-0.170
-679.222	3.570	0.107	0.078
-678.208	800.000	-0.098	0.346
-677.193	-200.000	0.000	0.266
-676.178	-143.379	0.285	-0.027
-675.164	-200.000	0.051	0.265
-674.149	138.314	-0.204	-0.269
-673.135	15.019	0.129	-0.101
-672.120	-200.000	-0.005	-0.023
-671.105	-200.000	0.001	0.127
-670.091	207.908	-0.081	-0.128
-669.076	-200.000	-0.013	0.115
-668.062	211.377	0.267	0.422
-667.047	-23.871	-0.066	-0.039
-666.032	-64.751	0.077	-0.031
-665.018	-183.255	0.263	-0.005
-664.003	44.433	0.154	0.142
-662.989	134.483	0.198	0.258
-661.974	13.914	-0.191	0.149
-660.959	211.188	-0.117	-0.185
-659.945	41.064	-0.183	-0.166
-658.930	-39.473	-0.112	-0.059
-657.916	-74.041	-0.153	0.056
-656.901	-36.950	-0.153	0.082
-655.886	-131.417	-0.234	-0.031
-654.872	800.000	0.057	0.168
-653.857	26.703	-0.171	0.143
-652.843	800.000	0.054	0.201
-651.828	-138.248	-0.036	-0.004
-650.814	-200.000	-0.021	-0.148
-649.799	22.062	0.060	0.049
-648.784	-200.000	-0.038	0.262
-647.770	800.000	-0.073	-0.237
-646.755	88.344	0.148	-0.165
-645.741	-53.024	-0.154	0.071
-644.726	633.456	0.187	0.474
-643.711	-8.634	0.126	-0.085
-642.697	42.475	-0.043	0.039
-641.682	-23.197	-0.114	-0.069
-640.668	800.000	0.038	-0.117
-639.653	144.789	0.053	0.071
-638.638	-104.811	-0.340	0.078
-637.624	-68.352	0.239	-0.093
-636.609	42.827	0.069	0.063
-635.595	224.153	0.117	0.190
-634.580	160.585	0.075	-0.105
-633.565	-8.724	-0.280	-0.189
-632.551	185.125	-0.138	-0.205
-631.536	35.321	-0.190	0.167
-630.522	-138.441	-0.124	-0.014
-629.507	144.365	0.121	-0.162
-628.492	59.984	0.062	0.061
-627.478	466.249	-0.134	0.300
-626.463	800.000	0.091	0.292
-625.449	800.000	0.029	-0.110
-624.434	800.000	-0.064	-0.243
-623.419	-200.000	0.024	-0.208
-622.405	40.854	0.383	-0.346
-621.390	-200.000	-0.043	-0.232
-620.376	-54.727	-0.129	-0.058
-619.361	749.653	0.017	-0.045
-618.346	24.388	-0.216	-0.179
-617.332	-31.891	-0.145	0.081
-616.317	-200.000	0.080	-0.398
-615.303	39.163	-0.331	-0.297
-614.288	31.513	0.143	-0.123
-613.273	80.255	0.173	-0.187
-612.259	10.017	0.086	-0.066
-611.244	800.000	0.075	0.316
-610.230	800.000	-0.062	0.224
-609.215	269.633	0.122	0.214
-608.201	46.412	0.249	0.231
-607.186	45.131	0.396	-0.365
-606.171	-13.340	-0.167	0.109
-605.157	131.153	0.323	0.416
-604.142	-101.404	0.406	0.099
-603.128	48.253	0.188	-0.176
-602.113	-200.000	0.010	0.254
-601.098	-162.283	0.106	-0.005
-600.084	-66.092	-0.205	0.082
-599.069	-200.000	-0.002	0.262
-598.055	-59.450	0.160	0.069
-597.040	-200.000	0.006	-0.383
-596.025	-200.000	-0.028	-0.124
-595.011	-89.156	0.372	0.110
-593.996	-167.987	0.052	0.002
-592.982	800.000	-0.079	-0.295
-591.967	-125.922	-0.257	-0.039
-590.952	-84.229	-0.313	-0.099
-589.938	-159.343	-0.369	-0.021
-588.923	565.795	0.188	0.456
-587.909	409.162	-0.126	0.267
-586.894	34.992	-0.138	-0.121
-585.879	-200.000	-0.018	-0.304
-584.865	29.049	-0.228	-0.194
-583.850	117.817	0.099	-0.122
-582.836	-200.000	-0.013	0.103
-581.821	-200.000	-0.078	-0.379
-580.806	-104.931	0.121	0.028
-579.792	-16.922	-0.073	-0.046
-578.777	-200.000	0.062	-0.443
-577.763	147.865	-0.149	0.201
-576.748	-200.000	0.048	0.290
-575.733	800.000	0.097	0.408
-574.719	-129.259	-0.164	0.023
-573.704	333.343	-0.042	0.082
-572.690	-151.299	-0.259	0.019
-571.675	-23.874	0.130	0.078
-570.661	-200.000	-0.043	0.309
-569.646	-200.000	-0.053	-0.348
-568.631	-200.000	-0.003	0.159
-567.617	-47.511	0.256	-0.124
-566.602	285.262	0.112	0.202
-565.588	-90.868	0.212	-0.061
-564.573	-178.226	0.061	-0.001
-563.558	-52.121	-0.142	0.066
-562.544	8.718	0.261	-0.196
-561.529	58.929	0.177	0.174
-560.515	23.233	-0.048	0.039
-559.500	455.049	-0.072	0.160
-558.485	-3.987	0.150	0.104
-557.471	-90.441	-0.125	0.036
-556.456	-118.740	0.096	0.017
-555.442	138.789	-0.110	-0.144
-554.427	-23.315	-0.086	-0.052
-553.412	-9.632	-0.127	-0.085
-552.398	363.992	0.117	-0.235
-551.383	-98.800	0.087	-0.022
-550.369	226.964	0.107	0.173
-549.354	25.622	0.061	-0.050
-548.339	-58.294	-0.031	-0.014
-547.325	-63.521	0.063	0.026
-546.310	-34.983	0.044	-0.024
-545.296	61.130	0.135	0.134
-544.281	190.447	0.267	0.401
-543.266	691.964	-0.179	0.469
-542.252	-186.549	-0.108	0.002
-541.237	158.579	-0.074	0.102
-540.223	26.568	-0.143	0.120
-539.208	38.777	-0.222	0.198
-538.193	-200.000	-0.015	0.101
-537.179	163.491	-0.121	-0.170
-536.164	-114.451	-0.328	-0.063
-535.150	108.699	0.101	-0.120
-534.135	47.003	-0.251	-0.233
-533.121	-163.941	-0.272	-0.013
-532.106	105.897	0.132	-0.157
-531.091	-25.349	-0.157	-0.093
-530.077	89.415	0.090	0.101
-529.062	45.589	-0.118	0.109
-528.048	800.000	0.028	-0.098
-527.033	-101.662	0.157	0.038
-526.018	30.204	-0.205	0.175
-525.004	72.309	-0.072	0.075
-523.989	465.731	0.086	0.193
-522.975	318.991	0.229	0.433
-521.960	-8.800	-0.332	0.222
-520.945	800.000	-0.133	-0.424
-519.931	-158.934	0.153	0.009
-518.916	603.203	0.193	0.480
-517.902	335.835	-0.110	0.213
-516.887	-47.473	0.082	-0.040
-515.872	800.000	0.129	-0.400
-514.858	-200.000	-0.010	-0.211
-513.843	-125.999	-0.149	-0.022
-512.829	22.328	0.134	-0.109
-511.814	-6.930	0.274	-0.186
-510.799	-200.000	-0.044	-0.451
-509.785	372.414	0.156	0.317
-508.770	24.172	-0.068	0.056
-507.756	270.399	0.179	-0.315
-506.741	-200.000	-0.037	-0.442
-505.726	63.346	-0.254	-0.254
-504.712	-93.719	0.227	-0.063
-503.697	115.544	0.111	-0.136
-502.683	512.858	-0.046	0.106
-501.668	442.501	-0.063	-0.137
-500.653	800.000	0.042	-0.128
-499.639	-62.032	-0.174	-0.073
-498.624	1.200	-0.090	-0.064
-497.610	-86.070	-0.213	-0.066
-496.595	28.555	0.028	0.024
-495.581	-175.230	0.126	0.003
-494.566	-152.559	-0.056	0.004
-493.551	-135.590	-0.249	-0.029
-492.537	-17.810	-0.241	0.151
-491.522	151.167	0.252	0.342
-490.508	212.848	-0.180	0.284
-489.493	79.834	-0.027	-0.029
-488.478	-200.000	-0.040	0.250
-487.464	244.123	-0.066	0.110
-486.449	-85.258	0.106	-0.033
-485.435	-200.000	0.058	-0.326
-484.420	-81.223	0.037	-0.012
-483.405	170.286	-0.288	-0.411
-482.391	-122.010	0.176	0.029
-481.376	-78.062	0.143	-0.049
-480.362	324.115	0.103	-0.196
-479.347	-200.000	-0.029	-0.255
-478.332	-118.261	0.118	0.021
-477.318	-12.978	-0.170	-0.110
-476.303	-200.000	0.002	0.233
-475.289	35.991	0.113	-0.099
-474.274	-155.414	0.251	-0.016
-473.259	-200.000	-0.067	0.327
-472.245	-46.780	-0.287	0.140
-471.230	-52.395	0.088	-0.041
-470.216	26.276	-0.300	-0.250
-469.201	-54.451	-0.224	-0.101
-468.186	56.026	0.170	0.164
-467.172	-127.117	-0.786	-0.115
-466.157	32.343	-0.309	0.266
-465.143	800.000	0.075	0.224
-464.128	-200.000	-0.004	0.317
-463.113	1.798	-0.288	-0.206
-462.099	-200.000	0.040	-0.271
-461.084	800.000	-0.025	-0.076
-460.070	-200.000	0.010	0.138
-459.055	-67.236	0.422	-0.165
-458.040	37.304	-0.116	-0.103
-457.026	-43.729	-0.191	-0.096
-456.011	599.307	0.043	0.107
-454.997	353.878	-0.117	-0.232
-453.982	240.324	0.243	-0.404
-452.968	800.000	-0.077	0.285
-451.953	-200.000	0.034	-0.241
-450.938	224.709	-0.043	-0.069
-449.924	657.904	0.073	0.186
-448.909	71.248	0.251	-0.259
-447.895	800.000	0.050	-0.168
-446.880	-20.209	-0.196	0.120
-445.865	-116.261	-0.160	-0.029
-444.851	-200.000	-0.002	-0.106
-443.836	-36.458	-0.223	0.120
-442.822	159.652	-0.028	-0.039
-441.807	23.759	0.149	0.122
-440.792	-200.000	-0.012	0.093
-439.778	151.940	0.073	-0.098
-438.763	-53.480	-0.400	0.182
-437.749	92.729	0.178	-0.199
-436.734	-200.000	0.014	0.174
-435.719	274.815	-0.075	-0.133
-434.705	335.296	0.094	0.182
-433.690	-129.685	-0.314	0.043
-432.676	-200.000	-0.011	0.463
-431.661	44.111	0.280	-0.256
-430.646	10.217	-0.265	-0.201
-429.632	-164.382	-0.384	0.017
-428.617	579.121	-0.101	0.247
-427.603	-15.387	-0.165	-0.105
-426.588	-200.000	-0.023	-0.266
-425.573	-200.000	-0.020	-0.240
-424.559	-200.000	0.019	-0.229
-423.544	-78.963	-0.146	0.049
-422.530	-6.079	0.343	0.233
-421.515	-106.558	0.376	0.083
-420.500	-28.655	0.214	-0.122
-419.486	-200.000	-0.029	0.235
-418.471	-64.702	-0.220	0.089
-417.457	-89.765	-0.110	0.032
-416.442	-200.000	0.075	-0.336
-415.428	109.234	-0.225	-0.268
-414.413	-66.617	0.186	-0.073
-413.398	-95.712	0.142	0.038
-412.384	609.618	-0.075	-0.186
-411.369	800.000	0.099	-0.272
-410.355	-116.164	0.242	-0.045
-409.340	315.429	0.068	0.128
-408.325	-200.000	-0.032	0.214
-407.311	29.622	-0.104	0.088
-406.296	800.000	0.046	-0.145
-405.282	122.363	0.238	-0.295
-404.267	-127.622	-0.475	-0.068
-403.252	800.000	0.029	0.114
-402.238	-64.324	-0.235	-0.095
-401.223	-73.363	-0.056	0.020
-400.209	-90.914	-0.187	0.053
-399.194	76.382	0.104	0.110
-398.179	271.606	0.013	0.023
-397.165	-200.000	0.048	0.288
-396.150	-200.000	0.022	0.305
-395.136	-83.162	-0.168	0.054
-394.121	-24.868	-0.076	-0.045
-393.106	33.318	-0.310	-0.267
-392.092	-200.000	0.006	-0.230
-391.077	198.977	-0.258	-0.392
-390.063	-200.000	-0.015	-0.371
-389.048	-128.711	0.136	-0.019
-388.033	800.000	-0.139	-0.514
-387.019	-200.000	0.005	-0.395
-386.004	57.522	-0.122	0.118
-384.990	-200.000	0.008	0.363
-383.975	32.638	-0.315	0.270
-382.960	-107.525	-0.054	-0.012
-381.946	-71.327	0.152	-0.057
-380.931	-37.950	0.083	0.044
-379.917	1.810	-0.143	-0.102
-378.902	30.647	0.251	-0.213
-377.888	800.000	-0.059	-0.188
-376.873	-200.000	0.000	-0.152
-375.858	71.688	-0.186	0.192
-374.844	-97.488	-0.105	-0.027
-373.829	127.094	0.045	-0.057
-372.815	-4.717	0.047	-0.032
-371.800	4.663	-0.267	0.195
-370.785	3.748	0.289	0.210
-369.771	-58.003	-0.071	0.031
-368.756	-123.891	0.196	-0.031
-367.742	-142.050	-0.229	-0.023
-366.727	215.378	0.241	-0.379
-365.712	-92.784	0.190	-0.053
-364.698	-8.225	-0.239	0.160
-363.683	-200.000	-0.293	-0.001
-362.669	-72.652	-0.327	0.119
-361.654	-36.736	-0.100	-0.054
-360.639	92.427	-0.120	-0.134
-359.625	155.702	0.041	0.056
-358.610	208.653	-0.082	-0.128
-357.596	-113.400	0.217	0.042
-356.581	-200.000	-0.007	-0.275
-355.566	476.214	-0.007	0.017
-354.552	-50.607	-0.136	0.064
-353.537	-79.055	-0.071	0.024
-352.523	-200.000	-0.036	0.275
-351.508	-160.365	-0.119	-0.006
-350.493	-200.000	-0.007	0.223
-349.479	161.315	0.135	0.187
-348.464	-195.271	0.115	0.001
-347.450	-44.310	-0.118	0.059
-346.435	-200.000	-0.009	0.152
-345.420	316.573	-0.012	0.022
-344.406	-132.940	0.242	-0.030
-343.391	130.657	0.122	0.155
-342.377	-30.054	0.269	-0.152
-341.362	174.330	-0.106	0.152
-340.348	315.749	-0.037	-0.069
-339.333	-200.000	-0.014	-0.125
-338.318	217.032	-0.227	-0.359
-337.304	800.000	-0.061	0.231
-336.289	800.000	0.069	-0.272
-335.275	-128.570	0.211	-0.030
-334.260	-95.088	-0.230	0.061
-333.245	-87.691	0.189	0.057
-332.231	-139.763	-0.141	0.015
-331.216	800.000	-0.093	-0.325
-330.202	2.798	-0.109	-0.078
-329.187	-106.216	0.123	0.027
-328.172	-200.000	-0.027	-0.184
-327.158	800.000	-0.134	0.489
-326.143	-49.793	-0.152	-0.071
-325.129	46.539	-0.186	-0.171
-324.114	-200.000	0.024	-0.232
-323.099	-122.357	-0.129	0.021
-322.085	271.877	-0.081	0.142
-321.070	3.279	0.161	-0.116
-320.056	-3.394	0.178	0.123
-319.041	-20.473	-0.214	0.130
-318.026	-19.895	-0.193	0.118
-317.012	539.492	0.038	0.090
-315.997	-153.851	-0.192	0.013
-314.983	210.868	0.105	0.163
-313.968	-12.835	-0.067	0.043
-312.953	127.075	0.164	-0.206
-311.939	2.545	0.288	-0.206
-310.924	-112.127	0.134	-0.027
-309.910	664.073	-0.046	-0.117
-308.895	-128.849	-0.243	0.034
-307.880	31.383	0.321	0.273
-306.866	26.260	-0.137	-0.113
-305.851	468.099	-0.140	-0.311
-304.837	-134.108	0.166	0.020
-303.822	-35.747	0.222	-0.119
-302.807	-200.000	0.038	0.561
-301.793	-178.722	0.119	-0.003
-300.778	287.901	0.177	0.317
-299.764	-200.000	0.004	0.302
-298.749	298.681	-0.109	-0.199
-297.735	-200.000	0.007	-0.033
-296.720	-15.807	-0.156	0.099
-295.705	-86.802	0.180	0.054
-294.691	81.137	0.048	-0.052
-293.676	-166.811	-0.055	-0.002
-292.662	-88.166	-0.087	0.026
-291.647	-200.000	-0.004	-0.025
-290.632	800.000	0.057	-0.166
-289.618	800.000	-0.114	-0.449
-288.603	-167.117	0.397	-0.016
-287.589	19.921	0.200	0.159
-286.574	-200.000	0.012	0.138
-285.559	-200.000	-0.007	0.121
-284.545	0.933	0.372	0.264
-283.530	8.695	-0.185	-0.138
-282.516	800.000	0.042	-0.131
-281.501	145.412	0.097	0.128
-280.486	-200.000	-0.015	-0.161
-279.472	139.810	0.076	-0.099
-278.457	-200.000	0.007	-0.357
-277.443	243.389	0.126	-0.208
-276.428	-42.763	0.252	0.127
-275.413	-155.715	-0.092	-0.006
-274.399	121.034	-0.108	-0.132
-273.384	800.000	-0.018	-0.054
-272.370	157.834	-0.114	0.157
-271.355	116.365	0.312	-0.378
-270.340	203.015	-0.100	0.153
-269.326	-114.244	-0.082	0.016
-268.311	-200.000	-0.023	-0.116
-267.297	-9.835	0.092	0.060
-266.282	140.113	0.123	0.161
-265.267	-37.665	0.136	-0.072
-264.253	26.672	-0.240	0.199
-263.238	65.917	-0.063	-0.063
-262.224	-31.595	-0.189	0.105
-261.209	-69.661	0.060	-0.023
-260.195	-8.557	0.077	0.051
-259.180	87.934	-0.282	0.309
-258.165	-109.807	0.163	0.034
-257.151	-200.000	-0.009	-0.195
-256.136	-164.923	-0.274	-0.012
-255.122	800.000	-0.078	0.336
-254.107	158.484	-0.102	0.140
-253.092	81.715	0.174	0.186
-252.078	42.921	0.203	-0.183
-251.063	376.146	0.083	-0.166
-250.049	-136.408	0.115	-0.013
-249.034	-200.000	0.026	-0.231
-248.019	249.723	0.076	0.127
-247.005	70.420	0.156	0.159
-245.990	297.348	0.046	0.084
-244.976	-200.000	0.014	-0.098
-243.961	-200.000	0.026	-0.246
-242.946	11.923	0.086	0.065
-241.932	-106.802	0.085	-0.019
-240.917	-122.906	-0.276	-0.044
-239.903	211.861	0.300	-0.466
-238.888	-58.852	-0.304	0.130
-237.873	86.466	0.213	-0.232
-236.859	170.151	0.307	0.434
-235.844	-161.205	0.377	0.019
-234.830	-139.802	-0.060	-0.006
-233.815	-41.121	0.023	-0.012
-232.800	-36.658	0.099	0.053
-231.786	-200.000	0.008	0.207
-230.771	800.000	0.111	0.359
-229.757	-200.000	0.000	-0.048
-228.742	22.010	-0.094	-0.075
-227.727	24.538	0.164	-0.134
-226.713	-92.665	-0.168	0.047
-225.698	331.365	0.065	0.123
-224.684	800.000	-0.087	0.315
-223.669	-200.000	0.052	0.489
-222.655	-200.000	0.013	-0.266
-221.640	-132.212	0.205	0.026
-220.625	-200.000	0.083	0.571
-219.611	43.088	0.062	0.056
-218.596	142.665	-0.038	-0.050
-217.582	-59.300	0.317	-0.135
-216.567	-125.950	0.281	-0.042
-215.552	-200.000	0.045	0.194
-214.538	45.839	0.161	0.147
-213.523	-12.832	0.154	0.099
-212.509	201.307	-0.102	0.155
-211.494	-122.143	0.175	-0.028
-210.479	120.175	0.020	-0.024
-209.465	800.000	0.073	-0.254
-208.450	-200.000	0.028	-0.301
-207.436	132.347	0.088	0.112
-206.421	-200.000	0.034	-0.164
-205.406	165.028	-0.131	-0.182
-204.392	277.972	0.085	-0.150
-203.377	304.672	0.138	-0.253
-202.363	800.000	0.045	-0.152
-201.348	-127.219	0.202	-0.029
-200.333	-200.000	-0.072	0.381
-199.319	165.280	-0.192	-0.267
-198.304	35.798	0.198	0.172
-197.290	18.198	-0.183	-0.144
-196.275	-188.008	-0.336	0.004
-195.260	254.461	0.188	0.316
-194.246	65.190	-0.249	-0.249
-193.231	60.780	0.130	0.127
-192.217	-107.156	0.139	0.030
-191.202	-27.226	-0.247	-0.142
-190.187	-137.842	-0.109	0.012
-189.173	370.488	-0.101	-0.202
-188.158	-200.000	-0.022	-0.152
-187.144	-21.284	0.101	0.061
-186.129	-200.000	-0.040	0.174
-185.114	51.291	-0.168	0.158
-184.100	1.066	0.106	0.075
-183.085	122.817	0.111	-0.137
-182.071	-123.064	-0.126	-0.020
-181.056	800.000	-0.078	0.290
-180.042	-87.089	-0.191	0.057
-179.027	-57.151	-0.189	0.082
-178.012	222.529	0.064	0.102
-176.998	-58.466	0.151	0.064
-175.983	341.875	-0.111	-0.214
-174.969	103.107	-0.134	0.155
-173.954	-200.000	-0.010	0.065
-172.939	80.145	0.165	0.175
-171.925	55.935	0.070	0.066
-170.910	-114.710	0.130	0.025
-169.896	-128.049	-0.200	0.028
-168.881	-200.000	-0.007	0.115
-167.866	-200.000	0.024	0.378
-166.852	-8.465	-0.358	0.237
-165.837	-12.675	0.197	0.126
-164.823	-200.000	-0.036	0.200
-163.808	-88.630	0.249	0.073
-162.793	-25.029	0.177	0.103
-161.779	-79.957	-0.291	0.096
-160.764	18.019	0.196	-0.153
-159.750	103.705	0.276	0.319
-158.735	800.000	-0.055	-0.169
-157.720	38.016	-0.170	0.149
-156.706	186.188	0.114	0.167
-155.691	-10.055	0.180	-0.117
-154.677	-36.403	0.177	-0.094
-153.662	236.797	0.037	-0.061
-152.647	528.971	0.052	0.120
-151.633	-86.680	0.300	0.090
-150.618	-200.000	0.006	-0.198
-149.604	-122.235	0.087	0.014
-148.589	113.725	-0.120	-0.143
-147.574	212.064	0.164	-0.254
-146.560	-200.000	0.016	0.423
-145.545	-124.724	0.040	-0.006
-144.531	-83.153	0.343	0.109
-143.516	-89.439	-0.134	-0.039
-142.502	-200.000	0.040	-0.269
-141.487	800.000	0.040	-0.133
-140.472	800.000	-0.026	-0.098
-139.458	-23.098	0.125	-0.074
-138.443	56.683	-0.255	0.244
-137.429	65.359	0.320	0.318
-136.414	-28.342	-0.131	0.074
-135.399	-200.000	-0.127	0.552
-134.385	-200.000	-0.045	-0.203
-133.370	746.385	0.120	0.318
-132.356	800.000	-0.049	-0.179
-131.341	-200.000	0.002	0.151
-130.326	392.417	0.019	0.040
-129.312	-200.000	0.083	-0.370
-128.297	800.000	-0.031	0.101
-127.283	-2.517	0.239	0.165
-126.268	-142.602	0.050	0.005
-125.253	800.000	-0.060	0.198
-124.239	-12.959	-0.561	-0.359
-123.224	333.110	0.080	0.151
-122.210	800.000	0.086	0.242
-121.195	392.504	0.061	-0.124
