DTS Sentinel unit serial number:	SN413079Multiplexer serial number:	ORYXHardware model number:	OX4-SRSoftware version number:	ORYX F/W v4.00 Oryx Data Collector v3.7.2.0data status	okinstallation	princeton_trtdifferential loss correction	single-endedforward channel	channel 2reverse channel	N/Adate	2019/09/17time	02:47:34forward acquisition time	60.00reverse acquisition time	0.00gamma	496.2192k internal	0.2327k external	0.2327temperature offset calibration	0.9976default loss term (dB/km)	0.3790temperature slope calibration	1.0000multiplexer offset coefficient	1.0000multiplexer slope coefficient	1.0000fibre end	0.00T internal ref (°C)	29.87T ext. ref 1 (°C)	0.14T ext. ref 2 (°C)	24.86length (m)	temperature (°C)	Stokes	anti-Stokes-747.200	94.323	0.099	0.113
-746.185	-193.168	0.059	-0.001
-745.171	-96.917	0.178	0.047
-744.156	-200.000	-0.032	0.391
-743.142	-145.090	0.683	0.063
-742.127	167.621	-0.097	0.139
-741.112	-22.698	0.245	-0.149
-740.098	-51.147	-0.176	0.083
-739.083	-11.575	0.168	0.111
-738.069	800.000	0.076	0.312
-737.054	111.955	0.167	0.204
-736.039	-69.339	-0.309	-0.120
-735.025	-70.046	0.171	-0.065
-734.010	-37.849	0.074	0.040
-732.996	29.345	-0.351	0.300
-731.981	462.151	-0.191	-0.430
-730.966	19.365	0.102	0.083
-729.952	-66.068	-0.529	0.213
-728.937	-200.000	-0.011	0.062
-727.923	-67.037	-0.131	0.052
-726.908	-97.328	-0.473	0.124
-725.894	-38.829	0.138	-0.073
-724.879	-29.633	0.113	0.065
-723.864	-91.484	-0.264	0.076
-722.850	54.644	0.131	-0.128
-721.835	217.640	0.162	-0.261
-720.821	-46.741	-0.265	0.131
-719.806	161.302	-0.076	0.107
-718.791	800.000	0.025	-0.080
-717.777	23.017	-0.222	-0.183
-716.762	-200.000	-0.022	-0.119
-715.748	-200.000	-0.042	-0.286
-714.733	396.251	-0.045	0.095
-713.718	-90.267	0.071	0.021
-712.704	129.644	-0.061	-0.078
-711.689	77.455	0.090	0.097
-710.675	800.000	-0.081	0.252
-709.660	132.509	-0.167	0.216
-708.645	-200.000	0.066	0.322
-707.631	-200.000	-0.003	-0.249
-706.616	61.368	0.081	0.081
-705.602	184.689	0.077	0.115
-704.587	-97.662	-0.083	0.022
-703.572	19.232	0.135	-0.109
-702.558	-84.382	0.115	-0.037
-701.543	485.538	0.116	-0.266
-700.529	10.600	0.367	-0.281
-699.514	-200.000	-0.039	0.177
-698.499	-185.857	-0.231	0.003
-697.485	359.380	-0.005	-0.010
-696.470	149.300	0.176	-0.240
-695.456	-90.837	-0.263	-0.076
-694.441	-200.000	0.025	0.111
-693.426	-200.000	-0.009	-0.136
-692.412	-75.271	-0.113	-0.040
-691.397	-27.635	-0.099	0.058
-690.383	-200.000	-0.030	0.231
-689.368	76.869	-0.138	0.147
-688.354	800.000	0.008	-0.031
-687.339	-125.435	-0.133	0.020
-686.324	-200.000	0.012	-0.195
-685.310	6.470	0.234	-0.175
-684.295	-200.000	0.334	-0.000
-683.281	-126.902	-0.156	-0.023
-682.266	173.302	0.092	-0.133
-681.251	177.265	-0.049	0.071
-680.237	-101.223	0.406	-0.100
-679.222	-56.712	0.136	0.061
-678.208	-25.053	0.117	-0.070
-677.193	748.924	0.182	0.493
-676.178	10.191	0.209	-0.160
-675.164	-200.000	0.012	-0.160
-674.149	223.263	-0.145	-0.235
-673.135	-48.607	-0.322	0.155
-672.120	762.618	-0.067	-0.183
-671.105	800.000	-0.080	-0.329
-670.091	121.534	-0.160	-0.200
-669.076	-62.130	0.219	-0.092
-668.062	-89.747	0.190	0.056
-667.047	-200.000	-0.033	-0.178
-666.032	270.426	0.075	0.133
-665.018	290.670	-0.076	-0.138
-664.003	-200.000	-0.023	0.117
-662.989	-123.326	-0.085	0.014
-661.974	212.804	0.031	0.049
-660.959	89.251	0.133	0.149
-659.945	42.268	0.180	0.165
-658.930	83.182	0.250	-0.274
-657.916	199.849	0.047	0.073
-656.901	-85.651	-0.111	0.035
-655.886	-13.050	-0.162	-0.106
-654.872	12.123	-0.163	0.126
-653.857	-200.000	-0.018	0.094
-652.843	146.373	0.052	0.071
-651.828	-105.888	-0.262	-0.059
-650.814	-159.316	0.402	0.023
-649.799	76.948	-0.157	-0.167
-648.784	-90.620	-0.131	-0.038
-647.770	-179.356	0.343	0.008
-646.755	-200.000	-0.024	-0.273
-645.741	43.276	0.294	-0.270
-644.726	-93.775	-0.246	0.068
-643.711	170.701	-0.136	-0.195
-642.697	800.000	0.080	-0.234
-641.682	38.924	-0.250	-0.225
-640.668	800.000	-0.082	-0.349
-639.653	-37.429	-0.306	0.164
-638.638	-105.333	0.171	0.039
-637.624	-49.419	0.239	0.114
-636.609	-66.428	0.288	-0.115
-635.595	-112.972	-0.253	-0.050
-634.580	-200.000	-0.009	-0.441
-633.565	800.000	-0.079	0.244
-632.551	800.000	-0.069	-0.218
-631.536	294.947	0.206	-0.378
-630.522	-71.391	0.292	-0.110
-629.507	-121.132	0.251	-0.042
-628.492	-190.934	-0.246	0.003
-627.478	800.000	0.076	0.250
-626.463	-200.000	-0.020	0.116
-625.449	-58.076	0.268	-0.117
-624.434	-45.269	-0.175	-0.087
-623.419	1.283	0.105	0.076
-622.405	282.732	-0.094	0.169
-621.390	-200.000	-0.020	-0.264
-620.376	-135.489	-0.138	0.017
-619.361	525.846	-0.090	-0.212
-618.346	-200.000	-0.004	-0.085
-617.332	-48.651	0.195	0.094
-616.317	-200.000	-0.013	0.347
-615.303	55.326	-0.089	0.086
-614.288	135.595	0.124	0.161
-613.273	-62.936	-0.411	-0.170
-612.259	329.739	0.219	-0.422
-611.244	239.264	-0.266	0.444
-610.230	112.245	0.144	-0.175
-609.215	-44.144	0.249	-0.125
-608.201	205.897	-0.040	-0.062
-607.186	46.345	0.182	-0.169
-606.171	-53.950	-0.235	-0.107
-605.157	-160.900	-0.178	0.009
-604.142	800.000	0.017	0.063
-603.128	-200.000	-0.031	-0.422
-602.113	10.874	-0.212	-0.163
-601.098	225.995	0.155	-0.253
-600.084	-79.839	0.219	0.074
-599.069	-45.888	-0.063	0.031
-598.055	517.031	0.102	0.239
-597.040	-122.791	0.222	-0.036
-596.025	792.480	0.108	0.299
-595.011	-77.127	-0.246	-0.086
-593.996	-50.808	-0.039	-0.018
-592.982	778.254	-0.121	-0.330
-591.967	315.556	-0.040	-0.076
-590.952	-54.884	-0.217	-0.098
-589.938	-92.053	0.372	-0.105
-588.923	-200.000	-0.025	0.158
-587.909	185.131	0.027	-0.041
-586.894	132.395	-0.249	-0.321
-585.879	2.135	0.302	0.218
-584.865	605.410	-0.179	0.447
-583.850	-95.984	-0.181	0.048
-582.836	800.000	0.061	-0.186
-581.821	49.298	-0.068	0.064
-580.806	-200.000	0.020	-0.220
-579.792	-10.398	-0.249	0.166
-578.777	46.836	0.182	0.169
-577.763	163.585	-0.030	-0.043
-576.748	-28.163	0.197	0.114
-575.733	800.000	0.123	0.400
-574.719	-23.580	-0.200	0.120
-573.704	-84.586	-0.208	0.066
-572.690	106.814	0.130	0.154
-571.675	-0.117	0.038	0.027
-570.661	23.451	0.115	0.095
-569.646	-21.375	0.067	-0.041
-568.631	-144.114	-0.304	0.029
-567.617	800.000	-0.070	-0.267
-566.602	718.082	0.064	-0.172
-565.588	-3.790	-0.053	-0.037
-564.573	-200.000	-0.023	0.223
-563.558	-171.496	0.239	-0.008
-562.544	-121.085	0.151	0.025
-561.529	-17.317	-0.268	0.169
-560.515	-49.922	-0.147	0.070
-559.500	-148.278	-0.179	-0.015
-558.485	16.129	-0.124	0.097
-557.471	-127.988	-0.352	0.051
-556.456	-142.703	0.164	0.016
-555.442	-200.000	-0.004	0.259
-554.427	163.620	-0.237	0.334
-553.412	-164.637	0.286	0.013
-552.398	800.000	-0.077	-0.234
-551.383	800.000	0.081	0.228
-550.369	-200.000	0.029	-0.260
-549.354	-200.000	0.036	0.302
-548.339	-42.841	-0.249	-0.127
-547.325	-30.477	-0.093	0.053
-546.310	231.604	-0.059	0.097
-545.296	-65.708	-0.144	0.058
-544.281	-99.075	-0.200	-0.051
-543.266	-92.124	0.253	0.071
-542.252	224.725	-0.032	-0.052
-541.237	-118.859	0.074	-0.013
-540.223	-20.258	-0.278	0.171
-539.208	-92.887	-0.068	-0.019
-538.193	-65.485	0.190	-0.076
-537.179	-200.000	0.086	-0.501
-536.164	-72.504	-0.164	0.061
-535.150	-172.052	0.273	-0.009
-534.135	-11.236	0.203	0.134
-533.121	96.046	-0.034	0.038
-532.106	-35.049	-0.075	0.041
-531.091	-94.474	0.169	-0.046
-530.077	227.288	0.106	-0.173
-529.062	564.753	0.121	0.294
-528.048	363.190	-0.093	-0.187
-527.033	371.171	0.099	-0.200
-526.018	380.864	-0.096	0.197
-525.004	800.000	0.057	0.193
-523.989	-100.542	0.201	0.050
-522.975	800.000	0.033	-0.116
-521.960	-52.843	-0.287	-0.132
-520.945	-47.151	-0.294	-0.143
-519.931	-55.108	-0.168	0.075
-518.916	800.000	-0.055	-0.173
-517.902	-200.000	0.001	0.104
-516.887	22.954	0.153	-0.126
-515.872	1.186	0.087	0.062
-514.858	-65.386	0.172	-0.069
-513.843	-87.484	0.169	-0.051
-512.829	-122.077	-0.173	-0.028
-511.814	-200.000	0.062	-0.336
-510.799	93.279	-0.300	-0.339
-509.785	-178.414	0.495	-0.012
-508.770	-23.115	0.152	0.092
-507.756	-53.503	-0.259	-0.119
-506.741	-200.000	0.005	-0.032
-505.726	-95.711	0.279	-0.075
-504.712	-200.000	0.012	-0.177
-503.697	-13.799	-0.175	0.113
-502.683	800.000	-0.022	0.072
-501.668	-151.629	0.375	-0.028
-500.653	-13.308	0.111	-0.072
-499.639	-24.482	-0.386	0.230
-498.624	152.578	-0.111	-0.152
-497.610	-58.699	-0.339	-0.147
-496.595	151.801	-0.235	-0.321
-495.581	87.724	0.348	0.385
-494.566	800.000	-0.069	0.223
-493.551	-200.000	-0.001	-0.225
-492.537	-200.000	-0.024	0.119
-491.522	-200.000	-0.020	0.362
-490.508	71.204	0.116	-0.120
-489.493	38.795	-0.164	-0.147
-488.478	800.000	-0.075	-0.263
-487.464	-120.825	0.321	0.054
-486.449	-89.597	-0.390	0.114
-485.435	800.000	-0.063	0.245
-484.420	-108.240	-0.067	-0.014
-483.405	-46.169	0.104	0.051
-482.391	-200.000	0.019	-0.156
-481.376	-99.918	0.023	0.006
-480.362	800.000	0.016	-0.065
-479.347	-101.545	-0.098	-0.024
-478.332	-200.000	0.065	0.428
-477.318	-71.150	-0.143	-0.053
-476.303	800.000	-0.076	-0.288
-475.289	11.227	-0.189	-0.144
-474.274	-30.914	-0.262	-0.148
-473.259	-103.369	0.131	0.031
-472.245	-101.872	0.332	-0.080
-471.230	-72.892	0.035	-0.013
-470.216	-45.525	0.492	0.243
-469.201	800.000	0.102	-0.330
-468.186	50.443	0.139	-0.131
-467.172	-200.000	0.019	-0.114
-466.157	236.453	0.065	-0.107
-465.143	317.107	-0.098	-0.184
-464.128	-48.204	0.170	-0.082
-463.113	800.000	-0.103	0.332
-462.099	518.971	0.130	0.304
-461.084	3.419	0.221	0.161
-460.070	-200.000	-0.049	0.443
-459.055	-200.000	-0.026	-0.198
-458.040	200.807	-0.126	-0.193
-457.026	-74.504	0.246	0.088
-456.011	36.237	-0.212	-0.186
-454.997	-200.000	-0.047	0.279
-453.982	8.740	0.230	0.173
-452.968	98.686	-0.199	-0.229
-451.953	95.918	0.161	-0.184
-450.938	800.000	-0.067	-0.252
-449.924	-200.000	0.035	-0.310
-448.909	149.307	-0.105	0.141
-447.895	232.544	-0.045	0.073
-446.880	-80.075	0.114	-0.038
-445.865	76.316	-0.249	0.263
-444.851	-121.465	0.214	-0.036
-443.836	-0.042	0.201	-0.143
-442.822	-134.485	0.273	-0.033
-441.807	-139.161	0.201	-0.022
-440.792	62.073	0.128	0.127
-439.778	-11.224	-0.350	-0.230
-438.763	-28.914	-0.202	-0.116
-437.749	163.787	0.270	-0.379
-436.734	-82.368	-0.304	0.099
-435.719	482.462	-0.103	-0.234
-434.705	-200.000	0.039	-0.240
-433.690	-200.000	0.010	-0.076
-432.676	-65.336	-0.368	-0.147
-431.661	-37.188	0.059	0.031
-430.646	800.000	0.082	0.261
-429.632	5.494	0.215	0.158
-428.617	159.608	0.007	-0.009
-427.603	337.875	-0.155	-0.300
-426.588	-200.000	0.028	0.439
-425.573	-162.022	0.288	0.014
-424.559	-20.049	-0.211	0.130
-423.544	-200.000	0.011	0.071
-422.530	-142.077	0.082	-0.008
-421.515	-25.513	-0.258	0.152
-420.500	-137.126	-0.077	-0.009
-419.486	-98.026	-0.506	-0.130
-418.471	-113.559	0.278	-0.054
-417.457	31.503	-0.117	0.100
-416.442	-33.585	-0.209	-0.115
-415.428	-179.550	0.201	0.004
-414.413	-67.335	-0.545	0.213
-413.398	-26.869	0.138	-0.080
-412.384	-50.506	0.312	0.146
-411.369	-44.355	0.241	-0.120
-410.355	-171.534	0.109	0.004
-409.340	212.241	-0.276	0.432
-408.325	-109.667	0.370	-0.078
-407.311	345.376	0.162	-0.316
-406.296	-200.000	-0.011	-0.179
-405.282	-91.304	-0.186	0.053
-404.267	-70.761	-0.056	0.021
-403.252	2.171	-0.211	-0.152
-402.238	209.895	-0.114	0.178
-401.223	189.294	-0.186	0.277
-400.209	-200.000	-0.033	0.278
-399.194	-200.000	-0.032	-0.165
-398.179	-55.542	-0.172	0.077
-397.165	-89.446	-0.031	0.009
-396.150	140.475	-0.104	-0.137
-395.136	-16.217	0.139	-0.088
-394.121	-123.963	-0.079	-0.012
-393.106	8.359	-0.135	0.101
-392.092	520.706	0.019	-0.044
-391.077	-111.455	-0.428	0.087
-390.063	166.035	0.190	0.267
-389.048	-200.000	0.025	0.368
-388.033	-66.703	0.152	-0.060
-387.019	-74.080	-0.120	-0.043
-386.004	-200.000	0.012	0.113
-384.990	145.217	0.143	-0.191
-383.975	-48.343	-0.186	0.089
-382.960	-58.725	0.098	0.042
-381.946	800.000	-0.048	0.144
-380.931	-200.000	-0.036	0.338
-379.917	-15.221	-0.038	-0.024
-378.902	800.000	0.019	0.053
-377.888	-50.265	0.233	0.109
-376.873	255.846	-0.054	-0.092
-375.858	80.898	0.071	-0.076
-374.844	263.027	-0.164	0.284
-373.829	-63.065	-0.119	0.049
-372.815	86.710	-0.177	0.194
-371.800	84.044	-0.171	-0.186
-370.785	119.474	-0.187	0.230
-369.771	736.459	0.033	-0.089
-368.756	-92.583	0.155	-0.043
-367.742	41.114	-0.004	-0.003
-366.727	-76.924	-0.284	-0.099
-365.712	-107.990	-0.329	0.071
-364.698	59.966	0.067	-0.066
-363.683	138.031	-0.127	0.166
-362.669	-200.000	0.010	0.305
-361.654	16.692	-0.025	-0.020
-360.639	146.717	-0.036	0.049
-359.625	-26.876	-0.333	0.193
-358.610	-17.119	-0.087	0.055
-357.596	800.000	0.061	0.251
-356.581	142.165	-0.206	0.271
-355.566	-36.237	0.263	0.141
-354.552	-109.916	0.063	0.013
-353.537	711.963	0.118	-0.310
-352.523	96.472	-0.213	-0.242
-351.508	-200.000	0.009	0.057
-350.493	192.072	0.048	-0.073
-349.479	-60.746	0.180	-0.076
-348.464	800.000	0.110	0.362
-347.450	35.531	0.146	0.127
-346.435	-120.217	0.165	-0.028
-345.420	-145.501	0.177	0.016
-344.406	-36.351	-0.114	0.061
-343.391	-30.690	-0.106	-0.059
-342.377	-120.169	0.120	0.020
-341.362	-71.596	0.168	0.062
-340.348	-200.000	-0.004	-0.122
-339.333	800.000	-0.043	-0.123
-338.318	397.105	0.214	-0.443
-337.304	-5.611	0.258	-0.176
-336.289	-57.518	0.010	0.005
-335.275	590.617	-0.048	0.118
-334.260	-200.000	0.005	-0.187
-333.245	800.000	-0.035	-0.126
-332.231	-200.000	0.012	0.136
-331.216	-64.073	-0.124	-0.050
-330.202	425.536	0.042	0.089
-329.187	90.057	0.256	-0.284
-328.172	-135.516	-0.136	0.016
-327.158	210.942	-0.130	0.203
-326.143	-123.714	0.093	0.015
-325.129	-200.000	0.007	0.226
-324.114	237.706	0.128	0.211
-323.099	335.725	0.086	-0.165
-322.085	-200.000	-0.094	-0.423
-321.070	-105.662	-0.400	0.090
-320.056	274.329	0.105	-0.185
-319.041	147.939	0.293	0.391
-318.026	-101.064	-0.310	0.075
-317.012	244.945	-0.105	-0.175
-315.997	-151.121	-0.172	0.013
-314.983	-56.740	-0.116	-0.051
-313.968	16.382	0.212	0.166
-312.953	-1.342	-0.071	-0.050
-311.939	-165.487	0.204	0.009
-310.924	-64.945	-0.070	0.028
-309.910	190.905	0.122	0.182
-308.895	-200.000	0.046	-0.344
-307.880	211.571	0.123	0.192
-306.866	-186.435	-0.181	0.003
-305.851	-37.590	-0.211	0.112
-304.837	-86.043	-0.412	-0.126
-303.822	503.357	-0.054	-0.123
-302.807	31.597	0.087	-0.074
-301.793	800.000	-0.121	-0.363
-300.778	164.017	-0.130	-0.181
-299.764	-89.938	0.258	0.075
-298.749	800.000	0.042	-0.133
-297.735	-63.328	0.134	-0.055
-296.720	179.274	0.243	0.353
-295.705	-102.933	-0.390	0.092
-294.691	-33.664	-0.246	-0.135
-293.676	-200.000	-0.044	0.210
-292.662	368.509	0.170	0.340
-291.647	-177.668	-0.133	-0.003
-290.632	150.967	0.066	0.089
-289.618	800.000	0.071	0.252
-288.603	318.491	0.114	0.214
-287.589	-182.317	0.448	-0.008
-286.574	-200.000	0.022	0.139
-285.559	170.233	0.283	-0.401
-284.545	-70.898	0.159	0.059
-283.530	-10.409	-0.244	-0.160
-282.516	-0.432	0.256	-0.180
-281.501	-42.459	0.242	0.122
-280.486	141.174	-0.045	-0.059
-279.472	800.000	-0.047	-0.178
-278.457	-200.000	0.015	0.185
-277.443	-82.049	0.111	0.036
-276.428	-200.000	-0.008	0.084
-275.413	154.905	0.069	0.094
-274.399	-200.000	0.020	-0.337
-273.384	800.000	-0.116	-0.380
-272.370	-200.000	0.013	0.119
-271.355	476.997	-0.148	0.331
-270.340	399.859	0.053	-0.110
-269.326	-78.068	0.190	-0.065
-268.311	126.866	-0.284	-0.356
-267.297	-200.000	-0.028	0.302
-266.282	800.000	-0.026	0.098
-265.267	168.131	0.115	0.162
-264.253	554.721	-0.126	0.299
-263.238	-44.111	-0.229	-0.114
-262.224	-105.651	-0.141	0.032
-261.209	-200.000	-0.016	-0.285
-260.195	26.649	0.219	-0.181
-259.180	302.226	0.067	-0.123
-258.165	-180.089	0.095	0.002
-257.151	-116.704	0.155	-0.028
-256.136	40.882	0.242	-0.216
-255.122	110.223	-0.300	0.357
-254.107	800.000	-0.073	0.242
-253.092	-134.502	0.062	-0.007
-252.078	82.773	0.106	-0.114
-251.063	-56.330	-0.351	-0.154
-250.049	-9.755	0.209	-0.138
-249.034	196.583	0.179	-0.269
-248.019	-200.000	-0.019	0.297
-247.005	-54.331	-0.104	-0.047
-245.990	0.887	0.280	-0.198
-244.976	122.755	-0.065	0.080
-243.961	-86.353	-0.264	0.080
-242.946	-63.840	0.151	-0.061
-241.932	-136.410	-0.480	0.055
-240.917	-200.000	-0.024	-0.307
-239.903	-119.865	0.203	0.034
-238.888	-200.000	0.018	0.347
-237.873	-154.459	0.227	0.015
-236.859	-57.827	0.247	0.107
-235.844	-200.000	0.009	-0.094
-234.830	800.000	0.118	0.374
-233.815	104.323	0.114	0.133
-232.800	22.294	-0.148	0.119
-231.786	-200.000	-0.015	-0.281
-230.771	-5.431	0.179	-0.121
-229.757	609.423	-0.142	0.351
-228.742	-114.903	-0.339	0.064
-227.727	-200.000	-0.037	-0.175
-226.713	-141.433	-0.282	-0.028
-225.698	177.675	-0.292	-0.421
-224.684	-200.000	0.035	0.205
-223.669	479.921	0.192	-0.430
-222.655	-88.518	0.183	0.054
-221.640	673.572	-0.107	-0.274
-220.625	-54.765	-0.110	-0.049
-219.611	58.999	-0.114	0.110
-218.596	37.363	-0.252	0.221
-217.582	382.356	-0.178	0.361
-216.567	49.882	-0.122	0.114
-215.552	-20.110	0.411	0.250
-214.538	7.868	0.097	-0.072
-213.523	65.023	-0.107	0.107
-212.509	-200.000	0.063	0.304
-211.494	505.099	0.116	0.264
-210.479	297.011	0.176	-0.320
-209.465	-121.893	-0.261	0.042
-208.450	79.436	0.197	-0.209
-207.436	112.814	0.065	0.077
-206.421	-112.785	-0.228	0.045
-205.406	-19.228	0.268	-0.164
-204.392	-200.000	0.018	0.227
-203.377	-102.958	0.034	-0.008
-202.363	-39.689	-0.068	-0.035
-201.348	60.372	0.297	-0.290
-200.333	800.000	0.084	0.296
-199.319	-28.670	0.288	0.164
-198.304	800.000	0.110	0.314
-197.290	-27.903	-0.066	-0.038
-196.275	-105.936	-0.362	-0.081
-195.260	-200.000	-0.005	-0.094
-194.246	404.450	-0.104	-0.216
-193.231	-31.995	-0.123	-0.068
-192.217	-200.000	0.004	-0.132
-191.202	-104.208	0.225	0.052
-190.187	-129.674	0.257	-0.035
-189.173	800.000	0.055	0.198
-188.158	140.230	0.203	0.264
-187.144	-58.336	-0.372	-0.160
-186.129	-200.000	0.026	0.266
-185.114	362.198	0.081	-0.159
-184.100	800.000	-0.093	0.265
-183.085	800.000	0.033	0.132
-182.071	-31.572	-0.152	0.084
-181.056	16.125	-0.127	0.099
-180.042	403.778	-0.156	0.324
-179.027	178.771	0.122	-0.176
-178.012	-99.165	-0.125	-0.031
-176.998	-8.805	-0.285	-0.188
-175.983	-73.940	0.091	0.033
-174.969	-200.000	-0.000	0.156
-173.954	621.918	0.109	-0.270
-172.939	-95.431	0.169	-0.045
-171.925	372.299	0.192	0.385
-170.910	-200.000	0.050	0.247
-169.896	585.199	0.065	-0.158
-168.881	-200.000	-0.010	0.086
-167.866	131.415	-0.137	0.173
-166.852	-200.000	0.057	0.436
-165.837	296.253	0.109	-0.196
-164.823	87.845	-0.067	-0.073
-163.808	-200.000	-0.026	-0.164
-162.793	11.939	0.170	-0.129
-161.779	5.928	0.142	0.104
-160.764	-16.832	0.410	-0.256
-159.750	157.319	0.209	-0.285
-158.735	-31.709	-0.056	-0.031
-157.720	-200.000	-0.035	-0.381
-156.706	-0.945	-0.121	-0.085
-155.691	-2.554	0.391	0.270
-154.677	134.095	0.121	0.155
-153.662	204.438	-0.075	-0.115
-152.647	379.955	0.135	0.272
-151.633	325.954	0.102	-0.192
-150.618	800.000	0.152	-0.415
-149.604	144.963	-0.096	0.126
-148.589	37.912	-0.221	0.194
-147.574	-200.000	-0.067	0.316
-146.560	-3.936	0.233	0.159
-145.545	61.470	0.075	-0.074
-144.531	-200.000	0.073	0.328
-143.516	132.683	0.078	0.099
-142.502	-200.000	-0.008	0.046
-141.487	140.292	0.044	0.058
-140.472	-86.317	0.232	-0.070
-139.458	800.000	-0.034	-0.101
-138.443	37.340	-0.141	-0.123
-137.429	-76.172	-0.194	0.067
-136.414	-200.000	-0.006	0.198
-135.399	377.913	-0.105	0.212
-134.385	-200.000	0.022	0.209
-133.370	84.147	-0.046	0.049
-132.356	273.780	0.177	-0.308
-131.341	-200.000	-0.003	-0.206
-130.326	28.430	0.186	-0.155
-129.312	204.718	-0.225	0.344
-128.297	14.965	0.215	-0.165
-127.283	-200.000	-0.049	-0.442
-126.268	20.940	0.138	0.110
-125.253	284.984	0.114	-0.203
-124.239	800.000	-0.054	-0.221
-123.224	800.000	-0.050	0.178
-122.210	-200.000	-0.003	-0.045
-121.195	-200.000	0.009	-0.105
