DTS Sentinel unit serial number:	SN413079Multiplexer serial number:	ORYXHardware model number:	OX4-SRSoftware version number:	ORYX F/W v4.00 Oryx Data Collector v3.7.2.0data status	okinstallation	princeton_trtdifferential loss correction	single-endedforward channel	channel 2reverse channel	N/Adate	2019/09/14time	14:51:34forward acquisition time	60.00reverse acquisition time	0.00gamma	496.2192k internal	0.2302k external	0.2302temperature offset calibration	1.0142default loss term (dB/km)	0.3790temperature slope calibration	1.0000multiplexer offset coefficient	1.0000multiplexer slope coefficient	1.0000fibre end	0.00T internal ref (°C)	39.16T ext. ref 1 (°C)	5.00T ext. ref 2 (°C)	33.79length (m)	temperature (°C)	Stokes	anti-Stokes-747.200	-200.000	-0.015	-0.210
-746.185	115.501	-0.164	0.205
-745.171	800.000	-0.046	0.157
-744.156	800.000	-0.061	0.182
-743.142	423.001	-0.134	0.293
-742.127	795.915	0.084	0.235
-741.112	-56.927	-0.421	0.189
-740.098	56.404	0.194	0.192
-739.083	30.106	-0.213	0.185
-738.069	800.000	0.113	0.483
-737.054	18.949	-0.099	-0.081
-736.039	-41.984	-0.196	-0.102
-735.025	153.720	-0.097	0.135
-734.010	476.947	0.102	-0.236
-732.996	-144.502	-0.461	-0.043
-731.981	183.690	-0.229	-0.345
-730.966	-103.996	-0.095	0.023
-729.952	-59.706	-0.159	0.070
-728.937	800.000	0.106	0.319
-727.923	-200.000	0.009	0.314
-726.908	-200.000	-0.003	0.072
-725.894	-171.355	-0.132	0.004
-724.879	-200.000	-0.010	0.045
-723.864	-11.714	0.122	-0.081
-722.850	-35.784	0.074	-0.041
-721.835	-142.204	-0.247	0.025
-720.821	800.000	-0.084	-0.266
-719.806	-200.000	-0.000	0.157
-718.791	-39.195	-0.299	0.160
-717.777	-200.000	-0.054	0.267
-716.762	-62.025	0.178	0.076
-715.748	-81.389	-0.160	0.054
-714.733	-142.059	-0.093	0.009
-713.718	24.278	-0.252	-0.212
-712.704	267.322	-0.101	-0.179
-711.689	-86.712	-0.096	0.030
-710.675	-58.435	0.393	-0.174
-709.660	295.163	0.075	-0.140
-708.645	800.000	-0.082	0.236
-707.631	207.433	-0.179	-0.285
-706.616	-200.000	0.005	0.184
-705.602	169.574	0.017	0.025
-704.587	-66.661	0.187	-0.075
-703.572	329.890	0.058	0.113
-702.558	15.398	-0.217	0.173
-701.543	-80.117	0.094	-0.032
-700.529	800.000	-0.056	-0.240
-699.514	-158.575	-0.371	-0.022
-698.499	-117.030	-0.361	0.067
-697.485	-13.182	-0.218	-0.144
-696.470	176.302	-0.114	-0.169
-695.456	-200.000	-0.023	0.136
-694.441	-200.000	-0.007	-0.569
-693.426	343.076	0.025	0.050
-692.412	-200.000	-0.031	0.151
-691.397	-108.918	0.203	-0.044
-690.383	-16.790	0.289	0.186
-689.368	-200.000	-0.008	0.232
-688.354	-200.000	0.011	-0.106
-687.339	128.131	0.179	0.231
-686.324	740.073	0.140	-0.383
-685.310	800.000	0.070	-0.239
-684.295	800.000	0.028	-0.099
-683.281	693.163	0.119	-0.316
-682.266	-14.494	-0.219	-0.143
-681.251	165.996	-0.141	0.202
-680.237	46.845	0.159	-0.150
-679.222	49.704	0.161	-0.154
-678.208	-200.000	-0.001	-0.340
-677.193	-200.000	0.004	-0.025
-676.178	-154.014	0.065	0.004
-675.164	-54.786	-0.026	-0.012
-674.149	457.162	-0.042	-0.095
-673.135	-8.662	-0.074	-0.050
-672.120	266.602	-0.154	-0.273
-671.105	-151.297	0.073	0.006
-670.091	396.977	0.156	0.332
-669.076	-29.509	-0.131	-0.076
-668.062	260.179	-0.030	-0.053
-667.047	-148.433	-0.323	0.027
-666.032	-1.765	-0.177	0.127
-665.018	800.000	-0.032	0.104
-664.003	-89.445	-0.109	-0.033
-662.989	-147.091	0.168	0.015
-661.974	-200.000	0.000	0.029
-660.959	6.345	-0.230	0.173
-659.945	-200.000	0.004	0.017
-658.930	800.000	-0.124	0.412
-657.916	-78.347	-0.239	-0.083
-656.901	-200.000	-0.020	0.120
-655.886	57.308	0.152	0.151
-654.872	-56.570	0.417	-0.188
-653.857	-29.411	-0.227	-0.132
-652.843	364.512	0.102	0.208
-651.828	-9.348	-0.206	0.140
-650.814	-74.253	-0.304	0.112
-649.799	-161.656	-0.129	0.007
-648.784	-0.602	0.280	0.201
-647.770	718.478	0.123	0.333
-646.755	31.980	-0.212	-0.186
-645.741	-114.971	0.121	0.023
-644.726	-61.684	0.158	-0.067
-643.711	-200.000	-0.024	-0.143
-642.697	6.606	-0.083	0.062
-641.682	-124.334	-0.418	0.066
-640.668	-155.274	-0.295	0.019
-639.653	16.711	-0.087	-0.070
-638.638	-116.850	-0.167	-0.031
-637.624	32.447	0.146	-0.128
-636.609	-10.867	-0.119	-0.080
-635.595	-14.642	0.240	-0.157
-634.580	13.352	0.156	-0.122
-633.565	-5.318	-0.078	0.054
-632.551	-200.000	-0.000	0.154
-631.536	98.147	0.049	-0.057
-630.522	-70.029	0.068	0.026
-629.507	346.386	-0.120	-0.239
-628.492	-105.827	-0.173	-0.040
-627.478	216.597	0.105	-0.169
-626.463	-11.882	0.167	0.111
-625.449	299.818	-0.036	0.067
-624.434	-18.447	0.258	0.164
-623.419	19.179	0.219	-0.179
-622.405	-168.441	-0.222	0.009
-621.390	-115.627	-0.148	0.028
-620.376	376.472	-0.054	-0.111
-619.361	31.676	0.229	-0.200
-618.346	738.751	-0.098	-0.266
-617.332	-24.009	-0.111	0.067
-616.317	79.650	-0.196	0.214
-615.303	-27.904	0.049	0.028
-614.288	351.836	0.140	0.280
-613.273	-85.821	0.203	0.064
-612.259	-102.251	0.200	0.049
-611.244	62.380	-0.101	0.103
-610.230	-35.869	-0.103	-0.056
-609.215	-200.000	0.005	0.053
-608.201	329.441	0.144	0.281
-607.186	75.080	-0.174	-0.186
-606.171	448.659	0.108	-0.240
-605.157	-200.000	-0.004	-0.128
-604.142	-192.583	0.098	0.001
-603.128	-27.712	0.002	0.001
-602.113	-102.375	0.047	0.011
-601.098	-200.000	-0.018	-0.099
-600.084	-200.000	-0.027	-0.129
-599.069	-200.000	-0.011	0.135
-598.055	-108.368	-0.483	-0.106
-597.040	800.000	-0.020	0.074
-596.025	113.969	-0.203	-0.250
-595.011	-200.000	-0.006	0.066
-593.996	-8.983	0.317	0.215
-592.982	800.000	-0.040	-0.121
-591.967	190.061	-0.050	0.077
-590.952	608.477	-0.062	0.156
-589.938	-69.812	-0.034	0.013
-588.923	25.738	-0.207	-0.174
-587.909	540.159	0.101	-0.244
-586.894	-118.860	-0.105	0.019
-585.879	-86.548	-0.391	-0.122
-584.865	-91.752	0.069	0.020
-583.850	-162.498	0.195	-0.010
-582.836	99.394	-0.180	-0.211
-581.821	-19.057	0.174	-0.110
-580.806	-105.646	0.051	0.012
-579.792	-200.000	0.009	-0.111
-578.777	-200.000	0.034	-0.365
-577.763	130.169	0.210	-0.272
-576.748	83.253	0.192	-0.212
-575.733	800.000	0.005	0.015
-574.719	-200.000	-0.019	0.122
-573.704	-2.494	0.249	-0.177
-572.690	0.025	-0.152	-0.109
-571.675	-200.000	0.032	0.282
-570.661	125.569	0.238	0.304
-569.646	800.000	-0.046	-0.137
-568.631	306.538	0.156	-0.295
-567.617	-24.426	-0.129	-0.078
-566.602	-1.955	0.126	-0.090
-565.588	502.342	-0.021	-0.049
-564.573	298.433	0.077	-0.144
-563.558	453.988	0.099	-0.223
-562.544	-145.762	0.097	0.009
-561.529	44.999	-0.078	0.073
-560.515	167.194	-0.175	-0.251
-559.500	5.422	-0.253	0.189
-558.485	-70.076	0.288	-0.111
-557.471	-28.608	0.294	-0.171
-556.456	-200.000	0.006	-0.291
-555.442	-112.015	-0.219	0.045
-554.427	-65.186	0.172	0.070
-553.412	-200.000	-0.024	0.361
-552.398	-141.380	-0.095	-0.010
-551.383	-200.000	-0.014	-0.260
-550.369	-200.000	0.001	0.110
-549.354	-47.559	-0.349	0.171
-548.339	509.650	-0.122	0.288
-547.325	-200.000	-0.009	-0.275
-546.310	-101.346	-0.223	0.055
-545.296	65.581	0.052	0.054
-544.281	237.080	0.139	-0.233
-543.266	-200.000	0.006	0.226
-542.252	-177.800	-0.342	0.008
-541.237	103.917	0.121	-0.144
-540.223	385.800	0.114	0.237
-539.208	-80.009	0.288	-0.098
-538.193	-96.742	0.225	-0.060
-537.179	3.380	0.191	0.141
-536.164	-118.508	0.241	0.043
-535.150	330.007	-0.075	-0.145
-534.135	-19.707	-0.189	-0.118
-533.121	-71.512	0.086	-0.032
-532.106	-200.000	0.066	-0.502
-531.091	792.632	0.034	0.094
-530.077	-200.000	-0.072	0.416
-529.062	215.639	-0.261	0.419
-528.048	71.757	0.161	-0.169
-527.033	-66.067	-0.166	-0.067
-526.018	-43.994	0.173	0.088
-525.004	800.000	-0.049	-0.214
-523.989	533.002	-0.083	-0.198
-522.975	25.725	0.124	0.104
-521.960	-197.550	0.210	-0.001
-520.945	-46.703	-0.162	-0.080
-519.931	-112.869	0.159	-0.032
-518.916	-25.297	0.382	-0.228
-517.902	189.154	-0.088	-0.133
-516.887	-112.711	-0.139	-0.028
-515.872	-60.280	0.344	-0.148
-514.858	800.000	0.012	-0.048
-513.843	-110.388	-0.332	0.070
-512.829	539.603	-0.156	-0.375
-511.814	-91.644	-0.117	0.034
-510.799	-27.456	0.132	0.077
-509.785	60.374	0.065	-0.065
-508.770	360.207	-0.067	-0.135
-507.756	800.000	-0.033	-0.139
-506.741	98.803	0.297	0.346
-505.726	443.799	-0.111	-0.246
-504.712	-36.043	-0.464	0.253
-503.697	-149.735	-0.142	-0.011
-502.683	42.184	0.156	0.143
-501.668	-2.436	0.225	-0.159
-500.653	-200.000	0.018	-0.085
-499.639	116.370	-0.250	0.310
-498.624	-189.532	0.276	-0.003
-497.610	127.550	-0.234	0.300
-496.595	157.266	0.102	0.142
-495.581	-48.084	-0.338	0.165
-494.566	-98.869	-0.309	-0.079
-493.551	-93.701	0.102	-0.028
-492.537	-151.961	-0.109	0.008
-491.522	123.454	0.075	-0.095
-490.508	-123.783	-0.374	0.060
-489.493	279.917	0.074	-0.133
-488.478	800.000	-0.113	-0.405
-487.464	-19.977	0.141	-0.088
-486.449	12.306	-0.176	-0.137
-485.435	544.239	0.131	0.315
-484.420	-200.000	0.024	-0.000
-483.405	-83.133	0.233	-0.076
-482.391	800.000	0.052	-0.157
-481.376	-92.044	0.254	0.073
-480.362	-122.885	-0.316	0.051
-479.347	40.232	-0.171	-0.155
-478.332	-200.000	-0.014	-0.437
-477.318	-105.912	-0.174	0.039
-476.303	62.722	0.291	0.293
-475.289	-89.818	0.114	0.034
-474.274	-200.000	0.009	-0.265
-473.259	-41.205	-0.236	-0.123
-472.245	800.000	-0.054	0.180
-471.230	-140.166	0.227	-0.024
-470.216	67.077	0.222	-0.228
-469.201	65.560	-0.050	-0.051
-468.186	-146.204	-0.338	0.030
-467.172	165.327	0.058	0.083
-466.157	-28.136	-0.216	0.126
-465.143	-148.273	-0.168	0.014
-464.128	452.954	0.092	0.205
-463.113	800.000	0.079	0.331
-462.099	-131.599	0.191	-0.025
-461.084	470.246	0.237	-0.537
-460.070	-200.000	0.155	-0.000
-459.055	126.690	-0.251	-0.320
-458.040	-45.134	0.133	-0.066
-457.026	43.120	0.107	0.098
-456.011	-200.000	0.000	-0.011
-454.997	800.000	0.012	0.038
-453.982	-200.000	0.030	0.166
-452.968	489.432	0.019	0.044
-451.953	-122.649	0.351	-0.057
-450.938	255.563	-0.045	0.077
-449.924	364.836	0.086	-0.175
-448.909	226.255	-0.174	0.284
-447.895	-200.000	0.045	0.374
-446.880	-77.799	-0.252	-0.088
-445.865	134.343	-0.121	-0.158
-444.851	-97.829	0.090	-0.024
-443.836	121.565	-0.314	-0.394
-442.822	-73.412	-0.421	0.155
-441.807	-200.000	0.023	-0.124
-440.792	-100.308	0.409	-0.102
-439.778	-200.000	0.038	0.290
-438.763	223.073	0.111	0.181
-437.749	-168.389	-0.126	-0.005
-436.734	-47.384	0.166	0.081
-435.719	-200.000	0.036	0.423
-434.705	-30.374	0.145	-0.083
-433.690	149.296	0.121	-0.165
-432.676	251.931	0.082	0.140
-431.661	38.339	0.289	-0.259
-430.646	368.771	-0.108	-0.220
-429.632	-193.382	-0.131	-0.001
-428.617	-200.000	0.024	-0.168
-427.603	-200.000	-0.004	-0.098
-426.588	92.165	-0.243	0.276
-425.573	-65.676	0.138	0.055
-424.559	140.209	0.069	-0.091
-423.544	317.597	-0.073	-0.139
-422.530	38.661	-0.232	-0.208
-421.515	356.927	-0.124	0.250
-420.500	-52.078	-0.089	0.042
-419.486	-60.199	-0.228	-0.098
-418.471	695.405	-0.058	0.153
-417.457	-137.584	0.565	-0.064
-416.442	-200.000	0.007	-0.199
-415.428	-200.000	0.031	0.301
-414.413	-35.606	-0.288	0.157
-413.398	-39.433	-0.359	0.189
-412.384	-103.980	0.076	-0.018
-411.369	-21.357	-0.305	-0.187
-410.355	-200.000	0.024	0.464
-409.340	-97.847	0.185	-0.048
-408.325	201.715	0.140	0.217
-407.311	-200.000	0.030	-0.201
-406.296	-79.923	-0.192	0.065
-405.282	-5.596	0.151	0.104
-404.267	-52.186	-0.071	-0.033
-403.252	-144.881	-0.041	0.004
-402.238	-200.000	0.302	-0.001
-401.223	-79.748	-0.198	-0.067
-400.209	202.493	-0.060	0.093
-399.194	-140.647	-0.441	-0.046
-398.179	-200.000	0.030	-0.251
-397.165	-185.642	0.330	-0.005
-396.150	-60.487	-0.152	-0.065
-395.136	-150.594	0.190	0.015
-394.121	256.567	0.066	0.113
-393.106	-184.472	-0.501	0.008
-392.092	764.171	-0.076	0.208
-391.077	-18.076	0.245	-0.154
-390.063	118.068	0.098	0.122
-389.048	17.721	0.227	0.181
-388.033	-51.735	0.380	0.178
-387.019	-112.504	0.444	0.089
-386.004	800.000	0.109	-0.305
-384.990	-26.257	0.141	-0.083
-383.975	330.125	-0.037	0.072
-382.960	68.528	0.134	0.139
-381.946	449.270	0.140	0.310
-380.931	-26.213	0.225	0.133
-379.917	-115.001	-0.356	-0.068
-378.902	155.649	-0.106	-0.146
-377.888	329.584	0.134	0.258
-376.873	129.514	0.091	-0.117
-375.858	-159.029	-0.555	0.032
-374.844	-200.000	-0.013	-0.094
-373.829	170.549	-0.192	-0.276
-372.815	579.833	0.056	-0.137
-371.800	-126.561	0.167	0.025
-370.785	341.034	-0.075	-0.148
-369.771	714.323	-0.085	-0.225
-368.756	677.332	0.192	0.501
-367.742	519.914	0.050	0.118
-366.727	-5.628	-0.399	0.275
-365.712	-172.799	-0.143	0.004
-364.698	-135.716	-0.276	0.033
-363.683	-7.809	-0.321	-0.218
-362.669	-200.000	0.013	0.058
-361.654	562.793	0.079	0.193
-360.639	216.496	-0.036	0.058
-359.625	202.245	0.050	0.077
-358.610	-131.092	-0.178	-0.024
-357.596	800.000	-0.065	-0.220
-356.581	-22.236	-0.201	-0.122
-355.566	362.591	-0.042	-0.085
-354.552	399.233	0.049	0.103
-353.537	-200.000	0.034	0.179
-352.523	-200.000	-0.044	0.251
-351.508	478.194	0.069	0.157
-350.493	-200.000	-0.016	-0.253
-349.479	-4.795	-0.090	0.062
-348.464	-127.897	-0.261	0.038
-347.450	-1.214	-0.216	-0.153
-346.435	115.066	0.287	-0.351
-345.420	-114.183	-0.151	-0.029
-344.406	-112.389	-0.266	0.053
-343.391	-200.000	0.020	0.090
-342.377	33.508	0.152	-0.133
-341.362	-200.000	-0.029	0.183
-340.348	110.288	-0.123	-0.148
-339.333	-200.000	0.005	-0.079
-338.318	260.185	-0.159	-0.275
-337.304	800.000	0.082	0.260
-336.289	-38.857	0.111	0.059
-335.275	135.815	-0.106	0.138
-334.260	-200.000	-0.032	0.159
-333.245	-140.784	-0.256	-0.027
-332.231	273.459	0.045	0.080
-331.216	487.518	0.012	0.027
-330.202	-69.785	0.337	0.129
-329.187	269.451	0.142	0.251
-328.172	-38.181	0.321	-0.171
-327.158	94.340	-0.183	-0.209
-326.143	-70.495	-0.425	-0.161
-325.129	89.687	-0.181	0.203
-324.114	-144.197	0.122	-0.011
-323.099	-61.895	-0.399	-0.167
-322.085	-47.656	-0.210	0.102
-321.070	104.268	-0.200	0.236
-320.056	-127.881	-0.217	-0.031
-319.041	130.777	0.128	-0.165
-318.026	-200.000	0.028	0.157
-317.012	282.089	-0.113	0.203
-315.997	16.652	-0.096	-0.076
-314.983	800.000	-0.076	0.330
-313.968	-200.000	0.028	0.257
-312.953	20.878	0.098	-0.080
-311.939	-15.593	0.295	0.188
-310.924	608.940	-0.083	0.207
-309.910	800.000	-0.067	0.248
-308.895	-200.000	0.026	0.145
-307.880	2.438	0.124	0.090
-306.866	-71.264	-0.093	0.035
-305.851	-3.737	-0.131	-0.091
-304.837	-200.000	0.066	-0.385
-303.822	-42.787	0.388	0.197
-302.807	-22.209	0.232	0.141
-301.793	-200.000	-0.020	-0.088
-300.778	-89.212	0.277	0.082
-299.764	92.846	-0.129	0.146
-298.749	134.226	0.328	0.425
-297.735	-67.438	-0.071	0.028
-296.720	-122.102	0.337	-0.055
-295.705	-118.296	-0.163	0.029
-294.691	-80.922	-0.334	0.111
-293.676	-70.383	0.023	-0.009
-292.662	-200.000	0.005	0.144
-291.647	-153.937	0.102	-0.007
-290.632	-36.762	0.168	0.090
-289.618	-200.000	0.033	-0.423
-288.603	24.638	-0.185	-0.153
-287.589	-200.000	0.013	0.061
-286.574	32.380	-0.107	0.092
-285.559	-200.000	-0.006	-0.059
-284.545	800.000	0.030	-0.115
-283.530	73.308	0.044	-0.046
-282.516	800.000	-0.023	-0.074
-281.501	62.133	-0.033	-0.033
-280.486	-137.054	0.462	0.053
-279.472	9.650	-0.184	0.140
-278.457	192.904	0.150	0.227
-277.443	621.271	-0.123	-0.310
-276.428	270.770	-0.186	0.328
-275.413	-200.000	0.072	0.344
-274.399	-7.045	0.167	-0.113
-273.384	454.987	0.113	-0.250
-272.370	-18.908	0.049	0.031
-271.355	-200.000	0.014	0.100
-270.340	-200.000	-0.012	0.162
-269.326	-44.963	0.091	0.045
-268.311	-20.227	-0.132	-0.081
-267.297	-200.000	0.023	0.116
-266.282	18.003	-0.183	-0.146
-265.267	-200.000	0.030	-0.217
-264.253	-50.068	0.203	0.096
-263.238	-200.000	-0.014	-0.211
-262.224	-200.000	-0.002	-0.196
-261.209	16.442	0.155	0.122
-260.195	800.000	0.066	0.193
-259.180	-154.228	0.229	0.015
-258.165	267.684	-0.158	-0.276
-257.151	-79.901	-0.249	0.084
-256.136	77.327	0.046	-0.049
-255.122	800.000	0.072	-0.286
-254.107	-200.000	0.010	0.057
-253.092	577.822	-0.093	-0.227
-252.078	-200.000	-0.000	-0.139
-251.063	141.086	0.071	0.094
-250.049	18.125	0.134	0.107
-249.034	52.398	-0.195	0.186
-248.019	-200.000	0.001	0.246
-247.005	800.000	-0.082	-0.349
-245.990	721.362	0.090	0.241
-244.976	-127.397	-0.361	0.053
-243.961	-156.216	0.165	-0.010
-242.946	191.923	0.048	-0.073
-241.932	-200.000	0.037	-0.356
-240.917	800.000	-0.086	-0.272
-239.903	-200.000	0.013	0.332
-238.888	-156.107	-0.253	-0.016
-237.873	-102.873	0.149	0.035
-236.859	-118.858	0.343	0.060
-235.844	-28.158	-0.294	-0.170
-234.830	-200.000	-0.029	-0.182
-233.815	77.892	0.112	0.120
-232.800	-200.000	0.017	0.204
-231.786	161.295	-0.102	0.142
-230.771	800.000	-0.105	0.444
-229.757	-2.391	0.114	0.080
-228.742	28.165	-0.144	0.122
-227.727	-200.000	-0.010	0.191
-226.713	-61.446	-0.019	0.008
-225.698	-200.000	0.010	0.102
-224.684	289.563	-0.221	-0.399
-223.669	-87.300	-0.136	0.041
-222.655	-14.205	-0.076	-0.049
-221.640	65.904	0.265	0.268
-220.625	-200.000	0.055	0.570
-219.611	-93.544	0.235	0.065
-218.596	-44.786	0.046	-0.023
-217.582	-151.118	0.101	-0.008
-216.567	-135.885	0.285	0.034
-215.552	-200.000	-0.019	0.087
-214.538	419.714	0.101	-0.216
-213.523	183.208	0.172	-0.253
-212.509	-86.090	0.298	0.092
-211.494	-35.917	-0.096	0.052
-210.479	-22.395	-0.208	0.125
-209.465	188.183	-0.229	-0.342
-208.450	-200.000	0.003	0.019
-207.436	-200.000	0.018	0.324
-206.421	7.120	0.464	0.346
-205.406	-200.000	0.033	-0.266
-204.392	45.888	-0.123	0.113
-203.377	-135.949	-0.274	0.032
-202.363	-41.294	0.108	-0.056
-201.348	538.629	-0.042	-0.099
-200.333	-164.558	0.120	-0.005
-199.319	-18.155	0.058	-0.036
-198.304	-86.623	-0.322	0.098
-197.290	-200.000	-0.026	-0.164
-196.275	-100.995	0.336	-0.082
-195.260	167.434	0.176	-0.249
-194.246	-39.978	0.149	-0.078
-193.231	332.213	-0.140	-0.270
-192.217	-11.181	0.208	-0.137
-191.202	-200.000	-0.060	-0.265
-190.187	5.791	-0.214	0.158
-189.173	800.000	0.053	0.172
-188.158	-54.787	0.318	-0.143
-187.144	-79.319	0.174	-0.059
-186.129	-45.810	0.072	-0.035
-185.114	-200.000	-0.041	-0.547
-184.100	303.028	-0.088	-0.163
-183.085	298.720	0.069	-0.127
-182.071	21.170	-0.153	-0.123
-181.056	156.510	0.055	0.076
-180.042	-14.931	0.109	-0.069
-179.027	-200.000	-0.015	0.167
-178.012	-200.000	0.019	-0.101
-176.998	44.768	-0.194	0.178
-175.983	-199.684	0.081	-0.000
-174.969	-13.534	0.188	0.122
-173.954	800.000	-0.073	0.234
-172.939	109.080	0.089	-0.106
-171.925	189.309	-0.044	0.065
-170.910	-32.616	0.362	-0.201
-169.896	9.523	0.144	0.109
-168.881	594.157	0.062	0.153
-167.866	554.891	-0.143	-0.342
-166.852	-56.376	0.066	-0.029
-165.837	-200.000	0.030	0.291
-164.823	-55.520	0.244	-0.109
-163.808	-181.068	-0.292	0.006
-162.793	184.872	-0.103	-0.152
-161.779	-14.225	-0.116	0.074
-160.764	52.496	-0.093	0.088
-159.750	-53.650	-0.148	0.067
-158.735	654.154	0.047	0.121
-157.720	-97.667	0.152	0.039
-156.706	-166.859	-0.243	0.010
-155.691	793.263	0.069	0.189
-154.677	-200.000	0.034	-0.167
-153.662	-200.000	-0.021	0.458
-152.647	-126.970	-0.354	-0.052
-151.633	167.820	0.203	0.287
-150.618	69.643	0.108	-0.110
-149.604	11.565	-0.100	0.077
-148.589	-67.692	0.103	0.040
-147.574	-67.167	-0.091	0.036
-146.560	-14.555	-0.248	-0.159
-145.545	-105.650	0.176	0.040
-144.531	800.000	0.075	0.269
-143.516	-200.000	-0.091	0.466
-142.502	800.000	0.068	-0.241
-141.487	-200.000	-0.038	0.262
-140.472	89.637	0.136	-0.152
-139.458	-69.402	0.367	0.140
-138.443	-200.000	-0.014	0.205
-137.429	362.737	0.134	-0.269
-136.414	-4.524	-0.069	-0.047
-135.399	800.000	0.078	0.271
-134.385	800.000	0.042	0.147
-133.370	-37.559	0.143	0.076
-132.356	-200.000	0.024	0.191
-131.341	-200.000	-0.048	-0.272
-130.326	-128.463	-0.168	-0.024
-129.312	-5.982	-0.126	-0.086
-128.297	-6.643	-0.107	0.073
-127.283	178.704	0.052	0.076
-126.268	-123.722	0.314	-0.049
-125.253	35.007	0.165	0.144
-124.239	665.417	0.110	0.283
-123.224	-22.986	0.196	0.118
-122.210	69.268	0.056	-0.057
-121.195	50.539	0.203	-0.191
