DTS Sentinel unit serial number:	SN413079Multiplexer serial number:	ORYXHardware model number:	OX4-SRSoftware version number:	ORYX F/W v4.00 Oryx Data Collector v3.7.2.0data status	okinstallation	princeton_trtdifferential loss correction	single-endedforward channel	channel 2reverse channel	N/Adate	2019/09/15time	15:23:35forward acquisition time	60.00reverse acquisition time	0.00gamma	496.2192k internal	0.2295k external	0.2295temperature offset calibration	0.9962default loss term (dB/km)	0.3790temperature slope calibration	1.0000multiplexer offset coefficient	1.0000multiplexer slope coefficient	1.0000fibre end	0.00T internal ref (°C)	40.95T ext. ref 1 (°C)	5.05T ext. ref 2 (°C)	38.40length (m)	temperature (°C)	Stokes	anti-Stokes-747.200	-200.000	-0.064	0.292
-746.185	-33.094	-0.344	0.195
-745.171	800.000	0.057	-0.190
-744.156	-93.155	-0.276	0.079
-743.142	168.961	-0.211	0.308
-742.127	-200.000	-0.012	0.262
-741.112	-89.244	-0.179	0.054
-740.098	505.804	0.046	0.109
-739.083	59.973	-0.253	0.255
-738.069	411.790	-0.128	0.277
-737.054	661.995	0.051	-0.134
-736.039	-131.467	-0.275	-0.037
-735.025	-132.619	0.451	0.059
-734.010	-54.649	-0.094	-0.043
-732.996	110.618	0.102	-0.126
-731.981	-173.102	-0.354	-0.011
-730.966	129.265	0.216	-0.282
-729.952	-91.070	-0.228	-0.067
-728.937	197.079	-0.218	-0.339
-727.923	-97.337	-0.157	0.042
-726.908	-155.631	-0.148	0.010
-725.894	800.000	0.020	-0.064
-724.879	297.711	-0.087	0.164
-723.864	-69.060	-0.132	-0.052
-722.850	-89.302	-0.233	0.070
-721.835	412.267	0.131	0.285
-720.821	137.290	0.171	0.228
-719.806	780.392	0.048	0.134
-718.791	-85.285	0.178	0.057
-717.777	323.512	-0.077	-0.150
-716.762	-200.000	0.018	0.204
-715.748	-200.000	0.056	0.267
-714.733	-200.000	0.000	-0.037
-713.718	59.319	-0.236	-0.237
-712.704	103.534	-0.198	0.237
-711.689	127.335	-0.098	0.127
-710.675	112.342	-0.317	-0.391
-709.660	-93.497	-0.147	-0.042
-708.645	-200.000	0.025	0.250
-707.631	-116.609	0.276	0.052
-706.616	-24.089	-0.224	0.137
-705.602	174.419	-0.135	-0.199
-704.587	-200.000	-0.018	0.091
-703.572	7.689	-0.484	-0.370
-702.558	191.285	0.153	-0.235
-701.543	-190.066	0.443	0.005
-700.529	-131.919	0.109	0.015
-699.514	-176.952	-0.265	-0.007
-698.499	35.959	0.141	-0.127
-697.485	-200.000	0.024	-0.162
-696.470	198.296	0.019	-0.030
-695.456	202.721	-0.173	-0.273
-694.441	74.088	-0.167	-0.179
-693.426	86.338	0.047	0.053
-692.412	579.153	0.008	0.021
-691.397	279.543	-0.097	0.177
-690.383	153.706	-0.152	0.212
-689.368	-200.000	-0.016	0.099
-688.354	80.899	-0.097	-0.107
-687.339	-106.518	-0.232	0.053
-686.324	133.640	-0.220	-0.291
-685.310	800.000	0.060	-0.255
-684.295	-92.101	0.084	0.024
-683.281	327.952	-0.100	0.196
-682.266	-200.000	0.020	-0.417
-681.251	-200.000	-0.011	0.056
-680.237	-176.047	-0.235	-0.006
-679.222	-95.839	-0.187	0.051
-678.208	-121.936	-0.123	0.021
-677.193	-60.159	0.155	-0.067
-676.178	-200.000	0.015	-0.118
-675.164	325.081	-0.035	-0.068
-674.149	-198.632	0.199	-0.001
-673.135	-28.463	-0.277	-0.163
-672.120	-200.000	0.004	0.081
-671.105	-107.436	0.117	-0.026
-670.091	-27.512	-0.183	-0.109
-669.076	-200.000	0.052	0.234
-668.062	-94.369	-0.250	0.069
-667.047	31.515	-0.104	-0.091
-666.032	36.624	-0.069	-0.062
-665.018	130.149	0.221	-0.288
-664.003	90.271	0.248	-0.283
-662.989	-200.000	-0.029	-0.283
-661.974	-72.763	0.113	0.042
-660.959	17.545	-0.180	-0.146
-659.945	-35.513	-0.030	0.017
-658.930	384.980	0.033	0.069
-657.916	502.901	0.046	0.108
-656.901	-200.000	0.034	-0.181
-655.886	790.724	0.130	-0.363
-654.872	-200.000	-0.057	0.429
-653.857	-113.174	0.286	-0.057
-652.843	800.000	0.104	-0.296
-651.828	-200.000	0.001	-0.009
-650.814	39.129	-0.070	0.064
-649.799	-42.472	0.261	0.136
-648.784	-79.242	-0.204	0.070
-647.770	85.336	-0.127	-0.142
-646.755	291.620	-0.122	0.226
-645.741	-164.220	-0.134	0.006
-644.726	-7.389	-0.131	-0.091
-643.711	-161.154	-0.102	-0.005
-642.697	-50.844	0.093	0.045
-641.682	-200.000	-0.055	-0.281
-640.668	10.823	0.232	-0.181
-639.653	50.841	-0.251	-0.242
-638.638	-138.703	-0.330	-0.037
-637.624	331.492	-0.203	0.399
-636.609	61.165	-0.258	-0.261
-635.595	-138.888	0.054	0.006
-634.580	800.000	-0.068	0.201
-633.565	119.954	0.232	-0.293
-632.551	-200.000	-0.007	-0.098
-631.536	87.941	-0.417	-0.471
-630.522	-98.373	0.394	-0.103
-629.507	44.032	0.039	0.036
-628.492	154.625	0.226	-0.316
-627.478	-132.362	-0.337	-0.044
-626.463	11.056	-0.177	-0.138
-625.449	482.255	0.143	0.331
-624.434	-157.739	0.260	-0.016
-623.419	-200.000	0.022	0.193
-622.405	342.987	0.054	0.107
-621.390	-36.448	0.283	-0.155
-620.376	-149.976	-0.224	-0.018
-619.361	-200.000	0.020	0.271
-618.346	317.014	-0.256	0.492
-617.332	-200.000	-0.011	0.147
-616.317	-200.000	0.010	-0.114
-615.303	-65.565	-0.060	0.025
-614.288	-22.598	-0.290	-0.178
-613.273	-200.000	-0.019	-0.254
-612.259	-6.749	0.047	-0.033
-611.244	261.148	-0.151	0.265
-610.230	-136.155	0.279	-0.033
-609.215	-83.005	-0.159	0.052
-608.201	-200.000	-0.009	0.050
-607.186	800.000	0.065	0.264
-606.171	-131.599	-0.304	-0.041
-605.157	-200.000	0.005	0.031
-604.142	3.962	0.080	0.059
-603.128	-41.545	0.113	0.059
-602.113	-5.607	0.209	-0.145
-601.098	70.654	-0.162	0.170
-600.084	30.303	-0.240	0.209
-599.069	800.000	0.026	-0.094
-598.055	-200.000	-0.161	0.000
-597.040	-200.000	-0.009	-0.114
-596.025	18.507	0.138	0.112
-595.011	43.195	-0.213	0.197
-593.996	455.302	0.107	0.242
-592.982	93.000	-0.304	0.349
-591.967	-48.334	-0.138	-0.068
-590.952	-200.000	0.016	0.171
-589.938	-93.458	-0.341	-0.096
-588.923	138.955	-0.150	0.200
-587.909	435.299	-0.095	-0.209
-586.894	-200.000	0.003	0.236
-585.879	-91.478	0.175	0.051
-584.865	-1.125	-0.105	0.075
-583.850	-51.332	-0.209	0.099
-582.836	-200.000	0.002	-0.094
-581.821	800.000	0.061	0.190
-580.806	-92.371	0.089	-0.025
-579.792	-88.233	0.230	-0.070
-578.777	-44.014	-0.241	-0.123
-577.763	-80.397	0.053	0.018
-576.748	19.054	0.186	0.151
-575.733	269.221	0.087	0.155
-574.719	266.187	0.069	-0.123
-573.704	214.815	-0.140	-0.226
-572.690	-86.706	0.258	-0.080
-571.675	89.946	-0.053	-0.060
-570.661	-200.000	0.001	0.329
-569.646	-150.306	0.275	0.022
-568.631	-64.286	-0.150	-0.062
-567.617	263.438	-0.245	0.431
-566.602	-200.000	0.060	-0.384
-565.588	800.000	-0.021	-0.081
-564.573	-200.000	-0.027	-0.452
-563.558	99.783	-0.100	-0.117
-562.544	-200.000	0.004	0.314
-561.529	-118.762	0.232	0.042
-560.515	187.590	0.161	0.244
-559.500	-91.175	0.040	-0.012
-558.485	302.276	0.096	0.180
-557.471	462.217	-0.109	0.248
-556.456	-200.000	-0.022	-0.125
-555.442	-200.000	-0.006	0.144
-554.427	61.688	-0.129	-0.131
-553.412	458.866	0.090	0.202
-552.398	-102.047	0.434	0.106
-551.383	-200.000	-0.039	-0.221
-550.369	131.059	0.073	0.095
-549.354	75.722	-0.120	0.128
-548.339	-143.013	0.096	0.009
-547.325	47.897	-0.074	-0.070
-546.310	-146.443	-0.212	0.019
-545.296	-122.467	0.237	0.039
-544.281	-146.390	-0.138	-0.012
-543.266	-38.620	0.256	0.137
-542.252	464.506	-0.077	-0.176
-541.237	421.477	-0.014	0.031
-540.223	-65.845	-0.034	-0.014
-539.208	100.809	0.135	0.160
-538.193	-200.000	-0.044	-0.202
-537.179	-104.876	-0.229	-0.053
-536.164	-145.723	0.183	-0.017
-535.150	-71.527	-0.546	0.207
-534.135	-33.008	-0.110	0.062
-533.121	800.000	-0.043	-0.179
-532.106	555.478	-0.012	-0.029
-531.091	-157.358	-0.218	-0.013
-530.077	-58.300	0.102	0.045
-529.062	-200.000	0.059	-0.277
-528.048	-130.809	-0.062	-0.008
-527.033	800.000	-0.041	-0.115
-526.018	-71.645	0.172	-0.065
-525.004	27.061	0.289	0.246
-523.989	489.982	0.052	-0.121
-522.975	-161.134	0.146	-0.008
-521.960	494.360	0.085	-0.197
-520.945	5.947	0.145	-0.109
-519.931	109.822	-0.099	-0.120
-518.916	-8.402	-0.213	-0.145
-517.902	227.396	-0.079	-0.130
-516.887	-39.131	-0.186	-0.099
-515.872	-121.716	-0.338	-0.057
-514.858	800.000	-0.024	-0.105
-513.843	-35.175	-0.209	-0.115
-512.829	-160.115	0.269	-0.015
-511.814	759.200	0.132	-0.362
-510.799	31.998	-0.059	0.052
-509.785	-200.000	0.020	0.208
-508.770	306.707	-0.064	-0.120
-507.756	800.000	0.147	-0.437
-506.741	-25.945	0.154	-0.092
-505.726	235.434	0.189	-0.317
-504.712	55.022	-0.129	-0.127
-503.697	-200.000	-0.022	0.320
-502.683	391.484	0.077	-0.161
-501.668	390.366	0.100	-0.211
-500.653	-58.842	0.198	-0.087
-499.639	-200.000	0.035	0.278
-498.624	-198.527	0.079	0.000
-497.610	155.485	-0.017	0.024
-496.595	155.111	-0.146	0.203
-495.581	-109.836	-0.082	0.017
-494.566	-200.000	0.008	-0.258
-493.551	-21.803	-0.242	-0.149
-492.537	-37.550	-0.065	-0.035
-491.522	-52.642	-0.357	-0.167
-490.508	152.438	0.292	0.403
-489.493	-200.000	-0.032	-0.192
-488.478	-200.000	0.016	0.307
-487.464	-130.141	0.148	0.020
-486.449	34.270	-0.226	-0.200
-485.435	800.000	-0.037	0.153
-484.420	-200.000	-0.073	0.371
-483.405	800.000	0.074	0.292
-482.391	93.458	-0.168	0.192
-481.376	-200.000	0.072	-0.355
-480.362	80.507	0.099	-0.108
-479.347	-47.098	0.178	-0.088
-478.332	310.348	0.018	-0.034
-477.318	-153.015	-0.124	-0.009
-476.303	242.207	-0.060	0.102
-475.289	-124.778	0.113	0.018
-474.274	30.952	0.209	-0.181
-473.259	64.903	-0.023	0.024
-472.245	8.900	0.223	0.170
-471.230	715.807	0.028	-0.076
-470.216	-93.244	-0.117	-0.033
-469.201	800.000	0.114	-0.386
-468.186	70.244	-0.240	0.251
-467.172	284.061	-0.039	-0.072
-466.157	-46.677	0.202	0.100
-465.143	-139.821	-0.153	-0.016
-464.128	-200.000	-0.024	-0.162
-463.113	-156.427	0.418	-0.026
-462.099	6.574	0.206	0.155
-461.084	105.579	-0.107	0.128
-460.070	-101.622	0.193	0.047
-459.055	25.281	-0.079	0.067
-458.040	263.425	0.060	0.105
-457.026	-62.481	-0.279	-0.117
-456.011	-148.443	0.038	-0.003
-454.997	-200.000	-0.011	0.103
-453.982	-17.729	0.176	-0.112
-452.968	-153.682	0.327	0.023
-451.953	31.024	0.037	-0.032
-450.938	41.819	-0.126	-0.116
-449.924	-150.551	-0.094	-0.007
-448.909	-200.000	0.032	0.320
-447.895	-108.301	-0.169	-0.037
-446.880	41.656	-0.219	-0.201
-445.865	-200.000	0.005	0.185
-444.851	-200.000	0.020	-0.309
-443.836	395.174	0.109	-0.229
-442.822	66.892	0.216	-0.222
-441.807	330.026	0.164	0.319
-440.792	800.000	-0.034	0.119
-439.778	-200.000	0.042	0.269
-438.763	-8.726	-0.063	0.043
-437.749	301.256	-0.101	-0.189
-436.734	86.539	0.113	0.125
-435.719	109.971	-0.133	-0.161
-434.705	-16.325	-0.119	-0.076
-433.690	-68.576	-0.104	0.041
-432.676	-39.957	-0.192	0.101
-431.661	167.279	0.213	0.305
-430.646	-105.938	0.073	-0.017
-429.632	-23.121	0.065	0.039
-428.617	51.841	-0.204	0.196
-427.603	362.154	0.059	0.119
-426.588	32.044	0.055	-0.048
-425.573	-91.424	-0.125	0.036
-424.559	-165.493	-0.194	-0.009
-423.544	223.594	0.152	0.248
-422.530	289.543	-0.141	0.258
-421.515	-200.000	0.374	0.001
-420.500	-96.403	-0.185	0.049
-419.486	-55.476	0.196	0.089
-418.471	-42.222	-0.376	0.194
-417.457	-200.000	-0.025	0.311
-416.442	379.467	0.045	0.093
-415.428	-200.000	-0.031	-0.303
-414.413	800.000	0.019	-0.062
-413.398	104.269	0.095	-0.113
-412.384	-115.112	0.101	-0.019
-411.369	800.000	-0.002	0.008
-410.355	-78.295	0.236	-0.082
-409.340	-89.494	-0.287	0.085
-408.325	241.137	0.098	0.166
-407.311	166.651	-0.088	0.126
-406.296	-118.070	0.077	-0.014
-405.282	-53.494	0.131	0.061
-404.267	-62.278	0.158	-0.067
-403.252	486.877	0.054	-0.124
-402.238	-200.000	-0.019	-0.361
-401.223	-86.320	0.041	-0.013
-400.209	374.258	0.072	-0.147
-399.194	51.401	-0.053	0.050
-398.179	-200.000	0.056	0.484
-397.165	-94.739	0.049	0.013
-396.150	-142.977	-0.120	0.012
-395.136	-76.222	-0.091	-0.032
-394.121	-200.000	0.021	-0.396
-393.106	-200.000	-0.006	-0.430
-392.092	-143.703	-0.121	-0.012
-391.077	800.000	-0.105	-0.341
-390.063	150.287	0.084	-0.114
-389.048	-200.000	0.028	-0.128
-388.033	-111.144	0.199	-0.041
-387.019	800.000	-0.028	0.106
-386.004	-200.000	-0.048	0.278
-384.990	-177.033	-0.153	0.004
-383.975	60.190	0.204	0.204
-382.960	-200.000	-0.008	0.185
-381.946	-200.000	0.003	-0.088
-380.931	-200.000	-0.023	0.413
-379.917	-166.867	-0.185	-0.008
-378.902	659.557	-0.026	-0.067
-377.888	-41.627	0.353	-0.183
-376.873	-17.370	0.029	0.018
-375.858	96.898	-0.106	-0.122
-374.844	52.801	0.084	0.081
-373.829	-36.131	-0.139	0.076
-372.815	40.852	0.210	0.191
-371.800	-107.230	0.259	-0.058
-370.785	-169.365	0.136	0.005
-369.771	-97.075	-0.131	-0.035
-368.756	407.213	0.017	0.037
-367.742	-181.418	0.509	-0.010
-366.727	84.268	-0.185	-0.204
-365.712	44.203	0.040	0.037
-364.698	20.906	-0.215	-0.175
-363.683	-42.860	0.170	-0.087
-362.669	417.078	0.169	0.364
-361.654	-95.721	-0.155	0.042
-360.639	132.136	0.136	0.177
-359.625	214.597	-0.170	-0.272
-358.610	359.197	0.024	-0.047
-357.596	40.439	-0.328	0.297
-356.581	-138.707	0.305	0.034
-355.566	-68.860	0.078	0.030
-354.552	49.239	0.204	0.193
-353.537	401.189	-0.091	-0.193
-352.523	-104.196	-0.311	-0.073
-351.508	-200.000	-0.009	0.196
-350.493	-89.343	0.373	0.111
-349.479	-163.450	-0.246	0.012
-348.464	800.000	-0.100	-0.324
-347.450	-156.543	0.213	-0.013
-346.435	38.251	0.147	-0.132
-345.420	520.109	-0.136	-0.320
-344.406	800.000	-0.061	-0.209
-343.391	573.858	0.064	-0.157
-342.377	-65.326	-0.107	-0.043
-341.362	2.840	-0.253	0.185
-340.348	-70.746	-0.075	-0.029
-339.333	-160.527	-0.453	0.024
-338.318	178.705	-0.067	-0.099
-337.304	-123.827	0.232	0.037
-336.289	-80.453	-0.327	0.110
-335.275	40.932	0.371	-0.337
-334.260	-200.000	-0.012	-0.352
-333.245	36.450	0.118	0.105
-332.231	-200.000	0.003	-0.101
-331.216	-158.589	0.030	-0.002
-330.202	-200.000	-0.027	-0.306
-329.187	227.363	-0.055	-0.089
-328.172	42.020	-0.061	-0.056
-327.158	800.000	0.009	-0.024
-326.143	-156.224	-0.331	-0.021
-325.129	326.302	0.184	0.355
-324.114	-200.000	0.035	-0.197
-323.099	61.228	0.339	0.339
-322.085	-200.000	0.029	0.235
-321.070	-200.000	-0.030	0.146
-320.056	124.841	0.081	-0.102
-319.041	-89.780	-0.087	0.026
-318.026	-200.000	-0.051	0.235
-317.012	176.772	-0.024	0.035
-315.997	-200.000	-0.055	0.000
-314.983	-9.875	-0.230	0.154
-313.968	-73.979	0.232	-0.085
-312.953	-79.386	-0.109	0.037
-311.939	498.117	0.056	-0.130
-310.924	-189.337	0.260	-0.003
-309.910	-200.000	-0.018	0.088
-308.895	800.000	-0.041	0.135
-307.880	-2.501	0.258	-0.182
-306.866	800.000	0.045	-0.194
-305.851	-200.000	-0.034	-0.406
-304.837	-200.000	-0.080	0.378
-303.822	390.102	-0.164	-0.341
-302.807	195.962	-0.103	-0.157
-301.793	-160.982	0.464	0.024
-300.778	-62.585	-0.270	-0.112
-299.764	64.175	0.095	-0.096
-298.749	-146.524	0.098	-0.009
-297.735	44.173	0.222	0.205
-296.720	800.000	0.026	0.086
-295.705	-66.140	-0.166	0.066
-294.691	374.902	0.102	-0.208
-293.676	-42.163	-0.120	-0.062
-292.662	-200.000	0.007	0.101
-291.647	-116.654	0.259	0.048
-290.632	119.189	0.108	-0.134
-289.618	35.653	0.157	0.139
-288.603	-111.349	0.229	-0.047
-287.589	568.842	-0.131	-0.319
-286.574	800.000	0.039	0.170
-285.559	-76.419	-0.080	0.028
-284.545	-200.000	-0.099	-0.520
-283.530	318.973	-0.122	0.232
-282.516	712.303	0.131	0.347
-281.501	-57.070	0.253	0.112
-280.486	-200.000	0.013	-0.112
-279.472	-133.324	-0.130	0.016
-278.457	-66.174	0.341	-0.137
-277.443	-41.363	0.105	-0.054
-276.428	-60.103	-0.357	-0.153
-275.413	368.401	0.113	-0.229
-274.399	737.921	-0.054	-0.144
-273.384	-132.601	-0.198	0.026
-272.370	800.000	0.088	0.359
-271.355	-200.000	0.008	-0.051
-270.340	81.307	-0.108	0.117
-269.326	31.133	0.180	-0.155
-268.311	395.080	0.123	0.258
-267.297	-200.000	-0.014	0.092
-266.282	-8.551	-0.193	-0.130
-265.267	251.451	-0.146	0.250
-264.253	215.339	0.159	-0.253
-263.238	-72.863	0.062	-0.023
-262.224	-200.000	-0.041	0.202
-261.209	800.000	-0.164	-0.490
-260.195	-200.000	-0.059	-0.405
-259.180	147.885	0.016	0.022
-258.165	800.000	-0.068	-0.233
-257.151	800.000	-0.011	0.046
-256.136	-200.000	-0.020	0.096
-255.122	483.849	-0.199	0.454
-254.107	183.519	0.081	0.120
-253.092	-45.690	-0.160	0.079
-252.078	95.258	-0.144	-0.165
-251.063	146.663	-0.257	0.346
-250.049	-28.268	-0.312	0.181
-249.034	-66.110	0.170	-0.068
-248.019	-33.698	-0.082	-0.045
-247.005	-200.000	-0.044	-0.234
-245.990	135.529	0.078	-0.102
-244.976	-100.468	0.398	-0.099
-243.961	189.318	-0.137	0.205
-242.946	-94.277	-0.228	-0.062
-241.932	-200.000	-0.002	-0.212
-240.917	-110.804	0.235	0.049
-239.903	-200.000	0.040	-0.179
-238.888	-131.631	-0.136	-0.018
-237.873	-87.566	0.097	-0.029
-236.859	-172.360	-0.265	0.008
-235.844	800.000	-0.158	0.528
-234.830	636.856	-0.129	0.328
-233.815	-46.493	0.217	0.107
-232.800	219.708	0.203	-0.325
-231.786	-105.794	-0.118	-0.027
-230.771	136.039	0.295	0.386
-229.757	-200.000	-0.028	-0.354
-228.742	49.479	-0.122	-0.115
-227.727	800.000	-0.040	0.125
-226.713	549.813	-0.106	-0.254
-225.698	-8.469	0.288	0.194
-224.684	-134.660	0.142	-0.017
-223.669	-72.722	0.490	0.181
-222.655	-200.000	0.009	-0.081
-221.640	-200.000	-0.044	0.274
-220.625	-12.374	-0.239	-0.156
-219.611	800.000	0.010	0.042
-218.596	800.000	0.096	0.317
-217.582	-56.033	0.132	0.059
-216.567	93.749	0.160	-0.181
-215.552	42.575	0.144	-0.131
-214.538	-6.377	-0.247	-0.169
-213.523	162.002	-0.188	0.264
-212.509	-119.867	0.174	0.030
-211.494	-200.000	0.031	0.161
-210.479	-200.000	0.004	-0.401
-209.465	-104.376	0.204	0.047
-208.450	-137.724	0.213	0.024
-207.436	553.227	-0.059	0.143
-206.421	165.731	0.086	0.122
-205.406	-183.636	0.378	-0.006
-204.392	-41.451	-0.148	0.076
-203.377	-153.443	-0.090	0.006
-202.363	-49.370	0.236	0.113
-201.348	-200.000	-0.038	0.252
-200.333	747.605	0.022	0.060
-199.319	269.709	0.078	-0.138
-198.304	-35.100	0.190	-0.104
-197.290	-142.335	0.046	-0.005
-196.275	138.774	-0.068	-0.089
-195.260	800.000	0.079	0.239
-194.246	-66.132	-0.213	-0.085
-193.231	-200.000	-0.020	-0.222
-192.217	-200.000	-0.025	-0.313
-191.202	102.811	0.069	0.081
-190.187	800.000	0.038	-0.130
-189.173	-200.000	-0.025	-0.160
-188.158	39.695	0.128	0.115
-187.144	-113.501	0.321	-0.063
-186.129	58.794	0.197	0.193
-185.114	-200.000	0.033	-0.168
-184.100	741.283	0.065	-0.175
-183.085	-187.557	-0.131	-0.002
-182.071	-162.905	0.043	0.002
-181.056	-200.000	0.039	-0.295
-180.042	-101.126	-0.354	0.087
-179.027	800.000	0.027	-0.105
-178.012	336.202	-0.097	0.188
-176.998	800.000	-0.056	0.197
-175.983	785.586	-0.078	-0.214
-174.969	-164.859	-0.426	-0.019
-173.954	800.000	-0.064	-0.191
-172.939	392.301	0.046	0.096
-171.925	-121.200	-0.210	0.035
-170.910	-30.665	-0.166	-0.094
-169.896	448.904	-0.157	-0.347
-168.881	-156.946	0.486	-0.030
-167.866	-200.000	0.022	0.305
-166.852	-73.898	-0.279	0.101
-165.837	-117.153	-0.546	0.099
-164.823	-34.576	-0.159	0.087
-163.808	170.436	-0.062	-0.089
-162.793	55.374	0.226	0.218
-161.779	800.000	-0.020	0.070
-160.764	213.154	-0.256	0.403
-159.750	-200.000	-0.063	0.372
-158.735	491.885	0.094	-0.215
-157.720	-200.000	-0.005	0.350
-156.706	-150.680	0.215	0.016
-155.691	69.246	0.217	-0.222
-154.677	-200.000	-0.003	0.099
-153.662	21.999	-0.301	0.245
-152.647	-200.000	0.034	-0.334
-151.633	-5.482	0.258	-0.177
-150.618	-72.992	-0.377	0.138
-149.604	363.837	0.117	0.234
-148.589	-200.000	-0.001	-0.145
-147.574	-112.311	-0.148	0.030
-146.560	-40.763	0.028	-0.014
-145.545	-118.900	0.265	-0.046
-144.531	443.187	-0.144	0.314
-143.516	-41.060	0.505	-0.261
-142.502	-42.010	0.170	0.087
-141.487	-200.000	0.017	-0.195
-140.472	19.341	0.186	0.149
-139.458	141.251	-0.024	0.031
-138.443	351.536	0.054	0.108
-137.429	-78.194	-0.335	0.115
-136.414	-200.000	0.002	-0.169
-135.399	378.686	0.067	0.136
-134.385	-200.000	0.006	0.096
-133.370	-40.643	-0.203	-0.105
-132.356	281.038	-0.156	0.278
-131.341	90.221	0.115	-0.128
-130.326	-90.354	0.104	-0.030
-129.312	120.053	0.321	0.398
-128.297	-43.285	0.393	0.199
-127.283	800.000	-0.081	-0.228
-126.268	-7.851	-0.238	0.161
-125.253	-5.377	0.430	0.295
-124.239	-200.000	-0.079	0.619
-123.224	83.800	-0.102	0.111
