DTS Sentinel unit serial number:	SN413079Multiplexer serial number:	ORYXHardware model number:	OX4-SRSoftware version number:	ORYX F/W v4.00 Oryx Data Collector v3.7.2.0data status	okinstallation	princeton_trtdifferential loss correction	single-endedforward channel	channel 2reverse channel	N/Adate	2019/09/14time	08:03:34forward acquisition time	60.00reverse acquisition time	0.00gamma	496.2192k internal	0.2334k external	0.2334temperature offset calibration	1.0128default loss term (dB/km)	0.3790temperature slope calibration	1.0000multiplexer offset coefficient	1.0000multiplexer slope coefficient	1.0000fibre end	0.00T internal ref (°C)	26.97T ext. ref 1 (°C)	3.54T ext. ref 2 (°C)	24.98length (m)	temperature (°C)	Stokes	anti-Stokes-747.200	-143.242	0.382	-0.037
-746.185	800.000	-0.049	0.206
-745.171	-31.084	-0.385	0.218
-744.156	800.000	0.023	-0.090
-743.142	-191.699	0.221	-0.002
-742.127	-30.323	0.184	0.105
-741.112	111.460	0.126	-0.153
-740.098	-200.000	0.037	0.401
-739.083	-64.077	0.248	0.102
-738.069	191.527	0.047	-0.071
-737.054	9.010	-0.276	0.209
-736.039	-200.000	-0.021	0.152
-735.025	422.019	0.068	-0.146
-734.010	-200.000	0.025	0.170
-732.996	-87.310	-0.253	0.077
-731.981	201.500	-0.054	-0.083
-730.966	158.364	-0.235	-0.328
-729.952	-147.524	0.464	0.039
-728.937	115.010	-0.069	0.085
-727.923	-69.251	0.096	0.037
-726.908	-165.186	-0.298	0.013
-725.894	-125.719	-0.110	-0.017
-724.879	277.953	0.148	-0.265
-723.864	43.421	0.212	0.195
-722.850	35.654	0.143	-0.126
-721.835	72.328	-0.160	-0.167
-720.821	-32.990	0.102	0.057
-719.806	-52.645	-0.155	0.072
-718.791	-96.650	-0.327	-0.087
-717.777	164.144	-0.232	-0.327
-716.762	800.000	0.062	0.212
-715.748	67.448	0.157	-0.161
-714.733	800.000	-0.048	0.139
-713.718	800.000	0.058	0.175
-712.704	165.390	0.094	-0.133
-711.689	-129.752	0.408	0.056
-710.675	800.000	0.056	-0.191
-709.660	-109.595	0.254	0.054
-708.645	-17.052	0.055	-0.035
-707.631	-200.000	0.049	0.275
-706.616	-200.000	-0.051	0.234
-705.602	-54.121	-0.146	0.067
-704.587	800.000	0.014	0.061
-703.572	-34.062	0.262	-0.145
-702.558	800.000	0.039	0.153
-701.543	-200.000	-0.030	0.224
-700.529	46.939	-0.209	-0.195
-699.514	-2.559	-0.087	0.061
-698.499	-33.583	-0.230	-0.127
-697.485	310.932	-0.210	0.394
-696.470	41.197	0.304	0.275
-695.456	-86.953	-0.126	0.039
-694.441	800.000	0.030	-0.125
-693.426	-29.435	0.293	-0.168
-692.412	71.583	0.293	-0.305
-691.397	56.612	-0.093	0.091
-690.383	-200.000	-0.017	-0.136
-689.368	453.204	0.093	-0.206
-688.354	-83.994	0.177	0.056
-687.339	203.574	0.050	-0.077
-686.324	-148.367	0.315	0.026
-685.310	800.000	0.058	0.230
-684.295	-63.007	0.214	0.089
-683.281	-200.000	0.038	-0.241
-682.266	89.407	0.093	-0.103
-681.251	257.689	-0.123	0.211
-680.237	149.351	-0.157	0.213
-679.222	314.705	-0.022	0.041
-678.208	-58.829	0.200	-0.087
-677.193	64.002	-0.310	-0.313
-676.178	293.707	-0.174	-0.319
-675.164	-40.380	0.125	0.065
-674.149	268.111	-0.084	0.148
-673.135	-200.000	-0.008	0.397
-672.120	-140.543	-0.275	-0.029
-671.105	-200.000	0.024	-0.244
-670.091	221.370	0.079	0.128
-669.076	-55.291	-0.098	0.044
-668.062	106.826	0.322	0.382
-667.047	800.000	-0.054	0.232
-666.032	-113.741	0.038	-0.007
-665.018	-200.000	0.028	0.274
-664.003	601.227	-0.098	0.244
-662.989	-200.000	0.019	0.362
-661.974	-107.549	-0.207	-0.045
-660.959	-141.605	-0.022	0.002
-659.945	-165.147	0.438	0.019
-658.930	232.970	-0.047	-0.077
-657.916	-200.000	-0.005	-0.269
-656.901	-200.000	-0.006	-0.054
-655.886	57.783	0.128	-0.125
-654.872	800.000	-0.042	0.155
-653.857	-200.000	-0.035	-0.240
-652.843	-26.022	-0.208	0.123
-651.828	-200.000	0.012	-0.308
-650.814	-62.589	-0.233	0.097
-649.799	800.000	0.063	0.224
-648.784	-67.730	0.128	0.050
-647.770	-200.000	0.072	0.395
-646.755	327.435	0.144	-0.277
-645.741	4.816	0.170	0.125
-644.726	-200.000	0.015	-0.105
-643.711	-75.578	-0.087	-0.031
-642.697	-52.299	-0.143	0.066
-641.682	73.899	-0.203	-0.213
-640.668	-200.000	0.027	-0.329
-639.653	29.144	-0.077	-0.065
-638.638	241.478	0.186	0.310
-637.624	521.301	0.127	-0.299
-636.609	255.855	0.124	0.212
-635.595	-200.000	0.018	-0.099
-634.580	-16.754	0.098	-0.062
-633.565	-200.000	0.002	0.275
-632.551	107.844	0.091	0.108
-631.536	-2.201	0.098	-0.069
-630.522	-34.939	0.011	-0.006
-629.507	8.185	-0.095	-0.072
-628.492	-95.016	0.220	0.060
-627.478	26.635	0.110	0.092
-626.463	-164.363	-0.366	-0.017
-625.449	-53.032	-0.212	0.097
-624.434	531.267	0.058	0.138
-623.419	-129.873	0.279	0.038
-622.405	-133.458	0.266	0.033
-621.390	42.183	-0.059	0.054
-620.376	310.943	0.124	0.233
-619.361	184.814	-0.217	-0.323
-618.346	13.783	0.113	-0.088
-617.332	126.003	-0.083	-0.105
-616.317	-200.000	-0.009	-0.132
-615.303	185.781	-0.150	-0.223
-614.288	-45.635	0.041	-0.020
-613.273	32.765	-0.056	0.048
-612.259	590.334	-0.102	-0.252
-611.244	685.595	0.160	-0.418
-610.230	-37.271	-0.221	-0.118
-609.215	-130.934	0.144	0.019
-608.201	-200.000	-0.054	-0.258
-607.186	58.007	0.197	0.193
-606.171	129.681	0.032	-0.040
-605.157	40.472	-0.113	-0.101
-604.142	-134.126	-0.343	0.042
-603.128	39.297	-0.112	-0.101
-602.113	-200.000	-0.032	-0.305
-601.098	-168.279	-0.349	-0.013
-600.084	-200.000	0.014	-0.119
-599.069	-48.955	-0.394	-0.188
-598.055	-88.631	-0.317	0.094
-597.040	417.763	0.142	-0.303
-596.025	302.513	0.160	-0.295
-595.011	-33.339	-0.220	0.121
-593.996	-67.957	0.318	-0.124
-592.982	-143.887	0.447	-0.042
-591.967	-85.276	-0.341	-0.106
-590.952	-4.772	-0.260	0.179
-589.938	211.455	-0.150	-0.235
-588.923	800.000	-0.046	-0.148
-587.909	416.838	0.041	0.087
-586.894	-200.000	0.020	-0.199
-585.879	-165.751	-0.186	0.008
-584.865	-192.743	-0.063	-0.001
-583.850	110.875	0.132	-0.159
-582.836	-200.000	-0.018	0.141
-581.821	26.022	-0.165	0.138
-580.806	257.780	-0.058	-0.099
-579.792	-168.718	-0.338	0.013
-578.777	-91.652	0.037	0.011
-577.763	-200.000	0.009	0.167
-576.748	-158.488	-0.283	0.016
-575.733	-157.636	-0.020	-0.001
-574.719	-74.169	0.156	-0.056
-573.704	273.135	-0.094	-0.165
-572.690	-173.814	0.215	-0.006
-571.675	736.338	-0.115	-0.309
-570.661	800.000	0.015	0.051
-569.646	-41.988	-0.191	-0.097
-568.631	16.882	-0.118	0.094
-567.617	-39.782	-0.260	-0.136
-566.602	-74.021	0.205	-0.074
-565.588	800.000	-0.031	0.123
-564.573	-1.779	-0.067	-0.047
-563.558	462.391	-0.162	-0.360
-562.544	-198.262	0.329	-0.002
-561.529	76.760	-0.232	0.245
-560.515	567.392	-0.093	0.225
-559.500	-40.044	0.184	-0.096
-558.485	182.355	-0.084	-0.124
-557.471	-103.627	-0.424	0.099
-556.456	-125.849	0.159	-0.024
-555.442	-151.370	-0.174	-0.013
-554.427	474.575	0.054	-0.121
-553.412	-110.414	-0.013	0.003
-552.398	-200.000	0.037	0.373
-551.383	-200.000	0.050	0.270
-550.369	800.000	-0.049	0.151
-549.354	96.405	0.222	0.253
-548.339	-184.005	-0.309	-0.005
-547.325	-200.000	0.017	0.341
-546.310	800.000	-0.131	-0.527
-545.296	800.000	-0.092	-0.278
-544.281	609.747	0.071	-0.178
-543.266	-200.000	0.004	-0.192
-542.252	546.148	0.087	0.207
-541.237	800.000	-0.147	-0.471
-540.223	320.028	0.118	0.223
-539.208	800.000	-0.029	-0.106
-538.193	43.646	-0.109	0.099
-537.179	-98.005	0.173	0.044
-536.164	-200.000	0.031	0.227
-535.150	-34.903	0.249	-0.135
-534.135	-46.528	-0.087	-0.043
-533.121	4.709	-0.284	0.208
-532.106	-52.277	-0.150	0.069
-531.091	85.474	0.119	-0.131
-530.077	166.690	-0.123	-0.174
-529.062	576.452	0.143	-0.347
-528.048	126.363	0.229	0.289
-527.033	-66.518	-0.401	-0.159
-526.018	32.011	0.141	0.121
-525.004	800.000	-0.154	0.438
-523.989	-120.038	-0.055	0.009
-522.975	-156.951	0.192	-0.012
-521.960	-200.000	0.005	0.206
-520.945	178.821	-0.111	0.161
-519.931	-42.942	0.183	0.093
-518.916	-200.000	-0.025	-0.111
-517.902	-66.489	0.053	0.021
-516.887	-43.565	-0.047	-0.024
-515.872	-16.339	0.190	0.120
-514.858	-64.442	0.104	-0.042
-513.843	-113.200	-0.253	0.050
-512.829	-96.650	0.117	-0.031
-511.814	-101.569	-0.089	-0.022
-510.799	-120.228	-0.281	-0.048
-509.785	94.321	0.097	0.110
-508.770	31.118	0.235	0.200
-507.756	-89.273	-0.270	-0.079
-506.741	-142.818	-0.103	0.010
-505.726	-81.466	-0.256	0.084
-504.712	-107.685	-0.096	0.021
-503.697	-128.934	-0.127	0.018
-502.683	292.543	0.046	-0.084
-501.668	-92.097	0.211	0.059
-500.653	49.265	-0.028	-0.027
-499.639	-200.000	0.031	0.245
-498.624	-200.000	0.019	-0.275
-497.610	-70.226	0.192	0.073
-496.595	69.389	0.214	-0.219
-495.581	25.200	-0.168	0.139
-494.566	-112.450	0.372	0.074
-493.551	286.927	-0.120	-0.216
-492.537	87.714	0.316	-0.348
-491.522	-13.921	-0.154	0.099
-490.508	-200.000	-0.019	0.149
-489.493	-93.676	0.356	0.098
-488.478	51.070	-0.221	-0.209
-487.464	-145.446	0.174	-0.016
-486.449	373.386	0.211	-0.426
-485.435	110.955	-0.149	-0.178
-484.420	-92.384	-0.234	-0.066
-483.405	-19.133	0.221	0.136
-482.391	-15.141	-0.180	0.114
-481.376	-200.000	0.060	-0.286
-480.362	83.640	-0.086	0.093
-479.347	-200.000	0.381	-0.000
-478.332	496.760	-0.053	-0.122
-477.318	-36.301	0.152	-0.082
-476.303	-68.263	-0.166	0.064
-475.289	75.585	0.034	-0.036
-474.274	-169.808	0.157	-0.006
-473.259	232.304	-0.083	-0.136
-472.245	-98.220	-0.299	-0.076
-471.230	-160.877	-0.241	0.013
-470.216	800.000	0.041	-0.161
-469.201	-115.429	0.120	-0.023
-468.186	-158.760	0.263	-0.015
-467.172	82.455	-0.015	-0.017
-466.157	-159.269	0.101	-0.006
-465.143	-200.000	0.022	-0.180
-464.128	325.081	0.072	-0.137
-463.113	-63.702	0.270	0.110
-462.099	-63.362	0.203	0.083
-461.084	-140.234	-0.161	-0.017
-460.070	39.472	0.239	-0.213
-459.055	505.380	-0.071	-0.164
-458.040	-122.346	0.208	-0.034
-457.026	56.482	-0.090	0.087
-456.011	410.601	0.132	0.278
-454.997	17.270	-0.107	-0.085
-453.982	-20.913	0.053	0.032
-452.968	-143.684	-0.230	0.022
-451.953	800.000	-0.040	0.136
-450.938	-82.716	0.296	0.095
-449.924	800.000	0.058	0.211
-448.909	175.059	0.066	0.095
-447.895	171.348	-0.076	0.108
-446.880	101.473	-0.113	-0.131
-445.865	-54.462	0.323	0.145
-444.851	-51.809	-0.039	-0.018
-443.836	128.204	-0.190	-0.241
-442.822	-9.573	-0.282	0.187
-441.807	529.799	-0.112	0.262
-440.792	-200.000	-0.043	0.220
-439.778	20.428	-0.263	-0.211
-438.763	800.000	0.084	0.281
-437.749	-107.514	0.222	-0.048
-436.734	31.688	-0.285	-0.243
-435.719	-171.369	-0.246	0.008
-434.705	-164.383	0.424	-0.019
-433.690	-196.356	0.263	0.002
-432.676	-200.000	0.002	-0.095
-431.661	-200.000	-0.029	-0.370
-430.646	-146.466	-0.159	-0.014
-429.632	-200.000	0.044	-0.293
-428.617	800.000	0.077	-0.258
-427.603	-81.141	0.028	-0.009
-426.588	-92.464	-0.039	-0.011
-425.573	311.093	-0.082	-0.153
-424.559	-108.806	-0.186	-0.040
-423.544	146.079	0.036	-0.048
-422.530	-200.000	-0.102	-0.511
-421.515	251.315	0.074	0.125
-420.500	610.697	-0.051	-0.125
-419.486	90.536	-0.053	0.059
-418.471	285.876	0.235	0.421
-417.457	447.717	-0.124	-0.272
-416.442	285.456	-0.201	-0.360
-415.428	-58.765	-0.287	0.123
-414.413	800.000	0.058	-0.218
-413.398	156.236	-0.039	-0.054
-412.384	800.000	0.043	-0.133
-411.369	-167.612	-0.139	0.005
-410.355	-64.365	-0.091	-0.037
-409.340	24.392	0.207	-0.169
-408.325	-36.427	0.291	-0.156
-407.311	800.000	0.036	-0.145
-406.296	-121.317	-0.118	0.020
-405.282	366.762	-0.096	0.191
-404.267	38.837	-0.334	-0.296
-403.252	-117.544	0.202	0.036
-402.238	-200.000	0.025	0.303
-401.223	-60.845	-0.103	0.043
-400.209	-59.747	0.022	-0.009
-399.194	44.935	-0.247	0.226
-398.179	12.216	-0.090	-0.069
-397.165	51.554	-0.191	0.180
-396.150	-200.000	-0.020	0.270
-395.136	2.877	0.207	-0.149
-394.121	-73.084	0.026	-0.010
-393.106	277.557	-0.058	0.102
-392.092	-200.000	0.009	-0.130
-391.077	-200.000	-0.055	-0.274
-390.063	-81.826	0.056	0.018
-389.048	-135.475	0.196	-0.023
-388.033	-148.432	-0.162	-0.013
-387.019	91.747	-0.204	0.228
-386.004	116.946	0.241	0.293
-384.990	-107.102	-0.195	0.043
-383.975	285.246	-0.083	-0.147
-382.960	309.021	0.105	-0.195
-381.946	153.396	0.039	0.052
-380.931	552.518	-0.114	0.271
-379.917	-35.694	0.046	0.025
-378.902	-200.000	-0.001	-0.142
-377.888	-154.227	0.333	0.022
-376.873	7.319	0.164	-0.121
-375.858	-200.000	-0.003	-0.086
-374.844	645.603	-0.069	0.176
-373.829	-94.056	0.429	-0.117
-372.815	75.769	-0.069	-0.072
-371.800	-200.000	-0.013	0.061
-370.785	-7.318	0.137	-0.092
-369.771	-70.766	0.198	-0.074
-368.756	-200.000	-0.013	-0.379
-367.742	-19.021	0.107	0.066
-366.727	-200.000	0.025	0.327
-365.712	-12.620	0.079	0.051
-364.698	285.941	-0.250	-0.447
-363.683	120.279	-0.240	-0.295
-362.669	-109.276	-0.241	-0.051
-361.654	-200.000	-0.011	0.171
-360.639	70.948	-0.155	-0.159
-359.625	-8.071	0.077	-0.051
-358.610	-41.765	0.167	-0.085
-357.596	-200.000	-0.024	-0.270
-356.581	63.801	-0.170	-0.169
-355.566	17.724	0.153	-0.121
-354.552	-16.645	0.266	0.167
-353.537	29.959	-0.079	-0.066
-352.523	800.000	-0.119	0.350
-351.508	-200.000	0.064	-0.281
-350.493	90.606	-0.143	-0.159
-349.479	-17.464	-0.333	-0.207
-348.464	479.437	0.125	-0.280
-347.450	-25.317	-0.135	0.079
-346.435	-118.276	-0.107	-0.019
-345.420	58.593	-0.092	-0.090
-344.406	5.042	0.216	0.157
-343.391	-51.564	-0.294	0.136
-342.377	-200.000	0.076	0.380
-341.362	-200.000	-0.019	-0.098
-340.348	53.295	0.247	0.234
-339.333	800.000	-0.066	0.223
-338.318	-200.000	0.005	0.039
-337.304	7.447	0.127	0.094
-336.289	-146.422	0.089	0.008
-335.275	-200.000	-0.039	-0.204
-334.260	800.000	0.086	0.240
-333.245	5.790	-0.274	-0.200
-332.231	-18.751	-0.208	-0.128
-331.216	408.327	-0.153	-0.319
-330.202	417.351	-0.137	0.290
-329.187	-200.000	0.034	0.411
-328.172	-151.031	-0.333	0.025
-327.158	800.000	0.072	0.245
-326.143	-200.000	0.002	0.230
-325.129	-55.785	0.229	-0.101
-324.114	-17.300	-0.256	0.159
-323.099	107.810	-0.319	0.375
-322.085	-76.794	-0.096	-0.033
-321.070	206.761	-0.146	-0.224
-320.056	255.292	-0.140	-0.237
-319.041	170.984	-0.206	-0.292
-318.026	-200.000	0.010	0.167
-317.012	109.906	-0.118	0.140
-315.997	-63.208	0.139	0.057
-314.983	-200.000	0.019	0.195
-313.968	128.930	-0.122	0.154
-312.953	-115.629	-0.250	0.046
-311.939	29.417	0.089	0.074
-310.924	-141.563	-0.158	0.016
-309.910	391.577	-0.019	0.039
-308.895	-39.895	0.061	0.031
-307.880	-120.779	0.193	0.032
-306.866	-200.000	0.020	0.109
-305.851	-200.000	-0.007	0.148
-304.837	800.000	-0.068	0.229
-303.822	732.229	-0.042	-0.110
-302.807	-52.036	-0.139	-0.064
-301.793	197.039	0.031	0.047
-300.778	800.000	0.097	0.330
-299.764	-19.249	-0.430	0.264
-298.749	-82.200	-0.237	-0.076
-297.735	208.225	0.051	0.078
-296.720	60.978	-0.070	0.069
-295.705	112.019	0.138	-0.164
-294.691	-82.828	-0.132	0.042
-293.676	-115.592	0.160	-0.030
-292.662	87.647	0.105	-0.115
-291.647	-170.779	-0.131	0.004
-290.632	-19.796	-0.326	-0.199
-289.618	-200.000	0.043	0.199
-288.603	121.045	0.219	0.269
-287.589	-115.466	0.286	0.053
-286.574	-18.454	-0.269	-0.166
-285.559	-107.703	0.074	0.016
-284.545	701.021	-0.053	-0.137
-283.530	-200.000	0.048	-0.257
-282.516	-179.063	-0.207	-0.005
-281.501	-78.234	0.330	0.112
-280.486	-158.485	0.119	-0.007
-279.472	-200.000	0.040	0.250
-278.457	-168.950	0.229	0.008
-277.443	-200.000	-0.005	-0.101
-276.428	-89.162	-0.162	0.047
-275.413	-200.000	0.017	0.299
-274.399	243.934	0.080	0.132
-273.384	-200.000	-0.028	0.254
-272.370	80.379	0.042	0.045
-271.355	74.031	-0.092	0.095
-270.340	-200.000	0.028	-0.254
-269.326	98.771	0.114	0.130
-268.311	10.631	-0.060	-0.045
-267.297	-200.000	0.032	0.380
-266.282	604.269	-0.074	-0.180
-265.267	-37.757	0.117	0.061
-264.253	-120.927	-0.260	0.043
-263.238	-117.897	-0.237	0.042
-262.224	-200.000	0.041	-0.182
-261.209	-130.845	0.187	0.025
-260.195	-100.615	0.124	0.030
-259.180	-200.000	-0.007	-0.266
-258.165	426.694	0.177	0.376
-257.151	335.915	-0.179	-0.343
-256.136	-200.000	-0.014	0.431
-255.122	238.305	0.146	0.239
-254.107	668.185	-0.052	0.133
-253.092	-200.000	-0.033	0.156
-252.078	-67.252	-0.133	-0.052
-251.063	122.585	0.279	-0.343
-250.049	398.605	-0.058	0.120
-249.034	800.000	0.098	0.405
-248.019	32.782	-0.315	0.269
-247.005	-83.167	0.129	0.041
-245.990	336.737	0.067	-0.128
-244.976	27.249	0.194	0.161
-243.961	169.341	-0.261	-0.367
-242.946	-200.000	0.003	-0.255
-241.932	-200.000	0.010	-0.138
-240.917	-200.000	-0.005	-0.180
-239.903	-89.265	-0.029	-0.008
-238.888	-200.000	-0.005	0.083
-237.873	-83.711	0.154	-0.048
-236.859	-77.574	-0.200	-0.068
-235.844	-121.246	0.246	0.041
-234.830	800.000	0.082	0.243
-233.815	148.405	0.233	0.310
-232.800	-81.697	0.091	0.029
-231.786	-13.090	0.421	0.270
-230.771	101.750	0.039	0.045
-229.757	230.155	0.169	0.272
-228.742	-121.252	-0.103	0.017
-227.727	128.218	0.249	0.312
-226.713	-43.941	0.212	0.105
-225.698	159.048	-0.076	-0.105
-224.684	800.000	0.054	-0.224
-223.669	43.569	-0.095	-0.086
-222.655	-151.670	0.208	0.015
-221.640	-148.227	0.561	0.046
-220.625	-110.656	-0.389	-0.079
-219.611	745.696	-0.120	0.318
-218.596	-80.466	0.238	0.078
-217.582	200.049	0.075	-0.113
-216.567	241.007	0.114	-0.188
-215.552	-61.415	-0.592	0.245
-214.538	23.322	-0.112	0.090
-213.523	800.000	-0.024	0.075
-212.509	35.722	0.157	0.136
-211.494	-200.000	-0.001	-0.086
-210.479	-160.112	-0.152	-0.008
-209.465	-70.312	0.205	0.076
-208.450	-130.091	0.100	-0.013
-207.436	-27.305	-0.121	0.069
-206.421	-126.089	0.242	-0.036
-205.406	-53.469	0.145	0.065
-204.392	-156.107	-0.236	-0.015
-203.377	-42.031	0.228	-0.115
-202.363	59.314	0.133	0.129
-201.348	172.879	0.093	-0.132
-200.333	-200.000	0.006	-0.207
-199.319	-91.196	0.329	-0.093
-198.304	-90.287	0.388	-0.111
-197.290	-76.147	0.104	-0.036
-196.275	-100.373	0.306	0.075
-195.260	107.123	0.165	0.193
-194.246	-176.104	0.298	0.008
-193.231	-37.750	-0.211	-0.111
-192.217	72.175	0.192	0.197
-191.202	-143.047	-0.162	0.015
-190.187	197.302	-0.163	0.244
-189.173	800.000	0.119	-0.332
-188.158	-35.141	-0.058	-0.031
-187.144	-135.288	0.341	-0.040
-186.129	-147.174	-0.264	0.022
-185.114	800.000	-0.044	-0.142
-184.100	35.596	0.241	0.208
-183.085	95.264	0.098	-0.110
-182.071	257.148	-0.117	-0.198
-181.056	290.967	0.081	-0.146
-180.042	-186.058	-0.319	0.005
-179.027	128.609	-0.120	-0.150
-178.012	-200.000	-0.001	-0.062
-176.998	-200.000	-0.037	0.344
-175.983	-113.007	0.073	-0.014
-174.969	100.609	-0.126	0.144
-173.954	800.000	-0.050	0.203
-172.939	53.329	0.123	0.116
-171.925	26.539	0.035	0.029
-170.910	-80.730	0.139	-0.045
-169.896	11.776	0.260	0.196
-168.881	-83.578	0.199	0.062
-167.866	-94.679	-0.282	0.075
-166.852	414.149	0.080	0.168
-165.837	13.282	0.277	0.211
-164.823	239.044	0.136	-0.222
-163.808	-41.080	-0.524	0.266
-162.793	-200.000	-0.002	-0.151
-161.779	-146.429	0.173	0.015
-160.764	183.409	-0.018	0.026
-159.750	142.560	-0.092	0.120
-158.735	70.190	0.192	-0.195
-157.720	13.774	0.181	-0.138
-156.706	800.000	-0.022	0.073
-155.691	98.681	-0.191	0.216
-154.677	-159.412	0.190	0.010
-153.662	800.000	0.030	0.117
-152.647	-200.000	0.029	0.224
-151.633	106.941	0.091	-0.106
-150.618	536.691	-0.125	0.291
-149.604	553.072	-0.206	0.486
-148.589	-200.000	0.001	-0.178
-147.574	-148.538	0.359	-0.029
-146.560	184.214	-0.055	0.081
-145.545	-43.326	0.057	0.028
-144.531	-30.476	0.288	0.160
-143.516	800.000	0.053	0.205
-142.502	800.000	-0.073	0.256
-141.487	-35.669	-0.200	0.106
-140.472	782.581	-0.113	0.302
-139.458	134.506	0.044	0.055
-138.443	-200.000	-0.011	-0.366
-137.429	51.074	0.147	0.137
-136.414	-200.000	-0.042	-0.191
-135.399	211.176	0.068	0.105
-134.385	-9.397	0.246	-0.161
-133.370	-200.000	-0.007	-0.361
-132.356	-59.713	0.203	0.085
-131.341	37.090	0.125	0.108
-130.326	18.781	-0.168	0.132
-129.312	-75.832	-0.131	0.046
-128.297	-138.688	0.441	0.047
-127.283	-116.251	0.159	-0.029
-126.268	-48.243	-0.158	-0.075
-125.253	95.292	-0.080	-0.090
-124.239	-200.000	0.003	0.185
-123.224	800.000	0.032	-0.093
-122.210	800.000	0.024	-0.086
-121.195	-48.251	-0.174	0.082
