DTS Sentinel unit serial number:	SN413079Multiplexer serial number:	ORYXHardware model number:	OX4-SRSoftware version number:	ORYX F/W v4.00 Oryx Data Collector v3.7.2.0data status	okinstallation	princeton_trtdifferential loss correction	single-endedforward channel	channel 2reverse channel	N/Adate	2019/09/12time	01:21:11forward acquisition time	60.00reverse acquisition time	0.00gamma	496.2192k internal	0.2326k external	0.2326temperature offset calibration	1.0086default loss term (dB/km)	0.3790temperature slope calibration	1.0000multiplexer offset coefficient	1.0000multiplexer slope coefficient	1.0000fibre end	0.00T internal ref (°C)	33.00T ext. ref 1 (°C)	2.07T ext. ref 2 (°C)	27.90length (m)	temperature (°C)	Stokes	anti-Stokes-747.200	800.000	0.046	0.186
-746.185	-200.000	0.008	0.192
-745.171	-73.900	0.091	-0.033
-744.156	-28.217	0.162	0.094
-743.142	800.000	0.026	0.095
-742.127	-80.814	-0.445	0.149
-741.112	113.937	-0.084	0.103
-740.098	335.393	-0.245	0.479
-739.083	-120.616	-0.104	-0.018
-738.069	783.636	0.074	0.206
-737.054	86.800	-0.114	-0.127
-736.039	-94.038	-0.187	-0.052
-735.025	150.183	0.096	0.132
-734.010	-107.115	0.063	-0.014
-732.996	-200.000	0.001	-0.085
-731.981	-58.743	0.095	0.041
-730.966	-30.877	0.121	0.069
-729.952	-67.469	-0.202	0.080
-728.937	-69.324	-0.452	0.175
-727.923	-111.130	-0.173	0.036
-726.908	481.894	0.048	0.110
-725.894	32.933	-0.389	0.339
-724.879	-9.546	0.249	-0.168
-723.864	-23.286	-0.252	0.153
-722.850	-50.201	0.133	-0.063
-721.835	800.000	-0.059	0.176
-720.821	-2.820	0.073	0.051
-719.806	-152.063	-0.305	-0.022
-718.791	-90.729	0.195	0.057
-717.777	273.368	0.159	0.284
-716.762	800.000	-0.042	0.131
-715.748	-27.969	-0.196	-0.114
-714.733	161.451	-0.157	-0.222
-713.718	39.103	0.196	0.177
-712.704	50.165	-0.171	-0.163
-711.689	133.398	0.182	-0.237
-710.675	371.217	0.186	-0.380
-709.660	65.054	-0.245	0.249
-708.645	68.594	-0.075	-0.077
-707.631	169.495	-0.061	0.088
-706.616	-68.488	-0.140	-0.055
-705.602	-200.000	-0.018	0.122
-704.587	-60.398	0.104	-0.044
-703.572	124.640	-0.135	0.171
-702.558	335.320	-0.092	0.179
-701.543	-65.173	-0.250	0.101
-700.529	-3.490	-0.238	0.167
-699.514	16.547	0.179	-0.142
-698.499	37.493	-0.190	-0.170
-697.485	-24.817	0.026	-0.015
-696.470	281.027	0.161	-0.291
-695.456	33.746	-0.205	-0.179
-694.441	800.000	-0.039	0.157
-693.426	-173.970	-0.192	0.006
-692.412	-6.862	-0.119	-0.081
-691.397	-200.000	-0.013	-0.072
-690.383	-115.595	0.215	0.041
-689.368	204.876	0.158	-0.247
-688.354	-59.581	-0.340	0.147
-687.339	-157.822	0.060	0.004
-686.324	800.000	-0.050	0.159
-685.310	119.469	-0.175	-0.218
-684.295	800.000	-0.044	-0.124
-683.281	-103.409	-0.277	0.066
-682.266	147.705	-0.134	-0.182
-681.251	-52.014	-0.507	0.237
-680.237	520.482	-0.083	-0.196
-679.222	-2.236	-0.200	0.141
-678.208	-164.966	-0.094	0.004
-677.193	-14.487	-0.121	-0.078
-676.178	-72.127	-0.211	0.079
-675.164	448.847	-0.156	0.346
-674.149	-77.267	0.255	-0.089
-673.135	-70.032	0.125	-0.048
-672.120	-49.834	0.362	0.173
-671.105	-62.574	-0.235	0.098
-670.091	-127.238	-0.339	0.050
-669.076	-101.149	-0.081	-0.020
-668.062	10.842	-0.124	0.095
-667.047	-165.223	0.352	0.016
-666.032	800.000	0.022	-0.090
-665.018	-90.466	-0.207	-0.060
-664.003	-0.166	-0.031	0.022
-662.989	-200.000	-0.022	-0.098
-661.974	-200.000	0.025	-0.120
-660.959	4.121	-0.231	-0.170
-659.945	800.000	-0.084	0.247
-658.930	-200.000	0.068	-0.334
-657.916	-141.379	-0.275	-0.028
-656.901	45.856	0.147	-0.136
-655.886	-77.504	0.256	0.089
-654.872	196.242	-0.060	0.091
-653.857	2.256	-0.217	-0.158
-652.843	-94.005	0.243	0.067
-651.828	36.220	-0.175	-0.155
-650.814	728.070	-0.028	0.075
-649.799	159.478	0.014	0.019
-648.784	89.108	0.017	-0.019
-647.770	-200.000	-0.016	0.096
-646.755	-124.116	-0.164	0.026
-645.741	-109.838	-0.184	-0.039
-644.726	-34.985	0.193	0.106
-643.711	-31.533	-0.474	-0.268
-642.697	-182.528	-0.127	-0.002
-641.682	-200.000	0.024	-0.329
-640.668	800.000	-0.053	-0.198
-639.653	-95.452	-0.393	-0.106
-638.638	-90.870	-0.120	0.035
-637.624	9.798	0.149	0.114
-636.609	-200.000	0.002	-0.011
-635.595	800.000	-0.105	-0.327
-634.580	-200.000	0.029	-0.167
-633.565	-80.194	-0.258	0.087
-632.551	-53.990	-0.197	0.090
-631.536	-126.070	-0.218	-0.033
-630.522	-200.000	0.073	0.342
-629.507	-200.000	-0.008	-0.394
-628.492	-200.000	0.001	-0.072
-627.478	-35.213	-0.098	0.054
-626.463	-120.134	-0.258	0.044
-625.449	25.423	0.177	0.148
-624.434	-181.874	-0.087	0.002
-623.419	73.438	-0.359	-0.378
-622.405	78.575	0.290	-0.311
-621.390	-141.398	0.170	0.017
-620.376	-76.529	0.262	0.092
-619.361	-56.923	0.087	0.038
-618.346	129.911	-0.143	-0.184
-617.332	-200.000	-0.069	-0.319
-616.317	10.357	0.179	-0.137
-615.303	-71.602	0.286	0.107
-614.288	-200.000	0.001	-0.022
-613.273	710.864	-0.063	0.168
-612.259	-200.000	-0.148	-0.000
-611.244	558.067	-0.059	-0.143
-610.230	800.000	-0.055	0.197
-609.215	-33.886	-0.064	-0.035
-608.201	8.013	0.425	-0.320
-607.186	769.473	-0.127	-0.347
-606.171	543.595	-0.104	0.249
-605.157	96.072	0.235	0.269
-604.142	-155.234	-0.485	-0.032
-603.128	456.612	0.050	-0.112
-602.113	12.021	-0.085	-0.065
-601.098	-200.000	0.004	-0.167
-600.084	-163.628	-0.510	-0.024
-599.069	-38.417	0.142	0.076
-598.055	-154.475	-0.158	0.011
-597.040	-139.662	0.130	-0.014
-596.025	391.353	-0.066	0.137
-595.011	-82.050	-0.210	0.069
-593.996	-200.000	-0.006	-0.117
-592.982	53.640	-0.009	-0.009
-591.967	-50.558	0.035	0.017
-590.952	220.429	0.064	-0.102
-589.938	-105.560	0.065	0.015
-588.923	-51.214	0.066	0.031
-587.909	63.952	-0.216	-0.217
-586.894	-45.722	-0.091	0.045
-585.879	-182.176	-0.200	0.004
-584.865	-200.000	-0.000	-0.147
-583.850	356.003	-0.138	-0.275
-582.836	14.092	-0.184	-0.144
-581.821	800.000	-0.107	-0.384
-580.806	21.712	-0.052	0.043
-579.792	-200.000	0.033	-0.192
-578.777	242.781	0.170	-0.285
-577.763	109.042	-0.087	0.105
-576.748	383.083	-0.100	0.206
-575.733	623.543	-0.099	-0.249
-574.719	-27.917	-0.179	0.104
-573.704	152.720	0.330	-0.452
-572.690	8.812	-0.141	0.107
-571.675	-200.000	0.017	0.362
-570.661	-200.000	0.008	0.245
-569.646	-57.942	-0.127	0.056
-568.631	-155.033	-0.259	-0.017
-567.617	753.041	0.086	0.232
-566.602	380.340	-0.192	0.393
-565.588	-200.000	-0.008	-0.213
-564.573	-33.351	-0.252	-0.139
-563.558	-37.006	0.085	0.046
-562.544	237.450	-0.033	-0.055
-561.529	29.224	0.240	-0.204
-560.515	484.853	-0.103	0.235
-559.500	248.429	-0.013	0.022
-558.485	-200.000	-0.001	0.013
-557.471	-169.093	0.202	-0.008
-556.456	265.619	-0.206	-0.359
-555.442	-200.000	0.095	-0.595
-554.427	394.946	0.147	-0.306
-553.412	-200.000	-0.044	0.195
-552.398	35.231	0.100	0.088
-551.383	38.417	-0.204	-0.182
-550.369	800.000	-0.071	-0.241
-549.354	-200.000	0.002	0.053
-548.339	-113.045	0.312	0.062
-547.325	109.928	0.201	-0.242
-546.310	-107.299	0.148	-0.032
-545.296	800.000	-0.092	-0.358
-544.281	-200.000	-0.008	-0.315
-543.266	-46.036	-0.261	-0.128
-542.252	-200.000	0.040	0.527
-541.237	99.740	0.298	-0.345
-540.223	-165.265	-0.122	0.005
-539.208	-61.302	0.088	-0.037
-538.193	-200.000	0.062	0.301
-537.179	-120.739	-0.334	-0.056
-536.164	176.332	-0.109	0.158
-535.150	669.145	0.070	0.180
-534.135	-67.656	-0.067	-0.026
-533.121	-82.169	-0.372	0.121
-532.106	92.869	-0.189	0.214
-531.091	3.188	0.167	-0.122
-530.077	800.000	-0.087	-0.242
-529.062	-26.471	0.187	0.110
-528.048	-47.505	-0.182	0.088
-527.033	-65.183	0.207	0.084
-526.018	-200.000	-0.016	-0.130
-525.004	800.000	0.077	0.315
-523.989	-74.747	-0.156	0.056
-522.975	-127.209	0.049	-0.007
-521.960	-186.768	0.246	0.003
-520.945	613.657	0.072	0.180
-519.931	393.674	-0.072	-0.150
-518.916	-157.229	-0.352	-0.021
-517.902	-71.226	-0.136	0.051
-516.887	375.938	0.056	-0.115
-515.872	2.553	-0.256	0.185
-514.858	-200.000	0.026	-0.115
-513.843	-200.000	0.035	-0.161
-512.829	-32.032	0.310	0.173
-511.814	-200.000	0.019	0.300
-510.799	390.172	0.176	-0.365
-509.785	210.454	-0.126	-0.197
-508.770	-99.205	-0.384	0.097
-507.756	782.202	0.023	0.062
-506.741	85.706	0.191	0.210
-505.726	-70.425	-0.259	-0.098
-504.712	-88.658	0.253	0.075
-503.697	37.855	-0.185	0.164
-502.683	800.000	0.098	-0.297
-501.668	-105.752	-0.207	0.047
-500.653	-7.035	0.212	-0.144
-499.639	177.440	-0.038	-0.055
-498.624	712.101	0.068	0.180
-497.610	-200.000	0.010	0.067
-496.595	-72.753	-0.103	-0.038
-495.581	-126.535	0.229	0.034
-494.566	-200.000	-0.010	-0.133
-493.551	-12.517	0.069	-0.045
-492.537	127.374	-0.154	0.195
-491.522	-49.968	0.271	0.128
-490.508	56.438	-0.215	0.208
-489.493	20.294	0.092	0.074
-488.478	48.086	0.133	-0.124
-487.464	-102.552	-0.075	0.018
-486.449	-15.105	0.262	-0.168
-485.435	-38.522	-0.159	0.084
-484.420	-200.000	0.001	0.336
-483.405	4.801	0.090	0.066
-482.391	-136.089	-0.198	0.023
-481.376	261.467	0.149	-0.257
-480.362	-141.042	-0.053	-0.005
-479.347	-38.023	-0.132	-0.070
-478.332	-35.150	-0.262	-0.142
-477.318	18.381	0.052	-0.042
-476.303	-73.821	0.190	-0.069
-475.289	106.300	-0.034	-0.040
-474.274	6.635	-0.223	-0.165
-473.259	-5.929	-0.167	-0.114
-472.245	242.528	-0.109	-0.182
-471.230	-44.321	0.224	0.112
-470.216	21.266	0.211	0.171
-469.201	800.000	0.032	0.122
-468.186	-139.068	-0.193	-0.021
-467.172	-60.577	-0.088	-0.037
-466.157	-173.191	-0.208	-0.006
-465.143	-104.123	0.122	-0.028
-464.128	89.348	-0.077	0.085
-463.113	-31.394	0.179	-0.100
-462.099	-39.224	0.196	-0.103
-461.084	236.016	0.169	-0.279
-460.070	708.825	-0.153	-0.403
-459.055	13.361	0.253	-0.196
-458.040	-3.344	-0.187	-0.130
-457.026	-136.815	0.144	0.017
-456.011	-111.830	0.134	-0.027
-454.997	-71.642	0.231	0.086
-453.982	316.289	0.063	0.118
-452.968	26.557	-0.242	-0.202
-451.953	-47.414	-0.128	0.062
-450.938	-101.893	0.103	-0.025
-449.924	-125.582	0.468	-0.071
-448.909	187.095	-0.127	-0.189
-447.895	-80.153	0.237	-0.079
-446.880	-10.436	-0.125	0.083
-445.865	-78.551	0.101	-0.035
-444.851	-200.000	0.033	0.480
-443.836	-128.668	0.044	-0.006
-442.822	-31.465	-0.266	-0.149
-441.807	-200.000	-0.036	0.340
-440.792	237.837	0.246	0.406
-439.778	202.824	0.090	0.139
-438.763	-200.000	-0.023	-0.202
-437.749	-13.121	-0.270	0.175
-436.734	67.051	0.056	-0.057
-435.719	83.428	-0.057	0.062
-434.705	-200.000	0.051	0.569
-433.690	162.925	-0.276	0.386
-432.676	800.000	0.073	-0.239
-431.661	39.738	-0.240	-0.214
-430.646	800.000	-0.051	0.140
-429.632	-200.000	-0.010	0.058
-428.617	-200.000	0.004	-0.047
-427.603	326.057	0.160	0.305
-426.588	30.249	0.203	-0.173
-425.573	-152.275	0.410	-0.029
-424.559	288.753	0.118	-0.214
-423.544	-119.439	-0.059	0.010
-422.530	186.374	0.174	-0.258
-421.515	-145.564	-0.253	0.023
-420.500	-169.536	0.345	0.013
-419.486	-200.000	0.031	0.495
-418.471	-200.000	0.013	0.206
-417.457	61.561	-0.201	-0.199
-416.442	168.605	-0.116	0.164
-415.428	-61.349	0.284	-0.119
-414.413	800.000	-0.114	-0.405
-413.398	-12.164	0.202	-0.131
-412.384	-80.892	0.293	-0.097
-411.369	800.000	-0.054	0.196
-410.355	-161.063	-0.520	-0.027
-409.340	77.002	0.249	0.263
-408.325	6.725	-0.274	-0.203
-407.311	756.322	-0.055	-0.148
-406.296	51.389	-0.083	0.079
-405.282	-80.690	0.183	0.061
-404.267	-118.336	0.241	0.043
-403.252	83.105	-0.227	0.246
-402.238	4.462	0.090	-0.065
-401.223	-17.342	0.245	0.153
-400.209	89.401	0.129	-0.143
-399.194	12.523	-0.197	0.151
-398.179	-41.054	0.254	0.131
-397.165	-200.000	-0.207	-0.001
-396.150	-44.264	-0.152	-0.076
-395.136	-200.000	0.003	0.076
-394.121	270.202	0.091	0.159
-393.106	-200.000	-0.001	-0.290
-392.092	-200.000	0.041	-0.377
-391.077	-30.833	0.246	0.138
-390.063	-123.862	-0.233	-0.037
-389.048	-186.698	-0.416	0.006
-388.033	237.520	-0.085	-0.141
-387.019	-107.039	-0.262	0.057
-386.004	-200.000	-0.048	0.477
-384.990	29.134	-0.075	0.064
-383.975	-198.766	-0.115	0.001
-382.960	-25.637	-0.210	-0.123
-381.946	262.300	0.088	-0.151
-380.931	538.431	0.100	0.237
-379.917	542.635	-0.061	-0.145
-378.902	-38.803	0.092	0.048
-377.888	368.317	-0.039	-0.078
-376.873	120.517	0.082	0.101
-375.858	-47.397	-0.052	0.025
-374.844	25.699	-0.053	-0.044
-373.829	-106.774	-0.249	-0.055
-372.815	25.752	0.114	0.094
-371.800	72.459	0.104	0.108
-370.785	-200.000	-0.008	0.117
-369.771	-93.636	0.255	-0.070
-368.756	800.000	0.089	-0.278
-367.742	166.045	0.252	0.355
-366.727	800.000	-0.044	-0.138
-365.712	-121.867	-0.151	0.025
-364.698	42.762	-0.191	0.173
-363.683	-96.318	-0.014	0.004
-362.669	-25.102	0.111	-0.065
-361.654	369.426	-0.190	0.382
-360.639	359.879	-0.201	0.400
-359.625	-31.062	-0.291	-0.163
-358.610	-88.175	0.094	0.028
-357.596	-200.000	-0.013	0.212
-356.581	-97.939	0.410	0.105
-355.566	-39.283	0.407	-0.212
-354.552	-81.621	-0.168	-0.055
-353.537	172.363	0.002	0.003
-352.523	-200.000	-0.016	0.269
-351.508	-7.861	0.300	0.201
-350.493	233.123	-0.056	-0.091
-349.479	55.066	0.079	0.076
-348.464	-200.000	0.032	0.189
-347.450	-200.000	0.020	-0.105
-346.435	-98.991	0.232	-0.058
-345.420	800.000	0.159	0.440
-344.406	789.008	0.078	-0.213
-343.391	-74.514	0.118	-0.042
-342.377	-140.565	0.331	-0.034
-341.362	-115.458	-0.161	-0.030
-340.348	-65.131	0.234	-0.094
-339.333	661.367	-0.045	-0.115
-338.318	51.465	-0.228	-0.215
-337.304	105.674	-0.104	0.123
-336.289	316.122	0.161	-0.302
-335.275	110.873	0.106	0.127
-334.260	-200.000	-0.016	0.141
-333.245	-127.593	0.115	-0.017
-332.231	289.651	-0.124	0.223
-331.216	-200.000	0.053	0.428
-330.202	800.000	-0.091	0.301
-329.187	-27.608	-0.225	0.130
-328.172	94.427	-0.325	-0.366
-327.158	43.192	0.302	-0.274
-326.143	800.000	0.036	0.099
-325.129	-87.522	0.110	-0.033
-324.114	265.007	0.074	0.127
-323.099	-200.000	-0.007	-0.079
-322.085	-21.120	-0.113	0.068
-321.070	-200.000	0.006	-0.144
-320.056	-200.000	-0.031	-0.143
-319.041	-21.433	-0.257	-0.155
-318.026	-200.000	-0.030	0.155
-317.012	-200.000	-0.047	-0.234
-315.997	-200.000	0.014	-0.074
-314.983	800.000	-0.037	-0.130
-313.968	-70.579	0.345	-0.129
-312.953	260.385	0.098	0.169
-311.939	-200.000	-0.027	0.198
-310.924	72.520	-0.132	0.137
-309.910	-16.366	0.238	0.150
-308.895	190.186	0.124	0.185
-307.880	93.832	0.020	0.023
-306.866	-51.442	-0.284	0.132
-305.851	-138.962	0.427	-0.046
-304.837	-7.691	-0.133	0.089
-303.822	-48.927	0.128	0.061
-302.807	100.138	0.074	0.085
-301.793	71.478	0.111	0.114
-300.778	28.756	0.143	-0.120
-299.764	-81.580	0.183	-0.059
-298.749	-22.421	0.295	0.177
-297.735	-67.382	-0.099	-0.038
-296.720	-54.975	-0.222	-0.099
-295.705	-27.214	0.243	-0.140
-294.691	-78.222	-0.171	0.058
-293.676	-25.188	0.319	0.187
-292.662	58.095	-0.115	0.112
-291.647	-159.107	0.241	-0.013
-290.632	-200.000	0.055	0.440
-289.618	-200.000	0.040	0.276
-288.603	-152.761	0.121	0.009
-287.589	800.000	0.129	-0.397
-286.574	-29.426	0.298	-0.169
-285.559	693.687	0.075	-0.195
-284.545	-153.803	0.161	-0.011
-283.530	49.982	0.253	-0.236
-282.516	-166.604	-0.314	0.013
-281.501	-78.145	0.134	-0.046
-280.486	-2.829	0.220	0.152
-279.472	-5.385	0.093	-0.063
-278.457	221.933	-0.113	0.179
-277.443	318.398	0.139	-0.261
-276.428	-200.000	-0.004	-0.085
-275.413	-35.468	0.118	-0.063
-274.399	-149.328	-0.292	0.023
-273.384	92.149	-0.254	-0.283
-272.370	-13.544	0.148	-0.095
-271.355	189.747	-0.103	-0.153
-270.340	331.101	0.153	-0.293
-269.326	-84.781	-0.156	0.049
-268.311	242.391	-0.118	-0.196
-267.297	-200.000	-0.060	-0.281
-266.282	-128.643	0.338	0.047
-265.267	-200.000	-0.100	0.450
-264.253	-65.469	0.388	-0.154
-263.238	192.037	0.048	0.071
-262.224	-127.878	0.353	-0.050
-261.209	34.078	0.261	0.225
-260.195	34.968	0.125	0.108
-259.180	-4.184	0.158	-0.108
-258.165	789.177	-0.120	0.326
-257.151	27.818	-0.167	-0.139
-256.136	-157.771	0.484	-0.028
-255.122	386.210	-0.228	0.467
-254.107	800.000	0.076	-0.266
-253.092	-200.000	0.017	0.343
-252.078	-33.574	-0.177	0.097
-251.063	-111.498	0.287	-0.058
-250.049	-119.045	-0.352	0.061
-249.034	-200.000	-0.030	0.304
-248.019	77.132	-0.199	-0.210
-247.005	-123.708	-0.034	0.005
-245.990	-200.000	0.029	0.215
-244.976	800.000	-0.032	-0.118
-243.961	-62.798	-0.066	0.027
-242.946	-52.025	-0.254	0.117
-241.932	211.472	-0.106	0.165
-240.917	-200.000	-0.044	-0.335
-239.903	-67.897	-0.186	0.072
-238.888	-132.421	-0.291	0.037
-237.873	-70.139	-0.416	-0.156
-236.859	-135.238	0.146	-0.017
-235.844	100.656	-0.203	-0.234
-234.830	-110.533	-0.075	-0.015
-233.815	374.370	0.226	0.455
-232.800	56.737	0.129	-0.124
-231.786	-106.527	0.129	0.028
-230.771	-200.000	0.026	0.277
-229.757	-200.000	-0.002	0.089
-228.742	-200.000	0.050	-0.284
-227.727	-32.382	0.275	-0.152
-226.713	-92.225	-0.293	-0.082
-225.698	72.711	0.064	0.065
-224.684	266.082	0.151	0.260
-223.669	-40.048	-0.114	-0.059
-222.655	-200.000	0.064	-0.380
-221.640	-72.434	-0.105	-0.038
-220.625	294.359	-0.053	-0.096
-219.611	-200.000	0.047	0.384
-218.596	471.457	-0.168	-0.374
-217.582	442.499	-0.064	0.139
-216.567	128.554	0.234	-0.295
-215.552	-200.000	0.058	-0.263
-214.538	-200.000	-0.029	0.164
-213.523	-200.000	0.101	0.467
-212.509	-110.811	0.424	-0.086
-211.494	-161.671	-0.118	0.006
-210.479	703.846	0.136	-0.355
-209.465	800.000	-0.021	0.070
-208.450	-18.041	-0.281	-0.174
-207.436	299.404	-0.163	-0.296
-206.421	-200.000	0.020	0.115
-205.406	-4.146	-0.079	0.054
-204.392	42.371	-0.195	0.175
-203.377	-113.143	0.141	0.027
-202.363	118.525	-0.120	0.146
-201.348	-200.000	0.078	0.411
-200.333	-178.005	-0.362	0.008
-199.319	800.000	-0.055	0.185
-198.304	321.235	-0.141	0.264
-197.290	-108.443	0.086	-0.018
-196.275	800.000	0.101	0.329
-195.260	247.162	0.110	0.183
-194.246	406.608	0.165	0.343
-193.231	6.592	-0.271	-0.199
-192.217	75.498	-0.264	-0.275
-191.202	-200.000	0.033	-0.474
-190.187	264.332	-0.127	0.217
-189.173	348.075	-0.039	-0.076
-188.158	-200.000	0.017	0.236
-187.144	-71.222	0.382	0.142
-186.129	-200.000	0.013	-0.336
-185.114	135.869	0.092	0.118
-184.100	54.271	-0.013	0.012
-183.085	2.336	0.212	-0.151
-182.071	-130.418	-0.266	0.036
-181.056	575.391	0.055	-0.133
-180.042	144.115	0.023	0.031
-179.027	-43.429	0.205	-0.102
-178.012	-159.182	-0.222	0.012
-176.998	-30.189	0.271	-0.152
-175.983	84.256	-0.070	0.075
-174.969	-200.000	0.000	0.409
-173.954	-8.449	0.286	-0.190
-172.939	-115.649	0.289	0.053
-171.925	190.683	-0.076	0.112
-170.910	800.000	-0.072	-0.268
-169.896	245.428	-0.074	0.122
-168.881	741.072	0.122	0.323
-167.866	73.196	-0.114	0.117
-166.852	13.853	-0.193	-0.148
-165.837	-92.754	-0.204	-0.056
-164.823	95.721	-0.044	0.050
-163.808	-200.000	0.060	0.307
-162.793	-29.079	0.192	0.109
-161.779	800.000	0.070	0.270
-160.764	-127.678	-0.075	0.011
-159.750	-133.052	-0.165	0.021
-158.735	419.148	0.077	0.162
-157.720	-2.656	0.033	-0.023
-156.706	800.000	0.086	-0.337
-155.691	724.656	-0.025	0.065
-154.677	256.506	-0.197	-0.333
-153.662	349.141	-0.062	0.120
-152.647	301.752	0.030	-0.055
-151.633	93.083	0.103	0.114
-150.618	-200.000	-0.052	0.295
-149.604	44.399	0.147	0.133
-148.589	363.699	-0.098	0.195
-147.574	-50.640	-0.273	-0.127
-146.560	-200.000	-0.004	0.154
-145.545	11.135	-0.177	-0.134
-144.531	800.000	-0.083	-0.251
-143.516	28.880	0.192	-0.160
-142.502	-48.731	-0.257	-0.121
-141.487	23.240	-0.197	-0.160
-140.472	33.270	0.133	-0.113
-139.458	436.824	-0.060	-0.129
-138.443	23.913	-0.136	0.111
-137.429	57.892	-0.104	0.100
-136.414	-39.730	0.263	0.135
-135.399	-141.463	0.375	-0.037
-134.385	203.616	-0.026	0.039
-133.370	678.183	-0.113	-0.291
-132.356	679.835	-0.060	0.154
-131.341	-75.582	0.357	0.125
-130.326	271.832	0.149	-0.259
-129.312	-102.793	-0.465	0.109
-128.297	51.389	-0.196	0.183
-127.283	-85.167	-0.015	0.005
-126.268	-88.532	0.405	0.119
-125.253	800.000	0.065	0.246
-124.239	356.452	0.089	0.175
-123.224	-169.647	-0.126	0.004
-122.210	800.000	-0.086	-0.275
-121.195	-194.449	-0.146	-0.001
