DTS Sentinel unit serial number:	SN413079Multiplexer serial number:	ORYXHardware model number:	OX4-SRSoftware version number:	ORYX F/W v4.00 Oryx Data Collector v3.7.2.0data status	okinstallation	princeton_trtdifferential loss correction	single-endedforward channel	channel 2reverse channel	N/Adate	2019/09/15time	04:03:35forward acquisition time	60.00reverse acquisition time	0.00gamma	496.2192k internal	0.2325k external	0.2325temperature offset calibration	1.0029default loss term (dB/km)	0.3790temperature slope calibration	1.0000multiplexer offset coefficient	1.0000multiplexer slope coefficient	1.0000fibre end	0.00T internal ref (°C)	30.94T ext. ref 1 (°C)	4.61T ext. ref 2 (°C)	25.87length (m)	temperature (°C)	Stokes	anti-Stokes-747.200	-200.000	-0.023	-0.214
-746.185	30.103	-0.315	0.271
-745.171	-28.779	-0.092	0.053
-744.156	-77.840	-0.094	0.033
-743.142	-139.700	0.351	-0.038
-742.127	-200.000	0.019	0.085
-741.112	238.915	0.075	-0.126
-740.098	800.000	-0.121	0.467
-739.083	-1.205	0.069	-0.049
-738.069	468.826	-0.054	0.121
-737.054	114.539	0.098	-0.120
-736.039	-200.000	0.021	0.346
-735.025	325.997	-0.071	0.136
-734.010	800.000	0.036	0.127
-732.996	-42.699	-0.384	-0.197
-731.981	91.471	0.223	-0.253
-730.966	495.557	0.083	-0.192
-729.952	-38.836	0.304	-0.162
-728.937	188.638	-0.118	0.178
-727.923	-93.761	-0.263	-0.073
-726.908	-200.000	0.034	-0.169
-725.894	-41.727	-0.243	0.126
-724.879	-169.127	0.181	0.007
-723.864	800.000	-0.053	-0.172
-722.850	102.622	-0.082	-0.097
-721.835	-58.874	-0.119	-0.052
-720.821	-91.881	-0.323	0.092
-719.806	227.798	-0.099	0.162
-718.791	800.000	-0.070	0.219
-717.777	-55.970	-0.080	-0.036
-716.762	442.299	0.119	-0.263
-715.748	-42.191	-0.404	-0.208
-714.733	-200.000	0.010	0.316
-713.718	-118.954	0.300	-0.053
-712.704	800.000	-0.091	-0.279
-711.689	-58.972	-0.230	0.100
-710.675	15.612	-0.078	-0.061
-709.660	128.771	0.114	0.147
-708.645	-37.633	0.172	-0.092
-707.631	800.000	0.018	-0.063
-706.616	-151.993	0.251	-0.018
-705.602	800.000	-0.044	-0.133
-704.587	-30.860	-0.149	0.085
-703.572	-3.922	-0.067	-0.047
-702.558	800.000	-0.050	-0.208
-701.543	-200.000	0.011	0.081
-700.529	-99.547	-0.270	0.068
-699.514	-124.612	-0.206	0.032
-698.499	16.356	0.167	-0.133
-697.485	97.614	-0.333	-0.385
-696.470	-150.009	0.099	-0.008
-695.456	-105.280	0.085	-0.019
-694.441	-18.513	-0.122	0.076
-693.426	-13.737	-0.368	0.240
-692.412	800.000	-0.059	-0.201
-691.397	-164.875	-0.372	-0.017
-690.383	113.206	-0.148	0.181
-689.368	59.030	0.135	0.134
-688.354	68.563	0.156	-0.161
-687.339	800.000	0.028	0.110
-686.324	-141.763	0.142	-0.014
-685.310	-26.665	0.019	0.011
-684.295	-45.007	-0.044	-0.022
-683.281	349.118	0.151	0.301
-682.266	-115.294	-0.114	-0.022
-681.251	-50.545	-0.434	0.206
-680.237	76.866	0.079	0.085
-679.222	139.804	-0.077	-0.102
-678.208	98.028	-0.135	-0.156
-677.193	-90.761	-0.336	-0.098
-676.178	107.880	0.121	-0.145
-675.164	100.861	-0.196	-0.229
-674.149	-200.000	-0.010	0.057
-673.135	-200.000	-0.063	0.299
-672.120	-18.057	0.118	0.075
-671.105	-93.597	0.263	0.073
-670.091	-47.099	-0.165	-0.081
-669.076	-90.818	-0.352	0.102
-668.062	-200.000	-0.054	0.390
-667.047	-145.663	-0.277	0.025
-666.032	202.071	-0.082	0.127
-665.018	645.259	0.074	0.191
-664.003	-180.489	0.155	0.003
-662.989	20.795	0.128	-0.104
-661.974	76.592	-0.168	-0.180
-660.959	-174.552	0.382	0.011
-659.945	40.316	-0.081	-0.073
-658.930	-130.677	0.398	0.054
-657.916	244.171	0.104	0.175
-656.901	119.688	-0.266	0.331
-655.886	-200.000	0.046	-0.372
-654.872	124.111	0.088	0.111
-653.857	361.387	-0.115	0.232
-652.843	-200.000	-0.035	0.237
-651.828	-136.398	-0.120	-0.014
-650.814	-74.112	-0.291	-0.106
-649.799	-200.000	0.070	-0.529
-648.784	-200.000	-0.018	0.239
-647.770	-74.730	-0.469	0.169
-646.755	-200.000	-0.032	-0.167
-645.741	83.114	0.067	0.074
-644.726	-111.427	-0.134	0.027
-643.711	-35.086	-0.444	-0.243
-642.697	210.458	-0.091	-0.144
-641.682	-94.787	-0.314	0.086
-640.668	650.258	0.050	-0.128
-639.653	-200.000	0.009	0.321
-638.638	417.709	-0.074	0.159
-637.624	-200.000	-0.006	-0.058
-636.609	-76.866	0.091	0.032
-635.595	-200.000	0.044	-0.199
-634.580	251.287	-0.277	0.474
-633.565	160.425	0.029	-0.040
-632.551	35.396	-0.198	0.175
-631.536	-86.803	0.032	0.010
-630.522	-118.214	0.122	-0.022
-629.507	126.943	-0.165	-0.210
-628.492	-96.940	0.184	-0.049
-627.478	148.575	0.062	-0.084
-626.463	-200.000	-0.020	0.311
-625.449	-129.054	-0.185	0.026
-624.434	139.186	-0.061	0.080
-623.419	-200.000	-0.021	0.278
-622.405	-103.217	-0.334	0.079
-621.390	-108.470	0.136	-0.029
-620.376	186.989	0.129	0.193
-619.361	28.471	0.224	0.190
-618.346	800.000	0.050	0.172
-617.332	69.965	-0.035	-0.036
-616.317	800.000	-0.115	-0.483
-615.303	800.000	-0.080	0.256
-614.288	-102.915	0.166	0.040
-613.273	384.777	0.100	0.207
-612.259	-69.643	-0.437	-0.168
-611.244	-200.000	0.011	-0.197
-610.230	7.076	-0.205	0.154
-609.215	430.217	0.052	-0.113
-608.201	-119.341	-0.419	-0.073
-607.186	-130.859	-0.063	0.008
-606.171	254.504	0.109	0.187
-605.157	-148.921	0.440	0.036
-604.142	1.240	0.122	-0.088
-603.128	-112.333	-0.120	0.024
-602.113	-17.787	0.262	-0.165
-601.098	-4.834	-0.374	-0.258
-600.084	46.329	0.163	-0.151
-599.069	-13.135	0.062	-0.041
-598.055	-200.000	0.025	0.210
-597.040	-163.166	0.245	0.012
-596.025	-77.759	0.211	0.073
-595.011	-115.340	0.238	-0.045
-593.996	-91.538	-0.110	-0.031
-592.982	800.000	-0.054	0.228
-591.967	12.321	-0.305	-0.236
-590.952	-190.350	-0.071	-0.001
-589.938	305.483	0.111	-0.206
-588.923	64.693	-0.261	-0.264
-587.909	-75.203	0.066	-0.024
-586.894	147.389	0.143	0.193
-585.879	-200.000	-0.009	0.297
-584.865	-138.739	0.213	0.023
-583.850	-124.005	-0.291	-0.046
-582.836	41.587	-0.303	-0.275
-581.821	139.195	-0.079	-0.104
-580.806	56.644	-0.333	-0.325
-579.792	-125.091	0.241	-0.037
-578.777	209.225	0.091	0.143
-577.763	-51.191	-0.172	-0.081
-576.748	-200.000	0.044	0.200
-575.733	403.513	0.062	0.131
-574.719	-20.710	-0.153	0.094
-573.704	289.621	-0.031	-0.056
-572.690	10.939	0.405	0.310
-571.675	174.839	-0.002	0.002
-570.661	25.415	-0.278	-0.231
-569.646	800.000	0.043	-0.129
-568.631	-35.477	0.215	-0.117
-567.617	-74.480	-0.335	0.121
-566.602	-64.990	0.298	-0.121
-565.588	800.000	0.022	0.094
-564.573	-118.696	0.167	-0.029
-563.558	9.095	0.083	-0.063
-562.544	800.000	-0.015	-0.053
-561.529	115.717	-0.132	-0.161
-560.515	-19.439	0.178	0.111
-559.500	-200.000	0.031	-0.221
-558.485	7.087	-0.160	-0.120
-557.471	-200.000	0.055	0.290
-556.456	48.515	-0.198	0.186
-555.442	14.900	-0.112	0.088
-554.427	-167.535	-0.140	0.006
-553.412	-200.000	-0.009	0.329
-552.398	-187.220	0.526	-0.007
-551.383	58.316	-0.110	-0.108
-550.369	279.558	-0.120	0.215
-549.354	-16.272	0.258	0.164
-548.339	-96.171	-0.363	-0.096
-547.325	-130.616	0.114	-0.015
-546.310	-200.000	0.011	0.063
-545.296	-110.650	-0.176	0.037
-544.281	800.000	0.112	0.395
-543.266	103.581	-0.063	0.074
-542.252	800.000	0.038	0.153
-541.237	-2.107	-0.090	0.063
-540.223	75.954	-0.020	0.021
-539.208	179.759	-0.068	0.100
-538.193	-147.104	-0.083	0.007
-537.179	-183.958	-0.027	-0.000
-536.164	-200.000	-0.019	-0.159
-535.150	-148.586	0.047	-0.004
-534.135	-6.576	-0.001	0.001
-533.121	76.474	0.248	0.263
-532.106	111.959	0.182	-0.220
-531.091	-65.602	0.119	0.048
-530.077	250.537	-0.126	-0.215
-529.062	-200.000	0.196	-0.000
-528.048	-200.000	0.085	-0.469
-527.033	102.568	-0.083	-0.097
-526.018	800.000	-0.069	0.262
-525.004	-111.145	0.226	-0.046
-523.989	-16.253	-0.514	-0.327
-522.975	-200.000	0.011	-0.152
-521.960	800.000	-0.062	-0.193
-520.945	97.001	-0.158	0.182
-519.931	265.308	-0.127	0.221
-518.916	225.557	0.089	0.144
-517.902	-132.098	-0.468	-0.061
-516.887	640.519	-0.061	-0.155
-515.872	96.277	-0.080	0.092
-514.858	34.154	-0.152	-0.132
-513.843	-99.633	0.222	0.056
-512.829	446.888	0.064	-0.140
-511.814	-157.007	0.281	0.017
-510.799	-200.000	-0.013	0.127
-509.785	-175.473	-0.566	0.015
-508.770	115.595	0.139	0.169
-507.756	-99.952	-0.272	0.068
-506.741	92.261	-0.027	-0.030
-505.726	-192.853	0.070	-0.001
-504.712	196.357	0.184	-0.281
-503.697	216.648	-0.056	0.089
-502.683	9.481	0.470	-0.356
-501.668	-30.722	0.127	0.072
-500.653	43.822	-0.090	0.082
-499.639	32.607	-0.384	-0.332
-498.624	776.461	0.115	0.314
-497.610	128.691	-0.174	0.221
-496.595	245.788	-0.188	0.316
-495.581	-139.781	-0.235	0.025
-494.566	800.000	-0.062	-0.268
-493.551	16.921	-0.228	0.180
-492.537	-17.110	-0.328	0.207
-491.522	29.263	-0.305	0.259
-490.508	-105.109	0.060	0.014
-489.493	800.000	-0.013	-0.041
-488.478	-36.223	0.208	0.112
-487.464	-70.027	-0.067	-0.026
-486.449	254.581	-0.167	0.285
-485.435	-169.715	0.126	0.005
-484.420	304.402	-0.066	0.121
-483.405	-121.754	0.181	0.030
-482.391	15.525	0.251	0.197
-481.376	800.000	-0.059	0.244
-480.362	-184.664	-0.139	0.002
-479.347	800.000	0.048	-0.180
-478.332	-200.000	0.009	-0.220
-477.318	72.514	-0.261	-0.272
-476.303	207.752	-0.044	0.069
-475.289	-200.000	-0.038	-0.183
-474.274	-76.852	-0.133	-0.046
-473.259	175.034	-0.063	-0.091
-472.245	-200.000	-0.022	-0.113
-471.230	79.020	0.131	0.140
-470.216	61.661	0.178	-0.177
-469.201	-200.000	-0.005	-0.176
-468.186	61.913	-0.176	0.175
-467.172	800.000	-0.025	0.094
-466.157	-200.000	-0.010	0.107
-465.143	-57.241	0.352	-0.155
-464.128	-141.024	0.205	0.021
-463.113	800.000	0.040	0.119
-462.099	-200.000	0.023	-0.195
-461.084	800.000	-0.052	-0.205
-460.070	-200.000	-0.012	0.188
-459.055	-137.465	-0.178	-0.020
-458.040	800.000	0.025	-0.079
-457.026	-87.484	-0.084	-0.025
-456.011	32.770	-0.391	-0.337
-454.997	-173.089	0.447	-0.014
-453.982	-146.018	-0.192	0.017
-452.968	-200.000	-0.008	0.312
-451.953	-102.711	-0.259	0.062
-450.938	18.012	-0.043	-0.034
-449.924	800.000	-0.108	-0.371
-448.909	-116.448	0.465	-0.086
-447.895	314.306	-0.041	-0.077
-446.880	800.000	-0.048	0.153
-445.865	-96.739	-0.246	0.064
-444.851	-200.000	0.040	-0.340
-443.836	398.966	0.147	0.308
-442.822	332.047	0.133	0.256
-441.807	-33.532	-0.334	-0.184
-440.792	-100.128	0.168	-0.042
-439.778	-146.250	-0.316	-0.028
-438.763	-26.690	-0.427	-0.249
-437.749	234.400	-0.126	-0.208
-436.734	-200.000	0.040	-0.252
-435.719	800.000	-0.039	0.134
-434.705	-7.707	-0.250	-0.168
-433.690	-111.596	0.234	0.047
-432.676	-60.502	-0.094	-0.040
-431.661	800.000	-0.060	0.173
-430.646	288.053	-0.161	0.290
-429.632	189.475	-0.210	-0.314
-428.617	-200.000	0.050	-0.296
-427.603	224.400	0.149	-0.240
-426.588	289.156	-0.037	-0.067
-425.573	-47.810	0.314	0.151
-424.559	16.871	-0.271	-0.214
-423.544	617.283	0.066	0.165
-422.530	495.099	-0.099	0.227
-421.515	-200.000	-0.064	0.358
-420.500	-85.289	0.300	0.093
-419.486	-200.000	0.009	0.207
-418.471	-162.430	0.138	0.007
-417.457	6.204	-0.046	-0.034
-416.442	-150.555	-0.400	-0.030
-415.428	125.356	-0.053	0.067
-414.413	470.577	0.139	0.312
-413.398	-200.000	0.001	-0.347
-412.384	-145.974	-0.192	0.017
-411.369	73.383	0.219	0.228
-410.355	-14.210	-0.245	0.157
-409.340	-200.000	-0.015	0.119
-408.325	-200.000	0.041	0.203
-407.311	-56.026	-0.217	0.097
-406.296	-116.712	-0.164	-0.030
-405.282	-74.071	-0.102	0.037
-404.267	-166.820	0.218	-0.009
-403.252	-13.506	-0.194	0.125
-402.238	-200.000	-0.004	0.073
-401.223	-200.000	0.023	-0.152
-400.209	800.000	0.049	-0.149
-399.194	34.996	0.308	0.269
-398.179	-200.000	-0.029	0.130
-397.165	800.000	0.048	0.141
-396.150	25.000	0.146	0.121
-395.136	800.000	0.071	0.302
-394.121	-91.358	-0.299	0.085
-393.106	8.751	-0.050	-0.037
-392.092	64.763	-0.282	0.283
-391.077	-200.000	0.020	0.260
-390.063	-161.800	0.393	0.020
-389.048	-200.000	-0.042	0.191
-388.033	672.993	-0.029	0.074
-387.019	-49.115	-0.155	-0.074
-386.004	-134.861	0.241	-0.029
-384.990	63.721	0.141	-0.141
-383.975	251.951	-0.057	0.096
-382.960	-187.842	-0.320	0.004
-381.946	-200.000	0.015	-0.206
-380.931	800.000	-0.092	0.259
-379.917	-200.000	-0.004	-0.099
-378.902	-98.879	-0.212	-0.053
-377.888	-200.000	0.035	0.209
-376.873	228.019	0.142	0.230
-375.858	137.493	0.226	-0.294
-374.844	-28.739	-0.224	-0.128
-373.829	95.688	0.070	-0.079
-372.815	327.371	-0.092	0.176
-371.800	-63.420	0.274	0.112
-370.785	-200.000	-0.008	0.060
-369.771	-22.488	-0.169	0.102
-368.756	106.562	0.130	0.154
-367.742	800.000	0.046	-0.193
-366.727	800.000	0.083	-0.329
-365.712	-200.000	-0.037	-0.194
-364.698	326.724	-0.144	-0.275
-363.683	241.425	0.047	-0.078
-362.669	-72.235	0.179	-0.066
-361.654	-79.673	-0.065	0.022
-360.639	-0.090	-0.179	-0.127
-359.625	-133.189	-0.165	0.021
-358.610	-157.251	0.271	-0.016
-357.596	-134.923	-0.150	-0.018
-356.581	-95.237	0.206	-0.055
-355.566	407.545	-0.188	0.394
-354.552	-117.705	0.252	-0.045
-353.537	220.079	-0.052	-0.082
-352.523	453.191	0.106	0.233
-351.508	-200.000	-0.004	-0.029
-350.493	186.330	-0.086	-0.127
-349.479	800.000	-0.027	0.091
-348.464	800.000	-0.044	0.190
-347.450	-142.853	-0.127	-0.012
-346.435	306.416	-0.130	-0.241
-345.420	-200.000	0.001	-0.253
-344.406	-98.915	-0.190	0.048
-343.391	12.353	0.199	0.152
-342.377	-53.015	0.053	-0.024
-341.362	17.194	-0.112	0.088
-340.348	117.000	-0.054	0.066
-339.333	40.664	0.234	0.210
-338.318	17.592	0.159	0.126
-337.304	235.407	0.083	-0.137
-336.289	-40.765	-0.174	0.090
-335.275	-97.275	0.380	0.098
-334.260	800.000	-0.028	-0.116
-333.245	-4.732	0.127	0.087
-332.231	800.000	0.055	-0.175
-331.216	800.000	-0.020	-0.085
-330.202	-46.079	0.496	-0.243
-329.187	126.602	-0.274	-0.344
-328.172	36.571	-0.107	0.094
-327.158	210.316	-0.091	-0.142
-326.143	-130.415	0.363	0.049
-325.129	201.994	-0.133	0.204
-324.114	116.626	0.098	0.119
-323.099	-148.305	0.604	-0.049
-322.085	238.782	-0.205	-0.339
-321.070	800.000	0.055	0.177
-320.056	308.605	0.056	0.104
-319.041	-200.000	0.067	-0.306
-318.026	294.616	0.184	-0.334
-317.012	-25.999	-0.085	0.049
-315.997	-200.000	0.025	0.267
-314.983	800.000	-0.102	-0.321
-313.968	382.719	0.025	-0.051
-312.953	23.597	-0.165	-0.135
-311.939	161.501	0.144	-0.201
-310.924	800.000	-0.039	0.131
-309.910	117.064	0.070	-0.086
-308.895	-200.000	0.030	0.220
-307.880	109.585	0.147	0.174
-306.866	-92.470	0.238	0.066
-305.851	-11.784	0.114	-0.074
-304.837	18.645	-0.289	0.229
-303.822	-93.019	-0.140	0.039
-302.807	174.720	-0.113	0.163
-301.793	-134.326	0.266	0.032
-300.778	-63.638	-0.116	-0.047
-299.764	226.051	-0.050	0.080
-298.749	-200.000	0.044	0.412
-297.735	576.257	-0.047	0.113
-296.720	-200.000	-0.040	-0.179
-295.705	-75.822	-0.109	0.038
-294.691	76.672	-0.050	-0.053
-293.676	42.358	0.269	-0.242
-292.662	-28.542	-0.048	0.027
-291.647	800.000	0.062	-0.196
-290.632	-74.897	0.383	0.136
-289.618	262.867	-0.087	-0.150
-288.603	102.968	-0.086	0.099
-287.589	-149.222	0.309	0.025
-286.574	-200.000	-0.003	-0.179
-285.559	15.090	-0.108	-0.084
-284.545	-169.544	-0.326	-0.012
-283.530	336.436	0.079	-0.151
-282.516	-78.079	0.144	-0.049
-281.501	800.000	0.080	-0.222
-280.486	-78.488	0.138	-0.047
-279.472	-117.478	0.274	0.049
-278.457	79.525	0.153	-0.163
-277.443	-152.240	-0.257	0.018
-276.428	-92.943	0.470	0.130
-275.413	-200.000	-0.018	0.386
-274.399	-110.716	0.379	-0.078
-273.384	-95.929	-0.037	-0.010
-272.370	-98.666	0.213	0.054
-271.355	800.000	-0.058	-0.160
-270.340	7.221	0.064	0.047
-269.326	800.000	0.034	0.142
-268.311	-57.738	0.119	0.052
-267.297	-200.000	-0.017	-0.169
-266.282	-115.418	0.140	-0.026
-265.267	92.846	-0.220	0.247
-264.253	-77.018	-0.161	-0.056
-263.238	250.552	0.088	0.149
-262.224	-200.000	-0.029	0.143
-261.209	800.000	-0.068	0.209
-260.195	181.396	-0.110	-0.160
-259.180	800.000	-0.109	-0.329
-258.165	180.177	0.061	0.089
-257.151	-190.331	-0.109	0.001
-256.136	95.197	-0.167	0.189
-255.122	-200.000	0.021	-0.119
-254.107	-200.000	0.036	-0.325
-253.092	196.859	-0.058	0.087
-252.078	-68.041	0.256	0.099
-251.063	2.371	-0.178	0.127
-250.049	721.215	-0.081	-0.212
-249.034	615.630	0.135	-0.334
-248.019	86.011	0.319	0.348
-247.005	-57.969	0.212	-0.091
-245.990	-200.000	0.025	-0.125
-244.976	670.213	0.084	-0.216
-243.961	-200.000	-0.009	-0.058
-242.946	549.464	-0.062	0.146
-241.932	-45.178	0.282	0.139
-240.917	800.000	0.073	0.247
-239.903	-52.328	0.243	-0.111
-238.888	-50.506	-0.393	-0.183
-237.873	528.686	-0.081	-0.188
-236.859	-26.238	0.171	-0.099
-235.844	615.416	-0.047	-0.116
-234.830	-40.775	0.451	0.231
-233.815	-96.226	0.268	0.070
-232.800	398.410	-0.133	0.274
-231.786	-200.000	0.017	0.381
-230.771	-109.940	0.278	-0.058
-229.757	141.722	-0.102	-0.134
-228.742	-200.000	0.031	-0.219
-227.727	800.000	-0.035	0.122
-226.713	261.813	0.170	-0.291
-225.698	-62.677	-0.129	-0.053
-224.684	-38.637	-0.150	-0.078
-223.669	-16.024	-0.094	0.059
-222.655	-53.194	0.183	0.083
-221.640	13.254	0.204	0.156
-220.625	-97.339	0.258	-0.066
-219.611	-154.811	0.374	0.024
-218.596	-17.956	-0.188	-0.116
-217.582	-39.442	-0.236	-0.122
-216.567	-71.811	-0.172	0.063
-215.552	-148.939	0.202	-0.016
-214.538	-7.758	-0.183	-0.122
-213.523	186.061	0.061	0.090
-212.509	14.104	-0.045	0.035
-211.494	800.000	-0.044	-0.190
-210.479	-66.355	0.512	0.201
-209.465	-103.138	0.211	0.049
-208.450	310.795	0.067	0.124
-207.436	63.070	0.048	0.048
-206.421	-200.000	0.005	-0.217
-205.406	619.843	-0.071	0.177
-204.392	-152.446	-0.699	0.050
-203.377	-122.626	0.247	0.040
-202.363	-172.150	0.378	-0.012
-201.348	800.000	0.068	-0.241
-200.333	800.000	-0.027	-0.115
-199.319	262.391	0.203	0.348
-198.304	-17.543	0.285	-0.177
-197.290	429.806	-0.042	0.091
-196.275	71.299	0.153	0.156
-195.260	800.000	-0.030	0.117
-194.246	-200.000	-0.013	-0.121
-193.231	-200.000	0.038	0.221
-192.217	-107.960	-0.085	-0.018
-191.202	422.947	0.242	0.514
-190.187	538.168	0.114	0.268
-189.173	118.629	-0.143	-0.175
-188.158	-92.288	-0.271	-0.075
-187.144	-61.329	-0.188	-0.078
-186.129	-200.000	0.013	-0.264
-185.114	599.485	-0.164	-0.403
-184.100	-153.639	-0.140	0.010
-183.085	68.720	-0.232	-0.235
-182.071	-200.000	-0.002	-0.045
-181.056	-176.012	0.325	-0.009
-180.042	140.940	-0.068	0.089
-179.027	-200.000	0.035	-0.256
-178.012	-155.172	0.297	-0.019
-176.998	-200.000	0.011	0.359
-175.983	506.727	-0.115	-0.263
-174.969	-59.536	-0.193	-0.082
-173.954	-108.337	0.125	-0.027
-172.939	-71.016	0.329	-0.122
-171.925	190.748	0.121	-0.179
-170.910	-197.215	0.088	0.001
-169.896	-200.000	0.044	-0.329
-168.881	-200.000	0.056	-0.261
-167.866	-200.000	0.000	0.275
-166.852	312.816	0.008	0.014
-165.837	800.000	-0.031	0.091
-164.823	-89.514	-0.346	-0.100
-163.808	-200.000	0.013	-0.307
-162.793	-190.431	0.031	-0.000
-161.779	-76.210	-0.088	0.030
-160.764	-47.842	-0.128	0.061
-159.750	-200.000	0.005	-0.120
-158.735	-70.700	-0.204	0.076
-157.720	511.370	0.149	0.341
-156.706	-52.803	0.109	0.049
-155.691	-200.000	0.024	-0.446
-154.677	94.838	-0.163	-0.183
-153.662	800.000	0.031	-0.094
-152.647	-195.873	0.311	0.002
-151.633	324.203	-0.066	-0.125
-150.618	166.274	0.336	-0.469
-149.604	-88.221	-0.207	0.061
-148.589	-172.568	0.242	0.008
-147.574	-200.000	-0.026	0.264
-146.560	171.284	-0.220	-0.311
-145.545	-31.062	0.342	0.190
-144.531	-68.138	-0.148	-0.057
-143.516	-184.105	0.181	-0.003
-142.502	455.116	0.034	0.075
-141.487	-7.311	-0.062	-0.042
-140.472	154.180	-0.159	0.214
-139.458	347.994	-0.146	0.283
-138.443	-75.480	-0.259	0.091
-137.429	17.455	-0.233	-0.183
-136.414	184.995	0.135	-0.197
-135.399	0.385	0.186	0.131
-134.385	444.321	-0.220	0.476
-133.370	46.114	0.086	-0.078
-132.356	-200.000	-0.021	-0.159
-131.341	1.140	0.071	-0.050
-130.326	-112.479	0.410	0.081
-129.312	331.418	-0.087	0.165
-128.297	-10.256	0.292	0.191
-127.283	48.210	-0.154	-0.142
-126.268	-102.323	-0.222	0.053
-125.253	-45.868	0.203	0.099
-124.239	-26.973	0.078	0.045
-123.224	-17.735	0.266	-0.164
-122.210	800.000	-0.172	-0.538
