DTS Sentinel unit serial number:	SN413079Multiplexer serial number:	ORYXHardware model number:	OX4-SRSoftware version number:	ORYX F/W v4.00 Oryx Data Collector v3.7.2.0data status	okinstallation	princeton_trtdifferential loss correction	single-endedforward channel	channel 2reverse channel	N/Adate	2019/09/12time	17:25:11forward acquisition time	60.00reverse acquisition time	0.00gamma	496.2192k internal	0.2324k external	0.2324temperature offset calibration	1.0134default loss term (dB/km)	0.3790temperature slope calibration	1.0000multiplexer offset coefficient	1.0000multiplexer slope coefficient	1.0000fibre end	0.00T internal ref (°C)	34.78T ext. ref 1 (°C)	2.84T ext. ref 2 (°C)	28.74length (m)	temperature (°C)	Stokes	anti-Stokes-747.200	-83.804	-0.257	-0.083
-746.185	319.248	0.123	-0.236
-745.171	84.602	0.067	-0.074
-744.156	198.972	-0.102	0.157
-743.142	-200.000	0.006	-0.237
-742.127	-105.815	0.112	-0.026
-741.112	90.040	0.194	0.219
-740.098	-200.000	-0.053	0.341
-739.083	-127.660	-0.299	-0.044
-738.069	-10.077	-0.309	0.207
-737.054	-10.932	0.264	-0.176
-736.039	86.837	0.226	0.252
-735.025	-200.000	0.003	0.268
-734.010	177.388	0.075	0.111
-732.996	165.649	-0.245	-0.350
-731.981	81.311	-0.223	-0.243
-730.966	-97.719	-0.298	0.078
-729.952	331.954	-0.054	-0.105
-728.937	-76.412	0.138	-0.049
-727.923	-200.000	-0.001	-0.033
-726.908	800.000	0.035	0.147
-725.894	-182.390	-0.455	0.008
-724.879	-187.474	0.282	0.004
-723.864	-42.720	-0.185	-0.095
-722.850	-200.000	-0.220	-0.000
-721.835	79.103	-0.179	-0.193
-720.821	-200.000	-0.015	-0.076
-719.806	-90.824	-0.308	-0.089
-718.791	-57.712	-0.305	0.135
-717.777	19.205	-0.432	0.349
-716.762	-79.070	-0.413	-0.142
-715.748	156.731	-0.085	-0.118
-714.733	-151.309	-0.109	-0.008
-713.718	183.207	0.052	-0.078
-712.704	-132.734	-0.132	-0.017
-711.689	68.907	-0.247	0.256
-710.675	800.000	-0.088	-0.276
-709.660	800.000	-0.035	-0.130
-708.645	-70.927	-0.158	-0.060
-707.631	204.981	0.045	-0.071
-706.616	-200.000	0.108	0.000
-705.602	-147.401	0.384	0.033
-704.587	103.881	0.292	-0.346
-703.572	5.705	0.060	-0.045
-702.558	24.293	0.293	0.244
-701.543	-116.402	0.147	-0.027
-700.529	-2.971	0.129	-0.091
-699.514	-200.000	0.018	0.103
-698.499	-200.000	0.059	-0.318
-697.485	59.308	-0.155	0.154
-696.470	55.582	-0.077	-0.075
-695.456	-27.253	-0.291	-0.171
-694.441	800.000	0.160	-0.589
-693.426	-79.824	-0.249	-0.084
-692.412	29.021	0.070	-0.060
-691.397	165.744	0.180	-0.256
-690.383	14.331	-0.143	0.113
-689.368	46.872	0.089	-0.083
-688.354	-200.000	-0.083	-0.370
-687.339	-200.000	-0.007	-0.185
-686.324	-200.000	0.036	-0.267
-685.310	-16.423	0.396	-0.253
-684.295	-37.762	0.017	0.009
-683.281	-139.656	-0.090	0.010
-682.266	295.034	-0.141	0.261
-681.251	241.324	0.076	-0.127
-680.237	-26.184	0.047	-0.028
-679.222	-200.000	0.009	-0.160
-678.208	-200.000	0.004	0.202
-677.193	-19.657	-0.152	-0.095
-676.178	-200.000	-0.066	-0.302
-675.164	48.958	-0.163	-0.154
-674.149	-175.063	0.226	0.006
-673.135	800.000	-0.070	-0.198
-672.120	-91.778	-0.202	0.058
-671.105	96.076	0.161	-0.186
-670.091	-23.179	-0.132	-0.080
-669.076	65.556	0.169	-0.172
-668.062	784.682	-0.118	-0.326
-667.047	-159.261	-0.040	0.002
-666.032	-200.000	0.022	0.237
-665.018	-15.264	0.269	-0.173
-664.003	-154.946	-0.368	-0.024
-662.989	-56.194	-0.217	0.097
-661.974	-25.987	-0.294	0.174
-660.959	800.000	0.053	-0.226
-659.945	183.085	0.110	0.164
-658.930	-10.167	-0.022	0.015
-657.916	-0.798	0.062	0.044
-656.901	-145.425	-0.397	0.036
-655.886	-189.741	-0.214	0.002
-654.872	-200.000	-0.022	0.119
-653.857	93.876	-0.189	0.215
-652.843	-104.751	0.138	-0.032
-651.828	-35.270	-0.171	-0.093
-650.814	43.822	-0.267	-0.246
-649.799	800.000	-0.065	0.202
-648.784	11.944	0.252	-0.195
-647.770	110.963	0.174	-0.211
-646.755	-200.000	0.003	0.199
-645.741	56.332	0.076	-0.075
-644.726	301.485	-0.067	0.124
-643.711	277.017	-0.290	-0.518
-642.697	-200.000	-0.015	-0.203
-641.682	88.973	-0.029	-0.033
-640.668	-20.437	-0.264	-0.163
-639.653	44.122	-0.170	0.157
-638.638	-170.553	-0.143	-0.005
-637.624	97.322	0.218	0.252
-636.609	139.288	0.145	-0.192
-635.595	-200.000	-0.080	0.000
-634.580	110.097	-0.241	0.291
-633.565	-108.637	0.296	0.064
-632.551	-111.891	0.069	-0.014
-631.536	-98.686	0.235	-0.060
-630.522	12.175	-0.352	-0.272
-629.507	-200.000	-0.054	0.286
-628.492	-104.813	-0.382	-0.088
-627.478	-26.557	-0.206	-0.121
-626.463	-64.525	0.340	-0.139
-625.449	-42.485	-0.305	0.156
-624.434	117.202	-0.029	-0.036
-623.419	-200.000	0.036	0.195
-622.405	357.971	-0.195	0.391
-621.390	142.772	0.075	-0.101
-620.376	-200.000	0.028	-0.162
-619.361	-44.108	-0.099	-0.050
-618.346	800.000	0.023	0.087
-617.332	-39.467	0.264	0.139
-616.317	-40.077	0.200	-0.105
-615.303	-170.216	-0.078	0.003
-614.288	-200.000	0.027	0.197
-613.273	-67.176	-0.188	-0.075
-612.259	228.119	0.119	-0.195
-611.244	-37.684	-0.091	-0.049
-610.230	-200.000	-0.024	-0.239
-609.215	240.703	-0.048	0.080
-608.201	474.327	0.109	-0.247
-607.186	-144.045	0.219	-0.021
-606.171	18.711	-0.058	-0.047
-605.157	-133.586	0.135	-0.017
-604.142	800.000	-0.104	-0.300
-603.128	800.000	-0.126	-0.358
-602.113	3.286	0.229	-0.167
-601.098	-41.818	0.217	-0.112
-600.084	800.000	-0.017	0.068
-599.069	-125.661	-0.130	-0.020
-598.055	-200.000	-0.029	-0.243
-597.040	-96.540	0.223	-0.059
-596.025	228.673	-0.191	0.312
-595.011	413.703	-0.085	0.182
-593.996	409.823	0.113	-0.241
-592.982	800.000	-0.026	-0.111
-591.967	-117.398	-0.060	-0.011
-590.952	-64.857	-0.277	-0.112
-589.938	64.707	0.112	0.113
-588.923	-90.004	-0.086	0.025
-587.909	800.000	-0.058	0.202
-586.894	-62.066	-0.229	0.096
-585.879	-200.000	0.016	0.248
-584.865	-200.000	0.045	0.366
-583.850	289.169	-0.170	-0.310
-582.836	-150.301	-0.188	-0.015
-581.821	26.600	0.319	0.268
-580.806	-194.592	0.343	-0.003
-579.792	141.681	0.258	-0.343
-578.777	276.370	-0.093	-0.166
-577.763	248.076	-0.096	-0.163
-576.748	-200.000	0.051	0.234
-575.733	800.000	-0.109	-0.413
-574.719	129.139	-0.040	0.051
-573.704	142.783	-0.185	0.247
-572.690	800.000	-0.047	0.188
-571.675	-136.693	-0.260	-0.030
-570.661	-200.000	0.001	0.154
-569.646	-24.405	0.026	-0.015
-568.631	-56.870	-0.323	-0.143
-567.617	800.000	0.034	0.116
-566.602	108.001	-0.184	-0.220
-565.588	148.379	0.204	-0.276
-564.573	446.196	0.100	-0.220
-563.558	-112.566	-0.180	0.036
-562.544	-60.958	-0.274	-0.116
-561.529	-99.528	-0.280	-0.071
-560.515	-71.904	0.117	-0.044
-559.500	-40.982	-0.261	-0.135
-558.485	-184.308	-0.348	0.006
-557.471	-139.167	-0.151	-0.016
-556.456	122.152	0.080	-0.101
-555.442	-25.447	0.177	0.105
-554.427	-200.000	0.065	0.369
-553.412	-81.871	-0.114	0.038
-552.398	64.794	0.164	-0.166
-551.383	322.820	0.094	-0.179
-550.369	501.043	-0.203	-0.470
-549.354	-44.288	-0.126	-0.063
-548.339	434.664	-0.081	-0.176
-547.325	11.193	0.261	-0.200
-546.310	124.180	0.087	-0.110
-545.296	107.759	0.130	0.155
-544.281	-54.238	-0.395	-0.180
-543.266	50.714	0.273	-0.259
-542.252	-166.304	-0.209	-0.009
-541.237	78.230	0.095	0.101
-540.223	-136.099	-0.238	-0.028
-539.208	-130.507	0.137	0.019
-538.193	-87.871	-0.285	0.086
-537.179	200.179	-0.247	0.380
-536.164	-21.948	-0.208	0.127
-535.150	132.670	0.061	0.079
-534.135	-200.000	0.024	0.150
-533.121	455.694	-0.075	0.166
-532.106	63.403	-0.087	-0.087
-531.091	637.579	0.098	0.251
-530.077	325.806	0.105	0.201
-529.062	99.195	0.052	-0.060
-528.048	-25.056	0.037	0.022
-527.033	-200.000	-0.035	-0.180
-526.018	-35.858	0.293	0.159
-525.004	398.952	0.064	0.133
-523.989	-134.345	0.245	0.030
-522.975	14.639	0.166	0.130
-521.960	-85.449	-0.085	0.026
-520.945	-141.752	-0.137	-0.014
-519.931	-26.226	0.061	-0.036
-518.916	-200.000	-0.020	0.161
-517.902	-105.948	-0.066	0.015
-516.887	-35.455	0.130	-0.071
-515.872	800.000	0.082	0.332
-514.858	236.090	-0.127	0.211
-513.843	-200.000	0.063	0.385
-512.829	206.302	-0.272	0.423
-511.814	-200.000	-0.016	0.143
-510.799	-123.415	-0.308	-0.049
-509.785	-200.000	0.015	-0.098
-508.770	-120.850	0.081	0.014
-507.756	-45.318	-0.189	-0.094
-506.741	-123.994	-0.437	0.069
-505.726	91.110	-0.168	0.189
-504.712	-112.256	0.207	-0.041
-503.697	439.553	-0.075	-0.165
-502.683	800.000	0.061	0.186
-501.668	68.923	0.138	-0.142
-500.653	16.757	-0.211	-0.167
-499.639	263.842	0.104	0.181
-498.624	23.452	0.052	-0.043
-497.610	35.803	0.133	-0.117
-496.595	800.000	0.149	-0.433
-495.581	800.000	-0.118	0.361
-494.566	274.362	0.124	0.219
-493.551	-112.887	-0.089	0.018
-492.537	-32.457	-0.183	0.102
-491.522	244.408	0.035	-0.058
-490.508	800.000	-0.125	-0.432
-489.493	-123.462	0.283	0.045
-488.478	124.459	-0.027	-0.034
-487.464	-131.922	-0.347	-0.045
-486.449	-31.846	0.266	0.149
-485.435	189.179	0.150	0.225
-484.420	-151.162	0.256	0.019
-483.405	520.182	-0.046	0.107
-482.391	-200.000	0.037	-0.173
-481.376	-28.140	-0.283	-0.164
-480.362	95.047	0.114	-0.130
-479.347	-200.000	-0.054	0.242
-478.332	-200.000	-0.030	0.220
-477.318	-4.260	-0.028	0.019
-476.303	-69.231	0.435	-0.167
-475.289	-144.249	-0.192	-0.018
-474.274	-69.091	-0.421	0.162
-473.259	63.175	0.215	-0.215
-472.245	-26.380	-0.166	-0.097
-471.230	106.863	-0.079	-0.093
-470.216	-45.791	0.143	0.070
-469.201	-117.042	-0.078	-0.014
-468.186	51.701	0.257	0.244
-467.172	-106.635	-0.336	-0.075
-466.157	800.000	-0.017	0.068
-465.143	-86.695	0.268	0.082
-464.128	115.220	0.089	-0.109
-463.113	385.053	-0.118	-0.243
-462.099	-200.000	0.018	-0.397
-461.084	-17.316	-0.197	-0.124
-460.070	-116.640	-0.352	-0.065
-459.055	800.000	-0.055	-0.152
-458.040	596.394	-0.084	0.207
-457.026	-168.855	0.120	-0.005
-456.011	-18.079	-0.059	-0.037
-454.997	-141.089	0.317	-0.032
-453.982	-109.658	-0.151	-0.032
-452.968	-160.237	-0.197	0.011
-451.953	-200.000	-0.021	-0.159
-450.938	800.000	0.075	0.254
-449.924	-109.017	0.208	0.044
-448.909	79.469	-0.258	0.276
-447.895	-200.000	-0.015	-0.436
-446.880	-23.695	0.165	-0.099
-445.865	-200.000	0.039	-0.268
-444.851	-27.643	0.155	-0.090
-443.836	-89.491	0.291	-0.085
-442.822	145.815	0.067	0.090
-441.807	-164.969	0.083	-0.004
-440.792	178.978	-0.156	-0.228
-439.778	-64.135	-0.240	0.097
-438.763	-107.507	-0.302	-0.066
-437.749	-125.152	0.237	-0.036
-436.734	138.066	0.216	0.282
-435.719	136.645	-0.283	0.369
-434.705	120.279	-0.084	0.104
-433.690	-88.297	0.272	-0.081
-432.676	-131.310	0.241	-0.032
-431.661	-200.000	-0.004	0.045
-430.646	-54.666	-0.104	-0.047
-429.632	-99.399	0.005	-0.001
-428.617	-36.402	0.076	0.041
-427.603	-57.212	-0.071	-0.031
-426.588	101.853	0.109	0.126
-425.573	-119.272	-0.087	-0.015
-424.559	189.443	0.257	-0.385
-423.544	-47.478	-0.170	-0.082
-422.530	320.986	-0.089	0.169
-421.515	-121.434	0.039	-0.006
-420.500	-200.000	0.067	-0.331
-419.486	-1.039	-0.119	0.084
-418.471	-200.000	-0.136	0.655
-417.457	81.132	0.151	-0.163
-416.442	-112.692	-0.460	0.091
-415.428	-126.501	-0.134	0.020
-414.413	52.815	-0.105	0.100
-413.398	279.198	-0.255	0.454
-412.384	87.261	0.121	0.134
-411.369	-24.944	-0.161	0.095
-410.355	-75.086	-0.257	-0.092
-409.340	-85.333	0.321	0.100
-408.325	137.984	-0.044	0.058
-407.311	-200.000	-0.007	-0.070
-406.296	-88.530	0.211	0.063
-405.282	208.835	-0.116	0.181
-404.267	800.000	0.072	0.225
-403.252	28.417	0.180	-0.152
-402.238	47.980	0.031	0.029
-401.223	-1.453	0.462	0.325
-400.209	800.000	-0.082	-0.231
-399.194	-21.068	0.212	-0.129
-398.179	-21.961	0.157	0.095
-397.165	63.376	0.100	0.100
-396.150	76.736	-0.365	-0.386
-395.136	34.747	-0.167	0.146
-394.121	186.709	0.147	-0.218
-393.106	59.838	-0.068	0.067
-392.092	252.802	-0.115	-0.195
-391.077	26.700	-0.186	0.155
-390.063	-64.453	0.119	-0.048
-389.048	-53.377	-0.307	0.140
-388.033	-113.377	0.205	0.040
-387.019	3.035	-0.149	0.108
-386.004	-35.389	0.465	-0.252
-384.990	30.618	-0.187	-0.159
-383.975	422.287	-0.108	0.231
-382.960	-200.000	0.022	0.244
-381.946	-200.000	-0.026	0.245
-380.931	551.345	0.024	0.058
-379.917	323.138	0.124	-0.235
-378.902	-200.000	-0.018	-0.091
-377.888	-70.405	0.215	0.081
-376.873	-112.733	-0.158	0.031
-375.858	220.554	0.083	0.132
-374.844	-2.968	0.103	-0.071
-373.829	-154.326	-0.048	0.003
-372.815	548.400	-0.057	0.137
-371.800	130.675	0.111	-0.142
-370.785	-164.679	-0.085	-0.004
-369.771	-152.291	-0.251	-0.018
-368.756	-167.942	0.018	-0.001
-367.742	199.457	-0.105	-0.161
-366.727	-200.000	0.057	0.340
-365.712	551.082	0.147	0.350
-364.698	-200.000	0.015	0.197
-363.683	-200.000	0.012	-0.120
-362.669	-200.000	-0.002	0.070
-361.654	-109.181	0.164	-0.035
-360.639	-81.926	-0.082	0.027
-359.625	-126.011	-0.217	-0.032
-358.610	63.187	0.285	0.284
-357.596	200.266	-0.181	-0.276
-356.581	-200.000	0.037	-0.465
-355.566	-96.202	-0.252	0.066
-354.552	-158.443	-0.245	0.014
-353.537	25.286	-0.218	-0.180
-352.523	178.280	0.183	0.266
-351.508	25.317	0.122	0.101
-350.493	-153.960	-0.207	-0.014
-349.479	-142.495	0.194	0.019
-348.464	-200.000	0.023	0.284
-347.450	-19.483	0.245	0.151
-346.435	-200.000	0.042	0.226
-345.420	643.835	-0.048	0.122
-344.406	40.192	-0.455	-0.407
-343.391	521.899	0.050	-0.116
-342.377	-131.291	-0.282	0.037
-341.362	275.109	-0.128	0.226
-340.348	-59.814	0.337	0.143
-339.333	301.778	-0.031	-0.057
-338.318	94.656	0.153	-0.173
-337.304	-45.890	-0.144	0.071
-336.289	800.000	0.062	-0.241
-335.275	114.765	-0.117	0.142
-334.260	-86.922	-0.130	0.039
-333.245	-31.705	-0.200	0.112
-332.231	-20.946	-0.087	-0.053
-331.216	240.532	0.065	-0.108
-330.202	-146.379	0.202	0.018
-329.187	172.144	-0.099	-0.141
-328.172	-200.000	0.031	0.142
-327.158	45.111	-0.238	0.218
-326.143	-166.471	-0.196	-0.008
-325.129	-127.433	-0.250	-0.036
-324.114	-16.955	0.029	0.018
-323.099	-37.309	-0.141	0.075
-322.085	-200.000	-0.087	0.462
-321.070	-40.619	0.100	0.051
-320.056	101.639	0.149	0.172
-319.041	71.771	0.136	0.141
-318.026	-126.463	-0.357	-0.053
-317.012	336.309	-0.072	-0.139
-315.997	0.600	0.199	-0.141
-314.983	800.000	-0.024	-0.068
-313.968	-200.000	-0.073	-0.324
-312.953	143.749	0.228	0.302
-311.939	-200.000	0.026	-0.142
-310.924	-200.000	-0.014	-0.226
-309.910	800.000	0.133	-0.396
-308.895	-37.832	-0.010	-0.005
-307.880	-33.012	0.167	0.092
-306.866	-2.793	-0.376	0.261
-305.851	-107.874	0.269	0.058
-304.837	605.652	-0.078	0.192
-303.822	-86.935	0.133	0.040
-302.807	699.626	-0.128	-0.333
-301.793	98.280	0.293	-0.335
-300.778	112.302	-0.104	-0.125
-299.764	-20.708	0.157	-0.096
-298.749	-200.000	0.034	-0.415
-297.735	752.656	-0.098	0.261
-296.720	107.457	0.261	0.308
-295.705	101.256	0.024	-0.027
-294.691	-200.000	-0.014	-0.086
-293.676	-200.000	-0.017	-0.080
-292.662	51.733	0.149	-0.140
-291.647	-16.521	0.092	-0.058
-290.632	60.846	-0.231	-0.227
-289.618	73.804	-0.083	0.086
-288.603	-62.253	0.139	0.057
-287.589	-88.296	0.131	0.039
-286.574	83.032	0.225	-0.242
-285.559	-60.489	-0.127	0.053
-284.545	-200.000	-0.056	-0.380
-283.530	183.529	0.042	-0.062
-282.516	-115.597	0.238	-0.044
-281.501	5.791	-0.077	-0.057
-280.486	-200.000	-0.016	0.265
-279.472	-90.903	0.312	-0.089
-278.457	80.757	0.214	0.229
-277.443	800.000	-0.077	0.332
-276.428	-200.000	-0.006	-0.429
-275.413	-97.684	0.388	-0.100
-274.399	-158.497	-0.340	-0.019
-273.384	-57.124	0.072	-0.031
-272.370	-200.000	0.010	0.113
-271.355	800.000	0.052	0.164
-270.340	-28.897	-0.434	-0.247
-269.326	-71.605	-0.041	-0.015
-268.311	-33.162	0.090	-0.049
-267.297	-9.561	-0.283	-0.187
-266.282	25.373	0.121	0.100
-265.267	-104.916	0.061	0.014
-264.253	-28.079	0.327	0.187
-263.238	14.403	-0.267	-0.207
-262.224	800.000	0.029	0.095
-261.209	-66.394	0.361	0.142
-260.195	-200.000	0.038	0.201
-259.180	-89.138	0.267	-0.078
-258.165	161.893	0.372	-0.516
-257.151	-164.355	-0.169	-0.008
-256.136	-121.901	-0.114	0.019
-255.122	117.628	-0.159	0.193
-254.107	-200.000	0.044	0.325
-253.092	-152.015	-0.541	0.039
-252.078	-68.545	0.206	-0.079
-251.063	292.314	-0.116	0.210
-250.049	-200.000	0.024	0.206
-249.034	-53.826	-0.191	0.086
-248.019	78.354	-0.265	-0.280
-247.005	-90.512	0.149	-0.043
-245.990	-0.255	0.341	0.240
-244.976	-141.130	0.144	0.015
-243.961	168.437	0.114	0.160
-242.946	46.479	-0.241	0.221
-241.932	-200.000	-0.071	0.325
-240.917	-9.942	0.401	-0.264
-239.903	-29.589	-0.107	0.060
-238.888	9.052	0.225	0.168
-237.873	-104.367	0.169	-0.039
-236.859	-17.640	0.180	0.112
-235.844	-39.272	0.086	-0.045
-234.830	531.735	0.062	-0.145
-233.815	-25.627	0.159	-0.093
-232.800	240.241	0.036	-0.059
-231.786	-128.859	-0.093	-0.013
-230.771	800.000	0.135	0.389
-229.757	-16.113	-0.158	0.100
-228.742	-57.506	0.355	-0.154
-227.727	-200.000	-0.033	-0.327
-226.713	29.345	-0.110	-0.092
-225.698	140.882	0.141	0.184
-224.684	-79.834	0.229	-0.076
-223.669	528.517	-0.041	0.095
-222.655	-200.000	-0.048	0.213
-221.640	-35.269	0.150	0.081
-220.625	330.660	-0.026	0.050
-219.611	258.080	-0.093	0.159
-218.596	-55.168	-0.257	0.115
-217.582	109.282	0.187	-0.221
-216.567	609.199	0.109	-0.270
-215.552	-45.421	0.132	-0.065
-214.538	-200.000	-0.036	-0.371
-213.523	336.405	0.132	-0.254
-212.509	-122.551	-0.249	-0.040
-211.494	503.377	-0.079	-0.182
-210.479	-200.000	0.003	-0.261
-209.465	-5.298	0.139	0.094
-208.450	522.748	0.091	-0.211
-207.436	117.820	0.110	0.134
-206.421	-19.549	-0.110	-0.067
-205.406	23.540	-0.244	-0.199
-204.392	102.236	0.056	0.064
-203.377	189.126	0.104	-0.154
-202.363	511.499	-0.106	0.243
-201.348	-126.263	0.373	0.055
-200.333	-200.000	0.044	0.403
-199.319	-200.000	-0.037	0.234
-198.304	395.264	-0.061	0.127
-197.290	-88.931	0.150	-0.044
-196.275	-64.138	-0.213	-0.086
-195.260	-111.304	0.133	0.027
-194.246	-155.308	-0.282	0.018
-193.231	-81.525	0.330	0.107
-192.217	-200.000	0.002	0.141
-191.202	131.411	0.259	-0.329
-190.187	-82.256	0.134	-0.043
-189.173	-75.539	-0.194	0.068
-188.158	-200.000	-0.063	-0.417
-187.144	800.000	0.017	-0.065
-186.129	318.146	0.151	-0.282
-185.114	109.027	0.160	-0.189
-184.100	-200.000	0.018	-0.123
-183.085	-151.445	0.427	-0.031
-182.071	-126.194	0.194	-0.029
-181.056	-79.794	0.101	-0.034
-180.042	-83.091	-0.149	-0.047
-179.027	-126.632	0.169	-0.025
-178.012	77.306	-0.038	-0.040
-176.998	-200.000	0.020	0.292
-175.983	-40.066	-0.245	0.126
-174.969	255.371	-0.139	-0.236
-173.954	-200.000	0.085	0.438
-172.939	-110.937	-0.101	0.020
-171.925	-37.416	0.369	-0.195
-170.910	546.417	-0.151	-0.356
-169.896	15.932	-0.191	0.148
-168.881	-200.000	-0.002	0.037
-167.866	120.176	0.024	0.029
-166.852	-200.000	0.013	-0.067
-165.837	800.000	0.023	0.070
-164.823	259.833	0.053	0.090
-163.808	-19.963	0.318	-0.193
-162.793	44.565	0.319	0.290
-161.779	377.211	-0.045	-0.090
-160.764	-200.000	0.018	-0.095
-159.750	-21.445	0.359	0.216
-158.735	443.991	0.125	0.271
-157.720	212.696	0.078	0.121
-156.706	-200.000	0.000	-0.054
-155.691	273.612	-0.046	0.080
-154.677	-57.751	-0.237	0.102
-153.662	157.360	-0.253	-0.346
-152.647	-24.719	0.091	-0.053
-151.633	87.361	-0.244	0.267
-150.618	4.965	-0.072	-0.052
-149.604	-200.000	0.040	0.310
-148.589	-61.789	0.086	-0.035
-147.574	53.783	-0.280	0.265
-146.560	800.000	0.069	0.274
-145.545	-136.315	-0.067	0.008
-144.531	110.976	-0.047	0.056
-143.516	333.956	-0.153	0.291
-142.502	104.009	-0.117	0.136
-141.487	-152.731	-0.180	0.013
-140.472	100.081	0.239	-0.273
-139.458	-112.826	-0.120	-0.024
-138.443	50.923	-0.197	0.184
-137.429	283.279	-0.218	0.387
-136.414	-71.930	0.096	0.035
-135.399	-200.000	0.020	0.203
-134.385	197.127	-0.123	-0.185
-133.370	-160.636	0.060	0.003
-132.356	-200.000	-0.009	0.076
-131.341	-200.000	0.013	0.134
-130.326	-69.091	0.077	0.029
-129.312	237.428	-0.224	-0.366
-128.297	162.778	0.185	-0.255
-127.283	-64.547	-0.264	-0.106
-126.268	137.838	0.121	0.156
-125.253	82.910	-0.185	0.198
-124.239	43.292	-0.285	0.256
-123.224	-200.000	0.004	-0.328
-122.210	-195.097	-0.072	0.001
