DTS Sentinel unit serial number:	SN413079Multiplexer serial number:	ORYXHardware model number:	OX4-SRSoftware version number:	ORYX F/W v4.00 Oryx Data Collector v3.7.2.0data status	okinstallation	princeton_trtdifferential loss correction	single-endedforward channel	channel 2reverse channel	N/Adate	2019/09/12time	13:05:11forward acquisition time	60.00reverse acquisition time	0.00gamma	496.2192k internal	0.2296k external	0.2296temperature offset calibration	1.0077default loss term (dB/km)	0.3790temperature slope calibration	1.0000multiplexer offset coefficient	1.0000multiplexer slope coefficient	1.0000fibre end	0.00T internal ref (°C)	41.00T ext. ref 1 (°C)	2.08T ext. ref 2 (°C)	36.43length (m)	temperature (°C)	Stokes	anti-Stokes-747.200	-144.912	-0.397	-0.037
-746.185	-200.000	-0.025	0.303
-745.171	-6.948	-0.244	-0.169
-744.156	-200.000	-0.000	0.061
-743.142	64.455	-0.155	-0.160
-742.127	-200.000	0.099	0.618
-741.112	-97.931	0.222	-0.059
-740.098	148.369	-0.041	0.056
-739.083	-132.819	-0.243	0.032
-738.069	800.000	0.033	0.135
-737.054	-21.357	-0.368	-0.229
-736.039	-82.247	-0.346	0.115
-735.025	117.345	0.133	0.166
-734.010	200.584	0.107	-0.168
-732.996	-1.727	0.225	-0.162
-731.981	79.897	0.093	-0.102
-730.966	-128.621	-0.265	-0.038
-729.952	-200.000	-0.018	-0.086
-728.937	316.310	-0.114	-0.219
-727.923	-36.669	0.126	-0.069
-726.908	-0.923	-0.145	-0.105
-725.894	-200.000	-0.008	-0.464
-724.879	138.444	-0.173	-0.232
-723.864	-47.706	-0.100	0.049
-722.850	322.228	0.154	-0.299
-721.835	-200.000	-0.035	-0.167
-720.821	-49.690	0.246	0.119
-719.806	-16.777	-0.371	-0.240
-718.791	-48.095	-0.125	-0.062
-717.777	-76.360	-0.389	0.140
-716.762	178.635	0.072	-0.108
-715.748	77.059	-0.198	-0.215
-714.733	415.512	0.091	-0.198
-713.718	-174.641	-0.095	-0.003
-712.704	-200.000	0.042	-0.226
-711.689	663.724	0.038	-0.099
-710.675	15.190	0.034	0.027
-709.660	-111.981	0.215	0.044
-708.645	-57.927	-0.217	-0.097
-707.631	-47.000	-0.346	0.172
-706.616	-34.561	-0.133	0.074
-705.602	-200.000	0.004	0.041
-704.587	-50.325	0.177	-0.085
-703.572	80.562	-0.125	0.137
-702.558	40.047	-0.111	0.102
-701.543	-66.690	-0.380	0.154
-700.529	-200.000	0.015	-0.081
-699.514	492.917	0.059	-0.137
-698.499	-200.000	-0.003	-0.293
-697.485	-93.598	-0.221	0.062
-696.470	-106.184	-0.107	0.025
-695.456	0.970	-0.171	0.125
-694.441	-138.227	-0.314	-0.035
-693.426	-39.625	0.096	-0.051
-692.412	142.796	0.088	-0.120
-691.397	-141.262	0.225	0.023
-690.383	112.239	0.148	-0.183
-689.368	22.793	-0.206	0.172
-688.354	-200.000	-0.007	-0.157
-687.339	28.163	0.127	-0.109
-686.324	4.476	-0.114	0.085
-685.310	-123.516	-0.099	-0.016
-684.295	-200.000	-0.012	-0.120
-683.281	23.555	-0.303	0.254
-682.266	-200.000	0.004	0.106
-681.251	800.000	-0.107	0.363
-680.237	13.471	0.039	0.031
-679.222	-20.213	0.180	0.113
-678.208	-93.045	0.345	-0.098
-677.193	-200.000	-0.001	0.024
-676.178	-200.000	-0.008	0.220
-675.164	62.924	-0.075	0.077
-674.149	-200.000	0.017	0.113
-673.135	800.000	-0.008	-0.031
-672.120	293.530	-0.138	-0.256
-671.105	-173.785	0.145	-0.004
-670.091	209.779	-0.142	0.226
-669.076	46.004	0.021	-0.020
-668.062	-200.000	-0.057	0.253
-667.047	-200.000	0.000	0.010
-666.032	22.688	-0.297	-0.248
-665.018	673.927	-0.069	0.183
-664.003	135.406	-0.106	-0.141
-662.989	377.727	-0.154	0.320
-661.974	-120.620	0.147	0.025
-660.959	-112.983	-0.357	0.072
-659.945	87.580	-0.082	-0.093
-658.930	-36.243	-0.074	-0.040
-657.916	12.217	-0.097	-0.076
-656.901	201.166	0.151	0.237
-655.886	-4.519	-0.382	0.269
-654.872	-200.000	-0.009	0.206
-653.857	370.586	0.200	-0.413
-652.843	-55.930	0.400	0.182
-651.828	-123.477	0.099	0.016
-650.814	-114.028	-0.135	0.027
-649.799	800.000	-0.075	0.243
-648.784	-25.238	-0.082	-0.050
-647.770	-124.602	-0.404	-0.064
-646.755	800.000	-0.027	-0.095
-645.741	-96.614	0.251	0.067
-644.726	-200.000	-0.026	0.332
-643.711	172.547	0.172	0.252
-642.697	114.880	0.078	0.097
-641.682	201.214	-0.105	0.165
-640.668	-200.000	-0.030	-0.277
-639.653	713.432	-0.094	-0.253
-638.638	522.147	-0.108	0.258
-637.624	-91.081	-0.249	-0.073
-636.609	146.136	0.092	-0.125
-635.595	-69.517	-0.349	-0.136
-634.580	507.311	0.047	0.112
-633.565	-103.869	-0.257	0.061
-632.551	-200.000	-0.292	-0.001
-631.536	587.121	-0.083	-0.209
-630.522	21.503	-0.252	-0.209
-629.507	-200.000	0.038	-0.182
-628.492	800.000	0.085	0.244
-627.478	-76.368	-0.119	0.043
-626.463	32.747	-0.144	-0.127
-625.449	-37.344	-0.066	-0.036
-624.434	-89.973	-0.422	-0.125
-623.419	-200.000	-0.063	-0.373
-622.405	-200.000	0.034	-0.269
-621.390	35.160	-0.089	0.079
-620.376	-102.293	-0.335	-0.082
-619.361	800.000	-0.042	0.183
-618.346	207.599	-0.131	-0.208
-617.332	25.023	0.196	-0.166
-616.317	-200.000	0.041	0.252
-615.303	707.187	0.067	-0.180
-614.288	-141.832	0.250	-0.025
-613.273	800.000	-0.053	-0.156
-612.259	-200.000	-0.022	-0.099
-611.244	504.237	-0.091	-0.214
-610.230	51.538	-0.173	-0.167
-609.215	-200.000	0.042	-0.402
-608.201	-28.962	0.119	0.070
-607.186	343.357	-0.053	-0.105
-606.171	-44.976	-0.217	0.110
-605.157	800.000	0.084	-0.317
-604.142	-184.764	-0.451	0.007
-603.128	800.000	0.066	0.196
-602.113	497.653	-0.104	0.244
-601.098	-200.000	-0.019	0.102
-600.084	800.000	0.027	-0.096
-599.069	-200.000	0.008	-0.282
-598.055	679.461	0.048	-0.126
-597.040	350.834	-0.060	-0.120
-596.025	51.021	0.072	-0.069
-595.011	-81.562	0.107	0.036
-593.996	97.555	-0.083	0.097
-592.982	-200.000	0.011	0.162
-591.967	-62.725	-0.239	-0.101
-590.952	348.462	0.083	-0.166
-589.938	-115.335	-0.239	0.046
-588.923	-74.086	0.291	0.107
-587.909	-90.829	-0.197	0.058
-586.894	-200.000	0.043	-0.192
-585.879	-103.978	0.239	0.057
-584.865	-112.313	-0.168	-0.034
-583.850	284.911	0.096	-0.176
-582.836	310.733	-0.105	0.199
-581.821	-60.578	-0.068	0.029
-580.806	62.069	0.129	-0.130
-579.792	-200.000	0.055	0.250
-578.777	648.065	-0.062	-0.161
-577.763	6.741	0.124	-0.093
-576.748	-58.376	0.111	-0.049
-575.733	-153.047	-0.138	0.010
-574.719	-92.830	-0.145	-0.041
-573.704	49.679	0.281	0.269
-572.690	-200.000	-0.022	-0.225
-571.675	251.187	-0.102	-0.177
-570.661	228.343	0.026	0.042
-569.646	-72.710	0.322	-0.120
-568.631	-159.613	-0.339	0.019
-567.617	289.700	-0.050	0.092
-566.602	215.383	-0.123	-0.199
-565.588	-138.407	0.144	-0.016
-564.573	-133.894	0.206	-0.026
-563.558	800.000	0.121	-0.356
-562.544	28.688	0.371	0.319
-561.529	-200.000	-0.156	0.001
-560.515	-172.987	-0.131	-0.004
-559.500	-200.000	0.031	0.207
-558.485	-200.000	0.086	-0.404
-557.471	800.000	-0.112	-0.334
-556.456	800.000	-0.068	-0.207
-555.442	-200.000	0.030	-0.367
-554.427	155.851	-0.078	0.109
-553.412	-49.037	-0.107	-0.052
-552.398	-30.784	0.107	-0.062
-551.383	13.890	0.029	-0.023
-550.369	-179.881	0.209	-0.005
-549.354	357.574	0.105	0.213
-548.339	800.000	0.123	-0.367
-547.325	321.330	-0.087	0.168
-546.310	-54.219	-0.144	-0.066
-545.296	-30.772	0.111	0.064
-544.281	-120.860	-0.388	0.066
-543.266	-33.434	-0.167	-0.094
-542.252	145.267	-0.095	0.128
-541.237	489.845	-0.079	0.184
-540.223	-109.858	0.077	0.016
-539.208	-200.000	0.004	0.041
-538.193	-200.000	-0.005	-0.159
-537.179	-81.968	-0.106	-0.035
-536.164	-28.983	-0.145	-0.084
-535.150	350.837	-0.098	-0.197
-534.135	15.650	-0.287	0.228
-533.121	-134.919	0.268	-0.033
-532.106	126.115	-0.180	-0.231
-531.091	-97.154	-0.137	-0.036
-530.077	129.537	-0.017	0.022
-529.062	207.226	0.151	0.239
-528.048	-71.741	-0.061	0.023
-527.033	2.851	-0.082	0.060
-526.018	90.972	-0.049	0.055
-525.004	243.771	0.118	0.200
-523.989	800.000	0.042	0.142
-522.975	6.507	0.212	-0.160
-521.960	-200.000	-0.030	-0.138
-520.945	-200.000	-0.073	0.000
-519.931	61.830	-0.063	-0.063
-518.916	-66.813	0.194	0.078
-517.902	568.888	0.098	0.242
-516.887	-53.645	-0.289	0.134
-515.872	-21.689	-0.450	0.278
-514.858	-200.000	0.031	0.146
-513.843	800.000	0.054	-0.164
-512.829	-200.000	0.029	-0.199
-511.814	-146.387	0.289	0.026
-510.799	536.730	-0.072	0.172
-509.785	800.000	-0.035	0.126
-508.770	314.256	0.060	0.114
-507.756	800.000	0.124	0.377
-506.741	800.000	-0.068	-0.268
-505.726	223.263	-0.087	0.141
-504.712	-103.215	0.250	-0.060
-503.697	-4.670	0.031	-0.021
-502.683	-125.648	0.268	-0.041
-501.668	800.000	-0.012	0.053
-500.653	-121.934	-0.060	0.010
-499.639	-200.000	-0.024	-0.229
-498.624	84.295	-0.090	-0.099
-497.610	-54.040	0.169	0.078
-496.595	-40.388	-0.244	-0.128
-495.581	188.202	-0.052	-0.078
-494.566	62.026	0.220	0.222
-493.551	163.949	-0.064	0.091
-492.537	729.414	-0.112	-0.303
-491.522	-200.000	0.052	0.369
-490.508	183.847	-0.097	-0.145
-489.493	49.404	0.146	0.139
-488.478	19.363	-0.226	0.184
-487.464	800.000	0.018	0.066
-486.449	119.256	0.068	0.085
-485.435	-200.000	-0.004	-0.172
-484.420	-77.746	-0.090	0.032
-483.405	88.277	0.187	-0.210
-482.391	67.617	0.224	0.232
-481.376	-200.000	-0.053	0.236
-480.362	-99.724	-0.242	0.061
-479.347	-200.000	-0.003	0.110
-478.332	-127.541	0.027	-0.004
-477.318	393.849	-0.122	0.257
-476.303	-60.985	0.052	0.022
-475.289	331.240	0.155	-0.302
-474.274	-142.161	-0.121	-0.012
-473.259	-110.025	-0.200	0.042
-472.245	-11.971	0.108	0.072
-471.230	20.519	0.234	-0.191
-470.216	-79.061	0.235	-0.081
-469.201	615.942	0.035	-0.088
-468.186	800.000	0.135	-0.384
-467.172	-200.000	0.047	-0.240
-466.157	-16.000	0.129	0.083
-465.143	-90.329	0.054	0.016
-464.128	67.144	0.198	-0.204
-463.113	263.223	0.057	-0.100
-462.099	-150.222	-0.242	0.019
-461.084	-143.282	-0.398	0.039
-460.070	-90.680	-0.318	0.093
-459.055	-141.862	-0.040	0.004
-458.040	800.000	0.037	0.111
-457.026	-200.000	0.022	0.156
-456.011	89.853	0.170	0.192
-454.997	-200.000	0.016	0.092
-453.982	194.246	-0.117	0.180
-452.968	-183.338	-0.079	0.001
-451.953	-40.155	0.085	-0.044
-450.938	305.472	0.173	0.326
-449.924	-200.000	0.015	0.294
-448.909	-200.000	-0.014	-0.384
-447.895	700.648	0.069	0.184
-446.880	800.000	-0.075	0.219
-445.865	-135.276	0.310	0.037
-444.851	230.668	0.094	-0.155
-443.836	-200.000	0.009	0.066
-442.822	800.000	-0.040	0.165
-441.807	439.428	0.107	0.237
-440.792	800.000	-0.063	0.224
-439.778	-200.000	-0.021	0.111
-438.763	-200.000	-0.019	-0.506
-437.749	-186.966	-0.163	0.002
-436.734	139.393	-0.068	-0.090
-435.719	-109.791	-0.376	-0.080
-434.705	-93.200	0.134	0.038
-433.690	2.797	-0.049	-0.036
-432.676	173.292	0.103	0.150
-431.661	68.158	-0.220	-0.228
-430.646	-131.800	0.060	0.008
-429.632	141.678	0.022	0.029
-428.617	186.975	0.071	0.106
-427.603	-107.684	0.220	0.049
-426.588	-90.382	0.326	-0.096
-425.573	-200.000	-0.038	-0.186
-424.559	-86.055	0.107	0.033
-423.544	-200.000	-0.028	-0.204
-422.530	-84.735	-0.318	-0.101
-421.515	-56.591	-0.269	-0.120
-420.500	-135.022	-0.027	0.003
-419.486	217.824	-0.135	-0.218
-418.471	219.880	0.055	-0.089
-417.457	78.145	-0.101	0.109
-416.442	576.061	-0.072	-0.178
-415.428	-119.081	0.163	0.029
-414.413	-43.637	0.192	-0.098
-413.398	-55.461	0.309	-0.140
-412.384	27.703	-0.030	-0.025
-411.369	127.432	0.123	-0.158
-410.355	800.000	0.026	0.101
-409.340	332.721	0.087	-0.169
-408.325	-49.325	-0.258	0.124
-407.311	800.000	-0.054	0.176
-406.296	3.328	-0.205	-0.150
-405.282	330.060	0.149	0.289
-404.267	-153.904	0.089	0.006
-403.252	-133.986	0.265	-0.033
-402.238	-52.141	0.217	0.101
-401.223	-147.988	0.280	0.024
-400.209	-200.000	0.006	-0.064
-399.194	-24.018	-0.077	0.046
-398.179	-200.000	0.047	0.277
-397.165	-20.333	-0.113	-0.070
-396.150	-73.977	-0.321	0.117
-395.136	120.967	-0.201	0.252
-394.121	631.630	-0.080	0.203
-393.106	-181.033	0.076	0.002
-392.092	310.897	-0.106	0.201
-391.077	-122.677	0.120	-0.020
-390.063	-145.058	0.219	0.020
-389.048	-195.563	0.134	-0.001
-388.033	-200.000	0.027	0.148
-387.019	-200.000	-0.018	-0.117
-386.004	-200.000	-0.039	0.196
-384.990	-200.000	-0.007	0.036
-383.975	-42.741	0.013	-0.007
-382.960	-167.075	-0.193	0.008
-381.946	223.727	-0.019	-0.031
-380.931	32.418	-0.228	0.198
-379.917	39.434	-0.133	0.120
-378.902	-31.473	-0.032	-0.018
-377.888	800.000	0.044	-0.193
-376.873	-74.771	-0.196	-0.071
-375.858	32.593	0.064	0.056
-374.844	-142.767	-0.085	0.008
-373.829	-200.000	-0.020	-0.169
-372.815	80.602	-0.102	-0.111
-371.800	-158.317	0.293	-0.017
-370.785	101.573	-0.052	-0.062
-369.771	-26.699	-0.186	0.109
-368.756	562.237	0.030	0.074
-367.742	766.027	-0.114	-0.313
-366.727	11.684	0.141	0.109
-365.712	800.000	-0.068	-0.285
-364.698	-5.597	-0.049	-0.034
-363.683	12.260	-0.131	0.102
-362.669	233.231	0.018	-0.030
-361.654	237.659	0.094	0.157
-360.639	-81.579	0.391	-0.129
-359.625	800.000	-0.069	0.258
-358.610	-200.000	-0.001	-0.117
-357.596	-200.000	0.037	0.266
-356.581	-119.831	-0.213	0.037
-355.566	-200.000	-0.015	0.118
-354.552	-32.848	0.283	-0.158
-353.537	650.743	0.070	-0.180
-352.523	15.152	0.307	0.242
-351.508	-171.959	0.106	0.003
-350.493	280.301	-0.114	-0.205
-349.479	-4.703	0.260	0.180
-348.464	-200.000	-0.061	0.322
-347.450	123.924	-0.084	-0.107
-346.435	281.139	-0.049	0.089
-345.420	-200.000	0.007	-0.188
-344.406	-62.568	0.411	0.172
-343.391	150.525	0.124	0.170
-342.377	-200.000	0.018	-0.449
-341.362	72.270	0.102	-0.106
-340.348	-159.738	0.224	-0.012
-339.333	-200.000	-0.086	-0.387
-338.318	131.177	0.137	0.177
-337.304	-132.850	0.144	0.018
-336.289	-85.906	-0.407	0.127
-335.275	-200.000	0.026	-0.303
-334.260	-116.702	-0.340	-0.063
-333.245	-200.000	-0.061	-0.334
-332.231	800.000	-0.073	-0.280
-331.216	334.532	0.096	0.187
-330.202	800.000	-0.078	0.257
-329.187	800.000	-0.032	0.091
-328.172	-98.494	0.136	0.035
-327.158	800.000	-0.096	0.268
-326.143	93.114	0.027	0.031
-325.129	645.166	0.083	-0.213
-324.114	244.558	-0.145	-0.245
-323.099	-40.495	0.081	0.042
-322.085	-107.851	0.175	-0.038
-321.070	-91.338	0.216	0.062
-320.056	652.092	-0.012	0.030
-319.041	-6.975	-0.233	0.159
-318.026	-78.831	0.203	0.069
-317.012	273.704	0.069	-0.122
-315.997	-105.518	-0.184	-0.042
-314.983	-130.977	0.141	0.019
-313.968	208.688	0.066	-0.103
-312.953	66.313	-0.149	0.152
-311.939	-162.260	0.120	-0.006
-310.924	-61.311	0.272	-0.115
-309.910	341.709	-0.033	-0.065
-308.895	35.686	0.108	-0.095
-307.880	800.000	-0.132	-0.480
-306.866	289.059	0.091	-0.166
-305.851	184.200	0.080	0.119
-304.837	761.566	0.143	0.389
-303.822	39.391	0.251	0.226
-302.807	-107.327	0.146	-0.032
-301.793	-200.000	-0.020	-0.096
-300.778	402.061	0.194	0.409
-299.764	-200.000	-0.045	-0.265
-298.749	81.861	-0.220	0.240
-297.735	98.514	0.260	-0.301
-296.720	800.000	-0.035	0.127
-295.705	-182.154	-0.029	-0.001
-294.691	-174.748	0.279	0.008
-293.676	12.241	-0.103	0.079
-292.662	-13.194	0.051	-0.033
-291.647	297.308	0.013	-0.024
-290.632	-37.597	-0.284	0.152
-289.618	-115.956	-0.521	-0.097
-288.603	-34.811	0.337	-0.185
-287.589	658.777	-0.151	-0.391
-286.574	590.071	-0.109	-0.269
-285.559	569.289	0.104	-0.254
-284.545	16.147	-0.200	-0.158
-283.530	43.765	0.275	0.253
-282.516	-79.119	-0.033	-0.011
-281.501	-104.089	0.209	-0.049
-280.486	-21.502	-0.108	-0.066
-279.472	-8.927	0.155	0.104
-278.457	142.109	-0.064	0.085
-277.443	82.503	0.217	-0.236
-276.428	-86.710	-0.409	-0.125
-275.413	57.466	-0.254	-0.249
-274.399	63.245	-0.075	-0.075
-273.384	-200.000	-0.006	0.320
-272.370	634.003	0.096	0.244
-271.355	800.000	-0.089	-0.291
-270.340	-42.848	-0.057	-0.029
-269.326	-55.800	0.241	0.108
-268.311	116.806	0.181	0.223
-267.297	-116.027	0.246	0.046
-266.282	122.190	-0.099	0.123
-265.267	-154.358	-0.027	0.002
-264.253	18.177	-0.142	-0.113
-263.238	126.517	-0.148	0.188
-262.224	-200.000	0.047	0.457
-261.209	-200.000	0.001	0.260
-260.195	-200.000	-0.011	0.081
-259.180	48.329	-0.242	-0.227
-258.165	-129.449	-0.215	0.030
-257.151	144.938	-0.068	-0.091
-256.136	190.889	-0.024	-0.037
-255.122	-200.000	0.008	0.247
-254.107	-65.673	-0.195	0.078
-253.092	-62.506	0.246	0.102
-252.078	-162.592	0.065	-0.003
-251.063	-50.452	0.118	0.056
-250.049	-36.318	0.378	0.204
-249.034	-118.026	0.133	-0.024
-248.019	-22.786	-0.073	0.044
-247.005	166.975	-0.053	-0.075
-245.990	-137.914	-0.156	-0.017
-244.976	125.850	0.139	-0.175
-243.961	135.785	-0.056	0.073
-242.946	-56.956	-0.088	0.039
-241.932	67.085	-0.323	0.330
-240.917	4.780	0.167	0.123
-239.903	408.221	0.067	-0.142
-238.888	-111.580	-0.312	0.063
-237.873	2.883	-0.183	-0.133
-236.859	-142.614	0.137	-0.013
-235.844	-134.213	0.283	-0.035
-234.830	20.426	0.171	0.138
-233.815	-200.000	0.076	0.391
-232.800	-85.879	0.169	0.052
-231.786	40.001	0.104	-0.094
-230.771	-200.000	-0.028	-0.140
-229.757	-59.951	0.237	0.101
-228.742	-134.031	0.097	0.012
-227.727	8.018	-0.272	-0.204
-226.713	-200.000	0.033	-0.199
-225.698	-130.163	0.326	-0.044
-224.684	800.000	-0.072	0.241
-223.669	20.663	0.259	0.209
-222.655	134.369	-0.021	0.028
-221.640	116.446	0.040	0.049
-220.625	537.902	-0.044	-0.105
-219.611	-155.667	-0.223	0.014
-218.596	-62.295	0.111	0.046
-217.582	19.607	-0.043	-0.035
-216.567	12.005	0.047	-0.036
-215.552	-79.570	0.286	-0.097
-214.538	-200.000	-0.027	0.470
-213.523	-81.853	-0.234	-0.077
-212.509	-106.439	-0.208	0.047
-211.494	261.218	-0.122	0.212
-210.479	-161.251	0.127	-0.007
-209.465	-58.731	0.082	-0.036
-208.450	-200.000	-0.016	-0.091
-207.436	-115.203	-0.227	0.043
-206.421	63.230	-0.191	-0.192
-205.406	-15.987	0.110	-0.070
-204.392	800.000	0.089	-0.375
-203.377	-67.534	0.089	-0.035
-202.363	-14.534	-0.327	0.210
-201.348	779.888	0.049	0.133
-200.333	800.000	0.020	0.063
-199.319	-118.498	0.120	-0.021
-198.304	145.616	-0.120	-0.161
-197.290	-200.000	0.023	-0.154
-196.275	35.463	0.182	0.160
-195.260	-17.327	-0.181	0.114
-194.246	800.000	0.037	0.120
-193.231	800.000	-0.069	-0.198
-192.217	800.000	-0.030	-0.106
-191.202	-20.352	0.232	0.143
-190.187	-200.000	0.010	0.228
-189.173	-117.710	0.250	-0.045
-188.158	111.115	0.218	-0.262
-187.144	-42.193	0.294	-0.150
-186.129	-166.370	0.037	0.002
-185.114	82.190	-0.040	0.043
-184.100	-183.773	-0.230	0.004
-183.085	-200.000	-0.071	-0.317
-182.071	98.640	0.156	0.180
-181.056	-30.460	-0.256	0.145
-180.042	352.984	-0.036	0.072
-179.027	-98.216	0.080	-0.021
-178.012	289.705	0.120	-0.217
-176.998	-200.000	0.029	0.258
-175.983	-200.000	-0.034	0.248
-174.969	21.132	0.197	-0.160
-173.954	111.494	-0.165	-0.198
-172.939	800.000	-0.046	-0.198
-171.925	128.345	0.162	0.206
-170.910	-96.096	-0.090	0.024
-169.896	30.010	-0.100	-0.085
-168.881	-200.000	-0.018	-0.095
-167.866	-27.049	-0.187	-0.109
-166.852	-200.000	0.010	0.085
-165.837	388.538	0.052	-0.107
-164.823	85.853	0.168	0.184
-163.808	-200.000	0.035	0.262
-162.793	-121.935	0.221	-0.036
-161.779	800.000	0.089	0.336
-160.764	-200.000	-0.004	0.262
-159.750	102.828	-0.083	0.098
-158.735	-130.666	-0.313	-0.042
-157.720	69.791	0.182	-0.188
-156.706	-35.441	0.233	-0.126
-155.691	194.132	-0.051	0.077
-154.677	-200.000	0.004	-0.064
-153.662	-200.000	0.016	0.457
-152.647	87.061	0.100	0.110
-151.633	46.509	0.143	0.133
-150.618	17.477	-0.055	0.044
-149.604	800.000	0.072	0.277
-148.589	60.111	0.193	-0.190
-147.574	57.183	-0.336	-0.327
-146.560	360.482	-0.104	-0.208
-145.545	41.210	-0.145	0.131
-144.531	29.022	-0.045	0.038
-143.516	-200.000	0.030	-0.224
-142.502	-101.681	-0.374	-0.091
-141.487	-124.396	0.162	0.025
-140.472	-33.774	0.062	0.034
-139.458	-33.137	0.286	0.158
-138.443	243.670	0.221	-0.370
-137.429	99.890	0.143	-0.165
-136.414	85.490	-0.152	-0.166
-135.399	15.867	-0.297	-0.233
-134.385	6.695	0.060	-0.044
-133.370	-10.601	0.172	-0.114
-132.356	157.561	0.178	0.246
-131.341	11.105	-0.241	0.184
-130.326	59.489	-0.240	-0.236
-129.312	-140.394	-0.281	-0.029
-128.297	-44.768	-0.352	-0.175
-127.283	235.833	-0.088	-0.145
-126.268	2.176	-0.225	-0.162
-125.253	180.203	0.098	-0.143
-124.239	-71.642	0.263	0.098
-123.224	78.491	0.120	0.128
-122.210	92.851	0.281	0.316
