DTS Sentinel unit serial number:	SN413079Multiplexer serial number:	ORYXHardware model number:	OX4-SRSoftware version number:	ORYX F/W v4.00 Oryx Data Collector v3.7.2.0data status	okinstallation	princeton_trtdifferential loss correction	single-endedforward channel	channel 2reverse channel	N/Adate	2019/09/15time	05:55:34forward acquisition time	60.00reverse acquisition time	0.00gamma	496.2192k internal	0.2326k external	0.2326temperature offset calibration	1.0036default loss term (dB/km)	0.3790temperature slope calibration	1.0000multiplexer offset coefficient	1.0000multiplexer slope coefficient	1.0000fibre end	0.00T internal ref (°C)	30.62T ext. ref 1 (°C)	4.87T ext. ref 2 (°C)	25.36length (m)	temperature (°C)	Stokes	anti-Stokes-747.200	42.669	-0.252	0.231
-746.185	467.718	-0.138	0.313
-745.171	-4.568	0.222	0.155
-744.156	-200.000	-0.018	0.093
-743.142	-48.373	0.047	-0.023
-742.127	203.342	0.097	0.151
-741.112	-200.000	0.015	-0.170
-740.098	-7.713	0.085	0.058
-739.083	-42.138	-0.306	0.158
-738.069	-55.354	-0.324	0.147
-737.054	-181.466	0.221	0.004
-736.039	-120.561	-0.104	-0.018
-735.025	-99.697	-0.127	-0.032
-734.010	-200.000	-0.041	-0.464
-732.996	-200.000	-0.007	-0.198
-731.981	800.000	0.031	0.126
-730.966	280.542	-0.098	-0.176
-729.952	-86.470	0.111	0.034
-728.937	2.321	-0.281	-0.205
-727.923	33.741	0.153	0.134
-726.908	-200.000	0.029	-0.227
-725.894	-41.290	-0.416	0.216
-724.879	282.853	-0.059	0.106
-723.864	-134.074	-0.044	-0.005
-722.850	-51.313	-0.023	-0.011
-721.835	472.263	0.068	-0.154
-720.821	-38.423	0.089	0.047
-719.806	104.232	0.060	0.071
-718.791	-84.802	-0.326	-0.103
-717.777	437.005	0.071	-0.155
-716.762	4.697	-0.117	0.086
-715.748	800.000	0.165	0.520
-714.733	333.542	-0.090	0.176
-713.718	-16.442	-0.183	0.117
-712.704	-84.198	-0.082	-0.026
-711.689	-200.000	-0.039	-0.195
-710.675	-200.000	0.014	-0.241
-709.660	800.000	-0.058	0.185
-708.645	-54.407	0.060	-0.027
-707.631	18.779	0.225	0.182
-706.616	170.953	0.304	0.439
-705.602	-119.357	0.110	0.019
-704.587	-55.495	-0.434	0.196
-703.572	229.830	-0.095	0.156
-702.558	-110.294	-0.071	0.015
-701.543	-23.082	0.179	-0.109
-700.529	148.624	0.178	0.242
-699.514	800.000	0.056	0.200
-698.499	-52.514	-0.143	-0.067
-697.485	643.209	0.128	-0.330
-696.470	-176.729	0.460	-0.012
-695.456	-73.163	-0.188	0.069
-694.441	-178.248	0.222	0.005
-693.426	151.465	0.074	-0.102
-692.412	79.544	-0.155	0.167
-691.397	800.000	0.097	-0.342
-690.383	0.148	-0.045	0.032
-689.368	4.646	-0.244	-0.180
-688.354	49.225	0.162	0.153
-687.339	-55.694	-0.298	0.134
-686.324	-160.036	-0.201	0.011
-685.310	-54.600	-0.112	-0.051
-684.295	75.239	-0.239	0.253
-683.281	-69.073	-0.175	-0.068
-682.266	-113.169	-0.326	0.065
-681.251	-96.677	-0.404	0.107
-680.237	14.327	0.110	-0.087
-679.222	137.596	0.203	-0.267
-678.208	123.968	0.063	-0.079
-677.193	-74.791	-0.525	-0.190
-676.178	-200.000	-0.043	0.423
-675.164	-41.496	0.066	0.034
-674.149	-6.311	0.586	-0.402
-673.135	-69.458	-0.305	-0.117
-672.120	96.655	-0.199	0.229
-671.105	209.977	-0.180	-0.284
-670.091	159.870	-0.136	0.191
-669.076	-83.887	-0.425	-0.136
-668.062	-86.195	0.244	-0.076
-667.047	-97.713	0.293	-0.076
-666.032	176.595	-0.156	-0.228
-665.018	-200.000	0.007	0.349
-664.003	800.000	0.084	-0.295
-662.989	202.826	-0.135	-0.210
-661.974	74.563	-0.054	-0.057
-660.959	-200.000	-0.041	-0.279
-659.945	800.000	0.037	-0.140
-658.930	-114.512	-0.235	-0.045
-657.916	-53.304	0.213	0.098
-656.901	800.000	0.046	-0.134
-655.886	-122.683	0.124	-0.020
-654.872	52.216	0.133	-0.128
-653.857	46.429	0.246	-0.229
-652.843	-52.589	0.190	-0.088
-651.828	-200.000	-0.001	0.009
-650.814	800.000	-0.045	0.177
-649.799	377.082	-0.061	-0.126
-648.784	35.665	-0.205	-0.181
-647.770	-200.000	-0.046	0.206
-646.755	-17.256	0.220	-0.139
-645.741	-200.000	0.020	0.380
-644.726	-160.792	-0.293	0.016
-643.711	-132.366	-0.151	-0.020
-642.697	133.153	-0.125	-0.162
-641.682	-97.454	0.149	0.039
-640.668	-73.527	0.250	0.092
-639.653	210.644	-0.109	-0.172
-638.638	800.000	0.035	0.109
-637.624	-200.000	0.015	0.329
-636.609	-192.900	-0.376	0.003
-635.595	-200.000	0.016	0.095
-634.580	800.000	-0.069	-0.213
-633.565	-200.000	-0.030	-0.194
-632.551	800.000	0.066	-0.216
-631.536	37.110	0.210	-0.187
-630.522	-21.945	0.085	-0.052
-629.507	-128.011	0.182	0.026
-628.492	-115.545	-0.236	-0.044
-627.478	115.006	-0.143	0.175
-626.463	800.000	-0.051	-0.202
-625.449	76.849	-0.151	-0.161
-624.434	-27.611	-0.215	-0.125
-623.419	115.649	-0.122	0.150
-622.405	-68.486	0.150	-0.059
-621.390	675.777	0.156	0.406
-620.376	5.021	0.196	0.145
-619.361	215.001	-0.094	0.150
-618.346	800.000	-0.091	0.339
-617.332	240.784	0.102	-0.171
-616.317	701.476	-0.077	0.203
-615.303	-93.954	0.074	0.020
-614.288	63.265	0.091	0.092
-613.273	800.000	-0.040	-0.129
-612.259	-12.211	-0.122	0.080
-611.244	347.614	-0.058	-0.115
-610.230	-200.000	0.035	0.163
-609.215	318.860	0.125	0.237
-608.201	-117.412	-0.462	0.084
-607.186	-22.625	-0.189	-0.115
-606.171	-42.236	-0.049	-0.025
-605.157	18.609	-0.104	0.083
-604.142	-174.800	-0.126	0.004
-603.128	800.000	-0.028	-0.102
-602.113	-200.000	-0.014	-0.265
-601.098	-10.856	0.152	0.101
-600.084	59.087	0.288	-0.285
-599.069	-83.713	-0.281	-0.090
-598.055	-190.727	-0.209	0.002
-597.040	226.703	0.158	0.257
-596.025	17.244	0.127	0.101
-595.011	42.952	-0.179	-0.163
-593.996	-3.624	0.337	-0.235
-592.982	305.506	0.132	0.245
-591.967	-137.181	-0.399	0.046
-590.952	-200.000	-0.002	-0.244
-589.938	-50.874	-0.226	-0.106
-588.923	-15.630	-0.138	0.088
-587.909	131.051	0.083	0.106
-586.894	74.626	-0.178	0.188
-585.879	11.620	0.254	0.195
-584.865	800.000	0.060	0.206
-583.850	-8.314	0.173	-0.117
-582.836	-125.762	0.045	-0.007
-581.821	-200.000	0.016	0.105
-580.806	610.706	0.163	-0.408
-579.792	-88.602	0.223	-0.067
-578.777	-200.000	-0.001	-0.069
-577.763	800.000	-0.036	0.132
-576.748	70.264	0.018	0.019
-575.733	148.831	-0.148	0.200
-574.719	85.291	-0.220	-0.242
-573.704	-51.991	-0.163	-0.076
-572.690	11.230	-0.285	-0.219
-571.675	594.067	0.194	0.481
-570.661	-200.000	0.019	0.200
-569.646	-53.361	-0.286	0.131
-568.631	-139.929	0.281	-0.030
-567.617	-95.866	-0.234	-0.062
-566.602	800.000	0.133	-0.523
-565.588	26.732	0.228	0.191
-564.573	737.629	0.074	-0.198
-563.558	-123.274	0.404	0.065
-562.544	67.419	-0.065	-0.067
-561.529	127.068	-0.050	0.064
-560.515	167.738	-0.104	0.148
-559.500	18.458	-0.284	-0.227
-558.485	-141.152	0.090	0.009
-557.471	-200.000	0.010	0.203
-556.456	-200.000	-0.000	-0.150
-555.442	7.350	0.189	-0.141
-554.427	-80.366	-0.146	0.049
-553.412	800.000	0.075	-0.280
-552.398	-149.977	0.077	0.006
-551.383	78.894	0.064	0.068
-550.369	414.496	0.034	0.072
-549.354	-33.647	-0.213	-0.117
-548.339	16.800	-0.210	0.166
-547.325	114.554	-0.197	0.240
-546.310	-160.110	-0.165	0.009
-545.296	241.897	0.127	0.213
-544.281	-13.020	0.135	0.088
-543.266	47.956	0.270	-0.253
-542.252	-200.000	-0.045	-0.346
-541.237	-118.172	0.257	0.046
-540.223	-200.000	0.033	0.241
-539.208	-200.000	0.011	-0.246
-538.193	36.897	0.132	-0.117
-537.179	356.763	-0.183	-0.364
-536.164	-30.278	0.098	0.056
-535.150	-15.863	-0.093	-0.059
-534.135	128.349	-0.138	0.176
-533.121	10.629	-0.044	-0.033
-532.106	-162.099	0.244	-0.012
-531.091	203.969	-0.041	-0.063
-530.077	124.597	0.080	0.101
-529.062	-65.915	-0.060	-0.024
-528.048	396.117	0.178	-0.371
-527.033	81.638	0.046	-0.050
-526.018	34.201	0.177	-0.154
-525.004	-23.558	-0.108	0.065
-523.989	-152.256	0.224	0.016
-522.975	800.000	-0.106	-0.342
-521.960	-200.000	0.122	0.000
-520.945	-200.000	-0.064	0.390
-519.931	-79.047	0.195	-0.066
-518.916	214.811	-0.190	0.300
-517.902	-200.000	-0.008	0.093
-516.887	800.000	0.083	0.245
-515.872	383.968	-0.109	-0.224
-514.858	-137.173	-0.081	0.009
-513.843	344.956	-0.147	-0.288
-512.829	187.130	0.123	-0.183
-511.814	-175.732	-0.129	0.003
-510.799	-104.968	-0.132	0.030
-509.785	111.705	-0.141	0.170
-508.770	-104.791	-0.299	-0.069
-507.756	-74.573	0.130	-0.047
-506.741	-70.364	-0.320	-0.121
-505.726	-200.000	-0.000	-0.187
-504.712	268.582	0.042	-0.073
-503.697	-39.405	0.135	0.071
-502.683	-80.065	-0.092	-0.031
-501.668	63.739	-0.102	0.103
-500.653	232.064	-0.020	0.032
-499.639	-200.000	-0.011	0.053
-498.624	69.886	0.047	-0.048
-497.610	-22.484	0.113	0.068
-496.595	-70.322	-0.183	-0.069
-495.581	-137.946	0.185	0.021
-494.566	553.611	0.132	0.318
-493.551	20.844	-0.053	-0.043
-492.537	-200.000	0.005	-0.036
-491.522	-200.000	0.003	0.390
-490.508	800.000	0.055	-0.159
-489.493	800.000	0.091	-0.385
-488.478	-200.000	-0.021	-0.322
-487.464	95.706	-0.062	0.071
-486.449	595.983	-0.093	0.229
-485.435	-77.114	0.148	0.051
-484.420	-200.000	-0.006	-0.117
-483.405	-152.838	-0.268	-0.019
-482.391	37.216	-0.154	0.137
-481.376	187.578	-0.088	0.131
-480.362	183.595	0.059	0.087
-479.347	4.322	-0.146	-0.107
-478.332	523.504	-0.057	0.135
-477.318	113.474	0.228	0.277
-476.303	800.000	0.049	0.181
-475.289	800.000	0.028	-0.105
-474.274	125.888	0.065	0.081
-473.259	28.052	0.221	-0.186
-472.245	-5.305	0.106	-0.073
-471.230	-54.269	-0.158	0.072
-470.216	-200.000	-0.025	0.237
-469.201	-164.078	0.198	-0.009
-468.186	657.687	0.049	0.125
-467.172	-200.000	-0.028	0.168
-466.157	-138.185	0.307	-0.034
-465.143	800.000	-0.125	-0.380
-464.128	-200.000	0.012	-0.125
-463.113	141.692	0.214	-0.283
-462.099	14.843	0.314	-0.245
-461.084	800.000	0.108	-0.372
-460.070	-107.312	-0.067	0.015
-459.055	-20.359	0.085	-0.052
-458.040	15.486	-0.396	0.311
-457.026	-126.110	-0.251	0.038
-456.011	593.749	0.100	0.248
-454.997	-33.294	0.259	-0.143
-453.982	800.000	0.050	0.140
-452.968	-149.976	-0.254	0.020
-451.953	85.333	0.343	-0.375
-450.938	-200.000	-0.002	-0.365
-449.924	-99.963	-0.298	-0.074
-448.909	-150.193	0.080	-0.006
-447.895	6.467	0.239	0.177
-446.880	183.153	-0.031	-0.045
-445.865	-200.000	0.063	0.463
-444.851	78.731	0.171	0.182
-443.836	608.147	-0.106	0.263
-442.822	15.340	-0.330	0.258
-441.807	-71.448	0.454	0.169
-440.792	-200.000	-0.019	-0.145
-439.778	-129.913	-0.092	-0.013
-438.763	-81.071	-0.362	-0.119
-437.749	590.372	0.064	-0.157
-436.734	-160.400	-0.262	-0.014
-435.719	-91.345	0.153	0.043
-434.705	800.000	-0.073	0.276
-433.690	28.798	-0.245	-0.207
-432.676	-130.569	-0.329	0.044
-431.661	800.000	0.038	0.105
-430.646	86.071	0.086	0.095
-429.632	-139.353	-0.492	-0.053
-428.617	113.860	0.217	0.263
-427.603	8.507	0.219	0.164
-426.588	-91.625	0.349	-0.099
-425.573	-73.879	-0.245	-0.089
-424.559	-200.000	-0.022	-0.113
-423.544	408.541	0.051	-0.108
-422.530	66.712	-0.214	0.217
-421.515	-128.990	0.191	0.027
-420.500	72.395	0.053	-0.055
-419.486	-195.247	-0.140	0.001
-418.471	800.000	0.083	0.329
-417.457	-40.161	0.508	0.263
-416.442	-64.279	0.283	-0.115
-415.428	-68.593	-0.170	0.066
-414.413	71.971	-0.106	-0.110
-413.398	-200.000	-0.006	0.236
-412.384	93.660	0.232	-0.261
-411.369	-45.268	0.122	0.060
-410.355	-59.217	0.274	0.117
-409.340	46.628	0.181	0.167
-408.325	-61.582	-0.294	0.123
-407.311	519.452	0.121	-0.282
-406.296	-200.000	-0.019	0.407
-405.282	-102.123	-0.091	0.022
-404.267	-68.709	0.120	0.046
-403.252	56.915	0.125	-0.121
-402.238	273.302	0.135	0.237
-401.223	274.011	-0.064	-0.113
-400.209	119.546	-0.084	-0.104
-399.194	7.546	-0.223	-0.166
-398.179	35.994	0.311	-0.272
-397.165	-18.267	-0.329	-0.205
-396.150	-4.641	-0.155	0.107
-395.136	84.115	0.292	-0.318
-394.121	11.221	-0.364	-0.277
-393.106	345.489	0.130	-0.254
-392.092	-200.000	0.023	-0.105
-391.077	70.390	-0.217	-0.224
-390.063	-158.254	-0.072	0.004
-389.048	19.634	-0.061	0.049
-388.033	-30.438	0.307	-0.173
-387.019	-200.000	-0.028	-0.194
-386.004	26.999	-0.036	-0.030
-384.990	681.432	0.033	0.087
-383.975	174.811	0.143	-0.206
-382.960	-77.250	-0.297	0.103
-381.946	166.838	0.028	0.039
-380.931	238.014	0.342	-0.565
-379.917	-84.651	0.089	0.028
-378.902	575.405	-0.082	0.199
-377.888	72.471	-0.286	-0.297
-376.873	-120.062	-0.320	-0.055
-375.858	48.939	0.160	0.149
-374.844	16.193	0.048	-0.037
-373.829	550.485	0.055	-0.131
-372.815	178.852	-0.243	0.353
-371.800	174.398	0.204	0.293
-370.785	54.018	-0.324	0.309
-369.771	-137.189	0.243	0.027
-368.756	-75.596	0.259	0.092
-367.742	800.000	0.061	0.249
-366.727	-126.031	-0.272	-0.041
-365.712	-200.000	-0.017	-0.124
-364.698	27.727	-0.247	-0.207
-363.683	-129.757	-0.361	-0.049
-362.669	157.595	-0.201	-0.277
-361.654	-200.000	0.006	0.299
-360.639	376.645	-0.040	0.082
-359.625	-82.925	0.319	-0.102
-358.610	-171.617	-0.366	-0.012
-357.596	328.309	-0.120	0.228
-356.581	-126.805	-0.066	0.010
-355.566	12.401	-0.146	-0.112
-354.552	643.016	-0.043	-0.109
-353.537	800.000	0.078	-0.319
-352.523	-102.825	-0.189	-0.045
-351.508	-0.962	-0.200	0.141
-350.493	-111.496	0.090	-0.018
-349.479	-67.442	-0.076	-0.030
-348.464	-43.031	-0.127	-0.064
-347.450	-200.000	-0.001	-0.235
-346.435	-166.183	0.212	0.009
-345.420	0.772	0.283	0.201
-344.406	264.862	0.117	0.203
-343.391	-200.000	-0.008	-0.096
-342.377	10.833	0.166	0.126
-341.362	-3.676	-0.222	0.153
-340.348	461.665	-0.106	-0.234
-339.333	-0.510	-0.152	-0.107
-338.318	-200.000	0.024	-0.124
-337.304	-40.749	0.003	0.002
-336.289	-84.278	-0.197	0.062
-335.275	-107.265	0.256	0.056
-334.260	-46.034	0.202	0.099
-333.245	11.346	0.253	-0.192
-332.231	717.515	-0.115	0.303
-331.216	-102.619	0.132	0.031
-330.202	-190.765	0.226	0.002
-329.187	800.000	-0.055	0.169
-328.172	3.392	0.150	0.108
-327.158	-200.000	-0.025	0.222
-326.143	244.812	-0.143	0.239
-325.129	-82.524	-0.298	0.096
-324.114	207.575	0.317	0.491
-323.099	-70.508	-0.160	-0.060
-322.085	145.492	0.093	-0.124
-321.070	-15.067	-0.395	0.251
-320.056	93.255	0.087	-0.098
-319.041	-71.911	0.091	-0.033
-318.026	-178.275	0.325	-0.008
-317.012	7.463	0.039	0.029
-315.997	-43.608	-0.066	-0.033
-314.983	-97.191	-0.171	-0.044
-313.968	-173.633	0.240	0.007
-312.953	-18.506	0.278	-0.172
-311.939	-124.141	-0.117	-0.018
-310.924	656.288	0.057	-0.145
-309.910	123.701	-0.125	0.156
-308.895	117.474	0.073	-0.088
-307.880	173.465	0.155	-0.221
-306.866	87.043	-0.183	-0.200
-305.851	-125.848	-0.252	-0.038
-304.837	-160.032	0.048	-0.003
-303.822	-40.752	0.234	0.120
-302.807	800.000	0.088	0.244
-301.793	-80.803	0.195	0.064
-300.778	-200.000	0.002	0.110
-299.764	-200.000	-0.046	-0.228
-298.749	-200.000	-0.009	-0.204
-297.735	800.000	0.047	0.138
-296.720	105.657	0.164	0.192
-295.705	-200.000	0.009	-0.154
-294.691	53.341	-0.315	-0.299
-293.676	114.230	0.069	-0.084
-292.662	143.856	0.122	0.161
-291.647	13.349	0.186	-0.143
-290.632	-97.904	-0.118	0.030
-289.618	527.275	0.113	0.264
-288.603	-109.507	-0.129	-0.027
-287.589	800.000	0.103	0.282
-286.574	-58.668	-0.126	-0.054
-285.559	-20.297	0.085	-0.052
-284.545	29.793	-0.135	0.114
-283.530	-65.063	-0.408	0.163
-282.516	-48.138	0.199	-0.095
-281.501	-200.000	-0.013	0.197
-280.486	131.535	-0.149	0.190
-279.472	-93.136	0.303	0.084
-278.457	209.286	-0.044	-0.068
-277.443	-50.421	-0.221	-0.104
-276.428	-46.771	0.091	-0.044
-275.413	370.489	0.170	0.342
-274.399	-200.000	-0.049	0.223
-273.384	-139.153	0.146	0.016
-272.370	-200.000	-0.007	-0.050
-271.355	109.711	0.154	0.182
-270.340	32.841	0.325	-0.279
-269.326	-200.000	0.077	-0.504
-268.311	-110.321	-0.061	-0.013
-267.297	-71.547	-0.240	0.089
-266.282	12.747	-0.194	-0.149
-265.267	12.168	0.121	0.092
-264.253	-33.573	-0.373	0.204
-263.238	179.381	0.217	0.314
-262.224	267.187	-0.068	-0.119
-261.209	-54.040	0.077	0.035
-260.195	56.202	0.067	-0.064
-259.180	407.518	0.167	-0.348
-258.165	62.134	-0.052	0.051
-257.151	-103.201	0.383	0.090
-256.136	800.000	-0.025	-0.069
-255.122	0.555	-0.316	0.224
-254.107	411.321	0.141	0.296
-253.092	160.043	0.011	-0.015
-252.078	298.290	-0.120	0.218
-251.063	-116.404	-0.132	0.024
-250.049	-152.311	-0.238	-0.017
-249.034	-36.825	0.244	0.129
-248.019	-91.740	0.331	0.093
-247.005	15.013	-0.175	0.136
-245.990	-167.442	-0.088	-0.004
-244.976	101.188	0.346	-0.399
-243.961	132.602	0.114	-0.145
-242.946	-144.598	0.317	-0.029
-241.932	-200.000	0.067	-0.293
-240.917	-32.436	-0.133	0.073
-239.903	-200.000	0.014	0.370
-238.888	-159.667	0.174	0.009
-237.873	559.235	-0.048	0.114
-236.859	389.262	0.123	-0.252
-235.844	-28.055	0.029	-0.017
-234.830	-3.317	-0.074	0.051
-233.815	-200.000	-0.012	0.273
-232.800	-29.335	0.262	0.148
-231.786	121.505	0.101	0.125
-230.771	241.512	0.099	-0.164
-229.757	-200.000	0.008	0.092
-228.742	86.337	-0.198	-0.216
-227.727	-93.447	-0.110	0.030
-226.713	-200.000	-0.084	0.379
-225.698	232.161	0.114	0.185
-224.684	-23.005	0.055	0.033
-223.669	-42.770	-0.026	0.013
-222.655	-114.087	0.223	-0.043
-221.640	219.787	0.128	0.203
-220.625	190.903	0.103	0.153
-219.611	348.917	0.074	0.144
-218.596	-35.515	0.060	-0.032
-217.582	-5.045	0.278	0.189
-216.567	747.254	0.110	-0.292
-215.552	-200.000	0.035	-0.156
-214.538	-200.000	-0.054	-0.384
-213.523	101.859	0.120	-0.138
-212.509	199.743	0.084	-0.127
-211.494	100.541	0.140	0.161
-210.479	38.977	0.159	-0.140
-209.465	104.293	0.115	-0.133
-208.450	444.862	0.119	0.258
-207.436	-114.748	0.113	0.021
-206.421	15.013	0.165	-0.127
-205.406	-200.000	-0.013	-0.075
-204.392	146.397	0.220	-0.292
-203.377	4.309	-0.087	0.063
-202.363	615.148	0.041	0.101
-201.348	108.421	-0.178	0.210
-200.333	-55.081	-0.203	0.090
-199.319	680.345	-0.077	-0.198
-198.304	-191.059	-0.174	0.002
-197.290	147.979	-0.149	0.199
-196.275	8.766	-0.076	-0.056
-195.260	-200.000	0.005	0.101
-194.246	800.000	-0.053	0.214
-193.231	-200.000	-0.035	-0.294
-192.217	226.875	-0.251	-0.403
-191.202	-145.969	0.032	-0.003
-190.187	71.626	-0.078	-0.080
-189.173	55.052	-0.122	-0.116
-188.158	-13.051	-0.379	0.244
-187.144	57.200	-0.101	-0.097
-186.129	223.867	-0.114	0.181
-185.114	-200.000	-0.041	-0.308
-184.100	-12.346	-0.129	-0.083
-183.085	-88.811	-0.087	-0.025
-182.071	-114.082	-0.278	0.053
-181.056	546.298	-0.179	0.423
-180.042	-133.657	-0.196	0.024
-179.027	-163.757	-0.194	-0.009
-178.012	-200.000	-0.059	-0.287
-176.998	-87.572	0.184	0.055
-175.983	-100.395	-0.234	-0.057
-174.969	43.831	-0.306	-0.276
-173.954	-86.795	0.362	0.109
-172.939	-160.626	0.170	0.009
-171.925	33.258	-0.059	-0.051
-170.910	183.476	0.163	-0.238
-169.896	562.549	0.086	0.205
-168.881	42.433	0.214	0.192
-167.866	-5.435	0.091	-0.062
-166.852	800.000	0.035	-0.107
-165.837	234.142	0.059	-0.095
-164.823	194.509	-0.069	-0.103
-163.808	353.012	0.194	-0.380
-162.793	-112.481	-0.219	0.043
-161.779	41.826	-0.058	-0.052
-160.764	-195.299	0.209	0.002
-159.750	-142.795	0.144	-0.014
-158.735	-72.502	-0.103	0.037
-157.720	27.193	0.117	0.097
-156.706	-178.737	0.029	0.001
-155.691	-106.693	-0.229	0.050
-154.677	-156.110	-0.102	-0.006
-153.662	800.000	-0.005	-0.020
-152.647	-71.673	-0.119	-0.044
-151.633	800.000	-0.103	-0.426
-150.618	-200.000	0.062	0.376
-149.604	-73.224	0.127	0.046
-148.589	97.308	-0.066	0.075
-147.574	311.105	-0.042	0.077
-146.560	164.345	0.216	-0.300
-145.545	800.000	0.021	-0.066
-144.531	81.048	0.026	0.028
-143.516	120.312	-0.226	-0.277
-142.502	800.000	-0.027	0.115
-141.487	-177.516	-0.327	0.008
-140.472	-107.649	0.155	-0.033
-139.458	91.058	-0.247	-0.273
-138.443	-100.912	-0.286	0.069
-137.429	497.059	-0.082	0.187
-136.414	-193.397	0.305	-0.003
-135.399	-200.000	0.020	0.161
-134.385	-141.665	0.557	0.055
-133.370	240.739	-0.090	-0.148
-132.356	-82.775	0.150	-0.048
-131.341	97.725	-0.107	-0.121
-130.326	55.090	-0.184	-0.175
-129.312	-200.000	0.009	0.143
-128.297	-62.493	-0.166	-0.068
-127.283	-200.000	0.015	0.115
-126.268	800.000	0.030	0.085
-125.253	-95.376	0.337	0.089
-124.239	326.288	-0.084	-0.158
-123.224	800.000	-0.026	0.083
-122.210	800.000	-0.079	0.260
-121.195	-200.000	0.021	-0.409
-120.180	-137.041	0.239	0.027
