DTS Sentinel unit serial number:	SN413079Multiplexer serial number:	ORYXHardware model number:	OX4-SRSoftware version number:	ORYX F/W v4.00 Oryx Data Collector v3.7.2.0data status	okinstallation	princeton_trtdifferential loss correction	single-endedforward channel	channel 2reverse channel	N/Adate	2019/09/10time	22:45:11forward acquisition time	60.00reverse acquisition time	0.00gamma	496.2192k internal	0.2329k external	0.2329temperature offset calibration	0.9945default loss term (dB/km)	0.3790temperature slope calibration	1.0000multiplexer offset coefficient	1.0000multiplexer slope coefficient	1.0000fibre end	0.00T internal ref (°C)	30.19T ext. ref 1 (°C)	-0.31T ext. ref 2 (°C)	23.60length (m)	temperature (°C)	Stokes	anti-Stokes-747.200	-128.488	0.208	-0.030
-746.185	-172.578	-0.150	0.005
-745.171	800.000	0.039	-0.108
-744.156	800.000	0.076	0.248
-743.142	720.227	0.126	0.337
-742.127	130.156	-0.077	0.099
-741.112	-24.066	-0.148	-0.089
-740.098	-91.249	-0.407	0.117
-739.083	-200.000	-0.008	-0.295
-738.069	-130.691	0.203	0.027
-737.054	800.000	0.099	-0.316
-736.039	800.000	-0.030	-0.103
-735.025	-19.730	-0.069	-0.043
-734.010	192.969	-0.036	-0.055
-732.996	340.618	0.137	0.268
-731.981	-192.044	-0.260	0.003
-730.966	220.924	-0.063	-0.101
-729.952	800.000	-0.212	0.604
-728.937	-16.127	-0.280	0.179
-727.923	-34.365	-0.167	0.092
-726.908	-143.091	0.174	0.017
-725.894	295.600	-0.059	-0.108
-724.879	-99.285	-0.152	-0.039
-723.864	800.000	0.072	-0.282
-722.850	100.984	0.088	0.103
-721.835	203.155	-0.063	0.098
-720.821	-200.000	0.018	0.386
-719.806	296.577	-0.115	0.213
-718.791	-62.463	0.427	-0.179
-717.777	800.000	0.015	0.051
-716.762	103.108	0.032	0.037
-715.748	-81.401	-0.195	0.065
-714.733	49.759	0.349	-0.331
-713.718	445.688	0.068	-0.151
-712.704	90.201	-0.306	-0.345
-711.689	182.282	-0.216	0.320
-710.675	-110.005	0.173	0.037
-709.660	-107.530	0.203	0.045
-708.645	800.000	0.052	0.146
-707.631	101.490	-0.221	0.259
-706.616	44.948	0.196	0.182
-705.602	-200.000	-0.001	0.022
-704.587	-23.958	0.207	-0.125
-703.572	10.040	0.076	-0.058
-702.558	692.629	-0.110	0.289
-701.543	73.274	-0.024	0.026
-700.529	-59.094	-0.140	-0.061
-699.514	364.763	0.050	-0.101
-698.499	-200.000	-0.058	-0.282
-697.485	69.597	0.244	-0.252
-696.470	-175.355	-0.005	-0.000
-695.456	800.000	-0.016	0.064
-694.441	113.087	-0.119	0.145
-693.426	800.000	0.034	-0.116
-692.412	-187.604	-0.134	0.002
-691.397	-74.136	-0.086	-0.031
-690.383	-172.942	-0.248	-0.008
-689.368	187.795	0.161	0.241
-688.354	-200.000	-0.014	0.128
-687.339	107.534	0.042	0.050
-686.324	-27.607	-0.289	0.169
-685.310	740.972	0.085	0.230
-684.295	-73.913	0.112	0.041
-683.281	139.936	0.150	-0.198
-682.266	302.516	0.091	0.168
-681.251	59.853	-0.141	0.140
-680.237	65.804	-0.015	-0.015
-679.222	1.472	0.116	0.084
-678.208	0.777	0.045	0.033
-677.193	69.306	-0.175	0.180
-676.178	-102.832	-0.207	0.050
-675.164	-200.000	-0.013	-0.230
-674.149	-200.000	-0.062	-0.373
-673.135	31.211	-0.061	0.052
-672.120	-27.537	0.233	0.136
-671.105	1.362	0.288	-0.208
-670.091	-51.069	0.095	0.045
-669.076	-61.718	-0.244	-0.103
-668.062	-59.559	-0.219	-0.094
-667.047	149.731	0.281	0.383
-666.032	-130.143	-0.295	-0.040
-665.018	-200.000	0.021	-0.232
-664.003	68.585	0.298	-0.307
-662.989	163.065	-0.300	-0.423
-661.974	-200.000	-0.076	0.397
-660.959	800.000	-0.084	0.295
-659.945	646.877	-0.106	0.271
-658.930	800.000	-0.086	-0.372
-657.916	-43.707	-0.136	-0.069
-656.901	-200.000	0.002	0.119
-655.886	185.061	-0.235	-0.351
-654.872	32.498	0.155	0.134
-653.857	265.751	-0.055	0.096
-652.843	785.037	-0.056	-0.154
-651.828	800.000	-0.027	-0.099
-650.814	-101.525	0.103	0.025
-649.799	-200.000	-0.055	-0.374
-648.784	-102.135	-0.081	0.020
-647.770	293.476	0.130	0.238
-646.755	-169.624	0.183	0.007
-645.741	135.663	0.041	0.053
-644.726	-200.000	-0.010	0.143
-643.711	-62.683	-0.214	-0.089
-642.697	-0.408	-0.206	0.147
-641.682	477.259	0.265	0.601
-640.668	459.178	0.178	-0.397
-639.653	-200.000	-0.007	-0.299
-638.638	-200.000	-0.085	0.541
-637.624	32.006	-0.165	0.143
-636.609	723.061	0.078	0.209
-635.595	133.680	0.232	-0.301
-634.580	438.378	0.062	0.135
-633.565	290.668	-0.067	0.122
-632.551	-51.438	-0.255	0.119
-631.536	520.445	-0.060	0.141
-630.522	-200.000	0.053	-0.306
-629.507	472.132	0.036	-0.081
-628.492	141.805	0.238	0.316
-627.478	14.592	-0.117	-0.092
-626.463	219.646	-0.041	-0.065
-625.449	800.000	-0.060	-0.262
-624.434	37.821	-0.135	-0.120
-623.419	-97.915	-0.221	0.057
-622.405	-200.000	0.038	-0.205
-621.390	218.161	-0.203	-0.325
-620.376	197.366	-0.280	0.428
-619.361	-79.286	-0.108	-0.037
-618.346	-49.290	0.199	-0.095
-617.332	800.000	-0.115	-0.389
-616.317	78.991	0.166	-0.178
-615.303	-194.530	-0.148	-0.001
-614.288	-200.000	-0.001	-0.031
-613.273	-55.125	-0.408	0.184
-612.259	20.037	-0.153	-0.123
-611.244	-102.851	-0.225	-0.054
-610.230	270.695	-0.130	-0.230
-609.215	-41.775	0.411	0.211
-608.201	-82.570	-0.073	-0.024
-607.186	-19.670	0.118	-0.073
-606.171	-143.607	-0.120	0.011
-605.157	-138.993	-0.313	-0.034
-604.142	800.000	0.072	-0.275
-603.128	800.000	-0.052	0.195
-602.113	-200.000	0.021	0.256
-601.098	-149.901	0.299	-0.023
-600.084	4.283	-0.204	-0.150
-599.069	-124.629	0.244	0.038
-598.055	800.000	-0.090	-0.256
-597.040	-57.195	0.159	0.070
-596.025	9.211	-0.299	0.227
-595.011	792.740	-0.049	-0.135
-593.996	141.789	0.030	-0.040
-592.982	164.241	0.111	0.157
-591.967	129.782	-0.126	-0.162
-590.952	-38.252	0.661	-0.351
-589.938	-50.879	-0.198	-0.093
-588.923	-171.222	0.171	-0.006
-587.909	-123.112	0.149	0.024
-586.894	-104.359	0.183	-0.042
-585.879	4.767	-0.071	0.052
-584.865	126.452	0.156	-0.197
-583.850	33.787	0.276	-0.241
-582.836	346.071	-0.060	0.119
-581.821	76.566	-0.130	0.138
-580.806	78.761	-0.158	0.169
-579.792	800.000	0.095	0.279
-578.777	170.787	-0.107	0.153
-577.763	368.652	-0.087	0.176
-576.748	-200.000	0.024	-0.110
-575.733	180.080	-0.044	-0.065
-574.719	160.225	-0.151	-0.211
-573.704	800.000	0.068	-0.236
-572.690	354.092	0.115	0.229
-571.675	-200.000	-0.013	0.237
-570.661	-200.000	0.095	-0.530
-569.646	197.545	-0.264	0.403
-568.631	-33.626	0.320	0.177
-567.617	-200.000	-0.071	-0.435
-566.602	-67.915	-0.398	-0.156
-565.588	-25.646	-0.345	-0.204
-564.573	362.809	-0.050	-0.100
-563.558	800.000	0.024	-0.068
-562.544	-42.769	0.151	0.077
-561.529	-154.793	-0.200	0.013
-560.515	-92.712	0.066	0.018
-559.500	136.617	-0.085	0.111
-558.485	116.367	0.118	-0.145
-557.471	-43.908	0.139	-0.070
-556.456	8.848	0.372	-0.280
-555.442	-200.000	0.012	-0.240
-554.427	572.515	-0.012	0.029
-553.412	69.388	-0.167	-0.171
-552.398	-200.000	0.022	-0.108
-551.383	101.735	-0.107	0.125
-550.369	800.000	-0.033	-0.123
-549.354	800.000	0.059	-0.203
-548.339	-69.754	0.381	0.145
-547.325	420.442	-0.213	-0.456
-546.310	-200.000	-0.014	-0.244
-545.296	-48.530	-0.118	0.057
-544.281	406.570	-0.173	-0.366
-543.266	82.946	0.151	-0.164
-542.252	142.134	-0.191	0.254
-541.237	324.218	-0.114	0.218
-540.223	5.310	0.081	0.059
-539.208	64.055	-0.073	0.073
-538.193	63.883	-0.065	-0.065
-537.179	800.000	0.058	-0.163
-536.164	39.869	-0.068	0.061
-535.150	151.101	-0.186	0.253
-534.135	107.524	0.230	0.273
-533.121	311.733	-0.105	0.196
-532.106	-155.869	-0.205	-0.013
-531.091	-66.595	-0.206	0.082
-530.077	-48.380	0.079	-0.038
-529.062	186.345	0.067	-0.100
-528.048	304.763	0.126	0.234
-527.033	-84.565	0.368	0.116
-526.018	708.284	-0.107	0.282
-525.004	-86.553	-0.315	0.097
-523.989	-95.371	-0.106	-0.028
-522.975	-146.678	0.329	-0.028
-521.960	31.109	-0.238	0.204
-520.945	22.080	-0.457	-0.372
-519.931	27.121	-0.060	-0.050
-518.916	-200.000	-0.024	0.471
-517.902	276.376	0.030	0.053
-516.887	0.732	-0.096	-0.069
-515.872	141.983	-0.196	-0.259
-514.858	100.583	0.117	0.135
-513.843	8.685	-0.086	-0.064
-512.829	217.562	0.213	-0.339
-511.814	-4.751	-0.031	-0.021
-510.799	-180.066	0.280	-0.006
-509.785	-35.161	-0.330	-0.179
-508.770	-200.000	-0.045	-0.355
-507.756	216.136	-0.147	0.233
-506.741	-200.000	0.036	-0.192
-505.726	-200.000	-0.017	-0.138
-504.712	-58.050	-0.297	0.129
-503.697	-113.747	0.041	0.008
-502.683	255.447	0.119	0.203
-501.668	800.000	-0.050	-0.146
-500.653	-200.000	-0.005	-0.191
-499.639	800.000	-0.106	-0.379
-498.624	28.516	0.451	-0.380
-497.610	-200.000	-0.482	0.001
-496.595	416.965	-0.062	0.132
-495.581	97.630	-0.078	0.089
-494.566	744.928	0.082	-0.219
-493.551	138.394	-0.028	0.037
-492.537	-94.592	-0.405	-0.110
-491.522	614.185	-0.085	0.213
-490.508	178.874	0.101	-0.147
-489.493	-104.561	0.117	-0.027
-488.478	-45.730	0.247	-0.122
-487.464	-200.000	-0.019	-0.282
-486.449	661.402	0.107	-0.275
-485.435	49.363	-0.113	-0.106
-484.420	131.830	0.255	0.327
-483.405	67.868	-0.145	0.147
-482.391	-53.843	-0.076	0.035
-481.376	-200.000	-0.036	0.456
-480.362	158.016	-0.022	0.031
-479.347	-200.000	0.014	0.169
-478.332	-150.954	0.134	0.010
-477.318	127.291	0.213	0.269
-476.303	103.460	0.120	-0.141
-475.289	-17.052	0.519	-0.326
-474.274	230.345	-0.270	0.440
-473.259	51.917	-0.125	0.118
-472.245	-164.994	-0.257	0.011
-471.230	-138.601	0.200	-0.022
-470.216	31.840	0.123	0.105
-469.201	-154.033	0.219	0.015
-468.186	-147.279	-0.352	-0.030
-467.172	-156.897	-0.041	0.003
-466.157	-115.373	-0.192	-0.036
-465.143	-157.495	0.216	0.013
-464.128	-161.593	0.122	0.006
-463.113	-10.737	0.107	-0.070
-462.099	-46.931	-0.149	0.072
-461.084	-154.447	0.258	-0.017
-460.070	-139.602	0.204	0.022
-459.055	97.735	0.195	-0.224
-458.040	192.542	-0.111	0.167
-457.026	237.422	-0.074	0.122
-456.011	-129.716	0.283	0.039
-454.997	-200.000	-0.017	0.157
-453.982	29.281	-0.204	0.172
-452.968	303.662	-0.059	-0.109
-451.953	-135.323	-0.285	0.034
-450.938	65.078	-0.119	-0.120
-449.924	441.224	0.116	0.252
-448.909	24.806	0.105	0.087
-447.895	-200.000	-0.028	-0.406
-446.880	-200.000	-0.028	0.138
-445.865	-200.000	-0.002	0.058
-444.851	184.620	-0.052	0.076
-443.836	-49.305	-0.071	-0.034
-442.822	-30.289	0.167	0.095
-441.807	-142.674	-0.247	-0.024
-440.792	-200.000	0.073	-0.363
-439.778	560.366	-0.043	0.104
-438.763	15.683	-0.025	-0.019
-437.749	155.733	0.130	0.178
-436.734	-48.821	-0.269	0.128
-435.719	-29.308	0.103	0.058
-434.705	-70.313	0.125	0.047
-433.690	-50.288	0.147	0.069
-432.676	-100.741	-0.249	-0.061
-431.661	-100.827	0.319	0.078
-430.646	14.796	-0.056	-0.044
-429.632	69.973	-0.272	-0.279
-428.617	70.213	-0.113	0.117
-427.603	-200.000	0.010	0.151
-426.588	-107.399	-0.152	0.033
-425.573	-200.000	-0.024	0.160
-424.559	572.862	0.047	-0.114
-423.544	-200.000	0.080	0.397
-422.530	800.000	0.052	-0.172
-421.515	-109.169	-0.246	0.052
-420.500	-66.166	0.124	-0.049
-419.486	800.000	0.053	-0.146
-418.471	276.498	0.054	-0.095
-417.457	-81.997	0.363	0.118
-416.442	-4.436	0.196	-0.134
-415.428	429.781	-0.029	-0.063
-414.413	34.736	-0.198	-0.172
-413.398	-171.020	-0.101	0.003
-412.384	800.000	0.036	0.108
-411.369	-71.014	-0.213	0.080
-410.355	75.079	-0.242	-0.254
-409.340	-8.303	-0.108	-0.072
-408.325	-200.000	-0.001	-0.046
-407.311	377.078	0.093	0.188
-406.296	375.782	0.066	0.134
-405.282	-161.501	0.229	-0.012
-404.267	154.088	-0.127	-0.173
-403.252	-97.938	0.371	-0.095
-402.238	507.280	-0.077	-0.177
-401.223	-38.810	-0.302	-0.158
-400.209	-87.260	0.152	-0.046
-399.194	66.223	0.273	0.275
-398.179	181.372	0.049	0.072
-397.165	228.997	-0.142	-0.230
-396.150	-10.147	-0.068	-0.045
-395.136	86.615	-0.237	0.260
-394.121	227.089	0.178	-0.287
-393.106	800.000	0.088	0.249
-392.092	-200.000	-0.010	-0.178
-391.077	-200.000	-0.013	0.298
-390.063	218.457	-0.204	0.323
-389.048	-200.000	0.019	0.143
-388.033	-2.155	-0.069	-0.048
-387.019	206.579	0.110	0.170
-386.004	-15.049	0.236	0.150
-384.990	-200.000	-0.011	-0.083
-383.975	-124.115	0.366	-0.057
-382.960	800.000	0.037	-0.104
-381.946	800.000	-0.093	-0.258
-380.931	-200.000	0.025	0.237
-379.917	-200.000	-0.006	0.169
-378.902	122.950	0.104	-0.129
-377.888	113.796	0.009	-0.011
-376.873	-101.581	-0.138	-0.033
-375.858	-200.000	-0.000	-0.122
-374.844	305.065	0.041	-0.075
-373.829	-180.540	0.080	0.002
-372.815	-81.012	-0.264	-0.087
-371.800	-200.000	0.017	0.078
-370.785	800.000	-0.064	-0.219
-369.771	-200.000	0.032	0.144
-368.756	-73.472	-0.294	-0.107
-367.742	205.412	0.151	0.233
-366.727	-200.000	-0.046	0.374
-365.712	72.479	-0.235	-0.243
-364.698	-124.070	0.374	0.058
-363.683	-61.493	-0.548	-0.229
-362.669	437.876	-0.148	-0.320
-361.654	704.115	-0.022	0.058
-360.639	-58.366	-0.153	0.066
-359.625	170.033	-0.033	-0.047
-358.610	9.222	-0.263	0.197
-357.596	-121.093	-0.120	0.020
-356.581	-89.439	0.347	-0.101
-355.566	-42.514	0.136	0.069
-354.552	-200.000	-0.028	0.372
-353.537	94.615	-0.086	0.097
-352.523	422.629	-0.030	-0.063
-351.508	-200.000	-0.030	0.174
-350.493	154.568	0.136	0.185
-349.479	-55.214	0.171	0.076
-348.464	735.585	-0.161	-0.427
-347.450	-50.147	-0.311	0.146
-346.435	-200.000	-0.034	-0.225
-345.420	-110.235	-0.238	0.049
-344.406	-92.448	0.052	0.015
-343.391	800.000	0.077	0.221
-342.377	-82.019	0.154	0.050
-341.362	-25.944	0.222	-0.129
-340.348	10.314	-0.227	-0.171
-339.333	12.428	0.417	0.318
-338.318	800.000	-0.063	-0.233
-337.304	-170.252	0.085	0.003
-336.289	18.997	0.271	0.215
-335.275	-103.298	-0.108	0.025
-334.260	-17.507	0.401	-0.250
-333.245	-150.879	0.295	-0.022
-332.231	-79.341	0.362	0.122
-331.216	29.380	-0.333	0.280
-330.202	543.756	0.092	-0.217
-329.187	800.000	-0.064	0.275
-328.172	0.285	0.232	0.164
-327.158	-119.610	-0.546	0.094
-326.143	-30.949	-0.054	-0.030
-325.129	-30.314	0.171	0.096
-324.114	280.837	0.082	0.145
-323.099	-67.173	-0.117	-0.046
-322.085	325.590	0.127	-0.241
-321.070	236.202	0.161	0.264
-320.056	26.911	0.267	0.221
-319.041	98.656	-0.229	-0.261
-318.026	656.643	0.121	0.307
-317.012	127.168	0.026	0.033
-315.997	-29.804	0.294	0.166
-314.983	-67.009	-0.184	-0.072
-313.968	323.693	0.046	0.086
-312.953	-52.466	-0.131	-0.060
-311.939	-87.379	-0.315	0.095
-310.924	6.379	0.286	0.210
-309.910	113.688	-0.046	-0.056
-308.895	229.910	0.110	0.178
-307.880	107.257	0.244	-0.287
-306.866	-5.104	0.324	-0.221
-305.851	26.617	-0.127	-0.105
-304.837	-142.271	0.338	0.033
-303.822	-83.379	0.160	-0.051
-302.807	-200.000	-0.016	0.257
-301.793	-94.641	-0.135	-0.036
-300.778	-189.211	-0.077	0.001
-299.764	164.964	-0.133	0.186
-298.749	-200.000	0.019	-0.086
-297.735	59.821	-0.244	0.238
-296.720	252.196	-0.046	-0.078
-295.705	-200.000	-0.013	0.152
-294.691	-200.000	-0.008	0.224
-293.676	-48.654	0.150	0.071
-292.662	-33.452	-0.135	-0.074
-291.647	-15.933	-0.105	0.066
-290.632	-101.977	-0.160	-0.038
-289.618	-114.846	-0.169	-0.032
-288.603	-43.382	0.098	0.049
-287.589	24.528	0.238	-0.195
-286.574	455.033	0.021	0.046
-285.559	114.103	0.218	0.262
-284.545	-27.680	-0.244	-0.140
-283.530	-132.024	0.144	-0.019
-282.516	-30.689	0.412	0.230
-281.501	-147.003	-0.210	-0.018
-280.486	-71.258	-0.178	-0.066
-279.472	-57.000	-0.300	-0.131
-278.457	800.000	0.072	0.239
-277.443	-105.185	-0.383	0.087
-276.428	-8.271	0.235	-0.156
-275.413	-126.318	-0.256	-0.038
-274.399	-139.270	-0.333	0.035
-273.384	-29.996	-0.311	-0.175
-272.370	-57.489	0.254	-0.110
-271.355	90.479	-0.059	-0.065
-270.340	110.126	0.187	-0.221
-269.326	800.000	0.100	0.303
-268.311	-14.029	-0.176	-0.113
-267.297	-122.400	0.415	0.067
-266.282	-15.711	-0.180	-0.113
-265.267	-166.259	0.121	-0.005
-264.253	-57.274	-0.106	-0.046
-263.238	-50.697	0.196	0.091
-262.224	21.010	0.018	-0.014
-261.209	-200.000	0.020	-0.133
-260.195	103.162	0.173	-0.201
-259.180	-128.379	-0.341	-0.048
-258.165	-200.000	0.080	0.366
-257.151	800.000	-0.036	-0.132
-256.136	53.977	-0.009	0.008
-255.122	-70.772	-0.306	-0.114
-254.107	-200.000	0.012	-0.136
-253.092	-93.332	-0.053	0.015
-252.078	27.595	0.252	0.209
-251.063	-49.458	-0.139	0.066
-250.049	684.934	0.062	0.159
-249.034	-56.522	-0.119	-0.052
-248.019	-148.012	0.251	-0.021
-247.005	291.230	-0.132	-0.237
-245.990	-20.568	0.002	0.001
-244.976	-31.223	0.279	-0.155
-243.961	193.606	0.083	-0.124
-242.946	375.961	0.071	0.142
-241.932	-84.189	-0.153	-0.048
-240.917	393.917	0.139	-0.286
-239.903	-101.202	-0.173	0.042
-238.888	-200.000	0.011	0.130
-237.873	800.000	0.063	-0.247
-236.859	362.232	-0.080	-0.159
-235.844	-33.286	0.234	0.128
-234.830	-200.000	0.040	0.191
-233.815	66.368	-0.095	0.095
-232.800	4.929	-0.445	-0.323
-231.786	562.226	-0.119	-0.285
-230.771	34.041	-0.309	-0.266
-229.757	800.000	0.092	-0.299
-228.742	-76.056	0.225	0.079
-227.727	-58.362	0.056	0.024
-226.713	-83.940	-0.153	0.048
-225.698	-154.485	0.337	0.022
-224.684	244.742	0.238	-0.394
-223.669	800.000	-0.029	-0.105
-222.655	-99.079	0.403	0.101
-221.640	68.068	-0.268	0.271
-220.625	-147.986	-0.197	0.016
-219.611	-200.000	-0.025	-0.151
-218.596	-73.017	-0.216	0.078
-217.582	-73.392	0.264	0.095
-216.567	21.305	0.176	-0.141
-215.552	800.000	-0.026	0.107
-214.538	35.235	-0.093	-0.080
-213.523	149.204	0.100	0.133
-212.509	-11.538	-0.224	0.146
-211.494	-200.000	0.023	-0.174
-210.479	800.000	-0.009	-0.030
-209.465	-112.359	0.249	0.049
-208.450	795.247	0.139	0.378
-207.436	79.539	-0.137	-0.145
-206.421	-200.000	0.038	-0.226
-205.406	225.649	0.097	-0.155
-204.392	249.456	0.062	-0.104
-203.377	179.803	0.024	0.034
-202.363	-200.000	-0.026	-0.328
-201.348	-200.000	0.047	-0.285
-200.333	-16.391	-0.136	-0.085
-199.319	-73.608	0.035	0.012
-198.304	199.575	0.235	0.355
-197.290	117.307	0.048	0.059
-196.275	-71.051	0.297	-0.110
-195.260	-92.339	-0.218	-0.061
-194.246	196.223	0.175	-0.263
-193.231	-116.008	-0.232	0.043
-192.217	-134.200	0.557	0.068
-191.202	-200.000	-0.041	0.342
-190.187	124.894	0.097	-0.121
-189.173	-11.334	-0.282	0.183
-188.158	-112.959	0.086	-0.017
-187.144	20.128	-0.208	-0.165
-186.129	17.031	0.316	0.247
-185.114	86.479	-0.098	0.106
-184.100	-3.937	0.411	0.281
-183.085	116.341	-0.056	-0.067
-182.071	216.293	-0.142	0.223
-181.056	-200.000	0.018	-0.127
-180.042	800.000	0.074	-0.226
-179.027	-200.000	0.046	0.357
-178.012	-118.770	0.173	-0.030
-176.998	-20.144	-0.243	0.148
-175.983	-85.359	-0.335	-0.103
-174.969	159.991	0.169	0.232
-173.954	-119.070	0.407	0.070
-172.939	508.186	0.050	-0.114
-171.925	-200.000	-0.025	-0.370
-170.910	-200.000	0.011	0.245
-169.896	48.435	-0.163	0.151
-168.881	-52.028	0.204	-0.093
-167.866	-200.000	0.040	0.363
-166.852	-200.000	-0.005	0.145
-165.837	-83.688	0.218	-0.069
-164.823	-36.435	-0.152	0.081
-163.808	170.478	0.064	0.090
-162.793	24.531	0.209	0.170
-161.779	8.116	-0.229	-0.169
-160.764	-57.535	-0.176	-0.076
-159.750	-120.819	0.280	-0.046
-158.735	-85.564	-0.299	0.091
-157.720	-67.800	-0.256	-0.098
-156.706	747.964	0.030	0.079
-155.691	-4.410	0.068	0.046
-154.677	-78.287	0.204	-0.069
-153.662	141.724	0.207	0.270
-152.647	-57.261	-0.255	0.110
-151.633	800.000	0.029	0.098
-150.618	-200.000	-0.012	0.279
-149.604	-200.000	0.033	-0.206
-148.589	-128.971	0.177	0.024
-147.574	-200.000	-0.006	-0.294
-146.560	-58.980	0.085	0.036
-145.545	-131.487	0.194	-0.025
-144.531	188.124	0.141	0.207
-143.516	-59.228	0.223	0.095
-142.502	111.458	0.078	-0.093
-141.487	74.620	-0.079	0.082
-140.472	-200.000	-0.015	0.108
-139.458	-79.804	0.247	0.082
-138.443	125.701	0.070	-0.087
-137.429	61.252	-0.043	0.042
-136.414	-48.458	0.347	0.164
-135.399	800.000	-0.071	-0.218
-134.385	34.431	-0.046	0.040
-133.370	-37.238	-0.079	-0.041
-132.356	-52.806	-0.351	-0.159
-131.341	170.321	-0.167	-0.235
-130.326	72.765	0.231	0.237
-129.312	297.166	-0.087	-0.157
-128.297	-64.264	-0.245	0.098
-127.283	800.000	-0.056	0.223
-126.268	-65.392	0.086	0.034
-125.253	452.457	0.122	-0.265
-124.239	-137.958	0.062	0.007
-123.224	458.136	-0.002	0.003
-122.210	-200.000	-0.051	0.269
-121.195	-74.900	-0.229	0.081
