DTS Sentinel unit serial number:	SN413079Multiplexer serial number:	ORYXHardware model number:	OX4-SRSoftware version number:	ORYX F/W v4.00 Oryx Data Collector v3.7.2.0data status	okinstallation	princeton_trtdifferential loss correction	single-endedforward channel	channel 2reverse channel	N/Adate	2019/09/16time	01:31:35forward acquisition time	60.00reverse acquisition time	0.00gamma	496.2192k internal	0.2336k external	0.2336temperature offset calibration	0.9965default loss term (dB/km)	0.3790temperature slope calibration	1.0000multiplexer offset coefficient	1.0000multiplexer slope coefficient	1.0000fibre end	0.00T internal ref (°C)	27.28T ext. ref 1 (°C)	9.92T ext. ref 2 (°C)	22.02length (m)	temperature (°C)	Stokes	anti-Stokes-747.200	77.065	0.126	0.135
-746.185	258.765	-0.124	0.215
-745.171	45.592	-0.100	0.093
-744.156	-116.266	0.038	0.007
-743.142	157.791	0.275	-0.382
-742.127	-200.000	0.014	0.097
-741.112	-128.250	-0.305	0.044
-740.098	-200.000	-0.033	0.150
-739.083	-131.488	0.296	0.039
-738.069	-44.701	0.299	0.150
-737.054	-200.000	-0.007	0.341
-736.039	-200.000	-0.179	-0.001
-735.025	5.865	-0.055	0.041
-734.010	23.895	0.012	-0.010
-732.996	250.226	-0.266	0.453
-731.981	-200.000	-0.009	0.124
-730.966	-44.187	-0.110	0.055
-729.952	572.763	-0.030	0.075
-728.937	-148.770	-0.224	0.018
-727.923	-109.401	-0.029	0.006
-726.908	108.204	0.242	-0.289
-725.894	-74.161	0.190	0.069
-724.879	18.535	-0.124	0.099
-723.864	22.992	-0.301	-0.248
-722.850	208.816	0.145	-0.228
-721.835	-71.057	-0.421	0.159
-720.821	7.574	-0.135	-0.101
-719.806	78.808	-0.349	-0.374
-718.791	-200.000	-0.002	0.250
-717.777	-18.339	0.196	0.123
-716.762	800.000	0.047	-0.166
-715.748	76.451	-0.173	-0.184
-714.733	471.391	-0.074	0.168
-713.718	800.000	-0.073	-0.218
-712.704	-200.000	-0.030	-0.134
-711.689	800.000	0.058	-0.177
-710.675	-139.062	-0.198	-0.021
-709.660	143.491	-0.159	0.213
-708.645	-200.000	-0.007	0.354
-707.631	-200.000	0.010	0.150
-706.616	230.651	0.089	-0.146
-705.602	429.205	-0.086	0.187
-704.587	633.110	-0.127	-0.323
-703.572	80.257	-0.181	0.195
-702.558	-200.000	-0.042	0.426
-701.543	63.616	0.119	0.120
-700.529	-92.373	0.324	0.091
-699.514	-160.475	-0.147	-0.008
-698.499	-200.000	-0.011	0.247
-697.485	-50.038	0.086	0.041
-696.470	-130.004	-0.141	-0.019
-695.456	-14.417	-0.031	-0.020
-694.441	35.923	-0.221	-0.195
-693.426	-9.127	0.133	0.089
-692.412	-92.236	-0.116	-0.033
-691.397	-70.198	-0.163	0.062
-690.383	770.599	-0.068	-0.185
-689.368	-57.302	-0.191	0.084
-688.354	-77.672	0.109	-0.038
-687.339	29.292	0.130	-0.110
-686.324	-62.442	-0.101	0.042
-685.310	-89.753	-0.212	-0.062
-684.295	-200.000	0.025	-0.154
-683.281	112.006	-0.243	-0.294
-682.266	800.000	-0.034	-0.105
-681.251	329.515	0.140	0.270
-680.237	-200.000	-0.019	0.245
-679.222	314.380	-0.075	0.141
-678.208	283.887	0.054	-0.098
-677.193	-200.000	-0.032	0.367
-676.178	-154.722	0.132	0.009
-675.164	-200.000	0.037	-0.494
-674.149	-200.000	0.051	-0.250
-673.135	800.000	-0.084	-0.235
-672.120	413.729	-0.052	-0.111
-671.105	-200.000	-0.018	-0.183
-670.091	800.000	-0.163	-0.477
-669.076	800.000	-0.046	0.184
-668.062	-170.874	-0.376	-0.013
-667.047	800.000	-0.034	-0.136
-666.032	210.297	-0.150	0.236
-665.018	-200.000	-0.012	0.100
-664.003	800.000	0.123	0.365
-662.989	-39.438	0.176	0.092
-661.974	90.064	0.135	-0.151
-660.959	-71.028	0.195	-0.073
-659.945	-200.000	0.010	0.455
-658.930	-68.450	0.254	-0.099
-657.916	-101.203	0.277	0.068
-656.901	325.283	0.175	-0.335
-655.886	-118.933	-0.409	-0.072
-654.872	800.000	0.106	-0.305
-653.857	-87.521	-0.320	-0.097
-652.843	-200.000	-0.022	0.108
-651.828	-200.000	-0.037	0.354
-650.814	95.479	0.145	0.166
-649.799	-73.353	0.290	0.106
-648.784	-62.966	-0.135	0.056
-647.770	-123.122	0.112	0.018
-646.755	800.000	0.041	-0.114
-645.741	3.128	0.152	-0.110
-644.726	88.853	0.220	0.244
-643.711	-200.000	-0.028	-0.195
-642.697	-119.787	-0.258	0.044
-641.682	277.970	-0.123	0.218
-640.668	-143.559	-0.336	0.032
-639.653	-200.000	-0.025	0.170
-638.638	-90.633	-0.077	0.022
-637.624	13.986	-0.261	-0.203
-636.609	-101.080	0.138	0.034
-635.595	-29.192	0.246	-0.141
-634.580	-108.225	-0.031	0.007
-633.565	3.758	-0.382	-0.279
-632.551	109.354	-0.350	0.420
-631.536	-200.000	-0.015	-0.109
-630.522	416.108	-0.118	0.252
-629.507	-34.273	-0.261	-0.143
-628.492	-20.317	-0.117	-0.072
-627.478	-134.742	0.227	-0.028
-626.463	2.026	0.324	0.234
-625.449	-112.847	-0.021	0.004
-624.434	172.453	0.389	0.559
-623.419	61.392	0.120	-0.120
-622.405	160.489	0.070	0.097
-621.390	-46.787	0.314	-0.153
-620.376	800.000	0.022	0.067
-619.361	-20.362	-0.314	0.193
-618.346	82.410	0.027	0.029
-617.332	21.706	-0.054	-0.044
-616.317	184.800	0.133	0.197
-615.303	62.805	0.300	0.299
-614.288	-200.000	-0.145	0.000
-613.273	-37.823	-0.274	0.145
-612.259	142.324	-0.090	-0.119
-611.244	50.735	0.087	0.082
-610.230	-70.527	-0.376	0.142
-609.215	800.000	0.084	-0.243
-608.201	-200.000	-0.040	-0.359
-607.186	188.934	0.069	-0.102
-606.171	-43.374	-0.254	-0.128
-605.157	1.394	0.040	-0.029
-604.142	-9.980	-0.188	0.125
-603.128	-4.686	-0.382	0.263
-602.113	212.787	-0.018	-0.029
-601.098	198.094	0.115	0.176
-600.084	800.000	0.043	-0.184
-599.069	-82.544	-0.458	-0.148
-598.055	-200.000	0.021	0.235
-597.040	42.975	-0.136	0.124
-596.025	-34.475	0.183	-0.100
-595.011	-200.000	-0.015	0.085
-593.996	-108.221	-0.234	-0.051
-592.982	-154.689	0.214	-0.014
-591.967	-120.102	-0.296	-0.051
-590.952	-79.570	-0.154	0.052
-589.938	164.546	-0.064	-0.090
-588.923	214.479	0.113	0.179
-587.909	-71.637	-0.316	0.118
-586.894	424.139	0.077	-0.165
-585.879	800.000	-0.050	0.214
-584.865	-4.364	0.192	-0.133
-583.850	-200.000	-0.026	0.165
-582.836	-200.000	-0.037	0.168
-581.821	162.118	0.092	-0.128
-580.806	703.611	-0.089	-0.235
-579.792	-62.004	-0.125	-0.052
-578.777	-200.000	-0.038	-0.336
-577.763	800.000	0.054	-0.221
-576.748	134.672	-0.104	0.134
-575.733	-139.162	-0.077	0.008
-574.719	36.057	-0.229	0.201
-573.704	37.616	0.073	-0.064
-572.690	-186.401	0.219	0.003
-571.675	-21.901	-0.118	-0.071
-570.661	166.849	0.244	-0.346
-569.646	203.166	0.132	0.204
-568.631	3.300	-0.023	-0.017
-567.617	-200.000	0.003	-0.121
-566.602	405.877	-0.092	-0.194
-565.588	3.412	0.221	-0.161
-564.573	-127.566	0.195	-0.028
-563.558	-103.423	0.204	-0.048
-562.544	-181.127	-0.357	-0.007
-561.529	-145.828	-0.173	-0.015
-560.515	97.672	0.259	-0.297
-559.500	-200.000	-0.001	-0.019
-558.485	12.980	-0.119	-0.092
-557.471	-143.702	0.211	-0.020
-556.456	-112.362	-0.017	0.003
-555.442	-67.039	-0.311	0.122
-554.427	800.000	-0.049	-0.204
-553.412	-6.034	-0.106	-0.072
-552.398	-200.000	0.015	0.111
-551.383	147.145	-0.261	0.351
-550.369	102.724	-0.136	0.159
-549.354	79.813	-0.226	-0.242
-548.339	-135.588	0.611	0.072
-547.325	-78.163	-0.139	-0.047
-546.310	-62.558	0.050	-0.021
-545.296	550.378	-0.098	0.234
-544.281	118.971	-0.101	-0.124
-543.266	57.032	0.118	0.114
-542.252	-200.000	-0.019	-0.283
-541.237	-7.486	0.138	0.093
-540.223	100.203	0.044	-0.051
-539.208	-200.000	-0.002	-0.125
-538.193	-106.811	-0.159	0.035
-537.179	4.304	-0.268	-0.196
-536.164	-59.843	-0.102	-0.043
-535.150	-49.318	0.194	0.092
-534.135	-200.000	-0.028	-0.423
-533.121	800.000	-0.046	-0.176
-532.106	-200.000	0.028	0.197
-531.091	-58.642	-0.305	0.132
-530.077	-126.923	0.119	-0.017
-529.062	-200.000	-0.008	-0.203
-528.048	54.372	-0.055	-0.053
-527.033	-200.000	0.079	0.346
-526.018	800.000	-0.092	0.314
-525.004	-147.016	-0.149	0.013
-523.989	-200.000	0.039	0.297
-522.975	330.418	-0.104	0.200
-521.960	176.490	0.136	0.197
-520.945	472.753	0.103	-0.232
-519.931	-200.000	0.053	-0.369
-518.916	8.788	-0.326	-0.245
-517.902	720.363	-0.127	-0.336
-516.887	-93.311	0.205	0.057
-515.872	-200.000	0.009	-0.273
-514.858	800.000	0.068	0.209
-513.843	-129.723	-0.662	0.091
-512.829	-134.260	0.367	0.045
-511.814	404.616	0.198	0.415
-510.799	800.000	-0.056	0.167
-509.785	8.258	-0.248	-0.185
-508.770	143.200	0.117	-0.155
-507.756	-75.965	0.060	-0.021
-506.741	109.942	-0.087	0.104
-505.726	-121.329	0.344	0.057
-504.712	-127.798	0.093	0.013
-503.697	308.278	0.134	-0.248
-502.683	22.911	0.102	-0.083
-501.668	-112.497	0.119	-0.024
-500.653	-200.000	-0.019	-0.282
-499.639	-162.872	0.241	-0.012
-498.624	-14.278	0.133	-0.085
-497.610	-128.979	0.131	0.018
-496.595	-200.000	-0.011	-0.087
-495.581	-0.099	-0.105	0.074
-494.566	800.000	0.049	-0.191
-493.551	800.000	-0.026	0.094
-492.537	156.506	-0.305	-0.418
-491.522	38.131	-0.312	0.276
-490.508	-95.267	-0.139	-0.037
-489.493	772.423	-0.022	0.058
-488.478	-200.000	-0.012	0.140
-487.464	112.004	-0.102	-0.122
-486.449	148.359	0.010	-0.014
-485.435	209.943	0.120	0.187
-484.420	-200.000	0.048	-0.235
-483.405	-17.962	0.371	-0.231
-482.391	-200.000	-0.075	-0.397
-481.376	239.209	-0.089	-0.147
-480.362	77.731	0.185	0.196
-479.347	243.687	0.059	-0.098
-478.332	199.163	0.229	0.349
-477.318	-47.711	0.050	-0.024
-476.303	-109.864	0.151	0.031
-475.289	-149.614	-0.114	0.009
-474.274	-200.000	-0.000	0.247
-473.259	475.910	-0.135	0.303
-472.245	175.319	0.107	0.154
-471.230	8.366	0.152	0.114
-470.216	155.410	0.137	-0.187
-469.201	-200.000	0.027	0.257
-468.186	62.013	0.120	0.118
-467.172	0.691	0.324	0.230
-466.157	164.957	-0.113	0.159
-465.143	800.000	-0.084	-0.297
-464.128	75.431	-0.142	0.149
-463.113	-21.792	0.069	-0.042
-462.099	-200.000	-0.003	-0.047
-461.084	330.481	-0.184	-0.352
-460.070	800.000	0.032	0.098
-459.055	800.000	-0.062	-0.215
-458.040	129.191	-0.131	-0.166
-457.026	-98.859	0.235	-0.059
-456.011	246.018	-0.099	0.165
-454.997	-42.516	-0.106	-0.054
-453.982	-200.000	0.041	-0.317
-452.968	160.512	-0.122	0.168
-451.953	-200.000	-0.009	0.059
-450.938	-121.598	0.351	-0.058
-449.924	800.000	0.022	-0.072
-448.909	137.016	0.123	0.159
-447.895	800.000	0.124	0.444
-446.880	-46.503	-0.251	0.122
-445.865	340.515	-0.111	-0.215
-444.851	-200.000	-0.033	0.226
-443.836	-15.808	-0.089	0.056
-442.822	800.000	-0.095	-0.265
-441.807	-119.181	0.019	0.003
-440.792	-111.737	-0.329	-0.066
-439.778	-200.000	0.034	0.236
-438.763	27.838	-0.265	0.222
-437.749	800.000	0.030	-0.120
-436.734	-200.000	0.044	-0.241
-435.719	1.456	0.146	-0.104
-434.705	-133.685	0.069	-0.009
-433.690	-85.976	-0.175	-0.054
-432.676	-1.308	-0.112	-0.078
-431.661	-200.000	0.001	-0.128
-430.646	-200.000	-0.003	-0.314
-429.632	166.883	-0.126	0.177
-428.617	87.816	-0.103	-0.113
-427.603	-77.233	-0.200	-0.069
-426.588	37.727	0.104	0.092
-425.573	-200.000	-0.297	0.000
-424.559	193.386	-0.088	0.133
-423.544	118.938	-0.088	0.108
-422.530	-200.000	0.033	0.365
-421.515	-200.000	-0.059	-0.420
-420.500	-15.407	-0.050	-0.032
-419.486	-172.185	-0.234	-0.007
-418.471	-28.258	-0.158	-0.090
-417.457	-200.000	-0.016	-0.181
-416.442	-139.463	0.354	0.038
-415.428	-99.887	-0.260	-0.065
-414.413	-145.847	0.109	-0.010
-413.398	-100.299	-0.432	-0.106
-412.384	800.000	0.073	0.233
-411.369	-102.029	0.309	0.074
-410.355	-105.729	-0.288	0.065
-409.340	583.971	-0.090	0.220
-408.325	71.159	0.113	0.117
-407.311	-39.950	0.138	-0.072
-406.296	322.547	0.013	0.024
-405.282	81.307	0.114	0.122
-404.267	-105.037	0.076	0.017
-403.252	463.485	0.163	-0.361
-402.238	98.580	-0.208	0.238
-401.223	103.569	0.053	-0.062
-400.209	-162.690	-0.138	0.007
-399.194	-106.106	0.120	0.027
-398.179	-56.086	-0.132	0.058
-397.165	-31.905	-0.086	0.048
-396.150	-150.464	-0.386	0.029
-395.136	-16.727	-0.046	-0.029
-394.121	225.573	0.063	0.100
-393.106	-200.000	0.003	0.117
-392.092	-200.000	-0.011	0.343
-391.077	-131.303	0.453	0.059
-390.063	-68.969	-0.271	-0.103
-389.048	204.435	0.067	-0.103
-388.033	5.317	-0.167	0.122
-387.019	-153.869	-0.154	-0.010
-386.004	203.251	-0.121	0.186
-384.990	154.714	0.070	0.095
-383.975	18.214	0.284	0.224
-382.960	319.537	-0.106	-0.198
-381.946	-123.753	0.243	0.038
-380.931	228.699	-0.036	-0.059
-379.917	-200.000	0.018	-0.225
-378.902	186.274	-0.157	-0.231
-377.888	71.352	-0.239	0.246
-376.873	20.804	0.271	-0.217
-375.858	-81.853	0.211	0.069
-374.844	309.583	0.121	-0.224
-373.829	-29.290	0.166	-0.094
-372.815	-32.711	-0.080	0.044
-371.800	-69.334	0.086	0.033
-370.785	-200.000	0.027	0.257
-369.771	-30.125	0.294	0.166
-368.756	-200.000	0.022	0.220
-367.742	418.757	-0.056	0.119
-366.727	-163.522	-0.050	0.002
-365.712	-58.646	-0.172	0.074
-364.698	86.960	0.306	-0.334
-363.683	-55.543	0.088	-0.039
-362.669	355.916	-0.181	-0.356
-361.654	800.000	0.080	-0.243
-360.639	59.739	-0.071	-0.069
-359.625	1.783	0.095	0.068
-358.610	350.546	-0.026	-0.051
-357.596	11.684	-0.301	-0.229
-356.581	-5.970	-0.134	-0.090
-355.566	35.759	-0.091	0.079
-354.552	-50.662	0.174	0.081
-353.537	-146.638	0.223	-0.019
-352.523	-84.987	-0.223	-0.069
-351.508	-105.501	-0.284	-0.064
-350.493	-200.000	-0.067	0.296
-349.479	45.146	-0.209	0.191
-348.464	-200.000	-0.001	0.144
-347.450	51.621	0.132	-0.124
-346.435	-58.401	0.140	0.060
-345.420	-25.037	0.241	0.141
-344.406	-12.015	-0.130	0.084
-343.391	-37.383	-0.260	0.137
-342.377	299.183	-0.065	0.118
-341.362	163.918	0.202	0.281
-340.348	-200.000	0.001	0.128
-339.333	57.399	0.166	0.160
-338.318	800.000	0.058	-0.184
-337.304	228.264	-0.107	0.172
-336.289	-77.493	0.346	0.119
-335.275	-200.000	0.039	-0.395
-334.260	-129.679	0.178	0.024
-333.245	800.000	-0.060	-0.229
-332.231	-200.000	-0.017	0.094
-331.216	-200.000	-0.012	-0.203
-330.202	47.913	0.090	0.083
-329.187	-200.000	-0.033	-0.221
-328.172	-141.889	0.299	-0.030
-327.158	339.194	0.045	0.087
-326.143	-115.402	0.013	0.002
-325.129	-156.140	-0.029	0.002
-324.114	-143.355	0.246	0.023
-323.099	-200.000	-0.013	0.110
-322.085	-200.000	-0.024	-0.110
-321.070	82.338	-0.172	0.184
-320.056	-56.624	-0.118	0.051
-319.041	800.000	0.040	-0.121
-318.026	-94.536	-0.292	0.079
-317.012	796.900	0.063	-0.171
-315.997	136.330	0.087	-0.113
-314.983	292.364	-0.076	0.137
-313.968	-200.000	0.016	0.328
-312.953	-22.515	-0.169	0.101
-311.939	108.937	0.327	-0.386
-310.924	-172.320	-0.695	-0.022
-309.910	6.270	-0.076	-0.055
-308.895	634.557	-0.089	0.222
-307.880	-200.000	0.034	0.211
-306.866	-46.670	0.318	-0.154
-305.851	-200.000	0.039	-0.178
-304.837	-35.201	0.473	-0.254
-303.822	800.000	0.056	-0.219
-302.807	-165.323	0.177	-0.008
-301.793	13.311	0.090	-0.069
-300.778	147.696	-0.177	-0.235
-299.764	-41.028	0.231	0.118
-298.749	-44.937	0.214	-0.105
-297.735	-11.832	-0.169	0.110
-296.720	-125.982	0.232	-0.034
-295.705	643.606	0.050	-0.126
-294.691	-58.209	0.162	-0.070
-293.676	-116.847	-0.137	0.025
-292.662	-200.000	0.009	0.173
-291.647	298.790	0.144	0.262
-290.632	-52.189	-0.142	-0.065
-289.618	-200.000	0.054	-0.418
-288.603	-97.242	-0.198	0.051
-287.589	130.423	-0.131	0.166
-286.574	228.831	-0.130	-0.208
-285.559	-50.031	0.359	0.168
-284.545	-200.000	0.022	-0.142
-283.530	-104.675	-0.270	-0.061
-282.516	-12.100	0.380	-0.246
-281.501	101.884	-0.251	0.289
-280.486	157.889	0.098	0.133
-279.472	425.493	0.166	-0.352
-278.457	-55.365	0.186	0.082
-277.443	-200.000	0.045	0.247
-276.428	-200.000	0.004	-0.080
-275.413	162.603	0.188	-0.260
-274.399	-162.134	0.236	-0.012
-273.384	315.951	-0.075	0.139
-272.370	-0.299	0.166	-0.116
-271.355	800.000	0.046	-0.181
-270.340	-37.429	-0.204	0.107
-269.326	-200.000	-0.038	-0.383
-268.311	37.511	0.057	-0.050
-267.297	-200.000	0.029	0.201
-266.282	534.345	-0.148	-0.346
-265.267	-95.186	0.103	-0.027
-264.253	-37.921	0.208	-0.109
-263.238	-121.187	0.111	0.018
-262.224	26.287	-0.170	0.140
-261.209	69.082	-0.135	-0.136
-260.195	-200.000	-0.007	0.141
-259.180	144.693	0.145	0.191
-258.165	-155.232	0.154	-0.010
-257.151	-33.728	-0.097	0.053
-256.136	-38.300	0.050	-0.026
-255.122	-200.000	-0.022	-0.106
-254.107	129.948	0.134	0.169
-253.092	800.000	-0.078	0.263
-252.078	-200.000	0.028	0.319
-251.063	137.129	-0.056	0.072
-250.049	161.443	0.034	-0.047
-249.034	22.424	0.194	0.156
-248.019	-23.559	0.146	0.086
-247.005	-124.079	-0.340	-0.053
-245.990	438.098	0.086	0.186
-244.976	800.000	-0.028	0.103
-243.961	-46.423	-0.182	-0.088
-242.946	-200.000	-0.067	0.318
-241.932	800.000	-0.128	0.429
-240.917	-119.982	0.399	-0.068
-239.903	613.491	0.208	0.513
-238.888	-200.000	-0.013	-0.382
-237.873	-200.000	0.009	-0.286
-236.859	-200.000	0.011	-0.109
-235.844	414.934	0.160	-0.336
-234.830	18.982	-0.439	0.347
-233.815	-200.000	-0.051	-0.300
-232.800	33.828	0.066	0.056
-231.786	-200.000	-0.064	-0.332
-230.771	-42.858	-0.107	-0.054
-229.757	463.677	-0.088	-0.193
-228.742	29.943	-0.190	0.160
-227.727	-15.027	-0.147	0.092
-226.713	171.672	-0.252	-0.356
-225.698	-124.007	0.062	-0.010
-224.684	-126.855	-0.150	0.022
-223.669	221.015	-0.118	-0.186
-222.655	301.028	0.092	-0.167
-221.640	800.000	0.052	0.179
-220.625	245.071	-0.068	0.113
-219.611	-71.341	-0.246	-0.091
-218.596	-125.654	0.174	-0.026
-217.582	224.041	0.146	0.233
-216.567	0.301	0.230	-0.161
-215.552	203.954	0.103	0.157
-214.538	-73.514	-0.149	-0.054
-213.523	-111.542	-0.271	0.054
-212.509	231.859	0.200	0.323
-211.494	33.009	0.054	0.046
-210.479	460.086	-0.064	0.141
-209.465	800.000	-0.144	-0.485
-208.450	-7.408	0.385	0.256
-207.436	-107.059	0.109	-0.024
-206.421	-116.091	0.525	0.096
-205.406	-200.000	-0.046	-0.208
-204.392	800.000	0.067	-0.199
-203.377	-200.000	0.029	-0.218
-202.363	-44.919	0.080	0.039
-201.348	800.000	0.115	0.424
-200.333	-42.190	0.176	0.088
-199.319	-200.000	-0.069	0.445
-198.304	-93.036	0.169	0.046
-197.290	274.748	-0.020	0.035
-196.275	-200.000	0.020	-0.118
-195.260	800.000	0.055	0.197
-194.246	-101.631	0.151	-0.036
-193.231	282.890	-0.164	-0.290
-192.217	-130.708	-0.241	-0.032
-191.202	299.512	0.092	0.167
-190.187	248.333	-0.048	-0.080
-189.173	-200.000	0.017	0.118
-188.158	800.000	0.112	-0.416
-187.144	436.494	0.062	-0.132
-186.129	26.254	0.232	-0.190
-185.114	-81.318	-0.247	-0.080
-184.100	336.210	-0.173	-0.330
-183.085	22.232	-0.063	-0.051
-182.071	166.442	0.086	0.120
-181.056	-200.000	0.017	0.234
-180.042	-14.555	-0.095	0.060
-179.027	-68.025	0.109	0.042
-178.012	-26.935	-0.352	-0.202
-176.998	-34.121	0.367	0.198
-175.983	176.583	-0.035	-0.050
-174.969	800.000	0.095	0.274
-173.954	-1.127	0.198	-0.138
-172.939	-32.080	-0.158	0.087
-171.925	-161.503	-0.150	-0.008
-170.910	-15.694	0.198	0.124
-169.896	721.675	0.108	0.282
-168.881	-54.352	-0.332	-0.148
-167.866	37.955	-0.221	-0.193
-166.852	-200.000	-0.013	0.106
-165.837	-102.101	0.228	-0.054
-164.823	18.836	0.196	-0.154
-163.808	-56.434	0.378	0.165
-162.793	-8.081	-0.240	0.159
-161.779	800.000	-0.021	0.058
-160.764	-159.376	0.222	0.012
-159.750	-193.654	0.270	-0.002
-158.735	307.242	-0.176	-0.323
-157.720	-139.802	0.200	-0.021
-156.706	-200.000	-0.045	0.268
-155.691	-76.953	-0.152	-0.052
-154.677	38.786	-0.114	-0.100
-153.662	800.000	0.047	0.153
-152.647	37.367	0.128	-0.111
-151.633	-200.000	-0.006	0.160
-150.618	71.961	0.234	-0.239
-149.604	-92.515	0.053	-0.015
-148.589	50.062	0.281	-0.260
-147.574	-151.461	-0.335	0.024
-146.560	518.072	0.049	-0.113
-145.545	-32.852	0.309	0.168
-144.531	41.952	0.195	0.174
-143.516	-78.872	-0.127	-0.043
-142.502	32.764	0.197	-0.167
-141.487	-186.240	0.211	-0.003
-140.472	10.906	0.233	-0.175
-139.458	101.096	-0.117	0.133
-138.443	-90.585	0.345	0.098
-137.429	-160.629	-0.067	0.004
-136.414	623.917	-0.138	-0.342
-135.399	-52.405	0.281	0.127
-134.385	-37.330	0.142	-0.074
-133.370	-200.000	0.013	0.117
-132.356	14.735	0.186	-0.142
-131.341	-134.413	-0.113	0.014
-130.326	-86.237	0.178	-0.054
-129.312	175.644	0.129	-0.183
-128.297	714.844	0.103	0.268
-127.283	-200.000	-0.002	-0.350
-126.268	384.706	-0.071	-0.144
-125.253	-178.512	-0.175	0.004
-124.239	-200.000	-0.012	-0.122
-123.224	-114.720	-0.291	-0.055
-122.210	-200.000	0.053	0.241
