DTS Sentinel unit serial number:	SN413079Multiplexer serial number:	ORYXHardware model number:	OX4-SRSoftware version number:	ORYX F/W v4.00 Oryx Data Collector v3.7.2.0data status	okinstallation	princeton_trtdifferential loss correction	single-endedforward channel	channel 2reverse channel	N/Adate	2019/09/17time	00:35:35forward acquisition time	60.00reverse acquisition time	0.00gamma	496.2192k internal	0.2329k external	0.2329temperature offset calibration	0.9977default loss term (dB/km)	0.3790temperature slope calibration	1.0000multiplexer offset coefficient	1.0000multiplexer slope coefficient	1.0000fibre end	0.00T internal ref (°C)	29.44T ext. ref 1 (°C)	0.10T ext. ref 2 (°C)	23.90length (m)	temperature (°C)	Stokes	anti-Stokes-747.200	105.066	-0.147	0.174
-746.185	-77.431	-0.351	0.123
-745.171	-69.569	-0.120	-0.046
-744.156	-200.000	-0.013	0.300
-743.142	-20.531	0.244	0.151
-742.127	128.066	-0.088	0.112
-741.112	-81.050	-0.123	-0.041
-740.098	-200.000	-0.053	0.282
-739.083	796.494	0.094	0.261
-738.069	-20.389	-0.196	0.122
-737.054	-197.314	0.118	0.001
-736.039	-107.899	-0.602	-0.132
-735.025	159.818	0.193	-0.271
-734.010	-200.000	-0.007	-0.379
-732.996	468.759	-0.064	-0.144
-731.981	-3.542	-0.171	-0.119
-730.966	-169.835	0.172	0.006
-729.952	-10.152	-0.179	-0.120
-728.937	-200.000	-0.016	-0.302
-727.923	586.440	0.077	-0.191
-726.908	89.433	-0.120	-0.135
-725.894	28.221	-0.314	-0.267
-724.879	-84.847	0.044	0.014
-723.864	-2.959	-0.439	-0.309
-722.850	-127.769	0.183	-0.027
-721.835	348.426	0.209	0.415
-720.821	800.000	-0.084	-0.257
-719.806	122.791	0.125	-0.157
-718.791	-17.489	-0.104	0.066
-717.777	-14.787	0.367	-0.237
-716.762	269.474	0.140	-0.248
-715.748	-200.000	0.030	-0.174
-714.733	-122.827	0.545	0.089
-713.718	-200.000	-0.037	-0.238
-712.704	93.923	-0.239	-0.272
-711.689	800.000	-0.083	-0.276
-710.675	-59.810	0.183	0.079
-709.660	-143.629	-0.171	0.016
-708.645	-121.855	-0.115	0.019
-707.631	82.808	-0.285	0.311
-706.616	-200.000	0.002	0.274
-705.602	-2.256	-0.264	-0.186
-704.587	-29.059	-0.223	-0.128
-703.572	-49.299	0.099	0.047
-702.558	800.000	-0.018	0.059
-701.543	-136.426	0.165	0.019
-700.529	100.810	-0.168	0.196
-699.514	100.739	0.091	-0.106
-698.499	92.673	0.081	-0.092
-697.485	-40.215	-0.172	0.090
-696.470	320.356	-0.178	0.340
-695.456	757.661	0.044	-0.119
-694.441	-52.945	0.247	0.114
-693.426	-200.000	0.004	0.038
-692.412	44.501	0.152	-0.140
-691.397	90.284	-0.141	0.158
-690.383	76.484	0.131	-0.140
-689.368	-63.416	-0.361	0.149
-688.354	-200.000	0.068	-0.538
-687.339	22.270	-0.377	0.310
-686.324	-80.594	-0.185	-0.062
-685.310	-34.632	-0.325	-0.179
-684.295	-29.329	-0.138	-0.079
-683.281	303.956	-0.062	-0.115
-682.266	-200.000	0.023	-0.256
-681.251	562.614	0.035	0.086
-680.237	-124.109	-0.405	-0.064
-679.222	657.970	-0.102	-0.264
-678.208	-31.695	-0.371	-0.209
-677.193	-200.000	0.005	-0.146
-676.178	40.071	-0.192	-0.174
-675.164	56.849	-0.058	-0.057
-674.149	-200.000	-0.007	-0.437
-673.135	-188.265	0.172	-0.002
-672.120	-30.784	-0.115	0.065
-671.105	-200.000	-0.003	-0.398
-670.091	800.000	0.131	-0.411
-669.076	-51.107	-0.155	-0.073
-668.062	49.023	0.204	-0.193
-667.047	627.384	0.079	-0.200
-666.032	97.552	0.162	0.187
-665.018	-80.191	-0.231	0.078
-664.003	-200.000	-0.026	0.225
-662.989	-108.105	0.138	-0.030
-661.974	-109.166	-0.220	0.047
-660.959	800.000	-0.063	-0.176
-659.945	-200.000	-0.000	0.116
-658.930	-95.115	-0.244	-0.066
-657.916	-91.801	0.213	0.061
-656.901	-98.757	-0.203	0.052
-655.886	-200.000	-0.003	-0.035
-654.872	800.000	-0.084	-0.261
-653.857	800.000	0.041	0.131
-652.843	18.511	-0.177	-0.142
-651.828	-55.299	-0.223	-0.101
-650.814	71.984	-0.113	-0.118
-649.799	12.824	0.207	-0.160
-648.784	-157.505	-0.157	-0.009
-647.770	-115.983	0.150	-0.028
-646.755	-200.000	-0.039	-0.326
-645.741	-96.905	-0.179	-0.047
-644.726	171.341	-0.069	-0.099
-643.711	-11.641	-0.163	0.107
-642.697	41.357	0.057	0.052
-641.682	-200.000	0.013	-0.096
-640.668	42.325	-0.287	-0.262
-639.653	-200.000	0.163	-0.001
-638.638	800.000	0.012	0.042
-637.624	-75.717	-0.204	0.072
-636.609	-200.000	-0.006	0.053
-635.595	-120.951	0.310	0.052
-634.580	135.699	-0.037	-0.048
-633.565	-200.000	0.010	-0.116
-632.551	-11.742	-0.205	-0.135
-631.536	121.108	0.078	0.098
-630.522	-79.936	0.229	-0.077
-629.507	268.384	-0.236	-0.415
-628.492	-37.201	-0.113	-0.061
-627.478	-86.098	-0.237	-0.073
-626.463	-69.167	-0.355	0.137
-625.449	-30.110	-0.093	0.053
-624.434	-116.451	-0.123	-0.023
-623.419	409.308	-0.043	-0.090
-622.405	-70.258	0.332	-0.126
-621.390	-55.897	-0.120	0.054
-620.376	-200.000	0.017	0.254
-619.361	-173.681	0.159	0.005
-618.346	110.881	0.084	0.102
-617.332	252.736	-0.131	0.223
-616.317	-200.000	-0.026	-0.126
-615.303	-168.218	0.268	-0.010
-614.288	113.822	-0.111	-0.135
-613.273	-64.181	0.237	0.097
-612.259	800.000	-0.186	-0.522
-611.244	84.013	-0.305	-0.334
-610.230	31.306	-0.361	0.310
-609.215	-101.619	0.257	-0.063
-608.201	-70.744	-0.135	-0.051
-607.186	128.221	0.222	0.283
-606.171	-200.000	0.009	0.212
-605.157	-23.117	0.122	0.074
-604.142	-143.390	-0.333	0.032
-603.128	-68.940	0.084	0.032
-602.113	155.452	0.207	-0.285
-601.098	-8.155	-0.136	-0.092
-600.084	771.795	-0.131	0.358
-599.069	-103.694	-0.221	-0.052
-598.055	-132.044	0.216	0.028
-597.040	-84.157	0.108	0.034
-596.025	-86.801	-0.006	0.002
-595.011	206.962	-0.241	-0.377
-593.996	-113.909	0.031	0.006
-592.982	-125.259	0.204	-0.031
-591.967	227.351	0.087	-0.141
-590.952	103.275	-0.091	0.107
-589.938	658.548	-0.040	0.102
-588.923	131.127	-0.035	0.046
-587.909	233.253	0.145	-0.239
-586.894	55.633	0.217	0.210
-585.879	354.540	-0.133	0.264
-584.865	-200.000	-0.032	-0.304
-583.850	-90.687	-0.026	0.008
-582.836	800.000	-0.023	-0.067
-581.821	243.853	0.169	-0.284
-580.806	-200.000	0.014	0.191
-579.792	-200.000	0.000	0.014
-578.777	-200.000	0.028	-0.189
-577.763	82.620	-0.094	0.102
-576.748	-16.671	0.138	-0.087
-575.733	-151.737	-0.281	0.021
-574.719	612.373	-0.040	0.101
-573.704	-200.000	0.013	0.139
-572.690	184.570	0.080	0.118
-571.675	-15.821	-0.118	0.075
-570.661	60.581	0.169	0.168
-569.646	-200.000	-0.012	0.430
-568.631	-200.000	-0.082	0.415
-567.617	1.943	0.247	0.178
-566.602	-8.497	0.123	0.083
-565.588	-200.000	-0.028	0.218
-564.573	-142.745	-0.311	0.030
-563.558	166.066	0.191	-0.270
-562.544	-76.719	0.233	-0.082
-561.529	-106.459	-0.273	-0.061
-560.515	278.159	0.012	-0.022
-559.500	800.000	-0.083	0.304
-558.485	-200.000	0.001	0.089
-557.471	21.824	0.130	0.106
-556.456	-28.675	0.353	0.203
-555.442	690.644	0.097	-0.254
-554.427	-44.878	0.188	-0.094
-553.412	-84.125	0.152	0.048
-552.398	-90.028	-0.104	0.030
-551.383	118.115	0.051	0.063
-550.369	-200.000	0.045	-0.200
-549.354	800.000	-0.072	-0.223
-548.339	800.000	0.027	-0.089
-547.325	-73.846	0.122	0.044
-546.310	100.200	0.150	0.174
-545.296	-200.000	0.003	-0.293
-544.281	-200.000	0.039	0.194
-543.266	-32.671	-0.273	-0.152
-542.252	-88.302	-0.218	0.065
-541.237	287.860	-0.126	0.227
-540.223	28.443	0.067	0.057
-539.208	327.010	0.019	-0.036
-538.193	719.897	0.046	-0.122
-537.179	-44.667	-0.277	0.138
-536.164	-172.276	-0.274	0.009
-535.150	-108.887	0.080	0.017
-534.135	-21.124	0.289	0.177
-533.121	-200.000	-0.036	-0.355
-532.106	94.739	-0.312	0.355
-531.091	800.000	0.030	0.123
-530.077	800.000	-0.060	0.201
-529.062	36.104	0.177	0.156
-528.048	800.000	-0.046	0.179
-527.033	800.000	-0.107	-0.463
-526.018	385.774	-0.054	-0.112
-525.004	-41.494	0.095	0.049
-523.989	-27.589	-0.103	0.060
-522.975	-42.805	-0.180	-0.092
-521.960	9.904	-0.077	0.059
-520.945	-200.000	-0.026	-0.154
-519.931	-89.635	0.179	-0.052
-518.916	-25.308	-0.200	-0.118
-517.902	-51.818	0.290	-0.135
-516.887	2.064	0.183	0.132
-515.872	-119.875	-0.143	0.025
-514.858	800.000	-0.082	-0.258
-513.843	-85.483	-0.077	-0.024
-512.829	-33.428	-0.096	-0.053
-511.814	634.069	-0.071	0.181
-510.799	-107.552	0.047	0.010
-509.785	800.000	-0.090	-0.250
-508.770	319.746	-0.025	0.048
-507.756	800.000	0.074	0.273
-506.741	-62.507	-0.224	0.093
-505.726	219.923	0.138	0.220
-504.712	-200.000	-0.112	-0.600
-503.697	-105.407	-0.111	-0.025
-502.683	-52.128	-0.124	-0.057
-501.668	-200.000	0.062	0.330
-500.653	-46.923	0.212	0.103
-499.639	-56.141	0.099	0.044
-498.624	-12.123	-0.268	-0.175
-497.610	-200.000	-0.025	-0.221
-496.595	532.851	-0.139	-0.329
-495.581	8.343	0.271	-0.203
-494.566	-65.959	0.134	-0.053
-493.551	-61.005	0.131	0.055
-492.537	25.649	0.326	-0.271
-491.522	144.506	-0.134	-0.178
-490.508	800.000	0.101	-0.403
-489.493	-149.512	-0.154	0.012
-488.478	-200.000	0.026	-0.138
-487.464	777.545	-0.029	0.080
-486.449	-74.166	-0.200	0.072
-485.435	-152.364	0.172	0.012
-484.420	614.039	0.073	0.182
-483.405	-131.832	-0.285	0.037
-482.391	-58.046	0.083	-0.036
-481.376	2.661	-0.164	-0.119
-480.362	800.000	-0.032	0.098
-479.347	-86.500	-0.114	0.035
-478.332	-103.101	-0.269	0.064
-477.318	81.681	0.013	-0.014
-476.303	-200.000	0.038	0.231
-475.289	-41.850	-0.128	0.066
-474.274	-72.684	0.104	-0.038
-473.259	-134.383	-0.296	-0.036
-472.245	-71.343	-0.243	-0.091
-471.230	247.649	-0.192	-0.324
-470.216	-200.000	-0.009	-0.068
-469.201	-200.000	-0.027	-0.231
-468.186	-49.960	0.134	-0.063
-467.172	14.302	0.079	0.062
-466.157	-200.000	0.036	-0.216
-465.143	199.180	-0.208	-0.318
-464.128	-91.797	-0.200	-0.057
-463.113	800.000	-0.040	-0.128
-462.099	-40.515	0.146	-0.075
-461.084	42.154	0.220	-0.199
-460.070	-107.725	0.262	0.057
-459.055	558.986	0.095	-0.227
-458.040	422.872	-0.081	-0.174
-457.026	57.226	0.033	-0.032
-456.011	-200.000	0.081	-0.369
-454.997	157.889	-0.031	-0.043
-453.982	558.114	0.094	-0.225
-452.968	55.806	0.306	0.295
-451.953	-116.191	-0.085	-0.016
-450.938	-177.667	-0.332	0.008
-449.924	800.000	-0.052	0.223
-448.909	-40.414	-0.146	0.076
-447.895	800.000	-0.049	0.206
-446.880	-168.510	0.218	-0.008
-445.865	-98.818	0.218	0.055
-444.851	-94.880	-0.181	-0.049
-443.836	800.000	0.090	0.335
-442.822	111.665	0.194	-0.233
-441.807	-200.000	-0.012	-0.111
-440.792	194.210	0.223	0.336
-439.778	800.000	0.085	0.235
-438.763	-200.000	-0.012	-0.289
-437.749	-189.601	0.062	-0.001
-436.734	800.000	-0.112	-0.375
-435.719	155.387	0.198	-0.271
-434.705	800.000	-0.041	0.116
-433.690	184.162	0.206	0.303
-432.676	6.066	0.016	0.012
-431.661	-6.213	-0.067	0.045
-430.646	-200.000	0.041	0.374
-429.632	-161.689	-0.321	-0.016
-428.617	-12.634	-0.262	-0.170
-427.603	-200.000	-0.010	0.125
-426.588	781.806	-0.156	-0.425
-425.573	-200.000	-0.024	0.109
-424.559	-200.000	0.005	0.121
-423.544	-196.189	-0.167	-0.001
-422.530	241.858	0.230	-0.383
-421.515	-43.546	0.243	0.122
-420.500	-86.599	0.082	0.025
-419.486	800.000	0.052	-0.175
-418.471	-15.464	0.174	0.110
-417.457	-200.000	-0.033	0.338
-416.442	556.481	0.022	0.053
-415.428	-17.445	-0.342	0.214
-414.413	-100.581	-0.135	0.033
-413.398	-30.874	-0.155	-0.087
-412.384	-200.000	0.005	-0.184
-411.369	464.221	-0.088	-0.196
-410.355	-123.439	-0.202	0.032
-409.340	-57.564	0.294	-0.128
-408.325	110.668	0.200	0.239
-407.311	-200.000	0.022	-0.253
-406.296	71.215	0.277	-0.285
-405.282	-130.052	0.137	0.019
-404.267	-48.401	0.145	-0.069
-403.252	-200.000	0.012	0.109
-402.238	2.255	0.144	0.103
-401.223	652.933	0.068	0.174
-400.209	-64.284	0.235	-0.095
-399.194	-19.698	0.143	0.088
-398.179	-200.000	0.052	-0.273
-397.165	99.841	0.243	-0.279
-396.150	-200.000	-0.027	-0.264
-395.136	72.691	0.113	-0.117
-394.121	75.590	-0.269	0.282
-393.106	297.889	-0.061	-0.111
-392.092	205.465	-0.125	-0.193
-391.077	43.054	0.099	0.090
-390.063	89.194	-0.109	0.120
-389.048	-32.476	-0.094	-0.052
-388.033	-122.904	-0.272	-0.044
-387.019	-65.038	-0.069	-0.028
-386.004	-188.203	-0.152	-0.002
-384.990	-80.923	-0.351	0.116
-383.975	784.096	-0.091	-0.248
-382.960	-109.950	-0.103	0.021
-381.946	-95.677	-0.258	-0.069
-380.931	165.539	-0.207	-0.291
-379.917	-200.000	-0.022	0.101
-378.902	-200.000	-0.032	0.343
-377.888	-200.000	0.012	0.135
-376.873	-84.513	-0.076	0.024
-375.858	219.258	0.036	0.057
-374.844	13.767	0.155	-0.120
-373.829	570.937	-0.088	0.213
-372.815	-25.760	0.343	-0.201
-371.800	-200.000	0.072	-0.371
-370.785	-40.131	0.414	-0.214
-369.771	-0.108	0.113	-0.080
-368.756	-89.554	0.220	0.064
-367.742	-68.236	-0.177	0.068
-366.727	-47.055	-0.204	0.099
-365.712	66.122	-0.166	0.167
-364.698	-200.000	0.024	-0.191
-363.683	-133.246	-0.178	-0.022
-362.669	98.628	-0.129	-0.148
-361.654	-93.237	0.396	-0.109
-360.639	234.266	0.095	0.155
-359.625	800.000	0.008	0.022
-358.610	176.954	0.265	0.382
-357.596	92.424	0.287	0.321
-356.581	-200.000	0.025	0.152
-355.566	294.598	-0.144	0.261
-354.552	-125.350	-0.271	-0.041
-353.537	-38.310	-0.111	-0.058
-352.523	64.984	0.112	0.112
-351.508	5.315	-0.294	0.215
-350.493	800.000	-0.087	0.253
-349.479	32.581	-0.084	0.072
-348.464	26.695	0.272	0.226
-347.450	-5.091	-0.104	-0.071
-346.435	-200.000	-0.024	-0.250
-345.420	51.631	-0.153	-0.144
-344.406	-200.000	0.035	-0.161
-343.391	150.716	0.199	0.268
-342.377	-57.977	-0.367	-0.159
-341.362	-4.753	0.219	-0.150
-340.348	-77.356	-0.130	0.045
-339.333	-106.025	0.298	-0.067
-338.318	146.046	0.123	0.164
-337.304	283.181	0.111	-0.197
-336.289	-19.470	0.108	0.066
-335.275	-96.520	-0.194	-0.051
-334.260	251.507	0.033	-0.055
-333.245	800.000	0.013	0.045
-332.231	-200.000	-0.022	0.332
-331.216	-51.018	0.099	-0.046
-330.202	-79.426	0.414	0.139
-329.187	-117.550	0.298	0.053
-328.172	-200.000	0.043	-0.200
-327.158	-159.691	0.119	-0.007
-326.143	800.000	-0.057	0.222
-325.129	800.000	-0.015	0.051
-324.114	-120.056	0.294	0.050
-323.099	-200.000	-0.046	0.413
-322.085	-68.049	-0.115	0.045
-321.070	-200.000	0.018	0.114
-320.056	87.308	0.256	-0.280
-319.041	-113.575	0.104	0.020
-318.026	-200.000	-0.035	0.179
-317.012	800.000	0.039	-0.162
-315.997	800.000	0.059	-0.223
-314.983	-200.000	-0.008	0.281
-313.968	97.311	-0.146	0.166
-312.953	-200.000	-0.006	0.031
-311.939	-13.621	-0.225	-0.144
-310.924	104.217	-0.095	-0.111
-309.910	-67.714	0.174	0.067
-308.895	-75.147	0.249	0.088
-307.880	-41.583	0.194	0.099
-306.866	513.705	-0.107	-0.248
-305.851	-200.000	0.069	-0.374
-304.837	15.467	0.218	-0.170
-303.822	36.099	-0.055	-0.048
-302.807	-60.629	-0.211	0.089
-301.793	687.537	-0.074	-0.191
-300.778	-200.000	-0.002	-0.032
-299.764	22.363	-0.301	-0.243
-298.749	-165.602	-0.269	0.012
-297.735	74.692	-0.116	-0.121
-296.720	-104.893	0.307	-0.070
-295.705	-140.217	0.116	0.012
-294.691	-35.365	-0.199	-0.107
-293.676	237.823	0.059	0.097
-292.662	-129.709	-0.435	-0.059
-291.647	-34.084	-0.117	0.063
-290.632	-37.394	-0.515	0.272
-289.618	-200.000	0.022	0.108
-288.603	333.275	-0.107	-0.204
-287.589	-145.072	-0.244	-0.022
-286.574	-3.826	0.222	-0.152
-285.559	-200.000	-0.007	-0.144
-284.545	343.340	-0.088	0.171
-283.530	-30.996	-0.145	-0.081
-282.516	199.480	-0.103	0.156
-281.501	-132.544	0.392	0.050
-280.486	-131.804	0.147	-0.019
-279.472	-87.819	0.158	0.047
-278.457	-200.000	-0.010	0.141
-277.443	149.259	-0.209	0.280
-276.428	229.669	0.129	0.208
-275.413	177.444	0.134	0.193
-274.399	-121.941	-0.163	0.027
-273.384	80.360	-0.101	0.108
-272.370	-200.000	0.015	-0.079
-271.355	800.000	0.153	0.462
-270.340	-200.000	-0.023	0.204
-269.326	-148.889	0.251	0.020
-268.311	59.740	0.301	0.294
-267.297	-73.114	-0.241	0.087
-266.282	-200.000	-0.020	0.225
-265.267	63.583	0.206	0.205
-264.253	-101.739	0.147	-0.035
-263.238	-110.244	-0.079	0.016
-262.224	-200.000	-0.026	0.221
-261.209	-88.257	-0.287	-0.085
-260.195	-200.000	0.026	0.336
-259.180	418.539	-0.083	0.176
-258.165	-80.572	-0.069	0.023
-257.151	800.000	0.051	-0.204
-256.136	-0.842	0.040	0.028
-255.122	43.023	-0.191	0.172
-254.107	-65.052	0.143	0.057
-253.092	113.998	0.086	-0.103
-252.078	49.039	-0.305	-0.283
-251.063	181.050	-0.183	0.265
-250.049	-52.722	-0.124	0.056
-249.034	-20.794	0.398	-0.241
-248.019	-71.122	0.133	-0.049
-247.005	-200.000	-0.006	-0.230
-245.990	-200.000	-0.005	-0.074
-244.976	328.642	0.140	0.265
-243.961	-200.000	0.023	-0.117
-242.946	-73.967	0.344	0.123
-241.932	-68.057	-0.093	-0.036
-240.917	-19.876	-0.240	-0.146
-239.903	261.207	0.106	-0.181
-238.888	800.000	-0.053	-0.216
-237.873	61.295	-0.222	0.218
-236.859	253.867	0.084	0.142
-235.844	-72.421	0.127	-0.046
-234.830	-200.000	-0.043	-0.226
-233.815	-35.664	0.086	0.046
-232.800	35.455	0.191	0.165
-231.786	433.840	-0.088	0.188
-230.771	349.544	0.078	0.152
-229.757	285.415	0.074	-0.132
-228.742	467.867	-0.060	0.133
-227.727	122.337	-0.108	0.133
-226.713	-19.878	0.319	-0.195
-225.698	128.169	0.143	0.179
-224.684	45.831	-0.274	0.250
-223.669	800.000	-0.076	0.220
-222.655	29.709	-0.190	-0.160
-221.640	235.117	-0.113	0.184
-220.625	-27.353	-0.335	-0.192
-219.611	22.886	0.055	0.044
-218.596	800.000	-0.110	-0.332
-217.582	441.177	0.201	-0.434
-216.567	-200.000	-0.030	-0.140
-215.552	194.759	0.119	-0.177
-214.538	800.000	-0.099	0.306
-213.523	-58.148	-0.365	-0.157
-212.509	-126.171	0.268	0.040
-211.494	170.059	0.131	-0.185
-210.479	53.980	0.240	0.228
-209.465	466.046	-0.044	0.096
-208.450	800.000	0.088	0.297
-207.436	-109.621	-0.174	0.036
-206.421	3.564	-0.187	0.134
-205.406	-134.870	0.068	-0.008
-204.392	433.651	0.073	0.156
-203.377	73.686	0.155	0.160
-202.363	698.218	-0.067	0.173
-201.348	800.000	0.102	0.316
-200.333	-185.998	-0.125	0.002
-199.319	-168.543	-0.142	0.005
-198.304	-16.159	-0.062	-0.039
-197.290	-64.513	-0.151	0.061
-196.275	46.100	0.172	0.157
-195.260	240.137	-0.246	0.405
-194.246	800.000	0.025	0.101
-193.231	-145.650	-0.364	0.032
-192.217	109.204	0.225	-0.265
-191.202	-150.059	0.353	0.027
-190.187	265.123	0.084	-0.145
-189.173	-115.688	-0.305	-0.056
-188.158	-35.212	-0.271	-0.145
-187.144	-112.249	-0.192	-0.038
-186.129	413.111	-0.075	-0.158
-185.114	-137.742	0.376	-0.042
-184.100	-45.371	0.141	-0.069
-183.085	109.876	0.134	-0.159
-182.071	-200.000	0.007	-0.216
-181.056	-80.139	-0.417	-0.138
-180.042	59.857	0.370	0.360
-179.027	79.244	0.212	0.224
-178.012	800.000	-0.069	0.209
-176.998	-200.000	-0.050	-0.224
-175.983	165.419	0.065	-0.091
-174.969	-112.667	0.151	-0.030
-173.954	530.110	0.120	0.279
-172.939	-58.298	-0.170	-0.073
-171.925	295.237	0.051	-0.092
-170.910	-76.937	0.269	-0.093
-169.896	-200.000	-0.007	-0.079
-168.881	-200.000	0.025	-0.141
-167.866	215.144	0.182	0.285
-166.852	-200.000	-0.043	-0.358
-165.837	-45.444	0.084	0.041
-164.823	248.850	0.057	0.096
-163.808	257.532	0.065	0.110
-162.793	800.000	0.098	-0.350
-161.779	-200.000	0.056	-0.275
-160.764	-97.797	-0.201	-0.051
-159.750	356.855	-0.104	0.203
-158.735	5.409	0.405	0.294
-157.720	-129.632	-0.323	0.044
-156.706	-65.180	0.263	0.105
-155.691	800.000	-0.054	0.215
-154.677	-200.000	-0.018	-0.366
-153.662	800.000	0.076	0.244
-152.647	313.947	0.144	-0.267
-151.633	-37.769	-0.067	-0.035
-150.618	62.377	-0.248	-0.244
-149.604	144.244	0.123	0.161
-148.589	284.735	0.111	0.196
-147.574	431.497	-0.235	-0.501
-146.560	-20.511	-0.524	-0.317
-145.545	-200.000	0.058	-0.374
-144.531	347.742	-0.123	-0.238
-143.516	28.719	0.283	0.236
-142.502	127.092	-0.156	-0.195
-141.487	-200.000	0.047	-0.316
-140.472	469.285	0.188	-0.416
-139.458	8.123	0.015	0.011
-138.443	120.378	-0.076	-0.093
-137.429	200.874	0.063	0.095
-136.414	224.439	0.105	-0.167
-135.399	-29.922	-0.190	-0.106
-134.385	800.000	-0.049	-0.182
-133.370	212.945	-0.074	0.116
-132.356	-123.378	0.311	0.049
-131.341	800.000	-0.064	0.220
-130.326	-128.105	-0.469	0.066
-129.312	697.883	0.106	-0.275
-128.297	39.861	-0.186	-0.164
-127.283	-164.076	0.550	-0.025
-126.268	14.247	-0.334	0.256
-125.253	-200.000	-0.021	0.142
-124.239	-200.000	-0.032	-0.249
-123.224	-200.000	-0.027	-0.203
-122.210	-109.376	-0.029	-0.006
