DTS Sentinel unit serial number:	SN413079Multiplexer serial number:	ORYXHardware model number:	OX4-SRSoftware version number:	ORYX F/W v4.00 Oryx Data Collector v3.7.2.0data status	okinstallation	princeton_trtdifferential loss correction	single-endedforward channel	channel 2reverse channel	N/Adate	2019/09/11time	16:09:11forward acquisition time	60.00reverse acquisition time	0.00gamma	496.2192k internal	0.2287k external	0.2287temperature offset calibration	1.0015default loss term (dB/km)	0.3790temperature slope calibration	1.0000multiplexer offset coefficient	1.0000multiplexer slope coefficient	1.0000fibre end	0.00T internal ref (°C)	43.20T ext. ref 1 (°C)	1.04T ext. ref 2 (°C)	38.91length (m)	temperature (°C)	Stokes	anti-Stokes-747.200	-200.000	0.023	-0.251
-746.185	-200.000	0.030	0.186
-745.171	-200.000	-0.016	0.336
-744.156	-88.774	0.099	-0.030
-743.142	-48.149	-0.196	0.097
-742.127	-11.467	0.167	0.112
-741.112	-71.946	-0.154	-0.059
-740.098	-52.990	-0.324	-0.153
-739.083	-200.000	-0.009	-0.073
-738.069	323.876	0.130	0.254
-737.054	-33.020	0.071	-0.040
-736.039	800.000	0.064	0.247
-735.025	-120.317	0.128	0.022
-734.010	-102.081	-0.234	0.058
-732.996	-148.197	-0.248	-0.021
-731.981	68.965	0.074	-0.078
-730.966	266.718	0.191	0.342
-729.952	246.368	-0.149	0.258
-728.937	118.932	-0.038	-0.048
-727.923	22.647	-0.186	0.156
-726.908	64.084	0.224	-0.231
-725.894	-200.000	-0.007	0.136
-724.879	676.843	0.042	-0.112
-723.864	98.624	-0.088	-0.104
-722.850	-200.000	0.044	0.210
-721.835	-24.744	-0.184	0.112
-720.821	-200.000	0.030	0.203
-719.806	-97.223	0.097	0.026
-718.791	52.006	0.125	0.122
-717.777	-200.000	-0.038	-0.173
-716.762	492.521	0.044	0.104
-715.748	-200.000	-0.013	-0.085
-714.733	72.373	-0.091	0.097
-713.718	273.143	0.084	0.152
-712.704	800.000	-0.032	-0.096
-711.689	5.181	-0.167	0.126
-710.675	-88.749	0.166	-0.051
-709.660	224.779	0.084	0.139
-708.645	-98.678	0.340	0.089
-707.631	800.000	0.037	-0.146
-706.616	-200.000	0.033	0.150
-705.602	-200.000	0.009	0.160
-704.587	118.871	0.077	-0.097
-703.572	-45.021	0.343	-0.175
-702.558	-45.416	0.125	-0.063
-701.543	-91.279	0.051	0.015
-700.529	-39.690	0.098	0.053
-699.514	244.956	0.136	-0.234
-698.499	600.305	0.077	0.196
-697.485	-142.026	-0.143	-0.015
-696.470	-124.476	0.304	0.049
-695.456	385.509	-0.101	0.213
-694.441	253.812	0.102	0.179
-693.426	795.088	0.035	0.098
-692.412	760.611	-0.012	0.033
-691.397	43.696	-0.112	0.105
-690.383	-47.898	-0.070	0.035
-689.368	-130.297	0.563	-0.078
-688.354	-200.000	0.017	0.081
-687.339	-46.606	-0.255	-0.128
-686.324	245.532	-0.100	-0.172
-685.310	800.000	0.085	-0.307
-684.295	26.497	-0.060	-0.051
-683.281	87.215	-0.050	-0.057
-682.266	73.554	0.029	0.031
-681.251	800.000	0.052	-0.196
-680.237	-47.783	0.197	0.097
-679.222	-93.211	0.264	0.075
-678.208	800.000	0.060	0.172
-677.193	292.765	-0.111	-0.207
-676.178	800.000	-0.040	0.146
-675.164	-21.831	0.216	0.135
-674.149	800.000	0.047	-0.198
-673.135	-92.233	-0.272	0.078
-672.120	306.316	0.098	0.186
-671.105	-79.481	0.211	-0.073
-670.091	-24.156	-0.098	0.060
-669.076	-200.000	0.006	0.038
-668.062	-61.000	-0.116	0.050
-667.047	-133.173	-0.143	-0.018
-666.032	-137.765	0.201	0.023
-665.018	800.000	-0.135	-0.400
-664.003	-200.000	0.048	-0.246
-662.989	-200.000	-0.040	0.290
-661.974	-141.054	-0.107	0.011
-660.959	-45.905	0.222	0.112
-659.945	-42.293	-0.260	0.136
-658.930	116.761	-0.107	0.135
-657.916	95.981	0.115	0.134
-656.901	172.014	0.072	0.107
-655.886	271.563	0.045	-0.080
-654.872	-200.000	-0.027	0.339
-653.857	-30.423	0.115	-0.067
-652.843	354.628	0.143	-0.291
-651.828	-103.121	-0.127	-0.031
-650.814	66.268	-0.212	-0.220
-649.799	-137.279	0.355	-0.041
-648.784	23.301	0.218	0.183
-647.770	-200.000	-0.008	0.183
-646.755	-200.000	0.024	-0.111
-645.741	-36.152	-0.101	0.056
-644.726	-160.508	0.284	-0.016
-643.711	-200.000	-0.023	-0.349
-642.697	397.230	-0.055	-0.118
-641.682	92.297	0.230	-0.265
-640.668	-114.249	-0.187	-0.037
-639.653	-160.573	0.370	0.020
-638.638	-200.000	0.009	-0.360
-637.624	-124.156	0.496	-0.079
-636.609	800.000	-0.012	-0.044
-635.595	800.000	-0.020	0.081
-634.580	800.000	0.040	-0.138
-633.565	-147.561	-0.074	-0.006
-632.551	373.799	-0.120	-0.249
-631.536	-3.829	-0.312	0.221
-630.522	480.364	-0.125	-0.290
-629.507	-171.809	0.187	0.006
-628.492	65.659	-0.148	0.153
-627.478	-200.000	-0.009	-0.067
-626.463	8.352	0.079	0.061
-625.449	252.196	-0.233	0.406
-624.434	41.516	0.040	0.037
-623.419	-199.894	0.167	-0.001
-622.405	417.069	-0.108	-0.236
-621.390	216.109	-0.230	-0.373
-620.376	-109.423	0.364	-0.079
-619.361	-62.713	-0.200	-0.085
-618.346	-74.273	-0.222	0.082
-617.332	-200.000	-0.038	-0.428
-616.317	798.892	0.064	0.182
-615.303	-200.000	-0.026	-0.252
-614.288	800.000	0.100	-0.440
-613.273	800.000	0.098	-0.276
-612.259	-3.292	0.130	0.092
-611.244	-123.420	-0.197	0.032
-610.230	-41.027	-0.146	0.077
-609.215	67.651	0.061	-0.063
-608.201	337.211	-0.086	0.171
-607.186	-77.019	-0.127	-0.045
-606.171	-123.894	0.044	-0.007
-605.157	81.184	-0.146	0.161
-604.142	-134.348	-0.208	-0.026
-603.128	-45.755	-0.330	-0.166
-602.113	262.655	-0.113	0.200
-601.098	460.154	-0.092	-0.208
-600.084	41.601	-0.167	-0.154
-599.069	276.589	0.094	0.171
-598.055	-200.000	0.007	-0.139
-597.040	-200.000	0.021	0.188
-596.025	-115.467	-0.226	0.043
-595.011	-200.000	0.004	0.150
-593.996	264.325	-0.202	-0.358
-592.982	489.523	-0.016	-0.038
-591.967	569.199	-0.071	0.175
-590.952	513.228	-0.068	0.162
-589.938	-200.000	0.017	-0.113
-588.923	-122.554	-0.074	-0.012
-587.909	-86.132	0.268	0.084
-586.894	-150.521	0.410	-0.032
-585.879	-31.513	0.126	-0.072
-584.865	-57.237	-0.023	-0.010
-583.850	103.687	0.045	0.054
-582.836	-41.865	-0.362	0.189
-581.821	38.972	-0.171	-0.156
-580.806	312.389	-0.050	0.096
-579.792	346.354	-0.073	-0.146
-578.777	-147.267	0.275	-0.024
-577.763	213.692	-0.149	-0.240
-576.748	800.000	-0.055	-0.222
-575.733	800.000	-0.064	-0.179
-574.719	-200.000	0.021	-0.265
-573.704	-193.928	0.202	-0.002
-572.690	-200.000	-0.040	0.275
-571.675	158.604	0.199	0.281
-570.661	374.485	-0.017	0.036
-569.646	-23.876	-0.176	-0.107
-568.631	-200.000	0.008	0.072
-567.617	34.545	0.069	-0.061
-566.602	-200.000	0.009	-0.212
-565.588	54.478	-0.078	0.077
-564.573	-200.000	0.000	-0.207
-563.558	395.051	-0.071	0.150
-562.544	-153.821	0.427	-0.030
-561.529	-82.188	0.149	-0.049
-560.515	166.457	-0.114	0.164
-559.500	-76.476	-0.164	-0.059
-558.485	93.387	0.165	-0.190
-557.471	109.350	0.137	0.167
-556.456	800.000	0.050	0.141
-555.442	59.248	-0.069	0.069
-554.427	-117.058	0.130	-0.024
-553.412	445.330	-0.015	-0.034
-552.398	26.178	0.259	0.221
-551.383	45.487	0.063	0.059
-550.369	534.849	-0.047	-0.114
-549.354	21.328	-0.173	-0.143
-548.339	-26.935	-0.125	-0.075
-547.325	-200.000	0.036	-0.400
-546.310	-36.679	-0.197	0.108
-545.296	-123.257	-0.348	-0.057
-544.281	-200.000	0.004	-0.049
-543.266	-28.430	-0.332	0.195
-542.252	-53.601	0.226	0.105
-541.237	-117.945	0.253	-0.046
-540.223	-200.000	0.076	0.359
-539.208	1.803	-0.058	0.043
-538.193	-36.800	-0.192	-0.105
-537.179	399.178	-0.128	-0.272
-536.164	32.750	-0.095	-0.084
-535.150	-131.035	-0.141	0.019
-534.135	-12.729	-0.109	0.073
-533.121	184.942	0.078	-0.118
-532.106	59.054	0.070	-0.070
-531.091	1.061	-0.116	-0.084
-530.077	800.000	0.079	-0.227
-529.062	-49.101	-0.177	-0.086
-528.048	496.486	-0.049	0.115
-527.033	-0.012	-0.134	-0.097
-526.018	-11.983	0.269	-0.180
-525.004	-130.019	0.117	-0.016
-523.989	214.208	0.049	-0.079
-522.975	-136.894	-0.190	-0.022
-521.960	-200.000	0.051	-0.244
-520.945	-89.490	0.214	-0.064
-519.931	260.159	-0.072	-0.126
-518.916	-63.250	0.097	0.041
-517.902	-125.894	0.228	-0.035
-516.887	-84.455	-0.224	0.072
-515.872	-85.178	-0.294	-0.094
-514.858	-58.892	-0.168	0.074
-513.843	245.246	0.110	0.188
-512.829	-147.440	-0.170	0.015
-511.814	-200.000	-0.012	-0.313
-510.799	-200.000	-0.011	-0.207
-509.785	118.024	0.091	-0.114
-508.770	-93.988	0.162	0.045
-507.756	640.487	0.065	0.167
-506.741	-114.799	-0.474	0.092
-505.726	800.000	-0.101	0.362
-504.712	-200.000	-0.037	-0.217
-503.697	502.141	0.033	0.077
-502.683	-123.128	-0.238	-0.039
-501.668	-200.000	-0.011	-0.083
-500.653	-11.949	0.232	0.154
-499.639	-200.000	0.001	-0.325
-498.624	161.660	0.201	0.285
-497.610	-200.000	-0.014	0.166
-496.595	118.154	-0.245	-0.306
-495.581	641.549	-0.018	-0.046
-494.566	214.520	-0.146	0.236
-493.551	-200.000	-0.016	0.214
-492.537	-200.000	-0.004	0.088
-491.522	-27.441	0.074	-0.044
-490.508	-127.579	0.127	-0.019
-489.493	572.926	0.079	0.196
-488.478	800.000	0.065	0.243
-487.464	-61.736	-0.459	-0.195
-486.449	-157.183	-0.071	-0.004
-485.435	710.663	0.158	0.424
-484.420	438.521	-0.060	0.133
-483.405	-200.000	-0.009	0.227
-482.391	-28.134	-0.015	-0.009
-481.376	429.473	0.180	-0.395
-480.362	338.803	0.132	-0.262
-479.347	80.994	-0.323	0.354
-478.332	-200.000	0.034	-0.331
-477.318	-12.658	-0.055	-0.037
-476.303	81.276	-0.114	-0.125
-475.289	-116.483	-0.231	0.043
-474.274	7.837	0.142	0.108
-473.259	-70.573	-0.371	0.142
-472.245	-167.458	-0.352	-0.014
-471.230	-200.000	0.046	0.243
-470.216	208.771	-0.095	0.151
-469.201	-171.364	0.088	0.003
-468.186	-102.053	0.181	0.044
-467.172	-200.000	-0.035	0.339
-466.157	37.352	0.359	0.323
-465.143	308.237	0.138	-0.261
-464.128	52.788	0.259	-0.251
-463.113	-129.203	-0.159	0.023
-462.099	-49.804	0.176	-0.085
-461.084	189.900	0.072	0.109
-460.070	149.236	-0.063	-0.086
-459.055	800.000	-0.036	-0.139
-458.040	800.000	0.085	-0.371
-457.026	193.436	-0.106	-0.163
-456.011	-200.000	-0.008	0.081
-454.997	-98.527	-0.190	-0.049
-453.982	401.343	0.059	-0.126
-452.968	-23.053	-0.150	0.092
-451.953	217.062	-0.066	-0.106
-450.938	102.161	0.137	0.163
-449.924	-200.000	0.015	-0.188
-448.909	222.140	0.155	0.252
-447.895	165.036	0.152	-0.217
-446.880	-200.000	-0.028	-0.124
-445.865	28.471	-0.174	0.150
-444.851	38.610	-0.163	-0.147
-443.836	46.805	-0.114	0.108
-442.822	92.778	-0.139	0.159
-441.807	197.329	0.195	0.302
-440.792	-200.000	-0.029	-0.216
-439.778	800.000	-0.161	-0.541
-438.763	100.784	0.089	-0.104
-437.749	-75.081	-0.330	-0.120
-436.734	-200.000	0.008	-0.199
-435.719	800.000	0.054	-0.154
-434.705	-200.000	-0.029	-0.386
-433.690	122.400	0.112	-0.141
-432.676	-17.463	0.058	0.037
-431.661	67.464	-0.216	0.224
-430.646	-47.078	-0.433	-0.214
-429.632	800.000	0.063	0.216
-428.617	800.000	0.082	-0.282
-427.603	800.000	-0.037	-0.152
-426.588	-106.816	0.250	0.056
-425.573	407.674	0.065	-0.138
-424.559	-76.291	-0.057	0.020
-423.544	-200.000	0.001	-0.119
-422.530	70.582	0.060	-0.063
-421.515	-100.127	-0.293	-0.074
-420.500	30.644	-0.125	-0.108
-419.486	-23.501	-0.130	-0.079
-418.471	-128.526	-0.251	-0.036
-417.457	-35.946	-0.118	-0.065
-416.442	-200.000	0.022	0.217
-415.428	-200.000	-0.014	0.147
-414.413	-200.000	0.017	-0.333
-413.398	222.846	0.102	0.166
-412.384	2.154	-0.089	0.065
-411.369	658.044	0.112	0.292
-410.355	-64.450	-0.038	0.016
-409.340	799.313	0.159	-0.445
-408.325	-148.628	0.471	0.039
-407.311	-9.998	-0.381	-0.257
-406.296	800.000	-0.068	-0.191
-405.282	-121.384	-0.152	0.026
-404.267	-200.000	-0.025	0.163
-403.252	-25.838	0.105	0.063
-402.238	-200.000	0.005	0.032
-401.223	-76.182	0.293	-0.105
-400.209	-41.724	-0.335	-0.174
-399.194	1.103	-0.285	0.207
-398.179	107.939	-0.135	-0.163
-397.165	-95.326	-0.411	0.112
-396.150	-200.000	-0.004	0.279
-395.136	734.968	-0.074	0.200
-394.121	36.963	-0.232	-0.207
-393.106	-200.000	-0.013	0.072
-392.092	-200.000	0.004	-0.230
-391.077	-89.315	0.265	0.079
-390.063	392.788	0.111	-0.234
-389.048	800.000	-0.045	0.149
-388.033	389.088	0.128	0.269
-387.019	197.169	0.106	0.164
-386.004	16.706	0.232	0.186
-384.990	-86.717	0.197	0.061
-383.975	80.227	0.060	-0.065
-382.960	636.771	-0.098	0.252
-381.946	150.524	-0.088	-0.122
-380.931	-200.000	0.045	0.337
-379.917	-200.000	-0.277	-0.001
-378.902	-55.104	0.061	0.028
-377.888	72.439	-0.090	-0.095
-376.873	42.606	0.258	-0.237
-375.858	43.908	0.064	-0.059
-374.844	-112.572	0.231	-0.046
-373.829	-23.927	-0.162	0.098
-372.815	265.088	0.139	0.244
-371.800	-200.000	-0.009	0.095
-370.785	119.145	-0.093	0.116
-369.771	314.407	0.084	0.159
-368.756	-49.335	-0.213	0.103
-367.742	-93.752	-0.075	-0.021
-366.727	-200.000	0.015	-0.155
-365.712	-67.224	0.197	-0.078
-364.698	-5.066	-0.037	0.026
-363.683	526.053	0.068	0.162
-362.669	-36.090	0.203	0.111
-361.654	-74.071	0.118	0.043
-360.639	27.244	-0.243	-0.206
-359.625	-121.818	0.246	0.041
-358.610	-200.000	-0.031	0.245
-357.596	-155.186	0.261	0.017
-356.581	-79.586	-0.159	-0.054
-355.566	-39.343	-0.125	0.066
-354.552	-55.045	-0.226	-0.103
-353.537	-121.800	0.217	-0.036
-352.523	800.000	0.076	-0.235
-351.508	684.194	-0.052	-0.138
-350.493	-64.009	-0.165	-0.068
-349.479	319.532	-0.006	0.011
-348.464	-200.000	0.012	0.319
-347.450	24.547	-0.202	0.169
-346.435	58.638	0.315	-0.312
-345.420	14.835	-0.043	0.034
-344.406	-122.069	0.098	0.016
-343.391	320.621	0.155	-0.297
-342.377	121.369	0.057	0.071
-341.362	60.579	-0.024	-0.024
-340.348	79.356	-0.099	0.107
-339.333	-115.257	0.352	0.067
-338.318	-101.352	0.153	0.038
-337.304	34.545	-0.355	-0.313
-336.289	-54.322	-0.364	0.167
-335.275	66.371	-0.348	0.357
-334.260	-88.483	-0.539	-0.162
-333.245	-81.066	-0.070	0.023
-332.231	-133.044	-0.048	0.006
-331.216	-121.770	0.039	0.007
-330.202	-101.423	-0.114	0.028
-329.187	-177.087	0.175	-0.004
-328.172	93.291	0.206	-0.235
-327.158	62.241	0.247	0.249
-326.143	280.898	0.158	0.286
-325.129	7.881	0.121	-0.092
-324.114	530.141	-0.118	0.282
-323.099	800.000	0.064	0.251
-322.085	-50.639	-0.171	-0.081
-321.070	251.526	-0.161	-0.277
-320.056	41.854	0.187	0.171
-319.041	-118.754	0.121	0.022
-318.026	-58.068	0.178	-0.078
-317.012	-94.577	-0.337	-0.092
-315.997	242.963	0.168	-0.283
-314.983	-23.299	-0.131	0.079
-313.968	-200.000	-0.003	-0.048
-312.953	-109.693	-0.252	0.053
-311.939	-114.444	-0.136	-0.026
-310.924	-14.887	0.303	-0.196
-309.910	78.606	0.246	0.265
-308.895	-200.000	0.015	0.081
-307.880	95.120	-0.488	0.561
-306.866	-124.813	-0.091	-0.014
-305.851	88.110	-0.155	0.174
-304.837	-78.637	-0.127	0.044
-303.822	-136.736	0.203	0.024
-302.807	117.330	0.158	0.195
-301.793	-89.351	-0.095	0.028
-300.778	-68.894	-0.232	-0.090
-299.764	800.000	-0.036	0.137
-298.749	800.000	-0.058	-0.232
-297.735	155.529	-0.164	-0.228
-296.720	469.792	0.085	0.192
-295.705	104.850	-0.066	0.079
-294.691	-174.978	0.020	-0.001
-293.676	-200.000	-0.031	0.352
-292.662	-99.906	0.095	-0.024
-291.647	425.217	0.016	-0.034
-290.632	-105.921	0.054	-0.012
-289.618	4.707	0.234	0.173
-288.603	317.135	0.161	-0.306
-287.589	-132.520	0.232	0.030
-286.574	-97.335	-0.311	-0.082
-285.559	-41.200	0.319	-0.166
-284.545	-17.704	0.326	0.206
-283.530	122.712	-0.120	-0.152
-282.516	-125.639	0.262	0.040
-281.501	-76.140	0.370	-0.132
-280.486	-200.000	0.003	-0.135
-279.472	-97.180	0.287	0.076
-278.457	199.851	0.064	0.099
-277.443	800.000	0.055	-0.235
-276.428	273.377	-0.125	-0.223
-275.413	-106.680	0.512	-0.115
-274.399	17.420	0.211	0.169
-273.384	132.249	0.216	0.281
-272.370	-34.553	0.398	0.219
-271.355	549.523	-0.107	0.258
-270.340	-163.355	0.340	0.016
-269.326	-9.062	0.179	0.121
-268.311	77.350	-0.110	0.117
-267.297	285.342	-0.137	0.248
-266.282	70.793	0.052	0.054
-265.267	75.152	0.267	-0.284
-264.253	-200.000	0.029	-0.153
-263.238	-59.324	0.310	0.134
-262.224	-200.000	0.041	0.181
-261.209	-200.000	0.004	-0.051
-260.195	800.000	-0.043	-0.164
-259.180	-200.000	0.011	-0.247
-258.165	38.155	0.150	0.134
-257.151	436.092	-0.108	-0.236
-256.136	11.178	0.230	-0.177
-255.122	51.644	0.074	0.071
-254.107	-200.000	0.106	0.482
-253.092	5.752	0.238	0.177
-252.078	-57.781	-0.103	-0.045
-251.063	-145.066	0.546	0.050
-250.049	-200.000	0.003	0.209
-249.034	213.000	-0.092	0.145
-248.019	800.000	0.096	0.277
-247.005	800.000	-0.092	0.331
-245.990	731.070	0.080	-0.215
-244.976	-200.000	-0.019	0.449
-243.961	-200.000	-0.003	-0.105
-242.946	-200.000	-0.067	0.405
-241.932	-55.203	-0.314	0.142
-240.917	-30.539	0.150	0.086
-239.903	21.377	0.271	-0.221
-238.888	303.954	-0.009	0.016
-237.873	649.300	0.184	0.473
-236.859	67.981	0.244	0.251
-235.844	74.894	0.184	-0.195
-234.830	800.000	0.026	0.085
-233.815	-79.754	-0.177	0.060
-232.800	-200.000	-0.005	-0.073
-231.786	-200.000	0.009	0.264
-230.771	-18.955	-0.163	-0.102
-229.757	-5.545	0.069	0.047
-228.742	-38.617	0.094	-0.050
-227.727	168.838	0.041	-0.058
-226.713	-189.534	-0.272	0.003
-225.698	196.688	0.203	0.311
-224.684	353.096	-0.042	-0.084
-223.669	-200.000	0.029	-0.189
-222.655	574.235	-0.112	-0.275
-221.640	-200.000	0.024	0.240
-220.625	-200.000	-0.028	-0.292
-219.611	-34.495	-0.195	-0.107
-218.596	-200.000	0.008	-0.063
-217.582	162.834	0.073	-0.103
-216.567	800.000	-0.126	-0.379
-215.552	135.513	0.077	0.101
-214.538	-174.810	-0.212	-0.006
-213.523	-147.820	0.163	0.014
-212.509	-200.000	-0.046	0.216
-211.494	306.703	-0.171	-0.319
-210.479	800.000	-0.098	0.291
-209.465	424.102	0.169	0.364
-208.450	800.000	-0.042	-0.132
-207.436	800.000	-0.059	-0.186
-206.421	-71.934	0.101	-0.038
-205.406	-91.156	-0.464	-0.134
-204.392	51.231	0.166	0.159
-203.377	129.457	-0.074	-0.095
-202.363	-200.000	-0.016	0.081
-201.348	137.355	-0.155	0.203
-200.333	28.367	0.103	-0.088
-199.319	800.000	-0.113	0.425
-198.304	-54.136	-0.241	0.110
-197.290	-3.858	-0.251	-0.175
-196.275	-26.073	-0.210	-0.124
-195.260	800.000	-0.050	-0.144
-194.246	65.693	-0.082	-0.083
-193.231	11.285	-0.243	0.186
-192.217	26.782	0.106	-0.089
-191.202	-133.593	0.310	-0.039
-190.187	-120.223	0.231	-0.040
-189.173	-71.199	-0.058	0.022
-188.158	-98.767	0.232	0.059
-187.144	-67.959	-0.238	0.093
-186.129	-192.372	0.179	0.002
-185.114	57.165	0.216	-0.212
-184.100	300.333	-0.026	-0.047
-183.085	-88.998	0.126	0.038
-182.071	-200.000	0.032	0.167
-181.056	-50.769	0.252	-0.119
-180.042	-24.774	0.046	0.027
-179.027	800.000	0.143	0.435
-178.012	82.628	0.245	0.267
-176.998	-77.207	-0.253	0.088
-175.983	-60.261	-0.063	0.027
-174.969	-70.171	-0.104	-0.040
-173.954	-200.000	0.052	-0.399
-172.939	800.000	-0.068	-0.272
-171.925	183.186	-0.148	0.220
-170.910	-78.427	-0.014	0.005
-169.896	-53.654	0.089	0.041
-168.881	-143.386	-0.252	0.024
-167.866	-200.000	-0.057	0.372
-166.852	-200.000	-0.009	0.302
-165.837	-15.153	0.177	-0.114
-164.823	-83.061	-0.193	-0.062
-163.808	-158.879	-0.129	-0.007
-162.793	-99.696	-0.395	0.099
-161.779	-57.567	-0.151	0.066
-160.764	-200.000	0.034	-0.277
-159.750	-58.406	0.241	0.105
-158.735	318.960	-0.094	0.179
-157.720	322.282	-0.057	-0.108
-156.706	-200.000	0.023	-0.113
-155.691	-78.232	0.178	-0.061
-154.677	-200.000	-0.002	0.160
-153.662	128.105	0.072	0.092
-152.647	-50.909	0.283	-0.133
-151.633	105.134	0.164	-0.194
-150.618	800.000	0.057	-0.174
-149.604	800.000	0.098	-0.429
-148.589	-200.000	0.009	-0.180
-147.574	800.000	0.039	-0.124
-146.560	-62.833	-0.335	0.139
-145.545	112.967	0.119	0.145
-144.531	233.924	0.097	-0.160
-143.516	-137.599	-0.132	-0.015
-142.502	800.000	0.059	0.201
-141.487	-200.000	-0.008	0.310
-140.472	-0.486	-0.192	-0.137
-139.458	-63.270	0.068	0.028
-138.443	-5.439	0.257	-0.177
-137.429	-200.000	-0.013	0.331
-136.414	116.092	-0.095	-0.116
-135.399	-96.428	0.237	-0.063
-134.385	-132.525	-0.245	0.032
-133.370	-137.976	0.101	0.011
-132.356	-21.895	0.046	-0.028
-131.341	-63.562	-0.356	-0.146
-130.326	800.000	0.070	-0.214
-129.312	71.366	0.180	-0.187
-128.297	259.995	0.139	-0.241
-127.283	263.385	-0.039	-0.068
-126.268	466.327	0.087	0.195
-125.253	103.961	-0.165	-0.195
-124.239	-99.971	0.119	-0.030
-123.224	-61.966	0.178	-0.075
-122.210	-136.384	0.123	-0.014
-121.195	-129.152	0.238	0.033
