DTS Sentinel unit serial number:	SN413079Multiplexer serial number:	ORYXHardware model number:	OX4-SRSoftware version number:	ORYX F/W v4.00 Oryx Data Collector v3.7.2.0data status	okinstallation	princeton_trtdifferential loss correction	single-endedforward channel	channel 2reverse channel	N/Adate	2019/09/17time	12:55:35forward acquisition time	60.00reverse acquisition time	0.00gamma	496.2192k internal	0.2318k external	0.2318temperature offset calibration	0.9991default loss term (dB/km)	0.3790temperature slope calibration	1.0000multiplexer offset coefficient	1.0000multiplexer slope coefficient	1.0000fibre end	0.00T internal ref (°C)	33.08T ext. ref 1 (°C)	0.43T ext. ref 2 (°C)	31.39length (m)	temperature (°C)	Stokes	anti-Stokes-747.200	800.000	-0.106	-0.358
-746.185	-24.670	-0.160	0.096
-745.171	-200.000	-0.029	0.216
-744.156	134.350	-0.171	0.225
-743.142	-200.000	-0.016	0.228
-742.127	-200.000	0.075	0.358
-741.112	-154.337	0.099	0.007
-740.098	287.220	0.074	0.135
-739.083	-200.000	0.004	-0.052
-738.069	-100.182	-0.228	0.057
-737.054	800.000	0.092	0.260
-736.039	106.650	-0.154	-0.185
-735.025	-200.000	-0.008	0.040
-734.010	800.000	0.021	0.070
-732.996	226.708	-0.210	-0.345
-731.981	456.099	0.048	-0.107
-730.966	32.673	-0.116	-0.101
-729.952	457.090	-0.181	-0.406
-728.937	-100.763	-0.180	-0.045
-727.923	-142.026	-0.316	-0.032
-726.908	-150.005	0.137	-0.011
-725.894	383.775	-0.176	-0.367
-724.879	-97.962	-0.246	-0.064
-723.864	-34.978	0.163	0.090
-722.850	-88.999	0.184	0.055
-721.835	-48.815	-0.179	-0.087
-720.821	425.958	0.074	0.161
-719.806	-58.383	-0.466	0.205
-718.791	-96.852	0.126	-0.033
-717.777	-92.002	0.387	-0.111
-716.762	108.459	-0.052	0.063
-715.748	800.000	-0.100	-0.329
-714.733	154.283	0.311	-0.432
-713.718	28.200	-0.381	-0.325
-712.704	-66.970	-0.213	-0.085
-711.689	-63.631	-0.386	-0.160
-710.675	-200.000	0.030	-0.275
-709.660	63.751	-0.150	-0.153
-708.645	-113.854	-0.089	-0.017
-707.631	-148.581	-0.393	-0.032
-706.616	-200.000	0.017	-0.215
-705.602	-47.631	-0.078	-0.038
-704.587	-89.419	0.133	0.039
-703.572	-200.000	0.071	-0.365
-702.558	-144.996	0.075	-0.007
-701.543	84.175	0.114	0.126
-700.529	800.000	0.082	0.294
-699.514	-36.729	-0.209	0.113
-698.499	2.357	0.100	-0.073
-697.485	-200.000	0.040	0.406
-696.470	-43.944	-0.275	0.139
-695.456	-132.395	-0.228	0.030
-694.441	146.418	-0.140	-0.191
-693.426	-200.000	0.013	0.205
-692.412	-127.664	0.296	0.043
-691.397	114.053	-0.087	0.106
-690.383	-145.687	-0.239	0.022
-689.368	236.105	-0.201	-0.336
-688.354	800.000	0.086	-0.310
-687.339	45.091	-0.044	0.041
-686.324	-106.108	-0.133	-0.030
-685.310	-200.000	0.083	0.428
-684.295	-66.122	0.090	-0.036
-683.281	52.074	-0.290	-0.279
-682.266	-200.000	-0.001	-0.158
-681.251	-200.000	0.034	0.171
-680.237	800.000	-0.068	-0.222
-679.222	-91.729	0.271	-0.078
-678.208	314.840	0.145	0.275
-677.193	260.108	0.137	-0.239
-676.178	-128.536	-0.286	0.041
-675.164	214.791	-0.124	-0.198
-674.149	410.302	-0.057	-0.123
-673.135	-200.000	0.008	-0.143
-672.120	-27.599	0.218	-0.128
-671.105	241.253	-0.029	0.049
-670.091	141.555	0.088	-0.117
-669.076	-135.021	0.116	0.014
-668.062	703.383	0.173	-0.461
-667.047	667.414	0.049	-0.128
-666.032	119.957	0.041	0.051
-665.018	800.000	0.086	0.325
-664.003	-5.273	0.067	-0.047
-662.989	-200.000	0.038	0.601
-661.974	91.066	0.124	-0.141
-660.959	-200.000	0.001	0.133
-659.945	119.361	-0.125	-0.156
-658.930	800.000	0.022	-0.069
-657.916	52.747	-0.105	-0.102
-656.901	-39.869	-0.281	0.148
-655.886	124.610	0.254	-0.322
-654.872	800.000	0.046	-0.164
-653.857	244.970	-0.071	0.121
-652.843	85.076	-0.145	0.160
-651.828	800.000	-0.143	0.398
-650.814	59.150	0.219	0.217
-649.799	82.341	-0.286	0.313
-648.784	800.000	0.106	0.298
-647.770	458.359	-0.090	0.202
-646.755	-200.000	0.048	-0.367
-645.741	45.033	0.188	-0.175
-644.726	-111.119	-0.155	-0.032
-643.711	-6.100	-0.235	0.162
-642.697	-160.745	0.168	-0.009
-641.682	800.000	0.057	0.196
-640.668	-84.355	0.157	0.050
-639.653	76.324	0.148	-0.158
-638.638	-59.795	-0.066	-0.029
-637.624	-90.217	-0.304	0.089
-636.609	778.219	-0.066	-0.183
-635.595	-37.888	-0.208	-0.111
-634.580	-48.823	-0.236	-0.114
-633.565	309.602	0.107	0.202
-632.551	368.214	0.126	-0.256
-631.536	215.419	0.107	-0.172
-630.522	-200.000	-0.034	0.157
-629.507	-123.025	-0.202	-0.033
-628.492	-87.033	0.153	0.047
-627.478	87.934	0.059	-0.066
-626.463	254.521	-0.174	0.299
-625.449	-90.890	-0.252	-0.073
-624.434	-14.471	-0.154	0.100
-623.419	116.985	-0.079	-0.098
-622.405	-200.000	0.029	-0.149
-621.390	800.000	0.112	0.398
-620.376	76.118	0.065	-0.069
-619.361	239.714	-0.080	-0.135
-618.346	-129.226	-0.464	0.065
-617.332	168.911	0.218	0.312
-616.317	-200.000	0.023	0.260
-615.303	15.716	0.278	0.220
-614.288	-200.000	-0.012	0.078
-613.273	523.101	-0.142	0.335
-612.259	-23.158	0.198	0.120
-611.244	49.557	0.099	-0.094
-610.230	-148.098	-0.111	-0.009
-609.215	-78.264	-0.164	-0.057
-608.201	280.134	0.133	0.239
-607.186	9.519	-0.063	0.048
-606.171	-200.000	-0.013	0.095
-605.157	-200.000	-0.026	0.281
-604.142	485.706	0.050	-0.114
-603.128	-200.000	0.035	0.294
-602.113	-156.642	-0.234	-0.015
-601.098	-81.957	-0.058	-0.019
-600.084	223.020	-0.090	0.147
-599.069	-200.000	-0.023	-0.173
-598.055	-153.860	-0.255	0.018
-597.040	69.229	-0.349	0.361
-596.025	-48.740	0.239	0.115
-595.011	-200.000	-0.002	0.087
-593.996	-43.671	-0.061	0.031
-592.982	-200.000	0.033	-0.349
-591.967	-200.000	0.037	0.199
-590.952	-103.224	-0.146	0.035
-589.938	685.026	-0.072	-0.189
-588.923	8.467	-0.200	-0.152
-587.909	-200.000	0.019	0.502
-586.894	-43.861	0.231	0.117
-585.879	-200.000	0.038	-0.197
-584.865	495.113	0.153	0.354
-583.850	140.442	-0.108	0.143
-582.836	146.864	-0.052	-0.071
-581.821	-76.577	-0.198	0.070
-580.806	224.092	-0.141	0.228
-579.792	-142.557	0.105	-0.010
-578.777	-150.816	0.272	-0.021
-577.763	-103.034	0.203	-0.048
-576.748	296.725	0.079	-0.146
-575.733	-200.000	-0.031	-0.262
-574.719	-200.000	-0.237	-0.001
-573.704	131.484	-0.175	0.226
-572.690	209.677	0.110	-0.174
-571.675	-4.928	0.159	-0.110
-570.661	800.000	-0.069	0.297
-569.646	-89.208	-0.196	-0.058
-568.631	-41.377	0.092	0.048
-567.617	50.940	-0.351	-0.334
-566.602	-57.332	-0.190	-0.084
-565.588	800.000	-0.031	0.131
-564.573	3.373	0.170	-0.125
-563.558	-140.376	0.111	0.012
-562.544	-18.697	-0.210	-0.131
-561.529	-4.765	0.243	0.168
-560.515	111.013	-0.149	0.180
-559.500	0.789	0.262	0.188
-558.485	280.759	-0.048	-0.087
-557.471	373.936	-0.047	0.097
-556.456	303.185	0.031	0.057
-555.442	57.098	0.147	-0.144
-554.427	-200.000	0.007	0.110
-553.412	148.936	-0.179	0.243
-552.398	-154.585	-0.326	0.022
-551.383	-38.703	0.181	0.096
-550.369	-38.779	0.070	0.037
-549.354	-73.494	0.230	-0.084
-548.339	-117.650	-0.068	-0.012
-547.325	-94.178	0.454	-0.125
-546.310	-153.378	-0.084	-0.006
-545.296	618.881	-0.111	0.279
-544.281	-55.531	0.105	-0.047
-543.266	97.552	0.163	-0.188
-542.252	-156.956	-0.114	0.007
-541.237	72.297	-0.198	-0.207
-540.223	800.000	-0.098	0.377
-539.208	800.000	0.013	-0.040
-538.193	-103.987	-0.117	0.027
-537.179	-66.192	-0.263	-0.105
-536.164	-34.394	-0.119	0.066
-535.150	158.389	-0.198	0.276
-534.135	195.556	0.081	0.123
-533.121	741.375	0.088	0.238
-532.106	-3.462	0.120	-0.084
-531.091	-200.000	0.016	0.157
-530.077	-127.678	-0.265	0.038
-529.062	423.880	0.039	0.085
-528.048	-200.000	-0.000	0.079
-527.033	450.289	-0.056	-0.124
-526.018	31.499	0.082	0.071
-525.004	-200.000	0.030	-0.199
-523.989	-140.704	0.309	0.032
-522.975	-108.823	-0.143	0.031
-521.960	800.000	0.070	0.222
-520.945	-200.000	0.003	-0.083
-519.931	3.348	-0.127	0.093
-518.916	89.405	0.259	-0.290
-517.902	94.137	-0.057	-0.065
-516.887	-200.000	-0.006	0.157
-515.872	-41.833	0.227	-0.117
-514.858	-200.000	0.015	0.087
-513.843	-200.000	-0.088	-0.491
-512.829	-26.606	-0.129	-0.076
-511.814	-41.144	-0.106	-0.055
-510.799	-21.721	-0.121	-0.074
-509.785	-97.973	0.184	-0.048
-508.770	-200.000	0.020	0.194
-507.756	418.430	0.018	-0.039
-506.741	148.639	-0.081	0.110
-505.726	-17.169	0.256	0.162
-504.712	217.990	-0.073	-0.116
-503.697	-56.382	-0.170	-0.076
-502.683	204.284	0.038	0.059
-501.668	-128.548	0.055	-0.008
-500.653	-200.000	-0.004	0.087
-499.639	-88.126	0.102	0.031
-498.624	-105.265	-0.304	0.069
-497.610	429.064	0.134	-0.289
-496.595	800.000	-0.042	-0.121
-495.581	224.551	-0.066	0.107
-494.566	-200.000	-0.001	-0.334
-493.551	-50.496	0.120	-0.057
-492.537	-66.606	-0.119	-0.047
-491.522	-82.393	0.173	0.056
-490.508	800.000	-0.009	0.040
-489.493	800.000	0.075	0.232
-488.478	800.000	-0.158	0.479
-487.464	-47.259	0.019	0.009
-486.449	800.000	-0.074	0.246
-485.435	-200.000	-0.049	-0.227
-484.420	-93.077	-0.264	-0.074
-483.405	17.563	-0.155	-0.124
-482.391	-26.548	0.359	-0.211
-481.376	-153.294	-0.238	0.017
-480.362	-126.215	-0.353	-0.053
-479.347	325.861	0.092	0.177
-478.332	10.745	-0.046	0.035
-477.318	-200.000	-0.002	-0.108
-476.303	-66.908	-0.129	-0.051
-475.289	32.468	0.297	0.257
-474.274	-136.431	0.420	-0.049
-473.259	794.705	0.066	0.182
-472.245	800.000	-0.034	-0.127
-471.230	800.000	0.004	-0.014
-470.216	-27.223	-0.034	-0.020
-469.201	113.278	0.080	-0.098
-468.186	-200.000	-0.030	-0.208
-467.172	-63.433	-0.188	0.077
-466.157	286.481	-0.098	0.177
-465.143	-130.750	0.228	-0.031
-464.128	-200.000	-0.004	-0.259
-463.113	211.532	-0.138	0.218
-462.099	61.982	-0.161	-0.161
-461.084	-58.475	-0.304	0.132
-460.070	-61.029	0.373	-0.158
-459.055	-200.000	0.050	-0.425
-458.040	-41.385	-0.154	-0.079
-457.026	563.355	-0.095	0.231
-456.011	800.000	0.014	0.050
-454.997	12.145	-0.215	0.165
-453.982	687.320	0.164	0.430
-452.968	393.302	0.037	-0.078
-451.953	214.566	-0.152	0.241
-450.938	469.136	0.190	0.428
-449.924	44.536	-0.247	0.227
-448.909	325.396	-0.143	-0.274
-447.895	-134.300	-0.287	0.035
-446.880	314.403	-0.184	-0.347
-445.865	621.316	0.022	0.056
-444.851	32.048	0.089	-0.077
-443.836	800.000	0.098	-0.365
-442.822	800.000	0.080	-0.281
-441.807	223.537	0.119	0.193
-440.792	-109.063	-0.239	-0.051
-439.778	-96.474	-0.194	0.051
-438.763	100.539	0.364	0.423
-437.749	264.149	0.161	0.280
-436.734	-22.355	0.271	-0.164
-435.719	-34.324	-0.143	-0.079
-434.705	532.369	-0.062	0.147
-433.690	354.014	0.186	0.369
-432.676	-162.561	-0.189	-0.009
-431.661	187.849	0.077	-0.115
-430.646	-200.000	0.072	-0.332
-429.632	246.652	-0.153	-0.259
-428.617	-173.210	-0.178	-0.005
-427.603	206.603	0.101	-0.158
-426.588	-79.072	0.369	-0.125
-425.573	-140.508	0.049	-0.005
-424.559	-185.488	-0.368	-0.006
-423.544	53.216	0.199	-0.190
-422.530	444.407	-0.128	-0.280
-421.515	24.763	-0.198	0.164
-420.500	-47.518	-0.255	0.124
-419.486	-115.350	-0.041	0.008
-418.471	-200.000	0.037	-0.281
-417.457	-43.833	0.213	0.107
-416.442	-176.953	-0.125	0.003
-415.428	154.510	0.025	-0.034
-414.413	-200.000	-0.090	0.509
-413.398	54.633	-0.208	0.200
-412.384	-200.000	0.011	0.262
-411.369	335.086	0.138	0.268
-410.355	220.981	0.148	0.237
-409.340	-200.000	0.004	0.135
-408.325	-31.471	0.271	-0.152
-407.311	-190.949	-0.234	-0.002
-406.296	-4.811	-0.198	-0.136
-405.282	800.000	0.083	-0.258
-404.267	206.488	-0.042	-0.066
-403.252	-137.900	0.205	0.023
-402.238	761.403	0.079	0.214
-401.223	193.627	0.105	-0.158
-400.209	-200.000	0.003	-0.015
-399.194	-200.000	0.009	-0.138
-398.179	800.000	0.172	-0.660
-397.165	14.521	-0.132	0.103
-396.150	786.988	-0.019	0.051
-395.136	800.000	0.063	0.194
-394.121	-69.854	-0.594	0.226
-393.106	-70.243	-0.035	0.013
-392.092	149.773	0.118	0.160
-391.077	-68.048	-0.149	-0.058
-390.063	-60.891	0.100	-0.042
-389.048	108.016	-0.111	0.132
-388.033	182.979	0.247	0.363
-387.019	23.247	-0.364	-0.298
-386.004	-200.000	-0.028	0.124
-384.990	514.535	-0.139	-0.323
-383.975	636.006	0.053	0.135
-382.960	800.000	0.123	-0.429
-381.946	5.120	-0.244	-0.179
-380.931	-46.233	0.449	-0.220
-379.917	-200.000	0.006	0.121
-378.902	122.920	0.119	-0.149
-377.888	-55.121	0.405	-0.182
-376.873	299.756	-0.075	0.138
-375.858	-148.980	0.028	0.002
-374.844	267.779	0.097	-0.169
-373.829	800.000	-0.051	0.142
-372.815	547.951	0.064	0.153
-371.800	-6.015	0.013	-0.009
-370.785	-200.000	0.012	0.148
-369.771	-63.335	0.243	-0.100
-368.756	-111.745	-0.096	-0.019
-367.742	-4.233	0.133	-0.091
-366.727	480.182	-0.158	-0.357
-365.712	158.517	0.054	-0.074
-364.698	370.644	0.154	-0.311
-363.683	800.000	0.172	-0.526
-362.669	8.827	0.170	0.128
-361.654	696.109	0.167	0.436
-360.639	-26.086	0.346	-0.203
-359.625	229.067	-0.033	-0.053
-358.610	-78.221	-0.142	-0.049
-357.596	800.000	-0.028	-0.110
-356.581	-119.777	0.294	0.050
-355.566	-81.530	-0.139	0.045
-354.552	-84.148	0.168	-0.053
-353.537	-200.000	0.052	0.348
-352.523	62.704	-0.151	0.151
-351.508	-118.314	0.056	0.010
-350.493	-143.171	0.563	0.054
-349.479	800.000	0.092	-0.324
-348.464	-200.000	0.007	0.104
-347.450	800.000	0.074	0.209
-346.435	768.321	0.092	-0.249
-345.420	-42.948	0.197	-0.100
-344.406	-200.000	-0.019	0.262
-343.391	-44.705	0.248	0.123
-342.377	-200.000	-0.003	-0.167
-341.362	-76.569	-0.012	-0.004
-340.348	-95.369	0.440	0.118
-339.333	800.000	0.022	-0.074
-338.318	-167.634	0.054	-0.002
-337.304	-137.227	-0.131	0.015
-336.289	800.000	0.091	-0.283
-335.275	800.000	0.034	-0.123
-334.260	459.583	-0.116	0.257
-333.245	-6.732	-0.059	0.040
-332.231	152.141	0.036	0.049
-331.216	-61.622	0.277	0.116
-330.202	-74.795	0.167	-0.060
-329.187	-137.332	0.277	-0.031
-328.172	-200.000	0.023	0.108
-327.158	800.000	0.011	0.038
-326.143	-104.760	0.203	-0.046
-325.129	544.346	0.112	-0.267
-324.114	114.593	-0.302	-0.366
-323.099	146.606	-0.110	-0.147
-322.085	14.556	-0.220	0.171
-321.070	598.288	-0.171	0.421
-320.056	800.000	0.078	0.250
-319.041	183.148	0.050	0.073
-318.026	71.358	-0.060	-0.062
-317.012	141.360	0.148	0.194
-315.997	-142.636	-0.258	-0.025
-314.983	-66.314	-0.242	0.096
-313.968	172.489	0.120	-0.172
-312.953	-139.943	0.367	-0.039
-311.939	-9.018	-0.146	0.097
-310.924	82.876	0.028	0.031
-309.910	-123.639	0.202	0.032
-308.895	-117.982	0.263	-0.047
-307.880	-59.420	-0.311	-0.133
-306.866	293.522	-0.164	0.297
-305.851	800.000	-0.096	0.287
-304.837	-109.034	-0.145	-0.031
-303.822	-200.000	-0.025	-0.136
-302.807	-155.924	0.150	-0.009
-301.793	10.757	-0.123	-0.093
-300.778	800.000	0.071	-0.279
-299.764	35.993	-0.159	-0.139
-298.749	-200.000	-0.011	-0.234
-297.735	183.951	-0.162	-0.238
-296.720	738.218	-0.074	-0.197
-295.705	-21.594	0.080	0.048
-294.691	105.257	0.019	-0.022
-293.676	-82.950	-0.217	0.070
-292.662	7.631	-0.186	-0.139
-291.647	461.198	-0.018	0.040
-290.632	72.910	-0.135	0.140
-289.618	-11.183	0.170	-0.111
-288.603	-200.000	-0.009	-0.168
-287.589	-200.000	-0.032	0.283
-286.574	-31.908	0.221	0.123
-285.559	-200.000	-0.037	0.427
-284.545	38.134	0.061	-0.054
-283.530	291.437	0.208	0.376
-282.516	-27.706	-0.179	0.103
-281.501	784.772	0.124	-0.338
-280.486	-18.304	-0.290	-0.180
-279.472	-71.320	-0.253	0.094
-278.457	-110.045	-0.215	-0.045
-277.443	421.941	0.060	0.129
-276.428	17.008	-0.145	0.114
-275.413	129.515	-0.136	0.173
-274.399	-93.232	-0.111	-0.031
-273.384	-200.000	-0.003	0.267
-272.370	6.611	0.120	-0.088
-271.355	-200.000	-0.046	0.300
-270.340	91.890	-0.232	-0.259
-269.326	89.422	0.121	-0.134
-268.311	-89.119	-0.328	0.096
-267.297	-175.295	0.307	-0.008
-266.282	-17.323	0.249	-0.156
-265.267	-35.583	-0.181	0.098
-264.253	714.743	-0.068	-0.178
-263.238	126.115	-0.108	-0.135
-262.224	-200.000	0.009	-0.223
-261.209	52.460	0.188	0.178
-260.195	303.767	0.103	0.190
-259.180	688.021	0.047	0.122
-258.165	-169.664	-0.102	-0.004
-257.151	-32.657	-0.146	-0.081
-256.136	243.844	-0.138	0.230
-255.122	-108.967	-0.115	0.024
-254.107	-134.558	0.145	0.018
-253.092	-118.825	0.319	-0.056
-252.078	-109.385	0.266	0.056
-251.063	-123.814	0.080	-0.013
-250.049	279.151	-0.040	-0.070
-249.034	231.914	0.122	-0.199
-248.019	-89.194	-0.282	-0.083
-247.005	-63.654	0.295	0.120
-245.990	-200.000	-0.064	-0.291
-244.976	-200.000	0.056	-0.331
-243.961	-8.149	0.243	0.162
-242.946	800.000	0.108	0.303
-241.932	-6.891	0.081	0.055
-240.917	107.697	0.129	0.152
-239.903	-200.000	-0.003	0.038
-238.888	510.780	0.184	-0.424
-237.873	149.485	-0.053	0.072
-236.859	-50.699	0.101	0.047
-235.844	617.104	-0.147	-0.367
-234.830	172.286	-0.174	-0.249
-233.815	800.000	0.083	-0.258
-232.800	175.688	-0.186	0.268
-231.786	-142.788	0.178	-0.017
-230.771	-200.000	-0.021	-0.357
-229.757	-116.049	0.050	-0.009
-228.742	-200.000	-0.010	-0.113
-227.727	-32.802	0.077	-0.042
-226.713	312.128	-0.120	-0.224
-225.698	-115.366	-0.408	0.076
-224.684	9.895	0.121	-0.091
-223.669	-140.850	0.383	-0.039
-222.655	-64.716	0.130	-0.052
-221.640	-55.218	-0.180	0.080
-220.625	-7.883	-0.189	-0.127
-219.611	318.004	0.005	-0.010
-218.596	-200.000	-0.043	-0.266
-217.582	800.000	0.108	-0.339
-216.567	358.318	-0.027	0.054
-215.552	-178.011	-0.206	-0.005
-214.538	-134.346	0.083	-0.010
-213.523	315.703	-0.042	-0.079
-212.509	-60.315	-0.120	0.050
-211.494	-40.865	-0.441	0.226
-210.479	-132.147	0.251	-0.032
-209.465	460.094	0.060	0.131
-208.450	3.504	-0.074	0.053
-207.436	406.034	-0.006	0.012
-206.421	306.015	0.143	0.263
-205.406	-200.000	-0.001	-0.039
-204.392	666.042	0.052	-0.134
-203.377	68.019	-0.177	-0.180
-202.363	-200.000	0.018	0.295
-201.348	37.389	0.089	-0.078
-200.333	102.564	-0.193	0.224
-199.319	124.256	-0.145	-0.181
-198.304	-170.575	0.166	0.006
-197.290	-87.082	-0.211	0.064
-196.275	291.450	-0.102	-0.185
-195.260	-200.000	0.010	-0.071
-194.246	39.417	-0.170	-0.151
-193.231	20.441	0.145	-0.116
-192.217	-11.026	-0.082	0.053
-191.202	-20.806	-0.270	0.164
-190.187	800.000	0.089	-0.272
-189.173	-200.000	0.047	-0.384
-188.158	163.928	0.160	-0.223
-187.144	2.495	-0.107	-0.076
-186.129	-90.799	0.090	-0.026
-185.114	-1.774	0.107	0.075
-184.100	-200.000	-0.020	-0.112
-183.085	-140.895	-0.073	0.007
-182.071	487.247	0.139	0.315
-181.056	-96.489	0.203	0.053
-180.042	-134.485	-0.152	-0.018
-179.027	30.552	0.183	0.155
-178.012	57.842	0.086	-0.083
-176.998	-143.871	-0.127	0.012
-175.983	800.000	-0.025	0.094
-174.969	-89.393	0.363	0.106
-173.954	97.317	0.172	0.195
-172.939	800.000	0.083	-0.240
-171.925	42.807	0.095	0.086
-170.910	7.896	0.280	0.208
-169.896	-52.597	-0.210	0.096
-168.881	-76.526	0.261	-0.091
-167.866	90.704	0.006	-0.007
-166.852	73.552	-0.255	0.264
-165.837	88.615	-0.200	0.220
-164.823	-133.177	0.375	0.047
-163.808	-200.000	0.028	-0.415
-162.793	347.737	-0.154	-0.300
-161.779	237.461	0.066	-0.108
-160.764	-54.766	-0.089	-0.040
-159.750	121.654	-0.179	-0.221
-158.735	156.278	0.216	-0.294
-157.720	800.000	-0.096	-0.300
-156.706	390.377	-0.101	-0.208
-155.691	273.637	0.176	0.308
-154.677	-118.365	0.425	-0.075
-153.662	53.660	-0.136	0.129
-152.647	539.065	0.065	-0.153
-151.633	76.402	-0.250	-0.262
-150.618	-39.559	-0.201	-0.104
-149.604	-7.825	-0.201	0.134
-148.589	-143.689	-0.124	0.012
-147.574	-58.540	0.142	-0.061
-146.560	-37.740	0.317	-0.167
-145.545	-200.000	-0.048	0.327
-144.531	47.640	-0.174	-0.161
-143.516	105.451	-0.140	0.164
-142.502	13.305	-0.106	0.081
-141.487	-200.000	0.011	0.224
-140.472	-200.000	-0.014	-0.165
-139.458	398.244	0.070	0.144
-138.443	-96.402	0.142	-0.037
-137.429	61.651	0.102	-0.100
-136.414	-37.990	0.128	0.067
-135.399	-27.123	0.147	0.085
-134.385	-128.614	-0.418	-0.058
-133.370	24.314	-0.036	0.029
-132.356	-85.727	0.044	0.014
-131.341	9.104	-0.083	-0.062
-130.326	42.564	-0.034	0.031
-129.312	-28.868	-0.200	-0.114
-128.297	568.124	0.058	0.139
-127.283	800.000	0.097	0.409
-126.268	-88.828	-0.378	-0.111
-125.253	48.881	0.167	-0.155
-124.239	-27.157	0.021	0.012
-123.224	14.415	-0.170	-0.131
-122.210	146.152	-0.107	0.142
-121.195	5.549	-0.220	0.160
