DTS Sentinel unit serial number:	SN413079Multiplexer serial number:	ORYXHardware model number:	OX4-SRSoftware version number:	ORYX F/W v4.00 Oryx Data Collector v3.7.2.0data status	okinstallation	princeton_trtdifferential loss correction	single-endedforward channel	channel 2reverse channel	N/Adate	2019/09/14time	05:07:35forward acquisition time	60.00reverse acquisition time	0.00gamma	496.2192k internal	0.2335k external	0.2335temperature offset calibration	1.0132default loss term (dB/km)	0.3790temperature slope calibration	1.0000multiplexer offset coefficient	1.0000multiplexer slope coefficient	1.0000fibre end	0.00T internal ref (°C)	26.87T ext. ref 1 (°C)	3.37T ext. ref 2 (°C)	21.99length (m)	temperature (°C)	Stokes	anti-Stokes-747.200	-56.754	-0.348	0.155
-746.185	-200.000	0.035	0.322
-745.171	29.103	0.056	-0.048
-744.156	-0.984	-0.098	0.070
-743.142	-200.000	0.042	0.291
-742.127	-190.261	-0.062	0.001
-741.112	-59.417	-0.111	-0.048
-740.098	-2.971	-0.458	0.321
-739.083	800.000	0.048	0.153
-738.069	52.747	0.079	0.076
-737.054	-200.000	0.062	0.274
-736.039	49.246	-0.268	0.253
-735.025	-124.755	0.194	0.030
-734.010	-84.620	-0.139	0.044
-732.996	88.336	0.061	0.068
-731.981	-7.543	-0.190	-0.129
-730.966	-24.859	-0.088	-0.052
-729.952	-4.894	-0.207	0.143
-728.937	236.081	-0.136	-0.226
-727.923	50.104	-0.133	-0.126
-726.908	-94.634	0.168	-0.046
-725.894	-47.084	0.181	0.089
-724.879	800.000	-0.112	0.331
-723.864	-200.000	-0.031	0.146
-722.850	-200.000	-0.036	0.211
-721.835	-154.331	-0.434	0.029
-720.821	29.024	-0.059	-0.050
-719.806	-57.085	-0.052	-0.023
-718.791	800.000	0.028	-0.078
-717.777	275.042	-0.126	0.224
-716.762	-200.000	0.056	-0.362
-715.748	-67.107	-0.377	-0.149
-714.733	-30.514	-0.190	0.108
-713.718	800.000	0.055	0.237
-712.704	-102.784	-0.308	0.074
-711.689	146.034	0.162	0.218
-710.675	800.000	0.090	0.262
-709.660	-162.545	-0.046	-0.002
-708.645	800.000	-0.099	-0.432
-707.631	-119.244	-0.092	0.016
-706.616	-169.374	0.244	-0.009
-705.602	-114.627	-0.249	0.048
-704.587	219.648	-0.070	0.112
-703.572	247.049	0.099	0.168
-702.558	462.742	-0.037	-0.084
-701.543	-60.874	-0.055	0.023
-700.529	-99.117	-0.180	-0.046
-699.514	-200.000	-0.002	0.098
-698.499	-135.784	0.014	0.002
-697.485	-200.000	-0.002	0.011
-696.470	-84.941	0.078	0.025
-695.456	-28.628	-0.228	-0.131
-694.441	-200.000	-0.008	-0.236
-693.426	115.942	0.013	0.016
-692.412	-200.000	0.007	-0.212
-691.397	800.000	-0.052	0.144
-690.383	-96.179	-0.152	-0.040
-689.368	-129.348	0.464	-0.065
-688.354	-200.000	-0.007	0.188
-687.339	800.000	-0.036	0.102
-686.324	88.726	0.126	-0.141
-685.310	-7.031	-0.216	-0.147
-684.295	-63.680	-0.370	0.152
-683.281	800.000	0.082	-0.279
-682.266	-144.987	-0.136	0.012
-681.251	129.140	-0.128	0.164
-680.237	472.396	-0.127	-0.286
-679.222	93.053	0.225	0.254
-678.208	38.157	0.109	0.097
-677.193	65.886	-0.122	-0.124
-676.178	-69.895	0.104	-0.040
-675.164	-200.000	0.096	-0.588
-674.149	33.809	0.092	0.080
-673.135	-200.000	0.028	0.242
-672.120	-58.265	-0.356	-0.155
-671.105	-42.091	0.079	0.040
-670.091	-21.838	-0.171	0.104
-669.076	-106.565	-0.042	0.009
-668.062	213.830	0.093	-0.148
-667.047	-5.824	-0.242	-0.166
-666.032	-20.620	0.052	0.032
-665.018	-53.908	-0.131	0.060
-664.003	45.729	0.177	0.164
-662.989	-200.000	0.003	0.169
-661.974	48.805	-0.230	-0.216
-660.959	800.000	0.006	0.027
-659.945	207.413	-0.096	-0.150
-658.930	193.388	0.091	-0.138
-657.916	-200.000	-0.027	-0.135
-656.901	76.233	-0.259	-0.275
-655.886	525.707	0.125	0.295
-654.872	-200.000	-0.006	-0.036
-653.857	800.000	0.048	-0.188
-652.843	-26.415	0.116	0.068
-651.828	800.000	0.059	0.164
-650.814	129.982	0.114	0.146
-649.799	-165.553	0.182	-0.008
-648.784	800.000	-0.018	-0.059
-647.770	632.575	0.090	0.227
-646.755	-69.051	0.249	0.096
-645.741	212.649	-0.184	-0.290
-644.726	-83.564	-0.338	0.108
-643.711	800.000	0.021	-0.070
-642.697	-82.261	-0.225	-0.073
-641.682	-137.892	0.364	0.041
-640.668	15.370	-0.191	-0.150
-639.653	15.181	-0.106	-0.083
-638.638	-98.846	0.216	0.055
-637.624	508.219	-0.049	0.114
-636.609	-1.113	0.244	-0.173
-635.595	53.802	-0.177	-0.170
-634.580	800.000	0.138	-0.514
-633.565	55.484	-0.101	0.098
-632.551	-200.000	-0.009	-0.127
-631.536	-73.854	0.021	0.007
-630.522	327.685	0.182	-0.350
-629.507	-135.027	-0.243	-0.029
-628.492	-200.000	0.006	-0.114
-627.478	-22.878	0.273	0.165
-626.463	800.000	-0.007	-0.025
-625.449	285.400	-0.072	0.130
-624.434	390.270	-0.079	0.164
-623.419	318.598	-0.154	0.292
-622.405	-200.000	0.003	0.230
-621.390	135.667	-0.216	-0.282
-620.376	41.570	0.040	0.036
-619.361	-200.000	0.059	-0.641
-618.346	431.556	-0.180	-0.391
-617.332	-112.596	0.237	-0.047
-616.317	-153.186	0.326	0.023
-615.303	800.000	-0.030	0.093
-614.288	574.926	-0.196	-0.479
-613.273	-27.868	0.275	0.160
-612.259	187.575	0.166	0.248
-611.244	101.022	0.029	0.033
-610.230	-144.412	0.202	-0.019
-609.215	284.651	-0.073	0.131
-608.201	-27.937	0.252	-0.146
-607.186	-1.791	-0.234	-0.164
-606.171	-94.338	-0.281	-0.077
-605.157	58.730	0.174	-0.171
-604.142	-7.091	-0.339	-0.230
-603.128	-200.000	0.016	-0.131
-602.113	591.204	-0.128	-0.315
-601.098	-99.330	-0.199	0.050
-600.084	-14.759	-0.154	-0.099
-599.069	17.065	-0.208	0.165
-598.055	-38.971	0.104	0.055
-597.040	-107.628	-0.240	0.052
-596.025	26.792	-0.216	-0.181
-595.011	439.492	0.144	0.315
-593.996	-82.845	0.147	-0.048
-592.982	-23.080	-0.219	0.132
-591.967	-60.213	-0.296	0.126
-590.952	-10.557	-0.154	-0.102
-589.938	-192.099	0.056	0.001
-588.923	107.828	0.231	-0.275
-587.909	-118.446	0.163	-0.029
-586.894	178.677	0.161	0.235
-585.879	114.333	-0.094	-0.115
-584.865	112.599	-0.174	-0.210
-583.850	800.000	-0.007	-0.025
-582.836	-122.115	0.268	-0.044
-581.821	-75.652	-0.204	0.072
-580.806	8.450	0.120	-0.090
-579.792	445.094	0.109	-0.240
-578.777	36.891	0.069	-0.061
-577.763	434.057	-0.132	0.286
-576.748	800.000	0.056	-0.178
-575.733	-200.000	-0.036	0.176
-574.719	-132.769	0.430	-0.055
-573.704	-200.000	-0.026	-0.223
-572.690	659.925	-0.111	0.285
-571.675	-100.628	0.240	0.059
-570.661	-66.611	0.058	0.023
-569.646	528.682	0.087	-0.205
-568.631	-65.688	0.102	-0.041
-567.617	526.427	0.151	-0.356
-566.602	3.979	-0.089	-0.065
-565.588	-72.819	-0.236	0.087
-564.573	382.864	0.076	-0.157
-563.558	-200.000	0.001	-0.225
-562.544	104.154	-0.329	-0.386
-561.529	-82.701	0.099	0.032
-560.515	-200.000	-0.009	0.137
-559.500	-71.422	0.169	-0.063
-558.485	-162.834	-0.127	0.006
-557.471	-200.000	0.061	-0.386
-556.456	800.000	-0.035	-0.147
-555.442	41.533	0.033	0.029
-554.427	-128.809	0.231	0.032
-553.412	-107.264	-0.151	0.033
-552.398	434.354	-0.012	-0.026
-551.383	-105.856	-0.129	-0.029
-550.369	-139.630	-0.121	-0.013
-549.354	-107.815	0.242	0.053
-548.339	-200.000	0.029	0.275
-547.325	358.666	0.113	0.224
-546.310	-35.908	-0.103	-0.056
-545.296	800.000	0.076	-0.289
-544.281	73.325	-0.177	0.185
-543.266	-28.874	-0.262	-0.150
-542.252	-200.000	-0.002	0.457
-541.237	-200.000	-0.025	0.117
-540.223	-28.857	-0.234	-0.134
-539.208	-200.000	-0.011	-0.079
-538.193	262.434	-0.140	-0.241
-537.179	800.000	0.110	-0.329
-536.164	20.244	-0.304	-0.244
-535.150	-200.000	0.090	0.527
-534.135	-72.218	0.225	0.083
-533.121	-200.000	-0.035	0.363
-532.106	800.000	0.042	-0.147
-531.091	-76.506	-0.112	0.039
-530.077	-37.915	-0.193	0.102
-529.062	87.784	0.081	-0.089
-528.048	800.000	0.009	-0.033
-527.033	-200.000	0.019	0.200
-526.018	-89.090	-0.327	0.096
-525.004	133.639	0.084	-0.108
-523.989	-49.078	-0.092	-0.044
-522.975	-200.000	-0.020	-0.386
-521.960	800.000	-0.068	-0.216
-520.945	-185.446	0.192	0.003
-519.931	-4.309	-0.018	0.013
-518.916	496.527	-0.046	-0.104
-517.902	203.450	-0.065	-0.101
-516.887	20.882	-0.119	-0.096
-515.872	-118.146	0.059	-0.010
-514.858	186.993	-0.108	0.160
-513.843	-179.032	0.408	-0.009
-512.829	-95.788	-0.143	-0.038
-511.814	-2.426	0.023	-0.016
-510.799	-69.240	0.235	0.090
-509.785	-35.170	-0.281	-0.153
-508.770	-200.000	-0.003	-0.036
-507.756	152.955	0.193	0.263
-506.741	22.851	-0.196	0.160
-505.726	800.000	0.043	0.135
-504.712	159.826	0.253	-0.351
-503.697	-200.000	0.040	-0.294
-502.683	800.000	-0.044	0.174
-501.668	68.004	-0.101	0.103
-500.653	177.928	-0.200	0.291
-499.639	70.861	0.071	-0.073
-498.624	159.445	-0.048	0.066
-497.610	-65.455	0.289	0.116
-496.595	-16.579	-0.313	0.198
-495.581	-34.791	0.131	-0.071
-494.566	16.583	-0.222	-0.175
-493.551	-89.414	0.326	-0.096
-492.537	33.792	-0.110	0.095
-491.522	367.738	0.086	-0.172
-490.508	87.556	-0.207	0.228
-489.493	387.244	0.129	-0.265
-488.478	-200.000	-0.012	0.148
-487.464	-86.819	-0.381	-0.116
-486.449	-130.601	0.210	0.028
-485.435	-200.000	-0.027	-0.138
-484.420	-198.631	0.142	-0.001
-483.405	-200.000	-0.023	0.170
-482.391	-200.000	0.032	0.409
-481.376	-100.731	0.083	-0.020
-480.362	-109.603	-0.237	0.050
-479.347	800.000	-0.145	-0.498
-478.332	123.816	0.043	-0.054
-477.318	142.168	-0.110	0.146
-476.303	800.000	-0.050	-0.195
-475.289	151.520	0.144	0.196
-474.274	-200.000	-0.055	0.295
-473.259	144.282	0.002	-0.002
-472.245	611.241	0.065	-0.162
-471.230	800.000	-0.078	0.273
-470.216	-105.016	-0.302	0.069
-469.201	345.754	-0.136	0.266
-468.186	-200.000	0.054	0.000
-467.172	133.458	0.133	0.171
-466.157	800.000	-0.081	0.242
-465.143	-34.536	-0.124	0.067
-464.128	-3.053	-0.193	-0.134
-463.113	72.855	0.191	0.198
-462.099	-20.495	-0.120	0.073
-461.084	43.206	-0.098	-0.089
-460.070	800.000	0.090	0.253
-459.055	-200.000	0.033	0.177
-458.040	-55.799	0.225	0.100
-457.026	35.475	-0.161	-0.140
-456.011	-200.000	0.029	-0.294
-454.997	800.000	0.061	-0.190
-453.982	800.000	-0.030	0.092
-452.968	162.899	-0.225	0.314
-451.953	-200.000	0.013	-0.297
-450.938	387.413	0.124	-0.255
-449.924	139.990	0.055	0.072
-448.909	-37.220	-0.116	0.062
-447.895	-200.000	-0.040	-0.189
-446.880	-77.929	0.099	0.034
-445.865	-128.732	0.209	0.029
-444.851	18.930	0.198	0.158
-443.836	580.299	-0.034	-0.083
-442.822	247.634	-0.181	-0.304
-441.807	800.000	-0.070	0.209
-440.792	419.420	0.039	-0.082
-439.778	-200.000	-0.046	-0.226
-438.763	-130.020	-0.272	0.037
-437.749	800.000	0.022	0.081
-436.734	800.000	0.149	0.614
-435.719	-103.431	0.136	-0.032
-434.705	-5.327	0.070	0.048
-433.690	502.676	0.060	0.138
-432.676	-124.446	-0.312	0.048
-431.661	148.131	-0.089	0.119
-430.646	-81.619	-0.105	0.034
-429.632	-200.000	0.041	-0.184
-428.617	89.742	-0.133	-0.147
-427.603	-149.565	-0.177	-0.014
-426.588	-90.799	-0.255	-0.073
-425.573	-68.196	-0.087	-0.034
-424.559	-200.000	-0.018	0.108
-423.544	800.000	0.061	0.223
-422.530	-200.000	0.009	-0.354
-421.515	69.208	-0.140	-0.143
-420.500	37.725	-0.205	0.181
-419.486	-66.070	-0.291	0.115
-418.471	-200.000	0.032	0.290
-417.457	-200.000	0.038	0.283
-416.442	-200.000	0.037	-0.265
-415.428	-200.000	0.001	0.005
-414.413	-10.706	0.044	0.029
-413.398	-139.332	-0.283	-0.030
-412.384	101.785	-0.160	0.186
-411.369	95.049	-0.050	0.057
-410.355	104.371	-0.021	-0.024
-409.340	-200.000	-0.021	0.196
-408.325	-57.281	0.088	-0.039
-407.311	14.385	-0.256	-0.198
-406.296	800.000	0.046	0.142
-405.282	-158.631	0.194	0.011
-404.267	-200.000	0.002	0.291
-403.252	-106.839	-0.204	0.045
-402.238	-144.279	-0.268	0.025
-401.223	-200.000	-0.025	-0.188
-400.209	-77.789	0.314	-0.108
-399.194	297.952	0.028	0.050
-398.179	-44.587	0.176	-0.087
-397.165	576.474	-0.103	0.249
-396.150	-150.719	-0.042	-0.003
-395.136	-200.000	0.034	-0.238
-394.121	-75.201	0.267	0.094
-393.106	-113.779	-0.158	-0.030
-392.092	16.989	0.118	0.093
-391.077	218.231	0.055	0.087
-390.063	-36.185	0.130	-0.070
-389.048	317.742	0.049	-0.092
-388.033	125.143	0.219	-0.273
-387.019	-21.389	-0.334	-0.202
-386.004	-64.116	-0.016	0.007
-384.990	-148.937	0.205	-0.016
-383.975	-106.366	-0.258	-0.057
-382.960	29.807	0.165	0.139
-381.946	-150.458	-0.319	-0.024
-380.931	-95.863	-0.097	-0.026
-379.917	683.595	0.128	0.330
-378.902	-200.000	0.021	-0.304
-377.888	344.680	-0.134	-0.260
-376.873	252.633	0.200	-0.338
-375.858	29.425	-0.113	-0.095
-374.844	-147.919	0.071	-0.006
-373.829	8.677	-0.159	-0.119
-372.815	-23.737	0.236	0.140
-371.800	-27.758	0.203	-0.116
-370.785	40.067	0.172	-0.153
-369.771	-24.303	0.378	-0.224
-368.756	-62.022	0.397	-0.164
-367.742	344.577	-0.012	-0.023
-366.727	182.070	-0.057	0.083
-365.712	-200.000	-0.018	-0.233
-364.698	61.968	-0.206	0.203
-363.683	201.684	-0.081	0.124
-362.669	-132.031	0.178	-0.023
-361.654	-104.538	-0.262	-0.060
-360.639	134.620	-0.055	-0.071
-359.625	-200.000	0.014	0.079
-358.610	525.574	-0.183	-0.427
-357.596	122.150	0.112	-0.138
-356.581	237.030	0.026	0.043
-355.566	249.933	0.118	-0.198
-354.552	768.475	-0.052	-0.139
-353.537	-200.000	0.054	0.246
-352.523	800.000	0.072	-0.216
-351.508	-66.261	0.182	0.072
-350.493	137.637	0.142	0.183
-349.479	638.596	0.073	0.184
-348.464	-200.000	-0.076	-0.000
-347.450	49.907	0.218	-0.203
-346.435	800.000	-0.023	0.090
-345.420	-59.903	-0.117	-0.049
-344.406	108.678	-0.244	0.288
-343.391	22.438	0.159	-0.128
-342.377	617.311	0.045	-0.112
-341.362	195.155	0.082	-0.122
-340.348	-200.000	0.017	0.176
-339.333	-199.929	0.196	-0.001
-338.318	-73.992	-0.099	0.036
-337.304	19.195	0.132	0.105
-336.289	362.935	0.202	0.402
-335.275	-84.541	-0.189	-0.059
-334.260	-200.000	0.028	0.168
-333.245	-200.000	0.077	0.336
-332.231	-12.058	0.430	-0.278
-331.216	-127.168	0.412	-0.060
-330.202	-102.856	0.207	-0.049
-329.187	800.000	-0.027	-0.087
-328.172	-200.000	-0.018	-0.134
-327.158	800.000	-0.083	-0.246
-326.143	19.982	-0.151	-0.120
-325.129	800.000	0.043	-0.146
-324.114	-35.528	0.121	0.065
-323.099	-163.449	-0.153	-0.007
-322.085	178.609	-0.101	-0.146
-321.070	800.000	-0.032	0.125
-320.056	789.459	0.067	0.182
-319.041	-103.206	0.332	-0.077
-318.026	-200.000	0.001	0.035
-317.012	-200.000	-0.003	0.083
-315.997	65.021	0.271	-0.271
-314.983	3.874	-0.073	-0.053
-313.968	-173.618	0.338	-0.010
-312.953	285.008	0.047	-0.084
-311.939	-52.552	-0.094	0.043
-310.924	-200.000	-0.025	-0.334
-309.910	-89.234	0.247	-0.072
-308.895	-200.000	-0.036	0.163
-307.880	64.048	-0.155	-0.154
-306.866	11.809	-0.272	0.206
-305.851	213.616	0.154	-0.240
-304.837	169.054	-0.090	-0.127
-303.822	-200.000	-0.041	0.182
-302.807	800.000	-0.097	0.344
-301.793	-200.000	0.074	-0.334
-300.778	800.000	0.023	-0.090
-299.764	-69.419	-0.271	0.103
-298.749	128.093	0.075	0.094
-297.735	325.188	-0.259	0.488
-296.720	-200.000	-0.012	-0.256
-295.705	289.024	-0.154	-0.275
-294.691	-200.000	0.020	-0.115
-293.676	-78.643	0.519	-0.175
-292.662	17.025	-0.279	0.218
-291.647	-22.696	0.041	-0.024
-290.632	-8.620	0.230	0.152
-289.618	-14.200	-0.242	-0.154
-288.603	320.004	-0.108	0.201
-287.589	85.605	-0.227	-0.246
-286.574	58.958	0.098	-0.095
-285.559	284.271	-0.170	-0.303
-284.545	-119.016	-0.215	-0.037
-283.530	-51.503	-0.108	0.050
-282.516	-200.000	0.018	-0.189
-281.501	-200.000	-0.002	-0.285
-280.486	-189.407	-0.302	0.003
-279.472	-155.728	0.038	-0.002
-278.457	-28.076	0.347	0.198
-277.443	715.889	-0.037	0.097
-276.428	-11.601	0.195	-0.127
-275.413	-200.000	0.050	0.238
-274.399	118.873	0.039	-0.048
-273.384	-30.797	0.252	0.141
-272.370	-200.000	-0.059	0.304
-271.355	800.000	0.080	-0.333
-270.340	-8.139	0.230	-0.153
-269.326	-118.363	-0.471	-0.082
-268.311	-146.832	0.081	-0.007
-267.297	800.000	0.009	-0.033
-266.282	-133.561	-0.139	0.017
-265.267	131.817	-0.189	0.240
-264.253	800.000	-0.036	-0.136
-263.238	72.398	-0.094	0.097
-262.224	36.779	0.073	0.064
-261.209	-200.000	-0.020	-0.231
-260.195	-168.738	0.241	-0.009
-259.180	19.124	-0.382	0.302
-258.165	-200.000	0.008	-0.042
-257.151	59.921	0.221	0.215
-256.136	-59.695	0.280	0.118
-255.122	800.000	-0.083	0.336
-254.107	359.337	0.048	0.094
-253.092	800.000	0.046	0.145
-252.078	-39.527	-0.077	-0.040
-251.063	-200.000	0.003	-0.226
-250.049	-200.000	0.013	0.318
-249.034	126.756	0.198	0.247
-248.019	-200.000	-0.059	-0.266
-247.005	800.000	-0.024	0.087
-245.990	20.504	0.292	0.233
-244.976	-76.016	-0.085	0.030
-243.961	-200.000	-0.005	0.099
-242.946	26.379	0.283	0.233
-241.932	-19.752	0.175	-0.107
-240.917	-200.000	0.014	0.123
-239.903	-200.000	-0.024	-0.204
-238.888	-200.000	-0.008	0.107
-237.873	-92.443	0.382	-0.106
-236.859	800.000	-0.081	0.247
-235.844	800.000	-0.017	-0.058
-234.830	-57.396	0.440	0.190
-233.815	117.989	0.098	-0.119
-232.800	-58.735	-0.245	-0.104
-231.786	30.208	-0.128	-0.108
-230.771	735.519	0.009	0.024
-229.757	-67.194	0.334	0.130
-228.742	-200.000	-0.025	0.305
-227.727	684.189	-0.067	-0.172
-226.713	-200.000	0.007	0.058
-225.698	147.463	-0.213	0.283
-224.684	-93.554	-0.119	-0.032
-223.669	-112.782	0.179	-0.035
-222.655	-200.000	-0.020	0.219
-221.640	241.223	0.061	0.100
-220.625	-134.231	-0.039	0.005
-219.611	-117.041	0.094	0.017
-218.596	70.230	-0.201	0.204
-217.582	-101.579	-0.267	0.064
-216.567	-101.760	0.289	0.069
-215.552	-18.710	-0.391	0.240
-214.538	800.000	0.060	0.195
-213.523	461.469	-0.157	0.344
-212.509	-63.899	0.195	0.078
-211.494	-114.261	0.237	0.045
-210.479	194.266	-0.214	0.320
-209.465	-200.000	0.004	-0.353
-208.450	-44.596	0.171	-0.084
-207.436	-36.473	-0.147	-0.078
-206.421	-73.317	-0.177	-0.064
-205.406	800.000	-0.111	-0.343
-204.392	7.528	-0.208	0.153
-203.377	-23.519	-0.390	0.230
-202.363	223.785	0.159	0.253
-201.348	611.636	0.171	0.421
-200.333	53.777	-0.414	0.391
-199.319	82.825	0.113	0.121
-198.304	-24.145	-0.154	0.090
-197.290	-200.000	-0.018	0.288
-196.275	800.000	0.036	-0.139
-195.260	221.076	-0.034	0.053
-194.246	-80.609	0.292	0.096
-193.231	-96.001	-0.323	0.085
-192.217	7.219	-0.081	-0.059
-191.202	-200.000	-0.003	-0.150
-190.187	102.643	0.061	-0.070
-189.173	800.000	0.060	-0.208
-188.158	800.000	0.045	0.194
-187.144	800.000	-0.037	0.138
-186.129	-48.710	0.214	0.101
-185.114	10.370	0.174	0.130
-184.100	-200.000	0.026	-0.257
-183.085	151.942	-0.044	-0.059
-182.071	-30.056	-0.355	0.198
-181.056	37.913	0.156	-0.136
-180.042	40.281	0.170	0.150
-179.027	190.848	0.036	-0.054
-178.012	51.626	-0.058	0.054
-176.998	403.317	0.111	0.230
-175.983	394.866	0.128	0.262
-174.969	179.347	0.061	0.088
-173.954	42.870	0.111	0.100
-172.939	64.959	0.104	0.103
-171.925	-81.065	0.428	0.139
-170.910	16.766	0.197	-0.153
-169.896	-37.556	-0.036	-0.019
-168.881	420.633	-0.053	-0.111
-167.866	210.365	0.170	-0.262
-166.852	26.279	-0.270	0.222
-165.837	-194.499	0.354	0.003
-164.823	-200.000	0.044	-0.342
-163.808	-169.956	-0.062	0.002
-162.793	800.000	0.030	0.110
-161.779	-20.820	0.285	-0.171
-160.764	-3.565	-0.338	0.231
-159.750	-22.031	-0.299	-0.178
-158.735	-200.000	-0.004	0.081
-157.720	800.000	0.089	-0.265
-156.706	800.000	0.035	0.114
-155.691	191.796	0.071	0.105
-154.677	-119.932	-0.458	-0.077
-153.662	-127.452	0.065	0.009
-152.647	-200.000	-0.004	-0.080
-151.633	-148.954	0.116	0.009
-150.618	800.000	-0.010	0.030
-149.604	-158.588	-0.151	-0.009
-148.589	322.682	0.143	0.268
-147.574	-4.771	0.299	-0.202
-146.560	800.000	0.058	-0.213
-145.545	-160.525	-0.152	0.008
-144.531	-11.773	0.157	-0.101
-143.516	73.985	-0.023	0.023
-142.502	67.676	0.196	0.196
-141.487	-200.000	-0.000	-0.024
-140.472	-172.661	-0.089	0.003
-139.458	30.429	-0.205	0.172
-138.443	800.000	-0.058	0.225
-137.429	320.813	-0.251	-0.468
-136.414	-40.933	-0.130	-0.066
-135.399	-200.000	0.037	-0.187
-134.385	-140.071	0.260	-0.027
-133.370	-63.503	-0.131	-0.053
-132.356	-131.459	-0.033	-0.004
-131.341	-102.415	0.105	-0.025
-130.326	-110.334	-0.440	-0.090
-129.312	-15.144	0.383	-0.240
-128.297	-39.215	-0.165	-0.085
-127.283	36.969	-0.042	-0.037
-126.268	-67.858	0.125	0.048
-125.253	-89.813	0.156	-0.045
-124.239	-18.464	-0.313	-0.192
-123.224	-109.218	-0.125	-0.026
-122.210	183.278	0.118	-0.171
