DTS Sentinel unit serial number:	SN413079Multiplexer serial number:	ORYXHardware model number:	OX4-SRSoftware version number:	ORYX F/W v4.00 Oryx Data Collector v3.7.2.0data status	okinstallation	princeton_trtdifferential loss correction	single-endedforward channel	channel 2reverse channel	N/Adate	2019/09/13time	16:27:34forward acquisition time	60.00reverse acquisition time	0.00gamma	496.2192k internal	0.2314k external	0.2314temperature offset calibration	1.0215default loss term (dB/km)	0.3790temperature slope calibration	1.0000multiplexer offset coefficient	1.0000multiplexer slope coefficient	1.0000fibre end	0.00T internal ref (°C)	35.02T ext. ref 1 (°C)	4.87T ext. ref 2 (°C)	30.92length (m)	temperature (°C)	Stokes	anti-Stokes-747.200	-200.000	0.018	0.124
-746.185	115.946	0.070	0.087
-745.171	-60.597	0.287	0.123
-744.156	800.000	0.067	-0.222
-743.142	97.964	-0.103	-0.120
-742.127	-150.868	-0.156	0.012
-741.112	214.930	-0.062	0.100
-740.098	49.812	-0.378	0.362
-739.083	-200.000	0.007	0.191
-738.069	273.840	0.073	0.131
-737.054	-18.006	0.109	0.070
-736.039	121.214	-0.050	0.063
-735.025	-158.125	0.203	-0.012
-734.010	-200.000	-0.022	-0.147
-732.996	-76.585	-0.200	-0.071
-731.981	-60.070	-0.287	0.124
-730.966	7.439	-0.270	0.205
-729.952	431.950	-0.049	0.107
-728.937	-200.000	-0.040	-0.203
-727.923	63.067	0.022	-0.022
-726.908	-135.532	0.197	0.024
-725.894	244.701	0.151	-0.257
-724.879	597.677	0.133	-0.334
-723.864	227.715	0.168	-0.276
-722.850	-80.497	-0.283	-0.096
-721.835	-122.513	0.215	0.035
-720.821	-10.853	0.172	-0.115
-719.806	-200.000	-0.040	-0.284
-718.791	-200.000	-0.005	-0.139
-717.777	-121.380	-0.207	0.035
-716.762	-56.422	0.103	-0.046
-715.748	71.621	-0.159	-0.167
-714.733	-158.195	0.175	0.010
-713.718	-200.000	-0.082	0.373
-712.704	-200.000	0.036	0.319
-711.689	137.992	0.175	0.233
-710.675	277.316	-0.119	0.214
-709.660	65.118	-0.172	-0.176
-708.645	-85.763	0.376	0.118
-707.631	-129.583	-0.179	-0.025
-706.616	425.207	-0.123	0.268
-705.602	46.260	-0.218	-0.205
-704.587	56.623	-0.070	0.069
-703.572	-200.000	-0.015	0.096
-702.558	-75.395	-0.207	-0.075
-701.543	-121.295	0.372	-0.063
-700.529	800.000	0.053	-0.174
-699.514	800.000	0.038	0.166
-698.499	55.436	-0.136	-0.133
-697.485	-200.000	0.024	-0.171
-696.470	394.446	-0.044	-0.093
-695.456	-33.696	0.134	0.075
-694.441	700.432	0.037	-0.099
-693.426	-84.703	-0.432	-0.137
-692.412	-200.000	-0.046	-0.216
-691.397	-200.000	0.010	-0.391
-690.383	-95.926	0.178	0.048
-689.368	-89.880	0.120	-0.036
-688.354	-81.360	-0.225	0.075
-687.339	57.071	-0.111	0.110
-686.324	-87.269	-0.123	-0.038
-685.310	-108.624	-0.286	0.062
-684.295	709.135	0.023	0.060
-683.281	-19.200	-0.236	0.148
-682.266	618.862	-0.129	0.327
-681.251	-200.000	0.006	-0.273
-680.237	-113.394	0.226	0.045
-679.222	800.000	0.009	0.040
-678.208	-2.245	0.351	-0.249
-677.193	-6.947	-0.262	-0.180
-676.178	-46.175	0.480	0.239
-675.164	-4.983	-0.260	0.181
-674.149	-100.932	-0.059	0.015
-673.135	363.885	-0.210	-0.428
-672.120	171.869	-0.072	0.105
-671.105	3.137	0.250	0.184
-670.091	-102.939	-0.164	-0.039
-669.076	-200.000	0.003	0.305
-668.062	421.741	0.165	0.357
-667.047	-132.299	-0.238	0.031
-666.032	-72.729	-0.211	0.078
-665.018	800.000	0.044	0.167
-664.003	262.704	-0.035	0.061
-662.989	-77.070	-0.228	0.081
-661.974	60.128	0.163	-0.162
-660.959	800.000	-0.065	-0.222
-659.945	-45.686	-0.086	0.043
-658.930	-118.037	0.052	0.009
-657.916	-20.511	-0.381	-0.237
-656.901	442.937	-0.030	-0.066
-655.886	-200.000	-0.039	-0.361
-654.872	-200.000	-0.003	-0.050
-653.857	167.889	-0.282	-0.405
-652.843	698.833	-0.120	-0.318
-651.828	800.000	-0.044	0.179
-650.814	-50.801	0.313	-0.149
-649.799	20.780	-0.087	0.071
-648.784	-123.076	-0.369	-0.060
-647.770	758.622	-0.130	0.355
-646.755	-90.383	0.270	0.079
-645.741	-109.916	-0.099	0.021
-644.726	-124.208	-0.297	0.047
-643.711	104.165	0.058	-0.069
-642.697	706.595	-0.012	0.031
-641.682	800.000	-0.031	-0.122
-640.668	-156.398	0.016	0.001
-639.653	-200.000	-0.047	-0.300
-638.638	-83.132	0.071	0.023
-637.624	-65.561	-0.250	-0.101
-636.609	-200.000	-0.050	0.232
-635.595	-200.000	0.042	-0.197
-634.580	-84.368	-0.170	0.054
-633.565	-2.538	-0.209	-0.148
-632.551	-17.082	0.305	0.194
-631.536	-51.728	0.342	0.161
-630.522	310.151	-0.050	0.094
-629.507	-103.462	0.112	0.027
-628.492	-39.259	0.144	-0.076
-627.478	-200.000	0.123	-0.576
-626.463	114.695	-0.155	-0.190
-625.449	212.107	-0.125	-0.199
-624.434	13.864	-0.049	-0.038
-623.419	-13.728	-0.253	0.165
-622.405	-113.295	0.058	0.012
-621.390	-42.125	-0.163	-0.084
-620.376	385.535	0.088	0.182
-619.361	800.000	-0.065	0.209
-618.346	264.778	-0.300	-0.528
-617.332	-15.147	-0.158	-0.102
-616.317	800.000	0.022	0.082
-615.303	-200.000	0.005	0.275
-614.288	606.581	-0.022	0.056
-613.273	-144.272	0.233	0.022
-612.259	23.421	0.062	0.051
-611.244	32.162	-0.140	0.122
-610.230	298.132	-0.104	0.193
-609.215	-156.589	0.285	-0.018
-608.201	-121.924	-0.226	0.038
-607.186	-200.000	0.015	0.105
-606.171	220.605	0.168	-0.272
-605.157	73.814	-0.066	-0.069
-604.142	-71.430	0.191	-0.072
-603.128	82.455	0.129	-0.141
-602.113	-57.428	-0.306	0.136
-601.098	91.355	-0.066	-0.075
-600.084	147.288	0.110	0.150
-599.069	-7.843	-0.247	-0.168
-598.055	80.944	-0.135	0.147
-597.040	800.000	-0.039	-0.170
-596.025	-10.031	0.330	-0.221
-595.011	-141.808	-0.302	0.031
-593.996	-200.000	-0.014	0.115
-592.982	111.608	-0.160	0.194
-591.967	-200.000	-0.016	-0.166
-590.952	-65.918	-0.232	-0.093
-589.938	716.455	0.069	-0.184
-588.923	-136.898	-0.322	-0.037
-587.909	800.000	-0.043	-0.179
-586.894	27.582	-0.136	-0.116
-585.879	-100.359	0.226	-0.057
-584.865	-109.051	-0.185	0.040
-583.850	301.766	0.068	0.126
-582.836	661.771	-0.064	0.166
-581.821	250.261	-0.068	-0.117
-580.806	-200.000	-0.020	0.243
-579.792	-83.304	-0.238	-0.077
-578.777	232.964	0.216	-0.358
-577.763	-72.526	0.097	0.036
-576.748	800.000	0.026	0.087
-575.733	118.241	-0.223	-0.277
-574.719	-62.382	-0.070	-0.029
-573.704	-64.321	-0.487	-0.200
-572.690	-200.000	-0.005	-0.290
-571.675	-82.121	0.269	0.088
-570.661	-11.988	0.249	-0.164
-569.646	800.000	0.048	-0.145
-568.631	135.186	0.075	0.098
-567.617	364.689	0.107	-0.217
-566.602	-54.517	0.090	0.041
-565.588	12.607	-0.076	0.059
-564.573	190.560	-0.193	0.292
-563.558	23.360	0.284	0.235
-562.544	135.925	0.063	0.083
-561.529	-200.000	0.014	0.118
-560.515	-152.273	0.045	0.003
-559.500	-200.000	0.002	0.187
-558.485	79.244	-0.162	-0.175
-557.471	42.944	-0.164	-0.151
-556.456	-25.422	0.122	-0.073
-555.442	-200.000	-0.045	-0.313
-554.427	238.003	0.078	0.131
-553.412	451.905	0.036	0.081
-552.398	-168.201	0.079	0.003
-551.383	103.732	-0.214	-0.253
-550.369	-74.750	0.278	-0.100
-549.354	-200.000	-0.035	0.248
-548.339	-200.000	-0.003	-0.375
-547.325	-46.892	0.191	0.094
-546.310	75.236	-0.224	0.237
-545.296	-35.213	-0.208	0.114
-544.281	-103.551	0.078	0.019
-543.266	-118.234	-0.306	-0.055
-542.252	800.000	0.077	0.241
-541.237	210.247	0.223	0.351
-540.223	-37.369	0.198	0.106
-539.208	-20.067	-0.120	0.074
-538.193	-200.000	0.050	0.332
-537.179	112.765	0.079	0.096
-536.164	800.000	-0.091	0.399
-535.150	-1.905	-0.060	0.043
-534.135	-200.000	-0.052	-0.258
-533.121	33.340	-0.273	0.238
-532.106	-200.000	0.021	0.094
-531.091	800.000	-0.080	0.241
-530.077	491.833	-0.034	0.078
-529.062	-7.377	0.031	0.021
-528.048	21.689	-0.039	0.032
-527.033	34.645	-0.209	0.184
-526.018	23.072	0.211	0.174
-525.004	-200.000	-0.027	-0.119
-523.989	125.060	0.203	-0.257
-522.975	-71.496	0.088	-0.033
-521.960	-200.000	0.007	-0.082
-520.945	800.000	-0.055	-0.215
-519.931	-61.385	-0.338	-0.143
-518.916	314.015	0.091	0.173
-517.902	-200.000	-0.013	0.067
-516.887	172.192	0.135	0.195
-515.872	-93.957	0.375	0.103
-514.858	-74.246	0.267	0.097
-513.843	800.000	-0.071	-0.227
-512.829	800.000	-0.115	-0.447
-511.814	-50.219	-0.205	0.098
-510.799	-118.272	-0.083	0.015
-509.785	-200.000	0.046	-0.309
-508.770	-25.698	0.092	0.055
-507.756	-15.527	0.046	0.030
-506.741	-164.430	0.145	0.007
-505.726	-10.559	0.184	-0.122
-504.712	-69.088	0.149	0.058
-503.697	246.613	0.139	-0.235
-502.683	-2.013	-0.163	0.115
-501.668	-200.000	-0.006	0.069
-500.653	-161.753	0.290	-0.015
-499.639	-122.252	-0.179	0.029
-498.624	-143.727	-0.337	-0.032
-497.610	-33.977	-0.173	0.096
-496.595	-200.000	-0.002	0.295
-495.581	-200.000	0.041	-0.267
-494.566	-46.061	0.285	0.141
-493.551	-88.814	0.176	0.052
-492.537	-55.461	-0.427	-0.192
-491.522	-200.000	0.179	0.001
-490.508	-70.785	-0.050	0.019
-489.493	111.367	-0.092	0.112
-488.478	8.753	0.184	-0.140
-487.464	-37.006	-0.088	0.047
-486.449	-200.000	0.077	0.360
-485.435	303.809	-0.085	0.159
-484.420	-33.606	-0.182	0.101
-483.405	179.386	-0.158	-0.232
-482.391	52.396	-0.147	-0.141
-481.376	-123.072	0.238	0.038
-480.362	-200.000	0.049	0.226
-479.347	-32.244	0.229	-0.129
-478.332	-40.944	-0.118	-0.061
-477.318	800.000	0.106	-0.372
-476.303	173.709	0.174	0.253
-475.289	247.526	0.155	0.262
-474.274	-22.834	-0.292	0.177
-473.259	-200.000	-0.033	0.392
-472.245	800.000	0.053	-0.214
-471.230	78.427	-0.180	0.193
-470.216	286.539	0.162	0.293
-469.201	131.724	0.153	-0.197
-468.186	-200.000	0.010	-0.084
-467.172	-50.842	-0.152	0.072
-466.157	-26.810	0.141	-0.083
-465.143	33.022	-0.225	0.196
-464.128	800.000	-0.135	-0.453
-463.113	34.314	0.037	0.032
-462.099	-141.247	-0.065	0.007
-461.084	14.440	0.376	-0.294
-460.070	-200.000	0.050	-0.232
-459.055	85.253	0.075	-0.083
-458.040	-43.297	-0.141	0.072
-457.026	-146.737	0.179	0.016
-456.011	107.288	-0.168	-0.201
-454.997	199.164	-0.202	-0.310
-453.982	800.000	0.078	-0.277
-452.968	2.121	0.133	-0.096
-451.953	252.420	0.154	0.262
-450.938	-200.000	0.004	-0.060
-449.924	-61.469	-0.113	-0.048
-448.909	640.139	0.151	0.384
-447.895	239.223	0.296	-0.494
-446.880	-60.027	0.146	-0.062
-445.865	-34.037	0.061	0.034
-444.851	-25.501	0.247	0.146
-443.836	-79.742	0.247	0.083
-442.822	-200.000	-0.036	-0.168
-441.807	-5.692	0.349	-0.240
-440.792	167.362	-0.173	-0.246
-439.778	-148.597	0.475	0.039
-438.763	-200.000	0.356	0.002
-437.749	-35.487	-0.375	-0.204
-436.734	-200.000	0.005	0.035
-435.719	-200.000	-0.026	-0.155
-434.705	-163.181	-0.280	0.013
-433.690	800.000	-0.108	-0.318
-432.676	-200.000	0.013	-0.087
-431.661	380.009	0.115	0.236
-430.646	-65.288	-0.150	0.061
-429.632	492.362	-0.041	-0.093
-428.617	-79.542	-0.118	-0.040
-427.603	148.125	0.122	0.165
-426.588	72.707	0.078	0.082
-425.573	-154.135	0.203	0.014
-424.559	403.349	0.074	0.157
-423.544	216.190	-0.133	0.211
-422.530	-38.707	0.223	0.118
-421.515	-186.213	-0.223	0.003
-420.500	-200.000	0.039	0.286
-419.486	67.800	-0.171	-0.175
-418.471	-58.991	0.188	0.081
-417.457	-37.230	0.221	-0.118
-416.442	-18.612	-0.058	-0.036
-415.428	3.483	-0.039	0.028
-414.413	-200.000	-0.018	-0.229
-413.398	57.825	-0.336	-0.330
-412.384	800.000	0.033	-0.127
-411.369	70.352	-0.121	-0.125
-410.355	-90.106	-0.271	0.079
-409.340	800.000	-0.015	0.042
-408.325	99.530	0.192	-0.222
-407.311	-200.000	-0.044	-0.239
-406.296	-15.802	-0.311	-0.198
-405.282	-92.214	-0.214	0.060
-404.267	-145.308	0.401	-0.036
-403.252	-163.561	0.335	-0.016
-402.238	-87.723	0.157	-0.047
-401.223	94.307	-0.336	0.382
-400.209	-90.877	-0.343	0.099
-399.194	800.000	0.075	-0.207
-398.179	-111.771	-0.108	-0.022
-397.165	424.320	-0.024	0.052
-396.150	-200.000	-0.033	0.164
-395.136	-151.381	-0.185	0.014
-394.121	-35.947	-0.130	0.070
-393.106	269.055	-0.214	-0.376
-392.092	40.237	-0.080	0.072
-391.077	800.000	-0.080	0.337
-390.063	170.402	0.049	0.071
-389.048	-81.918	-0.209	0.068
-388.033	47.931	-0.149	0.139
-387.019	-102.692	-0.049	0.012
-386.004	122.218	-0.095	0.118
-384.990	-129.547	-0.292	-0.040
-383.975	129.331	0.179	0.228
-382.960	-137.998	-0.132	-0.015
-381.946	40.532	-0.210	-0.189
-380.931	-176.095	0.208	0.005
-379.917	-49.063	-0.210	0.100
-378.902	219.502	0.058	-0.092
-377.888	16.233	0.090	0.071
-376.873	-128.516	0.340	-0.048
-375.858	52.607	0.223	0.213
-374.844	50.265	-0.099	0.093
-373.829	-54.202	0.270	0.123
-372.815	-57.287	0.117	-0.052
-371.800	-37.310	-0.093	0.050
-370.785	662.769	0.166	-0.428
-369.771	-200.000	0.030	-0.384
-368.756	-200.000	-0.018	-0.107
-367.742	103.957	0.283	-0.332
-366.727	-95.560	0.104	0.028
-365.712	-200.000	-0.027	-0.494
-364.698	299.391	0.111	-0.204
-363.683	178.506	-0.156	-0.227
-362.669	152.664	0.109	-0.149
-361.654	-111.760	-0.333	-0.067
-360.639	800.000	-0.027	0.085
-359.625	-128.488	0.154	0.022
-358.610	-200.000	-0.020	-0.130
-357.596	153.018	-0.059	-0.081
-356.581	193.949	-0.051	0.077
-355.566	-10.338	0.189	0.125
-354.552	276.773	0.236	0.418
-353.537	-85.854	-0.266	-0.082
-352.523	800.000	-0.028	0.098
-351.508	-66.038	0.142	0.057
-350.493	-200.000	-0.029	0.131
-349.479	56.390	0.207	0.201
-348.464	800.000	-0.065	-0.190
-347.450	-37.273	0.170	-0.091
-346.435	36.956	0.147	0.130
-345.420	-200.000	0.032	0.357
-344.406	440.066	0.061	-0.133
-343.391	-104.728	-0.050	-0.011
-342.377	800.000	0.049	-0.165
-341.362	-105.043	-0.328	0.075
-340.348	-73.116	0.316	0.116
-339.333	182.354	0.051	0.074
-338.318	800.000	-0.103	0.402
-337.304	173.026	0.061	0.087
-336.289	-63.781	0.080	-0.033
-335.275	-30.187	-0.190	-0.108
-334.260	-106.182	-0.263	0.059
-333.245	-163.739	-0.364	-0.017
-332.231	-94.363	0.093	-0.025
-331.216	206.077	-0.155	0.241
-330.202	-102.629	-0.193	-0.046
-329.187	42.794	0.127	-0.115
-328.172	63.969	0.197	0.197
-327.158	259.908	0.069	0.119
-326.143	-107.426	0.203	0.044
-325.129	800.000	-0.094	0.334
-324.114	52.728	-0.096	0.091
-323.099	-200.000	-0.026	0.217
-322.085	577.691	0.027	-0.066
-321.070	-200.000	-0.038	-0.313
-320.056	-75.715	0.334	-0.118
-319.041	204.410	-0.074	0.115
-318.026	241.196	-0.021	0.035
-317.012	525.838	0.088	-0.206
-315.997	-200.000	0.006	0.346
-314.983	231.636	0.135	0.220
-313.968	-22.672	-0.253	0.152
-312.953	800.000	0.051	0.196
-311.939	-132.466	0.229	0.029
-310.924	-142.277	0.364	0.036
-309.910	327.122	0.078	-0.149
-308.895	-200.000	-0.015	-0.251
-307.880	-200.000	-0.024	-0.110
-306.866	139.469	-0.104	-0.137
-305.851	122.113	-0.109	-0.135
-304.837	-181.952	-0.085	0.002
-303.822	303.104	-0.218	-0.403
-302.807	-17.511	0.090	-0.057
-301.793	-200.000	-0.031	0.247
-300.778	103.887	-0.063	-0.073
-299.764	-86.862	-0.094	0.029
-298.749	364.219	-0.152	-0.305
-297.735	-200.000	0.007	-0.081
-296.720	-160.165	0.330	-0.018
-295.705	800.000	-0.087	0.257
-294.691	-200.000	0.050	0.295
-293.676	50.074	0.082	0.077
-292.662	96.331	0.143	-0.162
-291.647	-90.338	-0.261	-0.075
-290.632	-200.000	0.024	-0.262
-289.618	-156.366	-0.550	-0.034
-288.603	430.173	-0.090	0.194
-287.589	-6.977	0.259	-0.175
-286.574	-65.212	0.060	-0.024
-285.559	-195.779	0.437	-0.003
-284.545	-18.489	-0.134	0.084
-283.530	22.030	-0.074	-0.060
-282.516	10.959	0.187	-0.142
-281.501	-106.414	0.242	-0.054
-280.486	-16.397	0.362	0.228
-279.472	-86.362	0.171	0.052
-278.457	-200.000	-0.062	-0.303
-277.443	-63.663	-0.037	0.015
-276.428	-74.742	0.167	-0.060
-275.413	-200.000	-0.008	-0.043
-274.399	-112.911	-0.122	0.024
-273.384	-86.591	-0.163	-0.050
-272.370	800.000	0.042	-0.129
-271.355	-61.792	0.212	-0.088
-270.340	-41.129	-0.026	0.013
-269.326	-6.082	0.341	-0.232
-268.311	232.403	-0.191	0.313
-267.297	213.943	-0.096	0.152
-266.282	199.634	-0.075	0.115
-265.267	425.607	0.129	0.277
-264.253	800.000	-0.028	0.083
-263.238	-112.023	-0.150	-0.030
-262.224	-1.479	-0.076	0.053
-261.209	-21.434	-0.137	-0.083
-260.195	-39.324	0.263	0.137
-259.180	-46.839	-0.167	0.081
-258.165	-51.609	-0.150	-0.070
-257.151	-134.763	-0.352	0.043
-256.136	-200.000	-0.012	0.222
-255.122	170.077	-0.193	0.275
-254.107	695.509	0.075	-0.196
-253.092	89.521	0.252	-0.280
-252.078	-72.845	0.302	-0.111
-251.063	448.988	-0.129	-0.283
-250.049	319.417	0.091	-0.172
-249.034	-87.742	0.101	-0.030
-248.019	-118.839	0.066	0.012
-247.005	-155.511	0.173	0.011
-245.990	612.900	0.045	0.112
-244.976	-121.599	-0.231	-0.038
-243.961	-106.595	-0.175	0.039
-242.946	340.677	0.138	-0.267
-241.932	-44.342	0.141	-0.070
-240.917	-97.001	0.183	-0.048
-239.903	-200.000	0.068	-0.371
-238.888	299.658	0.076	0.138
-237.873	9.767	0.323	0.243
-236.859	176.001	0.167	0.241
-235.844	24.374	0.141	0.116
-234.830	148.188	-0.127	0.171
-233.815	44.377	-0.178	0.163
-232.800	536.333	0.098	-0.231
-231.786	800.000	0.091	0.278
-230.771	-1.303	-0.279	0.195
-229.757	177.487	-0.181	0.263
-228.742	-98.633	-0.396	0.100
-227.727	158.413	0.069	-0.094
-226.713	-61.220	0.303	0.127
-225.698	-114.047	0.263	0.051
-224.684	-200.000	-0.055	-0.344
-223.669	1.134	-0.128	0.091
-222.655	-46.449	0.435	0.212
-221.640	242.475	-0.099	-0.164
-220.625	-200.000	0.038	-0.472
-219.611	186.882	-0.079	-0.117
-218.596	-200.000	0.001	-0.209
-217.582	-5.160	-0.155	-0.106
-216.567	-81.072	0.327	0.108
-215.552	-163.748	-0.096	-0.004
-214.538	800.000	-0.044	-0.130
-213.523	39.483	-0.147	0.131
-212.509	-73.278	0.170	-0.062
-211.494	-23.674	-0.200	0.119
-210.479	-135.697	0.275	-0.032
-209.465	324.793	-0.034	-0.065
-208.450	73.190	-0.096	0.100
-207.436	800.000	-0.053	0.201
-206.421	-200.000	0.021	-0.131
-205.406	-200.000	0.002	-0.195
-204.392	138.767	-0.078	-0.102
-203.377	328.374	-0.142	0.271
-202.363	63.326	-0.100	0.100
-201.348	375.788	-0.075	-0.152
-200.333	-200.000	0.048	0.303
-199.319	372.467	-0.127	0.255
-198.304	60.848	-0.172	0.169
-197.290	-200.000	0.016	0.191
-196.275	-200.000	-0.076	0.345
-195.260	-27.387	-0.259	0.149
-194.246	800.000	0.044	0.138
-193.231	-200.000	-0.009	0.079
-192.217	222.898	0.095	0.151
-191.202	75.330	0.070	-0.073
-190.187	-200.000	-0.040	-0.213
-189.173	800.000	0.028	0.086
-188.158	-200.000	-0.060	0.417
-187.144	-146.105	-0.015	0.001
-186.129	243.533	0.137	-0.228
-185.114	66.254	-0.119	0.120
-184.100	-37.918	-0.158	-0.083
-183.085	-104.472	-0.413	-0.095
-182.071	-38.046	0.255	-0.134
-181.056	-181.556	0.352	0.007
-180.042	-200.000	-0.012	0.301
-179.027	800.000	0.036	0.129
-178.012	-74.123	-0.255	-0.092
-176.998	-112.277	-0.265	0.053
-175.983	1.866	0.230	0.164
-174.969	72.307	0.139	-0.144
-173.954	29.164	0.155	-0.131
-172.939	-200.000	0.027	-0.166
-171.925	-74.867	0.171	-0.061
-170.910	131.228	0.103	-0.131
-169.896	-200.000	0.026	0.164
-168.881	800.000	-0.044	-0.148
-167.866	335.104	-0.085	-0.163
-166.852	75.957	-0.154	-0.162
-165.837	-143.584	0.319	0.030
-164.823	40.536	0.089	0.079
-163.808	-122.011	-0.201	-0.033
-162.793	-56.786	0.115	0.050
-161.779	201.209	0.161	-0.245
-160.764	-200.000	-0.066	-0.389
-159.750	-55.967	-0.115	0.051
-158.735	-60.773	0.284	0.119
-157.720	-100.245	-0.228	0.056
-156.706	-20.544	-0.261	-0.159
-155.691	343.598	0.288	0.559
-154.677	-134.091	0.206	0.025
-153.662	-13.547	-0.167	0.107
-152.647	800.000	0.053	0.193
-151.633	-118.383	-0.354	0.062
-150.618	800.000	0.081	0.317
-149.604	800.000	-0.019	0.061
-148.589	48.105	0.120	-0.112
-147.574	-10.468	0.005	0.003
-146.560	250.804	-0.095	-0.160
-145.545	-200.000	-0.001	0.078
-144.531	-76.915	-0.253	0.088
-143.516	-200.000	0.054	-0.350
-142.502	-77.950	0.226	-0.077
-141.487	8.248	-0.281	0.209
-140.472	449.389	-0.147	0.321
-139.458	132.496	0.299	-0.382
-138.443	56.183	-0.227	-0.218
-137.429	-92.667	0.083	0.023
-136.414	391.276	0.085	-0.175
-135.399	-10.221	0.232	-0.152
-134.385	317.178	-0.158	0.296
-133.370	295.694	0.207	-0.375
-132.356	-121.737	-0.131	0.021
-131.341	-101.001	-0.350	0.085
-130.326	338.930	0.077	0.149
-129.312	-200.000	0.019	0.173
-128.297	-106.088	-0.355	0.079
-127.283	10.742	-0.153	0.116
-126.268	-22.528	0.151	0.090
-125.253	-62.366	0.190	0.078
-124.239	70.013	-0.077	0.078
-123.224	-104.034	-0.064	0.015
-122.210	-93.780	-0.114	0.031
-121.195	-66.363	0.238	-0.094
