DTS Sentinel unit serial number:	SN413079Multiplexer serial number:	ORYXHardware model number:	OX4-SRSoftware version number:	ORYX F/W v4.00 Oryx Data Collector v3.7.2.0data status	okinstallation	princeton_trtdifferential loss correction	single-endedforward channel	channel 2reverse channel	N/Adate	2019/09/18time	14:03:35forward acquisition time	60.00reverse acquisition time	0.00gamma	496.2192k internal	0.2319k external	0.2319temperature offset calibration	0.9998default loss term (dB/km)	0.3790temperature slope calibration	1.0000multiplexer offset coefficient	1.0000multiplexer slope coefficient	1.0000fibre end	0.00T internal ref (°C)	34.45T ext. ref 1 (°C)	0.66T ext. ref 2 (°C)	28.87length (m)	temperature (°C)	Stokes	anti-Stokes-747.200	-154.737	0.070	-0.005
-746.185	-58.819	-0.301	0.132
-745.171	800.000	-0.112	-0.347
-744.156	80.179	-0.233	-0.254
-743.142	18.231	0.217	0.175
-742.127	70.279	0.138	0.144
-741.112	-61.189	0.279	-0.119
-740.098	-120.896	-0.241	0.041
-739.083	493.726	0.070	0.162
-738.069	-200.000	-0.049	0.401
-737.054	-115.534	-0.107	-0.020
-736.039	106.508	0.096	0.115
-735.025	82.089	-0.047	0.051
-734.010	-109.279	0.037	-0.008
-732.996	-35.020	0.105	0.058
-731.981	24.495	0.439	0.368
-730.966	-200.000	-0.028	0.241
-729.952	-89.684	-0.026	-0.008
-728.937	-21.494	0.138	0.085
-727.923	-200.000	0.011	-0.109
-726.908	103.987	-0.120	0.142
-725.894	116.333	-0.186	-0.230
-724.879	84.237	0.165	0.182
-723.864	-45.913	-0.028	0.014
-722.850	211.684	0.189	-0.300
-721.835	-200.000	0.014	0.226
-720.821	-200.000	-0.017	-0.093
-719.806	424.926	0.062	-0.135
-718.791	800.000	-0.106	-0.338
-717.777	508.577	0.135	0.317
-716.762	-52.851	0.276	0.128
-715.748	45.283	-0.105	-0.098
-714.733	295.965	-0.077	-0.142
-713.718	334.483	0.112	-0.218
-712.704	45.564	-0.224	-0.209
-711.689	95.027	-0.136	0.156
-710.675	659.480	-0.032	-0.082
-709.660	71.370	0.253	-0.265
-708.645	35.997	-0.131	0.117
-707.631	-200.000	-0.002	0.117
-706.616	-105.509	0.196	0.045
-705.602	522.808	-0.168	0.399
-704.587	-185.770	-0.369	-0.006
-703.572	65.517	0.294	-0.300
-702.558	-200.000	0.013	-0.222
-701.543	327.880	-0.044	0.086
-700.529	-200.000	0.015	-0.240
-699.514	492.983	0.067	-0.154
-698.499	211.864	-0.132	-0.210
-697.485	298.314	-0.105	-0.194
-696.470	665.776	-0.048	0.126
-695.456	-200.000	0.031	-0.147
-694.441	-176.786	-0.187	0.005
-693.426	-136.765	0.074	0.009
-692.412	-200.000	-0.026	0.341
-691.397	-129.599	-0.102	-0.014
-690.383	-54.942	0.059	0.027
-689.368	191.322	0.048	0.073
-688.354	232.315	0.090	-0.149
-687.339	-75.454	0.400	0.144
-686.324	317.631	0.026	-0.050
-685.310	-90.409	-0.161	-0.047
-684.295	10.797	0.066	0.051
-683.281	-157.807	-0.049	-0.003
-682.266	-149.179	0.284	-0.023
-681.251	-22.008	-0.271	0.166
-680.237	144.328	-0.211	-0.284
-679.222	-91.796	0.386	-0.111
-678.208	-149.631	0.257	-0.020
-677.193	661.324	-0.141	0.366
-676.178	-82.909	0.164	0.054
-675.164	247.133	0.181	-0.308
-674.149	-13.454	-0.096	0.063
-673.135	34.871	0.151	0.133
-672.120	164.580	0.023	-0.033
-671.105	-124.693	0.204	0.032
-670.091	-169.503	-0.087	-0.003
-669.076	68.525	-0.252	0.260
-668.062	-200.000	0.029	0.233
-667.047	-25.115	-0.208	0.124
-666.032	800.000	0.087	0.310
-665.018	150.728	-0.171	-0.234
-664.003	73.502	0.193	-0.204
-662.989	41.755	-0.187	-0.171
-661.974	-64.777	0.221	0.090
-660.959	-36.456	-0.265	-0.144
-659.945	-200.000	0.024	0.192
-658.930	498.499	0.050	0.115
-657.916	-200.000	0.027	0.149
-656.901	-57.942	-0.379	-0.167
-655.886	464.264	0.043	-0.098
-654.872	-84.268	-0.139	0.044
-653.857	-200.000	-0.006	-0.230
-652.843	-53.807	0.260	-0.120
-651.828	-200.000	0.021	-0.262
-650.814	744.864	-0.106	0.288
-649.799	-33.715	0.283	0.157
-648.784	171.542	-0.111	0.160
-647.770	30.345	-0.190	0.164
-646.755	-200.000	0.017	-0.111
-645.741	119.644	-0.041	0.052
-644.726	-32.107	0.199	0.112
-643.711	-193.017	-0.385	0.003
-642.697	-200.000	-0.013	0.224
-641.682	-157.578	-0.201	-0.012
-640.668	-33.487	-0.356	-0.198
-639.653	-136.283	-0.377	-0.044
-638.638	153.947	0.154	-0.213
-637.624	122.391	0.073	0.092
-636.609	-89.898	0.157	0.046
-635.595	636.524	0.073	-0.187
-634.580	269.860	0.078	-0.138
-633.565	-57.024	-0.190	0.084
-632.551	-200.000	0.018	-0.109
-631.536	152.428	-0.021	0.029
-630.522	88.470	0.143	-0.160
-629.507	-200.000	0.088	0.476
-628.492	-76.916	0.327	-0.115
-627.478	114.549	0.097	0.119
-626.463	-200.000	-0.015	0.132
-625.449	-47.582	0.235	0.115
-624.434	-200.000	-0.036	-0.230
-623.419	-160.690	0.229	-0.012
-622.405	-200.000	-0.028	0.206
-621.390	-39.549	0.440	0.232
-620.376	800.000	-0.040	0.146
-619.361	-26.144	-0.397	-0.235
-618.346	-83.677	0.154	-0.049
-617.332	80.002	-0.170	-0.184
-616.317	-27.386	0.206	0.121
-615.303	-4.725	0.192	0.133
-614.288	-96.496	0.299	0.080
-613.273	56.068	0.272	-0.266
-612.259	-167.390	-0.455	-0.018
-611.244	-35.352	-0.306	-0.168
-610.230	647.726	0.081	-0.209
-609.215	-38.643	0.357	0.190
-608.201	-200.000	0.005	-0.069
-607.186	22.063	0.256	-0.211
-606.171	-200.000	-0.017	-0.190
-605.157	226.276	0.103	-0.167
-604.142	97.314	-0.143	-0.165
-603.128	97.356	-0.083	-0.095
-602.113	-151.579	0.439	0.033
-601.098	-200.000	0.286	0.001
-600.084	198.924	-0.186	-0.286
-599.069	131.015	-0.117	-0.151
-598.055	2.352	0.228	-0.166
-597.040	54.821	0.158	-0.154
-596.025	-47.005	-0.178	-0.088
-595.011	-61.224	0.374	-0.159
-593.996	61.998	0.205	-0.205
-592.982	42.814	0.091	-0.083
-591.967	-200.000	0.032	0.228
-590.952	-133.194	-0.260	0.033
-589.938	-20.375	-0.064	0.040
-588.923	183.007	-0.158	-0.234
-587.909	-200.000	-0.023	0.227
-586.894	-143.035	0.271	0.026
-585.879	706.410	0.115	0.306
-584.865	-121.471	0.366	0.061
-583.850	206.148	0.131	-0.206
-582.836	37.860	-0.196	0.175
-581.821	-200.000	-0.026	0.408
-580.806	92.500	0.087	0.099
-579.792	-5.615	0.189	0.130
-578.777	-190.387	-0.222	0.002
-577.763	-36.294	0.103	-0.056
-576.748	-73.672	-0.381	-0.139
-575.733	-72.258	0.177	-0.066
-574.719	-98.466	0.083	0.021
-573.704	518.045	0.024	-0.057
-572.690	-30.630	0.316	-0.180
-571.675	-194.179	0.340	-0.003
-570.661	-200.000	-0.023	0.112
-569.646	257.991	0.098	0.170
-568.631	174.771	0.106	0.154
-567.617	34.802	-0.077	0.067
-566.602	222.547	0.122	-0.197
-565.588	-200.000	-0.004	0.145
-564.573	-121.361	0.374	-0.063
-563.558	189.253	0.087	-0.131
-562.544	-200.000	-0.063	0.371
-561.529	800.000	-0.027	0.105
-560.515	-200.000	-0.002	-0.172
-559.500	416.957	0.070	-0.151
-558.485	-200.000	-0.008	-0.078
-557.471	-200.000	0.013	-0.112
-556.456	14.944	0.043	0.033
-555.442	100.759	-0.022	0.025
-554.427	-145.751	0.041	-0.004
-553.412	184.788	-0.054	0.080
-552.398	102.093	-0.195	0.229
-551.383	-77.296	0.219	-0.076
-550.369	-200.000	0.018	-0.194
-549.354	-200.000	-0.000	-0.056
-548.339	-81.809	-0.169	0.055
-547.325	-131.046	-0.349	-0.047
-546.310	800.000	0.073	0.308
-545.296	-174.184	0.016	0.000
-544.281	-32.014	0.262	-0.147
-543.266	-200.000	0.029	0.164
-542.252	197.555	0.016	-0.024
-541.237	111.696	0.122	0.148
-540.223	53.349	0.356	-0.343
-539.208	-42.462	0.060	-0.031
-538.193	-32.820	-0.329	0.184
-537.179	61.528	0.210	-0.210
-536.164	116.295	-0.118	0.146
-535.150	158.267	0.115	-0.161
-534.135	122.988	0.052	0.065
-533.121	-35.873	-0.069	-0.037
-532.106	41.988	-0.137	0.125
-531.091	242.768	0.202	-0.340
-530.077	52.898	0.096	-0.092
-529.062	82.555	-0.189	-0.206
-528.048	90.210	-0.101	0.114
-527.033	-200.000	-0.004	0.106
-526.018	670.505	-0.077	-0.201
-525.004	130.250	0.118	0.151
-523.989	193.277	-0.031	0.047
-522.975	40.317	-0.093	-0.084
-521.960	-149.572	0.203	0.016
-520.945	-200.000	0.032	0.157
-519.931	156.578	-0.319	0.442
-518.916	-200.000	0.044	0.285
-517.902	-200.000	0.019	-0.152
-516.887	800.000	-0.088	-0.270
-515.872	-116.290	0.318	0.059
-514.858	-11.628	0.309	-0.203
-513.843	-200.000	-0.026	0.146
-512.829	-89.424	-0.233	0.069
-511.814	213.401	-0.064	0.102
-510.799	-84.495	0.161	-0.051
-509.785	-141.001	0.268	0.028
-508.770	-200.000	-0.009	0.207
-507.756	61.080	-0.144	-0.143
-506.741	260.579	-0.157	-0.273
-505.726	-63.842	0.236	-0.097
-504.712	98.689	0.092	-0.106
-503.697	660.796	-0.188	-0.486
-502.683	604.065	-0.098	0.245
-501.668	-105.800	0.398	0.090
-500.653	-76.757	-0.218	0.077
-499.639	-114.575	-0.219	0.042
-498.624	-125.508	-0.171	0.026
-497.610	42.432	0.101	0.092
-496.595	82.303	-0.077	0.084
-495.581	-180.818	0.375	0.008
-494.566	-151.399	-0.170	0.013
-493.551	-93.966	-0.041	-0.011
-492.537	-200.000	0.016	0.247
-491.522	40.587	0.132	0.119
-490.508	599.259	0.098	0.245
-489.493	182.295	-0.118	-0.175
-488.478	-176.865	-0.180	-0.005
-487.464	-107.760	0.092	-0.020
-486.449	0.619	0.297	0.213
-485.435	-159.085	-0.096	-0.005
-484.420	-171.426	0.112	0.004
-483.405	-200.000	-0.029	0.295
-482.391	163.315	-0.144	0.203
-481.376	-189.510	0.135	-0.002
-480.362	-200.000	0.038	-0.298
-479.347	-130.306	-0.548	0.075
-478.332	222.088	-0.217	-0.349
-477.318	-180.473	0.276	-0.006
-476.303	-200.000	-0.017	0.129
-475.289	-200.000	-0.002	-0.142
-474.274	-200.000	0.033	-0.214
-473.259	37.552	0.218	-0.194
-472.245	135.244	-0.137	-0.179
-471.230	-200.000	0.036	-0.171
-470.216	-93.362	-0.227	-0.063
-469.201	-200.000	-0.041	0.183
-468.186	116.462	-0.168	0.206
-467.172	-200.000	0.080	0.670
-466.157	-200.000	-0.026	0.197
-465.143	-200.000	0.010	0.322
-464.128	-184.072	0.180	0.003
-463.113	-78.694	-0.257	-0.088
-462.099	800.000	0.089	0.280
-461.084	-138.978	0.061	-0.007
-460.070	45.097	-0.228	-0.210
-459.055	621.110	-0.030	-0.076
-458.040	-99.945	-0.214	0.053
-457.026	-72.915	0.175	-0.065
-456.011	-200.000	0.022	0.230
-454.997	385.388	-0.051	0.106
-453.982	-126.160	-0.475	0.071
-452.968	-200.000	-0.018	0.343
-451.953	-200.000	-0.017	0.198
-450.938	94.546	0.061	-0.069
-449.924	-184.611	-0.311	-0.005
-448.909	-81.807	-0.292	-0.096
-447.895	54.646	0.226	-0.218
-446.880	800.000	-0.087	0.324
-445.865	28.558	-0.086	-0.073
-444.851	43.209	0.164	0.150
-443.836	-39.016	-0.223	-0.117
-442.822	800.000	0.075	-0.301
-441.807	800.000	-0.058	-0.165
-440.792	289.726	0.109	-0.198
-439.778	-131.980	-0.142	-0.019
-438.763	131.989	0.197	0.254
-437.749	-18.238	-0.217	0.135
-436.734	-112.140	0.040	-0.008
-435.719	16.358	-0.030	-0.024
-434.705	482.181	-0.206	-0.467
-433.690	-55.527	-0.245	-0.110
-432.676	-200.000	0.040	-0.340
-431.661	71.635	0.122	-0.127
-430.646	86.490	-0.210	0.231
-429.632	-34.274	0.377	-0.207
-428.617	800.000	-0.019	-0.072
-427.603	800.000	-0.062	0.205
-426.588	-139.263	-0.180	0.019
-425.573	-105.789	-0.289	-0.065
-424.559	233.905	-0.052	-0.086
-423.544	-87.235	-0.080	-0.024
-422.530	-128.044	-0.267	-0.038
-421.515	-200.000	0.000	-0.447
-420.500	-200.000	0.036	0.436
-419.486	-5.214	0.279	-0.192
-418.471	141.711	-0.204	0.270
-417.457	-147.976	-0.153	-0.013
-416.442	800.000	0.111	0.340
-415.428	-200.000	0.049	-0.474
-414.413	-34.693	-0.197	0.108
-413.398	95.180	-0.121	-0.137
-412.384	-137.617	-0.196	-0.022
-411.369	-68.345	0.080	0.031
-410.355	-200.000	-0.016	-0.247
-409.340	-87.040	0.145	-0.044
-408.325	176.569	0.131	-0.191
-407.311	424.374	-0.089	-0.192
-406.296	-200.000	-0.031	0.323
-405.282	-200.000	0.037	0.325
-404.267	216.844	0.035	0.055
-403.252	-23.999	-0.083	0.050
-402.238	714.251	0.083	-0.219
-401.223	-64.362	-0.363	0.147
-400.209	68.842	-0.121	-0.124
-399.194	-56.047	0.251	0.112
-398.179	55.159	0.030	-0.029
-397.165	-200.000	0.004	0.123
-396.150	-83.309	-0.232	0.074
-395.136	-158.765	0.431	-0.025
-394.121	30.806	-0.161	-0.138
-393.106	-200.000	0.030	-0.247
-392.092	13.543	0.326	0.253
-391.077	-200.000	-0.031	0.249
-390.063	49.954	-0.120	-0.113
-389.048	800.000	-0.015	0.042
-388.033	800.000	-0.087	-0.363
-387.019	-111.409	-0.153	-0.031
-386.004	-120.856	-0.418	0.070
-384.990	-200.000	-0.021	0.428
-383.975	-166.957	0.140	-0.006
-382.960	165.876	-0.070	-0.099
-381.946	-133.815	-0.107	0.013
-380.931	83.459	-0.139	0.151
-379.917	-114.007	0.218	0.042
-378.902	17.867	0.040	-0.032
-377.888	-10.978	0.103	0.068
-376.873	123.306	-0.147	0.184
-375.858	-65.581	-0.094	-0.037
-374.844	800.000	-0.016	-0.063
-373.829	-83.406	0.065	-0.021
-372.815	-110.812	0.198	-0.041
-371.800	220.818	-0.024	0.038
-370.785	427.676	0.024	0.052
-369.771	-200.000	-0.061	0.365
-368.756	288.970	0.014	0.025
-367.742	-200.000	-0.010	0.287
-366.727	-160.468	0.511	-0.027
-365.712	-111.414	-0.299	-0.061
-364.698	361.005	0.063	0.126
-363.683	47.092	-0.239	-0.221
-362.669	-34.043	-0.070	0.038
-361.654	-200.000	-0.054	0.265
-360.639	75.736	-0.106	-0.112
-359.625	-102.368	0.290	-0.069
-358.610	-102.077	0.182	0.044
-357.596	-179.866	-0.406	0.009
-356.581	-74.992	0.420	-0.150
-355.566	-105.074	0.154	-0.035
-354.552	-48.060	0.139	-0.067
-353.537	42.105	-0.319	-0.288
-352.523	-200.000	-0.034	0.164
-351.508	62.890	-0.144	0.144
-350.493	2.990	0.167	0.121
-349.479	-47.788	-0.187	0.090
-348.464	337.005	0.044	0.085
-347.450	800.000	-0.025	0.091
-346.435	490.212	-0.078	0.177
-345.420	-55.535	0.164	-0.073
-344.406	-57.047	-0.104	-0.046
-343.391	-125.434	0.091	0.014
-342.377	800.000	0.030	0.097
-341.362	800.000	0.065	-0.279
-340.348	-75.967	0.019	-0.007
-339.333	-88.725	-0.267	0.079
-338.318	611.613	-0.034	-0.084
-337.304	253.447	0.090	-0.152
-336.289	122.021	0.017	0.021
-335.275	-200.000	0.027	-0.169
-334.260	-137.892	0.050	0.006
-333.245	-132.097	-0.089	0.011
-332.231	683.408	-0.049	-0.127
-331.216	-138.144	0.168	0.019
-330.202	-200.000	0.056	0.293
-329.187	318.741	0.017	0.032
-328.172	-200.000	-0.035	-0.214
-327.158	-200.000	0.011	0.295
-326.143	-144.570	0.151	-0.014
-325.129	-54.091	-0.181	0.082
-324.114	6.536	-0.033	-0.024
-323.099	-65.092	-0.236	-0.095
-322.085	-144.834	-0.147	0.013
-321.070	-162.395	-0.386	0.019
-320.056	-24.207	-0.151	-0.090
-319.041	-45.590	0.165	-0.081
-318.026	30.959	0.108	-0.092
-317.012	-148.486	-0.131	-0.011
-315.997	-97.978	0.176	-0.045
-314.983	-200.000	0.022	-0.243
-313.968	590.804	-0.139	-0.342
-312.953	-200.000	0.052	-0.337
-311.939	697.182	0.083	0.217
-310.924	-200.000	-0.019	0.219
-309.910	75.515	0.265	-0.279
-308.895	483.812	0.044	0.100
-307.880	-200.000	0.005	0.203
-306.866	800.000	-0.078	0.291
-305.851	-100.914	-0.221	-0.054
-304.837	-112.290	-0.268	0.054
-303.822	-83.039	-0.093	-0.030
-302.807	-172.565	-0.097	0.003
-301.793	45.301	0.125	0.115
-300.778	6.047	0.267	0.197
-299.764	-46.300	0.271	0.133
-298.749	9.126	0.248	-0.186
-297.735	5.058	-0.291	-0.213
-296.720	-36.916	-0.263	0.140
-295.705	-142.151	0.456	0.045
-294.691	122.131	-0.166	-0.206
-293.676	-200.000	-0.012	-0.102
-292.662	-200.000	-0.054	-0.330
-291.647	329.392	-0.128	0.245
-290.632	-14.484	0.322	-0.206
-289.618	700.266	0.077	-0.201
-288.603	96.199	0.041	-0.047
-287.589	-192.309	0.186	-0.002
-286.574	-83.128	-0.129	-0.041
-285.559	-200.000	0.036	-0.295
-284.545	322.217	-0.095	-0.179
-283.530	8.849	0.293	-0.219
-282.516	136.434	-0.149	0.194
-281.501	800.000	-0.046	-0.131
-280.486	-194.859	0.046	0.000
-279.472	324.892	0.098	0.187
-278.457	257.259	0.040	-0.068
-277.443	-51.794	-0.211	0.098
-276.428	-200.000	0.036	0.227
-275.413	139.733	0.126	0.165
-274.399	-15.232	-0.141	-0.090
-273.384	-97.504	-0.073	0.019
-272.370	-7.017	0.235	0.158
-271.355	-200.000	-0.007	-0.068
-270.340	-30.762	-0.112	0.063
-269.326	800.000	0.075	0.256
-268.311	-200.000	-0.064	-0.282
-267.297	-200.000	0.022	-0.146
-266.282	-171.127	-0.170	0.006
-265.267	62.486	-0.214	0.212
-264.253	-200.000	-0.018	-0.331
-263.238	-94.750	0.170	-0.046
-262.224	150.678	-0.129	0.174
-261.209	800.000	0.049	0.174
-260.195	87.075	0.263	-0.288
-259.180	-124.635	-0.196	0.030
-258.165	-200.000	0.004	-0.256
-257.151	103.369	0.096	0.112
-256.136	134.255	0.061	-0.078
-255.122	-73.050	0.287	-0.104
-254.107	5.948	-0.190	-0.140
-253.092	-121.265	-0.100	0.017
-252.078	641.336	0.152	0.383
-251.063	774.967	0.025	-0.067
-250.049	-100.864	0.108	-0.026
-249.034	149.839	-0.138	-0.185
-248.019	800.000	-0.047	-0.149
-247.005	-68.609	-0.262	0.101
-245.990	-37.571	-0.030	0.016
-244.976	-8.691	-0.114	0.076
-243.961	78.879	0.360	0.382
-242.946	431.022	0.155	0.332
-241.932	-17.623	0.219	0.136
-240.917	800.000	-0.095	-0.272
-239.903	-200.000	-0.049	-0.262
-238.888	414.712	-0.218	-0.460
-237.873	-41.325	-0.251	0.128
-236.859	800.000	-0.032	0.125
-235.844	-74.931	0.172	-0.061
-234.830	404.773	0.101	-0.212
-233.815	-125.212	0.105	-0.016
-232.800	35.085	0.260	-0.226
-231.786	55.704	0.123	0.118
-230.771	705.687	0.069	0.180
-229.757	289.534	-0.126	-0.227
-228.742	662.457	-0.115	0.294
-227.727	-18.096	-0.204	-0.127
-226.713	-39.355	0.122	0.064
-225.698	-131.763	0.132	-0.017
-224.684	-160.154	0.125	0.007
-223.669	74.213	-0.214	0.223
-222.655	-110.663	-0.086	0.018
-221.640	-51.496	-0.072	-0.033
-220.625	83.636	-0.290	-0.313
-219.611	-132.142	-0.243	0.031
-218.596	131.891	-0.069	0.088
-217.582	-57.334	0.272	0.119
-216.567	-83.030	-0.093	0.030
-215.552	492.619	0.042	0.094
-214.538	-200.000	-0.010	0.109
-213.523	-200.000	0.062	-0.383
-212.509	164.322	-0.195	0.273
-211.494	-115.072	0.052	0.010
-210.479	-96.655	-0.382	0.100
-209.465	539.754	0.076	-0.179
-208.450	-200.000	0.028	-0.213
-207.436	142.657	-0.130	-0.171
-206.421	1.324	0.208	0.148
-205.406	800.000	-0.148	0.439
-204.392	-200.000	-0.018	-0.221
-203.377	800.000	0.099	-0.373
-202.363	-81.316	-0.187	0.061
-201.348	800.000	0.094	0.295
-200.333	-79.531	0.183	0.061
-199.319	166.823	0.091	-0.127
-198.304	210.674	-0.300	-0.467
-197.290	-200.000	-0.001	0.096
-196.275	245.269	-0.042	0.069
-195.260	-88.884	-0.292	0.086
-194.246	-200.000	0.015	0.214
-193.231	9.871	0.262	-0.197
-192.217	41.787	0.141	-0.127
-191.202	-148.864	0.164	-0.013
-190.187	-2.723	-0.278	-0.193
-189.173	278.259	0.192	0.339
-188.158	-161.533	0.158	0.008
-187.144	221.145	0.070	0.112
-186.129	-118.662	-0.177	0.031
-185.114	101.864	-0.102	0.117
-184.100	-200.000	0.050	-0.484
-183.085	69.078	0.066	0.067
-182.071	-200.000	-0.025	-0.342
-181.056	-200.000	0.038	0.172
-180.042	788.652	0.073	0.199
-179.027	-200.000	-0.010	0.049
-178.012	199.085	-0.322	0.489
-176.998	800.000	0.086	-0.305
-175.983	316.843	-0.016	0.031
-174.969	48.088	0.194	-0.180
-173.954	37.537	0.109	0.096
-172.939	-200.000	0.103	0.473
-171.925	84.642	-0.158	0.171
-170.910	-132.580	-0.500	-0.063
-169.896	-200.000	-0.040	-0.190
-168.881	-109.868	0.123	0.026
-167.866	800.000	-0.094	0.316
-166.852	-11.254	0.210	-0.137
-165.837	508.153	0.013	-0.030
-164.823	739.358	-0.024	0.064
-163.808	-200.000	-0.017	0.354
-162.793	-41.547	0.030	-0.015
-161.779	474.914	-0.099	0.221
-160.764	-200.000	0.054	-0.234
-159.750	428.491	0.057	-0.122
-158.735	-200.000	0.038	-0.182
-157.720	-86.584	-0.102	0.031
-156.706	365.823	-0.064	0.127
-155.691	-119.146	-0.304	0.052
-154.677	-200.000	-0.027	-0.382
-153.662	800.000	0.115	0.403
-152.647	800.000	0.071	-0.221
-151.633	-76.031	-0.033	-0.011
-150.618	505.989	-0.101	-0.230
-149.604	73.108	0.178	0.184
-148.589	-200.000	-0.010	-0.192
-147.574	-200.000	0.002	0.071
-146.560	-200.000	0.055	-0.337
-145.545	235.766	-0.038	0.062
-144.531	460.521	0.163	0.359
-143.516	523.873	-0.056	-0.129
-142.502	-200.000	-0.045	0.301
-141.487	-37.932	0.241	-0.126
-140.472	-200.000	-0.002	0.224
-139.458	-94.454	-0.476	0.128
-138.443	287.830	0.063	-0.114
-137.429	-45.912	-0.223	0.109
-136.414	105.034	-0.187	0.218
-135.399	-200.000	0.015	0.157
-134.385	239.895	0.169	0.278
-133.370	-18.438	-0.430	0.265
-132.356	50.778	-0.119	0.112
-131.341	-81.799	-0.022	-0.007
-130.326	800.000	-0.052	0.165
-129.312	111.660	0.073	-0.087
-128.297	-200.000	0.031	-0.168
-127.283	-122.608	0.239	-0.038
-126.268	58.147	0.083	-0.081
-125.253	-85.141	0.192	0.059
-124.239	432.646	-0.180	-0.385
-123.224	171.098	-0.027	0.038
-122.210	309.619	-0.056	-0.103
