DTS Sentinel unit serial number:	SN413079Multiplexer serial number:	ORYXHardware model number:	OX4-SRSoftware version number:	ORYX F/W v4.00 Oryx Data Collector v3.7.2.0data status	okinstallation	princeton_trtdifferential loss correction	single-endedforward channel	channel 2reverse channel	N/Adate	2019/09/13time	22:11:34forward acquisition time	60.00reverse acquisition time	0.00gamma	496.2192k internal	0.2335k external	0.2335temperature offset calibration	1.0136default loss term (dB/km)	0.3790temperature slope calibration	1.0000multiplexer offset coefficient	1.0000multiplexer slope coefficient	1.0000fibre end	0.00T internal ref (°C)	27.92T ext. ref 1 (°C)	3.24T ext. ref 2 (°C)	22.67length (m)	temperature (°C)	Stokes	anti-Stokes-747.200	130.851	-0.047	0.061
-746.185	30.501	-0.141	0.121
-745.171	-94.598	-0.233	0.064
-744.156	-47.215	-0.368	0.180
-743.142	-165.194	0.047	0.002
-742.127	-200.000	0.018	0.171
-741.112	-84.581	-0.133	-0.042
-740.098	255.072	0.212	0.365
-739.083	-78.409	-0.137	-0.047
-738.069	-6.048	-0.244	0.167
-737.054	-78.476	-0.171	0.059
-736.039	41.771	0.133	-0.121
-735.025	-61.492	0.298	-0.126
-734.010	81.715	-0.041	-0.045
-732.996	-178.315	-0.214	-0.005
-731.981	800.000	0.143	-0.415
-730.966	-102.504	-0.238	0.057
-729.952	-111.981	0.170	0.034
-728.937	-19.576	0.114	0.071
-727.923	-10.504	0.104	-0.069
-726.908	62.352	-0.038	-0.038
-725.894	375.390	-0.115	-0.236
-724.879	323.286	-0.069	-0.132
-723.864	251.251	-0.184	-0.314
-722.850	229.210	-0.166	0.272
-721.835	114.457	-0.115	-0.141
-720.821	-68.604	-0.265	0.103
-719.806	648.673	0.104	0.267
-718.791	77.588	-0.237	-0.253
-717.777	-121.450	0.250	0.042
-716.762	473.356	-0.101	-0.228
-715.748	800.000	-0.077	-0.252
-714.733	-2.373	-0.284	0.200
-713.718	121.700	-0.056	0.070
-712.704	-200.000	0.028	0.192
-711.689	-8.532	0.158	-0.106
-710.675	-73.707	0.082	-0.030
-709.660	8.530	0.324	-0.245
-708.645	-64.316	-0.053	-0.022
-707.631	-141.211	0.683	-0.070
-706.616	679.309	-0.064	0.167
-705.602	-200.000	0.035	0.247
-704.587	-113.356	-0.243	0.048
-703.572	16.662	0.172	-0.137
-702.558	-49.145	-0.204	0.098
-701.543	-13.013	0.230	-0.150
-700.529	43.365	-0.151	-0.139
-699.514	800.000	-0.038	-0.160
-698.499	-48.202	-0.141	-0.068
-697.485	-50.699	-0.215	0.102
-696.470	387.420	0.011	-0.024
-695.456	-200.000	0.070	0.315
-694.441	-200.000	-0.034	-0.297
-693.426	800.000	0.120	-0.393
-692.412	146.021	-0.063	-0.084
-691.397	-42.134	0.215	0.110
-690.383	-79.902	0.248	-0.084
-689.368	217.981	0.093	0.149
-688.354	117.956	-0.147	0.182
-687.339	-29.960	0.131	0.075
-686.324	-94.578	-0.319	0.087
-685.310	362.897	0.076	-0.153
-684.295	61.732	0.198	-0.198
-683.281	-65.708	-0.347	-0.139
-682.266	275.497	-0.046	-0.083
-681.251	-92.587	0.261	0.073
-680.237	-15.839	-0.193	-0.123
-679.222	-136.186	-0.239	-0.028
-678.208	-200.000	0.002	0.057
-677.193	-200.000	-0.009	0.178
-676.178	-74.041	-0.249	-0.090
-675.164	94.457	0.126	-0.144
-674.149	657.768	-0.075	-0.194
-673.135	78.673	0.247	0.265
-672.120	-26.994	0.148	-0.087
-671.105	-30.051	0.228	-0.130
-670.091	-16.912	-0.191	0.121
-669.076	59.585	-0.194	-0.191
-668.062	-39.324	-0.147	0.077
-667.047	-38.912	0.067	-0.035
-666.032	174.455	-0.056	-0.081
-665.018	-200.000	0.057	-0.325
-664.003	-136.975	0.362	-0.042
-662.989	-86.609	0.382	0.117
-661.974	800.000	0.004	-0.018
-660.959	-45.997	-0.022	-0.011
-659.945	-115.547	-0.352	0.066
-658.930	31.691	0.161	0.139
-657.916	5.287	0.264	0.195
-656.901	-200.000	0.008	-0.190
-655.886	183.468	0.058	0.086
-654.872	221.402	-0.101	0.162
-653.857	150.375	-0.160	-0.217
-652.843	-85.031	0.192	-0.060
-651.828	800.000	0.021	0.088
-650.814	233.894	0.194	-0.319
-649.799	497.927	-0.093	-0.215
-648.784	318.246	0.040	-0.076
-647.770	365.219	-0.070	0.141
-646.755	-118.954	0.280	-0.049
-645.741	537.469	-0.184	0.438
-644.726	623.314	-0.077	0.195
-643.711	-52.812	0.286	-0.132
-642.697	161.589	0.081	-0.114
-641.682	-85.369	-0.036	-0.011
-640.668	10.141	0.155	-0.118
-639.653	-76.592	0.247	-0.087
-638.638	-155.553	-0.179	-0.012
-637.624	-43.954	-0.063	-0.032
-636.609	587.169	-0.104	0.257
-635.595	-18.517	-0.194	0.121
-634.580	154.972	-0.149	0.205
-633.565	-106.884	0.578	0.128
-632.551	61.783	0.084	-0.084
-631.536	259.427	0.102	0.176
-630.522	-67.042	-0.211	0.083
-629.507	87.684	-0.133	0.147
-628.492	800.000	-0.036	0.106
-627.478	-51.599	0.313	-0.146
-626.463	-82.093	-0.176	-0.058
-625.449	-200.000	-0.012	0.444
-624.434	800.000	0.082	-0.248
-623.419	-85.504	-0.321	0.100
-622.405	-52.143	0.282	-0.131
-621.390	-170.207	-0.269	0.009
-620.376	-40.663	-0.219	-0.114
-619.361	-172.719	-0.119	0.004
-618.346	103.394	-0.312	0.366
-617.332	-62.075	-0.137	-0.057
-616.317	-90.742	0.467	0.135
-615.303	12.380	0.094	-0.073
-614.288	127.988	-0.105	-0.133
-613.273	-140.076	0.245	0.026
-612.259	31.534	-0.060	-0.051
-611.244	111.868	0.337	0.407
-610.230	-200.000	-0.001	-0.078
-609.215	333.152	0.088	-0.169
-608.201	-199.183	-0.166	-0.001
-607.186	-200.000	-0.041	-0.264
-606.171	-127.905	0.263	0.038
-605.157	570.378	0.075	0.181
-604.142	119.269	-0.038	-0.047
-603.128	-142.390	0.086	0.008
-602.113	645.321	-0.032	0.082
-601.098	593.110	0.126	0.310
-600.084	-17.795	0.040	0.025
-599.069	-166.372	-0.371	0.016
-598.055	-86.056	-0.267	0.082
-597.040	-62.816	-0.266	-0.110
-596.025	-5.319	-0.190	0.130
-595.011	114.476	0.203	-0.247
-593.996	59.774	0.022	0.022
-592.982	112.963	0.053	-0.064
-591.967	396.174	-0.095	0.198
-590.952	-200.000	0.079	-0.374
-589.938	-200.000	0.028	-0.160
-588.923	-70.372	0.119	-0.045
-587.909	98.266	-0.232	0.267
-586.894	-200.000	-0.035	-0.254
-585.879	-200.000	0.045	0.257
-584.865	745.735	0.038	-0.102
-583.850	-200.000	0.006	-0.298
-582.836	-67.754	-0.317	-0.124
-581.821	800.000	-0.116	0.363
-580.806	-200.000	0.038	0.332
-579.792	1.675	0.128	0.092
-578.777	-200.000	0.004	0.109
-577.763	148.687	0.017	-0.023
-576.748	-162.265	0.095	0.005
-575.733	150.849	0.093	0.127
-574.719	-200.000	0.005	0.165
-573.704	304.245	-0.049	-0.090
-572.690	800.000	-0.086	-0.298
-571.675	-200.000	0.022	-0.155
-570.661	-108.863	-0.470	-0.100
-569.646	-200.000	0.085	0.426
-568.631	-64.809	-0.311	-0.126
-567.617	596.673	-0.042	-0.103
-566.602	-143.760	-0.116	0.011
-565.588	-130.148	-0.037	-0.005
-564.573	-43.817	-0.252	-0.127
-563.558	94.565	-0.155	-0.176
-562.544	-70.302	-0.070	0.026
-561.529	23.555	0.066	0.054
-560.515	-50.228	-0.390	0.184
-559.500	65.218	0.050	-0.050
-558.485	-166.223	0.180	0.008
-557.471	-29.106	0.051	0.029
-556.456	-200.000	0.017	-0.110
-555.442	182.565	0.141	0.207
-554.427	-149.589	0.057	0.004
-553.412	-39.115	-0.135	-0.071
-552.398	-78.131	0.094	0.032
-551.383	548.196	-0.122	-0.291
-550.369	-79.634	0.119	-0.040
-549.354	-11.009	0.253	0.167
-548.339	-178.991	-0.139	0.003
-547.325	-65.801	0.214	0.086
-546.310	-169.822	-0.120	0.004
-545.296	800.000	0.047	0.191
-544.281	32.653	0.282	-0.243
-543.266	72.314	-0.143	-0.148
-542.252	-88.211	0.083	0.025
-541.237	-2.119	0.102	-0.071
-540.223	123.628	0.083	0.104
-539.208	7.674	-0.267	0.199
-538.193	-185.641	0.256	-0.004
-537.179	-67.222	-0.161	-0.063
-536.164	9.694	0.240	0.182
-535.150	-200.000	0.031	0.393
-534.135	-92.381	-0.110	-0.031
-533.121	-19.657	-0.218	-0.135
-532.106	-86.405	-0.183	0.056
-531.091	209.731	0.140	-0.219
-530.077	420.288	-0.109	-0.232
-529.062	-130.484	0.324	-0.044
-528.048	-108.772	0.180	0.038
-527.033	130.623	-0.063	0.080
-526.018	420.324	-0.103	0.221
-525.004	-200.000	-0.005	0.151
-523.989	-122.887	0.209	0.034
-522.975	-112.197	0.222	-0.044
-521.960	-51.856	-0.119	-0.055
-520.945	26.530	0.280	0.233
-519.931	46.773	0.199	0.184
-518.916	-12.865	-0.327	-0.212
-517.902	155.055	0.178	-0.244
-516.887	150.409	-0.054	-0.074
-515.872	513.980	-0.186	0.432
-514.858	204.229	-0.183	-0.282
-513.843	-200.000	0.003	-0.157
-512.829	102.794	-0.138	-0.161
-511.814	-118.483	-0.203	-0.036
-510.799	92.787	0.143	-0.161
-509.785	800.000	-0.115	0.459
-508.770	531.484	0.078	-0.184
-507.756	800.000	0.098	-0.271
-506.741	-158.954	-0.246	-0.014
-505.726	-92.818	0.384	-0.107
-504.712	81.298	-0.232	0.250
-503.697	-200.000	-0.019	-0.099
-502.683	69.833	-0.058	0.059
-501.668	309.597	-0.244	0.453
-500.653	118.828	0.137	0.168
-499.639	484.425	0.062	-0.140
-498.624	-133.436	-0.021	-0.003
-497.610	527.115	0.042	-0.099
-496.595	48.819	-0.095	0.089
-495.581	174.658	0.076	0.109
-494.566	-106.437	0.108	0.024
-493.551	130.229	-0.046	0.058
-492.537	-123.378	-0.271	0.043
-491.522	-83.768	0.281	0.089
-490.508	-46.468	-0.327	-0.160
-489.493	-200.000	0.032	0.187
-488.478	800.000	0.069	-0.242
-487.464	421.380	-0.124	0.265
-486.449	-63.611	0.188	-0.077
-485.435	-146.475	-0.057	0.005
-484.420	-188.160	-0.129	0.002
-483.405	94.426	0.078	-0.088
-482.391	34.963	0.120	-0.105
-481.376	-69.610	-0.296	0.113
-480.362	0.072	0.104	-0.074
-479.347	-200.000	-0.041	0.225
-478.332	-200.000	-0.001	-0.259
-477.318	-4.435	-0.235	-0.162
-476.303	-104.020	0.353	-0.082
-475.289	-200.000	-0.014	-0.313
-474.274	467.756	0.172	-0.384
-473.259	-110.905	-0.131	0.027
-472.245	131.705	0.150	0.191
-471.230	-200.000	0.033	0.438
-470.216	45.093	0.115	0.105
-469.201	-65.319	0.135	0.054
-468.186	-200.000	-0.022	0.153
-467.172	-200.000	0.021	-0.230
-466.157	-120.778	0.349	0.059
-465.143	800.000	-0.054	-0.163
-464.128	82.210	0.164	-0.177
-463.113	-46.435	-0.217	-0.106
-462.099	119.920	-0.214	-0.264
-461.084	770.518	-0.090	-0.245
-460.070	-164.049	0.109	0.005
-459.055	26.264	0.078	-0.065
-458.040	-163.606	-0.250	-0.012
-457.026	-142.227	-0.238	0.023
-456.011	-183.924	0.310	-0.005
-454.997	447.114	0.042	-0.092
-453.982	-21.329	0.204	0.124
-452.968	-44.561	0.204	0.101
-451.953	-169.813	0.220	0.008
-450.938	325.191	0.094	0.179
-449.924	-200.000	-0.017	0.201
-448.909	-35.990	0.460	-0.247
-447.895	65.561	-0.032	0.032
-446.880	131.033	0.047	-0.060
-445.865	-58.929	0.358	-0.154
-444.851	-15.703	-0.230	0.146
-443.836	-116.574	-0.157	0.029
-442.822	-31.054	0.184	-0.103
-441.807	-171.782	-0.273	0.009
-440.792	-87.904	-0.124	0.037
-439.778	557.122	-0.166	0.398
-438.763	-200.000	-0.048	0.261
-437.749	-93.521	-0.389	-0.107
-436.734	-200.000	-0.021	-0.113
-435.719	290.078	0.092	0.167
-434.705	-57.143	0.307	0.134
-433.690	800.000	-0.040	-0.126
-432.676	6.762	-0.128	-0.095
-431.661	-13.110	0.085	0.055
-430.646	21.529	-0.205	0.165
-429.632	800.000	-0.036	-0.154
-428.617	580.828	0.169	0.411
-427.603	-134.654	-0.183	-0.022
-426.588	754.999	-0.148	0.398
-425.573	-200.000	-0.009	-0.122
-424.559	-70.741	-0.188	-0.070
-423.544	-66.390	0.097	-0.038
-422.530	800.000	-0.009	-0.037
-421.515	-200.000	0.029	-0.323
-420.500	-110.936	0.245	-0.050
-419.486	-200.000	0.020	0.219
-418.471	13.977	-0.145	-0.112
-417.457	223.347	-0.180	0.288
-416.442	-4.559	-0.226	-0.155
-415.428	-115.328	0.208	0.039
-414.413	187.319	0.172	-0.254
-413.398	-200.000	0.046	0.379
-412.384	534.368	0.082	-0.192
-411.369	800.000	0.057	0.247
-410.355	346.056	-0.084	0.164
-409.340	212.090	-0.170	0.266
-408.325	-128.321	0.147	0.021
-407.311	-135.231	0.193	0.023
-406.296	-152.398	0.052	-0.004
-405.282	-200.000	-0.035	-0.189
-404.267	367.534	-0.095	0.189
-403.252	-185.639	0.287	0.004
-402.238	-118.386	0.082	0.014
-401.223	229.584	0.182	-0.295
-400.209	68.865	-0.312	-0.317
-399.194	-71.402	-0.062	-0.023
-398.179	800.000	-0.041	0.137
-397.165	-17.078	0.135	-0.084
-396.150	336.328	0.086	0.166
-395.136	-113.467	-0.131	0.025
-394.121	-10.365	-0.100	0.066
-393.106	0.450	-0.155	0.110
-392.092	-138.040	0.168	0.019
-391.077	15.792	0.180	-0.141
-390.063	-168.164	0.054	0.002
-389.048	800.000	0.069	-0.211
-388.033	78.659	-0.186	-0.198
-387.019	-159.305	-0.075	-0.004
-386.004	800.000	-0.025	0.110
-384.990	800.000	-0.032	0.102
-383.975	800.000	-0.026	-0.107
-382.960	793.449	-0.019	-0.051
-381.946	-200.000	-0.021	-0.228
-380.931	-46.591	-0.159	0.077
-379.917	247.408	-0.065	-0.108
-378.902	11.692	0.087	0.066
-377.888	226.344	-0.098	0.157
-376.873	127.419	-0.040	0.051
-375.858	-62.914	-0.231	0.095
-374.844	434.556	0.146	0.314
-373.829	-89.025	-0.127	0.037
-372.815	60.270	0.312	0.305
-371.800	439.446	-0.061	0.131
-370.785	-27.067	0.050	-0.029
-369.771	393.388	-0.155	0.320
-368.756	442.945	0.157	0.341
-367.742	636.119	0.126	-0.316
-366.727	17.295	-0.212	-0.167
-365.712	625.162	0.031	-0.077
-364.698	15.856	0.189	-0.147
-363.683	-200.000	0.008	-0.050
-362.669	368.116	-0.132	-0.263
-361.654	-19.513	0.314	0.193
-360.639	188.853	0.070	-0.104
-359.625	174.498	-0.301	-0.430
-358.610	73.607	0.352	-0.365
-357.596	15.220	-0.142	-0.110
-356.581	180.223	0.055	-0.081
-355.566	514.062	0.090	0.207
-354.552	-50.493	-0.058	-0.027
-353.537	66.115	0.224	-0.225
-352.523	173.854	-0.098	0.140
-351.508	800.000	-0.023	-0.083
-350.493	276.284	-0.121	0.212
-349.479	-54.439	0.355	0.159
-348.464	-62.342	-0.187	-0.077
-347.450	92.476	-0.127	0.141
-346.435	-144.066	0.580	0.054
-345.420	-66.380	-0.268	0.105
-344.406	800.000	0.019	-0.073
-343.391	-109.938	-0.145	-0.030
-342.377	-200.000	0.006	0.104
-341.362	216.479	-0.139	0.218
-340.348	-147.242	0.303	-0.026
-339.333	-200.000	-0.021	-0.111
-338.318	82.630	0.088	0.094
-337.304	-178.452	0.109	-0.003
-336.289	800.000	-0.068	-0.293
-335.275	183.174	-0.205	0.300
-334.260	-200.000	-0.024	0.189
-333.245	99.709	-0.092	-0.105
-332.231	50.020	0.089	-0.083
-331.216	499.125	0.104	0.238
-330.202	-122.745	0.387	-0.062
-329.187	-200.000	0.017	-0.140
-328.172	145.317	0.163	-0.215
-327.158	-64.406	-0.152	-0.061
-326.143	1.244	0.176	-0.125
-325.129	29.451	-0.108	0.091
-324.114	-155.274	-0.120	0.008
-323.099	-85.406	-0.249	-0.077
-322.085	-174.594	-0.226	0.006
-321.070	-104.605	0.262	-0.060
-320.056	-69.145	-0.295	0.112
-319.041	156.467	0.133	-0.181
-318.026	-150.056	0.232	-0.018
-317.012	-55.773	0.185	-0.082
-315.997	-200.000	0.079	0.344
-314.983	800.000	-0.050	-0.144
-313.968	-58.545	-0.108	0.046
-312.953	-52.340	-0.323	-0.148
-311.939	16.351	0.193	0.151
-310.924	538.574	0.130	-0.306
-309.910	7.454	-0.247	-0.182
-308.895	-38.610	0.213	0.111
-307.880	-37.469	0.216	-0.114
-306.866	800.000	-0.138	-0.387
-305.851	-82.799	-0.244	-0.078
-304.837	132.000	0.100	-0.127
-303.822	76.558	-0.095	0.100
-302.807	-8.206	0.098	-0.065
-301.793	800.000	-0.057	-0.239
-300.778	-27.028	0.152	0.088
-299.764	-16.880	-0.295	-0.184
-298.749	271.517	-0.065	-0.114
-297.735	219.555	0.052	0.083
-296.720	258.894	0.057	0.097
-295.705	-91.986	-0.299	-0.083
-294.691	164.932	0.086	-0.119
-293.676	-200.000	-0.030	-0.313
-292.662	-96.554	-0.226	-0.059
-291.647	-36.883	-0.370	-0.196
-290.632	359.413	-0.043	-0.086
-289.618	359.789	0.106	0.210
-288.603	-61.820	-0.322	-0.133
-287.589	264.952	0.203	-0.349
-286.574	-36.643	0.251	-0.133
-285.559	565.637	-0.084	0.201
-284.545	-91.622	0.267	-0.075
-283.530	420.867	-0.034	-0.072
-282.516	-20.523	-0.254	-0.154
-281.501	800.000	0.020	0.063
-280.486	-200.000	-0.061	0.303
-279.472	47.672	0.081	-0.074
-278.457	-126.358	-0.201	-0.030
-277.443	242.749	0.127	0.209
-276.428	-61.653	0.211	0.087
-275.413	800.000	0.022	0.063
-274.399	-22.483	0.201	0.120
-273.384	-14.224	0.076	0.048
-272.370	485.626	0.250	0.562
-271.355	-126.639	-0.424	0.062
-270.340	3.397	0.137	-0.099
-269.326	-102.506	0.106	-0.025
-268.311	3.588	0.118	-0.085
-267.297	-147.680	-0.263	0.022
-266.282	-119.878	0.342	-0.058
-265.267	-115.867	0.196	0.036
-264.253	-25.280	-0.370	-0.216
-263.238	800.000	-0.057	-0.169
-262.224	275.878	0.135	0.236
-261.209	-26.262	-0.137	0.079
-260.195	-164.696	-0.506	-0.023
-259.180	126.313	0.179	0.224
-258.165	91.513	-0.119	0.132
-257.151	-200.000	-0.021	-0.294
-256.136	-107.305	-0.168	0.036
-255.122	-121.904	-0.257	0.042
-254.107	501.763	0.099	0.226
-253.092	800.000	-0.097	-0.356
-252.078	800.000	0.029	0.094
-251.063	56.448	-0.116	-0.112
-250.049	122.844	0.114	-0.141
-249.034	-96.554	-0.209	-0.054
-248.019	-200.000	0.005	-0.135
-247.005	-152.295	0.329	-0.023
-245.990	-74.128	0.222	-0.079
-244.976	46.410	-0.259	0.237
-243.961	79.036	0.009	0.010
-242.946	-70.457	0.343	-0.128
-241.932	185.081	-0.256	0.375
-240.917	-200.000	-0.011	-0.051
-239.903	-90.974	0.084	0.024
-238.888	56.422	0.154	-0.148
-237.873	-23.614	-0.236	-0.139
-236.859	119.674	-0.132	-0.161
-235.844	38.444	0.092	0.081
-234.830	-77.788	0.310	-0.105
-233.815	512.864	0.149	-0.341
-232.800	229.726	0.136	0.218
-231.786	-200.000	0.000	-0.002
-230.771	135.858	0.055	-0.071
-229.757	-200.000	-0.010	0.070
-228.742	-1.952	0.096	-0.066
-227.727	138.360	-0.093	-0.121
-226.713	-49.766	-0.180	-0.084
-225.698	-157.035	0.119	0.007
-224.684	-79.493	-0.065	-0.022
-223.669	-90.790	-0.326	-0.093
-222.655	-69.185	-0.289	0.110
-221.640	127.675	-0.007	-0.009
-220.625	-200.000	0.018	-0.093
-219.611	-100.123	0.216	-0.053
-218.596	800.000	-0.054	0.190
-217.582	-173.738	-0.370	0.011
-216.567	-194.913	0.352	0.003
-215.552	-152.224	0.040	0.003
-214.538	77.930	-0.158	0.165
-213.523	32.122	-0.041	-0.034
-212.509	260.765	-0.021	0.035
-211.494	77.250	0.223	-0.233
-210.479	65.418	-0.393	0.392
-209.465	-200.000	0.014	0.150
-208.450	-71.101	0.179	0.066
-207.436	800.000	0.062	-0.221
-206.421	-27.167	0.158	-0.090
-205.406	247.177	-0.046	0.077
-204.392	-200.000	0.010	-0.264
-203.377	-200.000	0.065	0.432
-202.363	-200.000	-0.003	-0.139
-201.348	-95.352	0.087	-0.023
-200.333	-200.000	0.003	0.072
-199.319	-0.060	0.099	-0.070
-198.304	125.419	0.151	-0.188
-197.290	-183.716	-0.159	-0.003
-196.275	-200.000	-0.022	-0.158
-195.260	-94.853	0.373	0.099
-194.246	-138.094	-0.483	-0.053
-193.231	216.491	0.055	0.086
-192.217	-200.000	-0.086	0.404
-191.202	800.000	0.051	-0.173
-190.187	41.744	-0.049	-0.043
-189.173	-147.384	-0.283	0.024
-188.158	800.000	0.072	-0.287
-187.144	-76.033	-0.108	0.038
-186.129	-102.269	-0.444	0.105
-185.114	62.129	-0.032	0.032
-184.100	53.334	0.064	-0.061
-183.085	-122.089	-0.347	0.056
-182.071	-95.264	0.045	0.012
-181.056	134.631	0.368	-0.469
-180.042	90.894	0.129	0.143
-179.027	88.647	-0.012	-0.013
-178.012	206.237	0.060	0.091
-176.998	-24.474	0.059	-0.035
-175.983	-116.697	0.421	0.076
-174.969	83.985	0.196	0.210
-173.954	-110.525	-0.232	0.047
-172.939	346.699	0.138	-0.268
-171.925	-7.710	-0.168	-0.112
-170.910	97.699	-0.159	-0.180
-169.896	21.277	0.219	0.175
-168.881	-200.000	0.002	-0.030
-167.866	-161.570	-0.082	0.004
-166.852	83.836	0.017	0.019
-165.837	-21.152	0.247	0.149
-164.823	-75.706	0.050	0.018
-163.808	794.741	0.063	-0.171
-162.793	-88.212	0.145	-0.043
-161.779	-200.000	-0.051	0.230
-160.764	-128.578	0.267	0.037
-159.750	-93.526	-0.179	-0.048
-158.735	800.000	0.049	0.153
-157.720	-89.973	-0.209	-0.060
-156.706	16.526	-0.127	0.099
-155.691	-31.759	-0.196	-0.108
-154.677	-129.192	0.472	-0.065
-153.662	64.666	-0.102	0.101
-152.647	-91.057	0.099	-0.028
-151.633	-84.512	-0.063	0.019
-150.618	-200.000	0.001	0.270
-149.604	-200.000	0.021	-0.094
-148.589	800.000	-0.041	0.120
-147.574	-200.000	0.043	0.227
-146.560	-121.015	0.441	0.073
-145.545	800.000	-0.069	-0.195
-144.531	-147.021	0.439	-0.037
-143.516	-120.451	-0.059	0.010
-142.502	-49.267	-0.084	-0.039
-141.487	322.322	0.173	0.323
-140.472	227.278	-0.070	-0.112
-139.458	179.450	0.098	0.141
-138.443	115.389	0.083	0.100
-137.429	-74.189	-0.311	0.110
-136.414	572.649	0.068	-0.163
-135.399	-92.799	0.132	-0.036
-134.385	-165.692	-0.129	-0.005
-133.370	-114.219	-0.259	-0.049
-132.356	-21.933	0.100	0.059
-131.341	85.295	0.199	-0.215
-130.326	173.982	-0.152	0.215
-129.312	-19.231	-0.143	0.087
-128.297	-95.999	0.192	-0.050
-127.283	-200.000	0.021	0.105
-126.268	800.000	0.123	0.363
-125.253	-200.000	-0.057	0.333
-124.239	48.948	0.130	-0.120
-123.224	-141.724	0.303	0.030
-122.210	-175.717	0.540	0.014
-121.195	-200.000	-0.041	0.453
