DTS Sentinel unit serial number:	SN413079Multiplexer serial number:	ORYXHardware model number:	OX4-SRSoftware version number:	ORYX F/W v4.00 Oryx Data Collector v3.7.2.0data status	okinstallation	princeton_trtdifferential loss correction	single-endedforward channel	channel 2reverse channel	N/Adate	2019/09/19time	05:03:34forward acquisition time	60.00reverse acquisition time	0.00gamma	496.2192k internal	0.2352k external	0.2352temperature offset calibration	1.0013default loss term (dB/km)	0.3790temperature slope calibration	1.0000multiplexer offset coefficient	1.0000multiplexer slope coefficient	1.0000fibre end	0.00T internal ref (°C)	19.69T ext. ref 1 (°C)	0.61T ext. ref 2 (°C)	12.87length (m)	temperature (°C)	Stokes	anti-Stokes-747.200	0.207	0.305	0.217
-746.185	-5.835	0.096	-0.066
-745.171	-29.237	-0.145	0.083
-744.156	-70.473	-0.126	-0.048
-743.142	800.000	0.071	0.292
-742.127	282.801	-0.099	0.177
-741.112	11.223	-0.042	-0.032
-740.098	-10.934	-0.043	0.028
-739.083	-200.000	0.017	0.317
-738.069	-200.000	-0.053	0.358
-737.054	354.585	-0.104	0.207
-736.039	-137.569	-0.202	-0.023
-735.025	-200.000	-0.025	0.312
-734.010	-200.000	0.037	0.489
-732.996	-200.000	0.026	0.227
-731.981	-101.970	-0.097	-0.023
-730.966	406.039	-0.130	-0.274
-729.952	-162.971	-0.242	0.012
-728.937	-80.640	-0.317	0.105
-727.923	-120.491	0.286	0.048
-726.908	110.923	-0.023	-0.027
-725.894	623.796	-0.207	-0.519
-724.879	-127.126	-0.351	0.051
-723.864	-200.000	-0.035	-0.408
-722.850	52.507	-0.172	-0.164
-721.835	149.413	0.186	0.251
-720.821	23.043	-0.251	-0.205
-719.806	68.036	-0.268	-0.273
-718.791	661.241	0.067	0.171
-717.777	-62.260	-0.255	-0.106
-716.762	-96.944	-0.352	-0.092
-715.748	100.484	-0.313	0.362
-714.733	-200.000	0.037	0.236
-713.718	323.045	0.035	-0.067
-712.704	34.000	-0.073	-0.063
-711.689	-98.573	0.098	-0.025
-710.675	-4.308	-0.238	-0.164
-709.660	250.365	0.114	-0.193
-708.645	-52.325	-0.153	-0.071
-707.631	-200.000	0.000	-0.457
-706.616	242.121	-0.185	0.308
-705.602	37.534	0.124	-0.109
-704.587	-36.897	0.330	0.177
-703.572	-200.000	-0.002	0.234
-702.558	-65.120	0.354	0.142
-701.543	188.179	-0.060	-0.089
-700.529	64.438	-0.082	-0.083
-699.514	-75.606	0.109	0.038
-698.499	80.930	-0.201	0.216
-697.485	-86.956	-0.095	0.029
-696.470	92.946	0.088	-0.099
-695.456	197.560	0.096	0.146
-694.441	800.000	-0.021	0.084
-693.426	-200.000	-0.019	0.223
-692.412	265.266	0.064	-0.112
-691.397	139.727	0.327	-0.429
-690.383	564.371	-0.096	0.232
-689.368	-96.795	0.186	0.049
-688.354	-81.637	0.105	0.034
-687.339	24.231	-0.050	-0.041
-686.324	-38.913	-0.227	-0.119
-685.310	-16.326	-0.312	0.197
-684.295	344.567	-0.150	-0.294
-683.281	800.000	-0.075	-0.213
-682.266	1.331	-0.418	0.299
-681.251	24.943	0.151	0.125
-680.237	249.936	-0.158	0.267
-679.222	61.652	-0.110	-0.109
-678.208	-182.451	-0.150	0.003
-677.193	0.854	-0.225	0.160
-676.178	29.122	0.147	0.124
-675.164	-95.305	0.501	0.134
-674.149	646.118	-0.051	-0.131
-673.135	98.055	-0.229	-0.262
-672.120	-125.464	-0.316	0.048
-671.105	-95.079	0.245	-0.066
-670.091	-119.872	-0.215	0.037
-669.076	800.000	-0.039	-0.145
-668.062	-200.000	-0.001	0.053
-667.047	-104.302	0.159	-0.037
-666.032	54.478	-0.121	-0.116
-665.018	430.314	-0.113	0.243
-664.003	-47.830	0.124	-0.060
-662.989	-200.000	0.010	-0.088
-661.974	115.211	-0.282	-0.342
-660.959	-200.000	0.042	-0.221
-659.945	129.443	-0.185	-0.236
-658.930	264.449	-0.140	-0.242
-657.916	-200.000	-0.050	-0.418
-656.901	800.000	-0.040	0.143
-655.886	-200.000	0.013	-0.310
-654.872	-200.000	0.007	-0.068
-653.857	-145.539	-0.149	-0.013
-652.843	-200.000	0.009	0.092
-651.828	247.760	0.220	-0.370
-650.814	800.000	-0.078	-0.325
-649.799	-22.506	0.114	-0.069
-648.784	-91.847	-0.078	-0.022
-647.770	297.681	0.097	0.178
-646.755	308.292	0.146	0.271
-645.741	-31.723	-0.255	-0.142
-644.726	2.059	0.291	-0.209
-643.711	800.000	0.018	-0.053
-642.697	-155.838	0.430	-0.027
-641.682	-32.936	-0.225	0.124
-640.668	-200.000	0.019	-0.099
-639.653	800.000	-0.116	-0.431
-638.638	186.809	0.089	-0.132
-637.624	-118.481	0.435	-0.077
-636.609	-109.345	0.198	-0.042
-635.595	-88.760	-0.306	0.090
-634.580	127.802	-0.085	0.108
-633.565	-123.336	-0.180	0.029
-632.551	800.000	0.108	0.463
-631.536	284.955	-0.030	0.055
-630.522	-64.482	0.224	-0.090
-629.507	148.011	-0.094	0.125
-628.492	-200.000	-0.024	-0.153
-627.478	101.902	0.082	-0.095
-626.463	-94.454	0.202	0.055
-625.449	34.564	0.288	-0.249
-624.434	-45.776	-0.198	0.097
-623.419	97.856	0.127	0.146
-622.405	800.000	0.046	0.183
-621.390	66.631	-0.166	0.168
-620.376	-200.000	-0.031	-0.284
-619.361	47.105	-0.088	-0.081
-618.346	-200.000	0.019	0.123
-617.332	50.615	0.100	0.094
-616.317	-19.507	0.163	-0.100
-615.303	-34.712	-0.142	0.077
-614.288	277.676	-0.125	-0.221
-613.273	418.095	-0.077	-0.164
-612.259	-30.289	-0.239	0.135
-611.244	-19.611	-0.159	-0.098
-610.230	128.040	0.113	0.143
-609.215	-47.639	-0.079	-0.038
-608.201	-126.267	-0.166	-0.025
-607.186	116.111	-0.072	-0.088
-606.171	115.404	-0.097	-0.118
-605.157	-200.000	0.013	-0.093
-604.142	-200.000	0.016	0.187
-603.128	-139.408	-0.132	-0.014
-602.113	85.391	0.078	0.085
-601.098	-78.910	0.267	0.090
-600.084	-200.000	0.015	-0.154
-599.069	89.762	0.262	0.291
-598.055	-29.012	0.322	-0.183
-597.040	343.938	0.069	-0.134
-596.025	111.339	0.222	-0.266
-595.011	-200.000	-0.019	-0.082
-593.996	12.610	0.180	-0.138
-592.982	-11.669	-0.129	-0.084
-591.967	800.000	-0.052	-0.201
-590.952	5.987	0.228	-0.168
-589.938	203.974	0.256	0.393
-588.923	-200.000	-0.010	0.313
-587.909	-7.185	-0.304	-0.205
-586.894	-152.270	0.038	0.003
-585.879	-200.000	-0.004	-0.244
-584.865	-200.000	0.034	0.186
-583.850	-88.950	-0.049	-0.014
-582.836	19.122	0.213	-0.169
-581.821	-145.488	0.318	0.028
-580.806	-31.533	-0.317	0.176
-579.792	-66.867	-0.156	0.061
-578.777	-200.000	-0.079	0.454
-577.763	-200.000	-0.020	-0.107
-576.748	-103.883	0.261	0.060
-575.733	-69.179	0.184	-0.070
-574.719	800.000	0.061	-0.231
-573.704	-5.704	-0.298	-0.202
-572.690	-126.593	-0.276	0.041
-571.675	-84.452	0.309	0.097
-570.661	-99.745	-0.208	-0.052
-569.646	115.521	0.093	0.112
-568.631	8.643	-0.301	-0.225
-567.617	212.533	0.102	-0.159
-566.602	-10.728	0.098	-0.064
-565.588	168.184	0.337	-0.475
-564.573	800.000	0.058	-0.182
-563.558	-200.000	0.082	-0.451
-562.544	-200.000	-0.006	-0.223
-561.529	-200.000	-0.002	0.375
-560.515	-4.971	-0.087	-0.059
-559.500	103.058	0.095	-0.110
-558.485	-67.644	-0.123	0.048
-557.471	-129.756	0.076	0.010
-556.456	-26.395	0.106	0.062
-555.442	27.036	0.120	0.100
-554.427	-40.464	-0.258	0.133
-553.412	-99.955	0.188	-0.047
-552.398	30.491	0.043	0.037
-551.383	-75.472	-0.506	0.178
-550.369	13.680	-0.208	-0.160
-549.354	-134.266	0.095	0.012
-548.339	468.777	0.048	0.108
-547.325	800.000	-0.068	-0.253
-546.310	-144.147	0.300	-0.028
-545.296	-200.000	-0.016	0.122
-544.281	-50.966	-0.083	0.038
-543.266	-92.048	-0.563	0.158
-542.252	-47.714	-0.338	0.162
-541.237	-78.833	-0.136	0.046
-540.223	149.146	0.024	0.032
-539.208	-200.000	0.016	-0.315
-538.193	-14.040	0.136	-0.087
-537.179	41.005	-0.007	-0.006
-536.164	108.251	-0.029	0.034
-535.150	160.486	-0.210	0.290
-534.135	27.711	-0.165	-0.137
-533.121	21.110	-0.211	-0.169
-532.106	-16.586	0.232	-0.145
-531.091	-48.430	-0.204	0.097
-530.077	-19.837	-0.054	-0.033
-529.062	403.835	-0.178	0.370
-528.048	411.739	-0.092	-0.194
-527.033	-57.847	0.140	-0.060
-526.018	-44.700	0.152	-0.075
-525.004	-29.459	-0.223	0.126
-523.989	-10.925	0.298	0.194
-522.975	-152.546	-0.335	0.024
-521.960	638.774	0.068	0.172
-520.945	-156.194	-0.236	0.015
-519.931	79.239	-0.104	-0.110
-518.916	166.118	0.144	0.201
-517.902	-166.594	0.110	0.005
-516.887	800.000	-0.069	0.190
-515.872	22.365	0.120	0.097
-514.858	-54.541	0.035	0.016
-513.843	99.572	0.066	0.075
-512.829	800.000	0.070	0.302
-511.814	-16.017	0.206	-0.130
-510.799	-124.102	-0.246	-0.038
-509.785	68.416	0.114	0.115
-508.770	-68.662	0.188	-0.072
-507.756	-53.034	-0.274	0.125
-506.741	-35.608	-0.260	-0.139
-505.726	106.522	-0.069	-0.081
-504.712	-200.000	-0.002	-0.268
-503.697	207.827	-0.203	0.313
-502.683	145.953	-0.118	-0.157
-501.668	5.675	0.147	-0.108
-500.653	-200.000	-0.061	0.293
-499.639	634.817	-0.085	0.214
-498.624	-200.000	0.003	0.103
-497.610	-101.527	-0.236	-0.057
-496.595	-38.139	0.102	0.054
-495.581	-200.000	0.009	0.088
-494.566	-53.512	-0.267	0.121
-493.551	4.477	0.114	-0.082
-492.537	-126.521	0.225	0.033
-491.522	117.306	0.051	0.062
-490.508	-29.361	-0.047	-0.027
-489.493	800.000	0.020	-0.087
-488.478	258.932	0.085	0.144
-487.464	262.950	-0.162	0.278
-486.449	620.963	-0.076	0.189
-485.435	-1.226	0.237	-0.166
-484.420	-3.882	0.299	0.205
-483.405	189.027	-0.117	-0.174
-482.391	800.000	-0.120	0.353
-481.376	-100.861	-0.263	-0.064
-480.362	65.664	0.124	0.124
-479.347	-77.832	-0.218	-0.074
-478.332	130.908	0.257	-0.326
-477.318	609.963	-0.032	-0.080
-476.303	800.000	-0.013	-0.042
-475.289	-200.000	-0.004	0.110
-474.274	-182.104	-0.136	0.003
-473.259	294.253	0.121	-0.219
-472.245	800.000	-0.031	-0.103
-471.230	-200.000	0.000	0.243
-470.216	800.000	0.066	-0.233
-469.201	-27.817	-0.085	-0.048
-468.186	-83.237	-0.168	-0.053
-467.172	128.795	0.150	-0.189
-466.157	-116.298	-0.203	0.037
-465.143	-99.722	0.108	-0.027
-464.128	-89.558	-0.222	0.064
-463.113	-110.588	-0.116	-0.024
-462.099	40.960	0.064	-0.057
-461.084	-200.000	0.045	0.201
-460.070	-31.437	0.078	-0.043
-459.055	583.289	-0.055	-0.132
-458.040	-200.000	0.020	-0.335
-457.026	-9.775	0.183	0.120
-456.011	-23.735	0.194	-0.114
-454.997	-200.000	-0.005	0.380
-453.982	-101.065	0.142	0.034
-452.968	293.248	-0.100	-0.181
-451.953	-33.400	-0.068	-0.037
-450.938	140.977	-0.075	-0.098
-449.924	-119.612	-0.023	-0.004
-448.909	-46.721	0.144	0.070
-447.895	265.461	0.161	0.276
-446.880	-153.030	0.362	-0.025
-445.865	800.000	-0.032	0.103
-444.851	155.596	-0.031	-0.042
-443.836	800.000	0.067	0.222
-442.822	-200.000	-0.036	-0.370
-441.807	336.858	0.056	-0.107
-440.792	-158.032	-0.195	-0.011
-439.778	148.505	-0.269	0.358
-438.763	-200.000	-0.005	0.107
-437.749	-173.773	0.269	0.008
-436.734	-146.459	-0.461	-0.040
-435.719	-123.539	0.356	-0.056
-434.705	-10.192	-0.161	0.106
-433.690	-115.556	-0.218	-0.040
-432.676	-40.598	0.117	0.060
-431.661	-200.000	0.019	-0.112
-430.646	-76.199	0.095	0.033
-429.632	88.432	-0.310	-0.340
-428.617	170.645	-0.158	-0.223
-427.603	-200.000	-0.015	-0.127
-426.588	800.000	-0.135	-0.392
-425.573	91.143	0.045	-0.050
-424.559	369.763	-0.079	-0.157
-423.544	452.873	0.196	-0.427
-422.530	692.865	0.038	0.099
-421.515	-139.391	-0.341	0.036
-420.500	-122.165	0.381	0.061
-419.486	800.000	-0.072	0.256
-418.471	-21.787	0.072	-0.043
-417.457	-57.117	-0.176	0.077
-416.442	-75.587	-0.142	0.050
-415.428	269.514	0.171	0.296
-414.413	53.991	0.089	0.084
-413.398	-48.046	0.049	0.023
-412.384	137.527	-0.327	0.422
-411.369	-42.020	-0.248	-0.125
-410.355	-117.880	-0.513	0.091
-409.340	-175.792	0.269	-0.007
-408.325	61.224	-0.082	-0.080
-407.311	545.463	-0.090	0.211
-406.296	336.492	0.194	-0.370
-405.282	140.012	-0.193	0.250
-404.267	-103.330	-0.343	0.080
-403.252	-200.000	-0.007	-0.159
-402.238	-143.003	-0.173	-0.017
-401.223	800.000	-0.027	0.116
-400.209	800.000	0.061	0.258
-399.194	-200.000	-0.013	0.299
-398.179	-88.790	-0.252	0.074
-397.165	-200.000	0.266	0.000
-396.150	800.000	0.054	0.201
-395.136	-96.756	0.176	-0.046
-394.121	-5.237	0.084	0.057
-393.106	-129.562	0.095	-0.013
-392.092	-200.000	-0.010	0.077
-391.077	-24.734	0.119	0.070
-390.063	-2.744	-0.190	-0.131
-389.048	-162.160	-0.256	0.013
-388.033	307.100	-0.061	0.111
-387.019	-200.000	-0.044	-0.357
-386.004	-22.077	-0.071	0.043
-384.990	57.541	-0.069	0.066
-383.975	347.172	0.062	0.120
-382.960	211.336	-0.028	-0.043
-381.946	188.500	-0.027	-0.040
-380.931	29.143	0.248	0.207
-379.917	78.611	-0.190	-0.200
-378.902	76.130	-0.177	-0.185
-377.888	52.289	0.105	-0.099
-376.873	-200.000	-0.051	-0.377
-375.858	-200.000	0.028	0.139
-374.844	-33.352	0.266	0.145
-373.829	15.165	0.232	-0.179
-372.815	-116.624	-0.098	0.018
-371.800	5.353	-0.083	0.060
-370.785	-37.840	-0.097	0.051
-369.771	-200.000	-0.041	0.412
-368.756	148.112	-0.102	-0.135
-367.742	-200.000	0.227	0.000
-366.727	125.155	-0.240	0.297
-365.712	477.059	-0.114	0.252
-364.698	-79.526	0.363	0.120
-363.683	244.944	0.131	-0.217
-362.669	567.882	0.073	-0.174
-361.654	-200.000	-0.009	0.106
-360.639	198.347	0.071	-0.107
-359.625	-200.000	0.037	0.179
-358.610	-115.188	-0.114	-0.021
-357.596	800.000	-0.043	0.123
-356.581	-95.030	-0.045	-0.012
-355.566	27.510	-0.050	-0.042
-354.552	187.798	0.083	-0.122
-353.537	598.364	-0.038	-0.092
-352.523	134.313	-0.081	-0.103
-351.508	-56.622	0.143	-0.062
-350.493	-127.343	0.238	-0.034
-349.479	-58.337	0.058	-0.025
-348.464	23.444	-0.218	0.176
-347.450	-200.000	-0.028	-0.240
-346.435	91.437	-0.168	0.185
-345.420	-110.822	0.178	0.036
-344.406	32.652	-0.193	0.164
-343.391	-23.336	0.171	0.101
-342.377	123.693	-0.112	-0.138
-341.362	-52.795	-0.185	0.084
-340.348	-131.402	0.044	-0.006
-339.333	-200.000	0.025	0.120
-338.318	338.292	0.070	-0.133
-337.304	-44.665	-0.095	0.046
-336.289	49.726	-0.179	-0.165
-335.275	-200.000	-0.072	-0.369
-334.260	-70.990	0.247	-0.091
-333.245	-200.000	0.024	0.357
-332.231	-157.781	-0.231	-0.013
-331.216	130.002	0.181	0.227
-330.202	46.153	0.044	0.040
-329.187	-122.013	0.332	-0.054
-328.172	-40.310	0.383	0.196
-327.158	-25.069	-0.181	0.105
-326.143	-50.771	-0.371	-0.171
-325.129	-120.918	0.130	-0.021
-324.114	-167.539	0.345	0.014
-323.099	385.231	0.041	0.084
-322.085	221.441	0.104	0.164
-321.070	-74.618	-0.149	-0.053
-320.056	-6.692	-0.168	-0.112
-319.041	559.449	-0.143	-0.338
-318.026	800.000	0.120	0.368
-317.012	-40.232	-0.170	-0.087
-315.997	-58.899	0.229	0.097
-314.983	-75.751	0.277	0.096
-313.968	-57.466	0.047	0.020
-312.953	-132.939	-0.322	-0.040
-311.939	-134.456	-0.118	-0.014
-310.924	369.797	0.158	-0.315
-309.910	71.367	0.050	-0.051
-308.895	56.223	-0.113	-0.108
-307.880	-7.305	-0.141	0.093
-306.866	76.047	0.229	0.238
-305.851	-41.088	-0.267	0.135
-304.837	-137.483	-0.162	-0.018
-303.822	800.000	-0.032	-0.088
-302.807	-200.000	0.017	-0.156
-301.793	-200.000	0.028	0.156
-300.778	800.000	-0.040	-0.116
-299.764	-35.988	0.333	0.176
-298.749	0.396	0.277	0.194
-297.735	-200.000	0.009	-0.183
-296.720	1.535	0.259	-0.183
-295.705	800.000	0.031	0.107
-294.691	-115.763	-0.312	0.057
-293.676	-79.932	0.050	-0.017
-292.662	800.000	-0.047	-0.170
-291.647	-68.127	-0.267	-0.102
-290.632	32.644	-0.101	0.086
-289.618	-200.000	-0.013	-0.082
-288.603	-39.706	0.123	0.063
-287.589	700.217	0.050	-0.129
-286.574	133.940	0.188	0.238
-285.559	105.103	-0.090	-0.104
-284.545	546.335	0.111	0.261
-283.530	413.880	-0.108	0.225
-282.516	144.613	0.059	0.077
-281.501	800.000	-0.036	0.128
-280.486	-49.385	0.107	0.050
-279.472	-48.468	0.120	0.056
-278.457	115.360	0.144	-0.172
-277.443	-179.305	-0.096	0.002
-276.428	800.000	0.073	-0.310
-275.413	455.136	0.112	0.243
-274.399	0.195	-0.412	-0.288
-273.384	233.350	0.104	0.167
-272.370	-75.834	-0.147	-0.051
-271.355	169.125	-0.097	-0.136
-270.340	660.043	-0.058	0.147
-269.326	-97.629	-0.214	-0.054
-268.311	-200.000	0.005	0.168
-267.297	800.000	-0.043	0.172
-266.282	-200.000	0.004	-0.126
-265.267	-200.000	-0.013	-0.328
-264.253	96.451	-0.011	0.013
-263.238	36.801	0.146	-0.127
-262.224	-200.000	-0.005	-0.163
-261.209	-200.000	-0.005	0.300
-260.195	-13.368	0.238	0.151
-259.180	-80.544	-0.112	-0.037
-258.165	-151.897	0.181	-0.013
-257.151	-146.362	0.182	0.016
-256.136	-151.583	-0.210	0.015
-255.122	-200.000	-0.006	-0.261
-254.107	-20.655	-0.263	-0.158
-253.092	24.820	0.185	0.150
-252.078	-40.392	-0.314	-0.160
-251.063	134.836	0.187	-0.238
-250.049	43.764	-0.208	-0.186
-249.034	183.762	0.067	-0.097
-248.019	-85.288	0.239	-0.073
-247.005	-85.758	-0.462	0.140
-245.990	144.632	0.053	0.069
-244.976	-147.518	0.354	0.029
-243.961	-140.841	0.323	-0.033
-242.946	73.804	-0.110	0.113
-241.932	-101.947	-0.344	0.081
-240.917	-33.748	-0.326	0.176
-239.903	-59.534	0.153	0.064
-238.888	-200.000	-0.017	-0.321
-237.873	-200.000	-0.012	0.113
-236.859	-35.842	-0.169	0.089
-235.844	-151.310	0.452	-0.033
-234.830	-106.583	0.167	0.036
-233.815	14.550	-0.319	-0.244
-232.800	800.000	-0.067	-0.282
-231.786	129.601	-0.110	-0.138
-230.771	-41.421	-0.177	0.089
-229.757	568.784	0.033	0.077
-228.742	15.942	-0.209	-0.161
-227.727	23.177	0.348	-0.279
-226.713	418.466	-0.197	0.412
-225.698	6.214	-0.357	0.259
-224.684	468.594	-0.089	-0.194
-223.669	800.000	-0.043	0.125
-222.655	-147.304	0.362	-0.030
-221.640	401.448	-0.128	-0.264
-220.625	-148.735	0.222	-0.018
-219.611	-200.000	0.049	-0.280
-218.596	-58.726	-0.191	0.081
-217.582	157.957	0.095	0.129
-216.567	-104.098	-0.213	0.049
-215.552	-200.000	0.037	0.166
-214.538	-28.524	-0.197	0.111
-213.523	-200.000	-0.018	-0.132
-212.509	47.602	0.132	0.120
-211.494	41.017	0.043	-0.038
-210.479	210.302	-0.230	-0.352
-209.465	-200.000	-0.033	-0.360
-208.450	800.000	-0.045	-0.159
-207.436	-109.341	0.394	0.082
-206.421	-160.931	-0.314	-0.016
-205.406	-104.167	0.454	0.103
-204.392	-76.121	0.155	0.054
-203.377	-146.566	-0.058	-0.005
-202.363	81.526	0.182	-0.192
-201.348	-96.808	-0.146	-0.038
-200.333	-76.010	0.161	-0.055
-199.319	-4.837	0.164	0.111
-198.304	-85.590	0.171	0.052
-197.290	-80.683	0.195	0.063
-196.275	25.506	0.261	-0.212
-195.260	800.000	-0.149	0.439
-194.246	-88.825	0.070	0.020
-193.231	284.335	0.089	0.157
-192.217	-55.625	-0.264	0.115
-191.202	-200.000	0.025	-0.113
-190.187	-39.711	-0.205	0.105
-189.173	800.000	0.041	-0.140
-188.158	800.000	0.030	-0.084
-187.144	153.772	0.169	0.226
-186.129	23.383	-0.252	0.202
-185.114	-121.780	0.136	0.022
-184.100	72.318	0.141	0.144
-183.085	122.206	0.074	-0.090
-182.071	41.648	-0.047	-0.042
-181.056	58.228	0.355	0.339
-180.042	317.139	-0.041	-0.076
-179.027	800.000	0.039	0.117
-178.012	425.813	-0.058	0.122
-176.998	800.000	0.020	-0.056
-175.983	-200.000	-0.032	-0.288
-174.969	-184.413	-0.283	-0.005
-173.954	800.000	-0.110	0.351
-172.939	106.876	0.209	0.242
-171.925	-42.340	0.102	0.051
-170.910	116.520	0.252	0.301
-169.896	1.134	0.218	0.153
-168.881	800.000	-0.141	-0.395
-167.866	102.807	0.118	-0.135
-166.852	-170.084	-0.040	-0.001
-165.837	-200.000	0.030	-0.230
-164.823	-200.000	-0.017	0.235
-163.808	121.275	-0.074	0.090
-162.793	80.752	0.066	-0.069
-161.779	58.250	-0.084	0.080
-160.764	431.050	0.097	-0.206
-159.750	-90.144	0.287	-0.081
-158.735	-64.708	0.215	0.085
-157.720	73.164	0.313	-0.319
-156.706	128.614	0.091	-0.112
-155.691	194.917	-0.038	-0.056
-154.677	-200.000	0.042	0.205
-153.662	145.210	0.103	-0.134
-152.647	119.844	-0.196	-0.237
-151.633	-84.287	-0.030	0.009
-150.618	-0.753	0.245	0.169
-149.604	-53.773	-0.110	-0.049
-148.589	800.000	0.049	0.154
-147.574	-200.000	-0.018	-0.195
-146.560	166.031	0.133	-0.183
-145.545	224.671	0.039	-0.062
-144.531	84.817	0.202	0.216
-143.516	-67.350	-0.335	0.128
-142.502	323.636	0.087	-0.161
-141.487	-126.982	-0.197	0.028
-140.472	174.066	0.167	0.235
-139.458	-85.198	-0.188	-0.057
-138.443	289.480	0.164	0.290
-137.429	7.027	-0.067	0.049
-136.414	522.873	-0.086	0.196
-135.399	-103.884	-0.205	-0.047
-134.385	388.321	0.053	0.106
-133.370	212.881	0.225	-0.347
-132.356	-200.000	0.060	-0.273
-131.341	0.254	0.077	-0.053
-130.326	54.705	0.074	-0.069
-129.312	-200.000	0.004	0.200
-128.297	-200.000	-0.004	-0.227
-127.283	-49.673	-0.176	-0.081
-126.268	-64.949	0.202	-0.080
-125.253	67.512	-0.179	0.178
-124.239	76.393	0.169	0.174
-123.224	-70.808	0.214	0.079
-122.210	-200.000	-0.034	0.637
-121.195	137.085	0.184	-0.234
