DTS Sentinel unit serial number:	SN413079Multiplexer serial number:	ORYXHardware model number:	OX4-SRSoftware version number:	ORYX F/W v4.00 Oryx Data Collector v3.7.2.0data status	okinstallation	princeton_trtdifferential loss correction	single-endedforward channel	channel 2reverse channel	N/Adate	2019/09/15time	18:11:35forward acquisition time	60.00reverse acquisition time	0.00gamma	496.2192k internal	0.2283k external	0.2283temperature offset calibration	0.9924default loss term (dB/km)	0.3790temperature slope calibration	1.0000multiplexer offset coefficient	1.0000multiplexer slope coefficient	1.0000fibre end	0.00T internal ref (°C)	44.56T ext. ref 1 (°C)	6.56T ext. ref 2 (°C)	39.17length (m)	temperature (°C)	Stokes	anti-Stokes-747.200	-76.281	0.329	0.119
-746.185	-57.019	-0.220	0.100
-745.171	-6.832	0.091	-0.064
-744.156	182.838	0.125	0.189
-743.142	445.662	0.075	-0.169
-742.127	-200.000	0.021	0.132
-741.112	385.622	-0.110	0.232
-740.098	800.000	-0.157	0.478
-739.083	-200.000	-0.014	-0.151
-738.069	-33.156	0.404	0.230
-737.054	-72.189	-0.290	-0.111
-736.039	417.370	-0.176	0.386
-735.025	-200.000	-0.036	0.245
-734.010	276.473	-0.193	-0.353
-732.996	-200.000	-0.002	-0.178
-731.981	-200.000	0.001	-0.105
-730.966	-200.000	-0.043	-0.340
-729.952	51.460	0.176	-0.172
-728.937	-147.249	0.274	-0.024
-727.923	14.061	-0.144	0.115
-726.908	-177.097	-0.255	-0.007
-725.894	-29.664	0.152	-0.089
-724.879	800.000	-0.111	-0.330
-723.864	-112.148	-0.225	-0.047
-722.850	-200.000	-0.016	0.395
-721.835	106.821	0.192	0.234
-720.821	-127.263	-0.131	-0.020
-719.806	102.604	0.094	-0.113
-718.791	-200.000	-0.035	-0.280
-717.777	55.372	-0.205	-0.203
-716.762	28.497	-0.299	-0.259
-715.748	-10.880	0.206	0.140
-714.733	-45.220	0.205	0.105
-713.718	-65.072	-0.257	0.107
-712.704	-3.517	0.169	0.121
-711.689	-173.599	0.219	-0.007
-710.675	535.379	-0.018	0.044
-709.660	-118.943	-0.090	0.016
-708.645	-17.839	0.232	-0.149
-707.631	-138.879	0.351	-0.039
-706.616	-23.031	-0.155	-0.096
-705.602	-200.000	-0.024	0.194
-704.587	-42.425	0.115	-0.060
-703.572	17.635	-0.400	-0.327
-702.558	-49.839	0.191	-0.093
-701.543	533.888	-0.102	0.249
-700.529	-94.808	-0.044	0.012
-699.514	-127.741	-0.191	0.028
-698.499	800.000	0.037	0.116
-697.485	14.340	-0.091	0.073
-696.470	-87.297	0.194	0.061
-695.456	-60.710	-0.266	0.115
-694.441	-57.223	0.302	-0.136
-693.426	225.190	-0.030	-0.049
-692.412	800.000	-0.066	-0.212
-691.397	730.931	0.064	-0.176
-690.383	800.000	0.023	0.068
-689.368	0.762	0.262	0.192
-688.354	-200.000	0.033	-0.255
-687.339	800.000	0.056	-0.195
-686.324	103.105	-0.157	-0.189
-685.310	800.000	-0.047	-0.167
-684.295	91.429	0.140	0.162
-683.281	124.032	0.069	0.089
-682.266	237.031	-0.107	0.181
-681.251	598.304	0.019	-0.049
-680.237	-124.040	0.094	-0.015
-679.222	-139.073	-0.384	0.043
-678.208	2.849	-0.066	0.049
-677.193	800.000	0.036	0.137
-676.178	-34.885	-0.232	0.130
-675.164	5.369	-0.302	0.229
-674.149	800.000	0.098	-0.277
-673.135	246.571	0.073	-0.125
-672.120	-108.991	-0.107	0.023
-671.105	-137.655	-0.257	-0.030
-670.091	15.609	-0.174	0.140
-669.076	41.311	-0.209	0.193
-668.062	429.174	-0.069	-0.153
-667.047	12.832	-0.098	0.077
-666.032	74.423	-0.223	0.240
-665.018	259.212	0.203	0.358
-664.003	-8.085	-0.099	-0.068
-662.989	224.946	-0.021	-0.035
-661.974	-200.000	0.067	0.542
-660.959	272.561	0.102	0.184
-659.945	68.402	0.187	0.196
-658.930	-200.000	-0.004	0.316
-657.916	113.097	-0.109	0.136
-656.901	754.111	0.054	-0.151
-655.886	112.867	-0.137	0.170
-654.872	111.993	-0.139	0.173
-653.857	-200.000	-0.045	0.286
-652.843	-9.820	-0.110	0.075
-651.828	383.076	-0.075	-0.158
-650.814	800.000	-0.036	-0.108
-649.799	-200.000	0.013	0.139
-648.784	160.842	-0.169	-0.241
-647.770	-200.000	0.040	0.265
-646.755	-52.141	0.176	-0.084
-645.741	-146.564	0.199	-0.018
-644.726	-47.200	-0.200	-0.100
-643.711	509.694	0.119	-0.283
-642.697	66.780	0.190	0.198
-641.682	-200.000	0.052	-0.273
-640.668	-39.535	0.096	-0.051
-639.653	-200.000	0.123	-0.629
-638.638	33.608	0.059	-0.052
-637.624	16.526	0.167	0.135
-636.609	-37.068	0.226	0.124
-635.595	800.000	-0.160	0.462
-634.580	191.470	0.165	0.254
-633.565	-163.501	0.250	0.012
-632.551	17.867	0.149	0.122
-631.536	800.000	0.031	0.137
-630.522	-134.978	0.195	0.024
-629.507	752.063	-0.064	0.177
-628.492	-182.034	0.310	-0.006
-627.478	62.827	-0.210	0.215
-626.463	425.948	0.130	-0.286
-625.449	53.273	-0.115	-0.113
-624.434	-91.847	0.296	-0.086
-623.419	-87.723	0.093	-0.029
-622.405	-200.000	-0.011	-0.094
-621.390	-200.000	-0.030	0.154
-620.376	-200.000	0.075	-0.401
-619.361	-114.698	0.270	-0.053
-618.346	73.266	-0.223	-0.239
-617.332	105.955	-0.139	-0.169
-616.317	277.922	-0.069	0.125
-615.303	-28.155	-0.263	-0.155
-614.288	-37.398	-0.140	0.076
-613.273	-200.000	-0.024	0.153
-612.259	-61.664	-0.031	-0.013
-611.244	-13.204	0.314	-0.208
-610.230	3.102	-0.552	-0.410
-609.215	-63.345	-0.236	0.099
-608.201	-130.021	0.151	0.021
-607.186	-27.847	0.249	-0.148
-606.171	800.000	0.126	0.397
-605.157	248.709	0.134	0.231
-604.142	65.045	-0.118	0.122
-603.128	-200.000	-0.007	0.050
-602.113	-34.782	-0.130	-0.072
-601.098	18.107	-0.092	0.075
-600.084	-3.563	-0.073	0.052
-599.069	-55.466	-0.167	-0.077
-598.055	25.103	-0.274	0.232
-597.040	-20.230	-0.244	0.153
-596.025	800.000	0.035	-0.136
-595.011	80.944	0.166	0.183
-593.996	303.901	0.146	0.276
-592.982	328.722	0.185	0.364
-591.967	159.145	-0.061	0.086
-590.952	177.093	0.107	0.159
-589.938	-171.380	-0.285	0.010
-588.923	19.416	0.154	0.127
-587.909	134.224	-0.257	-0.340
-586.894	80.011	0.123	-0.135
-585.879	-76.940	0.041	0.015
-584.865	103.395	-0.104	-0.124
-583.850	800.000	0.018	0.058
-582.836	-200.000	-0.014	-0.292
-581.821	800.000	0.136	-0.436
-580.806	90.333	0.042	-0.048
-579.792	-200.000	-0.026	0.144
-578.777	-62.803	-0.098	-0.042
-577.763	-111.655	-0.059	-0.012
-576.748	800.000	-0.044	0.139
-575.733	-5.593	-0.041	-0.029
-574.719	187.316	0.110	-0.168
-573.704	47.960	0.137	0.130
-572.690	0.129	-0.238	-0.174
-571.675	41.404	0.216	0.200
-570.661	177.630	-0.116	-0.173
-569.646	-25.156	0.176	-0.106
-568.631	-140.786	0.449	0.047
-567.617	109.937	-0.144	-0.176
-566.602	-1.691	-0.301	-0.216
-565.588	81.683	0.025	0.027
-564.573	65.738	-0.317	-0.328
-563.558	75.105	-0.115	-0.124
-562.544	314.312	-0.202	0.388
-561.529	-74.856	-0.047	0.017
-560.515	30.532	0.305	-0.266
-559.500	-126.704	-0.256	0.039
-558.485	-37.208	0.365	0.199
-557.471	-160.901	0.225	-0.012
-556.456	210.414	-0.074	0.119
-555.442	-47.199	-0.105	-0.052
-554.427	-14.874	0.330	-0.216
-553.412	49.229	0.315	0.302
-552.398	-200.000	-0.001	-0.105
-551.383	0.320	-0.223	0.162
-550.369	800.000	0.017	0.074
-549.354	-200.000	0.026	0.364
-548.339	115.080	0.362	-0.450
-547.325	-28.429	-0.172	-0.101
-546.310	200.547	-0.108	0.169
-545.296	475.276	-0.100	0.230
-544.281	445.322	-0.090	0.202
-543.266	29.582	0.133	-0.115
-542.252	800.000	0.044	-0.186
-541.237	-111.913	0.291	-0.060
-540.223	-86.048	0.126	0.040
-539.208	27.033	0.073	0.063
-538.193	800.000	-0.025	-0.104
-537.179	223.979	0.095	-0.157
-536.164	71.116	0.166	0.176
-535.150	119.893	-0.089	-0.112
-534.135	-74.820	0.318	0.116
-533.121	-200.000	0.008	0.140
-532.106	-184.193	-0.086	0.001
-531.091	-77.287	-0.348	-0.123
-530.077	267.016	0.153	-0.272
-529.062	104.546	-0.037	0.044
-528.048	-177.223	0.198	0.005
-527.033	800.000	-0.101	-0.289
-526.018	800.000	-0.044	-0.182
-525.004	-10.528	-0.124	0.084
-523.989	7.333	0.206	-0.156
-522.975	102.143	0.102	-0.121
-521.960	-84.915	-0.212	0.068
-520.945	-200.000	-0.024	0.308
-519.931	-42.186	0.206	0.107
-518.916	-45.699	0.284	0.143
-517.902	-200.000	0.047	0.227
-516.887	403.443	0.164	-0.351
-515.872	235.106	0.159	-0.268
-514.858	-18.567	0.056	-0.035
-513.843	-200.000	0.087	0.392
-512.829	-32.270	-0.135	-0.077
-511.814	-200.000	0.003	0.274
-510.799	253.504	0.080	-0.138
-509.785	0.853	-0.276	-0.201
-508.770	104.392	0.100	0.120
-507.756	21.636	-0.242	0.200
-506.741	-200.000	0.003	0.472
-505.726	-200.000	-0.023	0.334
-504.712	-115.021	-0.044	0.009
-503.697	-73.549	-0.326	0.121
-502.683	-34.427	0.128	-0.071
-501.668	-137.515	-0.133	-0.015
-500.653	-73.604	0.172	-0.064
-499.639	-132.061	0.307	0.041
-498.624	92.660	0.114	0.131
-497.610	436.319	-0.127	-0.282
-496.595	167.719	0.152	-0.220
-495.581	-170.624	-0.228	-0.008
-494.566	137.148	0.042	-0.056
-493.551	305.101	0.093	0.176
-492.537	645.729	0.034	0.089
-491.522	-200.000	0.041	-0.218
-490.508	-15.911	0.225	-0.146
-489.493	64.714	-0.226	0.232
-488.478	-68.875	-0.347	-0.136
-487.464	-115.971	0.150	0.028
-486.449	-140.667	0.268	-0.028
-485.435	-119.510	0.305	0.054
-484.420	-118.607	0.266	0.048
-483.405	19.672	0.184	0.150
-482.391	17.495	-0.064	-0.052
-481.376	-200.000	-0.074	0.345
-480.362	-30.723	0.281	0.162
-479.347	570.495	-0.053	-0.131
-478.332	-24.725	-0.309	0.187
-477.318	-200.000	-0.039	-0.193
-476.303	131.474	-0.158	-0.207
-475.289	7.422	0.134	-0.102
-474.274	800.000	-0.104	-0.368
-473.259	800.000	0.018	-0.053
-472.245	-141.899	-0.160	0.016
-471.230	800.000	-0.089	0.275
-470.216	-116.261	-0.190	0.036
-469.201	330.771	0.024	0.047
-468.186	-49.714	-0.401	-0.194
-467.172	-200.000	0.029	-0.241
-466.157	13.973	0.130	0.103
-465.143	-200.000	-0.024	-0.148
-464.128	213.246	0.228	0.365
-463.113	107.546	-0.153	-0.185
-462.099	147.081	-0.261	-0.357
-461.084	679.771	0.095	0.251
-460.070	754.489	0.048	-0.131
-459.055	-104.516	-0.050	0.012
-458.040	-124.917	-0.156	-0.024
-457.026	-38.182	0.246	0.132
-456.011	482.519	0.107	0.248
-454.997	91.587	-0.183	0.209
-453.982	-46.986	0.506	0.251
-452.968	-61.284	-0.210	-0.090
-451.953	-157.484	0.086	-0.005
-450.938	-102.509	0.246	-0.060
-449.924	-58.963	-0.531	0.233
-448.909	-155.254	-0.332	0.022
-447.895	-200.000	-0.005	0.257
-446.880	-200.000	0.031	0.146
-445.865	-59.405	-0.178	0.078
-444.851	14.055	0.256	-0.202
-443.836	-98.376	0.096	-0.025
-442.822	-200.000	-0.012	0.181
-441.807	-200.000	-0.009	0.128
-440.792	53.359	-0.105	0.102
-439.778	-0.789	-0.054	0.039
-438.763	-113.931	-0.110	0.022
-437.749	-91.599	-0.343	0.099
-436.734	-200.000	-0.012	0.156
-435.719	800.000	-0.122	-0.347
-434.705	-200.000	-0.024	0.155
-433.690	116.160	0.120	-0.150
-432.676	-78.552	-0.268	-0.093
-431.661	88.869	-0.015	0.017
-430.646	539.352	-0.065	0.158
-429.632	63.894	0.133	-0.136
-428.617	-10.226	0.006	0.004
-427.603	83.750	0.176	0.195
-426.588	49.657	0.069	0.066
-425.573	18.907	-0.237	-0.193
-424.559	-200.000	-0.016	-0.176
-423.544	-140.764	0.103	0.011
-422.530	800.000	-0.035	0.108
-421.515	-200.000	0.011	0.076
-420.500	-48.262	-0.297	-0.145
-419.486	19.286	-0.129	-0.105
-418.471	-151.242	0.315	0.024
-417.457	-102.757	0.331	-0.080
-416.442	-82.965	0.183	0.060
-415.428	38.560	0.118	-0.107
-414.413	-93.522	0.226	-0.063
-413.398	-136.928	0.412	-0.048
-412.384	-14.831	-0.330	-0.215
-411.369	-141.835	0.218	-0.022
-410.355	800.000	-0.040	0.155
-409.340	-200.000	0.061	-0.284
-408.325	-55.124	-0.242	0.110
-407.311	-200.000	-0.060	0.303
-406.296	-200.000	0.009	-0.262
-405.282	205.212	-0.130	-0.204
-404.267	69.266	0.089	-0.093
-403.252	60.252	-0.079	-0.079
-402.238	114.515	-0.081	0.100
-401.223	434.782	-0.164	-0.360
-400.209	-200.000	-0.015	0.388
-399.194	-82.879	0.477	-0.156
-398.179	-59.596	-0.124	-0.054
-397.165	-99.180	-0.098	-0.025
-396.150	-200.000	-0.021	0.229
-395.136	-130.998	0.189	0.026
-394.121	156.465	0.109	0.153
-393.106	-92.665	-0.051	-0.014
-392.092	-72.114	0.244	0.092
-391.077	28.110	0.190	0.163
-390.063	93.523	0.183	-0.210
-389.048	55.034	-0.100	0.098
-388.033	-30.584	-0.229	-0.132
-387.019	-200.000	-0.018	-0.248
-386.004	350.631	-0.029	-0.058
-384.990	-95.253	-0.084	-0.023
-383.975	-115.517	-0.240	0.046
-382.960	42.929	-0.082	0.076
-381.946	608.681	0.020	-0.052
-380.931	-16.500	0.401	-0.257
-379.917	47.421	-0.039	-0.036
-378.902	800.000	0.058	-0.215
-377.888	-68.189	-0.168	-0.066
-376.873	800.000	0.065	-0.217
-375.858	387.950	-0.130	0.273
-374.844	175.458	-0.129	0.189
-373.829	121.131	-0.204	-0.257
-372.815	-200.000	-0.007	-0.247
-371.800	-60.008	-0.369	-0.160
-370.785	-109.680	-0.331	0.071
-369.771	62.385	0.087	0.088
-368.756	-13.040	-0.108	0.071
-367.742	170.602	-0.044	0.064
-366.727	-200.000	0.025	-0.123
-365.712	263.780	0.153	-0.270
-364.698	69.357	-0.109	0.114
-363.683	-33.485	-0.202	-0.113
-362.669	-24.801	-0.173	0.104
-361.654	356.526	-0.120	-0.243
-360.639	-200.000	0.030	0.284
-359.625	-173.964	-0.130	-0.004
-358.610	-119.666	-0.290	-0.051
-357.596	383.772	-0.131	-0.273
-356.581	120.042	-0.114	-0.143
-355.566	132.414	0.091	-0.118
-354.552	-200.000	-0.011	-0.085
-353.537	556.876	0.091	0.221
-352.523	4.807	-0.132	-0.098
-351.508	-107.786	0.414	0.091
-350.493	16.703	-0.167	0.133
-349.479	800.000	0.116	-0.346
-348.464	293.260	-0.116	0.214
-347.450	-200.000	-0.004	0.029
-346.435	-200.000	-0.012	0.231
-345.420	160.796	0.044	0.063
-344.406	-200.000	0.009	0.119
-343.391	-10.133	-0.154	-0.103
-342.377	82.389	-0.355	0.390
-341.362	74.356	0.205	-0.218
-340.348	41.431	0.080	-0.073
-339.333	304.617	0.113	-0.212
-338.318	174.487	-0.156	-0.228
-337.304	300.752	-0.090	0.167
-336.289	-130.045	0.149	-0.021
-335.275	121.310	-0.166	-0.209
-334.260	205.687	-0.146	0.230
-333.245	195.414	-0.252	-0.388
-332.231	-200.000	-0.015	0.292
-331.216	-109.375	0.124	0.027
-330.202	-146.382	-0.271	-0.024
-329.187	-70.249	-0.365	-0.140
-328.172	55.044	0.183	-0.179
-327.158	-174.427	0.256	-0.007
-326.143	488.194	-0.006	0.013
-325.129	662.118	-0.057	-0.148
-324.114	-122.434	0.198	0.033
-323.099	800.000	-0.091	-0.289
-322.085	103.446	-0.092	-0.109
-321.070	-200.000	0.004	-0.208
-320.056	192.839	-0.148	-0.226
-319.041	249.090	0.065	-0.112
-318.026	800.000	-0.032	-0.128
-317.012	114.978	0.150	-0.185
-315.997	247.821	-0.053	0.091
-314.983	-189.492	0.103	-0.001
-313.968	451.106	0.032	-0.072
-312.953	-132.325	0.201	0.026
-311.939	146.003	0.198	0.269
-310.924	623.084	0.175	0.445
-309.910	135.562	-0.104	0.137
-308.895	164.388	-0.215	0.307
-307.880	-104.286	-0.432	-0.101
-306.866	800.000	0.021	-0.076
-305.851	-200.000	-0.021	0.208
-304.837	-189.199	0.101	-0.001
-303.822	800.000	-0.061	-0.257
-302.807	800.000	0.064	-0.228
-301.793	478.511	-0.101	0.231
-300.778	800.000	-0.073	0.257
-299.764	-45.979	0.149	0.074
-298.749	15.854	-0.105	0.083
-297.735	61.565	-0.344	0.346
-296.720	-200.000	-0.019	-0.221
-295.705	-114.472	-0.141	0.027
-294.691	-46.334	0.293	-0.146
-293.676	-200.000	-0.034	0.192
-292.662	-65.361	0.065	-0.026
-291.647	484.488	0.041	0.094
-290.632	120.195	-0.178	-0.223
-289.618	-149.081	-0.241	0.020
-288.603	-68.365	-0.432	-0.169
-287.589	-121.196	-0.154	-0.026
-286.574	-102.167	0.065	-0.016
-285.559	-62.367	-0.180	-0.076
-284.545	-6.005	0.381	-0.263
-283.530	639.581	0.092	0.235
-282.516	489.741	0.089	-0.205
-281.501	-200.000	-0.054	-0.333
-280.486	203.162	-0.092	-0.143
-279.472	125.476	0.089	-0.113
-278.457	662.123	0.108	-0.281
-277.443	3.860	0.182	-0.134
-276.428	-98.915	0.235	-0.060
-275.413	62.787	-0.009	-0.009
-274.399	-92.805	0.193	-0.054
-273.384	-179.648	-0.192	-0.004
-272.370	-200.000	-0.019	0.313
-271.355	51.735	0.124	-0.119
-270.340	40.001	-0.158	0.143
-269.326	800.000	-0.054	0.153
-268.311	-200.000	-0.011	-0.127
-267.297	69.598	0.172	-0.179
-266.282	46.755	-0.371	0.348
-265.267	289.075	-0.011	0.021
-264.253	-79.219	-0.181	0.062
-263.238	201.746	0.091	0.142
-262.224	-107.825	-0.262	-0.057
-261.209	-24.788	0.087	0.052
-260.195	414.424	0.141	0.302
-259.180	50.930	-0.184	0.176
-258.165	-92.538	0.101	-0.029
-257.151	154.489	-0.068	0.093
-256.136	800.000	0.066	0.215
-255.122	800.000	-0.063	-0.257
-254.107	575.371	-0.040	-0.100
-253.092	-141.961	-0.088	0.009
-252.078	-200.000	-0.022	0.108
-251.063	-200.000	0.036	0.191
-250.049	-200.000	0.073	-0.362
-249.034	-58.240	0.275	0.121
-248.019	19.226	0.281	0.227
-247.005	-200.000	-0.029	0.146
-245.990	800.000	-0.124	0.360
-244.976	-200.000	0.042	0.309
-243.961	-93.307	0.301	0.084
-242.946	-200.000	0.010	0.212
-241.932	566.106	0.130	0.318
-240.917	-42.079	0.313	-0.162
-239.903	103.242	-0.070	-0.083
-238.888	318.594	-0.154	0.294
-237.873	-200.000	0.003	0.166
-236.859	-108.060	0.234	-0.051
-235.844	-97.320	-0.148	-0.039
-234.830	-113.862	0.442	-0.087
-233.815	-200.000	0.025	0.200
-232.800	63.927	-0.160	-0.162
-231.786	131.696	0.048	0.062
-230.771	-200.000	0.060	-0.299
-229.757	-165.755	0.143	0.006
-228.742	-200.000	-0.014	0.251
-227.727	-200.000	-0.005	0.263
-226.713	-118.827	-0.269	-0.048
-225.698	-200.000	0.048	-0.521
-224.684	-200.000	-0.015	-0.102
-223.669	-33.554	0.118	0.066
-222.655	356.451	-0.044	-0.089
-221.640	-121.388	-0.223	-0.037
-220.625	-200.000	-0.001	0.010
-219.611	360.162	0.122	0.246
-218.596	23.022	0.440	-0.363
-217.582	324.029	0.105	-0.201
-216.567	149.988	0.098	0.134
-215.552	19.362	0.179	0.145
-214.538	740.856	0.035	-0.094
-213.523	190.798	-0.096	-0.145
-212.509	-125.788	-0.207	-0.032
-211.494	28.291	-0.166	-0.141
-210.479	-115.253	0.345	-0.066
-209.465	-77.046	0.268	-0.094
-208.450	2.583	0.358	-0.261
-207.436	-148.292	-0.169	-0.014
-206.421	-3.186	-0.266	-0.187
-205.406	83.782	-0.179	0.197
-204.392	-86.440	-0.164	-0.051
-203.377	-200.000	0.006	0.103
-202.363	-25.510	0.169	0.101
-201.348	-198.541	-0.256	0.001
-200.333	-110.636	0.192	0.040
-199.319	-51.586	-0.435	-0.204
-198.304	800.000	-0.077	-0.230
-197.290	-30.092	-0.318	0.182
-196.275	-200.000	-0.015	0.102
-195.260	257.249	0.198	0.343
-194.246	-55.991	-0.202	0.091
-193.231	800.000	0.102	-0.291
-192.217	127.609	-0.106	-0.136
-191.202	212.023	0.174	0.275
-190.187	94.972	0.158	-0.181
-189.173	46.177	-0.150	-0.140
-188.158	159.934	0.093	-0.131
-187.144	630.292	-0.085	-0.216
-186.129	800.000	0.050	-0.195
-185.114	171.397	-0.055	0.079
-184.100	-200.000	-0.021	0.178
-183.085	-67.232	-0.293	-0.116
-182.071	-123.857	-0.158	-0.025
-181.056	-34.914	0.217	-0.119
-180.042	-90.947	0.170	-0.049
-179.027	-65.388	-0.126	0.051
-178.012	145.241	-0.137	0.184
-176.998	-200.000	-0.061	0.272
-175.983	-60.944	-0.281	0.119
-174.969	-109.906	0.313	0.066
-173.954	-200.000	-0.023	0.105
-172.939	315.080	-0.137	0.259
-171.925	800.000	0.129	0.370
-170.910	-200.000	0.032	0.144
-169.896	-89.615	0.297	0.088
-168.881	215.862	0.087	0.138
-167.866	-200.000	0.027	0.189
-166.852	-36.304	-0.087	-0.047
-165.837	-167.800	0.223	0.009
-164.823	492.498	-0.024	-0.056
-163.808	-52.354	0.096	0.044
-162.793	-159.222	-0.261	-0.015
-161.779	800.000	0.056	0.229
-160.764	-200.000	-0.007	0.106
-159.750	-200.000	0.017	-0.088
-158.735	189.299	-0.096	-0.144
-157.720	-200.000	0.020	-0.149
-156.706	-39.837	-0.193	0.101
-155.691	-98.503	0.183	0.047
-154.677	-103.263	0.213	0.050
-153.662	219.427	-0.128	-0.205
-152.647	-124.467	-0.028	-0.004
-151.633	4.097	-0.280	0.206
-150.618	208.901	0.042	-0.066
-149.604	-44.637	0.079	-0.040
-148.589	623.275	0.085	-0.214
-147.574	167.858	0.077	-0.110
-146.560	800.000	-0.065	-0.191
-145.545	-200.000	-0.038	-0.177
-144.531	800.000	-0.053	0.182
-143.516	-200.000	-0.013	0.208
-142.502	-200.000	0.022	-0.165
-141.487	-58.576	0.046	0.020
-140.472	-200.000	0.010	0.118
-139.458	-200.000	0.013	-0.108
-138.443	-38.140	0.110	-0.059
-137.429	800.000	-0.066	-0.240
-136.414	-23.786	0.288	-0.173
-135.399	-22.540	0.108	-0.066
-134.385	-200.000	0.061	0.387
-133.370	800.000	-0.041	0.159
-132.356	800.000	0.110	0.343
-131.341	585.551	0.101	0.249
-130.326	596.204	-0.036	0.090
-129.312	-49.202	0.153	-0.073
-128.297	-9.999	0.232	-0.155
-127.283	33.090	-0.090	0.078
-126.268	-116.860	-0.229	-0.042
-125.253	184.290	-0.143	0.212
-124.239	42.235	-0.180	0.164
-123.224	348.682	-0.078	-0.154
-122.210	-142.315	-0.371	0.037
-121.195	-80.096	0.203	0.068
