DTS Sentinel unit serial number:	SN413079Multiplexer serial number:	ORYXHardware model number:	OX4-SRSoftware version number:	ORYX F/W v4.00 Oryx Data Collector v3.7.2.0data status	okinstallation	princeton_trtdifferential loss correction	single-endedforward channel	channel 2reverse channel	N/Adate	2019/09/14time	20:07:35forward acquisition time	60.00reverse acquisition time	0.00gamma	496.2192k internal	0.2321k external	0.2321temperature offset calibration	1.0096default loss term (dB/km)	0.3790temperature slope calibration	1.0000multiplexer offset coefficient	1.0000multiplexer slope coefficient	1.0000fibre end	0.00T internal ref (°C)	33.94T ext. ref 1 (°C)	4.87T ext. ref 2 (°C)	28.31length (m)	temperature (°C)	Stokes	anti-Stokes-747.200	167.931	0.092	-0.132
-746.185	472.300	-0.152	0.347
-745.171	-159.073	-0.085	0.005
-744.156	-200.000	0.050	0.405
-743.142	-75.665	-0.205	0.074
-742.127	-84.103	0.120	-0.039
-741.112	67.413	-0.175	-0.181
-740.098	691.660	-0.166	0.439
-739.083	-119.619	-0.371	-0.065
-738.069	-200.000	-0.035	-0.197
-737.054	29.111	-0.146	-0.125
-736.039	160.593	-0.041	-0.058
-735.025	113.398	0.130	0.159
-734.010	278.996	-0.144	0.259
-732.996	-140.731	0.140	0.015
-731.981	-24.250	0.120	0.072
-730.966	23.117	-0.181	0.150
-729.952	129.759	0.156	-0.202
-728.937	435.255	0.141	0.311
-727.923	339.652	-0.061	-0.120
-726.908	-45.832	-0.240	-0.120
-725.894	410.198	-0.101	-0.215
-724.879	-45.419	0.393	-0.197
-723.864	-23.306	-0.072	-0.044
-722.850	152.757	-0.083	0.115
-721.835	189.065	0.147	0.222
-720.821	536.763	0.059	-0.142
-719.806	-200.000	-0.027	-0.124
-718.791	242.592	0.105	-0.177
-717.777	-200.000	0.039	-0.187
-716.762	-26.343	-0.199	0.118
-715.748	-155.354	0.308	0.020
-714.733	-62.468	-0.277	0.116
-713.718	204.082	0.028	-0.044
-712.704	732.517	0.025	0.067
-711.689	724.145	-0.089	0.239
-710.675	332.654	-0.139	-0.271
-709.660	114.316	0.111	-0.136
-708.645	-200.000	-0.030	0.166
-707.631	-164.025	0.078	0.004
-706.616	-73.624	0.338	0.124
-705.602	-135.959	0.275	-0.033
-704.587	-200.000	0.028	0.211
-703.572	-126.951	-0.262	0.039
-702.558	-86.343	-0.424	0.132
-701.543	-200.000	-0.009	0.072
-700.529	80.786	-0.185	0.201
-699.514	41.343	-0.213	0.194
-698.499	35.823	0.178	-0.158
-697.485	63.582	0.174	-0.177
-696.470	102.441	-0.216	-0.255
-695.456	800.000	0.053	0.228
-694.441	-67.004	-0.178	-0.071
-693.426	232.442	0.098	0.162
-692.412	-15.637	0.248	0.160
-691.397	642.145	0.019	0.048
-690.383	-38.564	-0.194	0.104
-689.368	199.805	0.173	0.268
-688.354	800.000	-0.069	0.241
-687.339	257.627	0.141	-0.244
-686.324	123.328	-0.162	-0.205
-685.310	80.930	0.131	0.142
-684.295	-147.026	-0.237	0.020
-683.281	-200.000	0.028	-0.205
-682.266	-24.059	0.193	0.117
-681.251	106.370	-0.084	0.100
-680.237	298.777	0.131	-0.244
-679.222	-119.998	0.450	-0.078
-678.208	-153.744	-0.328	0.023
-677.193	-1.049	0.304	-0.217
-676.178	295.234	-0.047	0.087
-675.164	203.852	-0.061	-0.095
-674.149	-54.673	-0.179	0.081
-673.135	342.039	-0.068	0.134
-672.120	-16.877	0.267	0.170
-671.105	246.699	-0.171	-0.291
-670.091	-144.370	-0.367	0.034
-669.076	-36.041	0.115	0.063
-668.062	-200.000	0.070	-0.344
-667.047	728.792	-0.128	0.344
-666.032	-7.477	-0.288	-0.196
-665.018	143.923	-0.103	-0.138
-664.003	-9.990	0.332	0.222
-662.989	-153.570	-0.122	-0.009
-661.974	137.910	0.056	0.074
-660.959	-188.362	-0.079	0.001
-659.945	183.081	0.155	0.231
-658.930	-72.582	-0.071	0.026
-657.916	-4.756	-0.039	0.027
-656.901	29.334	-0.153	0.131
-655.886	-138.058	-0.269	-0.030
-654.872	-95.124	-0.155	-0.042
-653.857	362.506	-0.181	0.365
-652.843	-200.000	-0.011	0.145
-651.828	329.840	-0.011	-0.022
-650.814	80.037	0.072	-0.078
-649.799	68.797	0.183	0.189
-648.784	1.784	0.064	0.047
-647.770	32.299	0.257	0.223
-646.755	526.501	-0.017	0.040
-645.741	-5.279	-0.108	0.075
-644.726	524.205	0.121	-0.287
-643.711	195.009	0.141	-0.216
-642.697	-38.891	0.434	0.230
-641.682	38.611	0.172	0.155
-640.668	621.522	-0.058	0.147
-639.653	800.000	-0.067	-0.206
-638.638	-175.984	0.319	-0.009
-637.624	86.450	-0.165	0.183
-636.609	-200.000	-0.016	-0.125
-635.595	139.387	-0.110	-0.146
-634.580	-11.849	0.190	-0.126
-633.565	800.000	-0.101	-0.293
-632.551	248.093	-0.060	0.102
-631.536	67.818	-0.263	-0.270
-630.522	-200.000	0.040	-0.183
-629.507	-97.289	-0.099	-0.026
-628.492	-72.410	-0.143	-0.053
-627.478	53.602	-0.245	-0.237
-626.463	-200.000	0.031	-0.171
-625.449	800.000	0.102	-0.291
-624.434	-68.531	0.381	-0.149
-623.419	522.850	0.179	0.424
-622.405	51.901	-0.115	-0.110
-621.390	193.945	-0.093	-0.141
-620.376	-160.011	-0.155	-0.009
-619.361	106.808	-0.251	-0.300
-618.346	-73.796	-0.133	-0.049
-617.332	-74.168	-0.281	0.102
-616.317	-99.645	-0.323	0.082
-615.303	52.810	0.320	-0.308
-614.288	146.998	-0.096	0.130
-613.273	800.000	-0.115	-0.425
-612.259	-200.000	0.010	-0.358
-611.244	-200.000	-0.164	0.000
-610.230	136.086	-0.243	-0.318
-609.215	-57.636	0.191	-0.084
-608.201	-179.781	-0.114	0.002
-607.186	-47.274	0.112	0.055
-606.171	100.474	0.023	-0.027
-605.157	763.311	0.056	-0.152
-604.142	800.000	0.066	0.199
-603.128	166.299	-0.049	-0.070
-602.113	-162.498	-0.270	-0.013
-601.098	-88.080	0.196	-0.059
-600.084	-73.047	0.259	0.095
-599.069	66.518	0.188	0.192
-598.055	190.854	0.059	-0.089
-597.040	-200.000	-0.030	0.399
-596.025	-18.457	0.324	-0.203
-595.011	328.805	0.113	0.217
-593.996	-160.867	-0.351	-0.019
-592.982	274.636	-0.156	0.278
-591.967	800.000	-0.062	0.223
-590.952	397.230	-0.091	0.192
-589.938	-98.872	0.055	-0.014
-588.923	-200.000	-0.041	-0.363
-587.909	800.000	0.073	0.292
-586.894	-66.480	0.459	0.183
-585.879	418.338	0.058	-0.125
-584.865	-56.094	0.194	0.087
-583.850	-112.524	0.165	0.033
-582.836	800.000	0.053	-0.186
-581.821	800.000	-0.016	-0.052
-580.806	-81.690	0.189	-0.062
-579.792	-200.000	-0.021	0.204
-578.777	-64.866	-0.180	-0.073
-577.763	-33.855	0.153	-0.084
-576.748	190.800	0.107	-0.161
-575.733	-91.057	0.330	-0.095
-574.719	250.796	0.152	-0.259
-573.704	800.000	-0.048	-0.175
-572.690	103.958	-0.240	-0.283
-571.675	-47.277	-0.206	0.100
-570.661	800.000	0.087	0.304
-569.646	-8.475	0.176	0.119
-568.631	-17.001	0.092	0.058
-567.617	-37.775	-0.207	-0.111
-566.602	14.283	0.339	-0.265
-565.588	-122.194	0.221	0.036
-564.573	430.653	0.074	-0.161
-563.558	35.557	-0.072	0.063
-562.544	67.739	0.151	-0.155
-561.529	-200.000	0.016	-0.125
-560.515	-95.484	0.144	0.039
-559.500	139.735	-0.005	0.007
-558.485	306.256	-0.185	-0.345
-557.471	-200.000	-0.004	-0.243
-556.456	-127.618	0.063	0.009
-555.442	-81.316	0.187	0.062
-554.427	133.516	-0.096	-0.125
-553.412	43.258	-0.078	0.072
-552.398	800.000	0.061	0.204
-551.383	75.253	0.174	-0.184
-550.369	749.490	-0.157	0.424
-549.354	-44.966	0.274	-0.137
-548.339	-124.298	0.403	0.063
-547.325	800.000	-0.054	0.212
-546.310	-189.792	0.127	0.001
-545.296	-174.522	0.019	0.001
-544.281	-165.121	0.049	0.002
-543.266	72.921	0.130	0.136
-542.252	67.532	-0.146	0.150
-541.237	-111.254	-0.408	0.084
-540.223	800.000	-0.049	0.166
-539.208	768.805	-0.091	-0.249
-538.193	337.958	0.189	-0.369
-537.179	-24.298	-0.278	-0.166
-536.164	235.876	0.179	-0.297
-535.150	-130.901	-0.198	-0.027
-534.135	207.235	0.098	0.154
-533.121	-121.239	-0.223	-0.037
-532.106	-124.812	-0.382	0.059
-531.091	-45.443	0.164	0.081
-530.077	172.064	0.090	-0.130
-529.062	-27.257	-0.378	0.221
-528.048	-200.000	0.020	0.344
-527.033	-181.676	-0.079	-0.002
-526.018	-111.503	-0.211	0.043
-525.004	800.000	-0.032	0.090
-523.989	-79.802	0.079	0.027
-522.975	-38.763	-0.139	0.073
-521.960	401.418	0.012	-0.025
-520.945	-200.000	-0.006	-0.039
-519.931	-188.278	-0.091	0.001
-518.916	0.183	-0.174	-0.124
-517.902	-106.217	-0.378	0.085
-516.887	-184.452	-0.176	-0.003
-515.872	19.564	-0.170	-0.137
-514.858	700.145	-0.034	0.089
-513.843	360.287	0.142	-0.285
-512.829	202.897	-0.068	-0.106
-511.814	-173.863	0.134	0.004
-510.799	-200.000	-0.012	0.189
-509.785	411.866	0.065	-0.137
-508.770	-200.000	0.010	-0.335
-507.756	-156.233	0.285	0.018
-506.741	-200.000	-0.001	0.151
-505.726	222.741	0.147	0.237
-504.712	-200.000	-0.012	-0.139
-503.697	-200.000	-0.003	-0.069
-502.683	4.972	0.120	0.089
-501.668	800.000	0.094	0.271
-500.653	-51.627	-0.113	-0.053
-499.639	302.694	-0.096	-0.178
-498.624	-200.000	0.005	0.034
-497.610	397.988	-0.080	0.167
-496.595	-164.068	-0.069	0.003
-495.581	-103.110	-0.128	0.030
-494.566	386.774	0.097	0.201
-493.551	57.196	-0.059	0.057
-492.537	125.938	0.142	-0.180
-491.522	-129.064	-0.120	0.017
-490.508	-44.811	-0.126	0.063
-489.493	57.151	-0.199	-0.194
-488.478	169.783	0.155	0.221
-487.464	-129.496	0.368	0.051
-486.449	101.808	-0.164	-0.191
-485.435	-140.361	-0.155	0.016
-484.420	800.000	0.079	0.308
-483.405	-44.798	-0.119	0.060
-482.391	99.891	-0.194	0.225
-481.376	177.702	-0.092	0.134
-480.362	-174.561	0.163	-0.005
-479.347	-60.569	-0.234	0.099
-478.332	-96.009	0.277	-0.074
-477.318	-98.043	-0.202	-0.052
-476.303	12.446	0.202	-0.156
-475.289	-20.845	0.090	-0.055
-474.274	-12.020	-0.178	0.116
-473.259	-200.000	-0.023	0.170
-472.245	-96.812	0.282	-0.074
-471.230	224.128	0.148	0.239
-470.216	22.342	0.132	0.108
-469.201	-123.664	-0.123	0.019
-468.186	560.898	-0.046	-0.112
-467.172	496.524	0.119	-0.274
-466.157	800.000	0.081	0.314
-465.143	7.210	0.031	-0.023
-464.128	286.649	0.037	-0.068
-463.113	-120.117	-0.141	-0.024
-462.099	-171.187	-0.118	0.004
-461.084	267.565	-0.009	-0.015
-460.070	49.930	0.082	0.077
-459.055	-200.000	0.041	0.230
-458.040	152.518	0.244	-0.333
-457.026	800.000	0.028	-0.122
-456.011	-80.624	-0.141	0.047
-454.997	89.651	0.116	-0.130
-453.982	-0.685	-0.244	0.173
-452.968	-114.804	-0.137	-0.026
-451.953	-143.602	-0.164	0.016
-450.938	800.000	0.054	0.211
-449.924	-39.534	-0.065	0.034
-448.909	283.131	-0.116	-0.208
-447.895	252.842	0.080	-0.136
-446.880	-36.369	0.084	0.045
-445.865	-21.126	0.104	0.063
-444.851	-87.255	-0.029	0.009
-443.836	800.000	0.109	-0.334
-442.822	800.000	0.094	0.269
-441.807	-200.000	-0.011	0.242
-440.792	290.816	-0.070	-0.127
-439.778	287.552	0.254	-0.459
-438.763	-51.359	0.216	0.101
-437.749	190.745	-0.039	0.059
-436.734	800.000	-0.057	-0.244
-435.719	-200.000	0.100	0.465
-434.705	-53.766	0.048	0.022
-433.690	-59.200	0.018	0.008
-432.676	-153.808	-0.300	-0.021
-431.661	62.730	0.096	-0.096
-430.646	181.912	0.162	-0.238
-429.632	-149.154	-0.326	0.026
-428.617	-103.903	0.468	-0.109
-427.603	135.853	0.043	0.056
-426.588	-12.396	-0.167	-0.109
-425.573	8.924	-0.164	0.124
-424.559	-98.129	0.066	0.017
-423.544	-20.269	-0.242	0.149
-422.530	-164.764	0.153	-0.007
-421.515	800.000	0.057	-0.201
-420.500	194.330	-0.083	0.125
-419.486	-55.300	0.475	0.213
-418.471	11.281	-0.140	-0.107
-417.457	-36.763	-0.113	0.060
-416.442	37.401	0.069	0.061
-415.428	800.000	0.090	0.257
-414.413	110.074	0.112	0.134
-413.398	800.000	-0.028	0.103
-412.384	390.703	0.096	0.200
-411.369	259.639	-0.076	-0.130
-410.355	254.717	0.076	0.130
-409.340	-14.620	0.176	0.113
-408.325	-200.000	-0.061	-0.360
-407.311	-200.000	0.019	0.215
-406.296	-131.519	0.430	0.057
-405.282	-14.169	-0.237	0.152
-404.267	800.000	0.065	-0.240
-403.252	11.153	-0.161	0.122
-402.238	-35.012	0.460	0.250
-401.223	-66.265	-0.405	0.161
-400.209	-13.302	0.144	-0.093
-399.194	-200.000	0.000	0.032
-398.179	800.000	-0.084	0.246
-397.165	-84.422	-0.201	0.063
-396.150	20.544	0.193	0.156
-395.136	123.326	-0.273	-0.341
-394.121	443.525	0.082	-0.178
-393.106	800.000	-0.029	-0.116
-392.092	70.936	-0.119	-0.122
-391.077	-44.696	-0.346	0.172
-390.063	-72.703	0.383	0.141
-389.048	-200.000	0.013	-0.105
-388.033	568.921	-0.059	-0.144
-387.019	547.575	0.144	0.344
-386.004	-37.433	-0.175	0.093
-384.990	-114.217	0.168	-0.032
-383.975	-43.120	-0.372	-0.188
-382.960	-86.532	-0.189	-0.058
-381.946	-60.443	-0.094	0.040
-380.931	-81.282	0.088	0.029
-379.917	-67.975	0.121	0.047
-378.902	-86.560	-0.089	0.027
-377.888	800.000	-0.059	0.163
-376.873	339.914	-0.122	-0.237
-375.858	172.702	-0.157	-0.226
-374.844	315.810	-0.082	0.154
-373.829	800.000	-0.008	0.023
-372.815	22.193	0.052	-0.043
-371.800	-200.000	0.011	-0.222
-370.785	20.142	0.112	-0.090
-369.771	-58.555	-0.129	0.056
-368.756	36.794	0.177	-0.156
-367.742	-63.468	0.280	0.115
-366.727	-22.211	-0.137	0.083
-365.712	159.346	-0.131	-0.182
-364.698	-18.630	-0.166	0.103
-363.683	-200.000	0.009	0.201
-362.669	125.323	-0.089	0.111
-361.654	228.983	-0.076	0.123
-360.639	-139.116	-0.278	0.030
-359.625	-179.097	-0.205	0.005
-358.610	-58.436	0.349	-0.151
-357.596	-15.291	-0.448	-0.286
-356.581	-200.000	0.000	-0.087
-355.566	199.451	0.057	0.087
-354.552	-200.000	0.010	-0.047
-353.537	65.005	-0.327	-0.329
-352.523	-51.123	-0.287	0.134
-351.508	800.000	-0.097	0.397
-350.493	-72.094	-0.125	-0.046
-349.479	-110.353	-0.360	-0.074
-348.464	29.319	0.091	-0.077
-347.450	-22.554	-0.171	0.103
-346.435	-200.000	-0.003	-0.062
-345.420	-158.005	0.409	-0.024
-344.406	-80.856	-0.240	-0.079
-343.391	-200.000	0.048	0.322
-342.377	37.291	0.128	-0.113
-341.362	317.995	0.075	-0.141
-340.348	-169.095	0.304	0.011
-339.333	-200.000	0.041	-0.215
-338.318	-35.331	0.152	0.082
-337.304	-200.000	-0.049	0.360
-336.289	-200.000	0.021	-0.490
-335.275	617.802	-0.076	-0.191
-334.260	-113.183	-0.364	-0.071
-333.245	-200.000	-0.029	0.203
-332.231	347.894	0.062	0.122
-331.216	-47.872	-0.249	-0.120
-330.202	-2.757	0.192	0.133
-329.187	159.698	0.086	-0.119
-328.172	800.000	-0.033	-0.110
-327.158	47.865	0.139	-0.129
-326.143	-137.161	0.395	0.045
-325.129	-67.529	-0.123	0.048
-324.114	94.357	0.190	-0.214
-323.099	-2.983	0.200	0.139
-322.085	144.498	0.126	-0.167
-321.070	106.213	-0.026	0.030
-320.056	800.000	-0.013	-0.040
-319.041	-107.408	-0.186	0.041
-318.026	-37.605	0.177	-0.094
-317.012	224.568	-0.216	-0.348
-315.997	800.000	0.011	-0.036
-314.983	800.000	0.009	0.039
-313.968	-14.750	-0.099	-0.063
-312.953	38.054	-0.184	-0.163
-311.939	33.302	0.118	0.102
-310.924	17.548	0.203	0.160
-309.910	393.437	0.076	-0.157
-308.895	800.000	-0.003	-0.009
-307.880	-111.859	0.195	0.039
-306.866	-200.000	0.021	0.122
-305.851	-37.333	0.061	-0.032
-304.837	17.641	0.230	0.181
-303.822	30.722	-0.293	0.249
-302.807	197.852	0.158	0.240
-301.793	-200.000	-0.010	-0.131
-300.778	175.723	0.120	0.174
-299.764	29.603	0.085	-0.072
-298.749	-148.975	0.183	0.015
-297.735	-145.871	0.201	-0.018
-296.720	-142.883	-0.074	-0.007
-295.705	50.715	-0.060	0.057
-294.691	-200.000	-0.015	-0.120
-293.676	-149.238	0.024	0.002
-292.662	-95.391	0.114	-0.030
-291.647	197.912	0.152	-0.231
-290.632	-54.737	-0.112	0.050
-289.618	63.365	-0.129	-0.128
-288.603	-2.064	0.116	0.081
-287.589	-162.127	0.089	0.004
-286.574	-66.530	-0.266	0.105
-285.559	-141.013	0.058	0.006
-284.545	-34.374	0.188	-0.102
-283.530	23.464	-0.128	0.105
-282.516	613.453	0.044	0.109
-281.501	-194.335	0.198	0.002
-280.486	271.003	0.106	-0.186
-279.472	302.511	-0.090	0.166
-278.457	-75.979	-0.205	-0.072
-277.443	211.213	-0.068	0.106
-276.428	-24.011	-0.074	0.044
-275.413	-144.544	-0.148	-0.014
-274.399	10.719	-0.151	0.114
-273.384	42.998	-0.110	0.099
-272.370	-72.953	0.598	0.218
-271.355	87.197	-0.203	0.223
-270.340	17.577	-0.174	-0.137
-269.326	-138.258	0.172	-0.019
-268.311	-48.099	0.218	-0.104
-267.297	-160.493	-0.231	0.012
-266.282	-24.583	0.142	0.084
-265.267	162.051	-0.031	-0.043
-264.253	-41.255	0.171	0.087
-263.238	-58.976	-0.151	-0.065
-262.224	-200.000	0.066	-0.395
-261.209	574.778	-0.131	-0.317
-260.195	800.000	0.122	-0.418
-259.180	29.755	0.029	-0.024
-258.165	-61.591	-0.186	-0.077
-257.151	-122.515	0.272	0.044
-256.136	72.262	-0.107	0.110
-255.122	-22.837	-0.224	-0.134
-254.107	-113.513	-0.263	0.051
-253.092	-200.000	-0.005	0.236
-252.078	-169.228	0.187	-0.007
-251.063	-134.488	0.182	0.022
-250.049	-200.000	-0.038	0.189
-249.034	-200.000	-0.019	-0.102
-248.019	-3.064	0.191	0.132
-247.005	-136.124	0.355	0.041
-245.990	-101.981	-0.190	0.045
-244.976	-72.868	-0.333	0.121
-243.961	800.000	-0.048	0.197
-242.946	113.929	-0.121	0.146
-241.932	-38.101	0.256	0.135
-240.917	-77.162	-0.171	0.059
-239.903	800.000	-0.134	-0.369
-238.888	27.188	0.172	-0.143
-237.873	7.111	-0.283	0.209
-236.859	32.574	0.181	-0.155
-235.844	-173.393	-0.352	-0.011
-234.830	-64.804	0.335	-0.134
-233.815	-175.980	0.357	-0.009
-232.800	43.655	-0.222	-0.201
-231.786	219.646	0.113	0.180
-230.771	-140.458	0.018	-0.002
-229.757	-200.000	0.047	0.274
-228.742	800.000	0.082	-0.318
-227.727	-135.586	-0.236	0.028
-226.713	800.000	0.029	0.106
-225.698	436.372	-0.154	-0.331
-224.684	216.363	0.079	0.125
-223.669	112.286	-0.203	0.244
-222.655	765.996	0.081	0.219
-221.640	-35.171	-0.222	0.120
-220.625	-166.268	-0.290	0.012
-219.611	-4.697	-0.061	-0.042
-218.596	-70.339	-0.431	-0.162
-217.582	-148.230	0.237	-0.019
-216.567	-106.614	-0.246	0.054
-215.552	-102.008	0.250	-0.060
-214.538	21.125	0.141	-0.113
-213.523	-200.000	-0.016	-0.138
-212.509	-99.347	0.111	-0.028
-211.494	267.733	0.049	-0.085
-210.479	137.006	0.178	0.231
-209.465	-105.063	-0.165	-0.037
-208.450	472.724	0.058	-0.130
-207.436	800.000	-0.165	0.553
-206.421	21.480	0.108	0.087
-205.406	-25.954	-0.154	0.090
-204.392	-36.811	0.148	0.079
-203.377	-5.958	-0.465	0.315
-202.363	155.062	-0.144	0.196
-201.348	81.725	-0.249	-0.267
-200.333	102.178	-0.145	-0.168
-199.319	-40.977	0.190	0.097
-198.304	-200.000	-0.007	-0.034
-197.290	800.000	0.066	-0.204
-196.275	86.166	0.224	-0.244
-195.260	110.034	0.102	0.121
-194.246	111.427	0.082	0.098
-193.231	-13.137	-0.232	-0.149
-192.217	290.620	0.125	0.225
-191.202	-141.078	0.119	0.012
-190.187	-121.020	-0.260	-0.043
-189.173	-71.017	-0.184	0.068
-188.158	39.670	0.248	-0.220
-187.144	-145.085	0.181	0.016
-186.129	8.445	0.158	0.118
-185.114	49.707	-0.057	0.053
-184.100	-91.181	0.222	0.063
-183.085	800.000	-0.038	-0.164
-182.071	165.085	0.064	-0.090
-181.056	169.259	-0.176	0.249
-180.042	103.174	-0.177	0.205
-179.027	-200.000	-0.024	0.248
-178.012	800.000	-0.045	0.180
-176.998	217.131	0.105	0.166
-175.983	3.631	0.120	0.086
-174.969	57.440	0.169	0.163
-173.954	329.407	-0.028	0.054
-172.939	-5.206	0.274	0.186
-171.925	800.000	-0.085	0.334
-170.910	-200.000	-0.008	-0.286
-169.896	-134.329	-0.260	-0.032
-168.881	-83.613	-0.168	-0.053
-167.866	142.700	0.166	0.218
-166.852	577.181	-0.076	-0.185
-165.837	-155.880	0.200	0.013
-164.823	-200.000	-0.001	-0.368
-163.808	167.727	0.193	-0.271
-162.793	776.331	-0.042	0.115
-161.779	-200.000	-0.000	0.224
-160.764	800.000	-0.017	-0.065
-159.750	800.000	-0.062	-0.186
-158.735	102.234	-0.110	0.128
-157.720	554.538	-0.026	0.063
-156.706	202.348	0.135	-0.205
-155.691	60.450	0.125	0.122
-154.677	-200.000	0.020	-0.098
-153.662	30.722	-0.268	-0.226
-152.647	-15.408	-0.456	0.288
-151.633	-200.000	-0.004	0.121
-150.618	-200.000	0.005	0.088
-149.604	7.720	0.087	0.065
-148.589	253.434	0.054	-0.092
-147.574	376.703	0.090	-0.182
-146.560	-114.093	-0.144	0.028
-145.545	-200.000	0.014	-0.071
-144.531	-200.000	-0.027	0.368
-143.516	-40.786	0.277	0.142
-142.502	-127.503	0.190	-0.027
-141.487	800.000	-0.042	0.122
-140.472	-94.214	-0.202	0.055
-139.458	-98.287	-0.071	-0.018
-138.443	-32.285	-0.366	-0.202
-137.429	-200.000	-0.007	-0.156
-136.414	-126.581	0.299	-0.044
-135.399	-114.851	0.064	0.012
-134.385	32.571	-0.160	-0.136
-133.370	369.323	-0.090	-0.180
-132.356	-200.000	0.067	-0.317
-131.341	-24.830	0.117	-0.068
-130.326	-141.083	-0.119	0.012
-129.312	34.298	0.154	-0.132
-128.297	800.000	0.076	0.282
-127.283	270.213	-0.169	0.292
-126.268	231.386	0.199	0.322
-125.253	245.639	0.036	-0.059
-124.239	227.708	0.096	0.154
-123.224	-97.205	-0.400	0.103
-122.210	7.848	0.139	0.103
-121.195	-117.432	0.306	0.055
-120.180	800.000	0.026	0.089
