DTS Sentinel unit serial number:	SN413079Multiplexer serial number:	ORYXHardware model number:	OX4-SRSoftware version number:	ORYX F/W v4.00 Oryx Data Collector v3.7.2.0data status	okinstallation	princeton_trtdifferential loss correction	single-endedforward channel	channel 2reverse channel	N/Adate	2019/09/19time	05:51:35forward acquisition time	60.00reverse acquisition time	0.00gamma	496.2192k internal	0.2350k external	0.2350temperature offset calibration	1.0013default loss term (dB/km)	0.3790temperature slope calibration	1.0000multiplexer offset coefficient	1.0000multiplexer slope coefficient	1.0000fibre end	0.00T internal ref (°C)	19.23T ext. ref 1 (°C)	0.58T ext. ref 2 (°C)	12.78length (m)	temperature (°C)	Stokes	anti-Stokes-747.200	-188.860	0.217	0.003
-746.185	-187.887	-0.181	-0.002
-745.171	760.086	-0.122	-0.331
-744.156	-200.000	0.063	-0.545
-743.142	-45.684	0.338	-0.167
-742.127	-129.491	-0.331	0.046
-741.112	19.149	-0.123	0.098
-740.098	-87.049	-0.297	0.090
-739.083	-200.000	0.035	0.170
-738.069	-70.381	0.080	-0.030
-737.054	-200.000	0.072	-0.385
-736.039	396.331	0.007	-0.014
-735.025	34.217	-0.111	0.096
-734.010	572.832	-0.064	0.156
-732.996	-200.000	0.017	-0.498
-731.981	-106.084	-0.120	0.027
-730.966	15.061	-0.092	0.072
-729.952	146.152	-0.069	-0.093
-728.937	347.077	0.045	0.089
-727.923	211.810	-0.161	-0.254
-726.908	-172.400	-0.375	-0.012
-725.894	179.347	-0.187	-0.273
-724.879	-72.644	0.215	0.079
-723.864	800.000	0.086	-0.245
-722.850	-169.158	-0.460	0.017
-721.835	74.132	0.230	-0.241
-720.821	800.000	-0.017	-0.055
-719.806	729.117	0.155	-0.412
-718.791	-55.908	0.178	-0.079
-717.777	800.000	-0.063	-0.181
-716.762	-200.000	0.002	0.193
-715.748	307.704	-0.145	0.271
-714.733	-200.000	0.052	0.309
-713.718	-167.497	0.191	0.008
-712.704	443.872	0.100	-0.218
-711.689	25.035	-0.128	0.106
-710.675	800.000	0.040	0.141
-709.660	-200.000	0.043	0.206
-708.645	120.849	-0.114	-0.142
-707.631	-25.347	0.229	0.135
-706.616	357.820	0.110	0.219
-705.602	24.004	-0.100	-0.083
-704.587	60.135	0.244	-0.241
-703.572	186.864	0.085	-0.126
-702.558	-29.361	0.169	0.096
-701.543	143.185	0.043	-0.057
-700.529	-200.000	0.021	-0.293
-699.514	-72.592	0.160	-0.059
-698.499	-111.629	0.330	-0.067
-697.485	125.979	0.115	0.145
-696.470	14.955	-0.144	0.112
-695.456	12.037	0.349	0.268
-694.441	800.000	-0.060	0.208
-693.426	-200.000	-0.001	0.231
-692.412	-200.000	-0.026	0.179
-691.397	2.445	-0.309	0.223
-690.383	-200.000	-0.027	-0.187
-689.368	382.585	0.090	-0.184
-688.354	800.000	0.162	0.615
-687.339	133.072	0.135	0.174
-686.324	51.433	0.090	0.085
-685.310	800.000	0.060	-0.210
-684.295	-108.548	0.038	-0.008
-683.281	-182.480	-0.366	0.007
-682.266	261.054	0.139	-0.240
-681.251	464.358	0.064	-0.141
-680.237	800.000	0.057	-0.226
-679.222	128.994	-0.117	0.149
-678.208	-70.856	0.151	-0.057
-677.193	-200.000	-0.021	0.119
-676.178	10.898	-0.126	0.096
-675.164	-200.000	0.021	-0.193
-674.149	-126.561	0.004	0.001
-673.135	-200.000	0.056	-0.299
-672.120	117.462	0.235	-0.287
-671.105	163.923	-0.061	0.086
-670.091	-106.746	0.301	0.066
-669.076	-83.323	-0.257	-0.082
-668.062	55.774	0.291	-0.280
-667.047	-200.000	-0.024	0.241
-666.032	-200.000	-0.015	-0.214
-665.018	-73.941	-0.115	0.041
-664.003	-27.471	0.336	-0.194
-662.989	800.000	0.067	-0.184
-661.974	800.000	-0.088	-0.314
-660.959	-31.005	-0.196	-0.110
-659.945	-162.813	0.255	-0.012
-658.930	-120.312	-0.077	0.013
-657.916	-150.342	0.201	0.015
-656.901	-9.399	-0.209	0.139
-655.886	273.129	-0.206	-0.361
-654.872	42.121	0.066	-0.060
-653.857	800.000	0.073	0.225
-652.843	-48.069	-0.240	-0.115
-651.828	800.000	0.044	0.140
-650.814	-5.565	0.082	0.056
-649.799	-13.141	0.217	0.140
-648.784	-16.781	-0.194	0.122
-647.770	462.917	-0.198	0.439
-646.755	-200.000	-0.025	-0.356
-645.741	-51.271	0.026	-0.012
-644.726	-200.000	-0.017	0.082
-643.711	490.931	-0.137	-0.311
-642.697	800.000	0.023	-0.078
-641.682	-200.000	-0.020	0.245
-640.668	-124.334	-0.326	0.051
-639.653	-200.000	-0.014	-0.121
-638.638	-59.322	-0.250	-0.107
-637.624	69.291	-0.217	0.222
-636.609	27.847	-0.339	0.284
-635.595	791.755	0.075	-0.205
-634.580	-126.686	0.084	-0.012
-633.565	-21.262	-0.168	-0.102
-632.551	-89.917	-0.425	-0.123
-631.536	-200.000	0.050	-0.357
-630.522	-200.000	-0.033	-0.444
-629.507	67.986	0.066	0.067
-628.492	191.072	0.205	0.306
-627.478	389.446	0.069	-0.143
-626.463	-108.842	-0.172	-0.036
-625.449	69.207	-0.222	-0.227
-624.434	800.000	-0.036	0.136
-623.419	-130.394	-0.241	0.032
-622.405	440.773	-0.029	-0.063
-621.390	800.000	0.028	-0.090
-620.376	776.533	0.104	0.283
-619.361	7.596	0.094	0.070
-618.346	-122.052	0.179	0.029
-617.332	-127.181	0.210	-0.030
-616.317	284.140	-0.064	0.114
-615.303	-128.619	-0.132	-0.019
-614.288	-142.086	-0.071	0.007
-613.273	104.080	0.269	-0.314
-612.259	-163.879	0.391	0.018
-611.244	-106.695	-0.316	-0.070
-610.230	50.394	0.244	0.229
-609.215	316.684	0.089	-0.167
-608.201	2.383	0.237	-0.171
-607.186	394.296	-0.104	-0.215
-606.171	-187.628	-0.092	0.001
-605.157	79.391	-0.129	0.137
-604.142	159.601	-0.046	0.064
-603.128	-61.606	-0.252	-0.105
-602.113	479.438	-0.069	-0.156
-601.098	106.323	-0.327	0.384
-600.084	-200.000	-0.058	0.366
-599.069	-87.099	-0.215	-0.065
-598.055	800.000	0.033	0.092
-597.040	86.020	-0.062	-0.068
-596.025	182.265	0.104	-0.152
-595.011	800.000	0.040	0.111
-593.996	234.343	0.093	-0.152
-592.982	146.514	0.173	-0.231
-591.967	181.057	0.105	-0.153
-590.952	9.529	0.048	0.036
-589.938	-30.680	0.251	-0.141
-588.923	53.110	-0.048	-0.046
-587.909	5.418	-0.139	-0.102
-586.894	618.334	0.099	-0.247
-585.879	800.000	0.102	0.322
-584.865	-76.728	0.128	0.045
-583.850	-96.940	-0.078	-0.020
-582.836	676.016	-0.148	-0.380
-581.821	-200.000	0.009	-0.078
-580.806	-112.893	-0.104	-0.021
-579.792	-118.058	0.153	0.027
-578.777	-200.000	0.003	-0.076
-577.763	369.279	-0.149	0.299
-576.748	-17.187	0.203	-0.127
-575.733	53.841	-0.070	-0.066
-574.719	-200.000	0.024	0.434
-573.704	3.585	-0.085	-0.062
-572.690	-24.980	-0.080	-0.047
-571.675	359.701	-0.055	-0.110
-570.661	-200.000	-0.007	0.166
-569.646	-108.028	0.212	-0.046
-568.631	537.965	-0.169	-0.398
-567.617	-69.498	-0.207	0.079
-566.602	18.499	-0.131	0.104
-565.588	98.987	0.064	-0.074
-564.573	248.945	0.211	0.354
-563.558	14.021	-0.347	-0.268
-562.544	139.447	0.050	0.066
-561.529	-75.479	0.253	-0.089
-560.515	-9.863	-0.141	-0.093
-559.500	3.421	-0.247	0.178
-558.485	-200.000	-0.018	0.190
-557.471	244.068	0.398	-0.661
-556.456	-103.388	0.263	-0.062
-555.442	-16.373	-0.254	0.160
-554.427	800.000	-0.035	-0.135
-553.412	-36.917	0.084	0.045
-552.398	-200.000	0.064	-0.333
-551.383	727.632	-0.008	-0.021
-550.369	-74.959	-0.056	0.020
-549.354	69.732	0.147	-0.150
-548.339	-45.019	0.084	-0.041
-547.325	-200.000	0.075	0.351
-546.310	800.000	-0.039	0.116
-545.296	-63.368	0.075	-0.031
-544.281	-92.255	-0.336	0.094
-543.266	22.762	-0.289	0.235
-542.252	-164.757	-0.172	0.008
-541.237	15.915	-0.166	0.130
-540.223	800.000	0.131	0.387
-539.208	-41.975	0.076	0.039
-538.193	133.646	-0.107	0.137
-537.179	686.133	0.030	-0.077
-536.164	-62.916	-0.202	0.083
-535.150	-70.537	-0.154	-0.058
-534.135	-200.000	-0.050	-0.227
-533.121	-18.382	-0.192	0.119
-532.106	-16.904	0.251	0.157
-531.091	800.000	0.036	0.152
-530.077	204.167	-0.121	-0.185
-529.062	32.580	0.067	0.057
-528.048	92.679	0.338	0.377
-527.033	-45.896	-0.178	0.087
-526.018	-200.000	0.021	0.427
-525.004	-157.786	0.161	-0.009
-523.989	-200.000	0.000	0.212
-522.975	-200.000	0.061	0.492
-521.960	13.558	0.145	0.111
-520.945	-39.108	-0.247	-0.129
-519.931	92.010	-0.199	0.222
-518.916	-37.487	-0.309	0.163
-517.902	192.212	0.096	-0.143
-516.887	-110.078	0.049	-0.010
-515.872	-200.000	0.023	0.205
-514.858	-200.000	-0.015	-0.164
-513.843	105.871	0.109	0.128
-512.829	-3.482	0.200	-0.138
-511.814	6.191	-0.230	-0.169
-510.799	-17.469	-0.303	-0.189
-509.785	-104.857	-0.092	0.021
-508.770	300.654	0.075	-0.137
-507.756	-103.059	-0.193	-0.045
-506.741	-10.239	-0.132	0.086
-505.726	-200.000	0.054	-0.443
-504.712	-142.878	-0.225	-0.022
-503.697	154.075	-0.166	0.225
-502.683	-200.000	0.042	0.192
-501.668	800.000	-0.017	0.068
-500.653	-62.516	0.659	0.271
-499.639	168.520	0.155	-0.218
-498.624	85.136	0.247	0.267
-497.610	36.847	0.153	-0.134
-496.595	-83.986	-0.111	0.035
-495.581	62.938	0.299	-0.296
-494.566	-200.000	0.066	-0.449
-493.551	-200.000	-0.018	-0.152
-492.537	800.000	0.038	-0.142
-491.522	524.716	0.137	0.318
-490.508	64.249	0.331	-0.330
-489.493	-81.444	-0.229	-0.075
-488.478	800.000	-0.014	-0.050
-487.464	163.339	-0.160	-0.222
-486.449	-94.479	-0.316	0.085
-485.435	2.265	-0.027	0.019
-484.420	-200.000	0.047	-0.233
-483.405	-200.000	0.067	-0.369
-482.391	-200.000	-0.026	0.128
-481.376	213.106	0.124	0.193
-480.362	-1.266	-0.169	-0.118
-479.347	158.621	-0.163	-0.224
-478.332	-200.000	0.003	0.245
-477.318	95.961	0.181	-0.205
-476.303	-147.368	0.053	-0.004
-475.289	-48.053	-0.102	0.049
-474.274	3.128	0.129	-0.093
-473.259	24.643	0.192	0.157
-472.245	-200.000	-0.050	0.316
-471.230	800.000	0.045	0.188
-470.216	182.047	-0.068	-0.099
-469.201	417.340	-0.029	0.062
-468.186	800.000	0.043	-0.162
-467.172	-200.000	0.071	0.322
-466.157	47.428	-0.186	-0.172
-465.143	-100.682	-0.164	0.040
-464.128	-15.326	-0.160	-0.101
-463.113	-200.000	0.007	0.073
-462.099	-26.872	-0.169	-0.097
-461.084	-70.376	0.229	-0.086
-460.070	800.000	-0.125	-0.359
-459.055	123.224	0.014	0.017
-458.040	-73.039	0.151	-0.055
-457.026	-4.606	-0.150	0.102
-456.011	407.530	0.076	0.159
-454.997	-200.000	0.006	-0.130
-453.982	45.742	0.136	-0.124
-452.968	-200.000	0.004	-0.275
-451.953	-200.000	-0.001	0.072
-450.938	-144.209	-0.174	-0.016
-449.924	-116.420	0.082	0.015
-448.909	21.301	0.237	-0.190
-447.895	32.250	-0.239	0.203
-446.880	115.513	0.099	-0.120
-445.865	800.000	0.064	-0.177
-444.851	-80.338	0.123	0.041
-443.836	-130.039	0.103	0.014
-442.822	800.000	-0.075	-0.324
-441.807	-177.356	-0.074	0.002
-440.792	220.912	0.187	0.296
-439.778	-200.000	0.004	-0.111
-438.763	-200.000	-0.006	-0.171
-437.749	251.110	0.196	0.328
-436.734	800.000	-0.097	0.306
-435.719	334.222	-0.137	0.261
-434.705	-200.000	-0.008	-0.050
-433.690	-181.586	0.327	0.006
-432.676	35.554	0.075	0.065
-431.661	-134.707	-0.342	0.041
-430.646	132.336	0.150	0.191
-429.632	800.000	0.057	-0.190
-428.617	-163.459	0.067	-0.003
-427.603	27.124	-0.081	0.067
-426.588	-138.669	0.213	0.023
-425.573	-200.000	-0.004	0.082
-424.559	175.992	0.058	0.083
-423.544	41.838	0.143	-0.128
-422.530	800.000	0.039	0.148
-421.515	-1.958	-0.298	0.207
-420.500	800.000	0.081	-0.287
-419.486	-62.386	-0.180	-0.074
-418.471	-165.813	0.218	-0.009
-417.457	30.944	0.137	-0.115
-416.442	255.848	-0.140	0.237
-415.428	240.898	0.133	-0.219
-414.413	-200.000	0.061	-0.311
-413.398	-37.321	0.065	0.034
-412.384	800.000	0.118	0.415
-411.369	107.133	0.043	0.050
-410.355	-104.458	0.257	0.059
-409.340	-200.000	0.007	-0.231
-408.325	-145.853	0.219	-0.019
-407.311	-106.953	-0.142	0.031
-406.296	-194.025	-0.041	-0.000
-405.282	-171.564	0.231	-0.008
-404.267	-18.909	-0.305	-0.187
-403.252	15.450	0.347	-0.268
-402.238	420.819	0.138	-0.292
-401.223	-70.206	0.179	0.067
-400.209	-47.168	-0.120	-0.058
-399.194	74.155	-0.154	0.159
-398.179	-10.954	0.066	-0.043
-397.165	-118.136	0.422	-0.074
-396.150	84.962	0.249	-0.268
-395.136	-163.084	0.149	-0.007
-394.121	33.235	0.191	0.163
-393.106	105.859	0.123	0.143
-392.092	20.294	0.076	-0.061
-391.077	-88.800	-0.213	0.062
-390.063	-45.748	-0.139	-0.068
-389.048	800.000	-0.018	-0.065
-388.033	-44.776	0.091	0.045
-387.019	-200.000	-0.021	-0.102
-386.004	-200.000	-0.041	-0.207
-384.990	354.985	-0.143	-0.281
-383.975	31.130	-0.250	0.211
-382.960	355.503	0.014	0.026
-381.946	-78.039	0.117	-0.040
-380.931	39.182	-0.046	0.040
-379.917	-134.415	0.229	0.028
-378.902	-91.696	-0.024	0.007
-377.888	220.347	-0.105	0.166
-376.873	-186.007	-0.152	-0.002
-375.858	-200.000	-0.014	0.123
-374.844	800.000	-0.024	-0.094
-373.829	800.000	-0.062	-0.180
-372.815	571.958	-0.106	0.255
-371.800	-200.000	-0.017	-0.432
-370.785	800.000	0.065	-0.250
-369.771	-200.000	-0.028	-0.236
-368.756	800.000	-0.015	-0.059
-367.742	148.882	0.185	-0.246
-366.727	-4.968	-0.283	0.192
-365.712	176.163	0.070	-0.100
-364.698	206.745	0.277	-0.425
-363.683	-91.077	-0.075	0.021
-362.669	-200.000	-0.000	-0.081
-361.654	-200.000	0.062	0.359
-360.639	-200.000	-0.036	-0.170
-359.625	-200.000	0.007	-0.188
-358.610	-200.000	0.033	0.298
-357.596	800.000	0.109	0.345
-356.581	800.000	0.145	0.417
-355.566	-200.000	0.041	0.206
-354.552	154.975	-0.071	-0.096
-353.537	-70.984	0.236	0.087
-352.523	95.388	0.279	0.312
-351.508	414.560	-0.049	0.102
-350.493	-51.373	-0.090	0.041
-349.479	62.156	-0.269	-0.264
-348.464	-44.100	-0.201	0.099
-347.450	-85.442	-0.059	0.018
-346.435	174.746	-0.122	0.173
-345.420	-200.000	-0.065	-0.288
-344.406	-200.000	-0.002	0.233
-343.391	-30.464	-0.188	-0.105
-342.377	800.000	0.007	0.024
-341.362	800.000	0.100	-0.359
-340.348	-91.733	0.174	0.049
-339.333	-19.678	0.132	0.080
-338.318	-67.247	0.076	0.029
-337.304	219.822	-0.079	0.124
-336.289	166.770	-0.094	-0.130
-335.275	-200.000	0.054	-0.313
-334.260	800.000	-0.048	0.147
-333.245	-61.895	0.133	0.055
-332.231	-29.507	-0.240	-0.135
-331.216	-104.631	0.114	-0.026
-330.202	281.426	-0.160	-0.282
-329.187	658.679	0.085	-0.215
-328.172	-85.116	-0.095	-0.029
-327.158	148.759	0.114	-0.152
-326.143	-53.362	0.242	0.109
-325.129	-200.000	0.009	0.104
-324.114	110.521	0.110	0.130
-323.099	-193.048	-0.334	0.003
-322.085	800.000	0.111	0.346
-321.070	-71.490	0.272	0.100
-320.056	-90.759	-0.057	0.016
-319.041	714.447	0.079	-0.206
-318.026	800.000	-0.058	0.244
-317.012	-200.000	-0.026	-0.325
-315.997	56.641	0.042	0.041
-314.983	167.489	-0.132	0.184
-313.968	352.605	-0.118	0.229
-312.953	-62.764	-0.161	-0.066
-311.939	-47.683	0.346	-0.165
-310.924	-200.000	-0.036	0.208
-309.910	-123.975	-0.063	0.010
-308.895	23.286	-0.156	-0.126
-307.880	-122.750	0.133	0.021
-306.866	-58.483	-0.293	-0.125
-305.851	7.080	0.228	0.167
-304.837	800.000	-0.041	0.136
-303.822	-200.000	-0.012	-0.272
-302.807	17.894	-0.164	0.128
-301.793	441.424	-0.142	0.305
-300.778	-156.068	-0.234	0.015
-299.764	160.294	0.116	-0.159
-298.749	43.981	-0.070	0.063
-297.735	800.000	-0.054	-0.193
-296.720	0.183	-0.025	-0.017
-295.705	-33.890	-0.252	0.136
-294.691	-121.131	0.155	-0.025
-293.676	-200.000	-0.008	-0.060
-292.662	-105.155	0.201	-0.045
-291.647	-60.683	0.030	-0.013
-290.632	-200.000	0.010	0.161
-289.618	-74.075	-0.114	-0.040
-288.603	-58.252	0.204	-0.087
-287.589	-112.153	-0.169	-0.033
-286.574	78.277	0.049	0.051
-285.559	-200.000	-0.020	0.127
-284.545	800.000	0.083	0.299
-283.530	-85.505	0.302	-0.092
-282.516	-6.181	-0.181	-0.121
-281.501	-86.915	0.278	-0.083
-280.486	50.423	-0.048	0.045
-279.472	207.860	0.083	0.127
-278.457	172.974	0.122	0.173
-277.443	800.000	0.092	0.263
-276.428	-200.000	0.000	0.158
-275.413	138.545	0.147	-0.189
-274.399	-200.000	0.035	0.341
-273.384	-200.000	0.004	-0.100
-272.370	-43.495	0.070	0.035
-271.355	255.752	0.127	0.213
-270.340	-200.000	0.023	0.431
-269.326	299.090	0.088	-0.159
-268.311	-160.922	0.158	0.008
-267.297	-1.784	0.327	-0.225
-266.282	240.733	0.275	-0.450
-265.267	800.000	0.065	0.186
-264.253	3.886	-0.176	-0.126
-263.238	-165.823	-0.239	-0.010
-262.224	37.387	-0.109	0.095
-261.209	13.596	0.093	-0.071
-260.195	10.083	-0.227	-0.169
-259.180	103.163	-0.050	0.058
-258.165	-200.000	0.045	0.195
-257.151	-15.867	-0.134	0.084
-256.136	76.145	-0.194	-0.201
-255.122	396.772	0.040	0.081
-254.107	82.720	0.214	0.228
-253.092	-200.000	0.006	-0.171
-252.078	-200.000	0.020	0.339
-251.063	159.857	0.062	-0.085
-250.049	-200.000	-0.008	0.175
-249.034	-184.147	-0.208	-0.003
-248.019	-95.016	-0.110	-0.029
-247.005	617.758	0.064	0.157
-245.990	-102.640	-0.373	0.087
-244.976	800.000	-0.029	-0.109
-243.961	800.000	-0.074	-0.273
-242.946	-200.000	0.095	-0.426
-241.932	181.898	-0.070	-0.101
-240.917	800.000	0.050	-0.204
-239.903	-45.194	-0.131	0.064
-238.888	284.622	-0.098	0.173
-237.873	49.271	0.116	0.107
-236.859	-16.687	0.172	-0.107
-235.844	297.070	-0.190	-0.341
-234.830	-131.824	0.168	0.022
-233.815	297.619	0.226	0.405
-232.800	168.790	-0.105	0.146
-231.786	-200.000	0.029	0.276
-230.771	-119.627	0.119	0.020
-229.757	327.473	0.183	0.342
-228.742	-200.000	0.036	-0.210
-227.727	524.565	-0.079	-0.182
-226.713	57.876	0.065	0.063
-225.698	204.625	-0.038	0.058
-224.684	800.000	-0.090	0.324
-223.669	-135.824	0.048	-0.006
-222.655	437.765	-0.092	-0.196
-221.640	406.182	0.106	0.220
-220.625	-88.731	-0.121	0.035
-219.611	253.829	0.267	-0.446
-218.596	-21.862	-0.406	-0.241
-217.582	398.611	0.077	-0.158
-216.567	800.000	0.076	0.282
-215.552	223.246	0.034	-0.054
-214.538	-200.000	0.040	0.272
-213.523	425.402	-0.063	0.132
-212.509	324.819	-0.076	-0.141
-211.494	-114.313	-0.319	0.060
-210.479	48.058	-0.248	0.226
-209.465	-39.996	0.256	0.131
-208.450	-43.791	0.101	0.050
-207.436	16.734	-0.162	0.125
-206.421	-52.436	0.428	0.193
-205.406	-50.227	-0.227	0.105
-204.392	-197.452	0.053	0.000
-203.377	678.392	-0.048	-0.123
-202.363	56.523	-0.148	-0.140
-201.348	119.998	0.252	0.306
-200.333	-200.000	0.002	-0.034
-199.319	-200.000	0.058	-0.369
-198.304	23.681	-0.287	-0.231
-197.290	-200.000	0.035	0.342
-196.275	209.990	-0.127	0.195
-195.260	39.262	0.339	0.296
-194.246	-80.401	0.218	-0.071
-193.231	800.000	0.113	0.434
-192.217	7.358	0.240	-0.175
-191.202	-17.156	0.180	0.111
-190.187	61.510	-0.325	-0.316
-189.173	-200.000	-0.016	0.123
-188.158	151.619	-0.156	0.207
-187.144	24.574	0.227	0.184
-186.129	32.009	-0.177	-0.149
-185.114	-200.000	-0.069	0.325
-184.100	800.000	-0.008	0.030
-183.085	-55.545	-0.285	-0.125
-182.071	-52.091	0.190	-0.086
-181.056	-34.134	0.132	-0.071
-180.042	284.929	0.117	-0.205
-179.027	-57.538	-0.238	-0.102
-178.012	-96.820	0.145	-0.037
-176.998	-178.245	0.290	0.007
-175.983	-200.000	0.012	-0.087
-174.969	27.065	0.264	-0.216
-173.954	387.740	-0.101	-0.204
-172.939	113.029	-0.165	0.196
-171.925	800.000	0.049	-0.182
-170.910	-200.000	0.047	-0.235
-169.896	-29.206	-0.080	-0.045
-168.881	-142.088	-0.327	0.032
-167.866	76.624	0.009	0.010
-166.852	249.379	-0.031	0.051
-165.837	-73.582	-0.158	0.056
-164.823	-200.000	0.033	-0.176
-163.808	270.505	0.132	0.227
-162.793	-6.324	-0.296	-0.197
-161.779	-64.037	-0.328	-0.131
-160.764	-36.662	-0.374	-0.196
-159.750	-93.439	0.113	0.031
-158.735	-99.698	-0.245	-0.060
-157.720	8.636	0.160	0.118
-156.706	403.587	-0.031	-0.063
-155.691	130.704	-0.187	0.234
-154.677	-22.806	-0.103	-0.060
-153.662	-200.000	0.190	-0.000
-152.647	-142.042	0.172	-0.017
-151.633	-200.000	-0.008	0.041
-150.618	-61.428	0.119	-0.049
-149.604	-115.777	0.170	0.031
-148.589	-200.000	-0.019	-0.123
-147.574	31.309	-0.262	0.219
-146.560	113.122	-0.060	-0.071
-145.545	415.121	-0.144	0.299
-144.531	-200.000	-0.062	0.268
-143.516	156.103	-0.151	0.203
-142.502	186.848	-0.102	-0.148
-141.487	-84.027	-0.125	0.039
-140.472	233.724	0.105	-0.169
-139.458	800.000	0.065	-0.236
-138.443	-200.000	-0.014	-0.215
-137.429	-142.260	-0.298	0.029
-136.414	-119.405	0.130	0.022
-135.399	107.300	0.118	-0.137
-134.385	800.000	0.116	0.471
-133.370	760.990	0.040	0.106
-132.356	215.906	0.267	0.414
-131.341	-96.332	-0.182	-0.047
-130.326	43.301	0.207	0.185
-129.312	77.268	-0.128	0.133
-128.297	800.000	-0.065	-0.189
-127.283	-200.000	0.008	0.197
-126.268	52.660	-0.048	-0.045
-125.253	379.707	-0.132	-0.263
-124.239	153.933	-0.130	-0.174
-123.224	-200.000	0.040	0.265
-122.210	800.000	-0.056	-0.181
-121.195	-200.000	0.041	0.206
