DTS Sentinel unit serial number:	SN413079Multiplexer serial number:	ORYXHardware model number:	OX4-SRSoftware version number:	ORYX F/W v4.00 Oryx Data Collector v3.7.2.0data status	okinstallation	princeton_trtdifferential loss correction	single-endedforward channel	channel 2reverse channel	N/Adate	2019/09/12time	00:05:11forward acquisition time	60.00reverse acquisition time	0.00gamma	496.2192k internal	0.2325k external	0.2325temperature offset calibration	1.0083default loss term (dB/km)	0.3790temperature slope calibration	1.0000multiplexer offset coefficient	1.0000multiplexer slope coefficient	1.0000fibre end	0.00T internal ref (°C)	33.69T ext. ref 1 (°C)	1.99T ext. ref 2 (°C)	28.17length (m)	temperature (°C)	Stokes	anti-Stokes-747.200	26.023	0.032	-0.027
-746.185	-200.000	0.036	0.192
-745.171	800.000	0.064	0.276
-744.156	308.513	-0.055	-0.104
-743.142	-195.389	0.249	0.002
-742.127	85.014	0.123	-0.136
-741.112	-98.744	0.105	0.027
-740.098	-135.810	-0.097	-0.012
-739.083	-74.121	0.060	-0.022
-738.069	-200.000	-0.045	0.542
-737.054	177.969	0.083	0.122
-736.039	134.692	0.254	0.333
-735.025	-40.603	0.397	0.208
-734.010	-200.000	-0.340	0.000
-732.996	376.614	-0.182	-0.375
-731.981	281.396	0.128	-0.231
-730.966	67.955	-0.195	-0.201
-729.952	-106.530	0.238	0.054
-728.937	321.083	0.081	0.155
-727.923	-5.233	-0.295	0.205
-726.908	-200.000	0.010	-0.409
-725.894	800.000	0.072	-0.278
-724.879	-200.000	0.011	-0.058
-723.864	80.690	-0.158	-0.172
-722.850	182.886	0.159	-0.236
-721.835	-85.605	-0.342	-0.107
-720.821	800.000	0.046	-0.183
-719.806	800.000	0.033	-0.109
-718.791	-3.332	-0.185	-0.130
-717.777	465.743	-0.036	0.081
-716.762	-200.000	0.025	-0.257
-715.748	-125.323	-0.145	-0.022
-714.733	161.498	-0.161	-0.226
-713.718	-200.000	0.045	0.254
-712.704	355.949	0.083	-0.166
-711.689	20.741	-0.112	-0.091
-710.675	-138.489	0.132	-0.015
-709.660	-5.828	0.342	-0.236
-708.645	15.617	-0.272	-0.215
-707.631	800.000	0.024	0.099
-706.616	209.279	-0.126	-0.199
-705.602	419.249	-0.048	-0.103
-704.587	-173.874	0.411	-0.012
-703.572	-187.315	-0.369	-0.005
-702.558	-14.931	0.287	0.185
-701.543	-101.491	-0.298	-0.073
-700.529	-200.000	-0.015	-0.133
-699.514	18.660	-0.038	0.031
-698.499	800.000	-0.052	-0.195
-697.485	-200.000	0.001	-0.452
-696.470	-73.257	-0.321	0.118
-695.456	-171.244	0.105	-0.004
-694.441	-31.868	0.036	-0.021
-693.426	-53.523	-0.166	-0.076
-692.412	-4.382	-0.347	0.242
-691.397	363.929	-0.042	-0.085
-690.383	258.258	0.158	0.273
-689.368	467.380	0.034	0.077
-688.354	-82.055	0.217	-0.071
-687.339	213.796	-0.162	0.258
-686.324	89.735	-0.201	0.226
-685.310	-200.000	0.009	-0.231
-684.295	56.047	-0.072	0.071
-683.281	-44.003	-0.022	0.011
-682.266	800.000	0.143	-0.444
-681.251	52.460	-0.066	0.063
-680.237	800.000	-0.049	0.190
-679.222	223.131	-0.077	-0.125
-678.208	195.941	-0.212	-0.325
-677.193	267.420	-0.127	0.224
-676.178	97.380	0.137	0.159
-675.164	-200.000	-0.037	0.210
-674.149	800.000	0.060	0.248
-673.135	-3.447	0.273	0.191
-672.120	288.393	-0.165	-0.301
-671.105	-200.000	0.024	-0.324
-670.091	17.913	-0.055	0.044
-669.076	-200.000	0.020	0.222
-668.062	67.765	0.048	0.049
-667.047	-200.000	-0.016	0.077
-666.032	-167.178	-0.198	0.008
-665.018	-72.448	0.074	0.027
-664.003	-97.873	-0.189	-0.049
-662.989	-8.626	-0.232	-0.157
-661.974	-200.000	-0.005	-0.024
-660.959	-200.000	0.009	-0.199
-659.945	212.172	0.195	-0.310
-658.930	172.601	0.146	-0.212
-657.916	-129.612	-0.013	-0.002
-656.901	-200.000	0.027	-0.237
-655.886	226.987	-0.073	-0.118
-654.872	-128.327	-0.112	-0.016
-653.857	-200.000	0.028	-0.234
-652.843	-200.000	0.002	-0.307
-651.828	800.000	0.041	-0.129
-650.814	41.820	0.107	0.097
-649.799	-90.813	-0.165	-0.048
-648.784	481.496	0.187	0.427
-647.770	698.104	0.078	-0.205
-646.755	23.561	0.348	-0.288
-645.741	-200.000	0.078	0.379
-644.726	-49.531	0.373	0.179
-643.711	-31.610	-0.366	0.207
-642.697	-177.970	0.155	0.004
-641.682	-69.508	-0.187	0.072
-640.668	168.620	-0.162	0.232
-639.653	-200.000	-0.005	0.112
-638.638	-72.516	0.100	0.037
-637.624	40.506	0.152	-0.137
-636.609	800.000	0.114	-0.479
-635.595	-200.000	-0.016	-0.088
-634.580	-101.812	0.174	-0.042
-633.565	-200.000	-0.019	-0.091
-632.551	71.086	0.098	-0.102
-631.536	-121.940	-0.076	-0.013
-630.522	531.959	-0.132	-0.313
-629.507	-126.007	0.469	-0.071
-628.492	-200.000	-0.024	0.118
-627.478	-71.101	-0.266	0.100
-626.463	147.546	0.180	-0.244
-625.449	800.000	0.039	0.108
-624.434	-23.097	0.219	-0.133
-623.419	-79.244	0.344	-0.117
-622.405	-48.927	-0.121	-0.058
-621.390	800.000	0.113	-0.316
-620.376	800.000	0.074	0.286
-619.361	142.339	-0.178	-0.237
-618.346	-93.065	-0.189	0.053
-617.332	-114.223	0.439	-0.085
-616.317	-74.772	0.097	0.035
-615.303	-17.896	0.266	0.168
-614.288	-200.000	0.001	-0.040
-613.273	-200.000	0.069	-0.323
-612.259	75.984	-0.117	0.124
-611.244	-200.000	0.033	0.289
-610.230	-36.545	-0.108	-0.058
-609.215	-65.383	0.237	-0.096
-608.201	288.561	0.080	0.146
-607.186	-77.324	-0.174	0.061
-606.171	492.255	0.081	-0.185
-605.157	620.549	-0.069	-0.174
-604.142	97.071	-0.159	-0.182
-603.128	-144.205	0.104	-0.010
-602.113	345.665	-0.117	-0.230
-601.098	-56.894	-0.106	-0.047
-600.084	-200.000	-0.025	-0.231
-599.069	-187.116	0.372	-0.005
-598.055	-122.130	0.206	-0.034
-597.040	540.489	0.081	-0.193
-596.025	84.938	0.118	-0.130
-595.011	-200.000	0.024	-0.200
-593.996	168.804	0.175	0.251
-592.982	-114.029	-0.397	0.077
-591.967	-88.200	0.311	0.093
-590.952	208.550	-0.103	0.162
-589.938	83.582	-0.064	-0.070
-588.923	-200.000	-0.005	-0.037
-587.909	-81.180	-0.312	0.103
-586.894	224.090	-0.082	0.132
-585.879	340.652	0.057	0.111
-584.865	-36.669	0.201	0.108
-583.850	-95.790	0.043	0.012
-582.836	-106.086	0.252	0.057
-581.821	113.959	-0.190	-0.231
-580.806	-20.139	0.090	0.055
-579.792	269.586	-0.107	0.188
-578.777	800.000	0.080	-0.264
-577.763	94.840	-0.018	-0.021
-576.748	38.796	-0.132	-0.118
-575.733	-123.230	0.012	0.002
-574.719	15.413	0.045	-0.036
-573.704	-33.428	0.250	0.138
-572.690	276.112	0.156	-0.277
-571.675	-103.407	0.176	-0.042
-570.661	800.000	-0.087	-0.255
-569.646	800.000	-0.045	0.192
-568.631	-160.424	0.225	0.012
-567.617	85.438	-0.157	0.173
-566.602	800.000	-0.113	0.403
-565.588	800.000	0.106	0.312
-564.573	-23.206	-0.285	-0.172
-563.558	164.738	-0.104	0.147
-562.544	255.658	-0.082	-0.141
-561.529	-77.492	-0.228	0.079
-560.515	800.000	-0.010	-0.031
-559.500	800.000	-0.114	-0.329
-558.485	38.879	0.216	0.193
-557.471	98.618	0.320	-0.370
-556.456	800.000	0.069	0.220
-555.442	121.965	0.123	-0.154
-554.427	0.047	0.097	-0.070
-553.412	-20.938	-0.258	-0.158
-552.398	-104.437	-0.164	0.038
-551.383	-60.822	0.081	-0.034
-550.369	16.681	0.167	0.132
-549.354	257.669	-0.182	0.313
-548.339	-138.752	-0.406	-0.044
-547.325	800.000	-0.041	0.116
-546.310	-200.000	-0.030	-0.284
-545.296	-67.279	0.151	0.059
-544.281	-107.072	-0.170	0.038
-543.266	-52.223	-0.196	-0.091
-542.252	-200.000	-0.004	0.074
-541.237	-200.000	-0.044	0.199
-540.223	-57.959	0.238	0.104
-539.208	800.000	0.121	0.362
-538.193	405.857	-0.028	0.059
-537.179	259.461	-0.065	-0.113
-536.164	-34.502	-0.228	0.125
-535.150	-64.769	0.354	0.143
-534.135	-13.463	-0.134	-0.087
-533.121	-200.000	-0.009	-0.106
-532.106	-109.850	-0.229	-0.048
-531.091	73.898	-0.241	0.253
-530.077	301.326	0.152	0.281
-529.062	19.618	0.262	-0.211
-528.048	72.221	0.148	-0.154
-527.033	-170.800	-0.207	-0.007
-526.018	-2.995	-0.259	0.181
-525.004	-12.454	-0.068	-0.044
-523.989	359.714	0.287	-0.574
-522.975	109.194	0.066	-0.080
-521.960	-170.264	0.132	-0.005
-520.945	-200.000	-0.024	-0.159
-519.931	-130.132	-0.084	-0.011
-518.916	48.640	-0.332	0.311
-517.902	180.840	-0.121	-0.177
-516.887	-128.748	0.175	0.025
-515.872	36.007	0.109	-0.096
-514.858	745.991	0.117	0.315
-513.843	-0.893	0.099	-0.070
-512.829	-31.591	-0.235	-0.132
-511.814	192.991	-0.086	0.129
-510.799	-200.000	0.032	0.156
-509.785	514.733	-0.058	0.135
-508.770	-152.281	-0.481	0.035
-507.756	480.150	-0.068	-0.154
-506.741	65.832	-0.071	-0.072
-505.726	-200.000	0.017	-0.130
-504.712	67.062	-0.193	-0.197
-503.697	-67.547	0.157	0.062
-502.683	449.490	-0.041	-0.090
-501.668	85.633	0.169	0.186
-500.653	-75.188	-0.197	0.070
-499.639	171.233	-0.098	-0.140
-498.624	35.203	0.207	-0.181
-497.610	21.871	-0.257	-0.209
-496.595	-7.616	-0.048	-0.033
-495.581	-155.379	0.477	-0.031
-494.566	-14.082	0.327	-0.211
-493.551	800.000	0.025	0.099
-492.537	-86.871	0.102	0.031
-491.522	-72.002	-0.141	0.052
-490.508	-162.613	-0.314	-0.015
-489.493	28.904	-0.070	-0.059
-488.478	-200.000	-0.041	0.331
-487.464	800.000	-0.103	0.395
-486.449	66.951	0.147	0.150
-485.435	395.963	0.200	0.417
-484.420	800.000	-0.049	-0.201
-483.405	-30.411	-0.413	-0.234
-482.391	610.891	0.026	-0.066
-481.376	-97.502	0.243	-0.063
-480.362	-189.263	-0.215	0.003
-479.347	96.714	-0.093	0.106
-478.332	-200.000	0.028	-0.280
-477.318	85.223	-0.159	-0.174
-476.303	-146.653	0.261	0.023
-475.289	52.824	-0.033	0.032
-474.274	339.518	-0.108	0.210
-473.259	24.143	-0.118	-0.097
-472.245	-70.225	-0.161	0.061
-471.230	-8.149	-0.111	0.074
-470.216	-200.000	0.040	0.287
-469.201	-200.000	-0.010	0.055
-468.186	86.102	-0.179	-0.197
-467.172	-103.319	-0.138	-0.032
-466.157	-16.362	-0.224	-0.142
-465.143	78.553	-0.133	0.142
-464.128	305.906	-0.086	0.159
-463.113	-200.000	0.060	0.433
-462.099	-58.584	-0.297	0.129
-461.084	-200.000	0.000	0.048
-460.070	0.000	0.193	-0.137
-459.055	573.031	0.133	-0.324
-458.040	800.000	-0.064	-0.242
-457.026	245.500	-0.111	0.187
-456.011	-5.202	0.091	0.063
-454.997	-15.424	0.293	-0.187
-453.982	171.759	-0.144	-0.206
-452.968	-200.000	-0.020	0.147
-451.953	-200.000	-0.016	0.244
-450.938	84.694	0.187	0.204
-449.924	-200.000	0.079	-0.466
-448.909	-200.000	0.019	-0.201
-447.895	-35.001	-0.230	-0.125
-446.880	-6.291	0.217	0.148
-445.865	144.267	0.121	0.161
-444.851	-112.279	-0.206	-0.041
-443.836	-102.635	0.251	-0.060
-442.822	464.327	0.026	-0.057
-441.807	-172.665	0.351	0.011
-440.792	-132.414	-0.388	-0.050
-439.778	-162.214	-0.354	-0.018
-438.763	-200.000	-0.010	-0.135
-437.749	-89.281	0.108	-0.032
-436.734	156.313	-0.160	0.220
-435.719	-110.733	0.183	-0.038
-434.705	37.658	-0.075	-0.067
-433.690	325.793	0.127	0.243
-432.676	-88.615	0.212	0.063
-431.661	-135.824	0.252	-0.030
-430.646	-200.000	-0.017	0.259
-429.632	-200.000	0.013	-0.169
-428.617	-37.815	0.109	-0.058
-427.603	800.000	-0.015	0.046
-426.588	274.377	-0.113	-0.199
-425.573	-102.506	-0.112	0.027
-424.559	-16.132	0.244	-0.155
-423.544	-77.825	-0.244	0.084
-422.530	-140.455	-0.428	-0.044
-421.515	-115.212	0.405	-0.076
-420.500	-200.000	0.004	-0.083
-419.486	-200.000	0.033	0.182
-418.471	126.497	0.136	0.171
-417.457	186.602	-0.156	-0.231
-416.442	133.723	0.037	-0.048
-415.428	401.460	0.169	-0.353
-414.413	779.821	0.014	0.037
-413.398	105.208	-0.089	0.105
-412.384	-111.937	-0.386	0.078
-411.369	186.770	0.133	-0.197
-410.355	800.000	0.038	-0.154
-409.340	660.549	-0.034	-0.087
-408.325	139.128	0.142	-0.186
-407.311	561.020	0.091	-0.218
-406.296	800.000	-0.066	-0.223
-405.282	-200.000	-0.028	-0.288
-404.267	133.668	0.152	-0.196
-403.252	-108.790	0.303	-0.065
-402.238	-168.067	-0.166	-0.006
-401.223	-125.094	-0.221	0.034
-400.209	800.000	0.050	0.166
-399.194	-22.145	0.316	0.191
-398.179	-5.674	-0.312	0.213
-397.165	800.000	-0.083	0.256
-396.150	105.700	-0.105	-0.124
-395.136	16.719	-0.081	-0.063
-394.121	-200.000	-0.003	0.172
-393.106	436.649	-0.045	0.098
-392.092	800.000	-0.036	-0.128
-391.077	587.943	0.114	-0.279
-390.063	-37.617	-0.254	-0.135
-389.048	334.597	0.119	0.229
-388.033	44.342	-0.198	-0.181
-387.019	111.751	0.301	-0.362
-386.004	-97.239	-0.140	0.036
-384.990	13.345	-0.203	0.156
-383.975	141.971	0.229	-0.302
-382.960	97.545	-0.069	-0.079
-381.946	-19.749	0.197	0.121
-380.931	-2.573	-0.204	0.142
-379.917	85.359	0.002	0.002
-378.902	197.859	-0.048	0.073
-377.888	-200.000	-0.320	0.000
-376.873	-139.893	0.123	0.013
-375.858	800.000	-0.023	0.094
-374.844	-72.732	0.159	0.058
-373.829	800.000	0.073	0.201
-372.815	-12.225	-0.149	-0.097
-371.800	-200.000	-0.063	0.283
-370.785	-79.828	0.418	0.140
-369.771	-200.000	0.025	-0.118
-368.756	507.921	0.051	0.119
-367.742	43.874	-0.070	0.064
-366.727	-121.242	0.052	0.009
-365.712	-200.000	-0.028	0.243
-364.698	464.390	-0.071	-0.157
-363.683	58.693	0.069	-0.067
-362.669	252.214	0.097	-0.165
-361.654	227.996	0.168	0.272
-360.639	800.000	0.033	0.107
-359.625	-32.959	-0.285	-0.157
-358.610	800.000	-0.047	0.160
-357.596	110.375	0.198	-0.236
-356.581	50.395	-0.347	0.326
-355.566	-78.836	-0.198	0.067
-354.552	392.910	0.079	-0.162
-353.537	-92.718	-0.062	0.017
-352.523	2.897	0.103	-0.074
-351.508	-200.000	-0.027	0.266
-350.493	-115.004	-0.240	0.045
-349.479	-135.283	-0.079	0.009
-348.464	244.052	-0.059	-0.099
-347.450	-72.071	0.165	0.061
-346.435	35.163	0.086	-0.075
-345.420	-71.246	-0.121	-0.045
-344.406	-200.000	-0.019	0.218
-343.391	159.005	0.145	-0.200
-342.377	-71.210	-0.174	0.065
-341.362	525.887	-0.083	0.195
-340.348	108.832	0.157	0.187
-339.333	362.019	0.044	-0.088
-338.318	-126.602	-0.301	-0.044
-337.304	-137.015	0.260	0.030
-336.289	-141.462	-0.072	0.007
-335.275	20.592	0.272	0.218
-334.260	-126.514	-0.189	-0.028
-333.245	101.300	0.123	0.142
-332.231	-200.000	0.044	0.276
-331.216	800.000	-0.084	0.249
-330.202	690.078	-0.034	0.090
-329.187	158.108	0.138	0.190
-328.172	-200.000	0.021	-0.216
-327.158	-200.000	-0.013	-0.109
-326.143	-82.626	-0.113	-0.036
-325.129	490.945	-0.060	0.136
-324.114	25.738	0.286	0.236
-323.099	-142.291	-0.365	-0.036
-322.085	-85.040	0.268	-0.083
-321.070	800.000	0.017	0.065
-320.056	-168.627	-0.232	0.009
-319.041	-177.397	0.337	0.008
-318.026	4.093	0.147	-0.107
-317.012	-51.895	-0.149	-0.069
-315.997	509.331	0.080	0.185
-314.983	-24.402	-0.022	0.013
-313.968	55.011	0.163	0.156
-312.953	-186.616	-0.153	-0.002
-311.939	-200.000	0.016	0.110
-310.924	-64.029	-0.395	-0.160
-309.910	-200.000	-0.002	0.154
-308.895	226.510	-0.096	0.154
-307.880	72.880	-0.089	0.092
-306.866	363.132	-0.103	-0.205
-305.851	-130.960	0.358	-0.047
-304.837	800.000	0.099	0.413
-303.822	-47.769	-0.022	-0.010
-302.807	19.435	-0.232	0.185
-301.793	142.348	0.049	-0.064
-300.778	651.827	-0.039	0.098
-299.764	23.970	-0.393	-0.321
-298.749	-200.000	0.042	-0.292
-297.735	67.886	-0.120	-0.122
-296.720	-115.400	-0.150	-0.028
-295.705	24.983	-0.088	-0.073
-294.691	4.363	-0.302	0.220
-293.676	214.663	-0.108	-0.170
-292.662	34.246	0.107	-0.093
-291.647	-200.000	-0.025	-0.353
-290.632	511.974	0.059	-0.135
-289.618	-19.575	-0.194	0.119
-288.603	240.940	-0.155	-0.256
-287.589	-200.000	-0.014	-0.104
-286.574	-16.403	0.183	0.115
-285.559	20.127	-0.213	0.170
-284.545	-200.000	-0.022	-0.142
-283.530	183.798	-0.206	0.302
-282.516	141.225	0.037	0.049
-281.501	800.000	0.070	-0.262
-280.486	-200.000	-0.030	-0.147
-279.472	146.512	-0.171	-0.228
-278.457	682.960	0.066	0.170
-277.443	-200.000	0.002	-0.166
-276.428	-200.000	-0.028	-0.258
-275.413	-15.708	0.287	-0.181
-274.399	-112.187	0.373	-0.074
-273.384	19.440	0.103	0.082
-272.370	656.224	-0.013	0.032
-271.355	-55.282	0.075	-0.034
-270.340	68.238	-0.048	-0.049
-269.326	800.000	-0.090	0.382
-268.311	474.466	-0.101	0.226
-267.297	-200.000	-0.009	0.073
-266.282	-200.000	-0.019	0.082
-265.267	800.000	-0.084	-0.271
-264.253	-200.000	-0.015	0.403
-263.238	-93.468	0.377	-0.103
-262.224	435.777	-0.103	0.221
-261.209	-41.399	-0.235	-0.120
-260.195	54.405	0.051	-0.049
-259.180	503.000	0.176	0.404
-258.165	23.309	-0.196	0.159
-257.151	-21.585	-0.223	-0.135
-256.136	8.085	-0.232	-0.172
-255.122	553.714	0.071	-0.169
-254.107	385.331	0.156	-0.318
-253.092	24.702	-0.326	-0.267
-252.078	800.000	0.034	-0.143
-251.063	175.314	-0.135	0.193
-250.049	-117.066	0.462	-0.083
-249.034	165.784	0.041	-0.057
-248.019	9.575	0.192	-0.144
-247.005	-200.000	0.063	-0.307
-245.990	-163.187	0.248	-0.012
-244.976	-59.931	-0.095	0.040
-243.961	800.000	-0.030	0.097
-242.946	152.386	-0.027	0.036
-241.932	-57.588	0.170	-0.074
-240.917	313.936	0.138	-0.257
-239.903	800.000	-0.057	0.209
-238.888	-25.725	0.076	0.044
-237.873	29.648	0.157	0.132
-236.859	-200.000	-0.032	0.286
-235.844	800.000	0.182	0.500
-234.830	-13.282	0.194	0.125
-233.815	30.695	0.218	-0.185
-232.800	-36.189	0.045	0.024
-231.786	-200.000	0.011	-0.076
-230.771	-82.348	-0.276	0.089
-229.757	305.175	0.132	-0.242
-228.742	-166.058	-0.173	0.007
-227.727	476.545	0.050	0.113
-226.713	283.276	-0.176	0.312
-225.698	800.000	-0.062	-0.182
-224.684	-71.667	0.203	0.075
-223.669	-123.821	-0.317	0.049
-222.655	-200.000	0.035	0.262
-221.640	-87.089	0.244	0.073
-220.625	371.595	-0.114	-0.229
-219.611	-45.052	0.030	0.015
-218.596	67.579	-0.084	-0.085
-217.582	-33.089	0.127	0.070
-216.567	-102.723	0.276	0.065
-215.552	-54.869	-0.478	-0.213
-214.538	-200.000	0.003	-0.057
-213.523	313.807	-0.036	-0.067
-212.509	-10.193	-0.140	0.092
-211.494	-200.000	0.028	0.132
-210.479	-67.891	-0.313	-0.121
-209.465	182.053	-0.075	0.110
-208.450	-200.000	-0.032	0.201
-207.436	95.000	0.029	-0.032
-206.421	463.857	-0.039	-0.087
-205.406	285.222	0.149	-0.265
-204.392	109.361	0.245	0.290
-203.377	-32.941	-0.397	-0.218
-202.363	208.656	0.181	0.280
-201.348	161.987	0.226	-0.312
-200.333	-200.000	-0.045	-0.357
-199.319	-200.000	0.078	-0.349
-198.304	-200.000	0.004	-0.051
-197.290	-54.315	-0.096	0.043
-196.275	-137.304	-0.285	0.032
-195.260	-177.845	0.254	0.006
-194.246	-55.096	-0.180	-0.080
-193.231	109.759	0.066	0.078
-192.217	-132.882	-0.128	-0.016
-191.202	-72.993	-0.239	0.087
-190.187	2.734	-0.443	0.317
-189.173	-200.000	-0.026	-0.138
-188.158	346.984	-0.050	-0.097
-187.144	341.062	0.157	-0.302
-186.129	-95.976	0.183	0.048
-185.114	-107.408	0.152	0.033
-184.100	482.760	0.109	0.244
-183.085	-200.000	0.014	0.174
-182.071	-200.000	0.031	0.335
-181.056	294.110	0.021	-0.037
-180.042	-76.830	-0.410	0.142
-179.027	40.732	-0.116	0.104
-178.012	-22.091	-0.263	-0.157
-176.998	800.000	0.093	0.294
-175.983	-200.000	0.013	-0.363
-174.969	101.721	-0.073	-0.083
-173.954	-6.272	0.104	-0.070
-172.939	800.000	-0.046	0.182
-171.925	213.510	-0.125	0.195
-170.910	-141.877	-0.138	0.014
-169.896	174.482	0.127	-0.181
-168.881	-200.000	-0.001	0.171
-167.866	-110.773	0.058	0.012
-166.852	22.638	0.297	0.240
-165.837	-64.828	0.409	-0.164
-164.823	-200.000	0.075	-0.340
-163.808	67.541	0.107	-0.108
-162.793	-69.400	0.191	-0.072
-161.779	-200.000	0.034	0.208
-160.764	25.863	-0.228	-0.187
-159.750	89.950	0.269	0.296
-158.735	-200.000	0.045	0.273
-157.720	-99.001	0.215	0.054
-156.706	-200.000	-0.070	0.324
-155.691	-115.456	0.282	-0.052
-154.677	-167.932	0.044	-0.002
-153.662	-200.000	-0.024	0.212
-152.647	-10.592	0.200	-0.131
-151.633	-200.000	-0.040	-0.295
-150.618	-200.000	0.039	-0.396
-149.604	-95.040	0.104	-0.028
-148.589	365.209	-0.206	-0.408
-147.574	174.787	0.063	0.091
-146.560	800.000	-0.073	-0.266
-145.545	18.647	-0.173	-0.136
-144.531	109.164	0.195	0.230
-143.516	-123.955	0.355	-0.055
-142.502	-112.697	0.372	-0.073
-141.487	266.290	-0.022	-0.038
-140.472	396.905	-0.130	-0.268
-139.458	-200.000	0.001	0.083
-138.443	40.278	-0.063	0.056
-137.429	-81.311	-0.099	-0.032
-136.414	-200.000	-0.000	-0.077
-135.399	-16.733	-0.223	0.139
-134.385	84.270	0.260	0.280
-133.370	-47.058	-0.094	0.045
-132.356	-22.676	0.151	0.090
-131.341	75.204	-0.151	-0.157
-130.326	-114.621	-0.105	0.020
-129.312	-200.000	0.023	0.234
-128.297	241.704	0.148	-0.243
-127.283	-79.552	0.415	-0.138
-126.268	-71.981	0.257	-0.094
-125.253	-200.000	-0.018	-0.128
-124.239	-107.498	-0.228	-0.049
-123.224	-200.000	-0.019	-0.130
-122.210	800.000	0.044	-0.171
