DTS Sentinel unit serial number:	SN413079Multiplexer serial number:	ORYXHardware model number:	OX4-SRSoftware version number:	ORYX F/W v4.00 Oryx Data Collector v3.7.2.0data status	okinstallation	princeton_trtdifferential loss correction	single-endedforward channel	channel 2reverse channel	N/Adate	2019/09/17time	01:03:35forward acquisition time	60.00reverse acquisition time	0.00gamma	496.2192k internal	0.2329k external	0.2329temperature offset calibration	0.9972default loss term (dB/km)	0.3790temperature slope calibration	1.0000multiplexer offset coefficient	1.0000multiplexer slope coefficient	1.0000fibre end	0.00T internal ref (°C)	29.45T ext. ref 1 (°C)	0.11T ext. ref 2 (°C)	24.13length (m)	temperature (°C)	Stokes	anti-Stokes-747.200	-200.000	-0.035	0.304
-746.185	-132.663	0.100	-0.013
-745.171	517.307	-0.041	-0.097
-744.156	-200.000	0.009	0.100
-743.142	254.179	0.143	-0.247
-742.127	-130.793	-0.114	-0.015
-741.112	-40.853	0.048	-0.025
-740.098	-200.000	-0.016	-0.074
-739.083	-200.000	0.042	-0.304
-738.069	-62.892	0.110	-0.046
-737.054	-112.847	0.297	0.059
-736.039	-66.314	-0.121	-0.049
-735.025	464.146	0.100	0.225
-734.010	-147.162	-0.316	-0.027
-732.996	-73.562	-0.275	-0.101
-731.981	-200.000	-0.423	0.001
-730.966	360.635	-0.056	0.114
-729.952	-200.000	0.021	-0.194
-728.937	50.065	-0.259	-0.246
-727.923	130.055	0.289	-0.372
-726.908	157.201	0.166	-0.231
-725.894	-200.000	-0.001	0.106
-724.879	-200.000	0.043	-0.242
-723.864	14.168	-0.204	-0.160
-722.850	-56.134	-0.293	-0.131
-721.835	75.025	0.195	0.207
-720.821	-106.243	-0.154	0.035
-719.806	720.422	-0.078	0.209
-718.791	-200.000	0.052	-0.234
-717.777	-70.721	0.012	0.004
-716.762	-200.000	0.044	-0.207
-715.748	-32.363	-0.221	-0.124
-714.733	-200.000	-0.065	-0.427
-713.718	-81.794	0.092	-0.030
-712.704	-200.000	0.046	-0.217
-711.689	207.049	0.079	-0.124
-710.675	-200.000	0.007	-0.187
-709.660	234.201	-0.162	0.269
-708.645	194.947	-0.051	-0.079
-707.631	308.221	-0.118	-0.222
-706.616	-18.534	-0.290	0.182
-705.602	20.962	0.117	0.095
-704.587	800.000	-0.016	-0.064
-703.572	-109.840	-0.405	0.085
-702.558	-18.335	-0.247	0.156
-701.543	473.377	0.083	0.189
-700.529	-116.623	0.256	0.047
-699.514	549.765	-0.134	0.324
-698.499	36.136	-0.257	-0.227
-697.485	-15.116	-0.046	0.030
-696.470	7.216	-0.288	-0.216
-695.456	347.425	0.100	0.198
-694.441	44.410	-0.288	-0.266
-693.426	21.432	-0.260	-0.213
-692.412	-200.000	-0.041	-0.203
-691.397	283.368	0.113	0.203
-690.383	345.998	-0.158	-0.313
-689.368	800.000	0.036	-0.114
-688.354	800.000	0.175	-0.540
-687.339	800.000	-0.066	0.247
-686.324	-50.378	-0.143	0.068
-685.310	112.588	-0.315	0.383
-684.295	800.000	-0.032	-0.096
-683.281	235.472	-0.046	-0.077
-682.266	800.000	-0.102	0.324
-681.251	500.600	-0.164	-0.381
-680.237	-61.655	-0.142	0.060
-679.222	162.379	0.106	0.150
-678.208	800.000	-0.035	-0.115
-677.193	-114.256	-0.227	-0.044
-676.178	-118.588	-0.274	0.049
-675.164	-59.545	-0.337	-0.145
-674.149	-138.943	0.133	0.014
-673.135	-169.894	-0.278	0.010
-672.120	405.740	0.049	0.103
-671.105	290.381	-0.129	0.235
-670.091	-136.492	0.393	-0.046
-669.076	-50.265	-0.345	-0.164
-668.062	-200.000	-0.003	-0.232
-667.047	800.000	0.071	-0.284
-666.032	47.558	-0.151	0.141
-665.018	-200.000	-0.018	-0.401
-664.003	-200.000	0.101	-0.491
-662.989	-170.516	0.155	0.005
-661.974	-126.780	-0.156	0.023
-660.959	419.420	0.032	0.068
-659.945	-5.668	0.046	-0.032
-658.930	16.754	-0.239	0.190
-657.916	-67.764	-0.119	-0.047
-656.901	65.132	-0.157	0.160
-655.886	-109.008	0.446	-0.095
-654.872	-108.870	-0.173	-0.037
-653.857	800.000	-0.054	-0.171
-652.843	-89.968	-0.161	0.047
-651.828	-200.000	0.029	0.284
-650.814	800.000	-0.089	0.376
-649.799	31.183	0.355	0.306
-648.784	431.477	-0.049	0.106
-647.770	-200.000	-0.082	0.419
-646.755	-200.000	0.010	-0.174
-645.741	-129.026	-0.291	-0.041
-644.726	-34.242	0.237	-0.131
-643.711	-200.000	0.037	-0.296
-642.697	-6.993	0.154	0.105
-641.682	-157.532	0.231	0.014
-640.668	63.500	0.168	0.169
-639.653	8.007	0.180	-0.135
-638.638	-44.773	-0.243	-0.121
-637.624	-75.261	-0.310	-0.111
-636.609	800.000	0.077	-0.318
-635.595	-103.229	-0.106	0.025
-634.580	24.033	0.386	-0.319
-633.565	-200.000	-0.050	0.474
-632.551	-175.553	-0.140	0.004
-631.536	310.118	-0.042	-0.080
-630.522	164.631	0.149	-0.210
-629.507	99.272	-0.263	-0.305
-628.492	-112.359	-0.158	-0.032
-627.478	630.461	0.095	0.240
-626.463	-77.710	-0.174	0.060
-625.449	72.027	-0.208	-0.217
-624.434	162.276	-0.081	-0.113
-623.419	-94.574	0.230	0.063
-622.405	12.108	-0.114	0.088
-621.390	59.889	-0.232	0.230
-620.376	-121.522	-0.470	-0.078
-619.361	-200.000	-0.055	0.251
-618.346	-69.217	-0.174	-0.067
-617.332	800.000	0.061	0.221
-616.317	-75.508	0.118	0.042
-615.303	-200.000	-0.077	0.385
-614.288	-54.306	-0.155	-0.070
-613.273	-200.000	-0.002	-0.091
-612.259	-109.779	0.405	-0.085
-611.244	-200.000	0.027	-0.245
-610.230	-200.000	0.013	0.283
-609.215	-200.000	-0.024	0.123
-608.201	-200.000	-0.038	0.234
-607.186	-200.000	-0.197	-0.001
-606.171	-15.262	0.215	-0.138
-605.157	-38.485	-0.137	0.073
-604.142	-46.777	-0.232	-0.114
-603.128	-200.000	-0.011	-0.440
-602.113	-137.380	-0.152	0.017
-601.098	335.084	-0.232	0.450
-600.084	-16.275	0.243	0.155
-599.069	77.712	-0.232	-0.248
-598.055	-76.020	-0.125	0.044
-597.040	213.253	-0.053	-0.084
-596.025	66.798	-0.217	0.221
-595.011	265.775	0.128	0.224
-593.996	16.156	0.110	-0.087
-592.982	-200.000	0.053	-0.371
-591.967	-113.729	-0.080	0.016
-590.952	-25.337	0.066	-0.039
-589.938	-7.617	-0.089	0.060
-588.923	246.851	-0.140	0.237
-587.909	-109.750	-0.216	-0.046
-586.894	582.135	-0.119	0.292
-585.879	-200.000	-0.005	-0.155
-584.865	-70.205	0.232	-0.088
-583.850	82.914	-0.146	-0.159
-582.836	25.385	0.138	-0.115
-581.821	-75.736	0.081	0.029
-580.806	800.000	-0.025	-0.082
-579.792	102.762	-0.071	0.084
-578.777	619.264	-0.149	0.375
-577.763	-43.889	0.123	-0.062
-576.748	8.982	-0.188	0.142
-575.733	-112.196	0.253	-0.051
-574.719	75.418	0.042	0.045
-573.704	202.689	-0.014	-0.022
-572.690	168.948	0.088	-0.126
-571.675	441.043	0.110	0.240
-570.661	-88.516	-0.162	0.048
-569.646	800.000	0.011	-0.035
-568.631	800.000	-0.054	0.237
-567.617	-52.979	0.198	-0.091
-566.602	-123.232	-0.179	-0.029
-565.588	652.622	-0.133	-0.342
-564.573	-24.019	0.249	-0.149
-563.558	28.598	-0.508	-0.430
-562.544	-143.835	-0.144	0.014
-561.529	-21.788	0.151	-0.092
-560.515	-83.833	0.524	-0.167
-559.500	-200.000	-0.055	-0.288
-558.485	-200.000	0.005	-0.140
-557.471	-67.688	-0.113	0.044
-556.456	-142.838	0.077	-0.007
-555.442	-200.000	0.025	0.544
-554.427	-200.000	0.045	0.456
-553.412	-56.604	-0.216	0.096
-552.398	270.038	-0.088	0.154
-551.383	-200.000	0.028	-0.173
-550.369	96.129	0.129	-0.148
-549.354	-103.009	-0.137	0.032
-548.339	-5.465	0.109	-0.075
-547.325	239.415	0.209	0.348
-546.310	-70.034	0.461	-0.175
-545.296	97.230	-0.048	0.055
-544.281	-200.000	-0.207	-0.000
-543.266	-200.000	-0.010	-0.398
-542.252	-103.854	-0.125	0.029
-541.237	64.350	-0.074	-0.075
-540.223	-102.804	-0.022	-0.005
-539.208	65.121	-0.184	-0.186
-538.193	5.424	0.116	0.086
-537.179	219.393	-0.137	0.220
-536.164	-93.293	-0.368	0.102
-535.150	45.313	-0.215	-0.198
-534.135	583.837	-0.123	0.301
-533.121	114.176	-0.153	-0.186
-532.106	10.445	0.277	0.211
-531.091	-200.000	-0.051	0.338
-530.077	-200.000	0.010	0.204
-529.062	-121.120	0.273	0.046
-528.048	14.653	-0.247	0.193
-527.033	88.141	-0.299	-0.331
-526.018	-67.936	-0.108	0.042
-525.004	45.133	-0.134	-0.123
-523.989	-200.000	-0.026	-0.156
-522.975	381.069	-0.159	-0.326
-521.960	-200.000	-0.051	-0.274
-520.945	647.967	0.042	-0.107
-519.931	-29.026	-0.176	0.101
-518.916	203.768	0.139	-0.215
-517.902	800.000	-0.036	0.099
-516.887	-153.311	0.207	-0.014
-515.872	-119.759	0.244	0.042
-514.858	124.717	-0.119	0.149
-513.843	28.970	0.197	-0.166
-512.829	800.000	-0.032	0.095
-511.814	-200.000	-0.028	0.154
-510.799	-24.762	-0.350	0.208
-509.785	-200.000	0.003	-0.301
-508.770	-96.967	0.161	0.042
-507.756	-200.000	0.015	-0.075
-506.741	104.697	0.138	-0.162
-505.726	-200.000	0.037	0.277
-504.712	-83.932	0.291	-0.092
-503.697	177.087	-0.105	-0.152
-502.683	236.099	-0.219	0.361
-501.668	109.355	-0.105	-0.125
-500.653	196.054	0.100	-0.152
-499.639	-200.000	-0.030	-0.343
-498.624	-150.518	-0.145	0.011
-497.610	-45.166	-0.067	-0.033
-496.595	354.377	-0.083	-0.164
-495.581	-102.662	-0.189	0.045
-494.566	800.000	0.067	-0.280
-493.551	227.748	0.276	-0.448
-492.537	-63.213	-0.185	0.076
-491.522	465.027	-0.091	-0.203
-490.508	32.356	0.338	0.291
-489.493	42.861	-0.244	-0.222
-488.478	-167.593	0.196	0.008
-487.464	-68.714	0.106	0.041
-486.449	-21.361	-0.208	-0.127
-485.435	74.223	-0.055	0.057
-484.420	800.000	0.086	0.292
-483.405	-200.000	0.002	0.081
-482.391	-29.125	0.155	-0.088
-481.376	333.246	0.182	0.350
-480.362	800.000	0.063	0.189
-479.347	-35.879	-0.066	-0.036
-478.332	-11.130	0.273	0.180
-477.318	18.984	0.096	-0.076
-476.303	-120.645	0.412	-0.069
-475.289	-50.378	-0.170	-0.080
-474.274	-194.347	-0.136	-0.001
-473.259	1.102	-0.155	0.111
-472.245	211.663	0.076	-0.119
-471.230	-200.000	0.037	0.240
-470.216	-200.000	-0.014	0.275
-469.201	800.000	0.130	-0.371
-468.186	82.258	0.182	-0.197
-467.172	143.106	-0.225	-0.299
-466.157	-106.711	0.207	-0.046
-465.143	-23.921	0.158	-0.094
-464.128	695.874	-0.042	-0.109
-463.113	-146.666	-0.089	0.008
-462.099	88.502	-0.272	0.301
-461.084	184.263	-0.308	-0.454
-460.070	-101.003	-0.237	0.058
-459.055	61.757	0.047	-0.046
-458.040	-200.000	-0.010	0.111
-457.026	-66.731	0.328	0.129
-456.011	-200.000	-0.001	0.160
-454.997	-200.000	-0.007	-0.086
-453.982	-200.000	-0.035	0.218
-452.968	-200.000	0.013	-0.174
-451.953	-46.152	-0.341	-0.167
-450.938	-77.330	-0.127	0.044
-449.924	-95.887	-0.096	0.026
-448.909	-9.697	0.306	-0.203
-447.895	-70.998	-0.102	0.038
-446.880	380.743	-0.188	0.384
-445.865	-200.000	0.013	0.076
-444.851	118.346	0.201	-0.247
-443.836	800.000	0.022	-0.086
-442.822	30.619	0.095	0.081
-441.807	800.000	-0.104	0.342
-440.792	710.404	-0.021	-0.056
-439.778	66.140	-0.050	0.051
-438.763	800.000	-0.064	0.191
-437.749	323.345	0.089	0.169
-436.734	-15.339	-0.104	-0.066
-435.719	86.477	0.074	0.081
-434.705	457.696	0.033	-0.072
-433.690	41.032	0.150	-0.135
-432.676	-148.230	-0.356	-0.029
-431.661	209.814	0.021	-0.032
-430.646	-94.787	-0.386	0.104
-429.632	474.494	-0.172	0.386
-428.617	117.642	-0.194	0.237
-427.603	-18.747	-0.086	-0.053
-426.588	800.000	0.016	0.060
-425.573	258.479	-0.059	-0.101
-424.559	-177.854	-0.365	0.009
-423.544	-49.989	0.340	0.161
-422.530	475.239	0.055	-0.124
-421.515	-105.010	0.183	0.042
-420.500	343.470	0.015	-0.030
-419.486	800.000	0.059	0.204
-418.471	-69.375	0.203	-0.078
-417.457	-44.841	0.327	-0.162
-416.442	163.982	0.056	-0.078
-415.428	107.665	0.146	0.172
-414.413	-156.044	0.148	0.009
-413.398	-26.455	-0.324	0.189
-412.384	-53.612	-0.083	0.038
-411.369	349.146	-0.158	0.310
-410.355	-200.000	-0.034	-0.247
-409.340	-18.533	0.256	-0.159
-408.325	17.029	-0.173	-0.137
-407.311	269.280	0.099	-0.172
-406.296	-45.744	-0.205	0.101
-405.282	-200.000	-0.020	0.188
-404.267	-200.000	-0.010	-0.047
-403.252	-116.362	-0.063	0.012
-402.238	229.322	0.063	0.102
-401.223	-3.907	0.239	0.165
-400.209	800.000	-0.066	0.243
-399.194	55.720	0.324	-0.312
-398.179	23.340	0.302	-0.247
-397.165	-6.170	-0.292	0.198
-396.150	44.417	-0.092	-0.084
-395.136	-200.000	0.058	0.272
-394.121	531.247	0.050	-0.117
-393.106	169.011	-0.137	0.195
-392.092	48.686	0.033	0.030
-391.077	119.519	-0.032	0.039
-390.063	-128.026	-0.063	0.009
-389.048	-200.000	-0.068	0.345
-388.033	800.000	-0.054	0.184
-387.019	-117.727	-0.048	-0.009
-386.004	128.297	-0.180	0.228
-384.990	616.224	0.076	-0.189
-383.975	-21.869	0.268	-0.162
-382.960	-29.262	0.115	0.066
-381.946	130.712	0.060	0.076
-380.931	-23.399	0.044	-0.026
-379.917	40.940	0.203	-0.182
-378.902	-200.000	0.023	-0.137
-377.888	-138.627	-0.368	0.040
-376.873	800.000	0.029	-0.111
-375.858	-101.224	0.320	-0.078
-374.844	-168.653	0.289	-0.011
-373.829	-126.585	-0.282	0.041
-372.815	-132.990	0.220	0.028
-371.800	-200.000	-0.038	-0.194
-370.785	-46.205	0.289	0.141
-369.771	-167.201	0.152	-0.006
-368.756	42.082	0.181	0.163
-367.742	-200.000	-0.036	-0.190
-366.727	-143.631	0.182	0.017
-365.712	130.510	0.223	0.283
-364.698	181.991	-0.157	0.230
-363.683	-23.756	-0.280	-0.166
-362.669	-174.526	0.106	-0.003
-361.654	-82.928	0.094	-0.030
-360.639	-152.408	0.222	0.016
-359.625	-21.690	0.200	0.121
-358.610	800.000	0.078	0.237
-357.596	-119.260	0.192	0.033
-356.581	153.274	0.131	0.178
-355.566	-71.846	0.121	0.045
-354.552	-86.425	0.132	-0.040
-353.537	461.830	-0.034	0.076
-352.523	-67.357	-0.340	-0.132
-351.508	609.539	0.100	0.249
-350.493	-200.000	-0.079	0.000
-349.479	-200.000	-0.076	-0.563
-348.464	-88.736	0.227	0.067
-347.450	1.517	-0.347	0.247
-346.435	-200.000	0.031	-0.158
-345.420	-22.827	-0.205	-0.123
-344.406	96.869	-0.099	-0.113
-343.391	0.249	0.263	-0.186
-342.377	97.998	-0.121	0.138
-341.362	-43.004	0.188	-0.094
-340.348	-200.000	0.040	-0.217
-339.333	33.003	0.232	0.199
-338.318	230.382	-0.095	0.154
-337.304	194.514	0.129	-0.195
-336.289	-185.582	-0.302	0.005
-335.275	109.593	0.054	0.065
-334.260	-71.451	0.252	-0.093
-333.245	247.862	-0.218	-0.366
-332.231	-200.000	-0.003	-0.021
-331.216	-88.852	-0.318	0.093
-330.202	-9.462	-0.403	-0.267
-329.187	68.446	0.180	-0.183
-328.172	1.319	-0.129	-0.092
-327.158	117.123	0.159	0.193
-326.143	316.343	-0.130	0.243
-325.129	190.206	-0.151	0.224
-324.114	0.208	-0.284	0.200
-323.099	-200.000	-0.004	0.318
-322.085	80.650	0.329	0.351
-321.070	-200.000	0.039	-0.236
-320.056	194.381	-0.106	0.160
-319.041	-131.064	-0.109	-0.014
-318.026	-200.000	0.016	-0.128
-317.012	800.000	-0.034	0.138
-315.997	-68.840	-0.478	-0.183
-314.983	800.000	0.037	-0.118
-313.968	-16.350	-0.025	-0.015
-312.953	-57.475	0.257	0.112
-311.939	142.929	0.093	0.122
-310.924	800.000	0.103	-0.413
-309.910	-116.760	0.019	0.004
-308.895	-200.000	-0.021	0.131
-307.880	-166.035	-0.770	-0.033
-306.866	-61.235	0.080	-0.033
-305.851	142.973	-0.147	-0.193
-304.837	288.173	0.052	0.093
-303.822	-200.000	-0.017	0.146
-302.807	-200.000	0.017	0.206
-301.793	-200.000	-0.004	-0.129
-300.778	-22.752	0.124	0.074
-299.764	-12.418	0.179	0.116
-298.749	800.000	-0.055	0.225
-297.735	217.618	0.043	-0.067
-296.720	800.000	-0.064	-0.184
-295.705	-200.000	0.033	0.262
-294.691	-54.590	-0.092	-0.041
-293.676	-73.921	0.149	-0.053
-292.662	-66.504	0.236	-0.093
-291.647	-60.576	0.189	0.079
-290.632	168.459	-0.127	-0.179
-289.618	108.787	0.198	-0.235
-288.603	44.187	-0.133	-0.121
-287.589	156.864	0.055	0.075
-286.574	-160.183	0.395	0.021
-285.559	-6.337	-0.212	-0.143
-284.545	-177.459	0.292	0.007
-283.530	-26.674	-0.088	-0.051
-282.516	-62.296	-0.115	-0.047
-281.501	-70.996	-0.217	-0.081
-280.486	-15.111	-0.004	-0.003
-279.472	-200.000	0.020	-0.123
-278.457	143.065	0.095	0.125
-277.443	446.836	-0.070	0.153
-276.428	-200.000	-0.021	-0.205
-275.413	-93.260	-0.192	0.053
-274.399	-200.000	0.004	-0.154
-273.384	800.000	-0.051	0.160
-272.370	159.246	-0.156	-0.215
-271.355	241.466	0.192	-0.317
-270.340	-200.000	0.055	0.272
-269.326	-84.869	-0.129	0.040
-268.311	323.145	-0.061	-0.115
-267.297	-25.906	0.090	-0.052
-266.282	-30.862	-0.104	0.058
-265.267	433.615	0.026	-0.055
-264.253	-63.112	0.386	0.158
-263.238	86.532	0.218	-0.237
-262.224	-40.461	0.291	-0.149
-261.209	-200.000	-0.040	-0.215
-260.195	-58.431	-0.162	-0.069
-259.180	-75.507	0.277	-0.097
-258.165	800.000	0.115	-0.336
-257.151	-91.689	-0.174	-0.049
-256.136	800.000	-0.043	0.147
-255.122	92.248	-0.050	0.056
-254.107	-200.000	-0.083	0.439
-253.092	-128.523	-0.149	-0.021
-252.078	-128.090	0.137	0.019
-251.063	-200.000	0.022	-0.132
-250.049	429.970	-0.156	-0.333
-249.034	-200.000	0.029	-0.211
-248.019	62.233	0.106	0.104
-247.005	93.058	0.117	0.130
-245.990	-159.618	-0.137	0.008
-244.976	-200.000	0.006	0.182
-243.961	-20.380	0.277	-0.168
-242.946	-200.000	-0.016	-0.158
-241.932	39.666	0.113	0.100
-240.917	24.246	-0.230	-0.188
-239.903	-200.000	-0.006	0.046
-238.888	219.607	0.043	0.067
-237.873	800.000	0.094	0.282
-236.859	800.000	-0.068	-0.191
-235.844	-37.627	0.228	0.120
-234.830	-200.000	0.378	0.000
-233.815	395.639	-0.082	0.168
-232.800	122.655	-0.319	-0.394
-231.786	-128.479	-0.388	0.054
-230.771	800.000	-0.114	0.384
-229.757	-25.592	-0.153	-0.089
-228.742	-117.332	-0.427	-0.076
-227.727	800.000	0.071	-0.232
-226.713	800.000	0.032	-0.109
-225.698	50.832	-0.037	-0.034
-224.684	237.913	0.160	-0.262
-223.669	462.706	0.068	0.150
-222.655	-200.000	-0.029	-0.158
-221.640	-200.000	0.014	-0.092
-220.625	-90.257	0.178	0.051
-219.611	91.729	0.187	0.208
-218.596	-36.084	-0.260	0.138
-217.582	783.358	0.043	-0.115
-216.567	-119.606	0.223	0.038
-215.552	-142.990	0.044	-0.004
-214.538	800.000	0.096	0.287
-213.523	46.017	0.098	0.089
-212.509	234.678	-0.193	-0.314
-211.494	-200.000	0.032	-0.352
-210.479	-89.786	0.097	-0.028
-209.465	-200.000	0.011	0.271
-208.450	480.537	0.072	0.162
-207.436	153.649	-0.139	-0.188
-206.421	-17.785	-0.192	0.119
-205.406	3.215	0.116	0.083
-204.392	-184.203	0.087	0.001
-203.377	-29.504	-0.090	-0.051
-202.363	-200.000	0.018	0.274
-201.348	124.383	0.064	0.080
-200.333	-91.985	0.193	0.054
-199.319	-176.756	0.294	0.007
-198.304	800.000	-0.047	-0.128
-197.290	383.465	-0.082	0.167
-196.275	-200.000	-0.030	-0.308
-195.260	-100.405	-0.152	0.037
-194.246	800.000	-0.027	-0.107
-193.231	-158.120	-0.143	0.008
-192.217	-107.977	-0.140	0.030
-191.202	-150.173	-0.269	0.021
-190.187	195.292	-0.075	-0.112
-189.173	181.858	-0.101	0.147
-188.158	-200.000	-0.121	-0.000
-187.144	225.511	0.105	-0.168
-186.129	-161.788	-0.087	-0.004
-185.114	-133.558	0.117	-0.014
-184.100	-200.000	0.005	-0.144
-183.085	-200.000	-0.013	0.085
-182.071	65.557	0.103	-0.103
-181.056	580.266	0.146	0.353
-180.042	-90.151	0.262	-0.075
-179.027	157.492	0.100	0.137
-178.012	15.203	-0.176	-0.136
-176.998	-200.000	0.024	0.161
-175.983	-200.000	0.049	0.268
-174.969	-7.240	-0.226	0.151
-173.954	196.684	0.224	-0.336
-172.939	28.015	0.138	0.114
-171.925	-106.553	0.287	0.063
-170.910	182.407	-0.177	-0.258
-169.896	167.189	-0.071	0.099
-168.881	-66.698	0.265	-0.104
-167.866	-39.396	0.445	0.230
-166.852	-76.651	-0.498	-0.172
-165.837	-32.007	-0.297	0.164
-164.823	-95.680	0.230	0.060
-163.808	426.999	0.036	-0.077
-162.793	435.007	0.033	-0.071
-161.779	-93.715	0.239	0.065
-160.764	266.557	0.270	0.464
-159.750	-200.000	-0.002	0.135
-158.735	-22.745	-0.133	0.079
-157.720	116.160	0.177	-0.213
-156.706	-200.000	-0.035	-0.249
-155.691	269.298	0.186	0.322
-154.677	-5.706	0.145	-0.098
-153.662	800.000	-0.084	-0.249
-152.647	800.000	0.100	-0.409
-151.633	9.993	0.235	0.176
-150.618	-51.307	0.268	0.123
-149.604	-200.000	-0.059	-0.261
-148.589	3.118	-0.340	0.243
-147.574	10.284	0.103	0.077
-146.560	-118.366	-0.319	-0.056
-145.545	-200.000	-0.079	0.639
-144.531	-103.170	0.201	0.047
-143.516	-25.958	-0.305	0.177
-142.502	800.000	0.034	-0.131
-141.487	31.287	-0.274	0.231
-140.472	-21.776	0.099	-0.059
-139.458	-10.800	-0.077	0.050
-138.443	-28.476	0.118	-0.067
-137.429	674.015	-0.048	-0.123
-136.414	-71.867	0.186	0.068
-135.399	-200.000	0.007	-0.322
-134.385	8.090	0.203	-0.150
-133.370	-84.014	0.167	-0.052
-132.356	-22.356	0.086	-0.051
-131.341	-200.000	-0.044	0.360
-130.326	121.565	-0.114	0.140
-129.312	-48.730	0.250	0.118
-128.297	6.558	-0.171	0.125
-127.283	-8.691	0.202	-0.133
-126.268	-200.000	0.030	-0.210
-125.253	58.632	0.093	-0.090
-124.239	335.428	0.192	-0.366
-123.224	103.215	0.085	-0.098
-122.210	154.847	-0.149	0.202
