DTS Sentinel unit serial number:	SN413079Multiplexer serial number:	ORYXHardware model number:	OX4-SRSoftware version number:	ORYX F/W v4.00 Oryx Data Collector v3.7.2.0data status	okinstallation	princeton_trtdifferential loss correction	single-endedforward channel	channel 2reverse channel	N/Adate	2019/09/16time	18:55:35forward acquisition time	60.00reverse acquisition time	0.00gamma	496.2192k internal	0.2323k external	0.2323temperature offset calibration	0.9965default loss term (dB/km)	0.3790temperature slope calibration	1.0000multiplexer offset coefficient	1.0000multiplexer slope coefficient	1.0000fibre end	0.00T internal ref (°C)	35.75T ext. ref 1 (°C)	0.05T ext. ref 2 (°C)	29.06length (m)	temperature (°C)	Stokes	anti-Stokes-747.200	22.356	0.285	-0.235
-746.185	-67.016	-0.546	0.218
-745.171	324.053	-0.099	0.190
-744.156	76.362	-0.151	-0.161
-743.142	-85.517	0.025	-0.008
-742.127	183.304	0.059	0.088
-741.112	107.478	0.207	-0.248
-740.098	-78.340	-0.044	-0.015
-739.083	-66.820	0.421	-0.168
-738.069	14.939	0.431	0.341
-737.054	70.839	0.147	0.154
-736.039	356.051	-0.106	0.212
-735.025	-200.000	0.004	0.496
-734.010	551.051	-0.214	0.520
-732.996	272.309	0.104	-0.185
-731.981	-102.072	-0.331	0.080
-730.966	497.170	-0.101	0.234
-729.952	113.422	0.183	-0.224
-728.937	-200.000	-0.038	-0.409
-727.923	780.991	-0.076	0.209
-726.908	-25.208	-0.301	0.180
-725.894	-29.978	0.114	0.065
-724.879	-45.755	-0.096	0.048
-723.864	-103.302	0.056	0.013
-722.850	-140.049	-0.286	0.030
-721.835	519.468	0.102	-0.242
-720.821	-30.783	0.198	-0.113
-719.806	800.000	-0.125	-0.428
-718.791	98.496	-0.116	0.134
-717.777	-13.397	-0.249	-0.163
-716.762	216.334	0.143	-0.229
-715.748	800.000	-0.084	0.234
-714.733	800.000	0.030	0.100
-713.718	-200.000	0.015	-0.242
-712.704	-24.828	-0.152	0.091
-711.689	-54.075	-0.133	0.061
-710.675	1.371	0.147	0.107
-709.660	-200.000	0.031	-0.330
-708.645	30.162	-0.420	0.362
-707.631	-200.000	-0.008	0.123
-706.616	-70.453	0.186	0.071
-705.602	-187.577	-0.124	-0.002
-704.587	550.339	-0.080	-0.194
-703.572	800.000	0.058	0.212
-702.558	-98.772	-0.082	-0.021
-701.543	41.559	-0.082	-0.074
-700.529	248.393	0.074	-0.127
-699.514	228.975	0.096	-0.158
-698.499	282.305	0.135	-0.245
-697.485	394.007	-0.082	-0.172
-696.470	201.234	0.162	0.252
-695.456	-55.804	0.095	-0.043
-694.441	346.998	0.106	-0.211
-693.426	-200.000	0.048	0.255
-692.412	800.000	0.039	-0.109
-691.397	306.580	-0.070	-0.131
-690.383	-132.698	0.294	-0.038
-689.368	89.300	-0.210	-0.235
-688.354	-27.549	0.085	0.050
-687.339	-200.000	-0.012	0.276
-686.324	11.378	0.108	0.084
-685.310	800.000	0.107	0.367
-684.295	56.465	-0.109	0.107
-683.281	353.887	0.054	-0.109
-682.266	-68.652	0.222	0.087
-681.251	5.473	-0.342	-0.254
-680.237	125.895	-0.141	-0.180
-679.222	76.207	0.193	0.206
-678.208	-200.000	0.007	0.130
-677.193	-94.484	0.335	-0.092
-676.178	-90.437	-0.057	0.016
-675.164	-74.361	-0.366	-0.133
-674.149	649.597	0.126	-0.326
-673.135	517.496	-0.147	-0.347
-672.120	-200.000	0.007	-0.218
-671.105	-94.836	0.334	-0.091
-670.091	-21.668	-0.129	-0.079
-669.076	-5.357	0.025	-0.018
-668.062	87.583	0.029	0.032
-667.047	-102.450	0.154	0.037
-666.032	800.000	0.138	-0.503
-665.018	800.000	-0.012	0.035
-664.003	-84.681	-0.276	-0.088
-662.989	515.031	0.114	0.267
-661.974	-81.200	-0.081	0.027
-660.959	366.205	0.051	-0.104
-659.945	86.527	0.144	0.160
-658.930	42.449	0.079	0.073
-657.916	-82.530	0.367	0.120
-656.901	69.415	-0.148	-0.154
-655.886	490.642	-0.089	-0.205
-654.872	-200.000	-0.101	-0.459
-653.857	73.158	0.082	-0.086
-652.843	56.652	-0.125	0.123
-651.828	-94.269	-0.221	0.061
-650.814	481.810	0.133	0.304
-649.799	-166.033	0.168	-0.007
-648.784	-168.568	0.158	0.006
-647.770	-200.000	0.003	0.090
-646.755	-119.056	-0.255	0.045
-645.741	-200.000	0.055	0.445
-644.726	-200.000	0.060	-0.351
-643.711	-200.000	-0.004	-0.267
-642.697	-200.000	-0.024	0.128
-641.682	-200.000	-0.008	-0.121
-640.668	800.000	-0.057	-0.219
-639.653	-97.857	0.352	0.092
-638.638	130.773	-0.122	-0.158
-637.624	-150.040	0.146	0.011
-636.609	174.577	0.116	-0.168
-635.595	344.261	-0.065	0.128
-634.580	79.642	0.166	-0.180
-633.565	549.067	0.027	0.064
-632.551	-69.291	-0.184	-0.071
-631.536	6.969	-0.146	-0.109
-630.522	491.340	-0.115	0.265
-629.507	-0.887	0.024	-0.017
-628.492	-192.368	0.301	-0.003
-627.478	-171.027	-0.211	-0.007
-626.463	-200.000	-0.041	-0.242
-625.449	-35.454	-0.181	0.099
-624.434	506.778	-0.077	-0.178
-623.419	302.956	-0.046	-0.086
-622.405	800.000	0.034	-0.102
-621.390	111.241	0.189	-0.228
-620.376	236.348	-0.015	0.025
-619.361	-200.000	0.039	-0.237
-618.346	-76.408	0.283	-0.100
-617.332	800.000	0.062	-0.223
-616.317	-18.135	-0.110	-0.069
-615.303	-78.841	-0.103	-0.035
-614.288	-200.000	-0.008	-0.303
-613.273	1.567	0.097	0.070
-612.259	-200.000	0.002	-0.347
-611.244	-47.336	0.268	-0.131
-610.230	800.000	-0.075	0.211
-609.215	-116.187	-0.362	-0.067
-608.201	-132.774	-0.180	-0.023
-607.186	416.121	-0.045	0.096
-606.171	33.420	0.114	0.099
-605.157	800.000	-0.028	0.108
-604.142	31.336	0.130	0.112
-603.128	-140.097	0.337	0.036
-602.113	-83.115	-0.205	0.066
-601.098	-141.154	0.389	0.040
-600.084	-200.000	-0.039	-0.232
-599.069	-120.279	-0.045	0.008
-598.055	709.966	0.078	0.206
-597.040	-200.000	0.035	-0.343
-596.025	68.477	-0.106	-0.109
-595.011	298.981	-0.101	0.186
-593.996	246.711	0.061	0.103
-592.982	767.614	0.070	0.191
-591.967	-200.000	-0.051	0.227
-590.952	32.516	-0.284	-0.246
-589.938	119.410	-0.100	-0.124
-588.923	154.332	-0.067	0.093
-587.909	-200.000	0.011	-0.294
-586.894	223.279	0.128	-0.207
-585.879	-37.141	-0.182	-0.098
-584.865	42.609	0.170	-0.156
-583.850	-200.000	0.040	-0.367
-582.836	134.662	0.151	0.197
-581.821	173.248	0.109	0.158
-580.806	800.000	0.039	0.116
-579.792	800.000	-0.128	0.383
-578.777	18.492	0.181	-0.145
-577.763	-22.896	-0.138	-0.084
-576.748	-81.361	-0.111	-0.037
-575.733	-89.237	-0.299	-0.088
-574.719	800.000	0.044	0.133
-573.704	215.716	0.046	0.073
-572.690	79.980	-0.095	0.102
-571.675	-200.000	-0.035	-0.278
-570.661	-16.806	0.071	-0.045
-569.646	370.382	0.096	-0.195
-568.631	-70.459	0.171	-0.065
-567.617	800.000	0.079	0.285
-566.602	-141.508	-0.090	-0.009
-565.588	141.243	0.082	0.109
-564.573	-200.000	-0.012	-0.141
-563.558	80.103	-0.081	0.087
-562.544	354.195	-0.027	-0.053
-561.529	-81.532	0.023	0.008
-560.515	-200.000	-0.108	-0.504
-559.500	-174.018	-0.276	0.008
-558.485	388.533	0.087	0.181
-557.471	404.402	-0.034	0.071
-556.456	187.580	-0.034	0.050
-555.442	6.216	0.051	0.038
-554.427	340.861	-0.119	0.233
-553.412	58.198	0.244	-0.240
-552.398	-200.000	0.009	0.142
-551.383	-24.529	0.124	0.074
-550.369	-39.074	0.102	0.054
-549.354	-73.919	0.347	-0.126
-548.339	-196.414	0.093	0.001
-547.325	800.000	-0.068	-0.217
-546.310	88.527	-0.214	0.238
-545.296	800.000	-0.029	-0.116
-544.281	105.871	-0.022	-0.026
-543.266	-165.255	-0.197	0.009
-542.252	-26.280	-0.228	0.134
-541.237	109.177	-0.126	0.152
-540.223	268.131	-0.086	-0.152
-539.208	63.230	0.255	-0.256
-538.193	800.000	0.080	-0.294
-537.179	-80.787	-0.072	0.024
-536.164	34.323	-0.108	0.095
-535.150	-200.000	0.040	0.273
-534.135	800.000	-0.016	-0.050
-533.121	62.202	-0.091	0.091
-532.106	-51.366	0.154	0.072
-531.091	87.796	0.091	0.102
-530.077	-14.225	-0.156	0.101
-529.062	75.012	0.240	-0.253
-528.048	-200.000	-0.045	0.211
-527.033	800.000	0.056	0.204
-526.018	-96.459	0.152	-0.040
-525.004	153.776	0.256	0.352
-523.989	616.428	-0.152	-0.382
-522.975	-26.044	-0.474	-0.279
-521.960	-156.131	-0.029	0.002
-520.945	85.938	0.138	0.152
-519.931	800.000	-0.053	-0.185
-518.916	-200.000	-0.008	-0.187
-517.902	-200.000	-0.040	-0.364
-516.887	51.265	-0.286	-0.271
-515.872	443.541	0.152	0.333
-514.858	-155.021	-0.576	-0.038
-513.843	15.095	-0.195	0.153
-512.829	37.739	-0.114	0.101
-511.814	-200.000	-0.059	0.323
-510.799	-113.067	0.064	0.013
-509.785	-21.047	0.249	-0.153
-508.770	-53.863	0.355	0.162
-507.756	402.996	0.104	0.218
-506.741	-200.000	-0.007	0.126
-505.726	-135.767	-0.266	-0.032
-504.712	589.833	0.009	-0.023
-503.697	647.424	0.051	-0.131
-502.683	28.802	0.127	0.107
-501.668	261.110	0.101	0.175
-500.653	-142.542	0.122	0.012
-499.639	-13.006	-0.031	-0.020
-498.624	-198.374	-0.406	0.002
-497.610	-160.766	0.089	-0.005
-496.595	187.845	0.111	0.166
-495.581	321.872	-0.133	-0.253
-494.566	-200.000	-0.026	-0.123
-493.551	-1.373	-0.095	0.067
-492.537	3.941	-0.032	-0.023
-491.522	-200.000	-0.006	0.194
-490.508	-195.972	-0.268	0.002
-489.493	22.525	0.099	0.081
-488.478	800.000	-0.069	-0.254
-487.464	-90.559	-0.181	0.052
-486.449	-159.395	0.180	0.010
-485.435	-84.004	0.288	0.092
-484.420	431.864	0.116	-0.251
-483.405	-200.000	0.034	0.237
-482.391	-200.000	0.023	-0.170
-481.376	-50.228	-0.292	-0.138
-480.362	168.218	-0.199	0.284
-479.347	44.379	-0.145	-0.133
-478.332	-200.000	0.043	-0.200
-477.318	-89.491	0.230	0.068
-476.303	-200.000	-0.001	0.244
-475.289	212.170	-0.154	0.243
-474.274	-27.677	0.225	0.130
-473.259	-193.980	0.478	-0.004
-472.245	17.539	0.219	0.174
-471.230	800.000	0.084	0.243
-470.216	-171.675	0.211	0.007
-469.201	84.652	-0.323	-0.353
-468.186	-68.851	-0.279	-0.108
-467.172	-141.250	0.245	-0.025
-466.157	-68.698	-0.340	0.132
-465.143	-200.000	0.003	-0.129
-464.128	-200.000	-0.040	0.203
-463.113	800.000	0.060	0.235
-462.099	800.000	-0.051	0.185
-461.084	91.814	-0.070	-0.079
-460.070	-52.188	0.425	0.197
-459.055	-3.408	0.093	0.065
-458.040	800.000	-0.032	-0.112
-457.026	-21.378	0.267	-0.163
-456.011	-200.000	0.034	-0.313
-454.997	797.873	-0.016	-0.044
-453.982	-85.107	-0.143	0.045
-452.968	53.338	-0.129	-0.123
-451.953	-25.537	-0.216	0.127
-450.938	-153.834	0.123	-0.008
-449.924	-85.581	-0.150	-0.047
-448.909	-151.623	-0.130	-0.010
-447.895	-51.759	0.137	-0.064
-446.880	-46.198	0.149	-0.073
-445.865	177.613	-0.128	0.186
-444.851	-84.751	-0.359	-0.113
-443.836	-100.750	-0.477	0.117
-442.822	-200.000	0.040	0.249
-441.807	-14.066	-0.229	0.148
-440.792	97.530	-0.211	0.243
-439.778	-200.000	0.010	-0.212
-438.763	104.665	-0.027	0.032
-437.749	-200.000	0.045	0.428
-436.734	-79.554	-0.165	-0.056
-435.719	-99.795	-0.197	0.049
-434.705	564.430	0.024	-0.057
-433.690	-38.242	-0.379	0.201
-432.676	576.251	0.153	0.372
-431.661	358.983	-0.074	-0.147
-430.646	-15.896	-0.148	-0.094
-429.632	-200.000	-0.003	0.130
-428.617	-93.164	0.105	-0.029
-427.603	473.723	0.135	0.304
-426.588	-66.943	-0.147	0.058
-425.573	-119.377	-0.104	-0.018
-424.559	335.003	0.049	-0.095
-423.544	-21.498	-0.094	0.057
-422.530	-41.076	0.101	0.052
-421.515	-9.956	0.221	-0.146
-420.500	-200.000	-0.002	0.331
-419.486	-42.717	0.138	-0.070
-418.471	-123.268	-0.351	-0.056
-417.457	295.093	0.156	-0.285
-416.442	-153.311	0.170	-0.012
-415.428	99.968	0.141	0.163
-414.413	-200.000	0.008	-0.086
-413.398	-200.000	0.001	-0.015
-412.384	363.869	-0.084	-0.168
-411.369	180.883	-0.141	0.207
-410.355	-200.000	-0.018	0.299
-409.340	274.784	-0.024	0.043
-408.325	-148.769	0.179	-0.014
-407.311	800.000	0.074	0.242
-406.296	800.000	-0.073	0.282
-405.282	-10.662	-0.116	0.077
-404.267	64.495	0.142	0.143
-403.252	128.611	0.222	0.282
-402.238	-200.000	-0.020	-0.146
-401.223	-200.000	-0.002	0.112
-400.209	216.045	0.163	-0.258
-399.194	42.521	0.258	0.234
-398.179	-43.608	-0.182	0.091
-397.165	-0.698	0.272	0.192
-396.150	-200.000	-0.008	-0.245
-395.136	-114.172	-0.285	-0.055
-394.121	62.635	-0.176	0.175
-393.106	146.971	-0.197	0.263
-392.092	537.150	-0.042	-0.099
-391.077	-200.000	0.014	-0.117
-390.063	-200.000	-0.003	-0.049
-389.048	35.221	0.066	-0.058
-388.033	0.620	-0.167	0.119
-387.019	-58.945	0.112	0.048
-386.004	134.090	-0.099	-0.128
-384.990	-16.927	0.015	0.010
-383.975	-161.621	0.339	-0.017
-382.960	-200.000	-0.008	-0.099
-381.946	-120.531	-0.199	0.034
-380.931	26.690	-0.152	-0.126
-379.917	54.895	-0.235	-0.226
-378.902	-22.881	0.017	-0.010
-377.888	40.701	-0.024	0.022
-376.873	-163.359	0.063	-0.003
-375.858	800.000	0.049	0.155
-374.844	-61.254	0.130	-0.055
-373.829	-200.000	-0.006	-0.058
-372.815	-86.598	0.283	0.086
-371.800	87.437	0.154	0.169
-370.785	-177.518	0.428	-0.010
-369.771	-130.617	-0.140	0.019
-368.756	-99.792	-0.222	0.055
-367.742	43.005	0.169	-0.153
-366.727	-65.232	-0.273	0.109
-365.712	-43.161	0.280	-0.141
-364.698	14.694	0.383	-0.298
-363.683	-41.596	0.346	-0.177
-362.669	-70.243	0.216	-0.082
-361.654	16.737	-0.312	0.246
-360.639	-200.000	-0.021	0.245
-359.625	38.064	0.199	-0.176
-358.610	-200.000	0.011	0.237
-357.596	168.452	-0.324	-0.460
-356.581	-64.160	-0.154	0.062
-355.566	88.957	-0.071	-0.079
-354.552	-75.491	-0.284	0.101
-353.537	-200.000	-0.056	-0.268
-352.523	4.320	-0.448	-0.326
-351.508	-86.262	-0.230	-0.071
-350.493	23.297	-0.435	0.356
-349.479	800.000	-0.062	0.208
-348.464	-200.000	-0.084	-0.444
-347.450	78.012	-0.096	0.102
-346.435	-200.000	0.260	-0.001
-345.420	-110.529	0.192	0.040
-344.406	300.626	-0.417	-0.766
-343.391	315.418	0.132	-0.247
-342.377	-154.060	0.609	-0.041
-341.362	-17.493	-0.193	-0.121
-340.348	-78.724	-0.148	0.050
-339.333	-159.055	-0.238	0.013
-338.318	70.462	-0.206	0.212
-337.304	-95.686	-0.119	0.032
-336.289	-200.000	-0.057	-0.259
-335.275	-51.208	-0.154	-0.072
-334.260	29.808	0.124	-0.105
-333.245	-79.756	-0.134	0.045
-332.231	101.030	0.111	-0.129
-331.216	40.292	0.168	-0.151
-330.202	122.480	-0.012	-0.015
-329.187	130.187	-0.320	-0.408
-328.172	249.767	0.101	-0.171
-327.158	-151.004	0.196	0.015
-326.143	-159.113	-0.326	-0.018
-325.129	224.517	-0.048	-0.078
-324.114	2.269	0.138	-0.099
-323.099	63.020	0.049	0.049
-322.085	167.393	-0.121	0.171
-321.070	800.000	-0.125	-0.346
-320.056	-17.936	-0.148	0.092
-319.041	198.804	-0.079	-0.120
-318.026	-94.022	-0.273	0.074
-317.012	-200.000	-0.068	0.381
-315.997	295.503	-0.094	0.172
-314.983	174.893	-0.176	-0.253
-313.968	-200.000	-0.035	-0.199
-312.953	305.049	-0.039	0.072
-311.939	17.333	-0.100	-0.079
-310.924	115.108	0.213	0.259
-309.910	-17.876	0.074	0.046
-308.895	107.799	-0.053	-0.062
-307.880	212.352	-0.042	0.066
-306.866	-163.501	0.105	0.005
-305.851	263.702	0.026	-0.045
-304.837	117.167	-0.107	-0.130
-303.822	800.000	-0.039	0.170
-302.807	-0.441	0.099	0.070
-301.793	186.315	0.118	-0.174
-300.778	72.177	0.136	-0.140
-299.764	-118.873	0.286	0.050
-298.749	-200.000	0.044	0.323
-297.735	42.797	0.157	0.142
-296.720	30.651	0.141	0.120
-295.705	-47.451	0.180	0.087
-294.691	42.058	0.209	0.188
-293.676	-70.444	0.263	-0.099
-292.662	119.303	0.020	0.024
-291.647	800.000	0.126	0.492
-290.632	-132.429	-0.499	-0.064
-289.618	800.000	-0.043	0.152
-288.603	-88.347	-0.308	0.091
-287.589	-77.234	-0.145	0.050
-286.574	-112.323	0.314	0.062
-285.559	73.954	0.085	-0.088
-284.545	-200.000	0.050	0.234
-283.530	188.348	0.067	-0.100
-282.516	448.095	0.031	0.067
-281.501	-200.000	-0.046	-0.202
-280.486	395.625	-0.072	-0.149
-279.472	800.000	-0.065	-0.241
-278.457	-122.677	0.179	-0.029
-277.443	-89.985	0.241	-0.070
-276.428	-33.764	0.033	0.018
-275.413	-200.000	0.028	-0.238
-274.399	800.000	-0.057	-0.240
-273.384	52.033	-0.171	-0.162
-272.370	-200.000	-0.037	0.193
-271.355	273.658	-0.110	0.192
-270.340	-96.625	-0.042	-0.011
-269.326	-112.884	0.218	0.043
-268.311	-104.448	-0.260	0.060
-267.297	18.591	0.108	0.085
-266.282	330.657	0.119	0.228
-265.267	-200.000	-0.005	-0.358
-264.253	63.174	0.313	-0.310
-263.238	597.444	-0.057	0.141
-262.224	260.809	-0.059	0.101
-261.209	-200.000	0.042	0.271
-260.195	-110.255	0.080	0.016
-259.180	56.725	0.161	0.155
-258.165	-32.332	0.344	0.190
-257.151	-200.000	0.061	0.285
-256.136	-200.000	0.047	0.380
-255.122	74.460	-0.168	-0.175
-254.107	-161.987	-0.191	0.010
-253.092	-4.422	0.152	0.104
-252.078	102.668	0.185	0.214
-251.063	800.000	0.042	0.166
-250.049	-200.000	0.025	0.344
-249.034	-200.000	0.015	-0.195
-248.019	-104.745	-0.296	0.068
-247.005	-177.725	0.057	-0.001
-245.990	-200.000	0.006	-0.143
-244.976	-93.125	0.244	0.067
-243.961	800.000	0.061	0.243
-242.946	99.926	-0.223	0.255
-241.932	-62.909	0.252	-0.103
-240.917	158.888	0.143	-0.196
-239.903	338.949	-0.146	0.282
-238.888	-79.146	-0.376	-0.127
-237.873	-100.254	0.046	-0.011
-236.859	-106.006	-0.305	0.068
-235.844	-200.000	-0.044	-0.217
-234.830	204.502	0.023	0.035
-233.815	-125.626	0.232	0.035
-232.800	84.573	0.201	-0.218
-231.786	-151.358	-0.142	-0.010
-230.771	800.000	-0.068	0.289
-229.757	93.955	-0.147	-0.165
-228.742	163.145	-0.028	0.039
-227.727	-61.880	-0.197	0.082
-226.713	-110.326	0.243	-0.050
-225.698	-186.377	0.190	0.003
-224.684	-22.631	-0.070	-0.042
-223.669	12.544	-0.249	-0.190
-222.655	-200.000	0.001	-0.196
-221.640	200.001	0.087	0.132
-220.625	69.966	0.349	-0.356
-219.611	800.000	0.037	-0.134
-218.596	800.000	0.141	0.480
-217.582	800.000	-0.056	0.197
-216.567	-112.333	-0.242	0.048
-215.552	-143.914	-0.323	-0.030
-214.538	-200.000	-0.008	-0.190
-213.523	-76.378	0.306	0.107
-212.509	-200.000	-0.009	-0.105
-211.494	800.000	-0.033	0.127
-210.479	-99.363	0.236	-0.059
-209.465	-4.911	-0.083	-0.057
-208.450	-84.295	0.036	0.011
-207.436	83.785	0.213	-0.230
-206.421	-25.672	-0.173	-0.101
-205.406	800.000	0.201	-0.564
-204.392	193.884	0.098	0.146
-203.377	800.000	-0.108	0.325
-202.363	-200.000	0.016	-0.069
-201.348	-200.000	0.014	0.086
-200.333	89.345	-0.033	0.036
-199.319	-200.000	0.028	-0.140
-198.304	374.929	0.081	0.162
-197.290	72.071	-0.213	-0.219
-196.275	-122.925	-0.156	-0.025
-195.260	-136.758	0.114	0.013
-194.246	-21.532	0.132	-0.080
-193.231	74.459	0.067	-0.070
-192.217	-13.249	0.162	0.104
-191.202	-80.666	-0.157	0.052
-190.187	-81.419	-0.176	0.057
-189.173	58.188	-0.098	0.095
-188.158	-80.878	0.205	0.067
-187.144	182.429	-0.098	-0.143
-186.129	-120.167	-0.379	-0.064
-185.114	-200.000	-0.023	0.153
-184.100	-109.692	0.281	0.059
-183.085	-95.554	0.135	0.036
-182.071	142.541	0.169	0.222
-181.056	78.280	0.028	0.029
-180.042	-200.000	0.055	0.327
-179.027	267.854	0.064	0.111
-178.012	800.000	0.101	-0.282
-176.998	-126.682	0.087	0.013
-175.983	540.738	0.067	-0.159
-174.969	576.977	0.031	-0.076
-173.954	4.620	-0.079	0.058
-172.939	9.043	0.051	-0.038
-171.925	6.157	-0.022	-0.016
-170.910	2.534	0.256	0.183
-169.896	-11.038	0.241	-0.157
-168.881	800.000	0.125	-0.374
-167.866	800.000	0.037	-0.113
-166.852	-200.000	-0.061	-0.274
-165.837	-126.933	-0.187	-0.027
-164.823	-200.000	0.015	0.111
-163.808	430.958	-0.020	-0.044
-162.793	-200.000	0.059	-0.360
-161.779	800.000	0.066	0.182
-160.764	-200.000	-0.035	0.388
-159.750	21.845	0.195	-0.157
-158.735	743.940	0.119	0.316
-157.720	357.731	-0.117	-0.231
-156.706	169.916	0.041	0.058
-155.691	202.028	-0.168	0.256
-154.677	-127.769	0.007	0.001
-153.662	-103.574	0.216	-0.050
-152.647	141.960	-0.163	-0.214
-151.633	-154.187	0.199	0.013
-150.618	135.131	0.071	0.091
-149.604	-200.000	0.002	-0.050
-148.589	800.000	-0.065	-0.196
-147.574	276.261	0.189	-0.331
-146.560	105.555	0.115	-0.134
-145.545	91.691	0.239	0.266
-144.531	-24.173	0.464	0.273
-143.516	800.000	-0.061	0.188
-142.502	-109.546	0.301	0.063
-141.487	137.922	-0.216	-0.279
-140.472	-200.000	0.017	0.151
-139.458	-103.203	-0.335	-0.078
-138.443	800.000	0.038	-0.157
-137.429	283.516	-0.090	-0.160
-136.414	478.617	0.141	-0.315
-135.399	-200.000	0.002	0.095
-134.385	88.453	-0.088	-0.096
-133.370	26.031	-0.096	0.079
-132.356	-125.702	-0.134	0.020
-131.341	-6.719	-0.139	0.093
-130.326	-200.000	0.018	0.202
-129.312	800.000	0.011	-0.034
-128.297	800.000	-0.080	0.339
-127.283	-46.632	-0.188	-0.091
-126.268	-93.677	0.297	0.081
-125.253	-56.759	0.101	-0.044
-124.239	212.879	0.038	-0.059
-123.224	-68.600	-0.091	-0.035
-122.210	288.310	-0.134	-0.239
-121.195	800.000	-0.082	-0.254
-120.180	-84.997	0.285	0.088
