DTS Sentinel unit serial number:	SN413079Multiplexer serial number:	ORYXHardware model number:	OX4-SRSoftware version number:	ORYX F/W v4.00 Oryx Data Collector v3.7.2.0data status	okinstallation	princeton_trtdifferential loss correction	single-endedforward channel	channel 2reverse channel	N/Adate	2019/09/12time	18:55:49forward acquisition time	15.00reverse acquisition time	0.00gamma	496.2192k internal	0.2324k external	0.2324temperature offset calibration	1.0135default loss term (dB/km)	0.3790temperature slope calibration	1.0000multiplexer offset coefficient	1.0000multiplexer slope coefficient	1.0000fibre end	0.00T internal ref (°C)	32.81T ext. ref 1 (°C)	3.02T ext. ref 2 (°C)	27.38length (m)	temperature (°C)	Stokes	anti-Stokes-747.200	120.933	-0.227	-0.286
-746.185	-200.000	-0.050	0.319
-745.171	-200.000	0.121	-0.991
-744.156	272.389	-0.495	-0.882
-743.142	-141.657	0.636	-0.065
-742.127	-190.341	0.064	-0.001
-741.112	591.609	0.099	-0.247
-740.098	51.682	0.718	0.689
-739.083	-200.000	-0.089	-0.928
-738.069	767.668	0.173	0.474
-737.054	-76.497	-0.827	-0.293
-736.039	-0.235	-0.155	0.111
-735.025	-44.830	-0.155	-0.078
-734.010	-59.252	-0.212	-0.092
-732.996	69.595	-1.125	-1.169
-731.981	215.525	-0.495	-0.793
-730.966	-55.626	0.851	-0.384
-729.952	800.000	-0.066	0.240
-728.937	62.984	-0.394	0.398
-727.923	-200.000	-0.069	-0.362
-726.908	-28.742	0.486	-0.282
-725.894	-72.146	0.363	-0.136
-724.879	65.823	-0.538	-0.550
-723.864	1.453	0.133	0.096
-722.850	159.965	0.176	-0.247
-721.835	-83.869	-1.217	0.391
-720.821	-50.679	0.638	-0.303
-719.806	202.179	0.335	0.521
-718.791	324.512	0.223	0.430
-717.777	132.151	0.401	0.521
-716.762	721.457	0.231	0.621
-715.748	-200.000	-0.004	0.875
-714.733	-87.732	0.098	-0.030
-713.718	282.764	-0.157	0.283
-712.704	-200.000	-0.069	-0.880
-711.689	243.814	-0.155	-0.262
-710.675	335.442	-0.384	-0.750
-709.660	116.061	0.302	0.373
-708.645	-144.648	0.873	-0.081
-707.631	-14.241	-0.531	0.345
-706.616	-200.000	-0.078	-0.811
-705.602	116.134	-0.264	0.326
-704.587	-200.000	-0.034	0.591
-703.572	-94.355	-0.449	-0.124
-702.558	159.099	0.260	-0.365
-701.543	-107.823	0.444	0.097
-700.529	-124.939	-0.766	0.119
-699.514	-60.319	0.672	0.288
-698.499	26.882	0.471	0.398
-697.485	-22.961	-0.389	-0.236
-696.470	-200.000	0.094	0.488
-695.456	172.124	-0.114	-0.165
-694.441	292.286	-0.050	0.091
-693.426	27.972	-0.389	-0.330
-692.412	270.272	0.265	0.470
-691.397	242.202	-0.060	0.102
-690.383	-200.000	0.005	0.099
-689.368	382.302	0.262	-0.543
-688.354	-66.009	0.613	0.246
-687.339	44.794	0.616	-0.571
-686.324	27.291	0.393	-0.332
-685.310	-83.845	0.987	-0.317
-684.295	8.066	-0.360	0.272
-683.281	-129.416	0.281	0.039
-682.266	-12.918	-0.701	-0.460
-681.251	-54.223	0.717	0.328
-680.237	38.745	0.105	0.095
-679.222	62.828	-0.148	0.149
-678.208	-91.250	0.609	0.176
-677.193	9.945	0.795	-0.608
-676.178	-24.458	0.121	0.073
-675.164	-200.000	0.001	-0.396
-674.149	302.891	0.402	0.749
-673.135	-71.366	0.423	0.160
-672.120	415.605	0.182	0.391
-671.105	-200.000	-0.018	0.878
-670.091	-200.000	0.015	-0.122
-669.076	418.638	0.158	0.340
-668.062	-117.916	-0.162	0.029
-667.047	467.886	-0.114	-0.258
-666.032	-2.753	-0.279	0.196
-665.018	800.000	0.195	-0.694
-664.003	85.162	0.189	-0.209
-662.989	99.414	-0.417	0.485
-661.974	800.000	-0.083	-0.248
-660.959	-60.332	0.357	-0.153
-659.945	-200.000	0.110	0.548
-658.930	800.000	0.229	-0.646
-657.916	800.000	0.011	0.045
-656.901	800.000	-0.158	-0.445
-655.886	-200.000	0.076	0.610
-654.872	-200.000	0.111	-0.614
-653.857	-50.084	0.831	0.396
-652.843	-126.798	0.585	0.087
-651.828	323.345	0.208	-0.399
-650.814	43.501	-0.316	-0.291
-649.799	344.237	0.374	-0.739
-648.784	61.324	0.123	-0.123
-647.770	-83.485	0.579	0.186
-646.755	-109.808	-0.919	0.194
-645.741	771.312	0.208	0.569
-644.726	54.239	0.255	0.247
-643.711	126.802	-0.325	-0.414
-642.697	32.074	-0.723	-0.627
-641.682	-83.620	-0.217	0.070
-640.668	-200.000	-0.009	-0.359
-639.653	800.000	0.200	-0.675
-638.638	-37.658	-0.411	0.220
-637.624	-92.109	0.826	-0.235
-636.609	800.000	0.230	0.790
-635.595	-34.302	-0.461	-0.254
-634.580	101.616	0.320	-0.375
-633.565	-127.829	0.630	0.091
-632.551	-74.004	-0.091	0.033
-631.536	-200.000	0.003	-0.657
-630.522	-200.000	0.013	-0.524
-629.507	261.860	0.250	0.435
-628.492	-113.296	-0.210	0.041
-627.478	800.000	-0.082	0.357
-626.463	-200.000	-0.026	0.266
-625.449	15.797	0.405	0.320
-624.434	800.000	-0.257	0.719
-623.419	6.164	0.239	-0.178
-622.405	-200.000	-0.089	-0.630
-621.390	-110.837	-1.053	-0.218
-620.376	-200.000	0.039	0.190
-619.361	-131.069	-0.437	-0.058
-618.346	-200.000	0.159	-0.797
-617.332	800.000	0.204	0.732
-616.317	-123.055	-1.291	-0.208
-615.303	377.779	-0.332	0.682
-614.288	-48.274	0.705	-0.342
-613.273	-97.071	-0.395	-0.104
-612.259	-165.750	-0.774	-0.034
-611.244	-200.000	-0.082	0.534
-610.230	800.000	0.088	0.264
-609.215	235.504	-0.337	-0.560
-608.201	-97.543	0.289	0.075
-607.186	-85.575	0.841	-0.262
-606.171	-87.188	1.392	0.425
-605.157	45.056	-0.208	-0.192
-604.142	800.000	-0.044	-0.160
-603.128	-119.873	0.431	0.074
-602.113	800.000	0.039	0.167
-601.098	-115.794	0.264	0.050
-600.084	209.546	-0.264	-0.415
-599.069	20.749	-0.673	-0.547
-598.055	-130.486	0.171	0.023
-597.040	-200.000	-0.074	0.397
-596.025	-144.299	0.101	-0.009
-595.011	-200.000	-0.084	-0.485
-593.996	-140.767	1.423	0.147
-592.982	-200.000	0.051	0.237
-591.967	-200.000	-0.013	-0.339
-590.952	119.461	-0.481	-0.597
-589.938	329.519	-0.133	-0.257
-588.923	-53.261	-0.127	0.059
-587.909	593.307	-0.389	-0.964
-586.894	110.538	-0.129	-0.155
-585.879	800.000	-0.119	-0.373
-584.865	-25.591	0.521	-0.308
-583.850	800.000	0.068	0.194
-582.836	19.507	0.840	0.678
-581.821	-39.769	-0.562	0.295
-580.806	800.000	0.161	-0.628
-579.792	88.918	0.073	-0.081
-578.777	-97.740	-0.413	0.107
-577.763	-200.000	0.041	-0.529
-576.748	314.068	-0.166	0.314
-575.733	131.239	-0.393	-0.507
-574.719	-36.519	-0.437	0.236
-573.704	-111.964	-0.289	-0.058
-572.690	523.491	0.155	-0.364
-571.675	-200.000	-0.088	1.131
-570.661	-200.000	0.079	-1.032
-569.646	255.783	0.310	0.532
-568.631	-176.195	0.365	0.010
-567.617	120.879	0.168	0.209
-566.602	202.271	0.416	-0.643
-565.588	-15.429	-0.374	0.240
-564.573	-200.000	-0.132	0.648
-563.558	-131.989	0.516	0.067
-562.544	256.918	-0.369	-0.635
-561.529	-103.629	-0.255	-0.060
-560.515	-3.646	0.046	0.032
-559.500	232.382	0.323	-0.532
-558.485	800.000	0.187	0.549
-557.471	240.396	-0.314	0.525
-556.456	402.718	0.139	-0.293
-555.442	447.400	-0.381	-0.841
-554.427	-57.328	-0.478	0.211
-553.412	-37.831	0.861	0.459
-552.398	-200.000	-0.046	0.355
-551.383	-90.130	0.084	0.025
-550.369	385.113	0.351	-0.726
-549.354	459.350	0.431	-0.960
-548.339	-36.096	-0.417	0.226
-547.325	164.525	0.292	-0.413
-546.310	-58.736	0.458	-0.198
-545.296	-200.000	0.086	0.671
-544.281	-87.084	-0.286	-0.087
-543.266	144.044	0.254	-0.339
-542.252	-134.910	-0.389	0.047
-541.237	-200.000	0.068	0.430
-540.223	800.000	0.119	-0.346
-539.208	800.000	0.008	-0.031
-538.193	378.671	-0.317	0.649
-537.179	94.921	-0.476	0.542
-536.164	-11.878	-0.198	0.130
-535.150	12.089	0.626	0.482
-534.135	-200.000	0.101	-0.911
-533.121	30.621	-0.487	0.417
-532.106	-105.013	0.342	-0.078
-531.091	-76.492	-0.225	0.079
-530.077	-120.997	0.428	-0.072
-529.062	-42.265	0.457	-0.234
-528.048	522.322	0.068	0.159
-527.033	-22.852	0.375	0.226
-526.018	34.782	-0.338	0.295
-525.004	8.659	-0.589	0.444
-523.989	-129.358	-0.528	0.073
-522.975	800.000	0.156	0.505
-521.960	-112.100	0.238	-0.048
-520.945	336.770	-0.161	0.313
-519.931	-30.212	-0.802	-0.456
-518.916	234.824	-0.294	-0.485
-517.902	92.184	-0.252	-0.284
-516.887	-12.920	0.881	0.574
-515.872	335.359	-0.166	-0.323
-514.858	449.084	0.257	-0.567
-513.843	-97.807	0.045	-0.012
-512.829	133.894	0.220	-0.285
-511.814	446.155	-0.244	-0.537
-510.799	514.096	0.384	-0.897
-509.785	-200.000	-0.029	0.150
-508.770	108.875	-0.478	-0.571
-507.756	-114.427	-0.614	-0.118
-506.741	-86.255	0.242	0.075
-505.726	-200.000	0.013	0.207
-504.712	-63.568	-0.602	-0.247
-503.697	754.562	-0.317	0.858
-502.683	523.872	0.411	0.966
-501.668	-98.289	0.290	-0.074
-500.653	-86.671	-0.321	0.098
-499.639	-200.000	-0.034	0.243
-498.624	549.744	0.432	1.036
-497.610	337.336	0.105	0.204
-496.595	800.000	-0.158	-0.643
-495.581	25.696	0.452	0.376
-494.566	368.244	-0.578	-1.168
-493.551	20.825	-1.181	-0.957
-492.537	314.288	-0.492	0.926
-491.522	50.972	-0.404	-0.382
-490.508	-128.021	-0.333	0.048
-489.493	-200.000	-0.037	0.272
-488.478	-161.307	-0.926	0.048
-487.464	-154.364	-0.934	-0.063
-486.449	800.000	-0.263	0.945
-485.435	-200.000	0.079	1.051
-484.420	-200.000	0.018	0.342
-483.405	-200.000	-0.005	-0.186
-482.391	800.000	0.276	0.807
-481.376	-4.685	-0.304	0.210
-480.362	-36.417	0.505	-0.272
-479.347	-200.000	-0.018	-0.207
-478.332	-200.000	0.006	-0.829
-477.318	-66.442	-0.944	0.374
-476.303	800.000	-0.027	0.112
-475.289	-135.259	0.449	0.054
-474.274	161.310	-0.364	0.509
-473.259	-200.000	-0.073	0.000
-472.245	-200.000	-0.848	-0.001
-471.230	-200.000	-0.045	-0.519
-470.216	800.000	-0.104	-0.327
-469.201	-27.926	-0.712	-0.412
-468.186	-21.922	1.136	0.689
-467.172	-147.666	-0.824	-0.069
-466.157	-83.387	0.036	0.012
-465.143	-200.000	-0.046	0.356
-464.128	288.362	-0.158	-0.285
-463.113	-85.839	0.213	-0.066
-462.099	445.912	-0.293	-0.643
-461.084	467.486	0.071	0.159
-460.070	149.746	-0.398	-0.538
-459.055	-40.754	0.552	0.285
-458.040	353.959	-0.036	-0.071
-457.026	40.871	0.354	0.319
-456.011	-200.000	-0.103	-0.660
-454.997	-131.550	-0.376	-0.049
-453.982	58.006	-0.990	-0.967
-452.968	-96.315	0.372	0.098
-451.953	64.628	-0.207	0.209
-450.938	-8.819	0.486	0.325
-449.924	-84.195	0.642	0.203
-448.909	-89.521	0.458	0.134
-447.895	-110.722	-0.734	0.151
-446.880	254.167	-0.448	-0.765
-445.865	2.514	0.566	-0.409
-444.851	-118.865	-0.697	-0.122
-443.836	-200.000	-0.033	-0.201
-442.822	100.007	-0.312	0.361
-441.807	-200.000	-0.079	0.467
-440.792	201.552	0.461	-0.709
-439.778	-65.374	0.823	0.330
-438.763	4.681	-0.466	-0.341
-437.749	-125.691	-0.567	0.086
-436.734	-200.000	0.681	-0.003
-435.719	23.812	-0.503	0.414
-434.705	-41.118	0.439	-0.226
-433.690	-105.161	1.157	0.263
-432.676	153.135	0.404	0.551
-431.661	-200.000	-0.014	0.245
-430.646	-112.093	-0.094	0.019
-429.632	128.139	-0.420	0.533
-428.617	-24.390	0.358	0.213
-427.603	-81.647	-0.718	-0.235
-426.588	500.390	0.211	-0.485
-425.573	-92.353	0.075	-0.021
-424.559	-200.000	0.077	0.416
-423.544	205.532	-0.428	-0.664
-422.530	380.010	0.261	0.533
-421.515	328.881	-0.418	0.800
-420.500	-136.466	-1.127	-0.130
-419.486	61.385	0.571	-0.566
-418.471	-87.314	-0.674	-0.204
-417.457	-50.971	0.711	0.333
-416.442	-63.219	-0.527	-0.216
-415.428	124.651	0.915	-1.148
-414.413	-48.761	0.328	-0.157
-413.398	-200.000	0.000	0.811
-412.384	494.377	-0.354	0.810
-411.369	698.816	-0.396	1.037
-410.355	-14.205	-0.458	0.295
-409.340	800.000	-0.182	0.554
-408.325	-200.000	-0.100	0.770
-407.311	126.401	0.380	-0.479
-406.296	96.726	0.632	0.721
-405.282	143.397	-0.132	-0.175
-404.267	167.942	-0.290	-0.411
-403.252	45.603	0.568	-0.522
-402.238	-200.000	0.142	-1.302
-401.223	-88.149	0.121	0.036
-400.209	-112.962	-0.517	0.102
-399.194	663.122	-0.285	0.733
-398.179	-143.604	0.897	-0.085
-397.165	-91.248	-0.209	-0.060
-396.150	139.851	0.164	0.215
-395.136	193.518	0.092	-0.139
-394.121	-120.417	0.313	-0.053
-393.106	127.218	-0.054	0.069
-392.092	-80.509	0.619	0.205
-391.077	104.241	-0.097	-0.114
-390.063	-92.743	0.603	0.168
-389.048	217.700	0.272	0.431
-388.033	622.630	-0.050	0.125
-387.019	800.000	-0.123	0.345
-386.004	-200.000	-0.048	0.296
-384.990	-200.000	0.013	-0.832
-383.975	800.000	0.151	-0.589
-382.960	-142.838	-0.855	-0.083
-381.946	20.506	0.676	0.544
-380.931	164.931	0.193	0.271
-379.917	-104.063	0.152	0.035
-378.902	3.471	0.449	0.326
-377.888	-200.000	-0.009	0.100
-376.873	146.501	0.391	0.523
-375.858	-145.835	0.274	0.024
-374.844	-200.000	-0.027	0.591
-373.829	-33.188	0.244	-0.134
-372.815	-34.783	-0.598	0.325
-371.800	800.000	-0.192	0.548
-370.785	-200.000	0.132	-0.960
-369.771	-160.373	0.706	-0.038
-368.756	800.000	-0.098	-0.289
-367.742	800.000	0.118	-0.365
-366.727	-124.435	-0.430	0.067
-365.712	800.000	0.241	1.021
-364.698	789.404	-0.112	-0.307
-363.683	23.251	0.451	0.368
-362.669	221.459	0.144	-0.229
-361.654	13.699	0.249	-0.192
-360.639	800.000	0.196	0.620
-359.625	-56.385	-0.442	-0.195
-358.610	-113.366	-0.813	-0.159
-357.596	177.073	-0.248	-0.359
-356.581	139.413	-0.460	-0.602
-355.566	529.878	0.117	-0.274
-354.552	-90.938	-0.255	-0.073
-353.537	521.792	0.289	-0.674
-352.523	-132.394	-0.019	0.002
-351.508	132.576	-0.662	-0.848
-350.493	-141.364	0.255	0.026
-349.479	-200.000	0.042	0.535
-348.464	-200.000	-0.066	-0.491
-347.450	-32.108	0.033	-0.018
-346.435	132.234	0.523	-0.670
-345.420	800.000	-0.224	-0.663
-344.406	-21.033	0.241	-0.146
-343.391	172.407	0.034	-0.049
-342.377	47.550	-0.262	-0.243
-341.362	624.472	-0.258	-0.647
-340.348	-40.224	0.649	0.335
-339.333	-200.000	-0.047	-0.612
-338.318	110.360	0.357	0.426
-337.304	-88.332	0.358	0.106
-336.289	417.319	-0.594	1.261
-335.275	800.000	0.101	0.306
-334.260	-70.102	0.546	0.206
-333.245	42.966	0.642	0.581
-332.231	490.937	0.136	0.310
-331.216	69.618	0.411	-0.420
-330.202	-200.000	-0.028	0.685
-329.187	-200.000	-0.022	-0.239
-328.172	38.261	0.199	0.176
-327.158	79.235	-0.139	0.148
-326.143	-17.631	-0.292	0.182
-325.129	38.621	0.642	-0.569
-324.114	-60.913	-0.390	-0.164
-323.099	151.055	-0.397	-0.536
-322.085	59.285	0.051	0.050
-321.070	-181.072	-0.545	0.011
-320.056	-74.558	-0.798	-0.285
-319.041	46.180	-0.299	0.275
-318.026	800.000	0.316	1.064
-317.012	-200.000	-0.855	-0.001
-315.997	-107.637	-1.088	0.236
-314.983	49.395	0.345	0.322
-313.968	-48.131	-0.324	0.155
-312.953	47.326	0.410	0.379
-311.939	88.336	-0.155	-0.171
-310.924	-0.540	-0.045	-0.032
-309.910	800.000	-0.134	-0.514
-308.895	16.761	0.148	-0.116
-307.880	162.653	0.239	-0.333
-306.866	800.000	0.151	-0.533
-305.851	39.572	0.123	-0.109
-304.837	3.554	0.283	-0.205
-303.822	16.102	0.483	0.378
-302.807	-200.000	0.094	0.412
-301.793	-180.016	-0.138	-0.003
-300.778	800.000	0.140	0.559
-299.764	800.000	0.109	-0.366
-298.749	-200.000	0.042	0.490
-297.735	189.210	-0.348	0.518
-296.720	-136.233	0.163	-0.019
-295.705	-200.000	0.097	0.697
-294.691	-200.000	-0.099	0.604
-293.676	800.000	-0.220	0.657
-292.662	43.135	0.487	-0.441
-291.647	69.064	0.066	-0.067
-290.632	136.745	0.231	0.298
-289.618	-200.000	-0.104	-1.014
-288.603	116.945	0.102	-0.125
-287.589	-126.537	0.972	0.143
-286.574	-186.893	-0.205	-0.003
-285.559	-200.000	-0.030	-0.404
-284.545	-137.807	-0.572	-0.063
-283.530	800.000	0.081	-0.266
-282.516	-42.699	-0.359	0.181
-281.501	520.759	-0.277	-0.645
-280.486	798.631	-0.286	-0.782
-279.472	-52.740	-0.342	0.156
-278.457	800.000	0.084	-0.292
-277.443	-161.596	-0.700	0.036
-276.428	-68.603	0.236	0.090
-275.413	800.000	0.106	-0.298
-274.399	-103.291	0.590	0.138
-273.384	110.591	0.233	0.277
-272.370	-200.000	0.072	0.428
-271.355	-129.458	0.353	0.048
-270.340	-34.068	0.280	0.153
-269.326	406.652	-0.108	0.226
-268.311	-187.310	-0.220	0.003
-267.297	60.857	0.449	-0.441
-266.282	-200.000	-0.020	-0.236
-265.267	253.464	-0.132	0.223
-264.253	-137.679	0.404	0.045
-263.238	-85.636	0.763	0.235
-262.224	60.206	0.034	-0.033
-261.209	-83.610	-0.117	0.037
-260.195	659.715	-0.238	0.606
-259.180	-47.784	0.889	0.427
-258.165	-47.368	0.330	-0.159
-257.151	540.664	0.328	0.774
-256.136	800.000	-0.109	-0.447
-255.122	800.000	-0.241	0.938
-254.107	391.148	0.102	0.210
-253.092	-181.740	0.813	0.015
-252.078	351.136	0.231	0.453
-251.063	346.087	0.497	0.967
-250.049	184.139	0.314	0.460
-249.034	-105.432	-0.557	-0.125
-248.019	-11.758	1.122	0.729
-247.005	33.279	0.337	-0.289
-245.990	-69.058	0.333	-0.127
-244.976	-200.000	-0.036	0.262
-243.961	-41.767	-0.314	0.159
-242.946	-122.922	-1.110	-0.177
-241.932	164.145	-0.398	0.554
-240.917	192.933	0.576	-0.862
-239.903	88.659	0.382	-0.420
-238.888	634.597	-0.114	-0.286
-237.873	119.997	0.206	0.253
-236.859	58.268	0.323	0.314
-235.844	800.000	-0.179	0.668
-234.830	124.854	-0.253	-0.316
-233.815	-138.946	-0.680	-0.073
-232.800	22.582	-0.332	-0.269
-231.786	181.542	0.267	-0.388
-230.771	312.427	-0.197	-0.367
-229.757	55.668	-0.564	0.541
-228.742	478.613	0.128	0.286
-227.727	-126.620	-0.865	-0.127
-226.713	-47.345	-0.550	0.265
-225.698	-11.313	0.528	-0.344
-224.684	58.933	-0.106	0.103
-223.669	-124.228	0.489	0.076
-222.655	-200.000	-0.107	0.583
-221.640	800.000	-0.134	-0.391
-220.625	134.157	-0.258	-0.331
-219.611	-121.298	-0.328	0.054
-218.596	-200.000	-0.110	0.583
-217.582	-200.000	0.009	0.675
-216.567	274.910	0.143	-0.251
-215.552	15.204	0.558	0.433
-214.538	-9.413	0.627	-0.414
-213.523	-200.000	0.118	-0.562
-212.509	-200.000	0.662	0.002
-211.494	226.661	0.375	-0.601
-210.479	-40.225	0.358	-0.184
-209.465	143.609	-0.357	0.470
-208.450	169.272	0.195	-0.275
-207.436	758.218	-0.104	-0.278
-206.421	-10.050	-0.693	-0.455
-205.406	286.944	-0.283	0.506
-204.392	211.069	0.253	0.393
-203.377	15.495	-0.490	0.380
-202.363	-200.000	-0.118	0.879
-201.348	-115.737	-0.361	0.067
-200.333	-110.865	0.933	-0.190
-199.319	800.000	0.084	0.357
-198.304	21.525	0.728	0.585
-197.290	-106.247	-0.279	0.062
-196.275	800.000	-0.083	-0.319
-195.260	-95.726	0.891	-0.235
-194.246	-200.000	-0.044	-0.618
-193.231	-200.000	-0.052	0.509
-192.217	-124.508	-0.299	-0.046
-191.202	90.592	0.446	0.493
-190.187	7.121	-0.457	-0.336
-189.173	-75.062	-0.549	0.194
-188.158	-200.000	0.131	-0.626
-187.144	-200.000	0.104	-0.582
-186.129	-112.039	0.444	0.088
-185.114	414.973	-0.335	-0.704
-184.100	-200.000	-0.001	-0.674
-183.085	-200.000	0.052	0.478
-182.071	147.641	-0.250	0.333
-181.056	202.097	0.299	-0.455
-180.042	687.558	-0.274	-0.707
-179.027	-46.641	-0.554	0.268
-178.012	-52.922	0.978	0.445
-176.998	277.745	0.469	0.825
-175.983	-115.852	-0.659	0.122
-174.969	561.387	-0.230	-0.550
-173.954	-69.625	-0.443	0.167
-172.939	375.122	-0.211	0.424
-171.925	-200.000	0.005	0.203
-170.910	766.801	0.362	-0.970
-169.896	628.369	0.083	-0.207
-168.881	-83.331	0.736	0.233
-167.866	-125.813	-0.807	-0.120
-166.852	218.209	0.464	-0.730
-165.837	-101.743	0.530	0.127
-164.823	-58.941	-0.172	0.073
-163.808	800.000	0.286	-0.826
-162.793	-65.773	-0.230	0.091
-161.779	4.423	-0.421	-0.304
-160.764	-25.574	-0.481	-0.280
-159.750	-19.356	0.671	-0.410
-158.735	-150.180	-0.346	-0.026
-157.720	-200.000	-0.101	-0.543
-156.706	72.739	-0.602	-0.619
-155.691	-140.022	-0.217	0.023
-154.677	651.411	-0.333	0.842
-153.662	230.212	0.423	-0.682
-152.647	333.577	-0.085	0.162
-151.633	100.414	0.430	-0.492
-150.618	-200.000	-0.000	-0.079
-149.604	699.976	-0.242	-0.629
-148.589	-200.000	-0.162	1.157
-147.574	-200.000	0.240	-0.001
-146.560	-200.000	0.000	1.176
-145.545	-43.725	0.368	-0.183
-144.531	-200.000	-0.062	-0.543
-143.516	-102.399	0.945	-0.223
-142.502	-200.000	-0.051	-0.352
-141.487	-134.176	0.812	-0.099
-140.472	209.507	0.064	0.099
-139.458	307.738	0.061	-0.112
-138.443	-200.000	-0.065	-1.249
-137.429	-200.000	0.115	1.034
-136.414	-134.922	0.560	-0.067
-135.399	-200.000	0.097	0.506
-134.385	177.294	0.600	0.861
-133.370	18.632	0.360	-0.284
-132.356	-91.664	0.118	-0.033
-131.341	-39.813	0.413	-0.213
-130.326	800.000	0.118	-0.448
-129.312	543.292	0.163	-0.383
-128.297	34.289	0.662	0.569
-127.283	-58.959	0.822	-0.350
-126.268	-101.925	-0.922	0.219
-125.253	-200.000	-0.079	0.438
-124.239	225.020	0.436	0.694
-123.224	-200.000	-0.096	-0.618
-122.210	800.000	0.223	0.706
-121.195	62.974	-0.371	0.365
