DTS Sentinel unit serial number:	SN413079Multiplexer serial number:	ORYXHardware model number:	OX4-SRSoftware version number:	ORYX F/W v4.00 Oryx Data Collector v3.7.2.0data status	okinstallation	princeton_trtdifferential loss correction	single-endedforward channel	channel 2reverse channel	N/Adate	2019/09/12time	20:02:49forward acquisition time	15.00reverse acquisition time	0.00gamma	496.2192k internal	0.2328k external	0.2328temperature offset calibration	1.0154default loss term (dB/km)	0.3790temperature slope calibration	1.0000multiplexer offset coefficient	1.0000multiplexer slope coefficient	1.0000fibre end	0.00T internal ref (°C)	31.75T ext. ref 1 (°C)	3.49T ext. ref 2 (°C)	26.39length (m)	temperature (°C)	Stokes	anti-Stokes-747.200	-31.374	-0.204	0.116
-746.185	800.000	-0.203	-0.790
-745.171	4.436	0.210	-0.155
-744.156	73.086	-0.267	-0.282
-743.142	-200.000	0.009	-0.498
-742.127	639.390	0.179	0.460
-741.112	-74.844	0.348	-0.126
-740.098	-143.732	0.354	-0.034
-739.083	73.463	0.283	0.299
-738.069	800.000	-0.175	-0.573
-737.054	34.136	-0.918	0.806
-736.039	800.000	-0.056	-0.170
-735.025	-172.447	0.341	-0.011
-734.010	44.376	0.367	-0.340
-732.996	-39.105	-0.767	-0.406
-731.981	275.011	0.513	0.916
-730.966	-188.257	-0.309	-0.004
-729.952	-8.868	0.429	0.290
-728.937	1.952	-0.349	0.253
-727.923	-109.356	1.084	0.231
-726.908	-200.000	0.058	0.386
-725.894	110.212	-0.463	0.560
-724.879	-184.449	0.510	0.008
-723.864	85.083	0.343	0.378
-722.850	-200.000	-0.027	-0.278
-721.835	-200.000	-0.227	-1.012
-720.821	-200.000	-0.000	0.410
-719.806	800.000	0.098	0.425
-718.791	-200.000	0.040	-0.281
-717.777	388.586	0.055	0.114
-716.762	584.939	-0.159	0.394
-715.748	800.000	0.356	-1.055
-714.733	99.645	0.276	0.322
-713.718	-128.535	-0.690	0.098
-712.704	-155.035	-0.689	0.046
-711.689	283.456	-0.122	0.221
-710.675	167.118	-0.732	-1.046
-709.660	-92.990	-0.668	-0.188
-708.645	158.499	-0.084	0.118
-707.631	-200.000	-0.016	-0.330
-706.616	10.015	-0.629	-0.481
-705.602	-113.793	-0.296	0.058
-704.587	-200.000	0.004	0.406
-703.572	-91.739	0.487	-0.139
-702.558	94.625	0.096	0.110
-701.543	-200.000	-0.058	-0.541
-700.529	800.000	-0.591	-1.710
-699.514	-200.000	-0.028	0.293
-698.499	800.000	-0.378	-1.050
-697.485	-155.642	0.810	0.052
-696.470	-200.000	-0.074	-0.410
-695.456	-35.121	0.173	-0.095
-694.441	129.343	-0.438	0.563
-693.426	-9.339	-0.399	-0.268
-692.412	-200.000	0.009	-0.525
-691.397	-49.735	-0.653	0.312
-690.383	-73.425	0.421	0.155
-689.368	-200.000	0.076	0.367
-688.354	238.332	0.377	0.630
-687.339	-73.465	-0.280	-0.103
-686.324	-9.911	-0.448	-0.299
-685.310	-200.000	0.008	-0.483
-684.295	110.708	-0.300	0.363
-683.281	4.293	-0.843	-0.621
-682.266	56.005	0.460	0.449
-681.251	-48.330	-0.097	0.047
-680.237	-138.189	-0.426	-0.048
-679.222	-43.638	-0.692	-0.351
-678.208	3.831	-0.272	-0.200
-677.193	417.653	0.241	0.518
-676.178	-104.679	-0.578	0.134
-675.164	-164.217	0.638	0.030
-674.149	-79.982	0.253	-0.085
-673.135	465.484	0.226	-0.509
-672.120	174.252	-0.359	0.522
-671.105	85.447	0.159	-0.176
-670.091	-166.021	-0.357	0.015
-669.076	-78.347	-0.430	-0.148
-668.062	85.608	0.401	0.442
-667.047	-10.360	-0.634	0.423
-666.032	-200.000	0.059	-0.735
-665.018	-13.934	-0.290	0.188
-664.003	333.270	0.273	-0.530
-662.989	-81.649	0.404	0.133
-661.974	-71.892	0.604	-0.226
-660.959	-200.000	-0.015	-0.077
-659.945	572.279	-0.122	-0.298
-658.930	-147.850	-0.652	0.055
-657.916	-82.762	-0.343	0.111
-656.901	-4.782	0.668	-0.463
-655.886	198.259	0.263	-0.403
-654.872	-36.011	-0.239	-0.130
-653.857	-120.908	0.595	0.101
-652.843	-80.442	-0.513	-0.172
-651.828	-200.000	-0.017	-0.175
-650.814	-95.024	-0.784	0.213
-649.799	-151.452	-0.695	0.052
-648.784	-139.732	-0.686	0.073
-647.770	-200.000	-0.130	-0.744
-646.755	-200.000	-0.112	-0.612
-645.741	-110.262	0.792	0.166
-644.726	800.000	0.064	-0.243
-643.711	-21.000	-0.860	-0.529
-642.697	-124.325	-0.806	-0.126
-641.682	-118.661	0.731	-0.130
-640.668	-183.856	0.702	-0.012
-639.653	-134.918	-0.351	-0.043
-638.638	-183.516	0.423	-0.007
-637.624	-200.000	0.013	0.156
-636.609	-4.022	-0.733	0.510
-635.595	-160.742	-0.711	0.038
-634.580	164.621	-0.041	0.058
-633.565	-140.073	0.747	0.079
-632.551	-22.788	0.033	-0.020
-631.536	800.000	0.113	0.338
-630.522	-46.963	-0.437	0.214
-629.507	800.000	0.202	-0.647
-628.492	563.111	0.283	-0.688
-627.478	-112.418	-0.668	0.134
-626.463	199.185	-0.499	0.767
-625.449	-7.271	-0.594	0.404
-624.434	170.257	0.304	-0.436
-623.419	-57.681	-0.700	-0.307
-622.405	-54.954	0.927	-0.419
-621.390	120.365	0.371	-0.462
-620.376	-200.000	-0.018	0.198
-619.361	484.403	0.328	0.750
-618.346	42.635	0.089	-0.081
-617.332	48.505	0.550	0.517
-616.317	-200.000	0.101	0.641
-615.303	-128.068	0.742	0.107
-614.288	102.525	-0.238	-0.279
-613.273	20.014	-0.266	-0.215
-612.259	-68.593	0.129	0.050
-611.244	-99.627	-0.483	-0.121
-610.230	152.052	0.403	0.551
-609.215	48.649	0.349	0.328
-608.201	-96.910	-0.735	-0.193
-607.186	-36.038	0.216	0.117
-606.171	-189.573	-0.517	0.006
-605.157	143.573	0.511	0.682
-604.142	-200.000	0.058	-0.630
-603.128	-88.066	-0.798	0.240
-602.113	686.141	-0.324	0.849
-601.098	-200.000	-0.092	0.882
-600.084	94.895	-0.280	0.319
-599.069	-200.000	0.019	-0.180
-598.055	93.078	0.725	0.821
-597.040	800.000	-0.171	-0.484
-596.025	-200.000	-0.018	-0.772
-595.011	-161.824	-0.362	0.018
-593.996	-200.000	-0.166	-0.856
-592.982	245.775	-0.076	-0.129
-591.967	360.534	-0.196	0.394
-590.952	-200.000	-0.120	0.566
-589.938	364.139	-0.066	-0.134
-588.923	555.469	-0.234	0.564
-587.909	-137.526	-0.671	-0.076
-586.894	-41.722	-0.669	0.344
-585.879	147.285	-0.452	-0.609
-584.865	184.716	0.151	-0.225
-583.850	-30.922	-0.289	-0.163
-582.836	-37.858	-0.430	-0.229
-581.821	158.210	0.473	-0.656
-580.806	564.164	-0.333	-0.809
-579.792	93.995	0.420	-0.477
-578.777	242.397	0.185	-0.311
-577.763	69.591	0.111	0.115
-576.748	-25.371	0.485	-0.287
-575.733	306.695	-0.270	-0.504
-574.719	176.562	0.572	-0.832
-573.704	460.956	-0.227	-0.507
-572.690	-200.000	-0.021	-0.365
-571.675	-135.656	0.567	0.067
-570.661	-200.000	-0.034	0.406
-569.646	-46.451	-0.326	-0.160
-568.631	-73.140	0.701	-0.257
-567.617	-25.398	-0.521	0.309
-566.602	61.013	0.095	-0.094
-565.588	-112.661	0.660	0.131
-564.573	587.803	-0.298	-0.735
-563.558	-79.122	0.701	0.238
-562.544	207.949	0.056	-0.087
-561.529	800.000	-0.078	-0.241
-560.515	-35.112	-0.669	-0.365
-559.500	87.560	0.264	-0.293
-558.485	676.095	0.316	0.822
-557.471	-84.446	0.919	0.290
-556.456	82.130	0.486	-0.527
-555.442	-64.322	-0.657	0.268
-554.427	-85.882	-0.388	0.120
-553.412	799.501	-0.360	-0.994
-552.398	-1.517	-0.355	-0.251
-551.383	432.125	-0.084	-0.183
-550.369	-200.000	0.087	-0.407
-549.354	614.840	-0.175	0.440
-548.339	229.661	-0.274	0.448
-547.325	-136.899	0.808	-0.093
-546.310	-125.600	-0.381	-0.058
-545.296	-200.000	-0.076	0.812
-544.281	339.920	-0.205	0.399
-543.266	-200.000	-0.042	0.344
-542.252	800.000	-0.241	0.758
-541.237	-119.403	0.645	-0.112
-540.223	-101.528	0.228	-0.055
-539.208	120.836	0.475	-0.590
-538.193	-165.628	0.454	0.020
-537.179	800.000	-0.245	0.749
-536.164	-10.644	-0.461	0.305
-535.150	-4.044	0.354	-0.245
-534.135	566.575	0.203	0.492
-533.121	-168.074	-0.346	-0.013
-532.106	729.924	0.123	-0.329
-531.091	35.803	-0.410	0.360
-530.077	-181.178	-0.424	-0.008
-529.062	36.216	-0.793	-0.698
-528.048	-200.000	-0.051	-0.869
-527.033	642.299	-0.099	0.251
-526.018	-56.698	0.372	-0.165
-525.004	-82.437	0.515	0.167
-523.989	18.827	0.729	-0.584
-522.975	-200.000	-0.014	0.289
-521.960	800.000	0.145	-0.534
-520.945	87.103	-0.421	0.465
-519.931	-37.926	-0.181	0.096
-518.916	118.169	-0.266	0.328
-517.902	-112.091	-0.735	-0.148
-516.887	-200.000	0.021	0.099
-515.872	-105.529	-0.512	0.116
-514.858	-200.000	0.036	-0.686
-513.843	800.000	-0.183	-0.679
-512.829	-200.000	-0.104	-0.464
-511.814	290.687	0.129	0.234
-510.799	143.585	-0.047	-0.062
-509.785	275.985	-0.405	-0.719
-508.770	-39.092	-0.205	-0.108
-507.756	-200.000	-0.016	0.125
-506.741	800.000	0.265	-0.811
-505.726	314.694	0.533	-1.003
-504.712	-27.146	0.377	-0.220
-503.697	-98.776	-0.417	0.106
-502.683	-200.000	0.064	-0.606
-501.668	112.274	0.728	0.879
-500.653	61.697	-0.316	-0.314
-499.639	82.591	0.733	0.794
-498.624	-200.000	0.013	-0.649
-497.610	53.009	0.787	0.751
-496.595	160.254	0.139	-0.193
-495.581	800.000	0.095	-0.306
-494.566	-78.090	0.333	-0.114
-493.551	-76.320	0.445	0.156
-492.537	-142.894	1.395	-0.135
-491.522	430.079	0.173	-0.374
-490.508	-200.000	-0.034	0.728
-489.493	123.875	0.304	-0.381
-488.478	800.000	-0.032	-0.099
-487.464	800.000	0.272	0.775
-486.449	46.617	0.208	-0.192
-485.435	-68.877	0.232	-0.089
-484.420	-172.568	-0.304	-0.010
-483.405	30.871	0.426	-0.364
-482.391	-145.129	0.191	0.017
-481.376	353.563	-0.196	0.388
-480.362	51.999	-0.465	0.442
-479.347	800.000	-0.107	-0.444
-478.332	125.260	-0.035	-0.045
-477.318	682.596	0.081	0.211
-476.303	-39.486	-0.547	0.286
-475.289	326.602	0.311	-0.594
-474.274	37.547	-0.113	-0.100
-473.259	82.359	-0.233	0.252
-472.245	-200.000	-0.059	-0.322
-471.230	800.000	-0.114	0.419
-470.216	-56.296	0.193	0.086
-469.201	-35.023	0.518	-0.282
-468.186	-53.075	0.355	-0.163
-467.172	-200.000	0.012	0.756
-466.157	17.864	-0.191	0.152
-465.143	-130.818	0.219	-0.029
-464.128	163.642	0.444	0.623
-463.113	620.430	0.277	-0.693
-462.099	800.000	0.314	1.094
-461.084	1.479	-0.933	0.669
-460.070	-200.000	-0.087	-0.544
-459.055	120.524	0.076	-0.095
-458.040	-73.744	-0.547	0.198
-457.026	800.000	-0.040	0.123
-456.011	767.836	-0.159	0.432
-454.997	800.000	0.230	0.818
-453.982	360.302	0.239	-0.477
-452.968	800.000	0.203	-0.696
-451.953	-200.000	0.008	-0.174
-450.938	54.333	-0.397	-0.381
-449.924	-133.164	0.120	0.015
-448.909	-200.000	0.079	0.771
-447.895	468.818	-0.253	0.566
-446.880	114.472	0.357	-0.434
-445.865	14.216	-0.496	-0.385
-444.851	-58.664	0.265	-0.114
-443.836	-200.000	-0.079	0.389
-442.822	-16.506	-0.712	-0.449
-441.807	27.286	-0.544	0.455
-440.792	800.000	-0.236	0.653
-439.778	-41.106	-0.209	-0.108
-438.763	31.995	-0.653	-0.561
-437.749	800.000	-0.187	-0.627
-436.734	-200.000	0.013	0.170
-435.719	-200.000	-0.063	-0.514
-434.705	54.341	-0.201	-0.193
-433.690	-77.635	0.918	-0.316
-432.676	-78.327	0.566	0.193
-431.661	-32.589	0.456	-0.253
-430.646	15.995	-0.307	0.241
-429.632	176.417	0.492	0.712
-428.617	55.375	0.309	-0.298
-427.603	800.000	-0.176	0.547
-426.588	155.716	0.455	0.624
-425.573	-116.515	0.369	0.068
-424.559	223.879	0.211	0.339
-423.544	800.000	-0.198	-0.771
-422.530	-177.370	0.280	-0.007
-421.515	378.738	-0.236	0.481
-420.500	-4.932	0.086	0.059
-419.486	25.262	-0.334	-0.276
-418.471	432.445	-0.033	-0.072
-417.457	-65.100	0.366	0.147
-416.442	-58.355	-0.461	-0.199
-415.428	-200.000	0.146	0.644
-414.413	-40.463	0.624	-0.322
-413.398	115.918	0.524	0.638
-412.384	-39.936	-0.353	0.184
-411.369	693.609	-0.156	-0.407
-410.355	800.000	-0.081	0.293
-409.340	224.528	0.622	1.001
-408.325	29.071	-0.765	0.646
-407.311	-144.280	-0.314	0.029
-406.296	-97.649	-0.442	-0.114
-405.282	800.000	-0.051	-0.145
-404.267	-200.000	0.023	-0.214
-403.252	-55.933	0.908	-0.403
-402.238	93.751	0.772	-0.870
-401.223	800.000	0.001	-0.003
-400.209	482.419	-0.299	-0.675
-399.194	422.064	0.413	-0.881
-398.179	-79.259	0.673	-0.227
-397.165	-161.425	0.472	-0.024
-396.150	-192.568	-0.531	0.005
-395.136	115.951	-0.507	-0.617
-394.121	460.565	0.135	0.300
-393.106	-84.727	0.260	0.081
-392.092	-166.752	-0.519	-0.021
-391.077	-80.734	1.340	-0.443
-390.063	427.422	-0.227	0.486
-389.048	350.961	-0.178	0.350
-388.033	121.187	-0.372	0.460
-387.019	-96.698	-1.071	0.280
-386.004	-164.620	0.454	-0.020
-384.990	-115.210	0.504	-0.095
-383.975	-32.236	-0.361	0.200
-382.960	-200.000	0.026	-0.382
-381.946	118.728	-0.444	-0.545
-380.931	755.621	-0.244	-0.655
-379.917	298.658	-0.088	0.161
-378.902	52.188	0.415	0.393
-377.888	74.154	-0.256	0.267
-376.873	328.360	-0.220	-0.420
-375.858	463.085	0.293	0.649
-374.844	-104.508	-0.272	-0.063
-373.829	-42.419	0.256	0.130
-372.815	-0.228	0.571	0.403
-371.800	72.443	0.213	-0.220
-370.785	307.792	-0.198	-0.367
-369.771	69.249	-0.223	-0.228
-368.756	127.113	0.696	-0.876
-367.742	308.135	0.195	-0.361
-366.727	-138.007	-0.497	0.055
-365.712	73.009	0.611	-0.634
-364.698	-131.964	0.718	0.093
-363.683	-139.829	-0.507	0.053
-362.669	800.000	-0.198	0.737
-361.654	42.582	1.037	-0.937
-360.639	48.127	0.530	-0.492
-359.625	800.000	0.126	-0.500
-358.610	102.206	-0.186	-0.215
-357.596	-200.000	-0.004	0.091
-356.581	-111.173	-0.380	0.077
-355.566	-109.791	-0.124	-0.026
-354.552	148.275	-0.289	0.387
-353.537	-182.199	-0.936	-0.017
-352.523	117.720	0.377	0.461
-351.508	550.129	0.169	-0.401
-350.493	-77.065	-0.214	-0.074
-349.479	542.821	-0.232	-0.550
-348.464	-35.065	1.143	-0.618
-347.450	-46.064	0.572	-0.280
-346.435	-75.248	0.102	-0.036
-345.420	-200.000	-0.061	1.006
-344.406	-200.000	-0.030	0.318
-343.391	-69.524	0.523	-0.199
-342.377	293.206	0.293	0.531
-341.362	31.130	-0.292	-0.248
-340.348	800.000	0.125	0.524
-339.333	246.399	-0.261	-0.436
-338.318	123.147	-0.030	0.037
-337.304	-49.104	-0.556	0.264
-336.289	-200.000	-0.048	-0.296
-335.275	-200.000	-0.119	-0.628
-334.260	-56.146	-0.367	-0.162
-333.245	-44.954	0.819	0.404
-332.231	91.589	0.319	-0.356
-331.216	-169.613	0.391	0.014
-330.202	41.347	-0.246	-0.221
-329.187	800.000	-0.492	1.350
-328.172	-128.688	0.468	-0.066
-327.158	-132.143	1.052	-0.135
-326.143	800.000	-0.117	-0.394
-325.129	-97.959	0.537	-0.137
-324.114	8.198	0.383	0.285
-323.099	-123.340	0.130	0.021
-322.085	794.726	-0.298	0.812
-321.070	2.279	0.410	0.294
-320.056	121.381	0.141	-0.174
-319.041	-0.120	-0.102	0.072
-318.026	-200.000	0.068	0.794
-317.012	-113.172	0.607	0.118
-315.997	37.518	-0.736	-0.647
-314.983	-87.957	0.890	0.265
-313.968	688.410	0.273	-0.707
-312.953	-200.000	0.090	-0.657
-311.939	-25.845	0.243	-0.142
-310.924	-33.699	0.596	0.326
-309.910	-200.000	0.169	1.086
-308.895	800.000	-0.150	0.585
-307.880	205.923	0.387	0.597
-306.866	607.974	-0.190	0.470
-305.851	-200.000	-0.098	0.586
-304.837	93.109	0.331	0.371
-303.822	-200.000	0.026	-0.321
-302.807	-88.018	-0.731	0.218
-301.793	-200.000	0.028	-0.411
-300.778	-163.493	0.440	0.021
-299.764	-200.000	0.031	0.381
-298.749	-105.551	-0.673	0.151
-297.735	118.681	0.103	0.126
-296.720	19.670	0.477	0.380
-295.705	800.000	0.185	0.515
-294.691	-200.000	0.025	0.274
-293.676	54.254	0.341	0.325
-292.662	-200.000	-0.078	0.398
-291.647	-58.496	-0.176	-0.076
-290.632	-44.764	-0.793	0.392
-289.618	-94.865	-0.402	-0.108
-288.603	-200.000	-0.029	0.432
-287.589	-1.296	-0.502	0.351
-286.574	299.338	0.413	-0.754
-285.559	-200.000	0.004	-0.140
-284.545	726.755	-0.099	-0.263
-283.530	-94.138	-0.024	0.007
-282.516	-71.999	-0.596	-0.219
-281.501	325.119	-0.282	-0.533
-280.486	16.618	-0.710	0.555
-279.472	-151.640	-0.275	0.020
-278.457	-55.112	-0.207	0.092
-277.443	-200.000	0.012	-0.140
-276.428	-153.945	0.243	0.016
-275.413	800.000	-0.246	-0.723
-274.399	13.987	-0.735	0.566
-273.384	-200.000	0.012	-0.277
-272.370	-40.709	-0.468	-0.240
-271.355	-126.820	-0.526	-0.077
-270.340	650.502	0.135	0.342
-269.326	147.289	0.444	0.591
-268.311	800.000	-0.203	-0.668
-267.297	18.686	-0.618	-0.489
-266.282	167.593	0.287	-0.404
-265.267	-114.783	-0.456	0.086
-264.253	9.254	-0.399	-0.298
-263.238	134.226	-0.063	-0.081
-262.224	800.000	0.167	-0.668
-261.209	256.297	0.188	0.320
-260.195	-41.376	0.512	0.261
-259.180	-65.771	-0.349	-0.138
-258.165	173.361	-0.405	-0.577
-257.151	387.391	-0.149	-0.305
-256.136	-111.199	1.154	-0.234
-255.122	-114.706	0.246	-0.046
-254.107	-52.884	-0.796	-0.362
-253.092	-0.581	-1.181	-0.829
-252.078	-69.382	-0.355	0.135
-251.063	-200.000	-0.068	0.335
-250.049	417.729	-0.226	-0.477
-249.034	-76.319	0.729	-0.254
-248.019	166.320	-0.630	0.882
-247.005	-200.000	0.029	0.362
-245.990	-200.000	-0.090	0.886
-244.976	665.790	-0.055	0.141
-243.961	232.093	0.205	-0.333
-242.946	800.000	-0.090	-0.306
-241.932	-113.783	0.862	-0.166
-240.917	-59.818	-0.496	0.210
-239.903	800.000	-0.207	0.870
-238.888	-200.000	-0.023	0.894
-237.873	-31.073	0.249	0.139
-236.859	-21.267	0.987	0.596
-235.844	-173.575	0.235	-0.007
-234.830	-134.607	0.340	0.041
-233.815	366.540	-0.135	0.269
-232.800	-200.000	0.036	-0.432
-231.786	-49.075	-0.594	-0.281
-230.771	55.361	-0.261	0.249
-229.757	800.000	-0.164	-0.548
-228.742	-7.811	-0.249	0.166
-227.727	-120.478	-0.516	-0.086
-226.713	800.000	0.078	0.276
-225.698	800.000	0.194	0.591
-224.684	-200.000	-0.029	0.819
-223.669	664.101	0.429	1.093
-222.655	699.425	-0.286	-0.742
-221.640	800.000	-0.097	-0.280
-220.625	-200.000	-0.005	0.633
-219.611	-21.836	1.022	-0.614
-218.596	800.000	-0.138	-0.485
-217.582	-200.000	-0.007	0.142
-216.567	-200.000	0.036	0.428
-215.552	-173.221	-0.409	-0.012
-214.538	107.688	0.718	-0.844
-213.523	-200.000	0.008	0.231
-212.509	-1.072	-0.388	0.271
-211.494	268.214	0.094	-0.163
-210.479	-200.000	0.046	0.333
-209.465	-145.411	0.521	0.046
-208.450	-128.098	0.146	-0.021
-207.436	97.366	-0.160	0.182
-206.421	30.463	-0.787	-0.664
-205.406	266.468	-0.060	-0.104
-204.392	-0.521	0.243	0.170
-203.377	800.000	-0.291	-0.937
-202.363	-27.292	-0.138	0.079
-201.348	-124.649	0.528	0.081
-200.333	-94.641	0.193	-0.052
-199.319	85.303	-0.156	-0.168
-198.304	-25.930	0.048	-0.028
-197.290	-87.077	-1.264	0.380
-196.275	-188.253	0.398	-0.005
-195.260	407.747	0.028	-0.059
-194.246	50.909	0.278	-0.259
-193.231	432.711	-0.286	0.613
-192.217	26.031	0.288	0.237
-191.202	-21.129	0.735	-0.443
-190.187	20.962	-0.165	0.132
-189.173	-42.951	0.070	-0.035
-188.158	190.470	0.453	-0.671
-187.144	-200.000	0.002	1.022
-186.129	-200.000	0.075	0.357
-185.114	377.786	-0.239	-0.481
-184.100	-11.546	-0.511	0.331
-183.085	-83.374	0.573	-0.181
-182.071	23.034	-0.209	-0.169
-181.056	-88.393	0.387	-0.114
-180.042	-138.637	0.445	-0.048
-179.027	-200.000	0.021	-0.965
-178.012	-200.000	-0.165	1.011
-176.998	300.360	0.388	-0.705
-175.983	35.030	-0.251	0.216
-174.969	-4.804	-0.450	-0.306
-173.954	-80.915	-0.799	-0.261
-172.939	-80.012	-0.428	-0.142
-171.925	-161.693	0.420	0.021
-170.910	282.950	-0.385	0.680
-169.896	198.479	-0.448	0.675
-168.881	-200.000	-0.034	-0.241
-167.866	630.785	-0.169	0.421
-166.852	-65.485	-0.303	0.120
-165.837	144.980	0.357	-0.471
-164.823	-200.000	-0.039	0.838
-163.808	66.389	-0.465	-0.465
-162.793	-168.307	-0.241	0.009
-161.779	315.872	-0.225	0.418
-160.764	84.262	-0.108	-0.116
-159.750	-166.857	-0.767	-0.031
-158.735	-112.124	1.236	-0.245
-157.720	90.642	-0.634	0.699
-156.706	-91.083	-0.558	0.158
-155.691	-169.457	0.061	-0.002
-154.677	-200.000	-0.060	0.678
-153.662	-172.201	-0.568	-0.018
-152.647	-115.413	-0.627	-0.116
-151.633	-15.836	0.167	0.105
-150.618	800.000	-0.186	0.581
-149.604	111.239	-0.579	-0.687
-148.589	-166.322	0.541	-0.022
-147.574	69.381	0.338	-0.342
-146.560	117.948	0.271	0.328
-145.545	-98.102	-0.725	0.184
-144.531	-200.000	0.005	-0.193
-143.516	800.000	-0.163	-0.635
-142.502	63.106	-0.338	-0.333
-141.487	-132.828	-0.551	-0.069
-140.472	103.026	0.348	0.401
-139.458	84.997	-0.600	-0.648
-138.443	488.758	0.235	0.529
-137.429	-13.930	-0.272	0.173
-136.414	-103.627	0.367	0.085
-135.399	387.365	0.258	0.524
-134.385	-200.000	-0.064	-0.773
-133.370	-200.000	0.102	0.479
-132.356	-91.807	0.526	-0.147
-131.341	70.008	-0.209	-0.212
-130.326	-103.525	0.356	-0.082
-129.312	296.721	0.054	0.098
-128.297	260.188	-0.376	0.639
-127.283	-200.000	0.150	-0.888
-126.268	62.816	-0.376	-0.370
-125.253	-139.637	0.884	0.093
-124.239	352.576	-0.243	-0.475
-123.224	-25.585	0.991	-0.576
-122.210	32.829	0.353	0.301
