DTS Sentinel unit serial number:	SN413079Multiplexer serial number:	ORYXHardware model number:	OX4-SRSoftware version number:	ORYX F/W v4.00 Oryx Data Collector v3.7.2.0data status	okinstallation	princeton_trtdifferential loss correction	single-endedforward channel	channel 2reverse channel	N/Adate	2019/09/15time	08:07:35forward acquisition time	60.00reverse acquisition time	0.00gamma	496.2192k internal	0.2325k external	0.2325temperature offset calibration	1.0029default loss term (dB/km)	0.3790temperature slope calibration	1.0000multiplexer offset coefficient	1.0000multiplexer slope coefficient	1.0000fibre end	0.00T internal ref (°C)	30.87T ext. ref 1 (°C)	4.97T ext. ref 2 (°C)	27.15length (m)	temperature (°C)	Stokes	anti-Stokes-747.200	-66.578	0.175	-0.070
-746.185	70.234	-0.372	0.388
-745.171	222.758	0.083	0.136
-744.156	800.000	-0.099	0.382
-743.142	-31.075	-0.145	0.083
-742.127	-103.254	0.245	0.058
-741.112	-78.176	-0.151	0.052
-740.098	800.000	-0.064	-0.234
-739.083	-200.000	-0.362	0.000
-738.069	414.307	-0.087	-0.186
-737.054	371.541	0.058	0.118
-736.039	15.006	-0.180	-0.142
-735.025	-82.006	-0.199	-0.066
-734.010	121.107	0.091	0.114
-732.996	-169.846	-0.180	-0.007
-731.981	12.510	0.088	0.068
-730.966	-117.439	0.230	-0.042
-729.952	-116.498	-0.202	-0.038
-728.937	40.548	-0.064	-0.058
-727.923	-200.000	0.013	0.061
-726.908	-94.792	-0.350	0.096
-725.894	800.000	0.056	0.204
-724.879	800.000	-0.115	-0.448
-723.864	341.176	-0.082	-0.162
-722.850	6.715	-0.236	-0.177
-721.835	-62.635	0.190	0.080
-720.821	-200.000	0.014	0.226
-719.806	-200.000	-0.038	0.442
-718.791	139.539	-0.088	-0.117
-717.777	10.522	0.125	0.096
-716.762	137.493	-0.171	-0.226
-715.748	102.768	-0.119	-0.140
-714.733	-58.805	-0.016	-0.007
-713.718	-49.108	-0.105	-0.051
-712.704	115.846	-0.032	0.040
-711.689	92.559	0.212	-0.241
-710.675	-200.000	-0.067	0.355
-709.660	-45.641	0.152	-0.076
-708.645	405.233	0.075	0.160
-707.631	127.295	-0.071	-0.091
-706.616	-91.471	-0.292	0.084
-705.602	-19.788	0.455	0.284
-704.587	-164.113	-0.133	0.006
-703.572	143.453	-0.060	0.080
-702.558	-6.222	0.070	0.048
-701.543	-113.143	-0.052	0.010
-700.529	-200.000	0.020	0.232
-699.514	-82.374	-0.106	-0.035
-698.499	57.583	0.198	-0.195
-697.485	-200.000	-0.000	-0.321
-696.470	80.029	0.124	-0.134
-695.456	-61.131	0.302	-0.128
-694.441	-151.897	-0.378	-0.028
-693.426	84.049	0.061	0.067
-692.412	-64.704	0.192	0.078
-691.397	-200.000	0.031	-0.255
-690.383	17.273	0.091	0.073
-689.368	800.000	0.061	0.205
-688.354	-63.071	-0.122	-0.051
-687.339	10.589	0.161	-0.123
-686.324	-91.762	-0.221	-0.063
-685.310	800.000	-0.099	0.300
-684.295	800.000	0.076	0.218
-683.281	-12.831	-0.412	-0.270
-682.266	-106.153	0.115	-0.026
-681.251	128.199	-0.163	0.209
-680.237	-124.236	0.352	0.055
-679.222	-200.000	0.030	-0.134
-678.208	263.584	-0.042	-0.073
-677.193	-200.000	0.022	-0.123
-676.178	-73.377	-0.316	0.116
-675.164	-5.379	0.341	0.235
-674.149	122.880	0.122	0.154
-673.135	11.218	0.214	-0.165
-672.120	252.463	-0.160	0.274
-671.105	800.000	-0.055	-0.155
-670.091	117.970	-0.148	-0.184
-669.076	125.356	-0.091	-0.116
-668.062	60.127	0.052	0.051
-667.047	-0.991	-0.253	0.180
-666.032	800.000	0.051	-0.218
-665.018	-200.000	0.060	-0.281
-664.003	-39.810	-0.199	-0.105
-662.989	-87.614	-0.216	0.066
-661.974	115.448	0.045	-0.056
-660.959	-62.354	-0.183	-0.077
-659.945	68.397	-0.176	0.182
-658.930	6.497	0.320	-0.239
-657.916	-200.000	-0.028	0.195
-656.901	730.891	-0.035	0.093
-655.886	159.106	-0.080	0.112
-654.872	-167.754	-0.245	-0.010
-653.857	-19.127	-0.493	0.308
-652.843	-41.765	-0.263	0.136
-651.828	-20.270	-0.194	0.120
-650.814	-146.206	-0.138	0.012
-649.799	-114.570	-0.380	0.073
-648.784	775.705	-0.077	-0.211
-647.770	-95.079	0.134	-0.036
-646.755	-134.948	-0.147	-0.018
-645.741	46.203	-0.132	0.123
-644.726	-165.792	0.429	0.019
-643.711	-1.978	0.065	0.046
-642.697	109.586	0.194	0.233
-641.682	134.649	-0.216	-0.282
-640.668	132.151	0.110	0.143
-639.653	800.000	-0.057	-0.217
-638.638	5.189	0.231	0.171
-637.624	-186.010	0.361	-0.005
-636.609	-32.466	-0.200	-0.112
-635.595	-200.000	0.063	0.369
-634.580	-74.564	-0.265	0.096
-633.565	77.444	-0.118	-0.126
-632.551	-140.524	-0.144	0.015
-631.536	-124.662	-0.471	-0.073
-630.522	-36.674	0.180	-0.097
-629.507	124.213	0.113	0.143
-628.492	-200.000	-0.013	0.066
-627.478	354.072	-0.077	-0.154
-626.463	212.599	0.110	-0.174
-625.449	358.411	-0.156	0.313
-624.434	-105.437	0.049	-0.011
-623.419	-116.979	-0.174	0.032
-622.405	-131.001	0.547	0.073
-621.390	-58.643	-0.202	-0.088
-620.376	-44.060	0.104	0.053
-619.361	-97.466	0.177	0.046
-618.346	-93.228	-0.392	-0.109
-617.332	-200.000	0.029	-0.272
-616.317	-0.260	-0.138	0.099
-615.303	511.716	-0.124	-0.290
-614.288	318.516	-0.067	-0.128
-613.273	41.830	0.080	-0.073
-612.259	-88.847	-0.132	-0.039
-611.244	32.497	-0.248	0.215
-610.230	195.965	0.099	0.152
-609.215	-91.080	0.153	0.044
-608.201	-200.000	0.032	-0.199
-607.186	224.937	-0.117	0.189
-606.171	-200.000	-0.033	-0.230
-605.157	18.632	-0.068	0.055
-604.142	-47.101	0.306	-0.150
-603.128	-15.657	-0.406	0.260
-602.113	68.079	-0.167	0.171
-601.098	-172.019	0.314	0.010
-600.084	99.122	-0.043	-0.050
-599.069	-28.003	-0.181	0.105
-598.055	-45.905	0.120	0.060
-597.040	117.905	0.231	0.285
-596.025	-200.000	-0.078	-0.381
-595.011	96.360	0.153	0.175
-593.996	87.709	0.186	-0.206
-592.982	-123.553	-0.244	0.039
-591.967	-200.000	0.030	-0.215
-590.952	55.462	0.157	0.153
-589.938	244.174	0.074	0.124
-588.923	-19.186	0.428	-0.267
-587.909	-1.748	-0.319	-0.225
-586.894	141.600	-0.167	-0.222
-585.879	96.750	0.138	-0.158
-584.865	2.317	-0.142	0.103
-583.850	295.748	-0.048	-0.088
-582.836	37.885	-0.090	-0.080
-581.821	312.138	-0.064	0.121
-580.806	-200.000	-0.015	0.134
-579.792	685.870	-0.047	-0.123
-578.777	800.000	-0.062	-0.252
-577.763	800.000	-0.104	-0.298
-576.748	800.000	-0.047	-0.201
-575.733	-200.000	0.005	-0.173
-574.719	133.955	0.043	-0.056
-573.704	-69.348	-0.260	-0.100
-572.690	-168.795	-0.750	-0.028
-571.675	800.000	0.075	0.224
-570.661	-200.000	-0.007	0.058
-569.646	-135.125	-0.289	-0.035
-568.631	-21.127	-0.138	-0.084
-567.617	-157.797	0.057	-0.003
-566.602	-88.600	0.125	0.037
-565.588	206.038	-0.143	0.222
-564.573	-127.406	0.366	0.053
-563.558	800.000	-0.063	0.266
-562.544	470.901	-0.077	0.175
-561.529	103.943	0.048	0.057
-560.515	-200.000	-0.090	-0.428
-559.500	164.701	-0.103	-0.146
-558.485	-96.626	-0.397	-0.105
-557.471	311.594	-0.042	0.078
-556.456	21.008	-0.120	-0.098
-555.442	-96.756	0.353	0.093
-554.427	49.821	-0.293	-0.277
-553.412	-88.474	-0.044	0.013
-552.398	-142.491	-0.527	0.052
-551.383	271.440	-0.208	-0.367
-550.369	-200.000	0.001	-0.092
-549.354	800.000	-0.066	0.250
-548.339	65.322	-0.169	0.171
-547.325	-200.000	0.045	0.314
-546.310	-200.000	-0.023	0.149
-545.296	260.794	-0.083	-0.145
-544.281	552.904	-0.100	-0.240
-543.266	0.278	0.056	-0.040
-542.252	-200.000	-0.009	-0.060
-541.237	90.837	-0.217	-0.244
-540.223	-51.587	-0.256	0.120
-539.208	-86.117	0.085	-0.026
-538.193	-200.000	0.004	-0.060
-537.179	88.310	0.072	0.080
-536.164	-200.000	-0.044	-0.417
-535.150	-20.434	-0.056	-0.035
-534.135	-3.438	-0.338	0.236
-533.121	-76.319	-0.245	0.086
-532.106	104.292	-0.147	0.174
-531.091	19.778	-0.429	0.346
-530.077	106.325	-0.052	0.062
-529.062	-33.703	0.069	-0.038
-528.048	359.344	0.102	-0.203
-527.033	800.000	0.092	0.359
-526.018	10.271	-0.160	-0.122
-525.004	72.076	-0.142	0.147
-523.989	47.856	0.230	0.215
-522.975	-42.687	0.322	-0.164
-521.960	239.804	0.049	-0.082
-520.945	-73.700	0.274	-0.100
-519.931	322.951	0.050	-0.095
-518.916	188.790	-0.015	0.022
-517.902	81.608	0.093	-0.100
-516.887	-53.758	0.230	-0.105
-515.872	-14.689	0.210	-0.135
-514.858	126.733	-0.045	0.057
-513.843	-34.456	-0.431	0.236
-512.829	-43.305	-0.187	0.094
-511.814	40.639	0.094	0.085
-510.799	138.533	0.188	0.247
-509.785	-110.905	0.050	-0.010
-508.770	93.312	-0.137	-0.155
-507.756	-200.000	-0.051	-0.250
-506.741	40.053	0.369	-0.331
-505.726	71.459	0.052	-0.054
-504.712	-23.664	-0.145	0.087
-503.697	43.114	-0.255	-0.233
-502.683	124.289	-0.095	-0.120
-501.668	209.467	0.151	-0.237
-500.653	15.832	-0.110	-0.087
-499.639	-200.000	-0.015	0.145
-498.624	800.000	-0.082	-0.270
-497.610	-74.083	0.282	0.102
-496.595	125.087	-0.133	0.167
-495.581	65.927	-0.075	-0.076
-494.566	-200.000	0.022	0.140
-493.551	-128.422	-0.041	-0.006
-492.537	421.313	-0.107	0.229
-491.522	800.000	0.134	0.457
-490.508	800.000	0.077	-0.289
-489.493	-13.102	0.326	-0.211
-488.478	241.891	0.134	0.224
-487.464	-200.000	-0.040	-0.180
-486.449	-148.663	0.288	-0.023
-485.435	-144.001	-0.076	-0.007
-484.420	-163.431	0.073	0.003
-483.405	-99.893	0.149	-0.037
-482.391	-200.000	-0.009	-0.091
-481.376	126.437	-0.200	0.252
-480.362	-200.000	-0.033	0.189
-479.347	-44.258	0.251	-0.125
-478.332	-200.000	0.018	0.210
-477.318	-200.000	0.385	-0.000
-476.303	663.834	-0.088	-0.227
-475.289	-77.176	-0.176	0.061
-474.274	-12.533	0.026	0.017
-473.259	221.379	0.075	-0.121
-472.245	800.000	-0.047	-0.179
-471.230	5.875	-0.105	-0.078
-470.216	44.678	-0.133	0.122
-469.201	-24.257	0.096	0.057
-468.186	-17.319	-0.375	0.236
-467.172	-104.839	-0.175	0.040
-466.157	-78.667	-0.267	-0.091
-465.143	-200.000	-0.024	-0.227
-464.128	800.000	0.038	-0.146
-463.113	-92.189	0.178	-0.050
-462.099	233.347	0.023	0.038
-461.084	-53.890	0.085	0.039
-460.070	-200.000	0.044	0.206
-459.055	-200.000	0.037	-0.417
-458.040	-55.906	-0.084	-0.038
-457.026	-129.980	0.215	0.029
-456.011	93.967	0.069	0.078
-454.997	800.000	0.079	-0.281
-453.982	-200.000	0.025	0.405
-452.968	415.520	-0.038	-0.081
-451.953	-55.467	-0.145	0.065
-450.938	183.196	-0.019	0.028
-449.924	-200.000	0.064	-0.336
-448.909	-90.437	-0.205	-0.059
-447.895	28.666	0.114	-0.096
-446.880	185.649	0.243	-0.360
-445.865	-200.000	0.030	-0.312
-444.851	-57.594	-0.367	0.160
-443.836	-200.000	0.017	0.079
-442.822	-200.000	0.007	-0.234
-441.807	341.276	-0.153	0.299
-440.792	50.104	-0.193	0.182
-439.778	-119.270	0.388	0.067
-438.763	154.783	0.210	0.287
-437.749	-108.936	0.353	0.075
-436.734	130.119	0.237	0.303
-435.719	-135.941	-0.226	0.027
-434.705	-111.747	0.291	-0.059
-433.690	-37.402	0.175	0.093
-432.676	221.490	0.148	-0.237
-431.661	-87.793	-0.021	0.006
-430.646	197.790	0.119	-0.182
-429.632	-31.129	0.229	-0.129
-428.617	587.632	-0.086	0.211
-427.603	-47.977	0.078	0.038
-426.588	153.305	0.016	0.021
-425.573	171.642	-0.184	-0.263
-424.559	51.520	0.097	-0.092
-423.544	147.607	-0.217	0.291
-422.530	800.000	-0.004	-0.011
-421.515	21.789	-0.224	-0.182
-420.500	-131.466	0.283	-0.037
-419.486	800.000	-0.104	0.318
-418.471	165.574	0.091	0.129
-417.457	636.875	-0.092	0.233
-416.442	407.483	0.048	-0.102
-415.428	135.357	0.099	0.128
-414.413	-200.000	-0.017	0.187
-413.398	-85.331	-0.189	0.059
-412.384	-119.551	0.024	-0.004
-411.369	-18.730	-0.120	-0.074
-410.355	-113.632	0.207	0.040
-409.340	-200.000	-0.022	-0.256
-408.325	469.658	0.138	0.308
-407.311	3.456	-0.128	0.093
-406.296	214.282	-0.040	0.063
-405.282	-41.692	0.320	0.164
-404.267	-200.000	0.002	-0.128
-403.252	-116.776	0.562	-0.103
-402.238	-200.000	0.010	0.184
-401.223	67.621	-0.026	-0.027
-400.209	217.797	0.065	-0.103
-399.194	189.058	-0.129	0.192
-398.179	800.000	0.058	-0.164
-397.165	-29.037	0.092	0.052
-396.150	-141.980	-0.245	-0.024
-395.136	-27.651	0.291	0.168
-394.121	202.929	0.198	-0.305
-393.106	-121.659	-0.424	-0.070
-392.092	-200.000	0.053	0.256
-391.077	48.594	-0.191	0.178
-390.063	-107.183	0.210	-0.046
-389.048	-52.571	-0.091	0.042
-388.033	-108.062	0.376	0.081
-387.019	69.926	0.215	-0.220
-386.004	-86.656	-0.256	-0.078
-384.990	-4.590	-0.181	-0.124
-383.975	10.894	0.127	-0.097
-382.960	-78.602	0.129	-0.044
-381.946	-200.000	0.040	0.329
-380.931	277.079	-0.097	0.172
-379.917	66.160	0.227	0.229
-378.902	299.619	0.103	0.189
-377.888	-200.000	-0.093	0.494
-376.873	96.766	0.184	0.209
-375.858	-200.000	-0.018	0.104
-374.844	143.208	0.214	0.283
-373.829	586.186	0.076	-0.185
-372.815	-63.611	-0.047	0.019
-371.800	165.732	-0.186	-0.261
-370.785	768.412	0.059	-0.159
-369.771	434.873	-0.190	0.410
-368.756	800.000	0.088	-0.286
-367.742	-141.521	0.455	-0.046
-366.727	681.079	0.083	-0.215
-365.712	-184.808	-0.392	0.006
-364.698	55.798	-0.193	-0.186
-363.683	-32.705	0.263	-0.145
-362.669	-33.477	0.174	0.096
-361.654	399.207	-0.141	-0.294
-360.639	-200.000	0.226	-0.001
-359.625	-97.383	0.484	0.125
-358.610	124.926	-0.209	0.262
-357.596	-93.715	0.297	-0.081
-356.581	800.000	-0.065	-0.199
-355.566	-200.000	0.005	-0.045
-354.552	78.765	-0.125	-0.132
-353.537	-116.840	-0.186	0.034
-352.523	-21.369	0.161	-0.098
-351.508	800.000	-0.047	-0.171
-350.493	107.983	-0.166	-0.196
-349.479	11.578	0.166	-0.126
-348.464	-124.558	-0.179	-0.028
-347.450	-152.969	0.267	-0.019
-346.435	71.761	-0.063	-0.066
-345.420	372.478	0.083	0.168
-344.406	54.158	-0.206	0.197
-343.391	-31.097	0.188	-0.106
-342.377	800.000	-0.048	0.150
-341.362	800.000	-0.046	0.196
-340.348	-20.814	0.243	-0.148
-339.333	82.027	0.187	0.201
-338.318	193.518	-0.090	0.135
-337.304	-23.031	-0.205	-0.123
-336.289	-200.000	-0.024	0.112
-335.275	-200.000	-0.011	0.178
-334.260	687.503	-0.050	0.130
-333.245	-4.655	-0.318	-0.218
-332.231	352.652	-0.053	0.105
-331.216	-41.516	-0.282	-0.144
-330.202	355.763	-0.074	-0.146
-329.187	800.000	0.051	-0.193
-328.172	800.000	0.017	-0.062
-327.158	-70.520	0.237	-0.089
-326.143	-143.484	0.112	-0.011
-325.129	156.332	-0.115	0.157
-324.114	371.597	-0.119	0.241
-323.099	-200.000	-0.027	-0.221
-322.085	349.861	0.164	-0.321
-321.070	-200.000	-0.020	0.382
-320.056	-128.549	-0.349	0.049
-319.041	139.914	0.101	0.132
-318.026	-138.289	0.309	-0.034
-317.012	-35.578	0.194	0.105
-315.997	715.174	-0.135	0.355
-314.983	-164.235	0.004	-0.000
-313.968	82.213	0.220	0.237
-312.953	255.057	0.219	0.373
-311.939	-8.564	-0.038	-0.025
-310.924	-24.595	0.248	0.147
-309.910	-200.000	-0.047	0.216
-308.895	-64.661	-0.154	-0.062
-307.880	-99.374	-0.146	-0.036
-306.866	96.940	-0.173	0.196
-305.851	-50.605	-0.153	0.072
-304.837	90.469	0.253	0.281
-303.822	39.142	-0.212	0.188
-302.807	-200.000	0.013	-0.173
-301.793	-200.000	-0.002	-0.212
-300.778	-29.093	0.132	0.075
-299.764	567.116	-0.131	-0.315
-298.749	-200.000	0.016	0.141
-297.735	-114.192	0.332	-0.064
-296.720	183.216	0.167	-0.244
-295.705	-3.612	-0.095	-0.066
-294.691	410.993	-0.248	0.522
-293.676	294.340	0.199	0.361
-292.662	241.543	0.091	-0.151
-291.647	-143.991	0.387	0.036
-290.632	-10.656	-0.186	-0.122
-289.618	-200.000	0.033	0.144
-288.603	-122.135	-0.258	-0.042
-287.589	53.058	-0.409	-0.388
-286.574	-185.212	-0.173	0.003
-285.559	-200.000	0.012	-0.221
-284.545	-200.000	-0.022	-0.122
-283.530	-0.106	0.211	-0.149
-282.516	800.000	0.043	0.151
-281.501	-68.313	0.064	-0.025
-280.486	-200.000	-0.016	0.223
-279.472	-74.658	0.306	-0.109
-278.457	-16.560	0.106	-0.066
-277.443	-8.096	0.121	-0.081
-276.428	-93.217	0.039	0.011
-275.413	-200.000	0.021	0.104
-274.399	21.608	-0.192	0.155
-273.384	-200.000	0.009	0.176
-272.370	-125.831	-0.229	0.034
-271.355	-200.000	0.009	0.051
-270.340	-187.369	0.301	-0.004
-269.326	-200.000	-0.056	-0.337
-268.311	755.455	-0.086	0.231
-267.297	609.084	0.014	0.034
-266.282	-138.763	0.269	-0.029
-265.267	800.000	0.042	0.132
-264.253	105.089	0.276	-0.322
-263.238	69.678	-0.084	0.085
-262.224	800.000	-0.086	-0.288
-261.209	-102.152	0.321	-0.076
-260.195	464.863	0.048	0.106
-259.180	-155.574	0.140	0.009
-258.165	-200.000	0.024	-0.248
-257.151	-113.669	-0.245	-0.047
-256.136	255.536	0.049	0.083
-255.122	199.136	-0.159	-0.241
-254.107	9.072	0.154	-0.115
-253.092	-150.304	-0.154	0.012
-252.078	241.029	0.203	-0.335
-251.063	-81.652	-0.319	0.104
-250.049	-200.000	-0.021	-0.108
-249.034	158.926	0.239	0.329
-248.019	308.153	-0.065	0.121
-247.005	558.353	-0.166	0.397
-245.990	127.586	-0.275	0.346
-244.976	199.971	0.068	-0.103
-243.961	-37.477	-0.222	-0.117
-242.946	27.341	0.282	0.234
-241.932	-88.722	-0.098	-0.029
-240.917	161.318	0.081	-0.111
-239.903	-72.913	-0.143	-0.052
-238.888	-65.507	-0.108	-0.043
-237.873	355.435	-0.073	0.145
-236.859	-200.000	0.030	-0.165
-235.844	271.353	-0.056	-0.098
-234.830	37.263	-0.108	-0.095
-233.815	-164.104	-0.123	0.006
-232.800	118.495	-0.095	-0.116
-231.786	62.248	0.215	-0.212
-230.771	-83.801	0.387	-0.122
-229.757	-200.000	-0.038	0.321
-228.742	136.851	0.101	-0.131
-227.727	-123.377	-0.055	-0.009
-226.713	800.000	-0.109	0.327
-225.698	122.638	0.138	0.171
-224.684	-0.099	0.134	-0.094
-223.669	-78.961	-0.203	-0.068
-222.655	-90.204	-0.378	0.109
-221.640	330.364	-0.167	0.319
-220.625	800.000	-0.030	0.094
-219.611	-22.575	0.053	0.032
-218.596	5.582	-0.384	-0.281
-217.582	642.837	-0.051	0.128
-216.567	-17.395	0.135	-0.084
-215.552	386.865	0.153	-0.312
-214.538	61.129	-0.233	-0.228
-213.523	-32.255	0.036	0.020
-212.509	32.234	-0.178	-0.152
-211.494	-88.016	0.179	-0.053
-210.479	-40.135	0.301	0.155
-209.465	-200.000	-0.038	-0.215
-208.450	10.439	0.370	0.278
-207.436	228.598	-0.120	0.194
-206.421	48.796	-0.131	0.121
-205.406	-88.263	-0.123	-0.036
-204.392	64.870	0.377	-0.376
-203.377	-39.987	-0.224	0.116
-202.363	-1.348	-0.060	0.042
-201.348	-75.765	0.279	-0.098
-200.333	-120.897	0.128	-0.021
-199.319	-39.174	0.221	0.115
-198.304	-49.439	-0.085	0.040
-197.290	281.798	-0.114	-0.202
-196.275	22.565	0.193	-0.156
-195.260	80.050	0.134	0.143
-194.246	-200.000	-0.025	0.190
-193.231	-200.000	-0.006	-0.170
-192.217	12.462	-0.141	0.108
-191.202	-4.042	0.258	0.177
-190.187	-62.196	-0.109	0.045
-189.173	44.506	0.348	0.316
-188.158	204.085	-0.324	-0.496
-187.144	153.270	-0.074	0.100
-186.129	156.910	0.197	0.269
-185.114	-51.076	-0.164	0.076
-184.100	-51.707	0.042	-0.020
-183.085	-9.157	-0.091	0.060
-182.071	92.657	0.251	-0.280
-181.056	42.459	0.304	-0.273
-180.042	-200.000	0.039	0.173
-179.027	-40.480	-0.380	0.195
-178.012	283.305	0.106	-0.189
-176.998	-86.631	0.109	-0.033
-175.983	12.542	0.075	-0.057
-174.969	-200.000	-0.008	-0.240
-173.954	-73.939	0.079	-0.028
-172.939	110.114	-0.207	0.245
-171.925	-200.000	0.019	0.184
-170.910	800.000	0.056	-0.197
-169.896	81.311	-0.338	-0.360
-168.881	800.000	-0.038	0.107
-167.866	296.389	0.118	0.214
-166.852	-104.913	0.177	0.040
-165.837	-43.356	0.052	-0.026
-164.823	-200.000	0.062	-0.275
-163.808	69.848	0.094	0.096
-162.793	800.000	-0.051	-0.146
-161.779	-113.413	-0.160	0.031
-160.764	172.394	-0.042	-0.059
-159.750	-200.000	0.071	-0.311
-158.735	-61.008	0.272	0.113
-157.720	-98.726	-0.366	0.092
-156.706	-6.423	-0.182	0.122
-155.691	800.000	0.032	0.087
-154.677	-50.692	-0.153	0.071
-153.662	19.263	-0.099	0.078
-152.647	-146.585	-0.163	-0.014
-151.633	-120.791	0.146	0.024
-150.618	-59.224	0.447	-0.190
-149.604	800.000	-0.092	0.302
-148.589	-23.621	0.287	-0.170
-147.574	-200.000	-0.006	-0.108
-146.560	84.527	0.192	0.207
-145.545	-200.000	-0.010	0.165
-144.531	183.866	0.119	-0.174
-143.516	132.610	-0.251	0.319
-142.502	800.000	0.079	0.342
-141.487	471.785	-0.212	0.471
-140.472	24.812	0.184	0.150
-139.458	-31.193	0.343	0.190
-138.443	266.833	0.049	-0.084
-137.429	229.869	0.208	-0.336
-136.414	800.000	0.041	-0.123
-135.399	-21.636	-0.095	0.057
-134.385	71.178	0.111	-0.113
-133.370	-146.837	0.261	0.022
-132.356	-41.904	-0.173	0.087
-131.341	193.196	-0.218	-0.325
-130.326	-200.000	0.032	0.186
-129.312	-200.000	-0.010	0.060
-128.297	-24.669	-0.211	-0.124
-127.283	-200.000	-0.033	-0.175
-126.268	-200.000	-0.014	0.091
-125.253	-129.503	0.204	-0.028
-124.239	-42.663	0.377	-0.189
-123.224	323.402	0.257	0.482
-122.210	263.316	-0.121	-0.207
-121.195	-107.198	0.163	-0.035
