DTS Sentinel unit serial number:	SN413079Multiplexer serial number:	ORYXHardware model number:	OX4-SRSoftware version number:	ORYX F/W v4.00 Oryx Data Collector v3.7.2.0data status	okinstallation	princeton_trtdifferential loss correction	single-endedforward channel	channel 2reverse channel	N/Adate	2019/09/13time	14:19:35forward acquisition time	60.00reverse acquisition time	0.00gamma	496.2192k internal	0.2315k external	0.2315temperature offset calibration	1.0205default loss term (dB/km)	0.3790temperature slope calibration	1.0000multiplexer offset coefficient	1.0000multiplexer slope coefficient	1.0000fibre end	0.00T internal ref (°C)	35.28T ext. ref 1 (°C)	4.62T ext. ref 2 (°C)	31.40length (m)	temperature (°C)	Stokes	anti-Stokes-747.200	35.659	-0.085	-0.076
-746.185	-170.483	-0.206	0.007
-745.171	456.038	-0.150	0.338
-744.156	342.724	-0.093	0.185
-743.142	-0.947	-0.101	-0.073
-742.127	-88.400	0.349	-0.106
-741.112	-113.821	0.340	0.067
-740.098	-60.599	-0.091	0.039
-739.083	5.020	-0.099	-0.074
-738.069	17.528	-0.148	0.119
-737.054	293.846	-0.044	0.081
-736.039	209.765	-0.189	0.300
-735.025	-108.097	-0.099	0.022
-734.010	590.366	-0.146	0.365
-732.996	604.187	0.156	0.394
-731.981	44.854	-0.098	-0.091
-730.966	-72.198	0.196	0.074
-729.952	800.000	0.084	-0.344
-728.937	79.005	-0.253	0.275
-727.923	-21.966	-0.209	0.129
-726.908	14.653	-0.272	-0.215
-725.894	741.697	-0.080	-0.217
-724.879	237.807	-0.128	0.216
-723.864	12.199	-0.169	-0.132
-722.850	800.000	0.084	-0.317
-721.835	377.620	-0.029	0.061
-720.821	47.638	-0.128	0.121
-719.806	-58.390	-0.234	-0.103
-718.791	126.960	0.153	-0.197
-717.777	-200.000	-0.027	-0.328
-716.762	-52.399	-0.060	-0.028
-715.748	-200.000	-0.045	0.280
-714.733	-171.100	-0.149	0.005
-713.718	-200.000	0.047	-0.305
-712.704	800.000	-0.056	-0.207
-711.689	800.000	0.074	-0.288
-710.675	-0.120	-0.293	-0.211
-709.660	800.000	0.016	0.064
-708.645	-200.000	0.035	-0.222
-707.631	-69.593	0.331	-0.128
-706.616	159.265	-0.140	-0.197
-705.602	-56.443	0.119	0.054
-704.587	701.442	-0.124	0.329
-703.572	-200.000	0.017	-0.385
-702.558	641.742	0.051	-0.131
-701.543	-169.054	-0.263	-0.010
-700.529	-85.732	-0.234	-0.073
-699.514	-130.055	0.295	-0.041
-698.499	-200.000	0.183	0.000
-697.485	-200.000	-0.002	0.017
-696.470	-37.617	-0.280	-0.151
-695.456	-46.446	-0.259	-0.128
-694.441	53.464	-0.123	-0.119
-693.426	-98.093	0.386	0.101
-692.412	635.873	-0.187	-0.479
-691.397	554.837	0.100	-0.243
-690.383	645.715	-0.180	0.465
-689.368	82.074	-0.133	-0.146
-688.354	-142.210	-0.104	0.010
-687.339	-127.558	-0.378	0.055
-686.324	-200.000	-0.014	0.158
-685.310	175.132	0.134	-0.196
-684.295	2.053	-0.204	-0.149
-683.281	-40.368	0.115	-0.060
-682.266	800.000	-0.049	0.145
-681.251	96.591	-0.215	0.249
-680.237	800.000	-0.123	-0.530
-679.222	149.854	-0.084	-0.115
-678.208	-200.000	-0.012	-0.145
-677.193	112.727	-0.204	-0.250
-676.178	-94.355	0.199	-0.055
-675.164	800.000	-0.072	-0.260
-674.149	37.903	0.130	-0.117
-673.135	639.326	-0.059	0.151
-672.120	117.760	0.087	0.109
-671.105	177.937	-0.128	-0.189
-670.091	-103.810	0.173	-0.041
-669.076	-82.041	-0.165	0.054
-668.062	-130.990	-0.325	-0.044
-667.047	-61.530	0.160	-0.068
-666.032	-200.000	-0.052	-0.392
-665.018	-113.694	0.191	-0.038
-664.003	793.922	0.045	-0.124
-662.989	240.713	-0.182	-0.307
-661.974	-113.240	0.093	0.018
-660.959	281.302	0.129	-0.233
-659.945	-42.635	0.129	0.066
-658.930	-109.094	0.270	-0.058
-657.916	-106.696	-0.223	0.050
-656.901	142.042	0.037	-0.049
-655.886	153.419	-0.058	0.080
-654.872	128.414	-0.076	0.098
-653.857	-103.274	-0.262	0.063
-652.843	-116.927	0.262	0.048
-651.828	-200.000	-0.007	-0.560
-650.814	800.000	-0.077	-0.249
-649.799	385.686	0.079	-0.165
-648.784	-200.000	0.022	0.269
-647.770	-0.385	-0.268	0.193
-646.755	36.512	-0.303	-0.270
-645.741	9.537	-0.229	-0.175
-644.726	35.122	0.167	0.148
-643.711	274.588	0.239	-0.427
-642.697	-196.391	-0.477	0.003
-641.682	-200.000	0.014	-0.172
-640.668	155.993	-0.049	0.068
-639.653	380.120	-0.055	0.115
-638.638	-78.428	0.155	-0.054
-637.624	-80.322	-0.153	0.052
-636.609	-42.053	-0.242	0.125
-635.595	788.333	0.096	0.267
-634.580	59.832	0.133	-0.133
-633.565	130.447	-0.166	0.215
-632.551	264.316	0.115	0.201
-631.536	-200.000	-0.170	-0.000
-630.522	39.532	0.128	-0.115
-629.507	-200.000	0.003	0.286
-628.492	-157.196	0.440	-0.027
-627.478	-152.547	-0.235	-0.017
-626.463	163.065	0.167	0.237
-625.449	-167.229	-0.307	0.013
-624.434	547.475	-0.093	0.225
-623.419	-166.309	0.086	0.004
-622.405	6.645	0.444	0.333
-621.390	-7.329	-0.208	0.142
-620.376	27.265	-0.064	0.054
-619.361	217.103	-0.260	-0.418
-618.346	-155.198	-0.163	0.011
-617.332	255.081	-0.101	0.174
-616.317	-72.198	-0.234	-0.087
-615.303	800.000	-0.035	-0.112
-614.288	93.392	-0.181	-0.207
-613.273	-26.225	-0.141	0.084
-612.259	-154.721	0.171	0.011
-611.244	326.755	-0.076	0.148
-610.230	-200.000	0.069	0.328
-609.215	-141.392	0.302	-0.031
-608.201	-81.556	0.218	-0.072
-607.186	-104.493	0.193	-0.045
-606.171	-21.522	-0.113	0.069
-605.157	119.268	0.062	-0.078
-604.142	289.990	0.014	0.026
-603.128	800.000	-0.135	-0.387
-602.113	442.251	-0.028	-0.062
-601.098	307.206	-0.044	-0.083
-600.084	-49.922	-0.381	0.182
-599.069	-56.062	-0.259	0.116
-598.055	53.882	-0.214	-0.207
-597.040	113.193	0.142	0.173
-596.025	-93.828	0.244	-0.068
-595.011	-200.000	-0.020	-0.192
-593.996	203.912	0.021	-0.032
-592.982	405.753	-0.032	0.067
-591.967	800.000	0.050	-0.213
-590.952	-41.982	-0.680	-0.351
-589.938	-200.000	-0.026	-0.157
-588.923	-146.844	0.238	-0.021
-587.909	-61.247	0.211	-0.090
-586.894	-49.122	-0.269	-0.130
-585.879	-200.000	-0.068	-0.302
-584.865	-125.669	0.250	-0.038
-583.850	-63.973	0.107	-0.044
-582.836	151.210	0.158	0.217
-581.821	800.000	0.058	-0.163
-580.806	196.649	-0.153	-0.235
-579.792	800.000	0.100	-0.388
-578.777	656.637	-0.059	0.152
-577.763	-97.631	-0.103	-0.027
-576.748	-158.911	-0.144	0.008
-575.733	800.000	-0.080	0.257
-574.719	-138.853	0.292	0.032
-573.704	-200.000	-0.016	-0.138
-572.690	-151.896	0.386	-0.028
-571.675	31.731	-0.095	-0.082
-570.661	94.672	0.103	0.118
-569.646	-47.657	-0.320	0.156
-568.631	29.750	0.253	0.217
-567.617	134.740	0.124	0.162
-566.602	-108.503	-0.239	0.052
-565.588	800.000	-0.085	-0.311
-564.573	89.014	-0.278	-0.311
-563.558	311.977	0.067	-0.127
-562.544	243.649	-0.170	0.287
-561.529	9.970	-0.123	0.094
-560.515	712.978	0.079	-0.212
-559.500	271.499	0.121	-0.215
-558.485	-103.868	0.171	-0.040
-557.471	209.071	-0.103	-0.163
-556.456	-78.766	0.124	-0.043
-555.442	-115.560	-0.420	-0.079
-554.427	41.672	-0.055	0.050
-553.412	92.520	-0.164	-0.187
-552.398	-200.000	-0.025	0.257
-551.383	118.540	-0.269	-0.334
-550.369	-200.000	0.001	-0.023
-549.354	-89.625	0.058	-0.017
-548.339	-61.266	-0.141	-0.060
-547.325	42.255	-0.156	0.142
-546.310	-200.000	-0.015	-0.079
-545.296	-193.744	0.247	0.002
-544.281	-200.000	-0.005	0.026
-543.266	-54.635	0.095	0.043
-542.252	-87.115	0.053	-0.016
-541.237	57.369	-0.230	0.226
-540.223	-8.530	-0.369	0.249
-539.208	141.069	0.244	-0.324
-538.193	-121.523	-0.113	-0.019
-537.179	-39.959	-0.156	0.082
-536.164	524.376	-0.177	-0.418
-535.150	569.260	0.216	-0.529
-534.135	-93.239	0.154	-0.043
-533.121	-163.095	0.163	0.008
-532.106	461.475	-0.131	-0.293
-531.091	325.610	0.112	-0.216
-530.077	69.006	0.200	0.207
-529.062	27.690	-0.077	0.065
-528.048	-79.334	0.170	-0.058
-527.033	-200.000	0.010	0.210
-526.018	-79.639	-0.259	-0.088
-525.004	726.003	0.065	0.173
-523.989	176.809	-0.194	-0.283
-522.975	-68.405	0.189	0.074
-521.960	-120.476	0.533	0.091
-520.945	-200.000	-0.011	0.306
-519.931	377.326	-0.072	-0.149
-518.916	-200.000	-0.016	-0.176
-517.902	-45.364	-0.406	-0.202
-516.887	-12.046	-0.039	-0.026
-515.872	-118.996	0.123	0.022
-514.858	-134.322	-0.457	0.056
-513.843	-187.033	0.176	-0.002
-512.829	-168.474	0.031	0.001
-511.814	-59.490	0.223	0.096
-510.799	613.721	0.130	-0.327
-509.785	-112.225	-0.257	-0.052
-508.770	147.389	0.094	-0.127
-507.756	-200.000	0.050	-0.279
-506.741	-4.012	0.163	-0.114
-505.726	-65.425	-0.108	0.044
-504.712	-200.000	-0.002	0.369
-503.697	-84.954	-0.239	-0.075
-502.683	-40.045	0.252	-0.132
-501.668	-63.703	-0.173	0.071
-500.653	-200.000	-0.001	0.087
-499.639	-200.000	-0.027	-0.216
-498.624	-200.000	-0.000	-0.056
-497.610	-200.000	0.059	0.278
-496.595	350.351	0.025	-0.050
-495.581	363.706	-0.049	0.099
-494.566	-1.841	0.151	-0.106
-493.551	17.690	0.070	-0.056
-492.537	-51.133	0.124	-0.058
-491.522	-46.798	0.258	0.126
-490.508	-111.653	0.356	0.072
-489.493	94.847	0.043	0.049
-488.478	-70.819	0.043	-0.016
-487.464	189.323	0.116	-0.174
-486.449	181.957	0.166	0.245
-485.435	147.431	0.272	0.368
-484.420	-6.900	0.079	-0.054
-483.405	561.904	0.055	-0.134
-482.391	-139.754	-0.327	0.035
-481.376	-134.199	-0.194	-0.024
-480.362	472.398	0.069	0.155
-479.347	-167.119	-0.260	-0.011
-478.332	800.000	0.086	0.289
-477.318	-200.000	-0.001	-0.086
-476.303	381.643	-0.087	0.179
-475.289	147.323	-0.137	0.185
-474.274	-200.000	-0.036	-0.239
-473.259	-60.124	-0.173	-0.074
-472.245	-27.301	0.162	0.095
-471.230	-23.899	0.124	0.075
-470.216	240.352	0.075	-0.126
-469.201	500.369	0.102	0.235
-468.186	800.000	-0.061	-0.178
-467.172	-170.963	-0.198	0.007
-466.157	-200.000	-0.016	-0.284
-465.143	-101.186	0.225	0.055
-464.128	369.541	0.044	0.089
-463.113	146.568	0.229	0.308
-462.099	15.346	-0.121	-0.095
-461.084	36.717	0.100	-0.088
-460.070	-200.000	0.008	-0.075
-459.055	33.068	0.082	0.072
-458.040	-97.672	0.142	-0.037
-457.026	164.095	-0.137	-0.193
-456.011	-103.187	0.034	-0.008
-454.997	-108.209	0.198	-0.043
-453.982	800.000	-0.106	-0.301
-452.968	-69.921	0.294	0.112
-451.953	800.000	0.041	-0.175
-450.938	800.000	-0.040	-0.163
-449.924	65.467	0.188	-0.191
-448.909	318.055	-0.066	0.125
-447.895	800.000	0.027	-0.074
-446.880	-108.611	0.171	-0.037
-445.865	-125.652	-0.319	0.048
-444.851	46.760	-0.177	0.164
-443.836	-200.000	-0.037	0.349
-442.822	-87.667	-0.048	-0.014
-441.807	-89.041	0.049	0.015
-440.792	269.471	0.099	0.174
-439.778	56.361	-0.044	-0.042
-438.763	123.903	0.142	-0.178
-437.749	707.957	0.124	0.328
-436.734	31.538	-0.134	-0.115
-435.719	207.000	-0.162	-0.253
-434.705	75.243	0.170	-0.179
-433.690	149.614	-0.145	0.197
-432.676	186.424	0.198	-0.295
-431.661	800.000	-0.048	-0.145
-430.646	-9.724	0.098	-0.065
-429.632	-114.515	0.248	-0.048
-428.617	-200.000	0.001	0.145
-427.603	615.542	0.048	0.120
-426.588	74.462	-0.134	0.141
-425.573	-200.000	-0.020	-0.105
-424.559	-200.000	-0.040	-0.212
-423.544	-200.000	-0.057	0.439
-422.530	-148.647	0.445	-0.036
-421.515	-120.644	0.255	-0.043
-420.500	-86.283	-0.258	-0.080
-419.486	-200.000	0.069	0.302
-418.471	800.000	0.142	0.461
-417.457	25.416	-0.209	0.174
-416.442	-49.176	0.166	-0.079
-415.428	-200.000	-0.071	-0.411
-414.413	6.797	-0.168	0.125
-413.398	772.079	0.123	0.337
-412.384	-57.700	-0.120	0.053
-411.369	-8.583	-0.059	0.040
-410.355	-18.073	0.098	0.061
-409.340	-200.000	0.010	-0.158
-408.325	-135.515	0.054	0.006
-407.311	-94.719	-0.285	0.077
-406.296	166.910	0.083	0.118
-405.282	800.000	-0.087	0.342
-404.267	85.224	-0.032	0.035
-403.252	-200.000	0.013	0.135
-402.238	765.627	0.070	0.191
-401.223	-65.707	0.132	-0.053
-400.209	-6.397	-0.126	-0.086
-399.194	-128.453	-0.109	0.015
-398.179	239.318	-0.186	0.310
-397.165	-200.000	0.001	0.316
-396.150	342.657	0.047	-0.092
-395.136	-200.000	0.004	-0.070
-394.121	762.971	0.122	0.330
-393.106	-200.000	0.024	-0.292
-392.092	-149.812	-0.368	-0.029
-391.077	18.913	-0.148	0.118
-390.063	721.169	-0.042	-0.112
-389.048	-181.870	-0.216	-0.004
-388.033	36.889	0.152	0.134
-387.019	-87.034	-0.147	0.045
-386.004	272.770	-0.126	0.222
-384.990	9.174	0.173	-0.131
-383.975	-43.352	-0.223	0.113
-382.960	-66.806	0.272	0.108
-381.946	-74.307	0.222	-0.080
-380.931	-110.654	0.188	0.039
-379.917	115.038	-0.045	-0.054
-378.902	142.469	-0.152	0.202
-377.888	-113.108	0.140	0.028
-376.873	-7.740	-0.049	-0.033
-375.858	800.000	-0.096	-0.266
-374.844	-153.626	-0.168	0.012
-373.829	-200.000	-0.009	0.118
-372.815	-200.000	-0.010	-0.047
-371.800	701.612	0.076	0.200
-370.785	91.026	0.201	0.225
-369.771	85.009	0.213	-0.233
-368.756	-200.000	-0.001	0.027
-367.742	-49.519	-0.126	0.060
-366.727	83.539	0.139	0.151
-365.712	425.477	0.116	-0.249
-364.698	264.554	-0.062	0.108
-363.683	-10.002	-0.308	-0.204
-362.669	356.637	0.090	0.179
-361.654	-200.000	-0.023	0.192
-360.639	11.373	0.113	0.087
-359.625	-33.464	-0.143	-0.079
-358.610	-108.833	0.098	0.021
-357.596	-200.000	-0.027	-0.363
-356.581	-30.573	0.075	0.042
-355.566	-105.512	0.068	-0.015
-354.552	-41.768	0.293	0.150
-353.537	-119.981	0.126	0.022
-352.523	-104.409	-0.194	-0.045
-351.508	800.000	0.132	0.390
-350.493	38.006	0.086	0.076
-349.479	-72.716	-0.413	-0.152
-348.464	-200.000	-0.036	-0.207
-347.450	-200.000	-0.084	-0.428
-346.435	-132.862	-0.127	-0.016
-345.420	800.000	0.131	-0.433
-344.406	-15.195	-0.112	0.072
-343.391	-103.026	0.257	-0.061
-342.377	22.870	-0.161	0.132
-341.362	355.220	0.082	-0.162
-340.348	800.000	-0.058	-0.193
-339.333	-200.000	-0.027	0.123
-338.318	-109.682	-0.040	-0.008
-337.304	36.841	0.142	-0.125
-336.289	-1.211	-0.195	-0.138
-335.275	720.947	-0.119	-0.314
-334.260	800.000	-0.095	-0.272
-333.245	42.159	0.512	-0.464
-332.231	-99.736	-0.259	0.065
-331.216	134.883	-0.049	0.063
-330.202	-200.000	-0.078	0.418
-329.187	777.862	0.131	0.358
-328.172	-200.000	-0.004	0.084
-327.158	-200.000	0.012	-0.252
-326.143	-81.030	0.372	-0.123
-325.129	-117.682	0.136	0.024
-324.114	111.943	-0.036	-0.044
-323.099	114.212	0.048	0.058
-322.085	-13.451	-0.080	-0.051
-321.070	-68.519	-0.158	0.061
-320.056	-46.549	0.223	-0.109
-319.041	-132.041	0.082	0.011
-318.026	165.903	0.143	0.202
-317.012	188.846	0.068	0.102
-315.997	-163.214	-0.154	-0.007
-314.983	-194.117	0.318	0.003
-313.968	-200.000	-0.010	0.051
-312.953	-37.758	-0.014	0.007
-311.939	-134.142	0.448	-0.055
-310.924	51.027	-0.209	-0.197
-309.910	-28.920	-0.273	0.156
-308.895	37.241	0.357	-0.315
-307.880	698.027	-0.049	0.127
-306.866	-40.582	0.236	0.122
-305.851	-64.472	-0.077	0.031
-304.837	43.170	0.021	0.019
-303.822	-16.611	0.080	0.050
-302.807	800.000	-0.082	0.243
-301.793	198.181	-0.173	0.263
-300.778	800.000	-0.096	-0.326
-299.764	800.000	0.043	-0.184
-298.749	-9.625	-0.215	-0.143
-297.735	-5.466	-0.133	-0.091
-296.720	-21.988	-0.133	0.081
-295.705	463.471	0.081	0.180
-294.691	11.968	-0.106	0.081
-293.676	66.212	-0.265	0.268
-292.662	-113.859	-0.109	0.021
-291.647	-51.473	-0.073	0.034
-290.632	-91.647	-0.109	0.031
-289.618	214.356	0.141	-0.222
-288.603	34.383	0.097	0.084
-287.589	-1.331	-0.240	0.168
-286.574	574.290	-0.084	-0.204
-285.559	-200.000	0.001	0.114
-284.545	-51.447	-0.207	-0.096
-283.530	742.067	0.105	-0.281
-282.516	800.000	0.010	-0.031
-281.501	-147.564	-0.099	0.008
-280.486	-10.063	-0.041	-0.027
-279.472	310.085	0.130	-0.242
-278.457	-95.781	0.088	0.024
-277.443	-200.000	0.008	-0.138
-276.428	-93.559	0.138	0.038
-275.413	614.163	0.119	-0.295
-274.399	58.135	0.218	-0.213
-273.384	-173.213	-0.152	0.005
-272.370	-65.340	-0.053	-0.021
-271.355	180.888	-0.122	0.178
-270.340	624.237	0.063	0.159
-269.326	626.082	-0.090	-0.227
-268.311	292.118	-0.068	-0.123
-267.297	-22.986	0.206	0.124
-266.282	14.326	-0.133	-0.103
-265.267	800.000	0.028	-0.086
-264.253	97.804	-0.231	0.265
-263.238	18.460	0.067	-0.053
-262.224	-200.000	0.008	-0.192
-261.209	-135.943	0.061	0.007
-260.195	723.600	0.014	0.036
-259.180	103.572	-0.190	-0.222
-258.165	-200.000	0.037	0.177
-257.151	10.288	0.123	-0.093
-256.136	-35.834	0.369	0.199
-255.122	-25.311	0.184	0.108
-254.107	-200.000	0.053	0.331
-253.092	-200.000	-0.008	0.039
-252.078	177.388	0.100	0.145
-251.063	-161.581	-0.491	-0.025
-250.049	102.081	0.323	0.375
-249.034	-63.377	-0.167	0.068
-248.019	538.963	-0.027	0.064
-247.005	299.147	0.157	-0.288
-245.990	-19.940	-0.119	-0.073
-244.976	-104.246	0.115	-0.027
-243.961	272.964	0.102	-0.179
-242.946	-200.000	-0.001	0.365
-241.932	10.907	-0.154	0.117
-240.917	115.807	-0.129	-0.157
-239.903	-200.000	-0.028	0.143
-238.888	247.966	0.124	-0.209
-237.873	-140.657	0.227	0.023
-236.859	-91.104	0.225	-0.064
-235.844	-200.000	-0.003	0.020
-234.830	94.587	0.196	0.222
-233.815	-200.000	0.006	0.033
-232.800	-13.164	0.035	-0.023
-231.786	378.595	-0.305	0.619
-230.771	-154.507	-0.236	-0.016
-229.757	95.871	0.164	-0.185
-228.742	-188.140	0.387	0.005
-227.727	-200.000	0.001	0.250
-226.713	-200.000	0.044	0.314
-225.698	366.552	0.163	0.326
-224.684	-200.000	0.032	-0.160
-223.669	213.448	-0.040	-0.063
-222.655	96.257	0.089	0.101
-221.640	800.000	0.082	-0.227
-220.625	319.004	-0.149	-0.280
-219.611	4.710	-0.193	0.141
-218.596	-44.878	-0.076	0.038
-217.582	800.000	0.057	-0.203
-216.567	-100.101	-0.254	0.063
-215.552	-96.639	-0.423	-0.111
-214.538	-200.000	-0.019	-0.187
-213.523	33.280	0.140	-0.121
-212.509	94.418	-0.169	-0.191
-211.494	558.314	0.078	0.186
-210.479	-78.655	-0.402	0.136
-209.465	111.641	-0.250	0.300
-208.450	-200.000	0.000	-0.243
-207.436	800.000	0.052	0.180
-206.421	-200.000	-0.029	0.195
-205.406	-200.000	-0.012	-0.153
-204.392	-34.726	0.178	0.097
-203.377	335.970	0.104	0.200
-202.363	131.992	-0.230	-0.294
-201.348	800.000	-0.050	-0.200
-200.333	109.250	-0.080	-0.095
-199.319	69.922	-0.269	0.275
-198.304	-155.966	0.045	0.003
-197.290	-84.046	0.144	0.045
-196.275	-200.000	-0.010	-0.132
-195.260	-80.504	-0.112	-0.037
-194.246	-143.853	-0.198	-0.019
-193.231	-183.162	-0.182	0.003
-192.217	161.035	0.179	0.248
-191.202	26.749	0.234	0.194
-190.187	-150.466	-0.189	0.014
-189.173	-55.320	-0.182	0.081
-188.158	780.566	0.111	-0.300
-187.144	-187.428	0.262	-0.003
-186.129	9.270	0.245	-0.184
-185.114	-83.520	-0.440	0.139
-184.100	-200.000	-0.029	-0.131
-183.085	36.359	0.144	0.126
-182.071	-79.621	0.192	0.064
-181.056	720.802	0.075	0.198
-180.042	121.853	0.146	0.180
-179.027	-141.297	-0.195	-0.020
-178.012	-113.431	0.159	0.031
-176.998	800.000	-0.059	0.187
-175.983	-200.000	0.022	0.287
-174.969	800.000	0.012	0.050
-173.954	-133.163	-0.076	0.010
-172.939	-75.303	0.019	-0.007
-171.925	800.000	0.124	0.358
-170.910	287.644	0.111	0.199
-169.896	98.689	-0.046	0.053
-168.881	26.669	-0.138	-0.115
-167.866	-93.784	0.105	0.029
-166.852	-29.095	0.297	-0.169
-165.837	-22.108	-0.236	0.142
-164.823	565.951	0.109	-0.262
-163.808	203.998	-0.118	0.180
-162.793	39.655	0.073	-0.065
-161.779	800.000	-0.046	-0.132
-160.764	-89.428	0.478	-0.139
-159.750	800.000	0.031	0.119
-158.735	-35.349	0.178	-0.096
-157.720	-62.373	0.168	-0.069
-156.706	-200.000	-0.076	-0.431
-155.691	-200.000	-0.016	0.133
-154.677	-144.015	-0.241	-0.022
-153.662	247.946	0.199	-0.333
-152.647	-93.230	0.213	0.059
-151.633	800.000	-0.039	0.132
-150.618	-41.499	-0.180	0.092
-149.604	52.352	0.091	0.086
-148.589	-159.182	0.227	-0.013
-147.574	62.040	-0.132	0.130
-146.560	-200.000	0.031	-0.354
-145.545	-48.573	0.085	-0.041
-144.531	-116.975	0.209	-0.038
-143.516	-200.000	-0.011	-0.168
-142.502	201.591	-0.202	-0.308
-141.487	-98.966	-0.054	-0.013
-140.472	-83.946	0.225	-0.071
-139.458	114.266	-0.100	0.120
-138.443	-200.000	0.015	-0.148
-137.429	170.915	-0.058	0.082
-136.414	800.000	0.020	0.062
-135.399	-131.197	-0.160	-0.021
-134.385	751.437	-0.026	0.068
-133.370	259.326	-0.112	0.191
-132.356	-108.367	-0.162	0.035
-131.341	294.904	-0.211	-0.382
-130.326	800.000	0.180	-0.508
-129.312	168.716	0.091	0.128
-128.297	5.499	0.370	-0.270
-127.283	-1.392	0.159	-0.111
-126.268	-124.814	0.270	-0.041
-125.253	-31.409	-0.096	-0.053
-124.239	220.816	-0.157	0.249
-123.224	138.396	-0.327	0.424
-122.210	44.317	-0.127	-0.115
