DTS Sentinel unit serial number:	SN413079Multiplexer serial number:	ORYXHardware model number:	OX4-SRSoftware version number:	ORYX F/W v4.00 Oryx Data Collector v3.7.2.0data status	okinstallation	princeton_trtdifferential loss correction	single-endedforward channel	channel 2reverse channel	N/Adate	2019/09/15time	01:27:34forward acquisition time	60.00reverse acquisition time	0.00gamma	496.2192k internal	0.2325k external	0.2325temperature offset calibration	1.0034default loss term (dB/km)	0.3790temperature slope calibration	1.0000multiplexer offset coefficient	1.0000multiplexer slope coefficient	1.0000fibre end	0.00T internal ref (°C)	31.87T ext. ref 1 (°C)	4.51T ext. ref 2 (°C)	26.76length (m)	temperature (°C)	Stokes	anti-Stokes-747.200	-29.787	0.057	-0.033
-746.185	-200.000	0.075	0.000
-745.171	-200.000	0.005	0.156
-744.156	165.823	-0.068	0.098
-743.142	-153.279	0.079	-0.006
-742.127	453.197	0.065	-0.146
-741.112	-200.000	0.013	-0.108
-740.098	50.434	0.109	0.104
-739.083	-197.266	-0.312	0.002
-738.069	-53.053	0.154	0.071
-737.054	-200.000	-0.090	-0.412
-736.039	197.337	-0.146	-0.225
-735.025	-200.000	0.023	0.224
-734.010	-200.000	0.022	-0.255
-732.996	200.616	-0.179	-0.277
-731.981	-161.847	0.221	-0.011
-730.966	94.565	-0.257	0.294
-729.952	21.474	-0.126	-0.103
-728.937	-125.924	-0.307	0.047
-727.923	-72.322	0.118	0.044
-726.908	-56.381	0.050	-0.022
-725.894	-119.806	-0.141	0.024
-724.879	-20.428	-0.101	0.062
-723.864	-200.000	-0.015	-0.354
-722.850	-4.878	0.193	-0.134
-721.835	148.764	-0.092	0.125
-720.821	-111.312	-0.168	0.035
-719.806	-173.018	0.206	-0.006
-718.791	800.000	-0.046	0.159
-717.777	-95.834	-0.118	0.032
-716.762	-22.796	0.233	0.142
-715.748	451.928	-0.153	-0.341
-714.733	93.430	-0.350	-0.399
-713.718	108.809	-0.079	0.095
-712.704	-4.003	-0.100	-0.070
-711.689	207.994	0.049	-0.077
-710.675	-52.922	-0.121	-0.056
-709.660	-14.311	0.298	-0.194
-708.645	-200.000	0.007	-0.276
-707.631	15.541	-0.150	-0.119
-706.616	-200.000	-0.043	-0.247
-705.602	247.752	-0.101	0.172
-704.587	-77.691	-0.161	-0.056
-703.572	-16.893	-0.143	0.091
-702.558	-200.000	0.019	-0.122
-701.543	85.679	0.197	-0.218
-700.529	-158.739	-0.207	0.012
-699.514	-42.845	0.412	-0.211
-698.499	-91.588	0.253	-0.073
-697.485	309.714	-0.173	0.325
-696.470	-81.138	-0.240	0.080
-695.456	-200.000	-0.005	0.166
-694.441	-51.990	0.447	0.209
-693.426	-200.000	0.029	-0.147
-692.412	800.000	0.075	-0.221
-691.397	800.000	0.006	-0.025
-690.383	-86.268	-0.646	-0.200
-689.368	-89.879	0.308	0.091
-688.354	-200.000	-0.020	0.179
-687.339	-4.267	0.175	-0.122
-686.324	120.692	-0.183	-0.229
-685.310	800.000	-0.054	0.204
-684.295	-200.000	-0.025	0.200
-683.281	710.748	0.090	-0.240
-682.266	-157.105	0.241	0.015
-681.251	-102.432	-0.278	-0.067
-680.237	453.056	-0.105	0.233
-679.222	-200.000	-0.034	-0.243
-678.208	-9.444	0.124	0.083
-677.193	-16.364	0.118	-0.075
-676.178	-63.765	-0.204	-0.084
-675.164	-104.626	-0.241	0.056
-674.149	55.022	-0.092	-0.090
-673.135	-127.993	0.090	-0.013
-672.120	-25.325	-0.148	-0.088
-671.105	800.000	-0.117	0.398
-670.091	800.000	0.066	0.232
-669.076	322.904	0.052	-0.101
-668.062	40.109	-0.337	-0.305
-667.047	-47.302	0.317	0.155
-666.032	-13.468	0.181	-0.118
-665.018	29.458	-0.241	-0.206
-664.003	147.141	0.165	-0.224
-662.989	-69.649	-0.185	0.071
-661.974	278.296	0.238	0.427
-660.959	158.568	0.047	0.065
-659.945	-19.671	0.202	-0.126
-658.930	30.687	-0.366	-0.315
-657.916	800.000	0.081	-0.301
-656.901	224.164	0.124	0.201
-655.886	-200.000	-0.038	-0.394
-654.872	48.946	0.060	-0.056
-653.857	196.365	-0.055	-0.085
-652.843	-129.012	-0.074	0.010
-651.828	432.432	0.139	0.302
-650.814	15.130	-0.186	0.146
-649.799	-36.618	-0.135	-0.073
-648.784	-119.067	-0.278	0.049
-647.770	-112.016	-0.143	0.029
-646.755	352.703	0.094	-0.188
-645.741	-48.616	-0.207	-0.100
-644.726	800.000	-0.043	-0.140
-643.711	800.000	0.068	-0.212
-642.697	800.000	-0.004	-0.016
-641.682	215.074	0.031	-0.050
-640.668	-100.823	0.217	0.054
-639.653	-139.565	-0.129	-0.014
-638.638	492.592	-0.168	-0.386
-637.624	-173.690	-0.522	-0.016
-636.609	118.096	0.063	0.078
-635.595	-100.338	0.103	-0.026
-634.580	-200.000	-0.038	-0.191
-633.565	16.546	0.219	-0.174
-632.551	437.907	-0.033	0.073
-631.536	-50.423	0.481	-0.228
-630.522	-200.000	0.101	-0.491
-629.507	800.000	0.038	0.160
-628.492	-200.000	0.020	-0.242
-627.478	-130.470	-0.213	-0.029
-626.463	123.136	0.132	0.166
-625.449	-200.000	-0.021	0.155
-624.434	-101.666	-0.361	0.088
-623.419	-113.161	-0.155	0.031
-622.405	-18.234	-0.115	0.072
-621.390	800.000	0.114	0.321
-620.376	72.420	-0.224	-0.234
-619.361	-200.000	0.055	-0.321
-618.346	-87.604	0.126	0.038
-617.332	273.574	-0.111	-0.197
-616.317	-200.000	0.001	-0.093
-615.303	800.000	0.073	0.271
-614.288	172.395	0.081	-0.117
-613.273	-37.863	-0.239	-0.127
-612.259	-200.000	0.028	0.139
-611.244	800.000	0.013	-0.047
-610.230	398.156	-0.094	-0.197
-609.215	279.577	-0.155	0.278
-608.201	-187.423	-0.295	0.004
-607.186	67.848	-0.093	0.096
-606.171	-135.219	-0.154	-0.019
-605.157	589.284	-0.058	-0.142
-604.142	159.616	0.157	-0.219
-603.128	89.422	0.250	-0.279
-602.113	-10.956	0.255	-0.169
-601.098	-0.698	-0.160	-0.114
-600.084	203.772	-0.221	-0.343
-599.069	166.171	0.112	-0.159
-598.055	800.000	-0.063	-0.207
-597.040	-83.455	-0.196	-0.063
-596.025	-200.000	0.006	0.428
-595.011	-200.000	-0.009	-0.258
-593.996	-6.403	0.198	0.135
-592.982	21.582	0.383	-0.313
-591.967	38.971	0.203	-0.182
-590.952	239.349	-0.252	-0.420
-589.938	323.872	0.141	0.270
-588.923	50.646	-0.338	0.321
-587.909	-200.000	-0.031	0.200
-586.894	606.012	0.197	-0.492
-585.879	-66.251	0.191	-0.076
-584.865	424.391	-0.054	-0.117
-583.850	33.618	0.143	-0.124
-582.836	-30.609	0.301	0.171
-581.821	240.838	-0.080	-0.133
-580.806	-106.635	0.167	-0.037
-579.792	-185.833	0.166	0.002
-578.777	467.636	-0.067	-0.150
-577.763	-200.000	0.007	-0.083
-576.748	411.155	0.031	-0.065
-575.733	-136.057	-0.244	0.029
-574.719	-200.000	0.009	-0.052
-573.704	-198.302	-0.250	0.001
-572.690	-200.000	-0.026	-0.148
-571.675	-188.849	0.294	-0.004
-570.661	163.540	-0.043	0.060
-569.646	-78.220	-0.072	-0.025
-568.631	-74.884	0.077	-0.028
-567.617	599.587	-0.065	0.161
-566.602	800.000	-0.045	-0.192
-565.588	-200.000	-0.019	0.224
-564.573	760.639	-0.120	-0.326
-563.558	-107.166	0.080	-0.018
-562.544	-179.447	-0.314	-0.007
-561.529	45.773	0.168	-0.156
-560.515	192.008	0.236	0.356
-559.500	-23.331	0.254	-0.153
-558.485	300.252	-0.075	-0.139
-557.471	37.809	0.181	0.161
-556.456	-200.000	0.020	0.322
-555.442	-17.669	0.104	-0.066
-554.427	377.511	-0.112	0.229
-553.412	63.110	0.067	-0.068
-552.398	197.569	-0.182	0.278
-551.383	-6.345	-0.219	-0.150
-550.369	-200.000	0.001	0.020
-549.354	318.722	-0.169	-0.320
-548.339	3.567	-0.266	-0.194
-547.325	-200.000	0.063	-0.337
-546.310	-90.791	0.286	0.083
-545.296	473.107	0.141	0.317
-544.281	-200.000	-0.002	-0.024
-543.266	800.000	0.141	0.407
-542.252	-62.826	0.159	0.066
-541.237	-9.419	0.095	-0.064
-540.223	165.810	-0.110	0.156
-539.208	-103.108	-0.081	0.019
-538.193	-166.576	-0.116	-0.005
-537.179	-73.258	-0.184	0.067
-536.164	-200.000	-0.019	0.210
-535.150	-65.707	-0.201	0.080
-534.135	-59.696	0.184	0.079
-533.121	-200.000	0.008	0.219
-532.106	-84.557	0.204	-0.064
-531.091	-83.546	0.068	-0.022
-530.077	-139.280	0.377	0.041
-529.062	471.331	-0.064	0.143
-528.048	126.956	0.168	-0.213
-527.033	171.028	0.221	-0.317
-526.018	688.447	-0.132	0.346
-525.004	-49.375	0.167	0.080
-523.989	-95.183	0.193	0.052
-522.975	786.821	0.039	-0.108
-521.960	-200.000	-0.006	0.198
-520.945	-23.360	0.208	-0.125
-519.931	765.489	0.051	-0.139
-518.916	142.104	-0.077	0.103
-517.902	-58.987	0.211	-0.091
-516.887	-200.000	0.025	0.136
-515.872	44.728	-0.058	0.054
-514.858	-61.476	0.278	0.117
-513.843	139.184	0.158	0.208
-512.829	-175.393	0.422	0.012
-511.814	73.033	-0.183	0.191
-510.799	4.790	-0.262	0.193
-509.785	-134.641	-0.049	-0.006
-508.770	800.000	0.040	-0.122
-507.756	-200.000	0.062	0.423
-506.741	-200.000	0.029	0.232
-505.726	221.252	-0.119	0.192
-504.712	-168.971	-0.346	-0.013
-503.697	-200.000	-0.043	-0.265
-502.683	-10.108	-0.299	0.198
-501.668	-163.338	-0.132	0.006
-500.653	697.040	-0.104	-0.272
-499.639	-200.000	0.020	-0.364
-498.624	753.403	0.099	-0.266
-497.610	30.759	-0.224	0.192
-496.595	-66.504	0.159	-0.063
-495.581	-111.813	0.216	-0.044
-494.566	-124.635	-0.248	-0.038
-493.551	800.000	0.100	-0.283
-492.537	31.327	0.139	0.119
-491.522	-37.485	-0.324	-0.173
-490.508	-5.799	0.152	-0.104
-489.493	-68.647	-0.060	0.023
-488.478	49.135	0.094	0.089
-487.464	87.773	-0.092	0.102
-486.449	800.000	-0.029	-0.092
-485.435	1.261	0.218	0.157
-484.420	-113.623	-0.222	0.043
-483.405	-200.000	-0.055	0.379
-482.391	-200.000	0.042	-0.320
-481.376	-152.893	-0.104	0.007
-480.362	-200.000	0.017	-0.146
-479.347	-56.165	-0.186	0.083
-478.332	800.000	-0.049	0.139
-477.318	131.648	0.091	-0.117
-476.303	-200.000	-0.038	-0.173
-475.289	800.000	0.119	0.341
-474.274	22.775	0.166	0.136
-473.259	80.657	-0.104	-0.112
-472.245	154.381	0.210	0.288
-471.230	-155.409	0.256	-0.017
-470.216	-200.000	0.056	0.261
-469.201	37.509	-0.283	0.251
-468.186	-3.330	0.193	0.134
-467.172	4.186	-0.263	-0.192
-466.157	800.000	-0.054	0.221
-465.143	-152.360	0.191	-0.014
-464.128	109.927	-0.237	0.284
-463.113	-200.000	0.005	-0.076
-462.099	-21.879	-0.105	0.064
-461.084	-200.000	0.005	-0.183
-460.070	-49.679	-0.273	-0.129
-459.055	-200.000	-0.023	-0.215
-458.040	-106.039	-0.105	0.024
-457.026	-200.000	0.004	0.156
-456.011	55.523	-0.211	-0.204
-454.997	-18.323	0.155	-0.097
-453.982	167.501	0.158	0.224
-452.968	-107.300	0.202	0.044
-451.953	-200.000	-0.390	-0.000
-450.938	280.709	0.127	-0.226
-449.924	-200.000	0.016	0.215
-448.909	29.299	-0.206	0.175
-447.895	217.061	0.121	-0.192
-446.880	-45.058	0.207	0.103
-445.865	87.376	0.246	0.272
-444.851	-3.005	0.131	-0.091
-443.836	-156.674	-0.312	0.019
-442.822	729.401	-0.083	-0.220
-441.807	224.006	0.174	0.280
-440.792	-200.000	-0.060	0.305
-439.778	-23.368	-0.239	0.143
-438.763	-24.052	0.239	-0.143
-437.749	-119.770	-0.257	-0.044
-436.734	-84.531	-0.110	0.035
-435.719	-200.000	0.033	0.215
-434.705	-54.056	-0.270	-0.123
-433.690	-200.000	-0.028	0.197
-432.676	514.827	-0.153	0.355
-431.661	626.895	-0.077	0.195
-430.646	-200.000	-0.011	-0.263
-429.632	18.676	0.109	0.087
-428.617	571.049	0.034	0.083
-427.603	476.961	-0.052	-0.116
-426.588	621.141	-0.037	-0.093
-425.573	-57.001	-0.223	-0.098
-424.559	-145.787	0.263	0.023
-423.544	-9.930	0.302	0.200
-422.530	33.664	0.252	0.218
-421.515	-8.420	0.104	0.070
-420.500	346.728	0.098	0.193
-419.486	50.893	0.206	-0.194
-418.471	49.670	0.101	0.095
-417.457	-35.450	-0.549	0.297
-416.442	-200.000	-0.028	-0.424
-415.428	-93.923	0.275	-0.075
-414.413	246.631	0.128	0.215
-413.398	-200.000	-0.008	-0.299
-412.384	368.672	0.063	-0.127
-411.369	-200.000	-0.001	-0.198
-410.355	-2.666	0.022	-0.015
-409.340	-187.662	-0.138	-0.002
-408.325	169.288	0.174	-0.247
-407.311	-31.822	0.246	0.138
-406.296	258.603	0.112	-0.193
-405.282	-37.945	0.188	0.099
-404.267	-127.175	0.072	-0.010
-403.252	-200.000	0.042	0.205
-402.238	311.976	-0.083	-0.154
-401.223	-194.369	-0.440	0.004
-400.209	-76.115	-0.250	0.088
-399.194	105.069	-0.111	-0.130
-398.179	-200.000	-0.002	-0.263
-397.165	71.175	0.289	0.298
-396.150	69.421	-0.076	-0.078
-395.136	-200.000	-0.246	0.001
-394.121	-200.000	0.012	-0.155
-393.106	-88.553	0.105	-0.031
-392.092	6.148	-0.172	0.127
-391.077	328.446	0.070	0.133
-390.063	-200.000	-0.025	-0.161
-389.048	800.000	0.069	-0.200
-388.033	139.202	-0.114	-0.149
-387.019	-39.930	0.130	0.067
-386.004	-4.468	0.173	0.119
-384.990	-200.000	-0.064	0.385
-383.975	10.955	0.371	-0.282
-382.960	-131.856	-0.153	0.020
-381.946	8.502	0.136	0.102
-380.931	-199.987	-0.264	0.001
-379.917	-63.483	0.240	0.098
-378.902	-46.553	-0.300	0.146
-377.888	-129.030	-0.161	0.022
-376.873	93.546	0.191	0.216
-375.858	-107.637	0.225	0.049
-374.844	800.000	0.058	-0.163
-373.829	179.082	-0.114	0.166
-372.815	411.449	-0.005	-0.010
-371.800	-121.470	-0.360	-0.060
-370.785	-200.000	-0.017	0.180
-369.771	-200.000	0.001	0.181
-368.756	-119.644	-0.286	-0.049
-367.742	-200.000	-0.010	-0.216
-366.727	-57.806	-0.008	-0.003
-365.712	275.969	-0.104	-0.184
-364.698	15.745	-0.238	-0.186
-363.683	-70.473	0.165	0.062
-362.669	319.617	0.061	-0.116
-361.654	18.981	-0.323	0.258
-360.639	-134.009	-0.134	-0.016
-359.625	-200.000	-0.021	-0.326
-358.610	-179.350	-0.309	0.007
-357.596	5.458	-0.417	0.306
-356.581	-45.544	-0.113	0.056
-355.566	800.000	0.080	0.236
-354.552	-200.000	-0.068	-0.364
-353.537	35.713	-0.032	-0.028
-352.523	-69.007	0.260	-0.100
-351.508	-32.462	-0.343	-0.190
-350.493	-200.000	-0.011	0.122
-349.479	-16.747	0.049	-0.031
-348.464	-200.000	0.010	-0.399
-347.450	800.000	0.049	-0.137
-346.435	-200.000	-0.023	0.268
-345.420	-0.273	0.271	-0.192
-344.406	-200.000	-0.013	-0.495
-343.391	-31.426	-0.099	-0.055
-342.377	119.269	-0.071	0.087
-341.362	-63.217	0.044	0.018
-340.348	-158.281	0.029	-0.002
-339.333	-200.000	0.107	0.494
-338.318	84.506	0.112	-0.122
-337.304	53.170	0.136	-0.129
-336.289	520.303	0.040	-0.093
-335.275	800.000	0.053	0.185
-334.260	-200.000	-0.002	-0.019
-333.245	82.091	0.224	-0.241
-332.231	-45.595	0.291	0.143
-331.216	-70.303	-0.362	-0.136
-330.202	-200.000	-0.017	0.148
-329.187	-120.364	-0.255	0.043
-328.172	-106.025	-0.494	-0.110
-327.158	800.000	-0.155	0.458
-326.143	-200.000	-0.028	-0.418
-325.129	-86.340	-0.243	-0.074
-324.114	58.931	-0.078	0.076
-323.099	110.837	0.170	0.203
-322.085	-102.193	0.026	-0.006
-321.070	-67.847	0.429	-0.166
-320.056	221.276	0.067	-0.107
-319.041	-144.654	-0.218	0.020
-318.026	-50.182	0.152	0.071
-317.012	-96.303	0.242	-0.064
-315.997	-5.839	-0.343	0.233
-314.983	800.000	-0.057	-0.215
-313.968	-200.000	0.012	-0.106
-312.953	-94.638	0.248	0.067
-311.939	-94.983	0.354	-0.095
-310.924	-12.452	0.234	0.151
-309.910	36.252	0.171	0.150
-308.895	-101.233	0.222	-0.054
-307.880	-200.000	0.010	0.181
-306.866	-56.115	-0.160	-0.071
-305.851	421.899	0.047	0.099
-304.837	800.000	0.067	-0.259
-303.822	632.182	-0.034	0.086
-302.807	-49.701	-0.251	-0.118
-301.793	-29.890	0.116	0.066
-300.778	-200.000	-0.038	0.186
-299.764	-158.350	0.234	0.013
-298.749	800.000	-0.120	0.416
-297.735	-99.171	0.114	0.029
-296.720	-200.000	0.028	0.281
-295.705	-9.611	0.017	0.011
-294.691	-149.268	0.196	-0.016
-293.676	328.357	-0.104	-0.199
-292.662	800.000	-0.045	-0.137
-291.647	-82.063	-0.415	-0.134
-290.632	355.875	-0.063	-0.125
-289.618	616.062	-0.094	-0.234
-288.603	-47.513	-0.182	0.088
-287.589	800.000	0.093	-0.317
-286.574	-200.000	0.013	-0.259
-285.559	40.869	0.189	0.169
-284.545	315.738	0.074	0.138
-283.530	-200.000	-0.004	0.297
-282.516	156.929	0.107	-0.146
-281.501	41.336	-0.204	0.183
-280.486	-3.781	-0.180	0.124
-279.472	-197.752	0.118	0.001
-278.457	-98.279	-0.063	-0.016
-277.443	-200.000	0.005	0.343
-276.428	-37.933	0.084	-0.044
-275.413	389.350	-0.048	0.098
-274.399	-106.014	-0.183	0.041
-273.384	646.663	-0.080	-0.202
-272.370	-35.913	0.261	-0.140
-271.355	-32.146	0.265	-0.147
-270.340	13.723	0.167	-0.128
-269.326	-106.977	-0.120	0.026
-268.311	137.060	0.168	0.218
-267.297	-152.691	-0.234	-0.016
-266.282	84.503	0.199	-0.216
-265.267	-40.978	-0.143	0.073
-264.253	-200.000	0.019	0.299
-263.238	-200.000	0.001	0.112
-262.224	800.000	-0.038	0.133
-261.209	-200.000	0.035	-0.285
-260.195	-48.593	0.177	-0.084
-259.180	-155.327	-0.077	-0.005
-258.165	800.000	-0.119	0.380
-257.151	-200.000	0.014	0.131
-256.136	-200.000	-0.003	0.091
-255.122	-95.829	0.334	-0.088
-254.107	216.616	0.055	-0.087
-253.092	-58.174	0.241	-0.104
-252.078	800.000	-0.025	-0.096
-251.063	-53.821	-0.095	0.043
-250.049	-200.000	-0.052	-0.264
-249.034	-200.000	0.064	0.000
-248.019	-200.000	-0.014	0.078
-247.005	-200.000	0.023	-0.184
-245.990	227.790	-0.166	-0.267
-244.976	800.000	0.035	-0.122
-243.961	436.776	0.038	0.083
-242.946	549.817	0.053	-0.125
-241.932	-131.890	0.309	-0.040
-240.917	-71.865	-0.260	-0.096
-239.903	-53.533	-0.161	0.073
-238.888	800.000	-0.037	0.128
-237.873	428.049	-0.060	-0.127
-236.859	219.850	-0.116	0.184
-235.844	-200.000	-0.001	0.008
-234.830	-154.880	0.219	-0.014
-233.815	-110.730	-0.090	-0.018
-232.800	673.575	0.095	-0.245
-231.786	800.000	-0.018	0.060
-230.771	54.621	0.115	0.110
-229.757	-200.000	0.020	-0.146
-228.742	-82.132	0.194	-0.062
-227.727	525.912	0.108	0.252
-226.713	-135.056	-0.072	-0.009
-225.698	88.250	0.167	0.184
-224.684	-48.143	-0.267	0.128
-223.669	-53.368	0.124	0.056
-222.655	434.210	0.107	0.231
-221.640	-200.000	-0.016	0.185
-220.625	-189.827	-0.135	-0.002
-219.611	-31.089	-0.172	0.096
-218.596	37.333	0.121	0.106
-217.582	800.000	-0.048	-0.193
-216.567	-200.000	0.069	-0.358
-215.552	38.221	-0.013	0.011
-214.538	-61.111	-0.279	-0.116
-213.523	800.000	-0.034	-0.095
-212.509	13.113	0.179	0.137
-211.494	-200.000	-0.035	0.168
-210.479	-140.034	-0.381	0.040
-209.465	-56.756	0.332	0.145
-208.450	-151.126	0.520	-0.039
-207.436	-200.000	0.020	-0.306
-206.421	73.114	-0.206	-0.213
-205.406	-200.000	0.012	-0.165
-204.392	-11.166	0.422	0.275
-203.377	-200.000	0.022	0.127
-202.363	-0.359	0.280	0.197
-201.348	-66.762	-0.240	0.094
-200.333	-197.849	0.369	0.002
-199.319	-76.886	-0.056	-0.020
-198.304	169.360	0.141	-0.199
-197.290	800.000	0.049	0.205
-196.275	4.729	-0.084	-0.061
-195.260	17.575	0.173	-0.136
-194.246	67.738	-0.054	0.054
-193.231	98.566	-0.140	0.160
-192.217	45.417	-0.338	0.308
-191.202	29.496	-0.024	0.021
-190.187	-129.982	0.136	0.018
-189.173	-17.769	-0.346	0.215
-188.158	-50.997	0.177	0.082
-187.144	-49.823	-0.153	-0.072
-186.129	90.057	0.123	0.136
-185.114	-58.713	0.204	0.087
-184.100	-200.000	0.007	0.154
-183.085	-117.468	-0.107	-0.019
-182.071	143.374	0.150	-0.198
-181.056	-120.176	0.195	0.033
-180.042	25.566	-0.059	0.048
-179.027	142.809	0.113	-0.149
-178.012	-200.000	0.050	-0.218
-176.998	5.993	-0.166	0.122
-175.983	-31.964	-0.085	-0.047
-174.969	306.276	0.112	0.206
-173.954	-70.421	0.398	0.149
-172.939	571.487	0.024	0.058
-171.925	-200.000	0.003	0.151
-170.910	-200.000	0.003	0.243
-169.896	-200.000	0.010	-0.184
-168.881	711.799	0.109	-0.285
-167.866	-200.000	0.014	0.211
-166.852	-200.000	-0.035	0.162
-165.837	-110.621	-0.264	0.054
-164.823	-116.638	0.306	0.056
-163.808	-63.373	-0.346	-0.140
-162.793	-73.329	-0.197	0.071
-161.779	117.516	-0.208	-0.253
-160.764	143.054	-0.162	0.213
-159.750	-103.510	0.362	0.084
-158.735	-118.568	-0.076	0.013
-157.720	-200.000	0.030	0.202
-156.706	-161.054	-0.372	-0.019
-155.691	0.884	-0.134	0.095
-154.677	653.205	0.019	-0.048
-153.662	800.000	-0.057	-0.163
-152.647	-42.015	-0.079	-0.040
-151.633	305.443	-0.193	-0.353
-150.618	-200.000	0.015	0.300
-149.604	-130.984	0.021	0.003
-148.589	-55.279	-0.127	0.056
-147.574	6.294	0.335	0.245
-146.560	170.645	-0.113	0.159
-145.545	-0.105	-0.112	0.079
-144.531	-200.000	0.040	0.190
-143.516	446.673	-0.061	0.132
-142.502	-32.097	-0.253	0.139
-141.487	-200.000	-0.008	0.166
-140.472	126.846	-0.106	0.133
-139.458	172.892	0.019	-0.027
-138.443	-38.537	-0.252	-0.131
-137.429	-100.020	0.075	0.018
-136.414	800.000	0.046	-0.152
-135.399	-136.831	0.253	-0.029
-134.385	163.862	-0.094	0.131
-133.370	145.525	0.176	-0.232
-132.356	7.786	0.166	-0.123
-131.341	228.016	0.257	0.412
-130.326	-43.738	-0.036	-0.018
-129.312	144.193	-0.130	0.171
-128.297	-200.000	0.007	-0.033
-127.283	362.928	0.042	-0.083
-126.268	-56.027	-0.150	0.066
-125.253	23.054	0.149	-0.120
-124.239	-52.629	0.363	-0.165
-123.224	90.970	-0.162	0.179
-122.210	29.255	0.149	-0.125
