DTS Sentinel unit serial number:	SN413079Multiplexer serial number:	ORYXHardware model number:	OX4-SRSoftware version number:	ORYX F/W v4.00 Oryx Data Collector v3.7.2.0data status	okinstallation	princeton_trtdifferential loss correction	single-endedforward channel	channel 2reverse channel	N/Adate	2019/09/15time	23:23:34forward acquisition time	60.00reverse acquisition time	0.00gamma	496.2192k internal	0.2335k external	0.2335temperature offset calibration	0.9952default loss term (dB/km)	0.3790temperature slope calibration	1.0000multiplexer offset coefficient	1.0000multiplexer slope coefficient	1.0000fibre end	0.00T internal ref (°C)	28.25T ext. ref 1 (°C)	9.12T ext. ref 2 (°C)	22.11length (m)	temperature (°C)	Stokes	anti-Stokes-747.200	159.919	-0.299	0.418
-746.185	61.215	-0.109	-0.108
-745.171	306.529	-0.082	0.153
-744.156	-159.708	-0.304	-0.017
-743.142	-76.658	-0.177	-0.062
-742.127	158.963	-0.214	0.298
-741.112	-44.964	0.157	0.079
-740.098	248.403	-0.273	0.464
-739.083	39.127	-0.060	-0.054
-738.069	-109.487	-0.207	-0.044
-737.054	117.454	0.345	-0.427
-736.039	194.539	0.097	-0.148
-735.025	63.587	0.197	0.199
-734.010	196.651	-0.316	-0.484
-732.996	-157.375	-0.307	-0.019
-731.981	147.968	0.158	0.214
-730.966	194.558	-0.145	0.220
-729.952	-166.578	-0.226	-0.009
-728.937	82.548	-0.189	-0.206
-727.923	-200.000	0.011	-0.167
-726.908	531.311	-0.066	0.157
-725.894	-95.191	-0.251	0.068
-724.879	800.000	-0.061	-0.176
-723.864	-34.845	-0.248	0.136
-722.850	151.922	0.089	-0.122
-721.835	-106.675	-0.199	0.044
-720.821	12.328	-0.303	-0.234
-719.806	-200.000	0.010	0.094
-718.791	26.962	-0.166	-0.139
-717.777	-24.888	-0.258	-0.154
-716.762	-107.736	-0.523	-0.115
-715.748	-200.000	0.049	-0.365
-714.733	-79.396	-0.094	0.032
-713.718	-132.905	0.160	-0.020
-712.704	-10.534	-0.242	-0.161
-711.689	441.254	-0.200	-0.440
-710.675	-200.000	-0.030	-0.248
-709.660	800.000	0.023	0.093
-708.645	19.361	0.335	-0.270
-707.631	664.017	-0.034	-0.089
-706.616	800.000	-0.048	-0.147
-705.602	-53.296	-0.155	0.071
-704.587	81.692	0.091	-0.099
-703.572	-200.000	-0.039	0.353
-702.558	-159.139	0.114	-0.006
-701.543	-138.405	0.318	0.035
-700.529	-125.985	0.107	-0.016
-699.514	-10.363	0.235	0.157
-698.499	69.263	0.060	0.062
-697.485	-27.703	0.064	-0.037
-696.470	800.000	0.013	0.052
-695.456	-42.899	0.232	0.118
-694.441	23.792	-0.211	-0.174
-693.426	-200.000	-0.041	-0.233
-692.412	-118.427	0.169	0.030
-691.397	81.001	-0.241	-0.261
-690.383	800.000	0.082	-0.341
-689.368	-72.701	-0.115	-0.042
-688.354	-60.781	-0.111	0.047
-687.339	41.801	0.238	0.217
-686.324	-104.773	-0.620	-0.143
-685.310	76.148	0.288	0.306
-684.295	168.350	0.041	0.058
-683.281	-199.153	0.314	0.002
-682.266	352.395	-0.078	-0.155
-681.251	-125.372	-0.385	0.059
-680.237	800.000	0.098	-0.305
-679.222	115.104	0.376	0.459
-678.208	800.000	-0.113	-0.347
-677.193	311.698	-0.061	-0.114
-676.178	129.096	-0.266	-0.340
-675.164	-103.422	-0.276	0.065
-674.149	161.540	-0.084	-0.118
-673.135	-200.000	0.025	-0.197
-672.120	16.970	0.158	0.126
-671.105	191.452	0.058	0.088
-670.091	-36.744	-0.322	0.173
-669.076	-200.000	-0.012	0.123
-668.062	-108.992	-0.386	0.083
-667.047	-50.614	0.125	0.059
-666.032	-36.146	-0.345	0.187
-665.018	-200.000	-0.022	0.135
-664.003	-144.798	-0.349	-0.032
-662.989	683.823	-0.025	0.065
-661.974	-58.579	-0.238	-0.103
-660.959	-128.941	-0.125	-0.018
-659.945	72.038	-0.335	-0.349
-658.930	206.114	0.116	-0.180
-657.916	-104.481	-0.236	-0.055
-656.901	-118.447	-0.019	0.003
-655.886	199.929	-0.094	0.145
-654.872	77.227	-0.033	0.035
-653.857	-61.293	-0.210	0.088
-652.843	123.273	0.078	0.097
-651.828	23.523	0.240	-0.198
-650.814	-200.000	0.046	-0.204
-649.799	-104.083	0.304	-0.071
-648.784	6.935	-0.154	-0.115
-647.770	374.844	0.082	-0.168
-646.755	-200.000	0.013	-0.137
-645.741	-13.686	0.198	-0.128
-644.726	800.000	0.029	0.094
-643.711	-79.203	0.122	-0.042
-642.697	-51.032	-0.229	-0.107
-641.682	143.458	-0.257	-0.342
-640.668	-30.012	-0.432	-0.246
-639.653	800.000	-0.030	-0.119
-638.638	756.915	0.038	-0.104
-637.624	-48.711	0.023	-0.011
-636.609	-200.000	0.005	0.173
-635.595	-200.000	-0.002	-0.401
-634.580	52.003	0.177	-0.169
-633.565	-119.196	0.088	0.015
-632.551	-200.000	-0.009	-0.260
-631.536	-200.000	0.008	0.092
-630.522	-200.000	0.020	0.301
-629.507	74.012	-0.169	0.178
-628.492	-155.379	0.095	0.006
-627.478	800.000	0.011	-0.035
-626.463	-200.000	-0.055	-0.314
-625.449	800.000	0.034	-0.147
-624.434	-150.975	0.084	-0.006
-623.419	388.460	-0.145	-0.300
-622.405	117.292	-0.019	0.023
-621.390	-200.000	0.032	-0.181
-620.376	57.657	0.156	0.152
-619.361	-200.000	-0.031	-0.256
-618.346	800.000	0.063	0.221
-617.332	282.208	0.134	0.241
-616.317	800.000	-0.037	0.154
-615.303	51.136	0.161	0.153
-614.288	-115.404	0.315	0.059
-613.273	800.000	0.035	0.135
-612.259	-173.739	-0.133	-0.004
-611.244	-200.000	-0.026	0.142
-610.230	-200.000	-0.002	0.132
-609.215	800.000	0.084	-0.301
-608.201	-131.684	-0.161	-0.021
-607.186	-0.459	0.035	-0.025
-606.171	205.415	-0.050	-0.077
-605.157	236.423	-0.105	0.173
-604.142	-200.000	0.045	0.317
-603.128	64.291	0.160	-0.161
-602.113	426.032	0.138	-0.298
-601.098	-200.000	-0.011	0.108
-600.084	-80.834	0.175	-0.058
-599.069	591.367	-0.132	-0.326
-598.055	-62.221	0.098	-0.041
-597.040	-200.000	0.026	-0.179
-596.025	-200.000	0.039	0.200
-595.011	434.839	0.107	0.233
-593.996	-31.411	-0.015	-0.008
-592.982	-200.000	-0.047	0.216
-591.967	-200.000	0.019	0.176
-590.952	463.558	-0.070	-0.156
-589.938	307.535	-0.135	0.251
-588.923	458.209	0.069	0.153
-587.909	55.855	-0.082	0.080
-586.894	85.679	-0.107	-0.117
-585.879	-13.400	0.212	0.138
-584.865	487.694	-0.060	0.137
-583.850	-200.000	-0.007	0.082
-582.836	-57.565	0.257	-0.112
-581.821	-13.522	0.195	-0.126
-580.806	-6.561	-0.184	-0.125
-579.792	-106.096	-0.366	0.082
-578.777	82.445	0.253	-0.274
-577.763	-23.003	0.169	-0.102
-576.748	-31.068	0.165	-0.093
-575.733	396.120	-0.070	-0.146
-574.719	623.817	0.068	-0.171
-573.704	135.405	-0.080	0.104
-572.690	727.437	0.060	0.159
-571.675	-9.145	0.128	0.086
-570.661	-131.543	-0.167	-0.022
-569.646	405.580	-0.077	0.162
-568.631	41.763	0.353	-0.319
-567.617	-133.202	-0.334	-0.042
-566.602	-200.000	0.005	-0.102
-565.588	-126.859	-0.295	0.043
-564.573	343.673	-0.096	0.187
-563.558	20.402	0.261	0.210
-562.544	615.517	0.064	-0.160
-561.529	283.989	0.192	-0.345
-560.515	-200.000	-0.029	-0.239
-559.500	6.538	-0.177	-0.131
-558.485	73.404	-0.191	0.199
-557.471	-199.934	-0.130	0.001
-556.456	-10.951	-0.027	0.018
-555.442	263.836	-0.167	0.290
-554.427	-52.453	0.185	0.085
-553.412	-200.000	0.009	-0.084
-552.398	339.731	-0.125	0.242
-551.383	596.799	0.041	-0.101
-550.369	163.831	-0.358	0.503
-549.354	71.521	-0.112	-0.115
-548.339	-200.000	0.050	-0.312
-547.325	-104.473	0.212	-0.049
-546.310	51.396	0.091	-0.086
-545.296	-133.740	-0.103	-0.013
-544.281	-64.374	0.218	0.088
-543.266	800.000	-0.061	0.195
-542.252	-200.000	0.042	-0.186
-541.237	560.318	0.146	-0.352
-540.223	-122.352	-0.365	-0.059
-539.208	-34.655	0.170	0.093
-538.193	-84.702	0.262	-0.082
-537.179	37.394	-0.296	-0.261
-536.164	242.801	0.130	-0.216
-535.150	-89.295	-0.136	0.040
-534.135	-72.249	0.199	0.074
-533.121	-25.788	-0.191	-0.112
-532.106	-121.890	-0.171	-0.028
-531.091	-200.000	-0.009	0.167
-530.077	-200.000	-0.008	-0.089
-529.062	109.479	-0.031	-0.037
-528.048	-28.333	-0.207	-0.119
-527.033	-200.000	-0.020	-0.224
-526.018	-200.000	0.051	-0.231
-525.004	82.995	-0.228	-0.247
-523.989	427.230	-0.196	-0.421
-522.975	-55.341	-0.194	0.087
-521.960	42.396	0.170	-0.154
-520.945	146.381	0.038	-0.051
-519.931	800.000	0.049	0.143
-518.916	-200.000	-0.026	0.208
-517.902	-200.000	-0.030	-0.278
-516.887	-200.000	0.004	-0.149
-515.872	-130.329	-0.462	-0.062
-514.858	6.317	0.291	0.215
-513.843	42.037	0.203	0.184
-512.829	-102.688	-0.199	0.047
-511.814	-23.428	-0.242	-0.144
-510.799	-200.000	-0.016	0.336
-509.785	343.903	-0.132	-0.259
-508.770	653.614	-0.095	0.243
-507.756	-81.509	-0.186	-0.061
-506.741	474.589	-0.063	0.141
-505.726	-77.852	0.216	0.074
-504.712	11.406	-0.271	-0.206
-503.697	-103.016	-0.299	-0.070
-502.683	150.826	-0.033	0.045
-501.668	800.000	-0.005	-0.014
-500.653	23.953	0.249	0.205
-499.639	-200.000	-0.004	-0.103
-498.624	-61.735	0.197	0.082
-497.610	92.701	0.107	0.120
-496.595	-130.434	0.168	-0.023
-495.581	-51.522	0.493	0.229
-494.566	-155.600	-0.113	-0.007
-493.551	-200.000	-0.004	-0.147
-492.537	-70.633	-0.296	0.111
-491.522	-65.478	-0.245	0.098
-490.508	-200.000	0.025	-0.175
-489.493	800.000	0.110	0.365
-488.478	-144.680	-0.179	0.016
-487.464	-117.342	-0.140	0.025
-486.449	-200.000	-0.018	-0.204
-485.435	161.774	0.258	-0.359
-484.420	-23.440	-0.558	-0.334
-483.405	423.450	-0.181	0.386
-482.391	-88.835	-0.102	-0.030
-481.376	652.624	0.067	0.170
-480.362	-119.116	-0.118	0.021
-479.347	123.196	-0.152	0.189
-478.332	-50.803	-0.336	-0.157
-477.318	290.603	0.122	0.220
-476.303	519.461	0.061	-0.141
-475.289	413.824	-0.074	0.156
-474.274	-134.847	-0.103	0.012
-473.259	-50.583	0.079	0.037
-472.245	-43.595	-0.238	0.119
-471.230	-46.827	-0.015	0.008
-470.216	-65.693	0.125	0.050
-469.201	-200.000	0.007	0.050
-468.186	-200.000	-0.034	0.470
-467.172	-95.039	-0.175	0.047
-466.157	-5.060	-0.150	-0.103
-465.143	197.553	-0.141	-0.214
-464.128	375.652	-0.097	0.197
-463.113	-200.000	0.044	-0.231
-462.099	-83.721	0.195	-0.062
-461.084	-50.239	-0.291	0.137
-460.070	-200.000	-0.009	0.171
-459.055	-200.000	-0.004	0.085
-458.040	26.122	0.288	-0.239
-457.026	326.867	-0.065	-0.123
-456.011	-169.697	-0.051	0.002
-454.997	-127.390	0.353	-0.051
-453.982	-200.000	-0.009	-0.198
-452.968	176.109	-0.174	0.250
-451.953	800.000	0.114	-0.329
-450.938	-129.923	-0.229	0.031
-449.924	-12.847	0.052	0.034
-448.909	-94.320	0.166	-0.045
-447.895	-88.193	-0.114	0.034
-446.880	110.584	0.120	-0.143
-445.865	525.690	0.033	-0.077
-444.851	-124.409	0.110	0.017
-443.836	87.760	-0.352	-0.387
-442.822	76.976	0.108	-0.113
-441.807	800.000	-0.081	-0.269
-440.792	-200.000	-0.024	0.127
-439.778	-124.901	-0.132	0.020
-438.763	-200.000	0.011	-0.269
-437.749	292.533	-0.070	0.126
-436.734	-200.000	-0.017	-0.077
-435.719	-25.052	0.117	0.069
-434.705	506.728	0.145	-0.334
-433.690	207.156	-0.080	0.124
-432.676	800.000	0.063	-0.255
-431.661	-103.335	0.154	-0.036
-430.646	800.000	-0.020	-0.067
-429.632	-158.474	0.502	0.029
-428.617	-61.854	-0.283	-0.118
-427.603	27.238	-0.034	0.029
-426.588	-22.607	-0.163	0.098
-425.573	-32.439	-0.050	0.027
-424.559	48.281	-0.173	0.161
-423.544	800.000	-0.106	0.371
-422.530	11.272	0.236	0.179
-421.515	-200.000	0.001	-0.191
-420.500	1.336	0.320	-0.228
-419.486	242.330	0.080	-0.133
-418.471	-200.000	-0.015	-0.124
-417.457	800.000	0.106	0.297
-416.442	800.000	-0.073	0.208
-415.428	800.000	-0.012	0.044
-414.413	467.635	0.125	0.278
-413.398	-27.236	0.323	-0.187
-412.384	32.145	-0.185	-0.159
-411.369	-123.516	-0.339	-0.053
-410.355	35.015	0.160	-0.139
-409.340	-105.181	0.401	-0.091
-408.325	278.391	0.094	0.166
-407.311	-57.902	-0.269	-0.116
-406.296	151.297	0.173	0.234
-405.282	508.700	0.024	-0.056
-404.267	-116.352	-0.203	-0.037
-403.252	-80.580	0.253	-0.084
-402.238	-96.734	-0.146	0.038
-401.223	59.952	0.126	0.123
-400.209	-200.000	0.037	0.480
-399.194	564.828	-0.102	-0.246
-398.179	-107.366	0.221	-0.048
-397.165	-84.385	0.193	0.061
-396.150	11.046	-0.208	-0.158
-395.136	-200.000	-0.085	0.430
-394.121	800.000	-0.014	0.058
-393.106	5.232	0.393	0.287
-392.092	61.849	-0.218	-0.215
-391.077	-123.591	0.065	0.010
-390.063	-20.449	-0.267	0.162
-389.048	-72.843	0.119	-0.043
-388.033	-135.514	-0.160	-0.019
-387.019	16.418	0.299	-0.234
-386.004	-200.000	0.040	-0.241
-384.990	-36.641	0.145	0.077
-383.975	16.767	0.053	0.041
-382.960	-62.245	-0.174	0.072
-381.946	-200.000	0.002	-0.242
-380.931	-200.000	0.048	-0.207
-379.917	253.888	0.122	0.206
-378.902	-22.370	0.075	0.045
-377.888	-200.000	-0.089	0.000
-376.873	-151.004	-0.223	0.017
-375.858	-200.000	0.034	0.200
-374.844	-40.748	-0.184	-0.095
-373.829	800.000	-0.024	-0.104
-372.815	710.330	-0.093	0.245
-371.800	-58.884	-0.056	-0.024
-370.785	-200.000	-0.010	-0.159
-369.771	89.880	-0.198	0.219
-368.756	800.000	-0.081	-0.336
-367.742	-39.444	-0.209	-0.108
-366.727	3.550	0.521	-0.376
-365.712	-49.952	-0.302	0.142
-364.698	-200.000	0.010	-0.193
-363.683	-150.550	0.275	0.021
-362.669	159.709	0.064	0.088
-361.654	-90.733	0.610	0.174
-360.639	-55.910	-0.101	0.045
-359.625	800.000	0.026	-0.100
-358.610	178.917	-0.092	0.134
-357.596	-116.936	0.137	-0.025
-356.581	-64.880	0.254	-0.102
-355.566	-200.000	-0.046	0.291
-354.552	-79.237	0.573	0.192
-353.537	199.433	0.099	0.151
-352.523	-109.555	0.300	0.063
-351.508	-124.087	0.115	0.018
-350.493	-73.771	0.170	-0.061
-349.479	-86.281	-0.265	0.081
-348.464	-41.301	0.254	0.130
-347.450	2.088	-0.294	0.210
-346.435	-200.000	-0.012	-0.105
-345.420	12.866	-0.239	-0.182
-344.406	0.468	-0.159	-0.112
-343.391	800.000	0.041	0.114
-342.377	-200.000	0.017	-0.106
-341.362	800.000	0.068	-0.205
-340.348	-114.589	0.173	0.033
-339.333	-40.795	-0.161	0.082
-338.318	-200.000	0.009	0.293
-337.304	-99.477	0.570	0.142
-336.289	-200.000	0.018	0.214
-335.275	160.589	-0.083	0.114
-334.260	-200.000	-0.040	0.213
-333.245	-200.000	-0.001	-0.022
-332.231	84.660	0.082	0.088
-331.216	-46.009	0.267	0.130
-330.202	-200.000	0.042	0.267
-329.187	-25.633	-0.233	-0.136
-328.172	-200.000	0.055	0.327
-327.158	43.337	-0.049	-0.044
-326.143	139.945	0.196	0.255
-325.129	9.231	-0.101	0.076
-324.114	-200.000	-0.017	-0.206
-323.099	-29.149	-0.028	-0.016
-322.085	-174.303	0.206	-0.006
-321.070	21.820	-0.236	-0.190
-320.056	-200.000	-0.003	0.155
-319.041	231.903	0.085	0.138
-318.026	18.962	0.158	0.125
-317.012	392.491	-0.076	-0.157
-315.997	-200.000	-0.013	-0.199
-314.983	-200.000	-0.010	-0.052
-313.968	-23.018	-0.213	0.127
-312.953	374.541	-0.066	0.132
-311.939	22.404	-0.176	0.142
-310.924	-1.206	-0.271	-0.189
-309.910	594.822	0.054	0.132
-308.895	-68.475	-0.105	-0.040
-307.880	-200.000	-0.001	-0.331
-306.866	162.724	0.081	-0.113
-305.851	-200.000	-0.024	0.373
-304.837	-95.823	-0.121	-0.032
-303.822	248.979	-0.089	0.149
-302.807	86.554	0.231	-0.251
-301.793	777.369	-0.087	-0.235
-300.778	-130.956	-0.151	0.020
-299.764	700.818	-0.119	-0.309
-298.749	330.173	0.198	0.377
-297.735	800.000	0.016	-0.063
-296.720	162.441	-0.061	-0.084
-295.705	163.685	0.172	-0.239
-294.691	800.000	0.163	0.449
-293.676	800.000	-0.137	0.397
-292.662	-200.000	0.042	0.266
-291.647	-200.000	-0.043	-0.225
-290.632	49.915	-0.325	0.303
-289.618	-105.310	0.259	-0.058
-288.603	-105.637	0.298	-0.067
-287.589	202.576	0.199	0.304
-286.574	-129.651	-0.037	0.005
-285.559	800.000	-0.061	-0.198
-284.545	800.000	-0.042	-0.139
-283.530	800.000	-0.030	0.112
-282.516	800.000	0.081	0.222
-281.501	-142.296	-0.127	-0.012
-280.486	-92.823	-0.164	-0.045
-279.472	-200.000	-0.044	-0.321
-278.457	800.000	0.056	-0.156
-277.443	295.668	-0.012	0.022
-276.428	45.261	0.138	0.126
-275.413	-31.847	0.022	0.012
-274.399	-42.883	0.227	-0.113
-273.384	-200.000	-0.023	0.113
-272.370	490.298	0.019	-0.043
-271.355	800.000	-0.056	0.223
-270.340	-117.150	0.177	-0.032
-269.326	-200.000	-0.012	0.221
-268.311	-117.345	0.053	-0.010
-267.297	800.000	-0.105	-0.289
-266.282	-50.939	0.190	0.088
-265.267	-200.000	0.050	0.250
-264.253	342.002	-0.047	0.091
-263.238	29.127	-0.154	-0.129
-262.224	-200.000	0.006	-0.115
-261.209	-200.000	0.010	0.443
-260.195	-90.007	0.493	0.142
-259.180	-200.000	0.023	-0.330
-258.165	-63.537	-0.097	0.039
-257.151	-131.884	0.514	0.066
-256.136	-90.500	-0.222	-0.063
-255.122	-122.936	0.185	-0.029
-254.107	36.028	0.168	0.146
-253.092	455.928	-0.143	0.312
-252.078	-200.000	-0.059	0.290
-251.063	202.960	-0.072	-0.110
-250.049	-200.000	-0.069	0.481
-249.034	-182.680	-0.069	0.001
-248.019	58.588	-0.034	0.033
-247.005	-200.000	0.012	-0.154
-245.990	-200.000	-0.028	-0.130
-244.976	-200.000	0.067	-0.296
-243.961	208.376	0.083	0.127
-242.946	64.194	-0.134	0.133
-241.932	-200.000	0.005	-0.141
-240.917	74.104	-0.285	0.295
-239.903	482.381	0.101	-0.227
-238.888	214.716	-0.061	-0.096
-237.873	-50.100	0.205	0.096
-236.859	800.000	-0.042	-0.119
-235.844	-200.000	0.024	0.269
-234.830	800.000	-0.032	-0.126
-233.815	-126.755	-0.083	0.012
-232.800	-200.000	-0.077	-0.483
-231.786	-52.838	0.172	0.078
-230.771	800.000	-0.026	0.093
-229.757	-200.000	0.033	0.325
-228.742	-34.180	0.047	0.025
-227.727	-163.161	-0.264	-0.013
-226.713	-200.000	0.056	0.251
-225.698	-200.000	0.024	0.180
-224.684	800.000	0.046	0.159
-223.669	-200.000	0.014	-0.068
-222.655	-16.478	0.183	-0.114
-221.640	-200.000	0.057	-0.346
-220.625	164.358	-0.064	0.089
-219.611	-151.247	-0.205	0.015
-218.596	93.145	0.201	-0.223
-217.582	109.224	-0.107	-0.126
-216.567	-37.252	0.179	-0.094
-215.552	-109.357	-0.325	-0.068
-214.538	-200.000	-0.012	-0.076
-213.523	-200.000	-0.035	0.241
-212.509	-200.000	-0.010	-0.104
-211.494	-168.736	0.137	-0.005
-210.479	-200.000	-0.020	0.166
-209.465	-200.000	-0.018	0.253
-208.450	255.751	-0.244	0.411
-207.436	-200.000	-0.017	0.118
-206.421	140.205	0.189	-0.245
-205.406	-46.131	-0.117	-0.057
-204.392	295.306	0.020	-0.037
-203.377	800.000	0.071	-0.252
-202.363	-66.147	0.187	-0.073
-201.348	-68.515	-0.316	-0.120
-200.333	-109.816	-0.122	0.025
-199.319	237.640	0.156	0.254
-198.304	-123.794	-0.224	0.035
-197.290	-124.684	-0.173	0.026
-196.275	-103.050	0.196	0.046
-195.260	48.698	-0.186	-0.172
-194.246	-200.000	0.026	0.168
-193.231	13.137	0.537	0.409
-192.217	-85.641	-0.264	0.081
-191.202	30.262	0.153	0.129
-190.187	-136.746	0.310	-0.035
-189.173	-99.022	0.152	0.038
-188.158	-52.213	-0.063	0.029
-187.144	40.710	-0.218	0.194
-186.129	-170.773	-0.275	-0.009
-185.114	-125.562	-0.192	-0.029
-184.100	287.337	0.167	0.296
-183.085	120.970	0.071	0.087
-182.071	-126.854	-0.182	-0.026
-181.056	-200.000	0.047	0.241
-180.042	-53.296	-0.407	-0.183
-179.027	800.000	-0.139	-0.595
-178.012	217.289	-0.066	-0.103
-176.998	-90.406	0.170	-0.049
-175.983	-200.000	0.026	-0.386
-174.969	-22.682	-0.273	-0.162
-173.954	-200.000	0.050	-0.237
-172.939	215.395	0.230	0.359
-171.925	-83.859	-0.238	-0.074
-170.910	-142.182	-0.270	-0.026
-169.896	-200.000	0.004	-0.027
-168.881	-200.000	0.077	-0.352
-167.866	-117.057	0.213	-0.038
-166.852	33.417	0.269	0.230
-165.837	2.843	0.138	0.099
-164.823	-82.252	0.234	0.075
-163.808	-152.806	-0.229	0.016
-162.793	-20.944	-0.348	0.209
-161.779	-200.000	0.004	0.076
-160.764	342.911	-0.156	-0.299
-159.750	65.762	-0.162	-0.161
-158.735	800.000	-0.161	0.447
-157.720	-62.007	0.241	-0.099
-156.706	209.054	0.165	-0.254
-155.691	48.474	-0.039	-0.036
-154.677	-86.243	-0.327	-0.099
-153.662	12.646	0.126	-0.095
-152.647	-4.009	0.370	-0.252
-151.633	-200.000	0.011	0.071
-150.618	593.334	0.078	0.188
-149.604	-200.000	-0.012	0.309
-148.589	-173.007	0.290	-0.009
-147.574	-200.000	-0.039	0.212
-146.560	-6.013	-0.341	0.229
-145.545	-200.000	-0.032	0.236
-144.531	-116.838	-0.131	-0.024
-143.516	-134.393	0.297	0.036
-142.502	10.465	-0.208	-0.155
-141.487	-68.259	-0.401	-0.153
-140.472	-73.388	0.196	-0.070
-139.458	800.000	0.082	0.239
-138.443	-50.560	-0.232	0.107
-137.429	-53.522	-0.148	-0.066
-136.414	103.643	-0.076	0.087
-135.399	-200.000	0.024	-0.126
-134.385	-166.522	0.068	0.003
-133.370	-13.616	0.082	-0.052
-132.356	-121.329	-0.429	-0.070
-131.341	-200.000	0.025	0.291
-130.326	-94.600	-0.344	0.092
-129.312	-12.182	-0.396	-0.254
-128.297	671.232	0.113	-0.288
-127.283	-63.504	0.171	0.069
-126.268	800.000	-0.025	0.072
-125.253	-89.361	-0.120	-0.035
-124.239	8.308	0.310	0.228
-123.224	58.645	-0.119	0.114
