DTS Sentinel unit serial number:	SN413079Multiplexer serial number:	ORYXHardware model number:	OX4-SRSoftware version number:	ORYX F/W v4.00 Oryx Data Collector v3.7.2.0data status	okinstallation	princeton_trtdifferential loss correction	single-endedforward channel	channel 2reverse channel	N/Adate	2019/09/17time	16:07:34forward acquisition time	60.00reverse acquisition time	0.00gamma	496.2192k internal	0.2297k external	0.2297temperature offset calibration	0.9983default loss term (dB/km)	0.3790temperature slope calibration	1.0000multiplexer offset coefficient	1.0000multiplexer slope coefficient	1.0000fibre end	0.00T internal ref (°C)	40.34T ext. ref 1 (°C)	0.37T ext. ref 2 (°C)	38.69length (m)	temperature (°C)	Stokes	anti-Stokes-747.200	508.655	-0.117	0.279
-746.185	-172.754	-0.325	-0.010
-745.171	150.635	-0.054	-0.074
-744.156	-116.651	0.294	-0.055
-743.142	142.857	-0.219	-0.297
-742.127	800.000	-0.046	0.138
-741.112	56.088	-0.172	0.170
-740.098	174.235	-0.158	0.233
-739.083	-115.957	0.300	-0.057
-738.069	-16.408	-0.095	-0.061
-737.054	-54.548	-0.162	0.075
-736.039	-200.000	-0.004	-0.179
-735.025	-47.844	0.034	0.017
-734.010	292.399	-0.134	0.249
-732.996	-124.053	0.058	-0.009
-731.981	-128.829	0.248	0.036
-730.966	-110.786	0.503	-0.106
-729.952	-142.882	0.073	0.007
-728.937	292.656	0.138	-0.257
-727.923	-176.538	-0.140	-0.004
-726.908	298.408	-0.216	-0.406
-725.894	180.224	0.098	-0.147
-724.879	-149.860	-0.262	-0.021
-723.864	-7.705	0.273	0.188
-722.850	-25.199	-0.318	-0.192
-721.835	352.006	0.106	0.214
-720.821	288.297	-0.133	-0.245
-719.806	69.175	0.216	-0.226
-718.791	-42.620	-0.227	0.118
-717.777	261.057	-0.072	-0.127
-716.762	-42.563	-0.281	-0.146
-715.748	-14.640	-0.432	-0.283
-714.733	-150.188	-0.220	-0.017
-713.718	-200.000	-0.055	-0.261
-712.704	-200.000	-0.019	0.317
-711.689	800.000	0.068	-0.218
-710.675	-84.037	0.044	-0.014
-709.660	-200.000	-0.005	0.207
-708.645	5.965	-0.214	-0.162
-707.631	-134.017	-0.567	0.072
-706.616	-39.669	-0.243	0.129
-705.602	-200.000	-0.061	-0.285
-704.587	-200.000	0.006	-0.141
-703.572	-133.869	-0.255	-0.032
-702.558	29.102	0.070	-0.061
-701.543	108.126	0.110	-0.133
-700.529	64.572	0.318	0.327
-699.514	-200.000	0.026	-0.301
-698.499	216.373	-0.161	-0.261
-697.485	-70.344	0.217	0.084
-696.470	75.989	-0.066	0.071
-695.456	47.000	0.098	0.093
-694.441	-102.108	0.417	-0.102
-693.426	-80.222	-0.151	0.051
-692.412	270.468	0.096	-0.173
-691.397	-141.875	-0.397	-0.040
-690.383	-139.175	-0.244	-0.027
-689.368	306.538	0.059	-0.112
-688.354	800.000	0.058	0.245
-687.339	96.742	0.145	0.169
-686.324	-73.927	0.326	0.121
-685.310	-124.301	0.261	0.042
-684.295	277.175	0.239	-0.433
-683.281	-200.000	0.026	-0.187
-682.266	800.000	0.091	-0.398
-681.251	19.451	0.236	-0.193
-680.237	316.097	-0.120	0.230
-679.222	94.646	0.142	-0.165
-678.208	-84.527	0.035	-0.011
-677.193	-200.000	-0.012	-0.370
-676.178	800.000	-0.150	-0.438
-675.164	543.175	0.096	-0.232
-674.149	90.865	-0.148	-0.169
-673.135	386.972	-0.040	0.083
-672.120	-179.747	-0.103	-0.002
-671.105	800.000	-0.087	0.314
-670.091	-58.815	-0.200	-0.088
-669.076	-200.000	0.019	0.130
-668.062	139.731	-0.006	-0.008
-667.047	34.195	0.173	0.154
-666.032	-30.574	0.173	0.100
-665.018	-77.115	0.244	-0.086
-664.003	165.105	0.107	-0.153
-662.989	174.156	0.200	-0.295
-661.974	-78.917	-0.445	-0.154
-660.959	72.258	-0.163	-0.173
-659.945	36.072	0.145	-0.130
-658.930	-200.000	0.028	-0.285
-657.916	7.790	0.139	0.106
-656.901	-134.220	0.307	-0.039
-655.886	23.844	-0.122	0.102
-654.872	118.691	-0.035	0.044
-653.857	-63.401	0.089	0.037
-652.843	-165.089	-0.345	0.016
-651.828	-114.157	-0.311	-0.061
-650.814	800.000	-0.082	0.239
-649.799	-71.790	-0.197	-0.075
-648.784	15.744	0.323	0.258
-647.770	73.517	-0.071	-0.076
-646.755	800.000	-0.048	0.156
-645.741	98.488	-0.104	-0.122
-644.726	-134.358	0.179	0.022
-643.711	-31.405	-0.022	-0.013
-642.697	-153.782	0.261	-0.018
-641.682	-174.721	0.217	-0.006
-640.668	-117.041	-0.276	0.051
-639.653	67.771	0.265	0.275
-638.638	25.084	-0.252	0.213
-637.624	-32.002	-0.273	-0.155
-636.609	-124.370	-0.451	-0.072
-635.595	191.317	-0.338	0.517
-634.580	800.000	0.048	0.138
-633.565	505.401	-0.172	-0.404
-632.551	800.000	0.048	0.211
-631.536	66.938	0.336	0.348
-630.522	-200.000	-0.001	0.107
-629.507	25.324	-0.220	-0.186
-628.492	-22.721	-0.175	-0.108
-627.478	-101.217	-0.226	-0.056
-626.463	43.748	0.099	-0.092
-625.449	-200.000	0.003	0.210
-624.434	-200.000	0.008	-0.273
-623.419	-163.310	-0.172	-0.008
-622.405	-7.612	-0.054	-0.037
-621.390	60.828	-0.231	-0.232
-620.376	694.859	-0.202	-0.539
-619.361	-130.587	0.098	0.013
-618.346	-144.073	-0.207	-0.020
-617.332	-46.573	0.110	0.055
-616.317	-58.450	0.177	0.078
-615.303	55.772	-0.021	0.021
-614.288	-200.000	0.007	0.404
-613.273	-65.936	0.173	-0.070
-612.259	-200.000	0.011	-0.166
-611.244	-35.088	-0.273	0.151
-610.230	182.175	0.072	0.107
-609.215	-44.789	-0.281	-0.143
-608.201	-200.000	-0.019	0.385
-607.186	400.555	0.026	0.055
-606.171	-156.408	0.369	-0.023
-605.157	150.199	-0.097	-0.133
-604.142	53.085	0.046	-0.044
-603.128	618.190	-0.082	0.209
-602.113	159.516	-0.076	0.107
-601.098	-54.567	0.086	-0.039
-600.084	258.844	-0.057	0.100
-599.069	90.019	-0.126	0.143
-598.055	-59.375	0.259	0.113
-597.040	46.094	0.162	0.152
-596.025	123.264	0.093	0.119
-595.011	74.349	0.128	0.137
-593.996	121.375	0.160	-0.203
-592.982	800.000	0.011	-0.039
-591.967	15.529	0.159	0.127
-590.952	31.084	0.128	-0.112
-589.938	134.040	0.301	-0.395
-588.923	-200.000	0.007	0.091
-587.909	-200.000	-0.040	0.302
-586.894	-200.000	0.017	0.372
-585.879	-200.000	-0.005	-0.114
-584.865	-200.000	-0.001	0.031
-583.850	97.913	0.271	-0.317
-582.836	800.000	-0.109	-0.408
-581.821	-47.066	-0.348	0.172
-580.806	-123.081	0.307	-0.050
-579.792	-200.000	0.042	0.249
-578.777	578.907	0.052	-0.130
-577.763	88.703	-0.101	0.114
-576.748	89.908	-0.218	0.247
-575.733	-39.466	-0.190	-0.101
-574.719	310.223	0.179	0.340
-573.704	-61.111	0.149	0.064
-572.690	-148.072	-0.160	0.013
-571.675	-49.269	0.134	0.065
-570.661	5.308	-0.090	-0.068
-569.646	86.164	0.149	0.167
-568.631	-59.113	-0.334	-0.146
-567.617	5.811	-0.088	-0.066
-566.602	94.378	-0.127	0.146
-565.588	-4.045	-0.161	0.113
-564.573	-42.708	0.133	0.069
-563.558	99.030	0.149	0.174
-562.544	800.000	-0.036	0.134
-561.529	22.235	0.183	-0.152
-560.515	166.310	0.011	-0.016
-559.500	-39.038	-0.109	-0.058
-558.485	-10.774	0.071	0.047
-557.471	34.440	0.173	0.153
-556.456	-95.268	-0.422	-0.115
-555.442	10.326	0.073	-0.056
-554.427	-200.000	-0.018	0.192
-553.412	-118.311	-0.282	0.051
-552.398	-200.000	0.002	-0.279
-551.383	800.000	-0.074	-0.212
-550.369	800.000	-0.118	0.468
-549.354	232.141	0.034	-0.056
-548.339	800.000	0.033	0.135
-547.325	-200.000	-0.004	-0.092
-546.310	-89.055	0.296	0.089
-545.296	37.799	-0.187	-0.168
-544.281	-154.270	-0.087	-0.006
-543.266	-200.000	-0.002	-0.080
-542.252	113.560	0.097	-0.120
-541.237	-144.332	0.172	0.016
-540.223	68.291	-0.013	-0.013
-539.208	29.751	-0.211	-0.182
-538.193	-49.226	-0.346	-0.167
-537.179	-200.000	0.014	0.172
-536.164	-158.366	-0.312	0.018
-535.150	-200.000	-0.100	0.501
-534.135	141.290	-0.183	-0.245
-533.121	92.002	0.196	-0.224
-532.106	45.518	-0.050	-0.046
-531.091	45.001	0.144	0.134
-530.077	-200.000	-0.037	-0.369
-529.062	46.839	0.031	-0.030
-528.048	-200.000	0.043	0.272
-527.033	78.713	-0.185	0.200
-526.018	-200.000	-0.007	-0.325
-525.004	230.577	-0.140	-0.231
-523.989	-200.000	-0.022	-0.214
-522.975	-49.532	0.103	-0.050
-521.960	-153.887	-0.096	0.007
-520.945	-200.000	0.030	-0.207
-519.931	260.123	-0.127	-0.222
-518.916	-118.635	0.245	-0.044
-517.902	123.677	0.090	-0.114
-516.887	-18.540	-0.222	0.140
-515.872	-133.291	0.182	0.023
-514.858	-200.000	0.007	-0.062
-513.843	-200.000	-0.035	0.156
-512.829	-20.332	0.232	0.145
-511.814	84.612	-0.036	-0.040
-510.799	-25.955	0.183	-0.109
-509.785	127.752	0.091	-0.117
-508.770	-61.186	-0.275	0.117
-507.756	-200.000	0.017	0.256
-506.741	482.722	0.059	0.136
-505.726	-131.477	0.270	0.036
-504.712	259.603	-0.248	0.432
-503.697	163.896	0.104	0.149
-502.683	-54.996	-0.248	-0.113
-501.668	-134.191	0.357	-0.045
-500.653	344.426	0.154	-0.305
-499.639	800.000	-0.029	-0.129
-498.624	-200.000	-0.025	0.121
-497.610	215.966	0.249	-0.401
-496.595	316.639	0.087	0.167
-495.581	-200.000	-0.005	0.228
-494.566	-25.874	0.115	-0.068
-493.551	-157.409	0.126	0.008
-492.537	-47.447	0.201	-0.099
-491.522	-200.000	0.003	-0.042
-490.508	152.492	0.084	-0.116
-489.493	418.067	-0.044	-0.094
-488.478	-107.853	-0.088	-0.019
-487.464	369.465	0.056	0.115
-486.449	25.971	-0.302	0.255
-485.435	496.347	-0.055	-0.128
-484.420	-31.879	0.356	0.202
-483.405	-117.423	0.040	-0.007
-482.391	-108.752	-0.306	0.066
-481.376	-83.631	-0.116	-0.037
-480.362	60.129	0.099	-0.098
-479.347	29.177	0.091	-0.078
-478.332	-69.864	-0.234	0.090
-477.318	-200.000	-0.009	-0.213
-476.303	-200.000	-0.007	0.286
-475.289	59.156	-0.313	0.311
-474.274	308.119	0.127	-0.239
-473.259	431.959	-0.212	-0.464
-472.245	44.499	-0.066	-0.061
-471.230	-178.786	-0.159	0.004
-470.216	-52.869	0.072	-0.033
-469.201	-53.874	0.228	0.105
-468.186	37.930	-0.289	0.259
-467.172	800.000	-0.070	0.273
-466.157	-41.544	0.197	0.102
-465.143	17.210	-0.305	0.244
-464.128	-63.076	0.128	-0.054
-463.113	20.306	-0.148	0.120
-462.099	-127.874	0.107	-0.016
-461.084	-87.459	-0.225	0.069
-460.070	-200.000	-0.054	0.342
-459.055	-133.554	0.133	-0.017
-458.040	-91.134	0.216	-0.063
-457.026	247.011	-0.187	-0.319
-456.011	-200.000	-0.002	0.099
-454.997	800.000	0.072	0.278
-453.982	160.054	0.113	0.160
-452.968	-131.128	-0.097	0.013
-451.953	82.256	-0.023	0.025
-450.938	-200.000	0.028	-0.430
-449.924	800.000	-0.037	-0.107
-448.909	800.000	-0.047	0.204
-447.895	404.934	0.063	-0.134
-446.880	-200.000	0.011	-0.121
-445.865	-200.000	0.063	0.304
-444.851	148.932	0.225	0.308
-443.836	66.805	-0.094	-0.096
-442.822	44.117	0.169	-0.156
-441.807	-111.454	0.302	0.062
-440.792	-64.131	0.043	-0.018
-439.778	-81.842	0.477	-0.158
-438.763	353.405	-0.154	0.308
-437.749	-37.063	0.113	0.061
-436.734	-64.695	-0.211	0.086
-435.719	-145.488	-0.133	0.012
-434.705	-103.033	-0.305	-0.073
-433.690	350.521	-0.093	0.185
-432.676	-115.988	-0.263	0.049
-431.661	-25.138	0.209	-0.125
-430.646	103.131	0.144	-0.170
-429.632	-76.699	0.201	-0.071
-428.617	745.439	-0.099	0.269
-427.603	-200.000	0.031	0.467
-426.588	56.066	-0.033	-0.033
-425.573	57.429	-0.156	-0.153
-424.559	130.633	0.313	0.405
-423.544	-11.153	-0.082	0.054
-422.530	60.900	0.067	-0.067
-421.515	-46.939	0.139	-0.068
-420.500	69.260	0.325	0.337
-419.486	-150.621	-0.163	-0.013
-418.471	-29.132	-0.093	-0.054
-417.457	-166.062	-0.203	-0.009
-416.442	-26.210	0.069	-0.041
-415.428	800.000	-0.031	-0.125
-414.413	99.195	0.162	0.189
-413.398	-200.000	-0.010	-0.343
-412.384	-130.496	-0.133	-0.018
-411.369	3.287	0.132	0.097
-410.355	59.476	0.099	0.099
-409.340	-101.242	-0.261	-0.064
-408.325	537.900	0.172	-0.412
-407.311	800.000	0.141	-0.590
-406.296	-200.000	-0.004	0.027
-405.282	358.244	-0.143	0.288
-404.267	-22.058	-0.145	-0.089
-403.252	-58.599	0.249	0.109
-402.238	-125.235	-0.034	0.005
-401.223	-77.209	-0.390	-0.137
-400.209	4.293	-0.417	-0.308
-399.194	-13.245	0.048	-0.032
-398.179	-2.310	0.072	0.051
-397.165	489.795	0.085	-0.196
-396.150	147.777	0.048	0.066
-395.136	-200.000	0.012	-0.071
-394.121	-104.048	0.246	0.058
-393.106	23.512	0.294	-0.243
-392.092	502.665	0.054	-0.125
-391.077	43.431	-0.206	0.190
-390.063	155.391	0.165	-0.229
-389.048	-200.000	0.012	0.062
-388.033	-165.751	-0.212	-0.009
-387.019	595.302	0.039	-0.098
-386.004	22.283	-0.186	-0.153
-384.990	-131.070	0.282	0.038
-383.975	-41.385	0.082	-0.042
-382.960	-200.000	0.002	0.036
-381.946	-80.336	-0.297	-0.100
-380.931	37.946	0.220	-0.197
-379.917	-59.504	0.173	0.075
-378.902	377.948	-0.217	-0.446
-377.888	-75.221	-0.110	0.040
-376.873	-140.071	0.046	-0.005
-375.858	125.510	-0.208	0.264
-374.844	-173.028	-0.257	-0.008
-373.829	-200.000	-0.031	-0.274
-372.815	-58.436	-0.296	0.129
-371.800	3.921	0.235	-0.173
-370.785	18.330	-0.235	0.189
-369.771	-79.756	-0.189	0.064
-368.756	627.586	-0.092	-0.234
-367.742	62.060	0.226	-0.226
-366.727	4.196	-0.147	0.108
-365.712	-187.510	-0.152	0.002
-364.698	-109.262	-0.123	0.026
-363.683	51.665	0.111	0.106
-362.669	-200.000	-0.062	-0.358
-361.654	258.945	-0.026	-0.045
-360.639	48.645	0.274	0.259
-359.625	-34.147	0.074	0.041
-358.610	156.647	-0.091	-0.127
-357.596	168.695	0.020	0.028
-356.581	418.130	-0.078	-0.167
-355.566	34.501	-0.183	-0.160
-354.552	255.515	0.057	0.099
-353.537	-127.065	0.062	-0.009
-352.523	427.759	0.049	0.106
-351.508	-200.000	-0.008	0.049
-350.493	-200.000	-0.003	-0.224
-349.479	-144.459	0.136	0.013
-348.464	233.560	0.094	0.156
-347.450	230.298	-0.042	-0.069
-346.435	-26.780	-0.219	-0.129
-345.420	-18.955	0.188	-0.117
-344.406	800.000	0.111	-0.317
-343.391	27.666	-0.199	-0.168
-342.377	-77.704	-0.055	-0.019
-341.362	-43.928	-0.007	-0.004
-340.348	-10.154	-0.175	0.117
-339.333	-200.000	0.002	0.262
-338.318	-141.974	0.045	0.004
-337.304	-152.136	0.169	-0.012
-336.289	57.693	0.185	-0.182
-335.275	-63.718	-0.180	-0.074
-334.260	63.936	0.107	-0.108
-333.245	-121.983	-0.183	0.030
-332.231	-87.120	-0.081	0.025
-331.216	17.009	0.189	-0.151
-330.202	67.977	0.136	0.140
-329.187	800.000	-0.076	-0.224
-328.172	-127.349	0.046	-0.007
-327.158	51.768	0.105	0.101
-326.143	574.265	0.043	-0.105
-325.129	720.521	-0.031	-0.084
-324.114	-21.823	-0.180	0.110
-323.099	74.015	0.080	-0.084
-322.085	-200.000	0.018	-0.306
-321.070	-120.044	0.078	-0.013
-320.056	-162.513	0.170	-0.008
-319.041	22.294	0.180	0.147
-318.026	-85.808	-0.139	-0.043
-317.012	267.348	-0.065	0.114
-315.997	57.674	-0.119	0.117
-314.983	-17.274	-0.332	0.210
-313.968	165.489	-0.159	-0.226
-312.953	-122.887	0.112	0.018
-311.939	-90.063	-0.252	0.074
-310.924	-78.491	0.058	0.020
-309.910	59.846	0.077	-0.076
-308.895	-200.000	-0.006	-0.088
-307.880	191.050	0.121	0.182
-306.866	16.655	0.251	0.199
-305.851	140.025	0.183	0.242
-304.837	-47.150	0.215	0.105
-303.822	800.000	0.055	0.181
-302.807	-114.309	0.367	0.071
-301.793	326.105	0.067	0.129
-300.778	330.413	-0.267	0.516
-299.764	46.855	0.245	0.229
-298.749	-84.085	0.208	0.066
-297.735	-71.122	0.192	-0.072
-296.720	365.845	0.060	-0.121
-295.705	-61.429	-0.395	0.167
-294.691	-200.000	0.014	-0.191
-293.676	-68.684	-0.186	-0.072
-292.662	-5.666	0.179	0.123
-291.647	-13.413	-0.268	-0.174
-290.632	125.456	-0.047	-0.059
-289.618	-200.000	-0.007	0.057
-288.603	-45.702	0.180	-0.089
-287.589	84.294	0.162	-0.177
-286.574	-200.000	-0.002	-0.056
-285.559	-26.084	-0.021	0.012
-284.545	-200.000	-0.000	0.081
-283.530	-60.928	0.071	-0.030
-282.516	-200.000	-0.040	-0.221
-281.501	244.198	-0.241	-0.406
-280.486	-59.971	-0.249	0.107
-279.472	-137.283	0.404	0.046
-278.457	800.000	0.023	0.072
-277.443	-169.683	0.086	0.003
-276.428	-25.674	0.218	-0.129
-275.413	-200.000	0.005	0.334
-274.399	-31.879	0.017	0.010
-273.384	-34.584	-0.201	-0.110
-272.370	562.273	0.058	0.142
-271.355	-200.000	-0.053	0.267
-270.340	481.323	-0.101	-0.229
-269.326	29.118	-0.089	-0.076
-268.311	-29.614	-0.069	0.040
-267.297	9.223	0.186	-0.141
-266.282	-200.000	-0.041	0.406
-265.267	127.862	-0.100	0.128
-264.253	175.366	-0.341	-0.496
-263.238	0.765	0.162	0.116
-262.224	-12.826	0.154	-0.101
-261.209	130.877	-0.095	0.122
-260.195	-85.299	0.148	-0.046
-259.180	18.278	0.055	-0.044
-258.165	183.547	0.248	0.367
-257.151	-75.619	0.072	0.026
-256.136	-120.470	-0.171	0.029
-255.122	-46.106	0.105	0.052
-254.107	-34.258	0.093	0.051
-253.092	106.302	-0.051	-0.060
-252.078	50.481	0.191	-0.181
-251.063	-200.000	-0.045	0.236
-250.049	110.042	0.173	-0.208
-249.034	-87.766	-0.211	-0.064
-248.019	-32.323	0.221	0.124
-247.005	-1.644	-0.226	0.159
-245.990	-51.739	0.235	-0.109
-244.976	-200.000	0.036	0.304
-243.961	800.000	-0.055	-0.238
-242.946	-106.879	-0.311	0.069
-241.932	-200.000	0.061	0.399
-240.917	-6.916	-0.239	-0.163
-239.903	533.612	-0.023	0.054
-238.888	179.243	0.128	-0.187
-237.873	-200.000	-0.008	0.131
-236.859	144.338	-0.178	-0.238
-235.844	-68.424	-0.197	-0.076
-234.830	800.000	0.131	-0.388
-233.815	-170.576	0.255	0.009
-232.800	257.204	0.150	-0.259
-231.786	-7.253	-0.143	0.097
-230.771	-134.228	0.130	-0.016
-229.757	-0.448	0.083	-0.059
-228.742	800.000	-0.058	0.170
-227.727	16.225	-0.291	-0.230
-226.713	-120.663	-0.140	0.024
-225.698	367.059	-0.051	0.103
-224.684	-37.710	0.310	-0.165
-223.669	800.000	-0.014	0.050
-222.655	-169.781	0.161	0.006
-221.640	139.654	0.095	0.125
-220.625	548.898	-0.105	0.252
-219.611	-141.910	-0.164	-0.016
-218.596	-200.000	-0.052	0.229
-217.582	-160.456	-0.281	0.015
-216.567	800.000	-0.143	0.402
-215.552	325.940	0.014	-0.026
-214.538	800.000	0.070	0.268
-213.523	59.873	0.215	-0.213
-212.509	-11.065	0.091	0.060
-211.494	91.316	0.035	-0.039
-210.479	-62.463	0.278	0.116
-209.465	800.000	-0.029	0.084
-208.450	341.275	0.019	-0.037
-207.436	-200.000	-0.013	-0.095
-206.421	141.917	-0.108	-0.143
-205.406	40.828	0.163	-0.147
-204.392	-200.000	0.017	-0.315
-203.377	-32.453	0.177	-0.099
-202.363	800.000	-0.016	-0.056
-201.348	800.000	0.004	0.015
-200.333	-116.836	-0.139	0.026
-199.319	-21.406	-0.161	-0.098
-198.304	2.096	0.193	-0.139
-197.290	-142.336	-0.222	0.022
-196.275	407.908	-0.056	-0.118
-195.260	-200.000	0.038	0.228
-194.246	-99.392	0.518	0.130
-193.231	-78.362	0.285	-0.098
-192.217	-200.000	-0.056	-0.349
-191.202	-58.859	-0.179	-0.077
-190.187	549.031	-0.043	-0.103
-189.173	151.844	0.289	0.393
-188.158	-51.623	-0.218	-0.102
-187.144	330.660	-0.085	0.164
-186.129	21.937	-0.154	0.125
-185.114	166.853	0.085	-0.120
-184.100	-12.976	-0.168	-0.109
-183.085	-200.000	0.011	-0.129
-182.071	119.659	0.170	0.210
-181.056	-64.790	0.262	0.106
-180.042	353.531	0.153	0.304
-179.027	30.687	0.083	0.071
-178.012	-99.635	0.055	0.014
-176.998	800.000	-0.011	-0.041
-175.983	-70.385	-0.007	-0.003
-174.969	800.000	-0.049	0.168
-173.954	-200.000	0.018	0.146
-172.939	-100.158	-0.120	0.030
-171.925	12.189	-0.201	-0.155
-170.910	-200.000	-0.026	-0.161
-169.896	36.075	-0.311	0.274
-168.881	82.813	-0.241	0.262
-167.866	27.403	0.112	-0.094
-166.852	-50.888	0.317	-0.149
-165.837	-200.000	0.020	0.249
-164.823	-41.056	0.163	-0.084
-163.808	77.553	-0.135	-0.144
-162.793	166.359	0.181	0.255
-161.779	800.000	-0.063	-0.212
-160.764	-200.000	-0.018	-0.416
-159.750	-155.711	-0.364	-0.023
-158.735	-42.615	0.167	0.085
-157.720	800.000	-0.140	-0.606
-156.706	800.000	-0.104	-0.366
-155.691	-200.000	-0.024	0.146
-154.677	80.738	0.112	-0.120
-153.662	-200.000	-0.092	-0.507
-152.647	135.475	0.194	0.252
-151.633	197.805	0.169	-0.257
-150.618	20.458	0.363	0.293
-149.604	30.001	-0.125	0.106
-148.589	486.592	0.150	0.342
-147.574	-124.964	0.277	0.043
-146.560	-55.557	-0.168	0.075
-145.545	81.387	0.194	0.210
-144.531	-200.000	0.019	0.216
-143.516	54.038	0.473	0.454
-142.502	-14.041	-0.201	0.130
-141.487	-151.815	0.350	-0.026
-140.472	-10.199	0.364	-0.241
-139.458	-200.000	-0.012	-0.231
-138.443	800.000	-0.119	0.330
-137.429	95.705	0.189	-0.216
-136.414	-108.677	0.306	-0.065
-135.399	156.727	0.084	0.115
-134.385	232.950	0.089	-0.145
-133.370	-158.401	0.328	0.019
-132.356	-74.001	0.219	0.079
-131.341	597.280	-0.113	-0.280
-130.326	358.241	-0.155	-0.309
-129.312	531.962	-0.093	-0.219
-128.297	-200.000	-0.033	-0.312
-127.283	-105.112	0.055	0.013
-126.268	614.386	0.073	0.183
-125.253	-99.258	0.174	-0.044
-124.239	419.673	0.031	-0.066
-123.224	-116.681	-0.270	-0.050
-122.210	270.403	-0.206	0.361
-121.195	-59.112	0.362	-0.156
