DTS Sentinel unit serial number:	SN413079Multiplexer serial number:	ORYXHardware model number:	OX4-SRSoftware version number:	ORYX F/W v4.00 Oryx Data Collector v3.7.2.0data status	okinstallation	princeton_trtdifferential loss correction	single-endedforward channel	channel 2reverse channel	N/Adate	2019/09/12time	18:01:49forward acquisition time	15.00reverse acquisition time	0.00gamma	496.2192k internal	0.2325k external	0.2325temperature offset calibration	1.0125default loss term (dB/km)	0.3790temperature slope calibration	1.0000multiplexer offset coefficient	1.0000multiplexer slope coefficient	1.0000fibre end	0.00T internal ref (°C)	33.81T ext. ref 1 (°C)	2.96T ext. ref 2 (°C)	28.25length (m)	temperature (°C)	Stokes	anti-Stokes-747.200	-116.187	-0.496	-0.093
-746.185	-74.899	-0.523	-0.189
-745.171	4.311	0.098	0.073
-744.156	-3.223	-0.294	-0.207
-743.142	114.769	-0.224	-0.275
-742.127	-165.723	-0.153	0.007
-741.112	43.341	0.407	0.375
-740.098	364.562	0.093	0.188
-739.083	-20.019	0.435	0.271
-738.069	-200.000	0.005	-0.573
-737.054	-132.611	-0.933	-0.121
-736.039	26.581	-0.584	0.493
-735.025	0.583	0.203	0.147
-734.010	696.981	-0.216	-0.573
-732.996	204.394	0.527	-0.825
-731.981	-62.393	-0.708	-0.297
-730.966	43.484	-0.103	-0.095
-729.952	51.849	0.463	0.444
-728.937	24.335	-0.495	-0.412
-727.923	-68.245	0.381	0.149
-726.908	143.574	-0.328	0.440
-725.894	-200.000	0.002	0.238
-724.879	800.000	-0.130	-0.533
-723.864	569.607	0.208	-0.509
-722.850	-43.942	0.744	0.377
-721.835	-200.000	0.063	-0.336
-720.821	800.000	0.088	0.340
-719.806	-200.000	-0.003	-0.270
-718.791	800.000	-0.209	0.904
-717.777	-200.000	-0.121	-0.654
-716.762	-111.435	0.469	0.096
-715.748	-200.000	0.101	0.467
-714.733	-200.000	0.037	0.399
-713.718	-138.125	-0.236	-0.026
-712.704	-151.204	-0.318	0.024
-711.689	233.150	-0.088	0.145
-710.675	-200.000	-0.005	-0.246
-709.660	-64.838	-0.400	0.163
-708.645	-200.000	0.050	-0.463
-707.631	-200.000	-0.025	-0.438
-706.616	-73.292	-0.819	0.302
-705.602	-73.304	-0.871	-0.321
-704.587	-101.087	0.545	0.135
-703.572	146.799	0.236	0.319
-702.558	756.071	-0.057	-0.154
-701.543	-200.000	-0.001	0.499
-700.529	-200.000	0.064	1.035
-699.514	800.000	-0.204	-0.800
-698.499	159.012	-0.034	0.048
-697.485	17.325	0.648	-0.518
-696.470	-200.000	-0.005	-0.051
-695.456	4.906	0.568	0.421
-694.441	800.000	-0.249	0.860
-693.426	-200.000	-0.084	-0.983
-692.412	-200.000	0.007	-0.314
-691.397	-40.336	-0.284	-0.149
-690.383	124.287	-0.225	0.284
-689.368	244.582	0.036	-0.060
-688.354	19.695	0.321	-0.260
-687.339	-107.291	0.819	-0.181
-686.324	17.691	0.581	-0.465
-685.310	-200.000	-0.111	-1.138
-684.295	-94.294	0.203	-0.056
-683.281	-200.000	-0.139	-1.032
-682.266	800.000	-0.175	0.536
-681.251	-49.206	0.382	-0.184
-680.237	800.000	-0.037	0.134
-679.222	55.951	0.137	-0.134
-678.208	800.000	0.336	-1.174
-677.193	-200.000	-0.128	-0.655
-676.178	-49.689	-0.051	-0.024
-675.164	35.637	0.247	0.219
-674.149	800.000	-0.074	0.274
-673.135	-51.869	-0.202	0.094
-672.120	-64.115	-1.036	0.425
-671.105	127.055	-0.403	-0.515
-670.091	31.360	-0.361	-0.312
-669.076	-127.764	-0.283	0.041
-668.062	524.927	-0.028	0.065
-667.047	800.000	-0.205	-0.723
-666.032	172.034	-0.216	0.312
-665.018	-200.000	-0.086	0.502
-664.003	-27.793	-0.524	0.306
-662.989	800.000	-0.146	-0.523
-661.974	-200.000	-0.060	0.484
-660.959	800.000	-0.151	0.449
-659.945	35.128	0.465	0.410
-658.930	-112.832	-0.244	0.049
-657.916	800.000	-0.177	-0.556
-656.901	-69.606	-0.500	-0.192
-655.886	454.335	0.120	0.267
-654.872	-38.133	0.070	0.038
-653.857	-122.047	-0.560	0.092
-652.843	-1.573	0.592	-0.420
-651.828	-151.389	0.945	-0.071
-650.814	-35.229	-0.314	-0.172
-649.799	11.399	-0.119	-0.091
-648.784	245.328	0.121	-0.204
-647.770	-200.000	0.101	0.841
-646.755	-163.342	-0.528	0.025
-645.741	-25.545	0.285	0.169
-644.726	-48.887	-0.649	-0.313
-643.711	540.346	-0.108	-0.258
-642.697	509.217	-0.119	-0.279
-641.682	-69.595	-0.330	0.127
-640.668	299.944	0.169	-0.312
-639.653	216.547	-0.179	-0.285
-638.638	800.000	0.016	-0.063
-637.624	-200.000	-0.046	-0.242
-636.609	-89.179	0.362	-0.108
-635.595	294.182	0.064	-0.118
-634.580	-13.670	0.703	-0.457
-633.565	267.170	-0.306	0.538
-632.551	-144.991	0.379	-0.035
-631.536	341.602	-0.015	0.030
-630.522	126.151	-0.347	0.441
-629.507	29.369	-0.415	-0.354
-628.492	-52.071	0.416	0.194
-627.478	-200.000	-0.070	0.414
-626.463	-200.000	-0.052	0.605
-625.449	22.153	0.478	0.392
-624.434	-25.647	0.210	-0.124
-623.419	-110.825	0.641	0.133
-622.405	-44.877	0.621	-0.311
-621.390	800.000	0.046	0.135
-620.376	-187.383	-0.237	0.003
-619.361	-78.674	-0.595	0.204
-618.346	15.696	-0.324	-0.256
-617.332	-161.885	-0.369	-0.019
-616.317	21.407	-0.897	0.732
-615.303	380.905	0.364	0.750
-614.288	408.101	-0.168	-0.358
-613.273	-200.000	-0.015	0.293
-612.259	800.000	0.197	0.585
-611.244	-101.310	-0.633	0.155
-610.230	30.307	-0.591	0.507
-609.215	-8.847	-0.773	0.520
-608.201	-73.997	-0.584	0.213
-607.186	-0.601	-0.299	0.213
-606.171	-200.000	-0.012	0.865
-605.157	151.996	0.105	0.143
-604.142	1.537	-0.223	0.161
-603.128	16.282	0.726	0.575
-602.113	405.016	-0.138	-0.291
-601.098	-103.878	-0.785	0.184
-600.084	10.322	-0.345	-0.264
-599.069	-200.000	0.047	-0.432
-598.055	-30.930	0.361	0.205
-597.040	800.000	-0.255	0.846
-596.025	191.792	-0.298	0.451
-595.011	55.946	-0.333	-0.324
-593.996	800.000	-0.118	0.482
-592.982	-145.730	-0.193	0.017
-591.967	800.000	-0.083	-0.272
-590.952	800.000	0.228	0.940
-589.938	37.926	-0.803	0.716
-588.923	-200.000	-0.014	-0.784
-587.909	-200.000	-0.078	0.387
-586.894	25.053	-0.653	-0.544
-585.879	231.609	0.181	-0.297
-584.865	-44.428	0.756	0.379
-583.850	-200.000	0.054	-0.351
-582.836	-17.288	-0.578	0.365
-581.821	-48.320	0.194	-0.094
-580.806	-1.102	-0.889	0.631
-579.792	-200.000	0.015	0.119
-578.777	800.000	0.046	0.135
-577.763	232.973	-0.247	-0.407
-576.748	-73.560	-0.355	0.130
-575.733	800.000	-0.195	-0.604
-574.719	-200.000	-0.651	0.002
-573.704	-54.024	0.726	-0.331
-572.690	-121.025	-0.528	-0.089
-571.675	-3.889	-0.225	-0.157
-570.661	-160.523	-0.059	0.003
-569.646	-122.543	0.685	-0.112
-568.631	32.454	-0.121	-0.105
-567.617	503.114	-0.153	0.356
-566.602	-71.007	0.205	-0.077
-565.588	310.935	0.323	0.607
-564.573	93.927	0.188	-0.214
-563.558	513.882	0.199	0.465
-562.544	79.113	0.523	-0.561
-561.529	-200.000	-0.083	-1.018
-560.515	-200.000	0.174	1.003
-559.500	-154.551	-0.347	0.023
-558.485	-200.000	-0.441	0.002
-557.471	-156.309	-0.303	0.019
-556.456	-200.000	-0.055	-0.950
-555.442	161.928	0.188	-0.264
-554.427	800.000	0.157	0.571
-553.412	152.844	-0.361	0.494
-552.398	800.000	0.053	-0.195
-551.383	-28.168	-0.635	0.368
-550.369	27.293	0.346	-0.291
-549.354	800.000	0.076	-0.214
-548.339	-74.238	-0.332	-0.120
-547.325	800.000	-0.093	0.404
-546.310	-38.707	-0.884	-0.467
-545.296	-46.531	0.440	0.216
-544.281	25.082	0.303	-0.252
-543.266	-75.270	0.581	-0.208
-542.252	152.654	-0.271	0.371
-541.237	37.452	0.408	0.362
-540.223	21.072	0.416	0.338
-539.208	419.397	0.335	-0.717
-538.193	-111.698	-0.317	0.064
-537.179	8.626	0.267	0.202
-536.164	318.357	0.234	0.444
-535.150	-95.354	0.551	-0.148
-534.135	-121.401	0.709	-0.118
-533.121	-186.701	-0.962	0.014
-532.106	-131.838	0.994	-0.130
-531.091	236.417	0.086	0.142
-530.077	99.989	0.066	-0.077
-529.062	-61.308	-0.865	0.365
-528.048	16.567	-0.280	0.221
-527.033	-27.674	-0.138	0.080
-526.018	-27.647	0.278	0.161
-525.004	-6.929	-0.504	0.343
-523.989	-136.059	-0.749	0.088
-522.975	-200.000	-0.068	-0.637
-521.960	-200.000	-0.108	-0.607
-520.945	350.084	-0.351	0.695
-519.931	177.028	-0.532	-0.774
-518.916	14.639	-0.327	0.256
-517.902	-200.000	0.038	-0.553
-516.887	507.656	0.301	0.699
-515.872	15.760	0.714	-0.561
-514.858	44.008	-0.378	0.346
-513.843	351.938	0.236	-0.467
-512.829	-54.993	-0.712	0.321
-511.814	-64.700	0.828	-0.336
-510.799	-200.000	-0.074	-0.667
-509.785	-63.406	-0.327	-0.135
-508.770	-55.666	-0.569	0.255
-507.756	-101.843	-0.568	-0.137
-506.741	-200.000	-0.080	-0.934
-505.726	800.000	0.215	-0.902
-504.712	-127.851	0.539	0.078
-503.697	800.000	0.172	0.556
-502.683	743.360	-0.092	0.247
-501.668	79.304	0.237	-0.254
-500.653	227.175	-0.348	0.565
-499.639	-34.561	0.434	0.238
-498.624	-132.088	0.705	0.092
-497.610	144.862	-0.227	-0.303
-496.595	-199.969	-0.734	0.004
-495.581	800.000	0.143	-0.510
-494.566	247.152	0.574	-0.968
-493.551	-200.000	0.028	-0.213
-492.537	517.868	0.323	0.756
-491.522	-200.000	0.177	-0.803
-490.508	800.000	-0.011	-0.036
-489.493	-1.542	-0.502	0.354
-488.478	269.766	-0.107	-0.188
-487.464	800.000	0.096	-0.412
-486.449	7.438	-0.740	-0.553
-485.435	-58.561	-0.919	0.399
-484.420	-111.099	0.543	0.111
-483.405	66.534	0.031	-0.031
-482.391	16.283	-0.263	0.207
-481.376	175.413	-0.202	-0.293
-480.362	85.483	0.358	0.392
-479.347	-176.630	0.858	0.022
-478.332	-200.000	-0.027	-0.277
-477.318	800.000	0.324	0.939
-476.303	511.883	0.091	-0.211
-475.289	-70.747	-0.143	0.054
-474.274	3.135	0.154	0.112
-473.259	13.449	0.858	-0.665
-472.245	-200.000	0.071	-0.430
-471.230	-106.381	0.263	0.059
-470.216	-200.000	-0.027	-0.185
-469.201	7.691	0.422	-0.315
-468.186	-50.290	-0.617	0.291
-467.172	188.414	-0.376	0.561
-466.157	136.809	0.062	0.081
-465.143	-200.000	-0.090	-0.421
-464.128	169.199	-0.219	-0.311
-463.113	216.824	-0.248	-0.394
-462.099	-133.447	0.993	-0.124
-461.084	127.782	-0.621	-0.788
-460.070	-5.930	-0.423	0.289
-459.055	800.000	-0.155	-0.624
-458.040	800.000	-0.147	-0.469
-457.026	-26.302	-0.509	0.298
-456.011	-200.000	-0.123	-0.997
-454.997	58.998	0.562	0.551
-453.982	37.261	0.341	-0.302
-452.968	-131.272	0.712	-0.094
-451.953	65.683	0.261	-0.264
-450.938	-82.625	-0.229	0.074
-449.924	-131.351	0.195	0.026
-448.909	-200.000	-0.028	-0.240
-447.895	800.000	-0.144	-0.583
-446.880	-14.866	-0.618	-0.395
-445.865	665.861	-0.114	0.293
-444.851	89.815	-0.200	-0.222
-443.836	-200.000	0.002	-0.819
-442.822	800.000	0.135	-0.519
-441.807	155.810	-0.328	0.451
-440.792	-17.647	-0.534	-0.335
-439.778	47.210	0.311	-0.289
-438.763	-200.000	-0.130	1.048
-437.749	-76.429	-0.702	0.246
-436.734	-132.308	0.406	-0.052
-435.719	-25.314	0.057	-0.034
-434.705	91.040	0.243	-0.272
-433.690	-16.761	-0.609	-0.384
-432.676	-200.000	0.084	-0.393
-431.661	-28.421	0.418	-0.240
-430.646	227.963	0.351	0.569
-429.632	-125.073	-0.197	-0.030
-428.617	-13.464	0.318	-0.206
-427.603	152.755	0.195	-0.266
-426.588	54.758	-0.658	0.633
-425.573	-117.806	-0.319	-0.057
-424.559	137.912	0.679	-0.887
-423.544	800.000	0.047	0.145
-422.530	41.393	-0.765	-0.690
-421.515	-114.482	0.496	0.095
-420.500	20.753	0.138	0.111
-419.486	261.436	-0.258	-0.445
-418.471	-196.126	0.186	-0.001
-417.457	48.750	-0.874	0.817
-416.442	81.970	0.487	-0.526
-415.428	-110.193	0.916	-0.190
-414.413	-87.653	0.597	-0.180
-413.398	52.262	0.607	-0.577
-412.384	389.627	0.166	0.342
-411.369	418.505	0.245	-0.522
-410.355	-200.000	0.120	0.871
-409.340	76.716	-0.386	-0.408
-408.325	-156.806	-0.465	0.029
-407.311	61.051	0.492	0.487
-406.296	-200.000	-0.004	0.211
-405.282	-101.216	-0.505	-0.123
-404.267	-200.000	0.141	0.816
-403.252	-200.000	-0.147	0.859
-402.238	393.471	-0.266	-0.551
-401.223	-57.402	0.940	0.411
-400.209	26.310	0.519	0.431
-399.194	207.829	0.309	-0.480
-398.179	270.814	0.120	0.211
-397.165	-200.000	0.039	-0.181
-396.150	-200.000	-0.100	0.911
-395.136	-200.000	-0.055	0.551
-394.121	800.000	-0.119	-0.424
-393.106	-200.000	0.187	-0.971
-392.092	-84.386	0.338	-0.106
-391.077	800.000	-0.042	0.119
-390.063	659.117	0.174	0.445
-389.048	5.617	-0.335	-0.246
-388.033	153.840	0.748	-1.020
-387.019	-143.956	0.385	-0.036
-386.004	800.000	0.108	0.336
-384.990	35.909	-0.533	-0.466
-383.975	59.549	0.029	0.028
-382.960	28.429	0.374	-0.315
-381.946	-200.000	-0.037	-0.290
-380.931	-13.347	0.137	0.088
-379.917	800.000	-0.145	0.495
-378.902	-40.493	-0.467	-0.241
-377.888	-200.000	0.006	-0.472
-376.873	-80.831	-0.312	0.103
-375.858	800.000	-0.290	0.798
-374.844	-200.000	-0.069	-0.645
-373.829	96.745	0.382	-0.435
-372.815	-114.585	0.288	0.055
-371.800	-58.698	0.825	0.355
-370.785	103.081	-0.243	-0.284
-369.771	55.627	0.433	0.417
-368.756	101.410	0.344	0.399
-367.742	-64.698	-0.568	0.229
-366.727	-200.000	0.100	0.463
-365.712	-55.905	-0.592	-0.263
-364.698	-108.862	-0.568	0.121
-363.683	-52.457	0.875	-0.402
-362.669	28.539	-0.683	-0.575
-361.654	496.372	-0.211	0.483
-360.639	28.686	0.647	0.544
-359.625	-46.970	-0.528	0.256
-358.610	-121.218	-0.411	-0.068
-357.596	-38.622	-0.264	-0.139
-356.581	800.000	-0.123	-0.346
-355.566	-70.933	0.274	-0.102
-354.552	273.546	-0.284	0.499
-353.537	-99.287	-0.898	-0.225
-352.523	378.283	-0.242	0.491
-351.508	-156.288	0.495	0.031
-350.493	141.803	-0.343	-0.452
-349.479	-68.338	0.504	-0.195
-348.464	-200.000	-0.004	-0.414
-347.450	126.555	-0.352	0.443
-346.435	-9.018	0.443	0.295
-345.420	-96.697	-0.512	-0.134
-344.406	-145.774	0.825	-0.073
-343.391	45.687	-0.370	-0.339
-342.377	-24.715	0.666	-0.393
-341.362	218.346	0.295	-0.468
-340.348	-36.435	-0.175	0.094
-339.333	-88.210	0.398	0.118
-338.318	-200.000	0.055	1.073
-337.304	-200.000	0.109	0.690
-336.289	800.000	0.411	1.198
-335.275	-43.725	-0.219	-0.110
-334.260	169.289	0.232	0.328
-333.245	6.181	0.315	0.232
-332.231	-84.147	1.032	0.325
-331.216	-100.227	0.577	0.142
-330.202	-44.785	0.456	0.226
-329.187	115.889	-0.663	0.806
-328.172	-185.000	-0.343	-0.005
-327.158	346.230	-0.161	-0.314
-326.143	15.680	-0.427	0.333
-325.129	-131.527	-0.432	0.056
-324.114	-200.000	-0.013	0.401
-323.099	-127.191	0.276	0.040
-322.085	-93.000	-0.547	-0.152
-321.070	212.556	-0.242	0.379
-320.056	188.389	0.625	-0.928
-319.041	-120.889	0.226	-0.038
-318.026	-0.212	0.220	0.155
-317.012	-99.593	-0.336	0.084
-315.997	-98.791	-0.291	0.074
-314.983	99.149	0.317	-0.363
-313.968	-114.594	-1.161	-0.221
-312.953	84.703	0.375	-0.407
-311.939	-144.882	-0.478	0.043
-310.924	-5.139	0.481	0.328
-309.910	800.000	-0.359	1.061
-308.895	-200.000	0.087	-0.769
-307.880	800.000	0.269	-1.070
-306.866	453.518	-0.182	0.400
-305.851	19.005	0.467	-0.371
-304.837	568.673	0.621	1.498
-303.822	-102.896	0.734	0.173
-302.807	26.932	0.031	-0.026
-301.793	695.869	0.148	0.386
-300.778	-39.887	0.297	-0.154
-299.764	-200.000	0.009	0.194
-298.749	-75.653	0.566	-0.200
-297.735	-200.000	-0.203	-0.946
-296.720	-200.000	0.023	0.695
-295.705	143.655	0.303	-0.401
-294.691	-30.508	0.219	-0.123
-293.676	763.009	-0.137	0.369
-292.662	-165.144	-0.514	-0.023
-291.647	410.663	0.340	0.715
-290.632	-200.000	0.047	-0.620
-289.618	-200.000	0.003	-0.162
-288.603	-200.000	0.007	-0.470
-287.589	7.989	-0.581	0.432
-286.574	-200.000	0.064	0.587
-285.559	22.448	0.351	-0.284
-284.545	-38.112	-0.111	-0.058
-283.530	100.186	0.432	0.497
-282.516	800.000	0.168	-0.513
-281.501	800.000	0.070	0.193
-280.486	37.125	0.236	-0.207
-279.472	652.613	0.229	-0.582
-278.457	39.601	0.217	0.193
-277.443	275.821	-0.212	0.373
-276.428	800.000	-0.024	-0.092
-275.413	-200.000	-0.018	-0.180
-274.399	-164.712	0.509	0.023
-273.384	-5.006	-0.352	0.240
-272.370	62.899	-0.304	0.301
-271.355	37.233	0.157	-0.138
-270.340	-63.042	0.451	-0.184
-269.326	-115.810	0.460	-0.085
-268.311	-20.900	-0.694	0.421
-267.297	-63.588	-0.430	0.175
-266.282	-40.119	0.578	0.298
-265.267	179.005	0.464	-0.673
-264.253	-106.880	0.591	0.130
-263.238	800.000	-0.155	0.626
-262.224	19.641	0.656	-0.522
-261.209	-176.091	-0.874	-0.023
-260.195	-42.495	0.041	0.021
-259.180	-135.760	-0.190	-0.022
-258.165	-200.000	0.045	-0.313
-257.151	546.341	-0.198	0.468
-256.136	24.842	0.145	0.119
-255.122	-52.086	0.936	-0.430
-254.107	-78.498	0.509	0.172
-253.092	-21.095	-0.454	-0.275
-252.078	-116.314	0.248	-0.045
-251.063	800.000	0.072	0.213
-250.049	800.000	0.181	0.571
-249.034	338.183	0.350	0.674
-248.019	57.259	0.163	0.157
-247.005	525.738	0.186	-0.434
-245.990	-200.000	0.127	-0.643
-244.976	-86.405	0.255	-0.078
-243.961	800.000	-0.153	-0.635
-242.946	-200.000	-0.095	-0.864
-241.932	-200.000	0.017	0.290
-240.917	-93.286	0.135	-0.037
-239.903	-200.000	0.042	-0.605
-238.888	-113.685	-0.671	-0.129
-237.873	-200.000	0.025	0.378
-236.859	-92.728	0.307	-0.085
-235.844	800.000	0.068	-0.194
-234.830	800.000	0.052	0.195
-233.815	-200.000	0.173	-0.787
-232.800	-200.000	0.009	-0.074
-231.786	445.903	-0.204	-0.444
-230.771	524.399	-0.186	0.432
-229.757	84.077	0.464	0.501
-228.742	-200.000	0.008	-0.154
-227.727	-155.448	-0.697	0.045
-226.713	292.037	0.341	-0.613
-225.698	254.473	0.178	-0.302
-224.684	-53.915	0.917	0.413
-223.669	800.000	0.248	1.064
-222.655	253.902	0.532	0.898
-221.640	221.356	-0.536	0.852
-220.625	8.631	0.397	-0.296
-219.611	-156.146	0.451	0.028
-218.596	759.664	-0.238	-0.637
-217.582	131.508	-0.234	-0.298
-216.567	-200.000	0.009	-0.312
-215.552	88.969	0.632	0.695
-214.538	-139.347	-0.443	0.047
-213.523	-17.593	-0.593	-0.368
-212.509	-49.618	0.122	-0.057
-211.494	-64.180	-0.646	-0.260
-210.479	20.066	-0.086	-0.068
-209.465	-93.133	-0.299	-0.082
-208.450	42.985	0.302	0.272
-207.436	-200.000	0.037	-0.324
-206.421	93.366	0.262	0.293
-205.406	-127.257	0.214	0.031
-204.392	346.798	-0.275	-0.535
-203.377	-88.411	0.804	-0.237
-202.363	800.000	0.049	0.189
-201.348	800.000	0.111	0.458
-200.333	239.158	0.292	0.480
-199.319	77.127	0.070	0.073
-198.304	507.056	0.323	-0.741
-197.290	800.000	-0.096	0.279
-196.275	-99.573	-0.346	-0.086
-195.260	127.352	-0.532	0.667
-194.246	26.523	-0.125	0.103
-193.231	800.000	0.066	0.203
-192.217	-41.311	-0.087	0.044
-191.202	-94.110	-0.904	0.245
-190.187	-0.999	-0.630	0.440
-189.173	-88.907	-0.325	0.095
-188.158	-50.844	-0.646	0.300
-187.144	800.000	-0.110	-0.315
-186.129	-200.000	0.092	-0.689
-185.114	-80.123	0.091	0.030
-184.100	-61.077	1.025	0.427
-183.085	-112.205	0.284	0.056
-182.071	-1.724	0.221	-0.153
-181.056	-59.006	-0.919	-0.392
-180.042	118.620	-0.673	-0.820
-179.027	798.064	-0.290	0.790
-178.012	-27.247	0.508	-0.292
-176.998	144.812	0.402	-0.530
-175.983	699.529	0.259	0.672
-174.969	524.163	0.082	0.190
-173.954	-200.000	0.031	0.644
-172.939	-27.545	-0.490	-0.281
-171.925	-82.294	0.846	0.272
-170.910	785.708	-0.446	-1.206
-169.896	512.690	-0.192	-0.442
-168.881	165.730	-0.112	0.156
-167.866	6.876	-0.255	0.188
-166.852	-2.079	-0.564	0.391
-165.837	-74.955	-0.830	0.293
-164.823	-91.300	0.700	0.198
-163.808	-200.000	0.066	-0.364
-162.793	661.960	-0.260	-0.660
-161.779	689.678	0.185	0.477
-160.764	-35.636	-0.901	0.482
-159.750	-66.550	0.456	0.178
-158.735	399.826	0.304	-0.629
-157.720	127.873	0.161	0.202
-156.706	165.161	0.176	-0.245
-155.691	-200.000	0.028	-0.195
-154.677	-120.910	-0.709	-0.118
-153.662	58.770	-0.347	0.336
-152.647	335.006	-0.269	-0.513
-151.633	-200.000	0.116	-0.958
-150.618	99.395	-0.580	0.662
-149.604	438.394	0.121	0.261
-148.589	-161.811	-0.221	0.011
-147.574	-113.410	-0.310	0.060
-146.560	48.828	0.480	0.444
-145.545	-69.805	-1.016	0.382
-144.531	-91.579	-0.610	-0.171
-143.516	-42.319	0.209	-0.105
-142.502	-43.777	0.208	0.103
-141.487	-99.818	0.712	-0.176
-140.472	-136.148	0.880	-0.102
-139.458	376.002	-0.439	-0.882
-138.443	-160.377	-0.795	0.042
-137.429	46.572	-0.172	0.157
-136.414	3.538	-0.286	0.205
-135.399	33.298	0.481	0.411
-134.385	448.132	0.311	-0.674
-133.370	-200.000	-0.050	-0.961
-132.356	-35.727	-1.036	0.553
-131.341	800.000	-0.236	-0.738
-130.326	-200.000	0.053	-0.289
-129.312	-200.000	0.055	0.775
-128.297	-112.820	0.454	-0.089
-127.283	81.847	0.426	-0.454
-126.268	281.217	-0.247	0.436
-125.253	348.743	-0.299	-0.580
-124.239	65.874	-0.180	0.180
-123.224	-200.000	-0.208	-0.936
-122.210	296.135	-0.343	-0.620
-121.195	-23.283	0.963	-0.570
-120.180	800.000	-0.297	-1.009
