DTS Sentinel unit serial number:	SN413079Multiplexer serial number:	ORYXHardware model number:	OX4-SRSoftware version number:	ORYX F/W v4.00 Oryx Data Collector v3.7.2.0data status	okinstallation	princeton_trtdifferential loss correction	single-endedforward channel	channel 2reverse channel	N/Adate	2019/09/10time	16:17:11forward acquisition time	60.00reverse acquisition time	0.00gamma	496.2192k internal	0.2308k external	0.2308temperature offset calibration	0.9936default loss term (dB/km)	0.3790temperature slope calibration	1.0000multiplexer offset coefficient	1.0000multiplexer slope coefficient	1.0000fibre end	0.00T internal ref (°C)	38.25T ext. ref 1 (°C)	-0.27T ext. ref 2 (°C)	31.13length (m)	temperature (°C)	Stokes	anti-Stokes-747.200	-29.777	0.034	0.020
-746.185	-123.600	-0.251	-0.041
-745.171	739.805	0.181	-0.494
-744.156	107.497	0.136	0.164
-743.142	-181.267	-0.102	0.002
-742.127	671.596	0.152	-0.401
-741.112	59.950	0.209	-0.209
-740.098	-55.472	-0.253	0.115
-739.083	800.000	0.011	0.048
-738.069	-200.000	-0.003	-0.021
-737.054	-87.800	0.248	-0.076
-736.039	-112.596	-0.458	0.093
-735.025	-200.000	-0.030	0.409
-734.010	-72.078	-0.175	-0.066
-732.996	51.245	0.019	0.018
-731.981	146.184	-0.254	0.347
-730.966	47.839	0.018	-0.017
-729.952	372.922	-0.144	-0.297
-728.937	-5.857	-0.160	-0.111
-727.923	800.000	-0.069	0.216
-726.908	185.207	-0.043	-0.065
-725.894	417.915	0.081	-0.176
-724.879	323.359	0.052	0.100
-723.864	-37.940	-0.302	0.163
-722.850	-200.000	-0.022	0.178
-721.835	-127.545	-0.398	0.059
-720.821	503.712	0.051	-0.119
-719.806	-40.769	0.325	-0.171
-718.791	-189.549	-0.024	0.000
-717.777	-62.734	0.210	-0.088
-716.762	800.000	-0.100	-0.324
-715.748	-156.654	-0.119	0.007
-714.733	151.050	0.172	-0.238
-713.718	-84.851	-0.268	0.085
-712.704	-96.280	-0.403	-0.108
-711.689	-81.198	-0.324	0.109
-710.675	-97.630	0.235	0.062
-709.660	-137.388	-0.044	-0.005
-708.645	-145.162	-0.264	-0.024
-707.631	208.954	0.180	-0.286
-706.616	159.700	0.185	0.261
-705.602	178.805	0.098	-0.146
-704.587	294.526	-0.164	-0.305
-703.572	87.631	-0.216	0.243
-702.558	27.896	-0.124	0.106
-701.543	-134.375	-0.034	-0.004
-700.529	14.298	-0.089	0.070
-699.514	-69.881	-0.569	-0.220
-698.499	408.391	-0.158	0.340
-697.485	73.487	0.182	-0.193
-696.470	-169.833	0.130	0.005
-695.456	-85.663	0.096	-0.030
-694.441	670.231	-0.102	-0.268
-693.426	-167.540	0.280	0.011
-692.412	-40.137	-0.278	-0.147
-691.397	295.189	-0.180	-0.335
-690.383	-200.000	0.013	-0.255
-689.368	800.000	0.134	-0.403
-688.354	-200.000	-0.032	-0.175
-687.339	-200.000	0.075	0.355
-686.324	-144.826	0.033	0.003
-685.310	-127.093	-0.408	-0.061
-684.295	-200.000	0.049	-0.223
-683.281	800.000	0.168	-0.500
-682.266	544.040	0.108	-0.261
-681.251	-70.078	-0.092	-0.035
-680.237	-200.000	0.078	-0.354
-679.222	42.570	0.141	-0.130
-678.208	-111.335	0.325	-0.067
-677.193	431.351	-0.052	-0.115
-676.178	14.150	0.195	-0.154
-675.164	800.000	-0.030	-0.101
-674.149	-200.000	-0.011	-0.184
-673.135	24.320	0.129	0.108
-672.120	490.444	0.018	0.042
-671.105	-131.345	0.099	-0.013
-670.091	-122.821	0.084	0.014
-669.076	62.514	-0.297	0.301
-668.062	493.377	0.171	0.397
-667.047	-200.000	0.006	0.393
-666.032	-89.666	-0.083	0.025
-665.018	78.653	0.164	0.178
-664.003	-44.200	0.172	0.087
-662.989	692.992	-0.094	-0.250
-661.974	361.298	0.067	0.137
-660.959	8.383	0.066	0.050
-659.945	800.000	0.023	-0.091
-658.930	339.256	0.078	-0.153
-657.916	-200.000	-0.008	-0.159
-656.901	800.000	0.108	0.338
-655.886	445.673	-0.089	-0.197
-654.872	800.000	0.022	-0.090
-653.857	-55.974	0.346	0.156
-652.843	-161.398	-0.367	0.019
-651.828	21.969	-0.115	-0.095
-650.814	-200.000	-0.009	-0.067
-649.799	-200.000	0.015	-0.251
-648.784	-17.951	0.175	-0.111
-647.770	-200.000	0.045	0.207
-646.755	-103.566	-0.266	-0.063
-645.741	66.699	0.253	-0.260
-644.726	76.101	-0.102	0.110
-643.711	659.764	-0.102	-0.267
-642.697	-151.617	0.215	-0.016
-641.682	-148.265	-0.192	0.016
-640.668	-121.131	0.126	0.021
-639.653	173.338	-0.107	-0.156
-638.638	18.276	-0.041	0.033
-637.624	68.326	0.285	0.295
-636.609	-69.205	0.281	-0.109
-635.595	-7.309	0.209	-0.144
-634.580	800.000	-0.103	-0.314
-633.565	59.726	-0.095	0.095
-632.551	64.288	0.221	-0.225
-631.536	419.528	-0.131	-0.284
-630.522	192.267	0.265	0.404
-629.507	800.000	0.072	0.270
-628.492	393.018	0.033	0.070
-627.478	-149.651	0.062	-0.005
-626.463	536.286	-0.079	-0.191
-625.449	413.906	0.071	-0.153
-624.434	41.138	0.108	-0.099
-623.419	418.521	0.094	0.204
-622.405	800.000	0.092	-0.260
-621.390	-81.936	0.277	0.092
-620.376	26.521	0.363	0.307
-619.361	-200.000	-0.020	-0.288
-618.346	114.170	0.237	0.292
-617.332	9.522	-0.184	0.141
-616.317	164.959	-0.135	-0.193
-615.303	-19.027	0.177	0.111
-614.288	-28.658	-0.149	0.087
-613.273	-24.856	0.113	-0.068
-612.259	-200.000	0.011	-0.225
-611.244	184.307	-0.133	0.199
-610.230	-40.221	0.067	0.036
-609.215	284.998	0.097	0.177
-608.201	8.874	-0.120	-0.091
-607.186	102.059	0.095	0.112
-606.171	-47.095	0.155	0.076
-605.157	403.750	-0.201	-0.428
-604.142	-200.000	-0.044	-0.324
-603.128	-81.910	0.402	-0.133
-602.113	800.000	0.020	-0.073
-601.098	48.480	-0.164	0.155
-600.084	181.554	-0.042	-0.062
-599.069	-200.000	0.016	0.148
-598.055	173.429	-0.127	-0.185
-597.040	-22.603	0.046	0.028
-596.025	-93.577	-0.302	-0.084
-595.011	-58.550	0.099	-0.043
-593.996	19.985	0.253	0.207
-592.982	77.106	-0.250	-0.269
-591.967	-95.503	0.151	0.041
-590.952	459.430	0.085	-0.191
-589.938	800.000	-0.131	0.392
-588.923	356.390	0.058	0.117
-587.909	800.000	0.041	-0.115
-586.894	76.245	-0.054	-0.058
-585.879	-50.773	0.060	0.029
-584.865	-200.000	-0.043	0.415
-583.850	-162.284	-0.281	-0.014
-582.836	-165.902	-0.184	0.008
-581.821	-74.247	0.208	0.076
-580.806	136.168	0.122	0.161
-579.792	-200.000	-0.006	-0.094
-578.777	61.143	-0.173	-0.173
-577.763	-93.160	-0.110	0.031
-576.748	-95.759	-0.099	0.027
-575.733	212.299	0.133	-0.212
-574.719	-165.453	-0.090	0.004
-573.704	49.199	-0.270	0.256
-572.690	-94.049	-0.339	-0.094
-571.675	6.975	0.236	-0.177
-570.661	-142.181	-0.354	0.035
-569.646	800.000	-0.098	-0.304
-568.631	-8.891	-0.226	-0.153
-567.617	128.029	0.135	0.173
-566.602	194.077	-0.237	0.362
-565.588	103.508	-0.126	0.149
-564.573	327.337	0.088	0.169
-563.558	-76.409	0.235	-0.084
-562.544	302.937	-0.177	-0.330
-561.529	86.029	0.169	-0.188
-560.515	-94.779	-0.216	-0.059
-559.500	-51.884	-0.212	0.100
-558.485	-30.370	-0.310	-0.178
-557.471	800.000	-0.092	-0.303
-556.456	298.605	-0.115	-0.213
-555.442	-4.251	0.091	-0.064
-554.427	-136.535	0.170	0.020
-553.412	394.423	-0.073	-0.153
-552.398	-200.000	0.053	0.346
-551.383	24.305	0.156	-0.130
-550.369	162.156	-0.048	-0.068
-549.354	800.000	-0.095	-0.293
-548.339	245.665	-0.224	-0.380
-547.325	-200.000	0.003	-0.105
-546.310	112.523	0.170	0.207
-545.296	-171.039	-0.314	-0.011
-544.281	-92.645	-0.155	-0.044
-543.266	175.722	-0.047	0.068
-542.252	800.000	0.070	0.274
-541.237	-136.741	-0.085	-0.010
-540.223	-29.365	0.053	-0.030
-539.208	184.304	0.066	-0.099
-538.193	-45.426	0.316	-0.158
-537.179	49.326	0.136	-0.129
-536.164	800.000	-0.080	0.264
-535.150	126.120	-0.230	0.293
-534.135	377.715	-0.053	-0.110
-533.121	-30.633	-0.237	-0.135
-532.106	145.660	-0.094	0.126
-531.091	403.749	-0.054	0.114
-530.077	-35.385	-0.298	-0.163
-529.062	-155.530	-0.346	-0.022
-528.048	200.838	-0.047	0.073
-527.033	-21.944	-0.038	0.023
-526.018	150.558	-0.040	-0.055
-525.004	300.457	-0.019	-0.034
-523.989	342.029	0.041	0.081
-522.975	188.344	-0.042	-0.064
-521.960	-200.000	0.028	-0.140
-520.945	-200.000	-0.003	-0.020
-519.931	-179.758	-0.074	0.002
-518.916	-57.843	-0.175	0.077
-517.902	-112.703	-0.062	0.012
-516.887	800.000	-0.107	-0.340
-515.872	-86.324	0.123	-0.038
-514.858	25.075	-0.282	0.236
-513.843	-200.000	-0.005	-0.140
-512.829	389.496	0.093	-0.193
-511.814	-62.896	0.072	0.030
-510.799	-118.356	-0.068	0.012
-509.785	74.348	-0.128	-0.136
-508.770	-200.000	0.015	-0.084
-507.756	542.201	-0.053	-0.128
-506.741	246.192	-0.087	0.148
-505.726	-200.000	-0.037	-0.185
-504.712	-200.000	-0.014	-0.137
-503.697	30.583	0.078	-0.067
-502.683	-63.361	0.211	-0.088
-501.668	18.094	0.277	-0.223
-500.653	231.120	0.253	0.418
-499.639	-200.000	-0.039	0.262
-498.624	-200.000	0.016	0.182
-497.610	-12.375	0.137	0.090
-496.595	313.305	-0.041	-0.077
-495.581	-148.705	0.114	0.009
-494.566	-63.937	-0.469	0.193
-493.551	-200.000	-0.031	-0.172
-492.537	250.743	-0.122	-0.208
-491.522	-200.000	-0.013	0.083
-490.508	-91.336	-0.074	-0.021
-489.493	-21.499	-0.104	0.064
-488.478	-200.000	-0.058	0.367
-487.464	-200.000	-0.011	0.256
-486.449	-200.000	-0.008	-0.058
-485.435	-170.770	0.193	-0.007
-484.420	-200.000	-0.051	-0.233
-483.405	-118.220	0.369	-0.066
-482.391	-51.411	0.117	-0.055
-481.376	574.499	-0.135	-0.332
-480.362	160.325	0.198	-0.278
-479.347	-103.831	0.211	-0.050
-478.332	260.040	-0.158	0.274
-477.318	-175.913	-0.095	-0.003
-476.303	800.000	-0.046	-0.183
-475.289	93.540	0.093	0.106
-474.274	-200.000	0.000	-0.198
-473.259	-160.765	0.286	0.015
-472.245	-0.790	-0.200	0.143
-471.230	143.922	0.103	0.138
-470.216	217.750	-0.176	-0.283
-469.201	147.863	-0.355	0.481
-468.186	-104.746	0.068	-0.016
-467.172	63.935	0.293	-0.296
-466.157	-7.192	0.280	-0.191
-465.143	30.959	-0.071	0.061
-464.128	-105.763	-0.392	0.089
-463.113	-200.000	0.007	0.082
-462.099	-192.056	0.114	0.001
-461.084	-76.221	0.189	0.067
-460.070	-200.000	-0.003	-0.025
-459.055	232.741	0.128	-0.211
-458.040	477.049	0.107	0.244
-457.026	-141.741	-0.066	0.007
-456.011	0.593	-0.113	-0.081
-454.997	-200.000	-0.004	-0.091
-453.982	-95.201	-0.419	0.113
-452.968	-15.011	0.264	0.170
-451.953	-200.000	0.009	-0.348
-450.938	-200.000	0.009	-0.443
-449.924	124.706	0.136	0.172
-448.909	106.455	0.220	-0.262
-447.895	7.280	-0.081	0.060
-446.880	105.735	-0.160	-0.190
-445.865	176.183	0.003	0.005
-444.851	-12.591	0.232	0.152
-443.836	64.462	-0.089	-0.090
-442.822	34.372	-0.125	-0.109
-441.807	-68.174	0.231	-0.090
-440.792	232.552	-0.070	-0.115
-439.778	-200.000	-0.003	0.330
-438.763	-200.000	-0.023	-0.182
-437.749	166.761	0.069	-0.098
-436.734	-11.228	0.198	0.131
-435.719	11.141	0.372	0.286
-434.705	230.079	0.143	-0.236
-433.690	-155.745	0.391	-0.025
-432.676	197.834	-0.136	0.208
-431.661	-73.812	0.046	-0.017
-430.646	-59.745	0.306	-0.132
-429.632	-15.107	-0.196	-0.126
-428.617	-97.641	0.115	0.030
-427.603	-9.688	0.077	-0.052
-426.588	-63.805	0.248	-0.102
-425.573	-90.161	0.254	-0.074
-424.559	800.000	0.130	0.415
-423.544	128.012	-0.121	-0.155
-422.530	-200.000	-0.007	0.060
-421.515	9.000	0.332	0.252
-420.500	800.000	-0.084	-0.341
-419.486	137.743	-0.150	0.197
-418.471	420.621	0.116	0.250
-417.457	717.376	0.083	0.222
-416.442	18.337	-0.322	0.258
-415.428	10.225	-0.072	0.055
-414.413	-110.276	0.248	0.052
-413.398	-200.000	0.056	0.250
-412.384	-124.305	-0.107	-0.017
-411.369	-104.380	-0.088	-0.021
-410.355	-123.691	0.355	0.056
-409.340	105.361	0.062	0.074
-408.325	800.000	-0.012	-0.036
-407.311	463.697	0.097	-0.217
-406.296	-21.473	-0.116	-0.071
-405.282	265.120	-0.105	-0.183
-404.267	289.914	-0.099	-0.179
-403.252	-115.989	-0.188	-0.035
-402.238	-22.120	-0.235	-0.143
-401.223	122.545	0.083	0.104
-400.209	237.662	-0.075	-0.124
-399.194	-2.327	-0.343	-0.241
-398.179	364.726	0.032	0.065
-397.165	177.009	-0.066	0.096
-396.150	70.133	-0.139	0.144
-395.136	-200.000	0.030	0.163
-394.121	7.076	0.284	0.213
-393.106	-91.811	-0.524	0.149
-392.092	157.543	-0.216	-0.300
-391.077	-200.000	-0.038	0.233
-390.063	-145.738	-0.189	-0.017
-389.048	-200.000	0.019	0.213
-388.033	-200.000	-0.029	0.292
-387.019	147.157	-0.055	-0.074
-386.004	-187.430	-0.351	0.005
-384.990	-33.572	-0.246	0.136
-383.975	-135.890	0.094	0.011
-382.960	61.651	0.151	-0.151
-381.946	-104.007	-0.347	-0.081
-380.931	8.351	0.162	0.122
-379.917	800.000	0.061	0.221
-378.902	-36.637	0.339	-0.182
-377.888	-200.000	-0.016	0.523
-376.873	24.741	0.587	0.487
-375.858	206.835	0.075	0.118
-374.844	82.984	0.022	-0.024
-373.829	296.472	-0.084	-0.154
-372.815	-43.843	-0.173	-0.087
-371.800	-66.951	-0.127	-0.050
-370.785	179.815	-0.210	-0.308
-369.771	176.285	0.023	-0.034
-368.756	-200.000	0.006	-0.111
-367.742	-161.145	0.261	-0.014
-366.727	-35.746	0.231	-0.125
-365.712	-87.830	-0.360	-0.109
-364.698	371.439	-0.025	-0.050
-363.683	-178.104	-0.331	0.008
-362.669	-107.273	0.037	-0.008
-361.654	-132.691	0.124	0.016
-360.639	654.085	-0.128	0.328
-359.625	800.000	-0.098	-0.318
-358.610	-49.821	-0.034	-0.016
-357.596	61.688	0.012	-0.012
-356.581	-200.000	0.013	-0.238
-355.566	800.000	-0.062	-0.182
-354.552	-52.168	-0.484	0.225
-353.537	20.414	-0.145	0.117
-352.523	-91.395	0.222	0.064
-351.508	88.060	-0.092	-0.102
-350.493	-63.463	0.257	0.106
-349.479	21.628	0.159	-0.130
-348.464	-63.432	-0.536	-0.221
-347.450	-52.660	-0.221	-0.102
-346.435	640.798	0.088	0.224
-345.420	23.775	0.343	0.283
-344.406	800.000	0.098	-0.277
-343.391	-88.813	0.181	0.054
-342.377	-33.256	0.188	-0.104
-341.362	126.880	0.088	0.112
-340.348	-131.554	0.147	0.019
-339.333	-148.440	0.224	0.018
-338.318	-200.000	-0.012	0.230
-337.304	-64.077	-0.494	0.202
-336.289	800.000	0.051	0.149
-335.275	354.153	0.197	-0.391
-334.260	-200.000	-0.019	0.192
-333.245	-153.216	-0.166	-0.012
-332.231	-33.194	0.346	-0.192
-331.216	-149.705	0.588	0.046
-330.202	-16.180	-0.212	-0.135
-329.187	-74.854	0.111	0.040
-328.172	123.925	0.262	0.329
-327.158	-121.133	-0.152	-0.025
-326.143	-200.000	-0.006	-0.096
-325.129	464.958	0.130	0.291
-324.114	-7.368	0.387	0.262
-323.099	800.000	-0.034	-0.127
-322.085	94.909	-0.404	0.459
-321.070	-68.812	0.276	0.107
-320.056	-200.000	-0.022	0.117
-319.041	78.796	-0.165	0.176
-318.026	-24.845	-0.152	0.090
-317.012	134.287	-0.075	-0.098
-315.997	800.000	0.108	-0.356
-314.983	213.714	0.202	-0.320
-313.968	-87.878	-0.268	0.081
-312.953	-200.000	0.041	0.276
-311.939	-200.000	-0.025	-0.415
-310.924	800.000	-0.087	0.301
-309.910	800.000	0.037	-0.132
-308.895	-145.189	-0.193	0.017
-307.880	800.000	-0.004	-0.015
-306.866	-54.956	-0.045	0.020
-305.851	-39.428	0.316	0.166
-304.837	800.000	-0.109	0.411
-303.822	-46.439	-0.253	0.124
-302.807	-19.154	-0.051	0.032
-301.793	10.685	-0.051	0.039
-300.778	-75.239	-0.240	-0.086
-299.764	-200.000	-0.071	0.365
-298.749	-4.593	-0.199	-0.137
-297.735	-157.426	-0.364	-0.022
-296.720	-124.551	0.221	0.034
-295.705	11.090	0.199	-0.152
-294.691	-200.000	-0.023	0.370
-293.676	-121.127	0.195	-0.033
-292.662	144.411	-0.045	0.060
-291.647	245.482	0.061	0.103
-290.632	-139.544	-0.018	0.002
-289.618	74.483	-0.088	0.092
-288.603	109.030	0.057	-0.068
-287.589	62.006	0.145	-0.144
-286.574	-200.000	0.039	0.459
-285.559	359.912	-0.114	0.229
-284.545	-32.169	-0.191	-0.107
-283.530	-200.000	-0.043	0.277
-282.516	-86.361	0.103	-0.032
-281.501	-153.495	0.288	-0.020
-280.486	-200.000	-0.053	0.473
-279.472	290.554	-0.067	0.121
-278.457	-159.225	0.114	-0.006
-277.443	-200.000	-0.007	0.091
-276.428	-20.017	-0.118	-0.072
-275.413	127.907	-0.070	-0.088
-274.399	800.000	-0.049	-0.193
-273.384	-96.538	0.200	0.053
-272.370	14.813	-0.108	-0.084
-271.355	-0.458	-0.264	-0.187
-270.340	-23.036	0.206	0.124
-269.326	332.246	-0.112	-0.216
-268.311	-17.047	-0.146	0.092
-267.297	-70.682	-0.225	0.085
-266.282	-200.000	-0.015	-0.660
-265.267	-105.142	0.182	-0.041
-264.253	100.285	-0.108	0.126
-263.238	270.416	0.145	-0.254
-262.224	-200.000	-0.019	-0.294
-261.209	12.266	-0.334	-0.257
-260.195	-108.468	-0.030	0.006
-259.180	-14.188	-0.069	0.044
-258.165	800.000	-0.057	-0.230
-257.151	322.733	-0.180	-0.341
-256.136	11.507	0.100	0.076
-255.122	233.021	0.186	-0.305
-254.107	-135.937	-0.269	-0.032
-253.092	-3.542	0.104	0.072
-252.078	-121.364	0.063	0.011
-251.063	-200.000	0.017	0.315
-250.049	-139.508	0.327	-0.035
-249.034	205.181	-0.075	0.116
-248.019	-200.000	-0.025	-0.299
-247.005	-52.188	-0.221	0.102
-245.990	48.625	-0.081	0.076
-244.976	-200.000	-0.025	0.278
-243.961	157.696	0.139	0.192
-242.946	279.199	0.026	-0.047
-241.932	22.857	0.124	-0.101
-240.917	216.494	-0.256	-0.405
-239.903	145.531	0.111	-0.148
-238.888	-200.000	-0.007	-0.045
-237.873	-183.860	0.089	-0.002
-236.859	-200.000	-0.069	-0.336
-235.844	20.624	0.354	0.285
-234.830	-139.469	-0.298	-0.032
-233.815	-15.948	0.076	0.048
-232.800	-200.000	0.064	0.293
-231.786	235.747	0.147	-0.242
-230.771	-74.099	0.200	0.072
-229.757	-21.392	-0.094	-0.057
-228.742	-11.276	0.092	-0.060
-227.727	-200.000	-0.042	-0.293
-226.713	800.000	0.035	-0.096
-225.698	-52.787	0.143	0.066
-224.684	37.210	0.178	-0.157
-223.669	-145.647	-0.155	-0.014
-222.655	120.071	0.257	0.317
-221.640	-111.597	-0.066	-0.013
-220.625	-200.000	-0.043	-0.431
-219.611	-200.000	-0.023	0.130
-218.596	-151.941	-0.272	-0.020
-217.582	-19.818	0.079	0.049
-216.567	-200.000	0.006	-0.046
-215.552	594.844	-0.128	0.315
-214.538	-200.000	-0.079	0.403
-213.523	-200.000	-0.043	-0.273
-212.509	-24.206	0.250	-0.149
-211.494	168.436	-0.115	-0.164
-210.479	-200.000	0.006	0.103
-209.465	800.000	0.066	0.205
-208.450	242.450	-0.159	-0.265
-207.436	396.833	0.128	0.267
-206.421	-200.000	-0.045	0.431
-205.406	211.473	-0.129	-0.202
-204.392	800.000	0.046	-0.192
-203.377	-200.000	-0.006	-0.145
-202.363	-200.000	-0.012	-0.202
-201.348	-45.624	0.293	0.144
-200.333	88.376	0.223	0.247
-199.319	-200.000	0.019	-0.167
-198.304	538.540	-0.112	-0.266
-197.290	132.224	-0.120	0.154
-196.275	-40.985	0.119	0.061
-195.260	800.000	-0.045	0.150
-194.246	-20.814	-0.080	0.049
-193.231	187.738	-0.147	0.219
-192.217	322.380	0.144	-0.273
-191.202	-63.058	0.331	0.136
-190.187	-107.254	0.284	0.062
-189.173	421.989	0.104	-0.222
-188.158	646.557	-0.039	-0.100
-187.144	-48.381	0.152	0.073
-186.129	43.694	0.209	-0.190
-185.114	163.545	0.140	-0.196
-184.100	215.076	0.239	0.376
-183.085	-129.945	-0.317	0.043
-182.071	-47.811	0.044	-0.021
-181.056	-200.000	-0.010	-0.235
-180.042	63.901	0.159	0.159
-179.027	-92.923	-0.270	0.075
-178.012	-200.000	-0.003	0.135
-176.998	-87.163	-0.120	-0.036
-175.983	-200.000	-0.022	-0.405
-174.969	194.179	0.177	0.267
-173.954	202.604	0.288	0.442
-172.939	-108.815	-0.358	0.076
-171.925	123.171	-0.114	0.143
-170.910	6.904	0.311	-0.230
-169.896	-200.000	0.017	-0.094
-168.881	-60.844	-0.149	0.063
-167.866	-200.000	-0.020	0.143
-166.852	-28.008	0.312	0.179
-165.837	-200.000	-0.014	0.280
-164.823	-62.601	-0.362	0.149
-163.808	-115.154	-0.373	0.070
-162.793	-39.370	0.238	0.124
-161.779	52.407	0.185	0.175
-160.764	383.416	0.037	0.075
-159.750	-50.593	-0.206	-0.096
-158.735	-64.422	-0.172	0.070
-157.720	-104.098	0.213	0.049
-156.706	236.825	-0.123	0.202
-155.691	163.798	0.101	-0.141
-154.677	782.337	0.103	-0.280
-153.662	-200.000	0.016	0.123
-152.647	235.209	-0.103	-0.168
-151.633	-200.000	-0.032	0.188
-150.618	-69.955	-0.163	0.062
-149.604	142.900	-0.129	0.170
-148.589	-130.635	-0.140	-0.019
-147.574	32.409	0.093	0.080
-146.560	189.314	-0.082	0.121
-145.545	-77.400	0.186	-0.064
-144.531	46.896	0.268	-0.248
-143.516	-200.000	0.056	-0.360
-142.502	800.000	-0.055	0.212
-141.487	-200.000	0.001	-0.218
-140.472	-83.187	-0.217	0.069
-139.458	-12.419	-0.190	-0.123
-138.443	-94.748	0.206	0.055
-137.429	-50.313	0.072	0.034
-136.414	-158.024	0.251	0.015
-135.399	113.214	0.108	-0.130
-134.385	564.460	0.075	-0.180
-133.370	657.965	-0.116	0.295
-132.356	33.872	-0.139	-0.120
-131.341	-55.827	0.136	-0.060
-130.326	-39.295	-0.011	0.006
-129.312	-99.447	-0.247	-0.062
-128.297	800.000	0.019	0.057
-127.283	-12.948	-0.259	0.167
-126.268	178.374	-0.131	-0.190
-125.253	86.385	0.094	0.103
-124.239	51.510	-0.115	-0.109
-123.224	677.906	-0.063	-0.162
-122.210	26.315	0.099	-0.082
