DTS Sentinel unit serial number:	SN413079Multiplexer serial number:	ORYXHardware model number:	OX4-SRSoftware version number:	ORYX F/W v4.00 Oryx Data Collector v3.7.2.0data status	okinstallation	princeton_trtdifferential loss correction	single-endedforward channel	channel 2reverse channel	N/Adate	2019/09/11time	09:41:10forward acquisition time	60.00reverse acquisition time	0.00gamma	496.2192k internal	0.2316k external	0.2316temperature offset calibration	0.9967default loss term (dB/km)	0.3790temperature slope calibration	1.0000multiplexer offset coefficient	1.0000multiplexer slope coefficient	1.0000fibre end	0.00T internal ref (°C)	34.87T ext. ref 1 (°C)	0.13T ext. ref 2 (°C)	31.31length (m)	temperature (°C)	Stokes	anti-Stokes-747.200	624.435	-0.045	0.115
-746.185	78.800	-0.335	0.363
-745.171	800.000	-0.062	-0.179
-744.156	11.675	-0.091	0.071
-743.142	800.000	-0.042	0.180
-742.127	-200.000	-0.092	0.485
-741.112	122.021	-0.137	0.174
-740.098	271.895	-0.070	0.124
-739.083	-66.416	-0.205	0.083
-738.069	7.271	-0.018	-0.014
-737.054	800.000	0.072	0.233
-736.039	-12.406	-0.180	-0.119
-735.025	800.000	-0.080	0.273
-734.010	136.850	0.014	0.019
-732.996	-200.000	0.024	-0.242
-731.981	9.426	-0.078	-0.060
-730.966	22.961	0.234	0.194
-729.952	-91.350	-0.148	0.043
-728.937	-112.072	0.231	0.047
-727.923	94.266	-0.071	0.081
-726.908	-112.395	-0.277	-0.056
-725.894	19.601	0.077	-0.062
-724.879	474.784	0.106	-0.242
-723.864	57.399	0.154	-0.152
-722.850	317.113	0.030	-0.058
-721.835	-84.736	0.113	0.036
-720.821	-91.938	-0.055	0.016
-719.806	623.258	0.124	0.315
-718.791	-53.252	-0.402	-0.187
-717.777	-134.670	-0.181	-0.022
-716.762	-200.000	0.023	-0.112
-715.748	-21.407	-0.332	-0.205
-714.733	27.626	-0.248	0.211
-713.718	-155.533	-0.056	0.004
-712.704	157.261	-0.098	-0.138
-711.689	800.000	0.039	0.110
-710.675	110.095	0.232	-0.282
-709.660	53.395	0.177	-0.172
-708.645	-185.637	-0.320	-0.005
-707.631	800.000	-0.086	0.363
-706.616	800.000	0.079	-0.315
-705.602	560.903	-0.077	-0.188
-704.587	76.290	0.100	-0.108
-703.572	-200.000	-0.055	0.338
-702.558	-200.000	0.015	-0.370
-701.543	-200.000	0.002	0.046
-700.529	20.042	0.207	-0.169
-699.514	112.182	-0.236	-0.288
-698.499	-105.564	0.398	-0.091
-697.485	342.109	-0.110	0.217
-696.470	-200.000	-0.029	0.228
-695.456	453.818	-0.105	0.235
-694.441	-37.708	0.099	0.053
-693.426	-112.782	0.079	-0.016
-692.412	147.226	0.061	-0.083
-691.397	-55.991	-0.179	-0.081
-690.383	203.486	-0.200	-0.313
-689.368	695.611	0.049	-0.129
-688.354	-125.878	0.287	-0.044
-687.339	-200.000	-0.011	-0.182
-686.324	-101.364	0.239	-0.059
-685.310	-200.000	0.015	-0.238
-684.295	14.507	0.124	0.098
-683.281	-200.000	0.009	0.104
-682.266	-200.000	-0.010	-0.178
-681.251	-23.721	0.264	-0.160
-680.237	-200.000	-0.020	0.112
-679.222	-131.231	0.289	-0.039
-678.208	-200.000	-0.003	-0.072
-677.193	-52.774	-0.340	-0.159
-676.178	181.601	0.059	0.087
-675.164	255.142	0.137	0.238
-674.149	-200.000	0.053	-0.383
-673.135	-200.000	0.025	0.255
-672.120	-14.276	-0.182	-0.119
-671.105	800.000	0.009	0.031
-670.091	244.703	0.054	0.091
-669.076	800.000	-0.046	0.137
-668.062	-17.884	-0.198	0.125
-667.047	-154.186	-0.285	-0.019
-666.032	21.479	0.172	0.141
-665.018	-85.653	0.286	-0.090
-664.003	352.114	0.043	0.086
-662.989	597.108	0.093	-0.232
-661.974	334.376	0.055	-0.108
-660.959	465.389	-0.095	-0.214
-659.945	197.093	0.081	0.124
-658.930	-113.034	0.134	0.027
-657.916	145.495	0.258	-0.349
-656.901	-16.877	0.295	0.188
-655.886	-158.673	-0.174	-0.010
-654.872	800.000	0.103	0.381
-653.857	-200.000	0.103	-0.510
-652.843	-200.000	-0.019	-0.102
-651.828	-161.317	0.145	0.008
-650.814	800.000	0.038	-0.149
-649.799	-200.000	0.030	0.212
-648.784	-59.125	-0.211	-0.092
-647.770	-20.812	-0.058	-0.036
-646.755	-69.778	-0.115	0.044
-645.741	-5.602	-0.166	-0.115
-644.726	-91.111	0.123	-0.035
-643.711	-183.872	0.339	-0.006
-642.697	98.751	-0.120	-0.139
-641.682	-83.010	0.355	-0.115
-640.668	-58.021	0.272	-0.120
-639.653	-200.000	-0.010	-0.161
-638.638	-148.958	0.178	0.014
-637.624	-200.000	0.050	0.277
-636.609	8.320	0.155	-0.118
-635.595	-200.000	0.029	-0.315
-634.580	-131.412	0.093	-0.012
-633.565	-66.310	-0.231	-0.093
-632.551	-115.737	0.110	-0.021
-631.536	-200.000	0.029	-0.328
-630.522	308.352	0.110	-0.207
-629.507	78.281	0.109	0.117
-628.492	-200.000	0.018	0.117
-627.478	112.363	-0.119	-0.145
-626.463	-131.908	0.195	0.026
-625.449	800.000	-0.048	-0.140
-624.434	800.000	0.126	-0.352
-623.419	-3.982	-0.152	-0.106
-622.405	191.628	0.074	0.112
-621.390	-111.727	0.536	0.109
-620.376	111.820	0.176	-0.214
-619.361	-38.264	-0.194	-0.103
-618.346	385.415	-0.124	-0.258
-617.332	-200.000	-0.035	0.163
-616.317	132.819	-0.143	0.186
-615.303	-132.367	0.164	-0.021
-614.288	190.690	0.072	-0.109
-613.273	60.678	-0.233	-0.232
-612.259	40.431	0.305	0.276
-611.244	-34.624	-0.444	-0.245
-610.230	-200.000	-0.006	0.069
-609.215	-27.085	-0.185	0.109
-608.201	800.000	0.069	0.240
-607.186	-139.739	-0.259	-0.028
-606.171	-70.544	-0.142	-0.054
-605.157	28.110	-0.174	-0.148
-604.142	-0.378	0.115	-0.082
-603.128	-200.000	-0.053	-0.398
-602.113	331.362	0.154	0.298
-601.098	-54.052	-0.027	-0.012
-600.084	-86.613	-0.267	0.082
-599.069	154.993	0.172	-0.239
-598.055	-35.092	0.093	0.051
-597.040	398.930	0.030	-0.064
-596.025	-2.242	-0.165	-0.117
-595.011	-37.252	0.068	0.036
-593.996	579.610	-0.069	-0.170
-592.982	137.839	-0.053	-0.070
-591.967	192.200	-0.159	-0.242
-590.952	-90.213	-0.379	-0.111
-589.938	-200.000	0.011	-0.137
-588.923	-102.377	-0.308	0.074
-587.909	680.272	-0.234	-0.612
-586.894	-157.200	0.143	0.009
-585.879	16.763	-0.192	0.153
-584.865	127.179	-0.181	0.231
-583.850	159.905	-0.280	-0.392
-582.836	149.746	-0.272	0.371
-581.821	-143.276	0.302	0.029
-580.806	-200.000	0.137	0.630
-579.792	800.000	0.103	0.383
-578.777	800.000	0.087	0.245
-577.763	294.740	0.127	-0.233
-576.748	-60.696	0.103	-0.044
-575.733	-159.010	-0.279	-0.016
-574.719	-200.000	-0.052	0.330
-573.704	-3.164	-0.267	0.188
-572.690	-200.000	-0.047	0.420
-571.675	-179.118	-0.305	-0.007
-570.661	-47.397	0.202	-0.099
-569.646	-200.000	-0.045	0.256
-568.631	-120.309	-0.184	0.032
-567.617	-33.753	0.205	-0.114
-566.602	16.035	-0.233	-0.185
-565.588	64.012	0.076	-0.077
-564.573	6.759	-0.034	0.025
-563.558	-109.834	-0.368	0.078
-562.544	516.397	-0.173	0.408
-561.529	152.743	-0.032	0.044
-560.515	-200.000	0.001	-0.189
-559.500	800.000	-0.057	-0.163
-558.485	45.883	0.157	0.146
-557.471	-158.964	-0.075	0.004
-556.456	-89.400	-0.132	0.039
-555.442	13.304	-0.118	-0.092
-554.427	177.563	-0.083	0.122
-553.412	279.332	0.141	0.253
-552.398	-189.303	0.350	-0.004
-551.383	-128.100	0.117	0.017
-550.369	371.423	0.083	-0.169
-549.354	34.443	-0.127	0.111
-548.339	114.076	0.348	0.425
-547.325	615.811	-0.045	0.113
-546.310	-6.929	0.226	0.155
-545.296	-4.707	0.168	-0.116
-544.281	200.622	-0.143	-0.221
-543.266	-53.233	0.122	0.056
-542.252	-121.478	-0.178	0.030
-541.237	208.332	-0.119	-0.186
-540.223	365.408	0.130	-0.263
-539.208	106.619	0.071	0.084
-538.193	187.803	-0.173	-0.259
-537.179	-86.148	-0.431	-0.134
-536.164	800.000	-0.064	0.259
-535.150	90.602	0.331	0.373
-534.135	76.906	0.205	0.219
-533.121	-200.000	0.036	0.170
-532.106	-97.100	0.044	-0.012
-531.091	-125.834	0.182	0.028
-530.077	-38.116	0.075	0.040
-529.062	109.423	0.174	-0.209
-528.048	-30.906	-0.192	-0.109
-527.033	-79.697	0.125	0.042
-526.018	-41.200	0.242	0.126
-525.004	-200.000	-0.026	0.132
-523.989	176.554	-0.017	0.025
-522.975	-200.000	-0.044	0.205
-521.960	800.000	0.079	0.224
-520.945	-200.000	0.004	0.090
-519.931	-77.983	0.167	0.058
-518.916	37.263	0.272	0.242
-517.902	490.104	0.131	0.300
-516.887	-155.921	-0.157	0.010
-515.872	-149.651	-0.253	-0.020
-514.858	379.129	-0.215	0.442
-513.843	-14.362	0.114	0.074
-512.829	-42.367	-0.356	-0.183
-511.814	386.458	0.133	-0.276
-510.799	339.407	0.062	-0.122
-509.785	-200.000	0.017	-0.255
-508.770	-108.368	-0.269	-0.058
-507.756	-76.667	-0.077	0.027
-506.741	-74.187	0.019	-0.007
-505.726	-200.000	-0.027	0.297
-504.712	-32.809	-0.174	0.097
-503.697	332.822	-0.237	-0.459
-502.683	-3.133	0.155	-0.109
-501.668	293.543	-0.262	0.480
-500.653	12.300	0.222	0.172
-499.639	148.799	-0.201	0.272
-498.624	-200.000	-0.042	0.268
-497.610	800.000	0.051	-0.217
-496.595	-200.000	-0.008	0.190
-495.581	-179.371	-0.322	0.007
-494.566	73.801	-0.209	-0.220
-493.551	133.482	-0.265	0.344
-492.537	114.044	0.048	-0.058
-491.522	800.000	-0.008	-0.026
-490.508	40.649	-0.255	-0.231
-489.493	-200.000	0.095	0.449
-488.478	800.000	0.044	0.148
-487.464	-163.974	0.029	-0.001
-486.449	-7.766	0.049	0.033
-485.435	-200.000	-0.010	0.110
-484.420	10.130	-0.131	0.100
-483.405	92.799	0.183	-0.207
-482.391	38.528	0.251	0.224
-481.376	62.119	-0.127	0.127
-480.362	-12.672	-0.377	0.247
-479.347	134.685	0.148	0.192
-478.332	50.143	0.170	0.161
-477.318	303.856	0.109	-0.202
-476.303	-60.730	-0.113	-0.048
-475.289	-14.894	-0.294	0.189
-474.274	-51.958	0.228	0.106
-473.259	800.000	0.043	-0.131
-472.245	209.850	0.092	0.145
-471.230	-81.962	0.146	0.048
-470.216	800.000	0.111	-0.374
-469.201	171.904	0.077	0.111
-468.186	-38.209	0.138	0.074
-467.172	-200.000	0.016	-0.168
-466.157	-27.235	-0.050	-0.029
-465.143	-200.000	0.025	-0.206
-464.128	-99.800	0.078	-0.020
-463.113	578.269	-0.057	0.139
-462.099	-31.284	0.181	0.102
-461.084	800.000	-0.125	0.365
-460.070	123.110	-0.110	0.137
-459.055	203.304	-0.043	-0.067
-458.040	-14.174	0.263	0.170
-457.026	-200.000	0.035	0.261
-456.011	524.688	-0.046	-0.108
-454.997	-200.000	-0.022	-0.128
-453.982	-200.000	0.012	0.325
-452.968	800.000	-0.125	0.387
-451.953	248.373	0.070	-0.118
-450.938	-80.625	-0.260	0.087
-449.924	800.000	-0.112	0.348
-448.909	-200.000	-0.020	0.216
-447.895	30.866	0.057	0.049
-446.880	788.394	-0.032	0.088
-445.865	83.922	-0.250	-0.273
-444.851	800.000	0.087	0.269
-443.836	800.000	-0.044	-0.161
-442.822	74.760	0.094	0.100
-441.807	-115.620	-0.192	0.036
-440.792	-58.387	0.121	-0.053
-439.778	-200.000	-0.037	-0.268
-438.763	800.000	-0.075	-0.262
-437.749	-125.393	-0.074	-0.011
-436.734	444.070	-0.102	0.225
-435.719	-200.000	0.022	0.278
-434.705	800.000	0.053	-0.171
-433.690	-25.156	-0.282	0.167
-432.676	432.796	0.043	-0.093
-431.661	-42.284	0.095	-0.049
-430.646	40.005	-0.235	-0.211
-429.632	-200.000	-0.030	0.167
-428.617	-147.718	-0.152	-0.013
-427.603	309.795	0.075	-0.141
-426.588	-95.646	-0.217	0.058
-425.573	800.000	0.025	0.074
-424.559	-121.993	-0.124	0.020
-423.544	-106.198	-0.169	-0.038
-422.530	800.000	-0.060	-0.171
-421.515	8.121	0.093	0.070
-420.500	-200.000	0.014	0.157
-419.486	-36.682	-0.164	0.088
-418.471	-99.074	-0.278	0.070
-417.457	-114.956	-0.188	0.036
-416.442	-112.608	0.217	-0.043
-415.428	78.991	0.221	0.237
-414.413	-74.259	-0.126	-0.046
-413.398	800.000	-0.029	-0.111
-412.384	40.776	0.247	-0.223
-411.369	-27.665	0.129	-0.075
-410.355	-122.201	-0.343	-0.056
-409.340	-200.000	-0.028	0.135
-408.325	-129.916	0.204	0.028
-407.311	124.630	0.176	-0.221
-406.296	800.000	-0.105	-0.295
-405.282	366.143	0.083	-0.167
-404.267	192.585	-0.006	0.009
-403.252	-114.021	-0.106	-0.020
-402.238	330.996	0.194	-0.374
-401.223	-200.000	-0.005	-0.183
-400.209	-100.127	0.180	0.045
-399.194	41.603	0.211	-0.191
-398.179	-200.000	-0.022	-0.284
-397.165	203.029	-0.103	0.159
-396.150	-31.845	0.109	0.061
-395.136	-31.606	0.111	-0.062
-394.121	-200.000	0.041	-0.253
-393.106	800.000	0.081	0.301
-392.092	800.000	0.036	0.141
-391.077	146.686	-0.087	-0.117
-390.063	733.676	0.054	-0.143
-389.048	-162.619	0.147	0.007
-388.033	800.000	0.062	-0.221
-387.019	-22.447	-0.242	-0.146
-386.004	-91.625	0.141	-0.040
-384.990	280.094	-0.065	-0.117
-383.975	-118.158	-0.337	-0.060
-382.960	800.000	0.111	-0.307
-381.946	800.000	-0.032	0.139
-380.931	-109.874	-0.292	0.061
-379.917	-31.902	0.453	-0.254
-378.902	-200.000	-0.044	0.217
-377.888	-15.268	-0.209	0.133
-376.873	-200.000	-0.030	-0.198
-375.858	-200.000	-0.003	-0.355
-374.844	-172.266	0.117	-0.004
-373.829	-111.025	0.198	-0.041
-372.815	-51.009	0.132	0.062
-371.800	105.335	-0.089	0.105
-370.785	-200.000	-0.004	0.061
-369.771	163.141	0.141	0.198
-368.756	-200.000	0.014	0.285
-367.742	-186.396	-0.176	-0.003
-366.727	-124.870	0.134	-0.021
-365.712	-47.063	-0.138	0.067
-364.698	6.572	-0.201	-0.149
-363.683	1.012	-0.135	0.097
-362.669	226.955	-0.171	0.278
-361.654	-103.303	0.084	-0.020
-360.639	467.934	0.022	-0.050
-359.625	-21.356	0.280	0.171
-358.610	-21.496	-0.122	-0.074
-357.596	-19.926	0.217	-0.134
-356.581	-85.179	-0.028	-0.009
-355.566	-81.192	0.143	-0.047
-354.552	285.868	-0.112	0.201
-353.537	-97.522	-0.268	0.069
-352.523	118.299	-0.183	-0.225
-351.508	-55.754	-0.281	-0.125
-350.493	155.859	-0.205	-0.282
-349.479	-54.852	0.089	-0.040
-348.464	-40.931	0.217	0.112
-347.450	-120.306	-0.206	0.035
-346.435	-53.981	0.278	-0.126
-345.420	18.172	0.171	-0.136
-344.406	283.286	0.049	-0.088
-343.391	-27.568	-0.078	0.045
-342.377	-123.802	-0.166	-0.026
-341.362	311.996	-0.135	-0.252
-340.348	-80.573	-0.216	0.072
-339.333	-102.972	-0.100	0.024
-338.318	-142.882	0.313	-0.030
-337.304	-109.858	-0.084	-0.017
-336.289	764.985	0.096	-0.261
-335.275	-120.539	0.082	-0.014
-334.260	-145.209	0.133	-0.012
-333.245	121.785	-0.052	0.064
-332.231	-152.559	0.141	0.010
-331.216	-30.014	0.204	-0.116
-330.202	-200.000	0.025	-0.136
-329.187	800.000	-0.062	-0.205
-328.172	607.795	-0.062	0.155
-327.158	83.200	0.086	0.093
-326.143	-83.476	0.302	0.096
-325.129	43.655	-0.126	0.115
-324.114	345.149	-0.129	0.251
-323.099	-200.000	-0.011	0.172
-322.085	-191.278	-0.236	-0.002
-321.070	-11.524	0.174	0.114
-320.056	800.000	-0.015	-0.059
-319.041	-93.410	0.265	-0.073
-318.026	800.000	-0.017	-0.051
-317.012	-161.448	-0.130	0.007
-315.997	601.495	0.027	0.067
-314.983	-46.275	0.167	-0.082
-313.968	151.646	0.137	-0.185
-312.953	-200.000	0.023	-0.142
-311.939	-155.457	-0.394	-0.025
-310.924	800.000	-0.057	-0.163
-309.910	-180.710	0.140	-0.003
-308.895	-200.000	0.003	0.137
-307.880	479.152	0.112	-0.253
-306.866	235.366	-0.103	-0.169
-305.851	231.803	-0.092	0.151
-304.837	157.775	0.176	0.243
-303.822	22.188	0.241	0.196
-302.807	86.401	-0.088	0.097
-301.793	5.131	0.191	-0.140
-300.778	2.652	0.242	0.175
-299.764	-18.563	-0.205	0.127
-298.749	713.333	0.078	0.206
-297.735	-128.987	0.160	0.022
-296.720	-140.920	0.351	0.036
-295.705	314.146	-0.106	-0.198
-294.691	11.940	-0.227	0.174
-293.676	-4.795	0.230	-0.158
-292.662	-131.040	-0.330	-0.044
-291.647	62.311	-0.165	-0.164
-290.632	-117.205	0.090	-0.016
-289.618	-176.588	-0.097	0.002
-288.603	47.698	-0.191	0.177
-287.589	-200.000	0.035	-0.245
-286.574	-200.000	0.022	0.106
-285.559	184.574	-0.215	0.317
-284.545	27.293	0.106	-0.088
-283.530	-115.558	0.446	-0.083
-282.516	-7.896	-0.255	0.171
-281.501	-170.416	-0.257	-0.009
-280.486	52.324	-0.171	0.163
-279.472	-200.000	-0.001	-0.202
-278.457	-97.536	-0.084	-0.022
-277.443	-46.957	0.351	-0.170
-276.428	-56.456	0.229	-0.101
-275.413	-74.896	0.123	0.044
-274.399	-200.000	-0.005	-0.074
-273.384	-97.722	-0.136	0.035
-272.370	-48.531	-0.124	0.059
-271.355	-72.993	0.303	-0.111
-270.340	800.000	-0.015	0.053
-269.326	-76.916	-0.053	-0.018
-268.311	-186.051	0.243	-0.004
-267.297	-74.041	0.210	0.076
-266.282	-19.876	0.155	-0.095
-265.267	622.888	-0.047	0.117
-264.253	344.633	-0.031	0.060
-263.238	96.779	0.037	-0.042
-262.224	-41.922	-0.507	-0.258
-261.209	-110.886	0.456	0.093
-260.195	-159.208	-0.109	-0.006
-259.180	381.548	0.102	0.209
-258.165	283.014	0.047	0.084
-257.151	335.325	-0.180	-0.346
-256.136	4.298	-0.262	-0.191
-255.122	-45.766	-0.059	0.029
-254.107	-143.256	0.205	-0.020
-253.092	-45.982	-0.053	0.026
-252.078	-110.744	0.511	0.105
-251.063	-75.053	-0.116	-0.041
-250.049	-170.258	-0.161	0.006
-249.034	712.693	-0.026	-0.069
-248.019	746.015	-0.091	-0.243
-247.005	-144.036	0.116	0.011
-245.990	800.000	0.082	-0.270
-244.976	96.889	0.128	0.146
-243.961	228.736	0.092	-0.149
-242.946	93.307	0.064	0.072
-241.932	-79.850	0.078	0.026
-240.917	93.841	0.285	-0.321
-239.903	-85.757	0.273	-0.084
-238.888	74.475	-0.345	0.360
-237.873	-127.432	-0.254	-0.037
-236.859	127.310	0.162	0.204
-235.844	413.585	0.083	0.176
-234.830	-155.755	-0.360	-0.023
-233.815	-75.878	-0.218	-0.077
-232.800	-200.000	0.001	-0.095
-231.786	-200.000	0.014	0.000
-230.771	-65.305	-0.256	0.102
-229.757	-200.000	0.030	-0.573
-228.742	-40.922	-0.044	0.022
-227.727	44.584	0.169	0.154
-226.713	425.167	0.100	0.213
-225.698	-43.115	0.127	0.064
-224.684	-110.355	0.358	0.074
-223.669	297.933	0.081	0.147
-222.655	-200.000	-0.209	0.001
-221.640	-119.321	0.167	0.029
-220.625	-200.000	0.026	0.197
-219.611	44.862	-0.070	0.064
-218.596	181.429	-0.030	-0.044
-217.582	-112.203	-0.077	-0.015
-216.567	-149.964	0.201	0.016
-215.552	-150.000	0.119	-0.009
-214.538	351.146	-0.035	0.068
-213.523	146.192	-0.081	0.108
-212.509	175.411	-0.107	-0.154
-211.494	52.868	-0.078	-0.074
-210.479	154.493	-0.106	0.145
-209.465	262.369	0.161	-0.277
-208.450	-200.000	0.002	-0.034
-207.436	-46.338	-0.302	0.147
-206.421	-32.067	-0.027	-0.015
-205.406	-0.892	0.274	-0.192
-204.392	13.273	0.243	-0.187
-203.377	164.034	-0.075	0.105
-202.363	128.677	-0.007	-0.009
-201.348	-44.104	-0.106	0.053
-200.333	800.000	-0.053	-0.214
-199.319	36.012	0.328	-0.287
-198.304	-200.000	-0.041	0.360
-197.290	279.569	-0.150	0.265
-196.275	-136.692	-0.287	0.033
-195.260	800.000	-0.177	-0.509
-194.246	800.000	-0.027	-0.095
-193.231	-11.287	-0.209	0.137
-192.217	-200.000	-0.023	0.269
-191.202	-27.252	0.250	0.145
-190.187	125.619	0.065	-0.081
-189.173	-146.325	0.243	0.021
-188.158	-80.606	-0.236	-0.078
-187.144	-139.984	0.133	0.014
-186.129	109.163	0.091	0.107
-185.114	-145.541	0.355	-0.032
-184.100	-200.000	-0.009	-0.111
-183.085	78.422	0.320	0.338
-182.071	13.000	0.128	-0.098
-181.056	553.614	-0.019	0.044
-180.042	502.711	0.050	-0.114
-179.027	241.607	0.176	-0.291
-178.012	-200.000	-0.018	-0.112
-176.998	-126.949	0.119	-0.017
-175.983	570.825	0.021	0.051
-174.969	-50.585	-0.206	-0.096
-173.954	-200.000	0.026	-0.302
-172.939	58.095	-0.060	0.059
-171.925	67.503	-0.305	0.309
-170.910	97.909	-0.041	0.047
-169.896	-128.576	-0.115	0.016
-168.881	-200.000	-0.020	0.179
-167.866	800.000	-0.056	0.170
-166.852	800.000	0.043	-0.134
-165.837	-29.914	-0.178	0.100
-164.823	-149.906	0.098	-0.008
-163.808	237.494	0.149	-0.244
-162.793	800.000	0.082	-0.343
-161.779	-200.000	0.033	-0.173
-160.764	-200.000	0.020	-0.118
-159.750	70.088	-0.102	0.105
-158.735	170.284	0.124	0.176
-157.720	-200.000	-0.063	-0.345
-156.706	60.386	0.218	0.214
-155.691	66.615	0.207	0.209
-154.677	800.000	0.066	-0.194
-153.662	523.962	-0.070	-0.163
-152.647	-200.000	0.007	-0.338
-151.633	-30.753	0.267	-0.149
-150.618	-200.000	0.031	0.292
-149.604	-200.000	0.017	-0.283
-148.589	-68.948	0.045	-0.017
-147.574	410.617	-0.051	-0.107
-146.560	-5.716	0.171	-0.116
-145.545	-41.306	0.218	0.111
-144.531	157.939	0.204	-0.280
-143.516	-79.796	0.232	-0.077
-142.502	252.758	-0.181	-0.305
-141.487	-123.953	-0.287	-0.045
-140.472	224.826	-0.173	-0.277
-139.458	-52.971	0.155	-0.071
-138.443	319.488	0.218	0.408
-137.429	-66.115	-0.178	0.070
-136.414	-92.437	0.329	0.091
-135.399	-152.417	0.228	-0.016
-134.385	800.000	0.063	-0.271
-133.370	402.668	0.124	-0.259
-132.356	4.578	0.285	0.207
-131.341	183.261	-0.096	0.140
-130.326	116.397	0.246	0.298
-129.312	414.269	0.085	0.179
-128.297	186.463	0.047	0.069
-127.283	-93.634	0.230	0.063
-126.268	4.144	0.083	0.060
-125.253	800.000	-0.039	0.109
-124.239	-113.624	0.347	-0.067
-123.224	145.898	0.271	0.359
-122.210	162.561	-0.110	-0.152
