DTS Sentinel unit serial number:	SN413079Multiplexer serial number:	ORYXHardware model number:	OX4-SRSoftware version number:	ORYX F/W v4.00 Oryx Data Collector v3.7.2.0data status	okinstallation	princeton_trtdifferential loss correction	single-endedforward channel	channel 2reverse channel	N/Adate	2019/09/12time	17:05:11forward acquisition time	60.00reverse acquisition time	0.00gamma	496.2192k internal	0.2325k external	0.2325temperature offset calibration	1.0127default loss term (dB/km)	0.3790temperature slope calibration	1.0000multiplexer offset coefficient	1.0000multiplexer slope coefficient	1.0000fibre end	0.00T internal ref (°C)	35.55T ext. ref 1 (°C)	2.81T ext. ref 2 (°C)	28.82length (m)	temperature (°C)	Stokes	anti-Stokes-747.200	163.943	0.251	-0.357
-746.185	152.427	0.188	-0.260
-745.171	57.090	0.251	0.246
-744.156	75.918	0.126	0.134
-743.142	800.000	-0.056	0.229
-742.127	-131.626	0.288	-0.038
-741.112	800.000	-0.060	0.179
-740.098	800.000	-0.048	0.164
-739.083	-65.357	0.233	0.095
-738.069	549.492	0.063	0.152
-737.054	800.000	0.034	0.121
-736.039	54.815	-0.218	-0.212
-735.025	-113.381	0.197	-0.039
-734.010	276.351	-0.221	0.397
-732.996	0.960	-0.138	-0.100
-731.981	-79.228	-0.064	0.022
-730.966	-8.871	-0.309	0.209
-729.952	153.700	-0.107	-0.148
-728.937	-2.021	-0.177	0.126
-727.923	-35.735	-0.096	-0.052
-726.908	154.026	0.195	0.270
-725.894	800.000	0.099	0.365
-724.879	-124.014	-0.032	0.005
-723.864	8.446	0.069	-0.052
-722.850	-11.420	-0.077	-0.051
-721.835	16.155	0.104	-0.083
-720.821	-200.000	-0.071	-0.433
-719.806	454.327	-0.049	-0.110
-718.791	800.000	0.052	0.166
-717.777	419.955	0.060	0.130
-716.762	143.493	0.211	0.283
-715.748	72.447	-0.055	0.058
-714.733	12.471	-0.062	0.048
-713.718	252.595	0.108	0.185
-712.704	-200.000	-0.007	0.238
-711.689	79.497	-0.139	-0.151
-710.675	-138.221	0.113	0.013
-709.660	-127.318	0.401	0.059
-708.645	33.774	-0.137	0.120
-707.631	296.952	0.128	-0.237
-706.616	12.121	0.173	0.134
-705.602	-200.000	-0.004	0.096
-704.587	-85.779	0.189	-0.059
-703.572	-145.564	0.106	-0.010
-702.558	-150.039	-0.197	-0.015
-701.543	-16.527	0.281	0.180
-700.529	203.279	0.114	-0.177
-699.514	180.778	-0.105	-0.155
-698.499	320.840	-0.031	-0.060
-697.485	-35.599	-0.268	-0.147
-696.470	41.894	-0.072	0.066
-695.456	81.124	0.309	-0.336
-694.441	800.000	-0.067	-0.234
-693.426	22.049	0.302	0.248
-692.412	-35.081	-0.135	-0.074
-691.397	-0.793	0.195	-0.139
-690.383	-127.868	0.075	-0.011
-689.368	204.226	-0.037	0.057
-688.354	15.677	0.073	0.058
-687.339	26.665	-0.232	-0.196
-686.324	16.228	0.062	-0.049
-685.310	329.178	0.099	-0.192
-684.295	-100.006	-0.289	0.072
-683.281	-200.000	0.000	-0.275
-682.266	-18.390	-0.115	0.072
-681.251	-89.256	0.044	-0.013
-680.237	103.289	0.134	-0.159
-679.222	79.743	-0.066	-0.072
-678.208	131.430	-0.089	-0.114
-677.193	74.877	-0.233	0.247
-676.178	159.866	0.092	-0.129
-675.164	-200.000	-0.028	-0.364
-674.149	98.705	-0.149	-0.173
-673.135	131.372	0.259	-0.334
-672.120	-56.133	0.087	-0.039
-671.105	800.000	-0.056	-0.229
-670.091	-34.851	0.071	-0.039
-669.076	-200.000	-0.057	-0.291
-668.062	172.882	-0.139	-0.201
-667.047	198.486	0.122	0.187
-666.032	314.597	0.128	0.243
-665.018	38.437	0.093	0.084
-664.003	-200.000	-0.013	-0.082
-662.989	661.727	0.071	0.185
-661.974	800.000	0.014	0.043
-660.959	-83.181	-0.317	0.103
-659.945	153.566	0.025	-0.035
-658.930	-77.862	-0.155	0.054
-657.916	-114.430	-0.249	-0.048
-656.901	258.714	-0.100	0.174
-655.886	-62.270	0.111	-0.046
-654.872	-92.998	-0.437	-0.123
-653.857	396.113	-0.052	0.109
-652.843	225.927	-0.216	0.353
-651.828	-164.695	-0.298	-0.014
-650.814	-155.759	0.296	0.019
-649.799	-44.036	0.322	0.163
-648.784	80.140	-0.146	-0.158
-647.770	-200.000	0.029	0.179
-646.755	-156.916	-0.262	-0.016
-645.741	460.234	0.073	-0.165
-644.726	-182.124	0.340	0.006
-643.711	-26.318	0.112	0.066
-642.697	800.000	0.059	0.230
-641.682	167.337	-0.064	0.091
-640.668	3.809	-0.336	-0.247
-639.653	-200.000	-0.046	-0.276
-638.638	-53.204	0.224	-0.103
-637.624	157.259	-0.127	-0.177
-636.609	-157.426	0.083	-0.005
-635.595	-44.053	0.177	-0.089
-634.580	22.874	-0.241	0.198
-633.565	32.863	0.115	-0.100
-632.551	-49.599	0.252	0.120
-631.536	-200.000	-0.076	0.457
-630.522	-170.894	-0.304	0.010
-629.507	15.269	-0.141	-0.111
-628.492	291.173	0.024	-0.044
-627.478	114.560	0.287	0.351
-626.463	-152.766	-0.382	-0.027
-625.449	-175.639	-0.110	-0.003
-624.434	17.256	-0.253	0.202
-623.419	-144.247	-0.182	-0.017
-622.405	237.834	-0.101	-0.169
-621.390	-176.851	0.269	-0.007
-620.376	-200.000	0.013	-0.154
-619.361	-200.000	-0.051	0.335
-618.346	252.056	-0.126	-0.215
-617.332	-200.000	-0.005	-0.035
-616.317	67.937	0.065	0.067
-615.303	-141.612	0.200	-0.020
-614.288	53.787	0.092	0.089
-613.273	-200.000	-0.013	-0.127
-612.259	22.500	0.028	-0.023
-611.244	225.236	-0.054	0.088
-610.230	46.042	0.073	-0.068
-609.215	-56.536	0.139	0.062
-608.201	144.437	0.248	-0.332
-607.186	-62.436	-0.206	-0.086
-606.171	-107.899	0.277	-0.061
-605.157	465.195	0.016	-0.037
-604.142	-65.126	0.434	-0.175
-603.128	114.024	0.152	-0.185
-602.113	230.162	0.136	-0.223
-601.098	161.381	0.038	0.054
-600.084	-185.604	0.124	-0.002
-599.069	-135.288	-0.091	-0.011
-598.055	-28.992	-0.271	-0.156
-597.040	-200.000	0.003	0.058
-596.025	70.076	0.016	0.017
-595.011	21.650	0.023	0.019
-593.996	-56.246	0.109	0.048
-592.982	110.201	0.204	0.246
-591.967	99.336	-0.120	-0.139
-590.952	79.517	0.137	-0.147
-589.938	423.826	0.056	-0.121
-588.923	276.004	0.079	0.141
-587.909	103.756	-0.066	-0.078
-586.894	-155.253	-0.189	0.012
-585.879	554.990	0.198	0.477
-584.865	-158.557	-0.249	0.014
-583.850	-200.000	0.009	0.270
-582.836	-200.000	0.026	0.140
-581.821	800.000	-0.006	0.024
-580.806	-156.202	0.266	0.017
-579.792	-54.122	-0.120	-0.055
-578.777	-67.340	0.395	0.156
-577.763	-57.031	0.304	-0.134
-576.748	-140.605	-0.084	0.009
-575.733	221.205	0.040	0.065
-574.719	-175.440	0.255	0.007
-573.704	-126.780	-0.371	-0.055
-572.690	45.875	-0.126	-0.117
-571.675	-41.974	-0.344	-0.177
-570.661	800.000	-0.113	-0.491
-569.646	-96.641	0.121	0.032
-568.631	-148.284	0.102	0.008
-567.617	-21.806	0.108	-0.066
-566.602	101.947	-0.070	0.082
-565.588	-200.000	0.004	0.087
-564.573	122.723	0.124	-0.155
-563.558	-44.126	-0.202	0.102
-562.544	-64.001	0.184	0.075
-561.529	-97.759	0.314	-0.081
-560.515	336.341	0.099	-0.192
-559.500	-200.000	-0.046	0.250
-558.485	-14.581	0.241	0.155
-557.471	260.151	-0.083	-0.143
-556.456	800.000	0.030	0.093
-555.442	-7.750	0.240	-0.162
-554.427	800.000	0.019	0.055
-553.412	-148.849	0.330	0.027
-552.398	114.902	-0.128	0.156
-551.383	-200.000	-0.025	-0.150
-550.369	-200.000	-0.025	0.131
-549.354	-99.604	-0.082	-0.021
-548.339	-139.575	0.434	-0.046
-547.325	-143.049	-0.279	-0.027
-546.310	-121.695	-0.171	-0.028
-545.296	-39.727	-0.167	-0.087
-544.281	18.916	-0.092	-0.074
-543.266	-200.000	0.009	0.181
-542.252	-32.440	0.396	0.221
-541.237	800.000	0.080	0.262
-540.223	-149.466	0.020	0.002
-539.208	-104.185	-0.125	0.029
-538.193	50.965	-0.194	-0.184
-537.179	-50.177	0.294	-0.139
-536.164	-200.000	-0.012	-0.327
-535.150	800.000	0.047	-0.204
-534.135	-85.780	-0.131	-0.041
-533.121	-45.186	0.193	-0.096
-532.106	-97.696	0.347	-0.090
-531.091	-200.000	-0.004	-0.078
-530.077	541.181	-0.075	-0.179
-529.062	-200.000	-0.009	0.097
-528.048	163.659	-0.020	0.028
-527.033	63.832	0.063	-0.063
-526.018	130.660	0.144	0.185
-525.004	-96.761	0.300	0.079
-523.989	-90.768	-0.212	-0.061
-522.975	367.496	0.069	0.140
-521.960	-200.000	0.012	-0.225
-520.945	-57.602	-0.118	0.052
-519.931	-200.000	0.011	0.151
-518.916	66.970	-0.127	-0.129
-517.902	-200.000	-0.006	0.197
-516.887	158.167	0.221	0.307
-515.872	197.007	0.016	-0.024
-514.858	-200.000	0.039	-0.472
-513.843	17.785	-0.215	-0.172
-512.829	800.000	0.153	0.530
-511.814	800.000	0.065	0.273
-510.799	-99.402	0.267	0.067
-509.785	800.000	-0.040	0.135
-508.770	246.909	0.108	0.182
-507.756	-178.729	0.143	0.003
-506.741	800.000	-0.068	-0.199
-505.726	-7.536	-0.220	-0.149
-504.712	93.795	-0.170	-0.193
-503.697	102.747	-0.061	0.071
-502.683	-152.940	0.129	0.009
-501.668	101.381	-0.080	0.094
-500.653	-152.140	-0.329	-0.024
-499.639	300.280	-0.247	0.454
-498.624	-30.638	0.383	-0.217
-497.610	-200.000	0.024	0.129
-496.595	-131.102	0.062	0.008
-495.581	-63.404	-0.292	0.120
-494.566	88.366	0.090	-0.100
-493.551	-29.465	0.175	-0.100
-492.537	327.398	0.144	0.277
-491.522	-200.000	0.027	0.280
-490.508	25.036	-0.243	0.202
-489.493	-13.834	-0.107	-0.069
-488.478	-50.621	-0.196	-0.092
-487.464	-116.839	-0.475	0.087
-486.449	50.427	-0.149	-0.141
-485.435	800.000	0.052	0.165
-484.420	-200.000	0.020	0.237
-483.405	9.933	-0.074	0.056
-482.391	-145.851	0.007	0.001
-481.376	800.000	-0.074	-0.276
-480.362	-23.555	0.118	0.071
-479.347	123.657	-0.103	0.129
-478.332	-200.000	-0.026	0.321
-477.318	84.644	-0.167	-0.183
-476.303	-200.000	-0.087	0.443
-475.289	-107.541	0.075	0.016
-474.274	35.096	-0.253	0.221
-473.259	-46.720	0.179	-0.087
-472.245	226.375	0.118	-0.191
-471.230	-105.545	-0.151	0.034
-470.216	-116.838	0.342	0.063
-469.201	800.000	-0.104	-0.392
-468.186	41.293	-0.207	-0.187
-467.172	45.899	0.099	-0.091
-466.157	18.955	0.108	0.086
-465.143	-157.604	-0.114	0.007
-464.128	-131.226	-0.182	-0.024
-463.113	129.155	-0.092	-0.117
-462.099	485.152	0.182	-0.414
-461.084	132.864	-0.139	0.178
-460.070	-93.042	-0.245	0.068
-459.055	-50.470	0.461	-0.217
-458.040	-11.926	0.102	-0.067
-457.026	99.016	0.122	-0.140
-456.011	-200.000	0.021	-0.295
-454.997	351.206	-0.066	0.130
-453.982	-200.000	-0.030	-0.213
-452.968	69.573	0.140	0.144
-451.953	-115.885	-0.165	0.031
-450.938	173.918	-0.015	0.022
-449.924	-27.449	-0.186	-0.108
-448.909	530.211	-0.090	0.212
-447.895	-179.269	-0.253	-0.006
-446.880	484.497	-0.026	0.058
-445.865	73.601	-0.089	0.093
-444.851	-92.810	0.104	-0.029
-443.836	59.943	-0.148	-0.146
-442.822	-118.875	-0.312	0.055
-441.807	-193.834	-0.076	0.001
-440.792	73.483	-0.223	-0.233
-439.778	-167.213	0.304	-0.012
-438.763	-97.382	0.284	-0.074
-437.749	-68.873	-0.261	-0.101
-436.734	75.873	0.357	-0.377
-435.719	284.830	0.159	0.286
-434.705	-200.000	-0.039	-0.266
-433.690	112.565	-0.211	-0.255
-432.676	101.346	0.046	0.054
-431.661	350.590	-0.070	-0.137
-430.646	-61.758	-0.117	0.049
-429.632	-16.034	-0.236	-0.150
-428.617	-49.162	-0.414	-0.197
-427.603	-114.217	-0.129	-0.025
-426.588	-35.106	0.169	0.092
-425.573	98.278	-0.204	0.235
-424.559	270.855	0.053	0.093
-423.544	-8.168	-0.121	-0.081
-422.530	-47.895	0.030	0.014
-421.515	260.813	0.069	-0.120
-420.500	-90.870	0.258	0.074
-419.486	-55.779	-0.347	0.155
-418.471	-21.727	0.129	-0.078
-417.457	74.788	0.123	-0.129
-416.442	-75.333	-0.289	-0.103
-415.428	340.577	0.134	-0.261
-414.413	2.932	-0.077	0.056
-413.398	-21.619	0.424	0.257
-412.384	390.488	-0.096	-0.199
-411.369	50.786	-0.044	-0.042
-410.355	441.439	0.096	0.210
-409.340	-17.231	-0.233	0.146
-408.325	10.401	-0.052	0.039
-407.311	-200.000	-0.058	0.345
-406.296	50.426	-0.021	0.019
-405.282	20.509	0.044	0.036
-404.267	800.000	-0.025	-0.079
-403.252	800.000	0.069	-0.235
-402.238	-7.055	-0.224	0.151
-401.223	-200.000	0.001	-0.039
-400.209	-7.614	0.107	0.072
-399.194	193.710	-0.127	0.191
-398.179	27.157	0.074	0.062
-397.165	-18.823	0.093	0.058
-396.150	772.491	0.110	0.299
-395.136	439.150	0.044	0.096
-394.121	-200.000	-0.010	0.089
-393.106	-55.199	-0.216	0.097
-392.092	188.273	-0.154	0.229
-391.077	381.559	-0.007	0.015
-390.063	-105.760	-0.159	0.036
-389.048	-67.604	0.236	-0.092
-388.033	47.630	-0.189	0.175
-387.019	-200.000	-0.029	0.242
-386.004	-71.929	0.446	-0.165
-384.990	800.000	0.045	0.124
-383.975	16.520	-0.314	-0.247
-382.960	-200.000	-0.014	0.086
-381.946	12.921	0.091	0.070
-380.931	-200.000	-0.025	0.327
-379.917	-200.000	-0.036	0.180
-378.902	-33.630	-0.067	0.037
-377.888	-123.599	-0.104	-0.016
-376.873	69.829	0.106	-0.109
-375.858	87.036	-0.149	-0.163
-374.844	27.563	0.235	-0.197
-373.829	-92.476	0.122	-0.034
-372.815	23.171	0.278	-0.227
-371.800	-200.000	0.034	0.224
-370.785	-147.744	-0.155	-0.013
-369.771	15.285	0.086	-0.067
-368.756	800.000	-0.105	-0.293
-367.742	-179.894	-0.453	0.010
-366.727	-60.530	0.172	0.073
-365.712	-81.671	-0.510	0.166
-364.698	346.290	0.093	-0.182
-363.683	30.940	0.037	-0.031
-362.669	-170.930	-0.117	-0.004
-361.654	-97.097	0.083	-0.022
-360.639	17.378	0.151	0.119
-359.625	800.000	-0.022	-0.062
-358.610	-52.366	-0.103	-0.047
-357.596	-61.483	0.268	-0.112
-356.581	-68.130	-0.124	0.048
-355.566	790.200	-0.115	-0.315
-354.552	231.354	0.065	0.106
-353.537	800.000	0.084	-0.298
-352.523	-181.163	-0.235	0.005
-351.508	-13.091	0.031	0.020
-350.493	-87.150	0.095	0.029
-349.479	-65.556	-0.206	0.082
-348.464	-200.000	0.002	0.092
-347.450	800.000	0.081	-0.287
-346.435	-134.670	0.173	-0.021
-345.420	800.000	-0.101	-0.278
-344.406	134.041	-0.171	0.220
-343.391	-16.552	0.286	0.180
-342.377	-145.421	0.203	0.018
-341.362	80.220	0.052	0.056
-340.348	-103.589	0.141	-0.033
-339.333	-72.029	-0.163	-0.060
-338.318	800.000	-0.124	0.344
-337.304	-200.000	0.035	0.409
-336.289	655.327	0.105	-0.267
-335.275	-200.000	-0.004	-0.122
-334.260	-84.269	0.170	0.053
-333.245	800.000	0.067	-0.277
-332.231	-155.308	0.344	0.022
-331.216	-59.352	-0.127	0.054
-330.202	420.742	0.132	0.280
-329.187	14.071	-0.354	0.274
-328.172	-138.674	0.290	0.032
-327.158	72.189	0.123	0.127
-326.143	715.105	0.024	0.063
-325.129	253.089	-0.052	-0.088
-324.114	-36.891	0.184	0.098
-323.099	-191.696	0.241	0.002
-322.085	49.501	-0.187	-0.175
-321.070	20.764	0.201	-0.162
-320.056	-49.750	-0.426	-0.201
-319.041	-58.857	-0.111	0.048
-318.026	-172.738	-0.190	-0.006
-317.012	-101.500	0.103	-0.025
-315.997	149.634	0.122	-0.164
-314.983	-182.009	-0.094	0.002
-313.968	-14.962	-0.244	0.155
-312.953	-200.000	-0.079	-0.445
-311.939	800.000	0.063	-0.200
-310.924	188.977	0.105	-0.156
-309.910	-133.269	-0.286	0.036
-308.895	23.711	0.065	0.053
-307.880	-200.000	-0.008	-0.155
-306.866	4.205	-0.058	-0.042
-305.851	-200.000	0.010	-0.286
-304.837	211.414	0.031	0.048
-303.822	3.469	-0.060	-0.043
-302.807	800.000	0.074	0.251
-301.793	187.656	-0.076	0.113
-300.778	76.313	-0.179	0.188
-299.764	-200.000	0.032	-0.288
-298.749	101.456	-0.182	-0.210
-297.735	191.851	0.077	0.115
-296.720	-200.000	-0.020	0.249
-295.705	-135.284	0.062	-0.007
-294.691	33.804	0.119	-0.102
-293.676	45.995	-0.054	-0.049
-292.662	-116.118	-0.204	-0.038
-291.647	4.778	0.120	-0.088
-290.632	121.331	-0.068	-0.084
-289.618	83.192	-0.042	-0.045
-288.603	40.403	0.156	-0.139
-287.589	-123.464	0.420	0.066
-286.574	-154.397	-0.172	-0.011
-285.559	-136.046	-0.224	-0.026
-284.545	6.002	0.302	-0.222
-283.530	464.791	0.143	0.317
-282.516	-15.885	0.148	0.094
-281.501	607.449	0.035	0.087
-280.486	800.000	-0.049	0.184
-279.472	-113.923	0.160	0.031
-278.457	60.655	-0.196	-0.193
-277.443	12.843	-0.127	-0.098
-276.428	-200.000	0.023	0.124
-275.413	203.678	-0.080	0.122
-274.399	-25.616	-0.150	-0.088
-273.384	234.197	0.128	0.209
-272.370	191.975	-0.142	0.212
-271.355	-61.495	-0.127	-0.053
-270.340	9.354	-0.111	-0.083
-269.326	-84.486	-0.206	0.064
-268.311	-64.394	0.250	0.101
-267.297	188.094	0.217	-0.321
-266.282	-90.211	-0.225	0.065
-265.267	-200.000	-0.061	0.294
-264.253	47.951	-0.151	-0.140
-263.238	41.132	0.066	0.059
-262.224	-43.500	0.083	0.042
-261.209	69.730	-0.114	0.116
-260.195	146.550	-0.112	0.149
-259.180	-200.000	0.019	-0.169
-258.165	800.000	0.095	-0.319
-257.151	-80.188	-0.259	0.086
-256.136	381.363	-0.082	0.166
-255.122	-52.481	0.244	0.112
-254.107	10.839	0.323	0.244
-253.092	-98.066	0.383	-0.098
-252.078	-153.674	-0.179	-0.012
-251.063	-99.190	0.277	0.069
-250.049	-96.753	-0.252	0.065
-249.034	288.719	0.154	-0.277
-248.019	-19.896	-0.007	0.004
-247.005	190.297	-0.282	0.420
-245.990	-130.177	-0.110	-0.015
-244.976	-57.740	-0.404	-0.175
-243.961	-30.739	-0.225	-0.126
-242.946	800.000	0.020	0.068
-241.932	55.342	0.284	-0.271
-240.917	-200.000	0.000	-0.232
-239.903	230.378	0.113	-0.184
-238.888	-75.312	-0.155	0.055
-237.873	-170.768	0.074	-0.003
-236.859	-1.200	-0.335	-0.234
-235.844	-27.338	-0.327	-0.188
-234.830	281.494	0.117	-0.207
-233.815	149.640	0.011	-0.015
-232.800	-200.000	0.021	0.169
-231.786	-60.610	0.024	0.010
-230.771	800.000	0.036	-0.110
-229.757	-171.623	0.295	0.010
-228.742	-200.000	0.045	-0.196
-227.727	-144.012	0.024	0.002
-226.713	-18.471	0.161	0.099
-225.698	-200.000	0.028	-0.140
-224.684	220.147	0.116	0.183
-223.669	49.892	0.189	-0.176
-222.655	79.131	0.160	0.170
-221.640	-200.000	0.013	-0.253
-220.625	337.991	-0.032	-0.061
-219.611	-74.036	0.067	0.024
-218.596	567.865	-0.078	-0.188
-217.582	-148.859	0.219	-0.018
-216.567	800.000	-0.075	0.244
-215.552	183.611	-0.133	-0.194
-214.538	-124.180	0.364	0.056
-213.523	735.301	-0.017	-0.045
-212.509	-187.212	-0.290	0.004
-211.494	-135.123	0.342	-0.041
-210.479	495.177	0.082	-0.187
-209.465	140.306	0.140	-0.183
-208.450	-55.099	-0.380	0.169
-207.436	-200.000	0.027	0.352
-206.421	-141.755	-0.360	0.036
-205.406	-200.000	-0.114	0.534
-204.392	-200.000	-0.002	0.372
-203.377	162.849	0.106	-0.146
-202.363	-50.801	-0.126	0.059
-201.348	448.462	0.015	0.033
-200.333	-88.819	0.379	0.111
-199.319	800.000	0.089	-0.297
-198.304	-200.000	0.002	0.093
-197.290	-37.535	-0.055	0.029
-196.275	-200.000	0.028	-0.197
-195.260	-89.549	-0.207	-0.060
-194.246	-40.367	0.272	-0.140
-193.231	215.716	-0.135	0.211
-192.217	800.000	-0.086	-0.369
-191.202	-200.000	-0.067	0.380
-190.187	230.812	0.159	-0.257
-189.173	-192.950	-0.335	-0.003
-188.158	56.447	-0.183	0.176
-187.144	-200.000	-0.016	0.098
-186.129	159.526	-0.131	-0.180
-185.114	-46.012	0.083	-0.040
-184.100	432.249	0.047	0.101
-183.085	-200.000	0.007	0.167
-182.071	-1.813	-0.228	-0.158
-181.056	3.635	-0.078	0.056
-180.042	-27.779	0.255	0.146
-179.027	-200.000	0.008	0.035
-178.012	-69.464	0.151	-0.057
-176.998	-30.382	0.092	-0.051
-175.983	28.788	-0.450	0.376
-174.969	53.645	0.056	-0.053
-173.954	-27.891	-0.127	0.073
-172.939	187.145	-0.088	-0.129
-171.925	-14.801	0.111	0.071
-170.910	-126.666	0.193	-0.028
-169.896	24.100	0.045	-0.037
-168.881	107.076	0.078	0.091
-167.866	-200.000	-0.005	0.208
-166.852	136.596	-0.086	0.111
-165.837	159.459	0.130	0.178
-164.823	-200.000	0.033	-0.393
-163.808	-200.000	-0.040	-0.211
-162.793	54.497	0.060	-0.057
-161.779	-47.773	0.020	0.009
-160.764	528.615	0.070	0.163
-159.750	-176.441	-0.153	0.004
-158.735	325.827	0.155	0.293
-157.720	-68.247	-0.238	-0.091
-156.706	28.398	-0.323	0.269
-155.691	-38.625	-0.228	-0.119
-154.677	25.399	0.207	-0.169
-153.662	800.000	0.065	0.195
-152.647	9.586	0.043	-0.032
-151.633	-86.380	0.298	0.090
-150.618	-143.977	-0.183	0.017
-149.604	-200.000	0.016	0.319
-148.589	251.769	-0.067	-0.112
-147.574	-45.285	-0.231	0.113
-146.560	21.579	-0.129	-0.104
-145.545	566.713	0.028	-0.067
-144.531	327.932	-0.048	0.091
-143.516	103.033	0.168	0.194
-142.502	800.000	-0.144	0.401
-141.487	114.273	0.086	0.103
-140.472	800.000	-0.071	0.277
-139.458	602.711	-0.150	0.368
-138.443	114.498	0.236	0.283
-137.429	485.213	-0.020	0.045
-136.414	148.197	0.216	0.287
-135.399	-200.000	-0.039	0.168
-134.385	-200.000	0.015	-0.088
-133.370	114.707	0.179	0.215
-132.356	-200.000	0.022	0.257
-131.341	318.902	0.120	0.224
-130.326	-48.155	-0.131	-0.062
-129.312	40.009	-0.209	-0.185
-128.297	201.076	0.133	-0.202
-127.283	-200.000	-0.022	0.103
-126.268	-26.563	-0.244	-0.141
-125.253	280.859	0.073	-0.129
-124.239	-107.513	-0.290	0.063
-123.224	225.156	-0.077	0.123
-122.210	-90.048	-0.177	0.051
-121.195	308.852	0.131	0.241
-120.180	60.532	0.341	-0.332
-119.166	13.074	0.045	-0.034
