DTS Sentinel unit serial number:	SN413079Multiplexer serial number:	ORYXHardware model number:	OX4-SRSoftware version number:	ORYX F/W v4.00 Oryx Data Collector v3.7.2.0data status	okinstallation	princeton_trtdifferential loss correction	single-endedforward channel	channel 2reverse channel	N/Adate	2019/09/15time	08:43:34forward acquisition time	60.00reverse acquisition time	0.00gamma	496.2192k internal	0.2323k external	0.2323temperature offset calibration	1.0016default loss term (dB/km)	0.3790temperature slope calibration	1.0000multiplexer offset coefficient	1.0000multiplexer slope coefficient	1.0000fibre end	0.00T internal ref (°C)	32.11T ext. ref 1 (°C)	4.98T ext. ref 2 (°C)	29.31length (m)	temperature (°C)	Stokes	anti-Stokes-747.200	-200.000	0.057	-0.339
-746.185	-200.000	-0.054	0.268
-745.171	170.624	-0.162	0.235
-744.156	52.959	0.085	-0.083
-743.142	61.690	-0.073	0.074
-742.127	800.000	-0.052	0.220
-741.112	647.237	-0.095	0.244
-740.098	-200.000	-0.099	0.776
-739.083	69.031	0.078	0.080
-738.069	434.787	-0.108	0.236
-737.054	-7.674	-0.157	0.107
-736.039	-74.053	-0.308	-0.113
-735.025	-200.000	-0.072	0.418
-734.010	800.000	0.032	-0.095
-732.996	-200.000	-0.049	-0.278
-731.981	-10.705	-0.183	0.122
-730.966	152.861	0.091	-0.126
-729.952	792.735	0.016	0.044
-728.937	124.223	-0.098	0.124
-727.923	6.914	0.122	-0.091
-726.908	800.000	0.048	-0.202
-725.894	-131.609	0.359	0.048
-724.879	52.098	-0.185	-0.178
-723.864	24.569	0.064	-0.054
-722.850	104.685	0.110	0.131
-721.835	302.049	0.028	-0.053
-720.821	-137.342	-0.231	0.027
-719.806	-121.396	-0.212	0.036
-718.791	-91.804	0.207	0.059
-717.777	796.352	-0.078	-0.216
-716.762	143.383	-0.160	-0.214
-715.748	547.745	-0.078	-0.189
-714.733	252.373	0.160	0.276
-713.718	800.000	-0.073	0.262
-712.704	-29.222	0.253	-0.146
-711.689	34.701	-0.252	0.222
-710.675	-19.603	0.153	0.095
-709.660	-190.168	0.150	0.002
-708.645	91.419	0.181	-0.205
-707.631	128.801	0.181	0.232
-706.616	-120.611	0.091	0.016
-705.602	5.674	-0.074	-0.055
-704.587	-106.158	-0.277	-0.063
-703.572	317.164	-0.206	-0.393
-702.558	-47.149	-0.263	-0.130
-701.543	26.116	0.160	-0.134
-700.529	-149.521	-0.293	0.023
-699.514	800.000	-0.040	0.148
-698.499	-74.837	-0.269	-0.097
-697.485	-40.591	0.321	0.168
-696.470	56.419	0.132	-0.129
-695.456	46.268	-0.028	0.027
-694.441	800.000	0.015	-0.043
-693.426	800.000	-0.133	-0.394
-692.412	-32.525	0.330	-0.185
-691.397	-200.000	-0.025	-0.132
-690.383	800.000	-0.163	-0.486
-689.368	550.509	-0.088	-0.212
-688.354	-133.491	-0.225	0.028
-687.339	800.000	0.057	-0.236
-686.324	107.234	0.077	0.092
-685.310	-55.725	0.116	0.052
-684.295	202.053	-0.150	0.233
-683.281	-53.854	-0.209	0.096
-682.266	586.976	-0.125	-0.311
-681.251	98.380	0.156	-0.181
-680.237	800.000	0.153	-0.562
-679.222	732.135	-0.120	-0.322
-678.208	-103.253	0.148	0.035
-677.193	56.387	0.138	-0.135
-676.178	-78.341	0.253	-0.088
-675.164	224.052	-0.100	-0.163
-674.149	-200.000	-0.023	0.206
-673.135	414.052	0.174	0.372
-672.120	-78.676	0.106	-0.036
-671.105	-122.745	-0.235	-0.038
-670.091	135.220	-0.133	-0.175
-669.076	-124.487	-0.136	-0.021
-668.062	612.104	0.084	-0.213
-667.047	-79.959	-0.244	0.083
-666.032	85.171	-0.185	0.205
-665.018	-13.411	0.142	-0.092
-664.003	-200.000	-0.005	-0.089
-662.989	-200.000	-0.024	-0.265
-661.974	173.467	-0.091	-0.132
-660.959	-200.000	0.002	-0.027
-659.945	-8.913	-0.159	0.107
-658.930	-158.612	-0.165	0.010
-657.916	-200.000	-0.003	0.122
-656.901	-150.338	-0.244	-0.019
-655.886	35.394	0.144	0.127
-654.872	-11.077	0.260	0.173
-653.857	-16.962	-0.206	0.131
-652.843	-47.372	-0.105	-0.051
-651.828	-137.517	-0.433	0.049
-650.814	136.948	0.041	-0.054
-649.799	280.846	-0.169	0.304
-648.784	21.003	0.211	0.172
-647.770	-200.000	-0.042	0.219
-646.755	77.288	0.145	-0.156
-645.741	-34.526	-0.338	-0.186
-644.726	-46.717	0.179	-0.088
-643.711	317.013	0.052	-0.099
-642.697	-83.503	0.354	-0.114
-641.682	309.131	-0.190	-0.357
-640.668	13.432	0.229	0.179
-639.653	34.671	-0.274	0.241
-638.638	-70.469	-0.203	-0.078
-637.624	116.424	-0.084	0.103
-636.609	43.038	-0.057	0.052
-635.595	20.306	0.159	-0.130
-634.580	24.138	-0.068	-0.057
-633.565	567.977	0.039	0.096
-632.551	332.777	0.219	-0.425
-631.536	50.850	-0.102	-0.098
-630.522	800.000	-0.031	0.096
-629.507	-105.250	0.262	0.060
-628.492	144.589	0.054	0.072
-627.478	383.469	-0.092	0.189
-626.463	82.940	-0.072	0.079
-625.449	122.649	-0.204	0.256
-624.434	-91.776	-0.315	0.090
-623.419	-88.012	-0.170	0.051
-622.405	-24.577	0.065	0.039
-621.390	-73.940	0.309	-0.113
-620.376	-200.000	0.030	0.161
-619.361	-200.000	0.008	0.165
-618.346	-62.042	-0.257	-0.108
-617.332	-51.892	-0.364	-0.170
-616.317	-0.495	0.125	-0.090
-615.303	-143.109	0.136	0.013
-614.288	800.000	0.043	-0.140
-613.273	-5.244	0.304	0.210
-612.259	-200.000	0.035	0.252
-611.244	506.989	0.017	-0.040
-610.230	-92.275	-0.106	-0.030
-609.215	-200.000	0.009	-0.198
-608.201	-145.447	0.401	-0.036
-607.186	142.929	0.189	-0.252
-606.171	80.225	-0.285	0.308
-605.157	106.798	0.029	-0.034
-604.142	63.794	-0.092	-0.093
-603.128	-12.628	-0.165	-0.108
-602.113	-155.294	-0.158	-0.010
-601.098	-8.461	0.229	-0.154
-600.084	-139.236	-0.197	-0.021
-599.069	800.000	0.065	0.187
-598.055	-129.483	-0.229	-0.032
-597.040	800.000	-0.059	-0.194
-596.025	-21.818	0.272	-0.166
-595.011	-174.891	-0.180	-0.005
-593.996	-200.000	0.027	0.207
-592.982	-200.000	0.008	0.152
-591.967	800.000	-0.123	0.385
-590.952	227.282	0.124	0.202
-589.938	-85.383	0.127	0.040
-588.923	-200.000	-0.023	0.140
-587.909	688.282	0.081	-0.211
-586.894	-125.251	-0.137	0.021
-585.879	341.692	0.094	0.184
-584.865	-200.000	-0.004	-0.026
-583.850	119.382	0.170	0.211
-582.836	-146.322	0.309	-0.027
-581.821	78.893	0.135	-0.145
-580.806	40.053	-0.096	0.086
-579.792	250.647	0.200	0.341
-578.777	444.352	-0.019	0.041
-577.763	483.129	0.089	-0.203
-576.748	-200.000	-0.035	0.175
-575.733	-161.554	-0.126	-0.006
-574.719	-200.000	0.003	0.303
-573.704	-200.000	-0.033	-0.394
-572.690	107.622	0.028	-0.033
-571.675	239.098	0.147	0.245
-570.661	-18.717	0.251	0.157
-569.646	12.843	0.231	0.179
-568.631	351.327	-0.163	-0.323
-567.617	800.000	0.100	0.283
-566.602	-138.069	0.305	-0.034
-565.588	125.607	-0.110	-0.139
-564.573	800.000	-0.049	-0.170
-563.558	800.000	-0.064	0.179
-562.544	-65.498	-0.208	0.084
-561.529	-200.000	0.038	0.219
-560.515	-115.221	-0.063	-0.012
-559.500	-169.181	-0.254	-0.009
-558.485	200.239	0.263	-0.405
-557.471	-24.782	-0.173	-0.103
-556.456	-165.628	-0.398	0.017
-555.442	-2.200	0.405	0.285
-554.427	395.722	-0.103	0.215
-553.412	800.000	-0.086	0.259
-552.398	205.897	0.028	-0.044
-551.383	800.000	-0.102	0.346
-550.369	-200.000	-0.040	-0.175
-549.354	-76.532	0.066	-0.023
-548.339	97.264	0.034	0.039
-547.325	6.061	0.151	0.112
-546.310	-200.000	-0.067	0.452
-545.296	-130.289	0.327	-0.045
-544.281	-30.979	0.196	0.111
-543.266	-131.171	-0.329	-0.044
-542.252	-91.393	0.072	-0.021
-541.237	-37.633	0.077	-0.041
-540.223	-46.864	-0.263	0.129
-539.208	-79.303	-0.187	-0.064
-538.193	8.953	-0.127	0.096
-537.179	-86.340	-0.246	-0.076
-536.164	-71.254	0.059	0.022
-535.150	-200.000	-0.008	0.306
-534.135	-200.000	-0.114	-0.577
-533.121	-200.000	-0.068	-0.361
-532.106	67.404	-0.128	-0.131
-531.091	108.655	-0.103	-0.123
-530.077	-3.025	0.192	0.134
-529.062	98.564	0.178	0.206
-528.048	100.011	-0.094	0.109
-527.033	-58.488	-0.424	-0.184
-526.018	-96.173	-0.154	0.041
-525.004	510.248	0.027	-0.064
-523.989	111.939	0.052	0.063
-522.975	16.816	-0.108	-0.086
-521.960	-80.298	0.317	0.106
-520.945	26.213	-0.054	0.045
-519.931	800.000	0.053	-0.151
-518.916	-44.494	0.215	-0.108
-517.902	29.889	0.165	-0.141
-516.887	191.402	-0.281	0.424
-515.872	-29.375	0.279	0.160
-514.858	310.991	-0.102	-0.191
-513.843	179.454	-0.255	-0.374
-512.829	397.310	0.110	-0.231
-511.814	-200.000	-0.019	-0.554
-510.799	-200.000	0.034	0.250
-509.785	79.747	0.201	-0.216
-508.770	309.753	-0.131	-0.245
-507.756	122.344	-0.240	0.300
-506.741	-200.000	-0.039	0.376
-505.726	-163.279	0.070	0.003
-504.712	66.527	-0.109	-0.111
-503.697	137.390	0.258	0.338
-502.683	69.040	-0.188	-0.193
-501.668	63.159	-0.102	0.103
-500.653	-200.000	-0.006	0.097
-499.639	-83.289	-0.309	0.099
-498.624	-200.000	-0.077	0.377
-497.610	-60.038	0.218	0.093
-496.595	-200.000	-0.054	-0.258
-495.581	61.408	-0.289	-0.287
-494.566	-28.072	0.117	0.068
-493.551	-87.385	-0.294	0.089
-492.537	-7.525	-0.193	0.131
-491.522	129.631	0.182	-0.233
-490.508	800.000	0.052	-0.223
-489.493	140.486	-0.079	0.104
-488.478	117.584	-0.091	-0.112
-487.464	-27.169	-0.127	0.074
-486.449	-127.921	0.232	0.033
-485.435	800.000	-0.070	-0.272
-484.420	21.865	-0.269	-0.219
-483.405	235.577	0.043	-0.071
-482.391	-127.574	0.293	-0.043
-481.376	-173.056	-0.151	-0.005
-480.362	800.000	-0.035	0.113
-479.347	259.056	-0.147	-0.254
-478.332	162.503	-0.111	-0.156
-477.318	104.738	-0.076	0.090
-476.303	252.971	-0.123	0.210
-475.289	68.103	-0.143	-0.147
-474.274	83.300	-0.405	-0.441
-473.259	-70.708	-0.063	-0.024
-472.245	-189.126	-0.414	0.005
-471.230	-200.000	0.021	0.111
-470.216	240.714	0.105	-0.176
-469.201	31.188	-0.067	-0.058
-468.186	-110.382	0.321	0.067
-467.172	800.000	0.053	-0.150
-466.157	-200.000	-0.080	-0.366
-465.143	183.289	0.045	0.066
-464.128	265.592	0.054	-0.094
-463.113	-109.501	0.136	0.029
-462.099	62.667	-0.145	-0.144
-461.084	800.000	-0.031	0.125
-460.070	22.675	-0.183	0.150
-459.055	-1.981	-0.047	-0.033
-458.040	-100.091	0.271	0.067
-457.026	800.000	0.019	0.058
-456.011	10.187	-0.203	0.154
-454.997	120.763	0.044	0.055
-453.982	323.390	0.123	-0.235
-452.968	-191.618	-0.124	-0.001
-451.953	530.114	0.047	0.111
-450.938	-155.245	0.235	-0.015
-449.924	800.000	-0.079	0.240
-448.909	250.034	0.020	0.034
-447.895	641.699	-0.097	-0.248
-446.880	-200.000	-0.030	-0.202
-445.865	-109.356	-0.045	-0.010
-444.851	22.427	-0.131	0.107
-443.836	70.543	0.232	-0.239
-442.822	558.184	-0.031	0.075
-441.807	-55.018	0.338	-0.152
-440.792	-118.217	0.303	0.054
-439.778	-152.087	-0.089	0.006
-438.763	8.288	0.268	0.201
-437.749	-72.493	-0.141	-0.052
-436.734	-102.095	0.047	0.011
-435.719	-168.004	0.113	-0.004
-434.705	112.733	0.152	-0.184
-433.690	-72.768	-0.094	-0.035
-432.676	-8.036	0.189	-0.127
-431.661	182.025	0.109	-0.161
-430.646	16.992	-0.117	-0.093
-429.632	-92.128	0.078	0.022
-428.617	-14.414	0.099	0.063
-427.603	-78.785	0.134	0.046
-426.588	-127.628	0.095	-0.014
-425.573	157.075	-0.223	0.308
-424.559	-70.807	-0.097	0.036
-423.544	363.131	-0.139	0.278
-422.530	422.897	-0.107	0.229
-421.515	-200.000	0.025	-0.335
-420.500	-182.524	0.132	-0.002
-419.486	-70.282	-0.319	0.121
-418.471	285.606	0.016	0.029
-417.457	596.315	0.072	-0.178
-416.442	163.118	-0.160	-0.224
-415.428	-200.000	-0.003	-0.045
-414.413	45.069	-0.283	0.260
-413.398	54.802	0.132	0.127
-412.384	474.094	0.084	0.189
-411.369	511.875	0.100	0.231
-410.355	57.573	0.217	-0.212
-409.340	800.000	-0.065	-0.270
-408.325	-70.507	0.073	-0.027
-407.311	-200.000	-0.023	-0.104
-406.296	255.249	-0.229	-0.391
-405.282	-128.591	-0.346	-0.049
-404.267	-200.000	0.054	0.237
-403.252	9.774	0.163	0.123
-402.238	195.572	-0.057	-0.086
-401.223	-200.000	0.061	-0.269
-400.209	-200.000	0.034	-0.170
-399.194	-26.418	-0.118	-0.069
-398.179	-35.409	0.117	0.063
-397.165	-85.544	-0.199	0.062
-396.150	-102.033	0.191	0.046
-395.136	51.365	-0.138	-0.131
-394.121	380.580	0.185	-0.379
-393.106	93.698	0.071	0.080
-392.092	84.917	-0.185	-0.202
-391.077	-142.538	0.347	-0.034
-390.063	-200.000	0.001	-0.170
-389.048	46.310	0.112	0.103
-388.033	800.000	0.031	-0.088
-387.019	-166.031	0.219	-0.009
-386.004	250.530	0.106	0.180
-384.990	800.000	0.085	-0.289
-383.975	-116.831	-0.400	0.073
-382.960	-137.236	0.096	0.011
-381.946	730.688	-0.030	0.080
-380.931	137.261	-0.122	-0.159
-379.917	-102.282	0.065	0.016
-378.902	126.883	0.187	-0.236
-377.888	378.062	0.063	-0.128
-376.873	-200.000	-0.063	0.315
-375.858	3.827	-0.070	0.051
-374.844	-133.326	-0.277	-0.035
-373.829	358.028	-0.132	0.262
-372.815	35.881	0.094	0.082
-371.800	-29.584	-0.169	-0.096
-370.785	173.512	0.284	0.408
-369.771	27.490	0.227	-0.190
-368.756	-157.924	0.205	0.012
-367.742	320.624	-0.019	-0.035
-366.727	-4.590	0.209	-0.144
-365.712	800.000	0.078	-0.321
-364.698	362.363	0.077	-0.153
-363.683	-200.000	0.029	-0.269
-362.669	152.521	-0.074	-0.100
-361.654	0.805	0.097	-0.069
-360.639	-200.000	0.045	0.197
-359.625	-150.537	-0.357	-0.027
-358.610	17.107	-0.146	-0.115
-357.596	-200.000	0.035	0.262
-356.581	57.581	0.084	0.082
-355.566	-118.356	0.139	0.025
-354.552	225.332	0.176	-0.284
-353.537	199.200	-0.086	0.131
-352.523	9.391	-0.219	0.165
-351.508	-38.939	-0.270	-0.141
-350.493	800.000	0.043	-0.186
-349.479	-200.000	0.006	0.029
-348.464	533.019	0.145	0.341
-347.450	800.000	0.068	0.220
-346.435	-200.000	-0.021	0.148
-345.420	118.077	-0.098	0.120
-344.406	164.398	-0.054	0.075
-343.391	-175.340	0.328	-0.009
-342.377	273.577	-0.103	0.181
-341.362	-200.000	0.022	0.455
-340.348	335.858	0.146	-0.282
-339.333	-15.770	-0.257	0.163
-338.318	53.455	0.158	0.151
-337.304	-200.000	0.028	-0.371
-336.289	-104.876	0.190	-0.043
-335.275	-136.669	0.296	-0.034
-334.260	85.564	-0.147	0.161
-333.245	-9.064	-0.174	-0.116
-332.231	-171.994	-0.153	0.005
-331.216	-24.578	-0.261	0.154
-330.202	-60.506	-0.284	-0.120
-329.187	800.000	-0.009	-0.032
-328.172	-200.000	-0.104	-0.477
-327.158	241.072	0.063	-0.104
-326.143	-43.743	0.169	-0.085
-325.129	256.286	-0.107	-0.183
-324.114	800.000	0.055	-0.152
-323.099	-36.650	0.162	0.087
-322.085	-200.000	0.051	-0.322
-321.070	-102.051	0.212	0.051
-320.056	-42.494	0.158	0.080
-319.041	-200.000	-0.042	0.197
-318.026	172.242	0.122	0.174
-317.012	-200.000	-0.032	0.197
-315.997	-111.945	0.194	0.039
-314.983	361.078	-0.132	-0.263
-313.968	-21.200	-0.404	-0.245
-312.953	25.525	0.121	0.100
-311.939	61.930	-0.152	0.151
-310.924	-200.000	0.022	0.133
-309.910	-179.626	-0.078	0.002
-308.895	4.078	-0.276	0.201
-307.880	111.003	-0.267	0.319
-306.866	486.315	0.039	0.088
-305.851	-94.252	0.195	-0.053
-304.837	657.888	0.061	-0.156
-303.822	195.095	0.421	0.634
-302.807	-8.636	0.222	-0.148
-301.793	800.000	-0.138	-0.540
-300.778	-200.000	-0.007	0.196
-299.764	-132.924	-0.186	-0.024
-298.749	-93.808	0.421	-0.115
-297.735	176.123	-0.192	0.276
-296.720	-98.089	-0.338	0.086
-295.705	0.414	0.124	-0.088
-294.691	-77.186	0.550	-0.190
-293.676	-200.000	0.034	0.169
-292.662	-135.262	0.160	0.019
-291.647	149.578	0.098	-0.132
-290.632	-200.000	0.052	-0.281
-289.618	498.295	0.061	0.139
-288.603	-29.867	0.177	-0.100
-287.589	-71.372	-0.209	0.078
-286.574	-200.000	0.021	0.151
-285.559	18.290	0.166	0.131
-284.545	-147.322	-0.474	-0.040
-283.530	-109.168	-0.081	0.017
-282.516	800.000	-0.073	-0.305
-281.501	654.003	0.159	-0.403
-280.486	43.351	0.182	0.165
-279.472	-111.108	0.292	0.059
-278.457	-89.436	-0.203	-0.059
-277.443	-40.459	-0.146	0.075
-276.428	-200.000	0.011	0.121
-275.413	-200.000	-0.027	-0.123
-274.399	468.749	-0.076	-0.168
-273.384	800.000	-0.067	-0.184
-272.370	171.671	-0.128	-0.182
-271.355	-200.000	-0.056	0.263
-270.340	-69.862	-0.120	-0.045
-269.326	20.628	0.375	-0.301
-268.311	16.305	-0.242	0.189
-267.297	-91.860	0.067	0.019
-266.282	496.523	-0.126	0.287
-265.267	-200.000	-0.063	-0.383
-264.253	800.000	-0.063	0.193
-263.238	-109.766	0.069	-0.014
-262.224	-147.190	0.269	-0.023
-261.209	-28.739	-0.096	0.055
-260.195	-143.722	-0.287	0.027
-259.180	60.241	0.291	0.285
-258.165	-19.248	-0.117	0.072
-257.151	-119.209	0.253	0.044
-256.136	800.000	-0.097	0.336
-255.122	-60.995	-0.152	-0.064
-254.107	-11.960	-0.133	-0.086
-253.092	800.000	-0.008	-0.022
-252.078	800.000	-0.041	0.138
-251.063	-200.000	0.001	0.222
-250.049	-27.366	-0.134	0.077
-249.034	800.000	-0.105	0.429
-248.019	-200.000	0.015	-0.095
-247.005	193.559	-0.011	0.017
-245.990	-122.463	0.292	0.047
-244.976	16.500	0.145	0.113
-243.961	-99.295	0.218	0.054
-242.946	375.736	-0.122	0.247
-241.932	242.352	0.177	0.293
-240.917	-122.057	-0.389	0.063
-239.903	496.978	0.035	-0.079
-238.888	258.795	-0.034	-0.057
-237.873	40.507	0.214	0.191
-236.859	205.659	-0.312	-0.480
-235.844	-108.855	0.245	-0.052
-234.830	100.986	-0.210	0.241
-233.815	-200.000	0.028	0.182
-232.800	-42.756	-0.299	0.151
-231.786	672.446	0.046	0.119
-230.771	800.000	-0.080	0.226
-229.757	135.493	-0.147	-0.189
-228.742	-192.060	0.166	-0.002
-227.727	-114.665	-0.480	0.091
-226.713	-16.523	-0.199	0.125
-225.698	800.000	0.069	0.296
-224.684	389.826	0.108	-0.222
-223.669	37.724	0.041	-0.036
-222.655	-84.352	-0.134	-0.042
-221.640	40.350	0.115	-0.102
-220.625	6.375	0.247	0.181
-219.611	-200.000	-0.075	-0.397
-218.596	800.000	0.025	-0.106
-217.582	513.887	0.087	0.200
-216.567	319.056	0.103	0.194
-215.552	-101.827	-0.043	0.010
-214.538	-67.650	-0.029	0.011
-213.523	-200.000	0.008	-0.108
-212.509	0.776	0.090	-0.064
-211.494	-65.884	0.222	-0.088
-210.479	800.000	0.035	0.108
-209.465	31.833	-0.074	0.063
-208.450	383.235	-0.105	-0.215
-207.436	800.000	-0.087	0.366
-206.421	-91.418	-0.201	0.057
-205.406	-200.000	0.011	0.119
-204.392	74.687	-0.173	0.181
-203.377	107.019	0.046	-0.054
-202.363	-200.000	-0.045	-0.644
-201.348	-200.000	0.030	-0.446
-200.333	-139.601	-0.174	-0.018
-199.319	16.318	-0.082	0.064
-198.304	-43.531	0.274	0.137
-197.290	-19.017	-0.120	0.074
-196.275	-200.000	0.025	0.121
-195.260	-131.029	0.072	0.009
-194.246	-103.410	-0.179	-0.042
-193.231	800.000	-0.031	0.123
-192.217	656.960	0.168	0.426
-191.202	-154.492	0.300	0.020
-190.187	-73.053	-0.364	-0.132
-189.173	-62.079	0.211	0.087
-188.158	718.658	0.114	0.299
-187.144	-200.000	0.001	0.143
-186.129	111.272	0.013	0.015
-185.114	-79.561	-0.310	-0.103
-184.100	-94.886	-0.102	0.027
-183.085	-200.000	0.015	0.148
-182.071	-50.332	0.127	0.059
-181.056	-200.000	0.008	-0.110
-180.042	138.448	0.039	-0.051
-179.027	-73.661	0.179	-0.064
-178.012	-134.535	-0.290	-0.035
-176.998	278.976	0.272	-0.479
-175.983	-54.447	0.244	0.109
-174.969	-25.078	0.098	-0.057
-173.954	-85.982	0.181	0.055
-172.939	-115.566	-0.078	-0.014
-171.925	-28.578	-0.100	0.057
-170.910	-57.372	-0.206	0.090
-169.896	-50.472	0.250	0.116
-168.881	-125.051	-0.244	-0.037
-167.866	92.794	0.137	-0.153
-166.852	-139.406	0.358	-0.038
-165.837	800.000	-0.067	-0.196
-164.823	420.236	0.054	0.114
-163.808	34.306	0.219	-0.188
-162.793	-143.323	-0.111	0.010
-161.779	-61.200	0.134	-0.056
-160.764	14.157	0.300	-0.230
-159.750	-129.659	0.166	-0.023
-158.735	123.774	0.200	0.247
-157.720	-200.000	-0.050	-0.259
-156.706	-84.206	-0.234	0.073
-155.691	303.531	0.060	0.109
-154.677	-200.000	0.014	-0.245
-153.662	524.879	-0.152	-0.354
-152.647	-200.000	-0.019	-0.099
-151.633	-200.000	0.073	-0.351
-150.618	-122.188	0.248	-0.040
-149.604	-48.265	-0.091	-0.043
-148.589	24.327	0.246	-0.201
-147.574	164.745	0.175	-0.243
-146.560	107.595	0.173	-0.203
-145.545	135.683	0.104	-0.134
-144.531	-200.000	-0.028	0.148
-143.516	-200.000	0.001	-0.037
-142.502	210.786	0.045	0.070
-141.487	19.622	-0.156	-0.124
-140.472	800.000	0.039	0.108
-139.458	170.843	-0.092	0.130
-138.443	156.864	-0.135	0.184
-137.429	-200.000	0.038	0.312
-136.414	14.897	-0.216	0.167
-135.399	-72.011	-0.235	0.086
-134.385	9.120	-0.171	0.127
-133.370	242.357	0.076	-0.126
-132.356	-200.000	0.034	-0.252
-131.341	-91.961	0.257	0.072
-130.326	-200.000	0.019	0.153
-129.312	-27.967	0.126	0.072
-128.297	800.000	-0.067	-0.187
-127.283	800.000	0.013	-0.041
-126.268	-200.000	0.004	0.135
-125.253	69.789	0.169	-0.172
-124.239	-66.120	-0.149	-0.058
-123.224	99.164	-0.284	0.323
-122.210	-200.000	-0.027	-0.173
-121.195	-115.968	0.201	-0.037
