DTS Sentinel unit serial number:	SN413079Multiplexer serial number:	ORYXHardware model number:	OX4-SRSoftware version number:	ORYX F/W v4.00 Oryx Data Collector v3.7.2.0data status	okinstallation	princeton_trtdifferential loss correction	single-endedforward channel	channel 2reverse channel	N/Adate	2019/09/18time	06:19:35forward acquisition time	60.00reverse acquisition time	0.00gamma	496.2192k internal	0.2349k external	0.2349temperature offset calibration	0.9982default loss term (dB/km)	0.3790temperature slope calibration	1.0000multiplexer offset coefficient	1.0000multiplexer slope coefficient	1.0000fibre end	0.00T internal ref (°C)	23.25T ext. ref 1 (°C)	0.18T ext. ref 2 (°C)	17.84length (m)	temperature (°C)	Stokes	anti-Stokes-747.200	62.918	0.077	0.077
-746.185	-75.535	0.232	0.082
-745.171	-39.927	-0.197	-0.103
-744.156	112.437	0.176	0.212
-743.142	-25.682	-0.166	0.098
-742.127	172.412	-0.062	-0.090
-741.112	539.606	0.042	-0.099
-740.098	-134.889	-0.465	-0.056
-739.083	272.843	0.127	-0.224
-738.069	-115.866	0.165	-0.031
-737.054	-62.893	0.154	0.064
-736.039	-109.707	-0.391	-0.082
-735.025	-200.000	0.044	0.196
-734.010	-30.877	-0.250	0.141
-732.996	175.076	-0.103	-0.150
-731.981	338.656	-0.116	0.225
-730.966	189.335	-0.120	-0.179
-729.952	13.192	-0.276	-0.213
-728.937	-10.882	0.149	0.098
-727.923	48.961	-0.217	-0.204
-726.908	-58.429	-0.117	0.051
-725.894	403.361	-0.047	-0.099
-724.879	136.916	0.188	0.245
-723.864	-200.000	0.015	0.119
-722.850	63.154	0.199	0.199
-721.835	-200.000	-0.014	-0.071
-720.821	38.574	-0.038	0.034
-719.806	-154.439	-0.270	-0.018
-718.791	-200.000	-0.025	-0.220
-717.777	-85.677	0.071	0.022
-716.762	-53.438	0.205	-0.094
-715.748	-51.605	0.318	0.148
-714.733	-87.686	0.171	-0.052
-713.718	47.745	-0.132	-0.123
-712.704	208.820	0.138	0.216
-711.689	-83.476	0.098	0.031
-710.675	437.453	0.046	0.101
-709.660	33.324	0.209	0.181
-708.645	-118.355	0.198	-0.035
-707.631	800.000	-0.054	0.167
-706.616	37.940	0.209	0.186
-705.602	80.099	-0.280	-0.300
-704.587	-200.000	0.000	0.094
-703.572	-200.000	-0.050	-0.364
-702.558	-5.592	-0.209	-0.143
-701.543	-87.336	0.393	-0.119
-700.529	359.730	0.124	-0.247
-699.514	88.040	0.197	-0.218
-698.499	244.686	-0.058	0.098
-697.485	-200.000	-0.004	-0.405
-696.470	-165.062	0.300	-0.013
-695.456	-72.928	-0.293	0.108
-694.441	268.965	-0.136	0.237
-693.426	751.982	-0.075	-0.201
-692.412	443.799	-0.138	0.302
-691.397	-149.283	-0.380	-0.030
-690.383	443.444	0.087	0.190
-689.368	-8.693	-0.081	0.054
-688.354	-154.411	0.473	0.032
-687.339	-82.816	-0.265	0.085
-686.324	325.195	0.103	-0.195
-685.310	2.626	-0.280	-0.202
-684.295	-200.000	0.009	-0.236
-683.281	57.841	-0.201	0.196
-682.266	-200.000	0.026	0.158
-681.251	800.000	-0.043	-0.173
-680.237	6.191	0.126	0.093
-679.222	800.000	0.012	-0.036
-678.208	-62.535	0.071	0.029
-677.193	800.000	0.070	0.214
-676.178	-154.712	-0.245	0.016
-675.164	22.410	0.178	-0.145
-674.149	-200.000	-0.012	-0.093
-673.135	61.538	0.183	-0.181
-672.120	258.892	-0.074	0.127
-671.105	-18.955	-0.349	-0.216
-670.091	277.246	0.138	-0.244
-669.076	-99.970	0.380	0.094
-668.062	-79.789	0.295	-0.099
-667.047	-83.738	-0.546	-0.174
-666.032	679.215	-0.071	0.184
-665.018	118.875	-0.052	0.063
-664.003	-121.330	0.083	0.014
-662.989	47.517	-0.195	-0.181
-661.974	-179.466	-0.126	-0.003
-660.959	-200.000	0.063	-0.279
-659.945	155.362	-0.114	0.156
-658.930	-154.980	-0.238	0.016
-657.916	-118.794	0.139	0.024
-656.901	-200.000	-0.005	-0.057
-655.886	-92.531	-0.238	0.067
-654.872	11.037	-0.190	0.145
-653.857	85.717	-0.068	0.074
-652.843	634.627	-0.089	0.225
-651.828	-32.155	-0.172	0.095
-650.814	-200.000	0.034	0.240
-649.799	-79.556	0.097	-0.033
-648.784	364.078	0.108	0.216
-647.770	322.559	-0.134	-0.254
-646.755	10.169	-0.089	0.067
-645.741	-52.508	0.181	0.083
-644.726	-129.995	-0.193	-0.026
-643.711	800.000	-0.029	0.092
-642.697	-46.785	-0.190	0.092
-641.682	-12.160	-0.084	-0.055
-640.668	-70.480	0.167	-0.063
-639.653	80.470	0.036	-0.038
-638.638	612.759	-0.118	-0.295
-637.624	-200.000	-0.052	-0.245
-636.609	106.046	0.039	0.046
-635.595	322.600	-0.076	0.143
-634.580	48.504	0.172	-0.160
-633.565	-80.553	-0.057	0.019
-632.551	233.174	-0.130	0.213
-631.536	-140.751	-0.219	0.022
-630.522	-200.000	0.040	-0.202
-629.507	80.823	-0.002	0.002
-628.492	-78.148	0.351	-0.120
-627.478	-105.618	0.163	0.037
-626.463	-179.086	0.194	0.004
-625.449	-88.416	0.348	-0.103
-624.434	-200.000	0.084	-0.411
-623.419	-124.555	-0.271	-0.042
-622.405	800.000	0.068	-0.276
-621.390	326.723	-0.013	-0.025
-620.376	800.000	-0.058	-0.245
-619.361	-120.039	-0.040	0.007
-618.346	800.000	0.051	0.222
-617.332	-68.170	0.114	-0.044
-616.317	22.672	0.079	0.064
-615.303	659.833	0.044	0.112
-614.288	800.000	0.013	-0.037
-613.273	-200.000	-0.008	0.112
-612.259	-63.251	0.202	-0.083
-611.244	-7.450	0.093	0.062
-610.230	-200.000	0.007	-0.139
-609.215	-62.775	-0.235	-0.097
-608.201	80.088	-0.117	0.125
-607.186	138.011	-0.183	-0.238
-606.171	-115.331	0.391	0.073
-605.157	118.030	-0.155	0.190
-604.142	-96.547	0.207	0.054
-603.128	460.384	0.075	-0.166
-602.113	800.000	-0.039	0.119
-601.098	-200.000	0.011	-0.313
-600.084	-200.000	-0.022	-0.219
-599.069	-200.000	-0.049	0.361
-598.055	-200.000	-0.000	0.031
-597.040	-200.000	-0.025	-0.222
-596.025	-200.000	0.017	0.135
-595.011	9.563	0.307	0.231
-593.996	-90.237	-0.187	0.054
-592.982	-137.485	-0.278	-0.031
-591.967	18.810	-0.116	0.092
-590.952	151.614	-0.058	-0.079
-589.938	745.224	-0.042	0.112
-588.923	17.884	0.342	0.270
-587.909	-200.000	-0.002	0.046
-586.894	109.843	0.124	-0.147
-585.879	618.051	-0.148	-0.370
-584.865	-200.000	-0.067	-0.312
-583.850	-83.685	-0.101	0.032
-582.836	16.767	-0.083	0.065
-581.821	202.296	-0.127	-0.194
-580.806	-200.000	0.082	-0.426
-579.792	-200.000	0.007	0.238
-578.777	-56.559	0.160	0.070
-577.763	640.486	-0.098	0.249
-576.748	118.195	0.204	0.250
-575.733	-149.088	-0.294	-0.023
-574.719	800.000	-0.097	0.269
-573.704	-89.455	0.038	0.011
-572.690	-200.000	-0.013	-0.107
-571.675	-25.433	-0.334	-0.196
-570.661	-164.045	0.198	0.009
-569.646	-163.499	0.120	0.006
-568.631	231.711	0.037	-0.060
-567.617	800.000	-0.075	-0.240
-566.602	-129.811	-0.171	0.023
-565.588	4.503	-0.328	0.238
-564.573	180.544	-0.058	-0.084
-563.558	800.000	-0.035	0.123
-562.544	-200.000	-0.034	0.244
-561.529	-26.666	0.210	0.122
-560.515	136.568	0.142	-0.184
-559.500	122.488	0.200	0.248
-558.485	-68.692	0.276	-0.106
-557.471	800.000	-0.053	-0.218
-556.456	800.000	0.117	-0.361
-555.442	-200.000	-0.010	-0.133
-554.427	-105.108	0.151	-0.034
-553.412	114.542	-0.183	-0.220
-552.398	-188.338	0.256	-0.003
-551.383	-128.478	-0.479	0.067
-550.369	113.703	-0.235	0.283
-549.354	53.154	-0.138	-0.131
-548.339	330.754	0.071	-0.136
-547.325	183.938	0.135	0.199
-546.310	-99.778	0.260	0.065
-545.296	-200.000	-0.021	-0.176
-544.281	-117.834	0.046	0.008
-543.266	-89.562	0.184	0.054
-542.252	-200.000	0.004	0.078
-541.237	-121.989	0.384	-0.063
-540.223	-200.000	0.031	-0.211
-539.208	293.702	0.133	0.240
-538.193	-111.579	0.101	-0.020
-537.179	643.922	-0.078	0.197
-536.164	800.000	-0.099	-0.279
-535.150	331.462	0.076	0.146
-534.135	-107.576	-0.117	-0.025
-533.121	-24.585	0.138	0.082
-532.106	-126.211	-0.393	0.058
-531.091	-58.655	-0.194	0.083
-530.077	-200.000	-0.051	-0.227
-529.062	-200.000	0.006	0.129
-528.048	404.303	0.140	-0.293
-527.033	-47.312	-0.404	-0.195
-526.018	-200.000	0.017	-0.102
-525.004	146.635	0.139	-0.184
-523.989	-200.000	-0.035	0.210
-522.975	19.874	-0.104	-0.083
-521.960	-87.234	-0.052	0.016
-520.945	504.225	-0.072	0.166
-519.931	-67.563	0.388	-0.151
-518.916	-200.000	0.002	0.131
-517.902	-24.896	-0.115	0.068
-516.887	-169.642	-0.261	0.009
-515.872	356.472	0.185	-0.364
-514.858	228.925	0.101	0.163
-513.843	-48.656	0.147	-0.070
-512.829	-64.892	0.019	-0.008
-511.814	152.386	-0.222	-0.299
-510.799	800.000	0.053	-0.145
-509.785	-166.780	0.049	-0.002
-508.770	-23.962	-0.205	-0.122
-507.756	-88.101	0.116	-0.034
-506.741	-38.418	0.435	-0.228
-505.726	418.333	-0.018	0.039
-504.712	-28.771	0.151	0.086
-503.697	-88.179	-0.165	0.049
-502.683	-51.248	-0.140	-0.065
-501.668	800.000	-0.031	0.099
-500.653	-34.047	0.252	-0.137
-499.639	800.000	-0.049	0.141
-498.624	-82.486	0.200	-0.064
-497.610	-32.770	-0.228	0.126
-496.595	476.558	0.090	0.202
-495.581	-200.000	-0.038	-0.441
-494.566	-7.417	0.248	-0.166
-493.551	-200.000	0.020	0.094
-492.537	-99.244	-0.340	-0.085
-491.522	40.771	0.252	-0.225
-490.508	800.000	0.119	-0.354
-489.493	22.623	-0.229	0.185
-488.478	-200.000	0.014	-0.294
-487.464	278.511	-0.276	0.486
-486.449	125.494	-0.212	-0.265
-485.435	-77.558	0.157	0.054
-484.420	-200.000	-0.032	0.246
-483.405	46.981	-0.223	0.205
-482.391	83.305	-0.161	0.173
-481.376	-200.000	-0.007	0.098
-480.362	221.869	0.112	0.178
-479.347	21.182	-0.445	-0.357
-478.332	-166.841	-0.339	0.014
-477.318	-200.000	-0.024	0.145
-476.303	-200.000	-0.067	0.323
-475.289	-84.400	-0.142	-0.044
-474.274	11.593	-0.187	0.142
-473.259	800.000	-0.071	0.304
-472.245	-36.780	-0.331	-0.176
-471.230	-43.929	-0.090	0.045
-470.216	-77.111	-0.086	0.030
-469.201	-119.614	0.295	-0.050
-468.186	-52.409	-0.326	0.149
-467.172	-200.000	-0.018	0.342
-466.157	188.112	0.130	-0.192
-465.143	13.913	-0.130	0.100
-464.128	639.540	0.024	-0.062
-463.113	-70.711	-0.311	-0.116
-462.099	100.709	0.106	0.122
-461.084	479.728	0.028	-0.062
-460.070	41.450	-0.236	-0.211
-459.055	-97.285	-0.195	-0.050
-458.040	31.297	0.139	0.117
-457.026	-140.536	-0.194	-0.020
-456.011	-200.000	0.033	0.180
-454.997	-170.412	-0.148	-0.005
-453.982	-45.129	0.188	0.092
-452.968	-147.402	0.263	-0.022
-451.953	-80.787	0.236	-0.077
-450.938	-17.782	0.239	-0.148
-449.924	224.161	0.068	-0.109
-448.909	10.022	0.195	0.146
-447.895	136.135	-0.059	0.076
-446.880	-127.274	0.057	0.008
-445.865	35.962	0.176	0.153
-444.851	-200.000	-0.017	-0.105
-443.836	-188.728	0.317	-0.004
-442.822	-174.632	-0.309	-0.009
-441.807	-200.000	0.019	-0.182
-440.792	31.764	0.110	0.093
-439.778	800.000	-0.047	-0.188
-438.763	203.997	0.050	0.077
-437.749	-133.894	0.130	0.016
-436.734	62.779	-0.071	0.070
-435.719	788.935	0.108	-0.293
-434.705	-96.620	-0.055	-0.014
-433.690	117.365	-0.085	-0.104
-432.676	-200.000	-0.017	-0.120
-431.661	-200.000	0.015	-0.414
-430.646	114.726	-0.208	0.251
-429.632	264.835	0.161	0.277
-428.617	175.051	-0.109	-0.155
-427.603	800.000	0.051	0.141
-426.588	14.463	0.041	0.032
-425.573	44.907	-0.129	0.117
-424.559	154.153	0.324	0.438
-423.544	510.883	-0.060	0.137
-422.530	-123.714	0.235	-0.037
-421.515	-171.758	0.238	-0.008
-420.500	159.191	-0.136	-0.186
-419.486	-116.415	-0.303	-0.055
-418.471	-76.183	0.153	-0.053
-417.457	15.162	0.159	0.123
-416.442	-8.251	0.305	0.203
-415.428	79.916	-0.157	0.166
-414.413	-200.000	-0.017	-0.272
-413.398	-200.000	0.038	-0.224
-412.384	-200.000	-0.018	-0.286
-411.369	-105.236	0.189	0.042
-410.355	581.763	0.074	-0.179
-409.340	26.706	-0.248	0.205
-408.325	151.191	-0.187	-0.251
-407.311	46.812	-0.088	-0.081
-406.296	160.408	0.208	-0.286
-405.282	-200.000	0.027	-0.193
-404.267	-137.940	0.178	0.020
-403.252	-181.593	-0.505	0.010
-402.238	91.394	0.165	-0.183
-401.223	561.923	0.075	0.178
-400.209	136.500	-0.116	0.149
-399.194	-188.658	-0.255	-0.003
-398.179	-164.669	-0.079	-0.003
-397.165	800.000	-0.078	-0.216
-396.150	-112.044	-0.064	0.013
-395.136	-80.382	-0.052	0.017
-394.121	-48.653	-0.256	0.121
-393.106	-159.024	0.282	0.016
-392.092	-133.312	-0.184	0.023
-391.077	2.617	-0.173	0.124
-390.063	466.991	0.067	-0.147
-389.048	174.904	-0.152	-0.217
-388.033	800.000	-0.012	-0.039
-387.019	-15.021	0.171	-0.108
-386.004	-118.018	0.253	0.045
-384.990	-113.410	-0.098	-0.019
-383.975	800.000	0.037	0.101
-382.960	29.098	0.152	-0.127
-381.946	-200.000	-0.043	0.299
-380.931	-200.000	-0.036	-0.193
-379.917	91.170	-0.130	-0.143
-378.902	-99.496	0.363	0.090
-377.888	-148.965	-0.234	0.019
-376.873	51.133	0.153	-0.143
-375.858	-24.524	-0.280	0.164
-374.844	-33.989	-0.214	0.116
-373.829	22.952	-0.312	-0.252
-372.815	170.132	-0.126	0.178
-371.800	-98.481	0.191	0.048
-370.785	-200.000	-0.013	0.282
-369.771	-6.866	0.180	-0.121
-368.756	-200.000	-0.060	0.304
-367.742	800.000	-0.055	-0.191
-366.727	800.000	-0.108	0.388
-365.712	-200.000	0.044	-0.214
-364.698	-150.927	0.075	-0.006
-363.683	-81.569	-0.094	-0.030
-362.669	219.963	0.208	-0.327
-361.654	-95.583	0.275	0.073
-360.639	104.321	-0.150	0.174
-359.625	633.861	-0.019	-0.048
-358.610	-129.285	0.410	-0.056
-357.596	-103.808	0.230	-0.053
-356.581	71.286	0.236	-0.240
-355.566	44.907	0.167	0.151
-354.552	114.175	0.129	0.155
-353.537	101.202	0.087	0.099
-352.523	-151.225	-0.185	-0.014
-351.508	107.343	0.138	0.161
-350.493	-2.948	0.128	0.088
-349.479	52.964	0.229	0.216
-348.464	267.784	-0.179	0.307
-347.450	301.426	-0.083	-0.151
-346.435	-28.471	-0.197	0.112
-345.420	-35.546	-0.164	-0.087
-344.406	110.457	-0.118	0.139
-343.391	235.684	-0.101	-0.165
-342.377	-2.238	0.170	0.117
-341.362	-31.223	0.230	0.127
-340.348	11.272	0.201	-0.151
-339.333	4.258	0.176	-0.127
-338.318	-50.813	-0.100	0.046
-337.304	800.000	0.061	-0.252
-336.289	224.812	-0.105	0.167
-335.275	132.262	0.134	-0.170
-334.260	186.897	-0.170	-0.249
-333.245	3.718	0.440	-0.316
-332.231	-200.000	-0.016	-0.072
-331.216	-100.345	0.103	-0.025
-330.202	800.000	0.037	0.103
-329.187	-200.000	-0.070	0.320
-328.172	800.000	0.028	-0.077
-327.158	74.645	0.141	-0.146
-326.143	-30.080	-0.220	0.123
-325.129	-47.354	-0.502	0.240
-324.114	260.955	-0.040	-0.067
-323.099	-200.000	-0.033	0.189
-322.085	767.475	0.098	-0.263
-321.070	-200.000	-0.349	0.000
-320.056	206.646	-0.181	-0.277
-319.041	291.728	0.021	-0.038
-318.026	-165.316	-0.226	-0.010
-317.012	-200.000	-0.017	0.167
-315.997	-99.634	0.145	-0.036
-314.983	413.554	0.097	-0.203
-313.968	-80.738	-0.196	-0.064
-312.953	232.573	0.169	0.273
-311.939	-200.000	-0.050	0.228
-310.924	-191.569	-0.188	0.002
-309.910	800.000	0.077	0.288
-308.895	-200.000	0.049	0.417
-307.880	-200.000	0.016	0.131
-306.866	77.174	-0.013	0.014
-305.851	50.566	-0.029	-0.027
-304.837	274.380	-0.025	0.043
-303.822	648.455	-0.079	0.198
-302.807	-200.000	0.042	-0.196
-301.793	113.555	0.224	-0.267
-300.778	64.533	-0.171	0.169
-299.764	-105.991	0.226	0.050
-298.749	-3.008	-0.370	-0.253
-297.735	136.114	-0.094	-0.121
-296.720	-30.292	0.289	0.161
-295.705	-200.000	-0.007	0.194
-294.691	691.023	-0.045	0.115
-293.676	86.527	-0.109	0.117
-292.662	-70.612	0.226	0.084
-291.647	120.046	0.238	0.290
-290.632	148.390	-0.034	0.045
-289.618	21.247	-0.118	-0.094
-288.603	-53.461	0.157	-0.070
-287.589	800.000	-0.116	0.381
-286.574	-58.637	-0.082	-0.035
-285.559	-24.436	0.154	-0.090
-284.545	-200.000	0.001	-0.221
-283.530	-30.643	0.097	-0.054
-282.516	-39.837	-0.414	0.212
-281.501	-200.000	0.031	0.137
-280.486	-130.521	0.298	-0.040
-279.472	800.000	-0.041	0.113
-278.457	-65.590	-0.046	-0.018
-277.443	724.148	-0.090	-0.235
-276.428	-41.656	-0.130	-0.065
-275.413	-200.000	0.027	-0.364
-274.399	-200.000	0.014	-0.090
-273.384	286.126	0.132	0.234
-272.370	694.329	0.110	0.282
-271.355	-80.991	-0.287	0.093
-270.340	-200.000	-0.007	0.037
-269.326	-200.000	-0.031	-0.340
-268.311	-200.000	0.032	0.245
-267.297	-71.518	0.244	-0.090
-266.282	-89.450	0.032	0.009
-265.267	-200.000	-0.027	0.526
-264.253	289.651	-0.084	-0.149
-263.238	-146.526	-0.098	0.008
-262.224	73.032	0.123	-0.126
-261.209	115.343	0.219	0.262
-260.195	39.950	-0.234	0.206
-259.180	-200.000	-0.094	-0.488
-258.165	364.782	-0.123	0.242
-257.151	251.046	0.118	0.196
-256.136	800.000	0.034	-0.096
-255.122	800.000	-0.124	-0.349
-254.107	57.641	0.138	0.132
-253.092	-200.000	0.032	-0.200
-252.078	200.032	0.081	-0.121
-251.063	183.744	0.080	0.116
-250.049	-120.310	-0.072	0.012
-249.034	297.900	0.113	0.203
-248.019	-152.244	-0.265	0.019
-247.005	41.143	0.296	0.262
-245.990	94.921	0.262	0.292
-244.976	48.623	-0.052	0.048
-243.961	-200.000	0.022	0.253
-242.946	-200.000	0.042	0.219
-241.932	-200.000	-0.024	-0.151
-240.917	41.254	-0.141	-0.125
-239.903	-200.000	-0.036	0.396
-238.888	274.658	0.057	-0.099
-237.873	396.767	-0.150	0.308
-236.859	-81.475	0.137	0.044
-235.844	123.174	-0.177	0.217
-234.830	5.559	-0.281	-0.203
-233.815	-115.287	-0.197	0.037
-232.800	-52.163	-0.287	-0.130
-231.786	27.630	0.228	0.188
-230.771	-6.936	0.247	0.164
-229.757	-96.030	-0.344	-0.090
-228.742	800.000	0.094	0.291
-227.727	-89.596	-0.365	0.105
-226.713	404.873	-0.033	-0.068
-225.698	-200.000	-0.027	-0.163
-224.684	-0.973	0.145	-0.101
-223.669	618.671	-0.098	0.240
-222.655	-200.000	0.001	0.023
-221.640	6.942	0.144	0.105
-220.625	-200.000	-0.053	0.346
-219.611	-200.000	0.060	0.275
-218.596	56.522	0.156	0.149
-217.582	-109.808	0.192	0.039
-216.567	153.933	-0.212	-0.284
-215.552	-107.971	-0.237	0.050
-214.538	-183.176	0.474	0.008
-213.523	-72.640	-0.255	-0.092
-212.509	800.000	-0.112	-0.324
-211.494	23.617	0.341	-0.275
-210.479	-27.055	-0.156	-0.089
-209.465	800.000	-0.069	-0.210
-208.450	-200.000	0.010	0.105
-207.436	-200.000	-0.014	0.097
-206.421	-144.961	0.231	-0.021
-205.406	-50.514	-0.085	-0.039
-204.392	-200.000	-0.055	-0.245
-203.377	178.982	-0.189	-0.270
-202.363	-155.559	0.280	-0.018
-201.348	557.785	-0.065	0.154
-200.333	-57.794	-0.207	0.089
-199.319	-158.470	0.240	-0.014
-198.304	249.213	0.131	-0.216
-197.290	-76.605	0.136	0.047
-196.275	-200.000	-0.004	0.065
-195.260	103.061	-0.138	-0.158
-194.246	-61.240	-0.260	-0.107
-193.231	17.211	0.262	-0.203
-192.217	800.000	-0.166	0.646
-191.202	186.384	-0.015	-0.022
-190.187	-93.099	0.227	-0.062
-189.173	-29.411	-0.112	-0.063
-188.158	16.751	-0.210	-0.162
-187.144	127.521	0.034	-0.042
-186.129	-132.594	0.079	-0.010
-185.114	185.814	0.130	-0.189
-184.100	-36.068	0.203	-0.107
-183.085	-46.304	0.100	-0.048
-182.071	-164.014	-0.192	-0.009
-181.056	-117.687	0.189	-0.033
-180.042	89.001	0.195	0.212
-179.027	-200.000	0.027	0.201
-178.012	-33.915	0.221	0.119
-176.998	323.124	0.106	0.198
-175.983	172.534	-0.044	-0.062
-174.969	405.925	0.062	-0.128
-173.954	-136.063	-0.326	0.037
-172.939	270.141	-0.070	-0.120
-171.925	-26.338	0.343	0.197
-170.910	85.764	-0.142	0.153
-169.896	244.448	-0.105	-0.172
-168.881	-39.992	0.257	-0.131
-167.866	121.595	-0.174	-0.212
-166.852	-12.904	0.141	-0.090
-165.837	169.777	0.007	-0.010
-164.823	800.000	-0.063	0.183
-163.808	241.868	-0.177	0.288
-162.793	-200.000	0.019	0.192
-161.779	-200.000	-0.031	-0.442
-160.764	-200.000	0.005	-0.196
-159.750	-68.563	0.150	-0.057
-158.735	277.991	-0.156	-0.271
-157.720	-120.764	0.224	-0.037
-156.706	800.000	0.128	0.464
-155.691	800.000	-0.073	-0.249
-154.677	57.318	-0.211	0.201
-153.662	-101.054	0.333	-0.080
-152.647	-29.413	0.081	-0.045
-151.633	-129.185	-0.302	0.041
-150.618	117.224	0.246	-0.295
-149.604	69.029	0.056	0.056
-148.589	44.854	0.036	-0.033
-147.574	-24.904	-0.284	0.164
-146.560	-26.366	-0.189	-0.108
-145.545	-130.235	0.172	0.023
-144.531	94.993	-0.012	0.013
-143.516	218.289	0.095	-0.148
-142.502	89.724	0.088	-0.096
-141.487	103.065	0.153	-0.175
-140.472	5.599	-0.242	0.174
-139.458	278.279	0.204	0.354
-138.443	3.333	0.388	0.276
-137.429	-200.000	0.019	0.368
-136.414	-85.453	0.230	0.070
-135.399	-148.105	-0.081	-0.007
-134.385	367.866	-0.099	0.194
-133.370	668.114	0.137	-0.346
-132.356	359.781	-0.035	-0.068
-131.341	-33.257	-0.284	0.154
-130.326	-88.571	-0.089	-0.026
-129.312	-129.518	-0.072	-0.010
-128.297	800.000	0.026	0.099
-127.283	115.069	-0.098	0.116
-126.268	800.000	-0.086	0.241
-125.253	-105.295	-0.065	-0.014
-124.239	441.907	-0.077	-0.164
-123.224	800.000	-0.025	0.090
-122.210	-99.821	0.257	-0.063
