DTS Sentinel unit serial number:	SN413079Multiplexer serial number:	ORYXHardware model number:	OX4-SRSoftware version number:	ORYX F/W v4.00 Oryx Data Collector v3.7.2.0data status	okinstallation	princeton_trtdifferential loss correction	single-endedforward channel	channel 2reverse channel	N/Adate	2019/09/18time	14:51:34forward acquisition time	60.00reverse acquisition time	0.00gamma	496.2192k internal	0.2318k external	0.2318temperature offset calibration	1.0003default loss term (dB/km)	0.3790temperature slope calibration	1.0000multiplexer offset coefficient	1.0000multiplexer slope coefficient	1.0000fibre end	0.00T internal ref (°C)	35.12T ext. ref 1 (°C)	0.73T ext. ref 2 (°C)	31.15length (m)	temperature (°C)	Stokes	anti-Stokes-747.200	-200.000	0.010	-0.255
-746.185	39.401	-0.194	0.176
-745.171	466.656	-0.047	-0.107
-744.156	-200.000	0.044	0.253
-743.142	800.000	-0.032	-0.129
-742.127	236.125	0.172	0.288
-741.112	-47.509	0.309	0.152
-740.098	272.584	0.272	0.485
-739.083	98.478	-0.169	-0.197
-738.069	800.000	0.064	0.274
-737.054	-96.775	-0.115	0.031
-736.039	26.383	0.344	0.291
-735.025	5.082	0.136	-0.101
-734.010	-21.152	0.376	0.233
-732.996	7.525	-0.260	0.197
-731.981	-64.119	-0.173	-0.071
-730.966	800.000	-0.057	0.217
-729.952	-19.429	-0.170	-0.107
-728.937	130.450	-0.147	-0.191
-727.923	163.966	0.146	-0.208
-726.908	305.835	0.108	-0.203
-725.894	118.294	-0.105	-0.131
-724.879	-38.628	-0.237	-0.126
-723.864	-132.974	0.237	0.030
-722.850	800.000	0.034	-0.122
-721.835	-16.686	0.085	0.054
-720.821	-59.775	-0.205	-0.089
-719.806	574.053	-0.052	-0.129
-718.791	-7.784	-0.270	0.184
-717.777	-10.209	-0.199	0.134
-716.762	-158.687	0.280	0.016
-715.748	87.904	0.045	-0.050
-714.733	278.009	-0.104	-0.187
-713.718	42.571	-0.125	-0.115
-712.704	-6.562	0.315	0.217
-711.689	-144.465	0.406	-0.038
-710.675	293.065	-0.265	-0.489
-709.660	5.053	0.152	0.113
-708.645	326.603	-0.117	0.226
-707.631	-119.798	-0.128	-0.022
-706.616	13.170	-0.086	0.067
-705.602	-25.120	0.304	-0.182
-704.587	-200.000	-0.042	-0.343
-703.572	32.361	0.157	-0.137
-702.558	-200.000	-0.000	-0.070
-701.543	-95.449	0.205	0.056
-700.529	205.070	0.017	-0.027
-699.514	-141.699	-0.069	0.007
-698.499	-114.105	-0.318	0.062
-697.485	-200.000	-0.001	0.246
-696.470	532.049	-0.103	-0.247
-695.456	-92.355	0.270	0.077
-694.441	-2.558	0.307	-0.217
-693.426	800.000	0.110	-0.345
-692.412	-31.865	-0.176	0.100
-691.397	-15.400	0.137	-0.088
-690.383	64.917	-0.146	-0.149
-689.368	-157.966	-0.142	0.008
-688.354	-79.552	-0.116	0.040
-687.339	193.258	0.098	0.150
-686.324	800.000	-0.062	-0.261
-685.310	-81.287	-0.148	0.049
-684.295	647.820	-0.095	0.246
-683.281	71.593	-0.205	-0.215
-682.266	-174.400	-0.197	0.006
-681.251	-200.000	0.014	-0.146
-680.237	-200.000	-0.005	-0.186
-679.222	-49.312	0.169	-0.082
-678.208	51.535	0.191	0.183
-677.193	800.000	0.040	0.161
-676.178	164.242	0.254	-0.361
-675.164	-39.580	0.216	-0.114
-674.149	163.742	0.171	0.243
-673.135	-59.631	-0.407	-0.176
-672.120	7.026	-0.248	0.186
-671.105	-135.550	-0.204	-0.024
-670.091	-179.053	-0.061	-0.001
-669.076	-101.715	0.314	0.077
-668.062	31.853	0.153	0.133
-667.047	-24.985	-0.100	0.060
-666.032	-16.290	0.140	0.089
-665.018	63.194	0.196	0.199
-664.003	92.480	-0.226	0.257
-662.989	800.000	-0.077	-0.280
-661.974	-29.187	-0.120	-0.069
-660.959	778.608	0.097	-0.267
-659.945	372.674	-0.085	0.175
-658.930	114.673	-0.086	0.106
-657.916	-145.084	-0.101	0.009
-656.901	-49.013	-0.202	-0.097
-655.886	103.063	-0.069	0.082
-654.872	50.816	-0.320	0.305
-653.857	-148.352	0.298	-0.025
-652.843	-81.308	0.291	-0.097
-651.828	-122.677	-0.067	0.011
-650.814	-142.072	-0.516	0.052
-649.799	-200.000	-0.015	-0.110
-648.784	-30.815	0.137	0.078
-647.770	-175.640	0.165	-0.005
-646.755	-200.000	-0.077	-0.408
-645.741	-30.766	0.145	0.083
-644.726	484.799	0.059	-0.136
-643.711	-96.693	-0.294	0.078
-642.697	800.000	0.092	-0.265
-641.682	-62.071	0.191	-0.080
-640.668	-100.137	-0.267	0.067
-639.653	-200.000	0.089	0.424
-638.638	-200.000	0.021	-0.299
-637.624	68.321	0.202	-0.209
-636.609	-60.483	-0.083	-0.036
-635.595	42.628	0.374	-0.343
-634.580	728.270	-0.041	-0.112
-633.565	-99.293	0.160	0.041
-632.551	-67.146	0.354	-0.141
-631.536	591.447	0.065	0.163
-630.522	-167.254	0.324	-0.013
-629.507	539.677	0.047	-0.113
-628.492	-49.388	0.158	0.076
-627.478	-200.000	-0.070	0.489
-626.463	-12.348	0.210	0.138
-625.449	270.187	0.073	0.129
-624.434	-200.000	0.033	-0.253
-623.419	-200.000	-0.007	0.149
-622.405	-200.000	0.017	0.329
-621.390	-177.211	-0.306	0.008
-620.376	763.280	0.082	-0.224
-619.361	-12.709	-0.151	0.099
-618.346	-62.895	-0.033	0.014
-617.332	588.164	0.060	-0.150
-616.317	800.000	-0.087	0.295
-615.303	128.881	0.221	0.283
-614.288	-200.000	-0.002	0.049
-613.273	-32.169	0.106	0.059
-612.259	-79.509	0.308	0.105
-611.244	152.979	-0.073	-0.100
-610.230	-200.000	0.006	-0.119
-609.215	-22.200	0.293	-0.179
-608.201	-46.206	-0.343	-0.170
-607.186	-128.223	-0.157	-0.023
-606.171	-200.000	0.017	-0.146
-605.157	337.124	-0.231	-0.451
-604.142	-146.414	-0.089	0.008
-603.128	-105.784	0.134	-0.030
-602.113	-156.869	-0.190	-0.012
-601.098	-39.907	-0.282	0.148
-600.084	-200.000	0.001	0.312
-599.069	-200.000	-0.003	0.178
-598.055	109.033	0.103	0.124
-597.040	-106.751	0.134	-0.030
-596.025	-200.000	0.003	0.171
-595.011	2.736	-0.207	0.151
-593.996	463.318	0.107	0.240
-592.982	-200.000	0.008	0.264
-591.967	103.646	0.175	-0.207
-590.952	342.864	0.128	0.253
-589.938	-110.165	0.348	-0.073
-588.923	157.938	-0.096	-0.134
-587.909	-104.773	0.124	0.029
-586.894	800.000	0.054	-0.218
-585.879	24.590	-0.379	-0.316
-584.865	61.475	-0.240	-0.240
-583.850	-40.970	-0.318	0.166
-582.836	96.203	-0.200	-0.230
-581.821	-199.359	-0.476	0.003
-580.806	800.000	0.079	0.297
-579.792	-200.000	-0.037	-0.183
-578.777	-98.219	0.259	0.067
-577.763	1.727	0.211	0.153
-576.748	-43.416	-0.209	-0.106
-575.733	785.708	0.054	0.149
-574.719	-200.000	0.055	-0.357
-573.704	-32.215	-0.278	0.156
-572.690	-200.000	0.016	0.116
-571.675	13.191	-0.097	-0.075
-570.661	-60.891	-0.254	-0.108
-569.646	-168.270	0.149	-0.006
-568.631	800.000	0.077	-0.315
-567.617	-200.000	-0.039	-0.229
-566.602	-200.000	-0.103	-0.624
-565.588	168.879	-0.264	0.379
-564.573	52.326	0.099	-0.095
-563.558	92.622	0.201	-0.228
-562.544	-110.740	-0.338	0.070
-561.529	115.961	-0.138	0.170
-560.515	562.688	0.014	0.033
-559.500	-2.961	-0.130	0.091
-558.485	-45.728	0.237	0.118
-557.471	224.489	0.175	-0.284
-556.456	-102.101	-0.172	0.042
-555.442	-38.817	0.069	0.036
-554.427	103.520	0.282	-0.333
-553.412	-65.272	0.392	0.158
-552.398	-12.934	-0.275	0.180
-551.383	-84.679	-0.307	0.097
-550.369	-200.000	-0.038	-0.173
-549.354	39.157	-0.233	0.209
-548.339	528.157	0.116	-0.274
-547.325	120.686	-0.060	0.075
-546.310	-7.027	0.154	-0.105
-545.296	42.538	-0.109	0.100
-544.281	-6.128	0.243	0.166
-543.266	220.650	-0.136	0.219
-542.252	-200.000	0.033	-0.202
-541.237	214.710	-0.194	0.308
-540.223	-200.000	0.036	0.305
-539.208	404.666	0.117	0.248
-538.193	-154.280	0.268	-0.018
-537.179	-200.000	0.032	-0.149
-536.164	-29.877	0.084	-0.048
-535.150	-75.062	-0.081	0.029
-534.135	-200.000	-0.011	-0.341
-533.121	-200.000	0.000	-0.156
-532.106	54.672	0.188	-0.182
-531.091	17.271	-0.078	0.062
-530.077	-136.206	0.037	-0.004
-529.062	232.679	0.115	-0.190
-528.048	377.430	-0.043	0.088
-527.033	63.009	0.237	0.238
-526.018	145.359	-0.054	0.073
-525.004	-83.865	0.156	0.050
-523.989	-74.194	0.047	-0.017
-522.975	-10.509	-0.187	-0.124
-521.960	552.185	0.134	-0.322
-520.945	669.057	0.006	0.016
-519.931	361.221	0.095	0.191
-518.916	-200.000	0.035	-0.188
-517.902	111.239	0.148	0.178
-516.887	-45.290	-0.198	-0.098
-515.872	225.164	0.027	-0.045
-514.858	62.365	-0.149	0.149
-513.843	-86.083	0.109	0.034
-512.829	-200.000	0.002	-0.082
-511.814	-94.560	0.284	-0.078
-510.799	424.794	0.059	-0.128
-509.785	-200.000	0.003	-0.102
-508.770	132.650	-0.156	-0.202
-507.756	109.843	0.136	-0.163
-506.741	24.450	0.047	-0.039
-505.726	-34.592	-0.151	0.083
-504.712	-121.767	0.367	-0.061
-503.697	-200.000	0.003	-0.268
-502.683	-200.000	0.000	0.220
-501.668	-74.650	0.183	-0.066
-500.653	-140.257	0.033	-0.003
-499.639	-143.579	-0.156	-0.015
-498.624	800.000	0.032	0.106
-497.610	24.410	0.217	-0.180
-496.595	35.240	0.178	0.156
-495.581	-174.682	0.363	0.010
-494.566	56.243	0.053	-0.051
-493.551	-200.000	0.041	-0.193
-492.537	-56.021	-0.395	-0.176
-491.522	280.618	0.038	-0.069
-490.508	-137.205	-0.159	-0.018
-489.493	632.230	0.074	-0.188
-488.478	113.060	0.208	0.253
-487.464	315.660	0.159	-0.300
-486.449	-46.058	0.051	-0.025
-485.435	136.109	-0.045	-0.059
-484.420	-94.992	0.277	-0.075
-483.405	153.692	0.180	0.246
-482.391	800.000	0.077	0.309
-481.376	7.746	-0.344	-0.258
-480.362	-4.604	0.227	-0.157
-479.347	-200.000	0.024	-0.194
-478.332	-76.490	0.299	0.105
-477.318	32.611	0.152	0.132
-476.303	16.767	-0.175	-0.139
-475.289	42.772	-0.117	0.107
-474.274	-69.176	-0.207	0.080
-473.259	454.511	0.051	-0.114
-472.245	-30.372	0.096	-0.055
-471.230	-200.000	0.040	0.305
-470.216	-47.643	0.129	0.062
-469.201	-31.234	-0.495	0.279
-468.186	-200.000	0.082	0.413
-467.172	151.900	0.027	0.036
-466.157	-57.843	-0.171	-0.075
-465.143	-200.000	-0.012	-0.521
-464.128	459.094	0.082	-0.184
-463.113	42.538	0.181	-0.164
-462.099	-110.083	-0.258	-0.054
-461.084	31.079	-0.335	-0.287
-460.070	-116.772	0.314	-0.058
-459.055	-146.045	0.144	0.013
-458.040	800.000	-0.037	-0.151
-457.026	371.235	0.111	-0.224
-456.011	367.032	0.092	-0.185
-454.997	-11.937	-0.190	-0.124
-453.982	213.111	0.201	-0.317
-452.968	-14.863	-0.180	-0.116
-451.953	288.942	0.205	-0.371
-450.938	-45.277	0.218	0.108
-449.924	214.824	-0.165	-0.262
-448.909	-200.000	0.055	0.275
-447.895	109.555	0.163	0.196
-446.880	95.086	0.239	-0.273
-445.865	800.000	-0.012	0.049
-444.851	-200.000	-0.036	0.390
-443.836	-142.426	-0.306	-0.030
-442.822	800.000	-0.073	-0.209
-441.807	-104.578	-0.233	0.054
-440.792	-158.304	-0.070	0.004
-439.778	-2.278	0.119	-0.084
-438.763	-61.410	-0.060	-0.025
-437.749	-200.000	-0.007	0.257
-436.734	800.000	0.086	0.276
-435.719	-200.000	0.011	-0.098
-434.705	-200.000	0.015	-0.134
-433.690	-200.000	0.033	-0.251
-432.676	-200.000	-0.004	-0.200
-431.661	-200.000	0.123	0.557
-430.646	35.767	0.088	-0.077
-429.632	-200.000	-0.009	0.079
-428.617	241.879	0.056	-0.093
-427.603	28.725	0.170	0.144
-426.588	205.458	0.191	0.297
-425.573	86.124	-0.207	-0.228
-424.559	306.162	0.079	-0.146
-423.544	-46.198	-0.222	-0.109
-422.530	-200.000	-0.073	-0.378
-421.515	-200.000	-0.002	-0.114
-420.500	-116.596	0.217	-0.040
-419.486	299.556	0.047	0.086
-418.471	107.530	-0.076	-0.091
-417.457	-65.163	0.266	-0.107
-416.442	238.989	0.138	-0.229
-415.428	405.745	0.080	-0.169
-414.413	452.965	0.077	0.171
-413.398	105.237	0.128	0.151
-412.384	-200.000	0.081	0.375
-411.369	-65.526	-0.284	-0.114
-410.355	-200.000	-0.012	0.104
-409.340	625.814	0.096	0.241
-408.325	-57.299	-0.187	-0.082
-407.311	-114.537	0.181	-0.035
-406.296	-61.092	0.293	-0.124
-405.282	69.863	-0.181	0.186
-404.267	-147.641	-0.041	-0.003
-403.252	-20.973	-0.135	-0.082
-402.238	82.621	-0.117	0.127
-401.223	0.041	0.145	0.103
-400.209	368.712	-0.079	-0.159
-399.194	299.304	-0.126	-0.232
-398.179	157.311	-0.200	0.276
-397.165	800.000	0.107	-0.421
-396.150	-121.526	0.313	-0.052
-395.136	-19.306	0.078	-0.048
-394.121	-200.000	0.006	0.295
-393.106	7.215	-0.074	0.055
-392.092	-116.326	-0.366	0.068
-391.077	-34.164	-0.111	-0.061
-390.063	384.637	0.059	0.122
-389.048	-56.182	-0.085	0.038
-388.033	172.884	0.066	0.095
-387.019	218.488	0.166	-0.265
-386.004	-200.000	-0.028	0.236
-384.990	217.932	0.238	-0.379
-383.975	-125.118	0.318	-0.049
-382.960	296.575	-0.163	-0.299
-381.946	-160.640	-0.058	0.003
-380.931	354.866	-0.074	-0.147
-379.917	800.000	-0.088	0.304
-378.902	-42.929	0.052	0.026
-377.888	-143.698	-0.402	-0.038
-376.873	338.859	0.072	0.141
-375.858	12.330	0.141	-0.108
-374.844	800.000	-0.076	0.223
-373.829	-36.683	-0.152	-0.081
-372.815	-66.042	-0.343	0.136
-371.800	143.687	-0.223	0.296
-370.785	53.269	-0.196	0.187
-369.771	136.830	0.182	-0.237
-368.756	-31.097	0.309	-0.174
-367.742	-200.000	-0.002	0.142
-366.727	-36.300	0.096	-0.051
-365.712	155.300	0.124	-0.170
-364.698	121.302	-0.039	-0.048
-363.683	-200.000	0.008	-0.185
-362.669	800.000	-0.035	-0.109
-361.654	-127.858	-0.138	0.020
-360.639	-200.000	0.024	0.290
-359.625	-114.973	-0.446	-0.085
-358.610	-200.000	-0.017	-0.366
-357.596	-84.737	-0.204	-0.064
-356.581	75.433	0.196	-0.206
-355.566	-66.470	-0.059	-0.023
-354.552	-70.199	-0.340	-0.129
-353.537	-128.786	-0.101	-0.014
-352.523	3.682	-0.179	-0.130
-351.508	55.585	0.011	-0.011
-350.493	800.000	-0.069	-0.200
-349.479	-97.879	0.113	-0.029
-348.464	-172.766	0.267	0.008
-347.450	-128.946	-0.290	0.041
-346.435	126.093	0.175	0.220
-345.420	-30.365	-0.136	0.077
-344.406	-48.954	-0.133	0.063
-343.391	-22.208	-0.386	0.233
-342.377	121.269	-0.078	0.097
-341.362	-93.955	-0.155	-0.042
-340.348	-53.831	-0.080	-0.037
-339.333	-67.959	0.176	0.068
-338.318	-87.753	-0.326	0.098
-337.304	-102.966	-0.140	0.033
-336.289	503.233	-0.137	-0.316
-335.275	-200.000	-0.035	-0.222
-334.260	800.000	0.094	-0.315
-333.245	46.965	-0.277	0.257
-332.231	-200.000	-0.028	0.174
-331.216	191.525	0.191	0.287
-330.202	281.406	-0.111	0.198
-329.187	-18.367	0.147	-0.091
-328.172	-200.000	-0.014	0.073
-327.158	587.426	0.068	-0.167
-326.143	56.986	0.122	0.119
-325.129	-200.000	-0.035	0.214
-324.114	210.325	-0.305	0.476
-323.099	-32.858	-0.122	0.067
-322.085	207.976	-0.130	-0.202
-321.070	399.687	-0.057	-0.120
-320.056	-32.946	-0.091	0.050
-319.041	419.101	-0.079	0.167
-318.026	-200.000	-0.030	0.610
-317.012	800.000	-0.156	0.496
-315.997	8.513	-0.153	-0.114
-314.983	199.669	-0.057	0.086
-313.968	800.000	0.049	0.159
-312.953	800.000	-0.002	-0.010
-311.939	800.000	0.085	0.325
-310.924	33.298	0.188	-0.162
-309.910	-200.000	0.024	-0.287
-308.895	-200.000	-0.001	-0.069
-307.880	-200.000	-0.012	-0.272
-306.866	-200.000	0.027	0.205
-305.851	305.733	-0.088	-0.163
-304.837	572.138	0.050	-0.120
-303.822	-200.000	0.038	0.175
-302.807	76.461	-0.094	-0.099
-301.793	-194.802	-0.421	0.003
-300.778	-52.076	-0.310	0.143
-299.764	-200.000	-0.022	-0.189
-298.749	-22.819	0.175	-0.105
-297.735	800.000	0.039	-0.127
-296.720	-171.346	0.340	-0.011
-295.705	-40.999	-0.050	0.026
-294.691	305.216	0.106	-0.195
-293.676	37.355	-0.193	-0.170
-292.662	-200.000	0.062	0.348
-291.647	83.147	-0.263	0.284
-290.632	-151.489	-0.239	0.018
-289.618	-84.681	0.235	-0.074
-288.603	-200.000	-0.024	-0.150
-287.589	356.069	0.144	0.285
-286.574	-49.987	0.180	-0.085
-285.559	-192.927	0.099	0.001
-284.545	656.907	-0.077	0.196
-283.530	600.587	0.149	0.367
-282.516	800.000	0.061	0.231
-281.501	476.197	0.103	-0.231
-280.486	-200.000	0.053	0.252
-279.472	-88.833	0.057	0.017
-278.457	-66.882	0.173	-0.068
-277.443	-200.000	-0.029	-0.147
-276.428	-69.344	-0.380	-0.145
-275.413	-131.191	-0.222	-0.029
-274.399	6.804	-0.131	0.097
-273.384	44.334	0.169	0.155
-272.370	-115.356	0.155	-0.029
-271.355	-60.694	-0.192	-0.081
-270.340	-200.000	0.011	0.167
-269.326	-91.870	-0.243	-0.069
-268.311	174.427	-0.147	0.212
-267.297	-102.578	-0.010	-0.002
-266.282	17.543	-0.187	-0.148
-265.267	117.924	0.276	0.338
-264.253	-200.000	0.030	-0.403
-263.238	59.010	0.157	-0.153
-262.224	-200.000	0.031	0.221
-261.209	-120.679	0.238	0.040
-260.195	-169.443	0.136	-0.005
-259.180	-200.000	-0.005	-0.478
-258.165	-75.828	0.275	-0.097
-257.151	-13.571	0.156	0.100
-256.136	-200.000	-0.121	0.000
-255.122	-200.000	-0.050	0.481
-254.107	8.138	-0.154	0.115
-253.092	123.685	-0.077	0.096
-252.078	-173.309	0.431	0.013
-251.063	23.866	0.211	-0.173
-250.049	-200.000	0.002	0.107
-249.034	-81.966	0.305	0.099
-248.019	359.612	-0.127	-0.252
-247.005	196.057	-0.016	0.024
-245.990	-18.693	-0.266	-0.164
-244.976	291.286	-0.124	0.224
-243.961	125.429	0.210	0.263
-242.946	338.892	0.170	-0.328
-241.932	349.459	-0.012	0.024
-240.917	-39.498	-0.143	0.074
-239.903	-131.709	-0.515	0.067
-238.888	-200.000	-0.080	-0.459
-237.873	104.098	0.174	-0.203
-236.859	-200.000	0.007	0.101
-235.844	-29.577	0.329	0.187
-234.830	322.654	0.128	0.242
-233.815	-137.467	-0.362	-0.041
-232.800	17.837	-0.236	-0.187
-231.786	-75.836	-0.068	-0.024
-230.771	-200.000	0.049	-0.374
-229.757	-69.527	0.189	0.072
-228.742	75.065	0.087	-0.091
-227.727	-147.446	0.249	0.021
-226.713	75.599	0.174	0.182
-225.698	-200.000	0.002	-0.106
-224.684	-200.000	0.030	0.363
-223.669	170.903	0.159	0.226
-222.655	-42.416	0.174	0.088
-221.640	304.773	0.179	0.330
-220.625	13.925	0.288	0.222
-219.611	-87.456	-0.301	-0.090
-218.596	65.587	-0.324	-0.325
-217.582	-3.937	-0.222	0.152
-216.567	800.000	-0.054	-0.171
-215.552	460.484	-0.103	0.227
-214.538	-118.258	0.441	0.078
-213.523	0.830	0.159	-0.113
-212.509	10.937	-0.079	0.059
-211.494	209.737	0.133	-0.206
-210.479	-200.000	-0.018	0.438
-209.465	38.836	-0.160	-0.141
-208.450	-28.072	-0.131	0.075
-207.436	-132.584	-0.306	-0.039
-206.421	166.235	0.049	0.069
-205.406	285.428	0.263	0.471
-204.392	-49.956	-0.204	-0.096
-203.377	450.903	-0.204	0.447
-202.363	22.100	0.265	0.214
-201.348	-138.602	-0.297	-0.032
-200.333	-5.992	0.155	0.105
-199.319	-177.205	0.104	-0.003
-198.304	152.099	-0.318	0.429
-197.290	68.138	0.028	0.029
-196.275	288.535	-0.143	-0.257
-195.260	727.578	0.103	0.273
-194.246	-200.000	-0.030	0.353
-193.231	238.113	-0.167	0.274
-192.217	-44.060	0.188	0.093
-191.202	722.630	0.103	0.270
-190.187	632.393	-0.045	0.112
-189.173	400.580	-0.079	-0.165
-188.158	13.041	-0.110	0.084
-187.144	-111.765	-0.111	-0.022
-186.129	-37.281	0.136	0.072
-185.114	-93.572	-0.235	-0.064
-184.100	-83.461	-0.185	0.059
-183.085	-46.427	0.061	-0.029
-182.071	-55.591	0.151	-0.067
-181.056	-32.925	-0.187	0.103
-180.042	-125.186	0.381	0.058
-179.027	800.000	-0.068	0.227
-178.012	-200.000	0.015	-0.140
-176.998	582.727	0.111	0.270
-175.983	-200.000	-0.003	0.051
-174.969	32.957	0.070	-0.060
-173.954	-143.075	-0.179	-0.017
-172.939	-200.000	0.007	0.104
-171.925	-65.330	-0.336	0.134
-170.910	-83.325	0.200	0.064
-169.896	49.801	0.091	-0.085
-168.881	-14.175	0.088	0.056
-167.866	800.000	0.074	0.285
-166.852	-116.138	0.131	-0.024
-165.837	-161.201	-0.196	-0.010
-164.823	-37.717	-0.235	-0.124
-163.808	140.363	0.133	-0.173
-162.793	-200.000	-0.016	-0.201
-161.779	54.827	-0.198	-0.189
-160.764	175.287	0.029	-0.042
-159.750	-200.000	-0.002	0.122
-158.735	177.269	0.076	0.110
-157.720	429.065	0.154	-0.330
-156.706	315.957	-0.308	-0.576
-155.691	131.815	0.157	-0.199
-154.677	-105.664	0.399	-0.089
-153.662	-33.314	-0.073	-0.040
-152.647	-192.711	-0.398	-0.004
-151.633	2.448	-0.259	-0.185
-150.618	-93.536	-0.342	-0.094
-149.604	14.337	0.125	-0.096
-148.589	-200.000	0.040	-0.287
-147.574	16.150	-0.110	0.086
-146.560	-116.091	0.024	-0.005
-145.545	339.556	-0.102	-0.197
-144.531	-76.697	0.064	0.022
-143.516	173.790	0.035	0.050
-142.502	-130.825	0.127	-0.017
-141.487	-155.040	0.366	-0.024
-140.472	-200.000	0.043	-0.206
-139.458	382.574	-0.093	-0.189
-138.443	-112.658	0.255	0.050
-137.429	-126.015	-0.397	0.059
-136.414	1.532	0.057	-0.040
-135.399	4.977	0.120	-0.088
-134.385	-47.538	-0.325	0.156
-133.370	103.055	0.083	0.096
-132.356	295.460	0.051	0.093
-131.341	45.073	0.115	0.105
-130.326	-30.099	0.044	-0.025
-129.312	-141.004	0.256	0.026
-128.297	94.139	-0.193	0.217
-127.283	-200.000	-0.055	0.305
-126.268	128.965	0.158	0.199
-125.253	24.617	0.135	-0.111
-124.239	106.435	0.260	0.305
-123.224	-200.000	0.015	-0.078
-122.210	85.825	-0.056	-0.060
-121.195	-65.648	0.241	-0.095
