DTS Sentinel unit serial number:	SN413079Multiplexer serial number:	ORYXHardware model number:	OX4-SRSoftware version number:	ORYX F/W v4.00 Oryx Data Collector v3.7.2.0data status	okinstallation	princeton_trtdifferential loss correction	single-endedforward channel	channel 2reverse channel	N/Adate	2019/09/18time	12:07:35forward acquisition time	60.00reverse acquisition time	0.00gamma	496.2192k internal	0.2325k external	0.2325temperature offset calibration	0.9990default loss term (dB/km)	0.3790temperature slope calibration	1.0000multiplexer offset coefficient	1.0000multiplexer slope coefficient	1.0000fibre end	0.00T internal ref (°C)	31.66T ext. ref 1 (°C)	0.50T ext. ref 2 (°C)	27.00length (m)	temperature (°C)	Stokes	anti-Stokes-747.200	-200.000	-0.028	0.170
-746.185	-108.863	-0.124	0.027
-745.171	-200.000	0.055	0.353
-744.156	-97.085	-0.075	0.020
-743.142	-149.309	0.110	-0.009
-742.127	-124.611	0.230	-0.036
-741.112	60.530	0.140	-0.140
-740.098	800.000	-0.031	-0.138
-739.083	231.933	-0.007	-0.011
-738.069	-124.885	0.443	0.069
-737.054	89.129	0.161	0.181
-736.039	-200.000	-0.050	-0.232
-735.025	-83.738	0.147	0.047
-734.010	-62.954	-0.253	0.105
-732.996	-166.892	0.285	-0.012
-731.981	-110.964	-0.190	0.039
-730.966	5.030	-0.254	-0.189
-729.952	-148.976	0.270	0.022
-728.937	-148.106	-0.269	0.022
-727.923	-92.045	-0.223	0.064
-726.908	133.822	0.146	-0.190
-725.894	21.339	-0.105	-0.086
-724.879	-200.000	-0.019	0.234
-723.864	-177.967	-0.249	-0.006
-722.850	-0.218	-0.092	-0.066
-721.835	267.567	-0.275	-0.485
-720.821	277.456	-0.048	0.086
-719.806	800.000	0.055	0.237
-718.791	-200.000	-0.007	0.079
-717.777	522.026	0.071	0.168
-716.762	186.967	0.143	-0.214
-715.748	-112.683	0.161	-0.032
-714.733	-200.000	-0.011	0.140
-713.718	187.363	-0.045	-0.067
-712.704	515.234	-0.040	0.093
-711.689	-127.768	0.185	-0.027
-710.675	260.080	-0.174	0.304
-709.660	15.010	0.117	0.093
-708.645	-91.244	-0.111	0.032
-707.631	-68.409	0.252	0.098
-706.616	-122.992	0.151	0.025
-705.602	290.642	0.018	0.033
-704.587	-47.713	-0.169	-0.083
-703.572	227.063	0.163	0.267
-702.558	-42.357	-0.128	0.066
-701.543	-200.000	0.009	0.218
-700.529	-200.000	-0.264	0.001
-699.514	-72.684	-0.236	0.088
-698.499	80.970	-0.287	0.312
-697.485	-65.278	-0.208	-0.084
-696.470	32.632	0.051	0.044
-695.456	800.000	0.092	0.312
-694.441	27.829	-0.033	-0.028
-693.426	161.594	0.064	-0.090
-692.412	222.141	0.108	0.176
-691.397	-124.797	0.081	-0.013
-690.383	249.722	-0.202	-0.344
-689.368	572.954	-0.047	0.116
-688.354	311.024	-0.105	0.199
-687.339	-28.036	0.167	0.097
-686.324	0.163	-0.169	0.122
-685.310	-200.000	-0.053	-0.431
-684.295	555.386	0.081	0.196
-683.281	101.080	0.060	-0.071
-682.266	-181.901	0.307	-0.006
-681.251	280.122	-0.216	0.388
-680.237	598.955	0.105	-0.262
-679.222	-200.000	0.020	-0.168
-678.208	161.065	-0.046	-0.065
-677.193	68.236	0.320	0.329
-676.178	51.721	-0.270	0.259
-675.164	-46.483	-0.365	-0.180
-674.149	751.496	-0.035	0.095
-673.135	624.712	0.062	0.158
-672.120	-200.000	-0.005	-0.100
-671.105	-58.914	0.328	0.143
-670.091	-72.643	-0.255	0.095
-669.076	-192.369	0.242	-0.002
-668.062	-129.572	0.180	-0.025
-667.047	-122.194	-0.206	-0.034
-666.032	274.553	0.181	-0.323
-665.018	-200.000	0.014	-0.104
-664.003	-109.680	0.001	0.000
-662.989	800.000	-0.041	0.141
-661.974	-132.847	-0.162	0.021
-660.959	-200.000	-0.021	-0.135
-659.945	5.863	0.083	-0.062
-658.930	-85.994	-0.087	0.027
-657.916	-108.507	0.345	-0.075
-656.901	-91.002	-0.197	0.057
-655.886	-145.580	-0.104	0.009
-654.872	-38.659	0.054	0.029
-653.857	-98.163	-0.430	0.111
-652.843	379.329	-0.067	-0.139
-651.828	800.000	-0.094	0.305
-650.814	180.673	0.059	-0.087
-649.799	77.988	-0.054	-0.058
-648.784	30.823	-0.244	0.210
-647.770	97.887	0.055	0.064
-646.755	-60.038	0.110	-0.047
-645.741	-27.588	0.402	-0.235
-644.726	-185.209	0.147	-0.002
-643.711	-149.636	-0.106	-0.008
-642.697	243.187	-0.091	0.153
-641.682	-50.323	-0.082	0.039
-640.668	6.200	0.304	-0.227
-639.653	-50.105	0.052	0.025
-638.638	1.080	0.138	-0.099
-637.624	-30.086	-0.284	0.163
-636.609	-200.000	0.023	0.381
-635.595	401.407	0.120	0.253
-634.580	-200.000	-0.030	0.169
-633.565	73.187	-0.214	0.225
-632.551	272.887	-0.013	0.022
-631.536	341.756	0.027	0.053
-630.522	625.075	0.033	0.084
-629.507	207.202	0.147	0.230
-628.492	104.397	0.074	0.087
-627.478	-31.663	-0.100	0.057
-626.463	-33.219	-0.219	0.122
-625.449	153.975	0.070	-0.097
-624.434	41.384	-0.113	-0.103
-623.419	110.585	0.080	0.097
-622.405	3.749	-0.314	0.231
-621.390	29.954	0.128	-0.109
-620.376	-200.000	-0.006	0.189
-619.361	14.489	0.284	0.223
-618.346	-110.494	0.045	-0.009
-617.332	299.101	-0.075	0.138
-616.317	120.245	0.181	-0.225
-615.303	-63.777	0.043	-0.018
-614.288	402.533	0.072	0.151
-613.273	-200.000	0.010	0.176
-612.259	-200.000	0.034	-0.282
-611.244	171.881	-0.199	0.287
-610.230	-76.894	0.397	-0.139
-609.215	54.536	0.181	-0.175
-608.201	-113.168	0.429	-0.085
-607.186	-7.279	-0.048	0.033
-606.171	-11.140	0.174	0.115
-605.157	17.046	-0.207	0.164
-604.142	2.525	-0.203	0.148
-603.128	-200.000	-0.008	-0.100
-602.113	248.268	0.101	-0.172
-601.098	-111.792	-0.182	0.037
-600.084	-92.140	-0.090	0.025
-599.069	-123.539	0.353	0.056
-598.055	74.371	-0.152	0.160
-597.040	45.109	0.104	0.096
-596.025	800.000	0.096	0.309
-595.011	72.268	0.238	0.248
-593.996	-52.723	-0.108	-0.050
-592.982	-200.000	-0.019	0.385
-591.967	33.753	-0.139	0.121
-590.952	-142.291	0.224	0.022
-589.938	-125.272	-0.361	0.055
-588.923	172.741	0.095	0.137
-587.909	279.771	-0.065	0.117
-586.894	195.572	0.106	-0.162
-585.879	800.000	-0.051	-0.171
-584.865	17.844	-0.285	-0.228
-583.850	800.000	0.056	-0.185
-582.836	19.035	-0.222	0.179
-581.821	514.916	-0.068	0.158
-580.806	800.000	0.084	0.313
-579.792	154.358	-0.098	-0.134
-578.777	58.718	-0.261	-0.257
-577.763	800.000	0.091	0.272
-576.748	-167.153	0.085	0.003
-575.733	184.356	0.054	-0.079
-574.719	-200.000	0.041	-0.519
-573.704	800.000	0.084	0.241
-572.690	115.712	-0.053	-0.065
-571.675	391.511	-0.013	0.026
-570.661	263.525	0.202	0.352
-569.646	90.421	0.221	0.248
-568.631	-166.031	0.255	0.011
-567.617	50.385	-0.241	-0.228
-566.602	-89.692	-0.138	-0.040
-565.588	481.494	-0.029	-0.065
-564.573	89.647	-0.093	-0.104
-563.558	-91.493	-0.284	-0.081
-562.544	-37.566	-0.290	0.155
-561.529	-200.000	0.020	-0.186
-560.515	-101.442	-0.294	-0.072
-559.500	800.000	-0.107	-0.356
-558.485	-200.000	0.070	0.382
-557.471	-54.046	-0.090	-0.041
-556.456	44.677	-0.338	-0.311
-555.442	109.177	0.192	0.230
-554.427	115.883	0.160	0.197
-553.412	800.000	-0.081	-0.229
-552.398	-80.646	-0.290	-0.097
-551.383	-31.707	0.270	-0.152
-550.369	-138.784	-0.097	0.011
-549.354	45.951	-0.151	-0.140
-548.339	0.160	0.172	0.123
-547.325	28.160	0.141	-0.119
-546.310	152.760	-0.370	0.506
-545.296	65.028	0.102	-0.103
-544.281	112.269	-0.099	0.120
-543.266	21.715	-0.182	0.148
-542.252	-200.000	0.071	-0.318
-541.237	373.136	-0.139	0.283
-540.223	624.972	0.103	0.260
-539.208	-108.855	-0.187	-0.040
-538.193	-200.000	-0.039	-0.176
-537.179	-27.241	0.048	-0.028
-536.164	-38.105	0.256	-0.136
-535.150	-200.000	0.001	-0.149
-534.135	36.418	-0.138	0.122
-533.121	-127.302	-0.195	-0.028
-532.106	-200.000	0.008	-0.431
-531.091	145.609	-0.189	-0.253
-530.077	137.003	-0.065	0.084
-529.062	800.000	0.071	0.205
-528.048	72.470	0.197	-0.206
-527.033	-200.000	-0.010	-0.579
-526.018	800.000	-0.070	-0.212
-525.004	-80.382	0.388	-0.130
-523.989	-200.000	0.007	-0.346
-522.975	166.832	-0.072	0.102
-521.960	-200.000	0.012	-0.114
-520.945	-38.760	-0.317	-0.167
-519.931	-58.169	0.316	-0.137
-518.916	100.174	0.109	-0.127
-517.902	-89.862	0.097	-0.028
-516.887	-44.766	0.123	-0.061
-515.872	81.108	-0.190	-0.205
-514.858	-104.847	-0.414	-0.095
-513.843	-200.000	0.036	0.265
-512.829	-107.258	-0.074	-0.016
-511.814	-200.000	-0.005	-0.126
-510.799	-126.097	0.200	0.030
-509.785	-200.000	-0.034	-0.168
-508.770	350.108	0.108	0.214
-507.756	273.764	-0.065	-0.114
-506.741	800.000	-0.050	-0.203
-505.726	45.279	-0.287	0.264
-504.712	-142.094	-0.122	0.012
-503.697	-34.317	-0.168	0.092
-502.683	155.059	0.032	-0.044
-501.668	-200.000	0.003	-0.191
-500.653	294.303	0.084	0.154
-499.639	-200.000	0.023	0.303
-498.624	98.609	0.251	0.289
-497.610	-110.645	-0.213	0.044
-496.595	-90.616	-0.444	0.128
-495.581	-140.026	-0.176	-0.018
-494.566	-200.000	0.010	-0.118
-493.551	-29.522	0.036	-0.021
-492.537	231.797	0.139	0.228
-491.522	38.226	-0.185	0.165
-490.508	-72.675	-0.137	-0.051
-489.493	-67.321	-0.135	-0.053
-488.478	-200.000	-0.075	0.329
-487.464	246.712	-0.148	0.250
-486.449	314.010	-0.079	0.148
-485.435	-200.000	-0.002	0.089
-484.420	-200.000	-0.020	0.096
-483.405	640.017	-0.052	-0.131
-482.391	570.930	-0.240	0.584
-481.376	800.000	0.036	-0.151
-480.362	800.000	0.050	0.162
-479.347	-200.000	-0.041	0.255
-478.332	50.212	-0.263	-0.248
-477.318	-40.825	0.193	-0.100
-476.303	-54.753	0.301	0.136
-475.289	-200.000	0.004	0.145
-474.274	-200.000	-0.026	0.135
-473.259	-200.000	0.051	0.386
-472.245	-44.663	-0.259	0.129
-471.230	293.692	-0.088	-0.160
-470.216	-200.000	0.005	-0.143
-469.201	-200.000	-0.024	-0.248
-468.186	5.936	0.117	0.086
-467.172	-200.000	-0.024	-0.189
-466.157	800.000	-0.026	-0.073
-465.143	19.730	-0.333	-0.268
-464.128	-200.000	-0.019	0.135
-463.113	-200.000	0.038	-0.289
-462.099	-200.000	0.038	0.175
-461.084	800.000	0.130	-0.471
-460.070	49.107	-0.137	0.128
-459.055	61.219	-0.081	-0.081
-458.040	-13.488	-0.028	-0.018
-457.026	8.146	-0.187	0.140
-456.011	48.563	0.210	0.196
-454.997	-0.095	-0.102	-0.073
-453.982	16.192	-0.177	-0.139
-452.968	800.000	0.086	0.269
-451.953	-33.199	-0.193	-0.106
-450.938	-153.471	-0.383	0.026
-449.924	245.536	0.115	0.194
-448.909	692.051	0.030	0.077
-447.895	56.934	0.248	-0.241
-446.880	-63.272	0.118	0.048
-445.865	-104.607	-0.254	0.059
-444.851	534.294	-0.019	0.046
-443.836	-200.000	0.037	0.259
-442.822	76.583	0.291	-0.307
-441.807	29.196	-0.045	0.038
-440.792	-106.395	-0.038	0.009
-439.778	-89.302	-0.170	-0.050
-438.763	-97.671	0.124	-0.032
-437.749	-20.814	-0.108	-0.066
-436.734	800.000	-0.068	0.206
-435.719	-132.624	-0.242	-0.031
-434.705	78.362	0.131	-0.140
-433.690	666.346	0.015	-0.039
-432.676	-120.160	-0.234	0.040
-431.661	-61.987	0.165	-0.069
-430.646	222.910	0.014	0.023
-429.632	27.629	-0.294	0.247
-428.617	-184.365	0.158	0.003
-427.603	-113.078	-0.103	0.020
-426.588	-149.432	0.181	-0.014
-425.573	4.529	0.035	0.025
-424.559	-167.374	-0.217	-0.009
-423.544	51.174	0.199	-0.188
-422.530	-162.018	0.347	0.017
-421.515	-200.000	-0.003	0.339
-420.500	-200.000	0.011	0.106
-419.486	9.301	0.137	0.103
-418.471	-116.340	0.134	0.025
-417.457	800.000	-0.111	0.427
-416.442	-50.982	-0.234	-0.110
-415.428	258.086	-0.115	-0.197
-414.413	200.285	0.036	-0.056
-413.398	7.529	0.326	-0.243
-412.384	-18.416	-0.086	-0.053
-411.369	-125.108	0.118	-0.018
-410.355	800.000	-0.035	-0.127
-409.340	-200.000	0.030	-0.464
-408.325	96.374	0.073	-0.083
-407.311	144.951	0.168	-0.224
-406.296	-4.787	0.057	0.039
-405.282	58.859	0.287	-0.281
-404.267	-92.240	0.299	-0.084
-403.252	28.628	0.278	-0.234
-402.238	800.000	0.136	-0.394
-401.223	-200.000	-0.015	0.323
-400.209	-36.864	-0.325	0.174
-399.194	-186.895	0.231	0.003
-398.179	-91.714	-0.186	-0.053
-397.165	214.569	0.194	-0.307
-396.150	-33.069	0.130	0.072
-395.136	319.886	-0.105	0.199
-394.121	542.807	0.051	0.121
-393.106	-33.867	0.187	0.103
-392.092	80.576	-0.239	-0.256
-391.077	-111.989	-0.196	-0.039
-390.063	-85.985	0.440	-0.135
-389.048	17.079	-0.129	-0.102
-388.033	482.135	0.048	0.109
-387.019	-87.550	-0.106	0.032
-386.004	800.000	-0.046	0.158
-384.990	-136.760	0.197	-0.023
-383.975	-44.195	-0.168	-0.084
-382.960	-16.194	0.161	-0.102
-381.946	800.000	0.041	-0.144
-380.931	13.017	-0.116	0.090
-379.917	-105.856	0.218	0.049
-378.902	129.702	-0.326	-0.414
-377.888	-133.447	-0.125	0.016
-376.873	800.000	0.026	0.098
-375.858	800.000	-0.032	0.135
-374.844	-102.323	-0.230	-0.055
-373.829	112.177	0.056	0.068
-372.815	-188.345	0.088	-0.001
-371.800	306.214	-0.135	-0.250
-370.785	-33.034	-0.446	-0.246
-369.771	408.382	-0.125	0.264
-368.756	-57.226	-0.130	0.057
-367.742	31.268	0.202	0.172
-366.727	-7.609	-0.099	0.067
-365.712	-200.000	0.045	-0.207
-364.698	-183.544	0.213	0.004
-363.683	313.623	0.115	-0.216
-362.669	32.897	0.209	-0.180
-361.654	800.000	0.043	-0.119
-360.639	177.416	-0.174	0.252
-359.625	553.034	-0.072	0.171
-358.610	7.440	0.231	0.172
-357.596	83.182	-0.194	-0.210
-356.581	-31.227	-0.092	-0.052
-355.566	565.334	0.051	0.123
-354.552	-57.829	0.171	-0.074
-353.537	-200.000	0.054	-0.323
-352.523	800.000	-0.064	-0.185
-351.508	44.174	-0.174	-0.158
-350.493	-95.951	-0.067	-0.018
-349.479	473.560	0.043	-0.097
-348.464	770.275	-0.074	-0.200
-347.450	130.399	0.069	-0.087
-346.435	74.092	0.115	0.120
-345.420	436.601	-0.060	-0.129
-344.406	-43.945	0.231	-0.115
-343.391	-63.316	0.037	-0.015
-342.377	-180.508	0.156	0.003
-341.362	16.784	0.120	0.094
-340.348	-3.677	-0.569	0.392
-339.333	574.250	0.105	-0.254
-338.318	-50.262	0.257	0.121
-337.304	176.092	-0.071	0.102
-336.289	19.544	0.508	0.406
-335.275	-200.000	0.062	-0.410
-334.260	-69.100	-0.098	0.038
-333.245	-70.072	-0.297	0.112
-332.231	-81.565	0.485	0.158
-331.216	800.000	-0.016	-0.051
-330.202	7.613	-0.218	-0.162
-329.187	-200.000	0.001	0.243
-328.172	-173.921	0.311	-0.009
-327.158	-124.023	0.377	-0.059
-326.143	-200.000	-0.050	0.381
-325.129	112.932	0.141	-0.169
-324.114	-69.037	-0.094	0.036
-323.099	-200.000	0.037	-0.193
-322.085	579.714	0.061	-0.148
-321.070	-14.674	0.289	-0.185
-320.056	-56.113	-0.170	0.075
-319.041	-200.000	0.029	0.239
-318.026	98.823	-0.130	-0.149
-317.012	-57.354	0.285	0.124
-315.997	-147.796	-0.224	-0.019
-314.983	-200.000	-0.025	0.431
-313.968	134.306	0.110	0.141
-312.953	-200.000	-0.009	0.111
-311.939	696.087	0.123	-0.320
-310.924	276.161	-0.146	-0.258
-309.910	201.969	-0.138	-0.212
-308.895	-73.980	0.402	-0.145
-307.880	226.010	-0.187	-0.301
-306.866	-58.347	0.296	0.128
-305.851	-200.000	-0.025	0.194
-304.837	-200.000	0.002	0.186
-303.822	-42.775	0.344	-0.174
-302.807	74.515	-0.045	0.047
-301.793	196.358	0.088	-0.133
-300.778	-152.587	0.148	-0.010
-299.764	-113.494	0.332	-0.064
-298.749	217.995	-0.192	0.303
-297.735	-153.509	-0.165	-0.011
-296.720	290.229	-0.124	0.223
-295.705	133.079	0.093	-0.119
-294.691	269.816	0.115	0.200
-293.676	163.853	-0.084	-0.117
-292.662	-107.030	0.200	0.044
-291.647	195.183	-0.192	-0.290
-290.632	127.652	-0.041	0.051
-289.618	-85.905	0.140	-0.043
-288.603	-122.644	0.215	0.034
-287.589	165.235	0.140	0.196
-286.574	-45.356	0.238	0.117
-285.559	-200.000	0.045	-0.283
-284.545	-4.897	0.162	-0.110
-283.530	-71.001	-0.295	-0.110
-282.516	-91.603	-0.142	0.040
-281.501	723.116	0.103	-0.271
-280.486	800.000	0.023	0.072
-279.472	800.000	-0.053	0.160
-278.457	9.208	0.031	-0.023
-277.443	800.000	-0.133	0.383
-276.428	-21.595	-0.107	0.064
-275.413	189.772	0.094	0.140
-274.399	-74.732	0.202	-0.072
-273.384	58.266	-0.091	0.088
-272.370	-200.000	0.042	0.586
-271.355	-200.000	-0.009	0.286
-270.340	800.000	0.122	-0.387
-269.326	-200.000	-0.005	-0.237
-268.311	48.434	-0.090	0.084
-267.297	119.522	-0.134	-0.164
-266.282	104.955	-0.017	0.019
-265.267	-200.000	-0.008	-0.078
-264.253	513.638	0.076	0.176
-263.238	209.673	-0.077	0.119
-262.224	-200.000	0.057	-0.405
-261.209	-200.000	0.014	-0.233
-260.195	60.126	-0.043	0.042
-259.180	791.475	0.149	0.405
-258.165	377.786	-0.085	-0.172
-257.151	800.000	0.016	-0.045
-256.136	-197.854	0.314	-0.002
-255.122	225.955	-0.053	0.084
-254.107	186.968	0.202	-0.299
-253.092	-39.029	-0.192	0.100
-252.078	-8.722	-0.093	-0.062
-251.063	190.783	-0.105	-0.157
-250.049	77.988	0.206	0.218
-249.034	65.065	0.142	-0.142
-248.019	800.000	0.045	0.180
-247.005	800.000	-0.080	-0.270
-245.990	18.744	0.296	-0.234
-244.976	-44.813	-0.095	-0.047
-243.961	68.652	-0.041	-0.041
-242.946	-38.462	-0.193	-0.101
-241.932	3.365	-0.166	-0.119
-240.917	800.000	-0.091	0.372
-239.903	-25.151	0.154	-0.090
-238.888	-109.134	0.268	-0.056
-237.873	800.000	-0.070	0.197
-236.859	800.000	0.091	-0.287
-235.844	32.034	0.089	0.076
-234.830	-16.676	0.229	0.144
-233.815	-200.000	-0.004	-0.202
-232.800	206.938	-0.075	-0.116
-231.786	-59.294	0.137	0.059
-230.771	800.000	0.122	-0.365
-229.757	-106.441	-0.230	0.051
-228.742	-47.664	0.094	-0.045
-227.727	19.485	0.294	0.233
-226.713	-200.000	-0.011	0.254
-225.698	800.000	0.059	-0.168
-224.684	278.691	-0.127	0.225
-223.669	452.315	0.164	-0.359
-222.655	115.838	-0.034	0.041
-221.640	-39.255	-0.159	-0.082
-220.625	-61.579	0.370	0.154
-219.611	-105.534	0.176	0.040
-218.596	-78.012	-0.099	0.034
-217.582	800.000	-0.039	0.154
-216.567	-1.155	0.083	0.058
-215.552	58.070	0.129	-0.125
-214.538	173.309	-0.117	-0.166
-213.523	-200.000	-0.041	0.260
-212.509	-200.000	0.040	-0.212
-211.494	-200.000	-0.000	0.030
-210.479	36.561	0.157	0.137
-209.465	194.197	-0.059	-0.088
-208.450	-200.000	0.023	0.374
-207.436	-22.179	-0.344	0.206
-206.421	-200.000	0.005	-0.117
-205.406	-76.083	-0.134	-0.047
-204.392	8.348	0.317	-0.235
-203.377	18.884	-0.161	0.127
-202.363	-11.039	0.231	0.151
-201.348	-200.000	-0.007	0.137
-200.333	-43.807	0.095	0.047
-199.319	-95.719	-0.365	-0.096
-198.304	77.370	-0.133	0.140
-197.290	104.035	-0.148	-0.171
-196.275	56.197	-0.137	0.131
-195.260	-46.353	-0.415	0.202
-194.246	-9.234	-0.055	-0.036
-193.231	97.171	0.126	0.143
-192.217	-200.000	-0.062	-0.298
-191.202	-195.843	-0.197	0.001
-190.187	445.700	0.191	-0.415
-189.173	-200.000	0.051	-0.310
-188.158	-7.177	-0.156	0.104
-187.144	800.000	-0.034	-0.127
-186.129	96.717	-0.315	-0.356
-185.114	258.296	0.083	-0.142
-184.100	11.255	-0.144	0.109
-183.085	231.159	-0.041	0.066
-182.071	-200.000	-0.035	0.167
-181.056	-115.499	-0.172	0.032
-180.042	59.062	0.287	0.278
-179.027	-117.202	0.047	-0.008
-178.012	574.270	-0.124	0.298
-176.998	348.984	-0.154	0.300
-175.983	193.947	0.187	-0.279
-174.969	-200.000	0.022	0.186
-173.954	-200.000	0.022	-0.462
-172.939	-110.493	-0.113	0.023
-171.925	-145.185	0.172	0.015
-170.910	386.376	-0.095	-0.193
-169.896	800.000	0.096	-0.352
-168.881	-124.711	0.101	-0.015
-167.866	158.297	0.078	0.106
-166.852	266.491	-0.106	-0.183
-165.837	160.992	-0.049	0.068
-164.823	-54.613	-0.109	0.048
-163.808	230.773	0.185	-0.299
-162.793	-200.000	-0.009	0.095
-161.779	668.834	-0.038	0.097
-160.764	1.962	-0.261	-0.186
-159.750	-200.000	-0.047	0.414
-158.735	-63.056	0.405	0.165
-157.720	800.000	-0.046	0.135
-156.706	-200.000	-0.020	-0.116
-155.691	340.214	-0.084	0.161
-154.677	-126.556	-0.359	0.053
-153.662	40.733	-0.100	-0.089
-152.647	-14.259	-0.101	-0.064
-151.633	-109.120	-0.152	-0.032
-150.618	-115.716	0.166	-0.031
-149.604	-120.787	0.081	-0.013
-148.589	-113.682	0.129	-0.025
-147.574	-200.000	-0.043	-0.247
-146.560	-27.438	-0.129	-0.074
-145.545	13.407	-0.062	-0.047
-144.531	-200.000	0.020	0.132
-143.516	-200.000	0.013	-0.203
-142.502	14.735	-0.135	0.104
-141.487	-153.077	0.252	0.017
-140.472	800.000	-0.076	0.220
-139.458	800.000	-0.052	0.162
-138.443	11.979	0.253	0.191
-137.429	12.494	0.231	0.176
-136.414	-200.000	-0.009	0.247
-135.399	-5.995	-0.082	-0.055
-134.385	-79.821	0.253	-0.084
-133.370	-158.501	-0.264	-0.015
-132.356	146.622	0.084	0.112
-131.341	335.921	0.045	0.085
-130.326	-200.000	-0.029	-0.221
-129.312	94.519	0.183	0.205
-128.297	-6.967	0.083	-0.055
-127.283	-200.000	-0.003	0.040
-126.268	-46.564	-0.151	0.073
-125.253	89.563	0.140	0.154
-124.239	-24.807	0.124	0.073
-123.224	122.996	0.116	-0.144
-122.210	-42.178	0.315	0.158
-121.195	-117.761	-0.036	-0.006
-120.180	-5.791	-0.227	-0.153
