DTS Sentinel unit serial number:	SN413079Multiplexer serial number:	ORYXHardware model number:	OX4-SRSoftware version number:	ORYX F/W v4.00 Oryx Data Collector v3.7.2.0data status	okinstallation	princeton_trtdifferential loss correction	single-endedforward channel	channel 2reverse channel	N/Adate	2019/09/13time	01:19:35forward acquisition time	60.00reverse acquisition time	0.00gamma	496.2192k internal	0.2334k external	0.2334temperature offset calibration	1.0168default loss term (dB/km)	0.3790temperature slope calibration	1.0000multiplexer offset coefficient	1.0000multiplexer slope coefficient	1.0000fibre end	0.00T internal ref (°C)	27.87T ext. ref 1 (°C)	3.70T ext. ref 2 (°C)	22.48length (m)	temperature (°C)	Stokes	anti-Stokes-747.200	-77.175	-0.289	-0.101
-746.185	209.202	-0.185	0.292
-745.171	450.482	0.056	-0.124
-744.156	-136.592	-0.126	0.015
-743.142	-80.341	0.451	0.151
-742.127	74.120	-0.143	0.151
-741.112	99.073	-0.071	0.082
-740.098	-45.663	0.149	0.074
-739.083	79.640	-0.127	0.138
-738.069	-135.332	-0.321	0.039
-737.054	-200.000	0.029	-0.187
-736.039	322.007	-0.174	-0.333
-735.025	-168.762	0.436	0.017
-734.010	270.367	-0.291	-0.514
-732.996	800.000	0.034	0.135
-731.981	23.577	0.085	0.070
-730.966	88.706	0.205	-0.229
-729.952	377.742	0.043	-0.088
-728.937	-41.148	-0.240	-0.125
-727.923	-25.751	-0.314	-0.186
-726.908	800.000	0.087	-0.295
-725.894	64.503	-0.105	-0.106
-724.879	-99.282	-0.347	0.088
-723.864	144.383	0.168	0.225
-722.850	-200.000	0.028	0.190
-721.835	-47.141	0.099	0.049
-720.821	-137.981	-0.076	-0.009
-719.806	76.450	0.096	-0.102
-718.791	-103.419	-0.184	-0.044
-717.777	-101.316	-0.295	-0.072
-716.762	-43.061	-0.211	-0.108
-715.748	-162.839	-0.228	0.011
-714.733	-101.021	-0.220	-0.054
-713.718	266.848	-0.082	-0.144
-712.704	116.144	0.236	-0.291
-711.689	474.854	-0.080	0.181
-710.675	176.633	-0.078	-0.113
-709.660	-92.388	-0.068	0.019
-708.645	-114.360	-0.192	-0.037
-707.631	-76.819	0.128	0.045
-706.616	155.893	0.123	-0.170
-705.602	-99.641	-0.157	-0.040
-704.587	800.000	0.128	-0.473
-703.572	-137.302	-0.247	0.028
-702.558	35.801	-0.043	-0.038
-701.543	415.115	0.248	-0.530
-700.529	-200.000	0.030	-0.237
-699.514	33.157	-0.288	-0.251
-698.499	-135.812	0.236	0.028
-697.485	226.376	-0.158	0.258
-696.470	643.343	0.050	-0.128
-695.456	490.623	0.049	-0.113
-694.441	-46.679	-0.301	0.148
-693.426	-6.906	-0.044	-0.030
-692.412	375.355	-0.147	-0.301
-691.397	800.000	0.031	0.133
-690.383	32.798	-0.196	0.170
-689.368	800.000	0.026	0.082
-688.354	-49.504	-0.143	0.068
-687.339	-118.151	-0.134	0.024
-686.324	94.388	0.190	-0.216
-685.310	-13.078	-0.075	0.049
-684.295	-200.000	-0.072	-0.371
-683.281	-200.000	-0.027	-0.258
-682.266	-65.458	0.043	0.017
-681.251	329.931	0.001	-0.002
-680.237	-136.999	0.080	0.009
-679.222	434.267	0.144	-0.314
-678.208	-30.763	-0.194	-0.110
-677.193	800.000	0.023	-0.088
-676.178	800.000	-0.048	0.166
-675.164	128.217	-0.342	-0.436
-674.149	-45.133	-0.508	0.253
-673.135	-143.664	0.372	-0.035
-672.120	-200.000	-0.028	-0.141
-671.105	-145.986	-0.179	0.016
-670.091	-200.000	-0.008	-0.306
-669.076	-141.579	0.277	-0.028
-668.062	-42.443	0.483	-0.247
-667.047	-126.792	-0.200	-0.030
-666.032	-101.352	0.174	0.042
-665.018	579.316	0.051	0.125
-664.003	695.559	0.126	0.330
-662.989	76.745	-0.124	-0.132
-661.974	498.523	0.100	-0.231
-660.959	-200.000	-0.034	0.270
-659.945	-139.429	0.120	0.013
-658.930	-200.000	-0.042	-0.299
-657.916	800.000	-0.025	-0.081
-656.901	27.337	0.095	-0.080
-655.886	70.532	-0.094	0.097
-654.872	-44.592	-0.293	-0.147
-653.857	13.673	-0.266	-0.207
-652.843	-54.248	-0.160	0.073
-651.828	-17.970	0.104	-0.065
-650.814	-200.000	0.015	0.201
-649.799	-52.024	-0.404	-0.188
-648.784	800.000	-0.086	-0.298
-647.770	85.855	0.028	-0.031
-646.755	349.055	0.143	-0.282
-645.741	-200.000	-0.007	-0.216
-644.726	-66.132	-0.163	-0.065
-643.711	-200.000	-0.018	-0.141
-642.697	42.244	-0.398	-0.362
-641.682	-89.548	-0.057	-0.017
-640.668	-153.096	-0.177	-0.012
-639.653	155.921	-0.195	-0.269
-638.638	-101.425	0.037	-0.009
-637.624	-145.831	-0.229	-0.020
-636.609	-200.000	0.089	-0.443
-635.595	-14.968	-0.364	-0.234
-634.580	-138.667	-0.313	0.034
-633.565	-200.000	0.003	-0.393
-632.551	317.935	-0.067	-0.128
-631.536	-152.506	0.022	-0.002
-630.522	-165.925	0.200	-0.009
-629.507	58.396	0.121	-0.119
-628.492	17.347	0.088	0.070
-627.478	-200.000	-0.014	-0.399
-626.463	24.468	-0.161	-0.133
-625.449	-44.707	-0.137	-0.068
-624.434	-200.000	-0.031	-0.196
-623.419	37.910	-0.344	-0.306
-622.405	-75.287	0.195	0.070
-621.390	41.230	-0.287	0.260
-620.376	-143.388	0.086	0.008
-619.361	492.721	-0.045	0.102
-618.346	-7.129	-0.186	-0.126
-617.332	-82.125	-0.306	-0.100
-616.317	-200.000	0.011	0.159
-615.303	41.481	0.152	-0.137
-614.288	6.513	-0.158	-0.118
-613.273	150.175	0.096	0.131
-612.259	800.000	-0.024	0.097
-611.244	-200.000	-0.047	0.250
-610.230	-78.807	-0.414	-0.141
-609.215	-107.019	-0.271	-0.060
-608.201	-139.445	0.222	0.024
-607.186	-60.326	0.294	-0.125
-606.171	800.000	0.050	-0.174
-605.157	11.603	0.147	0.113
-604.142	800.000	-0.046	-0.153
-603.128	-146.521	0.343	-0.030
-602.113	-200.000	0.016	0.117
-601.098	-200.000	0.013	0.209
-600.084	253.146	0.142	0.242
-599.069	455.033	0.090	-0.199
-598.055	-200.000	-0.014	0.176
-597.040	219.029	0.139	-0.222
-596.025	-116.158	-0.130	0.024
-595.011	-30.317	-0.181	-0.103
-593.996	-117.627	-0.235	-0.042
-592.982	-75.755	0.075	-0.026
-591.967	22.714	-0.156	0.127
-590.952	-121.846	0.144	-0.024
-589.938	-100.744	-0.225	-0.055
-588.923	178.874	0.184	0.269
-587.909	-147.231	-0.234	0.020
-586.894	100.085	-0.233	0.270
-585.879	-81.009	-0.264	0.087
-584.865	-200.000	-0.031	0.356
-583.850	-188.116	0.090	-0.001
-582.836	-126.282	0.062	-0.009
-581.821	354.085	0.075	0.149
-580.806	381.293	-0.112	0.230
-579.792	-127.207	0.243	0.035
-578.777	-157.837	-0.335	0.020
-577.763	-200.000	0.055	-0.296
-576.748	-200.000	-0.017	0.126
-575.733	-80.630	-0.308	-0.102
-574.719	-10.503	0.119	-0.079
-573.704	-49.356	-0.184	-0.088
-572.690	74.094	0.189	0.198
-571.675	649.245	-0.044	0.114
-570.661	-200.000	0.009	-0.103
-569.646	-95.428	-0.047	0.013
-568.631	64.625	-0.171	0.173
-567.617	-130.068	-0.212	-0.029
-566.602	107.656	0.183	-0.217
-565.588	-82.297	0.043	0.014
-564.573	-168.301	-0.175	-0.007
-563.558	2.589	0.216	-0.156
-562.544	162.454	0.155	-0.217
-561.529	107.509	-0.084	-0.099
-560.515	449.269	0.058	-0.127
-559.500	17.444	-0.137	-0.109
-558.485	-133.232	0.265	-0.033
-557.471	355.068	0.097	0.193
-556.456	-200.000	-0.005	0.429
-555.442	-129.637	0.157	-0.022
-554.427	677.114	0.022	-0.058
-553.412	279.029	-0.108	0.193
-552.398	800.000	-0.062	0.240
-551.383	-200.000	-0.073	0.455
-550.369	563.171	-0.112	-0.270
-549.354	-150.572	-0.241	-0.018
-548.339	-54.020	0.034	0.016
-547.325	-164.521	0.279	0.013
-546.310	66.052	0.064	0.065
-545.296	-16.622	-0.177	0.112
-544.281	-43.385	-0.184	0.093
-543.266	-88.333	-0.312	0.093
-542.252	-30.249	0.169	-0.096
-541.237	-112.452	-0.068	0.014
-540.223	350.855	-0.093	-0.184
-539.208	11.994	-0.263	0.202
-538.193	-131.668	-0.262	-0.034
-537.179	-8.913	-0.066	0.044
-536.164	758.949	0.033	-0.088
-535.150	153.439	0.070	0.096
-534.135	-158.169	0.103	0.006
-533.121	174.333	-0.273	0.394
-532.106	232.932	-0.111	0.182
-531.091	-200.000	0.009	0.085
-530.077	137.527	0.129	0.168
-529.062	-102.761	-0.132	-0.031
-528.048	-187.855	0.417	0.005
-527.033	-200.000	0.055	-0.288
-526.018	204.860	-0.048	0.074
-525.004	-200.000	0.033	0.323
-523.989	-200.000	-0.028	-0.220
-522.975	5.626	-0.029	-0.022
-521.960	800.000	0.087	0.269
-520.945	800.000	-0.020	-0.057
-519.931	800.000	-0.114	-0.471
-518.916	-25.141	-0.133	-0.079
-517.902	133.202	0.168	0.216
-516.887	800.000	-0.054	-0.186
-515.872	-122.819	-0.245	-0.039
-514.858	-103.877	-0.069	-0.016
-513.843	800.000	-0.005	0.019
-512.829	-66.934	0.160	0.063
-511.814	-57.320	-0.305	0.133
-510.799	63.079	-0.144	-0.143
-509.785	-200.000	0.012	-0.056
-508.770	-111.808	-0.317	-0.064
-507.756	-31.220	-0.045	0.025
-506.741	-83.749	0.080	0.026
-505.726	-71.812	0.164	0.061
-504.712	275.483	0.019	0.034
-503.697	-105.557	-0.162	-0.037
-502.683	-69.946	-0.098	0.037
-501.668	-200.000	0.028	-0.246
-500.653	333.441	0.074	-0.143
-499.639	-123.593	-0.136	-0.021
-498.624	118.302	0.072	-0.088
-497.610	-171.170	-0.280	-0.009
-496.595	-192.653	0.117	0.001
-495.581	-200.000	0.023	-0.146
-494.566	400.152	0.103	-0.214
-493.551	800.000	0.076	0.327
-492.537	-44.464	-0.210	0.104
-491.522	-7.092	-0.397	0.268
-490.508	53.472	0.217	-0.207
-489.493	60.400	-0.282	0.278
-488.478	-200.000	0.024	-0.134
-487.464	-200.000	-0.008	0.178
-486.449	10.269	-0.115	0.087
-485.435	286.922	-0.060	-0.108
-484.420	84.945	0.185	0.202
-483.405	8.966	0.207	0.156
-482.391	222.172	-0.040	-0.064
-481.376	7.145	-0.028	0.021
-480.362	-200.000	-0.013	-0.142
-479.347	800.000	-0.055	-0.188
-478.332	-140.059	0.014	-0.001
-477.318	287.021	-0.115	-0.207
-476.303	224.787	0.114	-0.183
-475.289	-117.202	-0.116	-0.021
-474.274	6.064	0.162	0.119
-473.259	115.481	0.152	-0.185
-472.245	-163.446	-0.137	-0.006
-471.230	-193.671	-0.343	0.003
-470.216	800.000	0.040	-0.171
-469.201	304.629	0.087	0.160
-468.186	-147.203	0.042	0.004
-467.172	52.740	0.146	0.139
-466.157	-27.871	0.066	-0.038
-465.143	-147.398	0.149	-0.013
-464.128	34.837	0.129	-0.112
-463.113	-100.112	-0.263	-0.065
-462.099	-93.578	0.248	0.068
-461.084	496.441	0.063	0.145
-460.070	68.508	-0.220	-0.224
-459.055	-11.469	-0.230	-0.151
-458.040	800.000	-0.060	0.188
-457.026	-56.893	0.216	-0.095
-456.011	-200.000	-0.006	-0.156
-454.997	38.338	-0.132	0.117
-453.982	788.268	0.091	-0.249
-452.968	-75.899	-0.087	-0.030
-451.953	-103.137	0.043	-0.010
-450.938	-68.671	0.043	-0.017
-449.924	-180.585	0.049	-0.001
-448.909	276.777	0.149	0.263
-447.895	152.356	0.152	0.206
-446.880	-200.000	-0.064	-0.293
-445.865	-69.635	-0.199	-0.076
-444.851	-200.000	0.030	-0.298
-443.836	-126.875	-0.259	-0.038
-442.822	-117.676	0.150	-0.027
-441.807	69.244	0.377	-0.386
-440.792	728.879	0.061	-0.163
-439.778	60.689	-0.232	-0.228
-438.763	-147.659	0.268	0.022
-437.749	800.000	-0.028	-0.088
-436.734	117.067	0.179	-0.219
-435.719	143.916	-0.065	0.086
-434.705	-4.362	0.149	0.102
-433.690	-78.383	-0.475	-0.162
-432.676	7.590	0.254	0.189
-431.661	-118.950	-0.222	0.039
-430.646	118.537	0.166	0.203
-429.632	-146.364	-0.322	-0.028
-428.617	800.000	-0.160	0.470
-427.603	-200.000	0.003	-0.345
-426.588	19.753	-0.212	0.170
-425.573	-128.379	0.363	-0.051
-424.559	217.510	0.070	0.110
-423.544	63.072	-0.109	-0.108
-422.530	-139.281	-0.213	0.023
-421.515	149.877	0.123	0.166
-420.500	-200.000	0.072	0.335
-419.486	-6.453	-0.326	0.221
-418.471	84.690	-0.059	-0.064
-417.457	69.410	-0.033	-0.034
-416.442	-200.000	-0.117	0.000
-415.428	-18.156	0.085	-0.053
-414.413	-200.000	-0.001	-0.370
-413.398	-28.753	0.271	-0.155
-412.384	800.000	-0.077	0.302
-411.369	-200.000	-0.005	0.334
-410.355	81.258	-0.168	-0.180
-409.340	-26.656	-0.111	-0.064
-408.325	412.333	-0.017	0.035
-407.311	-125.771	0.380	-0.057
-406.296	130.560	-0.070	-0.089
-405.282	555.886	0.057	0.136
-404.267	-138.249	0.311	-0.034
-403.252	99.553	0.251	-0.288
-402.238	-152.193	0.065	-0.005
-401.223	382.351	0.115	0.235
-400.209	-62.451	-0.205	-0.085
-399.194	-57.387	-0.235	0.102
-398.179	-53.708	0.173	0.079
-397.165	-107.521	0.361	-0.078
-396.150	135.901	0.221	-0.286
-395.136	-38.678	-0.018	0.009
-394.121	800.000	0.162	-0.454
-393.106	-53.616	0.426	-0.193
-392.092	77.988	0.081	0.086
-391.077	-78.642	-0.187	0.063
-390.063	-109.920	-0.123	-0.026
-389.048	-125.048	0.218	0.033
-388.033	439.667	0.049	-0.106
-387.019	-66.754	0.201	-0.079
-386.004	-200.000	-0.071	-0.355
-384.990	681.229	-0.060	0.155
-383.975	406.806	0.071	-0.149
-382.960	-112.361	0.153	-0.030
-381.946	699.552	-0.144	0.375
-380.931	150.107	-0.101	0.136
-379.917	118.361	0.206	-0.252
-378.902	54.088	-0.058	-0.055
-377.888	-200.000	0.043	0.250
-376.873	-95.502	-0.181	-0.048
-375.858	-70.708	-0.117	-0.044
-374.844	-200.000	0.017	-0.335
-373.829	-124.526	0.282	0.043
-372.815	401.380	-0.028	0.059
-371.800	-99.606	0.323	-0.080
-370.785	278.531	-0.062	-0.110
-369.771	303.802	0.059	0.108
-368.756	-39.083	0.382	-0.199
-367.742	135.065	0.183	-0.235
-366.727	800.000	0.033	-0.100
-365.712	-200.000	0.005	-0.226
-364.698	10.788	-0.182	0.137
-363.683	39.390	-0.196	-0.174
-362.669	708.044	-0.106	0.278
-361.654	-76.890	-0.165	0.057
-360.639	-14.168	-0.226	0.145
-359.625	-200.000	-0.004	-0.038
-358.610	800.000	0.185	0.626
-357.596	-166.933	0.202	-0.008
-356.581	-91.646	0.123	0.035
-355.566	-148.198	0.210	0.017
-354.552	800.000	-0.015	-0.058
-353.537	7.398	0.269	0.199
-352.523	800.000	-0.099	0.295
-351.508	-145.776	-0.337	0.030
-350.493	-121.032	-0.419	0.070
-349.479	106.129	0.169	-0.198
-348.464	37.984	-0.181	-0.159
-347.450	-40.119	0.262	-0.135
-346.435	-71.418	-0.387	0.143
-345.420	-24.428	-0.061	-0.036
-344.406	-200.000	-0.021	-0.318
-343.391	565.373	-0.103	0.247
-342.377	-200.000	0.138	0.000
-341.362	-96.977	-0.146	0.038
-340.348	-200.000	-0.021	0.156
-339.333	-200.000	0.032	-0.172
-338.318	-32.742	-0.195	-0.107
-337.304	24.027	-0.121	-0.098
-336.289	-200.000	-0.003	-0.216
-335.275	-200.000	0.039	0.286
-334.260	-200.000	0.004	0.160
-333.245	331.427	0.265	0.506
-332.231	-65.669	0.144	0.057
-331.216	124.633	-0.164	0.204
-330.202	11.104	-0.232	0.176
-329.187	67.903	0.078	-0.079
-328.172	457.631	0.155	0.340
-327.158	-200.000	0.030	0.165
-326.143	800.000	-0.076	-0.211
-325.129	-200.000	-0.004	-0.168
-324.114	181.120	0.184	0.268
-323.099	-105.231	-0.050	-0.011
-322.085	83.668	0.033	-0.036
-321.070	153.177	-0.168	-0.227
-320.056	-108.640	0.065	-0.014
-319.041	-200.000	-0.032	0.183
-318.026	3.538	-0.090	-0.065
-317.012	-81.656	-0.481	-0.156
-315.997	153.156	0.136	-0.184
-314.983	-121.830	-0.106	0.017
-313.968	-200.000	0.049	0.258
-312.953	690.431	-0.204	0.527
-311.939	202.706	-0.186	0.284
-310.924	2.104	-0.376	0.268
-309.910	277.697	0.141	0.248
-308.895	31.507	-0.165	-0.140
-307.880	-148.708	0.327	0.026
-306.866	-155.026	-0.216	0.014
-305.851	145.004	0.128	-0.169
-304.837	366.656	-0.047	-0.093
-303.822	800.000	0.069	0.211
-302.807	800.000	-0.088	0.254
-301.793	-31.794	-0.327	0.181
-300.778	-88.159	-0.099	-0.029
-299.764	-200.000	0.045	0.199
-298.749	119.195	-0.113	-0.138
-297.735	800.000	-0.105	-0.363
-296.720	-2.279	0.079	0.055
-295.705	-97.910	0.296	0.075
-294.691	-181.913	0.303	-0.006
-293.676	-200.000	0.007	-0.062
-292.662	-200.000	-0.004	0.238
-291.647	800.000	-0.112	0.351
-290.632	-50.555	-0.474	0.221
-289.618	-116.432	-0.272	-0.050
-288.603	33.557	0.195	-0.168
-287.589	-200.000	-0.019	-0.184
-286.574	107.226	0.102	-0.119
-285.559	5.505	0.217	0.158
-284.545	681.762	0.139	0.357
-283.530	800.000	-0.089	0.378
-282.516	-28.694	-0.125	-0.071
-281.501	-200.000	-0.022	-0.347
-280.486	-95.570	0.274	-0.072
-279.472	800.000	-0.090	0.263
-278.457	-200.000	0.020	-0.241
-277.443	358.840	0.040	-0.079
-276.428	-98.491	0.021	-0.005
-275.413	214.343	-0.121	0.190
-274.399	-65.274	-0.234	-0.093
-273.384	-32.288	-0.062	-0.034
-272.370	341.027	-0.088	-0.170
-271.355	-200.000	0.009	0.323
-270.340	-18.657	-0.162	0.100
-269.326	429.487	-0.087	0.185
-268.311	223.863	0.157	-0.250
-267.297	800.000	-0.029	0.102
-266.282	800.000	-0.022	-0.094
-265.267	78.051	-0.120	0.126
-264.253	800.000	-0.021	-0.061
-263.238	-119.726	0.353	0.060
-262.224	168.024	-0.049	-0.069
-261.209	-200.000	0.008	-0.175
-260.195	407.329	0.084	0.175
-259.180	-155.916	0.283	-0.018
-258.165	311.354	0.088	0.162
-257.151	800.000	0.099	0.271
-256.136	320.367	-0.105	0.197
-255.122	-200.000	-0.036	-0.407
-254.107	800.000	0.085	0.247
-253.092	-76.362	0.174	0.061
-252.078	584.971	-0.059	0.142
-251.063	-200.000	-0.062	0.422
-250.049	-200.000	-0.026	0.120
-249.034	-83.861	0.274	-0.086
-248.019	-200.000	0.002	-0.562
-247.005	-200.000	-0.095	-0.498
-245.990	101.844	0.117	-0.134
-244.976	152.994	0.169	-0.228
-243.961	-40.771	0.224	0.114
-242.946	167.541	-0.176	-0.247
-241.932	-32.282	0.194	0.107
-240.917	309.162	-0.032	0.060
-239.903	-200.000	0.052	-0.379
-238.888	-79.802	0.254	0.084
-237.873	29.756	-0.256	-0.215
-236.859	-4.986	-0.063	-0.043
-235.844	53.282	-0.235	-0.222
-234.830	-200.000	-0.020	-0.195
-233.815	-200.000	0.093	0.402
-232.800	72.817	-0.094	0.097
-231.786	749.362	-0.035	-0.092
-230.771	-200.000	0.014	-0.128
-229.757	117.931	-0.225	-0.273
-228.742	-58.075	-0.305	-0.131
-227.727	800.000	-0.021	0.085
-226.713	-32.766	0.424	-0.232
-225.698	-15.359	0.168	-0.106
-224.684	800.000	-0.076	0.220
-223.669	115.172	0.049	-0.059
-222.655	249.280	0.138	-0.231
-221.640	800.000	-0.186	0.557
-220.625	-200.000	0.036	0.287
-219.611	800.000	0.114	0.328
-218.596	-55.273	-0.146	0.065
-217.582	-114.451	0.406	-0.077
-216.567	686.671	-0.076	-0.196
-215.552	-125.939	-0.259	-0.038
-214.538	-45.580	0.234	-0.114
-213.523	71.312	0.302	-0.309
-212.509	734.068	-0.044	-0.115
-211.494	524.002	0.076	0.177
-210.479	298.793	-0.060	-0.109
-209.465	-200.000	-0.019	-0.092
-208.450	-135.699	0.116	0.014
-207.436	-114.177	0.053	0.010
-206.421	-116.181	0.378	0.069
-205.406	-147.919	0.437	0.036
-204.392	324.850	0.027	-0.050
-203.377	32.152	0.038	0.032
-202.363	159.992	0.196	0.269
-201.348	-4.642	0.160	0.109
-200.333	-18.253	0.175	-0.108
-199.319	-64.678	0.072	-0.029
-198.304	800.000	0.048	0.177
-197.290	19.425	-0.038	-0.030
-196.275	84.242	0.223	-0.240
-195.260	-86.805	-0.172	-0.052
-194.246	800.000	0.034	-0.118
-193.231	800.000	0.062	-0.194
-192.217	8.969	0.188	-0.140
-191.202	119.531	-0.162	-0.198
-190.187	139.821	-0.171	-0.222
-189.173	800.000	-0.015	-0.064
-188.158	367.421	0.239	0.475
-187.144	-200.000	0.002	-0.129
-186.129	-200.000	0.067	-0.356
-185.114	216.158	-0.087	0.136
-184.100	-200.000	0.006	-0.265
-183.085	-111.368	-0.512	-0.103
-182.071	16.462	0.156	-0.121
-181.056	2.869	0.463	0.331
-180.042	-200.000	-0.054	0.494
-179.027	800.000	0.182	0.499
-178.012	-4.054	0.238	0.162
-176.998	-101.470	0.420	-0.100
-175.983	-136.762	0.250	0.028
-174.969	-47.033	0.278	0.133
-173.954	-200.000	-0.022	-0.265
-172.939	-84.928	0.156	0.048
-171.925	-34.563	-0.028	-0.015
-170.910	517.165	-0.074	0.169
-169.896	122.887	0.225	0.277
-168.881	337.028	-0.049	0.094
-167.866	-79.135	0.339	0.113
-166.852	-200.000	0.017	-0.152
-165.837	-87.745	0.185	0.055
-164.823	-200.000	-0.015	0.093
-163.808	13.992	-0.173	0.132
-162.793	329.585	0.039	0.074
-161.779	-69.220	-0.377	0.142
-160.764	140.447	0.116	-0.150
-159.750	-6.671	0.129	0.086
-158.735	-65.127	0.461	-0.183
-157.720	-61.633	0.159	-0.066
-156.706	476.094	-0.059	-0.130
-155.691	-200.000	-0.089	0.417
-154.677	800.000	0.001	-0.002
-153.662	-186.414	0.287	0.004
-152.647	449.019	0.225	0.488
-151.633	800.000	-0.055	0.167
-150.618	-45.228	-0.263	-0.128
-149.604	-200.000	-0.024	0.160
-148.589	-200.000	-0.020	0.208
-147.574	-61.052	0.135	0.056
-146.560	-45.222	0.483	0.236
-145.545	159.816	-0.121	-0.166
-144.531	320.498	0.144	-0.269
-143.516	241.594	-0.177	-0.290
-142.502	-200.000	-0.044	-0.391
-141.487	-64.332	0.119	-0.047
-140.472	24.539	-0.178	-0.145
-139.458	8.529	-0.053	0.039
-138.443	229.590	-0.208	-0.334
-137.429	-19.801	0.167	0.101
-136.414	-200.000	-0.013	0.078
-135.399	-10.212	-0.120	-0.078
-134.385	-200.000	-0.043	0.325
-133.370	63.961	-0.172	-0.170
-132.356	-200.000	0.017	0.121
-131.341	-140.390	-0.246	-0.025
-130.326	583.425	0.039	0.093
-129.312	30.480	-0.075	-0.063
-128.297	-200.000	-0.024	0.166
-127.283	-22.306	0.269	-0.160
-126.268	38.551	-0.121	0.106
-125.253	234.494	0.085	0.137
-124.239	-108.526	0.279	0.059
-123.224	18.148	0.277	-0.216
