DTS Sentinel unit serial number:	SN413079Multiplexer serial number:	ORYXHardware model number:	OX4-SRSoftware version number:	ORYX F/W v4.00 Oryx Data Collector v3.7.2.0data status	okinstallation	princeton_trtdifferential loss correction	single-endedforward channel	channel 2reverse channel	N/Adate	2019/09/15time	06:39:34forward acquisition time	60.00reverse acquisition time	0.00gamma	496.2192k internal	0.2326k external	0.2326temperature offset calibration	1.0027default loss term (dB/km)	0.3790temperature slope calibration	1.0000multiplexer offset coefficient	1.0000multiplexer slope coefficient	1.0000fibre end	0.00T internal ref (°C)	30.50T ext. ref 1 (°C)	4.77T ext. ref 2 (°C)	25.44length (m)	temperature (°C)	Stokes	anti-Stokes-747.200	53.744	0.309	-0.299
-746.185	-66.153	-0.216	0.087
-745.171	-200.000	-0.028	-0.310
-744.156	117.957	-0.189	-0.235
-743.142	-200.000	-0.063	-0.340
-742.127	53.722	0.201	0.195
-741.112	580.237	-0.038	0.094
-740.098	-117.861	-0.205	0.037
-739.083	-124.987	0.182	0.028
-738.069	30.312	0.039	0.034
-737.054	70.485	0.193	0.201
-736.039	140.317	0.087	-0.116
-735.025	387.295	-0.203	0.423
-734.010	55.375	0.156	0.152
-732.996	208.606	-0.273	-0.431
-731.981	183.014	-0.126	0.188
-730.966	-200.000	-0.003	-0.095
-729.952	-86.846	-0.147	-0.045
-728.937	-123.704	-0.376	-0.060
-727.923	-56.521	0.040	0.018
-726.908	-5.672	-0.186	-0.129
-725.894	34.729	0.211	-0.186
-724.879	-134.916	-0.360	0.044
-723.864	126.412	0.093	0.118
-722.850	96.947	-0.164	-0.189
-721.835	800.000	0.111	-0.448
-720.821	-59.758	0.100	0.043
-719.806	107.477	0.223	0.267
-718.791	-98.192	-0.225	0.058
-717.777	-147.743	0.371	0.031
-716.762	-116.858	-0.188	0.035
-715.748	564.174	0.086	-0.210
-714.733	-47.114	-0.297	-0.146
-713.718	-200.000	-0.002	-0.170
-712.704	8.793	-0.274	0.208
-711.689	-197.348	-0.415	-0.003
-710.675	322.271	0.120	-0.231
-709.660	69.500	0.172	0.179
-708.645	-35.322	-0.209	0.114
-707.631	-100.308	-0.312	0.078
-706.616	-68.336	-0.350	-0.137
-705.602	61.519	-0.101	0.101
-704.587	-200.000	0.008	-0.131
-703.572	46.321	-0.435	0.406
-702.558	21.649	-0.296	0.243
-701.543	582.448	0.054	-0.134
-700.529	-161.691	-0.252	-0.013
-699.514	164.201	0.029	0.041
-698.499	-200.000	-0.037	-0.304
-697.485	85.808	0.076	0.085
-696.470	104.225	0.404	-0.479
-695.456	-70.390	-0.128	0.049
-694.441	-200.000	-0.026	0.174
-693.426	-68.117	-0.135	0.053
-692.412	-137.620	-0.291	-0.033
-691.397	800.000	-0.064	-0.213
-690.383	31.906	0.254	-0.221
-689.368	-14.522	0.123	-0.080
-688.354	-200.000	-0.002	0.299
-687.339	-105.750	0.305	-0.070
-686.324	-10.748	-0.090	0.060
-685.310	-54.619	0.309	-0.141
-684.295	-67.195	0.347	-0.137
-683.281	-117.756	-0.233	0.042
-682.266	-200.000	0.000	-0.102
-681.251	800.000	-0.030	0.106
-680.237	-200.000	0.071	0.380
-679.222	-14.495	0.051	-0.033
-678.208	445.489	-0.235	-0.519
-677.193	-99.279	0.260	-0.066
-676.178	246.273	-0.070	-0.119
-675.164	-200.000	0.006	-0.281
-674.149	321.518	-0.115	-0.220
-673.135	61.955	-0.133	0.133
-672.120	72.967	-0.196	0.206
-671.105	-200.000	0.004	-0.301
-670.091	-50.529	0.086	0.041
-669.076	-200.000	0.052	-0.300
-668.062	77.142	-0.212	-0.227
-667.047	-19.891	0.253	-0.157
-666.032	422.782	-0.160	0.345
-665.018	251.266	-0.205	0.351
-664.003	20.137	-0.078	0.063
-662.989	800.000	0.012	0.055
-661.974	-200.000	0.008	0.142
-660.959	-115.378	0.320	-0.061
-659.945	-130.188	0.217	-0.030
-658.930	99.925	-0.179	-0.208
-657.916	-74.771	-0.277	0.100
-656.901	290.809	-0.163	0.298
-655.886	-94.565	-0.346	0.095
-654.872	6.425	-0.203	-0.152
-653.857	800.000	-0.054	-0.208
-652.843	-152.551	-0.054	0.004
-651.828	7.452	0.256	0.192
-650.814	-91.921	-0.148	-0.042
-649.799	-33.827	-0.291	0.161
-648.784	-128.094	0.305	-0.044
-647.770	44.449	0.112	-0.103
-646.755	102.994	0.110	0.129
-645.741	-119.872	0.128	-0.022
-644.726	20.738	0.255	0.208
-643.711	-81.887	-0.180	0.059
-642.697	-21.057	-0.279	0.172
-641.682	800.000	0.041	0.167
-640.668	-200.000	0.016	0.114
-639.653	-83.795	-0.176	0.056
-638.638	439.670	-0.052	-0.114
-637.624	358.615	-0.052	0.105
-636.609	-112.343	-0.275	0.055
-635.595	-45.863	0.268	-0.133
-634.580	-29.603	-0.209	-0.120
-633.565	201.372	-0.181	-0.279
-632.551	-129.697	0.334	-0.046
-631.536	-200.000	-0.055	-0.326
-630.522	298.370	-0.097	0.180
-629.507	-200.000	-0.014	0.192
-628.492	-49.323	0.170	0.082
-627.478	-81.189	0.308	0.102
-626.463	7.670	-0.140	-0.105
-625.449	-48.114	-0.080	0.039
-624.434	-21.358	0.096	0.059
-623.419	800.000	-0.071	0.200
-622.405	181.627	-0.077	0.113
-621.390	800.000	-0.024	-0.070
-620.376	800.000	0.033	-0.130
-619.361	-141.498	0.022	-0.002
-618.346	-172.968	-0.235	0.007
-617.332	800.000	-0.091	0.362
-616.317	-200.000	0.037	0.255
-615.303	-119.903	-0.041	0.007
-614.288	-79.305	0.117	0.040
-613.273	800.000	0.042	-0.153
-612.259	-52.963	-0.170	0.078
-611.244	450.626	0.027	-0.061
-610.230	-79.328	-0.208	-0.071
-609.215	21.108	-0.151	-0.123
-608.201	-140.968	-0.297	0.031
-607.186	-200.000	0.036	0.187
-606.171	-96.449	-0.223	-0.059
-605.157	-94.093	0.332	0.091
-604.142	31.105	-0.137	-0.118
-603.128	-200.000	-0.014	-0.158
-602.113	368.648	-0.087	-0.176
-601.098	-39.540	-0.143	-0.075
-600.084	111.635	0.227	-0.275
-599.069	98.384	0.214	0.247
-598.055	469.460	-0.069	-0.154
-597.040	-197.217	-0.157	0.001
-596.025	-36.300	-0.066	0.036
-595.011	46.239	-0.151	0.140
-593.996	-136.025	-0.256	0.030
-592.982	800.000	0.015	-0.044
-591.967	179.439	-0.132	-0.194
-590.952	-200.000	0.048	-0.292
-589.938	-127.732	-0.176	-0.025
-588.923	-200.000	0.030	0.191
-587.909	-200.000	0.035	0.327
-586.894	800.000	-0.031	0.098
-585.879	94.355	-0.279	0.317
-584.865	-200.000	-0.032	0.157
-583.850	-200.000	0.075	0.395
-582.836	217.842	-0.103	0.164
-581.821	-190.404	-0.261	0.003
-580.806	-200.000	-0.006	-0.366
-579.792	84.220	-0.150	0.164
-578.777	800.000	-0.020	0.077
-577.763	70.401	0.169	-0.175
-576.748	-128.902	0.144	0.020
-575.733	-156.208	-0.353	0.022
-574.719	82.437	-0.206	-0.224
-573.704	-40.925	0.043	0.022
-572.690	61.202	-0.077	-0.076
-571.675	-126.120	-0.228	-0.034
-570.661	-199.017	0.075	0.000
-569.646	124.313	-0.124	-0.156
-568.631	60.325	-0.024	-0.024
-567.617	-66.349	0.190	-0.076
-566.602	96.089	-0.089	-0.101
-565.588	-200.000	0.048	-0.274
-564.573	-103.339	-0.155	0.037
-563.558	44.137	-0.214	-0.196
-562.544	-38.058	-0.175	-0.093
-561.529	14.935	-0.269	0.211
-560.515	-200.000	-0.059	-0.300
-559.500	464.513	0.160	-0.359
-558.485	-86.338	-0.028	0.009
-557.471	1.258	0.080	0.057
-556.456	-180.918	-0.068	-0.001
-555.442	800.000	0.050	0.217
-554.427	-156.686	-0.438	0.027
-553.412	-200.000	-0.029	0.172
-552.398	232.624	-0.183	-0.301
-551.383	-200.000	0.019	-0.084
-550.369	129.317	0.269	0.344
-549.354	-47.079	0.061	0.030
-548.339	-70.705	0.164	-0.062
-547.325	-66.741	0.391	-0.155
-546.310	364.205	0.063	-0.126
-545.296	241.179	0.156	-0.260
-544.281	-84.730	0.141	-0.045
-543.266	-58.668	-0.262	0.114
-542.252	45.187	0.188	-0.173
-541.237	405.388	-0.041	-0.087
-540.223	-200.000	0.027	0.483
-539.208	-50.476	0.257	0.121
-538.193	-200.000	0.040	-0.222
-537.179	-0.298	-0.069	-0.049
-536.164	-65.965	-0.241	0.096
-535.150	418.175	0.192	-0.411
-534.135	92.425	-0.240	-0.271
-533.121	800.000	-0.107	-0.417
-532.106	-21.438	0.302	-0.185
-531.091	242.241	-0.167	-0.280
-530.077	73.034	-0.116	-0.122
-529.062	800.000	0.043	-0.182
-528.048	-54.630	-0.190	0.086
-527.033	291.634	0.153	-0.278
-526.018	-78.577	-0.266	-0.091
-525.004	-133.401	0.432	0.054
-523.989	287.906	-0.172	-0.311
-522.975	-76.571	0.077	0.027
-521.960	-61.291	-0.372	0.157
-520.945	415.799	-0.045	0.096
-519.931	49.337	0.203	0.191
-518.916	29.095	0.085	0.072
-517.902	-101.996	-0.286	-0.069
-516.887	800.000	0.091	0.287
-515.872	54.410	0.319	0.307
-514.858	597.866	0.069	-0.171
-513.843	-152.215	0.366	0.027
-512.829	-200.000	-0.033	0.328
-511.814	-19.309	-0.154	-0.095
-510.799	800.000	-0.090	-0.307
-509.785	199.784	0.113	0.174
-508.770	-176.010	-0.368	-0.010
-507.756	-200.000	-0.026	0.155
-506.741	-115.515	-0.172	-0.032
-505.726	-81.709	-0.278	-0.091
-504.712	233.488	0.100	0.164
-503.697	800.000	-0.052	-0.196
-502.683	-116.921	0.117	-0.021
-501.668	-94.083	0.248	-0.068
-500.653	800.000	0.069	-0.192
-499.639	-200.000	0.033	0.258
-498.624	220.225	0.055	0.089
-497.610	248.022	0.167	0.283
-496.595	464.453	-0.050	0.111
-495.581	-6.105	0.084	-0.057
-494.566	-200.000	0.030	-0.141
-493.551	-120.219	-0.370	-0.063
-492.537	800.000	-0.050	0.144
-491.522	-88.498	0.038	0.011
-490.508	150.611	0.183	-0.249
-489.493	244.068	0.079	0.132
-488.478	-200.000	0.013	-0.261
-487.464	-200.000	-0.020	0.271
-486.449	-47.035	0.127	0.062
-485.435	-200.000	-0.034	-0.265
-484.420	-106.616	0.166	-0.037
-483.405	44.114	-0.124	-0.113
-482.391	-63.671	-0.012	-0.005
-481.376	-81.536	0.236	0.077
-480.362	-178.295	0.312	0.007
-479.347	-141.675	-0.176	-0.018
-478.332	666.569	0.135	-0.347
-477.318	315.072	-0.179	-0.337
-476.303	-200.000	0.002	0.067
-475.289	-200.000	0.007	0.351
-474.274	800.000	-0.055	-0.200
-473.259	31.670	0.177	0.152
-472.245	168.445	0.083	0.118
-471.230	-75.732	0.140	0.050
-470.216	-200.000	0.018	-0.250
-469.201	800.000	0.101	-0.326
-468.186	800.000	-0.090	-0.300
-467.172	-79.774	0.189	0.063
-466.157	-200.000	0.002	0.137
-465.143	-200.000	0.022	0.288
-464.128	-14.388	0.016	-0.010
-463.113	111.024	-0.079	0.095
-462.099	-200.000	0.001	0.148
-461.084	-129.682	-0.184	-0.025
-460.070	-55.329	-0.117	-0.053
-459.055	-58.013	-0.285	0.124
-458.040	66.823	0.084	-0.085
-457.026	132.899	-0.129	-0.166
-456.011	-200.000	0.012	0.112
-454.997	-111.189	0.046	0.009
-453.982	-200.000	-0.000	-0.154
-452.968	26.460	-0.037	0.031
-451.953	69.522	0.089	0.092
-450.938	275.249	0.039	-0.069
-449.924	-200.000	0.023	-0.138
-448.909	441.656	0.155	-0.339
-447.895	-109.963	-0.026	-0.005
-446.880	-200.000	-0.028	-0.133
-445.865	-200.000	0.004	0.173
-444.851	31.078	0.181	0.154
-443.836	100.915	-0.385	0.446
-442.822	455.259	0.125	-0.277
-441.807	497.087	-0.076	-0.175
-440.792	-50.469	-0.061	-0.029
-439.778	311.582	0.043	0.080
-438.763	800.000	-0.069	0.213
-437.749	-136.941	0.332	0.038
-436.734	-11.193	0.103	0.068
-435.719	109.939	-0.049	-0.059
-434.705	-1.763	-0.151	-0.106
-433.690	546.425	-0.088	0.210
-432.676	86.087	-0.085	-0.093
-431.661	-141.800	-0.049	0.005
-430.646	-97.094	-0.228	0.059
-429.632	-200.000	0.026	0.233
-428.617	264.437	0.143	0.249
-427.603	-15.723	0.241	-0.153
-426.588	-200.000	-0.005	0.071
-425.573	-200.000	-0.031	0.174
-424.559	418.703	0.148	0.315
-423.544	35.046	0.043	-0.038
-422.530	800.000	0.078	0.327
-421.515	-4.968	0.340	-0.233
-420.500	-76.792	0.308	-0.107
-419.486	-200.000	0.002	0.257
-418.471	-46.747	0.189	0.092
-417.457	-42.854	0.295	0.149
-416.442	-17.866	0.201	0.125
-415.428	-121.499	0.261	-0.043
-414.413	-69.012	-0.208	0.080
-413.398	-49.932	-0.351	-0.166
-412.384	437.460	-0.137	0.298
-411.369	800.000	-0.010	-0.035
-410.355	129.831	0.267	-0.341
-409.340	349.520	-0.069	0.135
-408.325	-200.000	0.004	0.061
-407.311	-127.254	-0.148	0.022
-406.296	-200.000	0.030	0.204
-405.282	183.181	0.113	-0.167
-404.267	-200.000	0.017	0.079
-403.252	-74.417	0.246	-0.088
-402.238	-88.221	-0.072	0.021
-401.223	50.425	0.199	-0.187
-400.209	-174.892	-0.253	0.007
-399.194	-8.920	0.212	-0.141
-398.179	-200.000	0.285	0.001
-397.165	-64.661	0.053	0.021
-396.150	-46.851	0.038	0.018
-395.136	-56.134	-0.287	0.127
-394.121	-43.547	0.177	0.089
-393.106	-122.133	-0.176	0.029
-392.092	-200.000	-0.007	-0.234
-391.077	40.170	0.264	0.236
-390.063	212.499	-0.128	0.201
-389.048	-97.114	-0.077	0.020
-388.033	800.000	-0.066	0.232
-387.019	-200.000	0.007	-0.229
-386.004	-92.295	-0.331	-0.093
-384.990	-67.070	-0.232	0.091
-383.975	800.000	0.006	-0.019
-382.960	101.730	0.176	-0.204
-381.946	89.400	-0.147	0.163
-380.931	-1.432	-0.097	-0.068
-379.917	-46.780	0.182	-0.089
-378.902	-69.526	0.128	-0.049
-377.888	66.378	-0.360	0.364
-376.873	800.000	-0.059	0.181
-375.858	100.400	-0.224	0.259
-374.844	800.000	-0.034	-0.133
-373.829	-200.000	0.017	0.198
-372.815	-200.000	0.080	0.381
-371.800	-200.000	-0.059	-0.309
-370.785	-200.000	0.034	-0.234
-369.771	137.529	-0.195	0.254
-368.756	-200.000	-0.008	-0.198
-367.742	502.649	-0.168	-0.385
-366.727	781.958	-0.146	-0.397
-365.712	144.257	-0.104	0.137
-364.698	139.873	-0.192	-0.251
-363.683	335.006	-0.084	-0.162
-362.669	299.395	-0.124	-0.227
-361.654	-26.718	-0.115	0.067
-360.639	41.730	-0.111	0.100
-359.625	-123.336	-0.093	-0.015
-358.610	-60.925	0.156	0.066
-357.596	-195.523	-0.442	0.003
-356.581	371.717	0.073	0.148
-355.566	-34.611	0.246	-0.134
-354.552	-88.580	-0.321	0.095
-353.537	-200.000	0.081	-0.436
-352.523	616.461	-0.192	0.477
-351.508	-200.000	-0.016	-0.254
-350.493	-200.000	0.010	-0.107
-349.479	-143.860	0.373	0.035
-348.464	800.000	0.039	0.140
-347.450	-1.333	0.269	-0.189
-346.435	494.524	0.159	0.361
-345.420	-200.000	0.002	0.116
-344.406	206.922	0.061	0.095
-343.391	-200.000	0.220	0.000
-342.377	39.625	-0.179	-0.159
-341.362	-75.478	0.233	0.082
-340.348	13.541	0.297	0.229
-339.333	437.648	0.177	-0.384
-338.318	399.080	-0.094	0.195
-337.304	-149.847	-0.077	-0.006
-336.289	-80.192	-0.140	-0.047
-335.275	-200.000	0.005	-0.146
-334.260	132.967	0.147	-0.189
-333.245	124.157	0.164	-0.204
-332.231	47.644	-0.187	-0.173
-331.216	-115.440	0.257	0.048
-330.202	-200.000	-0.072	0.333
-329.187	21.918	0.203	-0.164
-328.172	800.000	0.066	-0.241
-327.158	610.329	-0.091	-0.225
-326.143	96.235	-0.037	0.042
-325.129	112.658	-0.116	0.139
-324.114	445.749	0.116	-0.253
-323.099	140.698	0.189	-0.248
-322.085	-47.329	-0.202	-0.098
-321.070	-200.000	0.043	-0.263
-320.056	185.886	0.163	0.241
-319.041	-35.884	-0.074	0.040
-318.026	234.249	0.076	0.125
-317.012	-200.000	0.071	0.399
-315.997	68.107	0.123	-0.125
-314.983	38.900	-0.270	-0.239
-313.968	108.609	0.175	0.208
-312.953	-58.605	-0.309	-0.133
-311.939	800.000	-0.063	-0.179
-310.924	776.946	-0.070	-0.190
-309.910	-133.983	0.044	0.005
-308.895	10.699	-0.195	-0.148
-307.880	-172.339	-0.025	0.001
-306.866	-122.223	-0.112	0.018
-305.851	-190.320	0.283	-0.003
-304.837	175.523	0.006	-0.009
-303.822	-150.471	-0.117	0.009
-302.807	138.248	0.148	-0.192
-301.793	400.135	0.114	-0.238
-300.778	231.809	0.171	-0.277
-299.764	-161.892	-0.067	-0.003
-298.749	-10.511	-0.305	0.200
-297.735	659.354	0.076	0.194
-296.720	614.898	-0.046	0.114
-295.705	800.000	-0.056	0.196
-294.691	159.219	0.078	-0.107
-293.676	62.947	-0.182	0.181
-292.662	-200.000	0.025	0.285
-291.647	-143.873	-0.390	-0.036
-290.632	-107.758	0.090	-0.019
-289.618	-148.131	-0.291	-0.024
-288.603	-176.893	-0.250	-0.006
-287.589	800.000	0.028	0.094
-286.574	20.444	0.206	0.165
-285.559	800.000	-0.011	0.044
-284.545	-200.000	0.047	-0.351
-283.530	-178.579	-0.060	0.001
-282.516	-65.179	0.126	0.050
-281.501	800.000	-0.068	-0.235
-280.486	736.629	-0.073	-0.193
-279.472	-15.642	0.046	0.029
-278.457	800.000	-0.050	0.161
-277.443	-6.147	0.098	0.066
-276.428	-153.424	0.147	-0.010
-275.413	-13.327	-0.085	0.055
-274.399	800.000	-0.069	-0.266
-273.384	167.738	0.086	0.121
-272.370	15.863	0.054	-0.042
-271.355	800.000	-0.130	-0.365
-270.340	-55.436	-0.202	0.090
-269.326	395.625	-0.055	0.113
-268.311	-161.349	0.341	0.017
-267.297	-50.891	-0.327	0.152
-266.282	-19.315	-0.110	0.068
-265.267	-189.237	-0.187	-0.002
-264.253	-25.015	0.402	0.236
-263.238	57.560	0.044	0.043
-262.224	42.469	0.162	0.145
-261.209	3.609	-0.234	0.169
-260.195	-69.239	-0.264	-0.101
-259.180	-150.006	-0.165	-0.013
-258.165	-82.620	0.318	-0.102
-257.151	800.000	0.012	-0.050
-256.136	-68.820	-0.248	-0.095
-255.122	-200.000	0.039	0.173
-254.107	-154.904	-0.271	-0.018
-253.092	180.166	0.181	-0.262
-252.078	-200.000	0.005	0.255
-251.063	-200.000	0.007	-0.423
-250.049	36.294	0.162	0.141
-249.034	-200.000	0.006	0.322
-248.019	-200.000	-0.058	-0.281
-247.005	-118.000	0.344	0.061
-245.990	-153.820	-0.185	0.013
-244.976	-36.288	0.063	0.034
-243.961	-167.449	-0.179	0.007
-242.946	86.148	-0.173	-0.188
-241.932	-200.000	-0.040	0.299
-240.917	418.897	-0.134	-0.284
-239.903	-80.177	-0.274	-0.091
-238.888	404.106	0.110	0.229
-237.873	81.483	0.041	-0.043
-236.859	-99.669	0.171	0.042
-235.844	91.290	-0.239	0.266
-234.830	135.502	0.048	0.061
-233.815	-200.000	-0.026	-0.139
-232.800	-19.393	-0.241	0.147
-231.786	-163.488	-0.404	0.019
-230.771	-172.925	-0.163	-0.005
-229.757	-163.136	0.107	-0.005
-228.742	323.968	-0.024	-0.045
-227.727	243.719	0.153	-0.254
-226.713	-61.066	0.073	-0.031
-225.698	-91.536	0.155	0.044
-224.684	-67.018	0.371	0.145
-223.669	800.000	0.069	0.297
-222.655	86.173	-0.091	0.099
-221.640	-2.216	-0.339	-0.235
-220.625	-200.000	0.025	0.227
-219.611	-132.126	0.254	0.033
-218.596	-83.818	-0.273	-0.086
-217.582	-200.000	0.022	0.197
-216.567	-90.936	0.121	0.034
-215.552	-170.920	0.282	-0.010
-214.538	35.421	0.152	0.132
-213.523	-183.838	0.104	0.002
-212.509	-104.407	-0.083	-0.019
-211.494	-46.439	0.227	-0.110
-210.479	-90.185	0.236	0.068
-209.465	-57.183	0.077	0.034
-208.450	-200.000	0.054	0.459
-207.436	-200.000	0.019	-0.137
-206.421	-200.000	0.003	0.194
-205.406	557.292	-0.044	-0.104
-204.392	54.613	0.168	-0.160
-203.377	-1.644	0.202	-0.141
-202.363	-107.767	0.095	0.021
-201.348	-114.750	0.153	0.029
-200.333	15.922	-0.051	-0.040
-199.319	-200.000	0.112	0.525
-198.304	-178.460	-0.348	-0.008
-197.290	81.075	-0.031	-0.033
-196.275	-200.000	-0.036	-0.198
-195.260	-119.393	-0.165	0.028
-194.246	110.077	-0.124	0.147
-193.231	-177.659	0.268	-0.006
-192.217	-120.852	0.116	-0.019
-191.202	-200.000	0.031	0.216
-190.187	673.531	0.062	0.158
-189.173	15.184	-0.113	0.087
-188.158	740.459	0.081	0.215
-187.144	-78.379	0.358	0.121
-186.129	103.929	-0.074	-0.086
-185.114	-42.995	-0.200	-0.100
-184.100	198.486	0.101	0.152
-183.085	800.000	-0.063	-0.209
-182.071	-200.000	-0.067	-0.332
-181.056	-53.657	0.156	0.071
-180.042	20.718	0.243	-0.194
-179.027	-120.448	0.197	0.033
-178.012	800.000	-0.090	-0.345
-176.998	800.000	0.039	0.164
-175.983	438.267	-0.179	-0.386
-174.969	-200.000	-0.001	-0.112
-173.954	583.802	-0.040	0.098
-172.939	-114.720	0.255	0.048
-171.925	173.002	0.098	0.140
-170.910	-200.000	-0.010	0.105
-169.896	212.254	0.032	-0.049
-168.881	755.244	0.066	0.175
-167.866	43.489	0.333	0.300
-166.852	-200.000	-0.013	0.082
-165.837	800.000	0.041	0.132
-164.823	-115.018	0.316	0.059
-163.808	62.209	0.126	0.124
-162.793	115.014	-0.225	-0.271
-161.779	-76.750	0.397	-0.137
-160.764	-200.000	0.054	-0.282
-159.750	80.275	0.111	-0.118
-158.735	-2.927	0.426	0.293
-157.720	44.039	-0.249	0.225
-156.706	-200.000	-0.021	-0.127
-155.691	800.000	-0.055	-0.199
-154.677	569.892	-0.095	-0.227
-153.662	-34.234	0.172	0.093
-152.647	56.301	-0.129	0.124
-151.633	800.000	0.093	0.260
-150.618	-102.571	-0.124	-0.029
-149.604	-200.000	-0.035	0.291
-148.589	63.217	0.127	0.125
-147.574	90.814	0.124	0.137
-146.560	-96.039	0.223	0.058
-145.545	-59.576	-0.256	0.108
-144.531	-25.506	-0.107	-0.062
-143.516	-74.062	0.175	0.062
-142.502	-86.985	0.075	0.023
-141.487	55.845	-0.085	0.081
-140.472	-49.772	-0.226	-0.106
-139.458	-17.061	0.198	0.123
-138.443	-128.843	-0.116	0.016
-137.429	-200.000	0.029	0.323
-136.414	-58.097	0.189	0.081
-135.399	-7.544	0.111	-0.074
-134.385	-188.385	0.063	-0.001
-133.370	319.822	-0.167	-0.311
-132.356	114.055	0.045	0.053
-131.341	38.542	-0.264	0.232
-130.326	318.437	0.194	0.362
-129.312	-81.744	0.105	0.034
-128.297	357.158	-0.035	0.069
-127.283	800.000	-0.024	-0.085
-126.268	300.291	0.107	-0.195
-125.253	-99.818	-0.306	-0.075
-124.239	-200.000	0.027	0.137
-123.224	-200.000	-0.058	0.259
-122.210	355.463	0.043	0.084
-121.195	-128.776	0.047	0.007
