DTS Sentinel unit serial number:	SN413079Multiplexer serial number:	ORYXHardware model number:	OX4-SRSoftware version number:	ORYX F/W v4.00 Oryx Data Collector v3.7.2.0data status	okinstallation	princeton_trtdifferential loss correction	single-endedforward channel	channel 2reverse channel	N/Adate	2019/09/17time	15:31:35forward acquisition time	60.00reverse acquisition time	0.00gamma	496.2192k internal	0.2304k external	0.2304temperature offset calibration	0.9985default loss term (dB/km)	0.3790temperature slope calibration	1.0000multiplexer offset coefficient	1.0000multiplexer slope coefficient	1.0000fibre end	0.00T internal ref (°C)	38.34T ext. ref 1 (°C)	0.38T ext. ref 2 (°C)	35.70length (m)	temperature (°C)	Stokes	anti-Stokes-747.200	-151.549	0.154	0.012
-746.185	-124.852	0.142	0.022
-745.171	-113.637	0.227	0.045
-744.156	-133.753	-0.107	0.014
-743.142	-87.557	-0.128	0.039
-742.127	800.000	0.041	-0.148
-741.112	-97.434	0.216	-0.057
-740.098	18.974	0.192	0.157
-739.083	800.000	-0.055	0.214
-738.069	62.533	-0.146	-0.148
-737.054	-200.000	0.017	-0.081
-736.039	-84.106	-0.044	-0.014
-735.025	656.283	0.129	0.338
-734.010	-64.411	-0.225	-0.093
-732.996	-31.995	-0.275	0.157
-731.981	800.000	0.020	0.067
-730.966	133.073	-0.088	0.116
-729.952	38.641	0.058	-0.053
-728.937	800.000	-0.092	-0.370
-727.923	800.000	-0.105	-0.309
-726.908	107.623	0.107	-0.130
-725.894	-200.000	-0.074	-0.366
-724.879	75.682	-0.094	-0.101
-723.864	-200.000	-0.046	-0.297
-722.850	319.903	0.087	0.167
-721.835	-110.405	-0.134	-0.028
-720.821	132.002	-0.307	-0.402
-719.806	252.018	-0.173	-0.300
-718.791	314.735	-0.063	-0.122
-717.777	5.961	0.145	0.109
-716.762	-41.662	0.201	0.105
-715.748	-105.824	0.073	-0.017
-714.733	756.033	-0.100	-0.276
-713.718	123.439	0.234	-0.299
-712.704	800.000	-0.150	0.425
-711.689	-200.000	0.012	0.103
-710.675	-126.114	-0.319	-0.049
-709.660	109.634	0.213	-0.259
-708.645	-200.000	0.012	0.258
-707.631	17.788	-0.038	-0.031
-706.616	237.650	0.080	0.134
-705.602	129.390	-0.184	0.239
-704.587	11.578	-0.221	-0.172
-703.572	-75.270	-0.471	-0.171
-702.558	6.026	0.045	-0.034
-701.543	-151.310	0.122	0.009
-700.529	-173.078	0.135	0.004
-699.514	-44.867	-0.226	0.114
-698.499	-200.000	0.047	0.216
-697.485	-200.000	0.006	0.108
-696.470	-200.000	0.037	0.182
-695.456	37.827	0.248	-0.224
-694.441	800.000	-0.067	-0.215
-693.426	-23.551	-0.173	0.105
-692.412	800.000	0.015	-0.042
-691.397	19.366	-0.193	-0.157
-690.383	55.036	-0.166	-0.163
-689.368	-132.111	-0.084	-0.011
-688.354	-200.000	-0.006	0.147
-687.339	-200.000	0.020	0.305
-686.324	-143.344	-0.370	-0.036
-685.310	-167.348	0.340	-0.014
-684.295	-134.567	0.206	-0.025
-683.281	-200.000	0.009	-0.500
-682.266	47.035	-0.198	-0.187
-681.251	800.000	-0.168	0.473
-680.237	-76.606	-0.149	-0.053
-679.222	1.881	-0.319	-0.234
-678.208	145.434	-0.059	0.080
-677.193	62.691	-0.152	-0.155
-676.178	34.220	0.152	-0.135
-675.164	-200.000	-0.023	-0.252
-674.149	-99.012	0.136	-0.035
-673.135	-200.000	-0.022	-0.235
-672.120	-179.809	-0.215	-0.005
-671.105	156.311	-0.141	-0.198
-670.091	-112.584	-0.087	-0.018
-669.076	351.688	-0.170	0.341
-668.062	319.430	0.034	-0.066
-667.047	-29.676	-0.104	0.060
-666.032	6.451	0.172	0.130
-665.018	158.694	-0.031	-0.044
-664.003	224.834	-0.147	-0.241
-662.989	-119.866	-0.178	-0.031
-661.974	800.000	-0.037	0.134
-660.959	-119.171	-0.095	-0.017
-659.945	378.144	0.064	0.133
-658.930	800.000	-0.070	-0.265
-657.916	-200.000	-0.010	0.262
-656.901	195.189	0.145	0.224
-655.886	-68.410	-0.237	-0.093
-654.872	43.565	0.099	0.092
-653.857	684.093	0.112	-0.296
-652.843	-2.626	-0.265	0.189
-651.828	270.598	-0.075	0.134
-650.814	-149.971	0.112	0.009
-649.799	34.924	0.058	0.051
-648.784	75.167	-0.145	0.155
-647.770	135.946	-0.115	0.152
-646.755	-163.564	0.125	-0.006
-645.741	-200.000	0.009	-0.172
-644.726	-146.576	-0.521	0.046
-643.711	96.983	-0.176	-0.205
-642.697	29.928	-0.081	-0.070
-641.682	183.111	0.059	0.089
-640.668	262.720	0.105	0.186
-639.653	-163.421	0.220	0.011
-638.638	-139.352	0.168	-0.018
-637.624	236.520	0.032	-0.054
-636.609	636.993	0.033	0.086
-635.595	-150.789	0.221	0.017
-634.580	-69.379	-0.033	0.013
-633.565	-32.197	0.027	-0.015
-632.551	-30.419	0.330	0.190
-631.536	-140.939	0.105	0.011
-630.522	-48.788	0.144	-0.070
-629.507	740.577	0.015	-0.041
-628.492	-135.834	0.116	-0.014
-627.478	-18.639	0.182	-0.115
-626.463	225.158	0.024	0.039
-625.449	-121.128	-0.129	0.022
-624.434	-39.307	0.013	-0.007
-623.419	-122.271	-0.274	-0.045
-622.405	800.000	0.025	0.080
-621.390	396.757	-0.105	0.223
-620.376	691.905	0.126	-0.336
-619.361	-200.000	0.010	-0.550
-618.346	-12.684	0.094	0.062
-617.332	-145.434	0.130	-0.012
-616.317	-200.000	-0.041	-0.242
-615.303	-200.000	-0.017	-0.276
-614.288	-92.805	-0.023	-0.006
-613.273	-61.797	0.014	0.006
-612.259	127.433	-0.120	0.154
-611.244	-200.000	0.008	-0.081
-610.230	52.868	-0.267	-0.258
-609.215	683.772	-0.048	-0.126
-608.201	-142.783	0.196	0.019
-607.186	-124.777	0.185	-0.029
-606.171	157.094	0.198	-0.277
-605.157	16.715	-0.202	0.162
-604.142	-134.229	-0.118	0.015
-603.128	-133.088	-0.384	-0.049
-602.113	35.645	-0.023	0.021
-601.098	800.000	0.077	-0.274
-600.084	-34.737	0.095	0.053
-599.069	30.342	0.107	-0.092
-598.055	800.000	-0.141	-0.499
-597.040	371.675	-0.074	-0.152
-596.025	-149.965	-0.368	0.029
-595.011	135.946	0.197	-0.260
-593.996	-67.649	-0.214	0.085
-592.982	-153.969	0.279	0.019
-591.967	-200.000	0.027	-0.246
-590.952	800.000	0.132	0.523
-589.938	194.649	-0.147	0.226
-588.923	-97.250	0.139	-0.037
-587.909	-200.000	-0.013	-0.370
-586.894	-200.000	-0.014	-0.371
-585.879	-67.530	0.245	-0.097
-584.865	204.593	-0.179	0.281
-583.850	-100.170	-0.218	0.055
-582.836	292.123	0.080	-0.147
-581.821	-200.000	-0.028	0.205
-580.806	800.000	-0.042	0.155
-579.792	88.922	0.236	-0.266
-578.777	-7.945	-0.120	-0.082
-577.763	-104.898	0.314	0.073
-576.748	-14.178	-0.149	0.097
-575.733	-155.628	-0.063	-0.004
-574.719	-88.339	-0.153	0.046
-573.704	137.141	0.091	0.120
-572.690	9.085	-0.118	0.090
-571.675	-97.256	-0.143	-0.038
-570.661	-157.145	0.122	-0.008
-569.646	-137.459	0.130	0.015
-568.631	117.237	0.058	-0.073
-567.617	17.804	-0.181	0.145
-566.602	111.797	0.085	-0.104
-565.588	800.000	0.103	-0.399
-564.573	-12.360	0.246	-0.163
-563.558	-200.000	0.010	0.408
-562.544	-200.000	-0.011	0.060
-561.529	-89.814	-0.069	-0.020
-560.515	800.000	-0.042	0.149
-559.500	800.000	-0.106	-0.426
-558.485	-43.175	-0.183	0.094
-557.471	-120.437	-0.198	-0.034
-556.456	559.756	0.046	0.112
-555.442	-200.000	0.009	0.064
-554.427	58.695	0.109	-0.108
-553.412	320.234	-0.180	0.344
-552.398	107.141	0.190	-0.229
-551.383	-91.114	0.112	0.032
-550.369	-134.084	-0.240	-0.030
-549.354	-200.000	0.046	-0.412
-548.339	-200.000	-0.021	0.295
-547.325	-39.028	-0.265	0.141
-546.310	-49.548	0.272	-0.131
-545.296	-74.959	-0.081	0.029
-544.281	-86.851	-0.266	-0.082
-543.266	239.891	0.070	-0.118
-542.252	-200.000	0.015	-0.157
-541.237	-68.316	-0.305	0.120
-540.223	-200.000	0.002	0.010
-539.208	-102.010	-0.390	-0.095
-538.193	-200.000	-0.009	-0.200
-537.179	11.717	-0.132	-0.103
-536.164	-168.509	0.109	0.004
-535.150	-200.000	-0.019	-0.373
-534.135	-141.238	-0.311	-0.032
-533.121	218.642	0.158	-0.255
-532.106	-200.000	-0.008	0.235
-531.091	800.000	0.038	-0.148
-530.077	-56.031	-0.134	0.061
-529.062	53.137	-0.180	0.174
-528.048	-30.045	-0.322	0.185
-527.033	101.277	-0.179	-0.211
-526.018	-56.479	0.230	0.103
-525.004	-32.236	-0.321	-0.181
-523.989	106.559	-0.054	-0.064
-522.975	-200.000	-0.033	0.239
-521.960	-168.270	0.117	-0.005
-520.945	-8.940	0.243	0.164
-519.931	-130.089	0.181	0.025
-518.916	-200.000	-0.020	0.177
-517.902	-29.935	-0.327	-0.188
-516.887	-117.128	-0.193	-0.035
-515.872	-200.000	0.019	-0.274
-514.858	26.848	0.122	-0.103
-513.843	144.790	-0.171	0.231
-512.829	-200.000	-0.001	0.372
-511.814	7.922	-0.147	-0.111
-510.799	-63.579	0.280	-0.116
-509.785	68.459	-0.119	-0.123
-508.770	-200.000	-0.014	0.420
-507.756	800.000	0.071	0.273
-506.741	-67.153	0.312	0.124
-505.726	-113.384	0.202	0.040
-504.712	-60.339	0.133	-0.057
-503.697	47.633	0.286	0.269
-502.683	-114.156	0.142	0.028
-501.668	-30.250	0.404	0.231
-500.653	-127.345	0.207	-0.030
-499.639	-132.723	-0.104	-0.013
-498.624	283.781	0.086	-0.156
-497.610	573.208	-0.029	0.070
-496.595	-200.000	-0.018	-0.349
-495.581	587.479	-0.093	0.230
-494.566	-146.109	-0.113	-0.010
-493.551	800.000	-0.047	0.139
-492.537	121.830	0.049	-0.062
-491.522	-58.867	-0.179	-0.078
-490.508	-200.000	-0.029	-0.537
-489.493	-35.292	0.198	0.108
-488.478	19.151	-0.093	0.075
-487.464	800.000	0.025	0.087
-486.449	416.393	-0.194	0.418
-485.435	-24.845	0.173	-0.104
-484.420	66.565	-0.065	-0.066
-483.405	-118.773	-0.042	-0.008
-482.391	-86.436	0.325	-0.101
-481.376	-200.000	-0.072	-0.385
-480.362	318.381	0.064	0.122
-479.347	800.000	0.086	0.297
-478.332	-23.178	-0.165	0.100
-477.318	210.028	-0.135	-0.214
-476.303	-200.000	-0.004	-0.081
-475.289	313.451	0.055	-0.105
-474.274	162.038	0.103	-0.145
-473.259	-142.337	-0.286	0.028
-472.245	256.348	-0.057	0.099
-471.230	-200.000	0.019	-0.169
-470.216	97.558	-0.026	0.030
-469.201	174.689	0.062	-0.090
-468.186	-100.276	0.115	0.029
-467.172	345.350	0.128	0.252
-466.157	-63.678	-0.183	-0.076
-465.143	566.075	-0.082	-0.200
-464.128	-200.000	0.017	0.114
-463.113	-200.000	0.011	-0.131
-462.099	-200.000	0.030	0.149
-461.084	-22.167	0.060	-0.037
-460.070	170.728	-0.157	-0.226
-459.055	-200.000	-0.015	0.102
-458.040	-200.000	-0.005	-0.249
-457.026	6.992	-0.229	0.172
-456.011	52.506	-0.261	-0.251
-454.997	231.382	-0.120	0.197
-453.982	326.551	0.034	-0.065
-452.968	172.577	-0.187	-0.271
-451.953	-17.404	0.069	-0.044
-450.938	-143.190	0.195	0.019
-449.924	49.556	-0.032	-0.030
-448.909	562.960	-0.073	-0.178
-447.895	163.418	-0.111	-0.157
-446.880	21.894	0.184	0.151
-445.865	-51.247	0.195	-0.092
-444.851	578.146	0.077	0.190
-443.836	56.886	-0.138	0.136
-442.822	-30.005	-0.039	-0.022
-441.807	24.329	0.102	0.085
-440.792	76.456	0.283	0.302
-439.778	13.197	-0.265	-0.206
-438.763	162.321	0.138	-0.195
-437.749	601.811	0.241	0.602
-436.734	-19.986	0.260	0.162
-435.719	245.181	-0.112	-0.190
-434.705	233.668	0.062	-0.103
-433.690	121.754	-0.120	-0.150
-432.676	35.643	-0.140	-0.124
-431.661	374.000	0.071	0.146
-430.646	126.313	0.079	0.101
-429.632	-200.000	0.015	0.134
-428.617	-134.832	-0.060	0.007
-427.603	156.065	-0.178	-0.248
-426.588	40.289	-0.085	0.077
-425.573	459.120	0.070	0.158
-424.559	-2.748	-0.092	0.065
-423.544	148.800	-0.118	0.160
-422.530	173.100	0.098	-0.143
-421.515	361.790	-0.091	0.184
-420.500	186.945	0.063	-0.094
-419.486	748.250	0.164	0.445
-418.471	38.882	0.248	-0.223
-417.457	221.476	0.156	-0.253
-416.442	-69.863	-0.443	-0.170
-415.428	800.000	0.103	0.334
-414.413	144.847	0.148	-0.199
-413.398	-96.071	0.167	0.045
-412.384	56.627	0.091	0.089
-411.369	150.525	-0.123	-0.168
-410.355	-98.433	-0.360	0.093
-409.340	106.871	0.145	0.172
-408.325	657.035	0.054	-0.141
-407.311	625.788	-0.088	-0.222
-406.296	646.085	0.071	0.182
-405.282	156.838	-0.091	0.127
-404.267	-1.267	-0.284	0.201
-403.252	-200.000	0.015	-0.072
-402.238	-167.145	0.075	-0.003
-401.223	3.965	0.348	0.256
-400.209	95.281	0.053	0.061
-399.194	74.969	-0.069	-0.073
-398.179	74.386	-0.073	-0.077
-397.165	465.721	0.071	0.161
-396.150	189.996	0.065	-0.097
-395.136	195.783	-0.076	-0.116
-394.121	245.529	0.107	0.181
-393.106	-200.000	-0.004	0.020
-392.092	-136.199	0.471	-0.055
-391.077	-162.360	0.320	0.016
-390.063	-200.000	-0.024	0.141
-389.048	68.815	0.091	0.094
-388.033	800.000	-0.058	0.196
-387.019	-200.000	0.088	0.388
-386.004	528.719	-0.090	0.214
-384.990	-122.752	0.110	-0.018
-383.975	-200.000	-0.008	0.052
-382.960	170.703	-0.129	0.185
-381.946	21.640	0.240	-0.196
-380.931	-158.105	0.286	0.017
-379.917	-10.785	0.221	0.146
-378.902	210.790	-0.173	0.273
-377.888	-4.189	-0.383	0.266
-376.873	104.097	-0.223	0.263
-375.858	147.505	0.230	-0.311
-374.844	78.273	0.270	-0.290
-373.829	233.286	-0.171	-0.282
-372.815	-200.000	0.033	0.245
-371.800	800.000	0.093	-0.323
-370.785	38.958	-0.135	-0.121
-369.771	418.225	-0.030	-0.064
-368.756	-67.211	-0.148	-0.059
-367.742	800.000	0.050	0.202
-366.727	275.388	-0.053	-0.094
-365.712	20.259	-0.220	0.178
-364.698	376.921	0.151	0.309
-363.683	272.459	-0.070	0.125
-362.669	138.246	-0.164	-0.215
-361.654	-25.071	0.183	0.109
-360.639	800.000	0.034	0.121
-359.625	-169.830	-0.133	0.005
-358.610	386.125	-0.116	0.241
-357.596	16.492	0.133	-0.106
-356.581	-200.000	0.017	0.094
-355.566	378.377	0.040	-0.082
-354.552	-19.601	-0.123	-0.076
-353.537	-92.933	0.389	0.109
-352.523	180.602	0.109	0.161
-351.508	-167.950	0.074	-0.003
-350.493	-155.718	-0.043	-0.003
-349.479	-11.546	-0.162	-0.107
-348.464	-110.854	-0.149	0.031
-347.450	-97.658	-0.329	0.085
-346.435	111.189	-0.289	-0.348
-345.420	-77.674	0.219	0.076
-344.406	137.216	0.075	0.098
-343.391	3.149	0.154	-0.112
-342.377	-38.119	-0.248	-0.132
-341.362	148.894	0.121	0.164
-340.348	800.000	-0.065	-0.265
-339.333	-105.193	-0.233	0.053
-338.318	-200.000	-0.019	0.157
-337.304	-77.034	-0.162	-0.057
-336.289	-77.220	0.236	-0.083
-335.275	-9.565	0.105	0.070
-334.260	-3.037	-0.170	-0.119
-333.245	-33.913	-0.406	0.224
-332.231	-51.481	0.573	-0.268
-331.216	92.427	-0.317	0.358
-330.202	149.746	-0.163	-0.221
-329.187	-119.389	0.211	-0.037
-328.172	24.750	-0.173	-0.144
-327.158	-200.000	-0.006	-0.267
-326.143	800.000	-0.034	0.125
-325.129	800.000	0.079	0.236
-324.114	-86.695	-0.246	-0.076
-323.099	-55.334	0.340	0.153
-322.085	81.978	0.321	-0.348
-321.070	800.000	-0.075	-0.325
-320.056	244.210	0.219	0.368
-319.041	-21.691	-0.044	0.027
-318.026	-200.000	0.030	-0.266
-317.012	239.040	-0.070	-0.116
-315.997	-3.664	0.264	0.183
-314.983	-200.000	0.064	-0.313
-313.968	-200.000	-0.003	0.033
-312.953	-90.486	0.094	0.027
-311.939	800.000	0.080	0.241
-310.924	-164.551	0.155	-0.007
-309.910	-200.000	0.037	0.240
-308.895	-67.555	0.243	0.095
-307.880	-200.000	-0.024	0.000
-306.866	-72.958	0.274	-0.101
-305.851	175.178	0.116	-0.168
-304.837	-190.089	-0.407	-0.005
-303.822	-143.722	-0.150	0.014
-302.807	-200.000	-0.015	0.125
-301.793	164.828	-0.182	0.257
-300.778	34.408	-0.217	-0.189
-299.764	236.965	0.116	-0.193
-298.749	-4.599	0.237	0.164
-297.735	800.000	-0.057	0.198
-296.720	592.260	-0.036	0.088
-295.705	84.003	-0.102	0.112
-294.691	355.690	0.106	-0.212
-293.676	-29.082	0.313	-0.180
-292.662	53.556	0.027	-0.026
-291.647	125.196	-0.314	0.396
-290.632	87.474	-0.200	0.221
-289.618	-200.000	-0.015	0.143
-288.603	79.623	0.219	0.235
-287.589	661.424	-0.101	0.259
-286.574	-49.028	0.027	-0.013
-285.559	402.038	0.143	-0.301
-284.545	331.625	-0.148	-0.286
-283.530	-58.431	0.075	0.033
-282.516	-83.932	-0.594	-0.189
-281.501	-200.000	-0.001	0.048
-280.486	42.865	-0.258	0.235
-279.472	232.886	0.064	-0.106
-278.457	326.965	-0.019	0.037
-277.443	-200.000	0.008	0.160
-276.428	-77.177	-0.390	-0.136
-275.413	800.000	0.107	0.413
-274.399	-200.000	-0.026	-0.265
-273.384	-64.557	0.104	0.042
-272.370	-139.439	0.191	-0.020
-271.355	34.548	0.083	-0.072
-270.340	-22.749	0.188	0.114
-269.326	83.534	-0.038	-0.041
-268.311	-58.205	-0.147	-0.064
-267.297	-200.000	0.015	-0.219
-266.282	-68.663	-0.194	0.075
-265.267	671.215	0.083	-0.214
-264.253	-125.981	-0.315	0.047
-263.238	-71.085	-0.064	-0.024
-262.224	37.361	0.173	-0.153
-261.209	-6.411	0.238	0.162
-260.195	-42.010	0.322	-0.165
-259.180	39.381	-0.346	-0.310
-258.165	123.017	0.081	0.101
-257.151	132.672	-0.149	-0.192
-256.136	274.608	0.024	-0.042
-255.122	-50.130	0.194	-0.092
-254.107	-200.000	0.015	0.097
-253.092	410.029	0.094	0.198
-252.078	-164.720	0.166	0.007
-251.063	-39.495	0.402	0.211
-250.049	-200.000	-0.029	0.230
-249.034	106.783	0.114	0.135
-248.019	-99.308	0.143	0.036
-247.005	254.665	0.092	-0.157
-245.990	-126.436	-0.282	-0.042
-244.976	-140.326	0.103	0.011
-243.961	-85.475	-0.215	0.067
-242.946	-200.000	-0.006	0.078
-241.932	-149.118	-0.231	-0.019
-240.917	-200.000	0.039	0.193
-239.903	-193.301	0.078	-0.001
-238.888	-134.058	-0.355	-0.044
-237.873	-200.000	-0.017	-0.079
-236.859	-73.328	0.173	0.063
-235.844	-200.000	-0.018	0.082
-234.830	800.000	0.088	-0.360
-233.815	203.103	0.175	0.270
-232.800	-200.000	-0.065	-0.302
-231.786	-29.787	0.102	0.058
-230.771	-200.000	-0.003	-0.082
-229.757	-147.822	-0.320	-0.027
-228.742	-74.227	0.363	-0.131
-227.727	-114.651	-0.050	0.010
-226.713	57.536	-0.120	-0.117
-225.698	-92.506	0.133	-0.037
-224.684	-200.000	-0.007	-0.134
-223.669	-200.000	-0.025	0.286
-222.655	652.647	-0.156	0.400
-221.640	47.090	0.102	-0.095
-220.625	-66.671	0.402	-0.159
-219.611	530.537	-0.119	-0.279
-218.596	-96.447	-0.334	-0.088
-217.582	36.292	0.265	0.233
-216.567	-29.276	-0.143	-0.082
-215.552	2.827	-0.129	0.093
-214.538	88.032	0.271	0.300
-213.523	-143.024	-0.089	-0.009
-212.509	-200.000	0.011	-0.224
-211.494	197.107	-0.127	0.194
-210.479	490.581	-0.123	0.280
-209.465	-169.133	0.170	0.006
-208.450	-200.000	-0.050	0.329
-207.436	-114.309	-0.114	-0.022
-206.421	-16.182	-0.286	0.181
-205.406	-24.858	0.239	0.142
-204.392	521.237	0.076	0.178
-203.377	-79.567	-0.200	0.067
-202.363	27.679	0.150	-0.126
-201.348	-171.749	-0.233	0.008
-200.333	-34.819	-0.280	0.153
-199.319	-81.914	-0.242	-0.079
-198.304	509.310	0.160	-0.372
-197.290	183.782	0.150	0.220
-196.275	50.213	-0.147	-0.138
-195.260	-200.000	-0.045	-0.211
-194.246	-200.000	-0.009	-0.218
-193.231	124.267	0.030	0.038
-192.217	800.000	0.019	-0.075
-191.202	-19.846	0.082	-0.051
-190.187	268.039	-0.206	0.359
-189.173	89.853	0.038	-0.042
-188.158	132.659	-0.135	0.174
-187.144	800.000	-0.018	-0.068
-186.129	800.000	-0.065	0.201
-185.114	47.272	0.077	-0.071
-184.100	281.642	0.249	0.445
-183.085	-83.957	0.168	0.053
-182.071	56.265	-0.162	-0.156
-181.056	-198.887	0.315	-0.002
-180.042	-110.741	0.085	0.017
-179.027	269.552	-0.135	0.237
-178.012	583.725	0.113	-0.276
-176.998	-200.000	-0.005	-0.111
-175.983	-149.227	0.119	-0.009
-174.969	800.000	0.051	-0.157
-173.954	122.161	0.138	0.171
-172.939	-200.000	-0.042	0.301
-171.925	71.420	0.094	-0.097
-170.910	451.017	0.059	-0.130
-169.896	581.425	-0.030	-0.074
-168.881	-200.000	0.010	0.197
-167.866	-160.880	0.095	0.005
-166.852	119.837	0.088	-0.109
-165.837	-139.298	-0.277	-0.030
-164.823	-85.095	0.219	-0.068
-163.808	55.692	-0.168	-0.162
-162.793	-126.711	-0.097	-0.014
-161.779	-10.735	0.147	-0.097
-160.764	-8.490	0.056	0.038
-159.750	-91.421	0.072	-0.021
-158.735	-69.228	-0.096	-0.037
-157.720	-37.492	-0.159	0.084
-156.706	266.181	-0.062	-0.107
-155.691	800.000	0.040	0.164
-154.677	-143.316	-0.169	-0.016
-153.662	-200.000	0.005	-0.069
-152.647	800.000	0.071	-0.274
-151.633	-200.000	-0.045	-0.271
-150.618	60.510	-0.156	-0.154
-149.604	140.258	0.014	-0.018
-148.589	-140.827	0.131	-0.013
-147.574	124.639	0.166	0.208
-146.560	263.009	-0.119	0.206
-145.545	800.000	0.052	0.167
-144.531	-88.256	0.183	-0.055
-143.516	-65.464	0.031	0.013
-142.502	94.541	0.134	-0.152
-141.487	6.116	0.151	0.112
-140.472	800.000	-0.081	0.335
-139.458	474.928	-0.074	-0.167
-138.443	-102.834	-0.178	0.042
-137.429	-76.435	-0.241	0.084
-136.414	132.830	-0.027	-0.035
-135.399	71.652	-0.188	0.194
-134.385	800.000	-0.031	-0.125
-133.370	-16.467	0.093	-0.058
-132.356	-75.287	-0.300	0.107
-131.341	-200.000	-0.006	-0.126
-130.326	218.704	-0.084	-0.133
-129.312	86.771	-0.067	0.073
-128.297	-39.377	-0.293	0.153
-127.283	-200.000	0.014	0.101
-126.268	-70.386	-0.208	0.078
-125.253	-94.721	0.296	0.080
-124.239	-200.000	-0.048	0.218
-123.224	-59.725	0.298	0.127
-122.210	-48.227	-0.170	-0.082
