DTS Sentinel unit serial number:	SN413079Multiplexer serial number:	ORYXHardware model number:	OX4-SRSoftware version number:	ORYX F/W v4.00 Oryx Data Collector v3.7.2.0data status	okinstallation	princeton_trtdifferential loss correction	single-endedforward channel	channel 2reverse channel	N/Adate	2019/09/12time	11:45:11forward acquisition time	60.00reverse acquisition time	0.00gamma	496.2192k internal	0.2301k external	0.2301temperature offset calibration	1.0068default loss term (dB/km)	0.3790temperature slope calibration	1.0000multiplexer offset coefficient	1.0000multiplexer slope coefficient	1.0000fibre end	0.00T internal ref (°C)	39.81T ext. ref 1 (°C)	1.98T ext. ref 2 (°C)	37.83length (m)	temperature (°C)	Stokes	anti-Stokes-747.200	481.630	0.080	0.185
-746.185	-129.523	0.287	-0.040
-745.171	60.841	-0.088	-0.089
-744.156	-200.000	-0.004	0.098
-743.142	94.492	-0.112	-0.130
-742.127	-188.962	-0.145	-0.002
-741.112	-182.218	0.045	0.001
-740.098	-200.000	-0.014	0.357
-739.083	70.927	-0.086	0.090
-738.069	-52.019	-0.269	0.127
-737.054	731.914	-0.097	-0.265
-736.039	1.874	-0.347	-0.255
-735.025	-114.150	-0.156	-0.031
-734.010	-58.873	-0.180	0.079
-732.996	-59.907	-0.230	-0.100
-731.981	345.672	-0.051	0.102
-730.966	-119.602	0.120	-0.021
-729.952	-185.849	-0.127	0.002
-728.937	-38.947	-0.290	-0.156
-727.923	-200.000	0.005	0.330
-726.908	-200.000	-0.025	0.152
-725.894	-120.014	-0.401	-0.070
-724.879	-200.000	-0.038	-0.340
-723.864	60.404	-0.053	-0.054
-722.850	-200.000	-0.003	-0.029
-721.835	163.965	0.058	-0.083
-720.821	-62.017	-0.459	0.195
-719.806	332.390	0.149	0.294
-718.791	-54.452	-0.120	-0.055
-717.777	-120.698	0.175	0.030
-716.762	319.975	0.072	-0.139
-715.748	-88.805	0.106	-0.032
-714.733	196.818	0.099	0.154
-713.718	-21.767	0.172	-0.107
-712.704	-20.321	-0.341	0.214
-711.689	800.000	-0.114	-0.336
-710.675	-65.423	-0.095	-0.039
-709.660	-11.828	0.091	-0.061
-708.645	-104.705	-0.157	-0.037
-707.631	-61.145	0.066	-0.028
-706.616	-50.015	-0.153	0.074
-705.602	-68.709	0.230	-0.091
-704.587	-28.749	0.422	0.247
-703.572	-84.680	-0.258	-0.083
-702.558	82.631	0.155	0.172
-701.543	319.927	0.051	-0.099
-700.529	-115.152	0.304	0.059
-699.514	-83.682	0.241	0.078
-698.499	-59.612	-0.037	0.016
-697.485	-53.198	-0.205	0.096
-696.470	4.464	0.253	-0.189
-695.456	-99.075	-0.109	0.028
-694.441	-99.671	0.073	-0.019
-693.426	-5.038	-0.069	-0.048
-692.412	-159.185	-0.168	0.010
-691.397	-115.424	-0.316	-0.061
-690.383	-186.374	0.150	0.002
-689.368	-200.000	0.018	-0.440
-688.354	-45.511	-0.242	-0.122
-687.339	-200.000	0.005	-0.046
-686.324	-47.856	0.189	-0.093
-685.310	-46.143	0.192	0.096
-684.295	499.402	0.004	-0.010
-683.281	-51.231	0.215	0.103
-682.266	-200.000	0.010	-0.115
-681.251	-126.705	-0.069	0.010
-680.237	25.735	-0.145	-0.123
-679.222	-200.000	-0.011	-0.279
-678.208	800.000	-0.015	0.061
-677.193	-200.000	0.068	-0.355
-676.178	214.696	-0.182	0.294
-675.164	623.358	0.082	-0.210
-674.149	502.011	-0.128	-0.301
-673.135	66.673	-0.191	-0.197
-672.120	184.580	-0.055	0.083
-671.105	-84.919	0.193	-0.062
-670.091	-12.290	0.104	-0.069
-669.076	203.932	-0.179	-0.282
-668.062	47.299	0.120	-0.114
-667.047	-200.000	0.035	0.387
-666.032	176.425	-0.065	-0.097
-665.018	800.000	-0.035	-0.131
-664.003	-51.098	0.177	-0.084
-662.989	-79.767	-0.263	0.090
-661.974	280.463	0.081	0.147
-660.959	-21.992	0.025	-0.015
-659.945	-22.074	-0.158	-0.097
-658.930	60.848	-0.056	0.056
-657.916	-81.501	-0.214	-0.072
-656.901	79.585	0.049	0.054
-655.886	56.603	0.250	0.247
-654.872	-137.269	0.214	0.025
-653.857	-75.097	0.079	-0.029
-652.843	49.256	-0.043	-0.041
-651.828	-11.680	0.193	0.129
-650.814	-200.000	-0.016	-0.331
-649.799	129.512	-0.068	-0.088
-648.784	-137.526	0.083	0.009
-647.770	362.555	0.090	-0.183
-646.755	800.000	-0.131	-0.415
-645.741	800.000	0.049	-0.148
-644.726	498.893	0.137	0.321
-643.711	180.055	-0.124	0.185
-642.697	93.868	0.237	-0.273
-641.682	20.524	-0.249	0.205
-640.668	313.074	0.089	0.169
-639.653	94.588	0.096	-0.111
-638.638	-157.507	-0.114	0.007
-637.624	240.677	-0.162	-0.274
-636.609	-200.000	-0.053	-0.351
-635.595	-28.069	-0.214	-0.126
-634.580	-135.601	-0.134	-0.016
-633.565	-43.360	-0.164	0.084
-632.551	-69.579	0.217	-0.084
-631.536	-23.850	0.151	-0.092
-630.522	253.793	-0.195	-0.338
-629.507	-200.000	-0.023	-0.254
-628.492	-200.000	-0.037	0.449
-627.478	221.415	-0.199	-0.324
-626.463	196.810	-0.135	-0.208
-625.449	-200.000	0.037	-0.314
-624.434	-170.985	0.146	-0.005
-623.419	-157.183	0.144	0.009
-622.405	614.327	0.113	0.288
-621.390	-6.919	-0.099	0.068
-620.376	-200.000	-0.003	-0.059
-619.361	94.837	-0.136	0.157
-618.346	-200.000	0.024	0.123
-617.332	-200.000	0.010	-0.055
-616.317	-105.594	0.253	0.058
-615.303	420.440	-0.045	-0.098
-614.288	1.791	0.075	-0.055
-613.273	-154.634	-0.081	0.005
-612.259	-93.915	-0.201	-0.056
-611.244	178.024	0.164	-0.243
-610.230	-59.585	-0.446	-0.194
-609.215	-147.984	-0.305	-0.026
-608.201	-200.000	0.020	-0.106
-607.186	-200.000	-0.012	0.071
-606.171	-94.173	0.152	-0.042
-605.157	-87.043	0.342	-0.106
-604.142	800.000	0.023	-0.089
-603.128	-193.942	-0.073	-0.001
-602.113	-200.000	0.038	0.501
-601.098	179.084	-0.189	-0.281
-600.084	800.000	-0.104	-0.298
-599.069	108.036	-0.088	0.106
-598.055	-36.683	-0.090	-0.049
-597.040	-56.674	0.367	-0.165
-596.025	-20.079	0.106	0.066
-595.011	3.918	0.194	0.144
-593.996	81.634	-0.049	-0.054
-592.982	-170.444	0.016	0.001
-591.967	800.000	0.013	0.037
-590.952	-108.485	0.176	-0.038
-589.938	675.073	0.094	-0.247
-588.923	59.491	-0.058	-0.058
-587.909	-0.883	-0.235	0.169
-586.894	-142.884	0.385	-0.038
-585.879	181.511	-0.111	0.165
-584.865	293.747	-0.107	-0.197
-583.850	800.000	0.044	0.148
-582.836	-200.000	-0.031	0.322
-581.821	800.000	0.018	-0.078
-580.806	-64.647	-0.389	-0.160
-579.792	-131.892	-0.103	0.014
-578.777	100.706	0.095	-0.112
-577.763	-23.662	-0.241	-0.147
-576.748	-16.304	-0.263	0.169
-575.733	-200.000	-0.021	0.262
-574.719	246.118	0.068	-0.116
-573.704	-63.967	0.225	0.093
-572.690	-53.048	-0.103	0.048
-571.675	770.699	0.046	0.126
-570.661	-96.333	-0.178	0.048
-569.646	-90.334	0.198	-0.058
-568.631	-41.137	-0.184	0.096
-567.617	417.853	0.033	-0.071
-566.602	91.019	-0.104	0.118
-565.588	174.343	-0.146	-0.214
-564.573	52.259	0.199	0.192
-563.558	446.897	-0.061	0.137
-562.544	459.123	-0.052	-0.116
-561.529	-73.578	0.178	-0.066
-560.515	-124.303	-0.065	0.010
-559.500	78.960	-0.162	-0.175
-558.485	-15.042	0.245	0.159
-557.471	-6.035	0.144	-0.100
-556.456	234.057	-0.089	0.148
-555.442	-86.740	0.317	-0.098
-554.427	51.584	-0.240	0.231
-553.412	-39.618	-0.188	0.099
-552.398	756.896	0.277	-0.758
-551.383	-143.819	0.518	0.050
-550.369	-149.475	-0.409	-0.033
-549.354	800.000	0.075	0.226
-548.339	-200.000	0.006	-0.505
-547.325	-67.721	0.051	0.020
-546.310	32.951	0.043	-0.038
-545.296	-200.000	0.002	-0.290
-544.281	-35.576	-0.278	0.152
-543.266	716.646	-0.121	-0.326
-542.252	248.927	-0.124	-0.213
-541.237	-200.000	0.021	0.223
-540.223	800.000	-0.120	0.406
-539.208	187.419	0.166	-0.251
-538.193	305.986	0.072	-0.135
-537.179	-109.944	0.131	-0.028
-536.164	-96.318	0.200	0.054
-535.150	368.235	-0.043	0.089
-534.135	485.051	0.026	-0.059
-533.121	488.462	-0.048	0.112
-532.106	-134.686	0.062	0.008
-531.091	-200.000	-0.014	0.218
-530.077	-200.000	-0.006	-0.209
-529.062	12.509	0.073	0.057
-528.048	-200.000	-0.026	-0.252
-527.033	335.682	-0.105	-0.206
-526.018	-111.424	0.149	0.031
-525.004	-57.924	0.101	0.045
-523.989	800.000	-0.069	-0.275
-522.975	-158.710	-0.128	0.007
-521.960	800.000	-0.033	0.144
-520.945	134.180	-0.204	-0.267
-519.931	207.369	0.054	0.085
-518.916	800.000	-0.033	0.129
-517.902	-86.238	0.201	0.063
-516.887	800.000	0.015	-0.050
-515.872	-200.000	-0.002	-0.275
-514.858	800.000	0.054	0.198
-513.843	6.574	-0.202	0.152
-512.829	-200.000	-0.020	0.191
-511.814	333.053	-0.106	-0.207
-510.799	800.000	-0.028	0.100
-509.785	-200.000	0.023	0.277
-508.770	376.036	0.074	-0.152
-507.756	-125.207	-0.024	0.004
-506.741	-200.000	-0.007	0.118
-505.726	-123.521	0.192	0.031
-504.712	-9.718	0.294	0.198
-503.697	-152.847	0.132	0.009
-502.683	-200.000	0.025	-0.157
-501.668	-200.000	-0.025	0.208
-500.653	556.583	0.059	-0.144
-499.639	-87.534	0.323	-0.099
-498.624	4.465	-0.162	0.120
-497.610	-91.653	0.105	0.030
-496.595	190.909	0.118	0.179
-495.581	380.581	0.078	0.161
-494.566	110.104	-0.022	-0.026
-493.551	-200.000	-0.010	-0.283
-492.537	553.171	-0.125	0.303
-491.522	117.305	0.104	0.129
-490.508	458.590	0.065	0.146
-489.493	-58.351	-0.086	0.038
-488.478	91.922	-0.113	-0.129
-487.464	-149.942	-0.130	0.010
-486.449	219.775	0.061	0.098
-485.435	800.000	0.079	0.333
-484.420	-145.915	0.194	0.017
-483.405	-17.091	-0.286	0.182
-482.391	-48.982	0.597	0.289
-481.376	-200.000	-0.003	-0.059
-480.362	103.277	-0.058	-0.069
-479.347	-114.647	-0.146	-0.028
-478.332	-128.969	-0.233	-0.033
-477.318	800.000	0.036	0.117
-476.303	146.559	-0.149	-0.203
-475.289	581.359	-0.089	0.220
-474.274	-9.461	0.208	-0.140
-473.259	-94.653	0.093	0.026
-472.245	-70.131	-0.198	0.076
-471.230	-200.000	-0.026	0.175
-470.216	-146.044	-0.241	0.021
-469.201	404.759	0.032	0.068
-468.186	255.977	0.217	-0.376
-467.172	-129.591	0.154	0.021
-466.157	-200.000	-0.021	-0.103
-465.143	-49.472	0.278	0.133
-464.128	-200.000	-0.009	0.046
-463.113	3.290	0.293	-0.215
-462.099	-42.424	0.255	0.131
-461.084	118.860	-0.258	0.322
-460.070	800.000	0.076	0.229
-459.055	-143.890	-0.138	-0.013
-458.040	-116.191	0.294	-0.055
-457.026	60.030	-0.105	0.105
-456.011	-200.000	0.024	-0.248
-454.997	-126.277	0.320	-0.048
-453.982	-8.743	0.259	-0.175
-452.968	-200.000	-0.048	-0.243
-451.953	255.895	0.071	0.124
-450.938	150.930	-0.195	0.267
-449.924	145.855	-0.069	-0.094
-448.909	-65.740	0.045	0.018
-447.895	-15.900	0.188	-0.121
-446.880	800.000	0.004	0.017
-445.865	72.281	-0.323	-0.339
-444.851	800.000	-0.056	0.201
-443.836	-149.435	-0.428	-0.034
-442.822	-54.037	0.161	-0.074
-441.807	-200.000	0.030	-0.145
-440.792	-109.898	-0.196	-0.041
-439.778	-50.557	-0.172	-0.082
-438.763	800.000	0.019	-0.075
-437.749	-200.000	0.020	-0.188
-436.734	-200.000	-0.019	0.196
-435.719	800.000	0.025	0.071
-434.705	-97.930	-0.329	0.085
-433.690	800.000	0.099	0.285
-432.676	-81.214	0.252	-0.084
-431.661	-97.047	-0.253	0.067
-430.646	-52.686	-0.227	0.105
-429.632	-78.494	-0.156	-0.054
-428.617	177.125	-0.139	-0.204
-427.603	-196.453	-0.108	0.001
-426.588	124.429	-0.119	0.150
-425.573	114.501	-0.170	-0.209
-424.559	44.222	0.148	-0.137
-423.544	800.000	0.057	-0.163
-422.530	800.000	-0.068	-0.198
-421.515	181.337	-0.192	0.285
-420.500	-200.000	-0.022	-0.250
-419.486	115.132	-0.136	-0.167
-418.471	-193.539	-0.186	0.002
-417.457	156.020	-0.093	0.129
-416.442	415.448	-0.061	0.131
-415.428	-53.483	0.209	0.096
-414.413	-12.459	0.012	-0.008
-413.398	83.411	-0.051	0.055
-412.384	-200.000	0.014	0.081
-411.369	-160.569	-0.069	-0.004
-410.355	-200.000	-0.031	0.364
-409.340	-58.244	0.195	0.085
-408.325	496.679	0.048	-0.112
-407.311	-77.932	0.181	0.063
-406.296	800.000	0.041	0.134
-405.282	94.957	0.031	-0.035
-404.267	-105.491	0.189	0.043
-403.252	372.768	0.084	0.172
-402.238	-200.000	-0.002	-0.013
-401.223	192.061	-0.100	0.152
-400.209	165.541	0.208	0.295
-399.194	100.172	-0.232	-0.270
-398.179	245.396	-0.033	-0.056
-397.165	190.046	0.042	-0.063
-396.150	282.815	-0.093	-0.167
-395.136	-60.223	0.117	-0.050
-394.121	-28.899	-0.063	-0.036
-393.106	-200.000	0.010	0.054
-392.092	84.768	0.004	0.004
-391.077	32.773	0.125	0.109
-390.063	86.215	0.031	-0.035
-389.048	2.940	0.282	-0.206
-388.033	-89.899	-0.402	0.118
-387.019	412.982	0.043	0.093
-386.004	-60.439	0.101	-0.043
-384.990	-38.316	-0.071	-0.038
-383.975	-48.750	-0.089	0.043
-382.960	58.794	-0.181	-0.179
-381.946	-53.652	-0.219	-0.100
-380.931	384.577	0.109	-0.226
-379.917	-84.870	-0.299	0.094
-378.902	389.109	-0.076	0.158
-377.888	-200.000	-0.044	0.205
-376.873	-30.047	-0.293	0.168
-375.858	-32.364	-0.117	-0.066
-374.844	-50.005	0.210	0.100
-373.829	800.000	0.094	0.292
-372.815	800.000	-0.107	0.417
-371.800	-151.481	0.183	-0.014
-370.785	-74.400	0.205	0.074
-369.771	-104.440	0.216	-0.050
-368.756	91.007	-0.147	-0.166
-367.742	-79.870	0.203	0.069
-366.727	-100.086	0.157	0.039
-365.712	490.003	0.094	0.216
-364.698	-131.739	-0.372	-0.049
-363.683	800.000	-0.049	-0.203
-362.669	-80.252	-0.245	-0.082
-361.654	193.337	-0.088	-0.134
-360.639	-192.881	0.098	-0.001
-359.625	-117.588	0.274	-0.050
-358.610	800.000	-0.078	-0.228
-357.596	211.000	-0.153	-0.242
-356.581	271.649	0.051	0.090
-355.566	-200.000	-0.023	0.436
-354.552	13.511	0.170	0.132
-353.537	237.694	-0.092	-0.154
-352.523	361.878	0.035	0.070
-351.508	-12.872	-0.098	0.064
-350.493	333.424	-0.086	0.167
-349.479	57.540	0.251	0.247
-348.464	-78.906	-0.134	-0.046
-347.450	56.196	0.144	0.140
-346.435	-200.000	-0.008	0.418
-345.420	-55.064	-0.381	0.172
-344.406	163.265	-0.081	-0.114
-343.391	-90.278	-0.348	-0.101
-342.377	-79.420	0.235	0.080
-341.362	-83.821	-0.238	0.076
-340.348	-200.000	0.040	0.326
-339.333	151.564	0.053	-0.073
-338.318	38.225	0.046	-0.041
-337.304	291.841	-0.102	-0.186
-336.289	800.000	0.109	0.384
-335.275	49.021	0.240	0.226
-334.260	35.653	-0.151	-0.133
-333.245	230.799	0.143	-0.234
-332.231	-61.222	-0.109	-0.046
-331.216	-33.688	0.295	-0.163
-330.202	-27.034	0.080	0.047
-329.187	77.218	-0.119	0.127
-328.172	800.000	0.063	-0.231
-327.158	301.248	0.142	-0.263
-326.143	590.174	-0.117	0.291
-325.129	-121.271	0.360	0.060
-324.114	-58.876	-0.366	-0.159
-323.099	118.637	0.219	-0.271
-322.085	-35.799	-0.096	-0.052
-321.070	-161.973	-0.131	0.007
-320.056	-200.000	0.011	0.312
-319.041	-74.401	-0.252	-0.091
-318.026	-200.000	0.052	-0.248
-317.012	199.671	-0.242	0.372
-315.997	56.951	-0.077	-0.076
-314.983	197.419	-0.174	-0.266
-313.968	-99.830	0.253	-0.063
-312.953	-106.481	0.109	-0.024
-311.939	800.000	-0.090	0.266
-310.924	800.000	-0.012	0.041
-309.910	800.000	0.027	-0.086
-308.895	-200.000	-0.024	0.161
-307.880	-15.428	-0.055	0.035
-306.866	301.722	0.063	0.117
-305.851	800.000	-0.023	0.101
-304.837	100.973	0.150	0.175
-303.822	-3.563	-0.302	-0.210
-302.807	800.000	-0.018	0.076
-301.793	-35.029	0.079	-0.043
-300.778	190.847	-0.122	0.184
-299.764	-200.000	0.018	0.092
-298.749	569.628	0.106	-0.259
-297.735	264.444	-0.066	0.114
-296.720	442.154	-0.052	0.114
-295.705	-135.764	0.046	0.005
-294.691	82.260	-0.117	0.127
-293.676	233.009	0.190	-0.312
-292.662	-48.660	0.087	-0.042
-291.647	69.924	0.059	0.060
-290.632	383.781	-0.036	-0.074
-289.618	-51.872	-0.139	-0.065
-288.603	56.273	0.165	-0.160
-287.589	-41.798	0.135	0.070
-286.574	-85.572	0.257	0.080
-285.559	592.521	-0.065	0.160
-284.545	491.720	-0.164	0.377
-283.530	-81.524	0.216	-0.071
-282.516	56.979	0.113	0.111
-281.501	95.157	0.245	0.280
-280.486	-183.916	0.579	0.010
-279.472	-182.125	-0.220	0.004
-278.457	-101.726	-0.227	0.055
-277.443	111.629	0.124	0.150
-276.428	-11.431	-0.243	-0.160
-275.413	-87.748	-0.315	-0.095
-274.399	-68.050	0.578	0.226
-273.384	-179.826	0.248	-0.005
-272.370	-98.983	0.192	0.049
-271.355	800.000	0.024	0.097
-270.340	775.127	-0.109	0.298
-269.326	34.284	-0.187	0.163
-268.311	-98.191	-0.077	0.020
-267.297	-102.601	-0.070	-0.017
-266.282	136.653	-0.076	-0.100
-265.267	-127.014	0.331	0.049
-264.253	-80.919	0.360	-0.119
-263.238	-44.667	-0.204	0.102
-262.224	6.036	-0.136	0.101
-261.209	188.770	0.165	-0.247
-260.195	-200.000	0.006	-0.114
-259.180	60.626	-0.249	0.247
-258.165	-200.000	-0.007	0.270
-257.151	246.268	0.076	0.128
-256.136	345.971	0.208	-0.409
-255.122	33.585	-0.226	-0.196
-254.107	800.000	0.024	0.072
-253.092	800.000	-0.073	-0.255
-252.078	-90.029	-0.175	0.051
-251.063	-200.000	0.020	0.237
-250.049	-200.000	0.034	0.302
-249.034	-64.555	-0.129	0.052
-248.019	-88.584	-0.057	0.017
-247.005	-200.000	0.015	-0.175
-245.990	470.531	0.089	-0.201
-244.976	-75.220	-0.528	-0.188
-243.961	-23.319	0.348	-0.209
-242.946	-200.000	-0.031	-0.304
-241.932	3.882	-0.174	-0.127
-240.917	-48.647	0.248	-0.119
-239.903	-108.598	-0.163	0.035
-238.888	800.000	0.055	-0.183
-237.873	-74.595	0.197	-0.071
-236.859	110.695	-0.155	-0.186
-235.844	-30.002	0.220	-0.125
-234.830	209.626	0.141	-0.221
-233.815	-122.903	-0.201	-0.032
-232.800	0.835	0.086	-0.062
-231.786	-55.664	0.396	0.177
-230.771	-108.000	0.063	0.014
-229.757	-200.000	0.039	0.333
-228.742	243.092	0.063	0.105
-227.727	233.458	0.162	0.266
-226.713	564.812	-0.062	0.149
-225.698	-149.234	0.205	-0.016
-224.684	146.275	-0.124	0.166
-223.669	-200.000	0.089	-0.391
-222.655	800.000	-0.039	0.157
-221.640	-134.045	0.240	0.030
-220.625	-121.334	-0.199	-0.033
-219.611	-6.343	-0.197	0.134
-218.596	-156.862	0.198	0.012
-217.582	708.879	0.051	-0.134
-216.567	114.242	0.098	-0.119
-215.552	-86.670	-0.113	-0.035
-214.538	6.850	0.321	0.239
-213.523	-119.059	-0.301	0.053
-212.509	200.655	0.179	0.274
-211.494	117.304	0.030	-0.037
-210.479	631.096	0.026	0.066
-209.465	37.323	0.052	0.046
-208.450	-3.917	-0.034	-0.024
-207.436	104.914	-0.079	-0.093
-206.421	800.000	0.090	-0.317
-205.406	-28.987	-0.178	-0.102
-204.392	800.000	-0.097	-0.345
-203.377	-55.755	0.077	-0.034
-202.363	63.690	-0.188	0.188
-201.348	-200.000	-0.006	0.164
-200.333	-83.562	-0.214	0.068
-199.319	-200.000	-0.026	0.169
-198.304	224.895	-0.170	-0.275
-197.290	-48.470	0.281	0.135
-196.275	55.702	0.165	0.160
-195.260	144.873	-0.184	0.245
-194.246	364.401	0.025	-0.050
-193.231	12.720	0.160	-0.124
-192.217	-32.999	0.130	-0.072
-191.202	-200.000	-0.017	-0.078
-190.187	37.070	-0.077	-0.068
-189.173	-8.688	-0.169	0.113
-188.158	-96.356	0.485	0.128
-187.144	33.642	0.112	0.097
-186.129	30.110	0.156	-0.133
-185.114	-200.000	-0.025	-0.287
-184.100	377.859	-0.090	0.184
-183.085	-178.759	-0.125	-0.003
-182.071	122.677	-0.157	-0.196
-181.056	45.974	-0.137	-0.127
-180.042	63.883	0.070	0.070
-179.027	72.827	0.200	0.208
-178.012	21.430	-0.151	-0.122
-176.998	158.332	0.062	0.086
-175.983	-100.094	0.156	0.039
-174.969	800.000	0.052	-0.188
-173.954	-200.000	-0.007	0.105
-172.939	-138.938	0.151	-0.016
-171.925	45.654	-0.081	0.075
-170.910	25.153	-0.065	-0.054
-169.896	-200.000	0.057	0.271
-168.881	-99.685	-0.186	0.046
-167.866	51.919	-0.134	0.127
-166.852	-163.362	-0.025	-0.001
-165.837	800.000	-0.036	0.101
-164.823	-93.135	-0.198	0.055
-163.808	-21.202	-0.264	-0.161
-162.793	40.141	-0.255	-0.229
-161.779	130.220	0.055	0.070
-160.764	-59.506	0.095	-0.041
-159.750	-13.211	0.095	-0.062
-158.735	389.214	-0.063	-0.129
-157.720	-117.798	-0.202	0.036
-156.706	-200.000	0.052	-0.397
-155.691	591.860	-0.118	-0.290
-154.677	-200.000	0.024	-0.173
-153.662	162.530	0.235	-0.329
-152.647	-102.611	0.110	0.026
-151.633	-200.000	-0.037	0.199
-150.618	306.331	-0.183	0.339
-149.604	-200.000	0.021	0.114
-148.589	-200.000	0.031	-0.173
-147.574	217.656	0.104	0.165
-146.560	67.872	0.193	-0.196
-145.545	80.400	0.161	-0.172
-144.531	800.000	0.056	-0.164
-143.516	-200.000	0.020	-0.092
-142.502	-153.988	-0.033	-0.002
-141.487	-15.416	0.128	0.081
-140.472	357.463	-0.107	-0.212
-139.458	-59.571	-0.336	-0.144
-138.443	-127.832	0.270	0.039
-137.429	-57.534	-0.072	0.031
-136.414	-100.032	0.247	0.061
-135.399	-84.337	-0.154	0.048
-134.385	626.197	-0.053	0.134
-133.370	-115.415	-0.195	0.037
-132.356	15.876	0.080	-0.062
-131.341	-52.792	0.320	-0.147
-130.326	365.879	-0.073	-0.147
-129.312	94.143	0.094	0.106
-128.297	-15.001	-0.137	0.087
-127.283	-200.000	0.056	-0.316
-126.268	-90.185	0.237	0.068
-125.253	-183.808	-0.290	0.005
-124.239	-200.000	-0.066	0.369
-123.224	-200.000	-0.027	-0.373
-122.210	-200.000	0.003	-0.139
-121.195	-200.000	-0.007	-0.114
