DTS Sentinel unit serial number:	SN413079Multiplexer serial number:	ORYXHardware model number:	OX4-SRSoftware version number:	ORYX F/W v4.00 Oryx Data Collector v3.7.2.0data status	okinstallation	princeton_trtdifferential loss correction	single-endedforward channel	channel 2reverse channel	N/Adate	2019/09/19time	09:47:35forward acquisition time	60.00reverse acquisition time	0.00gamma	496.2192k internal	0.2348k external	0.2348temperature offset calibration	1.0002default loss term (dB/km)	0.3790temperature slope calibration	1.0000multiplexer offset coefficient	1.0000multiplexer slope coefficient	1.0000fibre end	0.00T internal ref (°C)	23.37T ext. ref 1 (°C)	0.66T ext. ref 2 (°C)	19.52length (m)	temperature (°C)	Stokes	anti-Stokes-747.200	10.582	0.086	-0.065
-746.185	74.307	0.188	-0.197
-745.171	203.241	0.123	-0.190
-744.156	-200.000	-0.033	0.354
-743.142	-57.723	-0.365	0.160
-742.127	-93.784	-0.397	0.109
-741.112	-81.021	0.181	0.060
-740.098	3.370	-0.218	0.159
-739.083	-44.589	0.230	-0.115
-738.069	-131.160	-0.473	0.063
-737.054	-59.203	-0.150	0.065
-736.039	-99.005	0.169	-0.043
-735.025	-200.000	-0.100	0.510
-734.010	-200.000	0.015	0.363
-732.996	-146.858	-0.158	0.014
-731.981	31.132	0.239	-0.205
-730.966	174.949	-0.245	-0.354
-729.952	-104.639	0.150	0.035
-728.937	21.188	0.193	0.157
-727.923	-134.414	-0.545	-0.067
-726.908	-200.000	0.010	-0.259
-725.894	275.556	-0.163	-0.289
-724.879	-90.825	0.164	-0.047
-723.864	608.925	-0.075	-0.187
-722.850	169.627	-0.152	0.217
-721.835	-111.692	0.109	0.022
-720.821	-106.120	-0.182	0.041
-719.806	-200.000	-0.070	0.333
-718.791	486.176	-0.040	0.091
-717.777	-45.850	-0.101	-0.050
-716.762	800.000	0.042	-0.118
-715.748	113.503	-0.142	0.172
-714.733	-99.978	-0.128	-0.032
-713.718	-74.164	-0.325	-0.117
-712.704	60.661	-0.272	-0.269
-711.689	158.631	0.065	-0.090
-710.675	340.870	-0.035	0.068
-709.660	134.002	-0.103	-0.132
-708.645	204.670	0.128	0.197
-707.631	800.000	-0.099	0.364
-706.616	800.000	0.076	0.212
-705.602	-174.981	0.258	-0.007
-704.587	-90.768	0.067	-0.019
-703.572	-200.000	-0.011	-0.094
-702.558	-83.848	0.181	-0.058
-701.543	-200.000	0.007	0.308
-700.529	191.235	-0.224	0.337
-699.514	-200.000	-0.032	0.238
-698.499	99.442	-0.097	0.112
-697.485	-87.638	-0.332	0.100
-696.470	-200.000	0.012	0.098
-695.456	-148.968	-0.295	0.024
-694.441	-26.961	0.134	-0.078
-693.426	431.249	0.169	0.366
-692.412	-81.510	0.222	-0.073
-691.397	-165.988	0.379	0.016
-690.383	800.000	-0.123	0.385
-689.368	-200.000	0.023	-0.130
-688.354	-200.000	0.014	0.174
-687.339	800.000	0.062	0.238
-686.324	-117.244	-0.223	-0.040
-685.310	-64.923	-0.255	-0.103
-684.295	-200.000	-0.007	0.164
-683.281	-106.280	0.255	0.057
-682.266	175.372	-0.153	-0.222
-681.251	-158.309	0.201	-0.012
-680.237	-200.000	0.028	0.124
-679.222	-97.554	0.068	0.018
-678.208	113.136	-0.060	-0.072
-677.193	194.055	0.134	-0.202
-676.178	58.355	-0.238	-0.233
-675.164	-200.000	-0.037	-0.227
-674.149	63.187	0.172	-0.172
-673.135	-55.702	-0.092	0.041
-672.120	-25.437	0.312	0.184
-671.105	-112.261	-0.454	0.091
-670.091	407.153	0.053	0.111
-669.076	-57.588	-0.249	-0.109
-668.062	68.984	-0.257	-0.263
-667.047	110.618	0.189	0.227
-666.032	37.308	0.113	0.100
-665.018	800.000	0.025	0.101
-664.003	-200.000	-0.013	-0.058
-662.989	671.155	-0.114	0.293
-661.974	-78.818	0.124	0.042
-660.959	-200.000	0.043	0.310
-659.945	-5.208	-0.159	0.109
-658.930	-200.000	0.032	-0.156
-657.916	-63.116	-0.472	0.194
-656.901	-116.499	0.145	-0.027
-655.886	-81.366	0.213	0.070
-654.872	-65.064	-0.092	-0.037
-653.857	-104.584	0.219	-0.050
-652.843	613.730	-0.051	-0.126
-651.828	-200.000	-0.022	-0.241
-650.814	-29.549	-0.310	-0.176
-649.799	-200.000	-0.038	-0.318
-648.784	163.254	0.157	0.219
-647.770	-88.237	0.115	-0.034
-646.755	800.000	-0.023	-0.071
-645.741	213.590	-0.193	-0.303
-644.726	-70.018	0.192	0.073
-643.711	-199.545	-0.191	0.001
-642.697	-46.519	-0.194	-0.095
-641.682	339.956	0.030	0.057
-640.668	-200.000	-0.060	-0.284
-639.653	146.679	0.215	-0.288
-638.638	-200.000	0.014	0.175
-637.624	4.265	-0.317	0.231
-636.609	260.032	-0.122	0.209
-635.595	-13.587	0.123	0.080
-634.580	175.929	-0.210	0.304
-633.565	174.606	-0.181	-0.261
-632.551	-200.000	0.047	-0.288
-631.536	177.352	0.121	0.175
-630.522	-200.000	-0.026	-0.414
-629.507	130.954	-0.044	0.056
-628.492	-82.718	-0.127	-0.041
-627.478	-19.017	-0.104	-0.064
-626.463	-9.546	0.268	0.178
-625.449	37.814	-0.145	-0.128
-624.434	-34.667	-0.146	-0.079
-623.419	-58.562	0.104	-0.045
-622.405	82.173	-0.144	-0.155
-621.390	-31.939	0.147	-0.082
-620.376	170.098	-0.132	0.188
-619.361	375.424	-0.066	0.133
-618.346	-122.487	-0.351	-0.057
-617.332	-62.967	-0.278	-0.114
-616.317	800.000	0.027	-0.113
-615.303	333.179	0.055	-0.105
-614.288	-11.668	-0.155	-0.101
-613.273	-200.000	-0.044	-0.342
-612.259	-67.672	0.140	0.055
-611.244	-131.688	0.165	0.021
-610.230	-93.509	0.193	-0.053
-609.215	120.803	0.147	-0.181
-608.201	-56.933	0.112	-0.049
-607.186	-50.265	0.136	0.064
-606.171	-88.682	-0.068	0.020
-605.157	-86.720	-0.292	-0.089
-604.142	800.000	-0.039	0.130
-603.128	-143.814	0.265	0.025
-602.113	67.991	-0.124	-0.126
-601.098	800.000	0.007	0.026
-600.084	-200.000	0.009	0.101
-599.069	334.127	0.052	-0.100
-598.055	259.291	-0.063	0.108
-597.040	34.341	-0.047	0.041
-596.025	-144.757	-0.059	-0.005
-595.011	166.859	0.142	0.201
-593.996	-169.490	-0.562	-0.020
-592.982	800.000	-0.045	-0.172
-591.967	-33.114	-0.159	-0.087
-590.952	-67.504	-0.117	-0.046
-589.938	72.684	0.282	-0.292
-588.923	-158.704	-0.148	0.008
-587.909	-79.625	0.138	-0.046
-586.894	-35.994	0.060	0.032
-585.879	-9.583	-0.291	-0.193
-584.865	-200.000	-0.001	-0.312
-583.850	7.033	0.122	-0.090
-582.836	517.203	0.002	0.005
-581.821	522.545	-0.160	-0.372
-580.806	-97.214	-0.068	-0.018
-579.792	107.060	0.203	0.239
-578.777	-142.452	0.232	0.023
-577.763	49.491	0.179	-0.167
-576.748	19.585	-0.346	-0.276
-575.733	-18.631	-0.032	0.020
-574.719	-165.399	-0.193	0.008
-573.704	633.689	0.057	-0.143
-572.690	-161.224	0.309	0.016
-571.675	48.802	0.190	-0.177
-570.661	195.276	-0.177	0.266
-569.646	-37.214	-0.316	0.168
-568.631	-32.700	0.222	-0.122
-567.617	-82.801	0.323	-0.104
-566.602	-63.562	0.159	0.065
-565.588	800.000	0.048	0.189
-564.573	-93.403	-0.235	-0.064
-563.558	422.429	0.194	-0.412
-562.544	32.139	-0.091	0.078
-561.529	-11.556	-0.037	-0.024
-560.515	170.630	-0.155	0.220
-559.500	566.387	0.097	-0.233
-558.485	-18.973	-0.274	-0.169
-557.471	33.491	-0.179	0.154
-556.456	277.586	0.067	0.118
-555.442	212.042	-0.083	-0.130
-554.427	-88.673	0.073	0.021
-553.412	-34.288	-0.113	-0.061
-552.398	137.891	-0.117	0.152
-551.383	-102.433	-0.175	0.042
-550.369	205.659	0.022	-0.034
-549.354	-148.679	0.397	-0.032
-548.339	-7.278	0.147	-0.098
-547.325	377.694	0.047	-0.094
-546.310	-72.596	0.252	0.092
-545.296	-55.623	-0.109	0.048
-544.281	501.616	-0.110	-0.251
-543.266	22.677	-0.016	0.013
-542.252	800.000	0.110	-0.458
-541.237	207.340	-0.037	-0.058
-540.223	613.114	-0.125	0.309
-539.208	-200.000	0.267	0.000
-538.193	-200.000	0.212	0.000
-537.179	800.000	0.105	0.361
-536.164	-131.196	-0.391	0.051
-535.150	-24.255	-0.168	-0.099
-534.135	446.271	-0.056	-0.123
-533.121	-104.900	0.128	-0.029
-532.106	-103.478	0.184	0.043
-531.091	-68.807	-0.198	-0.076
-530.077	800.000	-0.025	0.079
-529.062	-200.000	0.008	-0.311
-528.048	-29.947	0.364	-0.205
-527.033	-200.000	-0.011	-0.065
-526.018	-40.689	0.169	-0.087
-525.004	-74.897	-0.241	-0.086
-523.989	-19.992	-0.317	-0.194
-522.975	-200.000	-0.015	-0.177
-521.960	-40.070	-0.285	0.147
-520.945	192.023	-0.093	0.139
-519.931	800.000	-0.130	-0.430
-518.916	-29.979	-0.382	0.215
-517.902	-200.000	0.004	0.183
-516.887	-193.865	0.101	0.001
-515.872	-200.000	-0.007	0.053
-514.858	-93.265	-0.021	-0.006
-513.843	-172.791	-0.165	-0.005
-512.829	150.552	-0.161	0.217
-511.814	800.000	0.019	0.073
-510.799	87.530	0.150	-0.164
-509.785	-200.000	-0.036	-0.473
-508.770	-130.339	0.112	0.015
-507.756	217.336	0.044	-0.069
-506.741	-52.952	0.075	-0.034
-505.726	56.839	0.139	0.134
-504.712	-84.901	0.255	0.079
-503.697	-68.548	-0.079	-0.030
-502.683	111.675	0.154	-0.184
-501.668	3.179	-0.177	-0.128
-500.653	-200.000	-0.009	-0.170
-499.639	172.781	0.124	0.177
-498.624	121.848	0.024	-0.030
-497.610	-200.000	-0.041	-0.223
-496.595	469.694	-0.065	-0.144
-495.581	489.777	-0.015	0.035
-494.566	-44.369	0.260	-0.129
-493.551	474.214	0.102	-0.227
-492.537	800.000	-0.041	-0.177
-491.522	172.117	-0.042	-0.059
-490.508	166.732	0.055	-0.077
-489.493	-75.604	-0.342	0.120
-488.478	-130.893	-0.425	-0.056
-487.464	-200.000	-0.041	0.301
-486.449	-20.961	-0.264	0.160
-485.435	800.000	0.039	-0.143
-484.420	-89.611	-0.102	0.029
-483.405	153.449	-0.123	0.166
-482.391	-200.000	0.055	0.487
-481.376	-200.000	0.030	-0.202
-480.362	800.000	0.124	0.455
-479.347	-92.197	0.055	0.015
-478.332	-116.144	0.114	0.021
-477.318	-200.000	0.008	-0.233
-476.303	-48.751	-0.441	-0.209
-475.289	-200.000	-0.025	0.188
-474.274	81.115	0.082	0.087
-473.259	100.289	0.215	-0.247
-472.245	-200.000	-0.005	-0.085
-471.230	-171.214	0.421	-0.014
-470.216	-200.000	0.071	0.478
-469.201	800.000	0.057	0.230
-468.186	315.721	0.141	-0.263
-467.172	104.740	0.134	-0.157
-466.157	-200.000	0.019	-0.108
-465.143	800.000	0.042	0.156
-464.128	-152.834	-0.446	-0.031
-463.113	-86.416	0.300	-0.091
-462.099	-200.000	-0.006	-0.034
-461.084	-29.036	0.249	-0.141
-460.070	174.244	-0.180	-0.258
-459.055	-40.093	0.344	0.177
-458.040	-130.851	0.232	0.031
-457.026	124.615	-0.087	0.108
-456.011	166.564	-0.019	-0.027
-454.997	-177.968	0.294	0.007
-453.982	-75.153	0.099	0.035
-452.968	105.155	0.185	-0.215
-451.953	-145.084	-0.070	-0.006
-450.938	-79.320	0.164	-0.055
-449.924	-193.198	0.232	0.002
-448.909	165.119	0.185	0.258
-447.895	-200.000	0.015	-0.120
-446.880	179.379	-0.015	0.022
-445.865	-78.472	-0.135	0.046
-444.851	-162.086	0.163	0.008
-443.836	277.820	-0.102	0.179
-442.822	800.000	-0.016	-0.068
-441.807	-200.000	0.050	0.230
-440.792	29.083	-0.244	0.205
-439.778	-200.000	0.010	0.423
-438.763	-48.511	0.190	0.090
-437.749	18.724	0.162	0.128
-436.734	-171.266	-0.226	-0.007
-435.719	116.147	-0.114	-0.138
-434.705	99.957	-0.112	0.128
-433.690	-154.714	0.225	-0.015
-432.676	-200.000	0.044	-0.214
-431.661	296.096	-0.319	0.578
-430.646	-99.379	-0.156	-0.039
-429.632	800.000	0.054	0.198
-428.617	134.020	0.116	-0.149
-427.603	253.196	-0.074	-0.125
-426.588	-35.102	0.207	0.111
-425.573	99.451	0.175	0.200
-424.559	593.226	-0.052	-0.127
-423.544	-41.998	0.287	-0.145
-422.530	-11.715	-0.136	0.088
-421.515	-102.913	0.149	0.035
-420.500	-56.632	-0.110	-0.048
-419.486	-26.559	-0.081	0.047
-418.471	-200.000	0.034	-0.164
-417.457	372.503	0.095	0.191
-416.442	114.567	0.094	0.114
-415.428	0.417	-0.146	0.103
-414.413	-67.276	0.167	0.065
-413.398	-10.397	0.339	0.222
-412.384	-6.762	0.234	-0.157
-411.369	-148.887	-0.071	-0.006
-410.355	-200.000	-0.021	0.214
-409.340	-200.000	-0.001	-0.137
-408.325	34.153	0.266	0.229
-407.311	173.111	-0.073	0.103
-406.296	180.942	0.077	0.111
-405.282	-112.924	0.047	-0.009
-404.267	-110.927	-0.248	0.050
-403.252	19.234	0.075	0.060
-402.238	-147.193	0.211	0.018
-401.223	-200.000	-0.069	0.324
-400.209	-64.364	-0.257	-0.103
-399.194	-49.940	-0.222	-0.104
-398.179	4.124	-0.044	-0.032
-397.165	-29.620	0.190	-0.107
-396.150	800.000	0.139	0.398
-395.136	112.133	-0.290	0.345
-394.121	-53.222	0.271	0.122
-393.106	-200.000	0.044	-0.190
-392.092	-109.803	-0.039	0.008
-391.077	3.345	0.118	0.084
-390.063	-6.590	0.110	-0.074
-389.048	187.548	-0.188	-0.276
-388.033	460.141	0.053	-0.117
-387.019	520.876	-0.052	-0.120
-386.004	-200.000	-0.024	0.179
-384.990	94.108	-0.071	0.079
-383.975	800.000	-0.049	-0.185
-382.960	-69.683	-0.339	-0.128
-381.946	-153.538	-0.101	-0.007
-380.931	-100.820	-0.039	0.009
-379.917	-78.686	-0.650	-0.219
-378.902	11.751	0.234	-0.177
-377.888	196.297	0.138	-0.207
-376.873	576.509	-0.069	0.167
-375.858	-30.394	0.130	0.073
-374.844	587.364	0.061	0.147
-373.829	-20.571	-0.206	0.125
-372.815	-41.107	-0.426	-0.216
-371.800	118.074	0.057	0.069
-370.785	175.172	0.118	0.168
-369.771	92.637	-0.245	-0.273
-368.756	-200.000	0.015	-0.147
-367.742	800.000	0.056	0.208
-366.727	178.660	-0.079	-0.114
-365.712	79.626	-0.209	0.221
-364.698	-142.234	0.241	-0.024
-363.683	-160.130	-0.176	-0.009
-362.669	103.908	0.093	-0.107
-361.654	78.240	0.100	-0.105
-360.639	-91.203	0.262	-0.074
-359.625	161.160	0.237	0.326
-358.610	21.217	-0.163	0.130
-357.596	-48.184	0.153	-0.073
-356.581	-2.930	0.226	-0.155
-355.566	-200.000	-0.012	0.249
-354.552	60.003	0.186	0.181
-353.537	347.342	0.083	-0.162
-352.523	479.596	0.100	-0.224
-351.508	-55.885	-0.258	0.114
-350.493	57.273	0.126	0.121
-349.479	23.935	-0.158	-0.128
-348.464	-114.191	0.275	0.052
-347.450	125.770	0.091	-0.113
-346.435	-97.477	0.221	0.057
-345.420	231.032	-0.075	-0.121
-344.406	451.354	-0.050	0.108
-343.391	151.425	0.101	0.135
-342.377	63.943	-0.135	-0.133
-341.362	-157.202	0.118	-0.007
-340.348	129.469	-0.214	0.269
-339.333	295.518	0.071	0.128
-338.318	68.652	-0.147	-0.149
-337.304	-183.534	0.126	-0.002
-336.289	191.130	-0.016	0.023
-335.275	800.000	0.071	0.215
-334.260	515.670	-0.071	-0.162
-333.245	-113.604	-0.387	-0.074
-332.231	-200.000	0.032	0.218
-331.216	800.000	0.164	0.547
-330.202	257.207	0.067	0.113
-329.187	-13.848	0.138	-0.088
-328.172	137.917	0.101	-0.131
-327.158	800.000	-0.072	0.270
-326.143	-43.062	-0.101	0.050
-325.129	50.300	0.209	0.194
-324.114	-136.074	-0.356	0.041
-323.099	-200.000	-0.024	-0.223
-322.085	-200.000	-0.040	0.223
-321.070	57.158	-0.194	0.186
-320.056	-43.386	0.141	0.070
-319.041	800.000	0.035	-0.107
-318.026	91.103	0.114	-0.126
-317.012	800.000	0.101	0.337
-315.997	8.521	-0.018	-0.013
-314.983	-91.725	0.128	-0.036
-313.968	-200.000	-0.030	0.163
-312.953	-107.676	-0.294	-0.063
-311.939	-200.000	0.003	0.025
-310.924	138.488	-0.061	-0.078
-309.910	-116.170	-0.136	-0.025
-308.895	-170.268	-0.281	0.010
-307.880	-32.361	-0.205	0.112
-306.866	-200.000	-0.022	-0.111
-305.851	-200.000	0.027	0.172
-304.837	800.000	-0.099	-0.270
-303.822	-200.000	0.009	0.212
-302.807	-49.765	-0.173	0.081
-301.793	509.187	-0.073	-0.168
-300.778	-169.459	0.251	0.009
-299.764	-155.829	0.093	-0.006
-298.749	75.481	0.161	0.167
-297.735	-72.357	-0.180	-0.066
-296.720	-112.126	-0.156	0.031
-295.705	428.270	-0.066	-0.140
-294.691	-72.227	-0.258	-0.094
-293.676	-67.086	0.239	-0.093
-292.662	184.902	0.100	-0.146
-291.647	800.000	-0.086	0.244
-290.632	263.452	0.157	-0.268
-289.618	-111.168	0.352	-0.071
-288.603	79.940	-0.073	0.077
-287.589	-200.000	-0.097	-0.482
-286.574	-92.898	0.130	0.036
-285.559	800.000	0.034	-0.095
-284.545	334.722	-0.072	0.137
-283.530	431.528	-0.007	0.014
-282.516	168.476	0.254	0.356
-281.501	-88.652	-0.253	-0.074
-280.486	150.717	0.132	0.177
-279.472	205.975	-0.142	0.216
-278.457	-84.422	0.092	0.029
-277.443	-200.000	0.022	0.329
-276.428	-200.000	0.006	-0.290
-275.413	-82.397	-0.414	-0.132
-274.399	287.060	-0.105	0.186
-273.384	-200.000	-0.041	-0.200
-272.370	8.494	-0.046	-0.034
-271.355	77.511	-0.085	0.089
-270.340	-22.670	-0.225	0.134
-269.326	3.843	0.258	0.185
-268.311	-172.878	0.148	-0.005
-267.297	756.875	-0.076	0.202
-266.282	10.350	-0.133	-0.099
-265.267	-154.068	0.251	0.017
-264.253	-56.220	-0.229	-0.100
-263.238	382.656	-0.078	-0.157
-262.224	56.198	0.288	-0.274
-261.209	-27.639	-0.130	0.074
-260.195	-78.060	-0.512	0.173
-259.180	219.786	0.137	-0.214
-258.165	351.361	-0.035	0.068
-257.151	800.000	-0.076	-0.250
-256.136	301.572	0.035	0.064
-255.122	-200.000	0.006	-0.394
-254.107	-116.659	0.247	-0.044
-253.092	386.780	0.118	0.239
-252.078	-200.000	0.047	0.408
-251.063	111.291	-0.197	-0.233
-250.049	-46.037	0.118	0.057
-249.034	-89.014	0.447	0.130
-248.019	651.988	0.138	-0.347
-247.005	8.101	0.263	-0.194
-245.990	-98.337	-0.330	0.083
-244.976	-46.324	0.120	-0.058
-243.961	220.302	0.181	-0.285
-242.946	123.700	-0.240	-0.295
-241.932	800.000	0.084	0.289
-240.917	40.771	0.185	0.163
-239.903	-200.000	0.011	0.186
-238.888	-78.255	0.134	0.045
-237.873	6.653	-0.163	0.118
-236.859	108.766	0.122	-0.143
-235.844	-8.632	0.046	0.030
-234.830	-200.000	-0.004	-0.221
-233.815	-200.000	0.002	0.167
-232.800	-101.338	-0.121	-0.029
-231.786	800.000	-0.049	0.170
-230.771	71.214	0.315	0.320
-229.757	-11.574	-0.124	0.080
-228.742	-46.453	0.301	0.145
-227.727	73.905	-0.076	0.078
-226.713	-26.306	0.122	-0.070
-225.698	800.000	-0.049	-0.137
-224.684	340.010	-0.165	0.315
-223.669	-65.345	-0.333	-0.131
-222.655	100.998	-0.181	-0.206
-221.640	-144.023	0.140	0.013
-220.625	30.513	-0.185	-0.155
-219.611	295.595	-0.107	-0.191
-218.596	-200.000	-0.021	-0.235
-217.582	462.075	0.031	0.067
-216.567	161.029	0.113	0.154
-215.552	24.315	0.287	0.232
-214.538	267.837	-0.019	0.033
-213.523	13.051	-0.113	-0.085
-212.509	-200.000	0.034	-0.212
-211.494	-7.820	0.134	-0.088
-210.479	569.657	-0.109	0.258
-209.465	-164.633	-0.249	-0.011
-208.450	275.371	0.101	-0.175
-207.436	-58.300	-0.111	0.047
-206.421	63.349	0.234	0.229
-205.406	556.722	0.032	0.076
-204.392	340.972	-0.129	0.246
-203.377	-123.732	-0.053	-0.008
-202.363	-75.765	0.154	0.054
-201.348	-114.545	0.368	-0.069
-200.333	7.424	-0.065	0.047
-199.319	-200.000	0.002	-0.149
-198.304	-200.000	-0.044	0.203
-197.290	-200.000	-0.008	0.516
-196.275	-200.000	0.049	0.219
-195.260	-113.395	0.310	0.059
-194.246	33.051	0.136	-0.116
-193.231	800.000	0.047	0.149
-192.217	-37.774	0.327	0.170
-191.202	-173.350	-0.282	-0.008
-190.187	-69.846	0.121	0.045
-189.173	138.962	-0.147	0.189
-188.158	800.000	-0.051	-0.149
-187.144	-86.066	-0.036	0.011
-186.129	-180.706	0.166	-0.003
-185.114	772.238	0.104	0.276
-184.100	-133.454	-0.212	-0.026
-183.085	-28.599	-0.172	-0.097
-182.071	-200.000	0.009	-0.349
-181.056	-109.629	-0.200	-0.041
-180.042	-25.828	-0.103	0.059
-179.027	-50.086	0.184	0.085
-178.012	20.785	-0.253	-0.200
-176.998	800.000	0.132	-0.391
-175.983	136.549	0.054	-0.069
-174.969	-200.000	0.003	-0.235
-173.954	800.000	0.039	-0.115
-172.939	-101.016	0.222	0.053
-171.925	138.063	0.162	0.207
-170.910	-24.765	0.035	-0.020
-169.896	-7.201	0.119	0.079
-168.881	-73.080	0.065	-0.023
-167.866	222.375	-0.173	0.272
-166.852	527.457	0.055	-0.128
-165.837	-120.636	0.295	0.049
-164.823	-112.264	-0.256	0.050
-163.808	-61.382	0.221	0.091
-162.793	-200.000	-0.011	-0.055
-161.779	-200.000	-0.024	0.184
-160.764	25.830	-0.105	0.085
-159.750	800.000	0.043	0.146
-158.735	542.631	-0.087	0.202
-157.720	-87.053	-0.324	-0.096
-156.706	587.702	-0.098	-0.235
-155.691	-129.977	-0.247	-0.033
-154.677	-72.494	0.165	0.060
-153.662	28.003	0.133	-0.109
-152.647	-73.993	-0.218	-0.077
-151.633	-138.656	-0.034	0.004
-150.618	139.220	0.049	-0.063
-149.604	257.406	0.060	-0.101
-148.589	-180.487	0.150	-0.003
-147.574	208.411	-0.043	-0.066
-146.560	-123.331	-0.410	-0.064
-145.545	-130.257	-0.153	-0.020
-144.531	92.211	0.212	-0.233
-143.516	622.954	0.056	-0.137
-142.502	-57.037	-0.192	-0.083
-141.487	57.875	0.202	-0.192
-140.472	-19.190	-0.073	0.044
-139.458	800.000	-0.088	-0.253
-138.443	-200.000	-0.043	0.238
-137.429	169.988	0.186	0.260
-136.414	-146.527	0.298	0.025
-135.399	179.951	0.178	-0.254
-134.385	27.420	0.170	0.139
-133.370	-160.939	-0.189	-0.010
-132.356	-200.000	-0.032	-0.145
-131.341	-92.673	0.157	0.043
-130.326	-200.000	0.026	-0.134
-129.312	665.250	0.059	0.149
-128.297	-200.000	0.067	0.327
-127.283	314.776	0.076	-0.140
-126.268	-200.000	-0.066	-0.348
-125.253	-154.917	-0.145	0.009
-124.239	-200.000	0.016	-0.136
-123.224	-37.164	0.352	-0.184
-122.210	-185.370	-0.539	-0.008
