DTS Sentinel unit serial number:	SN413079Multiplexer serial number:	ORYXHardware model number:	OX4-SRSoftware version number:	ORYX F/W v4.00 Oryx Data Collector v3.7.2.0data status	okinstallation	princeton_trtdifferential loss correction	single-endedforward channel	channel 2reverse channel	N/Adate	2019/09/15time	20:39:35forward acquisition time	60.00reverse acquisition time	0.00gamma	496.2192k internal	0.2331k external	0.2331temperature offset calibration	0.9934default loss term (dB/km)	0.3790temperature slope calibration	1.0000multiplexer offset coefficient	1.0000multiplexer slope coefficient	1.0000fibre end	0.00T internal ref (°C)	32.87T ext. ref 1 (°C)	7.89T ext. ref 2 (°C)	24.63length (m)	temperature (°C)	Stokes	anti-Stokes-747.200	800.000	0.042	-0.174
-746.185	-67.882	-0.029	-0.012
-745.171	-49.679	-0.103	0.049
-744.156	3.826	-0.346	0.254
-743.142	200.768	-0.024	0.037
-742.127	-14.427	0.137	0.089
-741.112	56.256	0.199	-0.195
-740.098	231.160	-0.104	-0.171
-739.083	62.036	-0.176	0.176
-738.069	800.000	0.105	0.302
-737.054	-43.798	0.295	-0.150
-736.039	-200.000	0.010	-0.088
-735.025	800.000	0.098	0.424
-734.010	308.251	0.104	-0.195
-732.996	289.176	-0.118	0.215
-731.981	800.000	0.081	-0.349
-730.966	-134.828	0.106	-0.013
-729.952	19.812	0.170	-0.138
-728.937	-186.089	-0.186	-0.003
-727.923	-45.219	0.242	-0.121
-726.908	11.838	-0.114	-0.088
-725.894	-200.000	0.008	0.088
-724.879	-42.140	-0.147	0.076
-723.864	-192.933	-0.276	0.003
-722.850	-200.000	-0.005	-0.154
-721.835	-111.363	-0.406	0.083
-720.821	-131.916	0.262	-0.034
-719.806	-200.000	-0.010	-0.121
-718.791	312.771	0.090	-0.170
-717.777	-200.000	0.016	0.160
-716.762	67.143	0.107	-0.110
-715.748	-126.428	-0.435	-0.065
-714.733	418.547	0.038	-0.082
-713.718	-61.116	-0.220	0.093
-712.704	-160.504	-0.101	-0.005
-711.689	-126.274	-0.180	-0.027
-710.675	317.519	-0.076	-0.145
-709.660	-56.898	-0.249	0.111
-708.645	-200.000	-0.023	-0.432
-707.631	-134.214	-0.201	0.025
-706.616	-200.000	0.020	-0.097
-705.602	254.942	0.116	0.200
-704.587	195.626	-0.145	0.221
-703.572	72.335	-0.114	0.119
-702.558	23.886	0.143	0.118
-701.543	-120.869	-0.173	-0.029
-700.529	-200.000	-0.070	-0.484
-699.514	76.802	0.123	-0.131
-698.499	-200.000	0.010	-0.222
-697.485	-200.000	-0.009	-0.367
-696.470	101.459	-0.218	0.256
-695.456	-100.573	-0.177	0.044
-694.441	-140.830	-0.189	-0.020
-693.426	130.391	0.209	0.269
-692.412	-125.453	-0.033	0.005
-691.397	-172.072	0.343	-0.011
-690.383	33.124	0.227	0.198
-689.368	158.436	-0.137	-0.191
-688.354	-200.000	-0.020	-0.229
-687.339	750.419	-0.143	-0.388
-686.324	-200.000	0.005	0.096
-685.310	372.419	0.150	-0.307
-684.295	-200.000	0.067	-0.534
-683.281	-55.988	-0.066	-0.030
-682.266	378.273	-0.070	0.143
-681.251	147.915	-0.119	-0.161
-680.237	-147.647	0.078	-0.007
-679.222	-200.000	-0.013	-0.180
-678.208	134.355	0.122	-0.159
-677.193	-18.956	-0.245	-0.153
-676.178	158.489	-0.090	0.126
-675.164	750.375	-0.128	-0.346
-674.149	-131.741	-0.175	-0.023
-673.135	800.000	-0.031	-0.105
-672.120	-200.000	0.046	0.314
-671.105	-200.000	-0.012	0.138
-670.091	311.755	-0.116	0.218
-669.076	800.000	-0.037	0.149
-668.062	198.813	-0.213	0.328
-667.047	-200.000	0.019	-0.157
-666.032	-63.316	0.188	0.078
-665.018	-6.310	-0.236	-0.161
-664.003	189.013	0.048	0.071
-662.989	-0.504	-0.126	-0.090
-661.974	106.956	0.092	-0.110
-660.959	-80.504	-0.329	0.110
-659.945	255.848	-0.092	0.158
-658.930	-71.950	-0.188	0.070
-657.916	800.000	0.135	0.378
-656.901	-115.067	0.211	0.040
-655.886	-131.536	0.264	0.035
-654.872	-46.632	0.035	-0.017
-653.857	454.625	-0.222	0.493
-652.843	743.777	-0.150	0.406
-651.828	-14.481	0.094	0.060
-650.814	-200.000	-0.027	-0.263
-649.799	-141.852	-0.100	0.010
-648.784	83.785	0.225	-0.246
-647.770	235.032	-0.039	-0.064
-646.755	666.017	0.034	0.088
-645.741	-200.000	0.022	-0.361
-644.726	590.435	0.076	0.188
-643.711	-82.993	-0.069	0.022
-642.697	179.729	0.047	0.070
-641.682	800.000	0.053	-0.155
-640.668	-2.507	-0.227	0.160
-639.653	800.000	-0.020	-0.064
-638.638	110.226	0.060	0.072
-637.624	127.848	-0.100	-0.128
-636.609	-200.000	0.015	-0.073
-635.595	-2.683	0.246	-0.172
-634.580	-66.908	-0.258	-0.102
-633.565	-76.924	-0.102	0.036
-632.551	-200.000	0.015	-0.194
-631.536	-78.450	-0.203	-0.070
-630.522	423.299	-0.083	0.178
-629.507	800.000	0.117	0.498
-628.492	531.044	-0.066	-0.156
-627.478	98.608	-0.154	0.177
-626.463	-125.735	-0.346	0.053
-625.449	-44.473	0.033	-0.017
-624.434	800.000	0.066	0.191
-623.419	-97.203	0.216	0.057
-622.405	-200.000	-0.020	0.166
-621.390	-83.521	0.217	-0.070
-620.376	70.748	0.067	0.069
-619.361	-57.952	0.382	-0.167
-618.346	-200.000	0.027	-0.179
-617.332	-4.651	0.053	-0.037
-616.317	-200.000	-0.033	-0.161
-615.303	245.044	0.119	0.200
-614.288	-42.083	0.048	-0.025
-613.273	228.229	0.098	-0.160
-612.259	50.089	-0.341	0.322
-611.244	800.000	-0.060	-0.191
-610.230	332.245	-0.103	0.200
-609.215	49.687	-0.136	-0.128
-608.201	-200.000	-0.056	0.339
-607.186	800.000	-0.058	-0.202
-606.171	243.154	-0.155	-0.260
-605.157	-200.000	0.006	-0.133
-604.142	206.481	0.035	-0.054
-603.128	-126.038	-0.183	0.028
-602.113	-200.000	0.007	0.163
-601.098	-200.000	-0.011	0.369
-600.084	208.207	0.119	0.186
-599.069	-85.101	-0.205	-0.064
-598.055	293.917	-0.184	-0.336
-597.040	-15.246	0.104	0.067
-596.025	363.237	-0.061	0.123
-595.011	-78.138	-0.204	-0.070
-593.996	-200.000	0.005	-0.133
-592.982	-136.319	-0.163	-0.019
-591.967	498.349	0.161	0.371
-590.952	179.913	-0.107	0.157
-589.938	-200.000	0.049	0.277
-588.923	66.997	-0.308	-0.314
-587.909	800.000	-0.033	0.125
-586.894	349.464	-0.100	0.198
-585.879	271.134	0.029	-0.051
-584.865	251.192	-0.058	-0.099
-583.850	-38.743	-0.083	0.044
-582.836	483.228	-0.068	-0.154
-581.821	414.292	-0.027	0.057
-580.806	-114.953	-0.101	-0.019
-579.792	-52.359	-0.080	0.037
-578.777	-125.462	0.299	0.045
-577.763	-5.934	-0.305	0.209
-576.748	92.286	0.160	-0.181
-575.733	-144.712	0.318	-0.029
-574.719	-113.865	-0.296	0.058
-573.704	787.785	0.049	0.135
-572.690	-96.281	-0.111	-0.029
-571.675	56.708	0.161	-0.157
-570.661	-200.000	-0.012	0.068
-569.646	-200.000	0.193	-0.000
-568.631	-178.690	-0.107	-0.002
-567.617	-200.000	-0.022	-0.224
-566.602	-73.074	0.187	-0.068
-565.588	-200.000	-0.052	0.328
-564.573	-49.455	0.206	-0.098
-563.558	800.000	-0.059	-0.191
-562.544	-153.595	0.216	0.015
-561.529	96.518	0.177	-0.203
-560.515	-114.487	0.165	0.032
-559.500	-72.042	-0.172	-0.064
-558.485	165.052	0.163	-0.230
-557.471	398.050	-0.116	-0.243
-556.456	17.217	0.293	-0.233
-555.442	246.956	0.107	-0.180
-554.427	-29.942	-0.132	0.075
-553.412	-87.039	-0.077	0.023
-552.398	348.102	0.036	0.071
-551.383	-64.389	-0.404	-0.164
-550.369	43.295	-0.183	-0.167
-549.354	-1.167	-0.104	-0.074
-548.339	-188.752	0.079	0.001
-547.325	-200.000	-0.005	-0.306
-546.310	-150.164	-0.158	0.012
-545.296	41.417	-0.116	-0.105
-544.281	358.889	-0.126	0.251
-543.266	332.501	-0.082	-0.158
-542.252	98.750	0.204	-0.235
-541.237	800.000	0.060	0.189
-540.223	-113.246	-0.110	0.022
-539.208	487.432	0.082	-0.188
-538.193	2.084	-0.230	-0.166
-537.179	57.454	-0.099	-0.097
-536.164	166.487	-0.338	-0.479
-535.150	-200.000	0.145	-0.000
-534.135	293.433	-0.201	0.365
-533.121	394.480	0.166	-0.345
-532.106	-134.288	-0.183	-0.022
-531.091	-152.266	-0.366	0.026
-530.077	800.000	-0.045	0.196
-529.062	397.674	-0.101	0.211
-528.048	-82.453	0.166	0.054
-527.033	203.786	-0.120	-0.186
-526.018	-138.800	-0.102	0.011
-525.004	-63.515	-0.236	-0.097
-523.989	-17.522	-0.122	0.077
-522.975	637.490	-0.025	0.063
-521.960	-65.286	-0.179	-0.072
-520.945	800.000	0.099	-0.319
-519.931	-200.000	-0.019	0.497
-518.916	-22.194	0.134	0.081
-517.902	-3.033	-0.084	0.059
-516.887	800.000	-0.078	0.288
-515.872	-59.852	-0.279	-0.119
-514.858	-200.000	0.052	0.344
-513.843	116.666	0.076	0.093
-512.829	-200.000	0.045	-0.447
-511.814	84.403	0.029	-0.032
-510.799	-58.334	-0.113	-0.049
-509.785	-75.782	-0.109	0.039
-508.770	5.375	0.191	0.141
-507.756	-110.950	0.171	0.035
-506.741	402.346	0.151	-0.316
-505.726	-200.000	-0.065	0.355
-504.712	-59.117	-0.440	-0.189
-503.697	800.000	-0.093	0.298
-502.683	-88.373	-0.168	0.050
-501.668	-169.705	-0.414	0.015
-500.653	-110.170	0.256	0.053
-499.639	-200.000	0.043	-0.338
-498.624	9.146	-0.200	0.151
-497.610	88.819	-0.305	-0.338
-496.595	-19.361	0.037	0.023
-495.581	-9.401	0.147	-0.098
-494.566	368.535	-0.083	-0.167
-493.551	10.953	-0.105	-0.080
-492.537	-97.202	0.236	0.061
-491.522	-29.407	-0.236	-0.135
-490.508	-200.000	0.082	0.416
-489.493	-34.024	-0.189	0.103
-488.478	800.000	-0.080	0.281
-487.464	-51.628	0.303	0.141
-486.449	589.764	-0.085	-0.208
-485.435	-200.000	0.033	-0.241
-484.420	62.687	-0.154	0.153
-483.405	-21.999	0.112	0.068
-482.391	-0.011	0.215	0.153
-481.376	-105.207	-0.157	0.036
-480.362	76.632	-0.056	-0.059
-479.347	-192.984	-0.224	-0.002
-478.332	-200.000	-0.025	0.264
-477.318	206.632	-0.178	0.276
-476.303	800.000	0.066	0.239
-475.289	800.000	0.115	-0.379
-474.274	800.000	-0.128	-0.437
-473.259	-92.815	-0.058	0.016
-472.245	-181.706	0.161	0.003
-471.230	800.000	0.101	-0.330
-470.216	33.794	0.244	0.211
-469.201	27.062	-0.150	0.125
-468.186	-16.493	-0.206	0.130
-467.172	193.068	0.099	0.149
-466.157	-200.000	-0.251	0.001
-465.143	263.866	-0.178	-0.309
-464.128	-106.574	0.114	0.025
-463.113	-200.000	-0.020	0.340
-462.099	87.896	-0.085	-0.094
-461.084	94.428	-0.049	-0.055
-460.070	542.436	0.028	0.066
-459.055	8.688	0.101	-0.076
-458.040	-57.474	-0.109	-0.048
-457.026	-186.219	0.487	0.007
-456.011	11.733	0.087	-0.066
-454.997	-104.851	-0.247	-0.056
-453.982	-26.102	0.092	-0.054
-452.968	-200.000	-0.007	0.349
-451.953	-200.000	-0.040	0.336
-450.938	257.285	-0.080	0.137
-449.924	282.434	0.071	-0.127
-448.909	730.263	-0.074	0.198
-447.895	50.781	0.052	0.049
-446.880	800.000	0.033	0.121
-445.865	-200.000	0.020	0.318
-444.851	800.000	-0.097	0.281
-443.836	-200.000	0.018	-0.287
-442.822	27.864	-0.056	-0.047
-441.807	-200.000	-0.043	-0.198
-440.792	-94.291	-0.053	0.014
-439.778	-200.000	0.005	-0.073
-438.763	108.447	0.066	0.078
-437.749	293.116	-0.042	-0.076
-436.734	125.455	-0.268	0.337
-435.719	60.654	-0.006	-0.006
-434.705	8.766	-0.129	0.096
-433.690	-99.192	-0.388	0.098
-432.676	-43.206	-0.224	-0.113
-431.661	-174.272	0.155	-0.004
-430.646	1.762	-0.167	0.120
-429.632	136.104	0.188	-0.244
-428.617	-200.000	0.045	0.219
-427.603	175.662	-0.156	-0.224
-426.588	800.000	-0.051	0.209
-425.573	-27.369	0.249	-0.144
-424.559	-200.000	0.002	-0.098
-423.544	436.523	-0.063	0.137
-422.530	-96.873	0.216	-0.056
-421.515	389.643	-0.135	0.277
-420.500	755.409	0.103	0.277
-419.486	-26.265	0.065	-0.038
-418.471	-48.598	-0.142	0.068
-417.457	62.634	-0.155	0.154
-416.442	-67.265	0.136	-0.053
-415.428	183.453	-0.108	0.158
-414.413	-77.693	-0.179	0.062
-413.398	-200.000	0.022	-0.143
-412.384	800.000	-0.085	-0.246
-411.369	-200.000	-0.004	-0.233
-410.355	787.480	0.098	-0.268
-409.340	244.583	-0.090	0.151
-408.325	-200.000	-0.054	0.276
-407.311	-91.070	-0.151	0.043
-406.296	32.018	0.028	0.024
-405.282	1.448	0.218	0.156
-404.267	-17.069	0.181	-0.113
-403.252	691.265	0.098	0.254
-402.238	47.952	-0.167	-0.155
-401.223	48.920	0.124	0.115
-400.209	23.204	-0.211	0.172
-399.194	-3.909	0.437	0.301
-398.179	39.195	0.270	-0.240
-397.165	-61.304	-0.301	0.126
-396.150	155.757	-0.184	-0.252
-395.136	15.914	-0.168	0.131
-394.121	69.352	0.301	-0.308
-393.106	-200.000	-0.055	-0.245
-392.092	-200.000	-0.009	0.098
-391.077	-14.102	-0.136	-0.087
-390.063	85.111	0.162	0.177
-389.048	5.572	0.222	0.163
-388.033	3.966	-0.135	0.098
-387.019	-2.323	-0.052	0.036
-386.004	-84.432	0.279	0.087
-384.990	50.371	-0.038	0.036
-383.975	677.282	-0.057	-0.147
-382.960	-192.898	-0.130	0.001
-381.946	-27.377	0.169	0.098
-380.931	149.601	0.069	-0.093
-379.917	-19.517	0.154	0.095
-378.902	-67.886	0.083	-0.032
-377.888	246.048	-0.115	-0.192
-376.873	-200.000	-0.035	-0.172
-375.858	-200.000	-0.001	-0.201
-374.844	32.178	-0.233	0.199
-373.829	-62.411	0.276	-0.114
-372.815	-22.725	-0.136	-0.082
-371.800	160.661	0.171	0.237
-370.785	-200.000	-0.014	-0.221
-369.771	-127.727	0.198	0.028
-368.756	-200.000	-0.002	-0.208
-367.742	-126.275	0.366	0.054
-366.727	-200.000	0.002	0.142
-365.712	-161.013	-0.335	-0.017
-364.698	-49.365	-0.228	-0.108
-363.683	97.945	0.071	0.081
-362.669	349.347	0.037	-0.072
-361.654	-62.529	-0.128	-0.053
-360.639	-200.000	-0.023	0.154
-359.625	800.000	0.056	0.228
-358.610	529.272	0.099	0.231
-357.596	67.254	-0.133	-0.134
-356.581	-200.000	-0.004	0.076
-355.566	-64.443	-0.113	0.045
-354.552	48.241	-0.341	-0.316
-353.537	-200.000	0.027	0.383
-352.523	-96.900	-0.162	-0.042
-351.508	410.655	0.146	0.307
-350.493	-46.175	0.226	-0.110
-349.479	-45.748	-0.085	0.041
-348.464	-200.000	0.014	-0.093
-347.450	800.000	0.100	-0.310
-346.435	231.438	-0.105	0.170
-345.420	-200.000	0.016	0.215
-344.406	745.615	-0.161	-0.429
-343.391	-200.000	-0.008	-0.072
-342.377	-37.337	-0.032	-0.017
-341.362	-200.000	-0.018	0.255
-340.348	91.958	0.087	-0.098
-339.333	51.859	-0.037	0.035
-338.318	511.734	0.084	-0.195
-337.304	161.201	0.064	-0.089
-336.289	88.377	0.076	0.084
-335.275	147.956	0.130	-0.174
-334.260	-101.457	-0.039	0.009
-333.245	-200.000	0.043	0.238
-332.231	800.000	-0.070	0.196
-331.216	127.419	-0.208	0.262
-330.202	-200.000	-0.061	-0.318
-329.187	800.000	0.044	0.178
-328.172	-70.619	0.362	-0.135
-327.158	-200.000	0.039	-0.196
-326.143	277.362	-0.190	-0.335
-325.129	-90.810	-0.384	-0.110
-324.114	-200.000	-0.027	-0.136
-323.099	-20.379	0.123	-0.075
-322.085	205.752	-0.182	0.281
-321.070	-160.688	0.326	0.017
-320.056	-23.908	-0.205	-0.122
-319.041	-53.694	0.326	-0.147
-318.026	-101.892	-0.074	0.018
-317.012	22.258	0.239	0.193
-315.997	-144.113	0.166	0.015
-314.983	64.064	-0.274	-0.273
-313.968	-89.699	0.042	-0.012
-312.953	220.533	0.160	-0.254
-311.939	-200.000	-0.017	-0.253
-310.924	-134.932	-0.179	0.021
-309.910	-173.644	0.400	0.012
-308.895	46.604	0.020	-0.018
-307.880	-200.000	-0.042	0.396
-306.866	-52.607	0.280	-0.128
-305.851	-103.606	-0.270	-0.063
-304.837	-200.000	-0.004	-0.033
-303.822	-200.000	0.054	0.397
-302.807	174.914	0.128	-0.184
-301.793	-102.743	0.334	0.079
-300.778	-200.000	0.001	-0.159
-299.764	68.741	-0.156	0.159
-298.749	315.243	-0.106	-0.198
-297.735	340.164	0.219	0.423
-296.720	32.270	0.224	-0.191
-295.705	-71.521	0.197	-0.073
-294.691	542.023	-0.055	-0.129
-293.676	-113.100	0.046	-0.009
-292.662	-169.822	0.086	-0.003
-291.647	-121.767	-0.201	0.033
-290.632	-200.000	0.020	0.278
-289.618	412.118	0.075	0.157
-288.603	-200.000	0.018	0.216
-287.589	-200.000	0.021	-0.163
-286.574	-90.345	-0.228	0.066
-285.559	147.399	-0.058	-0.078
-284.545	-94.766	0.160	-0.043
-283.530	-99.873	-0.056	0.014
-282.516	-200.000	0.000	-0.374
-281.501	-148.413	-0.483	-0.039
-280.486	-200.000	0.002	0.199
-279.472	760.798	0.049	-0.133
-278.457	800.000	-0.140	0.415
-277.443	-124.401	0.069	-0.011
-276.428	175.325	-0.130	0.186
-275.413	391.745	-0.046	0.094
-274.399	-38.925	0.335	-0.174
-273.384	111.265	0.120	-0.142
-272.370	800.000	0.020	-0.073
-271.355	-60.572	0.174	0.073
-270.340	800.000	0.048	0.165
-269.326	-56.528	0.232	-0.102
-268.311	-71.702	-0.101	-0.037
-267.297	264.486	-0.178	0.306
-266.282	110.496	-0.113	0.134
-265.267	-60.663	0.261	-0.109
-264.253	800.000	0.036	0.131
-263.238	-153.519	-0.131	-0.009
-262.224	-200.000	0.006	-0.350
-261.209	-56.580	0.388	-0.170
-260.195	27.530	0.093	0.077
-259.180	-54.869	-0.290	-0.129
-258.165	41.987	0.253	-0.227
-257.151	48.085	-0.180	0.166
-256.136	-200.000	-0.004	0.145
-255.122	15.113	-0.248	0.192
-254.107	382.948	0.060	0.123
-253.092	384.268	-0.029	-0.059
-252.078	-121.101	0.240	-0.040
-251.063	-190.291	0.272	0.003
-250.049	208.294	-0.150	0.231
-249.034	174.294	-0.128	0.182
-248.019	-200.000	-0.028	-0.343
-247.005	274.147	0.147	0.257
-245.990	800.000	-0.037	-0.105
-244.976	800.000	0.055	-0.174
-243.961	91.664	0.114	-0.126
-242.946	318.074	0.064	0.119
-241.932	-11.256	-0.155	0.101
-240.917	-164.695	-0.190	-0.008
-239.903	-200.000	0.016	0.107
-238.888	-200.000	0.035	0.174
-237.873	-12.474	-0.166	0.107
-236.859	-68.342	0.205	-0.079
-235.844	124.337	0.137	0.170
-234.830	87.067	0.062	0.067
-233.815	800.000	-0.042	0.147
-232.800	-87.820	-0.019	0.006
-231.786	-136.973	0.181	-0.020
-230.771	-41.009	0.276	0.141
-229.757	-200.000	0.004	0.069
-228.742	800.000	0.094	0.316
-227.727	82.824	0.041	-0.044
-226.713	-200.000	0.015	0.077
-225.698	-200.000	-0.086	-0.454
-224.684	16.855	0.178	-0.139
-223.669	-198.340	0.169	0.001
-222.655	-66.606	-0.128	-0.050
-221.640	800.000	-0.071	-0.298
-220.625	-200.000	0.077	-0.417
-219.611	331.836	-0.120	-0.228
-218.596	-200.000	0.004	0.032
-217.582	-62.536	0.120	-0.049
-216.567	0.606	0.238	-0.168
-215.552	30.897	-0.286	0.241
-214.538	-76.915	0.270	0.093
-213.523	19.261	0.064	-0.051
-212.509	-200.000	-0.024	-0.191
-211.494	800.000	0.024	-0.080
-210.479	171.962	0.086	-0.122
-209.465	-180.151	-0.111	-0.002
-208.450	800.000	0.034	-0.144
-207.436	-200.000	-0.040	0.410
-206.421	-173.377	0.332	0.010
-205.406	163.848	0.112	0.155
-204.392	-200.000	0.033	-0.293
-203.377	-159.333	0.343	-0.019
-202.363	-85.141	0.304	0.094
-201.348	132.189	0.147	-0.187
-200.333	-200.000	-0.031	0.183
-199.319	-200.000	-0.026	-0.195
-198.304	367.435	-0.148	-0.295
-197.290	314.315	0.044	0.082
-196.275	-26.829	0.282	-0.162
-195.260	30.531	-0.140	0.118
-194.246	342.337	0.134	-0.258
-193.231	-200.000	-0.033	0.187
-192.217	567.722	0.085	-0.204
-191.202	-75.095	0.279	-0.098
-190.187	-38.299	-0.096	0.050
-189.173	800.000	0.064	0.211
-188.158	-61.180	-0.246	0.102
-187.144	316.623	-0.102	-0.189
-186.129	-200.000	-0.064	0.384
-185.114	800.000	0.104	0.343
-184.100	-200.000	0.046	-0.460
-183.085	534.598	-0.155	-0.361
-182.071	242.338	0.111	0.183
-181.056	356.105	0.164	-0.322
-180.042	-93.463	-0.187	-0.051
-179.027	800.000	-0.032	-0.134
-178.012	94.394	0.107	0.120
-176.998	-17.235	-0.130	-0.081
-175.983	800.000	-0.088	0.265
-174.969	-200.000	-0.017	-0.144
-173.954	-181.448	0.140	-0.003
-172.939	-22.111	-0.235	-0.140
-171.925	-140.254	0.315	0.032
-170.910	10.318	0.050	-0.038
-169.896	-200.000	-0.027	-0.121
-168.881	95.902	0.183	0.206
-167.866	-54.847	0.281	-0.125
-166.852	232.630	0.091	-0.148
-165.837	-200.000	-0.018	-0.078
-164.823	280.687	0.129	0.227
-163.808	-5.837	-0.192	-0.129
-162.793	385.695	-0.022	-0.044
-161.779	298.455	0.209	0.379
-160.764	296.280	0.132	0.239
-159.750	-36.503	-0.229	0.121
-158.735	509.752	-0.098	0.225
-157.720	-67.154	0.115	0.045
-156.706	-172.780	-0.089	-0.003
-155.691	-152.453	0.216	0.015
-154.677	-90.389	0.175	0.050
-153.662	22.574	0.106	0.085
-152.647	-72.840	0.295	0.107
-151.633	-200.000	-0.032	-0.326
-150.618	39.686	-0.242	-0.213
-149.604	800.000	0.041	0.114
-148.589	-114.103	-0.131	0.025
-147.574	-0.730	0.137	-0.095
-146.560	129.330	-0.192	-0.241
-145.545	68.327	0.239	-0.240
-144.531	750.974	-0.045	-0.120
-143.516	35.851	0.030	-0.026
-142.502	-37.823	0.099	0.052
-141.487	-141.929	-0.123	-0.012
-140.472	589.227	-0.017	-0.041
-139.458	-105.066	0.146	0.033
-138.443	45.562	0.216	0.196
-137.429	200.442	-0.121	-0.182
-136.414	75.493	0.040	-0.041
-135.399	-12.477	0.205	0.131
-134.385	271.843	-0.170	0.294
-133.370	-163.364	0.323	-0.015
-132.356	-32.022	-0.024	0.013
-131.341	467.235	0.015	0.033
-130.326	-93.269	-0.476	-0.130
-129.312	800.000	-0.102	0.431
-128.297	-200.000	0.031	0.181
-127.283	73.755	-0.231	-0.238
-126.268	-23.728	-0.291	-0.171
-125.253	-128.644	0.273	-0.038
-124.239	231.276	-0.072	-0.116
-123.224	-87.564	-0.140	-0.042
-122.210	401.692	-0.039	-0.079
