DTS Sentinel unit serial number:	SN413079Multiplexer serial number:	ORYXHardware model number:	OX4-SRSoftware version number:	ORYX F/W v4.00 Oryx Data Collector v3.7.2.0data status	okinstallation	princeton_trtdifferential loss correction	single-endedforward channel	channel 2reverse channel	N/Adate	2019/09/17time	20:47:35forward acquisition time	60.00reverse acquisition time	0.00gamma	496.2192k internal	0.2336k external	0.2336temperature offset calibration	0.9985default loss term (dB/km)	0.3790temperature slope calibration	1.0000multiplexer offset coefficient	1.0000multiplexer slope coefficient	1.0000fibre end	0.00T internal ref (°C)	29.44T ext. ref 1 (°C)	0.20T ext. ref 2 (°C)	20.74length (m)	temperature (°C)	Stokes	anti-Stokes-747.200	-83.252	0.222	-0.072
-746.185	-152.970	-0.085	0.006
-745.171	-200.000	0.012	0.175
-744.156	-200.000	0.001	0.138
-743.142	-200.000	-0.024	0.171
-742.127	10.913	-0.247	0.189
-741.112	-9.029	-0.077	-0.052
-740.098	491.768	-0.023	0.053
-739.083	-66.844	0.405	-0.161
-738.069	-117.921	-0.138	-0.025
-737.054	-200.000	0.021	-0.113
-736.039	33.858	-0.350	-0.306
-735.025	394.918	-0.036	0.075
-734.010	-42.988	-0.186	0.095
-732.996	-200.000	0.073	-0.352
-731.981	711.324	0.181	-0.482
-730.966	-74.936	-0.165	-0.059
-729.952	363.123	-0.144	-0.290
-728.937	-200.000	0.000	0.204
-727.923	-112.417	0.251	-0.050
-726.908	-26.814	-0.265	-0.155
-725.894	-182.816	-0.190	-0.003
-724.879	-200.000	0.029	0.243
-723.864	95.349	-0.119	-0.136
-722.850	242.335	-0.115	0.194
-721.835	800.000	-0.051	-0.196
-720.821	-29.500	-0.123	0.071
-719.806	60.231	-0.135	-0.134
-718.791	59.748	-0.292	-0.289
-717.777	14.744	-0.038	0.030
-716.762	209.203	-0.140	-0.220
-715.748	800.000	0.097	-0.326
-714.733	-34.185	0.277	0.153
-713.718	-159.656	-0.037	0.002
-712.704	-101.131	-0.236	0.058
-711.689	-104.108	-0.164	-0.038
-710.675	577.507	-0.060	0.148
-709.660	800.000	0.073	0.212
-708.645	-156.038	0.189	-0.012
-707.631	299.326	0.075	-0.138
-706.616	-21.970	0.135	-0.082
-705.602	-118.954	-0.126	-0.022
-704.587	-150.309	-0.251	0.019
-703.572	215.797	-0.094	-0.150
-702.558	-200.000	-0.015	0.079
-701.543	366.677	0.167	-0.338
-700.529	-200.000	-0.007	-0.082
-699.514	67.120	-0.073	0.074
-698.499	-163.557	-0.187	-0.009
-697.485	-200.000	0.020	-0.409
-696.470	-94.442	-0.055	0.015
-695.456	420.339	-0.138	-0.296
-694.441	-81.299	0.129	-0.043
-693.426	-171.636	0.201	0.007
-692.412	-58.953	-0.291	-0.126
-691.397	-130.976	0.322	-0.043
-690.383	540.346	-0.095	-0.226
-689.368	-72.319	0.148	0.055
-688.354	-93.309	-0.324	0.090
-687.339	58.625	0.311	0.306
-686.324	-138.316	-0.515	-0.057
-685.310	-1.792	-0.084	0.059
-684.295	204.405	0.130	0.202
-683.281	800.000	0.201	0.595
-682.266	-42.236	0.274	-0.140
-681.251	-45.551	0.183	0.091
-680.237	-200.000	-0.001	-0.286
-679.222	238.281	-0.130	0.217
-678.208	-110.178	0.290	0.061
-677.193	9.367	-0.132	0.100
-676.178	-126.388	0.310	0.046
-675.164	-191.492	0.130	0.001
-674.149	154.467	0.127	-0.175
-673.135	-108.672	-0.046	0.010
-672.120	-200.000	0.004	0.215
-671.105	-41.793	-0.233	0.120
-670.091	-111.422	-0.386	-0.079
-669.076	340.542	0.108	-0.212
-668.062	759.825	0.025	-0.069
-667.047	21.592	-0.189	0.154
-666.032	18.816	-0.122	0.098
-665.018	-171.079	-0.123	-0.004
-664.003	81.352	0.151	0.164
-662.989	-85.138	-0.297	-0.093
-661.974	66.655	0.064	0.065
-660.959	-68.207	0.286	-0.111
-659.945	-67.599	0.115	0.045
-658.930	91.552	-0.234	-0.263
-657.916	48.315	-0.095	0.089
-656.901	-66.850	-0.197	0.078
-655.886	-54.509	0.426	0.193
-654.872	-154.669	0.199	-0.013
-653.857	342.490	-0.059	0.115
-652.843	104.875	0.175	-0.207
-651.828	-0.633	0.081	-0.058
-650.814	-124.000	0.180	0.028
-649.799	-200.000	0.020	0.217
-648.784	800.000	0.103	0.329
-647.770	-35.042	0.168	0.092
-646.755	-91.421	0.163	0.047
-645.741	-154.672	-0.055	-0.004
-644.726	124.295	0.164	0.206
-643.711	435.567	-0.115	-0.251
-642.697	25.630	-0.207	-0.173
-641.682	31.971	-0.196	0.169
-640.668	-77.436	0.048	-0.017
-639.653	154.288	0.124	-0.171
-638.638	800.000	0.032	0.139
-637.624	163.979	0.174	-0.246
-636.609	800.000	-0.110	-0.451
-635.595	-200.000	-0.019	-0.122
-634.580	29.541	-0.176	-0.149
-633.565	-152.673	-0.318	-0.023
-632.551	393.808	0.099	-0.207
-631.536	443.693	0.066	-0.145
-630.522	31.313	0.250	-0.214
-629.507	-112.612	-0.099	0.020
-628.492	-200.000	-0.031	0.211
-627.478	637.948	-0.121	-0.309
-626.463	-200.000	0.011	-0.487
-625.449	18.963	0.220	-0.176
-624.434	-49.888	-0.235	-0.112
-623.419	224.309	0.156	-0.253
-622.405	-200.000	-0.001	0.315
-621.390	-28.265	0.275	0.159
-620.376	93.282	0.195	0.220
-619.361	-200.000	0.016	-0.193
-618.346	37.181	0.081	-0.072
-617.332	-136.083	-0.205	-0.024
-616.317	304.087	-0.100	-0.186
-615.303	800.000	0.104	0.373
-614.288	133.751	0.138	0.179
-613.273	235.506	0.136	-0.225
-612.259	32.895	-0.056	0.049
-611.244	7.137	0.214	0.159
-610.230	-21.582	-0.163	-0.100
-609.215	-139.519	-0.057	0.006
-608.201	-97.680	0.136	-0.035
-607.186	57.459	0.003	-0.003
-606.171	400.306	0.045	-0.095
-605.157	40.817	0.071	-0.064
-604.142	-138.503	0.336	-0.037
-603.128	10.693	-0.088	0.067
-602.113	800.000	-0.038	0.163
-601.098	307.544	0.060	0.111
-600.084	51.510	0.109	0.103
-599.069	182.826	0.063	-0.093
-598.055	-66.622	-0.081	-0.032
-597.040	-81.577	0.151	0.050
-596.025	800.000	-0.079	0.240
-595.011	234.600	-0.100	-0.165
-593.996	159.416	0.146	0.203
-592.982	-8.441	-0.022	0.015
-591.967	-111.893	0.398	0.080
-590.952	-153.105	-0.222	-0.016
-589.938	-39.972	-0.109	0.057
-588.923	-28.011	-0.133	-0.077
-587.909	-200.000	-0.050	0.469
-586.894	-83.538	-0.083	-0.027
-585.879	-90.351	0.155	-0.045
-584.865	623.185	0.084	-0.211
-583.850	-133.047	-0.362	0.046
-582.836	211.469	-0.035	-0.055
-581.821	280.156	0.081	-0.144
-580.806	800.000	-0.045	-0.148
-579.792	800.000	0.052	-0.174
-578.777	800.000	0.136	-0.407
-577.763	-143.575	-0.216	-0.020
-576.748	341.315	0.146	0.285
-575.733	126.672	-0.180	-0.228
-574.719	-76.386	0.239	-0.084
-573.704	56.738	-0.129	-0.125
-572.690	171.029	0.120	0.171
-571.675	-60.842	0.124	-0.052
-570.661	-200.000	-0.076	0.351
-569.646	-200.000	0.019	0.278
-568.631	260.260	-0.065	-0.112
-567.617	189.529	0.074	0.110
-566.602	-200.000	-0.039	0.199
-565.588	-125.387	0.288	0.044
-564.573	-200.000	-0.008	0.055
-563.558	148.339	0.077	-0.103
-562.544	326.387	0.178	-0.339
-561.529	76.542	0.025	0.027
-560.515	-174.713	-0.379	0.011
-559.500	-200.000	0.010	0.187
-558.485	-68.917	0.272	0.105
-557.471	800.000	-0.069	0.220
-556.456	192.569	-0.154	-0.232
-555.442	9.233	-0.197	-0.148
-554.427	800.000	-0.017	-0.065
-553.412	-36.316	-0.175	0.094
-552.398	20.259	-0.216	0.174
-551.383	719.707	-0.040	-0.105
-550.369	43.849	0.071	-0.064
-549.354	285.335	0.076	-0.136
-548.339	354.376	-0.098	-0.195
-547.325	30.250	0.148	-0.126
-546.310	25.569	0.149	-0.124
-545.296	-76.776	0.176	-0.061
-544.281	-200.000	-0.001	-0.106
-543.266	-200.000	-0.009	0.046
-542.252	122.578	-0.151	-0.188
-541.237	-200.000	-0.047	-0.213
-540.223	281.260	0.129	0.229
-539.208	327.759	0.079	0.152
-538.193	-157.456	0.043	0.003
-537.179	800.000	0.024	-0.069
-536.164	619.826	-0.192	0.480
-535.150	-142.295	0.247	-0.024
-534.135	-87.711	-0.300	-0.090
-533.121	-41.699	-0.222	0.114
-532.106	45.249	-0.189	0.173
-531.091	-23.475	-0.079	0.047
-530.077	-200.000	-0.070	-0.435
-529.062	56.964	0.320	0.311
-528.048	290.075	0.191	-0.345
-527.033	193.821	-0.025	0.037
-526.018	-200.000	0.086	0.464
-525.004	-200.000	-0.025	-0.228
-523.989	35.044	0.054	-0.047
-522.975	-69.893	-0.198	-0.075
-521.960	127.452	0.217	0.274
-520.945	-200.000	-0.033	-0.160
-519.931	800.000	-0.021	0.081
-518.916	-200.000	0.012	0.184
-517.902	433.928	0.065	0.140
-516.887	800.000	-0.030	0.095
-515.872	-69.226	-0.264	0.101
-514.858	37.492	0.150	0.132
-513.843	96.232	0.048	-0.054
-512.829	-200.000	-0.020	-0.351
-511.814	387.927	-0.047	0.097
-510.799	-200.000	0.014	-0.071
-509.785	27.180	0.042	0.035
-508.770	-200.000	-0.010	-0.204
-507.756	800.000	-0.016	-0.046
-506.741	392.688	-0.019	0.039
-505.726	-160.936	-0.233	0.012
-504.712	-200.000	0.068	-0.343
-503.697	446.429	0.057	0.126
-502.683	800.000	-0.056	-0.211
-501.668	-114.458	0.341	0.065
-500.653	800.000	-0.033	0.093
-499.639	800.000	0.152	-0.434
-498.624	349.399	0.114	0.223
-497.610	380.788	-0.129	0.263
-496.595	227.447	-0.160	-0.258
-495.581	-153.372	0.178	0.012
-494.566	-74.104	-0.133	0.048
-493.551	-109.313	0.169	0.036
-492.537	-20.240	0.218	0.134
-491.522	-200.000	0.003	-0.102
-490.508	-200.000	-0.043	0.197
-489.493	-200.000	-0.016	-0.256
-488.478	-119.009	-0.176	0.031
-487.464	-200.000	-0.068	-0.372
-486.449	-17.717	0.670	-0.418
-485.435	765.868	-0.089	0.240
-484.420	-200.000	-0.006	0.145
-483.405	-27.213	0.196	-0.113
-482.391	800.000	0.113	0.459
-481.376	-52.715	-0.340	0.156
-480.362	800.000	-0.089	-0.262
-479.347	-65.613	0.270	0.108
-478.332	392.319	-0.069	0.142
-477.318	696.572	0.075	0.196
-476.303	606.600	0.165	0.410
-475.289	96.904	0.087	0.099
-474.274	-200.000	0.015	0.261
-473.259	264.159	0.149	0.258
-472.245	228.224	-0.206	0.334
-471.230	-1.542	-0.332	0.232
-470.216	223.264	0.105	0.169
-469.201	-14.972	0.254	0.162
-468.186	-200.000	0.021	-0.362
-467.172	-200.000	0.041	-0.263
-466.157	-200.000	-0.028	0.269
-465.143	19.993	0.135	-0.108
-464.128	13.599	-0.207	-0.160
-463.113	-20.644	0.241	0.147
-462.099	-126.881	-0.346	-0.051
-461.084	69.056	-0.247	-0.253
-460.070	-200.000	0.052	-0.228
-459.055	197.232	-0.176	0.267
-458.040	112.115	0.248	0.297
-457.026	144.274	-0.093	0.123
-456.011	-200.000	-0.014	0.106
-454.997	-52.308	-0.415	0.191
-453.982	44.329	-0.202	0.184
-452.968	418.302	-0.103	-0.218
-451.953	-98.931	-0.265	0.067
-450.938	31.718	-0.226	-0.193
-449.924	-200.000	-0.047	-0.343
-448.909	-94.988	-0.327	0.088
-447.895	449.653	0.105	0.229
-446.880	-110.423	-0.107	-0.022
-445.865	45.626	0.147	0.135
-444.851	32.435	0.104	-0.089
-443.836	-106.037	0.141	0.032
-442.822	670.277	0.047	0.122
-441.807	19.285	-0.193	0.154
-440.792	800.000	0.117	0.322
-439.778	-108.122	0.172	0.037
-438.763	719.154	0.124	-0.326
-437.749	351.208	0.022	0.043
-436.734	-57.129	0.319	-0.139
-435.719	-178.686	-0.279	0.006
-434.705	146.217	0.149	-0.198
-433.690	-123.360	-0.448	0.071
-432.676	199.026	0.040	-0.061
-431.661	800.000	0.129	0.385
-430.646	108.749	-0.024	-0.028
-429.632	800.000	0.149	-0.604
-428.617	-15.089	-0.313	-0.199
-427.603	-56.077	0.187	0.083
-426.588	-52.246	-0.075	0.034
-425.573	-182.509	-0.205	-0.004
-424.559	-200.000	-0.039	0.336
-423.544	-137.017	-0.148	-0.017
-422.530	-161.960	0.112	-0.006
-421.515	-85.238	0.109	-0.034
-420.500	191.484	-0.152	0.227
-419.486	79.040	0.101	-0.107
-418.471	-72.075	0.079	-0.029
-417.457	-200.000	-0.011	-0.325
-416.442	-81.947	0.451	0.146
-415.428	78.062	-0.106	-0.112
-414.413	-147.839	-0.083	0.007
-413.398	7.673	-0.257	0.191
-412.384	-119.172	-0.088	-0.015
-411.369	800.000	-0.052	0.193
-410.355	-116.030	-0.073	-0.013
-409.340	-58.815	0.117	-0.050
-408.325	800.000	-0.064	0.181
-407.311	-88.720	-0.154	-0.045
-406.296	370.592	0.090	0.181
-405.282	-39.311	0.290	-0.151
-404.267	-33.718	-0.122	-0.067
-403.252	-80.495	0.061	-0.020
-402.238	-109.329	-0.219	-0.046
-401.223	172.032	0.173	-0.246
-400.209	-200.000	-0.039	-0.424
-399.194	147.910	0.091	-0.122
-398.179	213.738	-0.184	-0.288
-397.165	-74.927	-0.317	0.113
-396.150	59.575	-0.179	0.175
-395.136	73.161	0.153	-0.159
-394.121	20.377	0.093	-0.074
-393.106	-74.191	-0.251	0.090
-392.092	-105.216	-0.037	-0.008
-391.077	-75.687	-0.130	0.046
-390.063	-128.666	0.224	-0.031
-389.048	424.046	0.053	0.113
-388.033	-23.367	0.055	-0.033
-387.019	80.283	-0.116	0.124
-386.004	85.933	-0.108	0.118
-384.990	-109.662	0.387	0.081
-383.975	171.774	-0.055	0.078
-382.960	-43.143	-0.184	-0.092
-381.946	-91.661	0.301	0.085
-380.931	-102.303	-0.138	0.033
-379.917	-159.792	0.176	-0.010
-378.902	800.000	0.096	0.386
-377.888	-18.761	0.134	0.083
-376.873	-55.413	-0.240	-0.107
-375.858	-37.061	0.253	-0.134
-374.844	32.972	-0.172	-0.147
-373.829	-200.000	0.049	-0.311
-372.815	42.169	0.102	0.091
-371.800	-46.296	-0.365	0.178
-370.785	116.012	-0.190	0.230
-369.771	117.363	0.130	-0.158
-368.756	-112.805	0.414	0.081
-367.742	87.702	0.131	0.143
-366.727	72.964	-0.143	0.148
-365.712	-56.071	-0.176	0.078
-364.698	-126.942	-0.365	-0.053
-363.683	-119.617	-0.333	-0.057
-362.669	-18.709	0.150	-0.093
-361.654	279.943	0.015	0.026
-360.639	-178.274	0.063	0.001
-359.625	800.000	-0.086	-0.275
-358.610	182.047	-0.167	-0.243
-357.596	-64.809	0.371	0.149
-356.581	-159.679	-0.330	0.018
-355.566	-200.000	0.063	0.286
-354.552	800.000	0.035	-0.149
-353.537	378.122	0.247	0.500
-352.523	209.580	-0.058	0.090
-351.508	-58.731	0.138	-0.059
-350.493	671.929	-0.034	-0.088
-349.479	594.055	-0.122	0.298
-348.464	107.478	-0.212	-0.249
-347.450	162.989	-0.071	0.099
-346.435	-12.044	-0.069	-0.045
-345.420	-131.941	0.120	-0.016
-344.406	-142.187	-0.143	-0.014
-343.391	149.463	0.080	-0.107
-342.377	-200.000	0.013	-0.093
-341.362	43.846	-0.075	-0.068
-340.348	-200.000	0.001	-0.120
-339.333	-80.106	0.201	-0.067
-338.318	-200.000	-0.002	0.151
-337.304	4.333	-0.115	0.084
-336.289	-200.000	-0.019	-0.191
-335.275	-67.796	-0.222	-0.086
-334.260	-200.000	-0.126	0.000
-333.245	-49.256	0.178	0.084
-332.231	-40.786	0.121	-0.062
-331.216	800.000	-0.042	-0.144
-330.202	78.328	-0.050	0.053
-329.187	800.000	-0.071	0.247
-328.172	623.503	0.098	0.244
-327.158	-34.559	-0.249	-0.135
-326.143	243.908	0.147	-0.243
-325.129	129.680	-0.143	0.180
-324.114	800.000	0.078	-0.257
-323.099	800.000	-0.037	0.108
-322.085	76.587	-0.071	0.074
-321.070	145.196	-0.116	0.154
-320.056	188.400	0.174	0.257
-319.041	-56.276	0.139	0.061
-318.026	496.139	0.101	0.230
-317.012	-134.471	0.062	-0.008
-315.997	800.000	0.061	0.207
-314.983	652.548	-0.008	0.021
-313.968	237.096	-0.019	0.031
-312.953	-34.808	0.167	-0.090
-311.939	5.606	-0.117	-0.086
-310.924	800.000	0.053	-0.177
-309.910	-128.686	0.463	0.065
-308.895	49.534	0.131	0.122
-307.880	25.050	-0.384	-0.315
-306.866	800.000	0.060	-0.220
-305.851	-63.384	-0.261	-0.106
-304.837	-115.156	-0.110	-0.021
-303.822	182.814	-0.208	-0.303
-302.807	221.440	0.137	0.218
-301.793	16.116	0.191	0.149
-300.778	150.696	-0.076	0.102
-299.764	111.286	-0.087	-0.103
-298.749	-154.310	-0.384	0.026
-297.735	-200.000	0.038	-0.296
-296.720	97.552	-0.216	-0.245
-295.705	798.955	0.076	-0.206
-294.691	-65.800	0.217	-0.086
-293.676	371.201	0.156	-0.311
-292.662	126.911	0.241	-0.301
-291.647	174.995	0.152	0.217
-290.632	325.214	0.069	-0.130
-289.618	-200.000	-0.014	0.113
-288.603	-108.599	-0.095	-0.020
-287.589	591.847	0.074	-0.180
-286.574	-2.121	0.202	0.140
-285.559	-39.354	-0.310	0.160
-284.545	-38.976	-0.332	-0.172
-283.530	98.579	0.300	0.342
-282.516	-52.352	0.091	0.041
-281.501	800.000	-0.052	0.157
-280.486	800.000	-0.029	-0.088
-279.472	-186.481	-0.317	-0.004
-278.457	-149.209	-0.050	-0.004
-277.443	60.088	0.383	-0.373
-276.428	-105.449	-0.383	0.086
-275.413	-200.000	0.039	0.195
-274.399	-93.934	-0.482	-0.131
-273.384	65.715	0.205	0.204
-272.370	-200.000	0.003	-0.124
-271.355	41.195	-0.067	0.060
-270.340	-130.923	0.081	-0.011
-269.326	-34.152	-0.160	-0.087
-268.311	-91.021	0.218	-0.062
-267.297	67.851	-0.113	-0.114
-266.282	79.722	-0.153	0.162
-265.267	739.360	0.076	-0.201
-264.253	513.235	0.093	0.213
-263.238	-89.653	-0.129	-0.037
-262.224	179.512	-0.048	-0.069
-261.209	404.446	-0.119	-0.246
-260.195	-200.000	0.005	0.353
-259.180	800.000	-0.131	0.416
-258.165	59.660	-0.099	0.097
-257.151	-200.000	-0.038	-0.367
-256.136	37.590	-0.229	-0.200
-255.122	-200.000	-0.002	-0.158
-254.107	-25.507	-0.270	0.157
-253.092	-178.158	0.254	0.006
-252.078	-79.307	-0.308	0.103
-251.063	401.699	0.066	0.136
-250.049	800.000	-0.132	0.371
-249.034	-59.953	0.383	-0.161
-248.019	-71.217	0.193	-0.071
-247.005	-98.273	-0.154	-0.039
-245.990	-18.994	0.055	0.034
-244.976	218.463	-0.085	-0.133
-243.961	-95.380	0.112	0.030
-242.946	800.000	0.024	0.075
-241.932	-200.000	0.002	-0.037
-240.917	723.134	-0.183	0.480
-239.903	-200.000	0.033	0.309
-238.888	322.222	-0.092	-0.173
-237.873	-200.000	-0.073	-0.511
-236.859	-200.000	0.038	-0.413
-235.844	262.372	-0.075	-0.127
-234.830	800.000	-0.098	0.301
-233.815	-61.124	0.287	-0.119
-232.800	110.547	0.035	-0.041
-231.786	341.486	0.154	-0.296
-230.771	-200.000	0.035	0.251
-229.757	800.000	0.070	0.206
-228.742	324.736	-0.092	0.174
-227.727	-200.000	-0.014	0.200
-226.713	-14.955	0.155	0.098
-225.698	-200.000	-0.051	0.223
-224.684	-137.927	0.226	-0.025
-223.669	52.870	0.212	0.200
-222.655	-72.967	-0.071	-0.026
-221.640	-104.413	-0.230	-0.052
-220.625	-200.000	0.015	0.426
-219.611	236.363	-0.062	0.101
-218.596	-128.335	0.281	0.039
-217.582	718.462	0.070	0.182
-216.567	-200.000	0.005	0.212
-215.552	-200.000	0.067	-0.416
-214.538	63.599	0.143	-0.141
-213.523	244.376	0.030	0.050
-212.509	84.335	-0.043	-0.047
-211.494	-200.000	0.002	0.189
-210.479	140.145	0.036	-0.047
-209.465	51.644	0.023	0.022
-208.450	-200.000	-0.009	0.076
-207.436	-56.895	0.133	-0.058
-206.421	21.260	-0.026	-0.021
-205.406	-49.125	0.372	-0.175
-204.392	186.426	-0.178	-0.260
-203.377	-200.000	0.019	-0.141
-202.363	768.407	0.115	-0.307
-201.348	155.808	0.122	0.165
-200.333	-200.000	0.043	-0.206
-199.319	-105.376	0.247	0.055
-198.304	800.000	-0.056	0.231
-197.290	-69.604	-0.261	0.098
-196.275	-24.184	0.147	-0.086
-195.260	-73.363	0.050	0.018
-194.246	330.537	0.074	-0.139
-193.231	-74.817	0.163	0.057
-192.217	-200.000	0.023	0.105
-191.202	-27.403	0.092	-0.053
-190.187	-200.000	-0.116	-0.512
-189.173	-54.065	0.127	-0.057
-188.158	-165.925	-0.137	0.006
-187.144	11.584	-0.142	0.107
-186.129	-167.580	0.213	-0.008
-185.114	800.000	0.119	-0.478
-184.100	-200.000	-0.026	-0.148
-183.085	-10.507	0.088	-0.057
-182.071	183.884	-0.104	-0.151
-181.056	-58.213	0.202	-0.087
-180.042	-200.000	-0.005	0.115
-179.027	-151.420	0.102	0.007
-178.012	-138.574	0.689	0.074
-176.998	23.246	0.277	0.223
-175.983	-114.378	-0.385	-0.073
-174.969	80.988	-0.192	-0.204
-173.954	800.000	-0.186	0.569
-172.939	-200.000	-0.027	-0.124
-171.925	16.980	-0.202	-0.158
-170.910	-29.394	0.091	0.051
-169.896	-101.900	0.098	-0.023
-168.881	256.865	0.039	-0.065
-167.866	-200.000	0.068	-0.333
-166.852	88.941	-0.119	0.130
-165.837	-95.178	0.119	0.031
-164.823	-43.044	-0.122	0.061
-163.808	187.888	-0.032	0.047
-162.793	-164.639	-0.087	0.004
-161.779	800.000	0.036	0.131
-160.764	34.313	-0.289	-0.248
-159.750	-150.912	-0.322	-0.024
-158.735	-200.000	0.006	0.285
-157.720	800.000	0.021	0.083
-156.706	-200.000	-0.034	-0.360
-155.691	-154.790	-0.228	0.015
-154.677	-156.728	-0.357	-0.022
-153.662	533.559	0.115	0.268
-152.647	-200.000	-0.023	0.258
-151.633	10.701	0.106	0.079
-150.618	-135.002	-0.162	0.019
-149.604	10.848	0.174	-0.130
-148.589	-62.035	0.205	-0.084
-147.574	-6.905	-0.137	0.091
-146.560	-66.590	-0.155	-0.060
-145.545	-200.000	-0.013	0.096
-144.531	231.814	0.125	-0.202
-143.516	396.119	0.145	-0.297
-142.502	-200.000	-0.021	0.346
-141.487	-62.901	0.223	-0.091
-140.472	88.210	0.396	0.431
-139.458	-12.262	-0.147	0.094
-138.443	-119.179	0.178	0.030
-137.429	60.933	-0.112	0.109
-136.414	23.580	-0.148	-0.119
-135.399	83.613	0.032	0.034
-134.385	397.404	-0.086	-0.177
-133.370	-68.867	0.128	-0.049
-132.356	122.638	-0.021	0.025
-131.341	800.000	0.041	0.170
-130.326	72.077	-0.036	-0.037
-129.312	-65.050	0.172	0.068
-128.297	9.467	-0.152	0.113
-127.283	-107.324	-0.327	0.070
-126.268	-198.598	0.354	0.002
-125.253	-68.608	-0.092	-0.035
-124.239	307.169	0.147	-0.269
-123.224	110.992	-0.074	-0.088
-122.210	391.385	0.090	0.184
-121.195	109.341	-0.165	-0.194
