DTS Sentinel unit serial number:	SN413079Multiplexer serial number:	ORYXHardware model number:	OX4-SRSoftware version number:	ORYX F/W v4.00 Oryx Data Collector v3.7.2.0data status	okinstallation	princeton_trtdifferential loss correction	single-endedforward channel	channel 2reverse channel	N/Adate	2019/09/17time	22:51:34forward acquisition time	60.00reverse acquisition time	0.00gamma	496.2192k internal	0.2345k external	0.2345temperature offset calibration	0.9987default loss term (dB/km)	0.3790temperature slope calibration	1.0000multiplexer offset coefficient	1.0000multiplexer slope coefficient	1.0000fibre end	0.00T internal ref (°C)	24.94T ext. ref 1 (°C)	0.17T ext. ref 2 (°C)	18.04length (m)	temperature (°C)	Stokes	anti-Stokes-747.200	11.717	-0.209	0.160
-746.185	-88.813	-0.402	-0.119
-745.171	-65.545	0.191	-0.077
-744.156	-132.632	-0.294	0.038
-743.142	64.723	-0.114	0.115
-742.127	310.699	-0.331	0.619
-741.112	17.477	0.225	0.178
-740.098	800.000	-0.109	0.450
-739.083	800.000	0.047	-0.135
-738.069	15.884	0.116	-0.091
-737.054	39.715	0.041	0.037
-736.039	-117.378	-0.277	-0.050
-735.025	-155.693	0.227	0.015
-734.010	-114.209	-0.350	-0.068
-732.996	3.513	-0.080	-0.058
-731.981	35.017	-0.137	0.120
-730.966	-72.637	-0.024	-0.009
-729.952	171.623	0.046	0.066
-728.937	125.242	-0.199	-0.251
-727.923	-47.405	0.159	-0.077
-726.908	89.406	-0.083	0.092
-725.894	800.000	0.008	0.031
-724.879	-68.019	-0.200	0.078
-723.864	-87.441	0.318	0.096
-722.850	-200.000	0.033	-0.244
-721.835	-94.796	-0.134	-0.036
-720.821	800.000	0.159	-0.489
-719.806	-98.737	-0.191	0.049
-718.791	-200.000	-0.026	0.179
-717.777	51.052	-0.298	-0.282
-716.762	138.054	-0.229	-0.300
-715.748	81.794	0.087	0.094
-714.733	112.858	0.094	0.114
-713.718	-41.949	0.188	0.096
-712.704	-103.469	0.081	-0.019
-711.689	8.826	-0.129	0.097
-710.675	-133.707	0.128	0.016
-709.660	192.770	0.030	-0.045
-708.645	-200.000	-0.016	-0.077
-707.631	140.823	-0.200	0.264
-706.616	-13.876	-0.091	-0.059
-705.602	-200.000	0.028	-0.234
-704.587	-34.304	-0.276	0.151
-703.572	184.017	0.185	-0.274
-702.558	-200.000	-0.011	-0.087
-701.543	-135.191	0.129	0.015
-700.529	207.145	0.092	-0.143
-699.514	-100.329	-0.191	-0.047
-698.499	-200.000	-0.016	0.193
-697.485	-112.333	-0.503	-0.101
-696.470	209.354	0.079	-0.124
-695.456	-106.997	-0.204	0.045
-694.441	30.245	-0.176	-0.150
-693.426	-97.609	0.064	0.016
-692.412	187.078	-0.093	-0.139
-691.397	-83.384	-0.434	-0.139
-690.383	-152.887	-0.197	-0.014
-689.368	-200.000	0.003	0.172
-688.354	800.000	0.084	-0.348
-687.339	-112.625	0.329	-0.065
-686.324	800.000	0.083	0.239
-685.310	-118.527	0.149	-0.026
-684.295	-81.256	0.092	0.030
-683.281	102.533	-0.165	-0.192
-682.266	-200.000	0.023	-0.335
-681.251	318.047	-0.185	0.350
-680.237	106.861	-0.161	-0.191
-679.222	-86.618	-0.180	-0.055
-678.208	-166.341	0.336	0.014
-677.193	-78.252	-0.134	0.046
-676.178	-200.000	-0.003	-0.180
-675.164	-200.000	-0.002	0.085
-674.149	-80.542	0.301	0.100
-673.135	314.297	-0.151	0.283
-672.120	-22.792	0.082	-0.050
-671.105	-79.009	-0.097	-0.033
-670.091	9.125	-0.036	0.027
-669.076	-111.810	0.209	-0.042
-668.062	42.194	0.272	0.247
-667.047	-170.842	-0.209	0.007
-666.032	89.961	0.122	-0.136
-665.018	4.094	-0.209	-0.153
-664.003	51.865	0.160	0.152
-662.989	10.634	0.062	0.047
-661.974	141.158	-0.152	0.201
-660.959	-200.000	0.055	0.308
-659.945	-200.000	0.043	0.259
-658.930	-36.855	-0.383	-0.205
-657.916	-80.010	0.366	-0.122
-656.901	43.304	0.090	-0.082
-655.886	-94.766	-0.142	0.038
-654.872	-200.000	0.020	0.278
-653.857	290.989	0.100	0.181
-652.843	32.006	0.188	0.162
-651.828	268.682	0.192	-0.336
-650.814	800.000	-0.036	-0.116
-649.799	-54.782	-0.248	0.112
-648.784	-111.803	0.138	0.028
-647.770	-65.823	0.359	-0.143
-646.755	-50.266	-0.171	-0.081
-645.741	800.000	0.047	0.153
-644.726	-200.000	0.067	-0.308
-643.711	-18.852	-0.085	-0.053
-642.697	-140.860	-0.120	-0.012
-641.682	35.246	-0.095	-0.083
-640.668	0.936	0.063	0.045
-639.653	-32.955	0.254	-0.140
-638.638	483.329	-0.043	0.098
-637.624	800.000	0.127	0.388
-636.609	51.277	0.186	-0.176
-635.595	-38.310	0.214	0.113
-634.580	-200.000	0.007	-0.128
-633.565	-200.000	0.003	0.014
-632.551	-28.889	-0.032	-0.018
-631.536	-173.510	0.360	-0.011
-630.522	209.941	0.102	-0.159
-629.507	-3.429	0.059	0.041
-628.492	173.168	0.277	-0.398
-627.478	-200.000	0.001	-0.010
-626.463	-198.848	0.294	-0.002
-625.449	63.988	0.147	0.147
-624.434	199.211	0.100	0.153
-623.419	-144.670	0.082	-0.008
-622.405	228.163	-0.112	-0.182
-621.390	266.478	0.093	-0.162
-620.376	428.847	0.023	-0.050
-619.361	180.955	-0.150	-0.220
-618.346	281.110	-0.097	-0.172
-617.332	-138.370	-0.235	0.026
-616.317	-28.572	-0.097	-0.055
-615.303	469.740	0.035	0.079
-614.288	800.000	-0.092	0.377
-613.273	-87.575	0.331	-0.099
-612.259	117.342	-0.104	0.127
-611.244	-200.000	-0.011	0.089
-610.230	-96.746	-0.150	-0.039
-609.215	-29.824	-0.427	-0.242
-608.201	-200.000	0.022	0.127
-607.186	-5.600	-0.082	-0.056
-606.171	800.000	0.039	0.114
-605.157	504.894	0.203	0.467
-604.142	800.000	-0.067	-0.275
-603.128	800.000	-0.022	-0.084
-602.113	-200.000	0.030	-0.400
-601.098	57.836	0.223	-0.217
-600.084	140.413	0.138	0.182
-599.069	-63.920	-0.244	0.099
-598.055	-85.237	-0.119	-0.037
-597.040	-200.000	-0.019	-0.143
-596.025	-63.748	-0.180	0.073
-595.011	82.368	-0.072	-0.078
-593.996	14.332	0.147	-0.114
-592.982	446.591	0.051	0.112
-591.967	-200.000	-0.018	0.193
-590.952	-96.735	0.128	0.033
-589.938	65.289	-0.295	0.296
-588.923	195.680	0.050	-0.075
-587.909	-98.711	0.369	-0.093
-586.894	-139.815	-0.208	-0.022
-585.879	-94.192	-0.109	-0.030
-584.865	-163.756	-0.134	0.006
-583.850	-136.205	0.176	0.020
-582.836	179.766	-0.013	-0.019
-581.821	-103.276	-0.178	-0.042
-580.806	348.069	-0.078	-0.154
-579.792	75.521	-0.058	0.060
-578.777	-81.294	-0.360	0.118
-577.763	-200.000	0.012	0.060
-576.748	-124.026	0.197	-0.031
-575.733	-200.000	-0.017	-0.299
-574.719	-129.745	0.290	0.040
-573.704	-200.000	-0.038	-0.244
-572.690	379.313	-0.061	-0.125
-571.675	104.191	0.122	-0.142
-570.661	-41.357	-0.379	-0.194
-569.646	222.274	0.086	0.138
-568.631	800.000	-0.029	-0.101
-567.617	506.352	-0.076	-0.175
-566.602	293.424	-0.065	0.118
-565.588	-86.664	-0.483	-0.147
-564.573	-200.000	0.017	-0.283
-563.558	339.197	-0.198	0.382
-562.544	36.487	0.195	0.171
-561.529	194.638	0.106	-0.160
-560.515	-64.786	0.248	0.100
-559.500	-200.000	-0.049	-0.249
-558.485	110.481	-0.165	0.197
-557.471	51.252	0.222	0.209
-556.456	228.504	0.068	-0.111
-555.442	-200.000	0.005	0.085
-554.427	86.494	0.176	-0.193
-553.412	-200.000	-0.006	-0.184
-552.398	275.424	0.062	-0.109
-551.383	-135.152	0.208	0.025
-550.369	182.665	0.168	-0.246
-549.354	400.716	-0.057	-0.119
-548.339	-200.000	-0.037	-0.337
-547.325	159.481	0.201	0.278
-546.310	195.912	-0.198	0.299
-545.296	284.632	-0.097	0.172
-544.281	-8.086	-0.246	0.165
-543.266	89.423	-0.177	0.196
-542.252	-3.086	0.251	0.174
-541.237	-200.000	0.013	0.105
-540.223	344.413	-0.108	-0.210
-539.208	-34.870	0.230	-0.124
-538.193	-17.993	0.136	0.085
-537.179	-22.900	-0.286	-0.171
-536.164	492.571	0.169	0.385
-535.150	-121.661	-0.171	0.028
-534.135	-28.707	-0.198	0.113
-533.121	423.132	-0.050	-0.106
-532.106	363.616	-0.130	0.259
-531.091	46.116	-0.250	-0.230
-530.077	-55.310	-0.322	-0.144
-529.062	-200.000	0.035	-0.353
-528.048	-119.593	-0.269	-0.046
-527.033	-55.005	0.106	0.047
-526.018	800.000	0.039	-0.150
-525.004	3.731	0.225	0.163
-523.989	-200.000	0.013	-0.164
-522.975	51.527	-0.093	-0.088
-521.960	584.092	0.066	0.160
-520.945	-72.607	0.170	0.062
-519.931	129.216	0.129	0.163
-518.916	48.931	-0.094	0.088
-517.902	362.517	0.102	0.202
-516.887	-54.848	-0.317	0.142
-515.872	-107.817	0.087	0.019
-514.858	-200.000	-0.021	-0.095
-513.843	-138.902	-0.184	-0.020
-512.829	104.768	-0.146	0.171
-511.814	800.000	-0.026	-0.082
-510.799	52.755	-0.113	-0.107
-509.785	800.000	-0.021	-0.079
-508.770	215.148	-0.118	-0.186
-507.756	-100.146	0.257	0.064
-506.741	581.377	0.100	-0.243
-505.726	-52.030	-0.288	0.133
-504.712	-13.885	0.277	-0.177
-503.697	-80.454	-0.083	0.027
-502.683	494.103	-0.157	0.358
-501.668	108.237	-0.200	0.236
-500.653	122.540	0.214	0.265
-499.639	-200.000	0.030	0.339
-498.624	-69.209	-0.204	-0.078
-497.610	132.090	0.183	-0.233
-496.595	-81.381	0.212	-0.069
-495.581	-200.000	-0.002	0.101
-494.566	46.674	-0.228	-0.210
-493.551	10.276	0.206	-0.155
-492.537	79.275	-0.044	0.046
-491.522	-54.670	0.238	0.107
-490.508	-200.000	0.005	0.315
-489.493	-68.326	0.257	0.099
-488.478	-200.000	-0.076	-0.338
-487.464	800.000	-0.078	-0.238
-486.449	213.526	-0.135	-0.211
-485.435	75.468	0.029	-0.031
-484.420	-200.000	0.028	-0.181
-483.405	-30.724	0.223	0.125
-482.391	-200.000	0.020	0.190
-481.376	13.274	-0.227	-0.174
-480.362	316.565	-0.090	-0.169
-479.347	-200.000	-0.008	-0.469
-478.332	800.000	-0.049	0.145
-477.318	8.685	0.025	0.019
-476.303	34.626	-0.070	-0.061
-475.289	-56.273	0.071	0.031
-474.274	-200.000	0.010	-0.233
-473.259	-23.354	-0.379	0.225
-472.245	-109.124	-0.199	0.042
-471.230	119.225	-0.069	0.085
-470.216	-95.650	-0.365	0.097
-469.201	370.085	0.180	-0.361
-468.186	-200.000	-0.013	-0.546
-467.172	193.150	-0.150	0.225
-466.157	-200.000	-0.013	0.266
-465.143	345.874	-0.179	-0.349
-464.128	-129.328	-0.194	0.027
-463.113	800.000	0.024	-0.070
-462.099	-200.000	-0.007	-0.311
-461.084	174.921	0.032	0.046
-460.070	-73.226	0.059	0.021
-459.055	64.329	-0.134	-0.134
-458.040	139.394	0.130	0.170
-457.026	317.349	-0.107	0.199
-456.011	697.015	-0.047	0.122
-454.997	-87.048	0.365	0.110
-453.982	-200.000	0.044	-0.252
-452.968	81.824	0.289	0.310
-451.953	539.547	-0.141	-0.332
-450.938	65.485	-0.098	-0.098
-449.924	-154.737	0.257	-0.017
-448.909	800.000	-0.062	0.221
-447.895	800.000	-0.066	-0.202
-446.880	90.823	0.029	0.032
-445.865	-153.536	0.278	0.019
-444.851	503.088	0.130	-0.296
-443.836	170.563	0.085	0.120
-442.822	189.176	0.078	-0.116
-441.807	-46.984	-0.280	0.135
-440.792	-200.000	0.066	-0.408
-439.778	-200.000	-0.051	-0.309
-438.763	156.409	-0.141	-0.193
-437.749	800.000	0.031	0.124
-436.734	96.279	-0.147	-0.167
-435.719	-200.000	0.007	0.197
-434.705	-104.309	0.036	0.008
-433.690	-95.586	0.245	-0.065
-432.676	613.949	0.056	-0.138
-431.661	-6.139	-0.272	-0.184
-430.646	-3.066	0.122	-0.084
-429.632	-7.196	0.050	-0.034
-428.617	123.789	-0.109	-0.135
-427.603	-128.550	0.088	-0.012
-426.588	-28.140	-0.257	-0.147
-425.573	354.694	-0.066	-0.130
-424.559	61.938	-0.119	-0.117
-423.544	-121.570	0.264	0.043
-422.530	264.366	0.064	0.110
-421.515	245.846	0.135	0.225
-420.500	-127.397	0.196	-0.028
-419.486	-200.000	-0.034	0.188
-418.471	-200.000	0.002	0.072
-417.457	-90.495	0.136	-0.039
-416.442	62.185	0.047	0.047
-415.428	-88.423	0.266	-0.079
-414.413	-84.097	0.316	-0.099
-413.398	800.000	-0.042	0.145
-412.384	128.585	-0.141	0.178
-411.369	41.639	-0.135	0.120
-410.355	-200.000	-0.027	0.128
-409.340	67.927	-0.044	-0.044
-408.325	-98.459	0.442	-0.112
-407.311	-200.000	-0.028	0.254
-406.296	800.000	-0.081	0.261
-405.282	711.795	0.043	-0.112
-404.267	-27.710	-0.045	0.026
-403.252	-86.793	0.109	-0.033
-402.238	-112.007	0.106	-0.021
-401.223	262.354	-0.249	0.427
-400.209	800.000	0.042	-0.115
-399.194	36.552	-0.275	0.240
-398.179	-200.000	0.021	-0.339
-397.165	-97.290	-0.281	-0.072
-396.150	-97.679	-0.137	-0.035
-395.136	-93.019	-0.048	0.013
-394.121	60.450	0.251	-0.246
-393.106	-50.264	0.247	-0.115
-392.092	-200.000	-0.075	0.330
-391.077	-200.000	-0.026	-0.224
-390.063	-49.010	0.074	0.035
-389.048	32.666	-0.109	0.093
-388.033	34.951	-0.213	-0.184
-387.019	120.778	0.216	0.265
-386.004	-80.022	-0.182	0.060
-384.990	-200.000	-0.018	-0.266
-383.975	-200.000	0.033	-0.171
-382.960	145.773	0.191	-0.253
-381.946	800.000	-0.080	0.230
-380.931	363.743	-0.093	0.184
-379.917	-200.000	-0.031	0.377
-378.902	29.218	0.181	-0.151
-377.888	-142.757	-0.242	-0.023
-376.873	-169.804	0.143	0.005
-375.858	331.403	0.065	-0.123
-374.844	-101.578	-0.244	0.058
-373.829	-47.546	0.420	-0.201
-372.815	-111.638	0.122	-0.024
-371.800	146.904	-0.195	-0.259
-370.785	-52.442	-0.078	-0.036
-369.771	800.000	0.049	-0.205
-368.756	-200.000	0.011	-0.218
-367.742	-200.000	0.002	0.100
-366.727	-132.706	-0.367	-0.046
-365.712	800.000	-0.098	0.411
-364.698	800.000	-0.020	0.061
-363.683	-33.078	0.227	-0.124
-362.669	-77.819	0.213	-0.072
-361.654	-16.576	0.305	0.190
-360.639	-69.125	-0.167	0.063
-359.625	267.687	0.198	-0.341
-358.610	-200.000	0.000	0.013
-357.596	-85.394	0.247	-0.076
-356.581	-1.871	0.057	0.039
-355.566	37.664	-0.151	-0.132
-354.552	-200.000	0.056	-0.285
-353.537	-200.000	0.032	0.166
-352.523	-101.722	0.230	-0.055
-351.508	-122.260	0.262	0.042
-350.493	-141.325	-0.344	-0.034
-349.479	-1.881	-0.067	0.046
-348.464	800.000	-0.078	-0.255
-347.450	305.033	-0.086	0.158
-346.435	11.079	0.088	-0.067
-345.420	-200.000	0.013	-0.071
-344.406	225.642	-0.070	0.112
-343.391	800.000	0.050	0.187
-342.377	-200.000	-0.008	-0.054
-341.362	121.170	0.208	0.255
-340.348	14.128	-0.204	-0.157
-339.333	-24.422	-0.307	-0.180
-338.318	224.037	-0.143	0.228
-337.304	144.567	-0.145	-0.190
-336.289	-137.952	-0.224	0.025
-335.275	-90.136	-0.328	-0.094
-334.260	158.503	0.123	0.168
-333.245	-49.058	0.071	0.033
-332.231	-82.114	-0.384	0.123
-331.216	-178.003	0.163	-0.004
-330.202	111.495	-0.308	0.365
-329.187	-44.838	-0.222	0.109
-328.172	777.895	0.054	0.144
-327.158	250.092	0.079	0.132
-326.143	116.240	0.171	0.206
-325.129	-105.164	-0.099	0.022
-324.114	2.311	0.070	0.050
-323.099	120.646	-0.086	-0.105
-322.085	-28.800	0.293	0.166
-321.070	-189.729	0.490	0.006
-320.056	736.173	0.106	-0.279
-319.041	-83.982	0.097	0.030
-318.026	259.566	0.119	-0.202
-317.012	-32.124	0.251	-0.138
-315.997	-31.613	-0.192	-0.106
-314.983	-80.086	-0.320	-0.106
-313.968	38.163	-0.194	0.170
-312.953	2.511	0.222	0.158
-311.939	326.811	0.065	-0.122
-310.924	800.000	0.099	0.304
-309.910	-50.343	-0.071	0.033
-308.895	-200.000	0.016	-0.244
-307.880	146.317	0.184	0.243
-306.866	-139.951	-0.326	0.034
-305.851	-83.756	-0.235	0.074
-304.837	-153.967	0.316	-0.021
-303.822	-200.000	-0.033	0.197
-302.807	330.564	-0.042	0.080
-301.793	-25.219	0.253	0.147
-300.778	800.000	-0.098	0.287
-299.764	-104.481	0.153	0.035
-298.749	382.945	-0.125	-0.253
-297.735	-200.000	-0.015	0.273
-296.720	39.069	0.169	-0.149
-295.705	-200.000	0.009	0.082
-294.691	15.108	-0.254	-0.195
-293.676	115.262	-0.068	0.082
-292.662	800.000	-0.097	0.409
-291.647	320.351	-0.038	0.070
-290.632	-60.676	-0.191	0.080
-289.618	-78.943	0.274	-0.092
-288.603	-200.000	0.014	-0.195
-287.589	-25.624	-0.134	0.078
-286.574	53.526	0.140	-0.132
-285.559	-113.359	0.198	0.038
-284.545	57.196	0.111	-0.107
-283.530	383.195	0.151	-0.305
-282.516	-67.588	0.073	0.028
-281.501	-50.730	0.248	0.115
-280.486	-200.000	0.010	0.182
-279.472	24.231	-0.394	-0.320
-278.457	-151.329	-0.397	0.029
-277.443	-200.000	-0.039	-0.262
-276.428	-200.000	0.021	0.183
-275.413	-200.000	-0.025	-0.267
-274.399	-200.000	-0.044	-0.294
-273.384	366.323	0.184	0.364
-272.370	-64.437	-0.171	-0.068
-271.355	-73.041	-0.526	0.190
-270.340	-28.757	0.133	0.075
-269.326	-160.069	0.145	0.008
-268.311	-200.000	-0.021	-0.136
-267.297	-49.365	-0.044	0.021
-266.282	-62.738	-0.227	-0.092
-265.267	380.498	0.109	0.219
-264.253	-147.957	-0.294	-0.024
-263.238	800.000	-0.069	-0.266
-262.224	800.000	-0.034	0.121
-261.209	-24.479	0.139	0.081
-260.195	-47.386	-0.074	-0.036
-259.180	-86.339	-0.134	-0.041
-258.165	-200.000	-0.021	0.365
-257.151	-200.000	0.086	0.423
-256.136	-129.933	0.135	-0.018
-255.122	731.584	-0.106	-0.279
-254.107	70.529	-0.120	0.122
-253.092	-102.066	0.238	-0.056
-252.078	359.741	-0.069	0.135
-251.063	-75.962	0.159	-0.055
-250.049	0.612	-0.206	0.144
-249.034	-200.000	0.001	-0.158
-248.019	521.915	-0.047	-0.108
-247.005	529.600	0.078	0.181
-245.990	-161.848	0.068	-0.003
-244.976	-200.000	0.075	-0.391
-243.961	-200.000	0.003	0.028
-242.946	151.620	0.114	0.152
-241.932	397.680	0.035	-0.071
-240.917	154.087	0.243	0.326
-239.903	-110.018	0.183	0.038
-238.888	39.989	0.054	-0.047
-237.873	-200.000	-0.029	0.127
-236.859	111.995	-0.256	0.303
-235.844	212.995	0.116	0.180
-234.830	-200.000	0.038	-0.193
-233.815	-200.000	0.011	0.060
-232.800	20.431	0.071	0.056
-231.786	-200.000	-0.051	-0.288
-230.771	-188.641	-0.121	-0.001
-229.757	24.560	-0.145	0.118
-228.742	185.929	0.038	0.056
-227.727	-156.090	-0.235	0.015
-226.713	591.926	0.126	0.305
-225.698	-40.794	0.270	-0.137
-224.684	29.822	-0.023	-0.019
-223.669	800.000	0.127	-0.421
-222.655	78.926	-0.124	0.130
-221.640	235.370	-0.084	0.137
-220.625	-157.260	-0.120	0.007
-219.611	-200.000	-0.023	0.103
-218.596	-200.000	0.005	0.168
-217.582	244.834	0.082	0.135
-216.567	83.835	0.265	0.283
-215.552	-57.272	-0.061	-0.026
-214.538	101.323	0.075	-0.086
-213.523	5.604	-0.235	-0.170
-212.509	65.988	-0.123	-0.122
-211.494	-58.034	0.084	0.036
-210.479	-200.000	-0.031	-0.190
-209.465	-65.784	-0.202	-0.079
-208.450	172.178	-0.093	0.131
-207.436	-200.000	-0.039	0.269
-206.421	800.000	-0.112	0.339
-205.406	-2.552	-0.122	0.084
-204.392	-46.418	-0.126	-0.060
-203.377	-200.000	-0.002	0.163
-202.363	-163.591	0.233	-0.011
-201.348	58.972	0.065	-0.062
-200.333	238.375	0.145	0.236
-199.319	800.000	0.063	-0.181
-198.304	-8.578	0.205	-0.135
-197.290	-11.092	0.241	-0.156
-196.275	695.365	0.034	-0.088
-195.260	420.366	-0.088	0.185
-194.246	-52.990	0.270	-0.121
-193.231	-130.496	0.069	-0.009
-192.217	-200.000	-0.005	0.401
-191.202	122.580	-0.232	0.284
-190.187	-200.000	-0.013	0.131
-189.173	-90.943	0.208	0.058
-188.158	21.714	-0.236	0.188
-187.144	-1.896	-0.277	-0.191
-186.129	-12.038	-0.108	0.069
-185.114	-134.071	-0.263	-0.032
-184.100	-177.880	0.081	-0.002
-183.085	-200.000	-0.013	-0.071
-182.071	-9.814	0.321	0.209
-181.056	-96.228	-0.207	-0.054
-180.042	56.951	0.077	0.073
-179.027	-179.067	0.201	-0.004
-178.012	-200.000	0.011	-0.167
-176.998	672.642	-0.090	0.228
-175.983	142.243	-0.124	-0.161
-174.969	34.460	-0.211	0.181
-173.954	-103.911	0.315	-0.072
-172.939	-143.339	0.517	-0.048
-171.925	-69.286	0.131	0.049
-170.910	568.380	-0.031	-0.074
-169.896	-135.219	0.207	0.024
-168.881	152.399	-0.068	-0.091
-167.866	32.987	-0.067	0.057
-166.852	800.000	0.024	-0.095
-165.837	-200.000	0.023	0.228
-164.823	-200.000	0.022	0.174
-163.808	-54.630	-0.162	0.071
-162.793	559.007	-0.141	0.332
-161.779	370.501	0.125	-0.248
-160.764	-200.000	0.005	0.194
-159.750	578.938	0.079	-0.188
-158.735	13.709	0.310	-0.235
-157.720	-124.974	0.239	0.036
-156.706	-59.290	-0.170	0.072
-155.691	2.388	-0.161	0.114
-154.677	14.483	-0.096	-0.073
-153.662	357.982	0.055	-0.108
-152.647	-200.000	-0.001	0.065
-151.633	108.426	-0.031	0.036
-150.618	-143.979	-0.271	0.025
-149.604	-85.604	-0.453	-0.138
-148.589	-200.000	0.014	0.100
-147.574	-89.981	0.416	0.119
-146.560	12.308	0.080	0.060
-145.545	-110.694	-0.511	-0.103
-144.531	-75.034	0.347	0.121
-143.516	66.206	-0.095	-0.095
-142.502	472.978	-0.097	-0.215
-141.487	44.743	0.227	-0.204
-140.472	-45.032	-0.283	-0.138
-139.458	-33.933	0.297	-0.160
-138.443	-77.955	0.108	0.036
-137.429	-200.000	0.013	-0.153
-136.414	-96.476	0.080	-0.021
-135.399	-134.105	-0.154	0.019
-134.385	-51.176	-0.135	0.062
-133.370	-200.000	-0.022	-0.135
-132.356	51.774	-0.184	0.171
-131.341	-95.366	0.164	-0.043
-130.326	-54.134	-0.266	0.118
-129.312	-78.436	-0.317	0.106
-128.297	-199.138	-0.107	-0.001
-127.283	-25.750	0.286	0.165
-126.268	-200.000	-0.036	-0.277
-125.253	-61.333	-0.211	0.087
-124.239	-51.347	-0.129	-0.059
-123.224	-200.000	-0.007	0.086
-122.210	-77.817	0.157	-0.053
-121.195	-76.166	-0.229	-0.079
