DTS Sentinel unit serial number:	SN413079Multiplexer serial number:	ORYXHardware model number:	OX4-SRSoftware version number:	ORYX F/W v4.00 Oryx Data Collector v3.7.2.0data status	okinstallation	princeton_trtdifferential loss correction	single-endedforward channel	channel 2reverse channel	N/Adate	2019/09/16time	03:19:34forward acquisition time	60.00reverse acquisition time	0.00gamma	496.2192k internal	0.2334k external	0.2334temperature offset calibration	0.9969default loss term (dB/km)	0.3790temperature slope calibration	1.0000multiplexer offset coefficient	1.0000multiplexer slope coefficient	1.0000fibre end	0.00T internal ref (°C)	27.73T ext. ref 1 (°C)	10.50T ext. ref 2 (°C)	21.88length (m)	temperature (°C)	Stokes	anti-Stokes-747.200	66.934	0.064	0.066
-746.185	800.000	-0.104	0.385
-745.171	-200.000	0.101	-0.494
-744.156	411.180	0.168	0.358
-743.142	17.994	0.182	0.146
-742.127	-97.448	-0.261	-0.068
-741.112	-200.000	-0.042	0.471
-740.098	103.526	-0.200	0.236
-739.083	-200.000	0.054	0.313
-738.069	800.000	-0.054	0.160
-737.054	31.384	-0.068	0.059
-736.039	11.298	0.297	0.228
-735.025	800.000	0.049	0.203
-734.010	-19.041	-0.211	0.132
-732.996	-68.450	0.106	-0.041
-731.981	-70.453	-0.112	0.042
-730.966	486.502	0.034	0.078
-729.952	800.000	-0.086	0.314
-728.937	-75.128	0.200	-0.072
-727.923	-13.506	-0.287	0.187
-726.908	-112.377	0.181	0.036
-725.894	727.585	0.063	-0.169
-724.879	8.351	0.095	-0.071
-723.864	-71.206	-0.125	0.047
-722.850	708.297	-0.099	0.264
-721.835	608.477	0.134	0.337
-720.821	-78.189	0.078	0.027
-719.806	800.000	-0.010	0.037
-718.791	800.000	-0.107	-0.324
-717.777	18.411	-0.256	0.205
-716.762	1.520	-0.139	0.101
-715.748	-87.700	0.148	0.045
-714.733	213.134	-0.029	-0.046
-713.718	-200.000	0.012	0.215
-712.704	-200.000	-0.004	0.181
-711.689	-200.000	0.004	-0.053
-710.675	-200.000	-0.039	-0.177
-709.660	110.483	0.284	-0.343
-708.645	145.728	-0.034	-0.045
-707.631	800.000	0.054	-0.167
-706.616	89.852	-0.105	0.118
-705.602	-50.929	-0.374	0.176
-704.587	51.443	-0.218	-0.208
-703.572	-151.245	0.165	-0.012
-702.558	-16.183	-0.104	0.067
-701.543	78.206	-0.149	-0.160
-700.529	783.352	0.023	-0.063
-699.514	92.113	-0.212	0.240
-698.499	-15.341	0.305	-0.196
-697.485	-133.762	0.258	-0.032
-696.470	800.000	0.078	0.318
-695.456	134.127	-0.203	0.264
-694.441	4.283	0.132	0.097
-693.426	-105.608	0.185	0.042
-692.412	-98.558	-0.077	0.020
-691.397	-86.283	-0.053	0.016
-690.383	9.912	-0.250	0.190
-689.368	-200.000	-0.007	0.114
-688.354	-84.880	0.190	0.060
-687.339	397.689	-0.037	0.077
-686.324	518.737	0.064	0.150
-685.310	-124.213	-0.121	-0.019
-684.295	13.363	0.243	-0.189
-683.281	-124.755	-0.257	-0.040
-682.266	34.995	0.153	0.134
-681.251	220.422	-0.111	-0.178
-680.237	-177.475	0.044	-0.001
-679.222	-14.699	0.046	0.029
-678.208	-200.000	0.009	0.059
-677.193	-200.000	0.048	-0.219
-676.178	-200.000	0.014	-0.275
-675.164	-113.404	0.261	-0.051
-674.149	-200.000	0.024	0.177
-673.135	456.045	0.127	-0.282
-672.120	-10.570	0.128	0.085
-671.105	486.878	-0.156	0.356
-670.091	-200.000	0.022	-0.186
-669.076	-87.835	-0.036	-0.011
-668.062	-64.017	-0.174	-0.071
-667.047	-200.000	-0.067	-0.479
-666.032	-111.907	0.180	-0.036
-665.018	85.448	-0.064	0.070
-664.003	800.000	-0.066	0.205
-662.989	-166.011	-0.244	0.010
-661.974	-121.444	-0.221	0.037
-660.959	-178.568	-0.222	-0.005
-659.945	-23.017	-0.210	0.127
-658.930	-200.000	0.040	0.199
-657.916	133.803	0.036	0.046
-656.901	-102.722	0.322	0.077
-655.886	800.000	-0.014	0.054
-654.872	800.000	0.063	0.185
-653.857	-122.843	-0.014	-0.002
-652.843	-119.998	0.364	0.063
-651.828	-200.000	-0.003	0.155
-650.814	105.723	-0.093	-0.110
-649.799	71.397	0.076	0.079
-648.784	800.000	-0.085	0.258
-647.770	12.467	0.081	0.063
-646.755	-73.169	-0.289	-0.106
-645.741	158.020	-0.086	-0.119
-644.726	-24.721	-0.165	0.098
-643.711	75.155	0.161	0.170
-642.697	-9.471	-0.185	-0.123
-641.682	338.920	-0.096	-0.186
-640.668	258.356	-0.165	-0.284
-639.653	-65.645	-0.148	0.060
-638.638	259.677	0.064	-0.111
-637.624	112.220	-0.024	-0.030
-636.609	117.011	-0.236	-0.290
-635.595	373.126	-0.064	0.131
-634.580	-200.000	0.003	-0.223
-633.565	727.760	-0.049	0.131
-632.551	-116.067	0.169	0.031
-631.536	-16.891	-0.129	0.082
-630.522	-41.850	-0.121	0.062
-629.507	11.776	0.158	0.121
-628.492	279.403	-0.162	-0.290
-627.478	-85.441	0.113	0.035
-626.463	-200.000	0.009	0.283
-625.449	-57.539	0.120	0.053
-624.434	-200.000	-0.034	0.227
-623.419	502.243	-0.063	0.147
-622.405	-165.874	0.234	-0.010
-621.390	120.614	-0.063	0.079
-620.376	-89.176	-0.293	-0.087
-619.361	800.000	-0.089	0.299
-618.346	200.276	0.244	0.376
-617.332	-200.000	-0.020	0.191
-616.317	-200.000	-0.061	0.288
-615.303	21.126	-0.194	0.157
-614.288	-139.615	0.350	0.037
-613.273	-91.406	0.291	0.083
-612.259	87.139	-0.139	0.154
-611.244	-200.000	0.045	-0.315
-610.230	800.000	0.077	-0.307
-609.215	-100.781	-0.242	-0.060
-608.201	-99.747	0.425	-0.107
-607.186	-152.185	0.144	-0.010
-606.171	-58.253	0.217	0.094
-605.157	-164.239	0.223	-0.010
-604.142	-14.282	-0.076	0.049
-603.128	80.627	-0.333	0.359
-602.113	-200.000	0.026	-0.287
-601.098	-120.292	0.012	0.002
-600.084	55.282	0.121	-0.117
-599.069	23.718	0.131	0.108
-598.055	-200.000	0.008	0.049
-597.040	800.000	-0.033	0.124
-596.025	224.830	0.206	-0.332
-595.011	120.515	0.209	-0.259
-593.996	19.765	-0.043	-0.035
-592.982	-200.000	0.063	-0.288
-591.967	800.000	0.071	0.260
-590.952	141.619	-0.085	-0.113
-589.938	-200.000	0.005	0.241
-588.923	-200.000	0.055	0.282
-587.909	-28.240	0.175	0.101
-586.894	-99.750	0.185	0.046
-585.879	-200.000	0.037	-0.167
-584.865	-200.000	0.046	-0.404
-583.850	-155.913	-0.115	0.007
-582.836	122.155	-0.170	0.212
-581.821	3.545	0.430	0.313
-580.806	693.586	-0.068	-0.177
-579.792	440.047	-0.171	-0.373
-578.777	-73.166	-0.236	0.087
-577.763	46.109	0.154	-0.143
-576.748	-26.568	0.084	0.049
-575.733	-118.265	-0.546	0.097
-574.719	-200.000	-0.015	-0.431
-573.704	-200.000	0.018	-0.290
-572.690	-41.636	-0.169	0.087
-571.675	101.493	0.110	-0.127
-570.661	800.000	-0.106	-0.455
-569.646	-200.000	-0.005	-0.165
-568.631	800.000	0.088	-0.263
-567.617	-178.645	-0.192	-0.004
-566.602	-200.000	-0.038	-0.194
-565.588	406.986	-0.050	0.106
-564.573	-89.983	0.111	0.032
-563.558	400.920	-0.014	0.030
-562.544	-21.973	0.319	0.193
-561.529	800.000	-0.105	-0.340
-560.515	343.755	0.107	-0.209
-559.500	-40.207	0.028	-0.015
-558.485	800.000	-0.048	-0.139
-557.471	-33.407	-0.160	-0.088
-556.456	457.809	0.078	-0.173
-555.442	-200.000	0.052	-0.255
-554.427	-200.000	-0.019	0.187
-553.412	13.716	-0.298	0.231
-552.398	-55.606	0.075	-0.033
-551.383	-163.469	0.142	0.007
-550.369	-22.161	-0.334	-0.202
-549.354	-200.000	0.010	0.056
-548.339	140.897	-0.029	0.038
-547.325	-103.610	-0.120	-0.028
-546.310	-113.208	0.147	-0.029
-545.296	23.806	-0.086	0.071
-544.281	-124.395	0.212	-0.033
-543.266	-51.408	0.096	-0.045
-542.252	126.274	-0.072	-0.091
-541.237	107.127	-0.091	0.107
-540.223	623.015	0.043	-0.109
-539.208	473.014	-0.060	-0.134
-538.193	-65.819	-0.396	0.158
-537.179	-100.922	-0.125	0.031
-536.164	-9.128	0.053	0.035
-535.150	-11.239	-0.191	0.126
-534.135	-60.870	0.145	-0.061
-533.121	-64.582	0.228	0.092
-532.106	-200.000	-0.017	-0.106
-531.091	-58.868	-0.293	-0.126
-530.077	217.982	0.093	-0.148
-529.062	-55.304	0.212	0.095
-528.048	44.779	0.184	0.168
-527.033	25.408	-0.064	0.053
-526.018	-200.000	0.037	0.191
-525.004	800.000	-0.052	-0.150
-523.989	46.172	0.209	-0.193
-522.975	-25.631	0.048	0.028
-521.960	27.502	0.197	-0.165
-520.945	-167.450	-0.365	0.015
-519.931	77.384	-0.249	0.264
-518.916	88.615	-0.111	-0.123
-517.902	5.252	0.599	-0.440
-516.887	-46.971	0.185	0.090
-515.872	18.906	0.190	0.152
-514.858	-60.561	0.158	-0.067
-513.843	86.629	-0.281	0.309
-512.829	-3.310	0.250	0.173
-511.814	106.130	-0.131	0.155
-510.799	311.201	-0.200	0.373
-509.785	800.000	-0.050	0.166
-508.770	800.000	-0.035	0.100
-507.756	-119.406	0.238	-0.041
-506.741	614.971	-0.058	0.144
-505.726	171.943	0.188	0.269
-504.712	-200.000	-0.012	-0.207
-503.697	-110.291	0.419	-0.087
-502.683	577.791	-0.079	0.193
-501.668	-122.561	-0.139	-0.022
-500.653	-154.202	0.153	0.010
-499.639	-113.884	0.136	-0.026
-498.624	-35.036	-0.139	0.076
-497.610	30.077	0.137	-0.116
-496.595	-23.501	-0.221	-0.132
-495.581	-34.531	-0.157	-0.086
-494.566	146.620	-0.204	0.273
-493.551	442.288	0.166	0.363
-492.537	-150.259	-0.193	0.015
-491.522	-34.461	0.216	-0.118
-490.508	-48.210	0.047	-0.023
-489.493	396.026	-0.032	-0.067
-488.478	-142.691	0.312	0.030
-487.464	106.902	-0.100	-0.118
-486.449	304.466	-0.145	0.268
-485.435	131.061	0.052	-0.066
-484.420	-200.000	0.035	0.197
-483.405	-148.161	-0.039	0.003
-482.391	76.957	-0.106	-0.112
-481.376	-200.000	-0.005	-0.120
-480.362	-44.891	0.128	0.064
-479.347	-200.000	-0.012	0.174
-478.332	-66.371	0.062	-0.025
-477.318	195.356	-0.049	-0.074
-476.303	-80.264	0.153	-0.051
-475.289	-8.672	-0.294	0.197
-474.274	-114.517	0.628	-0.120
-473.259	606.190	-0.111	-0.276
-472.245	800.000	-0.075	0.234
-471.230	800.000	-0.040	0.173
-470.216	-84.186	-0.427	-0.135
-469.201	203.068	0.097	-0.149
-468.186	-138.331	0.208	0.023
-467.172	244.851	-0.091	-0.153
-466.157	92.640	-0.262	-0.294
-465.143	-132.107	-0.109	-0.014
-464.128	-200.000	-0.042	-0.187
-463.113	-45.676	0.108	0.053
-462.099	-149.349	0.269	0.021
-461.084	378.286	-0.124	0.253
-460.070	-200.000	-0.009	-0.320
-459.055	225.879	0.072	-0.115
-458.040	-32.880	0.191	-0.105
-457.026	491.294	0.091	0.208
-456.011	21.195	0.292	0.235
-454.997	-200.000	0.048	-0.328
-453.982	-200.000	0.046	-0.300
-452.968	-97.337	0.165	-0.043
-451.953	-137.053	0.094	-0.011
-450.938	-24.211	0.338	0.200
-449.924	187.795	0.098	-0.145
-448.909	-123.782	-0.104	0.016
-447.895	800.000	0.069	-0.204
-446.880	-132.887	-0.288	0.036
-445.865	-134.159	-0.073	-0.009
-444.851	504.078	0.086	-0.198
-443.836	-200.000	-0.020	0.122
-442.822	105.412	0.183	0.215
-441.807	162.518	0.016	0.022
-440.792	-122.579	0.348	0.056
-439.778	-36.568	-0.199	-0.106
-438.763	239.632	-0.066	0.110
-437.749	79.132	0.272	0.289
-436.734	178.726	-0.100	0.145
-435.719	-118.286	0.149	-0.026
-434.705	-200.000	0.004	-0.055
-433.690	-44.760	-0.175	0.087
-432.676	-104.589	0.241	0.055
-431.661	358.948	-0.112	-0.223
-430.646	-72.181	0.163	0.060
-429.632	800.000	0.038	-0.109
-428.617	-46.559	-0.081	0.040
-427.603	187.056	-0.093	-0.138
-426.588	-64.863	0.419	0.168
-425.573	155.700	-0.238	-0.325
-424.559	28.728	0.209	-0.176
-423.544	243.566	0.162	0.269
-422.530	-116.340	-0.130	0.024
-421.515	-181.577	-0.487	0.009
-420.500	63.217	-0.183	-0.182
-419.486	-165.721	-0.198	0.008
-418.471	19.377	0.265	0.212
-417.457	-25.644	0.017	-0.010
-416.442	-71.763	-0.197	-0.073
-415.428	-11.863	0.065	-0.042
-414.413	-200.000	0.005	-0.193
-413.398	108.649	-0.261	0.309
-412.384	335.416	-0.187	-0.360
-411.369	-17.556	0.167	0.104
-410.355	-50.627	0.105	0.049
-409.340	-114.122	-0.230	-0.044
-408.325	-14.968	0.155	-0.099
-407.311	-44.615	-0.182	0.090
-406.296	-18.164	0.186	0.116
-405.282	-46.042	-0.287	-0.140
-404.267	-106.618	-0.186	-0.041
-403.252	-200.000	0.052	0.389
-402.238	3.044	0.133	-0.096
-401.223	135.082	0.144	0.186
-400.209	-71.691	0.231	0.085
-399.194	144.048	-0.140	0.185
-398.179	134.786	-0.259	0.333
-397.165	41.791	0.194	-0.174
-396.150	-147.041	0.191	0.016
-395.136	800.000	-0.122	0.444
-394.121	203.934	-0.311	0.478
-393.106	728.425	0.059	0.155
-392.092	-200.000	-0.011	-0.195
-391.077	-94.911	0.205	-0.055
-390.063	-40.226	0.203	0.105
-389.048	-96.061	-0.243	0.064
-388.033	130.253	0.078	0.099
-387.019	-41.511	0.146	-0.074
-386.004	800.000	0.010	0.039
-384.990	155.436	-0.116	0.158
-383.975	-200.000	-0.043	0.302
-382.960	-120.477	-0.189	-0.032
-381.946	800.000	-0.048	0.186
-380.931	-138.375	-0.250	-0.027
-379.917	79.658	-0.055	-0.058
-378.902	-177.718	0.169	0.004
-377.888	2.804	0.187	0.135
-376.873	-58.330	0.186	0.080
-375.858	29.820	-0.377	-0.318
-374.844	-200.000	-0.004	0.266
-373.829	800.000	0.183	-0.525
-372.815	460.381	-0.090	-0.200
-371.800	136.425	-0.142	0.184
-370.785	800.000	0.082	-0.311
-369.771	-200.000	-0.001	-0.237
-368.756	31.956	0.061	-0.052
-367.742	112.467	0.096	-0.115
-366.727	-54.979	0.295	0.132
-365.712	-200.000	-0.023	0.100
-364.698	254.834	0.076	-0.130
-363.683	800.000	-0.063	-0.204
-362.669	-9.465	0.163	0.107
-361.654	20.751	-0.042	-0.034
-360.639	248.699	-0.081	-0.135
-359.625	732.403	0.058	-0.154
-358.610	-200.000	0.041	0.291
-357.596	115.084	-0.009	0.010
-356.581	800.000	0.052	0.189
-355.566	-200.000	-0.026	-0.370
-354.552	524.852	-0.051	-0.118
-353.537	-200.000	0.022	-0.112
-352.523	119.033	0.146	-0.179
-351.508	67.465	-0.449	0.454
-350.493	-63.045	0.016	-0.006
-349.479	402.131	-0.102	0.213
-348.464	144.027	0.159	-0.210
-347.450	-159.592	-0.149	-0.008
-346.435	-200.000	0.039	-0.307
-345.420	41.693	0.174	-0.156
-344.406	-200.000	0.004	0.160
-343.391	737.629	0.062	-0.165
-342.377	-200.000	0.033	-0.168
-341.362	-156.577	-0.129	-0.008
-340.348	-42.368	0.529	-0.267
-339.333	-94.134	-0.238	-0.064
-338.318	-99.533	-0.191	-0.047
-337.304	159.945	-0.344	0.474
-336.289	-200.000	-0.006	-0.078
-335.275	-200.000	0.020	-0.208
-334.260	-30.695	0.013	0.007
-333.245	-58.268	-0.022	-0.010
-332.231	800.000	0.119	0.383
-331.216	24.174	0.281	0.230
-330.202	-90.246	-0.242	-0.070
-329.187	320.503	0.081	-0.152
-328.172	2.622	0.066	0.048
-327.158	800.000	-0.100	-0.301
-326.143	182.707	0.100	-0.146
-325.129	-185.885	0.175	-0.003
-324.114	655.526	-0.093	-0.237
-323.099	-112.670	-0.065	-0.013
-322.085	800.000	-0.021	0.064
-321.070	800.000	0.025	-0.071
-320.056	800.000	-0.028	0.103
-319.041	-67.436	0.089	0.035
-318.026	159.365	0.224	0.308
-317.012	-87.446	0.046	-0.014
-315.997	1.117	0.264	-0.187
-314.983	-161.410	-0.086	0.004
-313.968	78.551	-0.137	0.145
-312.953	153.110	-0.064	0.087
-311.939	-200.000	-0.001	-0.083
-310.924	128.611	-0.051	-0.064
-309.910	-152.090	-0.335	0.024
-308.895	92.240	0.087	-0.097
-307.880	-72.275	-0.153	0.056
-306.866	35.170	-0.112	-0.097
-305.851	-74.002	0.239	0.086
-304.837	-171.006	-0.178	-0.006
-303.822	481.066	-0.057	-0.127
-302.807	1.657	0.193	-0.137
-301.793	-11.998	0.195	0.126
-300.778	-108.972	-0.333	0.070
-299.764	105.952	0.084	0.098
-298.749	85.538	0.115	-0.124
-297.735	-111.968	0.091	-0.018
-296.720	92.005	0.135	-0.150
-295.705	44.206	0.100	-0.091
-294.691	-27.115	-0.123	0.071
-293.676	-95.741	-0.323	-0.085
-292.662	-200.000	-0.001	0.127
-291.647	-200.000	-0.033	-0.184
-290.632	155.763	-0.044	0.060
-289.618	235.885	-0.150	-0.245
-288.603	-30.230	0.126	0.071
-287.589	67.652	0.192	0.193
-286.574	695.535	0.104	-0.268
-285.559	-22.678	0.233	0.139
-284.545	-200.000	-0.054	-0.317
-283.530	172.669	-0.138	-0.196
-282.516	-37.555	0.132	-0.070
-281.501	-200.000	0.015	0.322
-280.486	209.027	0.254	0.392
-279.472	800.000	-0.073	0.202
-278.457	-200.000	-0.021	-0.161
-277.443	-200.000	0.032	-0.310
-276.428	13.150	0.348	-0.266
-275.413	-2.829	-0.168	0.116
-274.399	800.000	-0.046	0.171
-273.384	7.832	-0.043	0.032
-272.370	157.604	-0.096	0.131
-271.355	-85.675	-0.098	0.030
-270.340	157.405	-0.043	0.059
-269.326	88.564	0.284	-0.311
-268.311	-3.888	-0.073	0.050
-267.297	136.213	-0.130	-0.168
-266.282	44.256	-0.123	-0.111
-265.267	380.141	-0.092	0.186
-264.253	-93.680	-0.098	0.027
-263.238	732.049	-0.032	0.085
-262.224	227.255	-0.085	-0.136
-261.209	25.890	0.195	0.160
-260.195	1.213	-0.168	-0.119
-259.180	-200.000	0.064	0.292
-258.165	800.000	-0.070	0.222
-257.151	81.184	0.185	0.197
-256.136	-200.000	-0.062	-0.286
-255.122	800.000	0.034	0.128
-254.107	-25.353	0.010	0.006
-253.092	-100.922	0.171	0.041
-252.078	73.907	0.112	-0.116
-251.063	-3.831	0.267	0.183
-250.049	4.876	-0.025	-0.018
-249.034	-34.211	0.060	0.033
-248.019	3.607	0.075	0.054
-247.005	800.000	0.021	-0.068
-245.990	-126.160	-0.353	-0.052
-244.976	7.359	-0.098	-0.072
-243.961	-81.897	-0.201	-0.065
-242.946	31.024	-0.151	0.128
-241.932	229.004	0.226	0.364
-240.917	244.405	0.069	-0.114
-239.903	-200.000	-0.007	0.089
-238.888	-200.000	0.005	-0.496
-237.873	86.423	-0.223	0.242
-236.859	-112.397	-0.201	0.040
-235.844	800.000	-0.041	0.147
-234.830	-128.966	0.092	-0.013
-233.815	-21.452	-0.083	-0.050
-232.800	-10.515	0.193	-0.126
-231.786	75.774	0.222	-0.231
-230.771	-140.326	-0.049	-0.005
-229.757	-15.308	-0.092	0.058
-228.742	177.092	-0.124	-0.177
-227.727	800.000	0.136	0.420
-226.713	279.503	0.171	0.301
-225.698	110.051	-0.018	-0.021
-224.684	-200.000	-0.042	-0.308
-223.669	-48.990	-0.249	-0.118
-222.655	800.000	-0.059	-0.214
-221.640	-200.000	-0.035	0.453
-220.625	592.357	-0.091	0.222
-219.611	-200.000	0.034	0.254
-218.596	-132.075	0.186	0.024
-217.582	648.161	-0.049	0.124
-216.567	-34.955	0.228	0.123
-215.552	161.404	0.136	0.187
-214.538	-160.378	-0.117	-0.006
-213.523	732.020	-0.074	-0.194
-212.509	34.742	-0.123	-0.106
-211.494	265.471	-0.078	-0.134
-210.479	129.710	0.261	-0.329
-209.465	-136.572	0.124	0.014
-208.450	-130.416	-0.252	0.034
-207.436	42.734	0.100	0.090
-206.421	-200.000	0.001	0.028
-205.406	-131.044	-0.335	-0.044
-204.392	-92.993	-0.144	0.039
-203.377	260.210	-0.056	0.095
-202.363	-117.534	-0.186	0.033
-201.348	-93.842	0.361	0.098
-200.333	61.677	0.110	-0.108
-199.319	-125.917	-0.064	0.009
-198.304	800.000	0.028	0.118
-197.290	-200.000	-0.087	-0.491
-196.275	263.847	-0.108	0.185
-195.260	265.996	0.094	-0.161
-194.246	-200.000	0.045	-0.228
-193.231	-57.171	-0.140	-0.061
-192.217	-91.449	-0.339	-0.095
-191.202	1.218	-0.199	0.140
-190.187	-129.246	-0.212	0.029
-189.173	91.825	-0.052	-0.058
-188.158	-97.546	0.221	0.057
-187.144	617.410	-0.092	0.228
-186.129	-62.050	0.176	-0.072
-185.114	85.271	0.197	0.212
-184.100	7.882	0.198	0.146
-183.085	485.217	-0.190	-0.426
-182.071	-161.663	-0.163	0.008
-181.056	-200.000	-0.043	0.311
-180.042	-145.779	-0.072	0.006
-179.027	129.485	-0.314	0.395
-178.012	409.017	-0.071	0.148
-176.998	589.238	0.134	-0.326
-175.983	-200.000	-0.030	0.231
-174.969	-33.292	-0.326	0.178
-173.954	123.381	0.062	-0.077
-172.939	-46.551	-0.208	-0.100
-171.925	40.970	0.204	-0.181
-170.910	757.551	-0.070	-0.185
-169.896	-200.000	-0.018	0.194
-168.881	-200.000	-0.001	0.041
-167.866	-65.035	-0.346	0.137
-166.852	462.303	0.067	-0.147
-165.837	318.202	0.122	-0.228
-164.823	228.724	0.096	0.154
-163.808	115.165	0.207	0.248
-162.793	136.064	0.101	0.129
-161.779	-53.482	-0.367	-0.165
-160.764	-76.110	-0.110	-0.038
-159.750	-84.792	0.068	-0.021
-158.735	7.516	-0.193	0.142
-157.720	-199.905	0.533	-0.003
-156.706	767.744	-0.090	-0.240
-155.691	-146.343	-0.221	0.019
-154.677	-200.000	-0.004	-0.087
-153.662	91.933	0.083	0.092
-152.647	595.000	0.028	0.068
-151.633	-86.625	-0.151	0.046
-150.618	-86.343	-0.269	-0.081
-149.604	110.718	0.105	-0.124
-148.589	-27.092	-0.133	-0.076
-147.574	-15.802	-0.096	-0.060
-146.560	40.676	-0.128	0.113
-145.545	-67.632	0.059	-0.023
-144.531	103.381	0.185	-0.213
-143.516	800.000	-0.034	-0.144
-142.502	43.720	-0.145	-0.131
-141.487	-200.000	0.013	0.242
-140.472	-168.528	0.042	0.002
-139.458	19.335	-0.151	-0.119
-138.443	-200.000	-0.030	-0.178
-137.429	-36.166	0.199	-0.106
-136.414	-106.390	0.112	-0.025
-135.399	226.318	-0.031	0.049
-134.385	341.024	0.119	-0.228
-133.370	158.381	-0.196	-0.267
-132.356	180.414	-0.063	0.090
-131.341	140.678	0.176	0.229
-130.326	-143.701	-0.181	-0.017
-129.312	-67.598	-0.125	0.048
-128.297	800.000	-0.065	-0.199
-127.283	-43.708	-0.116	0.057
-126.268	-49.338	-0.195	0.091
-125.253	-200.000	-0.001	0.280
-124.239	-94.558	-0.256	0.068
-123.224	-127.376	0.171	0.024
-122.210	223.750	0.118	-0.187
-121.195	1.269	0.253	0.179
