DTS Sentinel unit serial number:	SN413079Multiplexer serial number:	ORYXHardware model number:	OX4-SRSoftware version number:	ORYX F/W v4.00 Oryx Data Collector v3.7.2.0data status	okinstallation	princeton_trtdifferential loss correction	single-endedforward channel	channel 2reverse channel	N/Adate	2019/09/15time	10:23:35forward acquisition time	60.00reverse acquisition time	0.00gamma	496.2192k internal	0.2316k external	0.2316temperature offset calibration	1.0019default loss term (dB/km)	0.3790temperature slope calibration	1.0000multiplexer offset coefficient	1.0000multiplexer slope coefficient	1.0000fibre end	0.00T internal ref (°C)	34.25T ext. ref 1 (°C)	5.03T ext. ref 2 (°C)	29.41length (m)	temperature (°C)	Stokes	anti-Stokes-747.200	26.031	0.147	0.125
-746.185	78.401	-0.168	0.182
-745.171	22.044	-0.114	0.094
-744.156	-132.110	0.385	-0.051
-743.142	451.581	0.019	0.042
-742.127	800.000	-0.086	0.284
-741.112	-29.635	0.152	0.088
-740.098	528.924	-0.109	0.261
-739.083	2.436	0.212	0.155
-738.069	-130.573	-0.370	0.051
-737.054	6.277	0.175	0.131
-736.039	5.892	-0.445	0.334
-735.025	155.342	-0.117	-0.163
-734.010	-136.865	-0.369	0.043
-732.996	-67.921	-0.240	-0.095
-731.981	100.911	0.201	-0.237
-730.966	-41.230	-0.147	0.077
-729.952	-200.000	-0.015	0.128
-728.937	257.899	-0.013	-0.023
-727.923	-81.819	-0.167	0.055
-726.908	-104.260	-0.207	-0.049
-725.894	-48.342	0.392	0.191
-724.879	31.812	0.167	-0.146
-723.864	67.101	-0.147	-0.152
-722.850	-38.283	-0.237	0.127
-721.835	383.460	-0.023	0.048
-720.821	14.118	0.177	0.140
-719.806	106.054	0.273	-0.327
-718.791	800.000	0.040	-0.142
-717.777	-102.392	-0.248	0.060
-716.762	-81.157	0.139	0.046
-715.748	628.893	-0.074	0.190
-714.733	-120.052	-0.405	-0.070
-713.718	-99.156	0.188	0.048
-712.704	78.335	-0.056	0.061
-711.689	174.732	-0.088	0.129
-710.675	-93.382	0.297	0.083
-709.660	35.070	0.239	-0.212
-708.645	-192.744	0.312	-0.003
-707.631	28.903	0.277	0.238
-706.616	66.724	-0.129	0.133
-705.602	-145.959	-0.414	-0.037
-704.587	-200.000	-0.035	-0.350
-703.572	-200.000	0.050	-0.314
-702.558	176.055	0.081	0.120
-701.543	-200.000	0.021	0.219
-700.529	-67.339	0.225	0.089
-699.514	800.000	-0.040	0.140
-698.499	147.411	-0.087	0.119
-697.485	800.000	-0.081	-0.268
-696.470	48.412	0.114	-0.108
-695.456	-114.225	-0.196	0.038
-694.441	-140.049	0.335	-0.036
-693.426	-108.019	0.147	0.032
-692.412	-152.326	0.219	0.016
-691.397	261.151	-0.052	0.090
-690.383	233.083	-0.164	0.273
-689.368	-73.198	-0.302	0.112
-688.354	-30.129	0.296	0.170
-687.339	48.937	0.225	0.214
-686.324	-43.267	0.390	0.200
-685.310	-106.192	0.176	-0.040
-684.295	264.309	0.054	0.095
-683.281	-200.000	-0.012	-0.063
-682.266	-21.017	-0.298	-0.185
-681.251	800.000	0.050	0.143
-680.237	150.633	0.229	-0.315
-679.222	-177.242	-0.396	0.010
-678.208	-128.048	0.402	-0.058
-677.193	-138.849	-0.489	0.054
-676.178	800.000	-0.038	0.141
-675.164	-13.031	0.072	-0.047
-674.149	-61.792	-0.372	0.158
-673.135	-31.583	0.176	0.100
-672.120	-104.534	-0.265	0.062
-671.105	-154.557	0.114	0.008
-670.091	106.826	-0.173	0.208
-669.076	-27.290	-0.127	0.075
-668.062	-60.387	-0.271	-0.116
-667.047	74.576	-0.070	0.074
-666.032	95.040	0.119	-0.137
-665.018	199.200	-0.121	0.188
-664.003	-47.886	-0.247	-0.121
-662.989	800.000	0.026	-0.095
-661.974	49.846	0.157	-0.150
-660.959	-200.000	-0.009	-0.301
-659.945	85.340	0.144	0.159
-658.930	44.253	0.290	-0.269
-657.916	70.317	0.251	-0.262
-656.901	-147.645	-0.185	-0.016
-655.886	-186.573	-0.140	-0.002
-654.872	-36.376	-0.188	-0.102
-653.857	-145.767	-0.551	-0.050
-652.843	120.889	-0.022	0.027
-651.828	3.500	-0.268	0.197
-650.814	-200.000	-0.051	0.264
-649.799	-182.204	-0.200	0.004
-648.784	-200.000	0.002	-0.408
-647.770	13.282	0.150	-0.118
-646.755	-149.790	0.140	0.011
-645.741	-147.318	-0.105	0.009
-644.726	-31.147	0.460	0.262
-643.711	-148.184	-0.243	0.020
-642.697	422.937	0.055	0.119
-641.682	800.000	-0.040	0.122
-640.668	-200.000	0.016	-0.204
-639.653	-200.000	0.012	-0.373
-638.638	288.178	0.073	-0.133
-637.624	-200.000	0.008	-0.149
-636.609	-200.000	0.009	-0.125
-635.595	242.345	-0.072	-0.122
-634.580	800.000	-0.073	-0.298
-633.565	800.000	0.089	-0.288
-632.551	177.356	-0.184	0.270
-631.536	-147.101	0.106	-0.009
-630.522	-107.132	0.271	-0.060
-629.507	66.269	-0.205	-0.210
-628.492	-200.000	-0.009	0.452
-627.478	800.000	0.076	0.252
-626.463	64.210	-0.084	-0.085
-625.449	231.308	-0.009	-0.014
-624.434	10.159	-0.133	-0.102
-623.419	-200.000	-0.014	0.445
-622.405	800.000	0.064	0.213
-621.390	528.422	-0.164	-0.389
-620.376	93.170	0.296	0.337
-619.361	79.233	-0.112	-0.121
-618.346	-134.113	0.031	0.004
-617.332	-69.133	-0.293	0.114
-616.317	-5.815	0.084	-0.058
-615.303	-10.499	0.050	-0.033
-614.288	-108.015	0.016	0.004
-613.273	-159.513	-0.017	0.001
-612.259	101.619	-0.100	-0.117
-611.244	-27.172	-0.261	-0.154
-610.230	16.027	-0.169	0.134
-609.215	145.869	0.162	0.219
-608.201	-200.000	0.018	-0.130
-607.186	-82.195	-0.083	-0.027
-606.171	-200.000	0.001	-0.218
-605.157	209.582	0.121	0.190
-604.142	-106.351	-0.038	-0.009
-603.128	-135.298	-0.184	0.022
-602.113	800.000	0.043	0.188
-601.098	-200.000	-0.081	0.430
-600.084	-190.018	0.197	0.002
-599.069	-77.913	-0.325	-0.113
-598.055	-125.481	0.407	0.062
-597.040	-200.000	-0.003	-0.064
-596.025	22.444	-0.103	-0.085
-595.011	-125.686	-0.168	0.026
-593.996	800.000	-0.025	0.101
-592.982	67.779	0.293	0.301
-591.967	-29.790	-0.131	-0.075
-590.952	-200.000	0.022	-0.107
-589.938	33.149	-0.187	0.163
-588.923	59.956	0.162	0.161
-587.909	-28.788	0.281	0.163
-586.894	127.481	-0.044	0.056
-585.879	-200.000	0.038	0.246
-584.865	72.262	-0.023	-0.025
-583.850	-53.363	0.387	0.179
-582.836	-113.884	0.073	0.014
-581.821	800.000	-0.065	-0.211
-580.806	-37.614	0.099	-0.053
-579.792	-110.511	-0.206	0.043
-578.777	-106.005	-0.239	0.054
-577.763	-78.999	-0.140	-0.048
-576.748	154.144	0.252	0.348
-575.733	180.893	0.081	-0.119
-574.719	435.080	0.168	-0.367
-573.704	-184.546	-0.210	-0.003
-572.690	202.716	-0.144	0.224
-571.675	109.887	-0.218	0.263
-570.661	50.379	-0.174	-0.166
-569.646	-31.085	-0.139	-0.079
-568.631	-109.335	-0.251	0.053
-567.617	-14.519	0.290	-0.188
-566.602	-3.158	-0.095	-0.066
-565.588	-31.223	-0.186	-0.105
-564.573	-200.000	0.023	0.138
-563.558	228.590	-0.118	-0.193
-562.544	-200.000	-0.019	0.132
-561.529	13.133	-0.248	0.194
-560.515	-113.266	-0.072	-0.014
-559.500	-166.167	0.181	-0.008
-558.485	158.823	-0.132	0.185
-557.471	168.880	0.198	0.284
-556.456	-30.022	0.279	0.160
-555.442	724.286	-0.139	-0.371
-554.427	22.745	0.170	-0.140
-553.412	537.715	-0.057	0.137
-552.398	57.019	-0.303	0.297
-551.383	166.414	-0.165	-0.235
-550.369	348.733	-0.138	-0.274
-549.354	-98.075	0.432	0.112
-548.339	102.827	-0.094	-0.110
-547.325	106.151	-0.039	0.047
-546.310	-200.000	0.012	-0.204
-545.296	-200.000	0.001	-0.030
-544.281	-97.076	-0.183	-0.048
-543.266	-80.038	-0.311	-0.105
-542.252	800.000	0.050	0.156
-541.237	-91.473	0.069	0.020
-540.223	-200.000	0.088	-0.486
-539.208	-101.311	-0.187	0.046
-538.193	800.000	-0.071	-0.227
-537.179	-80.262	0.199	0.067
-536.164	800.000	0.090	-0.385
-535.150	378.767	0.096	0.198
-534.135	-24.415	-0.425	-0.255
-533.121	190.397	0.075	-0.113
-532.106	-86.547	0.326	0.100
-531.091	-7.535	-0.295	-0.200
-530.077	-173.704	-0.181	0.005
-529.062	-143.151	-0.297	0.029
-528.048	-134.828	-0.126	-0.015
-527.033	-46.727	0.305	-0.150
-526.018	30.582	0.189	-0.163
-525.004	343.981	0.069	0.135
-523.989	-104.358	-0.176	0.041
-522.975	800.000	-0.012	-0.046
-521.960	663.089	0.099	0.257
-520.945	73.899	0.126	0.133
-519.931	152.168	0.179	-0.245
-518.916	-17.064	0.179	0.114
-517.902	185.979	-0.102	0.152
-516.887	133.649	-0.107	-0.139
-515.872	-148.723	0.355	-0.029
-514.858	80.059	0.114	0.124
-513.843	161.243	0.064	-0.089
-512.829	29.928	0.341	-0.292
-511.814	800.000	-0.052	-0.156
-510.799	-66.335	-0.324	0.129
-509.785	-122.786	0.168	-0.027
-508.770	-200.000	0.000	-0.318
-507.756	531.635	-0.128	-0.304
-506.741	451.126	-0.077	-0.170
-505.726	386.805	0.117	0.243
-504.712	233.325	-0.204	0.338
-503.697	-200.000	0.061	0.342
-502.683	-28.383	0.331	-0.192
-501.668	-200.000	-0.005	-0.200
-500.653	-87.208	0.130	0.040
-499.639	560.731	-0.032	0.077
-498.624	34.617	-0.270	0.237
-497.610	-200.000	-0.005	0.073
-496.595	160.273	0.188	0.263
-495.581	-174.103	-0.028	-0.001
-494.566	800.000	-0.147	-0.449
-493.551	119.245	0.140	-0.173
-492.537	-200.000	0.038	-0.178
-491.522	-22.074	-0.264	-0.161
-490.508	-168.283	-0.184	0.007
-489.493	186.514	-0.016	0.024
-488.478	-108.873	-0.156	-0.034
-487.464	-200.000	-0.010	-0.240
-486.449	214.615	-0.137	-0.218
-485.435	800.000	0.057	0.181
-484.420	-158.309	0.158	-0.009
-483.405	178.103	-0.148	-0.217
-482.391	-87.151	-0.228	0.069
-481.376	-65.372	0.374	-0.151
-480.362	-19.206	-0.122	0.076
-479.347	351.040	0.289	0.573
-478.332	-45.183	-0.326	0.163
-477.318	-163.179	0.245	-0.012
-476.303	-56.103	0.115	0.051
-475.289	387.956	-0.138	0.287
-474.274	800.000	0.021	0.066
-473.259	800.000	-0.013	-0.041
-472.245	-56.145	0.057	-0.026
-471.230	466.735	-0.058	-0.130
-470.216	295.611	-0.208	-0.382
-469.201	800.000	-0.013	-0.042
-468.186	-200.000	-0.033	-0.255
-467.172	-5.724	-0.170	-0.117
-466.157	800.000	0.109	-0.347
-465.143	800.000	-0.062	0.194
-464.128	-200.000	-0.015	-0.311
-463.113	-2.647	-0.136	0.095
-462.099	-131.378	0.303	-0.040
-461.084	-58.458	0.047	0.021
-460.070	-58.103	-0.258	0.113
-459.055	65.523	0.149	-0.151
-458.040	-200.000	0.015	-0.083
-457.026	-200.000	-0.027	0.314
-456.011	-8.103	0.064	0.043
-454.997	326.964	0.128	-0.245
-453.982	46.341	0.103	0.096
-452.968	-200.000	-0.021	-0.107
-451.953	671.051	0.088	-0.228
-450.938	-35.535	0.327	-0.178
-449.924	-131.469	0.155	0.020
-448.909	611.235	-0.075	-0.188
-447.895	-200.000	-0.053	0.366
-446.880	94.819	-0.181	0.206
-445.865	105.293	-0.097	0.115
-444.851	-200.000	-0.013	0.177
-443.836	31.071	0.306	-0.263
-442.822	363.601	0.084	-0.168
-441.807	-200.000	0.002	-0.170
-440.792	409.782	0.154	0.327
-439.778	-120.125	-0.298	0.051
-438.763	72.487	0.214	-0.224
-437.749	216.988	0.144	0.230
-436.734	-4.412	-0.099	-0.068
-435.719	378.744	-0.216	-0.442
-434.705	-58.770	0.245	-0.106
-433.690	795.304	0.073	-0.202
-432.676	-128.084	-0.026	0.004
-431.661	-118.808	-0.302	0.053
-430.646	-132.749	0.199	0.025
-429.632	42.343	-0.160	-0.146
-428.617	800.000	-0.054	-0.149
-427.603	-48.491	-0.192	0.092
-426.588	800.000	-0.024	0.088
-425.573	255.479	0.013	-0.022
-424.559	-200.000	0.021	0.213
-423.544	73.474	-0.017	-0.018
-422.530	-200.000	0.010	0.272
-421.515	578.719	-0.082	-0.202
-420.500	159.040	0.138	0.192
-419.486	-15.730	0.169	-0.108
-418.471	-6.860	-0.163	0.111
-417.457	-72.364	0.144	-0.053
-416.442	321.919	0.092	0.176
-415.428	-200.000	-0.092	0.463
-414.413	125.028	0.125	-0.158
-413.398	-32.010	-0.132	-0.074
-412.384	180.170	-0.152	-0.222
-411.369	-200.000	0.048	-0.324
-410.355	-200.000	0.014	-0.170
-409.340	-200.000	-0.001	-0.375
-408.325	-115.192	0.376	-0.071
-407.311	299.544	-0.115	-0.213
-406.296	73.837	-0.156	-0.163
-405.282	-104.027	0.093	0.022
-404.267	-0.210	0.173	-0.123
-403.252	738.231	-0.152	-0.408
-402.238	-200.000	0.023	0.175
-401.223	238.695	0.080	0.132
-400.209	119.639	-0.089	0.110
-399.194	223.926	-0.138	-0.222
-398.179	-7.451	-0.233	-0.157
-397.165	-87.872	0.372	0.112
-396.150	-200.000	0.027	0.419
-395.136	-68.420	0.275	-0.107
-394.121	800.000	0.033	0.104
-393.106	85.474	-0.173	-0.189
-392.092	-200.000	-0.018	-0.228
-391.077	800.000	0.096	0.386
-390.063	7.770	-0.057	-0.042
-389.048	800.000	0.048	-0.173
-388.033	-57.005	-0.071	0.031
-387.019	-15.995	0.226	-0.144
-386.004	145.116	0.056	0.074
-384.990	800.000	0.027	-0.096
-383.975	-72.841	0.236	-0.087
-382.960	-106.557	0.149	0.033
-381.946	800.000	0.068	0.268
-380.931	800.000	0.024	0.083
-379.917	36.072	-0.052	-0.046
-378.902	72.504	0.070	0.073
-377.888	-200.000	0.001	0.200
-376.873	-108.877	0.059	-0.013
-375.858	-200.000	-0.031	-0.395
-374.844	-200.000	-0.001	-0.063
-373.829	800.000	-0.039	0.140
-372.815	1.110	0.340	0.243
-371.800	-131.019	-0.525	-0.070
-370.785	-3.392	0.187	0.130
-369.771	-8.730	0.159	-0.107
-368.756	-164.527	-0.258	0.012
-367.742	272.313	0.074	0.130
-366.727	800.000	0.014	-0.048
-365.712	-7.775	0.242	0.163
-364.698	-145.430	-0.282	-0.025
-363.683	-200.000	0.006	-0.126
-362.669	-49.102	-0.107	-0.051
-361.654	-200.000	-0.019	-0.323
-360.639	-200.000	0.043	0.241
-359.625	-26.998	-0.037	-0.022
-358.610	159.822	0.139	0.194
-357.596	800.000	-0.082	-0.268
-356.581	-200.000	0.051	-0.344
-355.566	-200.000	0.026	-0.129
-354.552	74.759	-0.019	0.020
-353.537	-102.047	-0.469	0.113
-352.523	112.757	0.091	0.110
-351.508	-200.000	-0.014	-0.069
-350.493	23.115	-0.168	-0.138
-349.479	-200.000	0.027	0.121
-348.464	-94.983	-0.289	0.078
-347.450	-113.715	0.112	0.022
-346.435	62.275	0.116	-0.116
-345.420	36.418	0.129	-0.114
-344.406	476.494	-0.071	-0.159
-343.391	-58.312	0.340	0.148
-342.377	-127.204	-0.158	0.023
-341.362	-27.619	0.253	-0.146
-340.348	-11.792	0.183	0.120
-339.333	-200.000	0.016	-0.353
-338.318	389.868	-0.029	0.059
-337.304	-200.000	0.002	-0.050
-336.289	-86.694	-0.071	0.022
-335.275	-10.530	-0.134	-0.088
-334.260	800.000	-0.058	0.225
-333.245	274.630	0.065	-0.115
-332.231	95.448	0.105	0.119
-331.216	800.000	-0.056	-0.175
-330.202	-200.000	-0.009	0.210
-329.187	-165.237	-0.110	0.005
-328.172	-133.408	-0.373	-0.047
-327.158	800.000	-0.071	0.292
-326.143	-111.202	0.108	0.022
-325.129	-60.854	0.116	0.049
-324.114	-200.000	-0.018	0.335
-323.099	-58.661	0.326	-0.141
-322.085	800.000	0.093	-0.260
-321.070	66.771	0.170	-0.172
-320.056	183.338	0.087	0.129
-319.041	800.000	-0.048	-0.178
-318.026	172.880	-0.225	0.323
-317.012	-200.000	-0.021	0.305
-315.997	-200.000	-0.032	0.166
-314.983	-124.334	-0.166	-0.026
-313.968	337.461	-0.192	-0.372
-312.953	13.073	0.017	-0.013
-311.939	-200.000	-0.356	-0.002
-310.924	574.767	0.059	0.144
-309.910	160.205	0.142	0.198
-308.895	40.373	-0.162	-0.146
-307.880	800.000	-0.081	0.263
-306.866	69.307	-0.040	0.041
-305.851	-43.288	0.145	-0.073
-304.837	75.158	0.120	-0.126
-303.822	-140.839	0.161	-0.016
-302.807	-200.000	-0.005	0.138
-301.793	-45.446	-0.017	-0.008
-300.778	-67.400	-0.354	0.138
-299.764	-130.922	-0.224	0.030
-298.749	446.563	0.063	0.139
-297.735	-82.225	0.266	-0.086
-296.720	57.859	-0.220	0.215
-295.705	-200.000	0.022	0.285
-294.691	-62.134	-0.038	0.016
-293.676	800.000	0.102	0.424
-292.662	27.406	0.113	0.095
-291.647	-119.166	-0.148	-0.026
-290.632	-200.000	0.076	0.336
-289.618	220.103	-0.169	-0.269
-288.603	114.570	-0.137	-0.166
-287.589	400.639	0.086	0.179
-286.574	-13.882	-0.211	0.136
-285.559	-200.000	-0.014	0.098
-284.545	580.246	-0.157	-0.383
-283.530	32.125	-0.175	-0.150
-282.516	42.795	0.066	0.060
-281.501	800.000	-0.057	-0.224
-280.486	92.009	0.190	0.213
-279.472	800.000	-0.038	-0.125
-278.457	-200.000	-0.037	-0.250
-277.443	-163.674	-0.326	-0.015
-276.428	423.983	-0.220	-0.472
-275.413	-149.572	-0.325	-0.026
-274.399	5.537	-0.131	-0.096
-273.384	68.432	-0.314	0.320
-272.370	-28.236	0.117	0.067
-271.355	-148.142	-0.261	-0.022
-270.340	3.649	-0.285	0.207
-269.326	220.180	0.114	0.182
-268.311	413.535	-0.069	0.146
-267.297	313.074	0.110	0.205
-266.282	800.000	-0.006	-0.020
-265.267	-15.688	-0.172	0.109
-264.253	800.000	0.061	-0.233
-263.238	-200.000	-0.002	-0.112
-262.224	-200.000	-0.052	0.251
-261.209	226.170	-0.139	0.223
-260.195	-200.000	-0.002	0.240
-259.180	19.087	-0.121	-0.097
-258.165	-121.600	0.137	-0.023
-257.151	800.000	-0.038	-0.162
-256.136	420.488	0.025	0.054
-255.122	-12.319	0.165	0.107
-254.107	376.928	-0.138	0.280
-253.092	-111.522	-0.051	-0.010
-252.078	36.207	-0.124	-0.109
-251.063	-200.000	0.032	-0.230
-250.049	800.000	0.022	0.064
-249.034	-8.349	-0.162	0.108
-248.019	-128.554	0.077	-0.011
-247.005	-182.289	0.153	-0.003
-245.990	81.654	-0.222	0.239
-244.976	-22.259	-0.177	0.107
-243.961	-60.221	-0.162	-0.069
-242.946	-138.945	0.220	0.024
-241.932	528.348	-0.185	0.433
-240.917	159.211	-0.049	0.068
-239.903	-19.764	-0.458	-0.281
-238.888	800.000	-0.034	0.112
-237.873	-3.332	0.259	0.179
-236.859	-112.164	0.242	0.048
-235.844	-97.628	0.415	0.107
-234.830	-1.914	-0.297	0.207
-233.815	710.601	-0.129	-0.340
-232.800	-112.207	0.059	-0.012
-231.786	84.387	0.131	0.143
-230.771	195.395	-0.122	-0.184
-229.757	800.000	0.044	0.124
-228.742	-47.107	0.287	0.139
-227.727	-200.000	0.032	-0.445
-226.713	-200.000	-0.011	0.071
-225.698	-115.933	0.060	-0.011
-224.684	800.000	0.094	0.348
-223.669	800.000	-0.020	0.063
-222.655	-145.119	-0.307	-0.028
-221.640	69.288	-0.068	0.069
-220.625	-20.374	0.263	0.160
-219.611	65.517	-0.114	0.115
-218.596	-20.955	0.329	0.200
-217.582	-127.891	-0.191	0.027
-216.567	11.849	-0.160	-0.122
-215.552	-100.560	0.120	0.029
-214.538	-40.656	0.201	0.104
-213.523	-26.656	0.085	0.049
-212.509	-197.681	-0.319	-0.002
-211.494	800.000	0.131	-0.491
-210.479	800.000	-0.018	0.056
-209.465	72.180	0.323	0.334
-208.450	101.774	0.172	0.199
-207.436	-117.728	-0.320	-0.057
-206.421	-200.000	0.002	0.133
-205.406	673.912	-0.065	0.167
-204.392	236.187	0.054	0.089
-203.377	-53.185	-0.146	0.067
-202.363	-146.710	-0.128	-0.011
-201.348	567.800	0.046	0.112
-200.333	740.367	-0.108	-0.287
-199.319	-71.239	0.128	-0.048
-198.304	300.207	-0.190	-0.347
-197.290	-181.953	-0.146	0.003
-196.275	174.024	0.160	-0.229
-195.260	137.377	-0.063	-0.081
-194.246	-200.000	0.039	0.183
-193.231	99.173	0.243	-0.279
-192.217	-121.071	0.249	0.041
-191.202	-67.055	-0.084	0.033
-190.187	-141.916	0.228	0.023
-189.173	-118.477	0.041	-0.007
-188.158	-200.000	-0.048	-0.254
-187.144	-160.077	0.282	-0.015
-186.129	65.616	0.246	0.247
-185.114	-60.283	0.233	0.099
-184.100	-22.792	-0.196	-0.117
-183.085	-110.667	0.319	0.065
-182.071	229.646	0.084	0.136
-181.056	5.358	-0.054	-0.039
-180.042	-48.733	0.302	0.144
-179.027	208.021	-0.254	0.394
-178.012	800.000	0.041	0.177
-176.998	-105.095	0.381	-0.086
-175.983	642.267	0.120	0.304
-174.969	-130.709	0.381	-0.051
-173.954	129.287	0.153	0.194
-172.939	-200.000	-0.003	0.137
-171.925	-7.141	0.417	-0.280
-170.910	61.188	0.081	-0.079
-169.896	-29.771	-0.101	0.057
-168.881	-200.000	-0.027	0.178
-167.866	-200.000	0.030	-0.224
-166.852	114.437	0.311	0.376
-165.837	-76.387	-0.291	-0.102
-164.823	-200.000	-0.024	-0.293
-163.808	800.000	-0.019	0.070
-162.793	-200.000	-0.041	0.303
-161.779	800.000	0.051	-0.196
-160.764	-93.033	0.290	0.080
-159.750	800.000	-0.059	-0.184
-158.735	581.248	0.125	-0.302
-157.720	-42.705	0.271	-0.137
-156.706	12.064	-0.276	0.210
-155.691	800.000	-0.055	0.208
-154.677	-157.420	-0.063	0.004
-153.662	-200.000	-0.001	-0.113
-152.647	40.352	-0.145	-0.129
-151.633	-68.962	0.218	-0.083
-150.618	292.479	-0.180	0.325
-149.604	-200.000	-0.005	0.168
-148.589	290.823	0.012	0.022
-147.574	-200.000	0.038	-0.292
-146.560	800.000	0.090	0.274
-145.545	-20.198	0.170	0.104
-144.531	-85.322	0.199	0.062
-143.516	-200.000	-0.030	-0.193
-142.502	-200.000	-0.014	0.063
-141.487	-137.705	0.040	0.004
-140.472	-97.490	-0.135	0.035
-139.458	-200.000	0.011	0.126
-138.443	139.045	-0.142	0.185
-137.429	-200.000	-0.034	0.283
-136.414	-78.572	0.188	-0.064
-135.399	-100.744	0.324	-0.079
-134.385	-43.631	-0.123	0.061
-133.370	124.263	-0.135	-0.168
-132.356	66.714	0.188	-0.190
-131.341	75.822	0.037	0.039
-130.326	7.551	0.229	0.169
-129.312	-17.152	-0.200	0.125
-128.297	-7.194	0.184	-0.123
-127.283	-32.494	-0.187	0.103
-126.268	49.455	0.031	0.029
-125.253	21.027	0.172	-0.138
-124.239	-200.000	0.012	0.184
-123.224	293.351	0.095	0.171
-122.210	-11.979	0.244	-0.158
-121.195	-8.643	-0.217	-0.144
