DTS Sentinel unit serial number:	SN413079Multiplexer serial number:	ORYXHardware model number:	OX4-SRSoftware version number:	ORYX F/W v4.00 Oryx Data Collector v3.7.2.0data status	okinstallation	princeton_trtdifferential loss correction	single-endedforward channel	channel 2reverse channel	N/Adate	2019/09/14time	14:03:34forward acquisition time	60.00reverse acquisition time	0.00gamma	496.2192k internal	0.2304k external	0.2304temperature offset calibration	1.0143default loss term (dB/km)	0.3790temperature slope calibration	1.0000multiplexer offset coefficient	1.0000multiplexer slope coefficient	1.0000fibre end	0.00T internal ref (°C)	38.11T ext. ref 1 (°C)	4.97T ext. ref 2 (°C)	36.91length (m)	temperature (°C)	Stokes	anti-Stokes-747.200	296.507	0.088	0.165
-746.185	207.463	0.119	0.190
-745.171	-182.856	-0.223	0.004
-744.156	-131.309	-0.337	0.045
-743.142	-75.188	-0.327	0.119
-742.127	-109.504	-0.190	0.041
-741.112	800.000	0.084	0.271
-740.098	58.662	0.150	0.150
-739.083	21.399	-0.029	-0.024
-738.069	412.549	-0.021	0.046
-737.054	254.886	0.130	0.226
-736.039	-72.166	-0.136	-0.051
-735.025	-61.907	0.022	-0.009
-734.010	305.508	-0.130	-0.246
-732.996	7.145	0.116	-0.088
-731.981	26.011	0.195	0.165
-730.966	242.432	-0.118	-0.200
-729.952	42.085	0.175	-0.162
-728.937	-163.323	-0.255	0.012
-727.923	800.000	-0.063	-0.190
-726.908	-99.785	-0.194	0.049
-725.894	-159.867	-0.155	0.009
-724.879	-200.000	-0.035	-0.334
-723.864	49.825	-0.248	0.238
-722.850	560.332	0.053	-0.131
-721.835	800.000	0.014	-0.044
-720.821	724.500	-0.098	0.266
-719.806	-200.000	-0.435	-0.002
-718.791	-127.988	-0.092	-0.013
-717.777	242.672	-0.100	0.171
-716.762	-19.008	-0.152	-0.096
-715.748	-50.947	0.215	0.103
-714.733	172.717	-0.181	0.265
-713.718	-52.031	-0.226	0.107
-712.704	-200.000	-0.037	-0.284
-711.689	489.625	0.102	0.238
-710.675	-104.157	0.167	-0.040
-709.660	800.000	0.029	0.084
-708.645	-56.278	-0.212	-0.096
-707.631	-27.180	-0.107	0.063
-706.616	-200.000	0.006	0.074
-705.602	24.792	0.155	0.130
-704.587	-79.967	0.246	-0.084
-703.572	-200.000	0.032	-0.385
-702.558	-5.046	-0.117	0.082
-701.543	-23.518	-0.168	-0.102
-700.529	-200.000	-0.004	-0.138
-699.514	-59.814	0.309	-0.135
-698.499	28.008	-0.323	-0.277
-697.485	382.317	-0.121	-0.252
-696.470	-200.000	0.015	-0.298
-695.456	-151.673	0.286	0.021
-694.441	-56.153	-0.025	0.011
-693.426	485.329	0.175	0.405
-692.412	-38.546	0.150	-0.080
-691.397	-105.181	-0.095	0.022
-690.383	0.589	-0.249	0.181
-689.368	-133.709	-0.226	-0.029
-688.354	97.194	0.332	-0.387
-687.339	800.000	-0.110	0.443
-686.324	800.000	-0.009	-0.030
-685.310	332.540	0.072	-0.141
-684.295	42.688	-0.219	-0.202
-683.281	75.346	-0.070	0.075
-682.266	-110.311	-0.080	-0.017
-681.251	352.853	-0.074	0.148
-680.237	-156.592	-0.326	-0.021
-679.222	134.377	-0.121	-0.159
-678.208	583.191	-0.099	-0.246
-677.193	800.000	0.050	-0.154
-676.178	295.638	0.166	-0.309
-675.164	800.000	0.114	0.420
-674.149	-200.000	0.035	-0.524
-673.135	9.431	0.218	0.168
-672.120	-49.323	0.176	0.085
-671.105	68.204	0.123	0.128
-670.091	0.198	0.105	0.076
-669.076	695.031	0.062	0.166
-668.062	-60.036	-0.104	-0.045
-667.047	45.917	-0.237	0.223
-666.032	-87.876	0.163	-0.050
-665.018	-200.000	-0.027	0.163
-664.003	800.000	0.025	0.092
-662.989	-200.000	0.013	0.201
-661.974	36.683	-0.283	-0.254
-660.959	103.119	-0.319	0.380
-659.945	800.000	0.050	-0.188
-658.930	-129.579	-0.212	-0.030
-657.916	-51.867	0.231	0.109
-656.901	1.338	0.263	-0.191
-655.886	274.089	-0.192	-0.344
-654.872	30.236	0.100	-0.086
-653.857	-56.682	-0.206	-0.092
-652.843	20.073	0.029	0.024
-651.828	-10.842	-0.270	-0.181
-650.814	112.808	-0.224	0.275
-649.799	800.000	-0.064	-0.215
-648.784	-174.631	0.275	-0.008
-647.770	172.100	-0.142	0.207
-646.755	6.150	0.294	-0.221
-645.741	-125.761	0.130	-0.020
-644.726	138.639	0.132	0.176
-643.711	-80.704	-0.433	-0.146
-642.697	-200.000	0.021	0.186
-641.682	800.000	0.064	0.240
-640.668	-71.397	0.146	-0.055
-639.653	171.156	0.063	0.092
-638.638	209.342	-0.143	0.227
-637.624	-120.775	0.093	-0.016
-636.609	-116.466	0.198	0.037
-635.595	800.000	-0.051	-0.191
-634.580	-200.000	0.021	0.314
-633.565	238.208	-0.130	0.219
-632.551	800.000	0.092	0.270
-631.536	-200.000	-0.031	-0.188
-630.522	145.968	0.299	-0.406
-629.507	441.021	0.118	0.262
-628.492	141.071	0.037	0.050
-627.478	-200.000	0.022	-0.127
-626.463	-54.616	-0.223	-0.102
-625.449	101.622	0.315	0.373
-624.434	-90.902	0.085	0.025
-623.419	-1.318	-0.174	0.125
-622.405	-26.467	-0.175	-0.104
-621.390	280.779	-0.219	-0.397
-620.376	-200.000	0.038	0.321
-619.361	50.106	0.194	-0.186
-618.346	29.074	-0.122	-0.105
-617.332	30.731	-0.089	-0.077
-616.317	11.836	0.345	-0.269
-615.303	249.488	0.080	0.138
-614.288	27.620	-0.142	-0.121
-613.273	800.000	0.087	-0.307
-612.259	-44.117	-0.227	0.115
-611.244	-105.350	-0.366	0.084
-610.230	42.923	0.461	-0.426
-609.215	-200.000	0.010	-0.378
-608.201	800.000	0.019	-0.066
-607.186	-17.783	0.153	-0.098
-606.171	193.062	-0.243	-0.373
-605.157	495.199	-0.124	-0.287
-604.142	24.634	-0.192	-0.161
-603.128	241.447	-0.142	0.240
-602.113	-108.042	-0.141	0.031
-601.098	278.322	0.031	0.056
-600.084	-18.524	0.270	-0.171
-599.069	800.000	-0.094	0.272
-598.055	-35.950	0.107	-0.059
-597.040	-80.252	0.251	-0.085
-596.025	335.253	0.057	0.112
-595.011	-77.899	-0.165	0.058
-593.996	85.013	0.270	-0.300
-592.982	-96.129	-0.283	-0.076
-591.967	-43.256	-0.070	-0.036
-590.952	-200.000	0.009	-0.239
-589.938	-111.126	-0.306	0.064
-588.923	-92.038	-0.350	0.100
-587.909	-34.244	0.078	0.043
-586.894	800.000	-0.090	0.266
-585.879	-12.173	-0.331	0.219
-584.865	95.107	-0.083	0.096
-583.850	146.136	0.106	0.144
-582.836	-200.000	-0.065	-0.344
-581.821	-99.099	-0.308	-0.079
-580.806	786.239	-0.090	-0.251
-579.792	-50.738	0.151	-0.072
-578.777	-164.483	-0.234	-0.011
-577.763	321.329	0.202	-0.388
-576.748	800.000	-0.168	-0.474
-575.733	-49.308	-0.177	0.086
-574.719	-200.000	-0.050	-0.383
-573.704	-2.808	-0.198	-0.140
-572.690	-75.080	0.263	0.095
-571.675	3.287	0.120	0.089
-570.661	375.779	0.090	-0.185
-569.646	-89.486	-0.226	-0.067
-568.631	-63.084	-0.180	-0.075
-567.617	-21.929	0.206	-0.127
-566.602	-67.038	0.110	-0.044
-565.588	800.000	-0.040	-0.115
-564.573	393.560	0.057	-0.119
-563.558	110.388	-0.177	0.215
-562.544	-200.000	0.050	-0.301
-561.529	143.905	-0.263	-0.355
-560.515	660.021	0.095	0.247
-559.500	75.596	-0.125	0.133
-558.485	-200.000	-0.011	0.182
-557.471	128.387	0.122	-0.158
-556.456	205.098	-0.108	-0.169
-555.442	339.040	0.161	-0.317
-554.427	450.381	-0.084	-0.186
-553.412	-15.744	-0.302	-0.194
-552.398	146.004	0.199	-0.270
-551.383	427.648	0.096	-0.210
-550.369	-200.000	0.009	0.109
-549.354	-37.011	0.169	-0.092
-548.339	100.387	0.266	-0.312
-547.325	-200.000	0.044	-0.385
-546.310	-28.750	0.065	0.038
-545.296	-200.000	-0.059	-0.277
-544.281	-8.566	0.186	0.126
-543.266	-42.749	-0.341	0.175
-542.252	38.229	-0.048	0.043
-541.237	-200.000	0.049	0.295
-540.223	-27.704	0.095	0.056
-539.208	-13.359	-0.153	0.101
-538.193	136.399	-0.164	-0.216
-537.179	-121.710	-0.115	0.019
-536.164	237.535	0.021	-0.036
-535.150	-51.195	-0.129	0.061
-534.135	-200.000	-0.005	0.071
-533.121	-73.002	-0.185	0.069
-532.106	152.081	-0.065	-0.090
-531.091	800.000	-0.030	0.086
-530.077	167.090	0.062	0.089
-529.062	-7.479	0.209	-0.143
-528.048	138.334	0.199	0.263
-527.033	3.740	0.345	0.254
-526.018	48.169	0.245	-0.231
-525.004	121.751	0.316	0.398
-523.989	-186.107	-0.186	-0.003
-522.975	-200.000	0.144	-0.001
-521.960	-5.034	-0.361	-0.251
-520.945	114.100	-0.211	-0.260
-519.931	239.342	-0.165	-0.278
-518.916	228.972	0.084	-0.138
-517.902	173.741	-0.092	-0.134
-516.887	250.761	-0.130	0.222
-515.872	800.000	0.029	-0.112
-514.858	-131.639	0.361	-0.048
-513.843	128.913	-0.227	-0.292
-512.829	-146.450	-0.308	-0.027
-511.814	-200.000	0.027	0.295
-510.799	-33.585	0.099	-0.055
-509.785	470.620	-0.047	-0.106
-508.770	-66.735	0.060	-0.024
-507.756	607.730	0.109	0.275
-506.741	197.666	-0.093	-0.144
-505.726	78.426	0.060	0.064
-504.712	-36.396	0.111	0.061
-503.697	138.401	-0.133	-0.176
-502.683	-59.633	-0.267	0.116
-501.668	-114.606	0.148	-0.029
-500.653	1.779	0.096	0.070
-499.639	244.428	-0.220	0.373
-498.624	-200.000	-0.017	0.135
-497.610	-171.251	0.427	-0.014
-496.595	-200.000	0.039	-0.214
-495.581	-200.000	0.012	0.262
-494.566	36.711	0.178	0.159
-493.551	-72.304	-0.157	0.059
-492.537	712.153	-0.142	-0.379
-491.522	-139.898	-0.300	-0.032
-490.508	58.343	-0.082	0.081
-489.493	-200.000	0.017	0.168
-488.478	-54.331	-0.137	-0.063
-487.464	424.170	0.067	-0.145
-486.449	676.254	0.067	-0.174
-485.435	701.517	0.038	0.102
-484.420	-120.381	0.342	-0.059
-483.405	-20.504	-0.331	0.205
-482.391	-84.603	-0.073	-0.023
-481.376	113.375	-0.044	-0.054
-480.362	168.368	0.161	0.231
-479.347	594.060	0.194	0.483
-478.332	358.029	0.057	0.115
-477.318	-200.000	-0.076	0.415
-476.303	800.000	0.093	-0.342
-475.289	800.000	0.053	-0.179
-474.274	800.000	0.090	-0.282
-473.259	800.000	-0.063	-0.250
-472.245	92.025	-0.089	-0.101
-471.230	-200.000	0.014	0.229
-470.216	-122.217	-0.243	0.040
-469.201	-44.430	-0.316	0.160
-468.186	-200.000	-0.043	-0.354
-467.172	-200.000	0.008	-0.307
-466.157	-200.000	-0.017	-0.107
-465.143	285.099	-0.101	-0.183
-464.128	49.776	0.129	-0.122
-463.113	281.073	-0.111	0.199
-462.099	193.934	0.125	0.190
-461.084	322.202	-0.092	-0.176
-460.070	-200.000	0.020	-0.114
-459.055	-129.230	0.213	0.030
-458.040	200.270	0.071	-0.110
-457.026	59.508	0.198	-0.196
-456.011	-110.827	-0.196	0.041
-454.997	-200.000	0.067	-0.370
-453.982	-90.539	-0.351	0.102
-452.968	-135.308	-0.380	0.046
-451.953	-58.577	0.486	0.212
-450.938	800.000	0.044	0.190
-449.924	-200.000	-0.018	-0.175
-448.909	34.825	0.104	0.092
-447.895	237.571	-0.286	0.477
-446.880	-97.249	0.132	-0.035
-445.865	-200.000	-0.035	0.375
-444.851	94.463	-0.131	0.150
-443.836	-200.000	0.009	0.162
-442.822	412.512	-0.137	0.293
-441.807	13.476	-0.192	-0.150
-440.792	-200.000	-0.058	0.264
-439.778	-57.957	-0.176	-0.077
-438.763	496.184	0.185	0.428
-437.749	-39.124	0.119	-0.063
-436.734	-150.160	-0.212	-0.017
-435.719	-84.857	-0.097	-0.031
-434.705	-69.412	0.353	0.136
-433.690	800.000	0.022	-0.075
-432.676	-118.016	0.254	-0.046
-431.661	210.584	0.087	-0.137
-430.646	470.610	0.026	-0.059
-429.632	-68.563	0.285	-0.111
-428.617	-200.000	0.023	0.143
-427.603	-200.000	0.009	0.152
-426.588	-69.842	0.309	0.118
-425.573	-70.269	0.136	-0.052
-424.559	-200.000	-0.017	0.181
-423.544	-68.424	-0.141	0.055
-422.530	-137.560	0.515	0.058
-421.515	-97.452	0.244	-0.064
-420.500	664.434	0.076	-0.196
-419.486	432.306	0.120	-0.261
-418.471	-109.763	-0.214	-0.045
-417.457	-91.068	-0.227	0.066
-416.442	-200.000	-0.029	0.155
-415.428	-200.000	-0.016	-0.326
-414.413	-77.728	-0.523	-0.182
-413.398	-2.527	-0.029	-0.020
-412.384	800.000	0.057	0.172
-411.369	-88.963	0.347	-0.103
-410.355	-148.606	-0.251	0.021
-409.340	-200.000	0.072	0.348
-408.325	-200.000	-0.039	0.193
-407.311	15.180	-0.217	-0.171
-406.296	272.699	-0.126	0.224
-405.282	-152.736	0.179	0.013
-404.267	16.568	-0.141	-0.112
-403.252	-18.391	-0.143	-0.090
-402.238	73.474	0.058	-0.061
-401.223	-72.986	0.174	-0.064
-400.209	-20.892	0.281	0.173
-399.194	42.842	0.353	0.323
-398.179	-30.393	0.381	0.217
-397.165	-200.000	-0.004	0.125
-396.150	14.162	0.115	0.090
-395.136	-141.505	-0.259	0.026
-394.121	699.166	-0.046	0.123
-393.106	-146.173	0.330	0.029
-392.092	45.221	0.164	-0.152
-391.077	202.874	0.110	0.170
-390.063	105.355	0.053	-0.063
-389.048	-102.294	0.240	0.058
-388.033	539.160	-0.048	-0.115
-387.019	800.000	-0.054	-0.193
-386.004	121.082	-0.148	0.185
-384.990	350.761	-0.081	-0.162
-383.975	-200.000	-0.006	-0.167
-382.960	800.000	0.014	-0.056
-381.946	41.434	0.220	-0.200
-380.931	44.676	-0.209	0.193
-379.917	-200.000	-0.016	-0.198
-378.902	145.959	0.061	-0.082
-377.888	-108.868	0.156	-0.033
-376.873	-142.084	0.393	-0.039
-375.858	-200.000	-0.019	0.220
-374.844	800.000	0.095	0.342
-373.829	32.948	-0.079	0.068
-372.815	168.016	0.138	-0.198
-371.800	238.087	0.030	-0.049
-370.785	174.608	-0.118	0.172
-369.771	-35.285	0.177	0.097
-368.756	-100.543	-0.455	-0.113
-367.742	-45.228	0.103	-0.051
-366.727	87.094	0.187	0.207
-365.712	453.969	-0.048	0.107
-364.698	-175.404	-0.170	0.005
-363.683	-97.885	0.023	0.006
-362.669	187.470	-0.189	0.283
-361.654	-114.043	0.344	-0.067
-360.639	135.594	0.238	-0.311
-359.625	-200.000	0.019	-0.148
-358.610	66.281	-0.322	0.329
-357.596	-200.000	-0.007	-0.045
-356.581	-200.000	0.011	-0.431
-355.566	-131.242	-0.035	-0.005
-354.552	386.412	-0.185	0.382
-353.537	240.180	-0.150	0.250
-352.523	55.737	0.095	0.092
-351.508	-127.625	0.464	-0.067
-350.493	32.558	0.137	0.119
-349.479	259.701	0.098	-0.170
-348.464	-1.320	-0.376	0.266
-347.450	28.787	0.178	0.151
-346.435	88.927	0.251	-0.280
-345.420	186.422	-0.185	-0.276
-344.406	-150.367	0.337	-0.026
-343.391	225.063	-0.214	-0.348
-342.377	-200.000	-0.000	0.053
-341.362	-200.000	-0.019	0.251
-340.348	89.504	0.128	0.143
-339.333	800.000	-0.031	0.094
-338.318	203.545	-0.044	-0.069
-337.304	204.839	-0.262	-0.407
-336.289	105.889	-0.110	0.130
-335.275	-137.203	0.268	0.031
-334.260	410.447	-0.242	0.513
-333.245	194.628	-0.220	0.335
-332.231	800.000	-0.068	0.241
-331.216	211.884	-0.158	-0.249
-330.202	26.357	-0.218	-0.183
-329.187	-72.557	0.329	-0.122
-328.172	90.510	-0.104	-0.116
-327.158	-169.731	0.518	0.019
-326.143	-27.925	-0.174	-0.101
-325.129	-200.000	-0.011	0.155
-324.114	-200.000	0.005	-0.110
-323.099	241.687	0.135	0.226
-322.085	416.796	-0.028	-0.061
-321.070	72.236	0.155	0.162
-320.056	-112.921	-0.306	0.061
-319.041	-115.923	-0.159	-0.030
-318.026	140.315	0.072	-0.095
-317.012	81.390	-0.186	-0.202
-315.997	-93.068	0.314	0.088
-314.983	-8.831	0.192	0.129
-313.968	800.000	-0.100	-0.320
-312.953	10.408	-0.327	-0.249
-311.939	-141.416	0.182	0.018
-310.924	-200.000	-0.006	-0.071
-309.910	391.647	-0.018	-0.037
-308.895	191.021	0.041	0.061
-307.880	363.543	-0.077	0.155
-306.866	448.513	-0.178	0.393
-305.851	169.211	0.176	0.252
-304.837	225.504	-0.160	0.260
-303.822	-86.781	0.144	-0.044
-302.807	-173.619	-0.270	-0.008
-301.793	103.619	0.345	0.405
-300.778	48.913	-0.265	0.249
-299.764	-95.203	-0.056	-0.015
-298.749	-200.000	0.003	0.209
-297.735	-200.000	0.016	0.198
-296.720	-77.331	-0.077	0.027
-295.705	-200.000	0.046	-0.254
-294.691	228.075	-0.085	-0.138
-293.676	30.312	0.322	0.275
-292.662	-50.158	0.121	-0.057
-291.647	-20.697	0.145	0.089
-290.632	-72.919	-0.229	0.084
-289.618	364.140	0.070	-0.140
-288.603	49.884	-0.137	0.129
-287.589	151.057	0.144	-0.197
-286.574	-30.428	0.425	0.241
-285.559	-145.628	0.389	0.035
-284.545	800.000	0.081	0.322
-283.530	-200.000	0.029	-0.198
-282.516	-5.719	-0.085	-0.058
-281.501	40.871	-0.285	0.257
-280.486	5.900	0.154	-0.114
-279.472	-27.255	-0.136	-0.079
-278.457	-104.985	-0.228	0.052
-277.443	-127.252	-0.136	0.020
-276.428	49.847	-0.141	0.133
-275.413	-126.245	0.126	0.019
-274.399	800.000	-0.056	-0.244
-273.384	-0.439	-0.211	0.150
-272.370	38.803	-0.346	0.309
-271.355	515.534	-0.090	-0.209
-270.340	-200.000	0.007	0.373
-269.326	509.130	-0.057	-0.132
-268.311	256.113	-0.167	-0.287
-267.297	-200.000	0.107	0.522
-266.282	22.472	0.308	-0.252
-265.267	-79.393	-0.262	0.089
-264.253	250.611	0.070	0.119
-263.238	800.000	-0.018	0.076
-262.224	-200.000	-0.034	0.190
-261.209	19.772	-0.227	0.183
-260.195	-200.000	0.031	0.211
-259.180	-200.000	-0.006	0.285
-258.165	585.259	0.115	-0.281
-257.151	-200.000	0.029	-0.185
-256.136	800.000	0.080	-0.270
-255.122	489.206	0.094	-0.215
-254.107	28.117	0.169	0.143
-253.092	11.619	0.016	-0.012
-252.078	34.972	-0.221	0.194
-251.063	-119.707	0.227	0.039
-250.049	-200.000	-0.015	0.102
-249.034	-7.003	-0.065	0.044
-248.019	33.157	0.308	-0.266
-247.005	98.537	-0.035	-0.041
-245.990	-83.855	-0.450	-0.143
-244.976	800.000	-0.066	0.223
-243.961	538.036	-0.065	0.155
-242.946	-200.000	0.046	-0.292
-241.932	454.612	-0.063	-0.140
-240.917	800.000	-0.002	-0.005
-239.903	-99.326	-0.199	0.050
-238.888	-109.140	-0.348	-0.074
-237.873	-17.660	0.224	-0.141
-236.859	-113.922	-0.123	0.024
-235.844	800.000	0.066	0.214
-234.830	800.000	-0.036	-0.116
-233.815	-200.000	-0.028	0.268
-232.800	3.904	-0.171	-0.124
-231.786	-121.568	-0.086	-0.014
-230.771	-43.209	0.217	-0.110
-229.757	-200.000	0.074	-0.415
-228.742	-171.824	-0.325	0.011
-227.727	-146.534	0.143	0.012
-226.713	-20.680	-0.166	0.102
-225.698	494.534	-0.083	0.190
-224.684	-113.791	0.307	0.060
-223.669	77.182	0.307	0.325
-222.655	69.055	0.087	0.090
-221.640	-77.759	0.347	-0.120
-220.625	-95.559	-0.531	0.142
-219.611	-101.373	0.210	-0.051
-218.596	-200.000	0.018	0.092
-217.582	100.966	0.035	-0.041
-216.567	-128.774	-0.163	0.023
-215.552	-99.903	0.153	-0.038
-214.538	-200.000	0.015	-0.332
-213.523	-200.000	0.033	-0.170
-212.509	-57.524	-0.123	-0.054
-211.494	-200.000	0.004	0.048
-210.479	147.678	-0.201	0.270
-209.465	800.000	-0.048	0.143
-208.450	-200.000	-0.031	0.276
-207.436	-72.246	-0.193	-0.071
-206.421	34.852	-0.195	-0.170
-205.406	-175.396	0.324	-0.009
-204.392	-200.000	0.068	-0.378
-203.377	-200.000	-0.197	-0.001
-202.363	255.795	-0.036	-0.061
-201.348	800.000	-0.048	0.182
-200.333	-14.702	0.112	0.072
-199.319	119.925	0.058	-0.072
-198.304	-200.000	-0.006	0.393
-197.290	-200.000	-0.050	0.224
-196.275	99.298	0.096	0.111
-195.260	248.824	0.209	-0.352
-194.246	106.316	0.155	-0.183
-193.231	18.722	-0.211	-0.169
-192.217	-200.000	-0.028	-0.370
-191.202	-101.418	0.330	-0.080
-190.187	-147.850	0.381	-0.032
-189.173	561.999	-0.123	0.297
-188.158	-92.451	0.049	0.014
-187.144	-200.000	-0.025	-0.156
-186.129	-142.573	0.194	-0.019
-185.114	14.998	0.124	-0.097
-184.100	59.412	0.057	0.056
-183.085	-8.779	-0.136	-0.091
-182.071	-79.340	-0.039	-0.013
-181.056	-200.000	0.022	-0.404
-180.042	12.323	-0.334	0.256
-179.027	-102.737	-0.202	0.048
-178.012	-200.000	-0.029	0.384
-176.998	561.481	-0.082	0.197
-175.983	-89.399	-0.234	-0.068
-174.969	-200.000	-0.017	0.226
-173.954	-41.000	-0.072	0.037
-172.939	-116.051	0.166	0.031
-171.925	16.854	0.094	-0.074
-170.910	-16.049	0.044	0.028
-169.896	122.489	-0.064	0.080
-168.881	-61.856	0.105	-0.044
-167.866	561.731	-0.138	0.333
-166.852	581.137	0.085	-0.206
-165.837	800.000	-0.078	0.274
-164.823	-17.416	0.106	-0.066
-163.808	95.186	-0.061	0.069
-162.793	692.151	0.049	-0.127
-161.779	23.394	-0.068	0.056
-160.764	-200.000	0.036	-0.236
-159.750	-24.121	0.173	-0.103
-158.735	107.416	-0.093	-0.110
-157.720	620.986	-0.070	-0.174
-156.706	-200.000	0.013	-0.386
-155.691	-200.000	0.017	0.252
-154.677	-200.000	0.019	0.118
-153.662	800.000	0.071	-0.231
-152.647	-200.000	0.013	0.204
-151.633	-177.239	-0.082	-0.002
-150.618	800.000	0.030	0.113
-149.604	85.346	-0.183	-0.200
-148.589	800.000	0.037	-0.156
-147.574	-200.000	-0.022	0.229
-146.560	-153.189	0.278	0.019
-145.545	407.265	-0.028	-0.059
-144.531	530.445	-0.060	-0.141
-143.516	-200.000	0.048	0.444
-142.502	111.360	-0.039	-0.046
-141.487	-132.343	-0.107	-0.014
-140.472	87.166	-0.088	0.096
-139.458	800.000	-0.062	0.255
-138.443	672.181	-0.045	0.115
-137.429	383.172	0.028	0.057
-136.414	50.250	-0.155	-0.145
-135.399	-65.960	-0.413	-0.164
-134.385	-39.514	-0.132	-0.069
-133.370	44.189	0.209	0.191
-132.356	365.856	0.040	0.081
-131.341	230.683	-0.157	-0.256
-130.326	3.260	-0.038	-0.028
-129.312	69.400	0.102	0.105
-128.297	-200.000	0.046	0.338
-127.283	-64.769	-0.286	0.115
-126.268	356.377	0.096	-0.191
-125.253	51.017	-0.113	-0.107
-124.239	-200.000	-0.011	-0.105
-123.224	-148.978	-0.058	0.005
-122.210	-70.610	0.189	0.071
-121.195	31.957	-0.388	0.333
