DTS Sentinel unit serial number:	SN413079Multiplexer serial number:	ORYXHardware model number:	OX4-SRSoftware version number:	ORYX F/W v4.00 Oryx Data Collector v3.7.2.0data status	okinstallation	princeton_trtdifferential loss correction	single-endedforward channel	channel 2reverse channel	N/Adate	2019/09/11time	23:21:10forward acquisition time	60.00reverse acquisition time	0.00gamma	496.2192k internal	0.2325k external	0.2325temperature offset calibration	1.0075default loss term (dB/km)	0.3790temperature slope calibration	1.0000multiplexer offset coefficient	1.0000multiplexer slope coefficient	1.0000fibre end	0.00T internal ref (°C)	34.36T ext. ref 1 (°C)	1.86T ext. ref 2 (°C)	28.76length (m)	temperature (°C)	Stokes	anti-Stokes-747.200	-131.479	0.344	-0.046
-746.185	133.334	-0.161	0.210
-745.171	122.104	-0.115	0.144
-744.156	-67.921	-0.297	0.117
-743.142	-39.199	-0.072	-0.038
-742.127	15.934	-0.278	0.221
-741.112	-25.622	0.154	0.092
-740.098	-84.027	-0.048	0.015
-739.083	-50.154	0.047	-0.022
-738.069	291.850	-0.086	-0.158
-737.054	-134.438	-0.035	0.004
-736.039	800.000	-0.047	0.173
-735.025	-99.817	0.107	0.027
-734.010	800.000	0.129	-0.444
-732.996	137.322	-0.082	0.108
-731.981	800.000	-0.047	-0.184
-730.966	-179.699	-0.107	-0.002
-729.952	305.140	-0.108	0.203
-728.937	1.844	0.137	0.100
-727.923	88.130	-0.202	-0.226
-726.908	-72.726	-0.307	0.114
-725.894	112.774	-0.401	-0.490
-724.879	18.374	0.132	0.106
-723.864	-29.682	-0.223	-0.128
-722.850	219.785	-0.112	-0.181
-721.835	-125.783	0.034	0.005
-720.821	-200.000	-0.079	-0.355
-719.806	288.945	0.091	-0.165
-718.791	-200.000	-0.045	-0.226
-717.777	327.055	-0.057	-0.110
-716.762	-121.662	0.208	-0.035
-715.748	79.316	-0.082	-0.089
-714.733	633.898	-0.045	0.114
-713.718	-160.596	0.067	-0.004
-712.704	588.565	-0.076	0.189
-711.689	-98.377	-0.211	0.054
-710.675	43.085	0.353	0.324
-709.660	-176.467	0.431	0.011
-708.645	-200.000	0.021	-0.185
-707.631	-35.016	-0.114	0.063
-706.616	-48.955	0.233	0.113
-705.602	128.142	-0.129	0.165
-704.587	146.864	0.213	0.289
-703.572	77.128	-0.089	0.095
-702.558	-136.546	0.160	0.019
-701.543	-4.095	-0.091	-0.063
-700.529	-145.154	0.235	-0.021
-699.514	-145.778	-0.337	0.030
-698.499	136.401	0.098	0.129
-697.485	384.631	-0.068	0.141
-696.470	-32.847	-0.141	-0.079
-695.456	-61.663	-0.231	-0.098
-694.441	-200.000	0.005	0.146
-693.426	-200.000	-0.046	0.277
-692.412	-12.939	0.201	0.132
-691.397	-137.783	-0.438	-0.049
-690.383	226.158	0.094	-0.153
-689.368	302.627	-0.158	-0.294
-688.354	-139.755	-0.137	-0.015
-687.339	-112.031	-0.473	-0.096
-686.324	26.111	0.075	0.063
-685.310	-78.323	0.253	-0.088
-684.295	800.000	0.049	-0.204
-683.281	-138.584	-0.439	0.048
-682.266	384.163	-0.085	0.175
-681.251	378.874	-0.086	-0.177
-680.237	51.698	-0.146	0.140
-679.222	800.000	0.077	-0.278
-678.208	100.260	-0.296	0.346
-677.193	172.377	0.038	-0.055
-676.178	-42.057	-0.352	-0.181
-675.164	30.502	0.133	-0.114
-674.149	-74.550	-0.270	-0.098
-673.135	-125.665	0.111	0.017
-672.120	-39.905	0.198	0.104
-671.105	800.000	0.083	-0.255
-670.091	-85.533	0.067	-0.021
-669.076	110.050	-0.096	-0.116
-668.062	114.659	-0.163	0.199
-667.047	82.756	-0.204	-0.224
-666.032	-69.127	0.416	-0.161
-665.018	-22.936	-0.157	0.095
-664.003	800.000	-0.034	0.107
-662.989	3.382	0.179	0.131
-661.974	76.626	0.123	0.131
-660.959	-141.776	-0.162	-0.016
-659.945	101.997	-0.322	0.378
-658.930	35.026	0.142	0.125
-657.916	10.005	-0.330	0.252
-656.901	182.701	0.049	-0.072
-655.886	13.075	0.228	-0.177
-654.872	-99.826	0.315	-0.079
-653.857	-101.529	0.068	0.017
-652.843	-96.399	-0.096	-0.026
-651.828	-200.000	-0.068	-0.302
-650.814	302.689	0.019	-0.035
-649.799	-128.250	-0.379	-0.054
-648.784	-133.447	0.134	-0.017
-647.770	-32.663	-0.089	-0.050
-646.755	90.294	0.136	-0.152
-645.741	-62.256	0.215	0.090
-644.726	227.640	-0.110	-0.180
-643.711	-200.000	0.023	-0.104
-642.697	-184.947	-0.282	-0.004
-641.682	24.384	0.355	-0.295
-640.668	-144.184	-0.262	-0.025
-639.653	-200.000	0.002	-0.071
-638.638	-200.000	-0.013	-0.185
-637.624	103.190	0.159	-0.188
-636.609	-200.000	-0.009	-0.083
-635.595	-104.998	0.254	-0.058
-634.580	10.466	-0.322	-0.246
-633.565	800.000	-0.071	0.284
-632.551	228.834	-0.018	-0.030
-631.536	-43.052	0.123	0.063
-630.522	-200.000	-0.002	-0.272
-629.507	668.410	-0.078	0.202
-628.492	800.000	-0.047	-0.168
-627.478	207.908	-0.184	0.288
-626.463	71.951	-0.157	-0.164
-625.449	-6.893	-0.292	-0.199
-624.434	342.058	0.190	-0.373
-623.419	110.461	0.064	0.077
-622.405	13.110	-0.110	-0.085
-621.390	510.758	0.079	-0.184
-620.376	-75.726	0.159	-0.057
-619.361	-200.000	-0.045	-0.232
-618.346	-200.000	0.062	-0.357
-617.332	-200.000	0.010	-0.092
-616.317	-124.891	-0.159	-0.025
-615.303	-85.309	0.271	-0.085
-614.288	315.966	-0.127	-0.240
-613.273	135.463	0.155	-0.202
-612.259	143.451	0.045	-0.061
-611.244	-200.000	-0.025	-0.359
-610.230	53.824	0.206	0.198
-609.215	83.371	-0.183	-0.201
-608.201	103.656	0.269	-0.317
-607.186	-36.631	-0.111	-0.060
-606.171	123.591	-0.040	-0.051
-605.157	273.315	0.170	-0.302
-604.142	221.318	0.141	0.228
-603.128	136.799	-0.022	0.029
-602.113	-47.329	0.121	0.059
-601.098	-21.956	0.051	-0.031
-600.084	-60.109	-0.279	0.120
-599.069	325.334	0.164	-0.314
-598.055	411.846	0.026	0.056
-597.040	-106.868	-0.251	-0.056
-596.025	-65.714	0.344	-0.138
-595.011	800.000	-0.085	0.351
-593.996	-122.567	0.213	0.035
-592.982	-200.000	-0.025	-0.330
-591.967	396.259	-0.103	0.216
-590.952	800.000	-0.068	0.192
-589.938	800.000	0.062	0.245
-588.923	-29.198	-0.285	0.164
-587.909	-89.347	0.268	-0.079
-586.894	636.440	0.012	-0.031
-585.879	431.467	-0.066	-0.144
-584.865	336.891	-0.135	0.262
-583.850	573.353	-0.079	0.192
-582.836	800.000	-0.035	0.104
-581.821	-200.000	0.026	-0.242
-580.806	800.000	0.124	-0.361
-579.792	-200.000	0.013	0.247
-578.777	710.013	0.032	0.086
-577.763	74.745	0.239	-0.252
-576.748	-38.700	0.158	-0.083
-575.733	800.000	0.110	0.331
-574.719	-28.539	-0.264	0.152
-573.704	-200.000	-0.000	-0.014
-572.690	59.830	-0.389	-0.385
-571.675	-118.538	0.116	-0.020
-570.661	-8.949	-0.161	0.108
-569.646	324.174	0.063	-0.120
-568.631	-122.971	0.261	-0.042
-567.617	800.000	-0.109	0.335
-566.602	789.440	0.039	-0.108
-565.588	-58.250	-0.531	0.232
-564.573	-151.786	-0.051	0.004
-563.558	-134.829	-0.562	-0.068
-562.544	-200.000	-0.026	0.138
-561.529	107.525	-0.180	-0.215
-560.515	-134.420	0.134	0.016
-559.500	-77.058	-0.156	-0.055
-558.485	800.000	0.023	-0.067
-557.471	401.394	0.098	-0.207
-556.456	-91.631	-0.127	0.036
-555.442	-200.000	0.285	0.000
-554.427	-200.000	0.015	-0.137
-553.412	-200.000	-0.003	0.105
-552.398	-200.000	0.006	-0.079
-551.383	301.855	0.145	-0.269
-550.369	99.454	0.071	0.082
-549.354	800.000	-0.044	0.175
-548.339	358.267	0.116	0.232
-547.325	-200.000	0.045	-0.241
-546.310	-200.000	-0.014	-0.289
-545.296	-80.456	-0.141	-0.047
-544.281	215.513	0.102	0.161
-543.266	278.677	0.227	0.405
-542.252	-171.493	0.219	0.007
-541.237	-49.150	-0.178	-0.085
-540.223	-1.524	0.204	0.144
-539.208	272.227	0.229	-0.404
-538.193	800.000	0.030	-0.100
-537.179	-49.842	0.204	0.097
-536.164	-66.665	0.195	-0.077
-535.150	-95.184	-0.209	0.056
-534.135	710.278	-0.071	-0.187
-533.121	585.714	-0.065	0.160
-532.106	-13.074	-0.151	-0.098
-531.091	182.489	-0.149	0.220
-530.077	-108.575	-0.144	-0.031
-529.062	-200.000	-0.006	-0.061
-528.048	166.988	0.038	0.054
-527.033	267.601	0.095	-0.167
-526.018	-109.403	0.140	-0.030
-525.004	190.139	0.120	-0.181
-523.989	656.565	0.041	0.107
-522.975	1.807	-0.271	0.195
-521.960	-188.959	0.059	-0.001
-520.945	-97.598	-0.298	0.077
-519.931	335.845	0.071	-0.139
-518.916	201.948	0.018	-0.028
-517.902	-113.918	0.318	0.062
-516.887	-94.658	0.167	-0.045
-515.872	800.000	0.009	0.037
-514.858	-70.740	0.332	-0.125
-513.843	-17.752	0.260	0.163
-512.829	800.000	0.035	0.114
-511.814	-130.283	-0.530	-0.072
-510.799	-44.732	-0.090	-0.045
-509.785	800.000	-0.053	-0.193
-508.770	649.523	0.089	0.229
-507.756	137.997	0.036	-0.047
-506.741	800.000	0.066	0.272
-505.726	800.000	0.062	0.176
-504.712	800.000	0.030	-0.106
-503.697	-200.000	0.053	-0.318
-502.683	21.210	0.262	-0.213
-501.668	-70.054	0.082	0.031
-500.653	-200.000	0.008	-0.097
-499.639	-49.517	0.119	-0.056
-498.624	-70.827	0.170	-0.064
-497.610	-200.000	-0.045	0.215
-496.595	-200.000	0.014	0.167
-495.581	-67.546	-0.079	0.031
-494.566	11.913	0.247	-0.190
-493.551	170.683	-0.073	-0.105
-492.537	-69.688	-0.157	0.060
-491.522	-200.000	0.063	-0.384
-490.508	641.090	-0.044	-0.113
-489.493	800.000	-0.086	-0.302
-488.478	-80.446	-0.120	-0.040
-487.464	321.849	-0.098	-0.187
-486.449	12.290	0.142	-0.109
-485.435	1.641	-0.180	-0.130
-484.420	726.904	0.044	0.118
-483.405	-66.062	-0.296	0.118
-482.391	413.568	0.159	-0.337
-481.376	-200.000	-0.009	0.180
-480.362	-129.104	-0.297	-0.041
-479.347	-64.216	0.310	0.126
-478.332	398.933	0.153	0.320
-477.318	397.423	-0.142	0.296
-476.303	70.040	-0.090	-0.093
-475.289	-200.000	-0.018	0.227
-474.274	615.587	-0.057	-0.142
-473.259	-34.843	0.228	0.125
-472.245	278.444	0.118	-0.210
-471.230	-200.000	-0.027	-0.140
-470.216	188.653	0.030	0.045
-469.201	40.023	-0.125	0.112
-468.186	-115.281	-0.361	0.068
-467.172	800.000	0.029	0.103
-466.157	-200.000	0.084	-0.426
-465.143	-200.000	0.027	-0.120
-464.128	-200.000	0.003	0.077
-463.113	-62.237	0.176	0.073
-462.099	-114.675	0.139	0.027
-461.084	-200.000	0.037	0.186
-460.070	-91.747	-0.158	0.045
-459.055	589.535	-0.088	-0.215
-458.040	-49.419	0.205	0.098
-457.026	64.560	-0.176	0.177
-456.011	-109.289	-0.416	-0.088
-454.997	-52.732	-0.031	-0.014
-453.982	-44.050	0.196	-0.098
-452.968	299.681	0.042	-0.077
-451.953	-66.197	-0.210	-0.083
-450.938	3.939	-0.216	-0.157
-449.924	-18.701	0.161	-0.100
-448.909	103.579	0.069	0.081
-447.895	-38.814	0.350	-0.184
-446.880	-91.320	0.247	-0.071
-445.865	-122.403	0.212	0.035
-444.851	254.448	0.131	-0.224
-443.836	273.166	-0.042	-0.075
-442.822	256.317	0.113	0.193
-441.807	-141.269	0.349	0.035
-440.792	209.447	-0.055	0.086
-439.778	-90.553	-0.306	0.088
-438.763	-180.605	-0.428	0.009
-437.749	262.862	0.023	0.039
-436.734	-161.214	-0.417	-0.022
-435.719	800.000	-0.151	0.472
-434.705	-71.589	0.109	-0.041
-433.690	-89.399	-0.092	-0.027
-432.676	50.173	0.322	0.303
-431.661	-104.205	-0.261	-0.060
-430.646	-99.298	0.083	-0.021
-429.632	-84.617	0.245	0.077
-428.617	24.678	-0.095	0.078
-427.603	795.715	0.084	0.231
-426.588	-166.693	-0.177	0.007
-425.573	337.629	0.037	-0.072
-424.559	-11.199	-0.295	-0.194
-423.544	800.000	-0.092	-0.260
-422.530	58.282	0.036	0.035
-421.515	179.952	-0.120	-0.176
-420.500	-200.000	-0.015	-0.109
-419.486	-22.478	-0.189	0.114
-418.471	27.051	-0.039	0.033
-417.457	-144.522	0.378	0.035
-416.442	-68.377	0.175	-0.068
-415.428	-94.754	0.239	-0.065
-414.413	-144.472	0.119	-0.011
-413.398	-45.157	0.210	0.104
-412.384	295.096	-0.152	-0.277
-411.369	800.000	-0.048	-0.133
-410.355	250.486	-0.121	0.205
-409.340	13.349	-0.113	0.087
-408.325	493.980	-0.151	-0.345
-407.311	5.262	0.203	0.149
-406.296	230.211	0.134	-0.218
-405.282	450.472	-0.088	-0.193
-404.267	183.752	-0.035	-0.052
-403.252	-200.000	0.039	0.170
-402.238	159.995	0.039	-0.054
-401.223	-200.000	-0.012	0.217
-400.209	103.287	-0.087	0.101
-399.194	67.437	0.169	0.172
-398.179	431.920	-0.081	0.174
-397.165	631.880	0.052	0.131
-396.150	-64.194	0.100	-0.041
-395.136	162.166	-0.049	0.068
-394.121	166.316	-0.140	0.198
-393.106	-116.953	0.119	0.022
-392.092	-7.944	0.156	-0.105
-391.077	70.884	-0.276	0.284
-390.063	-71.821	0.096	-0.036
-389.048	-126.625	0.257	-0.038
-388.033	-85.078	-0.266	-0.083
-387.019	23.325	-0.160	0.131
-386.004	-200.000	-0.019	0.189
-384.990	-152.617	0.173	0.012
-383.975	321.119	0.144	0.272
-382.960	-45.860	-0.018	-0.009
-381.946	126.811	0.075	-0.094
-380.931	240.785	0.062	0.103
-379.917	105.110	-0.070	-0.082
-378.902	-70.861	-0.161	-0.061
-377.888	-117.245	-0.441	0.080
-376.873	-48.781	0.226	-0.108
-375.858	535.980	0.088	0.209
-374.844	55.134	-0.204	-0.196
-373.829	-200.000	0.082	0.595
-372.815	50.589	0.262	-0.246
-371.800	-145.312	-0.217	0.019
-370.785	173.451	-0.067	-0.096
-369.771	302.817	-0.091	0.167
-368.756	-200.000	-0.014	0.136
-367.742	82.908	0.210	-0.227
-366.727	71.614	-0.246	-0.254
-365.712	109.099	-0.038	0.045
-364.698	183.693	-0.038	0.056
-363.683	371.946	-0.030	0.061
-362.669	-92.362	0.151	0.042
-361.654	-200.000	0.021	-0.166
-360.639	800.000	0.047	0.181
-359.625	-200.000	0.054	-0.238
-358.610	-144.811	-0.434	0.040
-357.596	800.000	-0.059	0.197
-356.581	-154.107	-0.193	0.013
-355.566	501.133	0.091	-0.208
-354.552	756.965	-0.074	0.198
-353.537	108.477	0.089	0.105
-352.523	-200.000	-0.046	-0.214
-351.508	800.000	-0.037	-0.101
-350.493	-98.870	-0.076	-0.019
-349.479	-200.000	0.027	0.344
-348.464	-89.741	0.233	0.068
-347.450	-200.000	-0.012	0.215
-346.435	-38.583	-0.092	0.048
-345.420	-184.799	0.139	-0.002
-344.406	-200.000	0.002	0.069
-343.391	-57.835	-0.046	0.020
-342.377	800.000	0.080	-0.244
-341.362	-92.419	0.298	0.083
-340.348	27.317	0.338	0.282
-339.333	-163.823	-0.101	-0.005
-338.318	81.053	0.111	-0.119
-337.304	-200.000	0.031	0.307
-336.289	436.905	0.117	-0.252
-335.275	-133.313	0.195	-0.024
-334.260	45.000	0.076	0.069
-333.245	-38.287	-0.218	-0.115
-332.231	-177.775	0.237	-0.006
-331.216	-143.025	0.485	0.047
-330.202	-47.314	0.168	0.081
-329.187	-146.868	-0.240	0.020
-328.172	800.000	0.054	-0.205
-327.158	-93.488	-0.254	0.070
-326.143	166.108	-0.133	0.187
-325.129	-145.465	0.104	-0.009
-324.114	52.962	0.201	-0.191
-323.099	535.575	0.044	-0.104
-322.085	-61.975	-0.112	-0.046
-321.070	617.732	-0.205	-0.510
-320.056	-93.322	0.165	0.045
-319.041	199.440	-0.119	0.181
-318.026	13.771	0.207	0.160
-317.012	-200.000	-0.063	0.285
-315.997	-129.130	0.181	0.025
-314.983	-200.000	0.001	-0.282
-313.968	-39.580	-0.091	-0.047
-312.953	-76.229	0.092	-0.032
-311.939	800.000	-0.023	-0.091
-310.924	-54.202	-0.495	0.223
-309.910	-200.000	-0.034	0.186
-308.895	255.571	-0.040	0.068
-307.880	-200.000	0.034	-0.217
-306.866	161.923	-0.236	-0.328
-305.851	-55.627	-0.243	-0.108
-304.837	-14.514	-0.293	0.187
-303.822	170.055	0.060	0.085
-302.807	-10.435	0.401	0.263
-301.793	209.053	-0.070	-0.108
-300.778	342.419	-0.031	-0.061
-299.764	-102.169	0.112	-0.027
-298.749	-43.780	0.257	-0.129
-297.735	-68.329	0.355	0.137
-296.720	-114.797	0.184	-0.035
-295.705	-200.000	-0.043	-0.328
-294.691	-200.000	0.014	0.452
-293.676	79.482	-0.273	0.291
-292.662	79.589	0.218	-0.232
-291.647	-112.120	-0.161	0.032
-290.632	-200.000	-0.026	0.233
-289.618	194.156	-0.141	0.212
-288.603	55.642	-0.097	0.093
-287.589	-200.000	-0.034	0.161
-286.574	158.054	-0.290	0.398
-285.559	411.133	0.166	-0.350
-284.545	231.233	0.167	-0.271
-283.530	800.000	0.089	0.341
-282.516	156.921	0.094	0.129
-281.501	-64.142	0.206	0.083
-280.486	73.565	0.123	0.128
-279.472	98.992	-0.151	0.173
-278.457	197.343	0.110	0.166
-277.443	-96.773	0.169	0.044
-276.428	-103.987	-0.169	0.039
-275.413	-38.985	0.104	0.054
-274.399	800.000	-0.029	0.102
-273.384	80.518	-0.143	-0.152
-272.370	12.308	0.258	0.197
-271.355	199.685	0.118	-0.179
-270.340	14.600	-0.330	0.256
-269.326	-200.000	0.009	-0.197
-268.311	800.000	-0.042	0.162
-267.297	800.000	0.091	0.363
-266.282	27.304	0.297	-0.247
-265.267	-78.777	0.112	-0.038
-264.253	-104.115	0.207	-0.048
-263.238	800.000	0.088	0.313
-262.224	776.437	-0.114	-0.309
-261.209	446.764	0.078	0.169
-260.195	20.001	-0.053	0.042
-259.180	-34.077	-0.259	0.141
-258.165	28.382	-0.051	0.043
-257.151	-73.421	0.240	-0.087
-256.136	-200.000	0.027	-0.171
-255.122	-116.740	-0.136	-0.025
-254.107	27.500	0.027	0.023
-253.092	800.000	-0.018	-0.065
-252.078	-129.218	0.403	-0.056
-251.063	-200.000	-0.043	0.598
-250.049	41.338	-0.184	0.165
-249.034	-1.782	-0.330	0.230
-248.019	362.445	-0.090	0.178
-247.005	2.876	-0.307	0.220
-245.990	-200.000	0.012	0.463
-244.976	-6.028	-0.317	-0.214
-243.961	-200.000	-0.010	-0.073
-242.946	64.449	0.108	-0.107
-241.932	-51.555	-0.373	0.172
-240.917	-200.000	0.040	0.240
-239.903	68.408	-0.127	0.129
-238.888	12.679	-0.164	0.126
-237.873	-120.653	0.344	0.058
-236.859	800.000	-0.048	-0.151
-235.844	144.253	-0.170	0.224
-234.830	38.461	0.136	-0.120
-233.815	287.891	-0.057	0.102
-232.800	151.348	0.049	-0.066
-231.786	334.275	-0.110	-0.211
-230.771	-200.000	0.027	0.140
-229.757	564.282	-0.018	-0.043
-228.742	-199.031	0.144	-0.001
-227.727	800.000	-0.026	-0.098
-226.713	-51.689	0.167	-0.077
-225.698	-200.000	0.042	-0.230
-224.684	800.000	-0.035	0.130
-223.669	251.476	-0.105	-0.176
-222.655	-26.826	-0.159	0.092
-221.640	-200.000	0.050	0.244
-220.625	-26.538	-0.200	-0.116
-219.611	680.215	0.108	-0.278
-218.596	-70.076	0.205	0.077
-217.582	224.462	0.111	-0.177
-216.567	-94.840	-0.219	0.059
-215.552	2.164	0.041	-0.030
-214.538	-96.857	-0.102	-0.027
-213.523	-49.963	-0.256	0.120
-212.509	-76.575	-0.127	-0.044
-211.494	-105.070	0.164	-0.037
-210.479	-41.691	-0.208	0.106
-209.465	-41.474	-0.170	-0.086
-208.450	-162.689	-0.114	-0.006
-207.436	99.100	-0.116	-0.132
-206.421	-57.170	0.091	-0.040
-205.406	-200.000	-0.196	0.000
-204.392	-56.991	-0.120	0.052
-203.377	91.798	0.238	-0.265
-202.363	-63.244	-0.167	0.068
-201.348	-120.398	0.212	-0.036
-200.333	-51.386	-0.199	-0.092
-199.319	365.390	-0.081	-0.161
-198.304	-200.000	-0.048	0.236
-197.290	800.000	0.025	0.086
-196.275	-106.326	-0.456	-0.101
-195.260	-31.397	0.266	-0.148
-194.246	132.014	-0.062	0.079
-193.231	721.191	0.093	0.245
-192.217	13.138	0.037	-0.029
-191.202	800.000	-0.074	0.203
-190.187	7.070	-0.228	-0.168
-189.173	-200.000	0.017	-0.449
-188.158	800.000	-0.036	-0.115
-187.144	-55.823	0.437	0.193
-186.129	-7.988	0.306	0.204
-185.114	-200.000	0.057	-0.292
-184.100	-200.000	0.046	0.437
-183.085	-58.338	0.122	-0.052
-182.071	419.589	0.105	-0.223
-181.056	-40.835	-0.266	0.136
-180.042	-126.025	0.125	0.019
-179.027	167.037	-0.210	-0.294
-178.012	-17.614	-0.060	-0.037
-176.998	23.659	0.270	-0.219
-175.983	-107.471	-0.113	-0.024
-174.969	-48.743	0.311	-0.147
-173.954	-83.740	0.225	0.071
-172.939	-86.041	-0.185	-0.056
-171.925	-200.000	-0.008	0.132
-170.910	-81.150	0.434	0.142
-169.896	-200.000	0.054	0.313
-168.881	-14.757	-0.234	0.148
-167.866	-200.000	0.013	-0.162
-166.852	131.752	-0.164	0.208
-165.837	124.234	0.012	-0.014
-164.823	-151.391	0.047	0.003
-163.808	-105.031	-0.121	-0.027
-162.793	15.753	0.279	-0.216
-161.779	800.000	-0.042	0.165
-160.764	800.000	0.005	0.018
-159.750	674.176	0.038	-0.097
-158.735	-81.047	0.045	0.015
-157.720	632.498	-0.108	-0.271
-156.706	800.000	-0.101	0.320
-155.691	61.533	-0.139	0.136
-154.677	78.839	-0.221	0.233
-153.662	-54.098	-0.035	-0.016
-152.647	800.000	-0.070	0.300
-151.633	-145.159	-0.145	-0.013
-150.618	-49.634	-0.125	0.058
-149.604	31.442	0.282	0.239
-148.589	-48.536	-0.109	0.052
-147.574	-195.534	-0.365	0.003
-146.560	-134.610	0.066	-0.008
-145.545	800.000	-0.114	-0.330
-144.531	175.906	0.162	-0.231
-143.516	92.793	0.115	0.128
-142.502	-144.365	0.272	0.025
-141.487	11.439	-0.214	-0.162
-140.472	348.172	0.088	-0.170
-139.458	800.000	-0.037	-0.116
-138.443	50.131	-0.077	0.071
-137.429	179.490	0.081	-0.117
-136.414	-41.908	0.068	0.034
-135.399	-72.751	-0.415	0.151
-134.385	585.048	-0.070	0.168
-133.370	-200.000	0.046	0.404
-132.356	-200.000	0.054	-0.279
-131.341	-18.727	0.266	-0.163
-130.326	-60.767	-0.228	0.095
-129.312	145.356	0.130	0.171
-128.297	-200.000	-0.020	0.179
-127.283	-110.693	0.132	0.027
-126.268	-99.770	0.189	0.047
-125.253	-71.742	-0.391	-0.144
-124.239	61.229	0.172	-0.168
-123.224	-200.000	-0.044	0.384
-122.210	800.000	0.116	0.454
-121.195	215.400	-0.272	0.425
