DTS Sentinel unit serial number:	SN413079Multiplexer serial number:	ORYXHardware model number:	OX4-SRSoftware version number:	ORYX F/W v4.00 Oryx Data Collector v3.7.2.0data status	okinstallation	princeton_trtdifferential loss correction	single-endedforward channel	channel 2reverse channel	N/Adate	2019/09/15time	18:19:35forward acquisition time	60.00reverse acquisition time	0.00gamma	496.2192k internal	0.2285k external	0.2285temperature offset calibration	0.9919default loss term (dB/km)	0.3790temperature slope calibration	1.0000multiplexer offset coefficient	1.0000multiplexer slope coefficient	1.0000fibre end	0.00T internal ref (°C)	44.42T ext. ref 1 (°C)	6.63T ext. ref 2 (°C)	38.89length (m)	temperature (°C)	Stokes	anti-Stokes-747.200	55.683	0.310	0.309
-746.185	80.136	0.330	0.364
-745.171	-200.000	-0.019	-0.117
-744.156	152.229	-0.179	0.250
-743.142	800.000	-0.043	0.189
-742.127	-200.000	-0.003	0.333
-741.112	-200.000	-0.036	0.455
-740.098	800.000	0.068	0.296
-739.083	-200.000	-0.001	0.234
-738.069	47.372	-0.267	0.255
-737.054	-200.000	-0.022	0.163
-736.039	800.000	-0.022	0.083
-735.025	56.718	-0.284	0.283
-734.010	-75.036	-0.291	-0.107
-732.996	800.000	-0.130	0.403
-731.981	-167.893	-0.107	0.004
-730.966	-76.785	-0.264	0.095
-729.952	-73.179	-0.096	0.036
-728.937	69.077	-0.196	0.207
-727.923	-66.117	-0.269	0.110
-726.908	-200.000	-0.006	-0.249
-725.894	800.000	-0.085	-0.319
-724.879	-63.011	-0.199	0.084
-723.864	34.584	-0.230	-0.206
-722.850	94.407	0.083	0.097
-721.835	182.477	0.225	-0.340
-720.821	469.254	-0.153	-0.352
-719.806	46.965	0.250	0.238
-718.791	12.045	-0.148	0.117
-717.777	120.120	-0.060	0.076
-716.762	-9.461	-0.265	0.181
-715.748	-150.047	0.446	0.036
-714.733	6.406	-0.322	0.246
-713.718	495.620	-0.114	0.268
-712.704	213.811	0.121	-0.196
-711.689	-121.133	-0.176	-0.030
-710.675	-200.000	0.001	0.104
-709.660	-151.145	0.339	-0.026
-708.645	-81.871	-0.130	-0.044
-707.631	164.778	0.086	0.125
-706.616	800.000	-0.008	-0.026
-705.602	4.323	0.360	-0.270
-704.587	75.883	0.165	0.179
-703.572	-59.341	0.177	-0.078
-702.558	23.290	0.272	0.229
-701.543	-170.915	0.182	0.006
-700.529	-130.081	0.337	0.047
-699.514	-69.958	0.110	-0.043
-698.499	-165.390	-0.216	-0.010
-697.485	62.974	0.172	0.177
-696.470	-83.090	0.236	0.078
-695.456	280.850	0.097	-0.177
-694.441	800.000	0.073	-0.320
-693.426	-147.902	-0.177	0.015
-692.412	-79.980	0.226	-0.078
-691.397	79.950	0.176	-0.194
-690.383	282.535	-0.024	0.044
-689.368	110.407	-0.111	-0.136
-688.354	72.508	0.200	-0.214
-687.339	-18.875	0.306	0.195
-686.324	800.000	-0.073	0.246
-685.310	181.552	-0.040	-0.060
-684.295	800.000	0.095	0.325
-683.281	-18.700	-0.202	-0.129
-682.266	-200.000	-0.032	0.171
-681.251	24.844	-0.093	0.079
-680.237	39.122	-0.142	-0.131
-679.222	-44.524	0.336	-0.172
-678.208	-75.664	-0.150	-0.054
-677.193	-200.000	-0.054	-0.341
-676.178	31.165	-0.041	0.036
-675.164	-113.300	-0.080	-0.016
-674.149	215.778	0.100	-0.163
-673.135	43.129	-0.152	-0.142
-672.120	-200.000	-0.038	0.173
-671.105	613.618	-0.211	0.540
-670.091	27.268	0.040	-0.034
-669.076	-61.427	-0.014	0.006
-668.062	-200.000	-0.037	0.181
-667.047	-95.012	-0.334	0.092
-666.032	99.207	-0.136	-0.161
-665.018	-200.000	-0.008	-0.136
-664.003	-6.666	-0.470	-0.327
-662.989	800.000	-0.076	-0.215
-661.974	-140.858	-0.140	-0.015
-660.959	-14.740	-0.242	-0.159
-659.945	800.000	0.030	0.130
-658.930	59.449	-0.181	-0.183
-657.916	511.941	0.095	-0.226
-656.901	3.421	0.184	-0.137
-655.886	-200.000	-0.004	-0.172
-654.872	165.743	-0.229	-0.331
-653.857	390.921	0.060	-0.128
-652.843	124.951	-0.231	0.298
-651.828	-200.000	-0.004	-0.276
-650.814	-200.000	-0.058	-0.293
-649.799	-200.000	-0.009	0.460
-648.784	35.169	0.117	-0.105
-647.770	65.974	0.167	-0.173
-646.755	733.577	0.119	-0.325
-645.741	-200.000	0.016	-0.281
-644.726	800.000	-0.071	0.291
-643.711	-67.635	0.159	-0.064
-642.697	-107.310	-0.148	-0.033
-641.682	800.000	0.072	-0.303
-640.668	-200.000	0.067	-0.318
-639.653	800.000	-0.046	0.192
-638.638	-135.451	0.289	-0.035
-637.624	-154.579	0.247	0.017
-636.609	-28.771	0.252	0.148
-635.595	-77.556	0.310	-0.110
-634.580	-23.417	0.049	-0.030
-633.565	-200.000	-0.012	0.303
-632.551	-15.720	-0.155	0.101
-631.536	800.000	-0.043	-0.179
-630.522	-20.754	0.139	-0.087
-629.507	-129.024	-0.088	0.013
-628.492	-200.000	-0.028	-0.198
-627.478	33.561	-0.111	0.098
-626.463	177.120	-0.025	-0.037
-625.449	-200.000	-0.068	-0.470
-624.434	53.937	0.098	-0.097
-623.419	554.588	0.129	-0.316
-622.405	344.504	0.161	0.322
-621.390	317.090	-0.051	-0.099
-620.376	25.575	0.081	0.069
-619.361	126.091	0.192	-0.248
-618.346	94.283	-0.066	-0.077
-617.332	-76.323	0.276	-0.099
-616.317	73.514	-0.103	0.111
-615.303	140.758	-0.105	-0.142
-614.288	800.000	0.040	0.114
-613.273	-200.000	0.011	0.256
-612.259	-63.924	-0.276	-0.115
-611.244	-200.000	0.004	-0.042
-610.230	1.645	-0.267	0.196
-609.215	-133.592	-0.078	-0.010
-608.201	9.110	0.224	-0.173
-607.186	-200.000	-0.019	-0.146
-606.171	-200.000	0.086	-0.406
-605.157	449.118	0.073	-0.165
-604.142	-200.000	-0.007	-0.140
-603.128	-18.122	-0.082	0.052
-602.113	-200.000	0.003	-0.267
-601.098	98.666	-0.083	0.098
-600.084	345.325	0.019	0.037
-599.069	-11.316	-0.174	-0.117
-598.055	-6.864	-0.084	0.058
-597.040	87.317	-0.169	-0.191
-596.025	-111.073	0.431	0.090
-595.011	-200.000	-0.002	-0.093
-593.996	-72.457	0.183	-0.069
-592.982	-52.867	0.268	0.126
-591.967	-200.000	-0.000	0.243
-590.952	786.161	0.025	-0.070
-589.938	-156.372	-0.241	-0.015
-588.923	621.756	-0.078	-0.199
-587.909	-200.000	-0.042	0.213
-586.894	761.414	0.034	-0.093
-585.879	-1.143	0.340	-0.245
-584.865	478.055	-0.144	-0.333
-583.850	-200.000	0.040	-0.411
-582.836	59.979	0.043	-0.044
-581.821	442.848	0.068	-0.151
-580.806	800.000	0.041	0.167
-579.792	-103.568	0.342	0.082
-578.777	-200.000	-0.011	-0.369
-577.763	67.040	-0.033	0.034
-576.748	6.878	-0.190	0.145
-575.733	4.051	0.080	-0.060
-574.719	531.628	-0.102	0.245
-573.704	-118.001	-0.137	0.025
-572.690	-63.921	0.182	-0.076
-571.675	-3.890	-0.068	-0.048
-570.661	-38.560	-0.120	0.065
-569.646	364.312	-0.104	0.214
-568.631	240.403	0.160	-0.272
-567.617	-200.000	-0.008	0.180
-566.602	193.291	0.065	-0.100
-565.588	-200.000	0.108	-0.572
-564.573	-44.451	0.164	-0.084
-563.558	52.232	0.047	-0.045
-562.544	800.000	-0.145	0.417
-561.529	-52.763	-0.118	-0.055
-560.515	-140.527	0.400	0.042
-559.500	514.710	0.040	0.095
-558.485	440.460	0.128	0.286
-557.471	129.004	0.122	-0.158
-556.456	-110.477	0.513	-0.108
-555.442	-150.461	0.571	0.045
-554.427	109.587	-0.148	0.181
-553.412	-54.225	0.401	0.186
-552.398	-1.603	0.067	-0.048
-551.383	538.799	0.088	-0.213
-550.369	557.095	0.148	-0.364
-549.354	-63.395	0.098	-0.041
-548.339	79.578	-0.196	0.214
-547.325	280.766	0.215	0.391
-546.310	-97.522	0.132	-0.035
-545.296	195.351	-0.103	-0.160
-544.281	102.152	0.097	0.116
-543.266	-200.000	0.009	-0.069
-542.252	-88.211	0.149	0.045
-541.237	-200.000	0.032	-0.265
-540.223	-34.052	0.216	-0.121
-539.208	-64.024	-0.087	-0.036
-538.193	598.886	0.139	-0.351
-537.179	148.465	-0.092	-0.126
-536.164	-160.854	-0.192	0.010
-535.150	-117.266	-0.187	-0.035
-534.135	-200.000	0.019	-0.138
-533.121	-31.233	-0.256	-0.147
-532.106	5.392	-0.121	-0.091
-531.091	-136.617	-0.185	0.022
-530.077	63.468	-0.306	0.312
-529.062	186.499	-0.173	-0.262
-528.048	-33.284	0.108	-0.061
-527.033	-200.000	-0.031	0.168
-526.018	-79.128	0.240	-0.083
-525.004	568.763	-0.149	0.368
-523.989	-38.896	-0.317	0.170
-522.975	800.000	0.047	-0.180
-521.960	195.667	-0.030	0.046
-520.945	-119.690	-0.202	0.036
-519.931	-124.033	-0.378	-0.060
-518.916	359.632	0.123	0.250
-517.902	-77.873	0.346	-0.122
-516.887	-25.939	-0.361	-0.216
-515.872	59.187	0.206	0.207
-514.858	-177.476	-0.084	0.002
-513.843	42.540	-0.039	-0.036
-512.829	-200.000	0.011	-0.136
-511.814	-157.750	0.241	-0.015
-510.799	-95.347	0.083	-0.023
-509.785	-131.536	-0.190	0.025
-508.770	219.705	0.060	0.098
-507.756	690.390	0.019	0.051
-506.741	800.000	0.048	0.200
-505.726	24.827	0.254	-0.214
-504.712	161.357	-0.187	0.266
-503.697	800.000	0.136	0.588
-502.683	477.910	0.037	0.086
-501.668	-120.223	0.178	0.031
-500.653	195.036	-0.091	0.140
-499.639	548.347	0.096	-0.235
-498.624	251.162	0.096	-0.166
-497.610	-53.852	0.126	0.059
-496.595	47.201	-0.060	-0.056
-495.581	-132.783	0.128	-0.017
-494.566	372.772	-0.025	-0.052
-493.551	-6.346	-0.106	-0.074
-492.537	149.401	-0.121	0.167
-491.522	-200.000	0.012	0.292
-490.508	800.000	-0.086	0.268
-489.493	-200.000	-0.001	0.106
-488.478	-200.000	-0.019	0.137
-487.464	800.000	0.027	0.084
-486.449	562.094	0.174	-0.429
-485.435	26.475	0.056	-0.048
-484.420	156.352	-0.069	-0.097
-483.405	62.018	0.308	0.312
-482.391	619.641	-0.139	0.355
-481.376	12.398	-0.236	-0.185
-480.362	-161.294	-0.203	0.011
-479.347	-102.463	0.118	-0.029
-478.332	57.913	0.131	-0.131
-477.318	79.360	-0.145	0.158
-476.303	56.155	0.075	-0.074
-475.289	-150.978	-0.190	-0.015
-474.274	-1.573	-0.040	0.029
-473.259	-200.000	0.018	0.194
-472.245	45.859	-0.138	0.130
-471.230	-200.000	0.082	0.403
-470.216	-200.000	-0.070	0.392
-469.201	-42.808	0.229	0.118
-468.186	39.698	0.140	-0.127
-467.172	-200.000	0.010	-0.331
-466.157	800.000	-0.043	0.165
-465.143	-170.698	-0.586	0.021
-464.128	-200.000	0.034	0.262
-463.113	173.455	0.146	0.213
-462.099	111.126	-0.084	0.103
-461.084	48.087	-0.101	0.096
-460.070	-153.953	0.450	0.031
-459.055	-10.908	-0.244	0.164
-458.040	-200.000	-0.027	-0.177
-457.026	31.452	-0.141	0.123
-456.011	6.836	0.160	0.121
-454.997	25.125	0.174	0.147
-453.982	-104.397	0.180	0.042
-452.968	58.648	-0.179	-0.178
-451.953	-200.000	-0.014	0.146
-450.938	-82.839	0.091	-0.030
-449.924	-8.485	0.057	0.039
-448.909	-9.824	-0.154	-0.104
-447.895	463.170	-0.051	0.115
-446.880	161.749	0.129	-0.183
-445.865	174.421	-0.128	-0.188
-444.851	21.335	0.131	0.108
-443.836	-200.000	-0.011	-0.182
-442.822	800.000	0.100	0.317
-441.807	-81.638	-0.202	-0.067
-440.792	-81.459	0.137	0.046
-439.778	-200.000	-0.064	0.389
-438.763	87.804	-0.088	0.099
-437.749	238.109	0.057	-0.097
-436.734	116.422	0.188	0.233
-435.719	800.000	-0.081	0.231
-434.705	-200.000	-0.103	-0.465
-433.690	-154.723	-0.348	-0.023
-432.676	47.652	-0.289	0.273
-431.661	-130.340	0.130	-0.018
-430.646	-102.552	-0.169	-0.041
-429.632	-200.000	0.046	-0.221
-428.617	-95.828	-0.395	0.107
-427.603	-200.000	0.075	-0.332
-426.588	-73.287	-0.257	-0.095
-425.573	-200.000	-0.003	0.080
-424.559	-200.000	0.000	0.184
-423.544	-72.269	-0.082	0.031
-422.530	58.775	0.149	-0.149
-421.515	130.222	-0.166	0.215
-420.500	478.476	0.136	-0.311
-419.486	-155.663	-0.488	-0.032
-418.471	-6.544	0.150	-0.104
-417.457	-60.154	-0.319	-0.138
-416.442	72.383	-0.221	-0.234
-415.428	-200.000	-0.004	-0.163
-414.413	-200.000	-0.083	0.497
-413.398	430.799	0.023	0.051
-412.384	-200.000	-0.007	0.133
-411.369	-189.180	-0.185	0.002
-410.355	15.978	0.097	0.078
-409.340	158.358	-0.148	0.209
-408.325	-84.707	-0.412	0.131
-407.311	171.611	-0.030	0.043
-406.296	-200.000	0.082	0.487
-405.282	-200.000	-0.067	0.321
-404.267	-200.000	0.018	-0.220
-403.252	115.818	0.034	-0.042
-402.238	30.999	-0.109	0.094
-401.223	-200.000	0.070	-0.328
-400.209	-48.489	-0.052	0.025
-399.194	231.604	0.106	-0.177
-398.179	-42.228	-0.289	-0.150
-397.165	29.642	-0.111	-0.096
-396.150	-103.274	0.148	-0.035
-395.136	158.625	0.121	-0.171
-394.121	800.000	0.049	0.213
-393.106	55.769	-0.385	-0.377
-392.092	-200.000	-0.038	-0.503
-391.077	118.313	0.197	0.246
-390.063	-2.141	-0.142	-0.101
-389.048	-82.341	-0.006	-0.002
-388.033	-21.969	0.144	-0.089
-387.019	-62.078	0.210	0.089
-386.004	-112.746	-0.149	-0.030
-384.990	-200.000	0.057	-0.264
-383.975	139.226	0.196	0.262
-382.960	-57.393	0.166	0.074
-381.946	87.402	0.188	0.211
-380.931	800.000	-0.042	0.137
-379.917	-134.786	-0.183	-0.022
-378.902	-118.497	-0.164	-0.029
-377.888	65.503	-0.038	-0.039
-376.873	796.060	0.133	0.371
-375.858	23.937	-0.157	-0.131
-374.844	360.507	-0.024	0.049
-373.829	-200.000	-0.022	-0.205
-372.815	-107.054	0.113	0.025
-371.800	-24.413	-0.181	0.109
-370.785	-134.359	-0.136	0.017
-369.771	-41.870	-0.244	-0.126
-368.756	-200.000	-0.023	0.163
-367.742	-151.494	-0.260	0.020
-366.727	36.400	-0.127	-0.114
-365.712	27.980	-0.192	0.164
-364.698	-88.208	0.596	0.180
-363.683	-80.431	-0.105	-0.035
-362.669	-52.580	-0.094	0.044
-361.654	-63.726	-0.210	0.087
-360.639	573.232	0.060	-0.148
-359.625	96.894	0.282	-0.327
-358.610	-7.393	-0.085	0.058
-357.596	722.163	0.014	-0.037
-356.581	171.057	-0.098	0.142
-355.566	445.516	-0.015	-0.033
-354.552	75.870	-0.104	-0.111
-353.537	207.652	0.148	-0.233
-352.523	105.860	0.244	-0.292
-351.508	-38.320	-0.306	-0.164
-350.493	-117.139	-0.262	0.048
-349.479	-120.873	0.389	-0.066
-348.464	350.299	-0.085	-0.170
-347.450	-125.285	0.099	-0.015
-346.435	131.260	0.013	-0.016
-345.420	77.076	-0.067	0.072
-344.406	31.810	-0.102	-0.089
-343.391	-26.480	-0.210	-0.124
-342.377	247.292	-0.107	0.183
-341.362	7.852	0.066	-0.050
-340.348	-129.436	-0.156	-0.022
-339.333	800.000	-0.056	0.239
-338.318	-200.000	0.003	0.016
-337.304	-182.399	-0.130	-0.002
-336.289	-25.903	0.162	0.097
-335.275	-28.387	0.083	-0.048
-334.260	160.422	-0.173	0.244
-333.245	-76.529	0.224	0.080
-332.231	-200.000	0.059	0.265
-331.216	175.701	-0.111	0.163
-330.202	-127.723	-0.255	-0.037
-329.187	-2.291	0.135	0.096
-328.172	-200.000	0.007	-0.368
-327.158	117.129	-0.156	-0.193
-326.143	-144.261	-0.058	-0.005
-325.129	742.400	-0.075	-0.205
-324.114	482.120	0.048	0.109
-323.099	-74.453	-0.178	-0.065
-322.085	235.482	0.016	-0.026
-321.070	93.737	0.282	0.323
-320.056	164.232	-0.139	0.197
-319.041	53.831	-0.066	0.064
-318.026	800.000	0.032	-0.107
-317.012	704.838	0.133	0.356
-315.997	189.079	0.187	0.283
-314.983	-180.339	0.235	-0.005
-313.968	-98.417	-0.428	-0.111
-312.953	97.530	-0.250	-0.290
-311.939	-42.174	0.299	-0.154
-310.924	-131.105	0.135	-0.018
-309.910	32.095	-0.275	0.239
-308.895	800.000	0.107	0.319
-307.880	-4.885	0.090	-0.062
-306.866	188.698	-0.304	-0.459
-305.851	800.000	-0.091	-0.326
-304.837	-200.000	-0.023	0.320
-303.822	-54.537	0.168	0.077
-302.807	-200.000	-0.044	0.227
-301.793	800.000	-0.105	-0.383
-300.778	514.363	-0.044	-0.104
-299.764	-64.194	0.161	0.066
-298.749	-110.727	0.253	0.053
-297.735	208.208	-0.160	-0.253
-296.720	-54.251	-0.226	-0.103
-295.705	-2.201	0.162	-0.115
-294.691	200.082	0.117	-0.181
-293.676	140.222	-0.134	-0.178
-292.662	125.666	0.181	-0.231
-291.647	79.138	-0.201	-0.218
-290.632	-82.593	0.032	0.010
-289.618	3.360	0.120	0.088
-288.603	-40.231	0.300	0.158
-287.589	20.040	0.094	0.076
-286.574	-200.000	0.045	-0.241
-285.559	61.108	0.039	0.039
-284.545	509.990	0.063	-0.148
-283.530	-137.127	-0.146	0.017
-282.516	-73.398	-0.294	-0.108
-281.501	-139.951	0.280	0.030
-280.486	-0.856	-0.108	-0.077
-279.472	-200.000	-0.006	0.225
-278.457	408.737	-0.027	-0.058
-277.443	800.000	0.046	-0.163
-276.428	800.000	0.040	-0.140
-275.413	84.787	-0.224	0.247
-274.399	351.319	0.113	0.226
-273.384	-8.532	0.186	0.126
-272.370	647.309	-0.080	0.206
-271.355	-127.938	0.157	-0.023
-270.340	-65.793	-0.153	-0.062
-269.326	-104.208	0.123	-0.029
-268.311	800.000	0.013	-0.046
-267.297	-200.000	0.025	-0.169
-266.282	-200.000	-0.004	-0.169
-265.267	172.978	0.074	0.107
-264.253	-200.000	0.031	-0.433
-263.238	-200.000	-0.000	-0.228
-262.224	-200.000	-0.060	0.535
-261.209	27.865	-0.305	-0.259
-260.195	-66.473	-0.188	-0.075
-259.180	-200.000	0.010	-0.100
-258.165	72.784	-0.136	-0.143
-257.151	-73.054	0.166	-0.061
-256.136	5.499	-0.183	-0.136
-255.122	127.592	0.106	0.136
-254.107	-200.000	-0.005	-0.082
-253.092	-200.000	0.018	0.156
-252.078	-43.389	-0.181	0.092
-251.063	55.972	0.245	-0.240
-250.049	638.392	-0.141	0.361
-249.034	-170.256	0.163	0.006
-248.019	-23.881	-0.370	-0.223
-247.005	-10.280	-0.138	-0.092
-245.990	434.245	0.074	-0.163
-244.976	-35.719	-0.064	-0.035
-243.961	-16.786	0.254	0.162
-242.946	-200.000	-0.011	-0.062
-241.932	-141.488	-0.104	-0.011
-240.917	687.702	0.128	0.336
-239.903	728.278	0.113	-0.303
-238.888	-137.492	-0.237	0.027
-237.873	470.793	-0.132	0.298
-236.859	36.552	-0.100	-0.089
-235.844	-184.512	0.069	0.001
-234.830	169.500	0.032	0.046
-233.815	-24.893	0.072	0.043
-232.800	29.250	0.058	0.049
-231.786	-65.619	0.169	-0.068
-230.771	-49.409	-0.087	-0.042
-229.757	199.301	-0.187	0.288
-228.742	288.758	-0.026	0.047
-227.727	800.000	0.079	0.274
-226.713	-95.708	0.160	-0.043
-225.698	-200.000	0.034	0.183
-224.684	760.898	-0.052	0.143
-223.669	-174.913	0.170	-0.005
-222.655	800.000	-0.122	-0.358
-221.640	0.291	-0.166	0.119
-220.625	70.506	-0.109	0.114
-219.611	209.901	0.163	-0.258
-218.596	531.990	0.095	-0.225
-217.582	182.628	-0.063	0.093
-216.567	-127.190	0.471	-0.069
-215.552	356.634	0.157	0.314
-214.538	800.000	0.136	0.432
-213.523	76.418	0.443	-0.472
-212.509	-72.952	0.249	-0.092
-211.494	-16.576	-0.080	0.051
-210.479	-60.481	-0.089	-0.038
-209.465	-109.212	-0.142	-0.030
-208.450	-76.676	0.140	-0.049
-207.436	800.000	0.088	-0.291
-206.421	-76.237	-0.123	0.044
-205.406	-200.000	-0.047	-0.292
-204.392	-129.476	0.258	-0.036
-203.377	63.484	0.061	0.062
-202.363	257.985	-0.098	0.169
-201.348	-84.750	0.325	0.103
-200.333	-200.000	0.019	0.168
-199.319	-75.474	-0.328	0.118
-198.304	-169.262	-0.188	-0.007
-197.290	435.739	-0.089	0.194
-196.275	-200.000	0.018	0.157
-195.260	-134.835	-0.269	0.033
-194.246	-200.000	0.016	0.218
-193.231	-155.232	0.316	-0.021
-192.217	210.424	-0.128	-0.202
-191.202	-200.000	-0.058	-0.351
-190.187	128.394	-0.067	0.086
-189.173	-15.644	-0.277	-0.177
-188.158	-66.429	0.134	-0.054
-187.144	800.000	-0.047	0.149
-186.129	-200.000	0.018	-0.332
-185.114	288.754	-0.087	0.158
-184.100	9.652	0.089	0.067
-183.085	372.497	0.201	0.411
-182.071	174.992	0.045	0.066
-181.056	-75.701	0.307	-0.109
-180.042	107.543	0.106	0.126
-179.027	-200.000	-0.012	0.473
-178.012	121.504	-0.104	0.130
-176.998	800.000	-0.021	-0.062
-175.983	-56.887	0.100	-0.044
-174.969	243.056	0.092	0.155
-173.954	-38.089	-0.240	-0.128
-172.939	-15.267	0.394	-0.253
-171.925	169.372	0.088	-0.127
-170.910	-8.268	-0.243	0.164
-169.896	250.917	-0.184	-0.314
-168.881	800.000	0.002	-0.007
-167.866	-200.000	-0.029	0.413
-166.852	-86.934	0.385	-0.118
-165.837	357.819	-0.060	0.119
-164.823	-85.449	0.199	0.062
-163.808	-80.655	-0.503	0.168
-162.793	800.000	0.087	0.270
-161.779	-51.512	0.104	-0.049
-160.764	-200.000	-0.025	0.154
-159.750	800.000	0.055	0.174
-158.735	-108.542	-0.201	-0.043
-157.720	49.119	0.202	0.190
-156.706	-25.043	-0.362	-0.215
-155.691	22.360	0.135	0.111
-154.677	-110.966	-0.167	0.034
-153.662	240.023	-0.063	0.105
-152.647	-151.360	-0.195	-0.015
-151.633	258.614	-0.091	0.157
-150.618	109.141	0.054	-0.064
-149.604	-148.871	-0.331	-0.027
-148.589	347.297	-0.283	-0.559
-147.574	380.509	-0.073	0.151
-146.560	-200.000	-0.011	-0.097
-145.545	-200.000	0.014	-0.146
-144.531	-200.000	-0.005	0.041
-143.516	86.269	0.180	-0.199
-142.502	731.483	0.042	0.113
-141.487	-123.306	0.088	-0.014
-140.472	-9.390	-0.185	-0.124
-139.458	179.386	-0.156	0.229
-138.443	-53.769	-0.196	-0.090
-137.429	247.528	-0.063	-0.107
-136.414	75.368	0.080	-0.085
-135.399	217.487	-0.080	0.127
-134.385	-109.978	-0.283	-0.060
-133.370	-200.000	-0.052	0.526
-132.356	-59.231	0.197	-0.085
-131.341	800.000	-0.072	0.222
-130.326	-109.725	-0.220	-0.046
-129.312	-93.409	0.209	0.058
-128.297	-64.200	-0.324	0.133
-127.283	15.518	0.071	0.056
-126.268	273.470	0.091	0.162
-125.253	-67.126	-0.080	0.032
-124.239	243.589	0.107	-0.180
-123.224	12.945	0.213	0.165
-122.210	319.659	-0.044	-0.085
-121.195	-57.745	0.230	0.101
