DTS Sentinel unit serial number:	SN413079Multiplexer serial number:	ORYXHardware model number:	OX4-SRSoftware version number:	ORYX F/W v4.00 Oryx Data Collector v3.7.2.0data status	okinstallation	princeton_trtdifferential loss correction	single-endedforward channel	channel 2reverse channel	N/Adate	2019/09/14time	21:27:34forward acquisition time	60.00reverse acquisition time	0.00gamma	496.2192k internal	0.2323k external	0.2323temperature offset calibration	1.0074default loss term (dB/km)	0.3790temperature slope calibration	1.0000multiplexer offset coefficient	1.0000multiplexer slope coefficient	1.0000fibre end	0.00T internal ref (°C)	32.87T ext. ref 1 (°C)	4.77T ext. ref 2 (°C)	27.73length (m)	temperature (°C)	Stokes	anti-Stokes-747.200	15.258	-0.195	0.154
-746.185	-200.000	0.022	0.220
-745.171	-200.000	-0.003	0.128
-744.156	-200.000	0.049	0.271
-743.142	-46.636	0.164	-0.081
-742.127	57.806	0.243	0.240
-741.112	-89.820	0.134	-0.040
-740.098	219.752	-0.108	0.175
-739.083	-49.760	-0.171	0.082
-738.069	-1.970	-0.171	0.121
-737.054	33.121	0.215	0.188
-736.039	87.911	-0.117	0.131
-735.025	-200.000	0.016	-0.126
-734.010	199.542	0.154	0.238
-732.996	800.000	-0.042	-0.162
-731.981	189.852	0.109	-0.165
-730.966	800.000	0.019	0.061
-729.952	-67.977	-0.159	-0.063
-728.937	-12.286	-0.180	-0.119
-727.923	80.794	0.059	-0.064
-726.908	800.000	-0.128	-0.465
-725.894	800.000	-0.065	0.219
-724.879	-13.775	-0.263	-0.172
-723.864	-104.809	-0.332	0.077
-722.850	-63.952	-0.453	-0.187
-721.835	116.433	-0.108	-0.133
-720.821	-47.662	-0.117	0.058
-719.806	28.457	0.080	0.068
-718.791	100.416	0.092	-0.108
-717.777	300.448	0.032	0.060
-716.762	-103.034	0.194	-0.046
-715.748	800.000	-0.085	-0.309
-714.733	-144.063	0.125	0.012
-713.718	576.784	0.176	-0.433
-712.704	6.773	-0.189	0.142
-711.689	359.853	-0.172	0.347
-710.675	-200.000	0.033	0.231
-709.660	-4.291	0.198	0.138
-708.645	-178.188	-0.027	-0.001
-707.631	225.871	0.110	-0.180
-706.616	-107.959	0.050	-0.011
-705.602	97.890	-0.169	-0.196
-704.587	69.421	-0.314	-0.326
-703.572	-200.000	0.015	0.075
-702.558	-105.392	-0.288	-0.066
-701.543	95.898	-0.049	-0.056
-700.529	381.381	0.114	-0.236
-699.514	-200.000	0.047	0.306
-698.499	165.586	-0.152	-0.216
-697.485	334.029	0.086	-0.168
-696.470	-60.628	0.128	-0.055
-695.456	-115.399	0.140	-0.027
-694.441	272.159	-0.112	0.199
-693.426	163.817	-0.157	0.222
-692.412	301.959	0.042	-0.078
-691.397	-200.000	0.004	0.106
-690.383	800.000	0.053	-0.212
-689.368	-107.508	-0.250	0.055
-688.354	-200.000	-0.048	-0.272
-687.339	-126.106	-0.346	0.052
-686.324	636.353	-0.047	-0.120
-685.310	110.692	-0.195	-0.237
-684.295	-110.244	0.094	-0.020
-683.281	-56.624	-0.091	0.041
-682.266	-86.668	-0.063	0.020
-681.251	288.853	-0.094	-0.171
-680.237	88.344	-0.063	-0.070
-679.222	-200.000	-0.012	0.222
-678.208	-65.078	0.366	0.149
-677.193	-128.732	0.297	0.042
-676.178	11.479	-0.190	-0.147
-675.164	800.000	-0.081	0.243
-674.149	367.475	0.057	0.116
-673.135	-127.799	0.286	-0.042
-672.120	64.602	0.013	-0.013
-671.105	-125.538	0.495	-0.076
-670.091	-63.020	0.113	0.047
-669.076	-2.472	-0.162	-0.114
-668.062	406.048	0.134	-0.284
-667.047	171.039	-0.103	-0.149
-666.032	-78.055	-0.174	0.060
-665.018	13.190	0.073	-0.057
-664.003	492.255	-0.059	-0.136
-662.989	527.364	-0.027	0.064
-661.974	357.286	-0.120	-0.240
-660.959	-200.000	0.021	-0.243
-659.945	-58.150	0.144	0.063
-658.930	-95.490	-0.353	-0.095
-657.916	-81.186	-0.197	-0.066
-656.901	-196.101	0.035	0.000
-655.886	787.841	0.052	0.143
-654.872	800.000	-0.087	-0.360
-653.857	65.125	-0.128	0.131
-652.843	800.000	0.021	0.060
-651.828	64.273	0.152	-0.154
-650.814	-200.000	0.003	0.092
-649.799	-62.572	-0.218	-0.091
-648.784	800.000	0.028	-0.116
-647.770	-35.938	-0.266	-0.145
-646.755	-136.608	0.223	0.026
-645.741	-29.923	-0.385	-0.221
-644.726	-5.499	-0.134	0.092
-643.711	-7.568	0.105	-0.071
-642.697	55.484	0.337	0.328
-641.682	24.297	0.303	-0.251
-640.668	327.066	0.060	0.117
-639.653	-200.000	-0.057	0.280
-638.638	33.959	0.218	0.191
-637.624	312.138	0.119	0.224
-636.609	-105.559	0.288	-0.066
-635.595	-200.000	0.002	-0.127
-634.580	37.992	-0.146	-0.130
-633.565	157.191	0.202	0.281
-632.551	-46.843	0.240	-0.118
-631.536	-11.715	-0.201	-0.133
-630.522	-200.000	-0.026	0.221
-629.507	191.744	0.318	-0.482
-628.492	-44.552	0.121	-0.061
-627.478	-92.683	-0.144	-0.041
-626.463	-107.610	0.302	0.066
-625.449	-200.000	-0.009	-0.113
-624.434	-200.000	0.076	-0.339
-623.419	80.617	-0.015	-0.016
-622.405	-162.049	0.206	-0.010
-621.390	-200.000	0.028	-0.319
-620.376	78.497	-0.078	-0.084
-619.361	800.000	0.133	-0.473
-618.346	-121.369	0.237	-0.040
-617.332	-79.584	0.126	-0.043
-616.317	-121.302	0.228	0.038
-615.303	-75.652	0.275	-0.098
-614.288	-200.000	0.006	-0.047
-613.273	-44.343	0.196	-0.099
-612.259	167.637	0.067	-0.095
-611.244	-41.035	-0.158	-0.082
-610.230	-200.000	0.045	0.263
-609.215	141.967	-0.171	0.227
-608.201	64.612	0.210	0.212
-607.186	-200.000	-0.015	-0.265
-606.171	-200.000	-0.024	-0.207
-605.157	-54.633	0.219	-0.100
-604.142	-65.702	0.083	-0.033
-603.128	-200.000	-0.039	0.289
-602.113	-80.609	0.508	0.170
-601.098	-132.948	0.203	0.026
-600.084	800.000	0.086	0.291
-599.069	-200.000	0.065	0.320
-598.055	800.000	-0.049	-0.137
-597.040	-200.000	-0.012	0.206
-596.025	800.000	-0.040	-0.128
-595.011	-36.164	-0.264	-0.143
-593.996	-37.043	0.197	-0.106
-592.982	-162.726	-0.179	-0.009
-591.967	219.527	-0.143	0.230
-590.952	335.799	-0.190	-0.371
-589.938	264.053	0.079	0.138
-588.923	-88.640	0.129	-0.038
-587.909	-200.000	0.019	0.133
-586.894	-137.954	0.232	-0.026
-585.879	-82.535	0.124	-0.040
-584.865	4.203	0.265	0.195
-583.850	468.741	-0.134	0.301
-582.836	800.000	0.091	0.313
-581.821	794.305	-0.105	0.291
-580.806	-200.000	0.011	0.265
-579.792	-173.454	-0.111	0.003
-578.777	-80.114	-0.391	0.131
-577.763	-37.020	-0.085	0.045
-576.748	-16.464	0.201	0.128
-575.733	-140.945	-0.309	0.032
-574.719	800.000	0.048	0.146
-573.704	-98.130	0.282	0.073
-572.690	-0.981	0.180	-0.128
-571.675	-115.309	0.042	-0.008
-570.661	-84.992	-0.063	0.020
-569.646	-200.000	-0.050	-0.252
-568.631	-152.557	-0.306	-0.022
-567.617	19.150	-0.212	0.171
-566.602	17.072	0.156	0.124
-565.588	-70.105	-0.142	0.054
-564.573	-18.251	0.347	0.218
-563.558	800.000	0.049	0.144
-562.544	-86.232	0.121	0.037
-561.529	79.945	0.090	0.097
-560.515	201.055	0.088	-0.136
-559.500	-125.234	-0.336	-0.052
-558.485	800.000	0.090	0.265
-557.471	-200.000	0.052	-0.268
-556.456	800.000	0.119	0.418
-555.442	-148.162	0.283	-0.023
-554.427	-16.222	0.202	0.128
-553.412	195.496	0.290	-0.441
-552.398	-11.029	-0.098	-0.065
-551.383	-200.000	0.017	0.242
-550.369	-26.121	-0.045	0.027
-549.354	-136.497	-0.173	0.020
-548.339	412.126	0.083	0.177
-547.325	-200.000	-0.011	-0.129
-546.310	12.337	0.199	-0.154
-545.296	-105.690	-0.037	-0.008
-544.281	800.000	-0.028	0.106
-543.266	-142.726	0.218	0.021
-542.252	-52.568	0.071	0.033
-541.237	800.000	-0.123	-0.357
-540.223	-200.000	0.005	0.116
-539.208	-6.121	-0.164	-0.112
-538.193	-180.489	-0.238	-0.005
-537.179	132.521	0.071	0.092
-536.164	-129.187	0.114	0.016
-535.150	-152.564	0.361	-0.026
-534.135	-102.622	-0.432	-0.103
-533.121	-200.000	0.045	-0.215
-532.106	-145.499	-0.127	0.011
-531.091	503.239	0.081	0.187
-530.077	176.307	0.154	-0.224
-529.062	407.899	-0.074	-0.156
-528.048	80.664	0.092	-0.100
-527.033	-200.000	0.114	-0.593
-526.018	114.883	-0.091	0.111
-525.004	36.819	0.176	0.156
-523.989	800.000	0.034	-0.097
-522.975	143.549	-0.036	0.048
-521.960	34.436	-0.117	0.102
-520.945	98.508	0.119	0.138
-519.931	67.828	0.275	-0.281
-518.916	-64.606	-0.142	0.057
-517.902	-200.000	-0.055	0.287
-516.887	-82.880	-0.371	0.120
-515.872	-17.387	-0.060	-0.038
-514.858	716.925	0.123	0.328
-513.843	-131.585	-0.234	0.031
-512.829	-12.727	0.200	0.130
-511.814	800.000	-0.045	0.177
-510.799	192.978	0.258	-0.390
-509.785	-68.019	-0.084	0.033
-508.770	-200.000	0.047	0.255
-507.756	53.902	0.243	0.234
-506.741	-200.000	0.010	-0.239
-505.726	87.834	0.079	0.087
-504.712	316.190	0.059	0.112
-503.697	216.580	-0.196	-0.312
-502.683	800.000	0.045	0.157
-501.668	-100.686	-0.284	0.070
-500.653	800.000	-0.025	0.096
-499.639	-84.228	-0.169	0.053
-498.624	223.928	-0.074	0.120
-497.610	342.991	0.093	0.182
-496.595	89.530	-0.045	0.050
-495.581	-34.233	-0.378	-0.208
-494.566	307.149	-0.060	0.112
-493.551	240.557	-0.012	-0.019
-492.537	-200.000	-0.068	-0.305
-491.522	-83.943	-0.396	0.126
-490.508	-87.760	-0.086	-0.026
-489.493	576.020	-0.094	-0.229
-488.478	-158.272	0.075	-0.004
-487.464	-200.000	0.079	0.427
-486.449	-97.617	-0.367	-0.095
-485.435	-200.000	0.097	-0.450
-484.420	-66.216	-0.084	-0.033
-483.405	-129.599	0.088	0.012
-482.391	161.793	0.048	-0.067
-481.376	-200.000	0.058	0.278
-480.362	53.792	-0.086	-0.082
-479.347	-16.278	0.161	-0.102
-478.332	-170.758	-0.248	0.009
-477.318	-138.406	0.243	0.027
-476.303	160.698	-0.103	0.144
-475.289	-131.422	-0.047	0.006
-474.274	138.553	0.019	0.024
-473.259	800.000	0.059	-0.177
-472.245	-200.000	0.047	0.316
-471.230	424.836	-0.065	0.139
-470.216	-200.000	-0.061	-0.505
-469.201	130.832	-0.081	0.104
-468.186	295.807	0.062	-0.113
-467.172	86.586	0.136	-0.150
-466.157	-64.496	-0.234	-0.095
-465.143	-110.272	-0.201	-0.042
-464.128	11.680	0.137	-0.105
-463.113	347.660	0.099	-0.195
-462.099	40.005	0.228	0.204
-461.084	181.856	-0.052	0.077
-460.070	-119.479	-0.213	-0.037
-459.055	-112.195	-0.154	0.031
-458.040	-200.000	0.017	0.173
-457.026	624.027	-0.022	0.056
-456.011	-200.000	-0.017	-0.175
-454.997	55.153	0.102	0.099
-453.982	-87.704	-0.124	0.037
-452.968	240.911	-0.073	-0.121
-451.953	-46.594	0.240	0.118
-450.938	-145.594	0.232	0.021
-449.924	-96.173	0.402	0.106
-448.909	-200.000	0.020	0.174
-447.895	21.553	0.191	-0.155
-446.880	665.283	0.060	0.156
-445.865	-146.759	-0.146	0.013
-444.851	-165.796	0.341	0.015
-443.836	-142.742	-0.194	-0.019
-442.822	-33.349	-0.065	-0.036
-441.807	81.503	0.056	0.061
-440.792	277.985	-0.024	0.042
-439.778	9.263	0.166	-0.125
-438.763	332.397	0.215	-0.415
-437.749	-24.980	-0.159	0.094
-436.734	24.844	0.267	0.220
-435.719	81.610	0.237	0.256
-434.705	-16.187	-0.241	0.153
-433.690	147.178	0.303	0.406
-432.676	-50.711	0.172	-0.081
-431.661	208.984	-0.052	0.080
-430.646	72.155	-0.365	-0.380
-429.632	-52.687	0.370	0.170
-428.617	-47.722	-0.261	-0.126
-427.603	648.907	0.044	0.113
-426.588	135.135	-0.100	0.130
-425.573	-200.000	-0.001	-0.172
-424.559	-70.551	0.168	-0.064
-423.544	131.358	-0.306	0.392
-422.530	104.740	0.047	-0.055
-421.515	-200.000	0.001	-0.224
-420.500	-75.101	-0.150	-0.053
-419.486	-200.000	0.025	-0.256
-418.471	326.844	-0.107	0.204
-417.457	-21.731	-0.375	-0.228
-416.442	414.807	0.054	0.115
-415.428	-200.000	0.038	-0.270
-414.413	-24.653	-0.212	-0.125
-413.398	4.430	0.160	-0.117
-412.384	-31.260	-0.126	0.071
-411.369	800.000	-0.016	0.061
-410.355	-200.000	0.009	0.144
-409.340	9.774	-0.262	-0.198
-408.325	433.253	-0.128	-0.277
-407.311	-117.488	0.158	-0.029
-406.296	93.503	0.058	-0.066
-405.282	105.728	0.218	-0.257
-404.267	-81.697	0.133	-0.043
-403.252	147.704	0.047	-0.063
-402.238	-109.322	-0.223	-0.047
-401.223	363.542	0.094	0.189
-400.209	-142.787	0.227	-0.022
-399.194	40.179	-0.160	-0.143
-398.179	724.694	-0.038	-0.100
-397.165	228.262	-0.085	-0.139
-396.150	61.992	-0.219	0.218
-395.136	-200.000	0.006	0.277
-394.121	-200.000	0.027	-0.208
-393.106	-100.063	-0.357	-0.089
-392.092	-102.346	-0.224	0.053
-391.077	-15.082	-0.181	0.115
-390.063	257.981	0.073	0.126
-389.048	-200.000	-0.002	0.155
-388.033	626.392	-0.011	-0.028
-387.019	-69.744	0.417	-0.159
-386.004	333.708	-0.079	0.153
-384.990	800.000	0.092	-0.323
-383.975	-95.283	-0.086	0.023
-382.960	528.047	-0.084	0.198
-381.946	-75.856	0.220	0.078
-380.931	328.098	-0.136	0.259
-379.917	-144.360	0.319	-0.030
-378.902	-73.126	-0.129	-0.047
-377.888	38.991	0.123	-0.110
-376.873	-200.000	-0.011	-0.237
-375.858	-169.702	-0.283	0.010
-374.844	-147.038	0.149	0.013
-373.829	-122.983	0.176	0.028
-372.815	-72.415	-0.123	-0.045
-371.800	28.569	0.126	0.106
-370.785	-178.041	-0.247	-0.006
-369.771	207.421	0.064	-0.100
-368.756	-200.000	-0.012	0.100
-367.742	-15.839	0.264	0.167
-366.727	-45.819	0.271	0.133
-365.712	800.000	0.128	-0.400
-364.698	-40.970	0.135	-0.070
-363.683	-200.000	-0.008	-0.093
-362.669	215.388	-0.065	-0.103
-361.654	-19.595	0.271	-0.167
-360.639	-103.441	-0.360	0.084
-359.625	-125.591	0.180	-0.027
-358.610	-71.237	-0.355	0.132
-357.596	49.101	0.099	-0.092
-356.581	-52.964	0.179	0.082
-355.566	639.511	0.079	-0.199
-354.552	394.219	-0.125	0.260
-353.537	-24.655	-0.308	0.182
-352.523	44.036	0.155	-0.141
-351.508	307.855	-0.082	0.152
-350.493	-16.109	-0.194	-0.123
-349.479	704.140	-0.081	0.212
-348.464	115.172	-0.090	0.110
-347.450	-71.954	0.197	0.073
-346.435	-200.000	-0.052	-0.236
-345.420	65.160	-0.158	-0.158
-344.406	-146.113	-0.076	0.007
-343.391	-200.000	0.029	-0.131
-342.377	105.331	0.096	-0.113
-341.362	-43.406	-0.169	0.085
-340.348	800.000	0.044	-0.168
-339.333	-149.163	-0.099	-0.008
-338.318	25.908	0.141	0.117
-337.304	-200.000	0.003	-0.275
-336.289	-96.590	0.247	0.065
-335.275	43.026	-0.230	-0.208
-334.260	-40.842	-0.092	0.047
-333.245	-61.216	0.072	-0.030
-332.231	800.000	-0.080	-0.302
-331.216	-126.416	0.240	-0.035
-330.202	242.248	0.165	-0.275
-329.187	108.962	0.126	0.150
-328.172	349.245	0.059	0.116
-327.158	-2.436	-0.075	0.052
-326.143	-189.799	-0.350	0.004
-325.129	-47.689	-0.039	0.019
-324.114	-110.722	-0.176	-0.036
-323.099	-127.101	-0.400	-0.058
-322.085	-200.000	-0.035	-0.164
-321.070	800.000	-0.017	-0.049
-320.056	354.770	0.086	-0.169
-319.041	800.000	-0.048	0.171
-318.026	518.227	0.059	-0.137
-317.012	-72.847	0.215	0.079
-315.997	-70.856	0.157	0.059
-314.983	500.331	0.137	-0.315
-313.968	-200.000	0.039	0.495
-312.953	800.000	-0.036	0.104
-311.939	266.682	-0.237	-0.411
-310.924	-87.547	-0.239	-0.072
-309.910	-200.000	-0.012	0.150
-308.895	-98.157	0.036	-0.009
-307.880	338.468	0.179	0.345
-306.866	800.000	-0.034	0.121
-305.851	800.000	0.131	0.455
-304.837	-100.664	-0.059	-0.014
-303.822	33.516	-0.187	0.161
-302.807	-101.397	-0.321	0.078
-301.793	-72.946	-0.050	-0.018
-300.778	800.000	-0.071	-0.215
-299.764	-200.000	0.005	0.071
-298.749	-50.699	-0.124	-0.058
-297.735	-13.899	-0.054	0.035
-296.720	-200.000	0.023	-0.116
-295.705	-200.000	-0.051	0.294
-294.691	-181.026	0.490	0.010
-293.676	800.000	-0.100	0.287
-292.662	85.503	-0.207	-0.225
-291.647	-157.088	0.099	-0.006
-290.632	800.000	-0.025	-0.078
-289.618	267.160	-0.069	-0.120
-288.603	91.365	-0.102	0.114
-287.589	-105.047	0.123	-0.028
-286.574	115.527	0.202	0.245
-285.559	-200.000	0.005	-0.088
-284.545	-141.179	0.208	0.021
-283.530	292.979	-0.106	-0.192
-282.516	221.668	-0.101	0.161
-281.501	-39.589	-0.194	-0.101
-280.486	-77.166	0.061	-0.021
-279.472	-200.000	-0.028	0.343
-278.457	35.043	-0.252	0.219
-277.443	-7.412	-0.158	-0.106
-276.428	-200.000	0.025	0.233
-275.413	-3.679	-0.206	0.142
-274.399	-5.689	-0.122	-0.083
-273.384	-14.247	0.057	-0.037
-272.370	-200.000	-0.020	-0.120
-271.355	166.489	0.150	-0.211
-270.340	800.000	0.041	-0.153
-269.326	-200.000	0.007	-0.258
-268.311	-200.000	-0.010	-0.195
-267.297	800.000	-0.070	0.267
-266.282	-200.000	-0.041	0.332
-265.267	-127.511	0.204	-0.029
-264.253	317.167	0.118	-0.221
-263.238	-200.000	-0.011	-0.159
-262.224	-197.798	-0.402	-0.002
-261.209	88.128	-0.150	-0.165
-260.195	13.567	0.136	-0.105
-259.180	564.316	0.081	-0.195
-258.165	800.000	-0.082	-0.246
-257.151	20.445	-0.060	-0.048
-256.136	94.408	-0.126	-0.141
-255.122	26.879	-0.148	0.123
-254.107	-21.542	-0.084	0.051
-253.092	25.122	0.100	0.082
-252.078	14.039	-0.249	-0.192
-251.063	-200.000	0.017	-0.160
-250.049	-200.000	0.027	0.332
-249.034	-79.757	-0.145	-0.048
-248.019	-120.422	-0.272	0.046
-247.005	508.410	-0.048	-0.110
-245.990	-180.029	0.463	0.010
-244.976	-200.000	-0.027	0.197
-243.961	26.304	-0.179	-0.148
-242.946	188.005	-0.049	-0.073
-241.932	88.902	0.282	-0.310
-240.917	-200.000	0.024	0.192
-239.903	-75.101	0.095	-0.034
-238.888	251.587	-0.158	-0.266
-237.873	-200.000	-0.022	0.472
-236.859	-26.715	-0.409	0.237
-235.844	800.000	-0.006	-0.023
-234.830	615.617	0.042	0.104
-233.815	67.940	0.117	0.118
-232.800	-119.220	-0.419	0.072
-231.786	-200.000	-0.030	0.140
-230.771	-200.000	0.022	0.272
-229.757	1.659	-0.212	0.151
-228.742	-200.000	0.023	-0.226
-227.727	708.204	-0.082	-0.214
-226.713	-82.023	-0.115	-0.037
-225.698	166.362	-0.128	-0.179
-224.684	-42.638	0.225	-0.113
-223.669	-200.000	-0.000	0.060
-222.655	195.766	0.209	-0.315
-221.640	233.537	0.080	-0.131
-220.625	-180.253	-0.090	0.002
-219.611	719.518	-0.061	-0.161
-218.596	-200.000	0.031	-0.151
-217.582	-46.816	0.057	0.028
-216.567	-125.559	0.109	-0.016
-215.552	-200.000	-0.032	0.262
-214.538	299.859	-0.115	-0.210
-213.523	-168.900	0.373	-0.014
-212.509	1.173	-0.246	0.175
-211.494	800.000	0.052	-0.150
-210.479	-200.000	-0.019	0.088
-209.465	-200.000	-0.052	-0.265
-208.450	-200.000	-0.037	0.203
-207.436	36.019	-0.256	-0.223
-206.421	-94.051	0.407	-0.110
-205.406	-83.092	0.135	-0.043
-204.392	75.034	0.152	-0.158
-203.377	800.000	0.103	-0.364
-202.363	566.698	0.078	0.188
-201.348	-142.729	0.185	-0.018
-200.333	-200.000	0.081	0.000
-199.319	41.615	-0.393	0.352
-198.304	-168.797	-0.320	-0.012
-197.290	37.170	-0.179	-0.157
-196.275	-10.492	0.087	-0.057
-195.260	274.911	0.174	0.305
-194.246	-118.999	-0.214	0.037
-193.231	86.741	0.251	0.274
-192.217	47.897	0.194	0.180
-191.202	372.782	0.158	0.317
-190.187	-200.000	0.021	-0.318
-189.173	512.427	-0.007	0.016
-188.158	7.729	0.158	0.117
-187.144	1.107	-0.237	0.168
-186.129	800.000	-0.025	-0.107
-185.114	-48.005	0.185	0.088
-184.100	-90.616	0.097	-0.028
-183.085	342.456	0.058	0.112
-182.071	-200.000	-0.002	0.172
-181.056	-76.385	-0.221	-0.077
-180.042	-200.000	-0.017	-0.221
-179.027	-200.000	-0.011	0.099
-178.012	-49.596	-0.275	-0.130
-176.998	-103.346	-0.158	-0.037
-175.983	1.204	-0.259	-0.183
-174.969	85.620	0.074	-0.080
-173.954	-200.000	0.007	0.187
-172.939	-68.468	-0.151	-0.058
-171.925	-149.841	-0.158	0.012
-170.910	275.128	0.160	-0.280
-169.896	223.132	-0.184	-0.294
-168.881	17.350	0.418	0.328
-167.866	-99.139	-0.227	-0.057
-166.852	-95.830	0.364	-0.096
-165.837	193.967	-0.135	-0.202
-164.823	-200.000	0.004	0.105
-163.808	-30.294	-0.362	0.203
-162.793	93.437	-0.264	0.295
-161.779	-122.479	0.213	-0.034
-160.764	-56.336	-0.165	-0.072
-159.750	-200.000	-0.014	-0.219
-158.735	-96.140	0.531	0.139
-157.720	104.918	0.068	0.079
-156.706	-160.506	-0.248	-0.013
-155.691	589.915	-0.124	0.303
-154.677	-174.017	0.065	0.002
-153.662	-200.000	0.010	0.151
-152.647	-53.901	-0.375	0.169
-151.633	-200.000	0.008	0.139
-150.618	800.000	-0.030	-0.124
-149.604	155.889	-0.181	-0.247
-148.589	-62.434	-0.114	0.047
-147.574	69.097	0.128	0.130
-146.560	129.570	0.130	-0.164
-145.545	-105.937	-0.243	0.054
-144.531	5.017	0.174	0.127
-143.516	-63.012	-0.458	-0.186
-142.502	-116.921	0.149	0.027
-141.487	397.808	-0.027	-0.056
-140.472	-74.995	0.149	-0.053
-139.458	-71.960	-0.204	0.075
-138.443	800.000	-0.039	-0.108
-137.429	412.652	0.095	-0.199
-136.414	800.000	0.028	-0.104
-135.399	-4.963	-0.230	-0.156
-134.385	-110.186	0.288	0.059
-133.370	-117.212	0.334	-0.060
-132.356	-112.493	0.385	0.076
-131.341	414.610	0.046	0.096
-130.326	-200.000	0.008	-0.252
-129.312	207.594	0.137	0.211
-128.297	-200.000	-0.010	0.296
-127.283	141.362	0.028	0.036
-126.268	-121.766	-0.063	0.010
-125.253	-200.000	0.011	0.071
-124.239	-77.755	0.146	-0.050
-123.224	68.410	0.173	-0.175
-122.210	-152.810	0.108	0.008
