DTS Sentinel unit serial number:	SN413079Multiplexer serial number:	ORYXHardware model number:	OX4-SRSoftware version number:	ORYX F/W v4.00 Oryx Data Collector v3.7.2.0data status	okinstallation	princeton_trtdifferential loss correction	single-endedforward channel	channel 2reverse channel	N/Adate	2019/09/18time	16:03:35forward acquisition time	60.00reverse acquisition time	0.00gamma	496.2192k internal	0.2304k external	0.2304temperature offset calibration	1.0004default loss term (dB/km)	0.3790temperature slope calibration	1.0000multiplexer offset coefficient	1.0000multiplexer slope coefficient	1.0000fibre end	0.00T internal ref (°C)	37.53T ext. ref 1 (°C)	0.81T ext. ref 2 (°C)	36.98length (m)	temperature (°C)	Stokes	anti-Stokes-747.200	-143.312	0.212	-0.021
-746.185	-74.181	0.229	-0.084
-745.171	-200.000	-0.001	-0.186
-744.156	-62.992	-0.242	-0.102
-743.142	-113.023	-0.236	-0.047
-742.127	-200.000	0.064	0.324
-741.112	361.325	0.063	-0.129
-740.098	-10.362	-0.218	0.147
-739.083	108.362	0.131	-0.159
-738.069	24.258	-0.124	0.104
-737.054	710.348	0.059	-0.159
-736.039	52.249	-0.250	0.243
-735.025	-81.834	0.178	-0.059
-734.010	276.853	0.070	-0.127
-732.996	-148.472	-0.158	-0.013
-731.981	99.725	-0.153	-0.180
-730.966	256.989	-0.153	0.268
-729.952	331.731	-0.136	-0.267
-728.937	-99.013	-0.469	-0.121
-727.923	-173.715	-0.073	0.002
-726.908	120.834	0.154	-0.195
-725.894	-146.301	-0.218	-0.019
-724.879	612.605	-0.047	-0.118
-723.864	369.378	-0.055	0.112
-722.850	-71.655	-0.324	-0.123
-721.835	533.067	-0.080	-0.193
-720.821	80.397	0.032	0.036
-719.806	800.000	0.018	0.052
-718.791	200.942	-0.174	0.272
-717.777	81.646	0.145	-0.159
-716.762	800.000	0.032	-0.140
-715.748	103.950	0.067	-0.080
-714.733	593.804	0.095	-0.238
-713.718	-190.707	0.176	0.002
-712.704	42.761	-0.173	0.160
-711.689	521.330	-0.022	0.053
-710.675	-112.744	-0.272	-0.055
-709.660	698.712	0.060	-0.159
-708.645	800.000	-0.085	-0.291
-707.631	11.398	-0.113	-0.088
-706.616	530.930	0.091	-0.220
-705.602	329.010	-0.091	0.177
-704.587	-200.000	-0.064	-0.294
-703.572	25.738	-0.322	-0.273
-702.558	-136.494	0.489	0.058
-701.543	47.309	0.060	0.057
-700.529	301.931	0.082	-0.154
-699.514	601.049	0.022	-0.056
-698.499	29.880	-0.106	0.092
-697.485	-200.000	-0.195	0.000
-696.470	-105.854	-0.128	-0.029
-695.456	-200.000	-0.033	-0.341
-694.441	800.000	-0.076	-0.253
-693.426	38.178	-0.061	-0.055
-692.412	-200.000	-0.020	-0.330
-691.397	-86.461	-0.277	-0.086
-690.383	17.375	-0.081	-0.066
-689.368	539.357	-0.027	0.065
-688.354	439.233	0.036	0.080
-687.339	800.000	-0.079	0.242
-686.324	-43.449	0.098	-0.050
-685.310	35.076	-0.197	0.176
-684.295	-27.602	-0.276	-0.163
-683.281	798.336	-0.129	-0.362
-682.266	-200.000	-0.013	0.088
-681.251	800.000	0.067	-0.221
-680.237	-82.723	0.096	0.031
-679.222	-200.000	0.049	0.233
-678.208	-58.392	-0.470	-0.208
-677.193	800.000	-0.038	-0.142
-676.178	482.950	0.172	-0.397
-675.164	-84.761	0.142	-0.045
-674.149	-101.845	0.258	0.063
-673.135	-133.012	-0.110	0.014
-672.120	800.000	-0.084	-0.277
-671.105	97.853	-0.096	-0.112
-670.091	-37.374	-0.054	-0.029
-669.076	279.700	-0.160	0.289
-668.062	128.057	0.107	-0.138
-667.047	441.654	-0.170	-0.379
-666.032	-113.190	-0.244	-0.049
-665.018	483.615	-0.013	-0.031
-664.003	-133.624	0.178	-0.023
-662.989	-20.569	0.374	0.233
-661.974	405.706	0.077	-0.165
-660.959	133.139	0.089	-0.116
-659.945	-125.997	-0.217	0.033
-658.930	-53.350	-0.362	-0.168
-657.916	-200.000	-0.005	-0.197
-656.901	720.404	-0.068	-0.183
-655.886	458.967	0.114	-0.258
-654.872	-134.962	-0.264	0.032
-653.857	199.270	-0.161	0.251
-652.843	-112.314	0.398	0.081
-651.828	-16.709	0.158	0.101
-650.814	-200.000	-0.014	-0.158
-649.799	102.043	0.135	0.159
-648.784	-21.941	-0.252	-0.156
-647.770	-73.088	0.244	0.091
-646.755	-200.000	0.028	0.237
-645.741	-50.183	-0.223	-0.107
-644.726	43.464	-0.323	0.299
-643.711	-29.568	0.272	-0.157
-642.697	463.020	0.122	-0.275
-641.682	-167.290	0.180	0.007
-640.668	432.998	0.031	-0.069
-639.653	661.247	0.043	0.112
-638.638	-200.000	0.034	0.223
-637.624	-124.794	-0.060	0.009
-636.609	464.277	0.167	-0.379
-635.595	-200.000	0.026	0.281
-634.580	800.000	0.025	-0.070
-633.565	386.727	0.086	0.179
-632.551	-104.372	0.280	0.066
-631.536	-96.386	-0.344	0.092
-630.522	-100.352	0.354	0.089
-629.507	-5.389	-0.201	-0.140
-628.492	-200.000	-0.001	-0.031
-627.478	46.199	0.107	0.101
-626.463	800.000	0.020	-0.062
-625.449	462.711	-0.096	-0.216
-624.434	-200.000	-0.008	0.129
-623.419	-200.000	-0.035	0.322
-622.405	-200.000	0.005	-0.230
-621.390	-200.000	-0.005	0.162
-620.376	71.005	-0.153	0.161
-619.361	-21.723	0.305	-0.188
-618.346	-130.006	-0.455	0.063
-617.332	-110.951	0.287	0.060
-616.317	-128.725	0.298	0.043
-615.303	-19.992	0.109	-0.068
-614.288	-200.000	0.008	-0.327
-613.273	-191.958	-0.098	0.001
-612.259	611.946	-0.090	-0.228
-611.244	170.957	-0.117	0.170
-610.230	29.382	0.234	0.201
-609.215	43.911	0.148	0.138
-608.201	311.887	-0.075	0.142
-607.186	246.922	0.143	0.245
-606.171	78.328	0.239	0.258
-605.157	-15.233	-0.100	0.065
-604.142	-14.413	0.105	-0.068
-603.128	-200.000	-0.003	0.155
-602.113	-20.292	-0.187	0.116
-601.098	-132.020	0.039	0.005
-600.084	577.395	0.069	0.171
-599.069	-200.000	0.010	-0.173
-598.055	-125.751	-0.172	0.026
-597.040	216.281	-0.089	-0.142
-596.025	800.000	-0.027	0.093
-595.011	-33.124	0.224	0.126
-593.996	517.083	-0.139	0.328
-592.982	-47.181	0.242	0.119
-591.967	-178.824	-0.181	-0.004
-590.952	800.000	-0.067	0.206
-589.938	162.462	0.118	0.168
-588.923	-128.578	-0.435	-0.062
-587.909	374.607	-0.180	-0.372
-586.894	800.000	0.041	-0.153
-585.879	-109.043	-0.101	-0.022
-584.865	-169.508	-0.187	-0.007
-583.850	135.010	-0.265	-0.348
-582.836	37.625	0.037	-0.033
-581.821	237.738	0.180	0.303
-580.806	-200.000	0.108	-0.522
-579.792	-200.000	-0.002	0.152
-578.777	237.386	0.132	0.222
-577.763	264.070	-0.152	0.267
-576.748	-132.262	-0.065	-0.009
-575.733	-151.077	0.119	0.009
-574.719	50.459	-0.179	0.171
-573.704	-200.000	-0.035	0.170
-572.690	800.000	0.028	-0.125
-571.675	-200.000	-0.021	0.114
-570.661	551.922	-0.105	0.254
-569.646	-68.323	-0.175	0.069
-568.631	-18.262	-0.258	-0.163
-567.617	-200.000	-0.037	0.242
-566.602	-99.306	-0.157	0.040
-565.588	800.000	-0.099	-0.374
-564.573	-200.000	0.001	0.114
-563.558	462.194	0.079	-0.177
-562.544	-6.190	0.050	-0.035
-561.529	99.341	0.184	-0.215
-560.515	157.832	0.128	-0.180
-559.500	-64.246	0.095	0.039
-558.485	-14.660	-0.144	0.093
-557.471	-88.997	-0.143	-0.043
-556.456	503.453	-0.130	-0.305
-555.442	-117.838	0.463	-0.084
-554.427	-200.000	-0.029	0.217
-553.412	-12.323	0.196	0.130
-552.398	-178.388	-0.236	0.006
-551.383	271.723	0.135	0.240
-550.369	-200.000	0.021	-0.100
-549.354	-68.488	-0.407	0.159
-548.339	-116.934	0.228	-0.042
-547.325	31.121	-0.071	-0.061
-546.310	800.000	-0.076	-0.272
-545.296	-200.000	0.023	-0.232
-544.281	373.616	-0.067	-0.138
-543.266	23.049	-0.179	-0.148
-542.252	-116.317	-0.073	-0.014
-541.237	800.000	-0.046	0.160
-540.223	-200.000	0.028	-0.265
-539.208	-200.000	0.015	-0.134
-538.193	-200.000	-0.017	-0.076
-537.179	333.899	0.121	-0.237
-536.164	-200.000	0.042	-0.221
-535.150	-200.000	0.099	0.469
-534.135	315.107	-0.071	0.135
-533.121	-49.982	-0.493	0.236
-532.106	166.442	-0.093	0.133
-531.091	0.884	-0.281	0.203
-530.077	12.779	-0.186	0.145
-529.062	800.000	-0.032	0.127
-528.048	-200.000	0.296	0.000
-527.033	-200.000	-0.050	-0.241
-526.018	-200.000	-0.073	0.325
-525.004	21.361	-0.134	0.110
-523.989	-200.000	-0.017	-0.155
-522.975	-179.107	0.053	-0.001
-521.960	-27.444	-0.066	-0.039
-520.945	-42.615	0.093	0.048
-519.931	289.403	-0.122	-0.223
-518.916	228.398	0.206	-0.339
-517.902	800.000	-0.022	0.068
-516.887	-54.016	-0.367	-0.169
-515.872	129.258	0.096	0.123
-514.858	800.000	0.048	0.205
-513.843	76.344	0.064	-0.069
-512.829	80.180	-0.208	-0.226
-511.814	-83.636	-0.166	0.053
-510.799	-175.707	0.098	0.003
-509.785	-122.581	-0.096	0.016
-508.770	740.869	-0.076	-0.206
-507.756	-200.000	0.009	-0.259
-506.741	-9.934	0.243	-0.163
-505.726	-200.000	0.016	0.076
-504.712	393.638	0.093	0.194
-503.697	-200.000	-0.010	-0.061
-502.683	-12.555	-0.214	-0.141
-501.668	-47.990	0.270	-0.132
-500.653	800.000	-0.054	-0.183
-499.639	423.991	-0.139	-0.302
-498.624	-159.492	-0.270	-0.015
-497.610	115.414	0.013	-0.016
-496.595	-156.254	0.028	-0.002
-495.581	800.000	0.039	-0.154
-494.566	68.692	0.098	-0.101
-493.551	-124.572	-0.248	-0.039
-492.537	-34.475	0.102	-0.056
-491.522	-66.803	-0.220	-0.088
-490.508	800.000	-0.064	0.192
-489.493	-79.512	-0.201	-0.069
-488.478	-200.000	-0.064	0.308
-487.464	-105.702	0.133	0.030
-486.449	454.480	-0.189	-0.423
-485.435	-91.524	-0.151	0.043
-484.420	96.168	-0.178	-0.205
-483.405	800.000	-0.153	0.432
-482.391	-200.000	-0.034	0.304
-481.376	290.224	-0.100	-0.184
-480.362	262.033	-0.042	0.074
-479.347	296.448	0.025	0.047
-478.332	110.599	0.060	-0.073
-477.318	356.700	-0.036	-0.073
-476.303	165.043	-0.084	-0.119
-475.289	-200.000	0.032	0.249
-474.274	50.899	0.152	0.145
-473.259	-176.550	-0.169	0.004
-472.245	-154.290	-0.153	0.010
-471.230	-120.794	0.070	0.012
-470.216	-60.110	0.237	-0.102
-469.201	23.137	0.208	-0.172
-468.186	-200.000	-0.010	-0.232
-467.172	229.639	-0.083	0.137
-466.157	-100.004	-0.306	0.077
-465.143	-114.032	0.372	-0.073
-464.128	-42.114	0.201	-0.104
-463.113	800.000	-0.064	-0.263
-462.099	156.140	-0.044	0.061
-461.084	-200.000	0.019	-0.175
-460.070	-8.371	0.051	0.035
-459.055	34.855	0.257	-0.226
-458.040	-200.000	0.005	0.132
-457.026	-110.227	0.015	0.003
-456.011	-187.969	0.386	0.005
-454.997	-109.990	0.255	0.054
-453.982	-95.578	0.362	-0.098
-452.968	800.000	0.118	0.341
-451.953	-200.000	0.001	0.082
-450.938	-48.303	0.084	-0.041
-449.924	-123.859	-0.081	-0.013
-448.909	145.973	0.142	0.192
-447.895	38.882	-0.137	-0.123
-446.880	-200.000	0.004	0.117
-445.865	43.582	-0.126	0.116
-444.851	627.883	-0.033	0.084
-443.836	-200.000	-0.027	-0.295
-442.822	-133.308	0.277	0.035
-441.807	599.510	0.046	0.115
-440.792	800.000	0.164	0.552
-439.778	-200.000	-0.024	0.227
-438.763	-43.020	-0.310	0.158
-437.749	4.589	0.050	-0.037
-436.734	-200.000	0.024	-0.602
-435.719	-200.000	0.039	-0.192
-434.705	-200.000	0.046	-0.307
-433.690	521.729	-0.090	0.213
-432.676	-5.034	0.039	0.027
-431.661	-135.737	-0.362	0.043
-430.646	800.000	0.022	0.078
-429.632	-39.655	0.234	0.123
-428.617	-134.649	-0.172	0.021
-427.603	428.279	-0.008	0.016
-426.588	392.090	-0.152	0.318
-425.573	182.696	0.080	-0.118
-424.559	476.326	-0.150	0.341
-423.544	800.000	-0.132	-0.416
-422.530	263.211	-0.166	0.290
-421.515	185.436	0.092	-0.137
-420.500	7.609	-0.361	-0.272
-419.486	209.135	0.247	-0.390
-418.471	-91.810	0.063	0.018
-417.457	589.119	-0.051	-0.126
-416.442	-200.000	0.074	0.444
-415.428	380.819	-0.062	0.127
-414.413	158.540	0.110	-0.153
-413.398	-94.178	-0.010	0.003
-412.384	61.513	0.067	-0.067
-411.369	1.130	0.240	-0.173
-410.355	9.128	-0.394	0.299
-409.340	58.292	0.175	0.173
-408.325	800.000	0.079	0.232
-407.311	46.868	-0.196	-0.183
-406.296	720.906	-0.055	-0.147
-405.282	-200.000	-0.018	-0.244
-404.267	101.282	0.149	-0.174
-403.252	283.275	-0.127	-0.229
-402.238	-96.661	-0.173	0.046
-401.223	236.055	0.066	-0.110
-400.209	338.227	0.081	0.159
-399.194	125.396	0.051	-0.065
-398.179	-79.151	-0.249	0.085
-397.165	167.668	-0.089	0.128
-396.150	201.942	-0.034	0.052
-395.136	380.104	-0.033	-0.067
-394.121	-170.851	0.192	0.007
-393.106	-200.000	0.005	-0.182
-392.092	-114.363	-0.159	0.031
-391.077	-132.494	-0.156	-0.020
-390.063	171.483	-0.195	-0.282
-389.048	-200.000	0.015	-0.162
-388.033	-84.050	0.376	-0.120
-387.019	-105.451	0.236	0.054
-386.004	-200.000	0.034	-0.248
-384.990	136.931	0.262	-0.343
-383.975	-200.000	0.023	-0.245
-382.960	-49.317	0.346	-0.166
-381.946	-81.382	-0.129	-0.043
-380.931	15.173	-0.314	0.247
-379.917	199.260	0.081	0.125
-378.902	-31.994	0.324	-0.182
-377.888	649.554	-0.231	0.592
-376.873	-29.516	-0.122	-0.070
-375.858	100.516	0.203	-0.237
-374.844	126.359	0.174	-0.221
-373.829	160.821	-0.081	-0.114
-372.815	5.167	-0.201	-0.148
-371.800	-22.040	-0.215	-0.131
-370.785	120.604	0.094	-0.118
-369.771	385.164	0.050	0.103
-368.756	-168.049	0.202	-0.008
-367.742	-81.525	0.205	-0.068
-366.727	-177.804	0.179	-0.004
-365.712	-122.759	-0.118	0.019
-364.698	-76.800	0.039	-0.014
-363.683	-13.930	-0.096	-0.062
-362.669	-30.557	0.281	0.160
-361.654	-49.062	0.225	-0.108
-360.639	240.940	-0.024	-0.040
-359.625	-200.000	0.038	0.175
-358.610	800.000	0.062	-0.219
-357.596	-200.000	0.002	0.011
-356.581	-200.000	-0.063	-0.297
-355.566	-66.900	0.249	-0.099
-354.552	-118.320	0.217	0.039
-353.537	-200.000	0.007	-0.405
-352.523	-32.651	0.139	0.077
-351.508	-79.724	0.200	-0.068
-350.493	78.131	-0.200	-0.213
-349.479	-165.741	-0.160	0.007
-348.464	-200.000	-0.006	-0.352
-347.450	-200.000	0.017	-0.262
-346.435	-134.299	0.096	0.012
-345.420	800.000	0.067	-0.221
-344.406	-93.943	-0.092	-0.025
-343.391	800.000	0.055	-0.169
-342.377	569.607	-0.062	-0.152
-341.362	73.870	0.029	0.030
-340.348	477.978	0.033	-0.075
-339.333	-200.000	0.002	0.303
-338.318	-200.000	0.068	0.318
-337.304	131.166	0.158	-0.204
-336.289	242.884	-0.187	0.314
-335.275	211.583	-0.284	0.448
-334.260	49.261	-0.286	0.269
-333.245	-200.000	0.002	-0.099
-332.231	95.614	-0.081	-0.092
-331.216	-200.000	-0.029	-0.229
-330.202	-200.000	0.013	-0.161
-329.187	-77.290	-0.192	-0.067
-328.172	133.194	0.085	0.109
-327.158	320.004	-0.134	-0.254
-326.143	-110.169	-0.072	0.015
-325.129	-137.937	-0.123	0.014
-324.114	-50.621	0.073	0.034
-323.099	453.393	0.124	0.274
-322.085	-200.000	0.088	0.443
-321.070	57.364	0.220	0.216
-320.056	-101.697	0.221	0.054
-319.041	-168.180	0.174	0.007
-318.026	-84.428	0.324	0.102
-317.012	-200.000	-0.071	-0.338
-315.997	-200.000	-0.012	0.128
-314.983	28.068	0.113	0.095
-313.968	800.000	0.026	-0.075
-312.953	-40.998	0.203	0.105
-311.939	-106.163	0.354	0.080
-310.924	52.371	-0.128	0.122
-309.910	164.633	-0.114	0.162
-308.895	-200.000	-0.016	0.156
-307.880	-200.000	-0.016	0.248
-306.866	-32.661	-0.274	0.153
-305.851	102.208	-0.218	-0.254
-304.837	8.513	-0.074	0.056
-303.822	8.721	0.273	-0.206
-302.807	49.582	0.165	-0.155
-301.793	-32.715	-0.201	-0.112
-300.778	800.000	0.091	0.298
-299.764	111.979	-0.111	-0.134
-298.749	-200.000	0.063	-0.290
-297.735	-200.000	-0.022	0.169
-296.720	-200.000	0.005	0.095
-295.705	-146.787	-0.330	-0.029
-294.691	155.155	-0.230	-0.317
-293.676	-200.000	0.011	0.113
-292.662	-200.000	0.039	0.210
-291.647	156.392	-0.209	0.288
-290.632	125.385	0.049	0.062
-289.618	79.908	-0.055	-0.059
-288.603	-57.944	0.205	-0.090
-287.589	-26.169	0.054	-0.032
-286.574	18.835	-0.291	-0.233
-285.559	33.536	0.143	-0.124
-284.545	-33.226	0.256	-0.142
-283.530	30.711	0.085	-0.072
-282.516	-200.000	0.010	-0.154
-281.501	-200.000	-0.012	-0.257
-280.486	173.871	-0.025	-0.036
-279.472	-84.362	0.347	-0.110
-278.457	800.000	0.071	0.241
-277.443	-86.892	-0.216	0.066
-276.428	-76.979	-0.275	-0.096
-275.413	126.425	0.083	-0.105
-274.399	-136.222	0.406	0.047
-273.384	145.777	0.127	0.170
-272.370	-200.000	0.025	-0.209
-271.355	-29.780	0.260	-0.148
-270.340	355.420	0.037	-0.073
-269.326	-200.000	-0.018	0.212
-268.311	-200.000	-0.001	0.381
-267.297	127.620	0.068	-0.087
-266.282	29.331	-0.279	0.237
-265.267	378.504	-0.117	-0.239
-264.253	187.867	-0.223	-0.333
-263.238	155.121	0.051	0.070
-262.224	-200.000	-0.029	0.251
-261.209	-120.745	0.064	-0.011
-260.195	-36.745	0.102	0.055
-259.180	489.311	-0.045	-0.103
-258.165	-5.266	0.075	0.051
-257.151	327.972	0.132	0.253
-256.136	-50.876	0.320	-0.150
-255.122	53.950	-0.307	0.294
-254.107	303.314	-0.174	0.321
-253.092	326.511	-0.101	-0.192
-252.078	-108.277	0.203	-0.044
-251.063	-26.311	0.219	0.129
-250.049	-200.000	-0.009	-0.250
-249.034	334.790	0.122	0.235
-248.019	23.201	0.141	0.116
-247.005	-83.468	0.170	0.054
-245.990	180.337	0.237	0.347
-244.976	-188.763	-0.232	-0.003
-243.961	-200.000	-0.007	-0.181
-242.946	-172.054	0.401	-0.013
-241.932	-158.210	-0.266	0.016
-240.917	436.165	0.065	0.140
-239.903	250.730	0.054	0.091
-238.888	800.000	-0.039	-0.137
-237.873	-78.761	-0.070	0.024
-236.859	-14.536	0.077	-0.049
-235.844	-73.966	-0.050	0.018
-234.830	357.330	0.230	0.457
-233.815	-200.000	-0.007	-0.395
-232.800	773.865	-0.132	0.360
-231.786	94.501	-0.214	0.243
-230.771	192.399	-0.044	-0.067
-229.757	9.398	0.178	-0.135
-228.742	-109.531	-0.143	-0.030
-227.727	-200.000	0.063	0.318
-226.713	800.000	0.086	0.274
-225.698	-141.058	-0.110	0.011
-224.684	-15.947	-0.117	-0.074
-223.669	9.290	-0.130	0.098
-222.655	800.000	-0.099	0.346
-221.640	-29.880	-0.201	-0.114
-220.625	-84.988	-0.195	0.061
-219.611	-48.772	0.256	-0.123
-218.596	103.287	-0.179	0.209
-217.582	-200.000	0.032	0.179
-216.567	-57.732	0.076	-0.033
-215.552	-20.956	0.144	-0.088
-214.538	800.000	-0.039	0.153
-213.523	-200.000	-0.034	0.225
-212.509	-52.748	-0.370	-0.170
-211.494	-23.362	-0.209	0.125
-210.479	-38.962	0.196	-0.103
-209.465	-200.000	-0.071	-0.416
-208.450	-121.562	0.175	-0.029
-207.436	380.970	0.134	-0.274
-206.421	-200.000	0.094	-0.439
-205.406	553.460	0.063	0.150
-204.392	-36.774	-0.357	0.191
-203.377	-56.929	0.329	0.145
-202.363	83.557	0.013	0.014
-201.348	-101.470	0.044	0.011
-200.333	-3.351	-0.217	-0.151
-199.319	183.553	0.150	-0.221
-198.304	-50.199	-0.095	-0.045
-197.290	58.075	0.380	0.370
-196.275	23.586	-0.031	0.026
-195.260	396.818	-0.076	-0.159
-194.246	-200.000	-0.051	0.267
-193.231	297.665	0.076	-0.139
-192.217	446.931	0.098	0.214
-191.202	-198.919	0.041	-0.000
-190.187	-126.989	0.154	0.023
-189.173	-200.000	0.036	0.160
-188.158	-25.571	0.114	-0.067
-187.144	-200.000	0.028	0.192
-186.129	-60.533	-0.048	0.020
-185.114	37.722	0.193	-0.171
-184.100	172.866	-0.021	-0.030
-183.085	-200.000	-0.023	-0.206
-182.071	90.694	0.097	0.108
-181.056	-200.000	0.075	0.338
-180.042	34.750	0.152	-0.132
-179.027	800.000	-0.106	-0.322
-178.012	-117.897	-0.155	-0.028
-176.998	-69.956	0.262	-0.099
-175.983	94.211	0.104	-0.117
-174.969	-150.234	-0.190	0.015
-173.954	-136.149	-0.209	-0.024
-172.939	-59.972	-0.394	-0.168
-171.925	82.678	-0.177	0.192
-170.910	-103.839	0.173	-0.040
-169.896	23.952	-0.156	0.128
-168.881	-29.882	0.193	-0.109
-167.866	-22.332	0.384	0.232
-166.852	-136.223	-0.193	-0.023
-165.837	-64.593	-0.262	0.106
-164.823	115.804	-0.120	0.146
-163.808	50.746	-0.107	-0.101
-162.793	-52.850	-0.277	-0.127
-161.779	-200.000	0.008	-0.073
-160.764	800.000	-0.019	-0.056
-159.750	-200.000	0.009	0.252
-158.735	-186.145	-0.261	-0.004
-157.720	3.271	-0.184	0.133
-156.706	-79.601	-0.191	0.064
-155.691	12.785	0.198	0.152
-154.677	-82.647	0.210	-0.068
-153.662	-11.147	-0.151	-0.099
-152.647	800.000	-0.045	0.129
-151.633	-16.111	0.094	-0.060
-150.618	-170.908	0.142	0.005
-149.604	65.872	0.274	0.277
-148.589	-4.721	-0.129	0.089
-147.574	-200.000	-0.003	0.216
-146.560	-32.586	-0.040	0.022
-145.545	-9.801	-0.084	-0.056
-144.531	81.835	-0.360	0.388
-143.516	62.993	0.219	0.218
-142.502	-63.344	0.061	0.025
-141.487	96.827	0.131	-0.149
-140.472	-58.506	0.100	-0.043
-139.458	-141.556	-0.228	0.023
-138.443	14.856	0.206	0.160
-137.429	-200.000	0.027	0.223
-136.414	18.945	-0.185	0.147
-135.399	339.640	-0.056	0.108
-134.385	114.800	0.096	0.117
-133.370	-110.051	0.331	-0.069
-132.356	157.011	0.135	-0.185
-131.341	800.000	0.120	-0.345
-130.326	308.861	-0.107	-0.198
-129.312	-29.937	0.113	0.064
-128.297	-115.395	-0.120	-0.023
-127.283	582.926	-0.112	0.273
-126.268	415.556	-0.092	0.194
-125.253	489.649	-0.063	-0.144
-124.239	647.702	-0.079	-0.200
-123.224	-76.913	-0.349	0.121
-122.210	122.398	0.136	0.168
