DTS Sentinel unit serial number:	SN413079Multiplexer serial number:	ORYXHardware model number:	OX4-SRSoftware version number:	ORYX F/W v4.00 Oryx Data Collector v3.7.2.0data status	okinstallation	princeton_trtdifferential loss correction	single-endedforward channel	channel 2reverse channel	N/Adate	2019/09/14time	09:59:34forward acquisition time	60.00reverse acquisition time	0.00gamma	496.2192k internal	0.2319k external	0.2319temperature offset calibration	1.0135default loss term (dB/km)	0.3790temperature slope calibration	1.0000multiplexer offset coefficient	1.0000multiplexer slope coefficient	1.0000fibre end	0.00T internal ref (°C)	33.00T ext. ref 1 (°C)	4.00T ext. ref 2 (°C)	31.53length (m)	temperature (°C)	Stokes	anti-Stokes-747.200	-200.000	-0.005	0.071
-746.185	-72.112	-0.106	-0.040
-745.171	-103.602	-0.303	-0.072
-744.156	-74.293	0.485	-0.177
-743.142	240.063	-0.075	-0.127
-742.127	800.000	0.104	0.328
-741.112	447.603	0.145	-0.322
-740.098	9.538	-0.305	0.234
-739.083	361.196	-0.058	0.118
-738.069	-134.860	-0.391	0.048
-737.054	18.195	-0.304	0.245
-736.039	-14.279	-0.227	0.148
-735.025	-185.974	0.112	0.002
-734.010	44.246	-0.263	0.244
-732.996	-128.130	-0.104	-0.015
-731.981	122.668	0.104	-0.132
-730.966	800.000	-0.038	0.125
-729.952	188.670	-0.162	-0.245
-728.937	-98.026	-0.308	0.080
-727.923	-100.305	0.085	0.021
-726.908	90.239	-0.074	0.084
-725.894	800.000	-0.050	-0.147
-724.879	196.978	-0.025	-0.038
-723.864	-12.126	0.181	-0.120
-722.850	373.777	0.042	-0.087
-721.835	-200.000	-0.074	-0.393
-720.821	-165.739	0.186	-0.008
-719.806	-25.232	0.117	0.070
-718.791	-31.103	-0.194	-0.111
-717.777	-45.103	0.085	0.043
-716.762	-200.000	-0.031	-0.230
-715.748	-102.831	0.068	-0.016
-714.733	-138.081	-0.084	-0.009
-713.718	595.223	0.051	0.128
-712.704	299.894	-0.108	0.202
-711.689	-200.000	-0.012	0.069
-710.675	-200.000	-0.047	-0.227
-709.660	-200.000	-0.002	0.035
-708.645	800.000	-0.092	0.355
-707.631	58.211	0.262	-0.259
-706.616	800.000	0.072	-0.296
-705.602	103.002	0.226	0.268
-704.587	-122.459	-0.269	-0.044
-703.572	800.000	-0.045	-0.130
-702.558	800.000	0.054	0.154
-701.543	707.393	0.078	-0.209
-700.529	-84.982	-0.062	-0.020
-699.514	-200.000	-0.001	0.308
-698.499	-129.786	0.227	-0.032
-697.485	-51.751	-0.316	0.148
-696.470	800.000	-0.066	-0.272
-695.456	-65.559	-0.229	0.093
-694.441	401.119	-0.094	0.199
-693.426	-37.585	0.244	0.131
-692.412	-98.749	0.081	-0.021
-691.397	800.000	0.108	-0.301
-690.383	43.375	0.065	0.060
-689.368	-21.606	-0.247	-0.152
-688.354	-132.734	-0.214	0.028
-687.339	-76.017	-0.111	-0.040
-686.324	-130.538	-0.224	-0.031
-685.310	239.849	-0.051	0.086
-684.295	-130.962	0.332	-0.045
-683.281	-118.497	0.193	0.035
-682.266	-200.000	0.008	0.142
-681.251	-127.177	0.317	-0.047
-680.237	800.000	-0.043	-0.149
-679.222	-200.000	-0.017	-0.085
-678.208	192.937	-0.048	-0.073
-677.193	-18.690	-0.058	0.037
-676.178	-78.281	-0.144	-0.050
-675.164	187.900	-0.172	-0.260
-674.149	-60.028	-0.189	-0.082
-673.135	53.419	0.069	-0.067
-672.120	-94.288	0.149	-0.041
-671.105	800.000	0.070	-0.213
-670.091	-200.000	0.049	0.365
-669.076	800.000	-0.027	0.108
-668.062	-197.294	-0.077	0.000
-667.047	-16.775	0.090	0.057
-666.032	-118.974	0.035	0.006
-665.018	-36.015	0.364	0.198
-664.003	800.000	-0.039	0.119
-662.989	-61.774	-0.100	0.042
-661.974	-50.310	0.311	-0.148
-660.959	-0.546	-0.037	0.026
-659.945	-31.677	0.168	-0.095
-658.930	530.878	-0.079	-0.187
-657.916	800.000	-0.093	-0.272
-656.901	330.226	0.056	0.109
-655.886	800.000	-0.064	-0.232
-654.872	170.112	-0.237	-0.342
-653.857	-81.892	-0.097	-0.032
-652.843	74.868	-0.053	-0.056
-651.828	17.741	0.567	-0.455
-650.814	195.425	-0.050	-0.076
-649.799	-139.962	-0.125	-0.013
-648.784	225.631	-0.020	0.033
-647.770	-200.000	0.003	-0.092
-646.755	-7.455	-0.095	-0.065
-645.741	31.415	-0.012	-0.011
-644.726	-93.404	0.118	0.033
-643.711	97.594	-0.048	0.056
-642.697	-1.300	0.275	-0.196
-641.682	140.671	-0.029	0.038
-640.668	-98.154	-0.085	-0.022
-639.653	55.133	-0.114	-0.111
-638.638	-63.877	-0.215	-0.089
-637.624	800.000	-0.067	0.252
-636.609	800.000	-0.028	-0.084
-635.595	111.920	0.211	0.256
-634.580	-200.000	-0.040	0.280
-633.565	47.537	-0.247	-0.232
-632.551	756.928	-0.051	-0.140
-631.536	322.743	0.052	0.099
-630.522	-80.801	-0.377	-0.126
-629.507	128.046	0.208	0.267
-628.492	-156.085	-0.126	0.008
-627.478	-88.164	0.256	-0.077
-626.463	196.334	-0.187	-0.286
-625.449	-200.000	-0.024	0.311
-624.434	-84.239	0.329	0.105
-623.419	81.543	0.122	0.132
-622.405	177.923	0.131	-0.193
-621.390	-154.746	-0.174	0.012
-620.376	-22.378	-0.219	-0.134
-619.361	78.929	0.093	-0.100
-618.346	152.536	-0.030	-0.041
-617.332	-200.000	-0.021	-0.137
-616.317	49.535	0.168	-0.159
-615.303	-87.702	0.242	-0.074
-614.288	-200.000	0.033	-0.170
-613.273	-100.829	-0.089	0.022
-612.259	-60.955	0.313	0.133
-611.244	326.481	0.114	-0.220
-610.230	-11.482	0.075	0.049
-609.215	-200.000	0.019	0.239
-608.201	-200.000	0.048	0.344
-607.186	42.499	-0.304	0.279
-606.171	-27.931	0.123	0.071
-605.157	800.000	0.070	0.265
-604.142	-63.355	-0.256	0.106
-603.128	34.642	-0.304	-0.267
-602.113	62.216	-0.229	-0.230
-601.098	190.305	-0.114	-0.172
-600.084	12.050	-0.112	0.087
-599.069	800.000	0.034	0.103
-598.055	-17.686	-0.217	0.137
-597.040	-187.228	0.231	0.003
-596.025	2.007	-0.235	-0.171
-595.011	-118.620	-0.172	-0.031
-593.996	112.608	-0.254	-0.309
-592.982	-7.717	0.255	0.173
-591.967	-131.782	-0.242	0.032
-590.952	-136.463	0.130	-0.015
-589.938	530.360	-0.181	0.431
-588.923	-125.413	0.099	-0.015
-587.909	469.152	0.036	0.081
-586.894	95.640	0.112	0.128
-585.879	-200.000	-0.047	0.358
-584.865	-46.266	-0.097	0.048
-583.850	-200.000	0.010	-0.056
-582.836	-162.328	-0.527	-0.026
-581.821	800.000	0.101	-0.439
-580.806	800.000	0.100	-0.425
-579.792	-109.018	0.253	-0.054
-578.777	800.000	-0.088	-0.303
-577.763	416.076	-0.157	-0.336
-576.748	49.384	-0.199	-0.188
-575.733	-200.000	-0.016	0.114
-574.719	41.116	-0.042	-0.038
-573.704	-120.714	0.211	-0.036
-572.690	800.000	-0.056	0.162
-571.675	-200.000	0.004	-0.140
-570.661	-120.787	0.193	0.033
-569.646	799.041	0.187	0.518
-568.631	-101.088	0.237	-0.058
-567.617	-111.733	0.230	0.047
-566.602	10.955	-0.365	0.280
-565.588	94.693	-0.106	-0.121
-564.573	800.000	0.038	-0.123
-563.558	450.852	0.022	0.049
-562.544	255.570	-0.116	-0.200
-561.529	109.195	-0.130	-0.156
-560.515	-65.312	0.104	0.042
-559.500	177.231	-0.063	-0.091
-558.485	136.553	-0.232	0.304
-557.471	24.949	-0.045	-0.038
-556.456	-24.849	-0.379	0.226
-555.442	800.000	0.090	0.359
-554.427	-68.401	0.132	-0.051
-553.412	-112.094	0.313	0.063
-552.398	-17.905	0.156	-0.098
-551.383	127.919	-0.218	-0.278
-550.369	43.848	-0.410	-0.377
-549.354	491.718	0.069	0.158
-548.339	-200.000	-0.016	0.087
-547.325	34.619	0.137	-0.120
-546.310	-48.062	-0.216	0.105
-545.296	-200.000	-0.069	-0.448
-544.281	84.477	0.167	-0.183
-543.266	47.704	0.181	0.169
-542.252	255.134	0.190	0.326
-541.237	-19.474	0.287	-0.178
-540.223	177.449	0.023	0.034
-539.208	-200.000	-0.037	0.312
-538.193	12.116	-0.132	-0.102
-537.179	800.000	-0.105	-0.308
-536.164	462.024	-0.054	0.120
-535.150	-174.844	0.073	-0.002
-534.135	-200.000	-0.054	-0.388
-533.121	20.873	-0.124	0.101
-532.106	-200.000	-0.025	0.187
-531.091	-98.913	0.119	-0.030
-530.077	330.254	-0.069	-0.134
-529.062	-200.000	-0.002	-0.233
-528.048	-200.000	-0.002	-0.175
-527.033	-21.482	-0.104	0.064
-526.018	-200.000	0.014	-0.138
-525.004	71.423	-0.145	0.151
-523.989	36.113	0.156	-0.138
-522.975	-200.000	0.058	-0.308
-521.960	64.365	0.094	-0.095
-520.945	-84.532	-0.068	-0.021
-519.931	-200.000	0.005	-0.048
-518.916	-200.000	0.028	-0.195
-517.902	-27.734	-0.110	0.064
-516.887	-22.795	-0.110	-0.066
-515.872	22.677	-0.164	-0.135
-514.858	800.000	-0.043	0.156
-513.843	40.309	0.036	-0.032
-512.829	-200.000	0.054	0.259
-511.814	800.000	-0.039	-0.111
-510.799	-30.224	-0.072	-0.041
-509.785	42.134	-0.079	0.072
-508.770	-142.296	0.248	-0.025
-507.756	-83.843	-0.209	0.067
-506.741	-21.102	0.022	0.014
-505.726	160.064	-0.131	-0.183
-504.712	-133.556	0.101	-0.013
-503.697	4.649	-0.200	-0.147
-502.683	800.000	-0.071	-0.207
-501.668	-200.000	0.010	0.238
-500.653	-200.000	0.009	0.159
-499.639	377.705	-0.205	-0.420
-498.624	358.714	0.054	0.109
-497.610	-185.494	0.308	-0.005
-496.595	36.585	-0.320	0.283
-495.581	164.364	-0.060	-0.085
-494.566	108.430	0.222	0.265
-493.551	15.795	0.121	0.095
-492.537	-65.214	-0.467	-0.188
-491.522	-131.779	-0.118	0.015
-490.508	-89.077	-0.025	-0.008
-489.493	-200.000	0.041	-0.542
-488.478	-200.000	-0.003	-0.101
-487.464	-200.000	0.003	-0.211
-486.449	64.546	-0.032	-0.032
-485.435	-13.170	-0.268	-0.174
-484.420	-200.000	0.041	0.416
-483.405	800.000	0.037	0.118
-482.391	-131.064	0.167	0.022
-481.376	-200.000	0.020	0.384
-480.362	188.089	-0.132	-0.197
-479.347	-35.997	-0.222	-0.120
-478.332	-168.522	0.268	0.010
-477.318	4.089	-0.161	-0.118
-476.303	-200.000	0.028	0.243
-475.289	-200.000	-0.043	-0.311
-474.274	323.670	-0.138	-0.264
-473.259	-137.131	0.199	0.023
-472.245	-200.000	0.012	0.114
-471.230	-56.360	-0.271	-0.121
-470.216	-145.954	-0.162	-0.014
-469.201	-26.565	0.183	0.108
-468.186	-188.058	-0.322	-0.004
-467.172	-200.000	-0.012	0.307
-466.157	183.171	-0.062	0.092
-465.143	-77.928	0.183	-0.063
-464.128	-199.278	0.193	-0.001
-463.113	-200.000	0.040	0.311
-462.099	-183.126	0.235	0.004
-461.084	800.000	0.080	-0.244
-460.070	242.336	0.068	0.114
-459.055	187.765	0.314	0.468
-458.040	48.733	-0.189	0.178
-457.026	37.973	-0.047	-0.042
-456.011	630.200	0.019	-0.048
-454.997	317.412	-0.162	0.307
-453.982	-16.737	-0.096	0.061
-452.968	48.828	0.218	-0.205
-451.953	-3.008	0.152	-0.106
-450.938	521.627	-0.100	-0.236
-449.924	-69.334	-0.143	-0.055
-448.909	102.216	-0.140	-0.164
-447.895	380.676	-0.084	-0.173
-446.880	423.126	-0.097	0.207
-445.865	800.000	0.049	-0.160
-444.851	203.529	-0.352	-0.545
-443.836	-83.460	-0.564	-0.181
-442.822	-75.155	0.199	-0.071
-441.807	-53.700	0.202	-0.092
-440.792	194.677	-0.165	0.250
-439.778	-200.000	0.035	-0.192
-438.763	800.000	-0.111	-0.416
-437.749	85.322	0.209	0.229
-436.734	454.302	-0.066	0.145
-435.719	-115.283	-0.261	0.049
-434.705	-200.000	0.017	0.212
-433.690	342.273	0.061	0.119
-432.676	-94.431	0.043	0.012
-431.661	-90.944	0.106	-0.031
-430.646	-66.660	-0.210	0.083
-429.632	-200.000	0.031	0.336
-428.617	-200.000	0.047	0.268
-427.603	534.134	0.221	0.524
-426.588	33.821	0.392	0.341
-425.573	-58.833	0.108	-0.047
-424.559	276.521	0.091	-0.161
-423.544	27.902	0.147	0.124
-422.530	800.000	-0.070	0.207
-421.515	56.859	0.366	0.356
-420.500	-130.175	0.061	-0.008
-419.486	-42.593	0.221	0.113
-418.471	185.077	-0.107	0.158
-417.457	-200.000	0.021	-0.191
-416.442	-89.861	-0.312	0.091
-415.428	87.586	-0.185	0.205
-414.413	403.274	0.051	0.107
-413.398	232.811	-0.132	0.216
-412.384	317.531	0.203	0.384
-411.369	-146.038	0.203	-0.018
-410.355	-67.317	0.210	0.083
-409.340	-69.007	-0.368	-0.142
-408.325	-76.216	0.183	0.065
-407.311	0.209	0.140	-0.100
-406.296	165.198	0.055	0.077
-405.282	397.648	-0.100	-0.209
-404.267	-200.000	-0.005	-0.151
-403.252	-45.963	0.043	-0.021
-402.238	187.113	0.203	-0.303
-401.223	604.358	0.064	-0.159
-400.209	800.000	0.031	-0.129
-399.194	-132.846	-0.265	0.034
-398.179	-46.407	0.294	-0.144
-397.165	-179.591	-0.265	-0.006
-396.150	800.000	-0.037	-0.137
-395.136	-52.534	-0.235	0.108
-394.121	676.744	0.096	0.250
-393.106	79.914	-0.088	-0.095
-392.092	618.116	-0.020	0.051
-391.077	-68.919	0.144	0.056
-390.063	151.804	-0.071	0.097
-389.048	208.060	-0.011	0.017
-388.033	800.000	0.034	0.097
-387.019	163.286	-0.185	0.259
-386.004	-144.628	-0.133	-0.012
-384.990	-64.968	-0.103	0.042
-383.975	62.922	0.186	0.186
-382.960	409.594	-0.074	0.156
-381.946	-169.803	0.114	-0.004
-380.931	36.922	-0.147	-0.130
-379.917	-200.000	0.076	-0.453
-378.902	-200.000	0.004	-0.431
-377.888	-108.221	-0.319	-0.069
-376.873	-4.193	-0.192	0.132
-375.858	106.025	-0.207	-0.244
-374.844	191.250	0.123	0.184
-373.829	-50.896	0.202	0.095
-372.815	192.648	-0.121	-0.182
-371.800	-200.000	0.032	0.141
-370.785	-17.846	-0.124	0.078
-369.771	-59.773	0.058	0.025
-368.756	-200.000	-0.029	0.320
-367.742	141.032	0.238	-0.314
-366.727	-157.870	0.201	-0.012
-365.712	-200.000	-0.002	-0.055
-364.698	-170.307	-0.198	-0.007
-363.683	800.000	0.032	-0.131
-362.669	60.667	-0.082	0.081
-361.654	-49.562	-0.167	0.079
-360.639	-41.873	0.363	-0.185
-359.625	-200.000	-0.059	-0.320
-358.610	160.693	0.228	-0.317
-357.596	-139.992	-0.347	0.037
-356.581	63.208	-0.194	0.194
-355.566	800.000	-0.017	0.071
-354.552	800.000	0.072	-0.281
-353.537	195.738	0.171	0.259
-352.523	-28.158	0.232	0.134
-351.508	-200.000	-0.003	-0.391
-350.493	800.000	0.040	-0.111
-349.479	4.675	0.057	0.042
-348.464	-37.997	0.110	0.058
-347.450	-109.711	0.174	-0.036
-346.435	-45.133	0.156	0.077
-345.420	-112.385	-0.216	-0.043
-344.406	20.942	-0.254	-0.205
-343.391	-148.797	-0.176	-0.014
-342.377	-200.000	0.008	0.082
-341.362	160.923	0.229	-0.319
-340.348	-58.632	-0.280	0.121
-339.333	-200.000	0.016	0.177
-338.318	-101.245	0.092	-0.022
-337.304	-200.000	-0.025	-0.116
-336.289	800.000	0.114	0.339
-335.275	-200.000	-0.009	-0.090
-334.260	-55.231	0.082	-0.037
-333.245	8.818	0.205	0.154
-332.231	800.000	-0.072	-0.246
-331.216	368.359	0.109	-0.220
-330.202	-37.483	-0.178	-0.095
-329.187	-200.000	-0.038	-0.213
-328.172	403.020	0.113	-0.237
-327.158	-162.467	0.165	-0.008
-326.143	-107.574	0.195	0.043
-325.129	78.767	0.068	-0.072
-324.114	800.000	0.111	0.332
-323.099	-200.000	0.032	0.204
-322.085	-200.000	-0.013	0.117
-321.070	359.524	0.062	0.123
-320.056	-200.000	-0.010	0.183
-319.041	558.115	0.031	-0.074
-318.026	-62.719	-0.033	-0.014
-317.012	691.696	0.075	0.195
-315.997	800.000	0.052	0.149
-314.983	15.819	0.119	0.093
-313.968	432.346	0.069	0.148
-312.953	328.187	0.044	-0.084
-311.939	800.000	-0.077	0.249
-310.924	50.969	0.240	-0.226
-309.910	62.491	-0.116	-0.116
-308.895	-200.000	-0.016	-0.165
-307.880	800.000	0.043	-0.157
-306.866	800.000	0.023	0.093
-305.851	-200.000	-0.017	-0.165
-304.837	567.325	0.141	0.340
-303.822	220.382	0.145	-0.231
-302.807	21.215	0.162	0.131
-301.793	104.380	0.105	-0.123
-300.778	800.000	-0.031	0.103
-299.764	-119.798	0.266	-0.046
-298.749	-45.768	-0.106	-0.052
-297.735	-99.050	-0.183	0.046
-296.720	-200.000	0.016	0.072
-295.705	-200.000	0.002	0.258
-294.691	-60.226	-0.231	0.098
-293.676	138.826	-0.030	-0.039
-292.662	-43.020	0.220	0.111
-291.647	-28.572	0.115	-0.066
-290.632	10.653	-0.143	0.108
-289.618	408.439	-0.139	-0.292
-288.603	92.951	-0.023	-0.026
-287.589	-200.000	-0.000	0.070
-286.574	-66.850	0.172	-0.067
-285.559	-133.073	-0.043	-0.005
-284.545	-71.513	-0.182	0.068
-283.530	118.514	-0.077	0.094
-282.516	0.189	-0.136	0.096
-281.501	-64.453	0.094	-0.038
-280.486	-200.000	-0.001	0.148
-279.472	127.242	0.236	0.298
-278.457	-63.226	-0.260	-0.106
-277.443	-133.386	-0.063	0.008
-276.428	-75.660	0.152	-0.054
-275.413	419.896	-0.097	-0.207
-274.399	-24.509	0.341	-0.202
-273.384	-200.000	0.019	-0.299
-272.370	-121.455	-0.504	-0.083
-271.355	-51.771	-0.297	-0.138
-270.340	221.844	0.224	-0.358
-269.326	-33.278	0.163	-0.090
-268.311	-200.000	0.012	0.303
-267.297	-21.461	-0.152	-0.092
-266.282	-74.071	-0.344	-0.124
-265.267	12.529	0.120	0.092
-264.253	14.321	-0.113	0.087
-263.238	-200.000	-0.038	-0.238
-262.224	27.173	-0.185	0.154
-261.209	-56.537	-0.051	-0.022
-260.195	-70.867	0.146	0.055
-259.180	-36.604	-0.074	-0.040
-258.165	17.549	-0.192	-0.152
-257.151	-77.693	0.074	0.025
-256.136	800.000	0.056	0.224
-255.122	-173.612	0.179	-0.005
-254.107	104.906	0.062	0.072
-253.092	800.000	0.086	-0.243
-252.078	-31.048	-0.065	0.037
-251.063	-76.591	-0.134	0.047
-250.049	84.476	-0.208	0.226
-249.034	-89.849	0.505	0.146
-248.019	404.617	0.028	0.058
-247.005	379.008	-0.138	-0.280
-245.990	-57.932	0.250	-0.109
-244.976	70.354	0.157	-0.161
-243.961	97.379	0.235	-0.268
-242.946	-100.123	0.167	-0.041
-241.932	-5.076	-0.188	0.128
-240.917	124.914	-0.265	0.331
-239.903	-133.857	0.105	-0.013
-238.888	197.553	0.187	0.283
-237.873	76.307	-0.133	0.140
-236.859	63.079	-0.179	-0.178
-235.844	-12.237	0.250	-0.162
-234.830	-200.000	-0.011	0.152
-233.815	-188.935	-0.337	0.004
-232.800	29.530	0.279	0.236
-231.786	209.513	-0.081	0.126
-230.771	-20.442	0.148	0.090
-229.757	800.000	0.042	0.146
-228.742	-88.669	-0.043	-0.013
-227.727	-200.000	-0.013	-0.106
-226.713	669.742	-0.073	-0.188
-225.698	-66.498	-0.126	-0.049
-224.684	-12.882	0.089	0.057
-223.669	-99.169	0.411	0.103
-222.655	-153.097	0.138	-0.010
-221.640	-200.000	0.036	0.201
-220.625	-200.000	0.025	-0.273
-219.611	588.320	0.041	0.100
-218.596	-79.866	-0.118	-0.039
-217.582	343.597	0.111	0.216
-216.567	-200.000	0.039	0.247
-215.552	173.956	-0.077	-0.110
-214.538	-110.888	0.189	-0.039
-213.523	-46.368	-0.076	-0.037
-212.509	-5.374	-0.117	-0.080
-211.494	-200.000	0.010	0.064
-210.479	11.734	0.170	0.130
-209.465	254.249	-0.062	0.105
-208.450	-138.352	0.220	0.024
-207.436	584.990	0.050	0.123
-206.421	27.744	0.181	-0.151
-205.406	-115.423	0.335	-0.063
-204.392	-104.638	-0.364	0.083
-203.377	227.976	0.031	-0.050
-202.363	-200.000	0.059	-0.335
-201.348	-25.174	0.114	0.067
-200.333	346.365	0.150	-0.292
-199.319	800.000	-0.068	-0.284
-198.304	-110.323	0.140	-0.029
-197.290	-0.904	0.357	0.251
-196.275	-70.043	-0.141	0.053
-195.260	-104.009	-0.159	-0.037
-194.246	-52.924	0.116	-0.053
-193.231	-39.226	-0.061	-0.032
-192.217	-123.916	-0.420	-0.066
-191.202	25.707	-0.375	0.309
-190.187	-47.890	-0.063	0.030
-189.173	486.351	0.064	-0.144
-188.158	-200.000	0.016	-0.072
-187.144	-200.000	0.132	0.000
-186.129	800.000	0.074	-0.293
-185.114	-33.626	0.125	-0.068
-184.100	60.854	-0.202	-0.198
-183.085	-61.270	-0.119	0.050
-182.071	203.143	-0.088	0.135
-181.056	-137.476	0.097	0.011
-180.042	-100.336	0.394	-0.097
-179.027	-169.369	0.284	-0.010
-178.012	-173.077	0.170	-0.005
-176.998	-126.176	0.234	0.035
-175.983	-200.000	-0.043	0.238
-174.969	115.704	-0.254	0.307
-173.954	-36.552	-0.109	0.058
-172.939	800.000	-0.037	-0.142
-171.925	-128.693	-0.224	-0.031
-170.910	385.030	0.108	0.221
-169.896	-93.590	0.135	0.037
-168.881	-63.271	0.238	0.097
-167.866	269.919	0.090	0.157
-166.852	800.000	0.037	0.133
-165.837	-200.000	-0.005	0.133
-164.823	-24.782	0.053	-0.031
-163.808	-1.672	-0.177	0.124
-162.793	-34.879	0.193	-0.104
-161.779	-200.000	0.004	0.089
-160.764	-200.000	0.034	-0.288
-159.750	583.553	0.099	0.241
-158.735	-77.098	-0.134	0.046
-157.720	-200.000	-0.012	0.113
-156.706	800.000	-0.122	-0.342
-155.691	-62.169	0.185	0.076
-154.677	566.986	-0.028	0.066
-153.662	-34.933	-0.111	0.060
-152.647	-42.628	-0.132	0.066
-151.633	753.584	-0.058	0.156
-150.618	-94.934	0.449	-0.120
-149.604	138.242	-0.050	0.064
-148.589	-74.196	0.226	-0.081
-147.574	-75.682	0.221	-0.077
-146.560	-200.000	-0.014	-0.199
-145.545	273.713	0.041	-0.072
-144.531	-200.000	0.007	0.065
-143.516	-200.000	-0.017	-0.129
-142.502	-200.000	-0.012	0.197
-141.487	43.945	-0.089	-0.081
-140.472	800.000	0.062	-0.193
-139.458	-15.400	0.165	-0.104
-138.443	-200.000	-0.016	0.255
-137.429	800.000	-0.025	-0.083
-136.414	29.760	0.119	-0.100
-135.399	105.094	0.188	-0.219
-134.385	-176.350	0.319	0.008
-133.370	-95.007	-0.208	0.055
-132.356	158.114	0.154	-0.211
-131.341	-123.309	0.191	0.030
-130.326	-200.000	-0.026	0.125
-129.312	-90.685	-0.187	-0.053
-128.297	-200.000	-0.008	0.104
-127.283	-121.622	0.353	0.058
-126.268	-45.222	-0.019	-0.009
-125.253	36.201	-0.109	0.095
-124.239	-36.901	-0.102	-0.054
-123.224	425.190	0.155	-0.329
-122.210	612.731	0.080	0.198
