DTS Sentinel unit serial number:	SN413079Multiplexer serial number:	ORYXHardware model number:	OX4-SRSoftware version number:	ORYX F/W v4.00 Oryx Data Collector v3.7.2.0data status	okinstallation	princeton_trtdifferential loss correction	single-endedforward channel	channel 2reverse channel	N/Adate	2019/09/15time	06:15:34forward acquisition time	60.00reverse acquisition time	0.00gamma	496.2192k internal	0.2326k external	0.2326temperature offset calibration	1.0033default loss term (dB/km)	0.3790temperature slope calibration	1.0000multiplexer offset coefficient	1.0000multiplexer slope coefficient	1.0000fibre end	0.00T internal ref (°C)	30.56T ext. ref 1 (°C)	4.83T ext. ref 2 (°C)	25.08length (m)	temperature (°C)	Stokes	anti-Stokes-747.200	70.558	-0.164	-0.171
-746.185	-80.906	-0.071	0.024
-745.171	-90.566	-0.175	0.051
-744.156	800.000	0.007	-0.028
-743.142	-69.685	0.292	0.113
-742.127	-166.823	-0.083	-0.003
-741.112	-13.389	0.181	0.119
-740.098	291.180	-0.156	0.286
-739.083	769.558	0.040	-0.109
-738.069	800.000	0.087	0.331
-737.054	-137.618	-0.108	0.012
-736.039	11.749	-0.186	0.144
-735.025	760.636	0.127	0.347
-734.010	206.019	0.215	0.338
-732.996	242.714	-0.201	0.340
-731.981	-77.578	-0.157	-0.055
-730.966	9.550	-0.294	-0.225
-729.952	-200.000	0.012	-0.075
-728.937	19.758	-0.207	-0.168
-727.923	-19.046	-0.209	-0.131
-726.908	308.607	-0.068	0.128
-725.894	-200.000	-0.030	0.198
-724.879	48.250	-0.095	0.090
-723.864	-168.317	0.250	-0.010
-722.850	318.144	0.123	-0.236
-721.835	-200.000	0.007	-0.208
-720.821	-200.000	-0.009	0.200
-719.806	29.373	-0.134	0.114
-718.791	41.434	0.328	-0.299
-717.777	501.031	0.044	-0.103
-716.762	-20.796	0.292	-0.180
-715.748	800.000	-0.070	0.224
-714.733	25.833	-0.104	0.087
-713.718	-55.826	-0.148	0.067
-712.704	-23.072	0.086	-0.052
-711.689	-200.000	0.031	-0.342
-710.675	261.204	0.058	-0.101
-709.660	-200.000	0.009	0.140
-708.645	241.989	-0.164	0.276
-707.631	-200.000	0.040	-0.230
-706.616	573.757	-0.100	-0.246
-705.602	355.276	-0.094	0.188
-704.587	12.878	-0.341	0.266
-703.572	87.452	-0.061	0.068
-702.558	-200.000	-0.006	0.148
-701.543	-152.536	0.036	0.003
-700.529	-159.548	-0.209	0.012
-699.514	104.959	0.200	-0.237
-698.499	800.000	-0.144	0.544
-697.485	-119.789	0.066	0.011
-696.470	602.890	0.122	0.305
-695.456	-49.736	0.204	-0.097
-694.441	-50.006	0.072	-0.034
-693.426	-122.559	-0.194	-0.032
-692.412	10.163	0.207	0.158
-691.397	101.155	0.226	0.265
-690.383	-200.000	0.011	-0.184
-689.368	-171.067	-0.271	-0.009
-688.354	-29.797	-0.220	-0.126
-687.339	-172.906	-0.182	-0.006
-686.324	45.052	-0.445	-0.413
-685.310	-98.724	0.232	-0.060
-684.295	87.336	-0.188	-0.209
-683.281	800.000	-0.055	-0.153
-682.266	-113.023	-0.172	0.034
-681.251	-150.816	0.083	0.006
-680.237	-35.597	-0.259	0.141
-679.222	-13.723	-0.219	0.142
-678.208	326.447	0.176	-0.338
-677.193	-200.000	-0.072	-0.353
-676.178	134.028	-0.141	-0.184
-675.164	-11.477	-0.229	-0.151
-674.149	591.143	0.088	0.220
-673.135	4.680	-0.119	-0.088
-672.120	222.898	-0.113	-0.183
-671.105	374.286	0.200	0.410
-670.091	800.000	-0.044	0.124
-669.076	-55.062	0.105	-0.048
-668.062	21.443	0.154	0.126
-667.047	-47.255	-0.208	-0.102
-666.032	800.000	0.011	0.048
-665.018	800.000	0.071	-0.222
-664.003	-89.838	0.219	0.064
-662.989	-200.000	-0.014	-0.187
-661.974	166.558	0.094	-0.134
-660.959	223.247	-0.077	-0.125
-659.945	44.652	0.126	-0.116
-658.930	-52.330	-0.116	0.054
-657.916	108.897	-0.018	0.021
-656.901	39.472	-0.142	-0.127
-655.886	-82.862	0.229	-0.074
-654.872	-154.488	0.096	-0.006
-653.857	-127.848	-0.186	-0.027
-652.843	-95.811	-0.202	0.054
-651.828	-58.124	0.201	0.088
-650.814	91.410	-0.194	-0.218
-649.799	293.863	0.062	-0.114
-648.784	172.070	-0.121	0.174
-647.770	70.240	0.063	0.066
-646.755	15.539	0.165	-0.130
-645.741	52.711	0.211	0.203
-644.726	523.260	0.036	0.085
-643.711	-200.000	-0.032	0.220
-642.697	-155.727	-0.015	0.001
-641.682	-121.886	0.061	-0.010
-640.668	-67.125	0.311	0.123
-639.653	114.057	0.260	0.318
-638.638	212.107	-0.192	-0.305
-637.624	562.832	0.022	-0.053
-636.609	-200.000	0.005	-0.096
-635.595	81.464	0.207	-0.225
-634.580	-147.705	-0.658	0.055
-633.565	-200.000	0.076	0.387
-632.551	-43.062	-0.081	0.041
-631.536	-115.436	0.306	-0.058
-630.522	171.236	0.266	-0.384
-629.507	-200.000	0.029	-0.177
-628.492	-28.792	0.131	0.076
-627.478	-185.134	0.149	0.002
-626.463	25.961	0.103	0.086
-625.449	-200.000	0.031	-0.192
-624.434	800.000	0.053	-0.183
-623.419	190.122	0.157	0.236
-622.405	42.291	0.191	-0.175
-621.390	59.555	0.114	0.112
-620.376	465.218	-0.061	-0.138
-619.361	17.625	-0.098	-0.078
-618.346	-181.092	0.276	-0.006
-617.332	578.653	-0.075	0.184
-616.317	178.118	-0.091	-0.134
-615.303	495.271	0.121	-0.279
-614.288	197.822	0.220	0.338
-613.273	522.427	-0.082	-0.193
-612.259	-49.518	-0.155	0.074
-611.244	-79.508	-0.234	0.079
-610.230	91.808	0.372	-0.420
-609.215	-93.670	-0.100	-0.028
-608.201	-200.000	-0.026	-0.329
-607.186	-200.000	-0.050	0.451
-606.171	34.684	0.062	0.054
-605.157	47.409	0.045	0.042
-604.142	-200.000	-0.017	0.165
-603.128	-33.752	0.112	-0.062
-602.113	-200.000	-0.001	0.041
-601.098	-200.000	-0.036	0.172
-600.084	-200.000	-0.024	-0.115
-599.069	-42.291	-0.130	-0.066
-598.055	-200.000	-0.034	-0.211
-597.040	287.656	-0.078	-0.141
-596.025	36.068	0.220	0.195
-595.011	201.774	-0.185	0.286
-593.996	800.000	-0.139	0.488
-592.982	-200.000	0.129	-0.575
-591.967	-63.128	0.448	-0.185
-590.952	221.878	-0.214	-0.345
-589.938	-119.506	-0.311	-0.054
-588.923	-125.551	-0.179	0.027
-587.909	301.896	0.031	-0.058
-586.894	415.871	0.104	0.223
-585.879	663.719	-0.140	0.361
-584.865	-200.000	-0.030	-0.267
-583.850	-200.000	0.043	-0.323
-582.836	320.255	0.081	-0.154
-581.821	-72.596	-0.226	0.083
-580.806	64.058	0.206	0.207
-579.792	239.387	-0.216	-0.359
-578.777	137.761	-0.129	0.169
-577.763	-200.000	0.017	0.311
-576.748	-139.357	-0.097	-0.010
-575.733	68.060	-0.246	-0.252
-574.719	105.310	-0.186	-0.220
-573.704	-95.102	-0.187	-0.051
-572.690	-73.217	0.267	0.098
-571.675	-200.000	-0.013	0.083
-570.661	800.000	-0.052	-0.179
-569.646	-2.361	-0.184	0.129
-568.631	128.592	-0.122	-0.155
-567.617	-128.677	0.462	0.065
-566.602	-88.562	-0.030	0.009
-565.588	19.489	-0.183	-0.147
-564.573	539.319	0.058	0.139
-563.558	-200.000	-0.004	-0.248
-562.544	-89.727	-0.251	0.074
-561.529	184.614	0.128	-0.189
-560.515	-4.993	-0.160	-0.110
-559.500	-37.073	-0.224	-0.120
-558.485	321.203	0.130	0.247
-557.471	-74.266	-0.186	0.067
-556.456	276.150	0.103	-0.182
-555.442	-105.332	-0.325	0.074
-554.427	-200.000	-0.001	-0.185
-553.412	-60.847	-0.126	0.053
-552.398	800.000	0.045	0.164
-551.383	-91.000	-0.085	0.024
-550.369	-23.019	0.081	0.049
-549.354	95.643	-0.141	-0.161
-548.339	4.203	-0.041	-0.030
-547.325	-200.000	-0.025	0.122
-546.310	-41.924	-0.295	0.151
-545.296	800.000	0.019	0.065
-544.281	40.833	0.171	0.154
-543.266	131.118	-0.070	0.091
-542.252	-131.077	0.129	0.017
-541.237	-200.000	-0.077	-0.412
-540.223	-12.281	0.105	-0.069
-539.208	-120.958	-0.090	0.015
-538.193	800.000	-0.106	-0.300
-537.179	-110.003	-0.056	-0.012
-536.164	-35.700	0.170	-0.092
-535.150	350.482	-0.087	0.172
-534.135	-130.954	0.159	-0.021
-533.121	510.831	0.034	0.079
-532.106	-200.000	0.047	0.251
-531.091	52.604	-0.271	0.259
-530.077	117.732	0.149	0.183
-529.062	-200.000	-0.021	-0.332
-528.048	800.000	-0.021	-0.091
-527.033	313.251	-0.117	0.220
-526.018	391.183	-0.089	0.186
-525.004	-193.097	0.089	-0.001
-523.989	521.686	-0.107	-0.251
-522.975	369.076	-0.046	0.092
-521.960	-135.860	-0.132	-0.016
-520.945	50.208	-0.233	0.220
-519.931	67.362	-0.224	0.228
-518.916	155.457	0.121	0.166
-517.902	-50.457	0.139	-0.066
-516.887	168.386	-0.133	-0.189
-515.872	800.000	-0.050	-0.199
-514.858	-40.075	-0.320	-0.167
-513.843	-78.823	-0.170	-0.058
-512.829	-76.278	-0.165	-0.058
-511.814	-192.089	-0.119	0.001
-510.799	-200.000	0.014	-0.316
-509.785	-200.000	0.027	-0.240
-508.770	78.723	-0.222	-0.238
-507.756	-37.223	0.200	-0.107
-506.741	241.435	0.147	-0.245
-505.726	735.763	-0.050	-0.133
-504.712	-200.000	0.030	-0.245
-503.697	98.761	-0.193	0.223
-502.683	-200.000	-0.008	-0.054
-501.668	63.142	0.121	-0.121
-500.653	186.154	0.108	-0.160
-499.639	-140.784	-0.308	-0.032
-498.624	-138.180	-0.354	-0.039
-497.610	-50.315	0.303	-0.143
-496.595	800.000	0.057	-0.232
-495.581	-86.741	0.329	0.101
-494.566	-32.945	0.038	-0.021
-493.551	-102.693	-0.570	0.136
-492.537	137.365	0.106	-0.139
-491.522	32.680	-0.381	-0.329
-490.508	53.036	0.107	0.103
-489.493	800.000	-0.100	0.298
-488.478	332.945	0.109	0.210
-487.464	-130.458	0.152	-0.021
-486.449	61.041	0.217	0.215
-485.435	800.000	-0.059	-0.234
-484.420	800.000	0.042	0.121
-483.405	106.777	0.131	-0.156
-482.391	-200.000	0.079	-0.430
-481.376	-136.114	0.100	0.012
-480.362	253.264	0.109	-0.186
-479.347	-97.852	0.395	0.102
-478.332	-90.800	0.431	-0.124
-477.318	254.415	-0.112	-0.191
-476.303	800.000	0.046	0.142
-475.289	31.509	0.296	0.254
-474.274	-24.005	0.036	0.021
-473.259	-93.245	-0.192	-0.053
-472.245	-46.386	-0.133	-0.065
-471.230	-133.788	0.255	-0.032
-470.216	341.805	0.157	-0.307
-469.201	56.353	-0.108	-0.105
-468.186	-200.000	0.038	0.211
-467.172	-200.000	-0.004	0.135
-466.157	-22.645	0.154	-0.093
-465.143	-134.151	0.318	0.039
-464.128	675.337	-0.086	-0.222
-463.113	800.000	-0.070	0.261
-462.099	-35.956	0.197	-0.106
-461.084	25.150	0.220	0.182
-460.070	-28.155	0.236	-0.136
-459.055	-21.201	-0.251	-0.153
-458.040	-46.406	0.171	0.084
-457.026	-93.718	-0.180	-0.050
-456.011	-65.365	-0.202	0.081
-454.997	-192.564	-0.236	0.002
-453.982	595.398	0.072	0.177
-452.968	-100.171	-0.145	0.036
-451.953	-113.585	0.548	0.107
-450.938	43.904	-0.235	-0.214
-449.924	141.903	-0.106	-0.140
-448.909	-168.289	-0.136	-0.005
-447.895	-200.000	0.014	-0.259
-446.880	121.635	-0.037	0.047
-445.865	800.000	0.044	-0.143
-444.851	800.000	-0.018	-0.072
-443.836	1.654	-0.241	0.173
-442.822	71.298	-0.245	0.253
-441.807	82.659	-0.218	0.236
-440.792	-40.963	0.170	-0.088
-439.778	-200.000	-0.151	0.000
-438.763	-200.000	0.014	-0.087
-437.749	478.036	0.055	0.123
-436.734	-60.727	-0.448	-0.189
-435.719	98.036	0.217	-0.249
-434.705	-96.324	-0.388	-0.102
-433.690	-200.000	0.031	0.387
-432.676	393.804	-0.167	0.346
-431.661	117.350	-0.326	0.400
-430.646	-144.613	-0.151	0.014
-429.632	-182.407	0.231	0.004
-428.617	171.378	-0.352	0.503
-427.603	349.040	0.078	0.153
-426.588	-36.568	0.047	0.025
-425.573	-200.000	0.065	0.353
-424.559	-13.887	-0.307	0.198
-423.544	800.000	0.063	0.176
-422.530	-16.162	-0.204	-0.129
-421.515	114.201	0.079	0.096
-420.500	-63.425	0.244	-0.100
-419.486	398.420	0.027	0.056
-418.471	-110.259	0.176	-0.037
-417.457	-134.816	0.476	-0.057
-416.442	15.296	-0.265	0.207
-415.428	-105.940	0.356	-0.080
-414.413	-200.000	0.015	-0.296
-413.398	753.619	-0.091	-0.245
-412.384	-200.000	0.023	0.191
-411.369	-25.901	0.031	-0.018
-410.355	17.369	0.359	-0.284
-409.340	-200.000	-0.040	-0.185
-408.325	33.775	-0.237	0.206
-407.311	-200.000	0.059	-0.282
-406.296	-200.000	-0.017	-0.132
-405.282	44.897	0.184	0.169
-404.267	800.000	-0.015	0.055
-403.252	-133.728	-0.261	-0.032
-402.238	800.000	-0.053	-0.201
-401.223	-6.714	-0.044	0.030
-400.209	-89.725	-0.063	0.018
-399.194	800.000	-0.083	-0.288
-398.179	-200.000	-0.033	-0.156
-397.165	-97.375	0.179	-0.046
-396.150	-33.025	-0.268	0.148
-395.136	-200.000	-0.049	0.240
-394.121	142.710	0.126	-0.167
-393.106	-17.623	0.305	0.191
-392.092	-147.264	0.309	-0.026
-391.077	21.900	-0.129	0.105
-390.063	-163.508	0.078	0.004
-389.048	-200.000	0.045	-0.315
-388.033	61.091	0.152	0.150
-387.019	-48.901	-0.161	-0.077
-386.004	800.000	-0.062	0.243
-384.990	166.963	-0.186	-0.263
-383.975	-184.321	-0.106	0.002
-382.960	-200.000	-0.010	0.197
-381.946	-10.042	0.189	-0.125
-380.931	-156.944	-0.267	0.016
-379.917	-146.900	0.347	-0.030
-378.902	558.979	0.069	-0.165
-377.888	-200.000	0.033	0.394
-376.873	-200.000	-0.067	-0.359
-375.858	-184.760	-0.059	-0.001
-374.844	-19.056	0.148	0.091
-373.829	-79.615	-0.231	-0.077
-372.815	-190.670	-0.159	-0.002
-371.800	5.084	-0.243	0.178
-370.785	-0.038	0.125	-0.088
-369.771	800.000	-0.060	-0.233
-368.756	-26.357	-0.273	-0.159
-367.742	-60.227	-0.063	-0.027
-366.727	-64.380	-0.172	0.069
-365.712	800.000	-0.045	-0.168
-364.698	-120.993	-0.174	-0.029
-363.683	292.325	-0.143	-0.258
-362.669	-143.226	-0.457	0.044
-361.654	-168.061	-0.121	0.005
-360.639	36.389	0.028	-0.025
-359.625	354.972	-0.037	0.074
-358.610	-108.275	-0.128	0.027
-357.596	-79.452	0.395	-0.133
-356.581	91.564	-0.138	0.154
-355.566	-153.070	-0.110	0.008
-354.552	246.301	-0.082	-0.137
-353.537	223.762	0.108	0.173
-352.523	58.358	-0.314	-0.306
-351.508	80.745	0.180	0.193
-350.493	5.993	-0.319	0.235
-349.479	53.856	-0.188	-0.179
-348.464	-33.916	0.235	-0.128
-347.450	31.176	-0.179	-0.153
-346.435	-3.615	-0.108	0.074
-345.420	800.000	0.024	0.088
-344.406	-200.000	0.008	0.085
-343.391	57.889	-0.105	-0.102
-342.377	-81.409	-0.183	0.060
-341.362	682.949	-0.139	0.360
-340.348	-200.000	-0.003	0.108
-339.333	131.258	0.191	-0.243
-338.318	54.551	0.158	0.151
-337.304	-78.031	-0.211	0.072
-336.289	-200.000	-0.016	-0.075
-335.275	-121.782	-0.069	-0.011
-334.260	-200.000	-0.026	0.134
-333.245	-103.067	-0.435	0.102
-332.231	-133.044	0.224	0.028
-331.216	5.269	0.120	-0.088
-330.202	800.000	0.126	-0.374
-329.187	37.369	-0.206	0.182
-328.172	204.992	-0.160	0.246
-327.158	662.705	0.124	-0.317
-326.143	186.385	0.123	0.182
-325.129	382.676	0.110	0.224
-324.114	153.860	-0.134	0.182
-323.099	-30.714	0.380	0.214
-322.085	28.928	0.018	-0.015
-321.070	-115.286	0.057	-0.011
-320.056	11.940	-0.095	0.072
-319.041	63.421	-0.239	-0.238
-318.026	-87.118	-0.157	0.047
-317.012	-200.000	0.013	-0.119
-315.997	150.701	0.199	0.268
-314.983	-148.845	-0.247	0.020
-313.968	80.397	-0.158	0.169
-312.953	16.259	0.045	0.035
-311.939	-167.683	-0.168	0.007
-310.924	-200.000	0.017	0.094
-309.910	-200.000	0.002	0.111
-308.895	-178.257	0.391	-0.009
-307.880	-153.681	-0.051	-0.003
-306.866	261.003	-0.164	-0.282
-305.851	319.546	0.149	0.280
-304.837	-200.000	0.009	-0.278
-303.822	-45.825	-0.125	-0.061
-302.807	-136.399	0.297	-0.034
-301.793	63.048	-0.053	0.053
-300.778	171.834	-0.184	-0.262
-299.764	-74.834	-0.351	-0.125
-298.749	800.000	-0.101	-0.319
-297.735	-34.129	0.075	-0.041
-296.720	-9.423	0.165	0.109
-295.705	800.000	-0.142	-0.390
-294.691	-200.000	-0.006	-0.204
-293.676	-68.006	0.120	-0.046
-292.662	124.745	0.224	0.280
-291.647	-78.013	-0.287	-0.098
-290.632	191.649	-0.179	-0.267
-289.618	175.645	-0.119	0.171
-288.603	-200.000	0.032	0.280
-287.589	6.637	0.120	-0.088
-286.574	-181.383	-0.287	0.006
-285.559	-200.000	0.047	-0.250
-284.545	-175.693	0.368	-0.010
-283.530	-94.152	0.239	-0.065
-282.516	45.516	-0.130	0.119
-281.501	-153.821	-0.169	-0.011
-280.486	206.556	0.078	-0.121
-279.472	188.070	0.170	-0.251
-278.457	-107.192	0.081	0.018
-277.443	-43.507	0.069	-0.034
-276.428	-76.850	0.131	0.045
-275.413	-42.757	-0.064	0.032
-274.399	168.379	0.127	0.180
-273.384	800.000	0.095	-0.334
-272.370	17.826	-0.104	0.082
-271.355	31.148	0.165	0.141
-270.340	800.000	0.052	-0.183
-269.326	-75.302	0.061	-0.021
-268.311	-91.378	0.167	-0.047
-267.297	323.221	-0.094	-0.177
-266.282	242.894	-0.099	-0.164
-265.267	205.741	-0.198	0.304
-264.253	-200.000	0.010	0.106
-263.238	3.530	-0.193	0.139
-262.224	-148.395	-0.264	0.021
-261.209	-93.425	-0.586	0.161
-260.195	-114.465	0.313	0.059
-259.180	-42.968	0.171	-0.086
-258.165	-66.796	0.124	-0.049
-257.151	8.041	-0.310	0.230
-256.136	20.956	-0.065	-0.052
-255.122	286.800	0.052	-0.093
-254.107	-200.000	-0.002	0.144
-253.092	154.003	-0.048	0.066
-252.078	-141.740	-0.052	0.005
-251.063	-200.000	0.042	0.190
-250.049	-200.000	0.045	0.503
-249.034	13.624	0.351	0.269
-248.019	102.510	0.180	-0.208
-247.005	579.427	0.091	0.221
-245.990	-200.000	0.005	0.024
-244.976	800.000	-0.114	0.327
-243.961	-150.006	0.309	0.024
-242.946	-79.882	0.094	-0.031
-241.932	138.703	0.116	-0.151
-240.917	-103.171	0.363	0.085
-239.903	-200.000	0.049	-0.284
-238.888	800.000	-0.106	0.304
-237.873	543.166	0.017	-0.040
-236.859	-36.165	0.089	0.048
-235.844	-200.000	0.001	-0.254
-234.830	-99.752	0.178	-0.044
-233.815	554.596	0.093	0.221
-232.800	-200.000	0.013	0.169
-231.786	224.628	-0.016	-0.026
-230.771	198.926	0.264	-0.400
-229.757	-173.068	-0.226	-0.007
-228.742	113.754	0.123	-0.148
-227.727	800.000	0.085	0.355
-226.713	340.462	0.117	0.225
-225.698	-200.000	-0.001	-0.116
-224.684	657.564	-0.047	0.120
-223.669	152.582	-0.154	0.208
-222.655	-57.089	-0.193	0.084
-221.640	-62.264	0.270	0.111
-220.625	-200.000	0.007	0.134
-219.611	-200.000	-0.001	-0.304
-218.596	-102.129	0.059	-0.014
-217.582	-31.627	0.197	0.110
-216.567	108.987	0.158	0.187
-215.552	9.612	0.064	-0.048
-214.538	-19.713	0.121	-0.074
-213.523	-146.520	0.163	-0.014
-212.509	132.856	0.258	0.329
-211.494	-59.494	-0.222	0.094
-210.479	-77.693	0.084	0.029
-209.465	433.314	-0.057	0.121
-208.450	-200.000	0.004	0.390
-207.436	-75.369	0.266	0.094
-206.421	-149.593	0.157	0.012
-205.406	-12.437	0.323	-0.208
-204.392	800.000	-0.085	0.305
-203.377	-105.286	-0.345	-0.078
-202.363	-64.177	0.181	0.073
-201.348	-64.723	-0.258	0.103
-200.333	-95.595	-0.262	-0.069
-199.319	-200.000	0.014	0.117
-198.304	800.000	-0.033	-0.091
-197.290	-131.631	0.069	-0.009
-196.275	289.358	0.071	0.126
-195.260	24.313	0.197	0.161
-194.246	-200.000	0.003	-0.040
-193.231	800.000	-0.037	0.104
-192.217	-57.894	0.173	-0.074
-191.202	-128.283	0.214	0.030
-190.187	80.034	-0.169	0.179
-189.173	117.907	-0.259	0.315
-188.158	182.010	0.158	0.229
-187.144	-169.570	-0.242	0.009
-186.129	125.841	0.109	0.136
-185.114	-123.859	-0.149	0.023
-184.100	800.000	0.037	0.120
-183.085	31.834	0.335	-0.285
-182.071	-122.379	-0.166	-0.027
-181.056	-39.888	-0.201	0.104
-180.042	-200.000	0.002	-0.156
-179.027	-106.268	0.179	-0.040
-178.012	-200.000	0.022	0.345
-176.998	145.406	-0.179	0.236
-175.983	114.323	0.258	-0.310
-174.969	-200.000	-0.017	-0.241
-173.954	-188.891	0.265	-0.003
-172.939	59.544	0.263	0.256
-171.925	-26.664	0.036	-0.021
-170.910	-24.829	0.270	-0.158
-169.896	44.133	0.078	0.070
-168.881	800.000	0.026	0.098
-167.866	56.155	0.186	-0.178
-166.852	800.000	-0.073	-0.291
-165.837	-67.317	-0.255	-0.099
-164.823	212.582	-0.095	0.148
-163.808	496.720	0.047	-0.105
-162.793	74.481	-0.158	-0.164
-161.779	-91.905	0.085	0.024
-160.764	15.037	0.050	-0.038
-159.750	-200.000	0.012	-0.094
-158.735	-66.138	0.315	0.124
-157.720	160.685	0.041	0.056
-156.706	800.000	-0.083	0.343
-155.691	737.557	-0.099	-0.261
-154.677	-181.859	0.266	0.005
-153.662	185.844	0.087	-0.128
-152.647	800.000	0.066	-0.240
-151.633	-38.647	0.290	0.151
-150.618	424.446	-0.096	0.204
-149.604	-117.313	0.108	0.019
-148.589	20.291	0.126	0.100
-147.574	-110.452	-0.252	0.052
-146.560	240.639	-0.091	0.150
-145.545	-12.992	0.035	-0.023
-144.531	-151.698	-0.240	-0.017
-143.516	237.614	0.047	-0.077
-142.502	-116.859	-0.010	0.002
-141.487	-200.000	0.165	0.001
-140.472	75.919	0.445	-0.463
-139.458	32.441	0.070	-0.060
-138.443	386.177	-0.056	-0.113
-137.429	-75.401	0.175	-0.061
-136.414	46.758	-0.157	-0.144
-135.399	-140.131	0.216	0.022
-134.385	-200.000	-0.011	-0.339
-133.370	-200.000	-0.010	-0.145
-132.356	151.321	-0.030	-0.040
-131.341	-85.915	0.226	0.069
-130.326	-0.698	-0.271	0.189
-129.312	166.274	0.181	0.252
-128.297	211.026	-0.150	-0.233
-127.283	625.191	0.079	0.197
-126.268	-58.427	-0.111	0.047
-125.253	-200.000	0.068	-0.547
-124.239	40.690	-0.177	0.157
-123.224	-4.417	-0.094	0.064
-122.210	800.000	-0.063	0.212
-121.195	-200.000	-0.000	0.091
