DTS Sentinel unit serial number:	SN413079Multiplexer serial number:	ORYXHardware model number:	OX4-SRSoftware version number:	ORYX F/W v4.00 Oryx Data Collector v3.7.2.0data status	okinstallation	princeton_trtdifferential loss correction	single-endedforward channel	channel 2reverse channel	N/Adate	2019/09/15time	02:39:34forward acquisition time	60.00reverse acquisition time	0.00gamma	496.2192k internal	0.2326k external	0.2326temperature offset calibration	1.0030default loss term (dB/km)	0.3790temperature slope calibration	1.0000multiplexer offset coefficient	1.0000multiplexer slope coefficient	1.0000fibre end	0.00T internal ref (°C)	31.44T ext. ref 1 (°C)	4.57T ext. ref 2 (°C)	25.86length (m)	temperature (°C)	Stokes	anti-Stokes-747.200	800.000	-0.053	0.175
-746.185	104.311	0.191	-0.227
-745.171	171.264	0.085	0.122
-744.156	-67.553	-0.549	0.217
-743.142	-76.996	0.309	-0.109
-742.127	-200.000	0.022	0.124
-741.112	-178.537	-0.219	0.005
-740.098	-129.594	0.251	-0.035
-739.083	230.964	0.134	0.221
-738.069	-68.023	0.154	-0.061
-737.054	800.000	-0.067	-0.215
-736.039	185.386	-0.228	-0.342
-735.025	800.000	-0.087	-0.248
-734.010	-163.630	0.170	0.008
-732.996	-71.565	-0.131	0.049
-731.981	247.655	-0.080	0.137
-730.966	301.671	0.080	0.148
-729.952	8.361	-0.460	-0.349
-728.937	-122.723	-0.300	-0.049
-727.923	339.713	0.126	-0.248
-726.908	-135.486	-0.201	-0.024
-725.894	38.186	-0.227	-0.203
-724.879	800.000	0.034	0.137
-723.864	251.818	0.031	0.053
-722.850	-200.000	0.000	0.100
-721.835	-97.569	-0.149	-0.039
-720.821	-120.166	-0.068	0.012
-719.806	-200.000	-0.004	-0.034
-718.791	-200.000	-0.067	-0.357
-717.777	800.000	0.025	-0.086
-716.762	138.825	-0.171	-0.226
-715.748	-170.466	0.301	0.011
-714.733	-200.000	-0.000	-0.114
-713.718	749.645	-0.038	0.105
-712.704	57.451	0.174	-0.171
-711.689	800.000	-0.012	0.049
-710.675	800.000	-0.077	-0.253
-709.660	159.329	-0.092	-0.129
-708.645	35.116	-0.098	0.086
-707.631	800.000	-0.090	0.267
-706.616	-116.451	0.338	0.063
-705.602	-27.261	0.217	-0.127
-704.587	-200.000	0.040	-0.247
-703.572	-61.015	0.239	0.102
-702.558	-200.000	0.077	0.382
-701.543	-91.152	0.270	-0.078
-700.529	-200.000	-0.007	-0.120
-699.514	172.276	0.188	0.273
-698.499	7.342	-0.196	-0.148
-697.485	-42.864	0.219	-0.112
-696.470	2.557	0.098	0.072
-695.456	800.000	-0.119	-0.372
-694.441	-191.368	-0.314	-0.003
-693.426	-200.000	0.004	0.212
-692.412	-148.287	-0.296	-0.025
-691.397	275.063	0.115	0.205
-690.383	265.921	-0.212	0.373
-689.368	83.140	-0.130	-0.143
-688.354	3.026	-0.232	-0.170
-687.339	-86.663	0.131	-0.040
-686.324	-44.476	-0.160	-0.081
-685.310	800.000	-0.078	0.321
-684.295	92.329	0.155	0.175
-683.281	800.000	0.024	-0.083
-682.266	-41.269	-0.164	-0.085
-681.251	-138.843	-0.209	-0.023
-680.237	-58.815	-0.111	0.048
-679.222	-200.000	0.030	-0.322
-678.208	-64.449	-0.062	-0.025
-677.193	5.163	-0.321	0.238
-676.178	40.730	-0.264	0.239
-675.164	-50.552	-0.207	0.098
-674.149	-168.994	0.175	0.007
-673.135	-87.039	0.271	-0.083
-672.120	23.377	0.065	-0.054
-671.105	613.298	-0.016	0.041
-670.091	-13.570	-0.096	-0.063
-669.076	-134.910	0.241	0.029
-668.062	145.742	-0.144	-0.194
-667.047	-122.776	-0.180	-0.029
-666.032	424.010	0.071	-0.154
-665.018	-200.000	-0.012	0.252
-664.003	-200.000	0.018	-0.183
-662.989	-102.143	-0.173	-0.042
-661.974	800.000	-0.108	-0.400
-660.959	63.156	-0.302	-0.304
-659.945	-200.000	-0.016	0.222
-658.930	-43.499	0.104	-0.053
-657.916	138.488	0.149	-0.196
-656.901	800.000	0.145	0.434
-655.886	23.063	-0.214	-0.177
-654.872	771.106	-0.116	-0.319
-653.857	-169.113	-0.295	0.011
-652.843	147.171	0.202	0.274
-651.828	-87.696	0.122	0.037
-650.814	-5.744	0.151	-0.104
-649.799	-25.903	0.265	0.157
-648.784	24.475	0.089	-0.074
-647.770	250.564	0.163	0.278
-646.755	-21.536	0.428	-0.262
-645.741	-63.071	-0.306	0.127
-644.726	111.014	-0.140	0.169
-643.711	800.000	-0.078	0.256
-642.697	115.175	-0.102	0.125
-641.682	102.618	0.082	0.096
-640.668	99.214	0.174	0.202
-639.653	271.643	-0.051	0.090
-638.638	767.357	-0.079	-0.215
-637.624	-101.102	0.167	-0.041
-636.609	17.772	0.274	0.219
-635.595	431.990	-0.195	0.424
-634.580	162.406	0.195	0.275
-633.565	68.724	0.174	0.179
-632.551	-129.518	0.080	0.011
-631.536	-64.782	-0.248	-0.101
-630.522	800.000	0.013	-0.042
-629.507	-140.769	-0.367	0.038
-628.492	-118.971	-0.299	-0.053
-627.478	-68.843	-0.242	0.094
-626.463	800.000	0.063	0.186
-625.449	-74.524	-0.290	0.105
-624.434	123.112	0.096	0.120
-623.419	-149.793	0.276	0.022
-622.405	-147.017	-0.134	-0.012
-621.390	40.212	0.098	0.088
-620.376	-113.731	0.344	0.067
-619.361	197.318	0.019	-0.029
-618.346	-200.000	-0.017	-0.131
-617.332	61.590	0.087	-0.087
-616.317	224.671	0.138	0.224
-615.303	-51.507	0.216	-0.101
-614.288	-86.626	-0.313	-0.096
-613.273	-1.832	-0.121	0.086
-612.259	248.288	0.063	-0.107
-611.244	-111.085	-0.187	-0.039
-610.230	-176.807	0.161	-0.004
-609.215	225.018	-0.111	-0.180
-608.201	73.279	-0.153	-0.160
-607.186	748.752	-0.114	-0.308
-606.171	-73.871	-0.218	-0.079
-605.157	-70.093	0.168	-0.064
-604.142	800.000	0.058	0.227
-603.128	-37.781	-0.240	-0.128
-602.113	-58.274	-0.289	-0.126
-601.098	-200.000	0.016	0.168
-600.084	37.892	0.205	0.183
-599.069	48.657	-0.222	0.209
-598.055	-113.012	-0.092	0.018
-597.040	-67.284	0.097	0.038
-596.025	200.804	0.025	0.039
-595.011	140.377	-0.039	-0.052
-593.996	181.675	-0.167	-0.247
-592.982	297.148	0.112	-0.206
-591.967	332.010	0.133	-0.258
-590.952	134.448	0.126	-0.163
-589.938	-27.055	0.250	0.146
-588.923	215.046	0.107	-0.170
-587.909	40.750	-0.181	0.164
-586.894	62.037	-0.086	0.086
-585.879	-123.208	-0.160	-0.026
-584.865	800.000	0.042	-0.154
-583.850	211.555	0.241	-0.380
-582.836	-113.643	-0.245	-0.048
-581.821	-200.000	0.002	-0.280
-580.806	-60.178	-0.172	0.074
-579.792	-200.000	-0.003	-0.067
-578.777	764.848	0.076	0.208
-577.763	-200.000	0.025	-0.301
-576.748	10.640	-0.159	0.121
-575.733	-200.000	0.037	0.210
-574.719	43.486	-0.235	-0.215
-573.704	-200.000	0.048	0.260
-572.690	-45.790	0.106	-0.053
-571.675	31.523	-0.177	-0.153
-570.661	321.487	0.147	0.280
-569.646	-61.572	0.187	0.079
-568.631	22.041	0.045	0.037
-567.617	350.133	-0.079	0.157
-566.602	-1.254	-0.136	-0.096
-565.588	571.036	-0.115	0.282
-564.573	211.859	-0.173	-0.273
-563.558	319.493	-0.048	0.092
-562.544	255.693	0.127	0.217
-561.529	-171.693	0.083	0.003
-560.515	114.284	0.088	0.107
-559.500	800.000	-0.066	0.201
-558.485	309.395	0.096	-0.180
-557.471	213.308	0.120	-0.190
-556.456	596.877	0.038	0.094
-555.442	800.000	-0.032	-0.128
-554.427	-16.655	-0.207	0.131
-553.412	800.000	-0.084	0.308
-552.398	167.500	-0.072	-0.102
-551.383	-200.000	0.017	0.243
-550.369	-200.000	0.021	-0.114
-549.354	359.668	-0.079	0.158
-548.339	-175.301	0.192	-0.005
-547.325	-93.123	-0.543	-0.151
-546.310	43.581	-0.244	-0.223
-545.296	-151.052	-0.151	-0.011
-544.281	800.000	-0.023	-0.102
-543.266	657.654	0.016	-0.042
-542.252	-39.012	-0.213	-0.112
-541.237	51.244	-0.272	0.259
-540.223	97.539	0.206	-0.237
-539.208	-200.000	-0.002	-0.249
-538.193	-200.000	0.005	-0.250
-537.179	800.000	-0.069	-0.203
-536.164	-9.046	0.003	-0.002
-535.150	113.434	0.122	0.148
-534.135	-130.055	-0.149	-0.020
-533.121	-200.000	0.029	-0.264
-532.106	-200.000	0.023	0.169
-531.091	-105.607	-0.247	0.056
-530.077	-57.978	-0.177	-0.078
-529.062	-136.678	-0.221	0.026
-528.048	-105.164	-0.174	-0.040
-527.033	-95.969	0.132	0.035
-526.018	91.375	0.202	-0.227
-525.004	144.651	-0.077	-0.103
-523.989	644.345	-0.138	0.351
-522.975	-65.313	0.431	0.173
-521.960	-134.158	0.105	0.013
-520.945	-200.000	0.008	-0.075
-519.931	-63.494	0.107	0.044
-518.916	-36.770	-0.121	0.065
-517.902	-200.000	-0.017	0.127
-516.887	-122.901	0.170	-0.027
-515.872	-200.000	0.038	0.208
-514.858	120.024	-0.104	0.129
-513.843	-200.000	-0.017	-0.112
-512.829	-134.114	0.157	0.019
-511.814	-74.329	-0.142	0.051
-510.799	-35.087	0.135	0.073
-509.785	-200.000	0.019	-0.085
-508.770	-97.556	0.173	0.045
-507.756	-98.034	0.219	-0.056
-506.741	800.000	-0.038	-0.135
-505.726	-83.164	-0.202	-0.065
-504.712	-110.454	-0.211	-0.044
-503.697	-64.588	-0.158	0.064
-502.683	-200.000	-0.011	-0.237
-501.668	114.793	-0.174	0.212
-500.653	153.449	-0.061	0.084
-499.639	148.829	-0.098	-0.132
-498.624	-200.000	-0.023	0.162
-497.610	-87.472	0.193	-0.058
-496.595	-132.152	0.294	0.038
-495.581	-200.000	0.024	-0.263
-494.566	-200.000	-0.015	-0.170
-493.551	-35.997	-0.089	0.048
-492.537	-86.302	-0.030	-0.009
-491.522	22.210	0.201	-0.164
-490.508	-116.204	0.175	0.032
-489.493	682.741	0.100	0.260
-488.478	800.000	0.078	-0.260
-487.464	4.586	-0.086	-0.063
-486.449	-200.000	0.012	-0.111
-485.435	-93.258	-0.303	0.084
-484.420	-161.950	0.243	-0.012
-483.405	-18.821	0.159	0.099
-482.391	-200.000	0.010	0.265
-481.376	-47.833	-0.072	0.035
-480.362	-104.298	0.371	0.086
-479.347	-200.000	0.026	-0.222
-478.332	-28.250	0.276	0.159
-477.318	262.749	0.077	0.134
-476.303	19.119	-0.180	-0.144
-475.289	-0.658	-0.141	0.100
-474.274	-75.506	-0.247	-0.088
-473.259	81.243	0.247	-0.266
-472.245	79.583	0.009	-0.009
-471.230	305.789	0.062	0.115
-470.216	-200.000	0.018	-0.086
-469.201	-200.000	0.013	0.250
-468.186	-200.000	-0.058	0.365
-467.172	511.705	0.122	-0.284
-466.157	-126.535	0.065	0.010
-465.143	-22.372	-0.141	0.085
-464.128	374.757	-0.043	-0.088
-463.113	-97.167	0.157	0.041
-462.099	-200.000	0.005	0.036
-461.084	124.425	-0.120	0.150
-460.070	-48.560	0.149	0.071
-459.055	-133.460	-0.167	0.021
-458.040	-200.000	-0.036	0.450
-457.026	-200.000	0.066	-0.301
-456.011	183.915	0.108	0.160
-454.997	-200.000	-0.045	-0.199
-453.982	-158.172	-0.029	0.002
-452.968	-43.203	0.096	0.048
-451.953	-200.000	-0.026	-0.286
-450.938	240.855	-0.063	-0.105
-449.924	85.904	-0.081	-0.089
-448.909	1.737	-0.048	0.034
-447.895	129.286	-0.150	-0.191
-446.880	-200.000	-0.039	0.326
-445.865	800.000	0.116	0.349
-444.851	168.832	0.050	0.072
-443.836	-200.000	0.016	0.255
-442.822	1.613	0.190	0.136
-441.807	103.752	-0.069	-0.080
-440.792	-47.986	0.278	-0.134
-439.778	-51.034	0.206	0.096
-438.763	-200.000	0.019	-0.257
-437.749	-200.000	0.002	0.053
-436.734	-117.566	0.229	0.041
-435.719	800.000	-0.054	0.195
-434.705	-200.000	0.027	0.160
-433.690	115.967	-0.218	0.266
-432.676	552.961	-0.117	0.279
-431.661	-7.448	0.187	-0.126
-430.646	-200.000	-0.013	-0.295
-429.632	-200.000	-0.050	-0.278
-428.617	-26.631	-0.297	-0.173
-427.603	-139.752	-0.057	-0.006
-426.588	154.657	-0.173	0.237
-425.573	82.061	0.171	-0.185
-424.559	-200.000	0.038	-0.213
-423.544	-52.754	0.242	0.111
-422.530	-200.000	-0.008	-0.158
-421.515	-200.000	-0.007	-0.057
-420.500	28.153	0.175	0.147
-419.486	4.165	0.386	-0.282
-418.471	516.844	-0.038	-0.088
-417.457	15.171	0.010	0.008
-416.442	-132.509	0.261	-0.033
-415.428	28.804	0.230	-0.194
-414.413	-93.595	-0.023	0.006
-413.398	289.302	-0.245	-0.443
-412.384	-55.962	-0.161	-0.072
-411.369	26.049	0.160	-0.133
-410.355	-67.154	0.091	0.036
-409.340	103.307	0.044	-0.051
-408.325	-200.000	0.008	-0.134
-407.311	-115.638	0.157	-0.029
-406.296	-135.639	0.318	-0.038
-405.282	92.230	-0.168	0.189
-404.267	35.668	0.192	0.167
-403.252	-150.366	0.123	0.009
-402.238	-94.682	-0.177	-0.048
-401.223	-77.874	0.057	0.020
-400.209	199.633	-0.070	-0.107
-399.194	-200.000	-0.002	-0.082
-398.179	-74.842	-0.348	0.124
-397.165	-36.841	0.217	0.116
-396.150	122.057	0.044	0.055
-395.136	-200.000	-0.016	-0.083
-394.121	405.369	-0.144	-0.302
-393.106	3.247	0.087	0.063
-392.092	800.000	0.058	0.239
-391.077	-200.000	-0.014	0.198
-390.063	11.775	-0.106	-0.081
-389.048	-138.866	-0.243	0.026
-388.033	-200.000	-0.020	0.321
-387.019	12.870	0.276	-0.213
-386.004	337.673	-0.162	0.314
-384.990	24.529	-0.041	0.034
-383.975	-74.251	-0.231	0.083
-382.960	-108.076	0.177	-0.038
-381.946	251.438	-0.096	-0.163
-380.931	203.082	0.122	-0.187
-379.917	676.592	-0.040	0.104
-378.902	52.202	-0.208	-0.197
-377.888	-144.221	-0.367	-0.034
-376.873	800.000	0.015	0.046
-375.858	800.000	0.034	-0.109
-374.844	-177.963	-0.235	-0.006
-373.829	-59.533	-0.426	-0.182
-372.815	658.784	0.109	-0.279
-371.800	300.556	0.271	0.498
-370.785	-31.799	0.055	-0.031
-369.771	-200.000	-0.036	-0.265
-368.756	115.647	0.116	-0.141
-367.742	205.689	-0.079	-0.123
-366.727	-106.338	0.201	0.045
-365.712	-133.824	0.307	0.038
-364.698	-69.211	0.268	-0.102
-363.683	-6.576	-0.191	-0.130
-362.669	4.582	-0.087	-0.064
-361.654	-200.000	0.098	-0.526
-360.639	364.825	-0.136	0.271
-359.625	-200.000	-0.008	-0.302
-358.610	521.121	0.068	-0.157
-357.596	-200.000	-0.052	-0.367
-356.581	12.900	-0.240	-0.185
-355.566	590.164	-0.074	-0.182
-354.552	-200.000	-0.002	0.056
-353.537	-200.000	-0.057	0.402
-352.523	138.888	-0.060	0.079
-351.508	105.880	-0.244	0.287
-350.493	71.214	-0.147	-0.152
-349.479	391.596	-0.095	-0.196
-348.464	-200.000	-0.046	0.257
-347.450	-83.151	0.304	0.097
-346.435	-83.169	0.256	0.082
-345.420	800.000	0.022	0.086
-344.406	-200.000	-0.007	-0.063
-343.391	800.000	-0.051	-0.194
-342.377	-200.000	0.086	-0.374
-341.362	-200.000	0.019	-0.329
-340.348	-98.392	-0.273	-0.069
-339.333	11.668	-0.127	0.096
-338.318	-80.078	-0.383	0.128
-337.304	800.000	-0.086	-0.259
-336.289	800.000	0.102	-0.392
-335.275	557.051	-0.047	-0.112
-334.260	800.000	-0.014	0.056
-333.245	79.241	0.298	-0.317
-332.231	456.790	-0.115	-0.252
-331.216	363.729	0.066	-0.132
-330.202	-76.215	-0.251	0.088
-329.187	-141.755	0.275	0.027
-328.172	18.779	0.064	0.050
-327.158	-76.804	-0.361	-0.125
-326.143	217.649	0.068	0.108
-325.129	143.297	0.084	-0.111
-324.114	-200.000	0.005	0.078
-323.099	322.944	-0.076	0.144
-322.085	-161.994	0.162	-0.008
-321.070	95.037	0.366	0.414
-320.056	141.257	-0.074	0.098
-319.041	-92.008	0.320	-0.090
-318.026	50.849	0.155	0.146
-317.012	-41.782	0.073	-0.037
-315.997	403.146	-0.032	-0.066
-314.983	101.802	-0.394	-0.456
-313.968	11.548	0.162	-0.123
-312.953	97.660	-0.147	-0.168
-311.939	-150.038	-0.128	-0.010
-310.924	-52.085	0.330	-0.152
-309.910	-90.912	-0.219	-0.062
-308.895	-200.000	-0.030	0.147
-307.880	260.308	0.102	0.175
-306.866	-91.707	0.184	-0.052
-305.851	499.862	-0.106	-0.242
-304.837	96.833	0.222	-0.253
-303.822	-35.303	-0.112	-0.061
-302.807	-163.785	0.084	0.004
-301.793	-200.000	-0.023	-0.338
-300.778	72.952	-0.086	0.089
-299.764	221.959	-0.140	-0.224
-298.749	107.135	0.122	0.143
-297.735	8.439	-0.253	0.189
-296.720	-90.704	-0.160	0.046
-295.705	800.000	-0.066	0.191
-294.691	800.000	-0.106	0.403
-293.676	163.965	-0.218	0.304
-292.662	135.050	-0.226	-0.291
-291.647	-42.629	-0.109	-0.055
-290.632	-49.833	0.320	0.150
-289.618	-41.880	-0.284	-0.144
-288.603	-141.293	0.310	-0.031
-287.589	437.801	0.083	0.179
-286.574	-4.080	-0.230	-0.158
-285.559	-50.268	0.060	0.028
-284.545	-200.000	-0.087	-0.519
-283.530	-200.000	0.044	0.244
-282.516	642.412	-0.131	0.332
-281.501	342.844	0.070	0.135
-280.486	352.128	-0.015	-0.029
-279.472	-31.782	-0.114	-0.064
-278.457	191.426	-0.036	0.054
-277.443	-30.354	-0.376	-0.212
-276.428	-200.000	0.047	0.311
-275.413	-200.000	-0.022	0.166
-274.399	4.877	-0.265	0.193
-273.384	20.938	-0.261	0.210
-272.370	800.000	0.100	0.275
-271.355	-12.314	0.114	0.074
-270.340	-97.159	0.217	0.056
-269.326	-31.716	0.216	-0.120
-268.311	-200.000	0.092	0.480
-267.297	-154.503	0.080	-0.005
-266.282	178.718	0.006	0.009
-265.267	-200.000	0.007	-0.209
-264.253	-110.712	0.171	0.035
-263.238	-58.518	-0.158	-0.068
-262.224	800.000	-0.102	0.326
-261.209	-62.415	-0.101	0.042
-260.195	-200.000	0.028	0.233
-259.180	-56.816	0.314	0.137
-258.165	800.000	-0.094	-0.296
-257.151	-74.990	0.199	-0.071
-256.136	800.000	0.076	0.307
-255.122	28.923	-0.192	0.161
-254.107	-6.267	-0.279	-0.189
-253.092	467.959	0.109	-0.242
-252.078	81.493	-0.095	-0.102
-251.063	-200.000	-0.014	0.063
-250.049	-111.338	-0.192	-0.039
-249.034	-200.000	-0.005	0.036
-248.019	-45.112	0.139	-0.069
-247.005	-90.673	0.050	0.014
-245.990	-99.231	-0.079	0.020
-244.976	-99.333	-0.167	-0.042
-243.961	-45.230	0.339	0.166
-242.946	160.295	-0.055	0.075
-241.932	-119.468	-0.165	-0.028
-240.917	-4.600	-0.034	0.023
-239.903	543.575	-0.076	0.180
-238.888	-68.848	0.161	0.061
-237.873	-127.284	0.057	-0.008
-236.859	-169.321	0.381	-0.014
-235.844	142.659	0.240	0.315
-234.830	-200.000	0.008	-0.042
-233.815	-200.000	0.035	-0.202
-232.800	182.093	0.071	0.103
-231.786	-117.296	0.220	0.040
-230.771	4.270	-0.224	0.162
-229.757	-60.440	-0.248	0.104
-228.742	-91.202	-0.070	-0.020
-227.727	-200.000	-0.020	0.231
-226.713	-145.894	-0.246	0.022
-225.698	-18.627	0.164	-0.101
-224.684	-192.577	-0.074	-0.001
-223.669	378.525	0.157	0.317
-222.655	320.844	-0.162	0.303
-221.640	-105.430	-0.173	0.039
-220.625	-200.000	-0.024	0.348
-219.611	-83.647	0.299	-0.094
-218.596	-200.000	-0.043	-0.238
-217.582	-81.867	0.253	-0.082
-216.567	368.504	0.032	0.064
-215.552	800.000	0.013	0.045
-214.538	-74.927	0.187	0.066
-213.523	-200.000	0.001	0.013
-212.509	-52.941	0.116	0.053
-211.494	-200.000	0.006	-0.163
-210.479	-82.891	-0.123	-0.039
-209.465	580.072	-0.075	-0.181
-208.450	-58.125	0.145	-0.062
-207.436	-30.067	0.263	-0.148
-206.421	363.028	0.104	-0.206
-205.406	-36.866	0.130	0.069
-204.392	800.000	0.134	-0.366
-203.377	181.912	-0.170	-0.247
-202.363	-200.000	-0.040	-0.217
-201.348	-200.000	0.012	0.100
-200.333	1.488	-0.144	-0.103
-199.319	-98.489	-0.262	-0.066
-198.304	-138.947	-0.286	-0.031
-197.290	7.015	0.198	-0.146
-196.275	34.581	-0.080	0.069
-195.260	445.319	0.061	-0.132
-194.246	84.603	-0.125	-0.135
-193.231	-200.000	0.052	0.362
-192.217	540.203	0.042	0.099
-191.202	385.075	-0.013	0.026
-190.187	517.816	0.040	-0.093
-189.173	16.975	0.107	-0.084
-188.158	-200.000	-0.010	-0.159
-187.144	-200.000	-0.056	-0.288
-186.129	-101.635	0.031	0.007
-185.114	-62.561	0.146	0.060
-184.100	-54.709	0.138	0.062
-183.085	-151.706	0.191	-0.014
-182.071	409.353	-0.042	0.087
-181.056	-83.010	0.069	-0.022
-180.042	-127.564	-0.345	-0.049
-179.027	-40.974	-0.104	0.053
-178.012	150.463	0.129	-0.173
-176.998	-47.682	-0.311	0.149
-175.983	-90.727	-0.131	0.037
-174.969	800.000	-0.129	-0.380
-173.954	22.496	0.062	0.050
-172.939	193.829	0.255	0.381
-171.925	32.269	-0.136	0.116
-170.910	-16.942	0.314	-0.196
-169.896	-200.000	-0.031	-0.264
-168.881	21.398	0.170	0.137
-167.866	-35.552	0.190	0.102
-166.852	-30.904	-0.035	-0.019
-165.837	-99.251	0.310	0.077
-164.823	205.226	0.215	0.329
-163.808	-58.413	-0.232	-0.099
-162.793	16.887	0.212	0.165
-161.779	-62.567	-0.176	-0.072
-160.764	-200.000	-0.006	-0.183
-159.750	-121.241	0.296	-0.049
-158.735	800.000	-0.085	0.236
-157.720	66.813	-0.245	0.246
-156.706	-35.060	0.249	0.134
-155.691	-200.000	0.060	0.509
-154.677	800.000	-0.071	0.295
-153.662	-62.354	0.125	0.051
-152.647	800.000	-0.119	-0.477
-151.633	224.540	-0.106	0.168
-150.618	372.059	0.190	0.381
-149.604	5.628	-0.266	-0.194
-148.589	800.000	-0.092	0.351
-147.574	10.380	-0.105	-0.079
-146.560	800.000	-0.084	0.333
-145.545	-34.069	0.193	-0.104
-144.531	-42.291	-0.177	-0.089
-143.516	-27.720	-0.158	0.090
-142.502	-58.436	-0.094	0.040
-141.487	-162.238	-0.354	0.017
-140.472	-200.000	-0.000	0.266
-139.458	-103.325	0.053	-0.012
-138.443	-166.090	0.235	0.010
-137.429	-162.612	-0.412	-0.020
-136.414	800.000	0.091	-0.342
-135.399	-124.929	0.295	-0.045
-134.385	-150.576	0.308	0.023
-133.370	83.128	0.309	0.332
-132.356	-6.218	-0.195	0.131
-131.341	724.743	0.055	0.145
-130.326	-5.305	-0.087	-0.059
-129.312	134.813	0.192	0.245
-128.297	-200.000	0.405	-0.002
-127.283	-48.411	0.137	0.065
-126.268	-200.000	0.018	0.132
-125.253	154.102	0.298	0.403
-124.239	-101.709	-0.125	0.030
-123.224	142.509	-0.074	0.097
-122.210	-55.151	0.260	-0.115
-121.195	132.401	-0.072	0.092
