DTS Sentinel unit serial number:	SN413079Multiplexer serial number:	ORYXHardware model number:	OX4-SRSoftware version number:	ORYX F/W v4.00 Oryx Data Collector v3.7.2.0data status	okinstallation	princeton_trtdifferential loss correction	single-endedforward channel	channel 2reverse channel	N/Adate	2019/09/17time	05:35:35forward acquisition time	60.00reverse acquisition time	0.00gamma	496.2192k internal	0.2329k external	0.2329temperature offset calibration	0.9977default loss term (dB/km)	0.3790temperature slope calibration	1.0000multiplexer offset coefficient	1.0000multiplexer slope coefficient	1.0000fibre end	0.00T internal ref (°C)	29.19T ext. ref 1 (°C)	0.14T ext. ref 2 (°C)	23.03length (m)	temperature (°C)	Stokes	anti-Stokes-747.200	-101.236	-0.164	0.040
-746.185	-200.000	-0.020	0.304
-745.171	-122.958	0.103	0.017
-744.156	-25.865	-0.150	0.089
-743.142	-112.991	0.197	-0.039
-742.127	800.000	-0.112	0.418
-741.112	768.584	0.089	0.244
-740.098	800.000	0.126	0.391
-739.083	49.126	-0.157	0.149
-738.069	-200.000	0.006	0.529
-737.054	126.512	0.114	0.146
-736.039	-16.548	0.258	-0.165
-735.025	800.000	-0.042	-0.120
-734.010	463.805	-0.042	-0.093
-732.996	574.710	0.054	0.133
-731.981	273.003	-0.122	-0.216
-730.966	-143.812	-0.099	0.009
-729.952	-101.992	0.257	-0.062
-728.937	536.069	-0.092	0.221
-727.923	667.313	-0.103	0.267
-726.908	-90.752	0.250	0.072
-725.894	-123.921	-0.362	-0.057
-724.879	13.482	-0.314	-0.245
-723.864	-147.963	0.313	0.026
-722.850	218.878	-0.189	0.304
-721.835	800.000	-0.087	-0.351
-720.821	-1.745	0.126	0.090
-719.806	-200.000	-0.174	0.000
-718.791	28.376	0.264	-0.225
-717.777	-139.523	-0.140	0.015
-716.762	800.000	0.074	0.224
-715.748	-25.340	-0.441	-0.263
-714.733	136.660	0.135	0.177
-713.718	-153.134	-0.052	0.004
-712.704	-200.000	-0.023	0.140
-711.689	274.291	0.056	-0.101
-710.675	800.000	0.102	-0.312
-709.660	-3.077	-0.192	-0.135
-708.645	-179.214	0.174	-0.004
-707.631	244.135	-0.109	-0.183
-706.616	20.477	-0.120	-0.098
-705.602	-54.116	-0.232	-0.106
-704.587	-54.074	0.449	-0.205
-703.572	492.777	-0.039	0.089
-702.558	-200.000	0.029	-0.153
-701.543	383.989	0.173	0.358
-700.529	-200.000	-0.011	-0.163
-699.514	15.956	-0.136	0.108
-698.499	-6.103	-0.273	0.188
-697.485	-83.988	-0.367	0.117
-696.470	-200.000	0.035	-0.267
-695.456	-33.738	-0.171	0.095
-694.441	93.204	0.294	0.334
-693.426	-19.882	-0.214	-0.133
-692.412	-153.595	-0.249	-0.017
-691.397	631.336	0.034	0.086
-690.383	508.659	-0.152	-0.354
-689.368	-200.000	0.034	-0.394
-688.354	22.315	0.088	0.072
-687.339	800.000	-0.056	-0.241
-686.324	-200.000	0.011	0.201
-685.310	67.190	0.068	-0.070
-684.295	-145.886	-0.210	-0.019
-683.281	-159.043	-0.437	0.025
-682.266	27.001	0.218	-0.183
-681.251	-1.137	0.108	0.076
-680.237	92.155	0.131	0.149
-679.222	124.288	0.180	0.227
-678.208	-101.684	0.175	-0.043
-677.193	188.205	-0.187	0.281
-676.178	230.544	0.307	-0.505
-675.164	-200.000	-0.002	-0.305
-674.149	800.000	-0.101	-0.422
-673.135	-70.479	0.178	-0.068
-672.120	55.715	-0.172	0.168
-671.105	-124.518	0.179	-0.028
-670.091	-165.467	-0.160	-0.007
-669.076	800.000	0.035	-0.102
-668.062	193.003	-0.284	0.430
-667.047	-200.000	-0.022	0.134
-666.032	-41.679	-0.178	0.092
-665.018	800.000	-0.057	-0.228
-664.003	-9.766	-0.187	-0.125
-662.989	-200.000	0.027	-0.227
-661.974	414.960	-0.057	-0.123
-660.959	-100.075	0.140	0.035
-659.945	92.088	0.158	-0.179
-658.930	-36.454	-0.057	-0.031
-657.916	-24.049	0.158	-0.095
-656.901	800.000	-0.050	0.216
-655.886	262.804	0.050	0.088
-654.872	56.711	-0.322	-0.315
-653.857	-115.141	0.054	-0.010
-652.843	-200.000	-0.409	-0.001
-651.828	399.789	0.128	-0.268
-650.814	-200.000	-0.039	0.493
-649.799	-112.304	0.205	-0.041
-648.784	189.087	0.162	0.243
-647.770	-200.000	0.002	0.141
-646.755	-27.686	0.315	0.184
-645.741	-39.484	0.237	0.125
-644.726	800.000	-0.015	0.056
-643.711	80.796	0.189	-0.204
-642.697	-26.021	-0.232	0.137
-641.682	-118.156	-0.367	0.066
-640.668	-200.000	-0.242	-0.001
-639.653	800.000	0.038	-0.128
-638.638	-56.213	-0.207	0.093
-637.624	255.816	0.086	0.147
-636.609	-166.703	-0.128	0.005
-635.595	-92.983	0.143	0.040
-634.580	297.809	0.110	-0.202
-633.565	-44.259	-0.129	-0.065
-632.551	268.346	0.108	-0.190
-631.536	-104.577	0.031	0.007
-630.522	-39.146	-0.201	-0.106
-629.507	47.396	0.222	0.208
-628.492	433.264	0.079	-0.171
-627.478	-98.513	-0.279	-0.072
-626.463	-114.182	-0.119	-0.023
-625.449	-90.162	-0.394	0.115
-624.434	-40.243	0.155	-0.081
-623.419	-51.079	-0.095	-0.045
-622.405	-117.711	0.191	-0.034
-621.390	-177.734	-0.317	0.008
-620.376	58.413	0.122	-0.120
-619.361	-61.513	-0.325	-0.137
-618.346	65.794	0.144	-0.146
-617.332	-25.760	0.132	0.078
-616.317	-55.281	0.297	-0.134
-615.303	-200.000	-0.012	0.140
-614.288	362.668	-0.046	0.092
-613.273	-200.000	0.004	0.106
-612.259	-21.943	-0.091	-0.055
-611.244	126.721	-0.102	0.129
-610.230	-113.344	0.156	-0.031
-609.215	-14.673	-0.158	0.102
-608.201	-42.697	-0.312	0.159
-607.186	-124.825	-0.310	-0.048
-606.171	-145.152	-0.320	-0.029
-605.157	-200.000	-0.003	0.112
-604.142	-55.859	-0.375	0.168
-603.128	60.451	-0.302	0.299
-602.113	-200.000	0.014	0.142
-601.098	-14.290	-0.157	-0.101
-600.084	-90.905	0.159	0.046
-599.069	98.308	-0.346	-0.399
-598.055	-44.387	-0.240	0.120
-597.040	264.748	0.198	-0.345
-596.025	108.543	-0.143	-0.170
-595.011	-50.915	0.420	-0.198
-593.996	129.244	0.145	0.186
-592.982	-43.592	0.209	-0.106
-591.967	800.000	-0.059	0.188
-590.952	-82.862	-0.126	0.041
-589.938	182.278	-0.054	-0.080
-588.923	-200.000	-0.003	0.031
-587.909	311.461	-0.084	-0.158
-586.894	-70.098	0.308	-0.117
-585.879	-23.738	0.249	-0.150
-584.865	451.524	0.188	-0.416
-583.850	-52.455	0.389	-0.180
-582.836	-54.965	-0.263	0.119
-581.821	-8.148	-0.127	-0.086
-580.806	29.132	-0.262	-0.223
-579.792	-22.117	0.119	0.072
-578.777	361.417	0.059	0.118
-577.763	-28.012	-0.480	-0.278
-576.748	-82.605	0.224	0.072
-575.733	59.329	0.103	0.102
-574.719	-90.406	0.090	-0.026
-573.704	-200.000	-0.001	-0.152
-572.690	-124.423	0.074	-0.012
-571.675	279.811	-0.227	-0.405
-570.661	-76.921	-0.195	-0.068
-569.646	-18.500	0.333	-0.208
-568.631	412.126	-0.150	-0.318
-567.617	146.391	0.097	-0.130
-566.602	439.538	-0.161	-0.351
-565.588	335.359	0.149	-0.290
-564.573	-101.736	0.141	-0.034
-563.558	-200.000	-0.013	0.203
-562.544	4.428	0.123	-0.090
-561.529	800.000	-0.047	0.202
-560.515	-118.254	-0.139	0.025
-559.500	-200.000	-0.001	-0.150
-558.485	650.021	0.074	0.190
-557.471	681.142	0.036	0.095
-556.456	-49.083	0.170	0.082
-555.442	-14.404	0.147	0.094
-554.427	-136.633	0.170	0.020
-553.412	260.300	-0.175	0.302
-552.398	8.234	-0.258	0.194
-551.383	-200.000	-0.038	0.307
-550.369	319.211	-0.116	0.219
-549.354	-122.356	-0.239	-0.039
-548.339	333.540	0.038	-0.073
-547.325	800.000	0.031	-0.086
-546.310	-200.000	-0.025	0.222
-545.296	39.239	0.187	0.167
-544.281	95.500	-0.088	0.100
-543.266	800.000	0.011	-0.040
-542.252	-18.407	0.154	-0.096
-541.237	-137.596	-0.174	0.020
-540.223	-85.859	-0.039	0.012
-539.208	-200.000	0.024	-0.442
-538.193	-200.000	-0.037	0.183
-537.179	800.000	-0.088	-0.353
-536.164	800.000	0.028	0.096
-535.150	800.000	0.048	-0.209
-534.135	-165.198	0.285	0.013
-533.121	-200.000	0.028	-0.514
-532.106	-69.045	0.201	-0.077
-531.091	-104.725	-0.273	0.063
-530.077	316.010	-0.179	0.338
-529.062	-200.000	0.019	0.426
-528.048	182.247	0.176	-0.259
-527.033	-200.000	0.008	-0.296
-526.018	-37.076	-0.166	-0.089
-525.004	56.212	-0.198	0.192
-523.989	-98.410	0.098	-0.025
-522.975	-200.000	-0.000	-0.018
-521.960	80.971	0.138	-0.149
-520.945	230.723	0.156	0.254
-519.931	346.766	-0.197	0.387
-518.916	47.750	-0.268	0.250
-517.902	-134.121	0.180	-0.022
-516.887	-118.543	-0.219	0.039
-515.872	-200.000	0.006	-0.053
-514.858	142.893	0.016	0.021
-513.843	-113.089	0.302	-0.060
-512.829	-200.000	0.001	0.124
-511.814	-34.512	-0.036	-0.020
-510.799	-200.000	0.077	-0.349
-509.785	729.109	-0.113	0.301
-508.770	345.519	0.098	0.192
-507.756	24.472	-0.226	-0.187
-506.741	-114.046	0.120	-0.023
-505.726	46.780	-0.051	0.047
-504.712	-150.296	-0.127	0.010
-503.697	-200.000	0.011	-0.060
-502.683	602.707	-0.047	-0.116
-501.668	-50.975	-0.306	0.143
-500.653	41.011	-0.238	0.214
-499.639	-51.442	-0.432	-0.202
-498.624	322.540	-0.073	-0.138
-497.610	800.000	0.116	-0.340
-496.595	-185.160	-0.180	0.003
-495.581	205.138	-0.108	0.168
-494.566	-162.587	0.245	-0.012
-493.551	-21.190	-0.134	0.082
-492.537	473.146	-0.120	-0.269
-491.522	-200.000	0.010	-0.181
-490.508	17.319	0.028	-0.022
-489.493	43.212	0.165	-0.150
-488.478	-55.672	0.214	-0.096
-487.464	-16.365	-0.259	-0.164
-486.449	-87.954	-0.288	-0.086
-485.435	-53.362	0.276	-0.126
-484.420	-95.683	0.148	0.039
-483.405	-137.649	0.191	0.021
-482.391	194.465	0.122	0.184
-481.376	340.980	0.151	-0.294
-480.362	100.091	-0.088	-0.101
-479.347	48.925	0.101	-0.095
-478.332	-55.675	0.188	0.084
-477.318	-83.397	0.076	-0.024
-476.303	-200.000	-0.015	-0.122
-475.289	800.000	-0.040	0.147
-474.274	100.630	-0.118	-0.136
-473.259	-132.319	0.137	-0.018
-472.245	-37.637	0.340	0.180
-471.230	14.793	0.184	0.144
-470.216	263.983	0.227	-0.394
-469.201	-200.000	-0.003	0.038
-468.186	220.449	-0.054	0.087
-467.172	-200.000	-0.003	0.235
-466.157	-200.000	0.013	0.086
-465.143	484.747	0.116	0.263
-464.128	-38.843	-0.200	0.105
-463.113	228.416	0.106	-0.172
-462.099	351.201	-0.047	-0.092
-461.084	-131.264	0.105	0.014
-460.070	-200.000	0.021	-0.102
-459.055	4.320	0.141	0.103
-458.040	800.000	0.038	-0.105
-457.026	420.725	0.134	0.286
-456.011	-200.000	0.030	-0.251
-454.997	800.000	-0.030	0.093
-453.982	173.576	-0.036	-0.052
-452.968	-200.000	0.048	0.338
-451.953	58.509	0.247	0.242
-450.938	83.805	-0.182	0.197
-449.924	-110.596	-0.116	-0.024
-448.909	800.000	-0.024	0.066
-447.895	22.920	-0.132	-0.108
-446.880	-103.112	0.107	0.025
-445.865	11.364	-0.185	0.141
-444.851	126.607	0.089	-0.112
-443.836	-200.000	-0.005	0.205
-442.822	-34.625	-0.436	0.238
-441.807	-200.000	-0.012	-0.207
-440.792	-156.273	-0.524	0.033
-439.778	55.019	-0.170	0.163
-438.763	316.704	0.014	0.027
-437.749	5.740	0.037	-0.027
-436.734	16.648	0.176	0.138
-435.719	-200.000	-0.012	0.287
-434.705	3.964	0.140	-0.102
-433.690	-200.000	0.057	-0.490
-432.676	55.683	0.267	-0.258
-431.661	-171.767	-0.346	-0.011
-430.646	-72.389	0.112	0.041
-429.632	-107.576	0.201	-0.044
-428.617	-80.809	-0.077	0.025
-427.603	63.801	0.212	-0.212
-426.588	93.146	0.088	0.098
-425.573	0.638	-0.189	0.134
-424.559	-79.543	0.032	-0.011
-423.544	26.946	-0.211	0.176
-422.530	-51.097	-0.071	0.033
-421.515	-200.000	-0.020	-0.187
-420.500	-104.970	-0.112	-0.026
-419.486	185.901	-0.109	-0.161
-418.471	186.593	0.099	-0.147
-417.457	-80.271	-0.291	0.097
-416.442	53.265	-0.191	0.182
-415.428	21.854	0.224	0.182
-414.413	88.304	0.309	0.341
-413.398	751.485	-0.082	0.220
-412.384	65.824	-0.191	0.192
-411.369	-35.912	0.142	-0.076
-410.355	266.305	-0.229	0.397
-409.340	286.476	0.110	-0.198
-408.325	276.294	0.126	-0.223
-407.311	800.000	0.052	0.169
-406.296	779.481	0.020	0.054
-405.282	112.397	-0.144	-0.174
-404.267	50.143	-0.170	-0.159
-403.252	-200.000	-0.011	-0.276
-402.238	-116.346	0.272	-0.050
-401.223	42.836	0.225	0.203
-400.209	297.601	-0.090	0.164
-399.194	309.671	0.142	-0.264
-398.179	-133.472	-0.422	0.053
-397.165	-39.841	0.068	-0.035
-396.150	-92.199	0.259	0.073
-395.136	-45.600	-0.228	0.112
-394.121	-200.000	0.005	-0.109
-393.106	-13.839	0.152	-0.098
-392.092	354.513	-0.123	-0.243
-391.077	-48.649	-0.261	-0.124
-390.063	-53.333	-0.306	0.139
-389.048	-121.051	-0.054	0.009
-388.033	-4.215	0.272	-0.187
-387.019	12.787	-0.078	-0.060
-386.004	-200.000	0.001	0.178
-384.990	800.000	-0.041	-0.157
-383.975	432.789	0.167	-0.360
-382.960	800.000	0.091	0.341
-381.946	54.297	0.187	0.179
-380.931	-104.650	-0.176	-0.040
-379.917	25.132	0.070	0.057
-378.902	-200.000	-0.020	0.523
-377.888	39.667	-0.087	-0.078
-376.873	-200.000	-0.041	-0.197
-375.858	-118.275	-0.048	0.009
-374.844	47.901	0.104	0.097
-373.829	466.774	0.146	-0.325
-372.815	-200.000	-0.105	0.478
-371.800	-116.269	-0.254	0.047
-370.785	-72.442	0.374	-0.137
-369.771	340.274	-0.139	-0.269
-368.756	800.000	0.098	-0.385
-367.742	32.940	-0.142	0.122
-366.727	-71.202	-0.333	-0.124
-365.712	245.142	0.078	-0.130
-364.698	123.102	-0.114	-0.141
-363.683	-10.447	-0.140	-0.092
-362.669	-90.556	0.250	0.072
-361.654	-139.420	-0.157	-0.017
-360.639	-43.896	-0.065	-0.032
-359.625	594.551	-0.067	-0.163
-358.610	800.000	-0.082	-0.286
-357.596	-7.190	-0.247	0.166
-356.581	800.000	0.047	0.170
-355.566	164.762	-0.171	-0.239
-354.552	800.000	-0.046	0.152
-353.537	-200.000	-0.006	0.252
-352.523	-87.906	-0.221	-0.066
-351.508	190.926	0.046	0.068
-350.493	-79.723	0.167	0.056
-349.479	-200.000	0.058	-0.391
-348.464	21.893	0.065	-0.052
-347.450	-38.725	0.416	0.218
-346.435	124.335	-0.045	-0.056
-345.420	-145.666	0.066	0.006
-344.406	17.007	0.200	-0.157
-343.391	-80.387	-0.065	-0.022
-342.377	240.708	0.031	-0.051
-341.362	623.701	-0.056	-0.140
-340.348	48.341	0.103	0.096
-339.333	-176.408	0.296	-0.008
-338.318	-118.638	0.104	0.018
-337.304	-34.895	-0.028	0.015
-336.289	113.909	0.255	0.308
-335.275	739.928	-0.024	-0.063
-334.260	-60.060	0.107	-0.045
-333.245	800.000	-0.060	-0.166
-332.231	-12.713	-0.303	0.196
-331.216	-200.000	0.005	0.321
-330.202	-200.000	-0.011	-0.117
-329.187	159.645	0.148	-0.204
-328.172	-179.504	0.149	0.003
-327.158	-102.119	0.137	0.033
-326.143	-109.372	-0.258	0.054
-325.129	266.753	-0.066	0.115
-324.114	-146.986	0.265	-0.023
-323.099	-200.000	-0.030	-0.369
-322.085	-130.600	0.384	0.051
-321.070	-49.627	0.197	0.093
-320.056	-66.864	0.326	0.128
-319.041	-135.201	-0.242	0.029
-318.026	473.938	0.085	-0.190
-317.012	-10.595	-0.155	0.101
-315.997	340.367	0.159	0.307
-314.983	-200.000	-0.013	-0.180
-313.968	4.495	-0.214	0.156
-312.953	-26.967	0.220	0.127
-311.939	-186.709	-0.307	0.004
-310.924	-200.000	0.016	-0.321
-309.910	-46.703	0.163	0.079
-308.895	201.735	-0.114	0.175
-307.880	-117.016	0.257	0.046
-306.866	327.138	-0.101	-0.191
-305.851	-43.297	0.300	-0.150
-304.837	713.655	-0.066	0.172
-303.822	-198.369	-0.256	0.001
-302.807	312.244	-0.311	0.577
-301.793	48.765	-0.046	0.043
-300.778	-200.000	0.068	0.318
-299.764	-57.984	0.110	-0.047
-298.749	-42.231	0.431	0.218
-297.735	582.506	0.120	-0.291
-296.720	800.000	-0.050	-0.190
-295.705	149.552	0.047	-0.063
-294.691	-37.534	0.137	-0.072
-293.676	187.688	-0.054	0.080
-292.662	-115.933	0.191	-0.035
-291.647	30.924	0.021	-0.018
-290.632	324.891	-0.096	-0.181
-289.618	-132.373	0.243	-0.031
-288.603	-83.513	0.303	-0.096
-287.589	-97.477	0.443	-0.114
-286.574	599.965	0.014	0.035
-285.559	8.840	-0.091	0.068
-284.545	-25.710	0.170	-0.099
-283.530	800.000	0.062	0.186
-282.516	-157.193	-0.253	-0.015
-281.501	338.591	-0.077	0.147
-280.486	316.787	0.049	-0.091
-279.472	-3.273	-0.276	-0.190
-278.457	-200.000	-0.036	-0.235
-277.443	478.363	0.093	0.207
-276.428	-125.758	0.124	0.018
-275.413	-200.000	0.018	0.356
-274.399	-133.287	0.095	0.012
-273.384	88.584	-0.135	0.148
-272.370	-85.255	-0.254	0.078
-271.355	-200.000	-0.096	0.454
-270.340	-80.821	0.116	0.038
-269.326	148.111	0.095	-0.126
-268.311	142.134	-0.178	0.233
-267.297	159.223	-0.077	0.105
-266.282	800.000	0.086	0.291
-265.267	-200.000	0.044	0.249
-264.253	111.172	0.150	-0.179
-263.238	-107.261	-0.177	-0.039
-262.224	800.000	0.089	0.265
-261.209	-200.000	-0.005	0.055
-260.195	-182.451	0.250	0.005
-259.180	-200.000	0.038	0.205
-258.165	173.500	-0.120	0.170
-257.151	800.000	-0.028	-0.099
-256.136	-31.608	-0.272	-0.151
-255.122	-130.870	0.331	-0.044
-254.107	152.650	-0.062	-0.083
-253.092	-75.856	-0.155	0.054
-252.078	-156.775	-0.158	0.010
-251.063	545.919	0.070	-0.165
-250.049	424.112	0.143	-0.303
-249.034	-200.000	-0.019	0.130
-248.019	0.261	0.161	-0.114
-247.005	510.823	0.159	-0.365
-245.990	193.618	0.044	0.066
-244.976	-140.262	-0.093	-0.010
-243.961	98.895	-0.076	0.087
-242.946	800.000	-0.076	-0.237
-241.932	-200.000	0.019	0.164
-240.917	-153.811	0.127	0.009
-239.903	121.003	0.053	-0.065
-238.888	-164.564	-0.165	0.007
-237.873	-138.415	0.327	0.036
-236.859	-0.632	-0.036	-0.025
-235.844	180.306	-0.130	-0.189
-234.830	303.844	-0.150	0.274
-233.815	12.117	-0.156	0.118
-232.800	98.032	0.102	0.116
-231.786	472.136	-0.095	-0.211
-230.771	-94.268	-0.397	0.107
-229.757	348.226	-0.066	0.128
-228.742	-200.000	0.032	0.197
-227.727	-86.119	-0.105	-0.032
-226.713	800.000	-0.095	-0.326
-225.698	-200.000	0.030	-0.297
-224.684	33.086	0.153	0.131
-223.669	-68.393	0.167	-0.064
-222.655	312.102	0.089	-0.164
-221.640	145.331	-0.149	-0.197
-220.625	800.000	-0.116	-0.318
-219.611	-200.000	-0.025	-0.201
-218.596	-5.285	-0.058	-0.039
-217.582	-200.000	0.014	0.064
-216.567	615.970	-0.122	0.301
-215.552	107.718	-0.284	-0.334
-214.538	1.301	0.071	0.051
-213.523	276.620	0.133	-0.233
-212.509	482.388	-0.072	-0.161
-211.494	-200.000	0.009	-0.310
-210.479	-140.386	0.238	-0.024
-209.465	-21.124	0.179	0.108
-208.450	800.000	0.053	0.201
-207.436	145.776	0.153	0.203
-206.421	-139.216	-0.088	-0.009
-205.406	107.070	-0.133	0.156
-204.392	548.713	-0.061	-0.144
-203.377	-200.000	0.049	-0.225
-202.363	229.259	-0.080	0.128
-201.348	800.000	0.011	0.039
-200.333	394.917	0.075	0.154
-199.319	800.000	0.012	0.042
-198.304	41.512	0.346	-0.308
-197.290	-38.499	-0.055	0.028
-196.275	-200.000	-0.004	0.050
-195.260	560.851	0.066	0.158
-194.246	800.000	-0.110	0.311
-193.231	800.000	0.033	0.115
-192.217	-200.000	0.077	0.338
-191.202	-60.740	0.100	-0.042
-190.187	3.039	-0.173	-0.124
-189.173	-43.263	0.151	-0.076
-188.158	59.053	0.184	-0.178
-187.144	-124.906	0.314	-0.048
-186.129	94.512	-0.105	0.118
-185.114	-110.192	-0.188	0.039
-184.100	225.199	0.260	-0.414
-183.085	317.258	-0.046	-0.085
-182.071	-62.113	-0.303	0.125
-181.056	58.561	-0.205	-0.199
-180.042	317.831	0.110	-0.205
-179.027	-68.801	-0.224	0.085
-178.012	-77.772	0.177	-0.060
-176.998	325.809	-0.209	0.393
-175.983	655.937	-0.015	0.039
-174.969	517.923	0.111	0.256
-173.954	-14.726	0.182	0.115
-172.939	-113.003	0.183	-0.036
-171.925	730.991	-0.045	0.120
-170.910	-200.000	0.015	0.269
-169.896	-200.000	0.022	0.226
-168.881	95.128	-0.152	-0.170
-167.866	537.884	0.068	0.160
-166.852	800.000	-0.044	-0.189
-165.837	-179.312	-0.294	-0.006
-164.823	800.000	0.053	0.216
-163.808	-200.000	-0.003	0.022
-162.793	-66.534	0.168	0.066
-161.779	800.000	-0.029	0.087
-160.764	161.507	0.118	-0.163
-159.750	-52.080	-0.192	0.088
-158.735	19.408	-0.032	-0.026
-157.720	800.000	-0.051	-0.211
-156.706	-102.270	-0.258	0.061
-155.691	-89.281	0.394	0.114
-154.677	112.193	0.082	0.098
-153.662	4.575	-0.170	0.123
-152.647	-65.709	0.258	0.102
-151.633	108.196	-0.132	0.155
-150.618	800.000	-0.070	0.215
-149.604	-84.599	0.268	0.083
-148.589	28.952	0.189	0.158
-147.574	-108.937	-0.623	0.131
-146.560	-13.226	-0.074	0.047
-145.545	-158.528	-0.162	-0.009
-144.531	375.954	0.072	0.144
-143.516	-92.021	-0.353	-0.098
-142.502	110.173	0.262	-0.310
-141.487	16.352	-0.064	-0.049
-140.472	-23.881	-0.105	0.062
-139.458	43.595	0.198	0.178
-138.443	61.274	0.091	-0.089
-137.429	150.427	-0.184	-0.246
-136.414	-156.086	0.313	-0.019
-135.399	-111.744	0.094	0.019
-134.385	-100.151	0.070	-0.017
-133.370	-146.826	0.236	-0.020
-132.356	11.110	0.175	0.131
-131.341	-200.000	0.025	0.114
-130.326	-200.000	-0.040	0.187
-129.312	-70.032	-0.394	0.148
-128.297	800.000	-0.033	-0.097
-127.283	-151.694	0.679	0.049
-126.268	-163.128	0.342	-0.016
-125.253	-133.424	-0.081	0.010
-124.239	443.100	0.122	0.264
-123.224	120.773	0.149	0.182
-122.210	800.000	-0.066	0.191
-121.195	-81.487	-0.098	-0.032
