DTS Sentinel unit serial number:	SN413079Multiplexer serial number:	ORYXHardware model number:	OX4-SRSoftware version number:	ORYX F/W v4.00 Oryx Data Collector v3.7.2.0data status	okinstallation	princeton_trtdifferential loss correction	single-endedforward channel	channel 2reverse channel	N/Adate	2019/09/11time	12:53:11forward acquisition time	60.00reverse acquisition time	0.00gamma	496.2192k internal	0.2294k external	0.2294temperature offset calibration	0.9965default loss term (dB/km)	0.3790temperature slope calibration	1.0000multiplexer offset coefficient	1.0000multiplexer slope coefficient	1.0000fibre end	0.00T internal ref (°C)	41.31T ext. ref 1 (°C)	0.25T ext. ref 2 (°C)	38.86length (m)	temperature (°C)	Stokes	anti-Stokes-747.200	800.000	0.046	-0.140
-746.185	323.046	0.041	0.081
-745.171	-78.521	0.065	0.023
-744.156	-6.258	-0.365	0.255
-743.142	-99.794	-0.311	-0.080
-742.127	-200.000	0.028	0.249
-741.112	322.165	0.192	-0.375
-740.098	61.453	-0.247	-0.251
-739.083	127.165	-0.075	0.097
-738.069	-158.206	0.262	0.016
-737.054	-19.371	0.050	0.032
-736.039	-200.000	0.015	0.088
-735.025	-200.000	0.031	0.269
-734.010	-88.606	-0.024	0.007
-732.996	-22.329	-0.154	0.095
-731.981	-200.000	-0.024	-0.283
-730.966	17.530	-0.065	-0.053
-729.952	-200.000	0.002	0.080
-728.937	-63.625	-0.193	-0.081
-727.923	396.399	0.153	-0.328
-726.908	-200.000	0.019	0.512
-725.894	-82.391	-0.201	-0.067
-724.879	784.401	-0.108	0.304
-723.864	190.833	0.102	0.157
-722.850	-84.789	-0.120	-0.039
-721.835	-200.000	0.075	-0.377
-720.821	-124.237	0.241	0.038
-719.806	17.030	-0.105	-0.085
-718.791	-200.000	-0.034	0.414
-717.777	1.684	-0.203	-0.149
-716.762	-47.237	0.365	-0.182
-715.748	-20.398	-0.294	-0.185
-714.733	-14.682	-0.167	0.109
-713.718	430.145	-0.127	-0.282
-712.704	-40.123	-0.202	0.108
-711.689	-200.000	-0.038	-0.313
-710.675	-174.285	-0.227	0.007
-709.660	378.659	0.090	0.189
-708.645	120.133	-0.073	0.092
-707.631	584.910	-0.017	0.042
-706.616	226.932	0.206	-0.343
-705.602	800.000	-0.036	0.144
-704.587	-4.337	0.065	-0.046
-703.572	199.349	-0.131	0.205
-702.558	-109.450	-0.330	0.071
-701.543	-195.513	-0.130	-0.001
-700.529	-66.540	-0.258	0.105
-699.514	507.772	0.124	-0.295
-698.499	288.014	-0.098	-0.180
-697.485	800.000	-0.044	-0.131
-696.470	77.634	-0.084	0.092
-695.456	471.324	0.125	-0.287
-694.441	-120.205	0.227	0.040
-693.426	-82.846	0.308	0.101
-692.412	-36.749	-0.130	0.072
-691.397	800.000	0.107	-0.323
-690.383	800.000	-0.049	-0.147
-689.368	71.100	0.360	-0.381
-688.354	-200.000	0.006	-0.237
-687.339	-200.000	-0.005	-0.181
-686.324	-174.460	-0.221	-0.006
-685.310	385.192	0.075	0.159
-684.295	-68.849	-0.215	0.085
-683.281	134.852	0.036	-0.047
-682.266	-8.213	0.162	-0.111
-681.251	-200.000	-0.003	0.405
-680.237	75.397	-0.138	0.149
-679.222	-200.000	0.013	0.208
-678.208	-41.067	0.262	-0.138
-677.193	30.748	-0.164	0.143
-676.178	-172.507	-0.214	-0.007
-675.164	88.656	0.083	-0.094
-674.149	369.061	0.130	0.269
-673.135	-200.000	-0.066	-0.429
-672.120	-200.000	0.043	-0.438
-671.105	-200.000	-0.073	-0.381
-670.091	158.065	0.037	0.052
-669.076	-126.894	-0.276	-0.041
-668.062	242.614	-0.160	-0.273
-667.047	-9.145	0.014	-0.010
-666.032	-200.000	-0.032	0.180
-665.018	258.165	0.024	0.043
-664.003	401.292	-0.125	0.268
-662.989	-159.993	-0.086	0.005
-661.974	-20.580	0.301	0.189
-660.959	800.000	0.061	0.251
-659.945	-200.000	-0.052	0.251
-658.930	-49.590	-0.159	0.077
-657.916	-39.021	-0.370	0.198
-656.901	-16.084	-0.334	0.216
-655.886	800.000	-0.051	-0.168
-654.872	-187.994	-0.333	-0.004
-653.857	325.301	-0.141	0.274
-652.843	84.936	0.275	0.307
-651.828	-200.000	0.042	0.377
-650.814	-102.762	-0.274	-0.067
-649.799	-139.527	0.199	0.022
-648.784	7.521	0.280	-0.213
-647.770	604.351	-0.103	-0.262
-646.755	103.115	0.152	-0.181
-645.741	-7.870	-0.231	0.159
-644.726	337.645	0.110	0.218
-643.711	89.265	0.211	-0.240
-642.697	219.634	-0.146	-0.238
-641.682	43.586	0.106	0.099
-640.668	-200.000	-0.075	0.361
-639.653	800.000	-0.036	0.120
-638.638	-44.515	0.153	-0.078
-637.624	-200.000	0.023	0.115
-636.609	207.616	-0.093	-0.147
-635.595	14.752	0.138	-0.110
-634.580	-17.167	-0.403	-0.259
-633.565	-200.000	-0.022	-0.260
-632.551	7.168	0.174	0.132
-631.536	98.897	0.117	0.137
-630.522	88.162	0.045	0.051
-629.507	800.000	0.098	0.357
-628.492	-81.247	0.126	-0.042
-627.478	-200.000	-0.005	0.031
-626.463	340.504	0.068	-0.134
-625.449	-1.601	-0.332	0.238
-624.434	21.420	-0.241	-0.200
-623.419	-46.937	0.096	0.048
-622.405	-200.000	0.020	0.211
-621.390	200.298	0.112	0.175
-620.376	-117.573	0.342	-0.063
-619.361	-24.647	0.236	-0.143
-618.346	800.000	-0.066	-0.190
-617.332	-9.623	0.250	-0.170
-616.317	-116.942	-0.235	0.044
-615.303	77.421	-0.155	-0.168
-614.288	-145.932	0.157	0.014
-613.273	-109.657	0.231	0.050
-612.259	800.000	-0.039	0.127
-611.244	-200.000	0.000	-0.214
-610.230	-127.906	0.378	-0.055
-609.215	281.748	-0.086	-0.158
-608.201	-200.000	-0.047	-0.740
-607.186	-50.731	0.257	0.123
-606.171	-111.128	-0.343	-0.071
-605.157	-200.000	0.026	-0.182
-604.142	-200.000	-0.024	-0.106
-603.128	57.782	-0.045	0.045
-602.113	-200.000	0.025	0.383
-601.098	-200.000	0.001	-0.054
-600.084	239.597	-0.075	-0.127
-599.069	800.000	-0.077	-0.258
-598.055	15.303	-0.199	0.158
-597.040	-200.000	0.041	-0.208
-596.025	800.000	0.098	-0.308
-595.011	56.473	0.086	-0.085
-593.996	87.865	0.166	-0.187
-592.982	-59.885	-0.376	0.163
-591.967	-155.908	-0.286	-0.018
-590.952	-200.000	-0.250	0.000
-589.938	111.783	-0.176	-0.216
-588.923	-200.000	-0.033	0.337
-587.909	-46.452	-0.118	0.059
-586.894	389.024	-0.079	-0.165
-585.879	10.653	-0.171	-0.133
-584.865	800.000	-0.005	0.019
-583.850	57.412	-0.035	-0.034
-582.836	250.909	0.080	-0.139
-581.821	17.386	0.026	0.021
-580.806	-83.319	0.303	0.099
-579.792	-200.000	0.001	-0.079
-578.777	800.000	0.172	0.515
-577.763	73.298	0.230	0.244
-576.748	-200.000	-0.034	0.200
-575.733	14.410	-0.116	-0.092
-574.719	-44.530	-0.150	-0.076
-573.704	87.392	-0.011	0.012
-572.690	-102.135	-0.207	-0.051
-571.675	-200.000	0.007	-0.150
-570.661	-200.000	0.007	-0.038
-569.646	54.277	0.169	-0.165
-568.631	-200.000	0.001	-0.161
-567.617	38.316	0.142	-0.128
-566.602	-55.928	-0.339	-0.154
-565.588	800.000	0.056	-0.171
-564.573	49.396	-0.331	-0.317
-563.558	141.023	-0.119	0.159
-562.544	800.000	-0.070	0.276
-561.529	-85.477	0.163	0.052
-560.515	-32.914	0.107	0.061
-559.500	-47.737	-0.150	0.074
-558.485	-69.077	-0.322	-0.126
-557.471	-200.000	-0.026	-0.266
-556.456	215.539	0.080	-0.128
-555.442	495.810	-0.070	0.164
-554.427	-200.000	0.053	-0.335
-553.412	-17.528	-0.200	-0.127
-552.398	-72.094	-0.013	0.005
-551.383	360.069	-0.019	-0.038
-550.369	558.581	0.052	-0.126
-549.354	-200.000	0.027	0.246
-548.339	-93.698	-0.220	0.062
-547.325	-200.000	0.049	-0.551
-546.310	-177.418	-0.408	-0.010
-545.296	58.036	0.153	0.153
-544.281	-134.913	-0.216	-0.026
-543.266	-100.615	0.041	-0.010
-542.252	17.097	-0.134	0.108
-541.237	-155.800	-0.122	0.008
-540.223	-57.550	-0.213	-0.095
-539.208	-16.788	0.257	-0.165
-538.193	-128.594	-0.051	0.007
-537.179	-64.859	0.115	-0.047
-536.164	-200.000	0.012	0.287
-535.150	66.888	0.124	0.128
-534.135	167.560	0.072	0.104
-533.121	-117.463	-0.143	-0.026
-532.106	-97.953	-0.405	-0.106
-531.091	244.563	-0.040	0.069
-530.077	797.233	0.043	-0.119
-529.062	800.000	0.084	0.241
-528.048	800.000	0.101	-0.300
-527.033	-155.465	-0.275	0.018
-526.018	800.000	0.037	-0.132
-525.004	800.000	-0.130	-0.471
-523.989	-200.000	0.011	0.185
-522.975	179.135	0.094	0.139
-521.960	-200.000	-0.013	0.211
-520.945	-200.000	0.031	-0.313
-519.931	-73.169	-0.111	-0.041
-518.916	-138.057	0.232	0.026
-517.902	-200.000	0.017	0.319
-516.887	-71.256	0.192	0.073
-515.872	37.702	0.129	0.116
-514.858	44.086	0.099	-0.092
-513.843	23.483	0.135	-0.113
-512.829	9.296	0.039	-0.030
-511.814	-129.867	-0.320	0.045
-510.799	266.862	-0.077	0.137
-509.785	800.000	-0.040	0.124
-508.770	800.000	0.008	-0.033
-507.756	-93.516	-0.258	0.072
-506.741	266.230	0.153	0.271
-505.726	10.651	-0.039	0.030
-504.712	-68.950	-0.119	0.046
-503.697	24.208	-0.077	0.064
-502.683	423.848	-0.141	-0.308
-501.668	74.702	0.228	-0.243
-500.653	439.359	-0.064	0.142
-499.639	97.892	-0.216	0.252
-498.624	800.000	0.167	0.563
-497.610	-11.839	0.364	-0.242
-496.595	190.335	0.175	0.266
-495.581	-20.610	0.202	0.126
-494.566	-88.729	0.183	0.055
-493.551	171.311	-0.130	0.189
-492.537	-69.151	-0.092	-0.036
-491.522	91.230	0.265	-0.301
-490.508	560.552	-0.097	-0.238
-489.493	800.000	0.086	0.340
-488.478	-57.565	-0.164	0.073
-487.464	-131.933	-0.273	0.036
-486.449	-174.130	-0.254	-0.008
-485.435	-170.802	-0.369	-0.013
-484.420	-38.610	-0.133	0.071
-483.405	-92.866	0.097	-0.028
-482.391	27.243	-0.180	0.153
-481.376	-180.447	0.174	-0.004
-480.362	-57.868	-0.201	0.089
-479.347	-60.540	-0.224	-0.096
-478.332	-86.934	-0.107	0.033
-477.318	-34.078	0.306	-0.170
-476.303	177.521	-0.102	-0.150
-475.289	17.127	-0.099	-0.080
-474.274	800.000	-0.164	-0.469
-473.259	371.853	0.128	0.263
-472.245	-200.000	0.028	-0.261
-471.230	-200.000	-0.005	0.302
-470.216	485.260	-0.123	0.283
-469.201	155.098	0.250	0.347
-468.186	-88.196	0.033	-0.010
-467.172	25.312	-0.178	0.150
-466.157	716.193	-0.112	0.300
-465.143	228.436	-0.187	0.309
-464.128	468.002	-0.022	-0.050
-463.113	35.250	0.053	0.047
-462.099	800.000	0.095	-0.286
-461.084	0.681	-0.295	-0.213
-460.070	-190.027	0.178	-0.002
-459.055	-200.000	0.029	0.250
-458.040	229.104	-0.116	-0.191
-457.026	89.074	0.141	0.159
-456.011	12.228	0.085	0.066
-454.997	800.000	0.112	-0.365
-453.982	-65.879	0.167	0.068
-452.968	28.399	0.273	0.234
-451.953	-138.349	-0.348	-0.039
-450.938	800.000	-0.112	0.361
-449.924	800.000	-0.035	0.122
-448.909	17.070	-0.361	-0.289
-447.895	149.647	-0.030	0.041
-446.880	-60.129	0.427	-0.184
-445.865	-19.607	0.270	0.169
-444.851	-63.621	0.330	0.137
-443.836	-200.000	0.014	-0.216
-442.822	477.575	-0.117	-0.267
-441.807	262.472	0.158	0.277
-440.792	-121.162	-0.155	-0.026
-439.778	-200.000	-0.019	0.340
-438.763	-192.951	0.234	0.002
-437.749	-21.919	0.093	0.057
-436.734	-195.485	0.531	-0.004
-435.719	-51.799	0.147	-0.069
-434.705	800.000	0.054	-0.202
-433.690	-62.139	0.130	-0.055
-432.676	800.000	-0.108	0.408
-431.661	-29.150	0.304	0.176
-430.646	219.319	0.241	-0.390
-429.632	-64.268	-0.045	-0.018
-428.617	800.000	0.057	-0.191
-427.603	-67.112	-0.294	-0.117
-426.588	-107.246	0.154	-0.034
-425.573	102.304	0.102	0.120
-424.559	12.194	-0.405	0.315
-423.544	156.613	0.144	0.201
-422.530	-154.114	0.085	0.006
-421.515	84.707	-0.111	0.122
-420.500	-141.219	-0.180	-0.018
-419.486	-57.000	-0.221	-0.098
-418.471	781.318	-0.033	-0.092
-417.457	-102.101	-0.348	0.085
-416.442	119.533	0.080	0.100
-415.428	-73.688	0.127	-0.047
-414.413	16.200	-0.336	-0.268
-413.398	-200.000	0.033	-0.307
-412.384	800.000	-0.015	0.055
-411.369	-104.795	-0.241	-0.056
-410.355	800.000	0.132	0.560
-409.340	800.000	-0.017	-0.071
-408.325	-64.633	0.172	-0.070
-407.311	-131.694	0.486	-0.064
-406.296	626.216	0.072	-0.182
-405.282	-49.762	-0.108	0.052
-404.267	-22.258	0.089	-0.054
-403.252	19.230	0.141	0.114
-402.238	53.970	-0.096	-0.093
-401.223	-93.075	-0.238	0.067
-400.209	1.546	-0.083	-0.060
-399.194	143.609	-0.048	-0.064
-398.179	3.542	0.080	-0.059
-397.165	-167.659	-0.113	0.005
-396.150	-200.000	0.039	-0.229
-395.136	-200.000	0.001	0.071
-394.121	-8.751	-0.103	-0.070
-393.106	-52.019	-0.209	-0.098
-392.092	-177.453	-0.076	-0.002
-391.077	-200.000	0.013	0.206
-390.063	800.000	0.078	0.305
-389.048	-4.854	0.158	-0.110
-388.033	66.532	-0.039	-0.040
-387.019	-81.744	-0.153	0.051
-386.004	443.397	-0.107	0.237
-384.990	24.720	0.150	0.125
-383.975	-168.269	0.287	0.011
-382.960	-200.000	0.014	-0.066
-381.946	192.635	0.253	0.385
-380.931	88.591	0.077	-0.087
-379.917	144.300	-0.099	-0.134
-378.902	800.000	0.072	0.286
-377.888	-181.865	-0.482	-0.009
-376.873	-200.000	0.002	-0.177
-375.858	-109.441	0.107	0.023
-374.844	-129.923	0.341	0.047
-373.829	-9.209	-0.095	-0.064
-372.815	451.415	-0.049	-0.109
-371.800	-200.000	-0.031	-0.159
-370.785	585.361	0.028	-0.069
-369.771	-129.179	0.172	-0.024
-368.756	-200.000	-0.003	0.067
-367.742	363.429	-0.110	-0.223
-366.727	-96.275	-0.111	-0.030
-365.712	-113.646	0.301	-0.059
-364.698	-168.731	0.041	-0.002
-363.683	436.610	0.077	-0.168
-362.669	-200.000	0.021	-0.204
-361.654	-160.707	0.104	-0.006
-360.639	-176.921	0.341	0.009
-359.625	-57.268	0.441	-0.196
-358.610	-85.965	-0.257	0.080
-357.596	-156.463	-0.067	0.004
-356.581	116.743	0.193	-0.238
-355.566	148.355	-0.272	-0.370
-354.552	160.703	-0.083	0.117
-353.537	687.490	-0.108	0.283
-352.523	-19.169	-0.228	-0.143
-351.508	-144.818	0.239	-0.022
-350.493	-129.036	0.279	0.039
-349.479	-200.000	0.011	0.286
-348.464	-25.872	0.149	-0.088
-347.450	-125.275	-0.146	-0.022
-346.435	290.120	0.244	-0.447
-345.420	800.000	-0.072	-0.216
-344.406	-44.262	0.218	0.110
-343.391	96.281	-0.123	0.141
-342.377	-12.350	0.096	-0.063
-341.362	40.932	-0.179	-0.163
-340.348	434.923	-0.082	-0.179
-339.333	245.266	-0.039	0.067
-338.318	-60.398	-0.561	-0.240
-337.304	-200.000	-0.090	-0.402
-336.289	800.000	0.084	0.283
-335.275	404.691	-0.015	0.033
-334.260	80.933	0.119	-0.129
-333.245	800.000	0.018	0.073
-332.231	-83.784	-0.205	-0.066
-331.216	17.581	-0.094	-0.076
-330.202	-21.061	0.186	0.115
-329.187	-23.744	-0.113	-0.068
-328.172	-39.115	0.329	0.174
-327.158	-200.000	0.019	-0.151
-326.143	593.101	-0.062	-0.154
-325.129	265.733	-0.081	-0.143
-324.114	-153.368	-0.217	-0.015
-323.099	-83.919	0.075	0.024
-322.085	413.150	0.025	-0.053
-321.070	396.836	0.105	-0.222
-320.056	-60.155	-0.248	0.106
-319.041	-200.000	-0.002	-0.332
-318.026	51.464	-0.066	-0.063
-317.012	-100.897	-0.313	-0.077
-315.997	-61.305	0.165	0.070
-314.983	27.053	0.132	-0.111
-313.968	-130.276	0.161	0.022
-312.953	-68.655	-0.304	-0.118
-311.939	229.928	-0.147	0.241
-310.924	800.000	0.041	-0.144
-309.910	-147.739	0.348	-0.029
-308.895	406.081	-0.098	0.208
-307.880	800.000	0.103	-0.299
-306.866	-200.000	-0.004	-0.265
-305.851	61.569	-0.111	-0.111
-304.837	-200.000	-0.005	-0.072
-303.822	68.893	0.036	-0.037
-302.807	-147.727	0.318	-0.027
-301.793	125.903	0.119	0.152
-300.778	114.211	0.315	-0.385
-299.764	524.317	-0.147	0.346
-298.749	209.915	0.146	0.231
-297.735	645.237	-0.182	-0.468
-296.720	-200.000	-0.023	-0.181
-295.705	-139.594	0.264	-0.028
-294.691	663.675	0.042	-0.109
-293.676	-37.220	-0.053	-0.029
-292.662	-61.885	-0.082	-0.034
-291.647	13.947	-0.169	0.132
-290.632	-133.380	0.206	0.026
-289.618	800.000	-0.114	0.339
-288.603	198.463	0.086	0.133
-287.589	-200.000	0.025	0.367
-286.574	-136.123	-0.235	-0.028
-285.559	84.633	0.131	-0.144
-284.545	800.000	0.064	0.196
-283.530	-77.742	-0.069	-0.024
-282.516	-143.262	0.300	0.029
-281.501	88.066	-0.046	0.051
-280.486	-170.697	0.276	-0.010
-279.472	47.703	0.382	0.358
-278.457	-136.044	0.150	0.018
-277.443	72.619	-0.150	-0.157
-276.428	-200.000	-0.026	0.141
-275.413	-72.004	0.226	-0.084
-274.399	-170.889	0.257	-0.009
-273.384	-200.000	0.013	0.085
-272.370	-200.000	0.023	-0.263
-271.355	14.529	0.125	0.098
-270.340	-200.000	-0.055	0.290
-269.326	331.971	-0.067	0.130
-268.311	-109.546	-0.315	-0.067
-267.297	800.000	0.064	0.233
-266.282	-53.892	0.331	0.151
-265.267	-161.072	0.304	-0.016
-264.253	-99.511	-0.176	0.044
-263.238	5.117	-0.088	0.065
-262.224	102.983	-0.169	0.199
-261.209	194.308	0.055	0.083
-260.195	-77.731	0.270	0.094
-259.180	509.074	-0.098	0.228
-258.165	-200.000	-0.073	0.326
-257.151	34.202	0.137	-0.119
-256.136	262.994	0.046	0.080
-255.122	800.000	-0.043	-0.119
-254.107	800.000	-0.100	0.290
-253.092	-185.006	0.099	-0.002
-252.078	-21.048	0.106	0.065
-251.063	22.413	0.102	0.083
-250.049	-0.471	-0.159	-0.113
-249.034	452.624	-0.136	-0.301
-248.019	800.000	-0.051	-0.146
-247.005	-6.239	0.175	-0.120
-245.990	46.614	-0.339	-0.316
-244.976	100.376	0.042	-0.049
-243.961	-200.000	-0.007	0.263
-242.946	287.725	0.231	-0.418
-241.932	190.445	-0.099	0.149
-240.917	-194.285	0.099	0.001
-239.903	738.112	0.034	-0.091
-238.888	-200.000	0.032	-0.155
-237.873	-200.000	0.007	-0.349
-236.859	800.000	0.095	-0.347
-235.844	-41.055	-0.134	-0.069
-234.830	-200.000	0.086	-0.382
-233.815	-54.105	0.212	-0.097
-232.800	-96.038	0.061	-0.016
-231.786	-181.916	-0.129	-0.002
-230.771	-200.000	0.013	-0.059
-229.757	202.861	-0.089	-0.138
-228.742	251.775	-0.058	0.099
-227.727	54.675	0.105	-0.101
-226.713	-200.000	-0.031	0.155
-225.698	201.482	-0.146	0.225
-224.684	389.553	0.031	-0.065
-223.669	63.343	-0.171	-0.171
-222.655	-71.723	0.092	0.034
-221.640	-200.000	-0.003	0.147
-220.625	-200.000	0.044	0.360
-219.611	139.943	0.139	0.184
-218.596	36.011	-0.325	0.287
-217.582	-110.901	-0.197	0.041
-216.567	477.158	0.045	0.102
-215.552	614.115	0.065	0.163
-214.538	800.000	0.065	0.190
-213.523	-33.986	0.364	0.201
-212.509	800.000	0.061	0.201
-211.494	-93.736	-0.192	0.053
-210.479	103.864	0.076	0.089
-209.465	262.020	0.102	-0.177
-208.450	800.000	0.054	0.217
-207.436	-36.030	-0.184	0.100
-206.421	482.449	0.044	0.100
-205.406	-7.158	0.186	-0.126
-204.392	301.236	0.070	-0.129
-203.377	-200.000	0.061	-0.318
-202.363	-20.670	-0.310	-0.191
-201.348	-12.893	0.151	0.098
-200.333	-33.654	0.209	-0.116
-199.319	141.664	0.179	0.238
-198.304	7.495	-0.098	-0.074
-197.290	-40.933	0.157	0.081
-196.275	38.797	0.071	-0.064
-195.260	170.903	0.053	0.076
-194.246	190.642	0.044	0.066
-193.231	-200.000	0.004	-0.169
-192.217	57.748	-0.141	0.138
-191.202	-68.672	0.318	0.123
-190.187	-18.337	-0.463	0.289
-189.173	153.178	-0.036	-0.049
-188.158	76.005	-0.192	0.204
-187.144	800.000	0.068	0.197
-186.129	-200.000	-0.009	0.343
-185.114	464.428	0.141	0.315
-184.100	-200.000	0.014	0.132
-183.085	-200.000	-0.223	0.000
-182.071	172.882	0.121	-0.174
-181.056	13.283	0.097	0.075
-180.042	800.000	-0.174	-0.502
-179.027	-200.000	0.051	-0.247
-178.012	-141.899	-0.271	-0.027
-176.998	-200.000	0.019	-0.134
-175.983	346.864	0.151	-0.298
-174.969	674.443	-0.052	-0.135
-173.954	-190.831	0.163	-0.002
-172.939	-54.646	0.228	0.103
-171.925	-200.000	0.116	0.538
-170.910	55.164	-0.216	0.209
-169.896	800.000	-0.107	0.382
-168.881	22.555	0.195	-0.159
-167.866	-148.702	-0.254	0.021
-166.852	552.253	0.044	0.105
-165.837	168.549	-0.094	0.133
-164.823	15.568	0.167	-0.131
-163.808	-85.060	-0.516	0.162
-162.793	109.709	-0.135	-0.162
-161.779	85.560	-0.156	-0.171
-160.764	-131.637	-0.171	0.022
-159.750	-200.000	0.008	0.201
-158.735	-200.000	-0.002	0.303
-157.720	182.616	-0.090	0.133
-156.706	104.323	-0.311	0.365
-155.691	-200.000	-0.022	0.263
-154.677	-115.183	-0.253	0.048
-153.662	-97.818	-0.212	-0.055
-152.647	-68.413	-0.066	0.026
-151.633	800.000	-0.049	0.172
-150.618	147.573	0.121	0.163
-149.604	360.509	-0.145	-0.290
-148.589	-143.956	-0.261	0.025
-147.574	6.526	0.199	-0.148
-146.560	800.000	-0.064	0.199
-145.545	-200.000	-0.084	0.559
-144.531	158.320	-0.163	0.225
-143.516	-105.425	0.091	0.021
-142.502	-76.347	-0.305	0.107
-141.487	256.115	0.103	-0.176
-140.472	-3.353	0.263	-0.183
-139.458	-21.112	0.045	-0.028
-138.443	-200.000	0.023	-0.111
-137.429	43.554	0.105	0.096
-136.414	-100.586	-0.130	0.032
-135.399	800.000	-0.080	0.267
-134.385	-177.105	0.336	-0.008
-133.370	-68.740	0.241	0.093
-132.356	-93.870	0.279	-0.077
-131.341	-141.188	0.156	0.016
-130.326	42.700	0.112	-0.102
-129.312	202.519	0.146	0.225
-128.297	-200.000	0.007	0.112
-127.283	-103.933	0.053	-0.012
-126.268	328.541	0.134	-0.258
-125.253	-48.249	0.430	-0.207
-124.239	196.757	-0.110	0.168
-123.224	-125.777	-0.578	0.087
-122.210	-200.000	-0.020	0.133
-121.195	-100.957	0.159	0.039
