DTS Sentinel unit serial number:	SN413079Multiplexer serial number:	ORYXHardware model number:	OX4-SRSoftware version number:	ORYX F/W v4.00 Oryx Data Collector v3.7.2.0data status	okinstallation	princeton_trtdifferential loss correction	single-endedforward channel	channel 2reverse channel	N/Adate	2019/09/14time	22:55:35forward acquisition time	60.00reverse acquisition time	0.00gamma	496.2192k internal	0.2323k external	0.2323temperature offset calibration	1.0062default loss term (dB/km)	0.3790temperature slope calibration	1.0000multiplexer offset coefficient	1.0000multiplexer slope coefficient	1.0000fibre end	0.00T internal ref (°C)	32.44T ext. ref 1 (°C)	4.66T ext. ref 2 (°C)	27.47length (m)	temperature (°C)	Stokes	anti-Stokes-747.200	624.838	0.080	0.203
-746.185	800.000	-0.060	0.200
-745.171	467.865	0.156	0.353
-744.156	260.490	0.181	0.317
-743.142	68.618	-0.295	-0.305
-742.127	-134.545	-0.160	0.020
-741.112	188.933	0.067	-0.101
-740.098	-200.000	0.001	-0.063
-739.083	-200.000	0.009	0.199
-738.069	323.533	-0.316	0.609
-737.054	-200.000	-0.002	0.136
-736.039	-169.068	-0.169	-0.006
-735.025	-74.900	0.246	0.089
-734.010	283.344	-0.067	0.121
-732.996	800.000	0.083	-0.352
-731.981	-15.057	-0.333	0.216
-730.966	-146.803	-0.061	-0.005
-729.952	158.776	0.186	0.261
-728.937	83.967	-0.241	0.265
-727.923	89.515	-0.127	-0.143
-726.908	-98.379	0.186	0.048
-725.894	800.000	-0.013	-0.056
-724.879	-200.000	-0.000	-0.219
-723.864	79.462	-0.026	-0.029
-722.850	800.000	-0.066	0.224
-721.835	7.658	0.203	-0.153
-720.821	-122.270	0.181	0.030
-719.806	156.607	-0.148	-0.207
-718.791	-4.740	-0.326	0.227
-717.777	-200.000	-0.022	-0.174
-716.762	800.000	-0.029	-0.127
-715.748	162.384	0.065	-0.092
-714.733	571.323	0.153	-0.376
-713.718	776.980	0.029	0.081
-712.704	452.363	-0.075	-0.168
-711.689	800.000	-0.038	0.109
-710.675	-63.181	0.285	0.118
-709.660	499.914	-0.098	0.228
-708.645	655.086	0.076	0.196
-707.631	125.029	-0.043	0.055
-706.616	-200.000	0.052	-0.257
-705.602	800.000	0.097	-0.413
-704.587	57.809	0.266	0.263
-703.572	-200.000	-0.012	0.255
-702.558	-84.944	-0.308	-0.097
-701.543	35.063	0.420	-0.371
-700.529	72.342	0.072	-0.076
-699.514	128.264	0.109	-0.140
-698.499	-200.000	0.020	-0.119
-697.485	-3.301	-0.252	-0.177
-696.470	66.072	-0.133	0.136
-695.456	-76.855	-0.199	-0.070
-694.441	222.742	0.130	0.210
-693.426	-200.000	0.001	0.458
-692.412	800.000	0.120	-0.458
-691.397	-18.855	0.070	-0.044
-690.383	-200.000	-0.000	0.147
-689.368	126.016	0.040	0.051
-688.354	701.710	0.091	-0.243
-687.339	515.241	0.143	-0.336
-686.324	2.215	0.152	0.111
-685.310	124.699	-0.138	0.175
-684.295	111.117	-0.110	-0.133
-683.281	800.000	-0.084	-0.260
-682.266	-130.674	-0.269	0.036
-681.251	-36.804	-0.092	-0.050
-680.237	23.710	0.089	-0.074
-679.222	-128.908	0.160	-0.023
-678.208	-159.187	-0.181	0.010
-677.193	627.480	0.090	0.229
-676.178	-70.142	0.196	-0.075
-675.164	502.470	-0.079	-0.184
-674.149	800.000	-0.048	0.210
-673.135	-70.594	0.306	-0.117
-672.120	-200.000	0.039	0.240
-671.105	-81.870	-0.089	-0.029
-670.091	178.431	-0.344	-0.506
-669.076	-145.348	0.303	-0.028
-668.062	-39.638	0.192	0.101
-667.047	800.000	-0.068	-0.266
-666.032	-200.000	-0.037	0.227
-665.018	204.684	0.223	0.348
-664.003	397.382	-0.122	0.257
-662.989	10.215	0.238	0.182
-661.974	-22.544	0.241	-0.147
-660.959	-88.534	0.174	-0.052
-659.945	-200.000	0.037	-0.205
-658.930	127.360	0.260	-0.332
-657.916	14.660	-0.132	-0.104
-656.901	-58.809	-0.328	-0.143
-655.886	800.000	-0.225	-0.633
-654.872	800.000	-0.100	-0.316
-653.857	9.361	-0.240	-0.183
-652.843	160.630	0.136	-0.191
-651.828	-89.299	0.120	0.036
-650.814	-182.399	-0.509	-0.009
-649.799	176.561	-0.124	0.181
-648.784	239.150	0.138	-0.232
-647.770	481.917	-0.062	0.141
-646.755	-99.629	0.117	0.030
-645.741	-116.937	0.347	-0.064
-644.726	-24.831	-0.314	0.188
-643.711	103.989	-0.029	0.034
-642.697	-87.472	-0.364	-0.111
-641.682	68.030	-0.073	-0.075
-640.668	-117.960	0.311	-0.056
-639.653	341.174	0.059	-0.115
-638.638	-54.320	-0.132	0.060
-637.624	552.406	0.027	-0.066
-636.609	35.836	0.285	0.252
-635.595	-200.000	0.005	0.117
-634.580	-15.518	-0.126	-0.081
-633.565	-39.430	0.275	0.145
-632.551	-79.150	0.338	-0.115
-631.536	27.035	-0.177	0.149
-630.522	-123.032	-0.264	-0.043
-629.507	-133.958	-0.111	-0.014
-628.492	5.571	0.273	0.203
-627.478	-30.667	0.172	-0.098
-626.463	33.574	0.216	-0.189
-625.449	-200.000	0.061	-0.334
-624.434	687.984	-0.101	-0.265
-623.419	800.000	-0.066	0.231
-622.405	-75.882	-0.113	0.040
-621.390	-68.113	0.198	0.077
-620.376	48.095	-0.320	-0.301
-619.361	-200.000	0.002	0.288
-618.346	44.777	0.184	0.170
-617.332	405.431	0.097	-0.206
-616.317	800.000	-0.074	0.213
-615.303	9.086	-0.114	-0.086
-614.288	-59.625	0.098	-0.042
-613.273	-200.000	0.020	-0.135
-612.259	9.128	0.426	-0.323
-611.244	144.838	0.170	-0.229
-610.230	476.949	-0.065	0.148
-609.215	800.000	0.042	0.133
-608.201	-62.998	-0.078	0.033
-607.186	-200.000	-0.018	0.377
-606.171	69.936	-0.247	0.256
-605.157	-61.565	0.329	-0.139
-604.142	-200.000	0.021	0.181
-603.128	-163.028	-0.110	-0.005
-602.113	-145.058	0.219	0.020
-601.098	245.423	-0.072	-0.121
-600.084	-200.000	-0.030	0.252
-599.069	-90.984	-0.210	-0.061
-598.055	800.000	0.056	-0.218
-597.040	-113.773	0.353	0.069
-596.025	-131.801	0.298	-0.039
-595.011	-48.004	-0.028	0.014
-593.996	-74.241	-0.480	-0.174
-592.982	-137.880	-0.128	-0.014
-591.967	-52.466	-0.161	-0.075
-590.952	-102.552	-0.143	-0.034
-589.938	-126.115	0.148	0.022
-588.923	11.744	-0.170	0.131
-587.909	-141.753	-0.142	0.014
-586.894	10.759	-0.026	-0.020
-585.879	331.807	-0.178	-0.345
-584.865	-162.936	-0.441	0.022
-583.850	10.500	-0.131	0.100
-582.836	800.000	0.039	0.162
-581.821	20.172	-0.023	0.018
-580.806	114.765	0.274	-0.335
-579.792	-68.972	-0.216	-0.084
-578.777	-11.622	0.034	-0.022
-577.763	800.000	-0.056	0.155
-576.748	-133.836	0.164	-0.020
-575.733	-39.042	-0.153	0.081
-574.719	-89.579	-0.243	-0.071
-573.704	-200.000	0.066	-0.387
-572.690	-48.746	0.062	-0.030
-571.675	151.123	0.093	0.127
-570.661	103.468	-0.238	-0.281
-569.646	-153.176	0.136	0.010
-568.631	178.277	0.089	0.130
-567.617	365.180	0.038	-0.077
-566.602	3.215	0.236	-0.172
-565.588	63.246	-0.135	-0.135
-564.573	483.762	-0.075	-0.171
-563.558	579.235	0.088	-0.216
-562.544	358.183	-0.134	-0.269
-561.529	-170.199	-0.229	-0.008
-560.515	800.000	0.083	-0.282
-559.500	-45.824	0.130	0.064
-558.485	-200.000	-0.028	0.290
-557.471	136.743	0.053	-0.070
-556.456	249.997	0.029	0.049
-555.442	800.000	-0.089	-0.247
-554.427	-104.637	0.122	0.028
-553.412	-200.000	-0.010	-0.101
-552.398	-193.669	-0.105	0.001
-551.383	-140.524	0.375	0.039
-550.369	7.890	0.190	-0.143
-549.354	-127.903	0.138	0.020
-548.339	480.244	-0.103	-0.233
-547.325	-57.311	-0.479	-0.211
-546.310	93.670	-0.063	-0.071
-545.296	-99.280	0.124	0.031
-544.281	-27.735	0.166	-0.096
-543.266	1.034	0.289	0.208
-542.252	-200.000	-0.023	-0.200
-541.237	-200.000	0.029	0.184
-540.223	99.963	-0.103	-0.119
-539.208	-93.144	0.128	-0.036
-538.193	144.420	0.136	0.181
-537.179	99.001	-0.156	0.181
-536.164	-200.000	-0.032	0.144
-535.150	63.397	0.126	-0.126
-534.135	118.004	0.054	0.066
-533.121	81.074	-0.042	0.046
-532.106	-200.000	-0.047	-0.215
-531.091	153.158	-0.045	0.061
-530.077	42.418	-0.301	-0.274
-529.062	-3.220	0.263	-0.183
-528.048	-78.289	0.201	-0.069
-527.033	12.000	-0.140	0.108
-526.018	-200.000	0.012	-0.124
-525.004	3.946	0.107	-0.079
-523.989	183.679	-0.083	-0.123
-522.975	800.000	-0.089	-0.272
-521.960	-189.759	-0.170	0.002
-520.945	800.000	-0.019	0.078
-519.931	-60.363	-0.073	-0.031
-518.916	350.457	-0.074	-0.147
-517.902	92.779	-0.048	0.055
-516.887	-5.239	0.041	0.028
-515.872	-84.866	0.079	0.025
-514.858	-139.444	0.089	0.010
-513.843	-74.846	-0.478	-0.172
-512.829	-76.011	-0.095	0.034
-511.814	800.000	0.078	0.288
-510.799	-164.983	-0.396	0.018
-509.785	-45.674	0.066	-0.033
-508.770	-200.000	0.025	0.180
-507.756	-4.754	-0.132	-0.091
-506.741	-42.831	-0.180	0.091
-505.726	19.947	-0.193	0.156
-504.712	-20.203	0.088	0.054
-503.697	800.000	0.042	0.143
-502.683	88.450	-0.108	-0.119
-501.668	68.682	-0.137	-0.140
-500.653	-200.000	0.020	0.087
-499.639	-89.846	0.322	-0.094
-498.624	31.167	0.197	-0.169
-497.610	195.148	0.200	0.304
-496.595	148.954	0.152	-0.205
-495.581	-55.518	0.225	0.101
-494.566	-80.193	0.185	-0.062
-493.551	223.808	0.019	-0.031
-492.537	-1.035	-0.227	-0.161
-491.522	-36.209	0.149	0.081
-490.508	-66.959	0.308	0.122
-489.493	-200.000	-0.053	-0.251
-488.478	-145.014	-0.333	-0.030
-487.464	61.832	0.412	-0.410
-486.449	-200.000	-0.003	-0.379
-485.435	800.000	0.033	0.137
-484.420	-168.203	0.298	-0.012
-483.405	-200.000	0.006	-0.225
-482.391	79.500	-0.045	0.049
-481.376	-200.000	-0.027	0.149
-480.362	-157.811	0.181	0.011
-479.347	-1.731	-0.326	0.229
-478.332	-67.983	-0.283	0.111
-477.318	42.951	0.081	0.074
-476.303	188.433	0.159	-0.237
-475.289	36.954	0.143	0.127
-474.274	-20.261	0.485	-0.298
-473.259	204.660	0.120	0.187
-472.245	76.741	-0.178	0.189
-471.230	597.920	-0.081	0.202
-470.216	-93.813	0.243	0.067
-469.201	47.826	0.354	0.330
-468.186	-15.330	-0.189	0.121
-467.172	-200.000	0.011	0.049
-466.157	-147.696	-0.389	-0.033
-465.143	-200.000	0.012	0.080
-464.128	-132.833	0.165	0.021
-463.113	260.849	-0.069	0.119
-462.099	400.590	0.042	-0.088
-461.084	-95.691	-0.194	0.052
-460.070	355.286	0.196	0.390
-459.055	-164.820	0.241	-0.011
-458.040	-50.634	-0.112	-0.053
-457.026	-110.845	0.553	-0.114
-456.011	-200.000	-0.012	0.133
-454.997	588.337	0.120	0.296
-453.982	184.679	-0.078	0.115
-452.968	-52.708	0.232	0.107
-451.953	-113.750	0.010	0.002
-450.938	317.959	-0.085	0.160
-449.924	435.680	0.108	-0.234
-448.909	800.000	0.056	-0.194
-447.895	800.000	-0.096	0.359
-446.880	-200.000	0.010	0.285
-445.865	148.987	-0.044	-0.060
-444.851	-132.336	0.297	-0.038
-443.836	58.056	-0.319	-0.312
-442.822	172.089	-0.135	-0.194
-441.807	-96.725	0.286	0.075
-440.792	-27.648	-0.226	0.131
-439.778	14.534	0.177	0.138
-438.763	90.783	-0.129	0.144
-437.749	-66.897	-0.059	-0.023
-436.734	-200.000	-0.238	-0.000
-435.719	-200.000	0.065	-0.296
-434.705	39.195	0.216	0.193
-433.690	-133.183	0.331	0.042
-432.676	-164.114	0.019	0.001
-431.661	196.453	-0.127	-0.193
-430.646	5.497	-0.206	-0.152
-429.632	205.828	-0.124	0.192
-428.617	-91.661	-0.156	0.044
-427.603	-200.000	0.012	-0.151
-426.588	-71.708	-0.118	-0.044
-425.573	-6.705	-0.269	0.183
-424.559	-27.064	-0.352	0.205
-423.544	208.465	0.187	0.291
-422.530	-58.584	-0.099	0.043
-421.515	-200.000	0.045	0.251
-420.500	13.335	0.392	-0.303
-419.486	-112.360	0.265	-0.053
-418.471	-9.549	-0.099	-0.066
-417.457	-161.064	0.122	-0.006
-416.442	-200.000	0.000	-0.345
-415.428	-73.028	0.210	-0.077
-414.413	-200.000	-0.034	0.306
-413.398	-200.000	0.003	-0.017
-412.384	-91.548	0.210	0.060
-411.369	-165.734	0.144	-0.006
-410.355	743.344	-0.037	-0.098
-409.340	-149.004	0.141	0.011
-408.325	486.699	0.175	-0.398
-407.311	500.223	-0.036	0.083
-406.296	159.185	0.203	0.282
-405.282	-58.864	0.265	-0.114
-404.267	-200.000	0.001	0.341
-403.252	-200.000	-0.019	0.163
-402.238	60.901	0.237	-0.235
-401.223	134.857	-0.275	-0.356
-400.209	10.235	0.142	0.107
-399.194	-68.143	0.145	-0.056
-398.179	-126.855	-0.174	0.026
-397.165	-200.000	-0.009	-0.331
-396.150	-40.303	0.235	-0.122
-395.136	0.126	0.232	0.164
-394.121	711.779	0.054	0.143
-393.106	-200.000	-0.010	-0.283
-392.092	0.716	-0.290	-0.206
-391.077	-7.310	0.125	0.085
-390.063	-128.731	-0.215	-0.030
-389.048	-92.650	-0.246	-0.069
-388.033	51.377	-0.119	-0.113
-387.019	800.000	-0.083	0.230
-386.004	-200.000	-0.049	-0.373
-384.990	274.296	0.123	0.217
-383.975	104.753	-0.092	-0.108
-382.960	750.694	-0.047	-0.127
-381.946	-39.092	0.243	-0.127
-380.931	77.215	-0.144	-0.152
-379.917	-46.912	-0.102	0.050
-378.902	96.345	0.054	-0.062
-377.888	21.381	-0.082	0.066
-376.873	12.774	0.334	0.257
-375.858	40.133	-0.208	0.186
-374.844	-124.361	-0.195	-0.030
-373.829	37.610	-0.199	-0.176
-372.815	-200.000	-0.023	-0.181
-371.800	294.255	-0.263	-0.478
-370.785	-200.000	0.005	0.060
-369.771	-6.634	0.088	0.060
-368.756	-200.000	-0.063	-0.368
-367.742	-200.000	0.033	0.235
-366.727	-6.784	0.205	0.139
-365.712	-200.000	-0.030	0.336
-364.698	-140.364	0.184	0.019
-363.683	-119.967	-0.402	0.069
-362.669	-200.000	0.021	-0.098
-361.654	80.937	-0.150	0.162
-360.639	-95.793	0.235	-0.063
-359.625	183.525	0.061	-0.090
-358.610	-36.183	-0.314	-0.169
-357.596	93.755	0.050	-0.056
-356.581	-157.035	-0.250	0.015
-355.566	-200.000	0.011	-0.049
-354.552	13.554	0.140	0.108
-353.537	34.802	0.233	0.203
-352.523	-10.541	-0.121	-0.080
-351.508	-200.000	0.013	-0.300
-350.493	6.595	0.277	0.205
-349.479	82.308	0.214	0.231
-348.464	11.528	0.115	0.087
-347.450	-55.527	-0.246	0.109
-346.435	-97.434	0.219	0.057
-345.420	152.610	0.146	-0.198
-344.406	166.698	-0.098	-0.138
-343.391	49.703	0.027	-0.025
-342.377	-200.000	-0.030	0.343
-341.362	798.506	-0.034	0.094
-340.348	800.000	-0.032	-0.088
-339.333	284.556	-0.155	0.278
-338.318	2.776	-0.278	-0.201
-337.304	800.000	-0.019	0.071
-336.289	-39.627	-0.281	0.146
-335.275	-200.000	-0.034	0.330
-334.260	-200.000	-0.261	0.001
-333.245	-113.596	0.055	-0.011
-332.231	-120.603	0.043	-0.007
-331.216	-78.709	0.111	-0.038
-330.202	417.736	0.147	-0.313
-329.187	191.001	-0.064	0.095
-328.172	-7.505	-0.152	0.102
-327.158	87.397	0.174	0.192
-326.143	173.118	0.102	0.147
-325.129	800.000	0.021	0.073
-324.114	-64.697	0.294	-0.118
-323.099	73.473	-0.161	-0.167
-322.085	578.199	-0.086	0.209
-321.070	-121.785	-0.141	-0.023
-320.056	-93.862	0.250	-0.068
-319.041	-107.608	0.188	0.041
-318.026	-22.192	-0.322	0.194
-317.012	410.868	0.180	0.379
-315.997	-17.785	0.209	-0.130
-314.983	-120.914	-0.280	-0.047
-313.968	-154.371	-0.372	0.025
-312.953	179.193	-0.045	0.065
-311.939	-23.086	-0.052	-0.031
-310.924	18.428	-0.102	0.081
-309.910	800.000	0.055	-0.167
-308.895	485.181	0.043	-0.098
-307.880	-93.548	0.099	-0.027
-306.866	800.000	-0.049	0.169
-305.851	708.526	-0.057	0.149
-304.837	2.888	0.184	0.133
-303.822	-200.000	0.040	0.206
-302.807	-200.000	0.011	-0.279
-301.793	800.000	-0.058	-0.230
-300.778	251.421	0.175	-0.295
-299.764	153.085	-0.114	-0.155
-298.749	293.032	-0.102	-0.184
-297.735	99.797	0.122	-0.140
-296.720	-110.469	-0.304	-0.063
-295.705	-18.506	0.126	-0.078
-294.691	-200.000	-0.039	-0.181
-293.676	83.367	0.114	-0.123
-292.662	280.743	0.117	0.208
-291.647	5.101	-0.203	-0.149
-290.632	-149.474	0.089	0.007
-289.618	293.817	-0.150	0.272
-288.603	-200.000	0.002	0.361
-287.589	212.941	0.141	0.221
-286.574	-2.659	0.054	-0.038
-285.559	412.927	0.070	0.148
-284.545	57.188	-0.007	0.007
-283.530	-69.739	0.400	-0.152
-282.516	-41.607	-0.193	-0.099
-281.501	-200.000	-0.010	-0.443
-280.486	-200.000	0.002	0.037
-279.472	292.404	0.030	0.055
-278.457	197.901	-0.010	-0.016
-277.443	-83.335	-0.223	0.071
-276.428	-13.571	0.164	-0.106
-275.413	-45.321	0.229	0.112
-274.399	-118.325	0.535	0.094
-273.384	-75.159	-0.203	-0.072
-272.370	446.403	-0.061	0.133
-271.355	-134.642	0.326	-0.039
-270.340	-200.000	-0.007	0.155
-269.326	-109.338	-0.343	-0.072
-268.311	85.230	0.194	0.211
-267.297	-6.302	0.426	0.288
-266.282	123.028	0.162	0.201
-265.267	-86.328	-0.146	-0.044
-264.253	756.896	-0.093	0.250
-263.238	-200.000	0.038	0.504
-262.224	-99.812	-0.080	0.020
-261.209	-200.000	-0.063	0.342
-260.195	333.315	-0.155	0.297
-259.180	-161.138	0.198	0.010
-258.165	110.747	-0.271	0.323
-257.151	-200.000	0.012	0.206
-256.136	-84.319	-0.269	0.084
-255.122	-200.000	0.001	0.064
-254.107	-107.014	0.439	-0.096
-253.092	800.000	-0.088	-0.241
-252.078	-115.153	-0.009	-0.002
-251.063	-1.501	-0.202	-0.141
-250.049	169.395	-0.236	0.333
-249.034	-122.663	-0.153	-0.025
-248.019	-55.320	-0.270	0.120
-247.005	117.851	-0.057	0.070
-245.990	-200.000	-0.034	-0.150
-244.976	-159.964	-0.124	0.007
-243.961	-104.926	0.103	0.023
-242.946	-34.694	-0.292	-0.158
-241.932	-38.868	-0.390	0.203
-240.917	-200.000	0.020	-0.415
-239.903	33.381	0.297	-0.256
-238.888	800.000	-0.076	0.219
-237.873	800.000	0.103	0.301
-236.859	180.386	-0.089	0.129
-235.844	-51.162	-0.156	-0.072
-234.830	90.415	0.180	-0.199
-233.815	-63.422	0.082	0.033
-232.800	-147.515	0.277	0.023
-231.786	560.976	0.172	-0.412
-230.771	-40.599	-0.113	-0.058
-229.757	-102.251	-0.196	-0.047
-228.742	-153.766	0.112	0.008
-227.727	-22.931	0.233	0.139
-226.713	39.575	-0.240	-0.212
-225.698	85.584	0.115	-0.125
-224.684	165.194	0.081	-0.114
-223.669	-135.009	-0.239	0.028
-222.655	7.304	0.273	-0.202
-221.640	-42.813	0.091	-0.046
-220.625	800.000	0.085	0.261
-219.611	649.327	-0.133	0.336
-218.596	232.120	0.168	0.273
-217.582	-200.000	-0.002	0.027
-216.567	182.437	-0.114	0.167
-215.552	209.468	0.050	0.078
-214.538	171.177	0.140	0.198
-213.523	-200.000	-0.045	-0.325
-212.509	180.274	0.125	0.182
-211.494	122.239	-0.109	-0.135
-210.479	323.197	-0.101	0.191
-209.465	70.502	0.181	-0.185
-208.450	-106.267	0.157	-0.035
-207.436	260.367	0.266	0.455
-206.421	-27.665	-0.110	-0.063
-205.406	66.592	-0.275	-0.277
-204.392	-200.000	-0.004	0.316
-203.377	581.688	-0.062	-0.150
-202.363	685.552	-0.024	-0.061
-201.348	-110.856	-0.080	0.016
-200.333	-81.434	-0.314	-0.102
-199.319	153.513	0.044	-0.059
-198.304	-116.421	-0.320	-0.058
-197.290	11.089	-0.172	-0.130
-196.275	-162.868	-0.132	-0.006
-195.260	-200.000	-0.037	-0.173
-194.246	-34.321	-0.171	0.093
-193.231	-200.000	-0.005	-0.047
-192.217	-116.957	0.220	0.040
-191.202	-77.036	0.274	0.094
-190.187	-200.000	0.003	-0.187
-189.173	800.000	0.018	-0.076
-188.158	197.070	-0.074	0.111
-187.144	26.641	-0.041	-0.034
-186.129	440.258	0.130	0.280
-185.114	800.000	-0.057	-0.191
-184.100	-63.333	-0.083	0.034
-183.085	-176.305	-0.265	0.007
-182.071	-80.292	-0.188	0.062
-181.056	-76.034	-0.139	0.049
-180.042	-200.000	0.012	-0.106
-179.027	24.323	0.470	-0.384
-178.012	266.929	-0.105	-0.181
-176.998	336.194	0.098	-0.188
-175.983	64.840	0.145	-0.144
-174.969	-134.604	-0.301	0.036
-173.954	-200.000	0.011	0.240
-172.939	-200.000	-0.009	0.049
-171.925	-69.793	-0.216	0.082
-170.910	16.044	-0.217	-0.169
-169.896	600.809	-0.158	0.388
-168.881	-50.845	-0.136	-0.063
-167.866	174.319	-0.137	0.196
-166.852	53.422	-0.201	0.191
-165.837	-200.000	-0.002	0.037
-164.823	26.736	0.071	0.059
-163.808	-35.504	0.150	-0.080
-162.793	-200.000	-0.030	-0.304
-161.779	-21.435	-0.337	-0.203
-160.764	25.600	-0.271	-0.222
-159.750	91.657	-0.366	0.407
-158.735	-137.365	0.274	0.031
-157.720	5.504	-0.197	-0.144
-156.706	-200.000	-0.225	-0.001
-155.691	-71.744	0.106	0.039
-154.677	40.795	0.372	-0.331
-153.662	90.975	-0.093	-0.103
-152.647	42.811	0.084	-0.076
-151.633	395.948	0.148	0.306
-150.618	-30.190	0.315	-0.177
-149.604	-200.000	0.065	0.361
-148.589	467.799	0.147	-0.326
-147.574	-51.669	-0.236	-0.109
-146.560	101.374	0.279	-0.321
-145.545	-133.506	-0.244	-0.030
-144.531	-156.484	0.198	-0.012
-143.516	234.994	0.151	0.245
-142.502	-51.492	-0.227	0.105
-141.487	224.948	-0.036	-0.057
-140.472	-200.000	-0.030	-0.175
-139.458	-72.282	0.129	0.047
-138.443	-107.164	0.220	-0.048
-137.429	800.000	-0.067	0.215
-136.414	-7.228	0.292	0.195
-135.399	-200.000	0.019	-0.374
-134.385	-110.112	0.346	-0.071
-133.370	-200.000	0.027	0.167
-132.356	-88.211	-0.229	0.068
-131.341	401.279	0.117	-0.242
-130.326	403.719	-0.092	-0.191
-129.312	315.218	-0.074	0.138
-128.297	-114.982	0.082	-0.015
-127.283	800.000	0.109	-0.394
-126.268	800.000	0.039	-0.110
-125.253	741.599	-0.042	-0.112
-124.239	687.645	-0.106	0.272
-123.224	-15.418	0.105	-0.066
-122.210	90.159	0.129	-0.142
-121.195	170.477	-0.095	-0.134
-120.180	-8.837	0.185	0.122
