DTS Sentinel unit serial number:	SN413079Multiplexer serial number:	ORYXHardware model number:	OX4-SRSoftware version number:	ORYX F/W v4.00 Oryx Data Collector v3.7.2.0data status	okinstallation	princeton_trtdifferential loss correction	single-endedforward channel	channel 2reverse channel	N/Adate	2019/09/10time	17:05:11forward acquisition time	60.00reverse acquisition time	0.00gamma	496.2192k internal	0.2310k external	0.2310temperature offset calibration	0.9937default loss term (dB/km)	0.3790temperature slope calibration	1.0000multiplexer offset coefficient	1.0000multiplexer slope coefficient	1.0000fibre end	0.00T internal ref (°C)	37.62T ext. ref 1 (°C)	-0.32T ext. ref 2 (°C)	31.98length (m)	temperature (°C)	Stokes	anti-Stokes-747.200	-200.000	0.021	0.276
-746.185	-200.000	-0.073	0.347
-745.171	796.296	0.078	0.219
-744.156	800.000	0.056	0.213
-743.142	769.952	0.034	0.093
-742.127	113.371	-0.237	0.292
-741.112	149.769	0.113	-0.156
-740.098	800.000	0.068	-0.293
-739.083	-200.000	-0.006	0.192
-738.069	38.312	-0.189	0.171
-737.054	60.291	0.158	0.159
-736.039	800.000	-0.086	-0.320
-735.025	-147.516	0.539	-0.046
-734.010	17.549	-0.249	0.201
-732.996	-63.460	-0.200	0.083
-731.981	36.190	-0.335	0.300
-730.966	186.628	-0.220	0.333
-729.952	443.696	0.107	-0.238
-728.937	-156.300	-0.199	-0.013
-727.923	-72.439	-0.328	0.123
-726.908	-104.661	-0.125	-0.029
-725.894	-115.632	-0.221	0.042
-724.879	407.077	0.055	-0.118
-723.864	-117.778	0.190	-0.035
-722.850	226.030	-0.137	0.226
-721.835	-100.674	0.064	0.016
-720.821	-130.624	-0.191	0.026
-719.806	800.000	-0.115	-0.360
-718.791	-144.338	-0.266	0.025
-717.777	567.955	0.091	-0.224
-716.762	-200.000	-0.008	-0.466
-715.748	-200.000	-0.007	0.329
-714.733	28.877	-0.172	-0.148
-713.718	-59.590	0.261	0.114
-712.704	287.794	-0.086	0.157
-711.689	-94.010	-0.272	-0.076
-710.675	324.370	-0.225	0.436
-709.660	501.242	-0.050	-0.117
-708.645	-12.903	0.052	0.035
-707.631	-60.494	0.179	-0.077
-706.616	-3.829	0.143	-0.101
-705.602	35.204	-0.141	-0.125
-704.587	-33.883	-0.353	-0.197
-703.572	674.784	-0.141	-0.370
-702.558	183.820	0.198	0.297
-701.543	32.844	0.181	0.159
-700.529	-111.119	0.075	0.016
-699.514	-54.502	-0.076	0.035
-698.499	28.128	0.104	-0.089
-697.485	-200.000	0.006	-0.406
-696.470	-123.904	0.114	-0.018
-695.456	48.693	-0.100	-0.095
-694.441	56.032	-0.136	-0.134
-693.426	-200.000	-0.017	0.230
-692.412	-163.062	0.304	-0.015
-691.397	98.213	-0.148	-0.173
-690.383	-174.021	-0.282	0.008
-689.368	13.758	0.162	-0.127
-688.354	800.000	0.025	0.090
-687.339	-25.948	-0.203	0.121
-686.324	-11.887	-0.173	-0.115
-685.310	126.119	0.238	0.306
-684.295	-56.933	0.102	-0.046
-683.281	-200.000	-0.042	-0.383
-682.266	86.805	-0.065	0.073
-681.251	-200.000	0.016	0.198
-680.237	800.000	0.095	0.296
-679.222	394.751	-0.115	0.244
-678.208	-127.715	-0.300	0.044
-677.193	800.000	-0.063	-0.179
-676.178	-65.592	-0.123	0.050
-675.164	359.945	-0.060	0.122
-674.149	-171.780	-0.154	-0.005
-673.135	-56.044	-0.163	-0.074
-672.120	135.723	-0.067	-0.088
-671.105	-25.023	0.277	0.166
-670.091	-200.000	-0.051	-0.298
-669.076	65.796	0.142	0.145
-668.062	800.000	0.086	-0.368
-667.047	179.868	0.111	-0.165
-666.032	800.000	-0.008	0.028
-665.018	52.197	-0.106	0.102
-664.003	23.297	0.056	0.046
-662.989	800.000	0.009	0.037
-661.974	501.609	0.086	0.200
-660.959	744.867	-0.025	0.067
-659.945	-31.290	0.234	-0.134
-658.930	-159.960	-0.048	0.003
-657.916	-4.762	-0.285	-0.199
-656.901	35.339	0.308	0.273
-655.886	-118.725	-0.132	0.024
-654.872	128.019	0.046	-0.059
-653.857	-0.948	0.175	-0.126
-652.843	47.114	-0.257	0.242
-651.828	-41.545	-0.140	0.073
-650.814	-151.308	-0.312	0.024
-649.799	-135.593	0.226	0.027
-648.784	773.454	0.034	0.095
-647.770	-200.000	0.024	-0.149
-646.755	-200.000	-0.009	-0.286
-645.741	-7.489	0.261	-0.179
-644.726	-200.000	-0.001	0.007
-643.711	-200.000	0.055	0.318
-642.697	148.615	-0.108	0.148
-641.682	800.000	-0.063	0.185
-640.668	800.000	0.133	0.402
-639.653	-200.000	-0.013	0.079
-638.638	71.945	-0.135	-0.143
-637.624	-183.227	0.271	-0.005
-636.609	-31.602	-0.172	-0.098
-635.595	-100.577	0.220	-0.055
-634.580	-27.556	0.235	-0.138
-633.565	83.566	-0.237	0.262
-632.551	-69.288	0.057	0.022
-631.536	182.885	0.138	0.206
-630.522	-73.678	-0.267	-0.098
-629.507	36.973	0.144	0.128
-628.492	98.838	-0.177	-0.207
-627.478	275.963	0.066	0.119
-626.463	280.369	0.084	-0.152
-625.449	227.564	-0.087	-0.144
-624.434	157.567	-0.117	0.164
-623.419	-98.191	-0.298	-0.078
-622.405	800.000	0.064	-0.255
-621.390	42.726	0.264	0.243
-620.376	-200.000	-0.046	-0.418
-619.361	800.000	-0.037	-0.133
-618.346	-24.928	0.193	0.116
-617.332	300.230	-0.056	-0.104
-616.317	20.573	0.232	0.190
-615.303	-200.000	0.001	-0.102
-614.288	-118.388	-0.182	0.033
-613.273	-157.965	0.352	-0.021
-612.259	-61.086	0.208	0.089
-611.244	-102.155	0.252	0.061
-610.230	111.778	0.121	-0.148
-609.215	307.863	-0.103	0.194
-608.201	-200.000	0.038	0.223
-607.186	-93.385	-0.109	-0.031
-606.171	-115.640	-0.238	0.045
-605.157	298.400	0.058	-0.108
-604.142	160.201	-0.056	0.078
-603.128	-90.415	-0.398	0.117
-602.113	-200.000	0.070	0.363
-601.098	-200.000	-0.074	0.472
-600.084	-77.790	0.117	-0.041
-599.069	800.000	-0.067	-0.263
-598.055	-120.517	-0.299	0.051
-597.040	-200.000	-0.004	0.260
-596.025	33.350	0.114	0.100
-595.011	-200.000	-0.074	0.368
-593.996	114.394	0.116	0.142
-592.982	-85.818	-0.405	0.127
-591.967	-200.000	-0.036	0.453
-590.952	-153.465	-0.406	-0.028
-589.938	-31.017	0.117	-0.066
-588.923	-183.732	0.323	-0.006
-587.909	-39.551	-0.116	-0.061
-586.894	800.000	0.049	0.181
-585.879	-200.000	0.005	-0.102
-584.865	-44.729	-0.031	0.015
-583.850	-200.000	-0.015	-0.116
-582.836	-27.365	0.293	-0.172
-581.821	-88.882	-0.135	-0.040
-580.806	140.072	0.095	-0.126
-579.792	-200.000	0.017	-0.241
-578.777	-171.429	0.311	-0.010
-577.763	198.097	0.160	-0.246
-576.748	-200.000	-0.005	-0.168
-575.733	800.000	-0.133	-0.375
-574.719	-11.170	-0.208	0.138
-573.704	14.230	0.133	-0.104
-572.690	-83.281	-0.126	0.041
-571.675	800.000	-0.027	-0.104
-570.661	-48.599	0.072	-0.035
-569.646	-157.339	-0.232	-0.014
-568.631	-9.433	-0.293	0.198
-567.617	-46.241	-0.294	-0.146
-566.602	-99.321	-0.038	0.010
-565.588	-20.035	0.164	0.102
-564.573	-57.039	-0.148	-0.066
-563.558	800.000	-0.077	-0.250
-562.544	548.585	0.152	-0.368
-561.529	-16.586	-0.153	-0.098
-560.515	-90.665	-0.072	-0.021
-559.500	-17.446	-0.224	-0.142
-558.485	-68.598	0.225	-0.088
-557.471	75.622	0.225	-0.240
-556.456	-23.561	0.263	0.159
-555.442	25.652	0.077	0.065
-554.427	-99.159	-0.175	-0.045
-553.412	-84.601	-0.131	0.042
-552.398	-75.451	0.208	-0.075
-551.383	54.920	-0.257	-0.250
-550.369	-130.333	0.039	-0.005
-549.354	52.130	0.107	-0.103
-548.339	-200.000	-0.003	0.032
-547.325	-85.584	0.368	0.115
-546.310	-24.934	0.117	-0.070
-545.296	-28.207	0.186	-0.108
-544.281	586.460	0.225	0.557
-543.266	-6.447	0.288	0.198
-542.252	-141.565	-0.243	0.025
-541.237	-79.419	-0.289	0.098
-540.223	31.244	0.043	0.037
-539.208	800.000	-0.069	0.221
-538.193	83.828	0.049	-0.054
-537.179	55.217	-0.227	0.221
-536.164	191.789	-0.076	-0.116
-535.150	-200.000	-0.014	0.414
-534.135	0.431	0.250	0.180
-533.121	-52.741	-0.124	-0.057
-532.106	-200.000	-0.024	-0.310
-531.091	260.623	0.074	-0.129
-530.077	800.000	0.078	0.278
-529.062	0.968	0.256	0.184
-528.048	595.752	-0.073	-0.181
-527.033	800.000	0.138	-0.485
-526.018	271.315	-0.108	-0.192
-525.004	-118.098	0.437	0.079
-523.989	-154.934	0.198	-0.013
-522.975	228.580	0.074	0.122
-521.960	23.777	0.196	-0.163
-520.945	-200.000	0.002	0.039
-519.931	351.084	-0.044	-0.087
-518.916	-200.000	0.047	0.370
-517.902	-200.000	-0.033	-0.283
-516.887	-200.000	0.003	-0.085
-515.872	-57.628	0.210	-0.093
-514.858	-149.215	0.065	-0.005
-513.843	-150.782	0.213	-0.016
-512.829	-90.852	0.157	-0.046
-511.814	-200.000	0.000	-0.196
-510.799	-66.136	0.188	-0.075
-509.785	388.970	0.117	0.243
-508.770	-10.258	-0.074	-0.050
-507.756	492.958	0.075	0.174
-506.741	-161.860	-0.273	0.014
-505.726	800.000	0.086	0.248
-504.712	-160.736	-0.240	-0.013
-503.697	-4.309	0.129	0.090
-502.683	-71.374	0.241	-0.091
-501.668	-78.754	-0.213	0.073
-500.653	-40.920	-0.241	0.125
-499.639	81.566	-0.089	-0.097
-498.624	-143.193	0.207	-0.020
-497.610	-120.495	0.020	0.003
-496.595	-37.841	-0.155	0.083
-495.581	29.510	-0.023	0.020
-494.566	387.288	0.138	0.288
-493.551	-200.000	-0.001	-0.191
-492.537	103.631	0.101	-0.119
-491.522	800.000	-0.103	0.335
-490.508	-1.654	0.154	0.109
-489.493	215.597	0.060	-0.096
-488.478	800.000	-0.031	-0.090
-487.464	439.673	-0.056	-0.122
-486.449	-200.000	0.036	0.167
-485.435	-187.865	-0.278	-0.004
-484.420	567.305	-0.083	-0.202
-483.405	223.171	-0.073	-0.118
-482.391	281.472	-0.058	-0.104
-481.376	8.855	-0.350	0.265
-480.362	494.840	-0.035	-0.080
-479.347	-200.000	0.001	-0.148
-478.332	-200.000	-0.039	0.264
-477.318	-65.592	-0.233	0.094
-476.303	-3.020	-0.255	-0.179
-475.289	-72.918	-0.101	0.037
-474.274	-135.878	-0.343	0.041
-473.259	73.953	0.254	0.268
-472.245	708.611	-0.082	0.218
-471.230	-200.000	-0.024	0.193
-470.216	314.439	0.057	0.108
-469.201	54.988	-0.341	-0.331
-468.186	-200.000	-0.014	-0.147
-467.172	-11.147	-0.156	-0.103
-466.157	-200.000	0.002	0.024
-465.143	359.903	0.091	-0.184
-464.128	800.000	0.069	0.236
-463.113	124.240	0.156	0.197
-462.099	10.564	0.069	-0.053
-461.084	99.139	-0.127	-0.148
-460.070	-187.683	-0.166	0.002
-459.055	-200.000	0.047	-0.242
-458.040	-200.000	-0.012	-0.114
-457.026	-200.000	0.004	-0.294
-456.011	-59.381	0.285	0.123
-454.997	195.203	-0.040	0.062
-453.982	40.668	-0.139	0.126
-452.968	800.000	0.009	-0.033
-451.953	331.603	-0.127	0.246
-450.938	353.073	-0.060	-0.120
-449.924	299.147	0.131	0.241
-448.909	-159.250	-0.351	0.020
-447.895	-1.390	-0.151	-0.107
-446.880	169.474	-0.212	-0.304
-445.865	-200.000	0.045	0.242
-444.851	271.056	-0.183	-0.323
-443.836	-99.682	0.289	0.073
-442.822	61.256	-0.162	0.162
-441.807	136.131	-0.404	-0.529
-440.792	-200.000	-0.044	-0.246
-439.778	-107.098	0.263	-0.058
-438.763	331.640	-0.061	0.118
-437.749	-154.793	-0.396	-0.026
-436.734	40.143	0.165	-0.149
-435.719	-19.409	-0.278	-0.173
-434.705	-183.077	0.129	-0.002
-433.690	103.458	0.134	0.158
-432.676	800.000	-0.094	-0.384
-431.661	-124.878	0.121	-0.019
-430.646	279.815	-0.138	-0.247
-429.632	273.429	0.047	0.083
-428.617	-0.888	0.221	-0.157
-427.603	-3.248	0.401	0.280
-426.588	57.705	0.149	0.146
-425.573	349.562	-0.139	-0.276
-424.559	248.332	0.126	-0.213
-423.544	62.400	-0.121	0.121
-422.530	800.000	-0.052	-0.157
-421.515	-90.185	0.402	-0.117
-420.500	800.000	-0.102	-0.312
-419.486	180.376	-0.108	-0.160
-418.471	-200.000	-0.007	-0.180
-417.457	-200.000	0.001	0.379
-416.442	690.269	0.055	-0.145
-415.428	-44.394	0.249	-0.125
-414.413	800.000	-0.058	0.172
-413.398	300.114	-0.036	-0.066
-412.384	214.919	-0.192	0.304
-411.369	-200.000	-0.127	-0.611
-410.355	800.000	0.070	-0.201
-409.340	-200.000	0.013	-0.154
-408.325	-200.000	0.012	0.354
-407.311	800.000	0.064	-0.249
-406.296	245.692	0.184	-0.311
-405.282	800.000	0.038	0.115
-404.267	-200.000	0.002	0.036
-403.252	-112.633	0.295	-0.059
-402.238	-169.434	-0.091	0.003
-401.223	800.000	0.173	-0.561
-400.209	91.000	-0.097	-0.109
-399.194	-78.140	-0.274	0.094
-398.179	91.395	0.191	-0.215
-397.165	-200.000	0.024	-0.124
-396.150	201.662	0.130	0.201
-395.136	11.686	0.318	-0.244
-394.121	674.339	-0.045	0.117
-393.106	362.937	0.087	-0.176
-392.092	-49.826	-0.109	0.052
-391.077	401.609	-0.086	-0.181
-390.063	238.189	-0.147	-0.244
-389.048	67.838	0.155	0.159
-388.033	-200.000	0.010	0.160
-387.019	57.523	-0.099	-0.097
-386.004	20.364	0.352	-0.285
-384.990	218.065	-0.098	-0.157
-383.975	-40.638	0.267	-0.138
-382.960	800.000	-0.026	-0.075
-381.946	0.513	-0.111	-0.079
-380.931	120.732	-0.039	-0.048
-379.917	-200.000	-0.021	-0.121
-378.902	4.617	-0.195	0.143
-377.888	-73.270	-0.152	0.056
-376.873	800.000	-0.067	-0.286
-375.858	-200.000	0.048	-0.216
-374.844	-158.759	-0.253	0.015
-373.829	-200.000	-0.007	0.328
-372.815	269.807	0.111	-0.196
-371.800	-83.463	0.129	0.041
-370.785	-118.293	0.239	-0.043
-369.771	128.983	-0.153	0.196
-368.756	130.806	0.313	0.402
-367.742	197.083	-0.050	-0.076
-366.727	800.000	0.031	0.086
-365.712	-19.578	0.013	-0.008
-364.698	-95.595	-0.429	0.115
-363.683	-118.227	-0.147	0.026
-362.669	483.769	0.014	-0.032
-361.654	800.000	-0.030	0.126
-360.639	136.406	0.047	0.062
-359.625	191.029	0.201	0.302
-358.610	-64.182	0.277	-0.113
-357.596	651.351	-0.053	-0.136
-356.581	-14.125	-0.166	-0.107
-355.566	-200.000	-0.031	0.349
-354.552	-200.000	0.015	-0.201
-353.537	-27.785	0.207	-0.120
-352.523	-108.887	0.120	-0.026
-351.508	342.960	-0.134	0.262
-350.493	-116.384	-0.285	0.053
-349.479	361.489	-0.079	0.159
-348.464	-25.333	0.202	0.119
-347.450	800.000	0.109	0.324
-346.435	-200.000	-0.031	0.348
-345.420	-66.994	0.151	0.059
-344.406	-31.355	0.252	0.142
-343.391	254.159	0.030	-0.052
-342.377	29.243	-0.141	0.120
-341.362	800.000	-0.021	0.091
-340.348	252.022	-0.072	0.123
-339.333	-6.739	0.181	-0.123
-338.318	378.568	0.142	0.290
-337.304	-146.273	-0.336	0.029
-336.289	-16.145	0.262	-0.166
-335.275	77.109	-0.112	-0.119
-334.260	800.000	-0.028	-0.098
-333.245	-138.591	0.296	-0.032
-332.231	61.052	0.128	0.126
-331.216	-54.253	0.144	0.065
-330.202	62.270	-0.096	0.095
-329.187	217.298	-0.133	0.211
-328.172	-86.269	-0.137	0.042
-327.158	-73.315	0.390	-0.143
-326.143	-95.841	0.184	-0.049
-325.129	-200.000	-0.015	-0.412
-324.114	-79.175	0.085	0.029
-323.099	174.634	-0.182	0.263
-322.085	-32.721	0.180	0.100
-321.070	-113.999	0.105	0.020
-320.056	-104.834	-0.102	0.023
-319.041	-7.208	-0.151	-0.102
-318.026	-66.709	0.162	-0.064
-317.012	800.000	-0.054	0.232
-315.997	-98.805	-0.159	0.040
-314.983	800.000	-0.012	0.033
-313.968	-39.629	0.262	0.137
-312.953	-5.193	-0.100	0.069
-311.939	-200.000	0.011	-0.227
-310.924	-169.321	0.337	-0.012
-309.910	72.688	-0.174	0.181
-308.895	228.634	-0.071	0.116
-307.880	465.078	0.129	-0.289
-306.866	546.544	0.052	0.125
-305.851	-75.694	-0.162	-0.057
-304.837	-14.892	0.083	0.053
-303.822	-12.490	-0.081	-0.053
-302.807	-200.000	-0.011	0.180
-301.793	-200.000	0.039	-0.290
-300.778	3.077	0.323	-0.235
-299.764	-123.709	-0.035	-0.006
-298.749	619.267	-0.083	-0.208
-297.735	370.488	-0.032	0.064
-296.720	240.171	-0.303	0.504
-295.705	34.593	-0.058	-0.051
-294.691	-56.672	-0.416	-0.184
-293.676	-77.537	-0.422	0.146
-292.662	800.000	0.018	-0.072
-291.647	800.000	-0.113	0.326
-290.632	800.000	-0.113	0.349
-289.618	-47.328	-0.078	-0.038
-288.603	334.454	-0.120	-0.233
-287.589	178.656	-0.035	-0.051
-286.574	800.000	-0.093	-0.322
-285.559	-120.684	-0.239	-0.040
-284.545	-84.972	-0.157	-0.049
-283.530	134.706	0.259	0.335
-282.516	-137.484	-0.510	-0.057
-281.501	-44.889	-0.179	-0.089
-280.486	-51.702	0.219	0.102
-279.472	800.000	-0.028	-0.108
-278.457	-34.067	-0.088	-0.048
-277.443	-170.736	0.267	0.009
-276.428	27.002	-0.087	-0.073
-275.413	-200.000	0.009	-0.136
-274.399	-119.735	-0.191	-0.033
-273.384	-98.990	0.210	0.053
-272.370	190.985	-0.243	0.365
-271.355	262.844	0.172	-0.298
-270.340	39.106	-0.385	-0.343
-269.326	-200.000	-0.048	-0.257
-268.311	45.091	-0.191	0.176
-267.297	267.577	0.163	0.284
-266.282	-80.031	-0.180	-0.060
-265.267	-200.000	0.021	-0.136
-264.253	-100.317	0.247	-0.061
-263.238	75.136	-0.100	0.106
-262.224	800.000	-0.004	0.011
-261.209	433.885	0.174	-0.377
-260.195	-200.000	-0.005	-0.251
-259.180	391.313	0.056	-0.116
-258.165	-200.000	-0.016	0.175
-257.151	-200.000	-0.037	0.251
-256.136	103.541	0.171	-0.200
-255.122	-200.000	0.019	0.179
-254.107	800.000	0.074	0.269
-253.092	800.000	-0.115	0.406
-252.078	-159.827	0.348	-0.019
-251.063	384.907	0.033	-0.069
-250.049	-79.665	0.192	-0.065
-249.034	25.620	0.154	-0.128
-248.019	-94.868	0.400	-0.108
-247.005	-65.571	-0.330	0.132
-245.990	41.128	-0.273	0.245
-244.976	-200.000	-0.068	0.425
-243.961	393.537	0.029	0.060
-242.946	11.313	0.198	-0.151
-241.932	800.000	-0.020	-0.067
-240.917	3.517	-0.334	-0.243
-239.903	-68.625	-0.044	-0.017
-238.888	67.648	-0.101	-0.102
-237.873	800.000	-0.068	0.290
-236.859	638.963	-0.085	-0.216
-235.844	8.018	-0.172	-0.129
-234.830	130.894	0.089	0.114
-233.815	-166.979	0.351	-0.014
-232.800	676.054	-0.123	0.319
-231.786	-74.624	0.113	0.040
-230.771	85.126	0.126	0.138
-229.757	149.333	0.197	0.266
-228.742	-29.942	-0.248	-0.141
-227.727	361.068	-0.061	-0.121
-226.713	203.682	0.212	-0.327
-225.698	24.583	0.254	-0.209
-224.684	41.346	-0.231	-0.208
-223.669	-90.390	-0.215	-0.062
-222.655	106.775	-0.253	0.299
-221.640	-69.419	0.103	-0.039
-220.625	144.822	-0.195	0.260
-219.611	-87.343	-0.039	0.012
-218.596	-121.791	-0.170	-0.028
-217.582	566.370	0.171	-0.413
-216.567	174.855	-0.222	0.319
-215.552	744.279	0.126	-0.337
-214.538	-54.920	-0.202	0.091
-213.523	-11.527	-0.261	-0.171
-212.509	456.484	0.070	0.154
-211.494	-200.000	-0.012	0.122
-210.479	-193.256	0.139	-0.001
-209.465	64.809	-0.159	0.160
-208.450	800.000	-0.063	0.235
-207.436	-200.000	0.029	0.343
-206.421	-200.000	0.063	0.352
-205.406	800.000	0.057	0.181
-204.392	-200.000	-0.034	0.258
-203.377	-132.353	0.012	0.002
-202.363	141.043	0.042	-0.055
-201.348	176.059	-0.165	0.238
-200.333	114.746	0.266	-0.323
-199.319	-117.801	-0.183	0.033
-198.304	324.415	-0.060	0.114
-197.290	324.508	-0.064	-0.121
-196.275	87.644	-0.255	-0.281
-195.260	-50.644	-0.081	0.038
-194.246	800.000	0.043	0.128
-193.231	800.000	-0.110	-0.352
-192.217	261.736	0.010	0.018
-191.202	-82.159	-0.181	0.059
-190.187	-18.116	0.184	-0.115
-189.173	154.990	0.177	0.242
-188.158	273.946	-0.073	0.128
-187.144	-200.000	0.039	0.479
-186.129	85.815	0.090	0.098
-185.114	68.804	0.286	-0.291
-184.100	117.735	-0.127	-0.156
-183.085	-129.551	0.360	-0.049
-182.071	105.799	0.119	0.140
-181.056	22.673	-0.117	-0.095
-180.042	-64.623	-0.148	-0.060
-179.027	17.991	-0.213	0.169
-178.012	-137.902	0.243	0.027
-176.998	114.442	-0.153	0.185
-175.983	-33.934	-0.116	0.063
-174.969	-200.000	0.032	0.196
-173.954	15.599	0.279	-0.217
-172.939	87.245	-0.142	-0.156
-171.925	464.508	-0.050	0.110
-170.910	699.318	-0.053	-0.140
-169.896	-81.528	0.168	-0.055
-168.881	-136.578	0.164	0.019
-167.866	572.977	-0.122	-0.296
-166.852	24.993	0.169	-0.139
-165.837	94.949	0.204	0.231
-164.823	403.986	0.059	0.124
-163.808	800.000	-0.056	0.188
-162.793	90.893	-0.096	-0.107
-161.779	-200.000	-0.006	0.075
-160.764	800.000	0.035	-0.118
-159.750	380.036	-0.103	-0.210
-158.735	-200.000	-0.004	-0.213
-157.720	476.324	-0.027	0.061
-156.706	-114.457	0.487	0.093
-155.691	-123.549	0.115	0.018
-154.677	-92.574	-0.208	-0.058
-153.662	-45.737	0.189	0.093
-152.647	135.175	0.214	0.276
-151.633	-117.833	-0.300	0.053
-150.618	746.955	0.079	-0.210
-149.604	-178.840	0.218	-0.005
-148.589	-200.000	-0.034	0.259
-147.574	-121.249	-0.216	0.036
-146.560	23.654	-0.086	0.070
-145.545	26.308	-0.297	0.246
-144.531	800.000	-0.039	-0.119
-143.516	60.480	0.095	-0.093
-142.502	-200.000	0.039	0.264
-141.487	-124.418	-0.164	-0.025
-140.472	128.176	-0.084	0.106
-139.458	800.000	-0.070	-0.239
-138.443	-124.807	-0.411	-0.063
-137.429	-46.084	-0.164	-0.080
-136.414	118.829	-0.165	0.202
-135.399	-40.433	0.160	-0.082
-134.385	178.397	-0.033	0.048
-133.370	160.968	0.161	0.224
-132.356	60.520	-0.131	-0.129
-131.341	-200.000	-0.017	0.156
-130.326	-200.000	0.025	0.323
-129.312	170.975	0.047	-0.067
-128.297	-100.047	0.007	-0.002
-127.283	-129.247	0.320	0.044
-126.268	57.075	-0.093	0.090
-125.253	-44.109	-0.126	0.063
-124.239	-126.329	-0.114	-0.017
-123.224	297.181	0.048	-0.088
-122.210	-30.635	-0.119	-0.067
