DTS Sentinel unit serial number:	SN413079Multiplexer serial number:	ORYXHardware model number:	OX4-SRSoftware version number:	ORYX F/W v4.00 Oryx Data Collector v3.7.2.0data status	okinstallation	princeton_trtdifferential loss correction	single-endedforward channel	channel 2reverse channel	N/Adate	2019/09/14time	12:47:35forward acquisition time	60.00reverse acquisition time	0.00gamma	496.2192k internal	0.2305k external	0.2305temperature offset calibration	1.0157default loss term (dB/km)	0.3790temperature slope calibration	1.0000multiplexer offset coefficient	1.0000multiplexer slope coefficient	1.0000fibre end	0.00T internal ref (°C)	37.94T ext. ref 1 (°C)	4.84T ext. ref 2 (°C)	33.48length (m)	temperature (°C)	Stokes	anti-Stokes-747.200	351.466	-0.023	-0.046
-746.185	800.000	0.046	0.147
-745.171	-159.220	0.084	0.005
-744.156	-200.000	-0.028	0.304
-743.142	4.960	0.211	0.158
-742.127	622.494	-0.179	0.458
-741.112	284.326	0.087	0.160
-740.098	83.815	0.188	0.209
-739.083	770.874	-0.047	-0.131
-738.069	179.088	0.060	-0.090
-737.054	70.838	0.021	0.022
-736.039	10.215	0.099	-0.076
-735.025	800.000	0.005	-0.018
-734.010	-97.835	-0.187	-0.049
-732.996	-102.351	-0.213	-0.052
-731.981	-90.342	0.130	-0.039
-730.966	186.564	-0.112	-0.169
-729.952	-61.686	-0.060	-0.026
-728.937	-12.464	-0.043	0.029
-727.923	97.278	-0.216	0.252
-726.908	-200.000	-0.036	0.164
-725.894	800.000	-0.020	-0.088
-724.879	-50.587	0.171	-0.082
-723.864	127.719	-0.259	0.334
-722.850	-76.453	-0.288	-0.103
-721.835	-200.000	-0.001	-0.056
-720.821	-200.000	0.030	-0.193
-719.806	76.656	0.065	0.070
-718.791	-200.000	0.036	0.283
-717.777	-200.000	-0.044	0.470
-716.762	46.609	-0.128	-0.121
-715.748	-200.000	0.001	0.095
-714.733	800.000	-0.036	0.132
-713.718	-21.839	0.238	0.147
-712.704	-80.354	-0.230	0.078
-711.689	-50.785	-0.057	-0.027
-710.675	800.000	-0.018	-0.070
-709.660	800.000	0.037	-0.116
-708.645	13.075	0.065	-0.051
-707.631	-75.411	-0.232	-0.084
-706.616	-7.971	0.109	-0.074
-705.602	543.523	-0.081	0.195
-704.587	-41.686	0.119	0.062
-703.572	800.000	-0.050	-0.173
-702.558	800.000	-0.072	-0.284
-701.543	-200.000	-0.019	0.224
-700.529	-34.879	-0.219	0.122
-699.514	457.668	0.075	-0.170
-698.499	-200.000	0.027	-0.165
-697.485	-34.996	0.068	-0.037
-696.470	237.479	0.198	-0.334
-695.456	-25.980	-0.277	-0.165
-694.441	-152.564	-0.116	-0.008
-693.426	71.579	-0.246	0.259
-692.412	-125.171	-0.347	0.054
-691.397	38.798	0.094	-0.085
-690.383	-200.000	-0.028	0.144
-689.368	600.374	0.083	0.209
-688.354	-124.685	-0.200	0.032
-687.339	255.441	-0.080	-0.139
-686.324	10.787	-0.039	-0.030
-685.310	4.204	0.385	-0.287
-684.295	800.000	-0.037	-0.146
-683.281	133.098	-0.199	0.261
-682.266	-91.381	-0.537	-0.156
-681.251	130.304	0.250	0.325
-680.237	-139.356	-0.201	0.022
-679.222	-4.494	0.044	-0.031
-678.208	511.431	0.157	-0.370
-677.193	-118.367	0.279	-0.050
-676.178	-24.131	0.040	-0.024
-675.164	-128.531	0.428	-0.062
-674.149	253.970	0.106	-0.184
-673.135	-200.000	-0.039	-0.205
-672.120	-200.000	0.166	-0.001
-671.105	94.022	-0.099	0.114
-670.091	74.789	-0.086	-0.092
-669.076	-200.000	-0.079	-0.423
-668.062	-113.685	-0.261	-0.052
-667.047	148.531	0.031	0.042
-666.032	-200.000	0.015	0.109
-665.018	369.860	-0.055	-0.113
-664.003	101.277	-0.294	0.348
-662.989	-20.683	-0.101	0.063
-661.974	-2.447	0.117	-0.083
-660.959	-200.000	-0.041	-0.262
-659.945	387.572	-0.171	-0.359
-658.930	-200.000	0.022	0.160
-657.916	-122.045	-0.211	0.035
-656.901	79.938	-0.170	0.185
-655.886	-88.612	-0.087	0.026
-654.872	800.000	0.058	-0.189
-653.857	-200.000	0.012	-0.174
-652.843	445.321	-0.114	0.254
-651.828	-200.000	-0.032	0.190
-650.814	-188.404	0.462	0.006
-649.799	-64.269	0.261	0.108
-648.784	-143.793	-0.111	-0.011
-647.770	-3.942	-0.101	-0.071
-646.755	-200.000	-0.082	0.397
-645.741	79.118	0.081	-0.088
-644.726	-200.000	0.085	-0.385
-643.711	-200.000	-0.117	-0.599
-642.697	-36.969	-0.174	0.095
-641.682	-121.018	0.319	0.054
-640.668	1.299	0.157	-0.114
-639.653	800.000	-0.056	0.188
-638.638	166.196	0.121	0.173
-637.624	3.731	-0.167	-0.124
-636.609	200.151	0.094	-0.146
-635.595	-200.000	0.010	-0.283
-634.580	-5.758	0.223	0.155
-633.565	129.503	0.056	-0.072
-632.551	-5.393	-0.212	0.147
-631.536	-84.813	-0.100	0.032
-630.522	-72.953	0.078	0.029
-629.507	800.000	0.038	0.137
-628.492	69.309	0.091	-0.095
-627.478	-200.000	0.009	-0.271
-626.463	-101.378	-0.319	-0.079
-625.449	-81.424	0.186	-0.062
-624.434	72.353	-0.117	-0.124
-623.419	-59.774	-0.090	-0.039
-622.405	405.436	0.142	-0.304
-621.390	-37.372	-0.417	-0.226
-620.376	267.844	0.099	0.175
-619.361	40.505	-0.158	0.145
-618.346	-123.344	-0.255	0.041
-617.332	-119.899	-0.186	0.032
-616.317	-12.431	-0.201	0.133
-615.303	800.000	0.017	-0.053
-614.288	-0.755	-0.070	-0.050
-613.273	-200.000	0.028	-0.225
-612.259	-116.596	-0.268	-0.050
-611.244	34.850	-0.145	0.129
-610.230	382.166	0.019	-0.040
-609.215	800.000	0.057	-0.187
-608.201	-200.000	-0.012	-0.186
-607.186	800.000	-0.100	0.351
-606.171	-119.059	0.206	0.036
-605.157	800.000	-0.108	0.393
-604.142	25.546	-0.247	0.208
-603.128	83.294	0.111	0.123
-602.113	-24.265	-0.033	-0.020
-601.098	-115.523	-0.115	0.022
-600.084	432.277	-0.162	0.355
-599.069	-0.849	0.137	-0.099
-598.055	800.000	-0.032	0.097
-597.040	308.750	0.038	0.072
-596.025	88.704	0.139	-0.156
-595.011	-200.000	0.014	-0.236
-593.996	-176.817	0.374	0.010
-592.982	800.000	0.006	0.021
-591.967	160.275	-0.148	0.208
-590.952	378.387	-0.028	-0.059
-589.938	74.268	-0.269	0.285
-588.923	-200.000	-0.022	-0.178
-587.909	-83.941	-0.157	-0.050
-586.894	115.881	-0.076	0.094
-585.879	93.878	0.145	0.166
-584.865	800.000	0.088	-0.296
-583.850	-0.773	-0.212	-0.152
-582.836	82.271	-0.143	-0.157
-581.821	-132.923	-0.261	0.034
-580.806	-83.160	-0.533	-0.173
-579.792	421.243	0.044	-0.096
-578.777	381.604	0.040	0.083
-577.763	-161.900	0.469	0.024
-576.748	-127.562	-0.147	-0.022
-575.733	615.934	-0.037	0.095
-574.719	-69.294	0.124	-0.048
-573.704	152.985	-0.038	-0.053
-572.690	-132.335	-0.179	0.023
-571.675	-57.061	-0.071	-0.032
-570.661	-39.989	0.091	-0.048
-569.646	-185.323	0.225	0.004
-568.631	144.326	-0.160	-0.216
-567.617	-126.477	0.220	-0.033
-566.602	94.539	-0.227	0.261
-565.588	54.956	0.196	0.192
-564.573	-51.377	0.290	0.137
-563.558	50.346	-0.218	-0.209
-562.544	800.000	0.100	-0.315
-561.529	9.321	0.279	-0.213
-560.515	130.203	-0.121	-0.157
-559.500	-200.000	-0.056	-0.301
-558.485	-78.294	-0.172	0.060
-557.471	74.010	-0.210	-0.222
-556.456	202.849	0.165	-0.257
-555.442	-200.000	-0.009	-0.116
-554.427	300.813	0.104	-0.194
-553.412	-200.000	0.096	-0.620
-552.398	800.000	0.054	-0.179
-551.383	-61.870	-0.283	-0.120
-550.369	193.362	-0.247	-0.377
-549.354	-200.000	0.015	0.085
-548.339	-126.067	-0.333	0.051
-547.325	-157.820	-0.073	-0.004
-546.310	800.000	-0.040	-0.127
-545.296	-148.019	0.319	-0.027
-544.281	-70.825	-0.216	0.082
-543.266	-132.399	0.484	-0.063
-542.252	-70.923	0.092	-0.035
-541.237	-48.716	0.412	0.200
-540.223	122.633	0.080	0.101
-539.208	188.094	-0.028	-0.042
-538.193	431.616	-0.098	-0.213
-537.179	-200.000	0.014	-0.067
-536.164	231.259	0.154	0.255
-535.150	800.000	0.070	0.215
-534.135	-200.000	-0.023	-0.142
-533.121	-57.918	0.135	-0.060
-532.106	800.000	-0.053	-0.222
-531.091	340.821	-0.034	-0.067
-530.077	-65.158	-0.312	0.127
-529.062	-138.642	-0.218	0.024
-528.048	-162.862	-0.617	0.030
-527.033	-120.935	-0.030	-0.005
-526.018	-117.297	0.269	0.049
-525.004	196.301	-0.059	0.090
-523.989	669.329	-0.118	0.308
-522.975	36.072	0.075	-0.066
-521.960	-200.000	0.061	0.290
-520.945	-200.000	-0.256	0.001
-519.931	102.521	0.057	0.068
-518.916	-173.309	-0.186	-0.006
-517.902	79.635	-0.083	-0.090
-516.887	-200.000	-0.066	0.368
-515.872	-54.632	-0.105	-0.048
-514.858	-174.252	-0.139	-0.004
-513.843	-200.000	-0.015	0.371
-512.829	80.853	0.025	-0.027
-511.814	800.000	0.040	0.147
-510.799	800.000	0.032	0.106
-509.785	-2.083	0.288	0.204
-508.770	-3.867	-0.130	-0.091
-507.756	800.000	-0.053	-0.180
-506.741	65.935	0.126	0.129
-505.726	800.000	-0.018	0.071
-504.712	-29.867	0.190	0.109
-503.697	403.570	-0.164	-0.347
-502.683	-130.562	-0.297	0.040
-501.668	800.000	-0.044	-0.156
-500.653	-200.000	-0.005	-0.111
-499.639	146.353	0.073	-0.099
-498.624	363.278	0.027	0.055
-497.610	747.981	-0.059	-0.161
-496.595	-86.818	-0.179	0.055
-495.581	800.000	0.084	-0.244
-494.566	-200.000	0.013	0.109
-493.551	-200.000	0.075	0.000
-492.537	160.460	0.017	-0.024
-491.522	-199.319	-0.067	0.000
-490.508	74.750	-0.044	0.047
-489.493	-159.297	-0.398	0.022
-488.478	-200.000	-0.011	-0.110
-487.464	-88.944	-0.114	-0.034
-486.449	570.547	-0.206	0.505
-485.435	-111.424	0.294	-0.060
-484.420	-62.447	0.466	-0.195
-483.405	53.188	0.281	0.271
-482.391	215.397	-0.156	-0.250
-481.376	-6.378	0.213	0.146
-480.362	800.000	-0.048	0.184
-479.347	-200.000	-0.042	-0.236
-478.332	6.096	-0.115	-0.086
-477.318	534.623	-0.037	-0.089
-476.303	93.581	0.020	-0.023
-475.289	60.696	0.096	-0.096
-474.274	204.694	0.022	-0.034
-473.259	-53.531	-0.170	-0.078
-472.245	-122.902	-0.152	0.025
-471.230	-8.074	0.220	-0.149
-470.216	-130.417	-0.265	-0.036
-469.201	-92.513	-0.134	-0.038
-468.186	-26.517	0.128	-0.076
-467.172	-200.000	0.036	0.410
-466.157	-127.312	0.310	-0.045
-465.143	22.379	-0.106	-0.087
-464.128	-188.813	0.089	-0.001
-463.113	-12.520	0.132	0.087
-462.099	132.517	0.337	-0.438
-461.084	-200.000	0.057	0.289
-460.070	-36.793	0.342	0.185
-459.055	56.165	0.171	-0.167
-458.040	67.967	0.137	0.141
-457.026	-200.000	-0.191	0.000
-456.011	-114.764	0.153	0.029
-454.997	152.860	0.196	0.269
-453.982	16.428	-0.234	0.186
-452.968	35.434	-0.177	0.157
-451.953	430.959	-0.164	-0.357
-450.938	19.591	0.104	0.084
-449.924	-183.354	-0.257	-0.005
-448.909	-118.521	0.188	0.033
-447.895	-49.578	0.174	0.083
-446.880	-10.517	-0.183	-0.122
-445.865	462.843	-0.046	0.103
-444.851	-200.000	0.023	-0.185
-443.836	37.189	0.194	-0.173
-442.822	-93.695	0.121	0.034
-441.807	29.665	0.116	0.100
-440.792	800.000	0.067	0.231
-439.778	-3.582	0.304	0.212
-438.763	-121.447	-0.125	0.021
-437.749	684.613	0.044	-0.116
-436.734	62.010	-0.028	-0.028
-435.719	-145.178	-0.165	-0.015
-434.705	97.251	-0.201	-0.232
-433.690	15.422	-0.299	0.236
-432.676	96.610	-0.142	0.163
-431.661	-56.758	-0.022	-0.010
-430.646	503.630	0.051	-0.118
-429.632	14.903	0.040	0.031
-428.617	-47.491	-0.255	0.124
-427.603	63.209	-0.366	0.369
-426.588	84.661	0.276	0.303
-425.573	82.502	0.205	-0.224
-424.559	-200.000	-0.081	-0.360
-423.544	302.408	-0.111	-0.206
-422.530	-28.434	-0.157	-0.091
-421.515	-112.760	-0.265	-0.053
-420.500	336.874	-0.126	-0.246
-419.486	275.265	0.145	-0.259
-418.471	-200.000	0.013	-0.121
-417.457	-200.000	-0.003	0.051
-416.442	331.326	-0.028	-0.054
-415.428	-65.072	0.185	0.075
-414.413	-89.546	0.206	-0.061
-413.398	-67.704	-0.410	-0.161
-412.384	135.498	-0.133	-0.173
-411.369	-135.129	0.185	0.022
-410.355	-200.000	-0.042	0.375
-409.340	75.721	-0.313	0.332
-408.325	100.635	-0.101	-0.118
-407.311	293.958	0.121	-0.222
-406.296	800.000	-0.048	-0.193
-405.282	-28.509	0.203	0.118
-404.267	-26.735	-0.326	0.191
-403.252	112.173	-0.107	0.130
-402.238	72.711	0.110	0.115
-401.223	-41.241	0.105	-0.055
-400.209	-84.060	-0.155	0.049
-399.194	46.460	0.138	0.129
-398.179	-200.000	0.001	-0.084
-397.165	386.343	0.050	-0.103
-396.150	-159.517	0.036	0.002
-395.136	125.639	-0.085	0.108
-394.121	280.321	-0.121	0.216
-393.106	-64.321	0.052	0.021
-392.092	688.827	-0.099	0.260
-391.077	-89.389	0.047	0.014
-390.063	417.835	-0.059	-0.126
-389.048	4.389	-0.130	-0.096
-388.033	-200.000	0.019	0.237
-387.019	38.749	0.186	-0.166
-386.004	-167.241	0.207	-0.008
-384.990	15.555	0.203	-0.160
-383.975	-103.176	-0.448	0.106
-382.960	137.589	-0.100	0.132
-381.946	-73.146	-0.179	-0.066
-380.931	-55.929	0.161	0.072
-379.917	-12.641	0.225	-0.147
-378.902	-96.784	0.330	0.087
-377.888	-200.000	-0.004	-0.035
-376.873	800.000	-0.073	0.313
-375.858	70.649	-0.338	0.350
-374.844	371.042	-0.149	0.303
-373.829	-129.832	0.238	-0.033
-372.815	-170.864	0.153	-0.005
-371.800	-26.358	0.122	-0.072
-370.785	122.374	-0.168	0.211
-369.771	115.673	0.012	-0.015
-368.756	105.427	-0.070	0.083
-367.742	-33.020	0.118	0.066
-366.727	-200.000	-0.017	0.127
-365.712	800.000	-0.023	-0.072
-364.698	-200.000	-0.001	0.212
-363.683	800.000	-0.089	0.310
-362.669	221.073	-0.101	-0.163
-361.654	57.627	0.122	0.120
-360.639	41.679	-0.241	0.219
-359.625	-200.000	-0.021	-0.277
-358.610	-134.074	-0.198	0.025
-357.596	-89.894	-0.158	0.046
-356.581	800.000	0.041	0.122
-355.566	-95.442	-0.288	-0.077
-354.552	509.883	0.087	-0.204
-353.537	31.742	0.042	0.036
-352.523	162.720	-0.086	-0.122
-351.508	136.069	-0.199	-0.260
-350.493	-48.324	-0.135	-0.065
-349.479	-200.000	0.002	0.020
-348.464	584.373	0.068	0.168
-347.450	-5.015	0.309	-0.213
-346.435	-43.204	0.063	-0.032
-345.420	212.184	0.107	0.169
-344.406	703.308	0.058	0.153
-343.391	133.129	0.134	-0.173
-342.377	-71.076	-0.294	0.111
-341.362	-42.091	-0.051	0.026
-340.348	44.244	0.171	-0.157
-339.333	-69.644	-0.239	-0.092
-338.318	160.155	-0.080	-0.112
-337.304	133.509	0.075	0.097
-336.289	143.943	-0.162	-0.216
-335.275	458.250	0.083	0.185
-334.260	-92.658	0.104	-0.029
-333.245	130.652	-0.085	0.109
-332.231	-101.544	-0.046	0.011
-331.216	-4.501	-0.068	0.047
-330.202	5.549	0.082	-0.060
-329.187	178.191	0.168	0.246
-328.172	48.229	-0.157	0.147
-327.158	-166.553	-0.045	-0.002
-326.143	123.332	-0.143	0.180
-325.129	-131.970	0.111	-0.014
-324.114	-200.000	0.004	0.128
-323.099	103.741	0.214	0.252
-322.085	-42.006	-0.199	0.102
-321.070	192.248	0.141	0.213
-320.056	0.934	0.285	-0.204
-319.041	726.527	-0.093	-0.247
-318.026	583.259	0.086	0.212
-317.012	24.778	-0.050	0.042
-315.997	183.196	0.173	-0.256
-314.983	518.754	-0.154	0.362
-313.968	489.045	-0.026	0.060
-312.953	-21.155	0.254	-0.156
-311.939	-74.164	-0.346	-0.125
-310.924	-148.277	-0.039	-0.003
-309.910	86.765	-0.188	-0.207
-308.895	59.739	-0.115	0.113
-307.880	-43.860	0.296	0.149
-306.866	-200.000	0.043	-0.318
-305.851	-44.976	-0.286	0.142
-304.837	-3.160	-0.233	-0.163
-303.822	460.027	-0.138	-0.307
-302.807	-108.091	0.282	0.061
-301.793	-42.132	-0.053	-0.027
-300.778	-200.000	-0.043	0.311
-299.764	-45.190	0.153	0.076
-298.749	-119.922	-0.187	-0.032
-297.735	-45.576	0.140	0.069
-296.720	87.016	0.161	0.178
-295.705	800.000	0.074	-0.293
-294.691	123.996	0.231	-0.290
-293.676	-67.280	0.178	0.070
-292.662	48.041	0.228	-0.213
-291.647	-36.019	0.335	0.181
-290.632	800.000	-0.045	-0.148
-289.618	-161.557	0.212	-0.011
-288.603	83.639	0.243	0.265
-287.589	-81.964	0.118	0.039
-286.574	-200.000	0.098	0.466
-285.559	-57.126	-0.281	-0.124
-284.545	800.000	-0.039	-0.149
-283.530	350.226	0.101	-0.200
-282.516	-63.249	-0.045	-0.018
-281.501	-155.129	-0.169	0.011
-280.486	156.603	0.282	0.389
-279.472	730.156	0.135	0.359
-278.457	-3.717	-0.142	0.098
-277.443	-200.000	0.035	-0.298
-276.428	-135.351	0.239	0.029
-275.413	108.219	0.079	0.094
-274.399	-200.000	-0.001	0.013
-273.384	54.079	0.144	0.138
-272.370	-1.855	-0.102	0.072
-271.355	-53.699	-0.210	-0.096
-270.340	800.000	-0.029	-0.088
-269.326	91.396	-0.029	0.033
-268.311	158.894	0.216	0.300
-267.297	-90.953	0.382	-0.110
-266.282	17.276	0.128	0.101
-265.267	-72.891	0.248	0.091
-264.253	-119.523	0.156	0.027
-263.238	-27.128	0.290	0.169
-262.224	126.575	0.034	0.043
-261.209	-1.591	-0.152	-0.107
-260.195	-66.558	-0.157	-0.062
-259.180	-85.431	0.421	0.131
-258.165	-136.932	0.374	-0.043
-257.151	-33.822	0.080	0.044
-256.136	553.555	-0.084	0.202
-255.122	86.369	-0.213	0.235
-254.107	-67.780	0.257	-0.100
-253.092	165.904	0.101	-0.143
-252.078	-200.000	-0.003	0.201
-251.063	-200.000	0.047	-0.260
-250.049	-78.067	-0.282	0.097
-249.034	-89.652	-0.050	-0.015
-248.019	-96.940	0.313	0.082
-247.005	265.609	0.099	-0.172
-245.990	93.629	-0.136	-0.154
-244.976	242.041	0.154	0.256
-243.961	-22.257	0.167	-0.101
-242.946	-200.000	0.028	-0.157
-241.932	547.944	-0.057	-0.137
-240.917	513.829	0.104	0.242
-239.903	-200.000	-0.002	0.309
-238.888	-94.044	-0.179	0.049
-237.873	-200.000	0.027	0.160
-236.859	-161.807	0.197	-0.010
-235.844	-200.000	0.012	0.094
-234.830	-200.000	-0.004	-0.178
-233.815	-200.000	0.024	0.186
-232.800	356.666	0.093	-0.185
-231.786	-83.172	-0.059	0.019
-230.771	-59.517	-0.267	0.115
-229.757	-3.260	-0.048	-0.033
-228.742	-11.873	-0.055	-0.036
-227.727	800.000	-0.020	-0.077
-226.713	131.264	-0.152	-0.194
-225.698	-138.217	-0.283	0.031
-224.684	-152.893	0.192	-0.014
-223.669	-101.582	0.093	0.022
-222.655	-172.092	-0.080	-0.003
-221.640	-9.714	0.303	-0.201
-220.625	153.331	-0.039	0.053
-219.611	230.996	-0.154	-0.251
-218.596	-200.000	-0.003	-0.045
-217.582	-134.243	0.257	0.032
-216.567	155.598	0.103	-0.141
-215.552	-86.003	0.141	-0.044
-214.538	-76.929	0.048	-0.017
-213.523	-200.000	-0.020	-0.232
-212.509	-28.895	-0.106	0.061
-211.494	742.794	0.039	0.106
-210.479	-153.538	0.182	0.013
-209.465	323.293	0.060	0.114
-208.450	-22.581	-0.114	-0.069
-207.436	748.540	0.040	-0.107
-206.421	218.096	0.117	-0.186
-205.406	445.613	0.031	0.068
-204.392	686.366	-0.130	0.339
-203.377	16.383	-0.156	-0.123
-202.363	800.000	0.093	0.320
-201.348	-69.311	0.256	0.098
-200.333	263.165	-0.096	-0.166
-199.319	-102.320	0.123	-0.029
-198.304	-20.653	-0.210	-0.129
-197.290	-64.071	-0.258	-0.105
-196.275	755.740	0.119	-0.321
-195.260	662.148	-0.092	0.237
-194.246	-13.535	-0.265	0.171
-193.231	-78.597	0.068	-0.023
-192.217	404.091	-0.011	-0.024
-191.202	-31.793	0.139	-0.078
-190.187	78.297	0.115	0.123
-189.173	-18.501	-0.180	0.112
-188.158	-6.465	-0.077	0.052
-187.144	-36.846	-0.066	0.035
-186.129	439.040	0.162	0.353
-185.114	800.000	0.042	0.158
-184.100	156.346	-0.173	-0.238
-183.085	171.622	-0.106	-0.151
-182.071	-76.639	-0.226	0.079
-181.056	51.230	0.318	0.301
-180.042	44.501	-0.489	-0.447
-179.027	-108.465	0.297	0.064
-178.012	-111.446	0.148	0.030
-176.998	-200.000	-0.016	-0.100
-175.983	27.563	0.141	0.118
-174.969	-18.145	0.214	0.133
-173.954	28.729	-0.049	-0.041
-172.939	-200.000	-0.022	0.187
-171.925	56.139	-0.295	-0.285
-170.910	575.826	-0.037	0.091
-169.896	800.000	0.110	0.356
-168.881	800.000	0.071	-0.306
-167.866	800.000	0.043	-0.119
-166.852	-56.164	0.103	-0.046
-165.837	310.273	0.079	-0.148
-164.823	-151.674	-0.096	-0.007
-163.808	800.000	-0.025	0.073
-162.793	-200.000	0.064	0.411
-161.779	-200.000	-0.021	0.196
-160.764	-200.000	0.037	-0.161
-159.750	-68.786	-0.101	-0.039
-158.735	800.000	0.053	-0.227
-157.720	36.849	-0.281	0.247
-156.706	-133.935	-0.023	0.003
-155.691	-200.000	-0.025	-0.435
-154.677	-200.000	0.046	-0.369
-153.662	-200.000	0.025	-0.350
-152.647	-68.602	0.417	-0.161
-151.633	-200.000	0.027	-0.123
-150.618	-200.000	-0.020	0.129
-149.604	-54.868	0.406	0.182
-148.589	-200.000	0.011	-0.062
-147.574	214.027	-0.109	0.172
-146.560	-150.220	-0.503	-0.039
-145.545	-60.500	-0.103	0.043
-144.531	50.235	-0.255	0.239
-143.516	197.867	0.162	-0.247
-142.502	-109.321	-0.425	0.090
-141.487	2.575	-0.101	0.073
-140.472	-183.315	0.227	-0.004
-139.458	-200.000	-0.029	0.590
-138.443	-122.508	-0.155	0.025
-137.429	19.411	-0.089	-0.071
-136.414	22.708	-0.130	0.106
-135.399	231.313	0.084	0.137
-134.385	115.664	0.086	0.104
-133.370	190.010	0.217	0.323
-132.356	157.450	0.056	0.078
-131.341	-142.426	0.122	0.012
-130.326	-67.653	-0.337	-0.131
-129.312	143.038	-0.058	0.077
-128.297	-200.000	-0.017	0.141
-127.283	-31.950	-0.243	-0.135
-126.268	-200.000	-0.131	-0.626
-125.253	164.166	0.220	0.308
-124.239	31.512	0.075	-0.064
-123.224	-6.702	-0.311	-0.210
-122.210	718.610	-0.097	0.257
-121.195	800.000	-0.072	0.311
