DTS Sentinel unit serial number:	SN413079Multiplexer serial number:	ORYXHardware model number:	OX4-SRSoftware version number:	ORYX F/W v4.00 Oryx Data Collector v3.7.2.0data status	okinstallation	princeton_trtdifferential loss correction	single-endedforward channel	channel 2reverse channel	N/Adate	2019/09/17time	16:47:35forward acquisition time	60.00reverse acquisition time	0.00gamma	496.2192k internal	0.2291k external	0.2291temperature offset calibration	0.9983default loss term (dB/km)	0.3790temperature slope calibration	1.0000multiplexer offset coefficient	1.0000multiplexer slope coefficient	1.0000fibre end	0.00T internal ref (°C)	42.19T ext. ref 1 (°C)	0.35T ext. ref 2 (°C)	38.41length (m)	temperature (°C)	Stokes	anti-Stokes-747.200	-49.026	-0.296	0.145
-746.185	502.730	-0.084	0.198
-745.171	800.000	-0.039	0.171
-744.156	168.474	0.113	0.164
-743.142	458.959	0.078	-0.177
-742.127	185.590	-0.376	0.572
-741.112	130.291	0.184	0.241
-740.098	-200.000	0.005	0.211
-739.083	274.956	0.153	0.278
-738.069	26.239	-0.132	0.113
-737.054	-8.642	0.128	-0.088
-736.039	-200.000	0.040	-0.212
-735.025	-54.142	-0.147	0.069
-734.010	606.987	-0.067	-0.170
-732.996	78.771	-0.058	0.064
-731.981	-200.000	-0.035	-0.245
-730.966	-51.855	-0.299	-0.143
-729.952	-200.000	0.036	-0.275
-728.937	-50.267	-0.197	-0.096
-727.923	374.840	-0.101	0.211
-726.908	3.903	-0.431	0.322
-725.894	235.766	-0.055	0.093
-724.879	-67.287	-0.064	-0.026
-723.864	800.000	0.073	-0.280
-722.850	24.988	0.165	-0.140
-721.835	142.153	0.109	-0.148
-720.821	309.394	-0.136	-0.261
-719.806	-200.000	0.035	-0.222
-718.791	145.027	-0.043	0.059
-717.777	-48.592	0.375	-0.185
-716.762	-104.371	-0.361	0.086
-715.748	-200.000	-0.050	0.252
-714.733	-198.012	-0.189	0.001
-713.718	-21.993	-0.313	0.195
-712.704	-128.455	-0.112	-0.016
-711.689	-5.545	-0.066	0.046
-710.675	-64.410	0.331	-0.138
-709.660	12.616	0.162	-0.128
-708.645	357.346	-0.048	0.098
-707.631	-92.847	0.210	-0.060
-706.616	234.167	0.058	0.098
-705.602	-51.455	-0.200	-0.096
-704.587	-200.000	-0.003	-0.261
-703.572	135.456	-0.209	0.278
-702.558	195.044	0.186	0.288
-701.543	-200.000	0.027	-0.141
-700.529	-200.000	0.009	0.042
-699.514	-159.431	-0.227	0.013
-698.499	166.431	-0.162	-0.235
-697.485	99.935	-0.275	-0.326
-696.470	-41.910	-0.134	0.070
-695.456	61.037	-0.233	0.236
-694.441	148.132	0.213	0.293
-693.426	262.863	-0.135	-0.240
-692.412	-200.000	-0.002	-0.235
-691.397	-92.480	-0.655	-0.188
-690.383	-200.000	0.029	0.156
-689.368	-154.172	-0.445	0.031
-688.354	0.454	-0.167	-0.122
-687.339	-200.000	0.006	-0.126
-686.324	-6.277	0.250	0.174
-685.310	800.000	-0.035	-0.112
-684.295	-145.070	0.221	0.021
-683.281	-200.000	-0.023	-0.128
-682.266	342.408	-0.036	0.073
-681.251	134.695	-0.084	0.111
-680.237	393.035	0.167	0.356
-679.222	-200.000	0.018	-0.222
-678.208	245.069	0.148	-0.255
-677.193	-183.725	-0.083	-0.001
-676.178	142.110	-0.161	-0.218
-675.164	-51.530	-0.144	0.069
-674.149	692.415	-0.040	-0.106
-673.135	-136.814	0.440	-0.052
-672.120	800.000	-0.050	-0.206
-671.105	194.944	0.112	-0.173
-670.091	-200.000	0.000	-0.249
-669.076	34.076	-0.261	0.232
-668.062	330.595	0.108	-0.213
-667.047	-200.000	0.015	0.150
-666.032	259.093	0.186	-0.328
-665.018	-70.079	-0.166	-0.065
-664.003	-20.251	0.314	-0.198
-662.989	-200.000	-0.051	-0.512
-661.974	88.570	-0.077	-0.087
-660.959	644.162	0.040	0.104
-659.945	124.664	-0.179	0.230
-658.930	-88.433	-0.031	0.009
-657.916	14.143	0.220	0.174
-656.901	22.172	-0.249	0.207
-655.886	177.853	-0.086	0.128
-654.872	-0.464	-0.075	-0.054
-653.857	-92.676	0.131	0.037
-652.843	15.520	0.154	0.123
-651.828	-111.304	-0.310	0.065
-650.814	-91.001	0.239	0.070
-649.799	69.918	0.090	-0.095
-648.784	800.000	-0.068	0.199
-647.770	167.115	0.226	0.327
-646.755	-54.021	0.132	0.061
-645.741	-200.000	0.018	-0.325
-644.726	-105.675	-0.200	-0.046
-643.711	-11.938	-0.342	0.228
-642.697	46.865	0.111	0.105
-641.682	-44.610	-0.428	0.218
-640.668	234.647	0.151	0.255
-639.653	-124.346	-0.155	0.025
-638.638	66.180	-0.135	-0.140
-637.624	-200.000	0.046	-0.255
-636.609	-33.938	-0.187	-0.105
-635.595	7.455	0.076	-0.058
-634.580	265.000	-0.033	0.059
-633.565	-95.500	-0.261	-0.072
-632.551	-11.993	0.173	-0.115
-631.536	-80.756	-0.024	0.008
-630.522	-88.707	-0.115	-0.035
-629.507	543.917	0.139	-0.339
-628.492	-34.382	0.223	-0.125
-627.478	800.000	0.068	0.287
-626.463	-200.000	0.022	0.171
-625.449	52.597	0.124	-0.120
-624.434	71.781	-0.387	-0.410
-623.419	295.132	-0.025	-0.047
-622.405	-42.097	0.331	-0.173
-621.390	30.195	0.244	-0.212
-620.376	-92.854	0.254	0.072
-619.361	-47.029	-0.312	-0.155
-618.346	175.652	-0.112	-0.166
-617.332	24.614	-0.109	0.092
-616.317	46.910	0.207	0.196
-615.303	9.183	0.078	-0.060
-614.288	322.143	-0.090	-0.174
-613.273	-193.721	0.236	0.002
-612.259	-130.539	-0.175	0.024
-611.244	-66.907	-0.125	-0.050
-610.230	-30.598	0.256	0.148
-609.215	51.715	-0.120	-0.116
-608.201	-26.612	0.334	-0.199
-607.186	58.496	0.047	-0.047
-606.171	-69.215	-0.270	-0.106
-605.157	-44.428	-0.054	-0.027
-604.142	155.503	0.269	-0.378
-603.128	-200.000	0.029	0.423
-602.113	11.572	0.112	-0.087
-601.098	800.000	-0.098	-0.312
-600.084	800.000	0.004	-0.012
-599.069	-50.394	0.197	-0.094
-598.055	-49.143	-0.086	-0.042
-597.040	112.125	-0.054	-0.066
-596.025	-140.452	-0.411	-0.044
-595.011	800.000	-0.086	0.285
-593.996	-146.874	-0.074	-0.006
-592.982	-200.000	0.016	0.156
-591.967	800.000	-0.052	-0.161
-590.952	-38.764	0.336	-0.181
-589.938	800.000	0.024	-0.074
-588.923	47.039	-0.226	-0.214
-587.909	19.523	-0.217	-0.178
-586.894	-69.086	-0.151	0.059
-585.879	-200.000	0.047	0.227
-584.865	-29.812	0.180	0.105
-583.850	800.000	0.038	-0.131
-582.836	-186.772	-0.263	-0.004
-581.821	800.000	-0.115	-0.354
-580.806	-54.256	0.461	-0.213
-579.792	127.164	0.116	0.150
-578.777	86.858	-0.139	-0.156
-577.763	-200.000	0.018	-0.174
-576.748	101.022	0.200	0.237
-575.733	-200.000	0.015	-0.166
-574.719	43.068	0.300	-0.279
-573.704	-200.000	0.040	0.211
-572.690	800.000	0.147	0.442
-571.675	-157.570	-0.069	0.004
-570.661	-92.307	-0.141	-0.041
-569.646	152.099	-0.125	0.173
-568.631	-45.791	-0.156	-0.078
-567.617	-200.000	-0.002	-0.032
-566.602	71.308	-0.154	0.163
-565.588	74.437	-0.226	0.241
-564.573	800.000	-0.123	-0.387
-563.558	-124.211	0.201	-0.032
-562.544	-200.000	0.041	-0.261
-561.529	247.867	0.108	0.185
-560.515	107.736	-0.058	0.070
-559.500	-138.049	0.117	0.013
-558.485	62.706	-0.287	-0.292
-557.471	545.892	0.051	0.125
-556.456	-74.400	-0.388	-0.142
-555.442	-77.188	0.189	-0.067
-554.427	446.465	0.115	0.257
-553.412	-13.548	-0.068	-0.045
-552.398	182.960	0.099	-0.149
-551.383	619.840	-0.114	0.292
-550.369	-190.887	-0.232	0.002
-549.354	163.944	-0.212	0.304
-548.339	136.137	-0.088	0.116
-547.325	-145.536	-0.165	-0.015
-546.310	-37.297	-0.040	-0.022
-545.296	314.299	-0.112	-0.214
-544.281	800.000	0.059	0.177
-543.266	800.000	0.024	0.101
-542.252	-39.231	0.117	0.063
-541.237	-97.463	-0.146	0.038
-540.223	47.718	-0.189	-0.179
-539.208	359.251	-0.038	0.076
-538.193	242.187	-0.123	-0.208
-537.179	242.323	-0.048	0.082
-536.164	-75.316	-0.283	0.103
-535.150	-21.529	-0.232	-0.143
-534.135	127.971	0.093	-0.120
-533.121	-4.864	-0.280	0.196
-532.106	-200.000	-0.047	0.467
-531.091	-200.000	0.082	-0.368
-530.077	42.432	0.143	-0.132
-529.062	2.878	-0.255	-0.188
-528.048	-136.486	-0.507	0.060
-527.033	800.000	-0.027	-0.082
-526.018	74.376	0.123	0.131
-525.004	-200.000	-0.004	0.140
-523.989	-67.036	0.111	0.044
-522.975	44.183	0.180	-0.167
-521.960	-177.361	0.490	0.012
-520.945	-0.824	-0.136	-0.098
-519.931	800.000	0.052	0.152
-518.916	131.948	0.112	0.146
-517.902	132.418	-0.232	0.303
-516.887	64.896	0.043	0.044
-515.872	-200.000	-0.057	-0.336
-514.858	1.376	-0.146	0.107
-513.843	111.589	-0.093	0.114
-512.829	101.752	0.153	0.181
-511.814	7.361	-0.146	-0.111
-510.799	-171.459	-0.512	-0.017
-509.785	-31.424	0.233	0.133
-508.770	-146.063	-0.297	0.027
-507.756	55.150	-0.085	-0.084
-506.741	-170.482	-0.141	-0.005
-505.726	257.996	0.157	0.274
-504.712	207.647	0.159	-0.252
-503.697	-145.233	0.297	0.027
-502.683	-50.252	0.217	0.104
-501.668	-200.000	-0.022	0.130
-500.653	174.410	0.046	0.068
-499.639	800.000	-0.009	0.031
-498.624	28.729	0.065	-0.055
-497.610	145.010	0.076	-0.103
-496.595	109.613	-0.227	-0.275
-495.581	-59.842	-0.057	-0.025
-494.566	613.931	0.116	0.295
-493.551	283.442	0.122	0.223
-492.537	476.688	-0.140	0.321
-491.522	800.000	0.071	-0.286
-490.508	-100.604	0.092	0.023
-489.493	513.694	-0.099	0.234
-488.478	58.150	0.152	0.151
-487.464	118.734	-0.198	-0.247
-486.449	-65.667	-0.037	0.015
-485.435	-200.000	-0.015	0.448
-484.420	-200.000	-0.045	-0.277
-483.405	800.000	-0.050	-0.151
-482.391	148.821	-0.104	0.142
-481.376	-86.201	0.197	-0.062
-480.362	20.457	0.220	-0.180
-479.347	-58.297	0.104	-0.046
-478.332	-111.271	-0.221	0.046
-477.318	138.611	-0.170	-0.227
-476.303	800.000	0.017	0.059
-475.289	758.946	0.015	0.041
-474.274	-110.172	-0.138	-0.029
-473.259	3.699	-0.124	-0.091
-472.245	-57.104	-0.137	0.061
-471.230	-200.000	-0.000	-0.084
-470.216	295.336	-0.152	0.281
-469.201	411.714	0.179	-0.384
-468.186	704.847	-0.047	-0.125
-467.172	-46.171	0.102	0.051
-466.157	-136.657	0.229	-0.027
-465.143	-167.417	-0.342	0.014
-464.128	354.616	0.003	-0.006
-463.113	33.805	0.167	-0.147
-462.099	-1.335	0.064	-0.046
-461.084	800.000	0.079	-0.235
-460.070	-116.964	0.421	-0.078
-459.055	168.127	-0.121	0.174
-458.040	465.169	0.072	-0.164
-457.026	-148.844	-0.439	0.036
-456.011	452.362	0.026	-0.059
-454.997	-8.347	-0.379	-0.258
-453.982	301.006	-0.079	-0.148
-452.968	239.238	0.085	0.144
-451.953	-158.441	0.157	0.009
-450.938	-1.524	-0.261	0.186
-449.924	-200.000	-0.068	0.370
-448.909	800.000	-0.082	0.301
-447.895	-85.292	0.205	-0.065
-446.880	800.000	-0.054	0.221
-445.865	-46.163	0.027	0.013
-444.851	-200.000	0.060	0.278
-443.836	100.651	0.024	-0.028
-442.822	640.772	0.109	-0.282
-441.807	109.490	-0.091	-0.110
-440.792	162.544	-0.049	0.069
-439.778	-12.781	0.095	-0.062
-438.763	-36.178	0.365	0.199
-437.749	-200.000	-0.040	-0.214
-436.734	800.000	-0.067	0.189
-435.719	-145.798	0.316	-0.028
-434.705	-41.019	0.092	0.048
-433.690	180.976	0.219	0.325
-432.676	-51.145	-0.123	-0.058
-431.661	-79.027	0.059	0.020
-430.646	-200.000	-0.014	-0.118
-429.632	-165.456	0.304	-0.013
-428.617	95.190	-0.136	-0.157
-427.603	-52.950	-0.285	0.133
-426.588	250.357	-0.151	0.260
-425.573	229.119	0.102	0.169
-424.559	301.263	0.025	0.046
-423.544	800.000	0.118	0.356
-422.530	-200.000	0.048	-0.265
-421.515	275.928	-0.179	-0.322
-420.500	163.255	0.097	0.138
-419.486	88.546	-0.076	0.086
-418.471	-88.069	0.314	0.095
-417.457	-92.878	0.291	-0.082
-416.442	2.268	-0.111	-0.081
-415.428	-200.000	-0.024	-0.130
-414.413	-46.564	-0.427	0.211
-413.398	22.784	0.173	0.143
-412.384	-34.001	-0.304	-0.169
-411.369	-47.238	-0.265	-0.131
-410.355	-12.077	-0.125	-0.083
-409.340	14.383	0.196	-0.154
-408.325	-63.507	-0.077	-0.032
-407.311	9.719	0.044	-0.034
-406.296	53.995	0.128	0.124
-405.282	20.401	-0.157	-0.128
-404.267	363.093	-0.079	0.160
-403.252	40.260	-0.215	-0.195
-402.238	-200.000	-0.010	-0.165
-401.223	17.978	0.234	0.188
-400.209	437.287	-0.077	-0.169
-399.194	800.000	0.025	-0.089
-398.179	52.409	0.069	0.066
-397.165	-20.227	0.393	0.244
-396.150	800.000	-0.068	0.196
-395.136	-104.044	0.237	-0.056
-394.121	-46.554	0.424	-0.210
-393.106	28.008	-0.049	0.042
-392.092	73.943	0.270	-0.286
-391.077	-22.307	-0.050	-0.031
-390.063	326.576	0.115	0.223
-389.048	64.384	-0.216	-0.220
-388.033	36.601	-0.165	0.147
-387.019	126.742	0.054	-0.070
-386.004	-38.245	-0.104	0.055
-384.990	-200.000	-0.056	0.290
-383.975	-200.000	0.001	0.301
-382.960	750.706	0.146	0.398
-381.946	92.329	-0.093	0.106
-380.931	-200.000	0.016	-0.180
-379.917	5.093	-0.053	-0.039
-378.902	-111.969	-0.234	-0.048
-377.888	-76.204	0.239	-0.085
-376.873	-143.650	0.342	0.033
-375.858	92.341	0.154	0.176
-374.844	-200.000	-0.012	-0.123
-373.829	-82.132	0.314	-0.103
-372.815	-200.000	-0.004	0.271
-371.800	714.227	-0.070	-0.188
-370.785	76.866	-0.045	0.048
-369.771	-200.000	-0.001	0.178
-368.756	270.215	0.054	-0.095
-367.742	-173.077	0.336	-0.010
-366.727	446.932	-0.104	0.231
-365.712	38.135	-0.350	0.315
-364.698	-61.501	-0.180	-0.076
-363.683	800.000	-0.029	-0.086
-362.669	-18.917	0.144	-0.090
-361.654	-85.256	0.271	0.086
-360.639	800.000	-0.052	-0.194
-359.625	-28.154	0.194	0.113
-358.610	800.000	-0.035	-0.134
-357.596	-73.509	0.350	0.129
-356.581	800.000	-0.051	-0.188
-355.566	-158.752	-0.161	0.009
-354.552	197.641	0.076	-0.116
-353.537	-200.000	0.014	-0.108
-352.523	-200.000	0.039	-0.176
-351.508	377.348	0.107	-0.220
-350.493	-92.822	0.447	0.126
-349.479	-49.986	-0.118	-0.057
-348.464	122.296	-0.052	0.066
-347.450	-48.105	-0.114	-0.055
-346.435	-97.726	-0.106	0.028
-345.420	-16.127	-0.133	0.085
-344.406	-200.000	0.059	0.379
-343.391	708.714	-0.023	0.061
-342.377	-75.688	0.153	-0.055
-341.362	22.091	0.149	0.123
-340.348	800.000	0.094	0.401
-339.333	-73.953	-0.182	-0.067
-338.318	-200.000	-0.057	0.385
-337.304	-200.000	-0.002	0.350
-336.289	424.314	0.053	0.115
-335.275	800.000	0.057	-0.184
-334.260	-150.352	-0.396	0.031
-333.245	47.890	0.266	0.250
-332.231	-180.308	-0.371	-0.008
-331.216	-200.000	0.003	0.095
-330.202	800.000	0.080	0.276
-329.187	-118.994	-0.102	0.018
-328.172	800.000	-0.060	-0.210
-327.158	30.389	-0.273	-0.235
-326.143	606.615	-0.046	0.116
-325.129	-9.180	-0.131	0.088
-324.114	-200.000	0.036	0.166
-323.099	-124.039	-0.065	0.010
-322.085	-176.592	-0.025	0.001
-321.070	245.406	0.088	0.149
-320.056	-103.481	-0.276	0.065
-319.041	688.067	0.029	-0.077
-318.026	-39.301	0.170	0.090
-317.012	50.044	-0.247	0.234
-315.997	-170.845	-0.212	0.007
-314.983	-52.140	-0.179	0.083
-313.968	-121.826	0.159	0.026
-312.953	-82.686	-0.045	-0.015
-311.939	800.000	0.079	-0.239
-310.924	-28.685	0.105	0.061
-309.910	63.418	0.154	0.155
-308.895	-168.102	-0.228	-0.009
-307.880	-200.000	-0.009	0.152
-306.866	280.116	-0.290	0.522
-305.851	34.140	-0.083	0.073
-304.837	27.738	-0.078	0.066
-303.822	153.785	-0.044	0.061
-302.807	152.700	0.102	-0.140
-301.793	210.750	0.100	0.159
-300.778	497.025	-0.138	0.319
-299.764	-200.000	-0.119	-0.528
-298.749	323.276	-0.216	-0.415
-297.735	-200.000	-0.031	0.328
-296.720	-177.934	0.211	-0.005
-295.705	-82.718	0.173	0.056
-294.691	245.004	-0.026	-0.044
-293.676	-136.877	0.193	-0.022
-292.662	-200.000	0.060	-0.309
-291.647	166.727	-0.207	-0.295
-290.632	-200.000	0.029	-0.177
-289.618	800.000	0.118	0.331
-288.603	-56.857	0.083	0.037
-287.589	98.827	0.033	0.039
-286.574	-79.402	0.141	0.048
-285.559	-200.000	-0.049	0.338
-284.545	-103.563	-0.329	-0.078
-283.530	21.354	0.226	0.185
-282.516	141.395	-0.215	-0.286
-281.501	-200.000	-0.021	0.126
-280.486	-131.772	0.399	-0.053
-279.472	125.783	0.076	0.097
-278.457	-79.516	0.477	0.162
-277.443	-119.386	-0.214	0.037
-276.428	-56.012	-0.228	0.102
-275.413	-138.965	-0.069	-0.008
-274.399	44.317	0.090	0.083
-273.384	-70.416	0.174	-0.066
-272.370	53.984	0.220	-0.213
-271.355	168.308	-0.281	-0.402
-270.340	-49.594	-0.079	-0.038
-269.326	800.000	-0.043	0.150
-268.311	-200.000	-0.050	-0.271
-267.297	310.614	0.069	0.130
-266.282	486.695	0.090	0.206
-265.267	800.000	0.060	-0.184
-264.253	227.684	-0.021	0.034
-263.238	84.218	0.196	-0.215
-262.224	337.691	0.069	-0.136
-261.209	251.125	-0.157	0.269
-260.195	-88.425	0.216	0.065
-259.180	800.000	-0.135	0.406
-258.165	152.021	0.086	-0.118
-257.151	800.000	-0.060	-0.204
-256.136	-110.818	0.244	-0.051
-255.122	128.488	0.070	-0.090
-254.107	-78.428	-0.402	-0.138
-253.092	179.431	-0.077	-0.113
-252.078	540.591	0.111	0.266
-251.063	-71.573	-0.239	0.090
-250.049	800.000	0.062	-0.194
-249.034	-169.501	0.104	-0.004
-248.019	-37.104	0.207	-0.111
-247.005	59.201	0.245	0.242
-245.990	245.441	0.021	0.036
-244.976	-152.726	0.266	0.019
-243.961	6.075	-0.195	-0.145
-242.946	-40.552	-0.147	-0.077
-241.932	223.653	-0.015	-0.024
-240.917	-131.061	-0.117	-0.016
-239.903	186.328	-0.037	-0.055
-238.888	-127.772	-0.152	0.022
-237.873	-100.303	-0.333	0.083
-236.859	-71.163	0.103	-0.039
-235.844	-58.186	0.204	-0.089
-234.830	256.918	-0.164	0.283
-233.815	-164.822	-0.389	-0.018
-232.800	276.123	-0.090	0.160
-231.786	-200.000	0.069	0.349
-230.771	-18.452	0.125	0.079
-229.757	84.281	0.159	-0.174
-228.742	-39.362	0.119	0.063
-227.727	696.603	0.179	-0.472
-226.713	42.100	0.056	-0.051
-225.698	-164.754	0.130	0.006
-224.684	-12.013	-0.097	-0.064
-223.669	-200.000	-0.005	-0.187
-222.655	-200.000	-0.017	-0.116
-221.640	-80.133	0.191	0.064
-220.625	33.018	-0.198	-0.172
-219.611	364.438	0.166	-0.336
-218.596	-94.698	0.176	0.048
-217.582	150.227	-0.114	0.155
-216.567	-49.316	-0.169	-0.081
-215.552	579.678	0.084	0.205
-214.538	517.433	-0.151	-0.353
-213.523	-93.162	0.272	-0.076
-212.509	-98.146	-0.151	-0.039
-211.494	24.322	-0.127	-0.105
-210.479	138.803	0.261	-0.343
-209.465	-63.041	-0.149	0.061
-208.450	166.922	-0.174	0.247
-207.436	-200.000	0.017	-0.226
-206.421	800.000	-0.174	-0.529
-205.406	-200.000	-0.026	0.511
-204.392	-93.881	-0.233	0.064
-203.377	-16.269	-0.057	0.036
-202.363	-200.000	0.058	0.307
-201.348	-167.676	0.372	0.015
-200.333	-83.429	-0.275	-0.088
-199.319	-66.882	0.430	0.170
-198.304	202.192	-0.177	-0.274
-197.290	418.352	-0.015	-0.032
-196.275	-200.000	-0.017	0.164
-195.260	238.469	0.060	-0.101
-194.246	331.432	0.056	-0.109
-193.231	-131.951	0.086	0.011
-192.217	139.752	-0.214	-0.283
-191.202	-200.000	-0.060	-0.428
-190.187	-122.619	0.503	-0.082
-189.173	59.825	0.037	0.037
-188.158	-59.289	0.176	0.076
-187.144	-45.505	-0.201	0.100
-186.129	-117.367	0.501	-0.091
-185.114	-162.989	-0.091	0.004
-184.100	-94.641	0.154	0.042
-183.085	150.123	0.117	0.158
-182.071	-56.736	0.289	0.128
-181.056	247.765	0.062	-0.104
-180.042	743.580	-0.045	0.123
-179.027	-38.473	0.238	-0.126
-178.012	-10.330	-0.126	-0.084
-176.998	800.000	0.033	0.132
-175.983	-52.599	0.211	0.097
-174.969	68.111	-0.227	0.233
-173.954	-153.652	0.045	-0.003
-172.939	39.985	0.154	-0.138
-171.925	-44.389	0.192	0.096
-170.910	800.000	-0.034	-0.124
-169.896	-17.688	-0.072	-0.045
-168.881	-87.179	-0.096	0.029
-167.866	-95.097	-0.132	-0.036
-166.852	2.484	0.165	0.120
-165.837	56.836	0.106	0.103
-164.823	304.436	-0.146	-0.272
-163.808	800.000	-0.070	-0.233
-162.793	24.306	0.010	-0.009
-161.779	360.176	-0.154	-0.308
-160.764	-39.373	-0.196	0.103
-159.750	386.491	-0.028	0.059
-158.735	157.530	0.231	0.319
-157.720	-200.000	0.003	-0.278
-156.706	-11.631	0.209	-0.137
-155.691	681.381	-0.117	-0.305
-154.677	-200.000	-0.024	-0.108
-153.662	704.215	-0.013	0.034
-152.647	-19.985	0.140	0.087
-151.633	480.230	-0.040	-0.090
-150.618	-80.570	-0.157	0.052
-149.604	84.192	0.168	-0.184
-148.589	-57.132	0.190	-0.084
-147.574	-200.000	-0.001	0.021
-146.560	-175.490	0.366	-0.010
-145.545	-78.938	0.109	0.037
-144.531	-199.343	-0.161	0.001
-143.516	-30.715	0.268	-0.152
-142.502	414.322	0.042	0.090
-141.487	165.916	-0.141	-0.200
-140.472	627.538	0.120	0.303
-139.458	18.679	0.288	-0.231
-138.443	-100.551	0.059	0.015
-137.429	-86.666	0.193	0.059
-136.414	-118.290	0.067	-0.012
-135.399	72.264	0.063	-0.065
-134.385	438.821	0.086	-0.187
-133.370	800.000	-0.028	0.116
-132.356	-3.757	0.245	-0.170
-131.341	41.679	0.089	0.081
-130.326	24.170	-0.256	0.211
-129.312	800.000	-0.040	-0.150
-128.297	-145.314	-0.248	0.022
-127.283	-200.000	-0.006	-0.113
-126.268	-76.419	-0.102	0.036
-125.253	-50.455	-0.137	-0.065
-124.239	141.462	0.314	0.415
-123.224	-10.751	-0.453	-0.299
-122.210	-117.672	-0.184	-0.033
-121.195	24.906	0.042	0.035
