DTS Sentinel unit serial number:	SN413079Multiplexer serial number:	ORYXHardware model number:	OX4-SRSoftware version number:	ORYX F/W v4.00 Oryx Data Collector v3.7.2.0data status	okinstallation	princeton_trtdifferential loss correction	single-endedforward channel	channel 2reverse channel	N/Adate	2019/09/19time	05:27:35forward acquisition time	60.00reverse acquisition time	0.00gamma	496.2192k internal	0.2351k external	0.2351temperature offset calibration	1.0014default loss term (dB/km)	0.3790temperature slope calibration	1.0000multiplexer offset coefficient	1.0000multiplexer slope coefficient	1.0000fibre end	0.00T internal ref (°C)	19.37T ext. ref 1 (°C)	0.58T ext. ref 2 (°C)	13.06length (m)	temperature (°C)	Stokes	anti-Stokes-747.200	13.496	-0.102	0.079
-746.185	-4.923	-0.128	-0.088
-745.171	-200.000	0.011	-0.136
-744.156	-1.683	-0.130	-0.091
-743.142	-70.284	0.208	0.079
-742.127	-143.860	0.138	-0.013
-741.112	201.433	-0.170	-0.262
-740.098	-103.000	-0.166	-0.039
-739.083	267.257	0.122	-0.214
-738.069	313.356	-0.160	0.300
-737.054	-66.383	-0.345	0.137
-736.039	-38.216	-0.144	-0.076
-735.025	-200.000	-0.017	0.177
-734.010	-129.060	-0.193	0.027
-732.996	110.266	0.096	-0.114
-731.981	-200.000	0.019	-0.092
-730.966	-2.781	0.168	-0.117
-729.952	-64.175	-0.202	-0.082
-728.937	-77.255	-0.138	-0.048
-727.923	-75.945	-0.294	0.104
-726.908	-105.224	-0.179	0.041
-725.894	373.783	0.101	-0.205
-724.879	-170.939	-0.344	-0.012
-723.864	194.700	0.048	0.073
-722.850	-200.000	-0.020	0.105
-721.835	-200.000	0.041	0.295
-720.821	-189.815	-0.195	-0.002
-719.806	-54.737	-0.342	-0.154
-718.791	-200.000	-0.019	-0.291
-717.777	800.000	-0.089	-0.357
-716.762	-23.735	0.178	-0.106
-715.748	672.983	0.092	0.238
-714.733	-43.812	0.032	0.016
-713.718	43.935	-0.160	0.146
-712.704	27.204	0.092	0.077
-711.689	73.310	0.097	0.101
-710.675	-104.325	-0.391	0.090
-709.660	104.629	0.144	-0.170
-708.645	-200.000	-0.040	-0.181
-707.631	295.191	-0.095	0.173
-706.616	230.068	0.081	0.131
-705.602	519.555	-0.115	0.267
-704.587	-38.095	-0.024	-0.013
-703.572	248.896	-0.079	0.133
-702.558	-200.000	-0.024	0.190
-701.543	-150.075	0.359	0.028
-700.529	-40.271	-0.402	-0.208
-699.514	444.101	-0.086	-0.188
-698.499	-49.593	0.293	-0.139
-697.485	800.000	0.032	-0.092
-696.470	4.031	-0.064	0.047
-695.456	800.000	-0.036	0.109
-694.441	145.862	-0.063	-0.084
-693.426	-62.229	0.092	-0.038
-692.412	-49.624	-0.095	0.045
-691.397	28.949	-0.169	-0.142
-690.383	-47.584	-0.312	0.151
-689.368	-6.929	0.096	-0.065
-688.354	-78.039	-0.093	-0.032
-687.339	33.386	-0.084	0.072
-686.324	43.119	-0.118	-0.107
-685.310	62.592	-0.128	0.128
-684.295	38.157	-0.078	-0.069
-683.281	22.058	-0.144	-0.117
-682.266	-62.635	0.124	-0.051
-681.251	-158.631	-0.165	-0.009
-680.237	-200.000	0.007	0.336
-679.222	-200.000	0.056	0.308
-678.208	261.738	0.044	0.075
-677.193	329.593	-0.081	0.156
-676.178	663.966	-0.102	0.262
-675.164	40.516	-0.248	0.223
-674.149	800.000	-0.036	0.155
-673.135	-4.511	-0.310	-0.213
-672.120	-200.000	0.021	-0.283
-671.105	800.000	0.054	-0.183
-670.091	800.000	0.060	0.211
-669.076	-86.764	-0.326	0.099
-668.062	498.604	0.038	-0.086
-667.047	-200.000	-0.363	0.000
-666.032	-200.000	0.033	-0.255
-665.018	-40.663	-0.132	0.068
-664.003	-6.446	-0.109	0.074
-662.989	84.043	0.165	0.179
-661.974	701.260	0.072	0.189
-660.959	-82.456	0.395	0.128
-659.945	-72.698	0.377	-0.138
-658.930	800.000	-0.036	0.108
-657.916	-200.000	-0.049	0.223
-656.901	-79.815	0.321	0.107
-655.886	111.970	0.017	-0.020
-654.872	-72.515	-0.261	0.096
-653.857	787.166	-0.027	0.074
-652.843	17.952	0.308	0.244
-651.828	115.445	0.257	0.312
-650.814	258.983	-0.303	0.519
-649.799	12.006	0.080	-0.061
-648.784	-167.750	-0.096	0.004
-647.770	-200.000	0.034	-0.273
-646.755	-174.556	-0.244	-0.007
-645.741	355.916	-0.107	0.211
-644.726	130.043	0.045	0.058
-643.711	64.416	-0.164	0.164
-642.697	-36.032	-0.145	-0.078
-641.682	32.287	0.130	-0.112
-640.668	-200.000	0.000	0.124
-639.653	-82.151	-0.071	0.023
-638.638	-200.000	0.006	0.207
-637.624	-111.304	0.141	-0.029
-636.609	-81.552	-0.428	-0.140
-635.595	775.267	0.166	0.450
-634.580	-93.942	-0.202	0.055
-633.565	-200.000	-0.039	-0.318
-632.551	-200.000	-0.028	-0.296
-631.536	-96.169	0.152	0.040
-630.522	207.430	-0.139	-0.215
-629.507	-118.978	0.278	0.048
-628.492	29.564	-0.072	0.061
-627.478	-147.117	0.360	-0.031
-626.463	-125.232	-0.387	-0.059
-625.449	-200.000	0.041	0.213
-624.434	-200.000	0.029	0.148
-623.419	152.751	-0.123	-0.167
-622.405	184.107	0.139	-0.204
-621.390	-172.305	0.056	-0.002
-620.376	484.278	0.063	-0.142
-619.361	-62.474	0.185	-0.076
-618.346	-107.932	-0.441	0.095
-617.332	99.369	-0.215	0.247
-616.317	139.458	-0.209	0.273
-615.303	-78.660	-0.077	-0.026
-614.288	-200.000	-0.022	-0.185
-613.273	-32.621	0.120	-0.066
-612.259	178.536	0.099	-0.144
-611.244	-125.515	0.220	-0.033
-610.230	315.653	0.118	0.222
-609.215	6.560	-0.065	0.048
-608.201	392.003	0.106	-0.219
-607.186	147.684	0.159	0.212
-606.171	-108.843	-0.413	0.088
-605.157	172.624	0.177	-0.254
-604.142	-200.000	-0.008	-0.216
-603.128	0.535	-0.109	0.077
-602.113	-24.270	0.414	-0.245
-601.098	-12.068	0.173	0.113
-600.084	-17.390	0.224	-0.140
-599.069	800.000	-0.064	-0.187
-598.055	-200.000	0.013	-0.373
-597.040	-32.673	0.109	-0.060
-596.025	549.329	0.064	0.153
-595.011	-200.000	-0.040	-0.273
-593.996	188.752	0.158	0.235
-592.982	-163.510	-0.312	-0.015
-591.967	326.366	-0.073	-0.139
-590.952	129.514	0.226	-0.287
-589.938	800.000	0.059	-0.210
-588.923	-23.574	0.182	-0.108
-587.909	342.372	-0.135	0.262
-586.894	-200.000	-0.043	0.226
-585.879	213.065	-0.068	-0.107
-584.865	7.796	0.167	-0.124
-583.850	57.291	0.061	0.059
-582.836	166.085	-0.140	-0.196
-581.821	-21.395	-0.072	0.044
-580.806	-200.000	0.044	0.369
-579.792	73.457	-0.163	0.169
-578.777	-126.221	-0.255	-0.038
-577.763	-68.765	0.281	0.108
-576.748	-75.239	0.087	-0.031
-575.733	800.000	0.039	-0.160
-574.719	360.929	-0.042	0.084
-573.704	523.516	-0.082	-0.191
-572.690	-16.624	0.088	0.055
-571.675	134.101	0.096	0.123
-570.661	162.782	-0.032	0.044
-569.646	800.000	-0.044	0.157
-568.631	-127.768	-0.211	-0.030
-567.617	243.526	0.099	0.164
-566.602	800.000	0.085	0.269
-565.588	123.876	-0.026	-0.032
-564.573	-200.000	0.018	-0.284
-563.558	110.315	-0.153	-0.182
-562.544	-200.000	0.051	0.233
-561.529	477.592	0.110	0.247
-560.515	-51.774	-0.251	0.116
-559.500	139.163	-0.054	0.071
-558.485	24.323	-0.100	-0.082
-557.471	-42.446	0.244	-0.123
-556.456	-200.000	-0.053	-0.275
-555.442	-108.395	0.222	-0.047
-554.427	-200.000	0.006	-0.057
-553.412	8.069	0.067	0.050
-552.398	21.740	-0.105	0.084
-551.383	-29.477	-0.295	0.167
-550.369	391.670	-0.137	-0.282
-549.354	-200.000	-0.005	0.146
-548.339	-84.976	-0.283	0.088
-547.325	800.000	-0.089	-0.268
-546.310	-200.000	0.019	-0.266
-545.296	-200.000	-0.025	-0.189
-544.281	45.867	-0.294	-0.269
-543.266	256.539	0.153	-0.259
-542.252	800.000	0.045	0.182
-541.237	-29.680	-0.206	-0.117
-540.223	227.935	-0.220	-0.355
-539.208	-93.051	0.024	-0.006
-538.193	153.608	0.109	-0.148
-537.179	800.000	0.115	-0.350
-536.164	-6.340	-0.128	0.086
-535.150	-40.890	0.204	0.105
-534.135	34.105	0.061	-0.053
-533.121	800.000	-0.045	0.150
-532.106	-138.956	-0.547	0.059
-531.091	168.736	-0.066	-0.093
-530.077	-131.291	0.061	0.008
-529.062	-44.677	-0.204	-0.101
-528.048	164.262	-0.091	0.127
-527.033	282.259	-0.041	-0.073
-526.018	-25.193	0.311	0.182
-525.004	16.727	-0.316	-0.247
-523.989	122.661	0.251	0.310
-522.975	-81.598	0.260	0.084
-521.960	-81.980	-0.298	0.096
-520.945	-77.001	0.051	0.018
-519.931	-150.803	0.105	-0.008
-518.916	104.012	0.176	0.204
-517.902	-200.000	0.017	-0.096
-516.887	-95.617	-0.134	0.036
-515.872	-105.712	0.130	-0.029
-514.858	31.168	-0.151	0.128
-513.843	-129.053	0.150	-0.021
-512.829	-200.000	0.004	0.143
-511.814	-68.438	0.063	-0.024
-510.799	-200.000	0.033	0.161
-509.785	-200.000	0.092	-0.429
-508.770	641.820	0.021	0.054
-507.756	392.490	0.089	0.182
-506.741	-34.233	0.080	0.043
-505.726	84.252	-0.191	0.206
-504.712	95.296	0.067	-0.076
-503.697	-200.000	-0.023	0.195
-502.683	-69.887	-0.036	-0.013
-501.668	-92.516	-0.354	-0.098
-500.653	-150.545	-0.052	0.004
-499.639	-102.592	0.125	0.030
-498.624	40.276	-0.134	0.119
-497.610	92.203	-0.066	-0.073
-496.595	-200.000	0.058	-0.274
-495.581	-200.000	-0.045	-0.225
-494.566	-200.000	-0.088	-0.390
-493.551	-10.704	0.301	-0.197
-492.537	-200.000	0.005	0.320
-491.522	-125.492	0.262	-0.039
-490.508	-200.000	0.062	-0.273
-489.493	-55.313	0.199	0.089
-488.478	-38.997	0.160	0.083
-487.464	-112.594	-0.048	-0.009
-486.449	282.918	0.057	0.102
-485.435	-48.229	-0.433	0.207
-484.420	158.151	0.172	-0.235
-483.405	96.647	0.135	-0.153
-482.391	410.714	0.064	-0.134
-481.376	-200.000	-0.009	-0.240
-480.362	140.518	-0.039	0.051
-479.347	386.830	0.111	0.227
-478.332	95.180	-0.111	-0.125
-477.318	-27.236	-0.089	-0.051
-476.303	-79.992	0.225	-0.074
-475.289	225.278	0.025	0.041
-474.274	-100.978	-0.640	-0.155
-473.259	-58.353	0.305	0.131
-472.245	20.651	-0.223	0.178
-471.230	8.305	0.143	-0.106
-470.216	-136.383	-0.157	0.018
-469.201	611.092	-0.053	-0.131
-468.186	303.463	-0.267	-0.488
-467.172	145.311	-0.052	-0.069
-466.157	800.000	-0.053	0.168
-465.143	40.236	0.269	0.239
-464.128	-102.121	-0.233	-0.055
-463.113	302.204	0.134	0.245
-462.099	800.000	-0.079	0.286
-461.084	-94.528	-0.290	0.078
-460.070	55.317	0.068	-0.065
-459.055	-200.000	-0.042	-0.385
-458.040	-118.836	-0.377	0.065
-457.026	263.429	0.108	-0.186
-456.011	79.641	-0.020	-0.022
-454.997	237.303	0.034	-0.056
-453.982	460.276	-0.150	0.329
-452.968	-200.000	-0.033	0.196
-451.953	-200.000	-0.018	0.294
-450.938	-11.500	0.256	0.166
-449.924	-52.627	-0.240	-0.110
-448.909	412.316	0.115	-0.241
-447.895	-200.000	0.043	0.241
-446.880	437.802	-0.104	-0.224
-445.865	-96.733	-0.416	-0.108
-444.851	800.000	-0.153	0.645
-443.836	375.473	-0.159	-0.319
-442.822	-44.226	-0.524	0.259
-441.807	-200.000	0.041	0.181
-440.792	-33.322	-0.343	-0.187
-439.778	99.963	-0.143	0.164
-438.763	-200.000	0.009	-0.310
-437.749	-200.000	-0.019	0.099
-436.734	-63.041	-0.113	0.046
-435.719	-78.659	-0.247	-0.083
-434.705	5.778	0.207	0.151
-433.690	-6.289	0.338	0.228
-432.676	108.074	0.073	0.086
-431.661	29.373	-0.293	0.245
-430.646	-200.000	0.025	-0.226
-429.632	-149.891	-0.040	-0.003
-428.617	-200.000	-0.012	-0.316
-427.603	-200.000	0.029	-0.273
-426.588	446.696	-0.066	-0.144
-425.573	28.788	-0.136	0.113
-424.559	211.663	-0.020	0.030
-423.544	-146.253	0.320	-0.028
-422.530	-55.980	0.222	-0.097
-421.515	-69.930	-0.394	-0.148
-420.500	2.593	-0.065	0.046
-419.486	-200.000	-0.009	0.373
-418.471	515.031	0.109	0.250
-417.457	65.083	0.221	-0.220
-416.442	-133.480	0.362	-0.045
-415.428	575.530	0.028	-0.068
-414.413	165.258	0.114	-0.159
-413.398	-88.829	-0.124	-0.036
-412.384	-143.814	0.207	-0.019
-411.369	-65.204	0.091	-0.036
-410.355	-200.000	0.020	0.325
-409.340	-38.714	0.076	0.039
-408.325	800.000	-0.042	0.159
-407.311	174.114	0.192	-0.274
-406.296	77.627	-0.093	0.098
-405.282	800.000	0.127	0.390
-404.267	-200.000	0.036	0.242
-403.252	103.841	-0.152	0.176
-402.238	563.618	-0.025	0.059
-401.223	800.000	-0.054	0.169
-400.209	216.196	-0.071	-0.111
-399.194	800.000	0.065	-0.203
-398.179	33.284	0.121	-0.103
-397.165	107.942	0.056	0.066
-396.150	213.934	-0.154	0.239
-395.136	-90.256	-0.161	-0.046
-394.121	-1.132	0.350	0.243
-393.106	-200.000	0.009	-0.090
-392.092	62.990	-0.106	0.105
-391.077	122.121	0.032	0.039
-390.063	-200.000	-0.051	0.250
-389.048	-200.000	0.023	0.222
-388.033	-200.000	0.024	-0.374
-387.019	-26.123	-0.153	-0.089
-386.004	800.000	0.067	-0.215
-384.990	-50.297	0.318	-0.148
-383.975	-22.290	0.089	0.053
-382.960	-131.964	-0.078	0.010
-381.946	684.048	0.038	-0.098
-380.931	-157.832	-0.386	-0.023
-379.917	28.016	0.035	-0.029
-378.902	-130.616	0.115	0.015
-377.888	240.824	-0.255	-0.418
-376.873	-55.856	0.339	-0.149
-375.858	201.221	-0.108	0.163
-374.844	-91.111	0.078	0.022
-373.829	-200.000	-0.003	0.067
-372.815	-102.961	-0.170	-0.040
-371.800	610.306	0.024	0.060
-370.785	-73.962	0.174	0.062
-369.771	305.059	-0.073	-0.133
-368.756	-159.829	-0.336	0.018
-367.742	650.172	0.064	0.162
-366.727	282.812	0.113	0.200
-365.712	419.332	-0.068	-0.143
-364.698	-65.736	0.327	-0.129
-363.683	219.861	-0.185	0.291
-362.669	-200.000	-0.091	0.419
-361.654	-121.952	-0.166	0.027
-360.639	-127.801	-0.201	0.029
-359.625	84.698	-0.152	-0.164
-358.610	-17.801	0.276	-0.170
-357.596	785.115	-0.141	-0.381
-356.581	423.367	-0.010	-0.021
-355.566	195.450	-0.045	-0.067
-354.552	92.039	0.230	-0.255
-353.537	184.964	-0.045	0.065
-352.523	-200.000	-0.024	0.179
-351.508	800.000	0.041	-0.165
-350.493	800.000	-0.065	0.178
-349.479	310.381	0.085	-0.157
-348.464	800.000	0.105	-0.294
-347.450	63.944	-0.130	-0.129
-346.435	-200.000	0.029	-0.202
-345.420	625.833	-0.072	0.178
-344.406	273.350	0.191	0.331
-343.391	-109.500	-0.273	0.057
-342.377	-39.891	0.046	-0.024
-341.362	-37.439	0.127	0.067
-340.348	-76.299	0.052	0.018
-339.333	-136.510	-0.283	-0.032
-338.318	38.257	0.234	-0.205
-337.304	-182.780	-0.076	0.001
-336.289	-107.029	0.373	-0.081
-335.275	-200.000	-0.003	0.284
-334.260	-76.927	-0.163	0.056
-333.245	-200.000	0.046	-0.325
-332.231	-200.000	-0.012	-0.104
-331.216	-38.037	-0.269	-0.140
-330.202	495.435	0.127	-0.287
-329.187	87.488	-0.211	-0.230
-328.172	-98.604	0.084	-0.021
-327.158	-200.000	0.018	0.178
-326.143	57.676	0.134	0.128
-325.129	800.000	-0.040	-0.158
-324.114	-58.458	-0.036	-0.016
-323.099	-92.668	-0.207	0.057
-322.085	6.430	-0.091	0.066
-321.070	-200.000	-0.015	0.179
-320.056	800.000	-0.039	-0.141
-319.041	88.012	-0.395	0.430
-318.026	-200.000	-0.042	0.247
-317.012	-8.489	-0.157	0.103
-315.997	-200.000	0.002	-0.203
-314.983	-11.557	-0.217	0.140
-313.968	-27.611	0.167	0.095
-312.953	-54.528	-0.118	0.052
-311.939	397.694	-0.041	0.083
-310.924	-200.000	0.020	0.110
-309.910	-130.535	0.017	0.002
-308.895	262.246	-0.047	-0.080
-307.880	21.704	-0.091	-0.072
-306.866	-81.394	0.376	0.121
-305.851	-159.646	-0.466	0.025
-304.837	-200.000	-0.053	-0.451
-303.822	-83.999	0.282	0.088
-302.807	98.821	0.166	-0.188
-301.793	198.307	0.130	-0.195
-300.778	214.888	0.127	-0.197
-299.764	-200.000	0.031	-0.435
-298.749	112.000	-0.266	-0.315
-297.735	-86.860	0.114	-0.034
-296.720	-197.174	0.406	0.003
-295.705	800.000	-0.056	-0.214
-294.691	640.366	0.069	0.171
-293.676	521.557	0.048	0.109
-292.662	-200.000	0.118	0.572
-291.647	248.609	0.100	0.166
-290.632	-165.504	0.270	-0.012
-289.618	34.097	0.211	0.180
-288.603	781.993	0.073	-0.195
-287.589	-8.642	-0.081	0.053
-286.574	-109.177	0.319	-0.066
-285.559	-151.472	0.070	0.005
-284.545	800.000	0.114	-0.312
-283.530	-1.174	0.430	0.298
-282.516	86.684	0.200	0.216
-281.501	-60.484	0.264	0.110
-280.486	166.722	0.129	-0.179
-279.472	-200.000	0.032	0.338
-278.457	-103.318	0.065	0.015
-277.443	445.279	-0.149	0.320
-276.428	-49.023	0.148	-0.069
-275.413	-90.788	-0.225	0.063
-274.399	-10.955	0.186	0.121
-273.384	252.408	0.135	0.226
-272.370	87.606	0.127	-0.138
-271.355	-200.000	0.033	-0.177
-270.340	94.006	0.088	-0.097
-269.326	-200.000	-0.012	0.051
-268.311	800.000	-0.018	-0.057
-267.297	-200.000	0.018	-0.089
-266.282	340.567	-0.098	-0.188
-265.267	-200.000	0.001	-0.079
-264.253	-200.000	0.028	0.147
-263.238	800.000	0.038	-0.111
-262.224	-190.567	-0.153	-0.002
-261.209	800.000	0.052	0.170
-260.195	-79.051	-0.282	-0.094
-259.180	-115.314	-0.099	0.018
-258.165	270.933	-0.129	0.222
-257.151	215.772	-0.135	0.210
-256.136	66.504	0.231	0.230
-255.122	116.900	-0.091	-0.109
-254.107	800.000	-0.069	-0.267
-253.092	194.718	-0.246	-0.366
-252.078	215.697	0.168	0.261
-251.063	-102.033	0.243	-0.057
-250.049	-200.000	0.001	0.099
-249.034	104.696	0.173	-0.199
-248.019	-200.000	-0.021	0.326
-247.005	-200.000	0.054	-0.322
-245.990	-22.886	-0.236	-0.139
-244.976	-107.407	0.145	0.031
-243.961	470.867	-0.053	-0.117
-242.946	-69.260	0.302	0.113
-241.932	-200.000	-0.032	0.275
-240.917	-75.328	-0.100	-0.035
-239.903	21.973	-0.053	-0.042
-238.888	41.736	0.237	-0.210
-237.873	800.000	0.078	0.244
-236.859	800.000	-0.034	0.145
-235.844	-200.000	-0.060	-0.259
-234.830	-70.675	-0.110	-0.041
-233.815	-167.908	-0.235	-0.009
-232.800	-32.361	0.232	-0.126
-231.786	19.855	-0.142	0.112
-230.771	-12.253	0.138	0.088
-229.757	-39.300	-0.581	0.298
-228.742	-38.356	-0.213	0.111
-227.727	-114.112	0.151	0.029
-226.713	87.193	-0.123	-0.133
-225.698	36.920	0.102	-0.088
-224.684	192.394	0.134	-0.198
-223.669	800.000	-0.005	0.022
-222.655	-200.000	0.025	0.165
-221.640	-131.848	0.354	0.045
-220.625	-91.881	-0.479	0.133
-219.611	-0.794	-0.187	-0.130
-218.596	-28.570	-0.133	-0.075
-217.582	-50.769	0.229	-0.105
-216.567	61.628	0.159	0.155
-215.552	-38.411	0.158	0.082
-214.538	-96.787	-0.452	-0.116
-213.523	-187.627	0.380	0.005
-212.509	151.832	0.221	-0.295
-211.494	-127.486	-0.104	-0.015
-210.479	-154.936	0.116	0.007
-209.465	-200.000	-0.004	-0.144
-208.450	-81.970	-0.245	0.078
-207.436	-55.271	0.378	0.166
-206.421	-200.000	0.013	-0.095
-205.406	32.163	0.124	0.105
-204.392	-155.128	-0.287	-0.018
-203.377	-200.000	0.035	0.194
-202.363	-40.068	0.144	-0.073
-201.348	-61.266	-0.192	0.079
-200.333	63.020	0.055	0.054
-199.319	-114.977	0.100	0.019
-198.304	125.058	0.084	0.104
-197.290	800.000	0.046	-0.162
-196.275	-11.755	-0.196	-0.126
-195.260	5.720	0.184	-0.133
-194.246	191.398	0.222	-0.326
-193.231	800.000	0.069	0.281
-192.217	-175.921	0.215	-0.006
-191.202	-200.000	-0.027	-0.130
-190.187	764.821	-0.094	-0.248
-189.173	-200.000	0.047	0.285
-188.158	-83.019	0.171	0.054
-187.144	77.156	0.203	-0.210
-186.129	-55.908	0.132	-0.057
-185.114	-59.890	-0.334	0.140
-184.100	800.000	0.083	0.337
-183.085	-197.634	-0.195	-0.001
-182.071	-1.600	0.281	0.194
-181.056	-200.000	0.012	0.155
-180.042	-200.000	0.009	0.186
-179.027	-200.000	0.024	0.296
-178.012	800.000	0.031	0.131
-176.998	-82.507	-0.159	0.050
-175.983	226.443	0.079	0.125
-174.969	-142.306	-0.261	0.025
-173.954	69.056	0.214	-0.215
-172.939	9.713	-0.162	0.120
-171.925	-200.000	-0.055	0.339
-170.910	420.650	0.070	0.147
-169.896	-200.000	0.005	-0.258
-168.881	-77.754	0.164	-0.055
-167.866	163.690	0.215	0.295
-166.852	-100.288	-0.015	0.004
-165.837	664.321	0.022	-0.055
-164.823	800.000	0.084	-0.326
-163.808	-179.168	-0.087	-0.002
-162.793	800.000	-0.012	0.042
-161.779	-87.361	0.168	0.050
-160.764	184.589	-0.095	0.137
-159.750	336.216	0.106	0.201
-158.735	-113.554	-0.402	-0.077
-157.720	371.075	-0.094	0.185
-156.706	83.705	-0.048	0.051
-155.691	-128.588	-0.068	0.009
-154.677	-0.360	0.256	-0.177
-153.662	135.473	0.395	0.501
-152.647	-200.000	-0.037	-0.312
-151.633	-99.413	0.056	-0.014
-150.618	-132.167	0.130	0.016
-149.604	45.760	-0.262	0.236
-148.589	55.890	-0.100	-0.094
-147.574	800.000	0.041	0.123
-146.560	272.024	0.258	0.444
-145.545	-42.186	0.175	-0.087
-144.531	246.566	-0.040	0.066
-143.516	-11.947	0.220	0.140
-142.502	800.000	-0.046	0.161
-141.487	-200.000	0.029	0.157
-140.472	-107.334	-0.462	0.099
-139.458	80.924	-0.244	0.257
-138.443	294.964	-0.149	0.266
-137.429	8.756	-0.118	0.087
-136.414	-200.000	-0.045	0.403
-135.399	800.000	-0.057	0.217
-134.385	41.083	0.224	-0.197
-133.370	29.611	0.193	-0.160
-132.356	763.426	0.052	-0.139
-131.341	5.974	0.061	0.044
-130.326	-69.805	-0.199	-0.074
-129.312	150.384	-0.113	0.150
-128.297	117.809	0.096	-0.115
-127.283	800.000	-0.093	0.389
-126.268	6.105	-0.191	0.138
-125.253	-40.045	-0.074	-0.038
-124.239	-200.000	-0.006	0.035
-123.224	270.427	0.106	0.181
-122.210	-151.876	0.167	0.012
-121.195	31.720	-0.347	0.291
