DTS Sentinel unit serial number:	SN413079Multiplexer serial number:	ORYXHardware model number:	OX4-SRSoftware version number:	ORYX F/W v4.00 Oryx Data Collector v3.7.2.0data status	okinstallation	princeton_trtdifferential loss correction	single-endedforward channel	channel 2reverse channel	N/Adate	2019/09/17time	01:51:35forward acquisition time	60.00reverse acquisition time	0.00gamma	496.2192k internal	0.2328k external	0.2328temperature offset calibration	0.9979default loss term (dB/km)	0.3790temperature slope calibration	1.0000multiplexer offset coefficient	1.0000multiplexer slope coefficient	1.0000fibre end	0.00T internal ref (°C)	29.61T ext. ref 1 (°C)	0.12T ext. ref 2 (°C)	24.60length (m)	temperature (°C)	Stokes	anti-Stokes-747.200	-131.256	-0.366	0.049
-746.185	20.816	0.251	-0.205
-745.171	-200.000	0.001	-0.016
-744.156	-17.455	0.151	-0.096
-743.142	-200.000	-0.004	0.043
-742.127	209.150	-0.064	0.101
-741.112	-72.806	-0.478	0.177
-740.098	312.662	-0.151	0.286
-739.083	96.646	0.150	-0.173
-738.069	-200.000	0.042	0.205
-737.054	800.000	0.018	0.064
-736.039	374.066	-0.186	-0.381
-735.025	171.037	0.032	-0.046
-734.010	192.553	0.100	-0.152
-732.996	-38.290	-0.315	-0.168
-731.981	-149.716	-0.112	0.009
-730.966	-56.054	-0.110	0.049
-729.952	59.605	-0.365	-0.362
-728.937	27.689	0.049	0.042
-727.923	-91.031	-0.250	-0.072
-726.908	19.833	-0.233	0.189
-725.894	2.555	0.268	-0.195
-724.879	-200.000	-0.101	-0.465
-723.864	800.000	-0.086	0.271
-722.850	-84.368	0.208	-0.066
-721.835	800.000	-0.072	-0.313
-720.821	-200.000	-0.010	-0.185
-719.806	20.418	-0.247	-0.201
-718.791	-3.921	-0.468	0.327
-717.777	90.091	0.147	-0.165
-716.762	84.439	-0.026	-0.028
-715.748	-106.452	-0.410	0.092
-714.733	-70.748	-0.055	-0.021
-713.718	-97.725	-0.071	-0.019
-712.704	-147.018	0.229	0.020
-711.689	-168.391	-0.276	0.011
-710.675	800.000	-0.051	-0.162
-709.660	315.899	-0.156	-0.296
-708.645	-123.546	-0.192	0.031
-707.631	172.139	0.207	0.299
-706.616	307.682	-0.096	0.180
-705.602	-106.983	0.255	-0.057
-704.587	461.991	0.071	0.159
-703.572	-200.000	0.018	-0.119
-702.558	-27.619	-0.362	0.211
-701.543	-26.267	0.372	-0.220
-700.529	-49.927	-0.083	-0.040
-699.514	79.523	-0.094	0.102
-698.499	-157.504	0.327	-0.020
-697.485	-110.619	-0.186	-0.039
-696.470	290.910	-0.036	0.066
-695.456	-64.205	-0.200	-0.082
-694.441	647.313	0.163	-0.420
-693.426	177.305	-0.063	0.092
-692.412	60.849	-0.316	-0.315
-691.397	551.533	0.093	0.226
-690.383	29.224	0.207	-0.177
-689.368	-200.000	0.001	0.329
-688.354	800.000	0.044	0.181
-687.339	109.028	0.157	-0.189
-686.324	-53.256	-0.076	0.035
-685.310	33.338	0.141	-0.123
-684.295	129.971	0.150	-0.193
-683.281	98.206	-0.307	0.356
-682.266	-149.331	-0.184	0.015
-681.251	195.601	-0.077	0.117
-680.237	-131.062	-0.186	0.025
-679.222	-200.000	-0.029	0.155
-678.208	-200.000	0.022	0.127
-677.193	106.516	-0.117	-0.139
-676.178	-200.000	0.023	-0.578
-675.164	-200.000	-0.085	-0.483
-674.149	-10.342	0.030	0.020
-673.135	-62.252	0.136	0.057
-672.120	57.882	0.265	-0.261
-671.105	239.133	-0.181	-0.302
-670.091	-123.607	-0.063	0.010
-669.076	800.000	-0.079	0.236
-668.062	-97.082	-0.134	-0.035
-667.047	33.750	0.076	0.067
-666.032	-78.392	-0.131	-0.045
-665.018	800.000	0.040	-0.152
-664.003	-80.018	-0.386	-0.130
-662.989	41.923	-0.079	-0.072
-661.974	34.598	-0.194	0.170
-660.959	-200.000	0.002	0.077
-659.945	-200.000	0.025	-0.390
-658.930	-162.939	-0.054	0.003
-657.916	-149.798	0.162	0.013
-656.901	11.986	0.431	0.333
-655.886	800.000	-0.164	0.558
-654.872	-71.026	0.229	0.087
-653.857	445.306	0.081	0.178
-652.843	-7.424	-0.092	-0.063
-651.828	-106.354	-0.446	-0.100
-650.814	30.677	-0.158	0.136
-649.799	-200.000	0.046	-0.205
-648.784	-200.000	0.016	-0.091
-647.770	800.000	-0.031	-0.135
-646.755	124.271	-0.036	0.045
-645.741	-136.070	0.149	0.018
-644.726	404.481	0.033	-0.069
-643.711	-104.856	-0.173	-0.040
-642.697	216.076	0.204	0.325
-641.682	-129.237	0.183	-0.026
-640.668	-200.000	-0.310	0.001
-639.653	800.000	0.073	0.256
-638.638	-95.722	-0.425	-0.114
-637.624	-200.000	-0.099	-0.450
-636.609	-200.000	0.030	-0.254
-635.595	-167.915	0.226	0.009
-634.580	-137.256	0.582	-0.066
-633.565	-200.000	0.030	0.200
-632.551	27.824	-0.039	-0.033
-631.536	-103.351	-0.128	-0.030
-630.522	10.394	-0.149	0.114
-629.507	83.765	0.178	0.195
-628.492	-109.442	0.175	-0.037
-627.478	-43.298	-0.372	0.189
-626.463	-200.000	-0.096	0.478
-625.449	587.477	0.115	0.285
-624.434	-69.570	0.152	-0.059
-623.419	-120.100	0.241	-0.041
-622.405	15.526	-0.320	-0.252
-621.390	66.335	0.208	0.212
-620.376	-200.000	0.016	0.167
-619.361	800.000	0.046	-0.186
-618.346	59.922	0.136	0.135
-617.332	54.889	-0.127	-0.123
-616.317	-123.931	-0.404	0.064
-615.303	-70.323	0.090	-0.034
-614.288	134.023	-0.141	-0.183
-613.273	108.430	0.258	-0.308
-612.259	222.585	-0.195	-0.315
-611.244	-200.000	0.070	-0.372
-610.230	-200.000	0.057	-0.258
-609.215	78.132	-0.050	-0.054
-608.201	800.000	0.043	-0.183
-607.186	-36.498	0.266	0.143
-606.171	-200.000	0.017	-0.177
-605.157	-43.931	-0.525	-0.265
-604.142	-132.738	0.113	-0.014
-603.128	-110.840	-0.200	-0.041
-602.113	-144.425	-0.136	-0.013
-601.098	-25.546	0.101	0.060
-600.084	364.969	-0.036	-0.072
-599.069	37.513	-0.339	0.301
-598.055	-93.957	0.289	-0.080
-597.040	-200.000	0.017	-0.175
-596.025	367.668	0.176	-0.355
-595.011	-101.373	-0.204	-0.050
-593.996	-200.000	0.017	-0.281
-592.982	117.441	-0.134	-0.165
-591.967	494.402	-0.079	0.182
-590.952	-25.256	0.253	-0.150
-589.938	22.520	0.054	-0.044
-588.923	-200.000	0.033	-0.185
-587.909	-200.000	0.057	0.372
-586.894	-62.572	-0.257	-0.107
-585.879	-200.000	-0.009	0.210
-584.865	-72.276	0.281	-0.104
-583.850	109.500	-0.110	0.132
-582.836	-99.502	-0.208	-0.052
-581.821	-46.894	-0.099	-0.049
-580.806	-85.883	-0.462	0.143
-579.792	-130.162	0.209	-0.029
-578.777	43.519	-0.217	-0.199
-577.763	-104.304	-0.215	0.050
-576.748	-50.101	-0.119	0.057
-575.733	120.888	0.026	0.033
-574.719	-200.000	-0.012	-0.175
-573.704	-200.000	0.026	0.116
-572.690	501.884	0.126	-0.291
-571.675	46.652	0.152	-0.141
-570.661	144.971	0.169	0.226
-569.646	-146.551	0.269	0.023
-568.631	467.510	-0.063	-0.142
-567.617	458.724	0.017	-0.037
-566.602	-96.408	-0.204	-0.054
-565.588	84.021	0.090	0.098
-564.573	608.339	0.102	-0.254
-563.558	79.196	0.276	0.296
-562.544	3.497	0.136	0.099
-561.529	-93.647	-0.122	0.034
-560.515	33.658	-0.164	-0.142
-559.500	800.000	0.061	-0.188
-558.485	800.000	-0.062	0.224
-557.471	-35.142	-0.178	-0.097
-556.456	-151.993	-0.177	-0.013
-555.442	-123.871	-0.121	-0.019
-554.427	-112.718	0.192	-0.038
-553.412	-200.000	0.021	0.124
-552.398	86.118	0.235	-0.259
-551.383	25.648	0.109	0.091
-550.369	-200.000	0.060	-0.286
-549.354	-200.000	0.006	-0.419
-548.339	209.617	0.126	0.198
-547.325	305.577	-0.119	-0.221
-546.310	-180.116	-0.204	0.004
-545.296	-32.760	0.142	0.079
-544.281	-34.754	-0.167	-0.091
-543.266	-34.316	0.298	0.163
-542.252	-200.000	-0.005	0.189
-541.237	747.101	0.049	-0.132
-540.223	714.054	0.093	0.246
-539.208	-59.462	-0.305	0.131
-538.193	-19.462	-0.375	-0.232
-537.179	-139.556	-0.202	-0.022
-536.164	-93.010	-0.087	-0.024
-535.150	118.570	0.054	0.067
-534.135	201.574	0.128	0.196
-533.121	800.000	0.048	0.151
-532.106	800.000	0.059	-0.215
-531.091	-52.278	-0.096	0.045
-530.077	800.000	-0.082	0.277
-529.062	51.032	0.210	-0.199
-528.048	800.000	0.110	0.363
-527.033	-200.000	0.043	0.227
-526.018	-64.625	-0.363	-0.147
-525.004	51.866	0.090	0.086
-523.989	39.726	0.097	-0.087
-522.975	-66.309	-0.216	0.086
-521.960	128.490	0.098	-0.124
-520.945	800.000	-0.048	-0.183
-519.931	-33.993	0.331	-0.182
-518.916	-146.887	-0.093	0.008
-517.902	-200.000	0.100	-0.487
-516.887	-47.462	-0.211	0.102
-515.872	210.176	-0.155	-0.242
-514.858	60.304	-0.191	-0.189
-513.843	328.730	-0.051	-0.098
-512.829	446.801	-0.138	-0.303
-511.814	-61.296	0.129	0.054
-510.799	-103.296	-0.329	0.078
-509.785	800.000	-0.053	0.207
-508.770	213.861	0.144	-0.227
-507.756	-200.000	-0.048	-0.466
-506.741	-134.480	-0.089	-0.011
-505.726	55.155	0.189	-0.182
-504.712	234.890	-0.093	-0.154
-503.697	-128.553	0.230	-0.033
-502.683	130.786	-0.130	0.166
-501.668	-200.000	0.018	-0.289
-500.653	564.416	0.144	-0.349
-499.639	800.000	-0.039	-0.141
-498.624	107.746	0.167	0.199
-497.610	6.369	-0.216	0.160
-496.595	-148.687	0.177	0.014
-495.581	59.143	-0.230	0.226
-494.566	-11.270	-0.200	-0.131
-493.551	109.632	-0.057	-0.068
-492.537	800.000	0.116	0.352
-491.522	-108.846	-0.206	0.044
-490.508	-144.549	-0.082	0.008
-489.493	-140.692	0.308	0.032
-488.478	-55.668	-0.143	0.064
-487.464	800.000	-0.020	0.083
-486.449	-200.000	-0.035	0.262
-485.435	800.000	0.095	-0.381
-484.420	-153.371	0.333	0.023
-483.405	388.169	-0.068	-0.140
-482.391	-100.699	0.243	0.060
-481.376	-200.000	-0.021	0.397
-480.362	-21.323	-0.057	-0.035
-479.347	251.818	-0.037	0.063
-478.332	-200.000	-0.020	-0.448
-477.318	40.121	0.025	0.023
-476.303	123.181	0.038	-0.047
-475.289	-68.044	0.077	0.030
-474.274	-90.233	-0.377	0.109
-473.259	435.554	-0.050	-0.109
-472.245	800.000	-0.013	-0.040
-471.230	238.007	-0.139	0.230
-470.216	-200.000	-0.005	-0.150
-469.201	-107.662	-0.104	0.023
-468.186	800.000	-0.066	0.244
-467.172	454.257	0.146	0.323
-466.157	-74.864	-0.170	-0.061
-465.143	-200.000	-0.001	0.016
-464.128	108.049	-0.118	-0.140
-463.113	-200.000	0.022	0.165
-462.099	800.000	0.102	-0.416
-461.084	-146.932	0.678	0.058
-460.070	361.020	-0.010	0.019
-459.055	779.079	-0.168	-0.458
-458.040	638.328	0.024	-0.062
-457.026	319.932	-0.108	0.204
-456.011	-11.990	-0.226	-0.147
-454.997	157.301	-0.089	-0.123
-453.982	-200.000	0.000	-0.347
-452.968	-170.917	0.323	-0.011
-451.953	435.175	0.115	-0.250
-450.938	32.502	-0.087	-0.075
-449.924	-106.070	0.162	0.036
-448.909	800.000	-0.063	-0.233
-447.895	68.829	-0.142	-0.145
-446.880	-200.000	-0.006	-0.363
-445.865	-27.262	0.472	0.274
-444.851	236.908	-0.126	0.208
-443.836	-200.000	-0.011	0.216
-442.822	-200.000	0.040	-0.301
-441.807	-37.041	-0.029	-0.015
-440.792	455.395	-0.069	-0.153
-439.778	-39.446	-0.179	0.093
-438.763	-200.000	0.007	0.107
-437.749	-156.342	0.190	0.012
-436.734	178.654	0.244	0.355
-435.719	-67.943	0.301	-0.117
-434.705	-17.145	-0.124	-0.078
-433.690	27.266	0.249	-0.208
-432.676	800.000	-0.089	0.275
-431.661	215.346	-0.210	0.332
-430.646	594.436	0.076	0.186
-429.632	-78.520	-0.529	0.180
-428.617	55.907	-0.174	0.168
-427.603	-75.970	-0.060	0.021
-426.588	-200.000	-0.040	0.252
-425.573	-200.000	0.240	-0.000
-424.559	77.721	0.060	0.064
-423.544	233.539	0.097	-0.159
-422.530	800.000	-0.127	-0.449
-421.515	-29.684	-0.214	0.122
-420.500	-200.000	-0.001	0.163
-419.486	660.485	-0.091	0.232
-418.471	379.209	-0.036	-0.073
-417.457	-34.017	0.183	-0.100
-416.442	627.524	0.083	-0.208
-415.428	219.106	0.174	-0.277
-414.413	-24.251	-0.035	0.020
-413.398	-44.472	-0.225	0.112
-412.384	-63.452	-0.137	0.056
-411.369	-149.283	-0.539	-0.043
-410.355	-69.107	-0.125	0.048
-409.340	162.563	0.127	0.177
-408.325	800.000	0.122	0.338
-407.311	-78.486	-0.170	0.058
-406.296	-75.130	0.108	-0.038
-405.282	-5.755	0.154	0.105
-404.267	-57.125	0.116	-0.051
-403.252	-24.582	-0.176	-0.104
-402.238	420.152	0.064	0.136
-401.223	-14.020	0.233	-0.150
-400.209	-28.095	-0.077	-0.044
-399.194	-18.169	-0.089	0.055
-398.179	-200.000	0.072	0.537
-397.165	212.878	-0.107	0.168
-396.150	800.000	0.014	-0.060
-395.136	-200.000	-0.005	-0.186
-394.121	75.271	0.044	0.046
-393.106	-200.000	-0.021	0.108
-392.092	-73.638	0.188	0.068
-391.077	800.000	0.059	-0.256
-390.063	-88.044	0.079	-0.023
-389.048	63.380	-0.169	0.169
-388.033	-99.153	0.328	-0.082
-387.019	231.892	-0.132	-0.216
-386.004	58.646	-0.015	-0.015
-384.990	-163.980	-0.434	-0.020
-383.975	3.319	-0.176	0.128
-382.960	77.515	0.114	0.121
-381.946	45.943	-0.108	-0.099
-380.931	-9.993	0.229	-0.151
-379.917	114.257	-0.164	-0.199
-378.902	-87.869	0.173	0.052
-377.888	-68.072	-0.243	-0.094
-376.873	-190.975	0.218	-0.002
-375.858	-200.000	-0.005	-0.096
-374.844	37.124	0.256	0.225
-373.829	24.438	0.107	0.088
-372.815	15.190	-0.163	-0.127
-371.800	-200.000	-0.035	-0.206
-370.785	53.021	0.287	0.273
-369.771	112.785	0.027	0.033
-368.756	152.919	-0.068	-0.093
-367.742	623.813	-0.058	0.144
-366.727	-47.780	-0.308	0.148
-365.712	-4.273	-0.218	0.150
-364.698	-106.672	0.095	0.021
-363.683	-200.000	-0.036	0.330
-362.669	-62.866	0.274	-0.113
-361.654	-200.000	-0.007	-0.035
-360.639	-50.602	0.280	-0.131
-359.625	800.000	-0.069	0.191
-358.610	-59.137	-0.152	-0.065
-357.596	-74.775	0.063	0.022
-356.581	-103.744	-0.142	0.033
-355.566	-200.000	0.006	0.064
-354.552	370.416	-0.146	-0.293
-353.537	8.183	-0.122	0.091
-352.523	55.024	-0.141	-0.135
-351.508	181.855	0.041	-0.060
-350.493	28.093	-0.153	-0.128
-349.479	-28.015	0.240	-0.138
-348.464	-60.710	-0.279	0.117
-347.450	208.799	0.168	0.261
-346.435	-156.907	0.029	0.002
-345.420	-135.741	-0.131	-0.015
-344.406	-200.000	-0.087	-0.381
-343.391	-200.000	-0.034	0.297
-342.377	-63.179	-0.249	-0.102
-341.362	266.196	0.093	0.161
-340.348	-200.000	-0.018	0.543
-339.333	-31.557	-0.007	0.004
-338.318	145.063	0.063	-0.084
-337.304	82.249	-0.289	-0.311
-336.289	108.511	0.028	-0.033
-335.275	482.160	-0.039	-0.089
-334.260	-158.179	-0.226	-0.013
-333.245	8.210	-0.082	-0.061
-332.231	-121.528	0.198	0.033
-331.216	-5.149	0.250	-0.170
-330.202	-13.735	-0.149	0.096
-329.187	511.623	-0.036	0.083
-328.172	-166.110	-0.078	-0.003
-327.158	168.249	-0.142	-0.200
-326.143	-200.000	-0.056	-0.269
-325.129	203.678	-0.027	0.042
-324.114	-89.533	-0.107	-0.031
-323.099	352.017	-0.119	-0.233
-322.085	652.074	-0.046	-0.117
-321.070	-200.000	0.036	0.368
-320.056	357.377	0.066	0.131
-319.041	154.320	-0.191	0.260
-318.026	-200.000	-0.000	0.048
-317.012	-200.000	-0.040	0.525
-315.997	229.218	0.116	0.188
-314.983	-200.000	-0.001	-0.145
-313.968	433.739	-0.069	-0.148
-312.953	257.941	0.141	-0.241
-311.939	115.957	0.026	-0.031
-310.924	354.231	0.048	-0.094
-309.910	-58.310	0.171	0.074
-308.895	-8.054	0.338	0.226
-307.880	-68.453	0.074	0.029
-306.866	7.683	0.087	-0.065
-305.851	120.005	0.256	-0.314
-304.837	-200.000	-0.001	-0.196
-303.822	270.814	0.062	0.108
-302.807	-110.800	-0.131	-0.027
-301.793	-34.946	0.072	0.039
-300.778	-44.885	0.053	-0.026
-299.764	214.948	0.206	0.323
-298.749	-66.816	-0.376	0.147
-297.735	-200.000	-0.000	0.391
-296.720	346.280	-0.082	-0.159
-295.705	-88.015	-0.206	-0.061
-294.691	433.364	0.118	0.254
-293.676	-70.782	0.103	-0.039
-292.662	-139.881	0.241	0.025
-291.647	381.681	0.102	0.206
-290.632	-32.172	-0.225	-0.124
-289.618	-200.000	0.030	-0.208
-288.603	-200.000	-0.016	-0.215
-287.589	800.000	0.060	0.225
-286.574	-112.969	0.146	0.029
-285.559	147.469	-0.051	-0.068
-284.545	-200.000	-0.010	-0.224
-283.530	800.000	-0.016	-0.044
-282.516	-200.000	0.001	0.314
-281.501	-200.000	-0.023	0.305
-280.486	26.730	-0.078	0.065
-279.472	800.000	-0.054	-0.225
-278.457	-200.000	-0.017	-0.078
-277.443	-91.813	0.199	0.056
-276.428	-83.180	0.162	-0.051
-275.413	-68.998	-0.317	0.121
-274.399	-125.745	-0.027	-0.004
-273.384	634.156	-0.169	0.425
-272.370	414.160	0.039	0.082
-271.355	800.000	0.047	0.180
-270.340	-15.304	0.137	-0.087
-269.326	-97.008	-0.080	0.021
-268.311	800.000	0.085	0.265
-267.297	432.440	0.136	0.291
-266.282	679.322	0.091	0.233
-265.267	8.043	0.256	0.190
-264.253	226.158	0.142	-0.228
-263.238	800.000	0.065	-0.248
-262.224	-200.000	0.025	0.384
-261.209	70.829	-0.110	-0.113
-260.195	521.725	0.027	-0.063
-259.180	23.151	-0.076	0.061
-258.165	31.485	0.085	0.072
-257.151	11.520	-0.173	-0.131
-256.136	636.985	-0.077	0.193
-255.122	-21.125	-0.140	0.084
-254.107	207.759	-0.027	0.041
-253.092	713.031	-0.072	-0.188
-252.078	-3.727	-0.112	-0.077
-251.063	-82.033	-0.141	-0.045
-250.049	800.000	0.081	0.346
-249.034	389.632	-0.147	0.300
-248.019	331.564	0.060	0.115
-247.005	69.188	-0.185	0.188
-245.990	-200.000	-0.058	0.332
-244.976	-173.711	-0.074	0.002
-243.961	-200.000	0.061	0.284
-242.946	-200.000	-0.020	-0.413
-241.932	167.078	0.140	0.196
-240.917	13.570	0.182	0.140
-239.903	202.233	0.166	0.252
-238.888	-200.000	-0.037	0.280
-237.873	38.664	0.436	0.384
-236.859	-10.093	0.147	0.097
-235.844	-200.000	0.041	-0.209
-234.830	-95.266	0.124	-0.033
-233.815	151.052	-0.255	-0.342
-232.800	231.341	0.066	-0.106
-231.786	-200.000	0.015	-0.071
-230.771	-200.000	-0.001	0.144
-229.757	52.045	0.132	-0.124
-228.742	-200.000	0.046	-0.260
-227.727	-26.272	-0.099	0.057
-226.713	800.000	0.045	-0.158
-225.698	136.080	-0.067	-0.086
-224.684	-34.816	0.120	-0.065
-223.669	800.000	-0.074	0.237
-222.655	18.719	-0.149	-0.118
-221.640	800.000	-0.088	0.259
-220.625	-54.816	0.078	0.035
-219.611	431.607	0.094	-0.200
-218.596	-51.116	0.248	0.115
-217.582	460.948	0.098	-0.215
-216.567	-200.000	0.010	-0.283
-215.552	55.777	-0.132	0.127
-214.538	-32.313	0.144	0.079
-213.523	-140.272	-0.200	0.021
-212.509	265.582	0.103	-0.177
-211.494	67.714	0.042	0.043
-210.479	-200.000	-0.002	0.342
-209.465	241.302	0.106	-0.175
-208.450	349.416	0.154	0.300
-207.436	-200.000	-0.014	0.114
-206.421	-153.345	-0.154	-0.011
-205.406	24.078	0.066	-0.054
-204.392	-71.160	0.071	-0.026
-203.377	-8.238	0.143	-0.095
-202.363	197.944	0.124	-0.187
-201.348	-200.000	-0.018	-0.219
-200.333	-89.857	-0.194	-0.056
-199.319	78.340	-0.182	-0.192
-198.304	-124.524	0.026	-0.004
-197.290	-200.000	0.001	-0.076
-196.275	-200.000	0.014	-0.082
-195.260	47.713	-0.130	-0.119
-194.246	-114.622	-0.127	-0.024
-193.231	-200.000	-0.007	0.079
-192.217	175.425	-0.104	-0.149
-191.202	800.000	-0.069	-0.281
-190.187	98.337	0.177	-0.202
-189.173	131.015	0.168	0.213
-188.158	-200.000	0.027	-0.128
-187.144	-79.021	-0.039	0.013
-186.129	29.551	0.178	0.150
-185.114	-85.139	-0.330	0.102
-184.100	-0.198	0.210	0.147
-183.085	-130.590	-0.052	-0.007
-182.071	166.497	-0.134	0.187
-181.056	-200.000	-0.041	0.305
-180.042	551.721	-0.043	0.101
-179.027	800.000	0.074	-0.206
-178.012	-122.873	0.332	-0.053
-176.998	800.000	-0.036	0.142
-175.983	-17.501	0.117	-0.073
-174.969	-115.435	-0.118	-0.022
-173.954	278.527	-0.089	0.156
-172.939	800.000	0.046	0.143
-171.925	-11.217	-0.087	-0.056
-170.910	21.528	0.247	0.198
-169.896	14.536	0.170	0.131
-168.881	-56.045	-0.263	0.115
-167.866	800.000	0.030	0.104
-166.852	110.977	0.117	0.139
-165.837	105.011	0.316	0.367
-164.823	-79.722	0.296	-0.098
-163.808	28.630	-0.013	0.011
-162.793	10.890	0.198	-0.149
-161.779	372.587	-0.024	-0.047
-160.764	800.000	0.101	0.290
-159.750	241.892	0.077	-0.127
-158.735	-39.902	0.191	-0.098
-157.720	-133.298	0.075	0.009
-156.706	280.249	-0.165	-0.291
-155.691	-127.353	-0.161	0.023
-154.677	800.000	-0.015	0.050
-153.662	-102.435	0.184	0.043
-152.647	330.313	-0.214	-0.406
-151.633	-200.000	0.051	0.249
-150.618	392.762	-0.184	0.376
-149.604	92.842	0.210	0.234
-148.589	73.587	-0.084	0.086
-147.574	73.232	0.172	0.177
-146.560	-200.000	-0.026	-0.129
-145.545	-200.000	-0.004	0.029
-144.531	168.949	0.107	-0.150
-143.516	40.613	-0.196	0.173
-142.502	-200.000	-0.021	0.334
-141.487	45.689	0.092	-0.084
-140.472	-150.094	0.412	-0.031
-139.458	-72.238	-0.166	0.061
-138.443	27.835	0.145	0.120
-137.429	9.166	-0.338	0.251
-136.414	329.224	0.041	0.078
-135.399	-142.021	0.194	-0.019
-134.385	244.493	-0.114	-0.189
-133.370	-192.047	-0.231	0.002
-132.356	77.923	0.129	-0.135
-131.341	286.816	0.081	-0.144
-130.326	-9.596	-0.175	0.115
-129.312	-104.842	0.057	-0.013
-128.297	-89.893	0.158	-0.045
-127.283	237.385	0.158	-0.258
-126.268	-200.000	0.025	0.203
-125.253	800.000	0.173	0.521
-124.239	-117.831	-0.356	-0.063
-123.224	207.539	-0.155	0.238
-122.210	193.872	-0.196	0.292
