DTS Sentinel unit serial number:	SN413079Multiplexer serial number:	ORYXHardware model number:	OX4-SRSoftware version number:	ORYX F/W v4.00 Oryx Data Collector v3.7.2.0data status	okinstallation	princeton_trtdifferential loss correction	single-endedforward channel	channel 2reverse channel	N/Adate	2019/09/13time	20:31:34forward acquisition time	60.00reverse acquisition time	0.00gamma	496.2192k internal	0.2333k external	0.2333temperature offset calibration	1.0135default loss term (dB/km)	0.3790temperature slope calibration	1.0000multiplexer offset coefficient	1.0000multiplexer slope coefficient	1.0000fibre end	0.00T internal ref (°C)	29.06T ext. ref 1 (°C)	3.30T ext. ref 2 (°C)	23.59length (m)	temperature (°C)	Stokes	anti-Stokes-747.200	225.354	-0.127	0.207
-746.185	-83.744	-0.317	0.102
-745.171	-26.828	0.181	0.106
-744.156	-109.663	-0.526	0.111
-743.142	-140.833	-0.128	-0.013
-742.127	-200.000	-0.027	-0.159
-741.112	77.248	-0.031	0.033
-740.098	-160.530	-0.305	-0.016
-739.083	-61.137	-0.233	0.099
-738.069	152.003	0.115	0.158
-737.054	190.362	-0.141	-0.213
-736.039	-43.237	-0.173	-0.088
-735.025	515.025	-0.048	0.113
-734.010	146.279	-0.299	-0.403
-732.996	-200.000	-0.112	-0.501
-731.981	-136.621	0.155	-0.018
-730.966	-41.268	-0.217	0.112
-729.952	-127.640	-0.246	-0.036
-728.937	497.392	-0.130	-0.301
-727.923	-19.692	0.161	-0.100
-726.908	-200.000	0.042	-0.498
-725.894	-200.000	0.002	-0.095
-724.879	186.003	0.089	0.133
-723.864	-200.000	0.024	0.202
-722.850	221.895	-0.130	-0.209
-721.835	139.629	0.250	0.331
-720.821	64.095	-0.080	-0.081
-719.806	-63.262	-0.473	0.196
-718.791	-124.962	0.356	-0.055
-717.777	-100.352	0.190	-0.047
-716.762	108.799	-0.212	-0.255
-715.748	24.553	-0.326	-0.271
-714.733	-46.710	0.101	-0.050
-713.718	381.932	-0.062	-0.129
-712.704	22.343	-0.070	0.058
-711.689	61.453	-0.226	0.226
-710.675	-138.023	0.214	-0.024
-709.660	21.474	-0.101	0.083
-708.645	-17.854	-0.220	-0.138
-707.631	-44.057	0.125	0.063
-706.616	-194.375	0.243	-0.002
-705.602	-200.000	0.016	0.131
-704.587	-54.545	0.065	-0.030
-703.572	-93.586	0.052	-0.014
-702.558	180.200	-0.131	-0.192
-701.543	476.990	-0.020	0.046
-700.529	-77.661	0.161	-0.056
-699.514	24.422	-0.051	-0.043
-698.499	-34.665	0.183	0.100
-697.485	800.000	-0.050	-0.170
-696.470	-8.551	-0.380	-0.256
-695.456	-72.670	0.088	-0.032
-694.441	27.260	-0.097	-0.082
-693.426	-35.306	0.172	-0.094
-692.412	800.000	-0.123	-0.405
-691.397	72.558	-0.070	-0.074
-690.383	-81.214	0.312	0.103
-689.368	-200.000	-0.016	-0.188
-688.354	548.641	0.071	-0.171
-687.339	800.000	0.011	0.034
-686.324	-21.814	-0.240	0.147
-685.310	-200.000	-0.018	-0.202
-684.295	800.000	-0.041	0.157
-683.281	-102.963	0.145	0.035
-682.266	800.000	0.045	0.166
-681.251	-61.014	0.186	0.079
-680.237	-158.174	-0.301	-0.018
-679.222	118.769	-0.179	-0.221
-678.208	-200.000	-0.061	0.306
-677.193	-29.019	-0.333	0.192
-676.178	-15.151	0.157	0.101
-675.164	-9.585	0.013	-0.008
-674.149	424.832	-0.083	0.180
-673.135	-57.590	0.173	-0.076
-672.120	-48.095	-0.372	-0.180
-671.105	-90.853	-0.186	0.054
-670.091	0.363	0.084	0.060
-669.076	316.071	0.126	-0.239
-668.062	-162.000	-0.530	0.027
-667.047	-200.000	0.021	-0.206
-666.032	-12.291	0.290	-0.190
-665.018	-200.000	-0.017	0.282
-664.003	-152.943	-0.209	0.015
-662.989	-75.782	0.251	-0.089
-661.974	-40.672	0.117	0.061
-660.959	-93.895	0.189	-0.052
-659.945	-168.386	-0.038	0.001
-658.930	363.043	0.026	0.053
-657.916	-108.499	0.350	-0.076
-656.901	245.639	0.117	0.197
-655.886	-147.724	0.133	-0.011
-654.872	-200.000	0.028	-0.154
-653.857	716.562	-0.120	-0.320
-652.843	158.214	-0.041	-0.057
-651.828	45.091	-0.138	-0.127
-650.814	-77.563	-0.110	0.038
-649.799	8.164	0.251	0.189
-648.784	-60.792	-0.144	-0.061
-647.770	-133.420	-0.033	0.004
-646.755	84.001	0.121	0.133
-645.741	-200.000	0.067	0.616
-644.726	518.672	-0.011	-0.025
-643.711	-200.000	0.076	-0.405
-642.697	-138.784	-0.085	-0.009
-641.682	-61.555	0.029	-0.012
-640.668	-64.474	-0.229	-0.093
-639.653	16.542	-0.108	-0.086
-638.638	800.000	-0.070	-0.287
-637.624	-114.128	0.091	-0.018
-636.609	56.606	0.283	0.276
-635.595	-200.000	0.029	-0.309
-634.580	-41.890	-0.120	0.062
-633.565	-42.952	-0.219	0.111
-632.551	530.626	-0.079	-0.188
-631.536	-200.000	-0.020	0.235
-630.522	-102.328	-0.387	0.093
-629.507	800.000	-0.043	0.147
-628.492	77.123	-0.175	-0.186
-627.478	-134.262	0.206	-0.025
-626.463	485.118	0.068	0.154
-625.449	-153.228	-0.015	-0.001
-624.434	-56.535	0.244	-0.108
-623.419	800.000	0.131	-0.378
-622.405	800.000	0.079	-0.293
-621.390	-52.519	0.278	0.128
-620.376	-193.185	-0.244	-0.002
-619.361	800.000	-0.104	-0.303
-618.346	-135.609	0.369	0.044
-617.332	415.877	0.091	-0.194
-616.317	-168.686	-0.268	-0.010
-615.303	-11.220	-0.092	0.060
-614.288	-74.312	-0.340	-0.123
-613.273	91.102	0.184	0.207
-612.259	-5.523	-0.125	-0.086
-611.244	800.000	-0.068	-0.208
-610.230	-200.000	0.032	-0.154
-609.215	118.614	0.106	0.130
-608.201	324.320	0.174	0.333
-607.186	452.499	-0.085	0.189
-606.171	-200.000	0.023	-0.152
-605.157	-64.923	-0.331	-0.134
-604.142	800.000	0.068	-0.228
-603.128	-156.220	-0.134	0.008
-602.113	96.251	-0.202	-0.231
-601.098	84.019	0.033	0.036
-600.084	-162.083	-0.456	-0.023
-599.069	53.368	-0.119	-0.114
-598.055	749.308	0.069	0.187
-597.040	-110.805	-0.174	-0.036
-596.025	126.097	-0.047	0.059
-595.011	341.207	0.014	0.027
-593.996	104.058	0.168	-0.198
-592.982	-100.537	-0.162	0.040
-591.967	50.210	-0.249	0.235
-590.952	-156.441	0.048	-0.003
-589.938	170.291	-0.116	0.167
-588.923	65.037	-0.196	-0.198
-587.909	-23.086	0.224	-0.135
-586.894	800.000	-0.109	-0.325
-585.879	-30.411	-0.240	0.136
-584.865	-58.117	-0.404	-0.176
-583.850	-132.246	0.271	0.035
-582.836	-20.894	-0.223	-0.137
-581.821	-200.000	-0.029	-0.240
-580.806	800.000	-0.023	0.066
-579.792	-32.633	0.206	0.115
-578.777	-200.000	0.001	-0.186
-577.763	-145.418	0.022	-0.002
-576.748	-163.128	-0.269	-0.013
-575.733	-2.888	0.025	-0.017
-574.719	-36.423	0.296	0.159
-573.704	-68.625	0.101	0.039
-572.690	80.561	-0.305	-0.329
-571.675	-200.000	0.010	0.371
-570.661	-121.453	-0.235	-0.039
-569.646	78.779	0.271	-0.290
-568.631	-97.369	0.278	-0.072
-567.617	-200.000	-0.001	-0.286
-566.602	-51.692	0.256	0.119
-565.588	-190.117	-0.154	-0.002
-564.573	453.385	-0.083	0.184
-563.558	-200.000	-0.020	0.125
-562.544	75.934	-0.152	0.161
-561.529	259.449	0.031	-0.054
-560.515	800.000	0.042	-0.147
-559.500	61.244	0.275	0.272
-558.485	-3.154	-0.041	0.028
-557.471	-91.024	-0.153	-0.044
-556.456	518.271	0.188	-0.440
-555.442	-134.075	-0.320	0.040
-554.427	800.000	-0.071	0.301
-553.412	-51.487	0.431	-0.201
-552.398	98.951	0.095	0.109
-551.383	149.228	-0.077	-0.103
-550.369	-109.931	-0.164	0.034
-549.354	771.255	0.046	-0.126
-548.339	6.336	-0.213	-0.158
-547.325	-152.902	0.547	0.039
-546.310	800.000	0.052	0.197
-545.296	119.901	-0.198	0.245
-544.281	153.664	0.101	-0.138
-543.266	357.480	0.176	-0.350
-542.252	-162.799	-0.126	-0.006
-541.237	-200.000	0.002	-0.027
-540.223	23.686	0.057	-0.047
-539.208	-111.076	0.337	-0.069
-538.193	34.521	-0.122	0.106
-537.179	-157.485	-0.281	0.017
-536.164	800.000	-0.097	-0.318
-535.150	-200.000	-0.007	-0.079
-534.135	-50.642	0.450	0.211
-533.121	-200.000	-0.058	-0.328
-532.106	-200.000	-0.040	-0.269
-531.091	-200.000	-0.004	-0.153
-530.077	-57.396	-0.267	0.117
-529.062	24.802	0.422	0.348
-528.048	-40.136	-0.202	-0.105
-527.033	-200.000	-0.030	0.145
-526.018	330.995	0.039	-0.076
-525.004	26.518	-0.182	-0.152
-523.989	620.223	-0.161	-0.402
-522.975	-200.000	0.004	0.130
-521.960	234.744	-0.018	0.029
-520.945	-148.881	-0.213	-0.017
-519.931	323.885	0.143	0.272
-518.916	-200.000	-0.033	0.605
-517.902	32.075	0.239	-0.205
-516.887	557.844	-0.155	-0.372
-515.872	65.586	-0.248	0.250
-514.858	800.000	0.066	0.259
-513.843	-2.077	0.186	-0.130
-512.829	28.344	-0.168	-0.141
-511.814	15.713	-0.172	-0.135
-510.799	800.000	0.049	0.190
-509.785	800.000	-0.040	0.157
-508.770	-0.802	-0.084	0.059
-507.756	-153.305	-0.433	0.030
-506.741	-200.000	-0.006	-0.058
-505.726	-63.836	0.351	-0.143
-504.712	-174.714	-0.192	0.005
-503.697	-200.000	-0.004	0.056
-502.683	264.655	0.136	0.236
-501.668	-10.641	-0.198	-0.131
-500.653	244.827	-0.148	0.248
-499.639	136.318	-0.254	0.329
-498.624	-200.000	0.048	0.405
-497.610	-152.417	0.258	0.019
-496.595	-122.207	0.236	-0.038
-495.581	-113.366	-0.057	0.011
-494.566	200.314	-0.062	-0.094
-493.551	222.622	-0.206	0.331
-492.537	-136.618	-0.111	-0.013
-491.522	92.913	0.056	0.063
-490.508	-22.762	-0.142	0.085
-489.493	87.565	-0.135	-0.148
-488.478	-157.781	0.079	-0.005
-487.464	222.419	-0.213	-0.342
-486.449	121.669	0.036	-0.045
-485.435	-200.000	0.005	0.096
-484.420	-34.861	0.244	-0.133
-483.405	-127.927	-0.074	0.011
-482.391	393.002	0.083	-0.172
-481.376	-200.000	0.035	-0.408
-480.362	800.000	-0.025	-0.094
-479.347	169.323	0.073	0.104
-478.332	-135.335	-0.318	0.038
-477.318	-57.450	0.323	0.141
-476.303	176.588	0.166	-0.240
-475.289	-108.182	-0.160	-0.034
-474.274	800.000	-0.067	0.194
-473.259	-200.000	-0.044	-0.194
-472.245	266.471	-0.096	-0.167
-471.230	-158.564	0.291	0.017
-470.216	190.245	-0.152	0.227
-469.201	-200.000	0.012	-0.202
-468.186	-44.528	-0.159	0.079
-467.172	-38.298	-0.259	-0.137
-466.157	-48.018	-0.231	-0.111
-465.143	800.000	-0.066	-0.192
-464.128	323.301	-0.204	0.387
-463.113	524.115	0.073	-0.171
-462.099	26.553	0.134	-0.112
-461.084	-200.000	0.032	0.159
-460.070	-144.321	-0.299	0.028
-459.055	133.401	0.182	0.234
-458.040	-200.000	-0.003	-0.063
-457.026	59.706	0.163	0.160
-456.011	-2.485	0.135	-0.094
-454.997	287.983	0.042	0.076
-453.982	-200.000	0.070	0.324
-452.968	-79.940	-0.299	0.100
-451.953	-11.194	0.250	0.164
-450.938	28.090	0.184	0.154
-449.924	800.000	0.026	0.075
-448.909	-165.071	0.234	0.010
-447.895	291.080	0.084	0.153
-446.880	-78.123	0.419	-0.143
-445.865	800.000	-0.037	0.155
-444.851	254.751	-0.134	0.227
-443.836	65.672	0.110	-0.111
-442.822	96.740	0.142	-0.162
-441.807	-125.477	0.200	0.030
-440.792	-43.736	0.109	-0.055
-439.778	677.059	-0.023	0.060
-438.763	-4.033	0.206	0.142
-437.749	21.574	-0.063	-0.051
-436.734	114.241	0.025	-0.031
-435.719	-79.889	-0.228	0.076
-434.705	74.025	0.097	-0.101
-433.690	28.111	-0.168	-0.141
-432.676	-178.926	-0.144	0.003
-431.661	-175.138	-0.175	0.005
-430.646	337.354	-0.162	-0.313
-429.632	83.406	-0.119	0.129
-428.617	58.878	0.175	0.171
-427.603	99.680	-0.110	-0.126
-426.588	-2.721	0.083	0.058
-425.573	-29.374	0.158	0.090
-424.559	800.000	-0.052	0.149
-423.544	-200.000	0.002	-0.025
-422.530	-200.000	0.004	-0.058
-421.515	-18.741	0.159	0.099
-420.500	-110.874	-0.233	-0.048
-419.486	-125.957	0.101	-0.015
-418.471	800.000	0.078	-0.260
-417.457	433.913	-0.167	0.359
-416.442	800.000	0.006	-0.024
-415.428	-94.792	0.186	-0.050
-414.413	-61.882	-0.259	0.108
-413.398	-176.189	0.196	0.005
-412.384	-12.510	-0.147	0.095
-411.369	-200.000	-0.018	0.108
-410.355	-153.559	-0.169	-0.012
-409.340	-104.985	-0.332	-0.076
-408.325	-200.000	0.008	-0.389
-407.311	-104.867	0.224	-0.051
-406.296	-45.617	0.142	0.070
-405.282	-193.847	-0.188	-0.002
-404.267	800.000	0.056	0.158
-403.252	77.236	0.132	-0.140
-402.238	-51.381	-0.214	-0.099
-401.223	59.032	-0.111	-0.108
-400.209	30.840	-0.150	0.127
-399.194	11.883	-0.294	0.224
-398.179	-78.154	0.124	0.042
-397.165	26.959	-0.076	0.063
-396.150	-96.752	0.274	-0.072
-395.136	24.550	-0.042	0.035
-394.121	261.625	-0.147	-0.252
-393.106	-108.682	0.141	-0.030
-392.092	223.405	0.170	-0.272
-391.077	800.000	-0.027	0.099
-390.063	33.249	0.191	0.164
-389.048	-87.770	0.083	-0.025
-388.033	-200.000	-0.003	-0.243
-387.019	-131.635	-0.149	-0.019
-386.004	-200.000	-0.033	0.273
-384.990	63.589	-0.028	-0.028
-383.975	-75.810	0.137	-0.048
-382.960	-16.526	0.329	0.207
-381.946	800.000	0.057	-0.180
-380.931	-102.249	0.264	-0.063
-379.917	-68.040	-0.207	0.080
-378.902	25.801	-0.341	0.282
-377.888	744.293	0.061	-0.163
-376.873	-67.358	0.074	0.029
-375.858	143.650	-0.118	0.155
-374.844	62.874	0.127	-0.126
-373.829	-200.000	0.042	0.285
-372.815	800.000	0.013	-0.038
-371.800	-200.000	-0.004	-0.028
-370.785	540.391	0.187	-0.441
-369.771	-52.947	0.059	0.027
-368.756	241.355	-0.126	-0.208
-367.742	-136.559	-0.266	0.031
-366.727	-6.436	-0.407	-0.275
-365.712	178.179	0.055	0.079
-364.698	679.665	-0.071	-0.184
-363.683	149.078	0.219	-0.293
-362.669	-200.000	0.008	0.344
-361.654	774.021	-0.157	0.425
-360.639	498.895	0.161	-0.368
-359.625	48.741	-0.143	0.133
-358.610	100.057	-0.139	0.160
-357.596	-49.278	0.118	0.056
-356.581	-36.518	0.115	0.061
-355.566	800.000	-0.053	0.201
-354.552	800.000	0.073	0.232
-353.537	789.428	-0.047	-0.128
-352.523	51.761	-0.174	-0.164
-351.508	800.000	-0.087	-0.308
-350.493	61.212	0.064	-0.063
-349.479	800.000	-0.125	0.390
-348.464	-110.982	-0.288	-0.059
-347.450	-77.108	-0.237	0.082
-346.435	-118.750	0.380	-0.066
-345.420	-48.096	0.239	-0.115
-344.406	-108.754	0.160	0.034
-343.391	-200.000	-0.018	0.231
-342.377	25.111	-0.269	0.221
-341.362	800.000	-0.065	-0.214
-340.348	-200.000	-0.022	-0.285
-339.333	418.231	-0.061	0.130
-338.318	-200.000	0.018	-0.116
-337.304	800.000	-0.030	0.103
-336.289	-51.898	-0.141	0.065
-335.275	-104.513	-0.315	0.072
-334.260	-129.421	0.124	0.017
-333.245	-13.076	0.106	0.068
-332.231	-64.127	-0.217	-0.087
-331.216	-72.473	-0.192	0.070
-330.202	-167.521	0.160	-0.006
-329.187	539.164	0.112	0.263
-328.172	-94.113	0.235	-0.064
-327.158	591.788	0.134	0.327
-326.143	41.784	0.192	-0.173
-325.129	-200.000	-0.010	0.203
-324.114	115.171	0.139	0.168
-323.099	146.720	-0.075	-0.099
-322.085	-30.233	0.173	0.097
-321.070	-39.317	-0.148	0.077
-320.056	150.580	-0.071	0.095
-319.041	-200.000	0.017	-0.165
-318.026	384.730	-0.107	0.219
-317.012	-179.715	-0.154	-0.003
-315.997	-198.001	-0.115	-0.001
-314.983	800.000	-0.050	-0.189
-313.968	-137.106	-0.312	0.035
-312.953	56.009	0.253	-0.243
-311.939	-103.380	0.182	0.042
-310.924	-31.318	0.179	-0.100
-309.910	800.000	0.075	-0.276
-308.895	34.828	0.172	0.149
-307.880	800.000	-0.018	0.072
-306.866	50.707	0.084	-0.078
-305.851	425.208	-0.135	0.287
-304.837	-95.784	-0.137	0.036
-303.822	-187.389	0.284	0.004
-302.807	-27.185	0.129	-0.074
-301.793	11.124	0.212	-0.160
-300.778	-13.438	-0.102	-0.065
-299.764	-136.111	-0.071	-0.008
-298.749	-42.470	-0.215	-0.108
-297.735	-111.133	0.208	-0.042
-296.720	-7.446	0.158	0.106
-295.705	-132.512	-0.257	-0.033
-294.691	-200.000	0.056	0.519
-293.676	800.000	-0.036	-0.100
-292.662	-20.508	0.099	0.060
-291.647	-93.025	0.174	0.048
-290.632	86.699	0.069	0.076
-289.618	-200.000	0.021	-0.163
-288.603	-108.053	0.516	-0.111
-287.589	-72.367	0.278	-0.102
-286.574	-82.031	0.354	-0.114
-285.559	238.179	0.254	-0.417
-284.545	-200.000	-0.037	-0.178
-283.530	29.731	-0.184	0.154
-282.516	800.000	-0.026	0.097
-281.501	46.000	0.081	-0.074
-280.486	161.540	-0.140	0.193
-279.472	-200.000	-0.006	0.045
-278.457	-92.273	0.242	-0.067
-277.443	-73.140	0.257	0.093
-276.428	6.498	-0.234	-0.172
-275.413	-68.016	-0.227	0.088
-274.399	-103.778	-0.022	0.005
-273.384	-200.000	-0.029	-0.238
-272.370	-200.000	-0.056	0.510
-271.355	-176.182	-0.398	-0.010
-270.340	22.217	0.027	0.022
-269.326	24.070	-0.018	-0.015
-268.311	-160.760	0.189	0.010
-267.297	-46.328	0.302	0.146
-266.282	-200.000	0.031	0.162
-265.267	170.133	-0.067	-0.095
-264.253	352.177	-0.089	-0.174
-263.238	-138.467	-0.068	0.007
-262.224	-140.978	-0.226	-0.023
-261.209	800.000	-0.061	0.196
-260.195	-200.000	-0.071	0.480
-259.180	279.473	-0.068	0.120
-258.165	12.952	0.266	-0.203
-257.151	-56.849	-0.165	-0.072
-256.136	-94.386	-0.236	0.063
-255.122	-57.939	-0.492	0.212
-254.107	-117.245	0.316	-0.057
-253.092	438.703	0.163	0.350
-252.078	-74.371	-0.095	0.034
-251.063	-200.000	0.023	-0.360
-250.049	351.289	-0.163	-0.319
-249.034	-119.851	0.133	-0.023
-248.019	-200.000	0.000	-0.021
-247.005	-94.723	-0.118	-0.032
-245.990	-80.783	-0.323	-0.106
-244.976	-91.100	0.273	0.077
-243.961	272.597	0.066	-0.114
-242.946	-115.781	0.242	-0.045
-241.932	89.366	0.057	0.063
-240.917	-175.324	0.304	-0.008
-239.903	800.000	-0.094	0.304
-238.888	-55.000	-0.386	0.171
-237.873	482.375	-0.033	0.073
-236.859	-77.290	0.108	0.037
-235.844	77.249	0.132	-0.138
-234.830	185.844	0.119	0.174
-233.815	-70.114	-0.428	-0.160
-232.800	504.267	0.165	0.377
-231.786	800.000	-0.058	-0.180
-230.771	129.433	0.091	0.115
-229.757	800.000	-0.058	0.161
-228.742	-75.549	-0.331	0.116
-227.727	169.506	-0.166	0.234
-226.713	-200.000	0.005	-0.068
-225.698	-84.225	-0.130	0.040
-224.684	-103.130	-0.245	-0.057
-223.669	-61.790	0.245	0.101
-222.655	800.000	-0.041	0.168
-221.640	111.659	0.113	0.135
-220.625	232.895	0.161	-0.261
-219.611	-132.242	-0.307	-0.039
-218.596	-43.941	0.233	0.115
-217.582	258.877	0.107	0.181
-216.567	-55.213	0.290	-0.128
-215.552	-110.661	-0.135	0.027
-214.538	-145.950	-0.290	-0.025
-213.523	35.842	0.175	-0.152
-212.509	275.480	-0.165	-0.288
-211.494	0.417	-0.045	0.032
-210.479	-39.822	-0.115	0.059
-209.465	-87.269	0.214	-0.064
-208.450	300.291	-0.062	-0.113
-207.436	-106.709	0.309	0.068
-206.421	-182.766	-0.204	-0.004
-205.406	123.395	0.096	0.119
-204.392	133.100	0.121	0.154
-203.377	-200.000	-0.020	-0.147
-202.363	-126.388	-0.228	-0.033
-201.348	512.331	-0.092	0.212
-200.333	8.722	0.150	-0.112
-199.319	800.000	0.018	0.066
-198.304	-58.954	-0.193	0.082
-197.290	-120.710	0.331	-0.055
-196.275	-114.610	0.182	0.034
-195.260	3.884	0.131	-0.094
-194.246	800.000	0.059	0.242
-193.231	118.065	-0.076	0.092
-192.217	9.051	-0.208	-0.155
-191.202	187.330	0.033	-0.048
-190.187	-157.891	0.254	-0.015
-189.173	-146.088	0.282	-0.025
-188.158	-15.846	0.083	-0.052
-187.144	-167.895	0.099	0.004
-186.129	-200.000	0.001	-0.255
-185.114	800.000	0.055	-0.184
-184.100	112.602	0.132	-0.157
-183.085	-10.988	-0.145	0.094
-182.071	-43.121	0.216	-0.107
-181.056	-135.240	0.155	-0.018
-180.042	-200.000	-0.030	0.150
-179.027	23.255	0.247	-0.199
-178.012	-129.897	0.282	-0.038
-176.998	405.329	0.081	-0.167
-175.983	7.106	0.257	0.188
-174.969	717.591	0.121	-0.316
-173.954	9.283	-0.216	0.161
-172.939	-200.000	-0.005	0.089
-171.925	-37.015	0.129	-0.068
-170.910	-29.886	0.435	0.244
-169.896	-158.144	0.248	0.014
-168.881	26.600	-0.080	-0.066
-167.866	-36.331	0.221	-0.117
-166.852	-39.911	-0.017	0.009
-165.837	-144.290	0.069	0.006
-164.823	800.000	-0.120	0.327
-163.808	800.000	0.046	0.127
-162.793	165.101	-0.042	-0.059
-161.779	-115.135	0.369	-0.069
-160.764	-200.000	0.021	-0.150
-159.750	-40.863	-0.160	0.081
-158.735	-200.000	-0.055	0.430
-157.720	172.718	-0.079	-0.111
-156.706	-104.520	-0.056	-0.013
-155.691	237.187	-0.107	-0.174
-154.677	435.353	0.116	-0.247
-153.662	-17.000	0.073	0.046
-152.647	-200.000	0.013	0.060
-151.633	-6.141	-0.562	-0.377
-150.618	-200.000	0.018	0.257
-149.604	274.050	0.122	-0.212
-148.589	-72.438	0.489	-0.178
-147.574	800.000	-0.073	0.282
-146.560	-200.000	-0.035	-0.316
-145.545	39.826	0.129	-0.114
-144.531	-200.000	-0.001	0.074
-143.516	697.371	-0.027	0.070
-142.502	655.624	0.096	-0.241
-141.487	-125.129	-0.117	0.018
-140.472	-121.099	-0.265	-0.044
-139.458	72.595	0.109	-0.112
-138.443	-132.050	0.056	-0.007
-137.429	-88.983	-0.154	-0.045
-136.414	-1.419	0.046	-0.032
-135.399	300.385	-0.091	0.166
-134.385	648.248	-0.085	0.214
-133.370	94.543	-0.133	-0.149
-132.356	22.745	0.143	-0.115
-131.341	344.958	0.044	0.085
-130.326	-102.604	-0.298	0.070
-129.312	214.789	0.123	0.191
-128.297	75.332	-0.147	0.153
-127.283	450.548	0.009	-0.020
-126.268	306.571	0.051	0.093
-125.253	402.382	-0.103	-0.212
-124.239	-200.000	0.000	0.060
-123.224	-89.853	-0.197	0.057
-122.210	412.807	0.005	-0.011
