DTS Sentinel unit serial number:	SN413079Multiplexer serial number:	ORYXHardware model number:	OX4-SRSoftware version number:	ORYX F/W v4.00 Oryx Data Collector v3.7.2.0data status	okinstallation	princeton_trtdifferential loss correction	single-endedforward channel	channel 2reverse channel	N/Adate	2019/09/18time	05:23:35forward acquisition time	60.00reverse acquisition time	0.00gamma	496.2192k internal	0.2349k external	0.2349temperature offset calibration	0.9983default loss term (dB/km)	0.3790temperature slope calibration	1.0000multiplexer offset coefficient	1.0000multiplexer slope coefficient	1.0000fibre end	0.00T internal ref (°C)	23.48T ext. ref 1 (°C)	0.19T ext. ref 2 (°C)	17.18length (m)	temperature (°C)	Stokes	anti-Stokes-747.200	-102.181	0.264	0.064
-746.185	86.890	-0.111	0.122
-745.171	-99.876	-0.137	0.034
-744.156	-140.586	-0.202	-0.021
-743.142	486.291	-0.076	0.173
-742.127	-47.777	0.082	0.040
-741.112	-87.833	0.210	0.063
-740.098	300.340	0.111	0.204
-739.083	-200.000	0.030	0.272
-738.069	-163.477	-0.041	0.002
-737.054	165.100	-0.045	-0.064
-736.039	-9.988	-0.216	0.143
-735.025	-200.000	-0.018	0.220
-734.010	-200.000	0.039	-0.282
-732.996	27.216	-0.210	0.176
-731.981	-50.738	-0.113	0.053
-730.966	-200.000	0.022	-0.255
-729.952	452.763	-0.088	-0.194
-728.937	-161.832	-0.176	-0.009
-727.923	-19.620	-0.412	-0.255
-726.908	-40.442	-0.315	-0.163
-725.894	-200.000	-0.012	-0.211
-724.879	-130.087	0.257	-0.035
-723.864	800.000	0.097	-0.279
-722.850	-94.522	0.085	0.023
-721.835	-102.202	0.312	-0.075
-720.821	209.840	-0.033	-0.052
-719.806	-1.322	-0.114	0.080
-718.791	53.730	-0.229	0.220
-717.777	-200.000	0.003	0.141
-716.762	-20.958	0.114	-0.070
-715.748	125.584	0.253	-0.318
-714.733	222.723	0.111	-0.179
-713.718	742.518	0.085	0.228
-712.704	654.357	-0.016	-0.042
-711.689	-39.277	0.167	0.087
-710.675	800.000	0.076	-0.302
-709.660	800.000	0.162	-0.459
-708.645	162.093	-0.096	-0.134
-707.631	-61.465	0.113	-0.047
-706.616	-200.000	-0.029	0.396
-705.602	-59.058	0.208	-0.090
-704.587	455.903	-0.038	-0.084
-703.572	-162.277	0.259	-0.013
-702.558	73.459	-0.131	-0.136
-701.543	-72.531	0.074	-0.027
-700.529	498.088	-0.148	0.341
-699.514	7.845	-0.246	-0.184
-698.499	30.395	-0.089	0.076
-697.485	-121.539	0.194	-0.032
-696.470	-186.160	0.080	0.001
-695.456	-113.729	0.160	-0.031
-694.441	-175.418	0.130	0.004
-693.426	339.966	0.168	-0.327
-692.412	-200.000	-0.008	-0.435
-691.397	-200.000	0.049	0.226
-690.383	-200.000	0.014	0.209
-689.368	-39.369	-0.175	0.092
-688.354	-43.828	-0.037	-0.019
-687.339	-80.069	-0.394	0.132
-686.324	-2.640	0.245	0.171
-685.310	-177.883	0.162	0.004
-684.295	-200.000	0.009	-0.255
-683.281	36.669	-0.197	-0.174
-682.266	800.000	-0.038	-0.124
-681.251	800.000	-0.063	-0.241
-680.237	-153.577	-0.157	0.011
-679.222	-200.000	-0.031	-0.404
-678.208	-140.115	-0.122	-0.013
-677.193	-35.081	-0.190	0.103
-676.178	-107.532	0.328	0.072
-675.164	431.627	-0.186	-0.402
-674.149	-46.963	0.307	-0.149
-673.135	-30.718	0.294	0.166
-672.120	-97.951	-0.118	-0.030
-671.105	-154.876	-0.192	0.013
-670.091	-200.000	-0.035	0.326
-669.076	-152.729	-0.203	-0.014
-668.062	58.310	-0.122	-0.119
-667.047	40.213	-0.119	0.107
-666.032	-59.368	0.440	0.188
-665.018	-6.809	-0.260	0.176
-664.003	-200.000	-0.038	-0.317
-662.989	-200.000	0.015	-0.263
-661.974	-127.414	0.181	0.026
-660.959	-200.000	-0.035	-0.163
-659.945	-116.151	0.395	0.073
-658.930	9.772	-0.153	0.116
-657.916	-140.759	-0.257	0.026
-656.901	800.000	-0.072	0.282
-655.886	-75.610	0.063	-0.022
-654.872	753.167	0.116	0.312
-653.857	9.264	0.084	-0.063
-652.843	-123.995	-0.227	0.035
-651.828	-158.408	0.129	-0.007
-650.814	800.000	0.077	0.222
-649.799	-76.746	0.090	-0.031
-648.784	-46.207	0.333	-0.163
-647.770	-12.032	0.153	0.100
-646.755	-200.000	-0.017	0.238
-645.741	-200.000	-0.026	-0.140
-644.726	-60.016	0.051	-0.021
-643.711	156.863	-0.178	0.245
-642.697	-96.713	0.177	-0.046
-641.682	-107.622	-0.300	-0.065
-640.668	-73.900	0.092	-0.033
-639.653	-103.836	0.390	-0.091
-638.638	800.000	0.019	-0.069
-637.624	600.348	0.051	-0.125
-636.609	800.000	-0.115	-0.430
-635.595	-200.000	-0.036	0.187
-634.580	-136.629	-0.321	0.037
-633.565	77.187	-0.383	-0.405
-632.551	294.555	0.122	-0.223
-631.536	176.203	-0.133	0.192
-630.522	11.125	-0.077	0.059
-629.507	50.435	-0.122	-0.115
-628.492	-146.909	-0.496	-0.042
-627.478	624.785	-0.130	0.325
-626.463	-99.154	-0.203	0.051
-625.449	-5.392	-0.094	-0.064
-624.434	273.281	0.137	0.241
-623.419	-53.030	0.177	0.081
-622.405	337.108	-0.029	-0.057
-621.390	-200.000	-0.001	0.257
-620.376	135.577	0.223	-0.288
-619.361	250.107	-0.037	0.062
-618.346	-30.057	-0.152	0.086
-617.332	225.896	-0.127	-0.204
-616.317	477.145	-0.101	0.227
-615.303	113.118	0.052	-0.063
-614.288	19.581	0.296	0.236
-613.273	-200.000	0.008	-0.533
-612.259	-200.000	-0.020	-0.191
-611.244	-96.607	-0.261	-0.068
-610.230	-200.000	-0.009	-0.254
-609.215	-2.910	0.349	0.242
-608.201	11.212	0.312	-0.237
-607.186	-92.451	-0.221	-0.062
-606.171	-200.000	-0.008	0.439
-605.157	-25.050	-0.053	-0.031
-604.142	41.015	-0.162	-0.145
-603.128	245.294	0.027	0.046
-602.113	-61.048	0.123	-0.051
-601.098	24.190	-0.114	-0.094
-600.084	-20.738	0.248	0.151
-599.069	-200.000	-0.007	0.036
-598.055	800.000	0.008	-0.030
-597.040	-200.000	-0.026	-0.343
-596.025	-38.710	0.201	0.106
-595.011	210.506	-0.189	-0.294
-593.996	-95.120	-0.166	-0.044
-592.982	247.092	0.121	0.202
-591.967	-11.354	0.269	0.176
-590.952	-200.000	-0.018	0.250
-589.938	150.428	-0.086	-0.116
-588.923	48.702	-0.024	-0.023
-587.909	108.935	-0.077	-0.092
-586.894	-117.652	-0.444	-0.079
-585.879	-17.351	0.295	0.184
-584.865	-88.004	0.059	0.018
-583.850	800.000	-0.061	-0.190
-582.836	-200.000	-0.010	-0.190
-581.821	-127.370	-0.218	-0.032
-580.806	-200.000	-0.097	-0.451
-579.792	265.147	0.086	-0.149
-578.777	-200.000	0.067	-0.354
-577.763	396.239	-0.077	-0.160
-576.748	-16.576	0.298	-0.187
-575.733	800.000	-0.056	-0.208
-574.719	-65.044	-0.209	0.084
-573.704	299.252	0.067	0.122
-572.690	477.867	-0.102	0.228
-571.675	-200.000	-0.019	0.248
-570.661	340.627	-0.054	0.105
-569.646	-76.730	-0.123	0.043
-568.631	-200.000	0.043	0.411
-567.617	-200.000	-0.044	0.327
-566.602	-136.078	-0.331	0.039
-565.588	-33.985	0.120	0.066
-564.573	800.000	-0.074	0.307
-563.558	-154.178	0.296	-0.020
-562.544	-21.551	-0.085	-0.051
-561.529	46.555	0.157	-0.144
-560.515	-96.066	-0.128	-0.034
-559.500	-200.000	0.000	-0.032
-558.485	-43.272	-0.117	-0.059
-557.471	79.933	0.201	-0.214
-556.456	727.630	-0.216	0.572
-555.442	-159.691	-0.208	-0.011
-554.427	133.326	-0.108	-0.139
-553.412	318.416	-0.126	-0.236
-552.398	-103.860	0.189	0.044
-551.383	316.334	0.195	-0.364
-550.369	-112.165	-0.309	-0.061
-549.354	63.470	-0.257	-0.255
-548.339	-200.000	-0.022	-0.212
-547.325	103.548	0.243	-0.283
-546.310	339.470	0.141	0.272
-545.296	800.000	0.107	-0.375
-544.281	48.158	0.150	0.139
-543.266	7.365	-0.082	-0.061
-542.252	-44.188	-0.256	0.127
-541.237	-200.000	0.012	0.186
-540.223	81.961	0.079	0.085
-539.208	210.477	-0.118	0.184
-538.193	287.036	0.245	-0.439
-537.179	800.000	-0.033	0.100
-536.164	-9.689	-0.255	-0.168
-535.150	-7.373	-0.114	0.076
-534.135	22.997	0.219	-0.178
-533.121	-93.777	0.355	0.097
-532.106	131.241	-0.149	0.190
-531.091	-57.094	-0.067	-0.029
-530.077	-200.000	0.023	0.172
-529.062	-63.979	-0.328	-0.133
-528.048	-50.768	0.300	-0.140
-527.033	-135.319	0.132	0.016
-526.018	46.499	0.131	0.121
-525.004	-47.361	0.284	-0.137
-523.989	-200.000	-0.114	-0.517
-522.975	-80.861	-0.079	-0.026
-521.960	-7.582	0.199	0.133
-520.945	-128.513	-0.296	0.042
-519.931	231.585	-0.144	-0.235
-518.916	113.269	-0.101	-0.121
-517.902	-10.596	0.082	-0.054
-516.887	800.000	-0.044	-0.174
-515.872	800.000	0.045	-0.183
-514.858	-77.606	0.122	0.042
-513.843	-17.590	-0.041	-0.025
-512.829	-53.434	0.253	-0.115
-511.814	80.405	0.049	-0.052
-510.799	-35.901	-0.177	0.095
-509.785	233.510	0.192	-0.313
-508.770	800.000	0.026	0.074
-507.756	-31.839	-0.180	-0.100
-506.741	-138.495	0.282	-0.031
-505.726	69.340	-0.060	0.061
-504.712	108.234	-0.221	-0.261
-503.697	41.906	0.096	-0.086
-502.683	51.813	0.256	0.241
-501.668	363.816	0.018	0.036
-500.653	144.939	-0.141	0.186
-499.639	304.956	0.086	0.158
-498.624	-71.379	0.095	0.035
-497.610	363.523	-0.277	-0.551
-496.595	-77.698	0.269	0.092
-495.581	311.710	0.196	-0.364
-494.566	-124.723	-0.254	0.039
-493.551	151.042	0.078	0.105
-492.537	-80.486	-0.437	-0.144
-491.522	237.966	-0.108	-0.176
-490.508	300.352	0.195	-0.356
-489.493	-18.114	0.140	-0.087
-488.478	482.988	-0.118	-0.264
-487.464	789.624	0.018	-0.048
-486.449	471.353	-0.156	0.346
-485.435	-200.000	-0.004	0.060
-484.420	-124.867	0.219	0.033
-483.405	89.319	0.139	-0.153
-482.391	-59.486	0.334	0.142
-481.376	-200.000	-0.011	-0.121
-480.362	-76.559	0.038	-0.013
-479.347	177.476	-0.168	0.242
-478.332	-142.875	0.188	-0.018
-477.318	-32.520	-0.156	0.086
-476.303	800.000	0.072	-0.211
-475.289	-200.000	0.023	-0.290
-474.274	155.998	-0.055	0.075
-473.259	-200.000	0.007	-0.373
-472.245	290.571	0.064	0.114
-471.230	-177.839	-0.314	-0.007
-470.216	-154.191	-0.129	0.009
-469.201	-168.392	0.039	0.001
-468.186	131.784	0.160	-0.203
-467.172	36.650	0.031	-0.027
-466.157	-29.385	-0.140	-0.079
-465.143	800.000	0.154	-0.431
-464.128	734.931	0.010	-0.027
-463.113	-158.376	-0.199	0.011
-462.099	-200.000	0.013	-0.085
-461.084	-193.275	-0.105	-0.001
-460.070	358.875	0.068	-0.134
-459.055	-197.672	0.218	0.001
-458.040	-195.036	0.233	-0.002
-457.026	48.565	-0.134	-0.124
-456.011	-200.000	-0.026	-0.314
-454.997	800.000	0.071	-0.227
-453.982	-31.018	0.174	0.097
-452.968	800.000	0.028	-0.103
-451.953	800.000	0.025	0.077
-450.938	-176.076	-0.126	-0.003
-449.924	-79.361	-0.439	-0.147
-448.909	-0.291	-0.092	-0.064
-447.895	-51.518	-0.096	-0.044
-446.880	-82.484	0.066	0.021
-445.865	-99.181	0.139	0.035
-444.851	-51.890	0.033	0.015
-443.836	551.296	-0.119	0.282
-442.822	501.209	0.036	0.082
-441.807	268.459	0.131	-0.228
-440.792	247.971	0.157	0.261
-439.778	-16.759	0.203	-0.127
-438.763	800.000	0.075	0.283
-437.749	-164.448	0.032	-0.001
-436.734	-39.066	-0.051	0.027
-435.719	-192.199	0.507	0.005
-434.705	-200.000	-0.013	0.379
-433.690	108.450	-0.176	-0.208
-432.676	-37.087	-0.081	-0.043
-431.661	114.096	-0.085	-0.102
-430.646	-114.652	0.262	0.050
-429.632	800.000	-0.088	0.298
-428.617	-23.533	0.285	-0.169
-427.603	800.000	0.023	0.068
-426.588	23.032	0.180	0.145
-425.573	92.524	-0.060	-0.067
-424.559	-46.517	-0.119	0.058
-423.544	28.798	0.107	-0.089
-422.530	30.365	0.058	-0.049
-421.515	-123.394	-0.216	-0.034
-420.500	52.804	0.322	0.304
-419.486	-200.000	-0.047	0.225
-418.471	800.000	0.072	0.202
-417.457	-181.829	-0.243	-0.005
-416.442	-98.078	0.286	-0.073
-415.428	21.399	0.157	0.126
-414.413	-189.153	0.200	0.002
-413.398	186.217	-0.154	-0.226
-412.384	-17.862	-0.259	0.160
-411.369	89.457	-0.032	-0.036
-410.355	63.847	0.105	-0.104
-409.340	-200.000	0.012	0.328
-408.325	52.344	-0.211	0.199
-407.311	9.592	0.202	0.151
-406.296	248.653	-0.099	0.165
-405.282	405.144	-0.102	0.212
-404.267	-108.418	-0.126	0.027
-403.252	206.720	0.122	0.188
-402.238	-200.000	-0.020	0.158
-401.223	-200.000	0.016	0.289
-400.209	-29.134	-0.090	0.051
-399.194	-200.000	-0.017	0.099
-398.179	-136.915	0.089	-0.010
-397.165	800.000	-0.109	-0.318
-396.150	55.287	-0.149	-0.142
-395.136	97.024	-0.158	-0.179
-394.121	-200.000	0.020	-0.152
-393.106	-148.046	-0.209	0.017
-392.092	-94.884	-0.126	-0.034
-391.077	243.320	-0.083	0.137
-390.063	-112.550	-0.266	-0.052
-389.048	-108.175	-0.025	-0.005
-388.033	-121.489	-0.265	0.043
-387.019	-164.819	0.211	-0.009
-386.004	218.343	0.101	0.159
-384.990	-146.042	-0.239	-0.021
-383.975	-142.395	0.185	0.018
-382.960	-200.000	0.046	0.380
-381.946	-165.983	0.283	-0.012
-380.931	-84.890	-0.227	-0.070
-379.917	-200.000	0.090	-0.441
-378.902	-45.799	-0.277	-0.135
-377.888	-200.000	0.434	0.002
-376.873	-189.962	0.320	-0.004
-375.858	-200.000	0.002	0.356
-374.844	-165.833	-0.232	0.010
-373.829	118.188	0.173	-0.210
-372.815	-84.184	0.359	0.112
-371.800	220.208	0.143	0.226
-370.785	-22.030	-0.232	-0.139
-369.771	174.851	0.142	0.203
-368.756	-9.097	-0.240	0.158
-367.742	211.767	-0.076	0.118
-366.727	-200.000	0.010	-0.224
-365.712	15.462	-0.277	0.214
-364.698	800.000	-0.025	-0.087
-363.683	-200.000	-0.003	0.135
-362.669	800.000	-0.078	0.236
-361.654	306.573	-0.048	0.087
-360.639	-200.000	-0.005	0.093
-359.625	-75.735	0.278	-0.097
-358.610	11.905	-0.030	-0.023
-357.596	6.610	0.176	0.129
-356.581	417.477	0.090	0.189
-355.566	-35.831	-0.081	-0.043
-354.552	-200.000	0.046	0.200
-353.537	-200.000	-0.008	0.161
-352.523	-119.929	0.062	0.011
-351.508	541.470	-0.175	0.410
-350.493	-8.953	-0.024	-0.016
-349.479	-200.000	0.040	0.305
-348.464	-47.359	0.108	-0.052
-347.450	372.954	0.070	0.140
-346.435	143.341	0.153	0.201
-345.420	37.683	0.242	0.211
-344.406	225.161	-0.133	0.212
-343.391	-80.152	0.227	0.075
-342.377	-200.000	-0.014	0.113
-341.362	-132.595	-0.104	-0.013
-340.348	306.300	0.106	-0.194
-339.333	310.974	0.124	0.228
-338.318	-200.000	0.011	0.098
-337.304	-40.606	0.065	-0.033
-336.289	430.374	0.018	0.038
-335.275	776.061	-0.045	-0.121
-334.260	59.976	-0.254	-0.246
-333.245	800.000	0.089	-0.250
-332.231	-200.000	0.017	-0.092
-331.216	302.992	-0.185	0.336
-330.202	115.356	0.151	0.181
-329.187	800.000	-0.079	-0.223
-328.172	309.997	-0.068	0.126
-327.158	-29.587	0.392	-0.220
-326.143	524.516	-0.017	-0.039
-325.129	-109.854	0.192	-0.040
-324.114	-42.796	-0.333	-0.166
-323.099	54.105	0.104	-0.098
-322.085	-32.706	-0.164	0.090
-321.070	371.994	-0.089	0.177
-320.056	-59.900	-0.371	0.156
-319.041	323.494	-0.159	-0.297
-318.026	-61.450	0.299	0.124
-317.012	-81.429	0.146	0.047
-315.997	-88.858	0.194	0.057
-314.983	-56.066	-0.300	0.131
-313.968	-96.247	0.398	-0.104
-312.953	-157.189	-0.284	-0.017
-311.939	196.438	0.096	0.143
-310.924	-82.615	-0.209	0.067
-309.910	10.728	0.311	0.233
-308.895	547.393	-0.045	0.107
-307.880	387.349	0.050	-0.102
-306.866	-200.000	-0.049	-0.299
-305.851	-156.038	-0.356	0.022
-304.837	800.000	0.111	0.321
-303.822	137.828	0.134	-0.173
-302.807	235.559	0.076	-0.123
-301.793	87.497	-0.289	-0.314
-300.778	800.000	-0.086	-0.286
-299.764	-22.023	-0.263	0.157
-298.749	-50.352	-0.547	0.254
-297.735	-111.211	0.213	0.043
-296.720	226.190	-0.091	0.145
-295.705	-200.000	-0.065	0.398
-294.691	149.433	0.116	-0.154
-293.676	800.000	-0.064	-0.253
-292.662	-128.703	0.302	-0.042
-291.647	800.000	0.061	-0.175
-290.632	-45.802	0.123	-0.060
-289.618	-154.236	0.298	0.020
-288.603	-50.489	-0.508	-0.235
-287.589	181.621	0.055	0.079
-286.574	123.636	-0.103	0.127
-285.559	19.653	0.115	0.091
-284.545	-200.000	0.032	-0.161
-283.530	-116.337	0.345	0.063
-282.516	59.374	0.074	0.072
-281.501	95.739	0.077	-0.086
-280.486	-200.000	-0.018	0.467
-279.472	171.247	0.115	0.162
-278.457	-65.526	0.185	-0.073
-277.443	-4.849	0.119	0.080
-276.428	-11.303	-0.048	0.031
-275.413	-200.000	-0.056	-0.269
-274.399	800.000	0.086	-0.304
-273.384	-40.511	0.012	0.006
-272.370	-200.000	-0.006	0.070
-271.355	-23.629	0.151	-0.089
-270.340	-73.998	-0.149	0.053
-269.326	800.000	-0.045	-0.189
-268.311	-126.735	0.258	-0.037
-267.297	-200.000	-0.040	-0.263
-266.282	-200.000	0.043	0.194
-265.267	-113.020	0.110	0.021
-264.253	800.000	-0.087	-0.251
-263.238	184.875	-0.047	0.068
-262.224	-71.172	-0.225	-0.083
-261.209	269.720	-0.090	-0.156
-260.195	9.643	0.161	-0.120
-259.180	131.928	0.052	-0.065
-258.165	-200.000	-0.077	-0.433
-257.151	-5.720	-0.164	0.110
-256.136	-79.175	0.391	0.130
-255.122	-85.203	-0.289	0.089
-254.107	112.061	0.170	-0.201
-253.092	72.188	-0.080	0.082
-252.078	-130.389	0.153	-0.020
-251.063	-200.000	-0.004	-0.123
-250.049	-110.544	0.230	-0.047
-249.034	-121.476	-0.184	-0.030
-248.019	162.764	-0.111	0.153
-247.005	562.660	-0.039	-0.093
-245.990	-96.902	0.143	-0.037
-244.976	-1.262	-0.345	-0.239
-243.961	170.417	0.187	0.262
-242.946	109.374	-0.170	-0.199
-241.932	188.083	0.098	0.143
-240.917	234.531	-0.042	-0.068
-239.903	-200.000	0.032	0.243
-238.888	-200.000	0.002	0.111
-237.873	110.609	-0.145	0.171
-236.859	148.550	0.198	0.262
-235.844	17.295	-0.251	0.195
-234.830	-86.320	0.067	-0.020
-233.815	-78.552	-0.387	0.130
-232.800	-150.248	0.182	-0.014
-231.786	-200.000	-0.002	0.311
-230.771	-69.465	-0.262	0.098
-229.757	539.412	0.079	0.183
-228.742	-105.547	0.183	-0.041
-227.727	-48.678	0.168	-0.079
-226.713	-108.563	0.173	-0.036
-225.698	-200.000	-0.054	-0.287
-224.684	-108.349	-0.214	0.045
-223.669	40.524	-0.083	0.074
-222.655	-38.439	-0.140	-0.073
-221.640	6.214	0.070	-0.050
-220.625	-164.434	-0.300	0.013
-219.611	185.341	-0.124	0.180
-218.596	793.298	0.139	0.374
-217.582	-62.422	-0.230	-0.094
-216.567	641.299	0.111	0.275
-215.552	-24.173	0.151	-0.088
-214.538	800.000	-0.031	-0.088
-213.523	-69.638	-0.278	0.104
-212.509	1.927	-0.223	0.157
-211.494	370.202	0.094	0.187
-210.479	175.183	-0.237	-0.336
-209.465	-155.669	0.321	0.020
-208.450	-49.275	0.222	-0.104
-207.436	-200.000	-0.036	0.250
-206.421	-56.417	-0.088	-0.038
-205.406	-95.097	0.291	-0.077
-204.392	379.755	0.113	-0.226
-203.377	-170.897	-0.301	0.010
-202.363	-200.000	-0.018	0.306
-201.348	800.000	-0.059	0.199
-200.333	-200.000	-0.015	0.090
-199.319	-32.857	0.089	-0.048
-198.304	287.749	0.131	0.232
-197.290	-49.494	0.355	0.165
-196.275	-75.189	0.156	0.055
-195.260	-96.567	-0.260	-0.067
-194.246	-27.667	0.147	0.083
-193.231	-119.552	-0.201	0.034
-192.217	374.265	0.223	0.445
-191.202	88.357	-0.122	0.133
-190.187	-122.020	0.191	-0.031
-189.173	800.000	-0.030	-0.127
-188.158	-39.308	0.153	-0.078
-187.144	-200.000	0.048	0.277
-186.129	-200.000	-0.053	-0.237
-185.114	101.472	-0.293	-0.334
-184.100	-200.000	-0.007	0.117
-183.085	-200.000	-0.078	-0.351
-182.071	459.230	-0.072	0.157
-181.056	-72.040	0.244	-0.089
-180.042	6.336	-0.241	0.175
-179.027	-200.000	-0.015	-0.146
-178.012	742.102	0.123	0.323
-176.998	6.326	0.078	0.057
-175.983	-28.150	-0.056	0.032
-174.969	177.771	0.038	0.054
-173.954	-20.412	-0.192	-0.116
-172.939	123.502	-0.175	0.214
-171.925	-145.650	-0.119	0.010
-170.910	-107.729	-0.169	0.036
-169.896	292.194	-0.074	-0.132
-168.881	800.000	-0.024	-0.074
-167.866	-185.657	-0.153	0.002
-166.852	-200.000	-0.016	-0.311
-165.837	-68.291	-0.071	0.027
-164.823	-40.067	0.318	-0.162
-163.808	280.378	-0.101	-0.177
-162.793	680.460	0.079	0.202
-161.779	27.050	0.257	0.210
-160.764	236.973	0.086	-0.139
-159.750	800.000	-0.022	-0.061
-158.735	800.000	-0.032	0.134
-157.720	800.000	-0.083	0.333
-156.706	-33.889	0.301	-0.162
-155.691	5.300	-0.215	-0.155
-154.677	-104.716	0.093	-0.021
-153.662	-200.000	0.011	-0.069
-152.647	152.763	0.101	0.134
-151.633	-142.526	-0.217	0.021
-150.618	98.163	-0.094	0.106
-149.604	-200.000	0.042	-0.242
-148.589	-114.022	0.102	0.019
-147.574	170.809	-0.086	-0.120
-146.560	-88.426	0.249	-0.072
-145.545	-100.407	-0.315	-0.076
-144.531	-124.939	-0.173	0.026
-143.516	-28.992	-0.289	-0.162
-142.502	59.026	0.098	-0.094
-141.487	124.951	0.117	0.144
-140.472	161.706	0.161	-0.220
-139.458	800.000	0.179	-0.510
-138.443	475.769	0.120	-0.263
-137.429	222.145	-0.050	0.079
-136.414	-200.000	0.040	-0.189
-135.399	-108.626	0.183	0.038
-134.385	-127.554	0.131	0.019
-133.370	18.528	-0.272	0.212
-132.356	-84.152	0.165	0.051
-131.341	309.984	0.111	0.202
-130.326	-81.945	-0.065	0.021
-129.312	-20.951	-0.253	0.151
-128.297	800.000	-0.115	-0.424
-127.283	3.541	0.210	0.149
-126.268	-2.872	0.452	0.308
-125.253	320.991	0.082	0.153
-124.239	541.147	0.035	0.081
-123.224	-77.408	-0.381	-0.129
-122.210	800.000	-0.050	-0.144
