DTS Sentinel unit serial number:	SN413079Multiplexer serial number:	ORYXHardware model number:	OX4-SRSoftware version number:	ORYX F/W v4.00 Oryx Data Collector v3.7.2.0data status	okinstallation	princeton_trtdifferential loss correction	single-endedforward channel	channel 2reverse channel	N/Adate	2019/09/12time	16:57:11forward acquisition time	60.00reverse acquisition time	0.00gamma	496.2192k internal	0.2325k external	0.2325temperature offset calibration	1.0121default loss term (dB/km)	0.3790temperature slope calibration	1.0000multiplexer offset coefficient	1.0000multiplexer slope coefficient	1.0000fibre end	0.00T internal ref (°C)	35.91T ext. ref 1 (°C)	2.72T ext. ref 2 (°C)	29.22length (m)	temperature (°C)	Stokes	anti-Stokes-747.200	-200.000	-0.017	0.430
-746.185	117.756	-0.128	0.160
-745.171	28.253	-0.161	0.138
-744.156	800.000	0.096	0.286
-743.142	-88.796	0.263	-0.079
-742.127	800.000	0.031	0.095
-741.112	-72.024	-0.092	0.034
-740.098	73.674	-0.153	0.162
-739.083	-146.034	0.136	0.012
-738.069	-42.001	-0.537	0.277
-737.054	-200.000	-0.013	-0.275
-736.039	593.614	0.069	0.172
-735.025	277.178	-0.176	0.315
-734.010	47.516	-0.082	-0.077
-732.996	800.000	-0.057	0.221
-731.981	-200.000	0.036	-0.280
-730.966	5.538	-0.383	-0.285
-729.952	8.083	-0.406	-0.307
-728.937	-71.016	0.414	-0.157
-727.923	800.000	0.019	0.055
-726.908	-52.218	-0.229	-0.107
-725.894	407.354	-0.116	-0.247
-724.879	800.000	-0.140	-0.417
-723.864	318.275	0.039	-0.075
-722.850	62.192	0.222	-0.223
-721.835	-5.726	0.078	-0.054
-720.821	-95.718	-0.146	0.039
-719.806	800.000	-0.062	-0.233
-718.791	-159.962	-0.010	-0.001
-717.777	-32.085	-0.245	0.138
-716.762	433.171	-0.043	-0.095
-715.748	-58.834	0.365	0.159
-714.733	217.479	0.189	-0.304
-713.718	31.561	-0.172	-0.149
-712.704	-27.794	0.076	0.044
-711.689	-200.000	0.052	0.259
-710.675	-84.706	-0.169	0.053
-709.660	-200.000	-0.004	-0.042
-708.645	30.859	0.169	0.146
-707.631	-35.510	0.214	-0.117
-706.616	52.602	0.103	-0.099
-705.602	800.000	0.062	-0.247
-704.587	800.000	0.075	-0.310
-703.572	177.385	0.104	-0.153
-702.558	120.553	0.033	-0.042
-701.543	250.371	0.063	0.107
-700.529	-96.221	-0.077	0.021
-699.514	111.382	-0.188	-0.229
-698.499	-200.000	-0.023	-0.184
-697.485	-115.033	-0.609	-0.117
-696.470	-200.000	0.007	-0.342
-695.456	-200.000	-0.033	-0.151
-694.441	154.610	-0.243	-0.336
-693.426	-137.055	0.068	0.008
-692.412	-96.408	-0.290	0.077
-691.397	-69.608	0.111	-0.043
-690.383	-26.117	0.347	-0.206
-689.368	-156.134	0.320	0.020
-688.354	770.835	0.063	0.172
-687.339	107.813	0.112	-0.135
-686.324	-122.140	0.281	0.046
-685.310	-153.549	0.143	-0.010
-684.295	-200.000	-0.016	0.221
-683.281	-124.112	0.157	0.025
-682.266	-108.223	-0.224	-0.049
-681.251	-84.232	0.426	-0.136
-680.237	332.624	-0.140	-0.273
-679.222	-200.000	0.031	0.139
-678.208	569.388	0.065	-0.160
-677.193	-200.000	0.083	-0.390
-676.178	36.038	-0.171	0.152
-675.164	13.412	-0.073	0.057
-674.149	-116.779	-0.173	0.032
-673.135	11.374	0.151	0.117
-672.120	-116.208	0.136	-0.025
-671.105	268.030	0.083	0.146
-670.091	-171.686	0.253	0.008
-669.076	34.342	-0.274	-0.241
-668.062	730.004	-0.157	-0.421
-667.047	-200.000	-0.051	0.303
-666.032	-14.820	0.294	0.190
-665.018	-148.577	-0.271	0.022
-664.003	-200.000	-0.030	-0.304
-662.989	-87.362	-0.151	-0.046
-661.974	-11.827	-0.285	-0.188
-660.959	93.080	-0.155	0.176
-659.945	475.846	-0.143	-0.326
-658.930	-13.849	0.194	-0.126
-657.916	153.474	0.092	-0.127
-656.901	-97.899	-0.303	0.079
-655.886	800.000	-0.051	0.209
-654.872	-88.049	0.147	-0.045
-653.857	-200.000	-0.001	-0.031
-652.843	-143.514	0.105	0.010
-651.828	-158.934	0.383	-0.022
-650.814	59.093	0.084	0.083
-649.799	-114.700	-0.337	0.065
-648.784	519.570	0.121	-0.284
-647.770	89.587	-0.229	-0.256
-646.755	800.000	0.073	-0.232
-645.741	571.850	-0.027	-0.067
-644.726	-134.469	0.081	-0.010
-643.711	462.070	0.009	0.021
-642.697	18.231	-0.310	0.248
-641.682	418.609	-0.077	-0.165
-640.668	-200.000	0.029	-0.187
-639.653	-12.577	0.182	0.119
-638.638	170.737	-0.060	-0.086
-637.624	121.858	-0.050	-0.063
-636.609	-45.238	0.235	-0.117
-635.595	-140.411	-0.120	0.013
-634.580	-22.648	0.414	0.251
-633.565	501.433	0.050	-0.115
-632.551	688.714	-0.146	-0.384
-631.536	141.681	-0.194	0.258
-630.522	-200.000	0.034	-0.431
-629.507	60.678	0.208	0.207
-628.492	-22.214	-0.212	0.129
-627.478	-109.071	-0.157	-0.034
-626.463	379.657	-0.243	0.501
-625.449	257.632	0.039	-0.067
-624.434	-9.290	0.046	-0.031
-623.419	-64.777	-0.320	-0.130
-622.405	800.000	0.049	0.141
-621.390	319.689	0.100	0.191
-620.376	-144.340	-0.148	-0.014
-619.361	-200.000	0.025	-0.215
-618.346	110.270	-0.019	0.023
-617.332	437.854	-0.136	-0.297
-616.317	800.000	-0.038	0.145
-615.303	177.596	-0.176	0.258
-614.288	-12.274	-0.210	0.138
-613.273	-21.024	0.183	0.113
-612.259	-50.612	-0.143	0.068
-611.244	-200.000	-0.005	-0.030
-610.230	10.470	-0.117	0.089
-609.215	800.000	0.086	0.374
-608.201	420.585	0.093	-0.201
-607.186	-64.666	-0.393	-0.160
-606.171	800.000	-0.086	0.350
-605.157	-58.510	-0.109	0.047
-604.142	-200.000	-0.072	-0.330
-603.128	-164.174	-0.078	0.004
-602.113	-200.000	-0.009	-0.185
-601.098	-33.708	0.257	0.142
-600.084	413.070	0.087	-0.185
-599.069	-90.590	-0.321	-0.093
-598.055	-200.000	0.001	0.185
-597.040	2.476	0.170	-0.123
-596.025	319.222	-0.160	-0.305
-595.011	169.773	-0.048	0.069
-593.996	51.886	-0.194	0.186
-592.982	297.977	-0.183	-0.337
-591.967	81.932	0.247	-0.268
-590.952	669.466	-0.046	0.119
-589.938	-100.671	0.075	0.019
-588.923	271.873	-0.100	0.178
-587.909	47.212	0.063	-0.058
-586.894	72.175	0.241	-0.251
-585.879	-158.444	0.043	0.003
-584.865	-200.000	0.017	-0.137
-583.850	-81.278	0.223	0.074
-582.836	-124.258	-0.339	-0.053
-581.821	-22.595	0.301	0.182
-580.806	-111.148	0.213	0.044
-579.792	80.063	-0.070	0.076
-578.777	-53.618	-0.109	-0.050
-577.763	-64.421	0.222	-0.091
-576.748	-72.345	0.233	-0.086
-575.733	44.512	-0.203	0.187
-574.719	380.579	-0.164	-0.338
-573.704	-26.932	0.232	-0.136
-572.690	-113.502	0.255	0.050
-571.675	-185.130	-0.209	-0.003
-570.661	-82.449	-0.365	0.119
-569.646	643.118	0.023	0.058
-568.631	800.000	-0.022	0.092
-567.617	-109.075	0.256	-0.055
-566.602	-113.920	0.298	0.058
-565.588	-40.555	0.152	-0.079
-564.573	-111.834	0.202	0.041
-563.558	-65.507	0.085	0.034
-562.544	-114.746	-0.124	0.024
-561.529	800.000	0.027	0.102
-560.515	-132.815	-0.267	0.034
-559.500	-106.828	-0.228	-0.051
-558.485	128.019	-0.171	-0.217
-557.471	-11.266	-0.240	-0.158
-556.456	26.595	0.077	-0.065
-555.442	180.491	0.229	0.337
-554.427	800.000	0.078	0.337
-553.412	405.931	-0.126	-0.266
-552.398	-68.871	-0.126	-0.049
-551.383	-142.808	0.233	-0.023
-550.369	-76.402	-0.162	0.057
-549.354	121.591	-0.212	0.265
-548.339	-200.000	-0.002	-0.041
-547.325	56.104	-0.122	0.119
-546.310	-110.944	-0.076	0.016
-545.296	231.317	0.212	-0.347
-544.281	238.571	-0.103	-0.172
-543.266	-133.668	0.243	0.030
-542.252	-200.000	0.014	-0.098
-541.237	-197.396	-0.188	0.001
-540.223	-200.000	0.058	-0.389
-539.208	-200.000	0.052	0.379
-538.193	-39.600	0.218	-0.114
-537.179	-200.000	-0.004	0.233
-536.164	-6.544	0.195	0.133
-535.150	360.779	-0.160	-0.322
-534.135	-10.915	-0.400	0.265
-533.121	65.640	-0.022	0.022
-532.106	-200.000	-0.003	-0.028
-531.091	323.324	-0.050	-0.095
-530.077	435.456	0.065	0.141
-529.062	140.292	-0.174	0.229
-528.048	613.433	-0.131	-0.328
-527.033	-200.000	-0.008	-0.230
-526.018	10.019	-0.068	-0.052
-525.004	-104.056	-0.248	-0.058
-523.989	-200.000	-0.046	-0.221
-522.975	-24.762	-0.060	0.036
-521.960	-200.000	0.022	0.120
-520.945	-200.000	0.026	-0.135
-519.931	-63.932	0.089	0.036
-518.916	-130.210	-0.225	0.031
-517.902	120.576	0.150	-0.186
-516.887	151.545	0.123	0.167
-515.872	288.541	-0.182	-0.329
-514.858	216.575	-0.087	0.138
-513.843	800.000	-0.067	0.188
-512.829	-47.734	0.103	0.050
-511.814	463.942	0.073	0.162
-510.799	295.196	-0.221	-0.405
-509.785	-57.197	-0.267	0.118
-508.770	-29.738	-0.279	0.159
-507.756	-103.741	-0.273	-0.064
-506.741	-20.371	-0.108	-0.067
-505.726	87.637	0.103	0.115
-504.712	-35.869	0.128	-0.069
-503.697	-161.428	-0.369	0.019
-502.683	5.532	0.319	-0.235
-501.668	-64.234	-0.347	-0.141
-500.653	53.811	0.171	0.164
-499.639	734.211	0.110	0.294
-498.624	22.487	0.301	-0.246
-497.610	23.691	-0.064	-0.053
-496.595	25.150	0.184	0.152
-495.581	-51.458	0.351	0.164
-494.566	-26.531	-0.063	0.037
-493.551	6.317	0.238	-0.177
-492.537	-200.000	0.042	0.360
-491.522	-200.000	0.031	0.429
-490.508	800.000	0.085	0.266
-489.493	800.000	-0.004	-0.014
-488.478	-200.000	-0.027	0.161
-487.464	-43.974	0.109	0.055
-486.449	-112.402	-0.408	0.081
-485.435	800.000	-0.070	-0.292
-484.420	-90.758	0.173	0.050
-483.405	-20.254	-0.462	0.284
-482.391	-92.434	-0.014	0.004
-481.376	-200.000	-0.020	-0.232
-480.362	455.492	-0.120	-0.266
-479.347	15.251	-0.323	-0.253
-478.332	452.101	-0.088	0.194
-477.318	800.000	0.034	0.101
-476.303	-30.004	-0.079	0.045
-475.289	-54.693	0.263	-0.119
-474.274	-80.917	-0.171	-0.057
-473.259	-13.910	-0.322	0.208
-472.245	-47.315	-0.223	0.109
-471.230	-37.488	-0.308	0.164
-470.216	-80.618	-0.241	-0.080
-469.201	324.974	-0.140	-0.268
-468.186	-34.185	-0.172	-0.094
-467.172	-51.577	0.108	-0.050
-466.157	-98.334	0.177	-0.045
-465.143	-21.537	0.101	0.061
-464.128	-78.514	-0.036	-0.012
-463.113	-71.747	-0.264	0.098
-462.099	-54.974	0.301	0.136
-461.084	1.472	-0.160	-0.115
-460.070	88.557	-0.112	-0.124
-459.055	164.953	0.033	-0.046
-458.040	-200.000	0.009	0.189
-457.026	394.165	0.108	0.224
-456.011	-35.137	0.152	-0.082
-454.997	-75.289	-0.081	-0.029
-453.982	-54.316	0.271	-0.123
-452.968	-200.000	-0.039	-0.401
-451.953	54.758	-0.225	-0.216
-450.938	121.154	0.161	0.199
-449.924	800.000	-0.071	-0.281
-448.909	-177.978	0.377	0.009
-447.895	-39.167	0.168	0.088
-446.880	467.808	0.149	-0.333
-445.865	-200.000	0.014	-0.177
-444.851	-200.000	0.011	-0.154
-443.836	0.414	-0.207	0.147
-442.822	-200.000	0.020	0.149
-441.807	800.000	0.067	0.227
-440.792	21.157	0.154	-0.125
-439.778	-200.000	0.062	-0.287
-438.763	-14.214	0.071	0.045
-437.749	-154.041	-0.166	-0.011
-436.734	-53.443	0.194	-0.088
-435.719	800.000	0.130	-0.415
-434.705	-88.640	-0.171	0.051
-433.690	-73.550	-0.110	-0.040
-432.676	-156.449	0.495	0.031
-431.661	-89.939	0.203	-0.059
-430.646	137.853	0.071	-0.092
-429.632	393.305	-0.062	-0.129
-428.617	196.983	0.134	-0.204
-427.603	18.448	0.224	0.178
-426.588	167.078	-0.052	0.073
-425.573	-60.060	-0.292	-0.124
-424.559	-123.600	-0.308	-0.049
-423.544	800.000	0.037	0.145
-422.530	-200.000	0.011	0.494
-421.515	-126.237	-0.234	0.035
-420.500	800.000	-0.095	-0.291
-419.486	-133.122	-0.114	-0.014
-418.471	400.550	0.236	0.493
-417.457	-200.000	-0.074	0.484
-416.442	-177.216	-0.236	0.006
-415.428	48.668	0.236	-0.220
-414.413	-200.000	0.007	-0.115
-413.398	-200.000	-0.019	0.087
-412.384	-112.910	-0.183	0.036
-411.369	-200.000	0.078	-0.451
-410.355	-92.303	0.242	0.068
-409.340	204.155	-0.071	0.109
-408.325	-121.106	0.264	-0.044
-407.311	-32.888	-0.050	0.028
-406.296	27.230	-0.178	0.149
-405.282	-72.888	0.072	0.026
-404.267	314.188	0.113	-0.212
-403.252	-1.295	0.205	-0.144
-402.238	570.778	-0.073	-0.176
-401.223	800.000	-0.099	-0.286
-400.209	176.029	0.113	-0.163
-399.194	17.905	0.140	0.111
-398.179	20.856	-0.276	-0.223
-397.165	-200.000	-0.025	0.133
-396.150	190.177	-0.175	0.261
-395.136	800.000	0.054	-0.189
-394.121	-200.000	0.010	0.142
-393.106	178.990	-0.017	0.024
-392.092	519.908	0.051	0.120
-391.077	-26.788	0.062	0.036
-390.063	800.000	0.011	0.039
-389.048	459.729	0.089	0.198
-388.033	-200.000	-0.052	0.285
-387.019	-200.000	-0.047	-0.404
-386.004	-22.579	-0.334	0.201
-384.990	-53.903	-0.137	0.062
-383.975	28.356	0.283	0.238
-382.960	-189.662	0.299	-0.003
-381.946	-52.053	0.056	0.026
-380.931	-200.000	0.001	-0.069
-379.917	64.268	0.172	-0.173
-378.902	50.810	-0.185	0.174
-377.888	184.701	-0.110	-0.161
-376.873	17.784	0.306	0.242
-375.858	-74.933	0.153	-0.055
-374.844	-14.099	-0.099	0.064
-373.829	190.156	-0.149	-0.222
-372.815	11.943	-0.278	0.212
-371.800	-36.801	-0.113	0.060
-370.785	-7.534	0.236	-0.159
-369.771	-136.538	-0.321	0.037
-368.756	-83.464	-0.057	0.018
-367.742	-20.510	-0.127	0.077
-366.727	137.646	-0.106	-0.138
-365.712	-164.132	-0.079	0.004
-364.698	-30.101	-0.120	-0.068
-363.683	800.000	0.063	0.213
-362.669	399.484	-0.061	0.127
-361.654	-200.000	0.016	0.088
-360.639	-200.000	-0.020	-0.111
-359.625	-200.000	-0.000	0.013
-358.610	-88.165	0.116	-0.034
-357.596	-99.915	-0.314	0.078
-356.581	800.000	-0.044	-0.145
-355.566	-200.000	0.073	-0.459
-354.552	108.797	-0.199	-0.237
-353.537	-75.204	-0.254	0.090
-352.523	141.144	0.154	-0.202
-351.508	-148.829	0.014	0.001
-350.493	800.000	-0.032	-0.097
-349.479	172.684	0.129	-0.185
-348.464	-200.000	-0.017	0.299
-347.450	-124.192	-0.100	0.015
-346.435	16.538	-0.034	0.027
-345.420	-137.177	-0.125	0.014
-344.406	154.661	0.109	-0.149
-343.391	79.626	-0.191	0.203
-342.377	33.965	0.153	0.132
-341.362	332.689	-0.086	0.165
-340.348	227.363	0.116	0.187
-339.333	11.578	0.081	0.062
-338.318	-15.048	-0.189	0.120
-337.304	20.002	0.106	-0.085
-336.289	-200.000	0.368	-0.002
-335.275	800.000	-0.010	-0.032
-334.260	-200.000	0.007	0.030
-333.245	25.441	0.267	-0.221
-332.231	3.709	-0.158	0.115
-331.216	-137.832	-0.210	-0.023
-330.202	-200.000	-0.058	0.000
-329.187	189.956	-0.182	0.271
-328.172	-116.263	-0.262	0.048
-327.158	89.605	0.116	-0.128
-326.143	-57.448	0.112	0.049
-325.129	-124.924	0.233	-0.036
-324.114	-60.663	-0.132	-0.056
-323.099	112.699	-0.167	0.201
-322.085	-200.000	0.055	-0.409
-321.070	638.687	0.152	0.382
-320.056	-72.296	-0.157	-0.058
-319.041	-200.000	0.030	0.319
-318.026	800.000	0.113	0.362
-317.012	-200.000	0.009	0.119
-315.997	-200.000	0.045	-0.223
-314.983	800.000	-0.073	-0.312
-313.968	2.483	0.277	-0.199
-312.953	-200.000	0.012	-0.190
-311.939	211.000	0.077	-0.120
-310.924	-200.000	0.040	0.197
-309.910	-67.519	-0.136	-0.053
-308.895	-200.000	0.025	0.273
-307.880	-200.000	0.040	0.295
-306.866	-88.783	0.082	-0.024
-305.851	189.828	-0.117	-0.175
-304.837	-81.035	0.031	-0.010
-303.822	-121.824	0.081	-0.013
-302.807	800.000	-0.028	-0.121
-301.793	136.740	-0.407	-0.527
-300.778	-57.313	0.212	0.092
-299.764	36.168	0.036	-0.032
-298.749	-83.885	0.211	-0.067
-297.735	-200.000	-0.071	0.329
-296.720	-161.991	0.262	-0.013
-295.705	459.394	0.155	-0.342
-294.691	-183.626	-0.205	0.003
-293.676	800.000	-0.115	0.464
-292.662	-200.000	-0.043	-0.327
-291.647	-127.684	0.315	-0.045
-290.632	800.000	-0.083	0.245
-289.618	-107.804	0.397	-0.086
-288.603	-130.328	0.385	-0.052
-287.589	-19.631	0.232	0.142
-286.574	-129.121	0.169	0.023
-285.559	-122.486	0.300	0.048
-284.545	13.190	0.217	0.166
-283.530	293.783	0.128	0.231
-282.516	14.679	0.247	-0.192
-281.501	434.226	0.114	0.246
-280.486	-200.000	-0.019	0.408
-279.472	-110.873	0.080	0.016
-278.457	-200.000	0.017	0.245
-277.443	483.869	0.016	0.035
-276.428	-200.000	0.016	0.070
-275.413	2.354	0.273	0.196
-274.399	-132.619	-0.492	-0.063
-273.384	-116.730	-0.080	-0.015
-272.370	707.692	-0.096	-0.252
-271.355	800.000	-0.093	-0.310
-270.340	156.697	0.118	0.162
-269.326	-30.484	-0.144	0.081
-268.311	75.130	-0.260	0.272
-267.297	-46.105	0.013	0.006
-266.282	-95.902	0.300	0.079
-265.267	-109.152	0.109	0.023
-264.253	-184.308	0.059	0.001
-263.238	-128.740	0.237	-0.033
-262.224	-186.823	0.338	-0.005
-261.209	-146.696	-0.095	-0.008
-260.195	-200.000	-0.034	-0.213
-259.180	128.137	0.136	0.172
-258.165	-140.708	0.350	-0.036
-257.151	-200.000	-0.031	0.149
-256.136	-149.877	0.306	-0.024
-255.122	-200.000	-0.026	0.194
-254.107	-200.000	-0.041	0.241
-253.092	55.934	0.253	0.243
-252.078	-200.000	-0.025	-0.191
-251.063	397.380	-0.116	-0.240
-250.049	103.700	-0.167	0.195
-249.034	-200.000	-0.052	0.393
-248.019	209.346	-0.087	-0.135
-247.005	38.112	-0.255	0.224
-245.990	800.000	0.012	0.043
-244.976	38.432	-0.352	0.310
-243.961	794.468	-0.035	-0.095
-242.946	111.130	-0.123	-0.147
-241.932	-118.915	-0.215	-0.037
-240.917	-43.414	0.210	0.105
-239.903	290.754	0.162	0.292
-238.888	-200.000	-0.019	-0.134
-237.873	-74.139	0.293	-0.105
-236.859	-13.608	0.254	-0.163
-235.844	187.985	-0.066	0.097
-234.830	321.226	-0.211	0.397
-233.815	-107.298	0.493	-0.107
-232.800	800.000	0.090	-0.250
-231.786	-128.119	0.324	-0.046
-230.771	-108.579	0.050	-0.011
-229.757	-200.000	0.027	-0.267
-228.742	113.199	-0.152	-0.183
-227.727	-33.652	-0.084	0.046
-226.713	-163.673	-0.347	0.016
-225.698	52.185	-0.159	-0.150
-224.684	-4.013	0.123	0.084
-223.669	-35.528	0.223	-0.119
-222.655	-114.314	0.159	-0.030
-221.640	800.000	0.151	0.456
-220.625	-12.388	-0.210	0.136
-219.611	-200.000	0.015	-0.188
-218.596	-96.441	-0.138	0.036
-217.582	-147.066	-0.266	0.022
-216.567	-166.820	0.328	-0.013
-215.552	-200.000	0.046	-0.213
-214.538	-66.820	0.363	0.142
-213.523	-102.273	0.038	0.009
-212.509	594.939	0.080	0.195
-211.494	-200.000	0.009	0.158
-210.479	-165.433	-0.082	-0.004
-209.465	-84.874	0.310	0.096
-208.450	-155.097	0.255	-0.016
-207.436	38.151	0.355	-0.313
-206.421	-24.404	-0.190	0.112
-205.406	12.797	-0.233	0.178
-204.392	-25.788	0.448	-0.261
-203.377	-105.326	0.197	0.044
-202.363	271.187	0.046	-0.080
-201.348	-200.000	-0.018	-0.339
-200.333	96.465	0.192	0.217
-199.319	-200.000	0.020	-0.097
-198.304	-200.000	-0.022	-0.113
-197.290	386.651	-0.130	0.264
-196.275	800.000	0.064	0.193
-195.260	-183.408	0.263	0.005
-194.246	-60.072	-0.233	-0.098
-193.231	800.000	-0.017	-0.065
-192.217	800.000	0.028	-0.104
-191.202	325.413	0.104	0.196
-190.187	-200.000	-0.017	0.079
-189.173	-68.437	-0.320	0.122
-188.158	-52.253	-0.147	-0.067
-187.144	90.612	0.045	-0.049
-186.129	-88.501	0.362	0.107
-185.114	-200.000	0.017	0.101
-184.100	-44.514	-0.411	-0.203
-183.085	68.969	0.155	-0.157
-182.071	800.000	-0.096	0.276
-181.056	800.000	0.121	0.342
-180.042	-9.848	-0.267	-0.175
-179.027	-89.933	-0.214	-0.062
-178.012	51.371	0.064	-0.060
-176.998	-144.813	-0.214	-0.019
-175.983	-95.847	0.072	0.019
-174.969	14.174	0.155	-0.119
-173.954	-175.815	-0.382	-0.010
-172.939	31.008	0.177	0.150
-171.925	-59.407	0.266	-0.113
-170.910	-7.247	0.384	-0.257
-169.896	-18.400	-0.379	0.233
-168.881	800.000	0.092	-0.317
-167.866	-181.947	-0.380	-0.007
-166.852	-200.000	-0.039	0.262
-165.837	-200.000	0.243	-0.000
-164.823	273.497	-0.122	-0.212
-163.808	95.775	-0.155	-0.175
-162.793	-9.884	-0.234	0.153
-161.779	36.225	-0.145	0.126
-160.764	800.000	-0.118	-0.357
-159.750	414.854	-0.181	-0.380
-158.735	-21.905	0.281	0.168
-157.720	-76.726	-0.170	0.059
-156.706	-136.508	0.042	0.005
-155.691	132.769	0.082	0.105
-154.677	-172.343	0.200	0.006
-153.662	1.845	-0.065	0.046
-152.647	-200.000	0.003	-0.269
-151.633	180.553	0.189	-0.274
-150.618	-3.617	-0.212	-0.145
-149.604	800.000	0.015	-0.058
-148.589	756.792	0.089	0.238
-147.574	-74.668	-0.074	0.026
-146.560	-200.000	0.035	0.359
-145.545	-157.394	-0.100	0.006
-144.531	83.376	0.203	0.218
-143.516	-145.396	0.279	0.025
-142.502	-178.367	-0.100	0.002
-141.487	13.240	0.107	-0.082
-140.472	47.646	0.146	0.134
-139.458	543.379	-0.095	0.224
-138.443	-81.121	0.252	-0.082
-137.429	298.395	0.137	-0.249
-136.414	-15.663	0.302	0.189
-135.399	-167.319	-0.206	-0.008
-134.385	800.000	0.083	0.260
-133.370	198.323	-0.055	-0.083
-132.356	-30.682	0.138	0.077
-131.341	-200.000	-0.004	0.049
-130.326	800.000	0.095	-0.314
-129.312	290.764	-0.062	0.110
-128.297	41.027	0.192	0.171
-127.283	-99.234	-0.348	-0.087
-126.268	-68.606	-0.132	0.050
-125.253	-192.932	0.084	-0.001
-124.239	537.709	-0.093	-0.218
-123.224	-200.000	-0.023	-0.209
-122.210	32.623	0.300	-0.255
