DTS Sentinel unit serial number:	SN413079Multiplexer serial number:	ORYXHardware model number:	OX4-SRSoftware version number:	ORYX F/W v4.00 Oryx Data Collector v3.7.2.0data status	okinstallation	princeton_trtdifferential loss correction	single-endedforward channel	channel 2reverse channel	N/Adate	2019/09/19time	11:39:35forward acquisition time	60.00reverse acquisition time	0.00gamma	496.2192k internal	0.2340k external	0.2340temperature offset calibration	1.0016default loss term (dB/km)	0.3790temperature slope calibration	1.0000multiplexer offset coefficient	1.0000multiplexer slope coefficient	1.0000fibre end	0.00T internal ref (°C)	25.56T ext. ref 1 (°C)	0.81T ext. ref 2 (°C)	21.28length (m)	temperature (°C)	Stokes	anti-Stokes-747.200	-200.000	-0.046	0.203
-746.185	-177.130	-0.192	-0.005
-745.171	-162.633	-0.076	0.004
-744.156	191.361	-0.131	0.198
-743.142	-138.627	-0.302	0.033
-742.127	800.000	-0.066	0.213
-741.112	443.316	0.049	0.108
-740.098	218.580	-0.260	0.416
-739.083	-132.648	0.260	-0.033
-738.069	-111.047	-0.115	0.024
-737.054	279.928	0.046	0.082
-736.039	-105.995	-0.099	0.022
-735.025	130.944	-0.129	-0.166
-734.010	-200.000	-0.060	-0.286
-732.996	-1.233	-0.138	-0.098
-731.981	-200.000	0.006	-0.247
-730.966	-152.861	0.345	0.025
-729.952	-148.035	-0.259	-0.022
-728.937	29.698	0.048	-0.041
-727.923	-74.790	-0.315	-0.113
-726.908	-23.939	-0.218	0.130
-725.894	-41.866	0.168	-0.086
-724.879	130.003	0.055	-0.070
-723.864	-200.000	0.048	-0.249
-722.850	531.137	0.023	0.054
-721.835	-191.790	0.221	0.002
-720.821	-74.589	0.277	0.100
-719.806	-200.000	0.016	0.249
-718.791	-150.578	-0.233	0.018
-717.777	28.080	0.377	-0.319
-716.762	28.407	-0.243	0.206
-715.748	-200.000	-0.069	-0.383
-714.733	800.000	0.045	-0.176
-713.718	49.341	0.269	0.253
-712.704	92.509	0.262	0.296
-711.689	260.358	0.025	-0.044
-710.675	800.000	0.038	0.160
-709.660	-200.000	0.037	0.208
-708.645	-200.000	-0.024	-0.154
-707.631	21.784	-0.115	-0.094
-706.616	-200.000	0.048	0.323
-705.602	-67.999	0.405	0.158
-704.587	534.917	-0.089	-0.211
-703.572	-77.387	0.166	0.058
-702.558	-200.000	-0.043	0.284
-701.543	-200.000	-0.025	-0.127
-700.529	-200.000	0.001	-0.225
-699.514	-90.790	0.071	0.021
-698.499	-102.358	-0.199	0.048
-697.485	179.962	0.155	-0.228
-696.470	-100.108	-0.166	0.041
-695.456	93.016	0.178	-0.201
-694.441	800.000	-0.052	0.190
-693.426	-67.069	-0.381	0.150
-692.412	32.768	0.108	-0.093
-691.397	238.327	-0.094	-0.157
-690.383	323.314	0.053	-0.101
-689.368	283.527	-0.117	0.210
-688.354	800.000	-0.020	0.071
-687.339	-95.612	-0.149	-0.040
-686.324	-120.967	0.333	-0.056
-685.310	117.054	-0.106	-0.130
-684.295	53.538	0.326	-0.313
-683.281	128.766	0.094	0.120
-682.266	233.060	0.054	0.089
-681.251	34.036	0.111	-0.097
-680.237	-61.732	-0.306	0.128
-679.222	800.000	-0.061	0.248
-678.208	-200.000	0.026	-0.532
-677.193	-200.000	0.058	-0.505
-676.178	-56.923	0.022	-0.010
-675.164	39.142	0.146	0.131
-674.149	8.468	0.314	0.236
-673.135	475.675	0.163	0.369
-672.120	80.140	0.063	0.067
-671.105	-86.090	0.270	-0.083
-670.091	-124.436	0.728	0.113
-669.076	-192.617	0.455	-0.004
-668.062	46.812	-0.131	0.122
-667.047	-200.000	-0.012	-0.102
-666.032	135.335	-0.148	0.192
-665.018	800.000	0.040	-0.154
-664.003	-11.863	-0.084	-0.055
-662.989	-112.691	0.149	0.030
-661.974	-200.000	0.031	-0.211
-660.959	708.368	0.141	-0.372
-659.945	295.262	0.105	-0.192
-658.930	-137.486	0.268	0.030
-657.916	-200.000	0.126	0.669
-656.901	144.761	-0.093	-0.125
-655.886	333.028	0.055	-0.107
-654.872	22.970	0.104	-0.085
-653.857	308.348	-0.032	-0.061
-652.843	-200.000	-0.001	0.051
-651.828	800.000	-0.073	-0.239
-650.814	-9.179	-0.279	-0.186
-649.799	-200.000	-0.013	0.287
-648.784	67.794	0.113	0.115
-647.770	73.065	-0.253	-0.265
-646.755	-200.000	0.022	-0.361
-645.741	-62.201	0.130	-0.054
-644.726	618.297	0.140	-0.350
-643.711	-51.724	-0.034	-0.016
-642.697	531.438	-0.047	0.111
-641.682	-116.700	-0.254	0.047
-640.668	-106.452	0.024	0.005
-639.653	-163.757	-0.010	0.000
-638.638	140.591	0.164	-0.217
-637.624	50.895	0.095	-0.090
-636.609	-192.737	0.223	0.002
-635.595	-137.914	0.209	0.023
-634.580	-200.000	0.022	0.315
-633.565	-200.000	0.033	0.146
-632.551	-200.000	-0.038	0.203
-631.536	-26.273	-0.262	-0.154
-630.522	-129.753	-0.123	0.017
-629.507	800.000	0.035	-0.105
-628.492	-200.000	-0.001	-0.080
-627.478	-200.000	0.016	-0.141
-626.463	175.992	0.197	-0.286
-625.449	-40.124	0.300	0.156
-624.434	57.954	-0.124	-0.121
-623.419	46.801	-0.120	-0.111
-622.405	-107.884	-0.217	0.047
-621.390	-200.000	0.001	0.139
-620.376	16.840	-0.109	0.086
-619.361	-200.000	-0.023	0.213
-618.346	-200.000	0.025	0.140
-617.332	-200.000	0.024	0.409
-616.317	145.666	-0.048	0.064
-615.303	333.859	0.171	0.331
-614.288	-200.000	0.032	-0.189
-613.273	-200.000	-0.030	0.268
-612.259	158.365	0.164	0.226
-611.244	-110.015	0.058	0.012
-610.230	-48.243	-0.375	-0.180
-609.215	-154.188	-0.114	-0.008
-608.201	-200.000	-0.016	0.194
-607.186	-123.813	-0.239	0.038
-606.171	404.692	0.119	-0.249
-605.157	117.587	0.127	0.156
-604.142	133.820	0.085	-0.109
-603.128	444.494	0.135	0.296
-602.113	800.000	-0.033	0.106
-601.098	-116.546	-0.170	-0.031
-600.084	326.093	0.073	-0.139
-599.069	-200.000	-0.027	0.192
-598.055	-146.988	-0.214	-0.018
-597.040	-29.677	-0.260	-0.148
-596.025	-155.438	0.110	0.007
-595.011	37.627	0.168	0.149
-593.996	23.799	-0.105	0.087
-592.982	-21.176	-0.173	-0.105
-591.967	-80.549	-0.269	-0.089
-590.952	281.478	0.084	0.150
-589.938	110.788	0.115	-0.137
-588.923	-107.572	0.159	0.035
-587.909	-44.184	-0.123	0.061
-586.894	118.957	-0.137	-0.168
-585.879	69.983	0.241	-0.247
-584.865	-34.315	-0.400	-0.219
-583.850	-71.458	-0.068	0.025
-582.836	-56.239	0.088	-0.039
-581.821	800.000	0.158	-0.556
-580.806	800.000	-0.095	-0.384
-579.792	-79.267	-0.099	0.033
-578.777	800.000	0.049	0.190
-577.763	-112.416	0.255	-0.051
-576.748	-152.288	0.287	-0.021
-575.733	27.384	-0.235	-0.197
-574.719	186.241	0.136	-0.201
-573.704	148.644	-0.115	-0.155
-572.690	-57.417	0.168	-0.073
-571.675	150.686	-0.158	-0.214
-570.661	648.506	-0.062	0.159
-569.646	141.728	-0.078	-0.103
-568.631	18.031	-0.098	-0.078
-567.617	800.000	0.113	0.391
-566.602	-82.340	-0.167	-0.054
-565.588	-114.994	-0.136	-0.026
-564.573	-200.000	0.036	0.473
-563.558	371.145	-0.059	0.120
-562.544	-19.260	-0.228	0.141
-561.529	438.142	-0.106	-0.230
-560.515	-200.000	0.003	-0.083
-559.500	800.000	0.040	0.155
-558.485	234.054	-0.136	-0.223
-557.471	142.130	-0.194	0.256
-556.456	-200.000	-0.012	0.113
-555.442	-200.000	-0.006	-0.149
-554.427	-126.482	-0.337	-0.050
-553.412	-177.383	-0.259	0.006
-552.398	62.588	-0.134	-0.133
-551.383	800.000	0.064	-0.178
-550.369	23.564	0.145	-0.119
-549.354	734.481	0.018	-0.049
-548.339	-87.212	-0.119	0.036
-547.325	415.362	-0.140	0.297
-546.310	-91.684	-0.184	-0.052
-545.296	-96.648	-0.271	0.071
-544.281	-152.986	-0.131	-0.009
-543.266	8.089	0.208	-0.155
-542.252	-200.000	0.014	0.194
-541.237	-200.000	-0.006	0.125
-540.223	21.633	0.568	-0.460
-539.208	272.083	-0.051	0.090
-538.193	-84.079	-0.296	0.094
-537.179	-200.000	-0.051	-0.470
-536.164	-11.878	-0.151	-0.098
-535.150	-2.271	0.027	-0.019
-534.135	-200.000	-0.009	-0.135
-533.121	-128.076	0.262	0.037
-532.106	296.958	0.109	0.199
-531.091	4.083	-0.246	-0.179
-530.077	111.394	0.236	-0.283
-529.062	48.863	-0.096	-0.089
-528.048	-200.000	0.032	-0.341
-527.033	334.518	0.086	0.166
-526.018	568.212	0.188	0.454
-525.004	17.231	0.190	-0.150
-523.989	800.000	-0.046	0.154
-522.975	-14.101	-0.202	0.129
-521.960	-62.600	-0.059	-0.024
-520.945	-69.933	-0.336	-0.127
-519.931	364.119	0.083	0.166
-518.916	201.591	0.211	-0.323
-517.902	296.071	0.232	-0.422
-516.887	-135.194	0.122	0.015
-515.872	-124.270	0.270	0.042
-514.858	-24.776	-0.348	0.206
-513.843	-1.650	0.325	0.228
-512.829	-200.000	0.011	0.388
-511.814	-41.673	-0.259	-0.132
-510.799	-199.576	-0.339	0.002
-509.785	-200.000	-0.029	0.151
-508.770	-83.936	-0.378	0.119
-507.756	-154.737	-0.282	-0.019
-506.741	-149.358	0.173	-0.014
-505.726	-200.000	-0.023	-0.386
-504.712	410.871	0.078	0.165
-503.697	-114.553	-0.304	-0.058
-502.683	-92.134	-0.264	-0.074
-501.668	800.000	0.040	-0.134
-500.653	-3.504	0.183	0.126
-499.639	-200.000	0.044	0.214
-498.624	-98.475	0.346	-0.088
-497.610	-105.115	-0.179	0.041
-496.595	353.396	0.089	0.175
-495.581	64.254	0.110	0.110
-494.566	-58.924	-0.060	0.026
-493.551	113.480	0.167	-0.201
-492.537	125.456	0.207	0.259
-491.522	136.134	-0.118	0.153
-490.508	23.899	-0.226	-0.185
-489.493	-83.206	-0.097	-0.031
-488.478	-42.730	-0.212	0.107
-487.464	283.014	0.111	0.198
-486.449	-111.870	0.050	-0.010
-485.435	800.000	-0.018	0.049
-484.420	417.825	-0.080	0.169
-483.405	-67.445	-0.413	0.161
-482.391	19.166	0.106	0.085
-481.376	-112.041	0.181	0.036
-480.362	-142.549	-0.113	-0.011
-479.347	-176.691	0.205	0.005
-478.332	-70.170	-0.452	-0.170
-477.318	-82.167	0.421	-0.136
-476.303	306.588	0.226	0.418
-475.289	78.807	-0.075	-0.080
-474.274	-40.151	0.115	-0.059
-473.259	210.462	0.114	0.178
-472.245	370.757	-0.148	-0.298
-471.230	-58.587	-0.233	-0.100
-470.216	-53.839	0.117	-0.053
-469.201	105.435	-0.203	0.238
-468.186	65.474	-0.183	-0.184
-467.172	800.000	0.076	0.236
-466.157	-200.000	-0.005	-0.034
-465.143	-200.000	-0.038	0.235
-464.128	-200.000	-0.032	-0.329
-463.113	-97.198	-0.120	-0.031
-462.099	112.878	-0.146	-0.176
-461.084	146.750	0.194	0.259
-460.070	800.000	-0.024	-0.086
-459.055	462.652	-0.047	0.104
-458.040	39.662	0.046	-0.041
-457.026	12.695	0.019	-0.014
-456.011	174.578	-0.120	0.173
-454.997	-200.000	-0.187	-0.000
-453.982	-200.000	0.035	0.188
-452.968	-37.766	-0.234	-0.124
-451.953	-7.676	0.174	-0.116
-450.938	76.952	-0.038	0.040
-449.924	-200.000	-0.006	0.039
-448.909	-180.088	-0.297	-0.006
-447.895	114.410	0.160	-0.193
-446.880	36.966	-0.232	-0.204
-445.865	593.094	0.044	-0.108
-444.851	-49.089	-0.117	0.055
-443.836	85.115	0.069	0.075
-442.822	286.869	0.238	0.426
-441.807	174.380	-0.102	0.147
-440.792	26.721	0.035	0.029
-439.778	-40.819	0.234	0.120
-438.763	-119.142	0.058	0.010
-437.749	58.908	0.097	0.094
-436.734	-200.000	0.231	0.000
-435.719	-200.000	0.035	0.328
-434.705	-68.183	0.421	0.162
-433.690	336.752	0.080	-0.154
-432.676	476.818	-0.135	-0.303
-431.661	67.529	0.235	0.238
-430.646	69.189	-0.130	-0.132
-429.632	-35.926	0.213	0.114
-428.617	367.268	-0.220	-0.439
-427.603	800.000	0.060	-0.210
-426.588	800.000	-0.097	0.267
-425.573	-50.558	0.283	0.132
-424.559	-200.000	0.009	0.057
-423.544	800.000	-0.051	0.154
-422.530	126.229	-0.224	0.281
-421.515	-200.000	-0.021	-0.402
-420.500	-1.766	0.277	0.193
-419.486	-89.730	-0.264	-0.077
-418.471	270.435	0.108	0.187
-417.457	194.442	0.120	0.180
-416.442	185.110	-0.094	-0.138
-415.428	-200.000	0.015	-0.275
-414.413	-200.000	-0.049	-0.359
-413.398	239.105	0.080	-0.132
-412.384	-200.000	-0.015	-0.196
-411.369	-142.805	0.116	-0.011
-410.355	21.381	-0.168	-0.135
-409.340	-192.123	0.239	-0.002
-408.325	318.038	-0.209	0.391
-407.311	-47.368	0.209	-0.101
-406.296	-68.523	0.308	-0.118
-405.282	211.007	0.155	0.242
-404.267	-14.917	0.186	0.118
-403.252	29.779	-0.134	0.113
-402.238	293.819	-0.083	-0.151
-401.223	-91.308	-0.063	0.018
-400.209	-171.124	-0.164	0.006
-399.194	800.000	0.003	-0.008
-398.179	-200.000	0.039	-0.308
-397.165	198.963	0.160	0.242
-396.150	-46.830	0.203	0.098
-395.136	800.000	0.096	0.280
-394.121	299.808	-0.197	-0.358
-393.106	-200.000	-0.015	0.113
-392.092	-20.831	0.059	0.036
-391.077	-161.749	0.200	0.010
-390.063	48.317	-0.173	-0.160
-389.048	-200.000	0.019	0.142
-388.033	559.995	0.077	0.183
-387.019	-5.853	-0.049	-0.033
-386.004	-17.212	0.308	0.192
-384.990	293.778	0.148	-0.267
-383.975	20.208	-0.233	0.186
-382.960	-200.000	-0.022	-0.134
-381.946	22.414	-0.136	-0.110
-380.931	30.153	0.112	0.094
-379.917	214.708	0.129	-0.201
-378.902	800.000	-0.045	-0.194
-377.888	23.791	-0.092	0.075
-376.873	-122.803	-0.263	-0.042
-375.858	-102.840	0.213	-0.050
-374.844	622.487	-0.011	0.027
-373.829	-200.000	0.003	-0.307
-372.815	-66.318	-0.219	-0.086
-371.800	-153.391	0.177	-0.012
-370.785	-103.167	0.184	0.043
-369.771	403.980	0.262	-0.545
-368.756	-133.719	-0.075	-0.009
-367.742	-105.537	0.326	-0.073
-366.727	337.540	-0.094	0.181
-365.712	87.371	0.252	0.275
-364.698	800.000	-0.028	0.110
-363.683	-91.892	-0.145	0.041
-362.669	-200.000	0.014	-0.079
-361.654	800.000	-0.095	0.306
-360.639	800.000	0.126	0.393
-359.625	-139.926	-0.196	0.021
-358.610	368.703	0.117	-0.233
-357.596	-64.577	0.170	-0.068
-356.581	-150.833	0.182	0.014
-355.566	198.230	-0.187	-0.282
-354.552	-129.516	-0.251	0.034
-353.537	-144.621	0.119	0.011
-352.523	-43.009	-0.242	0.121
-351.508	59.050	0.136	0.132
-350.493	-110.024	0.222	-0.046
-349.479	-127.821	-0.238	0.034
-348.464	-148.677	0.025	0.002
-347.450	-47.795	-0.106	-0.051
-346.435	800.000	-0.022	0.069
-345.420	527.539	-0.045	-0.105
-344.406	-69.730	-0.225	-0.085
-343.391	-21.675	-0.082	-0.049
-342.377	136.140	0.111	-0.142
-341.362	-44.448	-0.277	0.137
-340.348	742.274	-0.163	0.433
-339.333	52.840	-0.166	-0.157
-338.318	-200.000	-0.014	-0.084
-337.304	5.494	-0.204	-0.149
-336.289	363.172	-0.073	-0.144
-335.275	135.986	0.183	-0.236
-334.260	444.679	-0.150	-0.325
-333.245	800.000	-0.040	-0.173
-332.231	243.969	0.065	0.107
-331.216	-12.390	0.319	-0.206
-330.202	-200.000	0.079	0.386
-329.187	-19.104	-0.110	-0.068
-328.172	773.460	0.069	-0.185
-327.158	-152.038	-0.289	-0.021
-326.143	-200.000	-0.075	-0.438
-325.129	100.394	-0.170	-0.195
-324.114	-108.358	0.318	0.068
-323.099	158.544	0.189	0.259
-322.085	-71.830	0.182	0.067
-321.070	-122.465	0.252	0.040
-320.056	-79.439	0.146	0.049
-319.041	800.000	0.087	0.273
-318.026	332.473	-0.055	-0.105
-317.012	-85.630	0.290	-0.089
-315.997	95.047	-0.176	0.197
-314.983	12.578	0.222	-0.169
-313.968	187.668	0.088	0.129
-312.953	-18.632	0.399	-0.245
-311.939	-47.813	-0.027	0.013
-310.924	89.422	0.092	-0.101
-309.910	88.219	0.179	-0.196
-308.895	676.552	0.072	0.185
-307.880	93.480	-0.098	0.109
-306.866	-7.988	-0.069	-0.046
-305.851	118.039	-0.139	0.169
-304.837	-77.505	0.043	-0.015
-303.822	-200.000	-0.175	0.000
-302.807	-200.000	0.051	0.413
-301.793	-200.000	-0.006	0.058
-300.778	-5.149	-0.173	-0.117
-299.764	-93.916	-0.175	-0.047
-298.749	800.000	-0.027	0.106
-297.735	244.275	-0.154	0.255
-296.720	-10.510	0.022	0.015
-295.705	-51.226	0.075	-0.035
-294.691	23.791	-0.237	-0.192
-293.676	21.975	0.174	0.140
-292.662	283.969	0.096	0.170
-291.647	42.239	-0.032	0.029
-290.632	44.230	-0.086	0.078
-289.618	128.630	0.148	0.186
-288.603	-200.000	-0.002	0.134
-287.589	214.614	0.155	-0.241
-286.574	68.598	-0.207	0.209
-285.559	800.000	0.075	-0.223
-284.545	30.903	0.088	-0.074
-283.530	800.000	-0.044	-0.189
-282.516	126.786	0.160	-0.200
-281.501	-119.905	-0.144	-0.024
-280.486	-200.000	0.005	-0.207
-279.472	522.276	-0.114	-0.263
-278.457	-46.708	0.223	-0.107
-277.443	-93.389	-0.163	0.044
-276.428	-200.000	0.018	0.414
-275.413	26.921	-0.028	0.023
-274.399	-44.094	-0.333	0.165
-273.384	-200.000	-0.029	0.380
-272.370	39.101	-0.267	-0.235
-271.355	11.211	-0.213	0.160
-270.340	119.356	0.079	0.097
-269.326	-200.000	0.026	-0.227
-268.311	415.402	0.110	-0.231
-267.297	244.802	0.032	0.052
-266.282	800.000	-0.083	-0.246
-265.267	-200.000	-0.013	-0.082
-264.253	136.933	-0.126	0.163
-263.238	287.027	-0.038	0.068
-262.224	28.880	-0.217	0.181
-261.209	424.457	-0.168	-0.356
-260.195	-200.000	0.025	-0.396
-259.180	-140.364	0.238	-0.024
-258.165	153.414	0.144	-0.194
-257.151	800.000	-0.048	0.130
-256.136	-52.307	-0.144	-0.066
-255.122	105.480	-0.263	0.305
-254.107	791.898	-0.084	-0.228
-253.092	-132.719	0.282	0.035
-252.078	-11.326	-0.299	-0.194
-251.063	-137.019	0.088	0.010
-250.049	750.836	0.089	0.236
-249.034	3.975	-0.057	0.041
-248.019	157.475	0.143	-0.195
-247.005	147.219	0.031	0.041
-245.990	108.454	-0.252	0.296
-244.976	65.123	0.196	-0.195
-243.961	197.131	0.005	-0.007
-242.946	-136.113	0.364	0.042
-241.932	71.694	-0.274	-0.280
-240.917	145.349	-0.176	-0.231
-239.903	800.000	-0.024	-0.070
-238.888	-35.696	-0.291	0.155
-237.873	37.448	-0.242	-0.211
-236.859	136.202	0.161	0.206
-235.844	159.808	0.119	-0.162
-234.830	190.922	0.228	0.337
-233.815	-200.000	0.029	0.173
-232.800	-200.000	0.013	-0.097
-231.786	-2.569	0.100	-0.069
-230.771	-200.000	-0.003	-0.113
-229.757	186.638	0.083	0.121
-228.742	205.784	0.098	-0.150
-227.727	-58.631	0.322	-0.137
-226.713	-85.616	0.287	-0.088
-225.698	99.407	-0.187	-0.213
-224.684	17.619	-0.171	-0.133
-223.669	-200.000	0.015	0.373
-222.655	-57.488	-0.239	0.103
-221.640	800.000	0.061	0.187
-220.625	-200.000	0.002	-0.068
-219.611	47.958	0.165	-0.152
-218.596	-158.818	0.133	-0.007
-217.582	800.000	0.158	-0.490
-216.567	283.840	0.092	-0.162
-215.552	236.336	-0.088	-0.143
-214.538	512.332	0.017	-0.038
-213.523	-200.000	0.007	-0.146
-212.509	-200.000	0.004	-0.029
-211.494	436.920	0.034	0.072
-210.479	411.397	-0.117	-0.244
-209.465	225.488	-0.083	0.132
-208.450	-64.481	-0.185	0.074
-207.436	-105.538	0.184	-0.041
-206.421	-154.687	0.160	-0.010
-205.406	184.609	-0.015	-0.022
-204.392	220.939	0.185	0.291
-203.377	360.814	-0.104	0.204
-202.363	3.226	-0.213	0.152
-201.348	157.785	-0.094	0.128
-200.333	-69.759	0.253	0.095
-199.319	535.710	0.090	-0.209
-198.304	-28.772	0.328	0.185
-197.290	800.000	-0.080	-0.254
-196.275	-200.000	-0.020	-0.150
-195.260	-78.451	0.102	0.034
-194.246	-100.840	0.162	-0.039
-193.231	75.494	-0.196	0.203
-192.217	-200.000	0.003	0.426
-191.202	35.220	-0.249	0.214
-190.187	-200.000	-0.003	0.050
-189.173	-24.096	0.135	0.079
-188.158	19.673	0.165	-0.131
-187.144	-43.791	-0.111	-0.055
-186.129	247.230	0.068	0.112
-185.114	151.766	-0.098	0.131
-184.100	-78.937	0.107	-0.036
-183.085	-74.151	-0.049	0.017
-182.071	-114.840	-0.255	0.048
-181.056	800.000	0.117	0.419
-180.042	346.452	0.122	-0.235
-179.027	-59.864	0.232	-0.097
-178.012	219.835	-0.111	-0.174
-176.998	194.393	-0.096	0.142
-175.983	-154.014	-0.194	-0.013
-174.969	5.188	0.154	0.111
-173.954	52.580	-0.107	0.100
-172.939	-46.664	-0.112	0.054
-171.925	159.217	0.053	-0.073
-170.910	-113.618	0.164	-0.031
-169.896	800.000	-0.068	0.190
-168.881	-154.230	0.244	-0.016
-167.866	-119.570	0.210	-0.036
-166.852	4.765	0.119	0.085
-165.837	-181.632	-0.146	0.003
-164.823	493.521	0.077	0.173
-163.808	-200.000	-0.072	0.360
-162.793	-145.292	0.410	-0.036
-161.779	300.964	-0.103	-0.186
-160.764	-82.577	0.478	-0.152
-159.750	800.000	-0.036	-0.114
-158.735	75.613	-0.064	-0.067
-157.720	-200.000	-0.035	0.151
-156.706	70.799	0.161	0.164
-155.691	55.406	-0.137	0.130
-154.677	800.000	0.044	0.182
-153.662	-55.399	-0.268	-0.118
-152.647	544.802	-0.078	0.182
-151.633	-48.238	0.275	0.130
-150.618	800.000	-0.058	0.242
-149.604	-54.753	0.131	0.058
-148.589	-61.389	-0.290	-0.119
-147.574	188.846	0.084	-0.123
-146.560	236.693	0.047	-0.076
-145.545	800.000	-0.074	0.271
-144.531	-200.000	0.015	-0.084
-143.516	-60.945	0.216	0.089
-142.502	-106.346	0.249	-0.055
-141.487	-161.381	-0.077	-0.004
-140.472	-141.880	-0.139	-0.014
-139.458	180.797	0.095	0.137
-138.443	-200.000	0.004	-0.144
-137.429	-74.480	0.062	0.022
-136.414	69.147	0.103	-0.103
-135.399	-114.605	-0.096	0.018
-134.385	-200.000	0.053	-0.285
-133.370	-200.000	0.120	0.536
-132.356	2.280	0.027	-0.019
-131.341	-40.497	0.269	-0.137
-130.326	229.910	0.193	0.308
-129.312	-200.000	0.004	0.121
-128.297	-115.486	0.380	0.070
-127.283	-132.377	-0.408	-0.052
-126.268	-86.642	0.081	0.024
-125.253	800.000	0.048	0.135
-124.239	-59.959	-0.349	-0.146
-123.224	800.000	-0.014	0.038
-122.210	403.329	0.247	0.510
-121.195	-131.392	0.227	0.029
