DTS Sentinel unit serial number:	SN413079Multiplexer serial number:	ORYXHardware model number:	OX4-SRSoftware version number:	ORYX F/W v4.00 Oryx Data Collector v3.7.2.0data status	okinstallation	princeton_trtdifferential loss correction	single-endedforward channel	channel 2reverse channel	N/Adate	2019/09/12time	18:21:49forward acquisition time	15.00reverse acquisition time	0.00gamma	496.2192k internal	0.2323k external	0.2323temperature offset calibration	1.0130default loss term (dB/km)	0.3790temperature slope calibration	1.0000multiplexer offset coefficient	1.0000multiplexer slope coefficient	1.0000fibre end	0.00T internal ref (°C)	33.37T ext. ref 1 (°C)	2.94T ext. ref 2 (°C)	28.04length (m)	temperature (°C)	Stokes	anti-Stokes-747.200	64.399	0.568	0.578
-746.185	-25.142	-0.447	0.267
-745.171	22.196	-0.585	0.482
-744.156	222.868	-0.442	-0.720
-743.142	638.052	-0.158	0.405
-742.127	130.531	0.226	-0.293
-741.112	395.131	0.323	-0.680
-740.098	-62.226	0.344	-0.145
-739.083	36.639	0.804	0.717
-738.069	-121.152	0.364	0.062
-737.054	189.692	-0.184	0.279
-736.039	800.000	-0.107	0.418
-735.025	-38.895	0.444	0.236
-734.010	176.005	-0.457	-0.669
-732.996	527.221	0.249	-0.591
-731.981	-59.712	0.299	0.129
-730.966	-200.000	0.072	-0.338
-729.952	-127.056	-0.098	-0.015
-728.937	245.441	-0.160	0.271
-727.923	67.603	-0.162	-0.167
-726.908	-139.119	0.212	-0.023
-725.894	-36.091	-0.324	-0.177
-724.879	348.595	0.451	0.898
-723.864	587.116	0.299	-0.743
-722.850	-179.096	-0.323	0.007
-721.835	60.111	-0.267	0.266
-720.821	26.248	0.514	-0.433
-719.806	206.560	-0.571	0.897
-718.791	-102.627	-1.202	0.289
-717.777	9.416	0.830	-0.633
-716.762	800.000	-0.256	1.023
-715.748	-200.000	0.031	0.619
-714.733	253.913	-0.154	0.265
-713.718	-14.477	-0.215	0.139
-712.704	347.400	-0.125	0.248
-711.689	-200.000	0.002	0.675
-710.675	-152.479	0.685	0.050
-709.660	-77.722	0.376	-0.131
-708.645	-78.532	0.305	-0.105
-707.631	170.924	-0.365	0.528
-706.616	-134.479	0.159	-0.020
-705.602	-200.000	-0.046	0.326
-704.587	112.387	-0.616	0.751
-703.572	500.182	-0.183	-0.424
-702.558	-75.616	-0.388	0.139
-701.543	-19.340	0.717	0.448
-700.529	164.404	-0.631	-0.897
-699.514	14.536	0.120	0.094
-698.499	-200.000	-0.005	-0.256
-697.485	-67.041	-0.544	0.216
-696.470	-19.479	0.168	-0.105
-695.456	-125.187	0.312	0.048
-694.441	103.791	0.672	0.796
-693.426	370.786	-0.406	0.830
-692.412	800.000	0.160	0.617
-691.397	800.000	-0.299	-0.944
-690.383	-119.278	-0.093	0.016
-689.368	-123.544	0.580	-0.093
-688.354	-25.337	-0.471	0.281
-687.339	-107.504	-0.417	0.092
-686.324	800.000	-0.279	-0.777
-685.310	-6.777	-0.714	0.490
-684.295	157.902	-0.537	-0.750
-683.281	-200.000	-0.043	0.337
-682.266	5.984	0.477	0.356
-681.251	-151.224	0.261	0.020
-680.237	745.059	-0.166	0.451
-679.222	-200.000	0.035	0.430
-678.208	-40.798	0.691	-0.360
-677.193	57.196	-0.330	0.324
-676.178	800.000	-0.229	-0.645
-675.164	-106.901	0.883	-0.197
-674.149	-34.464	-0.647	-0.357
-673.135	-162.913	1.065	-0.052
-672.120	64.290	0.392	-0.398
-671.105	350.712	-0.394	0.784
-670.091	-200.000	-0.061	-0.624
-669.076	309.499	-0.166	0.312
-668.062	395.547	-0.262	-0.551
-667.047	-200.000	0.005	-0.034
-666.032	514.760	0.166	-0.390
-665.018	-117.148	-0.446	0.082
-664.003	-147.538	-0.240	-0.020
-662.989	-144.885	-0.287	-0.026
-661.974	317.860	-0.223	-0.424
-660.959	-200.000	-0.062	-0.703
-659.945	-200.000	-0.061	0.759
-658.930	27.610	-0.187	0.158
-657.916	-200.000	-0.019	0.633
-656.901	-144.917	-0.418	-0.038
-655.886	-200.000	-0.006	0.408
-654.872	-200.000	0.016	0.785
-653.857	786.112	0.197	-0.545
-652.843	438.501	-0.325	0.714
-651.828	-200.000	-0.014	0.143
-650.814	62.997	0.391	-0.394
-649.799	-200.000	0.066	-0.377
-648.784	-51.962	0.376	0.176
-647.770	800.000	0.159	0.701
-646.755	-93.638	-0.728	0.202
-645.741	-87.231	-0.327	0.100
-644.726	800.000	0.008	-0.027
-643.711	-84.130	-0.435	0.139
-642.697	-74.195	0.250	-0.091
-641.682	18.414	-0.804	-0.646
-640.668	60.898	-0.168	-0.168
-639.653	-168.722	-0.242	0.009
-638.638	-200.000	0.087	-0.738
-637.624	544.740	-0.080	0.192
-636.609	-200.000	0.096	0.590
-635.595	516.536	-0.208	0.489
-634.580	-107.908	-0.209	0.046
-633.565	152.150	-0.347	0.475
-632.551	800.000	-0.119	0.340
-631.536	-95.492	-0.544	-0.147
-630.522	268.909	-0.563	-0.993
-629.507	-200.000	-0.103	-0.551
-628.492	-139.925	-0.482	-0.051
-627.478	9.953	0.337	0.257
-626.463	-49.706	0.338	0.162
-625.449	-137.856	-0.385	-0.043
-624.434	-200.000	0.020	0.165
-623.419	54.901	0.120	0.117
-622.405	-113.939	0.296	0.058
-621.390	-94.166	-0.459	-0.126
-620.376	-101.133	-0.362	-0.089
-619.361	-9.921	-0.260	0.174
-618.346	41.352	0.193	0.176
-617.332	-22.481	-0.704	-0.428
-616.317	51.902	0.328	0.313
-615.303	-63.918	0.232	0.095
-614.288	-38.271	-0.493	0.263
-613.273	-107.872	-0.107	0.023
-612.259	-114.766	0.268	-0.051
-611.244	87.620	-0.400	0.445
-610.230	-200.000	-0.083	-0.464
-609.215	378.655	-0.110	0.226
-608.201	-200.000	-0.053	-0.335
-607.186	107.085	0.626	-0.748
-606.171	172.195	0.232	-0.334
-605.157	21.763	-0.611	0.499
-604.142	-200.000	-0.204	0.998
-603.128	-200.000	0.036	-0.913
-602.113	-138.991	-0.873	-0.095
-601.098	103.429	-0.051	0.060
-600.084	313.257	0.216	-0.407
-599.069	-200.000	0.079	0.368
-598.055	624.972	-0.154	0.390
-597.040	-50.790	0.402	-0.190
-596.025	49.767	0.365	-0.345
-595.011	10.444	-0.605	-0.463
-593.996	-170.428	0.386	0.014
-592.982	141.167	-0.746	0.990
-591.967	-200.000	-0.052	-0.823
-590.952	212.645	0.351	-0.555
-589.938	-15.506	0.219	-0.140
-588.923	215.635	0.386	-0.616
-587.909	55.060	-0.697	-0.676
-586.894	800.000	-0.198	-0.582
-585.879	-103.346	0.782	-0.185
-584.865	2.422	-0.283	-0.206
-583.850	-104.618	-0.410	0.095
-582.836	-200.000	0.008	-0.452
-581.821	101.786	-0.129	0.151
-580.806	-38.257	0.266	-0.141
-579.792	800.000	-0.177	0.739
-578.777	373.701	0.233	0.475
-577.763	213.425	0.383	0.608
-576.748	800.000	-0.304	-0.950
-575.733	107.264	-0.229	0.273
-574.719	-98.919	-0.547	-0.139
-573.704	-4.137	0.272	0.189
-572.690	-61.713	0.278	0.117
-571.675	-44.701	0.595	-0.298
-570.661	-113.118	1.151	0.228
-569.646	-200.000	0.100	-1.184
-568.631	-173.561	-0.876	-0.026
-567.617	-2.323	-0.255	-0.180
-566.602	-38.902	0.570	0.301
-565.588	0.562	-0.727	-0.521
-564.573	172.678	0.101	-0.146
-563.558	-84.404	0.513	0.163
-562.544	-200.000	-0.015	0.159
-561.529	149.482	-0.317	-0.430
-560.515	-48.357	0.543	0.262
-559.500	-122.398	0.168	-0.028
-558.485	92.701	-0.133	0.151
-557.471	-200.000	0.142	0.793
-556.456	47.783	0.395	0.370
-555.442	17.269	-0.485	-0.386
-554.427	-152.179	0.841	0.061
-553.412	-49.000	-1.068	0.513
-552.398	18.533	0.367	-0.294
-551.383	6.779	-0.193	-0.144
-550.369	118.338	-0.075	0.093
-549.354	-43.208	-0.247	0.125
-548.339	-200.000	-0.075	-0.332
-547.325	-2.796	-0.331	-0.232
-546.310	-0.784	-0.209	-0.148
-545.296	-52.632	0.552	0.255
-544.281	-145.471	1.497	0.135
-543.266	-200.000	-0.030	0.334
-542.252	-34.642	-0.615	-0.337
-541.237	800.000	-0.063	0.234
-540.223	-82.687	-0.281	0.091
-539.208	267.675	0.577	1.012
-538.193	-36.597	-0.694	-0.374
-537.179	169.536	-0.187	0.268
-536.164	800.000	-0.158	-0.493
-535.150	81.181	-0.240	-0.260
-534.135	-200.000	0.119	-0.747
-533.121	-165.833	-0.275	0.012
-532.106	239.497	0.636	-1.061
-531.091	-200.000	0.009	-0.237
-530.077	113.892	-0.295	0.359
-529.062	-25.674	-0.269	0.159
-528.048	9.452	0.103	0.078
-527.033	-200.000	-0.026	0.598
-526.018	113.417	0.539	-0.655
-525.004	-133.871	0.611	0.076
-523.989	-200.000	0.061	-0.712
-522.975	-200.000	0.094	-0.456
-521.960	-123.528	-0.781	-0.124
-520.945	-55.955	0.472	0.211
-519.931	-69.088	-0.731	0.282
-518.916	-32.348	0.439	-0.245
-517.902	74.113	-0.031	-0.033
-516.887	-52.680	-0.416	0.192
-515.872	11.522	-0.228	0.175
-514.858	70.587	0.339	0.351
-513.843	-2.740	-0.317	0.222
-512.829	125.040	-0.217	-0.273
-511.814	-139.725	-0.434	-0.046
-510.799	-200.000	0.028	-0.573
-509.785	175.401	0.360	0.521
-508.770	-59.020	0.360	0.156
-507.756	-36.036	-0.329	0.178
-506.741	-122.383	0.859	-0.140
-505.726	105.676	0.182	0.215
-504.712	61.005	-0.163	0.162
-503.697	-200.000	0.130	0.698
-502.683	-74.500	0.512	0.184
-501.668	-15.936	0.520	0.331
-500.653	541.248	-0.273	-0.652
-499.639	-10.963	0.328	-0.217
-498.624	-58.168	0.454	0.198
-497.610	-82.329	0.756	0.246
-496.595	-200.000	0.027	-0.855
-495.581	-48.937	-0.701	0.336
-494.566	-103.509	0.562	-0.132
-493.551	-61.502	0.496	0.208
-492.537	12.675	0.371	-0.286
-491.522	118.787	-0.704	-0.870
-490.508	-54.898	0.219	0.099
-489.493	-200.000	-0.037	0.756
-488.478	-77.737	-1.145	-0.396
-487.464	-77.113	-0.880	-0.307
-486.449	-146.118	-0.548	-0.048
-485.435	-154.581	0.213	-0.014
-484.420	424.475	0.063	-0.136
-483.405	-78.581	0.909	-0.311
-482.391	-200.000	-0.021	-0.491
-481.376	29.123	0.488	-0.414
-480.362	-15.251	0.841	-0.538
-479.347	-200.000	-0.088	0.492
-478.332	-179.408	-0.336	0.007
-477.318	315.484	-0.188	-0.354
-476.303	-128.194	-0.512	0.073
-475.289	-15.725	-0.311	0.198
-474.274	-89.895	0.359	0.105
-473.259	800.000	-0.231	-0.778
-472.245	666.149	-0.126	-0.324
-471.230	-134.737	0.454	-0.055
-470.216	33.007	-0.356	0.308
-469.201	-106.090	-0.660	0.148
-468.186	-81.160	-0.717	-0.237
-467.172	-147.818	0.115	0.010
-466.157	-176.098	-0.433	-0.011
-465.143	-75.240	-1.374	0.490
-464.128	-128.596	0.303	-0.043
-463.113	-34.955	0.856	-0.466
-462.099	125.279	-0.101	-0.127
-461.084	-200.000	0.115	-0.682
-460.070	-128.610	-0.321	-0.045
-459.055	34.451	-0.355	-0.309
-458.040	636.493	-0.264	-0.670
-457.026	700.967	0.234	0.615
-456.011	287.517	0.189	-0.340
-454.997	474.544	-0.347	0.781
-453.982	-71.621	0.341	-0.127
-452.968	-135.521	-0.769	0.091
-451.953	561.049	0.359	-0.865
-450.938	-137.900	-0.860	-0.096
-449.924	800.000	0.253	-0.904
-448.909	78.921	-0.364	0.389
-447.895	-85.765	0.864	-0.267
-446.880	-200.000	0.067	0.359
-445.865	55.208	-0.871	0.840
-444.851	210.867	0.018	0.029
-443.836	-98.172	0.186	-0.048
-442.822	-105.328	0.987	0.224
-441.807	-2.164	-0.111	-0.078
-440.792	-39.907	0.488	0.254
-439.778	15.962	-0.650	-0.511
-438.763	-35.168	0.322	-0.175
-437.749	527.178	0.137	0.321
-436.734	-200.000	-0.105	0.579
-435.719	-8.386	1.227	0.823
-434.705	800.000	0.197	-0.545
-433.690	299.895	0.408	-0.751
-432.676	-91.636	-0.238	-0.068
-431.661	-200.000	0.026	0.637
-430.646	39.640	0.363	0.325
-429.632	144.493	-0.454	-0.605
-428.617	199.503	0.406	0.620
-427.603	129.320	0.266	0.339
-426.588	84.362	-0.327	-0.357
-425.573	-148.151	0.243	-0.020
-424.559	72.926	-0.613	-0.638
-423.544	-140.866	-0.688	-0.071
-422.530	55.207	-0.751	-0.724
-421.515	141.322	0.355	0.469
-420.500	-200.000	0.122	-0.582
-419.486	98.350	-0.278	-0.320
-418.471	-67.030	0.183	0.072
-417.457	-200.000	0.019	-0.285
-416.442	800.000	0.195	0.770
-415.428	-14.034	0.353	0.227
-414.413	-195.594	-0.449	0.003
-413.398	-44.979	-0.610	0.303
-412.384	-13.500	0.774	0.500
-411.369	-123.192	0.828	0.132
-410.355	-103.690	0.688	0.161
-409.340	115.260	-0.042	-0.052
-408.325	28.025	-0.566	-0.476
-407.311	686.489	0.073	0.191
-406.296	62.124	0.659	0.655
-405.282	-28.356	0.269	0.154
-404.267	-0.923	0.388	0.274
-403.252	23.062	0.712	-0.582
-402.238	-41.198	-0.652	-0.335
-401.223	-200.000	-0.022	-0.157
-400.209	204.559	-0.116	-0.180
-399.194	48.436	0.266	-0.248
-398.179	202.927	0.293	0.451
-397.165	12.178	0.380	0.291
-396.150	523.488	0.249	-0.584
-395.136	-46.719	-0.135	-0.066
-394.121	400.272	-0.219	0.457
-393.106	800.000	-0.023	0.077
-392.092	-200.000	-0.191	-1.068
-391.077	-64.539	-0.526	0.213
-390.063	800.000	0.247	0.864
-389.048	-79.330	-0.561	0.189
-388.033	43.522	-0.496	-0.452
-387.019	-60.402	0.250	-0.106
-386.004	-200.000	0.103	-0.974
-384.990	-200.000	-0.002	0.075
-383.975	-76.570	0.736	0.257
-382.960	123.348	0.276	-0.344
-381.946	35.671	0.196	0.172
-380.931	-53.958	0.878	-0.398
-379.917	-63.820	-0.186	-0.076
-378.902	-200.000	-0.018	-0.240
-377.888	175.573	0.125	0.180
-376.873	-114.753	-0.538	0.102
-375.858	-19.903	0.456	0.280
-374.844	-23.249	-0.437	0.262
-373.829	-200.000	0.088	0.898
-372.815	210.533	0.196	-0.307
-371.800	56.785	0.648	-0.628
-370.785	553.664	0.167	-0.399
-369.771	74.480	-0.445	0.466
-368.756	-200.000	0.277	1.228
-367.742	491.074	-0.187	0.426
-366.727	-166.328	-0.585	0.025
-365.712	-200.000	-0.078	-0.393
-364.698	43.073	0.544	0.494
-363.683	22.225	0.467	-0.379
-362.669	-200.000	-0.016	-0.432
-361.654	-160.710	-0.252	-0.013
-360.639	-180.253	0.198	-0.004
-359.625	800.000	-0.204	-0.677
-358.610	-138.536	0.538	-0.059
-357.596	-94.419	0.641	-0.174
-356.581	396.317	0.050	-0.103
-355.566	-200.000	0.066	0.418
-354.552	800.000	0.220	0.618
-353.537	131.576	0.254	0.324
-352.523	436.971	-0.142	0.307
-351.508	-50.114	-0.876	0.412
-350.493	800.000	-0.228	0.926
-349.479	56.422	-0.380	0.368
-348.464	-200.000	-0.034	0.167
-347.450	-68.458	0.744	0.287
-346.435	-181.627	0.778	-0.015
-345.420	-120.184	-0.249	0.042
-344.406	-90.774	0.173	0.050
-343.391	-165.255	0.243	0.011
-342.377	112.037	-0.258	-0.310
-341.362	97.402	-0.144	-0.164
-340.348	-15.833	-0.617	-0.391
-339.333	56.212	-0.271	-0.261
-338.318	-44.150	-0.476	-0.237
-337.304	10.101	0.694	0.524
-336.289	-186.976	0.082	0.001
-335.275	5.207	0.345	-0.253
-334.260	58.531	0.560	-0.546
-333.245	-200.000	0.003	-0.150
-332.231	-200.000	-0.050	0.297
-331.216	-200.000	-0.025	-0.424
-330.202	639.638	-0.371	0.937
-329.187	338.869	-0.567	1.096
-328.172	324.892	0.070	0.134
-327.158	12.969	-0.734	-0.564
-326.143	127.597	0.338	-0.427
-325.129	313.952	-0.375	-0.701
-324.114	-200.000	-0.063	-0.960
-323.099	169.821	0.280	-0.398
-322.085	281.232	0.017	-0.030
-321.070	122.447	0.471	0.584
-320.056	54.836	-0.629	0.603
-319.041	190.398	0.281	-0.420
-318.026	-47.220	-0.964	-0.467
-317.012	-200.000	-0.025	-0.293
-315.997	-200.000	-0.183	1.425
-314.983	-94.996	0.472	-0.127
-313.968	800.000	-0.398	-1.147
-312.953	67.046	-0.087	-0.088
-311.939	-160.725	-0.712	0.037
-310.924	19.810	0.610	-0.488
-309.910	-200.000	0.007	-0.878
-308.895	800.000	0.127	-0.497
-307.880	123.933	0.301	0.375
-306.866	-70.210	0.149	-0.056
-305.851	478.832	0.352	0.791
-304.837	-200.000	0.076	0.534
-303.822	-200.000	-0.140	0.839
-302.807	-171.665	-0.690	-0.023
-301.793	-137.906	0.275	0.031
-300.778	185.422	-0.699	-1.030
-299.764	-200.000	0.128	0.563
-298.749	-200.000	-0.090	-0.545
-297.735	384.199	-0.135	-0.276
-296.720	-161.968	-1.110	0.056
-295.705	-62.063	-0.665	0.275
-294.691	185.993	0.397	0.586
-293.676	-200.000	0.030	1.339
-292.662	-88.076	1.238	0.368
-291.647	-131.136	0.788	0.104
-290.632	-200.000	0.003	-0.114
-289.618	-87.277	-0.623	0.187
-288.603	-94.416	0.357	0.097
-287.589	-200.000	-0.030	-0.175
-286.574	-200.000	0.033	0.158
-285.559	-20.421	-0.427	-0.260
-284.545	90.573	0.200	-0.222
-283.530	200.067	-0.577	-0.879
-282.516	-88.785	0.282	-0.083
-281.501	-167.806	0.801	-0.031
-280.486	5.465	0.279	0.204
-279.472	-28.444	-0.766	0.438
-278.457	-183.067	0.196	-0.003
-277.443	-66.009	-0.331	-0.131
-276.428	142.503	0.331	0.436
-275.413	-34.180	0.310	-0.169
-274.399	800.000	0.294	0.867
-273.384	-24.925	0.624	0.367
-272.370	-64.845	0.254	-0.102
-271.355	800.000	0.075	0.299
-270.340	36.024	-0.295	-0.257
-269.326	-53.136	0.452	0.206
-268.311	477.529	-0.300	0.672
-267.297	233.654	-0.305	-0.498
-266.282	-200.000	-0.023	-0.261
-265.267	-62.454	-0.182	-0.075
-264.253	107.341	0.541	0.638
-263.238	532.565	0.131	0.306
-262.224	49.009	0.303	-0.282
-261.209	800.000	0.052	0.150
-260.195	-200.000	-0.044	-0.286
-259.180	317.192	-0.558	1.045
-258.165	800.000	0.209	0.586
-257.151	-47.710	-0.314	-0.151
-256.136	-192.651	0.088	0.001
-255.122	-200.000	0.028	0.940
-254.107	83.984	0.411	0.444
-253.092	591.198	0.197	0.482
-252.078	-108.953	-0.639	0.135
-251.063	-172.039	0.513	0.016
-250.049	480.751	0.109	-0.246
-249.034	34.573	-0.441	0.382
-248.019	-41.568	0.368	0.187
-247.005	772.140	0.212	0.571
-245.990	-200.000	-0.066	0.754
-244.976	-52.664	0.645	-0.295
-243.961	46.119	0.289	-0.265
-242.946	164.735	0.135	-0.188
-241.932	-147.219	0.506	-0.043
-240.917	-147.414	0.904	0.076
-239.903	-105.337	-0.666	-0.150
-238.888	16.844	0.559	0.438
-237.873	36.233	0.048	-0.042
-236.859	-74.640	0.359	0.128
-235.844	-190.477	1.170	0.013
-234.830	-150.981	-0.667	0.050
-233.815	-47.535	-0.780	0.375
-232.800	42.027	-0.522	0.469
-231.786	-42.599	0.425	0.214
-230.771	131.770	-0.884	-1.125
-229.757	-118.135	0.160	-0.028
-228.742	88.954	0.471	-0.518
-227.727	-200.000	-0.123	0.901
-226.713	7.402	-0.159	-0.117
-225.698	62.368	-0.194	-0.192
-224.684	226.580	0.259	0.415
-223.669	800.000	0.093	-0.346
-222.655	170.654	0.277	-0.392
-221.640	-200.000	0.059	0.387
-220.625	-162.748	-1.121	0.054
-219.611	800.000	0.096	-0.322
-218.596	-179.660	-0.730	0.016
-217.582	38.381	-0.435	-0.384
-216.567	49.306	0.214	-0.199
-215.552	20.627	-0.176	-0.141
-214.538	71.522	-0.407	0.418
-213.523	-186.324	0.132	-0.002
-212.509	-200.000	-0.074	0.796
-211.494	526.605	-0.375	0.874
-210.479	-162.224	0.840	0.042
-209.465	37.830	1.059	-0.930
-208.450	481.917	-0.202	0.453
-207.436	306.830	0.255	0.469
-206.421	256.617	0.377	0.640
-205.406	-17.208	-0.401	0.250
-204.392	507.201	0.066	0.150
-203.377	-136.675	-0.592	0.068
-202.363	-200.000	-0.040	-0.293
-201.348	169.038	-0.412	-0.581
-200.333	800.000	-0.086	0.303
-199.319	-81.182	-0.305	-0.100
-198.304	214.449	0.416	-0.651
-197.290	9.786	0.084	0.063
-196.275	-63.835	-0.525	-0.213
-195.260	-57.511	0.631	0.274
-194.246	77.681	-0.382	0.402
-193.231	-200.000	0.107	0.793
-192.217	-47.630	0.511	0.245
-191.202	58.568	0.108	0.105
-190.187	-200.000	-0.056	-0.497
-189.173	800.000	-0.043	0.141
-188.158	204.789	-0.317	-0.486
-187.144	-200.000	0.045	0.443
-186.129	-200.000	0.066	-0.289
-185.114	-200.000	0.068	-0.789
-184.100	-28.572	0.617	0.351
-183.085	-84.006	-0.255	-0.080
-182.071	113.284	-0.159	0.191
-181.056	-200.000	-0.050	-0.441
-180.042	-33.734	0.325	0.177
-179.027	11.518	-0.613	0.464
-178.012	18.439	-0.411	-0.324
-176.998	-96.100	0.754	-0.198
-175.983	492.735	-0.341	-0.773
-174.969	174.379	0.154	-0.220
-173.954	80.857	0.231	-0.246
-172.939	210.190	0.417	0.647
-171.925	70.042	-0.432	-0.440
-170.910	-75.979	0.233	0.081
-169.896	-116.084	0.097	0.018
-168.881	-79.006	-0.746	0.251
-167.866	234.511	0.256	0.416
-166.852	-79.912	-0.666	-0.221
-165.837	84.210	-0.189	0.204
-164.823	-200.000	-0.037	-0.480
-163.808	-200.000	-0.019	-0.125
-162.793	-11.060	0.342	-0.223
-161.779	-131.886	-1.071	0.138
-160.764	155.249	-0.335	0.456
-159.750	62.316	0.455	0.449
-158.735	-101.066	-0.492	0.119
-157.720	-132.452	0.927	-0.118
-156.706	17.005	0.157	-0.122
-155.691	-20.157	0.505	-0.307
-154.677	255.950	-0.129	-0.219
-153.662	257.243	-0.452	-0.767
-152.647	-115.079	-0.272	-0.051
-151.633	84.852	0.443	-0.479
-150.618	-89.140	-1.093	-0.319
-149.604	-59.759	-0.330	0.139
-148.589	-61.549	-0.645	0.267
-147.574	77.871	0.404	-0.424
-146.560	800.000	-0.201	-0.639
-145.545	670.397	-0.234	0.598
-144.531	20.316	-0.480	0.383
-143.516	-81.280	0.204	0.066
-142.502	-165.861	0.451	-0.019
-141.487	-69.690	-0.939	0.354
-140.472	-25.617	0.147	-0.085
-139.458	-200.000	-0.062	0.506
-138.443	-27.494	-0.597	0.342
-137.429	-80.052	0.268	-0.089
-136.414	-84.581	-0.438	0.136
-135.399	-200.000	-0.128	-0.654
-134.385	-72.747	-0.858	-0.312
-133.370	-73.220	0.900	0.325
-132.356	346.177	-0.118	-0.229
-131.341	-144.598	-0.785	-0.071
-130.326	297.702	0.247	0.448
-129.312	-200.000	0.043	0.793
-128.297	641.960	0.212	-0.532
-127.283	-122.992	-0.638	-0.101
-126.268	15.480	0.251	0.195
-125.253	-13.878	-0.699	-0.445
-124.239	-12.118	0.183	0.118
-123.224	70.519	-0.318	-0.324
-122.210	800.000	-0.046	0.165
-121.195	348.301	-0.513	-0.997
