DTS Sentinel unit serial number:	SN413079Multiplexer serial number:	ORYXHardware model number:	OX4-SRSoftware version number:	ORYX F/W v4.00 Oryx Data Collector v3.7.2.0data status	okinstallation	princeton_trtdifferential loss correction	single-endedforward channel	channel 2reverse channel	N/Adate	2019/09/14time	17:23:35forward acquisition time	60.00reverse acquisition time	0.00gamma	496.2192k internal	0.2309k external	0.2309temperature offset calibration	1.0119default loss term (dB/km)	0.3790temperature slope calibration	1.0000multiplexer offset coefficient	1.0000multiplexer slope coefficient	1.0000fibre end	0.00T internal ref (°C)	37.81T ext. ref 1 (°C)	5.05T ext. ref 2 (°C)	32.52length (m)	temperature (°C)	Stokes	anti-Stokes-747.200	-200.000	-0.038	0.235
-746.185	12.813	-0.245	0.193
-745.171	-62.476	0.020	-0.009
-744.156	14.592	0.411	0.326
-743.142	-23.996	-0.333	0.202
-742.127	-200.000	-0.024	0.295
-741.112	-34.343	-0.106	-0.059
-740.098	14.142	0.139	-0.110
-739.083	-200.000	0.051	0.262
-738.069	-133.024	-0.053	-0.007
-737.054	-200.000	0.015	0.207
-736.039	-40.677	-0.102	-0.054
-735.025	-200.000	0.033	0.172
-734.010	-147.628	-0.195	0.017
-732.996	59.983	-0.105	-0.105
-731.981	10.064	-0.180	0.139
-730.966	139.883	-0.031	-0.042
-729.952	-120.546	-0.247	-0.043
-728.937	-79.033	-0.367	0.127
-727.923	51.747	-0.194	-0.188
-726.908	73.337	-0.253	-0.269
-725.894	-44.513	-0.213	-0.108
-724.879	800.000	0.067	0.230
-723.864	-25.948	0.226	0.135
-722.850	708.334	-0.019	-0.052
-721.835	40.944	-0.061	0.056
-720.821	370.847	-0.065	-0.133
-719.806	19.728	-0.186	-0.152
-718.791	-92.806	0.061	0.017
-717.777	-200.000	0.012	0.148
-716.762	-200.000	0.016	0.155
-715.748	-148.791	0.054	-0.004
-714.733	-46.481	-0.253	0.126
-713.718	-200.000	0.018	-0.115
-712.704	117.885	0.099	-0.123
-711.689	-38.259	-0.164	0.088
-710.675	-40.815	-0.025	0.013
-709.660	-129.044	0.363	0.052
-708.645	191.018	-0.202	-0.308
-707.631	-126.300	-0.389	-0.059
-706.616	800.000	0.134	0.557
-705.602	-129.290	0.316	0.045
-704.587	-200.000	-0.031	-0.460
-703.572	-200.000	0.015	-0.135
-702.558	140.257	-0.012	-0.015
-701.543	87.863	-0.193	-0.217
-700.529	-127.108	-0.263	0.039
-699.514	800.000	-0.100	0.405
-698.499	-31.257	-0.299	0.171
-697.485	-71.681	0.060	0.023
-696.470	-200.000	-0.006	0.062
-695.456	-200.000	0.012	0.205
-694.441	-200.000	-0.024	-0.126
-693.426	800.000	0.067	-0.292
-692.412	800.000	0.121	0.345
-691.397	-168.162	-0.551	0.022
-690.383	581.197	0.071	0.175
-689.368	-200.000	-0.018	-0.254
-688.354	-53.697	-0.244	0.113
-687.339	462.193	-0.013	-0.030
-686.324	799.061	0.121	-0.338
-685.310	-111.161	-0.121	-0.025
-684.295	285.248	0.195	0.355
-683.281	-200.000	0.012	-0.231
-682.266	261.242	-0.075	-0.131
-681.251	-18.666	0.020	-0.012
-680.237	215.053	-0.134	-0.216
-679.222	-69.073	-0.209	0.081
-678.208	-152.088	0.204	-0.015
-677.193	166.949	-0.187	-0.269
-676.178	-181.415	-0.129	-0.003
-675.164	-79.695	-0.122	-0.042
-674.149	-70.974	-0.261	0.100
-673.135	800.000	-0.107	-0.331
-672.120	-144.626	-0.199	-0.019
-671.105	180.549	-0.124	0.184
-670.091	-130.799	0.311	0.042
-669.076	605.067	0.096	-0.241
-668.062	-11.706	0.281	-0.187
-667.047	12.981	0.137	0.107
-666.032	127.306	-0.031	-0.040
-665.018	-200.000	-0.031	-0.270
-664.003	-70.060	-0.091	-0.035
-662.989	-200.000	-0.076	0.364
-661.974	-12.410	0.010	0.007
-660.959	-86.470	-0.194	0.060
-659.945	-200.000	-0.019	0.341
-658.930	17.484	0.117	0.094
-657.916	78.863	-0.317	0.344
-656.901	-66.248	0.474	0.191
-655.886	-134.316	0.107	0.013
-654.872	9.223	-0.166	0.127
-653.857	800.000	-0.057	-0.215
-652.843	182.723	0.075	-0.111
-651.828	800.000	-0.034	-0.132
-650.814	-4.040	0.163	-0.114
-649.799	-200.000	-0.017	-0.132
-648.784	-53.974	-0.368	-0.170
-647.770	-118.948	-0.075	-0.013
-646.755	-100.181	-0.253	-0.064
-645.741	207.694	0.200	0.316
-644.726	-53.685	0.097	0.045
-643.711	-108.504	0.272	0.059
-642.697	-152.699	-0.140	-0.010
-641.682	23.601	-0.162	-0.135
-640.668	-200.000	-0.028	-0.210
-639.653	800.000	-0.039	0.130
-638.638	208.958	0.086	0.136
-637.624	15.247	0.151	-0.120
-636.609	-89.971	-0.240	0.071
-635.595	-200.000	0.022	-0.148
-634.580	-200.000	-0.076	-0.352
-633.565	-38.649	0.216	-0.116
-632.551	89.942	0.064	-0.072
-631.536	800.000	-0.053	0.189
-630.522	-29.583	-0.141	0.082
-629.507	-51.375	0.247	0.117
-628.492	256.777	-0.021	-0.036
-627.478	800.000	0.096	0.268
-626.463	-200.000	0.015	-0.193
-625.449	40.340	-0.256	0.233
-624.434	75.320	0.152	0.162
-623.419	-65.174	0.091	0.037
-622.405	-35.613	-0.270	-0.148
-621.390	800.000	-0.043	-0.171
-620.376	104.046	-0.223	0.265
-619.361	-79.143	-0.249	-0.086
-618.346	-200.000	0.012	-0.245
-617.332	-200.000	0.007	0.161
-616.317	-90.817	-0.336	0.098
-615.303	119.589	0.098	0.122
-614.288	678.604	-0.081	-0.212
-613.273	17.112	0.046	0.037
-612.259	-200.000	-0.010	-0.052
-611.244	800.000	-0.110	-0.325
-610.230	23.162	-0.244	-0.202
-609.215	-200.000	-0.003	0.291
-608.201	-200.000	0.078	0.363
-607.186	-200.000	-0.078	-0.357
-606.171	-200.000	0.002	-0.130
-605.157	-200.000	-0.008	-0.417
-604.142	164.226	0.193	0.274
-603.128	-101.391	-0.127	-0.031
-602.113	-35.677	0.085	0.046
-601.098	-89.920	0.040	0.012
-600.084	-200.000	-0.008	0.243
-599.069	-3.658	0.116	0.081
-598.055	571.386	-0.101	-0.250
-597.040	-136.144	0.194	-0.023
-596.025	157.629	0.095	0.133
-595.011	752.548	0.094	0.257
-593.996	-200.000	-0.006	0.099
-592.982	278.059	0.084	0.151
-591.967	-111.588	-0.108	-0.022
-590.952	35.338	0.281	-0.249
-589.938	384.488	-0.139	0.289
-588.923	326.084	0.153	-0.296
-587.909	-36.602	-0.157	-0.085
-586.894	-200.000	-0.044	-0.391
-585.879	339.746	-0.089	0.174
-584.865	800.000	0.106	-0.341
-583.850	171.288	0.064	-0.093
-582.836	-13.673	-0.293	0.192
-581.821	800.000	-0.047	-0.183
-580.806	-32.650	0.227	0.127
-579.792	38.261	-0.102	0.091
-578.777	-79.360	-0.265	-0.091
-577.763	248.624	0.163	-0.279
-576.748	-200.000	0.032	-0.265
-575.733	-161.915	-0.117	0.006
-574.719	-22.662	0.060	-0.037
-573.704	80.707	0.284	0.309
-572.690	-140.647	0.098	-0.010
-571.675	374.216	-0.063	-0.129
-570.661	49.832	-0.181	0.172
-569.646	43.390	0.104	-0.096
-568.631	27.794	0.152	0.129
-567.617	309.140	-0.181	0.341
-566.602	798.759	0.071	0.199
-565.588	15.702	-0.267	-0.212
-564.573	-56.567	-0.363	-0.162
-563.558	-200.000	0.043	0.352
-562.544	141.340	-0.145	0.193
-561.529	-154.484	-0.118	-0.008
-560.515	-200.000	-0.047	-0.305
-559.500	158.412	-0.139	-0.195
-558.485	-165.462	-0.260	-0.011
-557.471	800.000	-0.081	0.319
-556.456	-200.000	-0.005	-0.312
-555.442	-200.000	0.016	-0.161
-554.427	-9.949	0.134	0.090
-553.412	314.941	0.136	0.258
-552.398	-96.076	-0.309	-0.083
-551.383	-37.442	-0.169	0.091
-550.369	-200.000	-0.250	-0.001
-549.354	-49.959	-0.154	0.074
-548.339	800.000	0.116	0.358
-547.325	111.231	-0.116	-0.141
-546.310	-200.000	0.014	0.090
-545.296	481.412	0.027	0.061
-544.281	-173.524	-0.266	-0.008
-543.266	22.971	-0.202	-0.167
-542.252	54.479	0.237	-0.230
-541.237	-89.434	-0.164	0.049
-540.223	-200.000	0.009	0.122
-539.208	800.000	-0.067	-0.256
-538.193	95.789	-0.028	0.033
-537.179	-103.949	-0.029	0.007
-536.164	94.306	-0.124	0.142
-535.150	-121.843	0.206	0.034
-534.135	-119.687	-0.231	-0.040
-533.121	566.971	-0.078	-0.191
-532.106	647.521	0.108	-0.279
-531.091	-22.165	-0.083	0.051
-530.077	386.620	0.068	-0.142
-529.062	-20.645	0.200	-0.124
-528.048	-15.298	-0.093	-0.060
-527.033	249.703	0.066	-0.113
-526.018	-140.725	-0.065	0.007
-525.004	54.464	-0.041	0.040
-523.989	-200.000	-0.024	-0.109
-522.975	-70.334	-0.094	0.036
-521.960	-140.412	0.183	0.019
-520.945	-141.876	-0.049	0.005
-519.931	-200.000	0.018	-0.168
-518.916	-200.000	-0.040	0.329
-517.902	800.000	-0.003	-0.013
-516.887	-200.000	0.008	-0.049
-515.872	-200.000	0.005	-0.045
-514.858	-37.619	-0.215	-0.116
-513.843	-28.923	0.166	0.096
-512.829	3.745	0.070	0.052
-511.814	-200.000	-0.056	-0.341
-510.799	-67.844	0.216	0.085
-509.785	8.117	-0.136	0.103
-508.770	72.084	-0.051	-0.054
-507.756	800.000	0.029	-0.113
-506.741	-101.524	-0.165	-0.040
-505.726	-163.041	0.158	0.008
-504.712	110.537	-0.322	-0.390
-503.697	419.754	-0.088	-0.189
-502.683	-200.000	0.011	0.373
-501.668	-200.000	-0.057	0.313
-500.653	-157.328	-0.227	-0.014
-499.639	-82.120	-0.077	0.025
-498.624	-53.754	0.106	0.049
-497.610	-134.464	0.338	-0.042
-496.595	73.146	0.109	-0.115
-495.581	-116.171	0.076	-0.014
-494.566	-200.000	0.013	-0.104
-493.551	-54.911	0.163	0.074
-492.537	800.000	-0.041	0.138
-491.522	-8.638	0.034	0.023
-490.508	-200.000	-0.003	0.118
-489.493	-200.000	0.002	0.262
-488.478	-161.734	-0.116	0.006
-487.464	-12.549	-0.242	0.159
-486.449	800.000	-0.108	0.319
-485.435	74.358	-0.140	0.148
-484.420	107.561	-0.077	-0.092
-483.405	29.935	-0.239	-0.205
-482.391	-200.000	0.004	-0.208
-481.376	107.178	0.086	0.103
-480.362	459.951	0.182	-0.406
-479.347	-200.000	0.015	-0.142
-478.332	-200.000	-0.002	0.144
-477.318	-118.743	0.299	-0.053
-476.303	-100.303	0.171	0.043
-475.289	-12.073	-0.186	0.122
-474.274	-200.000	0.200	-0.000
-473.259	-200.000	0.050	0.242
-472.245	90.029	0.147	0.166
-471.230	39.717	0.279	0.251
-470.216	187.691	0.088	-0.131
-469.201	71.690	-0.164	-0.172
-468.186	-200.000	0.023	-0.108
-467.172	50.536	0.153	-0.145
-466.157	10.331	-0.245	-0.187
-465.143	38.374	-0.151	0.135
-464.128	57.035	-0.223	-0.219
-463.113	211.755	0.071	0.113
-462.099	-200.000	-0.018	-0.248
-461.084	-86.361	0.228	-0.071
-460.070	95.190	0.122	0.139
-459.055	425.755	0.113	-0.245
-458.040	-96.641	-0.155	0.041
-457.026	-200.000	0.021	0.263
-456.011	-83.365	-0.159	-0.051
-454.997	800.000	-0.128	0.403
-453.982	-26.811	0.299	-0.175
-452.968	146.891	-0.055	-0.074
-451.953	-114.548	-0.142	-0.027
-450.938	-200.000	0.038	-0.322
-449.924	-83.617	-0.413	-0.133
-448.909	135.216	0.363	-0.473
-447.895	764.151	-0.059	0.162
-446.880	-31.750	-0.175	0.099
-445.865	800.000	0.042	0.176
-444.851	664.110	-0.085	0.220
-443.836	17.234	0.140	-0.112
-442.822	-136.303	0.298	-0.035
-441.807	240.301	-0.187	-0.314
-440.792	30.208	-0.089	-0.076
-439.778	659.206	-0.063	0.162
-438.763	207.594	0.133	-0.209
-437.749	-82.165	0.206	0.068
-436.734	-200.000	-0.048	0.314
-435.719	-200.000	-0.088	-0.437
-434.705	-200.000	-0.001	-0.108
-433.690	76.668	0.155	0.165
-432.676	-104.475	-0.186	-0.043
-431.661	-72.735	0.197	-0.073
-430.646	-32.680	-0.262	-0.146
-429.632	-65.867	0.033	0.013
-428.617	-11.643	0.101	0.067
-427.603	-81.820	-0.352	-0.116
-426.588	111.471	0.164	-0.199
-425.573	307.192	-0.108	-0.202
-424.559	-163.328	-0.137	-0.007
-423.544	-200.000	0.011	0.064
-422.530	-38.584	0.061	-0.032
-421.515	-200.000	0.019	-0.145
-420.500	19.677	-0.203	-0.164
-419.486	111.559	0.183	0.222
-418.471	-200.000	0.018	-0.095
-417.457	-57.374	0.345	0.152
-416.442	540.724	0.019	0.046
-415.428	36.335	0.039	0.035
-414.413	331.340	-0.075	-0.146
-413.398	127.054	0.145	0.184
-412.384	-72.035	0.142	0.053
-411.369	-78.340	0.312	-0.107
-410.355	-50.309	0.039	0.019
-409.340	-200.000	-0.046	0.393
-408.325	-37.961	-0.190	-0.101
-407.311	-22.660	0.326	-0.198
-406.296	-58.170	0.109	0.048
-405.282	800.000	-0.020	0.063
-404.267	215.406	-0.043	0.068
-403.252	-200.000	-0.015	0.355
-402.238	-200.000	0.004	-0.069
-401.223	690.836	0.068	-0.178
-400.209	375.587	0.130	0.265
-399.194	-28.348	0.085	0.049
-398.179	-200.000	-0.031	0.189
-397.165	364.818	0.147	-0.297
-396.150	705.489	0.095	-0.251
-395.136	-29.229	0.184	0.105
-394.121	-100.061	0.368	0.092
-393.106	586.741	0.069	0.171
-392.092	-200.000	-0.032	0.189
-391.077	800.000	0.114	0.370
-390.063	61.053	-0.035	0.035
-389.048	-200.000	-0.063	0.657
-388.033	-35.943	0.216	0.117
-387.019	115.086	0.053	-0.065
-386.004	95.145	-0.112	-0.128
-384.990	-200.000	0.020	0.178
-383.975	215.555	0.042	-0.067
-382.960	278.697	0.131	-0.235
-381.946	-179.711	-0.208	-0.004
-380.931	-200.000	-0.044	0.300
-379.917	282.669	0.157	0.282
-378.902	-138.523	-0.292	0.032
-377.888	264.877	0.224	0.390
-376.873	-155.088	-0.222	0.015
-375.858	-171.136	0.091	0.003
-374.844	-97.649	0.046	0.012
-373.829	-112.863	0.149	-0.030
-372.815	-121.835	-0.157	0.026
-371.800	-16.844	0.105	-0.066
-370.785	44.464	0.138	0.127
-369.771	-81.759	-0.340	-0.112
-368.756	197.398	0.044	-0.067
-367.742	-123.978	0.144	0.023
-366.727	-28.536	-0.194	-0.112
-365.712	314.929	0.012	0.023
-364.698	-200.000	0.017	0.124
-363.683	-112.757	-0.162	-0.032
-362.669	-133.493	-0.283	0.036
-361.654	132.749	-0.078	0.100
-360.639	343.133	-0.223	0.437
-359.625	53.067	0.091	-0.087
-358.610	105.643	-0.062	0.074
-357.596	-97.978	-0.314	-0.081
-356.581	254.109	0.140	-0.239
-355.566	800.000	0.137	-0.387
-354.552	90.338	0.240	0.269
-353.537	-200.000	-0.005	-0.139
-352.523	-200.000	0.067	-0.502
-351.508	170.703	-0.048	-0.069
-350.493	180.516	0.141	-0.208
-349.479	133.524	-0.337	-0.436
-348.464	166.070	0.163	-0.230
-347.450	-157.607	-0.137	-0.008
-346.435	107.440	0.285	-0.339
-345.420	-59.850	-0.071	0.030
-344.406	800.000	-0.139	-0.543
-343.391	635.054	0.047	0.120
-342.377	-200.000	-0.011	-0.277
-341.362	-155.194	0.245	0.016
-340.348	19.708	0.145	-0.116
-339.333	32.382	-0.044	-0.038
-338.318	-147.179	0.419	-0.036
-337.304	169.944	-0.097	0.138
-336.289	-109.500	-0.099	0.021
-335.275	315.061	-0.138	0.260
-334.260	-9.192	-0.048	0.032
-333.245	-200.000	0.044	-0.226
-332.231	-126.050	-0.129	-0.019
-331.216	-107.642	-0.253	-0.055
-330.202	-156.751	0.111	0.007
-329.187	-71.532	0.072	-0.027
-328.172	-89.529	-0.090	0.026
-327.158	20.163	0.252	0.204
-326.143	-26.683	0.243	-0.142
-325.129	-142.923	0.245	0.024
-324.114	-117.910	-0.196	0.035
-323.099	-106.488	-0.113	0.025
-322.085	45.654	0.113	0.105
-321.070	-34.818	0.094	0.051
-320.056	259.331	0.077	0.132
-319.041	-96.516	0.105	-0.028
-318.026	665.614	0.107	-0.276
-317.012	13.894	0.139	0.108
-315.997	800.000	-0.062	-0.181
-314.983	800.000	0.109	0.383
-313.968	-145.715	0.175	0.016
-312.953	-38.571	-0.092	-0.049
-311.939	-25.946	-0.015	-0.009
-310.924	-41.624	0.076	-0.039
-309.910	-8.433	0.154	0.104
-308.895	-200.000	-0.032	-0.317
-307.880	609.338	0.098	-0.244
-306.866	189.162	-0.257	0.384
-305.851	-124.222	0.119	0.019
-304.837	281.900	0.044	0.079
-303.822	-94.100	-0.172	0.047
-302.807	673.975	-0.135	0.349
-301.793	-200.000	-0.031	-0.363
-300.778	-200.000	-0.024	0.333
-299.764	800.000	0.026	0.108
-298.749	-103.670	0.157	0.037
-297.735	-15.654	0.126	-0.080
-296.720	-43.482	-0.224	-0.113
-295.705	75.882	0.261	0.275
-294.691	220.237	0.240	0.384
-293.676	-118.507	-0.161	0.029
-292.662	119.337	-0.174	-0.215
-291.647	-90.488	0.156	0.045
-290.632	698.457	-0.075	-0.196
-289.618	-51.160	-0.253	0.119
-288.603	612.125	0.084	-0.209
-287.589	-66.037	-0.334	-0.133
-286.574	-130.328	0.224	-0.030
-285.559	-96.737	0.208	0.055
-284.545	-8.624	0.297	-0.199
-283.530	-79.939	-0.083	0.028
-282.516	-102.579	-0.397	0.095
-281.501	-27.763	0.162	0.094
-280.486	-2.283	0.299	0.209
-279.472	-103.310	0.312	0.074
-278.457	49.949	-0.100	-0.094
-277.443	47.302	0.114	0.106
-276.428	264.863	0.057	0.100
-275.413	-200.000	-0.003	-0.096
-274.399	-57.557	-0.435	0.190
-273.384	-120.716	0.043	-0.007
-272.370	-175.054	0.130	-0.004
-271.355	-200.000	-0.004	0.255
-270.340	46.053	0.327	-0.302
-269.326	41.952	0.146	-0.132
-268.311	-200.000	-0.023	-0.144
-267.297	708.692	0.085	-0.225
-266.282	275.314	-0.252	-0.445
-265.267	-139.988	0.347	-0.036
-264.253	-61.378	-0.536	-0.225
-263.238	-200.000	0.021	0.269
-262.224	765.717	0.088	0.239
-261.209	324.945	0.091	0.174
-260.195	11.451	-0.056	0.042
-259.180	143.562	0.317	-0.421
-258.165	31.195	0.106	0.091
-257.151	-124.310	-0.207	-0.032
-256.136	-11.968	0.312	0.204
-255.122	23.775	0.046	-0.037
-254.107	74.071	0.036	-0.038
-253.092	-134.465	-0.319	0.039
-252.078	800.000	0.067	0.279
-251.063	-92.646	-0.052	0.015
-250.049	73.120	0.306	-0.319
-249.034	-188.195	0.295	0.004
-248.019	20.793	0.142	0.115
-247.005	154.611	0.032	0.044
-245.990	-70.943	-0.209	0.078
-244.976	217.559	-0.102	-0.161
-243.961	-16.785	-0.355	0.223
-242.946	-103.552	0.204	-0.048
-241.932	-200.000	0.028	-0.182
-240.917	93.870	-0.074	0.084
-239.903	-29.235	-0.312	0.178
-238.888	-47.838	0.099	0.048
-237.873	353.247	0.129	0.255
-236.859	58.369	0.113	0.110
-235.844	16.973	0.165	-0.130
-234.830	-67.795	-0.126	0.049
-233.815	3.447	-0.185	0.134
-232.800	-200.000	-0.012	-0.281
-231.786	800.000	0.084	-0.309
-230.771	-79.436	0.113	-0.038
-229.757	17.780	-0.069	-0.055
-228.742	372.060	0.125	-0.253
-227.727	800.000	-0.055	0.168
-226.713	-145.959	-0.259	-0.023
-225.698	732.422	0.112	-0.298
-224.684	199.299	0.045	-0.068
-223.669	-87.074	-0.185	-0.056
-222.655	-31.135	0.161	0.090
-221.640	-40.131	0.174	-0.090
-220.625	-24.124	-0.105	-0.062
-219.611	-200.000	0.016	0.278
-218.596	44.135	0.059	-0.054
-217.582	-71.548	0.233	0.087
-216.567	-200.000	-0.013	0.206
-215.552	-159.658	-0.152	-0.008
-214.538	44.750	-0.367	0.336
-213.523	-52.619	0.196	0.090
-212.509	-99.550	0.232	-0.058
-211.494	-67.269	-0.173	-0.068
-210.479	-200.000	-0.021	0.112
-209.465	-19.838	0.101	-0.062
-208.450	-57.770	0.289	-0.126
-207.436	391.355	0.033	0.068
-206.421	-91.137	0.274	-0.078
-205.406	800.000	0.010	0.040
-204.392	-4.820	0.060	0.041
-203.377	8.443	-0.128	0.096
-202.363	-81.920	0.150	-0.049
-201.348	229.036	0.084	-0.137
-200.333	91.525	-0.194	-0.216
-199.319	282.820	0.208	0.371
-198.304	-171.708	-0.123	0.004
-197.290	441.650	-0.092	-0.200
-196.275	271.679	0.072	0.125
-195.260	-200.000	0.017	0.115
-194.246	-198.038	-0.206	0.001
-193.231	800.000	-0.069	0.295
-192.217	337.665	0.228	0.441
-191.202	258.194	-0.097	0.166
-190.187	-106.475	0.299	0.066
-189.173	17.776	-0.264	-0.209
-188.158	800.000	0.072	0.215
-187.144	536.287	-0.059	0.140
-186.129	414.778	-0.159	0.336
-185.114	800.000	0.089	-0.252
-184.100	800.000	-0.059	0.190
-183.085	265.423	0.215	0.372
-182.071	-200.000	0.021	0.288
-181.056	-179.458	-0.165	-0.004
-180.042	-95.275	-0.126	0.034
-179.027	489.551	-0.145	-0.331
-178.012	800.000	0.012	0.048
-176.998	-200.000	0.001	-0.051
-175.983	-200.000	-0.007	-0.121
-174.969	2.312	-0.078	0.056
-173.954	-105.412	0.150	0.034
-172.939	800.000	-0.031	0.105
-171.925	266.948	-0.125	0.217
-170.910	-137.544	-0.323	0.036
-169.896	166.530	-0.097	0.136
-168.881	800.000	0.018	0.063
-167.866	-130.177	0.154	0.021
-166.852	-200.000	-0.008	-0.168
-165.837	220.667	-0.213	0.340
-164.823	-200.000	0.051	0.288
-163.808	-200.000	0.011	0.059
-162.793	489.107	0.236	-0.536
-161.779	-200.000	0.003	-0.270
-160.764	-200.000	0.030	0.262
-159.750	189.627	-0.148	0.221
-158.735	-4.401	0.124	-0.085
-157.720	133.062	-0.160	-0.205
-156.706	-100.043	-0.093	0.023
-155.691	-200.000	0.012	-0.281
-154.677	-39.607	-0.058	0.030
-153.662	312.452	-0.082	-0.153
-152.647	-70.829	-0.378	-0.142
-151.633	-200.000	0.020	-0.132
-150.618	-141.705	0.124	-0.012
-149.604	-27.236	0.033	0.019
-148.589	-15.448	-0.203	0.129
-147.574	800.000	0.148	0.417
-146.560	-18.930	-0.202	0.125
-145.545	592.037	0.034	-0.084
-144.531	-112.163	-0.266	0.053
-143.516	200.688	-0.107	0.163
-142.502	-149.126	0.160	0.013
-141.487	800.000	0.054	-0.194
-140.472	-88.228	-0.142	-0.042
-139.458	-106.975	0.138	-0.030
-138.443	-70.645	0.395	0.148
-137.429	800.000	0.103	-0.416
-136.414	-200.000	-0.006	-0.103
-135.399	800.000	0.044	0.171
-134.385	527.206	0.045	0.106
-133.370	46.619	0.238	0.219
-132.356	800.000	-0.090	-0.304
-131.341	24.046	-0.051	-0.042
-130.326	-141.914	-0.242	0.024
-129.312	150.172	-0.009	0.011
-128.297	-72.516	-0.102	0.037
-127.283	-200.000	-0.007	-0.041
-126.268	223.345	-0.248	-0.397
-125.253	-200.000	0.010	-0.126
-124.239	-118.495	0.132	-0.023
-123.224	243.848	0.052	-0.087
-122.210	291.272	0.072	-0.131
