DTS Sentinel unit serial number:	SN413079Multiplexer serial number:	ORYXHardware model number:	OX4-SRSoftware version number:	ORYX F/W v4.00 Oryx Data Collector v3.7.2.0data status	okinstallation	princeton_trtdifferential loss correction	single-endedforward channel	channel 2reverse channel	N/Adate	2019/09/15time	05:07:34forward acquisition time	60.00reverse acquisition time	0.00gamma	496.2192k internal	0.2326k external	0.2326temperature offset calibration	1.0037default loss term (dB/km)	0.3790temperature slope calibration	1.0000multiplexer offset coefficient	1.0000multiplexer slope coefficient	1.0000fibre end	0.00T internal ref (°C)	30.62T ext. ref 1 (°C)	4.82T ext. ref 2 (°C)	25.24length (m)	temperature (°C)	Stokes	anti-Stokes-747.200	194.565	0.268	-0.410
-746.185	-2.398	-0.290	0.205
-745.171	-197.733	-0.096	0.001
-744.156	30.843	0.371	0.320
-743.142	477.323	0.038	0.086
-742.127	-40.326	-0.082	-0.043
-741.112	-200.000	0.085	-0.713
-740.098	505.253	0.090	0.209
-739.083	-113.053	-0.165	-0.033
-738.069	105.536	0.040	0.047
-737.054	-200.000	0.006	0.173
-736.039	800.000	0.071	-0.201
-735.025	705.649	0.134	-0.355
-734.010	-104.068	-0.223	0.052
-732.996	794.251	0.087	-0.241
-731.981	687.349	-0.048	0.125
-730.966	-116.351	-0.088	-0.016
-729.952	-168.433	-0.078	-0.003
-728.937	-78.483	-0.141	0.049
-727.923	-200.000	-0.038	0.237
-726.908	302.009	-0.041	-0.077
-725.894	85.855	-0.118	0.130
-724.879	-200.000	0.035	-0.373
-723.864	25.531	-0.289	-0.243
-722.850	-200.000	-0.014	-0.167
-721.835	-79.067	-0.084	-0.029
-720.821	300.915	-0.043	0.079
-719.806	-37.814	-0.392	-0.210
-718.791	-126.861	-0.294	-0.044
-717.777	-66.983	-0.012	0.005
-716.762	-200.000	-0.032	-0.512
-715.748	-159.786	0.194	0.011
-714.733	-200.000	0.030	0.182
-713.718	-24.267	-0.199	-0.120
-712.704	146.902	0.076	-0.103
-711.689	-59.917	-0.049	0.021
-710.675	-18.082	-0.352	-0.222
-709.660	-69.225	0.050	0.019
-708.645	-79.429	0.226	-0.077
-707.631	475.439	-0.257	-0.585
-706.616	83.917	-0.073	0.080
-705.602	-0.895	0.061	-0.044
-704.587	435.659	-0.061	0.134
-703.572	-115.095	-0.149	-0.028
-702.558	-14.737	-0.118	-0.077
-701.543	800.000	-0.077	0.300
-700.529	-200.000	0.021	0.444
-699.514	-200.000	-0.076	-0.357
-698.499	364.986	-0.115	-0.234
-697.485	246.849	-0.067	-0.113
-696.470	-118.936	-0.332	0.059
-695.456	800.000	0.032	0.106
-694.441	206.545	0.200	-0.314
-693.426	123.170	0.117	0.148
-692.412	5.129	-0.175	-0.130
-691.397	27.945	0.251	0.213
-690.383	214.915	-0.256	-0.408
-689.368	-200.000	-0.002	0.178
-688.354	133.904	-0.132	-0.172
-687.339	95.968	0.128	0.147
-686.324	800.000	-0.091	-0.337
-685.310	307.061	-0.111	-0.208
-684.295	110.859	0.171	-0.207
-683.281	-200.000	0.054	-0.284
-682.266	-66.728	0.136	-0.054
-681.251	-200.000	0.009	-0.301
-680.237	-171.294	0.224	-0.008
-679.222	101.655	-0.080	-0.094
-678.208	125.067	-0.157	-0.199
-677.193	-62.828	0.045	-0.019
-676.178	-134.542	-0.280	0.034
-675.164	-45.260	-0.117	-0.058
-674.149	-70.003	-0.141	0.054
-673.135	-37.980	-0.228	-0.122
-672.120	225.441	0.194	0.316
-671.105	-200.000	0.037	-0.307
-670.091	465.408	0.038	0.085
-669.076	240.494	-0.113	0.189
-668.062	-137.328	-0.222	0.025
-667.047	-132.385	-0.355	0.046
-666.032	-37.929	0.113	-0.060
-665.018	800.000	0.094	-0.351
-664.003	120.408	-0.156	0.194
-662.989	-8.749	0.072	-0.049
-661.974	-115.405	-0.250	-0.047
-660.959	-200.000	-0.031	0.230
-659.945	-51.514	-0.233	-0.109
-658.930	-103.576	0.247	0.058
-657.916	-200.000	0.025	0.281
-656.901	-200.000	0.006	0.060
-655.886	-91.138	-0.170	0.049
-654.872	-132.509	-0.281	0.036
-653.857	544.934	-0.054	-0.130
-652.843	-41.054	0.273	-0.142
-651.828	-87.019	-0.049	-0.015
-650.814	106.082	-0.150	-0.178
-649.799	-110.598	0.024	-0.005
-648.784	80.781	-0.078	-0.084
-647.770	-200.000	0.088	0.428
-646.755	43.936	-0.073	0.067
-645.741	-39.427	0.128	0.067
-644.726	-86.407	-0.315	0.097
-643.711	125.318	0.126	-0.159
-642.697	800.000	0.031	0.098
-641.682	-104.585	0.173	0.040
-640.668	75.132	0.253	0.268
-639.653	21.787	0.140	0.115
-638.638	-200.000	-0.006	0.090
-637.624	30.873	-0.080	-0.069
-636.609	418.129	0.169	0.362
-635.595	696.919	0.162	-0.428
-634.580	-200.000	0.014	0.139
-633.565	-200.000	-0.004	0.192
-632.551	800.000	-0.068	-0.243
-631.536	800.000	-0.075	-0.306
-630.522	-127.877	-0.278	-0.040
-629.507	-128.749	-0.252	0.036
-628.492	-84.105	-0.255	-0.081
-627.478	-16.633	0.279	0.177
-626.463	-126.988	-0.363	0.053
-625.449	-28.652	0.171	-0.099
-624.434	-0.125	0.226	0.161
-623.419	224.194	0.064	-0.104
-622.405	-200.000	-0.001	-0.156
-621.390	229.377	0.090	0.148
-620.376	-46.615	-0.168	0.083
-619.361	-14.295	0.133	-0.086
-618.346	-14.020	0.134	-0.087
-617.332	-111.047	-0.101	-0.021
-616.317	-200.000	-0.019	-0.182
-615.303	153.717	-0.027	0.037
-614.288	5.225	0.180	-0.133
-613.273	-90.084	0.245	-0.071
-612.259	800.000	0.072	-0.220
-611.244	-200.000	0.019	-0.370
-610.230	1.858	-0.052	-0.038
-609.215	76.721	-0.237	0.253
-608.201	-26.889	0.297	0.174
-607.186	331.281	0.110	-0.212
-606.171	53.497	0.098	-0.094
-605.157	92.632	0.177	0.200
-604.142	-47.983	-0.240	0.117
-603.128	-105.205	-0.253	-0.058
-602.113	-68.419	0.140	0.055
-601.098	668.043	0.132	0.343
-600.084	130.739	0.138	0.177
-599.069	-200.000	0.013	0.058
-598.055	-200.000	-0.031	0.213
-597.040	-105.379	0.046	0.011
-596.025	-200.000	-0.005	0.051
-595.011	-200.000	0.034	-0.232
-593.996	-200.000	-0.002	-0.072
-592.982	800.000	0.074	0.213
-591.967	-106.282	0.160	-0.036
-590.952	146.471	-0.182	0.244
-589.938	507.792	-0.135	0.313
-588.923	-170.117	0.275	-0.010
-587.909	16.956	0.037	0.029
-586.894	508.324	-0.089	0.206
-585.879	23.674	0.092	-0.076
-584.865	-200.000	0.014	0.163
-583.850	313.332	-0.053	0.100
-582.836	62.488	0.133	0.133
-581.821	800.000	0.075	-0.256
-580.806	-200.000	0.000	0.140
-579.792	800.000	-0.020	-0.079
-578.777	93.463	0.160	0.182
-577.763	-32.301	0.326	0.182
-576.748	-200.000	-0.013	-0.139
-575.733	-54.361	0.027	-0.012
-574.719	-21.201	0.230	-0.141
-573.704	-139.405	-0.114	-0.012
-572.690	-197.212	0.231	0.001
-571.675	-41.474	-0.289	-0.149
-570.661	-7.543	-0.089	0.060
-569.646	-39.958	0.173	0.091
-568.631	-68.533	0.307	-0.119
-567.617	-200.000	0.001	0.161
-566.602	233.985	-0.091	0.149
-565.588	800.000	-0.063	-0.173
-564.573	-11.367	-0.073	-0.048
-563.558	5.197	-0.197	0.145
-562.544	-115.381	-0.078	0.015
-561.529	-158.959	0.366	-0.021
-560.515	44.458	-0.261	-0.240
-559.500	-200.000	0.010	0.174
-558.485	48.031	0.178	0.166
-557.471	-200.000	-0.001	-0.067
-556.456	-200.000	0.051	-0.279
-555.442	53.458	0.278	-0.267
-554.427	-3.659	-0.155	0.108
-553.412	-159.862	-0.279	-0.015
-552.398	29.809	0.181	-0.154
-551.383	800.000	-0.175	-0.490
-550.369	16.802	-0.167	0.132
-549.354	-126.345	0.023	0.004
-548.339	-200.000	0.014	-0.189
-547.325	257.897	-0.115	0.198
-546.310	-33.855	0.162	0.089
-545.296	148.328	-0.190	-0.257
-544.281	-200.000	-0.001	0.060
-543.266	-200.000	0.004	-0.098
-542.252	769.071	-0.012	0.034
-541.237	36.114	-0.216	0.190
-540.223	800.000	0.035	0.109
-539.208	19.176	0.363	0.291
-538.193	-200.000	-0.016	-0.157
-537.179	-88.749	-0.346	0.103
-536.164	11.770	0.098	0.076
-535.150	800.000	0.088	-0.344
-534.135	-37.259	0.102	0.055
-533.121	-7.037	-0.147	0.100
-532.106	800.000	-0.079	0.250
-531.091	-149.418	-0.327	-0.026
-530.077	97.869	-0.139	0.160
-529.062	-98.836	0.052	-0.013
-528.048	-137.348	0.260	0.030
-527.033	-104.903	0.112	-0.026
-526.018	800.000	-0.046	0.136
-525.004	-105.359	0.373	-0.085
-523.989	-26.985	0.176	0.102
-522.975	17.076	0.156	0.124
-521.960	800.000	-0.092	0.254
-520.945	184.106	0.109	-0.161
-519.931	475.231	-0.119	-0.268
-518.916	330.970	-0.054	-0.104
-517.902	120.463	0.059	-0.073
-516.887	-180.420	-0.088	-0.002
-515.872	196.607	0.101	0.153
-514.858	57.033	-0.077	-0.075
-513.843	-49.850	-0.134	-0.064
-512.829	-200.000	0.014	0.106
-511.814	-200.000	-0.040	0.204
-510.799	116.495	0.066	-0.081
-509.785	97.640	-0.272	0.312
-508.770	224.977	0.157	-0.254
-507.756	105.161	-0.122	-0.144
-506.741	-173.024	-0.316	0.010
-505.726	-105.896	-0.285	-0.064
-504.712	-52.580	-0.201	0.093
-503.697	-81.106	0.205	0.068
-502.683	17.987	0.038	-0.030
-501.668	-108.991	0.221	0.047
-500.653	630.204	-0.048	0.121
-499.639	-200.000	-0.034	-0.218
-498.624	355.917	-0.076	-0.151
-497.610	-22.402	-0.191	0.116
-496.595	-47.027	-0.103	0.050
-495.581	-200.000	0.002	0.019
-494.566	105.947	0.071	0.084
-493.551	-200.000	0.041	0.227
-492.537	-199.110	0.203	-0.001
-491.522	800.000	-0.038	0.127
-490.508	16.745	-0.104	0.082
-489.493	-77.422	-0.178	-0.062
-488.478	-200.000	-0.020	0.148
-487.464	-108.255	-0.276	0.059
-486.449	-70.144	0.116	0.044
-485.435	211.021	0.153	0.241
-484.420	-58.349	-0.384	0.167
-483.405	341.021	0.130	0.253
-482.391	432.683	0.087	-0.187
-481.376	-63.150	-0.151	0.062
-480.362	-200.000	-0.030	-0.281
-479.347	51.512	-0.167	0.159
-478.332	-200.000	-0.010	-0.207
-477.318	-88.158	0.121	0.036
-476.303	800.000	-0.017	-0.055
-475.289	800.000	0.117	0.361
-474.274	-200.000	-0.027	0.323
-473.259	53.253	-0.085	0.081
-472.245	-200.000	-0.001	0.082
-471.230	-186.144	0.091	0.001
-470.216	220.323	-0.088	-0.141
-469.201	155.120	-0.171	0.234
-468.186	800.000	-0.105	0.353
-467.172	-17.063	-0.306	-0.192
-466.157	628.286	0.094	0.237
-465.143	-59.586	-0.273	-0.117
-464.128	-93.879	0.219	-0.060
-463.113	-200.000	-0.012	-0.058
-462.099	169.882	0.188	-0.268
-461.084	-45.961	0.063	-0.031
-460.070	800.000	0.075	-0.206
-459.055	-200.000	0.004	-0.108
-458.040	-200.000	-0.004	-0.045
-457.026	476.351	-0.065	-0.147
-456.011	-101.864	0.271	0.065
-454.997	-200.000	0.010	-0.237
-453.982	-152.163	-0.222	-0.016
-452.968	-200.000	-0.019	0.231
-451.953	-8.309	0.249	0.167
-450.938	-200.000	0.003	-0.306
-449.924	467.647	-0.072	-0.161
-448.909	-50.800	0.050	-0.023
-447.895	-10.779	-0.434	-0.286
-446.880	34.116	-0.066	-0.057
-445.865	424.188	0.087	0.187
-444.851	32.811	0.189	-0.163
-443.836	119.779	0.125	-0.154
-442.822	-199.642	0.318	0.002
-441.807	157.437	-0.211	0.291
-440.792	800.000	-0.022	0.077
-439.778	800.000	-0.101	0.291
-438.763	-128.351	-0.183	-0.026
-437.749	800.000	-0.089	-0.385
-436.734	181.122	-0.093	0.136
-435.719	-200.000	0.025	-0.382
-434.705	-28.767	-0.295	-0.169
-433.690	-200.000	-0.014	-0.111
-432.676	486.538	0.060	-0.135
-431.661	98.140	-0.379	-0.435
-430.646	-133.860	0.068	0.008
-429.632	-45.716	-0.157	-0.077
-428.617	800.000	0.049	0.199
-427.603	62.344	-0.246	-0.245
-426.588	800.000	-0.097	-0.274
-425.573	44.333	0.031	0.028
-424.559	-129.724	0.092	-0.013
-423.544	-35.878	-0.256	0.138
-422.530	-130.129	0.037	0.005
-421.515	22.337	-0.245	0.200
-420.500	260.614	0.087	-0.150
-419.486	-132.924	0.216	-0.027
-418.471	-99.276	-0.110	-0.028
-417.457	-12.936	0.161	-0.104
-416.442	19.149	-0.233	-0.186
-415.428	-111.888	0.051	0.010
-414.413	-72.910	-0.156	0.057
-413.398	14.869	-0.363	0.283
-412.384	75.726	-0.125	0.132
-411.369	96.855	0.060	0.069
-410.355	405.484	-0.088	0.184
-409.340	341.166	0.180	0.349
-408.325	258.021	0.078	-0.133
-407.311	-86.563	-0.096	0.029
-406.296	-200.000	-0.040	0.301
-405.282	491.261	-0.046	-0.105
-404.267	-64.302	-0.395	-0.160
-403.252	800.000	-0.048	-0.157
-402.238	156.468	-0.075	-0.102
-401.223	-122.858	0.228	0.037
-400.209	432.063	0.075	-0.161
-399.194	-114.369	0.086	-0.017
-398.179	-4.797	-0.097	-0.066
-397.165	173.181	0.120	-0.172
-396.150	321.258	0.034	0.065
-395.136	-200.000	-0.045	-0.407
-394.121	121.416	-0.094	-0.117
-393.106	-124.246	0.165	0.026
-392.092	4.702	0.052	0.038
-391.077	686.696	-0.076	-0.198
-390.063	16.150	0.234	-0.184
-389.048	-200.000	0.026	-0.368
-388.033	102.020	0.211	-0.245
-387.019	-73.710	-0.241	-0.087
-386.004	102.285	-0.126	0.147
-384.990	-14.898	0.110	0.070
-383.975	-10.292	-0.488	-0.322
-382.960	77.354	-0.192	-0.204
-381.946	-136.971	0.371	-0.042
-380.931	800.000	0.110	0.314
-379.917	-182.189	-0.286	0.005
-378.902	-59.725	-0.172	-0.073
-377.888	800.000	-0.055	-0.199
-376.873	158.699	-0.100	0.138
-375.858	23.075	0.352	-0.287
-374.844	105.155	-0.226	0.265
-373.829	95.706	-0.163	-0.185
-372.815	379.977	0.066	-0.134
-371.800	78.238	-0.197	-0.209
-370.785	26.009	0.151	-0.125
-369.771	-200.000	0.039	0.194
-368.756	800.000	-0.034	0.129
-367.742	-151.426	0.409	0.030
-366.727	250.109	0.180	0.303
-365.712	60.067	-0.066	-0.065
-364.698	145.004	-0.114	-0.152
-363.683	15.187	0.158	0.123
-362.669	-130.845	-0.090	0.012
-361.654	242.962	0.061	0.101
-360.639	-47.680	-0.168	-0.081
-359.625	-200.000	-0.020	-0.099
-358.610	-200.000	0.017	-0.206
-357.596	-123.378	0.235	0.037
-356.581	38.124	0.090	0.080
-355.566	-194.849	-0.367	-0.003
-354.552	-200.000	0.016	0.266
-353.537	109.064	-0.245	0.291
-352.523	-10.311	0.256	0.169
-351.508	-97.335	0.187	-0.049
-350.493	800.000	0.046	-0.148
-349.479	305.338	-0.045	0.083
-348.464	123.171	-0.164	-0.204
-347.450	639.831	0.082	-0.208
-346.435	250.778	0.126	0.212
-345.420	-200.000	-0.003	0.297
-344.406	-23.886	0.231	0.137
-343.391	178.109	0.113	-0.164
-342.377	-200.000	-0.006	0.077
-341.362	800.000	-0.102	-0.343
-340.348	299.764	0.053	-0.096
-339.333	376.830	0.077	0.156
-338.318	800.000	0.094	0.264
-337.304	-200.000	-0.037	-0.353
-336.289	-143.052	-0.255	0.024
-335.275	92.052	-0.122	-0.137
-334.260	328.366	0.068	0.130
-333.245	-13.652	-0.110	-0.071
-332.231	-55.184	0.067	-0.030
-331.216	33.185	-0.122	-0.105
-330.202	-13.938	-0.195	-0.125
-329.187	409.979	-0.134	-0.282
-328.172	800.000	-0.058	0.198
-327.158	-190.790	0.311	-0.003
-326.143	105.551	0.180	-0.212
-325.129	-52.715	-0.242	0.111
-324.114	-154.432	-0.536	-0.036
-323.099	201.133	0.070	0.106
-322.085	-160.133	-0.150	0.008
-321.070	34.919	-0.191	0.166
-320.056	45.535	-0.124	-0.113
-319.041	-3.337	-0.184	-0.127
-318.026	-36.294	-0.388	-0.207
-317.012	-30.545	-0.036	-0.020
-315.997	-148.057	-0.367	-0.030
-314.983	33.257	-0.211	0.182
-313.968	31.461	-0.144	0.123
-312.953	-0.840	0.234	-0.164
-311.939	346.388	0.232	-0.452
-310.924	-160.079	0.225	0.012
-309.910	630.708	-0.053	0.132
-308.895	-200.000	-0.028	0.361
-307.880	271.814	0.071	-0.124
-306.866	139.610	0.234	-0.305
-305.851	79.042	-0.068	0.072
-304.837	691.181	0.097	-0.253
-303.822	800.000	0.041	0.146
-302.807	-200.000	-0.021	-0.124
-301.793	800.000	-0.049	0.171
-300.778	-200.000	0.034	0.253
-299.764	202.783	0.024	0.037
-298.749	103.002	-0.164	0.190
-297.735	280.223	0.128	-0.227
-296.720	-200.000	0.000	0.197
-295.705	773.683	0.094	-0.253
-294.691	-200.000	0.052	0.289
-293.676	-55.759	-0.360	-0.159
-292.662	-107.241	-0.007	-0.001
-291.647	-47.813	-0.142	0.068
-290.632	-200.000	-0.056	0.279
-289.618	-118.838	0.101	-0.018
-288.603	-128.205	-0.210	0.030
-287.589	-172.363	0.163	0.005
-286.574	394.050	0.249	-0.514
-285.559	760.421	0.052	0.139
-284.545	-84.329	0.156	-0.049
-283.530	800.000	-0.008	-0.033
-282.516	-30.498	0.222	0.125
-281.501	469.368	0.094	0.210
-280.486	-38.874	-0.176	-0.092
-279.472	-128.451	0.323	-0.045
-278.457	-24.884	0.147	-0.086
-277.443	-39.582	-0.147	0.076
-276.428	143.799	0.237	0.312
-275.413	-142.932	0.321	0.031
-274.399	76.331	0.113	-0.118
-273.384	-200.000	0.005	0.201
-272.370	-6.664	0.082	0.055
-271.355	25.966	0.152	0.126
-270.340	-167.674	-0.374	-0.015
-269.326	-59.339	0.093	0.040
-268.311	-19.379	-0.220	-0.135
-267.297	-200.000	0.054	-0.312
-266.282	-200.000	0.009	-0.273
-265.267	656.636	0.030	-0.077
-264.253	-92.166	-0.330	0.092
-263.238	-77.050	-0.332	0.115
-262.224	-126.526	0.371	0.055
-261.209	-68.612	0.197	-0.075
-260.195	-62.456	0.169	0.070
-259.180	-63.892	0.161	-0.065
-258.165	51.523	-0.095	0.089
-257.151	-200.000	-0.009	0.097
-256.136	-121.709	-0.325	0.053
-255.122	82.573	0.084	0.090
-254.107	-28.659	0.413	-0.235
-253.092	603.241	0.113	0.278
-252.078	-18.101	0.201	-0.124
-251.063	-200.000	0.012	0.259
-250.049	-91.876	-0.227	-0.064
-249.034	-2.976	-0.066	-0.045
-248.019	318.305	0.100	0.188
-247.005	-200.000	-0.034	-0.333
-245.990	175.862	-0.197	0.283
-244.976	-83.508	-0.175	-0.056
-243.961	-200.000	-0.009	-0.311
-242.946	-129.160	-0.124	0.017
-241.932	800.000	0.040	-0.137
-240.917	-121.324	0.234	-0.039
-239.903	-34.255	-0.097	0.052
-238.888	-84.155	0.245	-0.077
-237.873	-137.669	0.145	0.016
-236.859	242.430	0.115	-0.191
-235.844	97.572	0.151	-0.171
-234.830	59.618	0.124	0.121
-233.815	-22.567	0.057	0.034
-232.800	-146.559	0.153	0.013
-231.786	-109.542	0.132	-0.027
-230.771	37.068	0.258	-0.226
-229.757	-50.059	-0.576	-0.270
-228.742	168.415	0.154	-0.217
-227.727	8.684	-0.057	0.042
-226.713	-200.000	0.005	0.332
-225.698	-36.177	-0.403	0.215
-224.684	800.000	0.056	0.211
-223.669	64.352	0.090	-0.090
-222.655	678.451	-0.110	0.283
-221.640	800.000	-0.204	0.705
-220.625	-137.268	-0.154	0.017
-219.611	36.006	0.219	0.191
-218.596	479.602	0.110	0.247
-217.582	202.706	-0.207	-0.316
-216.567	494.710	0.038	-0.086
-215.552	-127.290	0.202	-0.029
-214.538	-27.053	0.345	-0.199
-213.523	443.721	-0.050	0.108
-212.509	-60.823	-0.291	-0.122
-211.494	-4.221	-0.017	-0.012
-210.479	-167.461	-0.118	-0.005
-209.465	800.000	0.064	-0.225
-208.450	156.574	-0.159	0.217
-207.436	188.816	0.189	0.279
-206.421	-46.656	-0.263	0.127
-205.406	-165.179	0.231	0.010
-204.392	74.744	0.103	0.107
-203.377	-73.905	0.267	0.096
-202.363	-29.915	0.190	0.107
-201.348	-200.000	-0.032	-0.310
-200.333	-18.253	0.161	-0.099
-199.319	28.559	0.130	-0.109
-198.304	-78.143	0.267	-0.091
-197.290	-125.920	-0.233	-0.035
-196.275	228.724	0.048	0.078
-195.260	800.000	0.015	-0.049
-194.246	282.869	0.080	-0.141
-193.231	-41.421	-0.147	-0.074
-192.217	421.959	-0.043	0.092
-191.202	-19.918	-0.205	-0.125
-190.187	185.910	0.115	0.168
-189.173	-57.488	-0.010	-0.004
-188.158	-200.000	-0.038	0.178
-187.144	215.335	0.205	0.321
-186.129	-14.478	-0.131	-0.083
-185.114	-83.252	0.229	0.073
-184.100	742.700	0.099	-0.261
-183.085	800.000	0.027	0.106
-182.071	444.606	0.080	0.173
-181.056	-23.601	0.255	-0.151
-180.042	-8.565	-0.219	0.145
-179.027	314.436	-0.124	-0.230
-178.012	-52.258	0.256	-0.117
-176.998	288.930	0.114	0.203
-175.983	483.866	-0.075	0.169
-174.969	313.439	-0.130	-0.240
-173.954	-75.054	-0.135	-0.048
-172.939	-130.342	0.148	0.020
-171.925	-44.623	-0.327	0.161
-170.910	-44.716	-0.086	-0.042
-169.896	-57.466	-0.102	-0.044
-168.881	-63.835	-0.108	-0.043
-167.866	-60.231	0.298	-0.125
-166.852	96.372	-0.167	-0.188
-165.837	-40.669	-0.134	-0.069
-164.823	-95.647	0.350	0.092
-163.808	-200.000	-0.005	0.035
-162.793	800.000	-0.039	-0.130
-161.779	800.000	-0.070	-0.241
-160.764	-21.774	-0.167	0.100
-159.750	100.554	0.149	0.170
-158.735	-200.000	-0.009	0.075
-157.720	267.110	0.044	0.076
-156.706	486.435	-0.073	0.164
-155.691	-63.569	0.234	0.095
-154.677	-200.000	0.032	-0.254
-153.662	-139.754	0.552	-0.058
-152.647	-19.048	-0.240	0.147
-151.633	-70.637	0.242	0.090
-150.618	-200.000	0.000	-0.381
-149.604	800.000	0.059	0.171
-148.589	441.313	0.136	0.294
-147.574	204.189	-0.060	0.092
-146.560	-40.998	-0.267	-0.136
-145.545	195.824	0.025	-0.037
-144.531	291.327	-0.193	0.345
-143.516	-146.939	0.220	0.019
-142.502	-72.436	0.263	-0.096
-141.487	-13.017	-0.320	-0.205
-140.472	-8.640	0.214	-0.141
-139.458	800.000	-0.083	-0.335
-138.443	454.608	0.148	-0.324
-137.429	341.115	-0.031	-0.059
-136.414	165.655	-0.080	0.112
-135.399	-37.823	-0.344	0.180
-134.385	-69.404	0.019	0.007
-133.370	13.841	-0.080	0.061
-132.356	382.931	-0.135	0.273
-131.341	111.158	0.024	0.029
-130.326	-146.700	-0.101	-0.009
-129.312	119.136	0.041	-0.050
-128.297	31.291	0.146	0.123
-127.283	614.024	-0.105	0.258
-126.268	321.881	0.077	-0.144
-125.253	36.744	0.157	0.136
-124.239	47.416	0.219	0.201
-123.224	-102.304	0.547	0.129
-122.210	280.670	0.012	0.021
-121.195	-139.183	0.106	0.011
