DTS Sentinel unit serial number:	SN413079Multiplexer serial number:	ORYXHardware model number:	OX4-SRSoftware version number:	ORYX F/W v4.00 Oryx Data Collector v3.7.2.0data status	okinstallation	princeton_trtdifferential loss correction	single-endedforward channel	channel 2reverse channel	N/Adate	2019/09/14time	03:27:35forward acquisition time	60.00reverse acquisition time	0.00gamma	496.2192k internal	0.2337k external	0.2337temperature offset calibration	1.0125default loss term (dB/km)	0.3790temperature slope calibration	1.0000multiplexer offset coefficient	1.0000multiplexer slope coefficient	1.0000fibre end	0.00T internal ref (°C)	26.62T ext. ref 1 (°C)	3.26T ext. ref 2 (°C)	21.60length (m)	temperature (°C)	Stokes	anti-Stokes-747.200	-160.080	-0.151	0.008
-746.185	-91.852	0.320	0.091
-745.171	371.728	0.096	0.195
-744.156	-84.246	-0.320	0.102
-743.142	-200.000	-0.027	-0.127
-742.127	-146.059	0.074	0.007
-741.112	-58.554	-0.132	-0.058
-740.098	-200.000	-0.004	0.095
-739.083	461.662	0.085	0.190
-738.069	52.873	-0.075	-0.072
-737.054	30.026	0.127	0.109
-736.039	175.703	0.092	-0.134
-735.025	-119.310	0.076	0.013
-734.010	-103.956	0.090	-0.021
-732.996	-12.836	0.367	-0.240
-731.981	-200.000	-0.029	-0.325
-730.966	-200.000	-0.002	-0.166
-729.952	87.750	-0.169	0.188
-728.937	800.000	0.032	-0.137
-727.923	665.347	-0.101	-0.260
-726.908	-24.773	-0.199	-0.119
-725.894	54.720	-0.117	-0.113
-724.879	192.143	0.102	0.154
-723.864	36.116	0.039	-0.034
-722.850	-168.123	-0.325	0.013
-721.835	315.744	-0.192	-0.364
-720.821	693.487	0.039	0.102
-719.806	-54.880	-0.068	-0.031
-718.791	-140.443	0.184	-0.019
-717.777	-92.222	-0.220	0.062
-716.762	15.400	-0.079	-0.062
-715.748	-200.000	-0.229	0.001
-714.733	-91.416	0.125	0.036
-713.718	800.000	-0.128	-0.421
-712.704	33.649	-0.107	-0.093
-711.689	531.397	0.131	0.311
-710.675	-74.453	-0.118	0.043
-709.660	-200.000	-0.044	-0.372
-708.645	800.000	-0.100	-0.399
-707.631	-67.169	-0.227	0.089
-706.616	-167.925	-0.137	0.005
-705.602	800.000	-0.042	-0.136
-704.587	-110.444	0.218	0.045
-703.572	-77.975	-0.179	0.062
-702.558	436.850	0.068	0.149
-701.543	-157.005	0.308	0.019
-700.529	252.524	-0.079	0.135
-699.514	235.713	0.198	-0.328
-698.499	-161.132	-0.061	0.003
-697.485	-72.333	0.394	-0.146
-696.470	9.976	-0.331	-0.252
-695.456	8.188	0.244	0.183
-694.441	431.232	-0.067	0.146
-693.426	636.978	0.106	0.271
-692.412	-121.411	0.048	-0.008
-691.397	-105.016	0.206	0.047
-690.383	-48.194	-0.297	-0.144
-689.368	-200.000	-0.004	0.036
-688.354	-77.096	-0.085	0.030
-687.339	339.064	0.093	-0.182
-686.324	800.000	-0.046	-0.184
-685.310	800.000	-0.026	-0.091
-684.295	400.881	-0.055	-0.115
-683.281	-163.720	-0.399	-0.019
-682.266	-73.939	-0.312	0.113
-681.251	85.659	-0.068	0.075
-680.237	-62.319	-0.014	0.006
-679.222	-154.965	-0.280	-0.018
-678.208	-115.308	0.349	-0.066
-677.193	630.076	-0.101	0.256
-676.178	-70.774	0.217	-0.082
-675.164	97.723	-0.062	-0.072
-674.149	-22.935	-0.111	0.067
-673.135	-92.524	-0.145	-0.041
-672.120	-163.681	-0.385	-0.018
-671.105	265.239	0.227	-0.396
-670.091	-200.000	0.024	-0.241
-669.076	-103.546	0.280	-0.066
-668.062	-77.800	-0.175	0.061
-667.047	-22.968	-0.258	0.156
-666.032	-200.000	0.021	-0.422
-665.018	-200.000	0.034	-0.156
-664.003	229.273	0.011	0.018
-662.989	667.538	-0.099	-0.257
-661.974	-200.000	0.019	-0.157
-660.959	-76.540	-0.051	-0.018
-659.945	-64.472	-0.231	-0.094
-658.930	-107.784	-0.242	0.053
-657.916	-120.114	0.160	0.027
-656.901	-200.000	-0.033	0.255
-655.886	-4.070	-0.258	0.179
-654.872	-81.146	0.192	-0.064
-653.857	-200.000	0.047	-0.338
-652.843	-58.940	-0.368	-0.159
-651.828	174.444	0.183	0.264
-650.814	-200.000	0.082	-0.386
-649.799	445.712	0.044	0.096
-648.784	-28.414	-0.126	-0.073
-647.770	-10.953	-0.160	-0.106
-646.755	70.811	0.131	0.136
-645.741	66.698	0.165	-0.168
-644.726	54.268	-0.117	-0.112
-643.711	-91.936	-0.192	0.054
-642.697	-200.000	0.004	0.188
-641.682	325.505	0.098	0.187
-640.668	3.146	0.056	0.041
-639.653	36.867	0.187	-0.165
-638.638	-19.761	-0.124	-0.077
-637.624	-90.678	-0.243	-0.070
-636.609	-66.020	0.132	0.053
-635.595	361.719	0.050	-0.100
-634.580	-113.062	-0.091	-0.018
-633.565	-100.639	-0.333	0.082
-632.551	117.876	-0.281	0.345
-631.536	-200.000	-0.024	0.226
-630.522	496.938	-0.140	0.322
-629.507	220.575	-0.127	-0.203
-628.492	-63.114	0.117	0.048
-627.478	-200.000	-0.003	0.243
-626.463	-100.547	0.118	0.029
-625.449	-16.617	-0.054	0.034
-624.434	-98.017	-0.229	-0.059
-623.419	-77.716	0.264	-0.091
-622.405	594.459	-0.092	-0.227
-621.390	231.311	0.143	0.234
-620.376	-200.000	0.009	-0.399
-619.361	23.113	-0.065	-0.053
-618.346	-111.632	0.355	-0.072
-617.332	800.000	-0.077	-0.276
-616.317	-140.372	0.170	-0.018
-615.303	84.069	0.081	0.088
-614.288	-124.175	-0.242	-0.038
-613.273	-200.000	-0.077	0.353
-612.259	-55.229	0.211	0.095
-611.244	88.246	0.263	-0.291
-610.230	210.210	0.187	-0.293
-609.215	451.236	-0.082	0.182
-608.201	800.000	0.106	0.443
-607.186	261.340	-0.062	-0.107
-606.171	10.242	-0.073	0.055
-605.157	317.830	0.015	0.029
-604.142	-13.219	-0.119	0.077
-603.128	-54.167	-0.334	-0.151
-602.113	-200.000	-0.014	0.255
-601.098	-122.986	0.142	-0.023
-600.084	293.124	-0.031	-0.056
-599.069	562.102	0.109	-0.262
-598.055	-200.000	-0.074	0.389
-597.040	60.926	0.098	-0.098
-596.025	-200.000	-0.038	-0.178
-595.011	164.907	0.059	0.083
-593.996	-112.192	0.142	-0.028
-592.982	-89.579	-0.094	0.028
-591.967	-200.000	-0.009	0.316
-590.952	-200.000	-0.038	-0.263
-589.938	-200.000	-0.049	0.335
-588.923	-131.979	0.199	-0.026
-587.909	293.090	-0.074	0.134
-586.894	-101.198	0.166	-0.040
-585.879	72.117	-0.258	0.268
-584.865	-139.638	-0.449	-0.048
-583.850	-77.898	-0.080	-0.028
-582.836	-31.566	0.158	0.089
-581.821	-200.000	0.015	0.179
-580.806	-25.842	-0.229	0.135
-579.792	30.727	-0.173	0.148
-578.777	102.780	-0.043	0.050
-577.763	140.896	-0.227	0.299
-576.748	189.616	-0.236	-0.353
-575.733	89.078	0.116	-0.129
-574.719	23.942	-0.114	0.094
-573.704	800.000	0.098	0.285
-572.690	-134.151	-0.101	-0.012
-571.675	-200.000	0.013	-0.277
-570.661	-58.295	-0.242	-0.105
-569.646	682.853	0.049	0.127
-568.631	97.001	-0.287	0.328
-567.617	245.613	0.434	0.728
-566.602	336.784	0.183	-0.354
-565.588	-57.180	-0.108	-0.047
-564.573	-88.219	-0.187	-0.056
-563.558	-200.000	0.008	0.123
-562.544	-200.000	-0.002	-0.022
-561.529	-59.891	0.132	0.056
-560.515	-35.958	0.332	-0.179
-559.500	-59.015	-0.253	-0.109
-558.485	108.514	-0.138	-0.164
-557.471	672.180	0.038	0.098
-556.456	-153.597	0.204	0.014
-555.442	-90.366	-0.457	-0.132
-554.427	556.503	-0.165	0.396
-553.412	200.652	0.122	0.187
-552.398	-8.701	-0.212	0.142
-551.383	-200.000	-0.060	0.306
-550.369	-70.004	-0.248	-0.094
-549.354	-105.666	0.173	-0.039
-548.339	-200.000	-0.092	-0.535
-547.325	41.041	-0.140	0.126
-546.310	-153.898	-0.391	0.027
-545.296	800.000	-0.034	0.142
-544.281	-57.097	-0.298	0.131
-543.266	4.098	0.020	-0.015
-542.252	179.914	-0.051	-0.075
-541.237	-200.000	0.052	-0.401
-540.223	192.170	-0.098	-0.147
-539.208	117.765	-0.091	-0.112
-538.193	-37.488	-0.045	-0.024
-537.179	800.000	0.076	0.250
-536.164	-13.557	0.073	0.047
-535.150	261.971	-0.027	-0.047
-534.135	26.432	0.186	-0.154
-533.121	-110.361	0.297	-0.061
-532.106	-200.000	-0.034	0.330
-531.091	27.757	0.058	0.049
-530.077	-200.000	0.017	0.287
-529.062	350.873	0.081	0.159
-528.048	800.000	0.109	0.348
-527.033	-200.000	-0.047	0.225
-526.018	-154.132	-0.307	-0.021
-525.004	53.976	-0.311	0.298
-523.989	105.424	-0.039	0.046
-522.975	-86.917	0.266	0.081
-521.960	800.000	-0.055	0.233
-520.945	118.887	-0.064	-0.078
-519.931	-116.075	0.262	-0.049
-518.916	113.328	-0.432	0.521
-517.902	-14.742	-0.130	-0.083
-516.887	26.529	0.072	-0.060
-515.872	-146.023	0.132	0.012
-514.858	-15.958	0.020	-0.012
-513.843	800.000	-0.086	0.319
-512.829	-69.945	-0.482	-0.183
-511.814	-183.553	-0.307	0.005
-510.799	-117.259	-0.212	-0.038
-509.785	-47.070	-0.117	-0.057
-508.770	800.000	-0.066	-0.226
-507.756	631.952	0.129	0.324
-506.741	149.699	0.133	0.179
-505.726	416.223	-0.108	-0.229
-504.712	-56.977	0.254	0.111
-503.697	-64.566	-0.141	-0.057
-502.683	183.187	-0.150	-0.220
-501.668	-200.000	0.044	-0.221
-500.653	165.756	-0.093	-0.131
-499.639	-200.000	0.041	0.178
-498.624	140.965	0.064	-0.084
-497.610	-32.006	-0.133	-0.074
-496.595	-121.164	-0.255	0.042
-495.581	-132.963	0.160	-0.020
-494.566	-200.000	-0.075	-0.340
-493.551	-104.365	-0.218	-0.050
-492.537	86.902	0.123	0.135
-491.522	215.804	-0.078	0.123
-490.508	763.135	-0.098	0.263
-489.493	-163.865	0.222	0.010
-488.478	-35.027	-0.192	0.104
-487.464	207.279	0.062	-0.096
-486.449	-4.321	0.250	-0.172
-485.435	73.915	0.138	0.144
-484.420	-23.808	-0.049	-0.029
-483.405	491.240	-0.055	-0.125
-482.391	-200.000	-0.041	0.219
-481.376	-200.000	-0.001	0.132
-480.362	-42.527	0.131	-0.066
-479.347	-142.695	0.172	0.017
-478.332	235.721	0.101	0.166
-477.318	39.958	-0.046	-0.041
-476.303	445.071	0.066	-0.144
-475.289	-149.702	-0.128	-0.010
-474.274	800.000	0.055	0.157
-473.259	230.447	-0.124	-0.201
-472.245	95.144	0.213	-0.241
-471.230	100.304	-0.124	-0.143
-470.216	188.136	-0.161	0.239
-469.201	70.300	-0.139	-0.143
-468.186	-200.000	0.065	-0.387
-467.172	0.295	-0.174	0.123
-466.157	-200.000	-0.001	-0.020
-465.143	-200.000	0.007	0.101
-464.128	719.705	-0.050	-0.131
-463.113	-36.685	0.276	-0.147
-462.099	-200.000	-0.018	-0.186
-461.084	800.000	0.041	0.163
-460.070	753.387	0.063	-0.170
-459.055	-77.902	-0.078	-0.027
-458.040	134.392	0.152	0.196
-457.026	126.269	0.108	0.136
-456.011	-127.592	-0.429	-0.062
-454.997	-116.762	0.084	0.015
-453.982	200.666	-0.100	-0.153
-452.968	-200.000	-0.056	0.275
-451.953	130.572	-0.074	-0.094
-450.938	383.583	-0.061	-0.124
-449.924	-7.460	0.118	0.079
-448.909	363.709	0.104	0.207
-447.895	-200.000	-0.056	0.259
-446.880	24.895	0.087	-0.072
-445.865	-189.511	-0.147	0.002
-444.851	-83.974	-0.268	-0.085
-443.836	-93.272	-0.170	-0.047
-442.822	800.000	0.090	-0.281
-441.807	800.000	0.097	-0.320
-440.792	-162.687	0.239	0.012
-439.778	-180.666	-0.216	-0.004
-438.763	397.982	0.159	0.330
-437.749	-100.352	0.221	-0.054
-436.734	800.000	-0.020	0.063
-435.719	800.000	0.086	-0.259
-434.705	37.642	-0.203	-0.178
-433.690	-162.311	0.140	-0.007
-432.676	-200.000	-0.001	0.231
-431.661	260.138	-0.026	-0.045
-430.646	-200.000	0.001	0.131
-429.632	-115.411	-0.184	0.034
-428.617	72.354	-0.304	0.314
-427.603	-200.000	0.031	-0.298
-426.588	800.000	-0.149	-0.413
-425.573	20.200	-0.076	-0.061
-424.559	393.358	0.200	-0.413
-423.544	24.517	0.189	-0.155
-422.530	-84.959	-0.183	0.057
-421.515	123.183	-0.105	-0.130
-420.500	-75.774	-0.113	-0.040
-419.486	-200.000	0.027	-0.185
-418.471	116.333	-0.040	0.049
-417.457	800.000	0.058	-0.202
-416.442	-165.090	0.167	-0.007
-415.428	416.395	-0.042	0.089
-414.413	-35.324	-0.283	0.153
-413.398	52.831	0.050	0.047
-412.384	-65.877	-0.094	0.037
-411.369	22.485	0.113	-0.092
-410.355	-200.000	-0.012	-0.104
-409.340	-81.483	0.290	0.095
-408.325	800.000	-0.041	0.139
-407.311	84.140	-0.078	-0.085
-406.296	800.000	0.085	-0.318
-405.282	-23.998	-0.289	0.171
-404.267	5.473	0.137	0.100
-403.252	800.000	0.024	-0.089
-402.238	65.035	-0.112	-0.112
-401.223	444.421	0.142	-0.309
-400.209	800.000	0.014	-0.059
-399.194	-72.238	0.224	0.082
-398.179	800.000	-0.086	0.311
-397.165	55.229	-0.131	-0.125
-396.150	-22.643	0.209	0.125
-395.136	508.059	0.118	0.272
-394.121	28.976	0.214	0.180
-393.106	-84.615	0.237	0.074
-392.092	-23.097	0.186	0.111
-391.077	-10.207	0.115	0.076
-390.063	-55.309	-0.190	-0.085
-389.048	138.553	0.148	-0.192
-388.033	-200.000	0.044	0.497
-387.019	42.338	-0.149	-0.134
-386.004	-105.698	-0.513	0.115
-384.990	-82.055	0.405	0.131
-383.975	-115.178	-0.137	0.026
-382.960	-186.100	-0.262	-0.004
-381.946	-143.354	0.204	0.019
-380.931	233.526	0.105	0.171
-379.917	-63.978	0.208	0.084
-378.902	-200.000	-0.015	-0.141
-377.888	157.677	-0.088	-0.121
-376.873	-200.000	0.061	-0.316
-375.858	-200.000	-0.003	-0.078
-374.844	-200.000	-0.017	-0.096
-373.829	-155.308	0.352	-0.023
-372.815	581.364	0.092	0.223
-371.800	18.375	-0.222	0.176
-370.785	123.493	0.198	0.246
-369.771	-200.000	-0.005	0.041
-368.756	141.267	0.021	-0.027
-367.742	636.118	-0.115	-0.289
-366.727	372.648	0.049	0.099
-365.712	-200.000	0.004	0.063
-364.698	-17.846	0.303	-0.188
-363.683	275.836	-0.104	0.182
-362.669	248.283	0.068	0.114
-361.654	774.134	-0.083	0.225
-360.639	800.000	0.026	0.075
-359.625	562.415	0.176	-0.422
-358.610	180.851	0.170	-0.247
-357.596	508.527	-0.087	0.200
-356.581	800.000	-0.071	0.228
-355.566	-111.300	-0.148	-0.030
-354.552	-200.000	0.003	0.079
-353.537	389.771	-0.073	0.150
-352.523	-15.539	0.175	0.111
-351.508	21.091	0.046	0.037
-350.493	-72.635	-0.124	-0.045
-349.479	-46.641	0.352	0.171
-348.464	-45.823	0.100	-0.049
-347.450	64.198	-0.131	-0.130
-346.435	-70.346	-0.212	0.079
-345.420	-45.805	0.152	0.074
-344.406	594.135	-0.067	-0.164
-343.391	-200.000	0.017	-0.101
-342.377	-54.939	-0.340	-0.152
-341.362	-179.770	0.205	0.004
-340.348	-200.000	0.051	-0.270
-339.333	-158.344	0.324	-0.019
-338.318	-200.000	0.009	-0.077
-337.304	-143.988	0.362	-0.034
-336.289	32.114	-0.252	-0.215
-335.275	176.628	0.132	0.189
-334.260	-200.000	0.024	0.170
-333.245	-41.049	-0.022	-0.011
-332.231	5.675	0.190	-0.139
-331.216	-87.765	0.380	-0.113
-330.202	120.356	0.190	-0.233
-329.187	56.012	0.134	0.128
-328.172	-200.000	0.040	0.229
-327.158	60.005	0.342	0.333
-326.143	-200.000	-0.040	0.299
-325.129	-200.000	-0.046	-0.265
-324.114	-24.349	0.171	-0.101
-323.099	-112.785	0.200	0.039
-322.085	-65.974	0.613	0.242
-321.070	-102.304	-0.120	0.029
-320.056	2.361	0.012	-0.009
-319.041	-116.839	-0.264	-0.048
-318.026	-200.000	-0.064	0.301
-317.012	800.000	0.136	-0.442
-315.997	159.259	0.142	0.195
-314.983	800.000	0.046	0.156
-313.968	-40.625	-0.563	0.288
-312.953	800.000	0.010	0.033
-311.939	272.009	-0.168	-0.292
-310.924	-200.000	-0.029	-0.148
-309.910	-13.729	0.139	0.089
-308.895	-200.000	0.002	0.278
-307.880	4.081	0.103	0.074
-306.866	-2.581	0.195	-0.135
-305.851	38.669	-0.124	0.109
-304.837	-200.000	0.023	-0.240
-303.822	-135.668	-0.305	0.036
-302.807	-200.000	0.023	0.145
-301.793	-200.000	0.009	0.228
-300.778	-127.849	-0.121	-0.017
-299.764	-104.773	0.242	-0.055
-298.749	43.942	-0.061	0.055
-297.735	-35.972	-0.109	-0.058
-296.720	-137.052	-0.196	0.022
-295.705	153.217	-0.041	-0.056
-294.691	96.526	0.115	0.130
-293.676	37.012	-0.283	0.247
-292.662	-200.000	0.013	0.104
-291.647	78.381	0.163	-0.171
-290.632	-200.000	-0.037	-0.248
-289.618	391.467	0.146	-0.300
-288.603	-82.226	-0.124	-0.040
-287.589	-70.508	0.076	0.028
-286.574	-29.489	0.356	-0.201
-285.559	800.000	-0.089	0.272
-284.545	-71.434	0.317	0.117
-283.530	682.338	-0.012	-0.030
-282.516	693.739	-0.032	0.082
-281.501	-169.114	0.435	0.016
-280.486	-200.000	0.156	0.000
-279.472	488.010	0.062	-0.141
-278.457	-128.987	0.273	0.038
-277.443	-200.000	0.022	-0.143
-276.428	-200.000	-0.016	-0.193
-275.413	-10.561	-0.087	0.057
-274.399	156.870	0.317	0.431
-273.384	358.953	-0.075	-0.149
-272.370	800.000	-0.037	-0.153
-271.355	-69.697	-0.119	0.045
-270.340	746.044	0.093	0.247
-269.326	-103.131	0.213	-0.050
-268.311	-107.978	-0.113	-0.024
-267.297	168.427	0.067	-0.094
-266.282	145.470	-0.124	-0.163
-265.267	-39.989	-0.187	-0.096
-264.253	-200.000	-0.029	-0.315
-263.238	-136.476	0.348	-0.040
-262.224	-25.899	-0.194	0.113
-261.209	62.370	0.131	-0.129
-260.195	90.325	0.097	-0.107
-259.180	800.000	-0.119	-0.356
-258.165	-94.444	0.491	0.132
-257.151	-200.000	-0.050	-0.273
-256.136	177.605	0.106	-0.153
-255.122	339.173	0.102	-0.195
-254.107	-200.000	0.013	-0.208
-253.092	13.656	0.036	0.028
-252.078	52.218	-0.130	-0.122
-251.063	-104.220	-0.156	-0.036
-250.049	-30.945	-0.083	0.046
-249.034	-94.697	0.302	0.081
-248.019	-200.000	0.016	-0.218
-247.005	-90.990	0.215	0.061
-245.990	391.338	-0.128	0.262
-244.976	-17.075	-0.241	-0.150
-243.961	59.979	-0.030	-0.029
-242.946	-200.000	0.005	0.115
-241.932	-200.000	-0.011	-0.085
-240.917	148.220	-0.094	-0.125
-239.903	-55.492	0.139	-0.061
-238.888	800.000	-0.112	0.341
-237.873	-4.128	0.188	-0.128
-236.859	-200.000	-0.040	-0.213
-235.844	-200.000	-0.011	-0.242
-234.830	-32.834	0.122	-0.067
-233.815	21.364	-0.203	0.163
-232.800	211.707	-0.113	-0.175
-231.786	383.553	-0.026	-0.053
-230.771	-124.227	0.167	0.026
-229.757	-123.910	-0.310	0.048
-228.742	30.745	-0.121	-0.102
-227.727	800.000	-0.030	-0.095
-226.713	-200.000	-0.030	-0.232
-225.698	-107.184	0.167	0.036
-224.684	695.748	0.113	0.291
-223.669	666.685	-0.081	0.205
-222.655	-200.000	0.024	-0.157
-221.640	46.625	-0.248	-0.227
-220.625	75.060	0.043	-0.045
-219.611	-200.000	0.054	0.272
-218.596	-200.000	0.031	0.282
-217.582	800.000	0.054	-0.210
-216.567	-200.000	-0.057	-0.317
-215.552	455.988	0.080	-0.174
-214.538	-143.140	-0.193	0.018
-213.523	108.252	-0.065	0.076
-212.509	-200.000	0.021	-0.347
-211.494	-84.753	-0.209	0.065
-210.479	-200.000	0.025	-0.132
-209.465	-62.520	0.376	-0.153
-208.450	114.536	-0.039	-0.047
-207.436	-200.000	0.043	-0.401
-206.421	-78.534	-0.068	0.023
-205.406	-200.000	0.027	0.000
-204.392	-88.528	-0.270	-0.079
-203.377	33.890	0.051	0.044
-202.363	445.451	0.143	-0.309
-201.348	-50.062	-0.093	-0.043
-200.333	-72.107	-0.306	0.112
-199.319	-100.880	-0.145	-0.035
-198.304	-82.198	0.228	-0.073
-197.290	167.477	-0.075	-0.105
-196.275	-30.856	-0.165	-0.092
-195.260	-32.248	0.088	-0.048
-194.246	-138.505	-0.126	-0.014
-193.231	372.367	0.090	0.180
-192.217	602.914	-0.078	-0.191
-191.202	-200.000	-0.064	-0.341
-190.187	800.000	0.147	-0.481
-189.173	800.000	-0.066	-0.203
-188.158	-90.267	-0.223	-0.064
-187.144	78.302	-0.153	-0.161
-186.129	53.623	-0.128	-0.121
-185.114	620.779	0.068	0.167
-184.100	-75.462	0.410	-0.143
-183.085	800.000	0.060	-0.162
-182.071	-200.000	-0.015	0.356
-181.056	-200.000	-0.019	0.214
-180.042	-15.654	-0.086	0.054
-179.027	172.265	0.199	0.282
-178.012	195.095	-0.034	0.051
-176.998	100.770	0.026	-0.029
-175.983	800.000	0.071	0.262
-174.969	-82.410	0.198	-0.063
-173.954	-100.744	-0.209	-0.051
-172.939	-200.000	0.069	0.360
-171.925	-107.819	-0.145	-0.031
-170.910	-87.637	-0.215	-0.064
-169.896	-200.000	0.009	0.265
-168.881	-106.778	0.365	0.080
-167.866	68.941	-0.118	-0.119
-166.852	629.227	0.043	-0.107
-165.837	117.223	-0.099	0.119
-164.823	-5.954	0.260	-0.174
-163.808	206.721	0.103	-0.157
-162.793	800.000	-0.028	0.076
-161.779	116.482	-0.248	0.299
-160.764	-68.348	-0.195	0.075
-159.750	114.664	0.208	-0.248
-158.735	-200.000	-0.006	0.130
-157.720	21.316	0.114	0.091
-156.706	29.356	0.122	-0.102
-155.691	14.654	-0.080	0.061
-154.677	168.957	-0.256	0.358
-153.662	-200.000	0.000	-0.056
-152.647	-127.665	0.271	-0.038
-151.633	-71.585	0.300	0.110
-150.618	97.311	0.016	0.018
-149.604	-22.977	-0.167	-0.099
-148.589	-200.000	-0.088	0.446
-147.574	-96.913	-0.207	0.053
-146.560	-32.772	0.214	-0.117
-145.545	800.000	0.065	-0.220
-144.531	118.699	-0.198	0.239
-143.516	-55.321	0.312	0.138
-142.502	-200.000	0.013	0.084
-141.487	-143.340	0.179	0.017
-140.472	464.646	0.185	-0.406
-139.458	-51.702	0.526	-0.240
-138.443	170.709	-0.082	-0.116
-137.429	249.756	-0.147	0.244
-136.414	800.000	-0.071	-0.211
-135.399	-200.000	-0.008	0.083
-134.385	-26.058	0.137	-0.079
-133.370	643.849	-0.174	-0.436
-132.356	800.000	0.062	-0.230
-131.341	96.708	-0.308	-0.345
-130.326	-157.258	0.281	0.017
-129.312	-83.081	-0.202	0.064
-128.297	-107.868	-0.139	0.030
-127.283	-86.622	0.102	-0.031
-126.268	-107.102	0.290	0.063
-125.253	36.414	0.372	-0.322
-124.239	487.445	-0.040	-0.089
-123.224	75.091	0.307	-0.317
