DTS Sentinel unit serial number:	SN413079Multiplexer serial number:	ORYXHardware model number:	OX4-SRSoftware version number:	ORYX F/W v4.00 Oryx Data Collector v3.7.2.0data status	okinstallation	princeton_trtdifferential loss correction	single-endedforward channel	channel 2reverse channel	N/Adate	2019/09/19time	14:15:34forward acquisition time	60.00reverse acquisition time	0.00gamma	496.2192k internal	0.2325k external	0.2325temperature offset calibration	1.0019default loss term (dB/km)	0.3790temperature slope calibration	1.0000multiplexer offset coefficient	1.0000multiplexer slope coefficient	1.0000fibre end	0.00T internal ref (°C)	31.67T ext. ref 1 (°C)	1.06T ext. ref 2 (°C)	28.93length (m)	temperature (°C)	Stokes	anti-Stokes-747.200	-49.981	0.186	0.089
-746.185	280.410	-0.028	0.050
-745.171	362.505	-0.074	0.150
-744.156	127.711	-0.141	0.180
-743.142	32.731	0.092	0.081
-742.127	539.283	-0.133	0.319
-741.112	-49.207	0.045	-0.022
-740.098	-16.023	-0.198	-0.127
-739.083	-200.000	0.078	0.410
-738.069	101.675	-0.253	0.297
-737.054	2.665	-0.036	-0.027
-736.039	-42.375	-0.226	0.116
-735.025	203.770	-0.050	0.078
-734.010	800.000	0.081	0.329
-732.996	-18.352	-0.240	-0.152
-731.981	-22.902	-0.265	0.162
-730.966	86.258	-0.183	-0.203
-729.952	-95.323	-0.128	0.035
-728.937	231.137	-0.147	0.243
-727.923	27.373	0.192	0.163
-726.908	-69.104	0.339	-0.132
-725.894	23.620	-0.063	0.052
-724.879	-174.330	-0.309	-0.009
-723.864	281.245	-0.133	-0.240
-722.850	-200.000	0.004	0.118
-721.835	-69.623	0.159	-0.061
-720.821	34.632	-0.142	-0.125
-719.806	-82.661	-0.117	-0.038
-718.791	1.329	0.151	-0.109
-717.777	-30.489	-0.115	0.066
-716.762	17.662	0.057	-0.045
-715.748	-97.250	-0.275	0.072
-714.733	-112.628	-0.203	-0.041
-713.718	-36.868	-0.106	-0.057
-712.704	-200.000	0.028	-0.137
-711.689	207.167	0.246	0.387
-710.675	552.924	-0.087	-0.210
-709.660	129.515	-0.150	-0.193
-708.645	-73.232	-0.317	-0.117
-707.631	-22.290	0.237	-0.145
-706.616	-97.576	0.308	0.081
-705.602	-200.000	-0.065	-0.000
-704.587	800.000	0.060	-0.204
-703.572	43.465	0.128	0.118
-702.558	117.103	-0.188	0.233
-701.543	72.318	0.086	0.091
-700.529	381.540	-0.058	0.120
-699.514	800.000	0.056	0.223
-698.499	193.870	-0.106	0.162
-697.485	-115.732	-0.389	0.073
-696.470	-109.233	-0.192	0.041
-695.456	147.424	-0.080	-0.108
-694.441	800.000	-0.038	-0.114
-693.426	-57.828	-0.580	0.256
-692.412	-26.994	-0.145	-0.085
-691.397	453.647	-0.041	-0.092
-690.383	40.700	-0.126	0.115
-689.368	-117.416	0.101	0.018
-688.354	55.107	-0.165	-0.161
-687.339	-18.254	-0.168	0.106
-686.324	-25.598	-0.225	-0.134
-685.310	-200.000	-0.000	-0.146
-684.295	615.317	0.050	-0.127
-683.281	56.965	0.200	-0.197
-682.266	25.262	-0.130	-0.108
-681.251	-61.623	-0.381	0.161
-680.237	-200.000	0.074	-0.346
-679.222	92.189	-0.070	0.080
-678.208	14.057	-0.197	0.154
-677.193	87.761	0.208	-0.232
-676.178	-88.227	-0.249	0.075
-675.164	800.000	-0.047	0.146
-674.149	-49.341	-0.204	0.098
-673.135	161.443	0.170	0.239
-672.120	800.000	-0.040	-0.132
-671.105	300.457	0.134	0.249
-670.091	43.060	-0.190	-0.174
-669.076	-200.000	0.016	0.231
-668.062	-200.000	-0.008	0.171
-667.047	-200.000	0.036	0.185
-666.032	703.099	-0.026	0.070
-665.018	393.321	0.040	0.083
-664.003	-138.906	-0.163	0.018
-662.989	-96.425	-0.272	-0.072
-661.974	-123.734	-0.209	-0.033
-660.959	-200.000	-0.026	-0.270
-659.945	800.000	0.019	-0.060
-658.930	800.000	-0.026	-0.110
-657.916	795.125	0.104	-0.289
-656.901	800.000	0.121	-0.366
-655.886	313.381	-0.089	-0.169
-654.872	-48.583	-0.458	-0.221
-653.857	-22.544	-0.130	-0.079
-652.843	-200.000	0.020	0.163
-651.828	-200.000	0.011	0.123
-650.814	-133.673	0.124	-0.016
-649.799	117.710	-0.163	-0.202
-648.784	31.590	0.122	-0.106
-647.770	-41.859	-0.066	0.034
-646.755	6.944	-0.126	0.095
-645.741	46.409	0.187	-0.175
-644.726	800.000	-0.089	0.260
-643.711	-129.723	-0.202	0.028
-642.697	-137.080	0.165	-0.019
-641.682	-105.108	0.282	0.065
-640.668	-120.306	0.154	-0.026
-639.653	-5.415	-0.181	-0.125
-638.638	155.638	0.247	0.341
-637.624	-88.672	-0.113	-0.034
-636.609	-200.000	-0.006	0.125
-635.595	-62.523	-0.252	0.105
-634.580	-200.000	-0.035	0.305
-633.565	-14.580	-0.054	0.035
-632.551	-200.000	-0.016	0.158
-631.536	-200.000	-0.099	0.000
-630.522	-200.000	-0.002	-0.458
-629.507	-95.689	0.207	-0.056
-628.492	-80.730	-0.228	0.076
-627.478	-96.717	0.212	0.056
-626.463	-194.370	-0.471	0.004
-625.449	31.179	0.386	0.332
-624.434	271.567	0.154	0.273
-623.419	176.166	0.154	0.225
-622.405	83.537	-0.116	-0.127
-621.390	-169.312	0.227	-0.008
-620.376	-200.000	-0.022	-0.106
-619.361	-187.705	-0.479	-0.006
-618.346	1.332	0.270	0.195
-617.332	-200.000	-0.042	-0.267
-616.317	213.280	0.081	-0.129
-615.303	-76.586	-0.167	-0.059
-614.288	-101.998	0.150	-0.036
-613.273	-59.199	0.064	0.027
-612.259	800.000	-0.110	-0.336
-611.244	-127.509	-0.155	0.023
-610.230	176.157	-0.103	0.150
-609.215	-122.560	-0.165	-0.027
-608.201	2.585	0.194	-0.141
-607.186	473.347	0.126	-0.285
-606.171	72.949	0.119	0.125
-605.157	-50.340	-0.257	-0.122
-604.142	-200.000	-0.040	0.200
-603.128	-13.873	-0.290	0.188
-602.113	-94.838	-0.026	0.007
-601.098	800.000	-0.048	-0.143
-600.084	-91.999	-0.096	-0.027
-599.069	-77.035	0.405	-0.142
-598.055	-110.435	0.292	0.061
-597.040	16.218	0.081	0.064
-596.025	-147.776	0.175	-0.015
-595.011	-200.000	0.002	-0.212
-593.996	-171.661	0.151	0.005
-592.982	-8.680	-0.086	0.058
-591.967	-4.415	0.258	-0.179
-590.952	72.725	0.197	-0.207
-589.938	283.867	-0.091	-0.165
-588.923	11.572	-0.277	0.213
-587.909	-200.000	0.034	0.351
-586.894	-111.870	-0.134	-0.027
-585.879	67.312	0.173	0.177
-584.865	-200.000	-0.057	0.634
-583.850	-200.000	-0.027	0.246
-582.836	147.925	0.109	0.148
-581.821	-97.494	0.269	0.070
-580.806	35.292	-0.202	-0.177
-579.792	-200.000	0.060	-0.303
-578.777	-128.855	-0.067	0.009
-577.763	800.000	0.087	-0.283
-576.748	-19.754	0.207	-0.129
-575.733	-58.425	-0.140	-0.061
-574.719	-114.025	-0.192	-0.037
-573.704	126.094	-0.254	-0.321
-572.690	186.315	-0.129	0.192
-571.675	-200.000	0.014	-0.255
-570.661	285.942	0.153	-0.276
-569.646	178.509	-0.134	0.196
-568.631	-65.692	-0.054	0.022
-567.617	800.000	-0.090	-0.274
-566.602	271.505	-0.094	-0.166
-565.588	177.260	0.089	0.130
-564.573	21.868	-0.161	-0.132
-563.558	-64.159	-0.380	0.155
-562.544	-200.000	0.027	0.158
-561.529	468.759	0.065	-0.146
-560.515	-32.530	-0.392	-0.219
-559.500	667.771	0.026	-0.068
-558.485	-200.000	0.038	0.220
-557.471	-69.299	0.309	-0.119
-556.456	46.340	0.106	0.099
-555.442	-28.138	-0.113	-0.065
-554.427	61.555	-0.217	-0.216
-553.412	-200.000	-0.025	0.134
-552.398	-200.000	-0.039	-0.215
-551.383	67.554	-0.222	-0.227
-550.369	23.119	0.123	-0.101
-549.354	80.349	-0.135	-0.146
-548.339	-24.341	-0.176	-0.105
-547.325	183.513	0.173	0.256
-546.310	800.000	-0.001	-0.005
-545.296	591.950	0.030	-0.074
-544.281	-123.642	0.468	0.074
-543.266	24.597	0.309	-0.256
-542.252	-92.466	0.113	-0.032
-541.237	28.067	-0.082	-0.069
-540.223	-34.923	0.246	-0.135
-539.208	120.769	0.051	-0.064
-538.193	-73.112	-0.191	-0.070
-537.179	-98.579	0.079	0.020
-536.164	-37.860	0.228	0.121
-535.150	-200.000	0.003	-0.069
-534.135	-124.590	-0.388	0.060
-533.121	-72.349	0.188	-0.070
-532.106	-147.870	-0.365	0.030
-531.091	-4.787	-0.338	-0.233
-530.077	-76.647	-0.298	0.104
-529.062	127.901	-0.156	-0.199
-528.048	-2.249	-0.426	-0.299
-527.033	800.000	0.037	0.104
-526.018	-48.926	0.176	0.084
-525.004	-64.074	0.243	-0.099
-523.989	-68.417	-0.097	-0.037
-522.975	-83.412	-0.130	-0.042
-521.960	35.114	0.055	0.048
-520.945	190.594	-0.296	-0.445
-519.931	175.073	-0.169	-0.245
-518.916	218.476	0.085	-0.136
-517.902	-162.161	-0.097	-0.005
-516.887	74.696	0.191	-0.201
-515.872	258.017	0.058	-0.100
-514.858	-46.984	-0.100	-0.049
-513.843	-121.913	-0.140	0.023
-512.829	-48.721	-0.291	-0.140
-511.814	-20.875	0.498	0.305
-510.799	170.004	-0.161	-0.230
-509.785	-200.000	-0.017	-0.183
-508.770	-21.865	-0.288	-0.175
-507.756	-5.691	-0.161	0.110
-506.741	-200.000	0.002	0.104
-505.726	-67.677	-0.136	0.053
-504.712	416.729	0.175	-0.373
-503.697	-2.325	0.067	0.047
-502.683	297.916	0.118	-0.216
-501.668	120.841	0.142	-0.176
-500.653	60.791	-0.049	-0.048
-499.639	62.341	-0.173	0.172
-498.624	-200.000	-0.019	-0.189
-497.610	-108.603	-0.111	0.024
-496.595	-200.000	-0.041	-0.306
-495.581	133.058	0.158	-0.204
-494.566	282.269	0.150	-0.269
-493.551	440.583	0.131	-0.286
-492.537	-146.056	-0.236	-0.021
-491.522	34.307	0.216	-0.188
-490.508	-63.608	0.074	-0.030
-489.493	-134.344	0.087	0.011
-488.478	-35.455	-0.011	0.006
-487.464	-98.693	-0.264	-0.067
-486.449	46.670	-0.079	0.073
-485.435	-140.634	0.292	-0.030
-484.420	-200.000	0.135	-0.000
-483.405	-119.400	0.266	0.046
-482.391	-200.000	0.009	0.181
-481.376	88.530	-0.231	-0.256
-480.362	-2.932	-0.156	-0.109
-479.347	800.000	0.064	-0.204
-478.332	-147.058	-0.341	0.029
-477.318	-121.154	0.391	0.065
-476.303	-60.513	-0.111	0.047
-475.289	800.000	0.042	-0.151
-474.274	-119.592	-0.292	-0.050
-473.259	-48.644	0.150	0.072
-472.245	30.033	-0.199	-0.169
-471.230	-200.000	-0.019	0.128
-470.216	397.941	-0.029	0.060
-469.201	26.832	-0.245	-0.205
-468.186	-24.013	0.277	0.165
-467.172	-67.330	0.130	-0.051
-466.157	-26.667	0.112	0.066
-465.143	44.564	0.361	0.331
-464.128	722.304	-0.050	0.132
-463.113	105.747	0.114	0.135
-462.099	-73.750	0.266	-0.097
-461.084	-54.635	0.217	-0.098
-460.070	-122.788	-0.225	0.036
-459.055	-163.843	0.109	0.005
-458.040	-21.218	-0.050	-0.031
-457.026	-148.514	-0.263	-0.021
-456.011	800.000	-0.064	0.225
-454.997	-167.862	0.303	0.012
-453.982	123.400	0.206	0.258
-452.968	-50.499	0.202	0.095
-451.953	-200.000	0.038	-0.206
-450.938	-23.723	-0.109	0.065
-449.924	-200.000	-0.019	-0.168
-448.909	-200.000	0.004	0.054
-447.895	91.062	0.264	-0.295
-446.880	180.667	0.151	0.221
-445.865	757.063	-0.051	-0.137
-444.851	-200.000	-0.090	-0.405
-443.836	42.522	0.185	-0.168
-442.822	-155.466	-0.217	0.014
-441.807	-46.355	-0.059	0.029
-440.792	-181.967	0.081	0.002
-439.778	-111.676	-0.273	-0.055
-438.763	249.490	-0.219	-0.370
-437.749	-82.017	0.376	-0.123
-436.734	-86.165	-0.216	-0.066
-435.719	56.433	0.092	0.090
-434.705	-108.435	-0.403	0.087
-433.690	280.932	-0.118	-0.210
-432.676	-12.248	-0.177	-0.116
-431.661	47.295	0.147	0.137
-430.646	-113.308	0.137	0.027
-429.632	-200.000	0.019	0.100
-428.617	14.747	-0.237	0.185
-427.603	-200.000	0.017	0.087
-426.588	-49.589	-0.315	0.149
-425.573	-13.433	-0.057	-0.037
-424.559	53.716	-0.241	-0.231
-423.544	61.036	0.029	0.028
-422.530	-86.253	0.468	0.144
-421.515	310.555	-0.118	0.221
-420.500	211.874	0.091	0.144
-419.486	206.515	-0.146	-0.227
-418.471	2.840	-0.267	0.193
-417.457	-200.000	0.017	-0.184
-416.442	25.541	0.055	0.045
-415.428	-177.882	0.170	-0.004
-414.413	-72.808	-0.088	-0.032
-413.398	297.391	-0.046	-0.084
-412.384	263.692	0.136	-0.235
-411.369	-200.000	0.046	0.251
-410.355	2.642	0.181	0.131
-409.340	55.659	0.250	0.241
-408.325	-171.147	-0.118	-0.004
-407.311	-200.000	0.023	0.279
-406.296	800.000	0.053	-0.152
-405.282	33.062	0.271	0.234
-404.267	-109.250	-0.033	0.007
-403.252	800.000	0.119	0.487
-402.238	800.000	-0.047	0.185
-401.223	82.724	-0.145	-0.157
-400.209	187.440	0.104	-0.155
-399.194	-106.897	-0.318	0.070
-398.179	143.863	-0.097	0.129
-397.165	800.000	0.060	0.214
-396.150	-89.864	-0.287	-0.083
-395.136	139.354	-0.034	0.044
-394.121	-53.205	0.304	-0.139
-393.106	-200.000	-0.006	0.381
-392.092	-52.007	0.251	0.116
-391.077	-70.794	-0.033	-0.012
-390.063	103.947	0.251	-0.294
-389.048	-200.000	-0.008	-0.340
-388.033	312.043	-0.111	-0.207
-387.019	478.064	-0.052	0.118
-386.004	150.143	0.125	0.169
-384.990	-106.519	-0.025	0.005
-383.975	-22.942	-0.210	0.126
-382.960	36.940	0.319	0.281
-381.946	-20.165	0.127	0.078
-380.931	-67.419	-0.212	-0.083
-379.917	14.324	0.029	-0.022
-378.902	-34.696	0.151	-0.082
-377.888	-75.371	-0.275	0.097
-376.873	50.461	0.233	0.219
-375.858	-19.567	-0.081	-0.050
-374.844	139.705	0.173	0.227
-373.829	800.000	-0.082	-0.270
-372.815	237.162	-0.153	0.251
-371.800	102.385	-0.200	0.233
-370.785	-200.000	0.059	0.341
-369.771	-181.321	-0.323	-0.006
-368.756	-46.388	-0.397	-0.194
-367.742	-200.000	-0.039	0.193
-366.727	-200.000	0.008	-0.317
-365.712	-56.410	-0.112	-0.049
-364.698	-200.000	0.016	0.166
-363.683	-200.000	0.047	0.285
-362.669	-200.000	0.020	-0.172
-361.654	-82.594	0.332	0.107
-360.639	107.790	0.071	0.084
-359.625	800.000	0.074	0.223
-358.610	-200.000	0.038	-0.181
-357.596	-54.511	0.151	0.068
-356.581	41.734	-0.078	-0.070
-355.566	225.962	-0.165	-0.266
-354.552	49.225	-0.077	-0.072
-353.537	109.503	0.203	0.242
-352.523	514.799	0.092	0.213
-351.508	800.000	-0.077	0.226
-350.493	57.038	0.191	0.185
-349.479	-54.776	0.055	-0.025
-348.464	-96.814	0.035	-0.009
-347.450	-78.952	0.323	0.109
-346.435	-200.000	0.004	0.193
-345.420	374.285	-0.103	0.208
-344.406	-119.398	-0.334	-0.058
-343.391	109.079	-0.066	-0.079
-342.377	6.047	-0.122	0.090
-341.362	-123.638	-0.204	-0.032
-340.348	-200.000	-0.005	0.215
-339.333	301.307	-0.182	-0.334
-338.318	7.030	0.101	-0.075
-337.304	-144.882	0.319	0.029
-336.289	-117.256	-0.221	-0.040
-335.275	-76.396	0.365	-0.128
-334.260	-21.820	0.251	-0.151
-333.245	-118.846	0.353	-0.062
-332.231	-10.227	-0.336	-0.222
-331.216	299.274	0.132	-0.242
-330.202	-200.000	-0.004	0.214
-329.187	-140.666	0.195	0.020
-328.172	27.012	0.191	0.159
-327.158	45.897	-0.094	0.086
-326.143	267.702	0.080	-0.139
-325.129	50.394	0.115	-0.108
-324.114	-97.218	-0.171	-0.044
-323.099	99.773	0.096	0.111
-322.085	57.509	0.231	0.224
-321.070	11.505	-0.119	0.090
-320.056	-37.598	0.173	-0.092
-319.041	800.000	0.070	0.296
-318.026	122.277	-0.157	-0.194
-317.012	-39.439	0.052	-0.027
-315.997	-147.275	0.190	-0.016
-314.983	-200.000	0.000	-0.040
-313.968	-163.687	-0.120	0.006
-312.953	355.083	-0.088	-0.174
-311.939	-57.691	-0.218	-0.095
-310.924	-200.000	-0.001	-0.056
-309.910	229.884	-0.099	0.160
-308.895	13.760	-0.204	0.158
-307.880	247.569	0.095	0.159
-306.866	123.095	-0.191	0.237
-305.851	-84.996	0.203	-0.063
-304.837	-23.470	-0.136	0.081
-303.822	74.582	-0.199	-0.208
-302.807	29.658	-0.053	0.045
-301.793	-200.000	-0.021	0.161
-300.778	-200.000	0.014	-0.079
-299.764	1.973	-0.066	0.047
-298.749	-14.055	0.165	0.106
-297.735	-200.000	-0.010	0.159
-296.720	637.150	0.078	-0.196
-295.705	82.405	-0.090	-0.097
-294.691	800.000	0.027	-0.086
-293.676	-10.755	0.311	-0.204
-292.662	800.000	-0.033	0.094
-291.647	127.625	0.172	0.217
-290.632	99.199	0.220	-0.252
-289.618	-151.213	0.201	-0.015
-288.603	-200.000	-0.041	0.345
-287.589	226.389	0.137	0.220
-286.574	-39.556	0.137	0.071
-285.559	-143.336	-0.331	0.031
-284.545	-26.692	0.219	-0.127
-283.530	-200.000	0.062	0.294
-282.516	-50.344	-0.253	-0.119
-281.501	-92.671	-0.061	0.017
-280.486	-200.000	0.044	0.213
-279.472	-200.000	0.023	-0.117
-278.457	-200.000	-0.001	-0.044
-277.443	564.772	0.067	0.162
-276.428	191.410	0.197	-0.294
-275.413	-23.256	-0.231	-0.137
-274.399	82.300	-0.155	-0.166
-273.384	800.000	0.046	0.160
-272.370	275.114	0.151	0.265
-271.355	-200.000	-0.020	-0.238
-270.340	-200.000	-0.015	0.107
-269.326	-8.414	-0.116	-0.077
-268.311	225.525	-0.082	0.131
-267.297	-91.659	-0.154	0.043
-266.282	145.186	0.181	0.240
-265.267	9.919	-0.058	0.044
-264.253	-200.000	-0.004	0.269
-263.238	317.713	0.111	0.209
-262.224	-200.000	0.014	-0.279
-261.209	336.055	0.073	0.141
-260.195	122.781	0.223	0.277
-259.180	-58.419	-0.044	-0.019
-258.165	-115.873	-0.318	-0.059
-257.151	-200.000	0.005	-0.168
-256.136	327.334	0.152	-0.288
-255.122	-200.000	0.021	0.113
-254.107	-200.000	-0.014	0.152
-253.092	-88.878	-0.199	0.059
-252.078	-84.893	0.158	-0.049
-251.063	-126.732	-0.210	0.031
-250.049	-200.000	0.037	-0.205
-249.034	24.912	0.152	-0.125
-248.019	24.919	0.161	0.132
-247.005	57.426	-0.065	0.063
-245.990	-65.123	-0.105	-0.042
-244.976	64.404	-0.126	0.126
-243.961	-91.353	0.247	-0.070
-242.946	-46.320	0.592	0.288
-241.932	-200.000	-0.009	0.062
-240.917	-200.000	-0.017	-0.258
-239.903	666.742	0.090	-0.230
-238.888	-74.339	0.184	-0.066
-237.873	668.622	-0.061	0.156
-236.859	-152.564	0.054	0.004
-235.844	-93.194	-0.086	0.024
-234.830	707.739	-0.084	-0.219
-233.815	207.184	0.177	-0.273
-232.800	68.545	-0.128	0.130
-231.786	-10.212	-0.336	0.221
-230.771	-200.000	0.057	0.266
-229.757	800.000	-0.082	-0.293
-228.742	-71.199	0.138	-0.051
-227.727	-141.781	0.321	-0.032
-226.713	389.860	0.092	0.189
-225.698	61.726	-0.404	-0.398
-224.684	293.363	0.115	0.208
-223.669	-64.329	0.046	0.019
-222.655	-33.650	-0.059	0.032
-221.640	-38.792	0.070	0.037
-220.625	-87.924	0.092	0.027
-219.611	666.324	-0.004	-0.010
-218.596	-200.000	-0.015	-0.131
-217.582	427.623	0.095	-0.202
-216.567	546.994	-0.129	0.306
-215.552	800.000	0.043	0.161
-214.538	-79.169	0.076	0.025
-213.523	227.979	-0.042	-0.068
-212.509	-85.047	-0.095	-0.029
-211.494	-110.578	-0.396	0.081
-210.479	-100.120	0.419	-0.103
-209.465	800.000	-0.155	0.610
-208.450	50.917	-0.457	0.428
-207.436	-148.867	-0.291	-0.023
-206.421	582.302	0.089	0.216
-205.406	8.331	-0.204	0.152
-204.392	160.701	0.198	-0.274
-203.377	-162.950	0.123	-0.006
-202.363	48.204	-0.123	-0.114
-201.348	332.004	0.101	-0.193
-200.333	-108.175	-0.303	-0.065
-199.319	800.000	0.037	0.110
-198.304	34.954	0.104	0.090
-197.290	107.044	0.028	0.033
-196.275	212.468	-0.048	0.075
-195.260	800.000	0.079	0.333
-194.246	-200.000	-0.089	0.442
-193.231	-200.000	0.035	0.257
-192.217	-18.341	0.209	-0.129
-191.202	-200.000	0.044	-0.362
-190.187	800.000	0.159	-0.569
-189.173	-200.000	0.005	-0.250
-188.158	86.648	0.227	-0.247
-187.144	91.345	0.298	0.331
-186.129	-17.558	-0.318	0.197
-185.114	-128.249	-0.169	0.024
-184.100	393.690	-0.093	-0.192
-183.085	-47.589	0.200	-0.096
-182.071	-153.222	-0.211	-0.015
-181.056	-200.000	-0.002	0.109
-180.042	301.666	0.168	0.306
-179.027	45.186	-0.135	-0.123
-178.012	224.102	0.102	-0.162
-176.998	21.419	-0.069	0.056
-175.983	-200.000	-0.015	-0.222
-174.969	800.000	-0.069	-0.244
-173.954	738.204	-0.085	-0.224
-172.939	-200.000	-0.011	-0.171
-171.925	-103.908	-0.033	0.008
-170.910	-82.940	0.397	0.126
-169.896	23.484	-0.081	-0.066
-168.881	-200.000	-0.067	0.356
-167.866	-200.000	-0.002	-0.065
-166.852	681.261	-0.060	0.154
-165.837	40.904	0.157	0.140
-164.823	58.874	0.142	0.138
-163.808	-32.824	-0.180	0.099
-162.793	-200.000	0.062	-0.279
-161.779	-191.381	-0.257	-0.003
-160.764	607.634	-0.068	0.166
-159.750	-78.560	-0.082	0.028
-158.735	-200.000	0.004	0.116
-157.720	-200.000	0.003	0.252
-156.706	-28.080	0.230	0.131
-155.691	-107.333	-0.197	0.043
-154.677	-16.105	-0.331	0.208
-153.662	15.729	0.137	-0.106
-152.647	73.322	0.086	-0.089
-151.633	-148.894	-0.172	-0.014
-150.618	-78.478	0.098	0.033
-149.604	-28.977	-0.314	-0.177
-148.589	-34.352	0.270	0.146
-147.574	75.380	0.055	0.057
-146.560	-58.741	0.035	-0.015
-145.545	800.000	-0.030	-0.128
-144.531	-24.471	0.256	-0.150
-143.516	29.984	-0.305	0.257
-142.502	-150.386	-0.226	-0.017
-141.487	-78.155	0.204	0.069
-140.472	-88.840	0.422	0.123
-139.458	-76.875	0.255	0.088
-138.443	129.121	-0.083	-0.104
-137.429	213.534	0.134	-0.209
-136.414	-94.456	0.217	-0.058
-135.399	-200.000	-0.023	0.136
-134.385	119.059	0.155	-0.189
-133.370	284.492	-0.162	-0.288
-132.356	25.545	-0.228	0.187
-131.341	10.585	-0.215	0.162
-130.326	-57.190	-0.263	0.114
-129.312	6.724	-0.313	0.230
-128.297	-63.831	0.136	0.055
-127.283	-131.833	-0.338	-0.044
-126.268	-97.052	-0.522	-0.135
-125.253	800.000	0.037	-0.123
-124.239	-21.392	-0.382	0.230
-123.224	-113.825	0.019	0.004
-122.210	135.325	0.158	0.202
-121.195	-91.495	0.055	-0.015
