DTS Sentinel unit serial number:	SN413079Multiplexer serial number:	ORYXHardware model number:	OX4-SRSoftware version number:	ORYX F/W v4.00 Oryx Data Collector v3.7.2.0data status	okinstallation	princeton_trtdifferential loss correction	single-endedforward channel	channel 2reverse channel	N/Adate	2019/09/13time	20:51:35forward acquisition time	60.00reverse acquisition time	0.00gamma	496.2192k internal	0.2334k external	0.2334temperature offset calibration	1.0126default loss term (dB/km)	0.3790temperature slope calibration	1.0000multiplexer offset coefficient	1.0000multiplexer slope coefficient	1.0000fibre end	0.00T internal ref (°C)	28.75T ext. ref 1 (°C)	3.11T ext. ref 2 (°C)	23.43length (m)	temperature (°C)	Stokes	anti-Stokes-747.200	-26.024	0.143	0.084
-746.185	-200.000	0.030	0.188
-745.171	-81.589	-0.129	-0.043
-744.156	120.085	-0.264	0.329
-743.142	-200.000	-0.029	-0.319
-742.127	-200.000	0.040	0.258
-741.112	36.977	0.109	0.097
-740.098	-200.000	-0.353	-0.001
-739.083	179.871	0.164	-0.242
-738.069	-54.810	-0.145	0.066
-737.054	109.421	0.130	0.156
-736.039	-4.393	-0.073	-0.051
-735.025	-157.053	0.462	0.028
-734.010	96.754	-0.048	-0.056
-732.996	-52.766	-0.335	0.155
-731.981	-113.522	-0.114	-0.022
-730.966	-130.719	-0.315	-0.043
-729.952	-118.257	-0.295	-0.053
-728.937	0.170	-0.330	0.236
-727.923	-90.760	0.098	0.028
-726.908	-175.892	-0.324	-0.009
-725.894	123.164	-0.102	0.128
-724.879	-68.806	-0.200	-0.078
-723.864	-200.000	-0.017	0.342
-722.850	238.682	0.056	0.093
-721.835	-34.643	-0.456	-0.251
-720.821	800.000	0.069	-0.232
-719.806	132.944	-0.066	-0.085
-718.791	800.000	-0.089	-0.286
-717.777	-184.972	-0.183	0.003
-716.762	125.949	-0.083	0.105
-715.748	120.322	0.157	0.195
-714.733	153.534	-0.086	0.118
-713.718	553.001	0.077	0.187
-712.704	109.179	-0.025	-0.030
-711.689	-56.181	0.118	-0.053
-710.675	-93.620	0.081	0.023
-709.660	39.992	0.145	0.131
-708.645	62.985	-0.068	-0.069
-707.631	395.802	0.128	-0.267
-706.616	-87.708	0.216	-0.066
-705.602	728.868	0.056	-0.150
-704.587	129.945	0.230	-0.295
-703.572	63.837	0.295	-0.298
-702.558	-173.520	0.253	-0.008
-701.543	-39.604	-0.196	0.103
-700.529	-113.425	-0.057	-0.011
-699.514	-154.322	0.287	-0.019
-698.499	128.149	0.147	-0.187
-697.485	-200.000	-0.031	-0.328
-696.470	-62.616	-0.110	-0.046
-695.456	354.692	-0.236	-0.470
-694.441	-13.107	-0.197	-0.128
-693.426	505.771	-0.086	0.201
-692.412	150.688	-0.084	-0.115
-691.397	-200.000	-0.071	0.489
-690.383	348.103	0.092	0.181
-689.368	-78.552	-0.071	-0.024
-688.354	-65.794	0.155	0.062
-687.339	211.067	0.144	0.227
-686.324	365.501	0.107	-0.216
-685.310	-6.028	-0.376	0.258
-684.295	127.451	-0.213	-0.271
-683.281	-92.732	-0.306	-0.086
-682.266	-92.326	-0.247	-0.070
-681.251	101.058	0.139	-0.162
-680.237	-54.490	0.114	0.052
-679.222	674.621	0.135	-0.350
-678.208	113.525	-0.187	-0.228
-677.193	-200.000	-0.004	-0.250
-676.178	800.000	-0.093	-0.294
-675.164	235.742	0.102	-0.170
-674.149	11.773	-0.291	-0.224
-673.135	50.122	-0.030	-0.028
-672.120	-136.332	-0.247	0.029
-671.105	209.560	-0.112	0.176
-670.091	68.872	-0.120	0.123
-669.076	-108.959	-0.084	-0.018
-668.062	-141.822	0.076	-0.008
-667.047	-164.484	-0.275	-0.013
-666.032	-200.000	0.047	-0.410
-665.018	127.885	-0.134	-0.171
-664.003	596.377	-0.196	-0.486
-662.989	13.470	-0.241	-0.187
-661.974	76.032	0.442	-0.469
-660.959	213.721	0.130	-0.205
-659.945	-50.558	-0.123	0.058
-658.930	-200.000	-0.022	-0.164
-657.916	-45.200	-0.158	0.078
-656.901	-200.000	-0.020	-0.334
-655.886	30.572	0.067	-0.057
-654.872	55.078	0.037	0.036
-653.857	-77.999	-0.347	0.120
-652.843	-91.989	-0.086	-0.024
-651.828	-37.705	0.080	-0.043
-650.814	43.214	0.239	0.219
-649.799	-200.000	-0.012	-0.210
-648.784	-77.930	-0.207	0.071
-647.770	-16.196	0.346	0.220
-646.755	-200.000	0.071	0.404
-645.741	-17.125	-0.257	0.163
-644.726	94.684	-0.065	0.074
-643.711	175.456	0.119	-0.172
-642.697	-13.087	-0.072	0.047
-641.682	376.516	-0.140	-0.286
-640.668	58.927	0.106	-0.104
-639.653	-62.481	0.131	0.054
-638.638	-200.000	0.032	-0.207
-637.624	197.138	0.058	-0.089
-636.609	800.000	0.107	0.312
-635.595	-200.000	0.036	-0.263
-634.580	-55.606	0.174	0.078
-633.565	-200.000	-0.007	-0.037
-632.551	-94.487	0.189	0.051
-631.536	-200.000	0.050	0.292
-630.522	-5.031	-0.116	0.080
-629.507	-200.000	-0.007	0.052
-628.492	-200.000	0.006	0.202
-627.478	800.000	-0.088	0.386
-626.463	204.534	-0.154	0.238
-625.449	-200.000	-0.064	-0.289
-624.434	-200.000	0.039	0.196
-623.419	800.000	-0.061	-0.193
-622.405	-98.714	-0.285	-0.073
-621.390	-173.346	0.163	-0.005
-620.376	-200.000	-0.004	0.050
-619.361	-103.685	-0.166	-0.039
-618.346	-103.763	0.313	-0.073
-617.332	-67.397	-0.218	0.086
-616.317	-39.603	-0.116	0.061
-615.303	-64.213	-0.331	-0.135
-614.288	-200.000	0.025	-0.300
-613.273	-10.592	-0.285	-0.189
-612.259	12.554	0.114	-0.088
-611.244	-37.942	0.091	0.048
-610.230	-115.031	-0.266	-0.051
-609.215	541.047	-0.052	0.125
-608.201	-200.000	0.022	-0.145
-607.186	-159.928	0.110	-0.006
-606.171	64.341	0.106	0.107
-605.157	800.000	-0.053	-0.170
-604.142	-138.038	-0.061	0.007
-603.128	259.871	-0.051	-0.088
-602.113	-200.000	-0.070	-0.411
-601.098	800.000	0.083	-0.352
-600.084	-104.540	-0.206	-0.048
-599.069	-150.951	0.205	-0.015
-598.055	-200.000	-0.021	0.155
-597.040	-55.822	-0.150	-0.067
-596.025	-132.145	0.038	0.005
-595.011	41.832	-0.176	0.160
-593.996	276.300	-0.121	0.215
-592.982	102.075	-0.154	0.179
-591.967	61.219	0.102	0.101
-590.952	56.058	-0.203	0.197
-589.938	-115.825	-0.295	-0.055
-588.923	532.602	-0.082	0.195
-587.909	-37.093	-0.242	0.130
-586.894	-118.574	0.333	0.059
-585.879	234.477	0.236	-0.388
-584.865	552.205	0.098	0.235
-583.850	-200.000	-0.027	0.133
-582.836	312.299	0.075	0.141
-581.821	-127.264	-0.148	-0.022
-580.806	-95.999	0.196	0.052
-579.792	-200.000	-0.029	0.219
-578.777	157.301	0.119	0.165
-577.763	231.412	0.155	0.254
-576.748	325.461	-0.140	-0.267
-575.733	213.055	-0.135	0.212
-574.719	42.780	-0.252	-0.230
-573.704	-79.975	0.356	-0.119
-572.690	81.614	-0.331	0.357
-571.675	-200.000	0.035	0.272
-570.661	670.303	0.068	0.176
-569.646	-70.503	-0.212	-0.080
-568.631	-128.645	-0.151	-0.021
-567.617	-9.483	0.055	0.037
-566.602	800.000	-0.041	-0.157
-565.588	-101.149	-0.325	0.079
-564.573	62.775	-0.044	0.044
-563.558	-114.281	0.292	-0.056
-562.544	800.000	0.110	-0.379
-561.529	194.041	0.152	-0.229
-560.515	-68.024	0.361	-0.141
-559.500	452.451	-0.060	0.133
-558.485	161.515	-0.155	0.216
-557.471	109.984	0.291	-0.349
-556.456	-67.128	-0.197	0.078
-555.442	193.503	0.024	0.036
-554.427	58.613	-0.360	0.353
-553.412	-175.854	0.298	-0.008
-552.398	150.502	0.137	-0.186
-551.383	183.191	-0.209	0.308
-550.369	-200.000	0.006	0.113
-549.354	244.858	-0.183	-0.306
-548.339	-22.701	-0.065	0.039
-547.325	189.401	-0.056	0.083
-546.310	-18.181	0.422	0.263
-545.296	-114.765	0.276	-0.052
-544.281	237.746	0.105	-0.174
-543.266	218.830	-0.147	-0.234
-542.252	-6.980	-0.130	-0.088
-541.237	74.498	-0.062	-0.065
-540.223	105.833	-0.052	-0.062
-539.208	-67.659	0.257	-0.100
-538.193	134.652	0.093	-0.121
-537.179	200.103	0.156	-0.238
-536.164	-200.000	-0.017	-0.194
-535.150	-103.681	-0.032	0.008
-534.135	-200.000	-0.004	0.046
-533.121	29.454	-0.070	0.059
-532.106	-16.923	0.233	0.147
-531.091	-131.318	0.094	0.012
-530.077	-68.181	-0.334	-0.130
-529.062	66.055	-0.107	-0.108
-528.048	1.733	-0.155	0.111
-527.033	-200.000	0.049	-0.251
-526.018	214.301	0.051	-0.080
-525.004	-80.086	-0.323	-0.108
-523.989	-111.780	0.112	0.023
-522.975	-34.221	-0.253	0.138
-521.960	425.553	0.137	0.294
-520.945	-144.240	-0.196	0.018
-519.931	47.956	-0.083	0.077
-518.916	108.512	-0.323	0.384
-517.902	-200.000	0.026	0.369
-516.887	-4.906	-0.118	0.081
-515.872	-200.000	0.046	-0.212
-514.858	59.180	0.108	0.106
-513.843	-200.000	0.087	0.000
-512.829	162.447	0.082	-0.115
-511.814	727.123	0.111	-0.294
-510.799	169.502	0.305	-0.434
-509.785	-114.925	0.342	0.065
-508.770	-53.983	-0.372	-0.169
-507.756	-72.996	-0.172	0.063
-506.741	800.000	0.065	-0.219
-505.726	684.163	-0.093	0.241
-504.712	-200.000	0.028	0.199
-503.697	800.000	0.090	-0.303
-502.683	-200.000	-0.011	-0.103
-501.668	63.871	0.117	-0.117
-500.653	360.687	-0.124	0.247
-499.639	800.000	-0.018	-0.075
-498.624	800.000	0.054	0.206
-497.610	-67.941	-0.123	0.048
-496.595	127.257	-0.164	0.207
-495.581	150.548	0.190	-0.256
-494.566	-90.079	-0.209	-0.061
-493.551	-200.000	0.013	-0.131
-492.537	-170.925	-0.339	0.012
-491.522	-41.431	0.232	0.119
-490.508	177.579	-0.156	0.226
-489.493	-38.881	-0.273	-0.143
-488.478	13.315	-0.216	-0.167
-487.464	-107.615	0.044	-0.010
-486.449	278.857	0.241	0.427
-485.435	800.000	-0.097	0.287
-484.420	-44.079	0.358	-0.179
-483.405	209.035	-0.012	-0.019
-482.391	-73.616	-0.199	0.072
-481.376	-200.000	0.023	-0.359
-480.362	-70.883	0.288	0.108
-479.347	88.289	-0.041	0.045
-478.332	-200.000	-0.001	0.028
-477.318	761.229	0.067	0.181
-476.303	380.398	0.155	0.315
-475.289	-84.167	0.216	0.068
-474.274	138.653	-0.055	0.072
-473.259	-22.064	-0.197	0.119
-472.245	56.187	-0.320	-0.309
-471.230	-50.706	-0.102	0.048
-470.216	76.260	-0.250	0.263
-469.201	170.220	0.252	-0.359
-468.186	-89.320	0.270	0.079
-467.172	-20.277	-0.400	0.245
-466.157	-200.000	0.069	0.344
-465.143	111.754	-0.144	0.172
-464.128	-17.534	-0.296	0.185
-463.113	46.618	-0.161	0.148
-462.099	43.202	0.247	-0.225
-461.084	81.173	-0.161	0.172
-460.070	208.862	0.216	-0.336
-459.055	255.072	-0.108	0.183
-458.040	46.726	0.350	-0.323
-457.026	-125.038	0.377	0.058
-456.011	800.000	0.104	-0.294
-454.997	-95.036	-0.059	-0.016
-453.982	26.455	-0.085	-0.071
-452.968	-90.461	-0.175	0.050
-451.953	-62.567	0.181	0.074
-450.938	-177.916	-0.148	0.004
-449.924	-109.983	-0.384	0.080
-448.909	-77.610	0.238	0.082
-447.895	144.795	-0.088	0.117
-446.880	-83.485	0.318	0.101
-445.865	280.577	0.161	0.287
-444.851	-179.182	0.230	-0.005
-443.836	800.000	-0.041	-0.172
-442.822	-36.576	-0.076	0.041
-441.807	-200.000	-0.011	0.361
-440.792	-120.734	0.152	0.025
-439.778	82.607	-0.151	0.163
-438.763	223.535	-0.123	-0.197
-437.749	-97.747	0.269	-0.069
-436.734	800.000	0.065	-0.207
-435.719	128.646	0.253	-0.321
-434.705	-200.000	-0.007	-0.277
-433.690	95.609	0.110	-0.125
-432.676	-71.071	-0.475	-0.177
-431.661	-124.310	-0.150	0.023
-430.646	102.645	-0.115	-0.134
-429.632	-64.209	0.178	-0.072
-428.617	-44.808	-0.248	-0.123
-427.603	-52.920	-0.134	-0.061
-426.588	562.979	-0.058	-0.139
-425.573	-138.728	-0.436	-0.047
-424.559	800.000	0.077	0.272
-423.544	-90.715	-0.148	-0.042
-422.530	47.423	0.016	0.015
-421.515	52.248	0.208	0.197
-420.500	-200.000	0.007	-0.247
-419.486	-48.213	-0.206	-0.099
-418.471	-200.000	-0.012	-0.064
-417.457	27.334	0.154	-0.128
-416.442	-88.362	-0.401	0.119
-415.428	-121.440	0.158	-0.026
-414.413	-200.000	0.021	0.336
-413.398	42.058	-0.191	0.172
-412.384	-125.924	0.157	-0.024
-411.369	656.437	-0.046	-0.117
-410.355	-200.000	-0.022	-0.099
-409.340	134.363	-0.119	0.154
-408.325	102.201	-0.112	-0.129
-407.311	-63.089	-0.112	-0.046
-406.296	-40.675	-0.176	-0.091
-405.282	-76.790	0.177	-0.062
-404.267	62.001	0.164	-0.162
-403.252	800.000	-0.116	0.374
-402.238	-127.671	0.316	-0.045
-401.223	45.337	0.166	-0.152
-400.209	40.410	-0.063	0.056
-399.194	-21.716	0.206	-0.125
-398.179	-200.000	0.010	-0.170
-397.165	-82.769	0.425	-0.136
-396.150	83.250	0.111	0.120
-395.136	340.946	-0.087	-0.168
-394.121	800.000	0.039	0.160
-393.106	-200.000	0.003	-0.287
-392.092	691.889	0.133	-0.345
-391.077	-200.000	-0.006	0.211
-390.063	-39.982	-0.372	-0.192
-389.048	-144.967	-0.452	0.041
-388.033	-200.000	0.047	0.397
-387.019	264.932	0.170	0.293
-386.004	-200.000	0.022	-0.127
-384.990	272.394	0.042	0.074
-383.975	-136.308	0.272	-0.031
-382.960	-200.000	-0.014	-0.094
-381.946	123.271	-0.060	-0.074
-380.931	98.517	0.129	0.148
-379.917	-200.000	-0.049	-0.247
-378.902	12.214	-0.145	0.111
-377.888	-42.772	-0.193	-0.097
-376.873	246.604	0.095	0.159
-375.858	-200.000	-0.038	0.184
-374.844	737.814	-0.063	-0.167
-373.829	2.839	-0.204	-0.147
-372.815	-28.085	0.385	-0.220
-371.800	-200.000	-0.039	-0.289
-370.785	83.637	0.257	-0.278
-369.771	48.816	-0.047	0.044
-368.756	-59.397	-0.179	-0.076
-367.742	800.000	-0.036	-0.144
-366.727	-100.412	-0.346	0.085
-365.712	14.036	0.028	-0.022
-364.698	58.091	-0.177	0.172
-363.683	-73.780	-0.179	0.064
-362.669	-200.000	-0.007	-0.064
-361.654	-131.974	-0.100	0.013
-360.639	79.846	-0.203	0.216
-359.625	-25.612	-0.180	-0.105
-358.610	-139.329	0.404	0.043
-357.596	-200.000	0.019	-0.187
-356.581	-109.997	-0.122	0.025
-355.566	-13.376	0.155	0.100
-354.552	88.702	-0.043	0.047
-353.537	128.554	0.135	-0.170
-352.523	-91.832	0.028	-0.008
-351.508	-200.000	-0.028	0.244
-350.493	-60.271	0.069	-0.029
-349.479	-26.580	0.101	0.059
-348.464	-19.933	-0.284	-0.174
-347.450	20.758	0.014	0.011
-346.435	246.076	0.068	-0.114
-345.420	230.752	0.222	0.360
-344.406	-102.173	0.182	-0.043
-343.391	-1.861	0.255	-0.177
-342.377	800.000	-0.039	-0.111
-341.362	-110.135	-0.109	0.023
-340.348	-8.295	-0.053	0.035
-339.333	18.022	-0.068	0.054
-338.318	-200.000	-0.066	-0.389
-337.304	34.761	-0.166	0.143
-336.289	41.235	-0.057	-0.051
-335.275	593.503	0.090	0.220
-334.260	-50.160	-0.228	-0.107
-333.245	779.959	-0.133	0.360
-332.231	-104.567	0.121	-0.028
-331.216	96.984	-0.106	-0.120
-330.202	-42.930	0.126	0.063
-329.187	37.084	0.210	0.184
-328.172	-2.263	-0.264	-0.183
-327.158	357.888	-0.133	0.262
-326.143	-200.000	0.027	-0.183
-325.129	76.457	0.175	-0.184
-324.114	-95.641	-0.174	-0.046
-323.099	-138.506	0.090	0.010
-322.085	-62.515	0.178	0.073
-321.070	-55.543	-0.309	0.137
-320.056	479.744	0.041	-0.093
-319.041	-13.568	-0.129	0.082
-318.026	610.672	-0.182	-0.451
-317.012	203.196	-0.047	0.072
-315.997	555.293	0.078	-0.186
-314.983	-51.995	0.195	-0.090
-313.968	-200.000	-0.012	0.338
-312.953	-200.000	0.013	0.361
-311.939	471.875	0.032	-0.072
-310.924	58.998	-0.135	0.131
-309.910	-200.000	-0.007	0.097
-308.895	263.697	-0.102	0.176
-307.880	-200.000	0.025	-0.399
-306.866	-200.000	0.007	-0.147
-305.851	-97.221	-0.206	0.053
-304.837	-0.664	-0.090	-0.063
-303.822	-175.320	0.260	-0.007
-302.807	-200.000	-0.033	-0.355
-301.793	800.000	-0.041	-0.172
-300.778	-17.280	-0.268	0.167
-299.764	800.000	-0.034	0.136
-298.749	109.165	-0.057	-0.068
-297.735	-24.055	-0.154	0.091
-296.720	-31.423	-0.260	-0.145
-295.705	-200.000	0.012	-0.057
-294.691	47.637	0.053	0.049
-293.676	776.003	-0.005	0.014
-292.662	-200.000	-0.009	0.123
-291.647	85.162	-0.163	-0.176
-290.632	-6.226	-0.136	0.092
-289.618	-145.869	0.091	0.008
-288.603	-54.144	-0.360	-0.162
-287.589	-197.642	0.185	0.001
-286.574	207.717	-0.077	0.119
-285.559	5.767	-0.058	-0.043
-284.545	-18.899	0.079	-0.049
-283.530	-72.074	-0.595	0.218
-282.516	-200.000	0.008	0.187
-281.501	236.561	-0.245	-0.401
-280.486	-200.000	-0.008	-0.140
-279.472	113.747	0.143	0.171
-278.457	-122.007	0.198	-0.032
-277.443	-200.000	0.064	-0.316
-276.428	-119.645	0.197	-0.034
-275.413	-59.128	-0.146	-0.062
-274.399	155.613	-0.168	0.228
-273.384	-29.349	0.236	0.134
-272.370	-98.030	0.322	0.082
-271.355	260.130	-0.094	-0.161
-270.340	-77.378	-0.161	0.055
-269.326	-9.923	-0.285	0.187
-268.311	-118.126	-0.082	-0.014
-267.297	-27.186	0.445	0.256
-266.282	-16.789	0.250	-0.156
-265.267	249.156	0.085	0.143
-264.253	-200.000	0.036	-0.203
-263.238	541.811	0.019	-0.044
-262.224	159.059	-0.160	-0.219
-261.209	-200.000	0.013	0.060
-260.195	42.747	-0.264	-0.237
-259.180	9.130	0.276	-0.206
-258.165	467.411	-0.085	-0.188
-257.151	-88.687	0.288	-0.085
-256.136	227.776	-0.140	0.224
-255.122	-12.856	-0.329	-0.211
-254.107	49.835	0.233	-0.217
-253.092	253.865	-0.100	0.169
-252.078	-200.000	-0.016	0.311
-251.063	-56.191	0.125	0.055
-250.049	38.304	0.434	0.381
-249.034	-200.000	-0.060	-0.280
-248.019	-54.475	-0.047	0.021
-247.005	-9.600	0.265	0.174
-245.990	-11.741	0.338	-0.219
-244.976	29.885	-0.196	0.165
-243.961	-48.489	0.190	0.090
-242.946	-142.970	-0.029	0.003
-241.932	778.303	-0.044	-0.119
-240.917	-200.000	-0.001	0.171
-239.903	800.000	0.022	0.090
-238.888	-200.000	0.033	-0.463
-237.873	800.000	-0.033	-0.110
-236.859	-117.381	-0.179	0.032
-235.844	-103.837	-0.149	-0.034
-234.830	726.445	0.114	0.300
-233.815	-200.000	0.012	0.143
-232.800	111.045	-0.058	-0.069
-231.786	-36.486	0.294	-0.156
-230.771	800.000	0.113	0.332
-229.757	556.326	0.105	0.248
-228.742	20.185	-0.302	-0.240
-227.727	-56.096	-0.046	0.020
-226.713	-200.000	-0.045	-0.322
-225.698	800.000	0.048	0.187
-224.684	-138.466	0.329	-0.036
-223.669	84.610	0.060	-0.065
-222.655	25.903	0.194	-0.160
-221.640	493.986	0.145	-0.328
-220.625	-109.939	0.045	-0.009
-219.611	473.751	-0.041	0.090
-218.596	-74.880	0.136	-0.048
-217.582	-11.459	-0.163	0.106
-216.567	114.510	-0.230	-0.276
-215.552	76.446	0.297	0.310
-214.538	93.249	0.192	0.214
-213.523	-200.000	-0.005	-0.353
-212.509	-135.465	0.319	-0.037
-211.494	-157.600	0.162	-0.010
-210.479	800.000	-0.079	-0.294
-209.465	-200.000	-0.019	-0.219
-208.450	-88.969	0.376	-0.110
-207.436	-36.839	0.108	-0.057
-206.421	-200.000	-0.047	0.262
-205.406	-89.282	0.429	0.124
-204.392	-200.000	-0.026	0.180
-203.377	-150.381	-0.201	0.015
-202.363	208.131	0.075	0.115
-201.348	-44.825	0.160	-0.078
-200.333	435.026	0.177	-0.379
-199.319	-79.970	0.163	-0.054
-198.304	-200.000	0.008	-0.244
-197.290	-200.000	-0.044	0.271
-196.275	182.082	-0.193	0.279
-195.260	571.909	-0.133	-0.318
-194.246	94.347	0.125	-0.140
-193.231	-13.399	-0.275	-0.175
-192.217	36.488	-0.133	-0.115
-191.202	-200.000	-0.045	-0.341
-190.187	-162.458	0.490	0.024
-189.173	7.090	0.284	-0.208
-188.158	79.643	-0.107	0.113
-187.144	-114.754	0.296	-0.056
-186.129	12.444	0.033	0.025
-185.114	-28.207	-0.158	-0.090
-184.100	438.712	-0.159	0.341
-183.085	-102.855	-0.249	0.058
-182.071	86.526	0.063	-0.068
-181.056	136.905	-0.144	-0.185
-180.042	-200.000	0.085	0.410
-179.027	800.000	0.059	0.216
-178.012	-45.394	-0.152	-0.074
-176.998	-16.737	-0.185	0.115
-175.983	99.908	0.314	0.358
-174.969	-200.000	0.008	0.319
-173.954	340.454	-0.166	0.318
-172.939	800.000	0.040	-0.167
-171.925	416.815	0.081	-0.169
-170.910	144.531	0.054	0.071
-169.896	800.000	0.121	0.354
-168.881	20.747	0.277	0.221
-167.866	128.935	-0.128	0.160
-166.852	89.899	0.091	-0.099
-165.837	710.509	-0.049	0.129
-164.823	-118.139	0.090	-0.016
-163.808	67.518	0.269	-0.270
-162.793	-200.000	0.081	0.368
-161.779	393.894	-0.064	0.132
-160.764	-142.674	0.351	0.034
-159.750	-194.960	-0.090	0.001
-158.735	405.554	0.092	-0.191
-157.720	580.890	0.080	0.191
-156.706	200.673	0.074	-0.111
-155.691	-108.819	-0.070	-0.015
-154.677	80.522	0.191	0.202
-153.662	-200.000	-0.005	-0.225
-152.647	-200.000	0.039	0.170
-151.633	106.214	0.181	0.210
-150.618	800.000	0.053	-0.172
-149.604	800.000	0.034	0.132
-148.589	-122.860	0.053	-0.008
-147.574	83.926	0.084	-0.090
-146.560	-26.480	0.125	0.072
-145.545	121.887	-0.175	-0.214
-144.531	-200.000	0.032	-0.148
-143.516	96.435	0.077	0.086
-142.502	43.545	0.185	0.166
-141.487	230.006	-0.169	-0.272
-140.472	-69.288	-0.173	0.065
-139.458	-200.000	-0.018	-0.179
-138.443	29.020	0.184	0.153
-137.429	-200.000	0.007	-0.031
-136.414	-128.003	0.162	-0.023
-135.399	407.963	-0.012	0.024
-134.385	-200.000	-0.037	0.191
-133.370	124.431	0.049	-0.060
-132.356	99.693	-0.243	0.276
-131.341	-8.661	0.127	0.084
-130.326	229.805	0.118	-0.190
-129.312	-5.493	-0.265	-0.178
-128.297	-71.049	-0.445	0.164
-127.283	-200.000	0.015	0.187
-126.268	34.270	0.383	0.328
-125.253	-148.943	0.068	-0.005
-124.239	-11.576	0.212	0.137
-123.224	-139.486	-0.333	-0.035
-122.210	20.543	-0.191	0.151
