DTS Sentinel unit serial number:	SN413079Multiplexer serial number:	ORYXHardware model number:	OX4-SRSoftware version number:	ORYX F/W v4.00 Oryx Data Collector v3.7.2.0data status	okinstallation	princeton_trtdifferential loss correction	single-endedforward channel	channel 2reverse channel	N/Adate	2019/09/17time	23:51:35forward acquisition time	60.00reverse acquisition time	0.00gamma	496.2192k internal	0.2349k external	0.2349temperature offset calibration	0.9986default loss term (dB/km)	0.3790temperature slope calibration	1.0000multiplexer offset coefficient	1.0000multiplexer slope coefficient	1.0000fibre end	0.00T internal ref (°C)	23.95T ext. ref 1 (°C)	0.17T ext. ref 2 (°C)	17.38length (m)	temperature (°C)	Stokes	anti-Stokes-747.200	433.420	0.104	0.226
-746.185	-128.362	-0.042	0.006
-745.171	77.595	-0.167	0.178
-744.156	800.000	-0.060	-0.205
-743.142	55.210	0.244	0.235
-742.127	45.580	-0.125	-0.115
-741.112	-128.157	0.207	-0.030
-740.098	-102.672	0.260	0.062
-739.083	412.979	0.036	-0.077
-738.069	-200.000	0.007	0.482
-737.054	53.072	0.045	0.043
-736.039	-126.373	-0.127	-0.019
-735.025	-200.000	-0.048	0.292
-734.010	800.000	0.065	-0.270
-732.996	-200.000	0.010	0.155
-731.981	-64.634	-0.129	0.052
-730.966	-200.000	0.022	-0.161
-729.952	11.420	0.221	0.169
-728.937	800.000	0.092	0.264
-727.923	-54.524	-0.227	-0.103
-726.908	46.109	-0.136	0.126
-725.894	-200.000	-0.062	-0.000
-724.879	-200.000	-0.026	-0.212
-723.864	-74.030	0.341	0.124
-722.850	223.246	0.076	0.122
-721.835	-200.000	0.010	-0.227
-720.821	800.000	0.098	-0.357
-719.806	-122.111	0.261	0.043
-718.791	800.000	-0.076	-0.212
-717.777	169.617	0.085	0.122
-716.762	-129.224	0.224	0.031
-715.748	92.290	-0.255	0.286
-714.733	11.445	0.244	-0.187
-713.718	212.678	-0.139	0.219
-712.704	-72.139	-0.243	-0.090
-711.689	-14.457	-0.187	0.120
-710.675	13.281	0.324	-0.250
-709.660	-88.319	0.274	-0.082
-708.645	42.274	0.193	-0.175
-707.631	45.426	0.188	-0.173
-706.616	-99.027	-0.103	-0.026
-705.602	-200.000	-0.004	-0.158
-704.587	773.110	0.019	-0.051
-703.572	-155.186	-0.461	-0.030
-702.558	134.170	0.128	-0.166
-701.543	-60.223	-0.167	-0.071
-700.529	-200.000	-0.013	0.214
-699.514	110.912	-0.084	0.101
-698.499	210.110	0.175	-0.273
-697.485	-13.618	-0.198	0.128
-696.470	-181.288	-0.270	-0.005
-695.456	800.000	0.062	0.179
-694.441	800.000	-0.080	-0.257
-693.426	26.439	0.255	-0.212
-692.412	-16.991	-0.211	-0.133
-691.397	800.000	0.073	0.201
-690.383	-82.256	-0.239	0.078
-689.368	51.842	0.081	0.077
-688.354	21.008	-0.140	0.113
-687.339	784.922	-0.073	-0.199
-686.324	-11.105	0.182	-0.119
-685.310	120.005	-0.227	-0.281
-684.295	240.099	0.113	0.188
-683.281	-76.263	-0.026	0.009
-682.266	47.935	0.139	-0.129
-681.251	-56.960	-0.048	0.021
-680.237	435.537	0.025	0.054
-679.222	103.780	-0.076	0.089
-678.208	-102.204	0.060	0.014
-677.193	53.135	0.073	-0.070
-676.178	-200.000	-0.029	0.175
-675.164	212.868	-0.267	0.420
-674.149	800.000	0.090	-0.274
-673.135	-48.324	-0.156	0.075
-672.120	-97.206	0.055	0.014
-671.105	28.404	0.161	-0.136
-670.091	27.678	0.229	0.192
-669.076	-200.000	-0.022	-0.220
-668.062	-89.712	-0.108	-0.032
-667.047	-200.000	0.002	0.314
-666.032	124.715	0.154	0.193
-665.018	-57.170	-0.080	-0.035
-664.003	124.339	-0.100	-0.126
-662.989	800.000	-0.093	0.347
-661.974	-200.000	-0.059	-0.354
-660.959	-200.000	-0.024	0.128
-659.945	-89.337	-0.170	0.050
-658.930	-53.049	0.218	0.100
-657.916	-87.283	0.424	0.128
-656.901	99.165	-0.313	0.361
-655.886	230.631	-0.079	0.129
-654.872	75.975	0.222	0.234
-653.857	-112.781	-0.152	-0.030
-652.843	121.255	-0.128	-0.158
-651.828	28.093	-0.136	0.114
-650.814	-71.166	-0.300	-0.112
-649.799	-154.994	0.184	-0.012
-648.784	46.139	0.111	-0.102
-647.770	271.776	0.085	-0.149
-646.755	800.000	-0.047	-0.185
-645.741	-43.913	0.120	0.060
-644.726	-123.899	-0.266	-0.042
-643.711	-109.592	-0.407	-0.085
-642.697	60.865	-0.170	-0.168
-641.682	-200.000	0.072	0.455
-640.668	-113.042	-0.157	-0.031
-639.653	636.480	-0.048	-0.121
-638.638	84.792	-0.179	-0.195
-637.624	-200.000	0.045	0.223
-636.609	-45.236	-0.161	-0.080
-635.595	130.524	-0.074	-0.095
-634.580	-200.000	0.023	-0.118
-633.565	800.000	-0.035	0.114
-632.551	800.000	-0.109	-0.331
-631.536	-110.718	-0.392	-0.081
-630.522	-58.740	-0.218	-0.094
-629.507	-200.000	-0.010	0.286
-628.492	66.513	0.055	0.056
-627.478	-30.417	0.069	0.039
-626.463	-73.860	-0.190	0.069
-625.449	165.837	-0.128	-0.180
-624.434	70.671	0.043	-0.044
-623.419	-140.504	-0.334	-0.035
-622.405	128.982	0.099	-0.126
-621.390	800.000	-0.042	0.114
-620.376	-14.845	0.346	0.221
-619.361	720.035	0.143	0.379
-618.346	-98.044	-0.216	0.055
-617.332	-111.814	0.286	-0.058
-616.317	800.000	-0.053	-0.160
-615.303	728.036	0.101	-0.267
-614.288	83.872	-0.138	0.149
-613.273	23.220	0.206	-0.168
-612.259	246.076	0.048	0.081
-611.244	-200.000	0.032	0.157
-610.230	418.323	0.121	-0.258
-609.215	-15.957	-0.169	-0.107
-608.201	-200.000	0.009	0.149
-607.186	-200.000	0.026	-0.247
-606.171	223.721	0.073	0.118
-605.157	776.504	-0.098	-0.265
-604.142	800.000	-0.036	-0.108
-603.128	-200.000	-0.015	0.264
-602.113	37.017	0.256	0.225
-601.098	-200.000	-0.004	0.065
-600.084	800.000	-0.128	0.354
-599.069	-60.606	0.235	0.099
-598.055	716.861	0.083	-0.219
-597.040	-33.765	-0.163	-0.089
-596.025	800.000	-0.090	-0.289
-595.011	253.017	0.120	-0.203
-593.996	-200.000	-0.056	0.321
-592.982	-147.608	0.113	-0.009
-591.967	-109.243	-0.242	-0.051
-590.952	-200.000	0.011	0.097
-589.938	-200.000	-0.028	-0.166
-588.923	-157.373	0.223	-0.013
-587.909	-169.804	0.107	0.004
-586.894	-31.187	0.056	-0.032
-585.879	133.966	-0.102	0.131
-584.865	-187.543	0.044	-0.001
-583.850	-91.278	0.113	-0.032
-582.836	-62.679	0.075	-0.031
-581.821	-150.360	0.211	0.016
-580.806	35.271	-0.090	-0.078
-579.792	-6.912	0.185	0.125
-578.777	211.245	-0.103	0.160
-577.763	-200.000	0.005	-0.200
-576.748	-200.000	-0.056	0.266
-575.733	-114.930	0.205	0.039
-574.719	130.290	0.229	-0.291
-573.704	165.795	-0.227	-0.319
-572.690	641.397	0.100	-0.253
-571.675	157.912	-0.297	-0.408
-570.661	264.566	0.041	0.070
-569.646	-200.000	0.023	-0.105
-568.631	263.175	0.086	0.148
-567.617	244.890	-0.096	-0.160
-566.602	425.501	-0.134	-0.285
-565.588	50.003	0.096	-0.090
-564.573	-20.037	0.242	-0.148
-563.558	-98.711	0.147	-0.037
-562.544	684.808	0.022	0.056
-561.529	-200.000	-0.001	0.079
-560.515	-8.907	-0.285	-0.189
-559.500	-64.918	-0.147	0.059
-558.485	520.301	0.162	-0.376
-557.471	-76.202	0.228	-0.080
-556.456	-95.572	0.222	-0.059
-555.442	36.357	-0.303	0.265
-554.427	125.012	-0.262	0.327
-553.412	-10.660	0.186	0.122
-552.398	119.243	0.177	-0.217
-551.383	-115.258	0.315	0.059
-550.369	-107.514	-0.323	0.070
-549.354	-27.762	-0.056	-0.032
-548.339	604.028	-0.014	-0.034
-547.325	130.237	-0.041	-0.052
-546.310	79.073	-0.131	0.140
-545.296	10.458	-0.290	0.219
-544.281	50.942	0.052	0.049
-543.266	800.000	-0.070	0.217
-542.252	-200.000	0.033	0.245
-541.237	79.782	-0.009	-0.010
-540.223	304.809	-0.116	0.214
-539.208	-122.172	0.197	0.032
-538.193	-114.639	0.283	-0.054
-537.179	-146.931	-0.188	0.016
-536.164	800.000	-0.059	0.205
-535.150	35.174	0.271	-0.235
-534.135	800.000	-0.094	0.279
-533.121	725.223	-0.075	-0.198
-532.106	800.000	-0.101	-0.286
-531.091	-50.646	0.148	-0.069
-530.077	-107.616	-0.200	-0.043
-529.062	-22.493	0.334	0.200
-528.048	-92.586	-0.195	0.054
-527.033	7.854	-0.122	0.090
-526.018	-200.000	-0.001	-0.034
-525.004	800.000	-0.049	-0.196
-523.989	-33.614	0.235	0.128
-522.975	-103.708	0.185	0.043
-521.960	-200.000	-0.035	0.170
-520.945	-46.121	0.248	0.121
-519.931	-104.231	-0.176	0.040
-518.916	184.625	0.196	0.287
-517.902	-61.681	-0.036	0.015
-516.887	-114.419	0.042	0.008
-515.872	375.618	0.118	-0.238
-514.858	800.000	-0.006	-0.019
-513.843	177.543	0.162	-0.234
-512.829	-200.000	-0.036	-0.220
-511.814	159.881	-0.120	0.166
-510.799	34.279	0.214	0.185
-509.785	672.962	-0.089	-0.228
-508.770	40.214	0.175	-0.156
-507.756	43.881	-0.071	0.064
-506.741	-200.000	-0.016	0.182
-505.726	-93.047	-0.399	-0.110
-504.712	160.477	0.152	0.209
-503.697	287.142	-0.262	-0.468
-502.683	-60.000	-0.259	0.109
-501.668	578.337	-0.064	-0.154
-500.653	49.486	0.075	-0.070
-499.639	-67.093	-0.277	0.108
-498.624	-111.054	0.208	-0.042
-497.610	-96.757	0.281	0.073
-496.595	-124.298	0.266	0.041
-495.581	-74.552	-0.358	-0.128
-494.566	146.208	-0.046	-0.061
-493.551	-34.764	-0.262	-0.141
-492.537	800.000	0.100	-0.340
-491.522	-129.210	-0.176	0.024
-490.508	-200.000	0.028	0.270
-489.493	-118.000	-0.063	0.011
-488.478	800.000	0.152	-0.459
-487.464	384.434	0.115	-0.234
-486.449	197.741	0.241	0.365
-485.435	-200.000	-0.033	-0.226
-484.420	-200.000	-0.005	0.129
-483.405	-51.123	0.388	0.180
-482.391	91.546	0.089	-0.098
-481.376	-15.922	0.080	-0.050
-480.362	-7.631	-0.171	0.114
-479.347	-137.479	0.376	-0.042
-478.332	36.404	-0.071	0.062
-477.318	-95.603	0.103	0.027
-476.303	-172.471	-0.184	0.006
-475.289	41.282	0.167	-0.149
-474.274	800.000	0.093	-0.367
-473.259	-200.000	0.009	0.243
-472.245	29.287	-0.259	-0.217
-471.230	112.741	-0.174	-0.209
-470.216	79.237	0.138	0.146
-469.201	27.114	0.161	0.134
-468.186	-39.948	-0.367	0.189
-467.172	-200.000	-0.005	0.233
-466.157	800.000	0.055	-0.163
-465.143	658.228	-0.090	-0.228
-464.128	79.754	-0.119	-0.126
-463.113	302.798	-0.166	-0.304
-462.099	-116.413	0.406	0.074
-461.084	800.000	0.070	-0.208
-460.070	800.000	-0.038	0.117
-459.055	-200.000	0.006	-0.069
-458.040	-200.000	-0.006	0.046
-457.026	108.946	0.044	0.052
-456.011	-200.000	-0.029	-0.173
-454.997	-125.117	-0.361	-0.055
-453.982	-22.342	0.531	-0.318
-452.968	335.657	-0.151	-0.290
-451.953	-54.394	-0.033	-0.015
-450.938	-179.977	-0.234	0.005
-449.924	-184.653	0.185	0.003
-448.909	-17.063	-0.163	0.101
-447.895	199.900	0.072	-0.108
-446.880	-1.283	0.101	-0.071
-445.865	-185.719	0.209	0.003
-444.851	194.442	-0.216	-0.323
-443.836	-28.236	0.302	0.172
-442.822	800.000	0.071	-0.215
-441.807	122.502	-0.174	-0.214
-440.792	800.000	0.067	0.192
-439.778	154.086	0.114	0.155
-438.763	-94.779	0.374	-0.100
-437.749	-21.306	0.172	0.103
-436.734	-155.671	-0.129	0.008
-435.719	425.285	-0.231	0.490
-434.705	800.000	-0.056	0.223
-433.690	22.480	0.183	-0.148
-432.676	-108.355	-0.269	-0.057
-431.661	-200.000	0.003	-0.060
-430.646	-154.407	0.181	-0.012
-429.632	-84.240	-0.363	-0.113
-428.617	-118.758	-0.138	-0.024
-427.603	14.324	-0.053	0.041
-426.588	241.772	-0.128	0.211
-425.573	479.184	0.027	0.060
-424.559	-145.597	0.210	-0.019
-423.544	27.123	0.134	0.111
-422.530	-60.995	-0.169	0.070
-421.515	-69.871	-0.355	0.134
-420.500	31.934	-0.211	0.179
-419.486	307.016	0.027	-0.049
-418.471	-63.882	0.243	-0.098
-417.457	50.963	-0.214	-0.200
-416.442	-200.000	0.020	0.108
-415.428	-168.900	-0.160	0.006
-414.413	-200.000	-0.003	0.172
-413.398	-164.478	-0.277	0.012
-412.384	-187.907	0.245	0.003
-411.369	-200.000	0.021	0.188
-410.355	-85.890	-0.326	0.100
-409.340	-200.000	-0.019	0.132
-408.325	156.694	-0.284	0.386
-407.311	-133.514	-0.115	0.014
-406.296	800.000	-0.051	-0.208
-405.282	-107.542	-0.248	0.053
-404.267	111.997	0.185	0.220
-403.252	800.000	0.174	0.549
-402.238	-11.128	0.058	0.038
-401.223	-104.941	-0.117	-0.026
-400.209	327.979	-0.113	-0.213
-399.194	491.034	-0.092	0.207
-398.179	734.620	0.100	-0.264
-397.165	-155.053	0.181	0.012
-396.150	62.971	0.235	0.231
-395.136	38.248	-0.158	0.138
-394.121	-81.275	-0.418	0.136
-393.106	-200.000	0.037	-0.194
-392.092	-20.515	0.043	-0.026
-391.077	-164.258	-0.204	-0.009
-390.063	-57.408	-0.043	-0.019
-389.048	-66.954	0.026	-0.010
-388.033	508.778	0.015	0.034
-387.019	800.000	0.092	-0.280
-386.004	-84.063	-0.130	-0.041
-384.990	466.316	0.167	0.369
-383.975	800.000	0.096	-0.300
-382.960	469.056	0.123	-0.271
-381.946	-140.495	0.136	-0.014
-380.931	-200.000	0.034	-0.264
-379.917	204.114	0.065	-0.099
-378.902	24.498	-0.466	-0.380
-377.888	800.000	-0.058	-0.242
-376.873	-106.543	-0.400	-0.088
-375.858	85.872	0.147	-0.160
-374.844	800.000	-0.066	0.200
-373.829	65.036	0.015	-0.015
-372.815	152.031	0.075	0.101
-371.800	223.865	-0.050	0.080
-370.785	471.634	0.079	-0.175
-369.771	800.000	0.048	-0.166
-368.756	100.793	0.075	0.086
-367.742	67.491	-0.372	-0.374
-366.727	800.000	-0.070	-0.204
-365.712	286.660	0.159	0.283
-364.698	-117.921	-0.288	0.051
-363.683	800.000	0.054	-0.180
-362.669	-132.091	0.490	0.063
-361.654	-200.000	0.017	0.188
-360.639	167.698	-0.126	0.177
-359.625	-200.000	-0.008	0.168
-358.610	-141.886	0.110	-0.011
-357.596	-200.000	0.037	0.181
-356.581	-164.332	-0.470	0.021
-355.566	-200.000	-0.018	0.172
-354.552	200.036	0.102	0.153
-353.537	71.470	0.350	-0.358
-352.523	-200.000	0.011	0.296
-351.508	800.000	-0.114	-0.368
-350.493	270.741	-0.040	-0.070
-349.479	-11.465	-0.153	-0.099
-348.464	-45.627	0.090	0.044
-347.450	-200.000	0.006	-0.149
-346.435	-200.000	0.044	0.261
-345.420	518.001	-0.112	-0.258
-344.406	39.198	0.111	0.098
-343.391	-200.000	0.035	0.415
-342.377	-47.710	-0.281	0.134
-341.362	35.740	0.085	-0.073
-340.348	-45.105	0.318	0.155
-339.333	-105.903	0.248	-0.055
-338.318	2.731	0.052	0.037
-337.304	-200.000	0.014	-0.128
-336.289	-200.000	0.055	-0.241
-335.275	-81.116	0.107	-0.035
-334.260	-109.173	0.195	0.041
-333.245	-148.114	0.339	0.028
-332.231	800.000	0.052	-0.175
-331.216	515.359	0.157	-0.360
-330.202	-200.000	-0.054	-0.277
-329.187	-12.365	0.141	0.091
-328.172	-200.000	-0.007	-0.088
-327.158	-10.098	-0.204	0.133
-326.143	480.471	0.056	0.125
-325.129	0.525	-0.406	0.285
-324.114	-88.692	0.229	0.067
-323.099	-56.948	0.334	0.145
-322.085	522.981	-0.188	0.435
-321.070	-200.000	0.034	-0.179
-320.056	90.893	0.080	-0.088
-319.041	-200.000	-0.022	-0.109
-318.026	-37.380	-0.134	0.070
-317.012	-200.000	-0.039	0.429
-315.997	-200.000	0.036	0.159
-314.983	9.713	-0.135	-0.101
-313.968	-18.667	-0.140	0.086
-312.953	141.991	0.139	-0.181
-311.939	322.695	0.067	-0.126
-310.924	-148.834	-0.187	-0.015
-309.910	-200.000	0.039	0.316
-308.895	-10.004	-0.261	0.170
-307.880	800.000	-0.026	-0.073
-306.866	-200.000	0.073	-0.348
-305.851	-147.414	0.357	-0.030
-304.837	-15.170	0.202	0.127
-303.822	159.263	-0.201	-0.274
-302.807	526.962	0.077	-0.178
-301.793	-155.793	0.293	0.018
-300.778	-25.577	-0.196	-0.114
-299.764	329.885	0.104	-0.196
-298.749	739.340	0.092	0.242
-297.735	80.610	0.104	-0.110
-296.720	-174.451	0.169	0.005
-295.705	241.761	0.098	0.160
-294.691	-92.014	-0.192	0.053
-293.676	394.104	0.085	0.173
-292.662	3.222	-0.152	-0.109
-291.647	465.406	-0.090	0.197
-290.632	8.366	0.133	-0.098
-289.618	106.355	-0.031	0.036
-288.603	428.063	-0.050	-0.105
-287.589	-200.000	0.007	-0.042
-286.574	-113.306	0.219	0.042
-285.559	-145.474	-0.261	-0.023
-284.545	-55.031	0.025	-0.011
-283.530	-142.714	0.152	0.015
-282.516	496.751	-0.014	-0.032
-281.501	-38.819	-0.052	-0.027
-280.486	135.636	0.099	-0.126
-279.472	-188.465	-0.365	-0.004
-278.457	296.172	0.112	-0.202
-277.443	-172.826	0.098	-0.003
-276.428	41.154	0.160	0.142
-275.413	93.937	0.200	0.223
-274.399	140.784	0.167	0.216
-273.384	-97.625	-0.064	-0.016
-272.370	-80.761	-0.371	0.121
-271.355	800.000	0.041	-0.130
-270.340	332.447	-0.016	-0.030
-269.326	-200.000	-0.029	0.149
-268.311	-116.419	-0.099	0.018
-267.297	174.128	0.072	-0.102
-266.282	-200.000	0.023	0.291
-265.267	413.586	-0.086	-0.180
-264.253	-137.084	-0.235	0.026
-263.238	20.365	0.019	0.015
-262.224	-118.938	0.155	0.027
-261.209	-172.233	-0.306	0.010
-260.195	502.082	0.061	-0.137
-259.180	-35.025	0.273	-0.146
-258.165	800.000	-0.024	-0.078
-257.151	-106.695	-0.365	-0.079
-256.136	800.000	0.072	0.303
-255.122	288.059	-0.131	-0.232
-254.107	-83.879	-0.100	-0.031
-253.092	-70.335	0.250	0.093
-252.078	-102.206	-0.332	-0.078
-251.063	800.000	0.156	-0.635
-250.049	800.000	0.053	-0.153
-249.034	-200.000	0.000	0.125
-248.019	800.000	-0.036	-0.149
-247.005	-98.189	-0.066	0.017
-245.990	42.204	0.161	0.143
-244.976	1.947	-0.276	0.195
-243.961	-67.036	0.589	-0.228
-242.946	-200.000	0.025	-0.380
-241.932	-119.566	-0.107	-0.018
-240.917	210.376	0.069	-0.105
-239.903	-120.405	0.350	0.058
-238.888	-67.757	-0.110	0.042
-237.873	800.000	0.083	-0.285
-236.859	-200.000	-0.007	0.228
-235.844	-155.230	0.270	0.017
-234.830	-95.780	0.228	-0.060
-233.815	467.574	-0.126	0.277
-232.800	-200.000	-0.003	0.260
-231.786	251.202	0.087	-0.145
-230.771	800.000	0.015	-0.061
-229.757	78.731	-0.134	0.140
-228.742	800.000	-0.081	0.287
-227.727	4.000	-0.127	-0.091
-226.713	-186.073	0.239	-0.003
-225.698	800.000	-0.048	0.145
-224.684	148.035	-0.089	0.117
-223.669	100.338	-0.125	-0.142
-222.655	800.000	0.038	0.122
-221.640	-49.358	-0.291	0.136
-220.625	143.906	0.048	-0.063
-219.611	521.517	0.165	0.379
-218.596	800.000	-0.033	-0.106
-217.582	-200.000	-0.008	-0.161
-216.567	800.000	-0.044	0.139
-215.552	-81.533	0.174	-0.056
-214.538	-200.000	-0.066	-0.319
-213.523	800.000	-0.040	-0.129
-212.509	115.966	0.092	0.110
-211.494	-200.000	0.096	0.425
-210.479	-9.413	-0.168	0.109
-209.465	719.701	-0.030	0.078
-208.450	800.000	0.015	-0.055
-207.436	157.614	-0.071	0.096
-206.421	57.346	-0.145	-0.139
-205.406	800.000	-0.141	0.392
-204.392	174.663	-0.065	0.091
-203.377	-200.000	-0.014	-0.073
-202.363	-200.000	-0.043	-0.545
-201.348	177.014	-0.110	0.157
-200.333	-200.000	-0.123	0.536
-199.319	-106.768	-0.059	-0.013
-198.304	-55.052	-0.330	0.145
-197.290	-200.000	-0.029	0.168
-196.275	-5.764	0.145	-0.097
-195.260	-40.034	0.446	0.227
-194.246	604.362	0.028	0.069
-193.231	136.005	0.121	-0.154
-192.217	162.544	-0.124	-0.170
-191.202	140.408	-0.163	0.210
-190.187	341.744	-0.024	0.047
-189.173	-200.000	-0.011	-0.325
-188.158	105.489	0.170	-0.196
-187.144	471.201	-0.111	0.245
-186.129	-200.000	-0.003	-0.075
-185.114	-158.182	-0.304	0.017
-184.100	6.639	0.180	-0.131
-183.085	-93.254	0.106	0.029
-182.071	-200.000	0.015	-0.220
-181.056	71.714	0.140	0.142
-180.042	252.288	-0.050	0.083
-179.027	108.950	0.338	0.395
-178.012	12.649	-0.316	-0.238
-176.998	800.000	0.029	-0.082
-175.983	-200.000	0.025	0.144
-174.969	265.259	0.074	-0.126
-173.954	800.000	0.038	0.131
-172.939	243.828	0.014	-0.022
-171.925	199.230	0.226	-0.338
-170.910	207.538	-0.221	0.336
-169.896	82.183	-0.120	0.127
-168.881	-155.633	-0.019	-0.001
-167.866	63.431	-0.139	-0.137
-166.852	390.123	0.232	0.470
-165.837	-30.342	0.046	0.026
-164.823	161.713	-0.097	0.133
-163.808	-67.274	0.099	-0.038
-162.793	625.156	-0.050	-0.122
-161.779	-80.403	-0.221	-0.072
-160.764	-27.230	0.252	-0.143
-159.750	3.601	-0.058	-0.041
-158.735	-200.000	-0.037	0.212
-157.720	-200.000	-0.072	0.447
-156.706	-200.000	-0.024	0.324
-155.691	83.794	0.171	0.182
-154.677	-19.380	-0.090	0.055
-153.662	781.296	-0.120	0.321
-152.647	-56.585	0.332	-0.144
-151.633	66.112	0.109	0.108
-150.618	135.866	0.192	-0.244
-149.604	-26.606	-0.128	0.073
-148.589	525.323	-0.117	-0.270
-147.574	-40.122	-0.098	-0.050
-146.560	-89.704	-0.379	0.108
-145.545	800.000	0.033	0.128
-144.531	88.101	0.284	0.307
-143.516	800.000	0.047	0.151
-142.502	-95.280	0.218	-0.057
-141.487	26.200	-0.085	0.069
-140.472	-10.339	-0.017	0.011
-139.458	-200.000	0.015	0.096
-138.443	-99.065	0.220	0.054
-137.429	-183.306	-0.277	0.005
-136.414	26.059	0.344	-0.280
-135.399	-91.842	0.414	0.115
-134.385	102.478	-0.255	0.291
-133.370	-124.983	0.089	-0.013
-132.356	-58.917	-0.192	0.081
-131.341	27.047	0.337	0.276
-130.326	800.000	-0.041	-0.146
-129.312	-200.000	0.001	0.094
-128.297	293.893	-0.125	0.223
-127.283	-79.583	-0.067	-0.022
-126.268	-132.055	0.056	-0.007
-125.253	55.652	0.061	0.058
-124.239	111.596	-0.097	0.114
-123.224	296.090	0.149	-0.267
-122.210	3.276	-0.241	-0.171
-121.195	-2.068	-0.003	-0.002
