DTS Sentinel unit serial number:	SN413079Multiplexer serial number:	ORYXHardware model number:	OX4-SRSoftware version number:	ORYX F/W v4.00 Oryx Data Collector v3.7.2.0data status	okinstallation	princeton_trtdifferential loss correction	single-endedforward channel	channel 2reverse channel	N/Adate	2019/09/14time	18:51:35forward acquisition time	60.00reverse acquisition time	0.00gamma	496.2192k internal	0.2320k external	0.2320temperature offset calibration	1.0100default loss term (dB/km)	0.3790temperature slope calibration	1.0000multiplexer offset coefficient	1.0000multiplexer slope coefficient	1.0000fibre end	0.00T internal ref (°C)	35.94T ext. ref 1 (°C)	4.90T ext. ref 2 (°C)	29.67length (m)	temperature (°C)	Stokes	anti-Stokes-747.200	133.888	0.176	-0.230
-746.185	-200.000	0.002	-0.069
-745.171	-200.000	-0.001	-0.028
-744.156	206.600	-0.206	0.325
-743.142	-48.616	0.292	-0.142
-742.127	610.486	0.034	-0.087
-741.112	-59.540	-0.424	0.184
-740.098	-200.000	0.009	0.105
-739.083	179.355	0.066	-0.098
-738.069	-200.000	0.014	0.156
-737.054	-26.149	-0.188	0.112
-736.039	733.389	0.099	-0.267
-735.025	25.450	-0.031	0.026
-734.010	84.963	-0.347	-0.384
-732.996	126.893	-0.189	-0.242
-731.981	42.564	-0.302	-0.278
-730.966	-109.727	-0.312	0.066
-729.952	800.000	0.076	-0.280
-728.937	-6.131	-0.301	0.207
-727.923	307.336	0.137	-0.258
-726.908	-105.391	-0.399	-0.092
-725.894	-90.820	-0.157	-0.046
-724.879	154.932	0.194	-0.270
-723.864	-200.000	0.012	-0.193
-722.850	-200.000	0.015	-0.083
-721.835	50.934	-0.205	0.196
-720.821	800.000	-0.100	-0.436
-719.806	-45.604	-0.130	0.065
-718.791	800.000	0.078	0.217
-717.777	-13.091	-0.068	0.045
-716.762	-23.226	-0.137	-0.083
-715.748	313.386	-0.143	-0.271
-714.733	-146.876	-0.422	0.037
-713.718	292.027	-0.173	0.318
-712.704	296.901	-0.203	-0.376
-711.689	-119.025	-0.131	0.023
-710.675	190.030	0.167	0.253
-709.660	-200.000	0.011	-0.081
-708.645	-66.898	0.129	-0.051
-707.631	800.000	-0.052	-0.177
-706.616	-200.000	-0.010	0.112
-705.602	381.914	-0.036	-0.074
-704.587	119.666	-0.302	0.378
-703.572	-200.000	-0.045	-0.281
-702.558	-55.783	0.260	0.117
-701.543	45.627	-0.135	-0.126
-700.529	-173.989	0.084	-0.002
-699.514	77.381	0.096	-0.103
-698.499	-72.998	-0.158	0.058
-697.485	-120.314	-0.351	0.060
-696.470	-104.633	0.161	0.037
-695.456	-40.499	-0.024	-0.012
-694.441	-106.110	0.063	-0.014
-693.426	-200.000	-0.009	-0.093
-692.412	800.000	-0.094	0.325
-691.397	28.665	-0.234	-0.200
-690.383	-168.952	-0.326	0.012
-689.368	-26.076	-0.249	0.148
-688.354	-5.691	-0.194	-0.134
-687.339	800.000	-0.070	0.244
-686.324	-80.594	-0.188	-0.063
-685.310	101.119	-0.062	0.073
-684.295	-147.409	-0.097	-0.008
-683.281	-46.565	-0.084	0.041
-682.266	-79.420	-0.044	-0.015
-681.251	800.000	0.070	-0.201
-680.237	-197.633	-0.163	-0.001
-679.222	42.042	-0.210	0.192
-678.208	708.877	-0.091	0.242
-677.193	-111.784	-0.182	-0.037
-676.178	-5.698	0.059	0.041
-675.164	-99.768	-0.102	-0.026
-674.149	-200.000	0.034	-0.204
-673.135	-74.729	0.080	0.029
-672.120	69.760	-0.221	0.230
-671.105	139.503	-0.108	0.144
-670.091	-161.667	0.308	0.016
-669.076	261.755	-0.091	0.159
-668.062	-200.000	-0.034	-0.285
-667.047	83.634	0.071	0.078
-666.032	800.000	0.070	0.223
-665.018	-39.957	-0.114	0.060
-664.003	-116.342	-0.149	0.028
-662.989	61.640	-0.254	-0.255
-661.974	-79.247	-0.283	-0.097
-660.959	71.223	-0.204	-0.214
-659.945	-89.129	0.305	-0.091
-658.930	-200.000	-0.009	-0.469
-657.916	-0.071	0.166	-0.119
-656.901	93.271	0.260	0.297
-655.886	705.014	-0.122	0.323
-654.872	9.062	0.155	-0.118
-653.857	464.288	0.131	-0.294
-652.843	-11.874	-0.058	0.038
-651.828	0.070	0.322	0.231
-650.814	112.843	0.267	-0.326
-649.799	598.136	0.111	-0.277
-648.784	-144.748	0.184	0.017
-647.770	-29.031	0.032	-0.019
-646.755	22.508	-0.170	0.140
-645.741	-159.072	0.305	0.017
-644.726	232.509	0.273	-0.452
-643.711	800.000	0.009	-0.035
-642.697	-200.000	-0.087	0.399
-641.682	-200.000	-0.040	-0.189
-640.668	433.723	-0.082	-0.180
-639.653	-49.991	0.205	-0.098
-638.638	430.267	-0.119	0.259
-637.624	-200.000	-0.035	-0.192
-636.609	800.000	-0.047	0.147
-635.595	-200.000	0.012	0.186
-634.580	-200.000	-0.043	0.240
-633.565	-25.202	0.143	0.085
-632.551	-102.586	-0.320	-0.077
-631.536	72.483	-0.161	0.168
-630.522	-200.000	-0.010	-0.108
-629.507	-200.000	0.034	-0.281
-628.492	-89.753	-0.387	-0.114
-627.478	246.842	-0.048	0.081
-626.463	-200.000	-0.004	-0.099
-625.449	-200.000	0.020	-0.294
-624.434	-55.559	-0.206	-0.093
-623.419	800.000	-0.022	0.078
-622.405	107.701	0.112	-0.134
-621.390	71.992	-0.080	-0.084
-620.376	-17.442	0.292	0.185
-619.361	800.000	0.048	0.147
-618.346	306.587	-0.075	0.141
-617.332	-200.000	-0.005	0.122
-616.317	-200.000	-0.050	-0.296
-615.303	-32.572	-0.239	0.134
-614.288	8.167	0.238	0.180
-613.273	800.000	0.115	-0.353
-612.259	37.514	0.139	0.124
-611.244	176.074	-0.151	-0.221
-610.230	-200.000	-0.009	-0.069
-609.215	-135.080	0.039	-0.005
-608.201	800.000	0.058	-0.193
-607.186	90.330	0.067	-0.075
-606.171	303.776	-0.054	-0.100
-605.157	-200.000	0.008	0.198
-604.142	-11.995	0.151	0.099
-603.128	-159.208	0.503	-0.028
-602.113	-60.837	-0.109	0.046
-601.098	-2.280	0.196	0.138
-600.084	3.890	0.187	0.137
-599.069	78.119	-0.161	0.172
-598.055	18.269	-0.072	-0.058
-597.040	158.853	-0.091	0.127
-596.025	800.000	0.035	0.124
-595.011	341.418	0.143	0.281
-593.996	28.250	-0.085	-0.072
-592.982	-32.453	-0.119	0.067
-591.967	800.000	0.060	0.167
-590.952	-200.000	-0.000	-0.180
-589.938	-200.000	-0.042	-0.221
-588.923	-200.000	0.007	-0.355
-587.909	58.516	-0.136	-0.134
-586.894	800.000	-0.146	-0.569
-585.879	-86.260	-0.195	0.060
-584.865	-156.616	-0.208	0.013
-583.850	35.664	-0.120	-0.106
-582.836	-200.000	0.063	0.297
-581.821	-102.430	0.280	-0.067
-580.806	800.000	0.020	-0.090
-579.792	-97.204	-0.155	0.041
-578.777	-200.000	0.008	0.371
-577.763	307.200	0.051	0.095
-576.748	-38.013	0.201	-0.107
-575.733	-2.359	-0.202	-0.143
-574.719	800.000	0.066	0.261
-573.704	2.785	-0.152	-0.111
-572.690	466.112	-0.161	0.363
-571.675	577.998	0.083	-0.205
-570.661	265.042	0.120	-0.210
-569.646	496.959	-0.047	0.109
-568.631	-151.173	-0.096	-0.007
-567.617	21.602	-0.106	0.087
-566.602	-71.898	-0.166	0.062
-565.588	213.110	0.137	-0.217
-564.573	-200.000	-0.023	-0.307
-563.558	656.146	-0.173	-0.446
-562.544	65.455	-0.041	-0.041
-561.529	800.000	0.075	0.232
-560.515	50.118	-0.044	-0.042
-559.500	-26.311	0.097	-0.057
-558.485	211.582	-0.130	-0.205
-557.471	-200.000	0.046	-0.233
-556.456	-200.000	-0.027	-0.250
-555.442	140.586	0.121	-0.160
-554.427	-46.221	-0.094	-0.046
-553.412	158.166	-0.081	0.113
-552.398	-200.000	0.040	0.196
-551.383	494.509	0.074	-0.171
-550.369	-200.000	0.005	-0.142
-549.354	52.922	0.271	-0.260
-548.339	-107.731	-0.198	0.043
-547.325	800.000	-0.094	-0.293
-546.310	88.880	-0.200	-0.224
-545.296	-64.214	0.266	-0.109
-544.281	412.653	-0.071	-0.151
-543.266	800.000	0.040	0.157
-542.252	-85.809	-0.205	-0.064
-541.237	2.842	0.062	-0.045
-540.223	210.820	0.067	0.106
-539.208	-56.026	0.109	0.049
-538.193	-43.026	-0.178	0.090
-537.179	-188.159	-0.268	-0.003
-536.164	-124.021	-0.197	-0.031
-535.150	693.653	-0.117	-0.307
-534.135	182.795	-0.158	-0.233
-533.121	511.872	-0.026	0.060
-532.106	145.061	-0.030	0.041
-531.091	46.299	0.108	-0.100
-530.077	158.694	0.173	0.241
-529.062	393.404	-0.049	0.102
-528.048	-138.605	0.456	0.050
-527.033	-200.000	-0.048	0.219
-526.018	-200.000	-0.012	-0.096
-525.004	-56.966	0.286	-0.127
-523.989	800.000	-0.023	-0.077
-522.975	-200.000	0.126	-0.000
-521.960	-200.000	-0.011	0.119
-520.945	-32.573	0.198	-0.111
-519.931	65.708	0.164	-0.167
-518.916	165.148	0.058	0.082
-517.902	620.963	0.067	0.170
-516.887	117.254	-0.030	-0.037
-515.872	-28.506	0.159	-0.092
-514.858	-200.000	0.035	-0.196
-513.843	800.000	0.084	0.232
-512.829	48.481	-0.062	0.059
-511.814	-200.000	-0.002	-0.164
-510.799	-39.689	-0.215	0.113
-509.785	311.571	-0.172	-0.323
-508.770	197.959	0.043	-0.066
-507.756	-113.783	0.203	0.040
-506.741	121.648	-0.153	0.191
-505.726	-47.465	0.063	-0.031
-504.712	33.988	-0.094	0.082
-503.697	99.957	0.147	0.171
-502.683	-18.280	0.141	-0.089
-501.668	-38.769	0.398	-0.210
-500.653	800.000	-0.052	-0.172
-499.639	244.568	-0.087	0.146
-498.624	-129.528	-0.272	-0.038
-497.610	-63.622	0.295	0.121
-496.595	-10.727	-0.270	0.179
-495.581	85.756	-0.245	0.269
-494.566	-200.000	0.037	-0.223
-493.551	93.747	0.223	0.253
-492.537	-86.648	0.133	0.041
-491.522	254.066	0.066	0.114
-490.508	-200.000	0.040	0.230
-489.493	589.338	0.130	-0.320
-488.478	-25.858	-0.215	-0.127
-487.464	-200.000	-0.000	0.207
-486.449	-200.000	0.013	0.205
-485.435	-151.754	0.107	0.008
-484.420	800.000	-0.118	0.430
-483.405	21.506	-0.196	0.160
-482.391	164.328	0.114	-0.161
-481.376	800.000	-0.063	0.269
-480.362	-200.000	-0.047	0.258
-479.347	-119.449	-0.170	-0.029
-478.332	-33.352	-0.290	0.161
-477.318	-112.847	-0.159	0.032
-476.303	-23.426	-0.193	0.116
-475.289	269.453	0.070	-0.123
-474.274	-200.000	0.065	0.372
-473.259	-50.873	0.055	-0.026
-472.245	-200.000	0.079	0.456
-471.230	-43.392	0.105	-0.053
-470.216	-124.221	0.232	0.036
-469.201	114.665	0.162	-0.197
-468.186	9.174	-0.122	0.092
-467.172	380.688	-0.071	-0.146
-466.157	-152.748	0.283	0.020
-465.143	-1.798	-0.277	0.195
-464.128	-106.767	-0.192	0.043
-463.113	239.157	-0.138	-0.230
-462.099	-182.662	-0.267	0.005
-461.084	-34.661	-0.080	0.044
-460.070	21.180	-0.061	-0.050
-459.055	800.000	0.062	0.210
-458.040	-130.627	0.207	-0.028
-457.026	-35.103	0.321	-0.175
-456.011	12.066	-0.177	0.136
-454.997	-87.609	-0.370	-0.112
-453.982	-117.850	0.139	0.025
-452.968	-19.525	-0.133	-0.082
-451.953	-90.757	-0.055	-0.016
-450.938	165.550	0.017	-0.024
-449.924	800.000	0.074	0.208
-448.909	-99.503	-0.153	-0.038
-447.895	-200.000	-0.045	0.206
-446.880	-116.537	-0.129	0.024
-445.865	331.590	0.088	0.170
-444.851	-36.154	0.230	0.124
-443.836	800.000	0.033	0.113
-442.822	-118.347	0.267	-0.047
-441.807	-200.000	-0.009	0.131
-440.792	287.647	0.034	0.061
-439.778	220.128	-0.049	-0.078
-438.763	-200.000	-0.044	-0.308
-437.749	3.794	-0.457	0.333
-436.734	321.456	0.147	0.280
-435.719	-180.208	0.295	0.006
-434.705	-125.424	-0.086	0.013
-433.690	-90.533	-0.016	0.005
-432.676	800.000	0.144	0.417
-431.661	764.664	-0.092	-0.251
-430.646	335.881	0.158	-0.307
-429.632	40.079	-0.160	-0.144
-428.617	-200.000	-0.025	-0.220
-427.603	-112.261	-0.055	0.011
-426.588	-76.403	-0.146	-0.051
-425.573	-200.000	-0.015	-0.317
-424.559	-30.506	0.132	0.075
-423.544	341.414	0.009	0.017
-422.530	800.000	-0.038	-0.168
-421.515	-200.000	-0.018	-0.127
-420.500	-18.505	-0.188	-0.117
-419.486	787.342	-0.021	0.056
-418.471	-200.000	-0.012	-0.126
-417.457	-57.637	0.415	0.181
-416.442	-59.209	-0.129	-0.056
-415.428	107.195	-0.181	-0.215
-414.413	258.632	-0.113	0.194
-413.398	-67.524	-0.170	-0.067
-412.384	-200.000	0.054	-0.472
-411.369	73.443	0.142	-0.148
-410.355	-44.737	-0.265	-0.132
-409.340	-138.863	-0.301	-0.033
-408.325	-31.393	-0.269	-0.151
-407.311	4.614	-0.122	-0.090
-406.296	255.452	0.209	0.358
-405.282	129.380	0.215	0.274
-404.267	-200.000	0.023	-0.201
-403.252	-42.439	0.108	-0.055
-402.238	-157.277	0.407	-0.025
-401.223	-145.347	0.178	-0.016
-400.209	172.407	0.219	0.314
-399.194	800.000	-0.036	0.111
-398.179	-200.000	-0.006	0.133
-397.165	-89.692	-0.115	-0.034
-396.150	178.296	-0.074	-0.107
-395.136	-200.000	-0.054	0.445
-394.121	-78.165	0.179	0.061
-393.106	69.007	0.160	-0.164
-392.092	-53.295	-0.104	0.048
-391.077	-13.282	0.109	-0.070
-390.063	19.039	0.139	0.112
-389.048	3.953	0.031	0.023
-388.033	-177.679	-0.173	0.004
-387.019	-200.000	0.076	-0.486
-386.004	-23.558	0.308	0.184
-384.990	179.880	0.308	0.450
-383.975	8.316	-0.211	0.158
-382.960	800.000	0.079	-0.249
-381.946	42.049	-0.097	0.088
-380.931	-145.506	0.201	-0.018
-379.917	20.879	-0.085	-0.068
-378.902	164.134	-0.295	-0.414
-377.888	-200.000	0.029	-0.160
-376.873	800.000	0.082	0.235
-375.858	558.754	-0.123	0.297
-374.844	68.715	-0.114	-0.116
-373.829	-200.000	-0.048	0.317
-372.815	800.000	-0.019	0.052
-371.800	-163.631	-0.220	-0.010
-370.785	3.274	-0.157	0.114
-369.771	-70.940	0.413	0.155
-368.756	57.645	-0.062	0.060
-367.742	78.193	-0.121	0.129
-366.727	-32.068	-0.174	-0.097
-365.712	-114.366	-0.229	-0.044
-364.698	-23.381	0.237	-0.142
-363.683	31.250	-0.291	0.249
-362.669	397.612	0.032	0.067
-361.654	-200.000	0.062	-0.566
-360.639	163.434	0.227	0.317
-359.625	-64.051	0.259	-0.105
-358.610	-200.000	0.008	0.219
-357.596	0.473	0.205	0.146
-356.581	63.395	0.174	-0.174
-355.566	800.000	0.086	-0.275
-354.552	260.655	-0.125	0.216
-353.537	-83.459	0.293	-0.094
-352.523	-200.000	0.009	0.100
-351.508	-200.000	0.034	-0.278
-350.493	470.244	-0.078	-0.175
-349.479	57.045	-0.174	0.168
-348.464	133.661	0.077	0.099
-347.450	-81.028	-0.198	0.065
-346.435	14.298	-0.282	0.219
-345.420	-200.000	0.069	-0.654
-344.406	440.919	-0.073	-0.158
-343.391	-200.000	0.031	0.282
-342.377	-39.260	-0.169	-0.088
-341.362	-192.464	-0.204	-0.002
-340.348	-1.535	-0.078	-0.055
-339.333	29.082	-0.257	0.217
-338.318	58.652	-0.036	-0.035
-337.304	-73.466	0.270	-0.098
-336.289	-52.080	0.020	-0.009
-335.275	800.000	-0.121	0.377
-334.260	112.935	0.107	-0.129
-333.245	25.331	-0.234	-0.193
-332.231	-23.023	-0.147	0.088
-331.216	-200.000	-0.021	-0.156
-330.202	-71.182	0.181	0.067
-329.187	-47.457	0.023	-0.011
-328.172	-200.000	0.002	-0.121
-327.158	154.065	-0.086	0.117
-326.143	-200.000	-0.012	0.134
-325.129	-66.619	-0.194	0.077
-324.114	31.299	0.076	-0.065
-323.099	800.000	-0.083	-0.228
-322.085	118.820	-0.150	-0.184
-321.070	443.896	-0.093	-0.203
-320.056	-168.409	-0.100	0.004
-319.041	-200.000	-0.067	0.345
-318.026	-120.400	-0.140	-0.024
-317.012	37.245	-0.253	0.223
-315.997	90.975	-0.133	-0.149
-314.983	-17.841	0.092	0.057
-313.968	-69.007	0.117	-0.045
-312.953	-46.510	0.250	-0.122
-311.939	22.223	0.254	0.207
-310.924	263.709	0.043	-0.075
-309.910	221.687	-0.044	0.070
-308.895	344.445	-0.170	0.331
-307.880	46.069	0.040	-0.036
-306.866	-147.928	-0.287	0.024
-305.851	21.525	-0.117	0.094
-304.837	-200.000	0.002	0.293
-303.822	184.143	0.129	-0.190
-302.807	-200.000	0.006	-0.068
-301.793	-200.000	-0.006	-0.263
-300.778	88.306	0.106	-0.117
-299.764	103.182	0.092	-0.108
-298.749	-11.352	0.254	-0.166
-297.735	800.000	-0.051	0.148
-296.720	-56.638	0.063	0.028
-295.705	422.381	-0.080	0.170
-294.691	-200.000	-0.001	-0.011
-293.676	-2.651	0.128	-0.089
-292.662	-64.400	-0.278	0.112
-291.647	-8.417	-0.278	-0.186
-290.632	-48.983	-0.137	-0.065
-289.618	167.523	-0.073	-0.102
-288.603	-200.000	-0.023	-0.143
-287.589	-43.401	0.193	0.097
-286.574	-200.000	0.044	0.242
-285.559	-60.153	-0.290	-0.123
-284.545	-98.698	-0.253	0.064
-283.530	-22.426	0.126	-0.076
-282.516	10.965	0.065	-0.049
-281.501	83.027	-0.209	0.226
-280.486	-200.000	0.092	0.420
-279.472	365.302	0.153	0.305
-278.457	-76.534	0.186	0.065
-277.443	80.674	0.118	-0.126
-276.428	-61.890	0.200	0.083
-275.413	800.000	0.063	-0.207
-274.399	211.890	-0.042	0.066
-273.384	800.000	0.024	0.077
-272.370	-200.000	-0.032	0.290
-271.355	151.136	-0.206	-0.279
-270.340	-99.074	0.337	0.085
-269.326	-37.398	0.295	0.156
-268.311	800.000	-0.035	0.132
-267.297	-3.997	0.294	-0.202
-266.282	-200.000	-0.025	0.125
-265.267	800.000	-0.068	0.246
-264.253	71.347	-0.069	0.071
-263.238	-136.222	-0.108	-0.012
-262.224	167.892	0.100	0.141
-261.209	25.267	0.198	0.163
-260.195	-82.221	-0.190	0.062
-259.180	212.171	0.084	-0.131
-258.165	-105.351	0.207	-0.047
-257.151	12.979	0.212	-0.163
-256.136	104.093	0.187	-0.218
-255.122	-200.000	-0.047	0.237
-254.107	596.575	-0.092	0.226
-253.092	10.117	-0.116	0.088
-252.078	800.000	-0.053	0.154
-251.063	506.956	-0.110	0.254
-250.049	10.369	-0.173	0.130
-249.034	90.622	-0.042	-0.047
-248.019	-9.057	0.098	0.065
-247.005	237.711	0.038	0.062
-245.990	-118.656	-0.194	0.034
-244.976	-200.000	0.014	-0.059
-243.961	800.000	0.032	0.116
-242.946	349.739	-0.088	0.172
-241.932	-200.000	-0.033	-0.181
-240.917	-101.144	0.150	-0.037
-239.903	105.404	-0.099	-0.116
-238.888	-72.489	0.121	0.044
-237.873	-197.264	0.421	-0.003
-236.859	87.079	-0.159	-0.174
-235.844	-200.000	0.001	-0.015
-234.830	38.026	0.092	-0.081
-233.815	39.627	0.104	-0.092
-232.800	-200.000	0.005	0.030
-231.786	-114.170	0.339	0.065
-230.771	73.084	-0.184	-0.190
-229.757	-89.895	0.173	-0.050
-228.742	612.496	-0.116	-0.287
-227.727	-89.627	-0.079	0.023
-226.713	347.838	0.085	0.165
-225.698	107.636	0.090	0.106
-224.684	208.735	0.108	0.168
-223.669	153.773	-0.209	-0.284
-222.655	-57.815	-0.015	-0.006
-221.640	270.431	-0.137	0.238
-220.625	-95.849	-0.201	0.053
-219.611	-200.000	-0.037	0.265
-218.596	85.487	-0.143	0.156
-217.582	96.730	0.219	0.248
-216.567	-200.000	-0.026	0.301
-215.552	-200.000	-0.072	-0.339
-214.538	-145.530	-0.210	0.019
-213.523	-180.028	-0.192	0.004
-212.509	16.234	-0.117	0.091
-211.494	-200.000	0.012	0.277
-210.479	610.280	-0.048	0.118
-209.465	96.443	0.251	-0.284
-208.450	103.136	0.197	-0.228
-207.436	184.610	-0.107	0.157
-206.421	641.542	-0.153	-0.385
-205.406	211.251	0.131	-0.204
-204.392	53.946	0.037	-0.036
-203.377	-101.131	-0.203	0.049
-202.363	-200.000	-0.014	-0.101
-201.348	-200.000	-0.001	0.111
-200.333	-3.754	-0.171	0.118
-199.319	23.671	-0.080	0.065
-198.304	-143.303	0.255	-0.024
-197.290	-200.000	0.033	-0.402
-196.275	100.273	0.142	0.164
-195.260	-200.000	-0.001	-0.074
-194.246	800.000	0.086	-0.332
-193.231	322.062	0.105	0.197
-192.217	-61.762	0.245	0.101
-191.202	800.000	-0.091	0.300
-190.187	499.754	0.084	0.192
-189.173	-80.818	0.176	-0.058
-188.158	213.262	-0.065	-0.102
-187.144	-9.004	0.090	0.060
-186.129	469.951	0.076	0.170
-185.114	401.747	-0.037	0.077
-184.100	-61.732	0.281	0.117
-183.085	424.491	0.056	-0.119
-182.071	138.624	-0.145	0.188
-181.056	131.686	-0.264	0.336
-180.042	-138.400	0.110	-0.012
-179.027	-43.892	0.215	-0.107
-178.012	-101.042	0.157	-0.038
-176.998	-200.000	-0.038	-0.199
-175.983	-92.096	0.059	0.016
-174.969	-37.285	0.015	0.008
-173.954	-90.492	0.511	-0.146
-172.939	188.247	0.167	-0.246
-171.925	-62.873	0.224	-0.092
-170.910	376.937	-0.140	0.283
-169.896	-57.507	0.346	0.150
-168.881	-123.363	-0.140	-0.022
-167.866	-156.349	-0.211	-0.013
-166.852	-200.000	0.039	0.184
-165.837	-72.592	-0.293	0.107
-164.823	636.237	0.109	-0.273
-163.808	-200.000	0.010	-0.083
-162.793	-80.188	-0.270	-0.089
-161.779	64.150	-0.318	-0.316
-160.764	-62.212	0.123	-0.051
-159.750	-59.820	-0.231	-0.098
-158.735	72.578	-0.185	-0.190
-157.720	800.000	0.028	-0.098
-156.706	35.464	-0.229	-0.198
-155.691	107.003	-0.040	0.047
-154.677	800.000	0.114	-0.323
-153.662	-14.696	0.183	0.116
-152.647	-200.000	-0.095	-0.421
-151.633	240.397	0.187	-0.309
-150.618	800.000	-0.066	-0.212
-149.604	405.517	-0.077	0.161
-148.589	155.838	-0.098	0.134
-147.574	28.871	-0.155	0.129
-146.560	-200.000	0.001	0.059
-145.545	-200.000	0.015	-0.086
-144.531	-38.000	0.190	-0.100
-143.516	-80.324	0.152	0.050
-142.502	-200.000	-0.054	-0.239
-141.487	-200.000	0.033	0.184
-140.472	-38.481	-0.216	0.113
-139.458	-79.057	0.109	0.037
-138.443	394.979	-0.103	-0.213
-137.429	-33.009	0.153	-0.084
-136.414	-200.000	-0.061	-0.285
-135.399	-159.319	-0.236	-0.013
-134.385	45.840	0.166	0.152
-133.370	-1.911	-0.304	-0.211
-132.356	248.470	-0.088	-0.148
-131.341	57.154	0.117	-0.113
-130.326	-115.635	0.347	0.064
-129.312	8.968	-0.135	-0.100
-128.297	-16.469	-0.197	0.124
-127.283	135.145	0.131	0.168
-126.268	-17.141	0.410	-0.255
-125.253	97.404	0.113	0.128
-124.239	800.000	0.042	0.123
-123.224	185.300	-0.119	0.175
-122.210	310.565	0.101	-0.187
-121.195	531.591	-0.012	-0.027
