DTS Sentinel unit serial number:	SN413079Multiplexer serial number:	ORYXHardware model number:	OX4-SRSoftware version number:	ORYX F/W v4.00 Oryx Data Collector v3.7.2.0data status	okinstallation	princeton_trtdifferential loss correction	single-endedforward channel	channel 2reverse channel	N/Adate	2019/09/13time	00:47:35forward acquisition time	60.00reverse acquisition time	0.00gamma	496.2192k internal	0.2332k external	0.2332temperature offset calibration	1.0160default loss term (dB/km)	0.3790temperature slope calibration	1.0000multiplexer offset coefficient	1.0000multiplexer slope coefficient	1.0000fibre end	0.00T internal ref (°C)	28.19T ext. ref 1 (°C)	3.66T ext. ref 2 (°C)	22.69length (m)	temperature (°C)	Stokes	anti-Stokes-747.200	263.918	-0.212	-0.371
-746.185	-200.000	-0.034	0.220
-745.171	800.000	-0.090	-0.260
-744.156	-110.423	0.184	-0.038
-743.142	-50.537	0.167	0.079
-742.127	273.099	-0.145	0.258
-741.112	265.846	0.122	0.215
-740.098	277.549	-0.126	0.225
-739.083	-26.523	-0.276	-0.162
-738.069	-40.455	-0.203	0.106
-737.054	-200.000	-0.011	-0.104
-736.039	72.271	0.226	0.237
-735.025	78.931	0.114	-0.123
-734.010	149.831	0.228	0.311
-732.996	-168.399	-0.467	0.018
-731.981	93.026	-0.054	0.061
-730.966	-72.027	-0.210	-0.079
-729.952	-139.411	-0.338	0.036
-728.937	-147.719	0.215	0.018
-727.923	57.086	0.176	0.172
-726.908	714.431	0.035	0.092
-725.894	143.572	-0.093	-0.125
-724.879	800.000	-0.070	0.244
-723.864	800.000	0.035	-0.120
-722.850	-44.376	0.072	-0.036
-721.835	-130.530	0.238	0.032
-720.821	90.154	0.300	-0.337
-719.806	800.000	0.103	-0.307
-718.791	19.851	0.140	-0.114
-717.777	336.251	0.127	-0.248
-716.762	446.336	0.067	-0.149
-715.748	-135.931	0.496	-0.059
-714.733	-126.525	0.188	-0.028
-713.718	219.645	0.081	-0.130
-712.704	271.543	-0.179	0.317
-711.689	-46.033	-0.136	0.067
-710.675	152.232	-0.101	0.138
-709.660	-200.000	-0.003	0.101
-708.645	-146.545	0.171	0.015
-707.631	-17.513	0.112	0.071
-706.616	37.832	-0.159	-0.142
-705.602	465.182	-0.073	0.164
-704.587	-51.594	0.298	0.139
-703.572	-50.213	-0.131	0.062
-702.558	-200.000	0.016	-0.182
-701.543	-29.846	0.357	-0.204
-700.529	427.548	-0.041	-0.089
-699.514	81.329	-0.241	0.261
-698.499	59.253	0.309	0.305
-697.485	-200.000	0.008	0.097
-696.470	-180.412	-0.273	0.006
-695.456	-107.902	0.160	0.035
-694.441	123.268	-0.142	0.178
-693.426	-193.194	-0.200	0.002
-692.412	800.000	-0.034	0.129
-691.397	-64.174	-0.216	-0.089
-690.383	220.389	-0.084	-0.135
-689.368	-141.387	-0.114	0.012
-688.354	-134.237	-0.199	0.025
-687.339	-178.159	-0.212	0.005
-686.324	-39.300	0.089	-0.047
-685.310	-99.017	-0.146	-0.037
-684.295	800.000	-0.170	-0.599
-683.281	478.886	0.066	-0.151
-682.266	-20.501	0.302	-0.186
-681.251	-18.125	0.092	-0.058
-680.237	800.000	-0.090	0.266
-679.222	-34.440	-0.122	-0.067
-678.208	-39.004	-0.094	0.050
-677.193	-67.308	0.322	0.127
-676.178	-84.258	-0.151	-0.048
-675.164	-55.559	-0.444	0.199
-674.149	-200.000	0.004	0.091
-673.135	296.605	-0.071	0.130
-672.120	-200.000	-0.003	-0.145
-671.105	-91.725	-0.153	-0.044
-670.091	-200.000	0.439	-0.001
-669.076	-89.424	-0.231	-0.068
-668.062	12.741	-0.258	0.200
-667.047	432.932	0.051	0.110
-666.032	525.072	0.098	0.231
-665.018	-93.505	0.325	-0.090
-664.003	1.262	-0.118	0.085
-662.989	-122.510	-0.340	-0.055
-661.974	-35.970	0.172	-0.094
-660.959	12.451	-0.183	0.141
-659.945	-200.000	-0.001	-0.090
-658.930	-57.379	-0.178	-0.078
-657.916	-125.179	0.236	0.036
-656.901	548.055	0.091	-0.217
-655.886	800.000	0.039	-0.118
-654.872	-116.140	0.202	0.038
-653.857	275.873	0.054	-0.097
-652.843	399.758	-0.082	-0.172
-651.828	-91.353	0.102	-0.029
-650.814	-200.000	-0.003	0.024
-649.799	171.753	-0.211	-0.304
-648.784	1.879	-0.327	0.237
-647.770	62.453	-0.046	0.046
-646.755	-117.388	0.216	0.039
-645.741	-8.752	-0.100	0.067
-644.726	-200.000	-0.006	0.142
-643.711	-84.156	0.269	0.086
-642.697	-55.108	-0.249	-0.112
-641.682	577.489	-0.025	-0.061
-640.668	119.074	-0.197	0.244
-639.653	-97.080	-0.094	0.025
-638.638	800.000	-0.056	-0.156
-637.624	800.000	-0.026	-0.092
-636.609	800.000	0.092	0.303
-635.595	31.669	0.203	-0.175
-634.580	746.260	-0.076	0.206
-633.565	120.060	-0.169	-0.210
-632.551	-90.149	-0.102	-0.030
-631.536	-200.000	0.050	0.289
-630.522	-44.190	0.142	0.071
-629.507	-67.315	-0.115	0.045
-628.492	79.510	0.171	0.183
-627.478	149.355	-0.035	-0.048
-626.463	-38.618	-0.093	0.049
-625.449	-100.213	0.167	0.042
-624.434	-65.662	0.190	-0.076
-623.419	-28.618	-0.246	0.142
-622.405	-85.479	-0.178	0.056
-621.390	800.000	0.100	-0.295
-620.376	-200.000	0.018	-0.229
-619.361	-102.608	-0.530	-0.127
-618.346	-174.236	0.179	-0.005
-617.332	-38.136	0.015	0.008
-616.317	-158.973	0.303	-0.017
-615.303	-200.000	-0.069	-0.462
-614.288	800.000	0.034	-0.108
-613.273	87.172	-0.076	-0.084
-612.259	104.423	0.175	0.207
-611.244	-6.768	-0.124	0.084
-610.230	-200.000	-0.023	0.230
-609.215	-143.560	-0.149	0.014
-608.201	-200.000	0.003	-0.272
-607.186	-56.449	0.133	-0.059
-606.171	78.259	-0.059	0.063
-605.157	-65.910	-0.310	0.124
-604.142	-54.020	-0.104	-0.047
-603.128	-200.000	-0.012	-0.189
-602.113	-195.236	-0.120	-0.001
-601.098	196.300	-0.088	0.134
-600.084	-200.000	-0.028	0.210
-599.069	-65.059	-0.200	-0.081
-598.055	39.956	-0.119	-0.107
-597.040	-128.418	-0.173	0.025
-596.025	171.775	-0.159	0.229
-595.011	172.961	0.067	-0.096
-593.996	-44.118	-0.230	0.115
-592.982	-149.029	-0.237	-0.019
-591.967	23.216	0.296	0.243
-590.952	194.364	-0.063	0.096
-589.938	-28.594	-0.032	0.019
-588.923	-146.148	0.191	0.017
-587.909	-30.542	-0.198	-0.112
-586.894	287.405	0.203	-0.366
-585.879	-70.318	0.194	-0.074
-584.865	800.000	-0.083	-0.305
-583.850	-200.000	-0.060	0.299
-582.836	534.809	-0.064	0.151
-581.821	663.587	-0.037	-0.094
-580.806	-149.629	0.127	0.010
-579.792	-73.140	-0.079	-0.029
-578.777	-200.000	-0.024	0.426
-577.763	130.698	0.151	-0.194
-576.748	433.312	0.081	-0.177
-575.733	85.907	0.144	0.159
-574.719	-40.245	-0.107	0.055
-573.704	591.746	0.055	-0.135
-572.690	37.462	-0.092	-0.081
-571.675	-200.000	0.016	0.154
-570.661	-98.101	0.609	0.157
-569.646	-185.983	0.070	0.001
-568.631	-200.000	-0.026	-0.285
-567.617	-200.000	0.027	-0.124
-566.602	19.048	-0.565	0.453
-565.588	-88.425	0.222	0.066
-564.573	48.048	0.092	-0.086
-563.558	-11.300	-0.283	0.186
-562.544	-11.354	-0.200	0.132
-561.529	-200.000	0.001	0.169
-560.515	284.706	0.072	0.130
-559.500	-71.458	-0.052	-0.019
-558.485	150.460	0.024	-0.033
-557.471	28.765	-0.231	-0.196
-556.456	-200.000	0.004	0.113
-555.442	-134.604	0.365	0.044
-554.427	800.000	-0.030	0.083
-553.412	-172.092	-0.211	0.007
-552.398	-21.841	0.198	0.120
-551.383	519.479	0.143	0.335
-550.369	-200.000	-0.055	0.447
-549.354	631.878	-0.113	0.285
-548.339	14.091	0.115	-0.089
-547.325	-200.000	-0.395	0.000
-546.310	-98.031	0.177	-0.046
-545.296	35.067	0.209	-0.183
-544.281	102.975	-0.109	0.127
-543.266	4.652	-0.072	0.053
-542.252	207.873	0.104	0.162
-541.237	-47.591	-0.252	-0.122
-540.223	-24.513	0.021	0.013
-539.208	226.700	-0.086	-0.140
-538.193	-17.543	-0.379	-0.238
-537.179	-151.842	0.306	-0.022
-536.164	-200.000	-0.049	0.284
-535.150	-200.000	0.007	-0.041
-534.135	800.000	0.032	-0.104
-533.121	-47.002	0.186	-0.091
-532.106	-44.108	0.374	-0.187
-531.091	-146.743	-0.215	0.019
-530.077	800.000	-0.141	-0.575
-529.062	-200.000	-0.060	-0.529
-528.048	228.657	-0.114	-0.185
-527.033	-98.944	0.052	0.013
-526.018	96.099	0.088	0.100
-525.004	-200.000	0.034	0.187
-523.989	214.937	-0.068	-0.108
-522.975	361.625	-0.102	-0.204
-521.960	-81.519	-0.376	0.123
-520.945	339.846	-0.202	0.393
-519.931	-195.497	0.333	0.002
-518.916	147.409	-0.043	0.058
-517.902	-200.000	0.004	0.039
-516.887	2.568	0.079	-0.057
-515.872	383.530	-0.178	-0.365
-514.858	549.663	-0.103	-0.245
-513.843	308.662	-0.029	0.054
-512.829	-7.341	0.064	0.043
-511.814	800.000	-0.098	-0.338
-510.799	800.000	0.061	0.214
-509.785	-123.813	-0.217	-0.034
-508.770	301.210	0.043	0.080
-507.756	-200.000	0.019	-0.266
-506.741	-65.060	-0.070	0.028
-505.726	-134.145	0.064	0.008
-504.712	12.715	-0.035	-0.027
-503.697	188.056	-0.196	-0.291
-502.683	56.084	0.046	-0.045
-501.668	-41.234	-0.250	0.129
-500.653	-81.132	-0.074	0.024
-499.639	800.000	-0.074	-0.280
-498.624	-58.347	-0.300	-0.130
-497.610	118.954	-0.098	0.120
-496.595	-20.035	0.481	-0.295
-495.581	-200.000	0.024	0.138
-494.566	5.606	-0.014	0.010
-493.551	-200.000	0.029	0.153
-492.537	4.565	0.186	0.136
-491.522	783.617	-0.005	-0.013
-490.508	21.541	0.110	-0.089
-489.493	-28.072	0.260	0.150
-488.478	-200.000	-0.037	0.222
-487.464	800.000	0.049	0.212
-486.449	-8.050	0.292	0.196
-485.435	-25.365	-0.249	-0.147
-484.420	138.567	0.060	0.078
-483.405	-97.559	-0.191	0.049
-482.391	-58.569	0.260	0.112
-481.376	-68.936	0.443	0.170
-480.362	800.000	-0.230	-0.653
-479.347	-200.000	0.006	-0.182
-478.332	102.800	-0.043	-0.051
-477.318	-136.289	-0.154	0.018
-476.303	-76.609	-0.430	-0.150
-475.289	-6.998	0.069	-0.046
-474.274	-200.000	0.022	-0.156
-473.259	-114.500	0.111	0.021
-472.245	280.410	0.218	-0.388
-471.230	-9.994	0.188	-0.124
-470.216	110.837	0.256	-0.306
-469.201	90.064	0.037	-0.041
-468.186	-32.862	-0.154	0.085
-467.172	88.230	0.130	-0.144
-466.157	197.284	-0.101	-0.154
-465.143	-200.000	0.024	0.130
-464.128	-80.838	-0.286	0.094
-463.113	-200.000	0.024	0.202
-462.099	-117.489	0.421	-0.076
-461.084	32.022	0.092	0.079
-460.070	-121.045	-0.155	-0.026
-459.055	-115.982	0.116	-0.022
-458.040	-46.415	0.072	-0.035
-457.026	206.495	0.046	-0.072
-456.011	-183.497	-0.259	-0.004
-454.997	-145.185	0.132	-0.012
-453.982	49.923	0.054	0.050
-452.968	513.251	-0.069	0.161
-451.953	-98.861	-0.134	0.034
-450.938	-139.128	0.379	-0.041
-449.924	-142.478	0.071	0.007
-448.909	614.277	-0.169	0.420
-447.895	195.487	0.066	0.099
-446.880	-114.989	-0.077	-0.015
-445.865	-96.202	0.312	-0.082
-444.851	-200.000	0.005	0.057
-443.836	-128.604	-0.225	-0.032
-442.822	-97.083	0.129	0.034
-441.807	-137.001	-0.151	0.017
-440.792	-40.606	-0.175	-0.090
-439.778	72.565	0.064	-0.066
-438.763	-132.841	-0.068	0.009
-437.749	-39.020	0.170	-0.089
-436.734	800.000	-0.034	0.120
-435.719	156.842	0.090	0.123
-434.705	800.000	-0.034	-0.120
-433.690	15.619	-0.113	-0.088
-432.676	800.000	0.061	-0.201
-431.661	53.555	-0.180	-0.172
-430.646	800.000	-0.075	-0.222
-429.632	586.306	0.112	0.274
-428.617	800.000	0.045	0.167
-427.603	145.854	0.234	0.312
-426.588	-95.730	-0.173	0.046
-425.573	225.846	-0.128	0.206
-424.559	-87.978	-0.098	0.029
-423.544	-200.000	-0.031	0.160
-422.530	139.795	0.108	0.142
-421.515	90.504	-0.180	0.201
-420.500	-77.113	0.263	-0.091
-419.486	-174.515	-0.350	-0.010
-418.471	-43.418	-0.075	-0.037
-417.457	-30.609	-0.069	-0.039
-416.442	78.197	-0.285	0.303
-415.428	649.003	-0.074	0.189
-414.413	-200.000	0.014	0.180
-413.398	-46.164	0.293	-0.143
-412.384	237.106	-0.125	-0.205
-411.369	44.228	0.176	0.160
-410.355	-12.169	-0.278	0.181
-409.340	-200.000	-0.008	0.317
-408.325	-179.753	0.149	0.003
-407.311	33.776	0.148	-0.128
-406.296	800.000	-0.011	0.044
-405.282	256.469	-0.098	-0.168
-404.267	750.382	0.155	0.416
-403.252	-122.446	0.198	0.032
-402.238	-34.671	-0.105	0.057
-401.223	-68.125	0.159	0.062
-400.209	800.000	0.151	-0.468
-399.194	-181.271	-0.211	0.004
-398.179	148.626	-0.316	-0.424
-397.165	-167.990	-0.141	0.005
-396.150	-45.109	0.135	0.067
-395.136	8.760	0.342	-0.256
-394.121	-200.000	0.045	-0.240
-393.106	-77.567	0.110	0.038
-392.092	252.813	-0.067	-0.113
-391.077	-28.712	0.191	0.109
-390.063	-128.311	0.479	-0.068
-389.048	341.691	-0.245	-0.476
-388.033	-46.034	-0.116	0.057
-387.019	-52.781	0.346	0.158
-386.004	-109.617	-0.073	-0.015
-384.990	-200.000	0.086	-0.474
-383.975	126.382	-0.094	0.118
-382.960	164.738	-0.086	0.120
-381.946	-8.359	0.236	-0.157
-380.931	800.000	-0.104	0.298
-379.917	-200.000	0.058	0.292
-378.902	-123.298	0.102	-0.016
-377.888	6.494	-0.274	0.202
-376.873	70.542	-0.270	-0.277
-375.858	97.387	0.172	0.196
-374.844	233.703	0.153	0.249
-373.829	800.000	0.089	-0.328
-372.815	-200.000	0.104	-0.482
-371.800	461.131	-0.097	0.214
-370.785	800.000	-0.088	0.287
-369.771	285.873	0.048	-0.086
-368.756	-28.704	-0.264	-0.150
-367.742	-89.205	-0.179	0.052
-366.727	-146.740	-0.220	-0.019
-365.712	-168.106	0.106	-0.004
-364.698	605.767	0.187	-0.461
-363.683	-33.137	-0.318	-0.175
-362.669	-40.585	0.265	0.136
-361.654	-200.000	-0.004	0.060
-360.639	28.098	0.381	0.318
-359.625	251.479	-0.162	0.272
-358.610	-77.077	-0.172	-0.059
-357.596	800.000	0.021	-0.059
-356.581	776.351	-0.030	-0.082
-355.566	-76.413	0.179	-0.062
-354.552	800.000	0.020	0.069
-353.537	-78.145	-0.176	-0.060
-352.523	800.000	-0.035	0.102
-351.508	-56.035	0.298	0.131
-350.493	-13.193	0.071	-0.046
-349.479	-170.672	0.258	0.009
-348.464	174.837	0.115	-0.165
-347.450	-200.000	-0.047	0.208
-346.435	-97.721	-0.110	0.028
-345.420	-7.788	0.137	-0.091
-344.406	-72.668	-0.229	0.083
-343.391	80.167	-0.162	0.173
-342.377	499.521	-0.037	0.085
-341.362	-143.253	-0.093	0.009
-340.348	-51.888	0.166	-0.077
-339.333	363.211	-0.080	-0.158
-338.318	-134.844	-0.171	-0.020
-337.304	12.539	0.206	0.157
-336.289	-200.000	0.011	-0.386
-335.275	-171.954	-0.104	0.003
-334.260	-35.032	0.132	0.071
-333.245	-88.409	-0.024	-0.007
-332.231	-12.381	0.091	-0.059
-331.216	94.599	-0.092	0.103
-330.202	-200.000	-0.029	-0.157
-329.187	-69.182	-0.154	0.058
-328.172	529.965	0.224	-0.524
-327.158	532.728	0.095	-0.223
-326.143	-164.487	0.099	0.004
-325.129	-42.557	0.240	-0.121
-324.114	-200.000	0.053	-0.270
-323.099	102.403	0.173	0.200
-322.085	-41.741	-0.438	-0.222
-321.070	356.950	-0.069	-0.136
-320.056	23.939	-0.220	-0.180
-319.041	-131.624	-0.157	-0.020
-318.026	162.698	-0.110	0.152
-317.012	-43.572	-0.020	0.010
-315.997	69.330	0.088	0.090
-314.983	-100.683	-0.119	0.029
-313.968	-117.250	0.200	0.036
-312.953	158.430	0.146	0.201
-311.939	-16.302	-0.160	-0.101
-310.924	-47.299	0.160	0.077
-309.910	-77.948	0.224	-0.076
-308.895	91.993	-0.167	-0.186
-307.880	-200.000	-0.014	-0.308
-306.866	-46.592	0.121	0.059
-305.851	215.174	-0.128	0.201
-304.837	-115.411	0.217	-0.040
-303.822	-36.918	0.249	0.132
-302.807	218.638	0.232	0.367
-301.793	-20.652	-0.281	-0.171
-300.778	70.292	0.143	0.146
-299.764	-121.277	-0.067	-0.011
-298.749	679.896	-0.056	0.143
-297.735	-151.743	0.404	-0.029
-296.720	279.998	-0.131	0.232
-295.705	154.396	0.239	0.324
-294.691	-37.043	-0.131	-0.069
-293.676	-118.607	-0.404	0.071
-292.662	-60.407	0.128	0.054
-291.647	275.566	-0.013	0.024
-290.632	44.513	0.197	0.179
-289.618	150.320	-0.308	-0.413
-288.603	92.693	0.110	0.123
-287.589	-122.040	0.247	0.040
-286.574	-101.491	0.100	-0.024
-285.559	-200.000	-0.002	0.023
-284.545	63.532	-0.239	-0.237
-283.530	754.883	-0.098	0.263
-282.516	165.186	0.113	0.158
-281.501	800.000	-0.026	0.087
-280.486	-34.703	0.216	0.117
-279.472	-200.000	-0.004	0.092
-278.457	286.601	-0.081	0.145
-277.443	-121.786	0.284	0.046
-276.428	-60.832	0.286	-0.119
-275.413	11.082	0.287	0.217
-274.399	-87.404	0.206	0.062
-273.384	-158.516	-0.249	0.014
-272.370	290.739	-0.148	0.266
-271.355	-200.000	-0.016	-0.102
-270.340	-98.404	-0.242	0.061
-269.326	-29.929	-0.185	-0.104
-268.311	60.818	-0.246	-0.241
-267.297	-200.000	0.033	0.214
-266.282	-200.000	-0.030	-0.185
-265.267	241.105	-0.098	0.161
-264.253	548.229	0.064	-0.151
-263.238	-172.572	0.533	0.017
-262.224	800.000	0.054	0.213
-261.209	-156.860	0.352	-0.021
-260.195	-200.000	-0.023	-0.144
-259.180	55.581	-0.089	-0.085
-258.165	-61.629	0.191	-0.079
-257.151	9.371	-0.064	-0.048
-256.136	2.695	-0.140	0.100
-255.122	275.662	-0.110	0.192
-254.107	-200.000	-0.103	-0.473
-253.092	473.002	-0.080	0.178
-252.078	37.545	0.111	-0.097
-251.063	-117.298	0.520	0.093
-250.049	-200.000	0.056	0.426
-249.034	-135.706	-0.193	0.023
-248.019	-200.000	-0.005	-0.157
-247.005	-200.000	-0.012	-0.298
-245.990	-102.718	0.388	0.091
-244.976	800.000	0.060	0.213
-243.961	800.000	-0.019	0.061
-242.946	762.804	0.015	0.041
-241.932	3.144	0.165	0.118
-240.917	-9.084	-0.100	0.066
-239.903	225.874	-0.094	0.151
-238.888	800.000	0.132	0.442
-237.873	347.537	-0.025	-0.049
-236.859	-140.716	-0.289	0.030
-235.844	-200.000	0.013	0.139
-234.830	-81.550	0.370	0.120
-233.815	446.629	-0.160	0.346
-232.800	108.156	0.136	0.160
-231.786	680.076	-0.152	-0.390
-230.771	-200.000	-0.058	-0.326
-229.757	633.345	-0.114	0.284
-228.742	-80.479	-0.260	0.085
-227.727	284.585	-0.166	-0.295
-226.713	-200.000	0.018	-0.249
-225.698	21.038	0.108	-0.087
-224.684	-21.559	-0.208	-0.125
-223.669	-136.568	-0.138	-0.016
-222.655	800.000	0.056	0.197
-221.640	-68.534	-0.018	-0.007
-220.625	8.707	0.200	0.148
-219.611	539.625	0.084	-0.197
-218.596	-34.748	0.209	-0.112
-217.582	229.488	0.087	0.140
-216.567	-80.653	-0.222	-0.073
-215.552	-200.000	0.006	0.105
-214.538	15.319	-0.106	-0.082
-213.523	-200.000	0.006	0.146
-212.509	6.425	-0.208	-0.152
-211.494	-200.000	-0.207	-0.001
-210.479	-48.837	-0.269	0.127
-209.465	800.000	0.083	-0.225
-208.450	-89.074	-0.125	-0.036
-207.436	-3.432	0.203	0.139
-206.421	339.609	-0.073	-0.140
-205.406	301.828	0.195	-0.356
-204.392	387.631	0.099	-0.202
-203.377	-200.000	-0.013	0.092
-202.363	-200.000	0.020	0.269
-201.348	27.441	0.206	0.170
-200.333	45.826	-0.140	-0.128
-199.319	800.000	0.054	0.171
-198.304	-82.575	-0.145	-0.046
-197.290	-200.000	-0.008	-0.091
-196.275	-57.387	-0.124	0.054
-195.260	-66.333	-0.116	-0.045
-194.246	800.000	0.030	-0.113
-193.231	-200.000	0.038	0.207
-192.217	-11.469	-0.153	-0.099
-191.202	132.927	0.126	0.160
-190.187	221.150	-0.040	-0.063
-189.173	310.969	0.119	0.220
-188.158	800.000	-0.043	-0.144
-187.144	98.357	-0.091	-0.103
-186.129	800.000	0.104	0.422
-185.114	-200.000	0.028	0.136
-184.100	-53.329	-0.265	0.120
-183.085	800.000	-0.122	-0.357
-182.071	-3.937	0.187	0.128
-181.056	307.530	-0.088	0.161
-180.042	424.288	-0.061	-0.129
-179.027	135.210	0.073	0.093
-178.012	-176.705	-0.295	0.007
-176.998	29.678	-0.118	-0.099
-175.983	99.604	0.138	-0.157
-174.969	-200.000	0.006	-0.106
-173.954	-200.000	0.003	0.167
-172.939	91.884	0.144	-0.159
-171.925	233.421	0.146	-0.236
-170.910	-200.000	0.048	-0.284
-169.896	113.030	0.071	0.084
-168.881	-149.975	-0.281	-0.022
-167.866	-30.632	-0.013	0.007
-166.852	-138.108	0.073	-0.008
-165.837	-200.000	-0.021	0.318
-164.823	800.000	0.091	-0.367
-163.808	-73.490	-0.143	0.051
-162.793	199.951	-0.059	-0.090
-161.779	34.183	0.132	-0.113
-160.764	-37.904	0.151	0.079
-159.750	800.000	-0.083	-0.307
-158.735	-200.000	0.079	-0.561
-157.720	544.721	0.048	0.113
-156.706	-200.000	0.043	0.192
-155.691	356.996	0.116	-0.228
-154.677	18.862	0.272	0.214
-153.662	75.874	-0.077	0.080
-152.647	-200.000	-0.002	-0.036
-151.633	-27.575	0.197	0.113
-150.618	-162.556	-0.372	-0.018
-149.604	118.943	-0.020	0.024
-148.589	-197.362	-0.445	-0.003
-147.574	800.000	-0.037	0.113
-146.560	657.283	-0.132	-0.333
-145.545	-159.785	0.091	-0.005
-144.531	110.004	0.107	0.127
-143.516	104.265	0.109	0.126
-142.502	68.820	-0.158	0.159
-141.487	379.281	0.005	-0.010
-140.472	-200.000	0.008	-0.352
-139.458	89.247	-0.151	0.165
-138.443	-200.000	0.027	0.367
-137.429	-154.537	0.079	-0.005
-136.414	800.000	0.114	0.317
-135.399	421.377	-0.076	0.160
-134.385	-112.003	0.332	-0.066
-133.370	-130.151	-0.135	0.018
-132.356	-19.871	0.175	-0.106
-131.341	91.106	-0.441	-0.486
-130.326	-98.785	0.505	0.126
-129.312	9.629	0.197	0.147
-128.297	357.819	-0.143	0.280
-127.283	-200.000	-0.014	0.548
-126.268	412.039	0.099	0.206
-125.253	-82.478	-0.164	-0.052
-124.239	46.960	0.147	0.134
-123.224	-71.709	-0.227	0.083
-122.210	72.594	-0.341	-0.350
-121.195	-104.940	0.181	-0.041
