DTS Sentinel unit serial number:	SN413079Multiplexer serial number:	ORYXHardware model number:	OX4-SRSoftware version number:	ORYX F/W v4.00 Oryx Data Collector v3.7.2.0data status	okinstallation	princeton_trtdifferential loss correction	single-endedforward channel	channel 2reverse channel	N/Adate	2019/09/14time	03:35:34forward acquisition time	60.00reverse acquisition time	0.00gamma	496.2192k internal	0.2336k external	0.2336temperature offset calibration	1.0129default loss term (dB/km)	0.3790temperature slope calibration	1.0000multiplexer offset coefficient	1.0000multiplexer slope coefficient	1.0000fibre end	0.00T internal ref (°C)	26.62T ext. ref 1 (°C)	3.29T ext. ref 2 (°C)	21.58length (m)	temperature (°C)	Stokes	anti-Stokes-747.200	-5.320	-0.211	0.145
-746.185	-180.412	-0.224	0.005
-745.171	-55.239	-0.133	0.060
-744.156	11.971	-0.213	0.165
-743.142	800.000	-0.079	0.235
-742.127	-105.405	0.121	0.028
-741.112	800.000	0.080	0.317
-740.098	2.003	-0.238	0.173
-739.083	-39.531	-0.341	-0.179
-738.069	102.628	-0.093	0.109
-737.054	-105.631	0.138	-0.031
-736.039	-150.828	-0.276	0.021
-735.025	-200.000	-0.031	0.233
-734.010	85.849	0.006	0.006
-732.996	-97.558	-0.301	0.079
-731.981	151.193	0.134	-0.183
-730.966	-200.000	-0.013	0.075
-729.952	-96.406	-0.341	-0.091
-728.937	237.803	-0.245	-0.408
-727.923	-200.000	-0.070	-0.318
-726.908	-200.000	0.001	-0.083
-725.894	133.700	0.052	0.067
-724.879	88.658	-0.141	-0.157
-723.864	-27.092	-0.186	0.109
-722.850	-72.349	-0.140	0.052
-721.835	541.143	-0.127	0.304
-720.821	63.707	0.226	-0.228
-719.806	131.401	-0.049	-0.063
-718.791	1.360	-0.234	0.169
-717.777	-154.188	-0.360	-0.024
-716.762	323.187	-0.138	0.264
-715.748	504.527	-0.079	0.182
-714.733	-124.674	-0.165	-0.026
-713.718	-127.253	-0.158	-0.023
-712.704	-101.605	0.237	0.058
-711.689	-68.831	0.379	-0.147
-710.675	23.602	-0.152	0.126
-709.660	-19.080	0.032	-0.020
-708.645	99.563	-0.198	-0.230
-707.631	43.943	0.239	0.220
-706.616	493.802	-0.054	0.123
-705.602	-85.682	0.164	0.051
-704.587	-54.659	-0.086	0.039
-703.572	-200.000	-0.004	-0.120
-702.558	-200.000	0.029	-0.280
-701.543	-10.973	-0.126	-0.084
-700.529	800.000	-0.052	-0.151
-699.514	800.000	-0.134	0.416
-698.499	-49.341	-0.072	0.034
-697.485	5.011	-0.231	0.171
-696.470	215.653	0.099	0.158
-695.456	-31.159	-0.051	-0.029
-694.441	-200.000	0.023	0.146
-693.426	362.478	0.085	-0.171
-692.412	447.773	-0.011	-0.025
-691.397	770.742	0.133	0.362
-690.383	-94.278	-0.384	-0.105
-689.368	-200.000	-0.010	0.163
-688.354	-109.915	0.179	0.038
-687.339	-200.000	-0.017	-0.199
-686.324	-200.000	0.001	-0.118
-685.310	-200.000	-0.012	0.085
-684.295	-8.879	-0.143	-0.096
-683.281	164.120	0.142	0.201
-682.266	658.827	0.011	0.028
-681.251	28.023	-0.088	0.074
-680.237	667.654	-0.084	-0.218
-679.222	-97.351	0.277	0.072
-678.208	-200.000	-0.223	-0.001
-677.193	-200.000	-0.022	0.301
-676.178	199.019	0.063	0.097
-675.164	164.708	-0.271	0.383
-674.149	-200.000	-0.012	0.206
-673.135	380.215	0.016	-0.032
-672.120	-72.859	-0.220	-0.081
-671.105	41.205	0.097	0.088
-670.091	-53.932	-0.130	-0.059
-669.076	549.432	0.114	-0.274
-668.062	29.140	0.105	-0.089
-667.047	800.000	-0.116	-0.445
-666.032	-67.481	0.152	0.060
-665.018	96.272	0.292	0.334
-664.003	426.036	0.052	-0.113
-662.989	83.182	0.161	-0.175
-661.974	343.507	-0.075	0.147
-660.959	-200.000	-0.017	0.091
-659.945	-150.775	0.389	0.030
-658.930	-148.187	0.098	-0.008
-657.916	244.740	0.021	0.036
-656.901	40.759	-0.058	-0.052
-655.886	485.266	-0.019	-0.043
-654.872	-200.000	0.008	-0.260
-653.857	-200.000	0.025	0.119
-652.843	717.449	0.025	-0.068
-651.828	-200.000	0.027	-0.285
-650.814	-75.933	0.100	-0.036
-649.799	-200.000	0.038	0.241
-648.784	-200.000	0.020	-0.124
-647.770	-8.688	-0.198	-0.133
-646.755	351.707	0.050	-0.099
-645.741	-97.242	0.468	-0.122
-644.726	-200.000	-0.029	0.131
-643.711	-144.989	0.098	0.009
-642.697	-200.000	-0.002	0.287
-641.682	-200.000	-0.015	-0.242
-640.668	-89.303	0.268	0.079
-639.653	668.230	0.029	0.076
-638.638	-49.955	0.345	-0.164
-637.624	-133.253	-0.197	-0.025
-636.609	2.294	-0.219	-0.158
-635.595	156.609	-0.098	0.136
-634.580	-200.000	0.024	0.288
-633.565	226.479	-0.003	0.005
-632.551	69.367	0.087	0.090
-631.536	-200.000	0.013	0.319
-630.522	-134.997	0.185	-0.022
-629.507	-200.000	-0.025	-0.151
-628.492	-104.062	-0.139	0.032
-627.478	-132.688	0.155	0.020
-626.463	-126.125	-0.197	-0.030
-625.449	-10.351	0.323	-0.214
-624.434	355.471	-0.112	-0.223
-623.419	-144.343	-0.274	-0.025
-622.405	800.000	-0.015	0.050
-621.390	69.228	-0.200	-0.206
-620.376	-185.553	-0.318	-0.005
-619.361	323.094	0.080	0.153
-618.346	38.172	0.112	-0.100
-617.332	-200.000	0.002	0.108
-616.317	800.000	-0.084	-0.241
-615.303	234.115	0.153	-0.252
-614.288	43.880	0.223	-0.204
-613.273	-200.000	0.016	-0.114
-612.259	29.307	-0.256	0.217
-611.244	-200.000	-0.002	-0.143
-610.230	199.639	-0.038	0.058
-609.215	-29.713	-0.141	-0.080
-608.201	34.858	-0.145	0.126
-607.186	40.471	0.017	-0.015
-606.171	409.063	0.089	-0.188
-605.157	352.663	-0.086	-0.171
-604.142	-92.792	-0.186	0.052
-603.128	-144.151	0.121	-0.011
-602.113	696.844	0.039	-0.102
-601.098	15.341	-0.226	0.177
-600.084	60.282	-0.134	0.132
-599.069	800.000	0.051	-0.139
-598.055	-107.609	0.149	-0.033
-597.040	-31.397	0.377	0.212
-596.025	-200.000	0.002	0.141
-595.011	71.117	0.040	-0.042
-593.996	33.896	-0.237	0.206
-592.982	-105.433	-0.172	0.039
-591.967	-175.406	-0.090	0.002
-590.952	73.625	-0.167	-0.175
-589.938	-128.308	-0.159	-0.023
-588.923	-1.357	-0.201	-0.141
-587.909	679.200	0.065	-0.170
-586.894	82.424	0.103	0.111
-585.879	281.227	-0.139	-0.248
-584.865	512.299	-0.117	-0.271
-583.850	90.603	0.188	-0.210
-582.836	244.029	-0.152	0.255
-581.821	-154.686	0.041	-0.003
-580.806	-96.009	-0.194	0.051
-579.792	-200.000	0.008	-0.260
-578.777	-82.032	-0.155	0.051
-577.763	241.183	0.091	-0.152
-576.748	-200.000	-0.030	-0.189
-575.733	-200.000	-0.014	0.143
-574.719	121.726	-0.220	0.274
-573.704	19.672	0.125	0.100
-572.690	165.647	-0.212	-0.299
-571.675	-200.000	0.021	0.117
-570.661	-191.615	0.202	-0.002
-569.646	92.798	-0.321	-0.362
-568.631	8.809	-0.159	0.119
-567.617	-26.297	-0.079	0.046
-566.602	104.821	0.059	0.069
-565.588	-71.940	-0.218	-0.081
-564.573	800.000	-0.102	0.287
-563.558	-200.000	-0.054	-0.267
-562.544	-172.246	-0.132	-0.004
-561.529	258.837	-0.236	-0.406
-560.515	-200.000	-0.036	-0.202
-559.500	439.955	-0.178	-0.387
-558.485	800.000	-0.067	0.232
-557.471	99.192	0.158	0.182
-556.456	300.037	0.042	0.076
-555.442	298.963	0.060	-0.109
-554.427	800.000	-0.007	-0.022
-553.412	-31.272	0.148	0.083
-552.398	-127.888	-0.392	0.056
-551.383	800.000	-0.079	-0.239
-550.369	-155.449	-0.252	0.016
-549.354	-200.000	-0.019	-0.130
-548.339	800.000	-0.043	0.173
-547.325	800.000	-0.113	0.361
-546.310	111.428	-0.134	-0.161
-545.296	-55.055	-0.301	0.135
-544.281	18.317	0.148	0.118
-543.266	-15.631	0.228	-0.145
-542.252	-12.773	0.303	0.197
-541.237	-123.139	0.233	-0.037
-540.223	-29.012	0.096	-0.055
-539.208	349.498	0.142	-0.279
-538.193	-200.000	-0.085	0.493
-537.179	-105.006	-0.274	-0.063
-536.164	19.136	-0.147	0.117
-535.150	269.603	0.049	-0.085
-534.135	-200.000	0.012	-0.199
-533.121	570.179	0.102	-0.247
-532.106	138.005	0.229	0.299
-531.091	175.311	-0.046	-0.067
-530.077	-167.562	0.211	0.008
-529.062	71.533	0.017	0.018
-528.048	-154.819	0.213	0.014
-527.033	10.376	0.407	0.309
-526.018	71.706	-0.306	0.316
-525.004	-66.861	-0.336	0.132
-523.989	800.000	0.052	-0.179
-522.975	-73.862	-0.115	0.042
-521.960	-0.181	0.089	0.063
-520.945	800.000	-0.055	0.154
-519.931	-182.315	-0.213	-0.004
-518.916	288.075	0.159	-0.286
-517.902	480.451	-0.074	-0.167
-516.887	-119.757	0.071	0.012
-515.872	301.098	0.173	0.318
-514.858	533.801	-0.028	0.066
-513.843	-180.798	-0.121	-0.002
-512.829	282.415	0.107	0.191
-511.814	-17.987	0.183	0.114
-510.799	48.350	-0.084	0.079
-509.785	-98.057	-0.285	0.073
-508.770	124.756	0.162	0.203
-507.756	-200.000	0.044	-0.215
-506.741	-15.191	-0.231	0.147
-505.726	538.733	-0.056	-0.132
-504.712	8.209	-0.205	0.153
-503.697	-200.000	0.047	0.215
-502.683	336.336	0.065	-0.126
-501.668	758.444	-0.138	0.372
-500.653	-200.000	0.005	0.072
-499.639	-39.577	0.093	0.048
-498.624	192.590	0.079	-0.119
-497.610	405.615	0.060	-0.126
-496.595	-44.958	-0.116	-0.058
-495.581	-200.000	0.009	0.077
-494.566	-200.000	0.005	0.067
-493.551	151.201	0.347	0.470
-492.537	-200.000	0.033	-0.188
-491.522	243.812	0.051	-0.085
-490.508	-113.018	-0.092	-0.018
-489.493	-200.000	0.026	0.201
-488.478	43.410	-0.067	0.060
-487.464	428.543	-0.114	-0.245
-486.449	-200.000	0.057	-0.442
-485.435	-67.135	-0.242	0.095
-484.420	20.991	0.150	0.121
-483.405	78.510	0.059	-0.062
-482.391	-157.880	-0.226	0.013
-481.376	-79.749	-0.162	-0.054
-480.362	-200.000	-0.019	-0.129
-479.347	-200.000	-0.273	-0.001
-478.332	-175.981	-0.104	0.003
-477.318	19.857	0.029	0.024
-476.303	800.000	-0.069	-0.271
-475.289	-200.000	-0.016	-0.351
-474.274	-200.000	-0.017	0.136
-473.259	-70.525	0.178	-0.067
-472.245	-69.541	0.077	-0.029
-471.230	-19.250	0.064	-0.039
-470.216	-200.000	-0.003	-0.038
-469.201	-60.571	-0.027	0.011
-468.186	-113.775	-0.069	0.013
-467.172	-77.364	0.375	-0.129
-466.157	27.286	-0.139	0.116
-465.143	-85.332	0.100	-0.031
-464.128	-148.858	0.298	0.024
-463.113	169.981	-0.017	-0.024
-462.099	-68.121	0.269	-0.104
-461.084	-48.962	-0.140	-0.067
-460.070	147.414	-0.030	0.040
-459.055	-71.369	-0.424	0.158
-458.040	227.844	0.076	0.123
-457.026	-123.935	0.345	-0.054
-456.011	56.658	0.057	0.055
-454.997	-200.000	0.025	-0.145
-453.982	800.000	-0.021	-0.065
-452.968	46.653	-0.084	0.078
-451.953	-59.557	-0.362	0.154
-450.938	-139.917	-0.249	-0.026
-449.924	-116.380	-0.099	-0.018
-448.909	-99.052	-0.244	-0.061
-447.895	8.541	0.057	0.042
-446.880	34.805	0.210	0.182
-445.865	446.627	0.113	-0.246
-444.851	-165.605	-0.074	-0.003
-443.836	-168.472	0.092	-0.003
-442.822	113.601	0.200	0.242
-441.807	89.151	-0.158	0.174
-440.792	800.000	-0.057	-0.211
-439.778	-144.293	0.015	0.001
-438.763	-76.378	0.142	0.050
-437.749	357.027	0.145	-0.286
-436.734	-200.000	0.062	-0.330
-435.719	108.439	0.114	0.134
-434.705	800.000	0.041	-0.159
-433.690	153.295	0.133	0.181
-432.676	347.444	0.062	0.122
-431.661	-0.014	-0.109	-0.077
-430.646	-56.957	-0.235	0.103
-429.632	-177.879	-0.252	0.006
-428.617	-34.262	0.282	0.154
-427.603	52.124	-0.108	-0.102
-426.588	166.402	0.084	-0.118
-425.573	384.434	0.005	0.011
-424.559	-16.743	0.063	0.040
-423.544	-122.482	-0.260	-0.042
-422.530	696.669	-0.116	0.302
-421.515	-200.000	0.037	-0.263
-420.500	-200.000	0.007	0.069
-419.486	526.687	-0.125	0.292
-418.471	-200.000	-0.007	0.258
-417.457	-200.000	0.038	-0.176
-416.442	-37.068	-0.161	-0.085
-415.428	11.894	0.094	-0.072
-414.413	726.649	0.123	-0.325
-413.398	-16.987	-0.023	0.014
-412.384	620.714	-0.115	-0.286
-411.369	-120.221	0.120	-0.020
-410.355	-56.915	0.081	-0.035
-409.340	239.302	-0.095	0.157
-408.325	149.491	-0.063	0.085
-407.311	110.511	-0.103	-0.123
-406.296	-57.090	-0.156	0.068
-405.282	-113.928	-0.151	-0.029
-404.267	47.159	-0.121	0.112
-403.252	800.000	-0.136	-0.467
-402.238	-121.505	-0.182	0.030
-401.223	800.000	0.110	0.315
-400.209	57.997	0.146	-0.142
-399.194	532.656	0.117	-0.274
-398.179	800.000	-0.100	-0.304
-397.165	-29.042	0.375	0.213
-396.150	84.749	0.109	-0.119
-395.136	184.658	0.271	0.398
-394.121	-200.000	-0.062	-0.330
-393.106	197.332	0.087	0.132
-392.092	-63.876	0.266	-0.108
-391.077	800.000	0.078	0.334
-390.063	-68.447	-0.050	-0.019
-389.048	12.278	0.176	0.134
-388.033	-42.602	0.141	-0.071
-387.019	20.920	0.200	-0.160
-386.004	17.164	0.212	0.167
-384.990	-98.705	-0.298	-0.075
-383.975	-17.135	-0.077	-0.048
-382.960	-104.658	0.077	-0.018
-381.946	82.892	-0.181	-0.195
-380.931	536.184	-0.051	0.120
-379.917	-200.000	-0.014	-0.105
-378.902	171.092	0.070	0.100
-377.888	-200.000	-0.029	-0.385
-376.873	172.708	0.063	0.089
-375.858	-67.853	0.035	0.013
-374.844	278.272	-0.138	-0.243
-373.829	-200.000	0.008	0.065
-372.815	800.000	-0.009	0.025
-371.800	9.368	-0.085	-0.064
-370.785	-183.947	0.272	-0.005
-369.771	-39.661	0.189	-0.098
-368.756	800.000	0.048	-0.204
-367.742	-43.012	0.314	0.158
-366.727	56.271	0.137	-0.132
-365.712	547.684	-0.060	-0.142
-364.698	562.636	-0.045	0.107
-363.683	159.953	0.253	-0.349
-362.669	455.702	-0.103	0.227
-361.654	10.749	0.302	-0.228
-360.639	285.382	0.160	-0.285
-359.625	-200.000	-0.054	0.275
-358.610	-38.208	-0.440	0.231
-357.596	180.036	0.146	-0.212
-356.581	-106.128	0.168	-0.037
-355.566	550.689	-0.145	-0.344
-354.552	7.867	-0.138	0.102
-353.537	76.753	-0.179	0.188
-352.523	-200.000	0.052	0.278
-351.508	800.000	-0.068	0.215
-350.493	-200.000	-0.003	-0.276
-349.479	-200.000	-0.001	-0.046
-348.464	-72.821	-0.099	-0.036
-347.450	106.151	-0.110	0.128
-346.435	-8.549	0.121	-0.080
-345.420	44.661	0.165	0.150
-344.406	-29.527	0.469	0.265
-343.391	45.324	-0.083	0.076
-342.377	-37.868	-0.294	-0.155
-341.362	180.118	0.117	0.169
-340.348	-104.424	-0.288	-0.066
-339.333	163.463	0.007	-0.009
-338.318	155.721	0.292	-0.398
-337.304	54.779	-0.196	-0.187
-336.289	-42.180	-0.308	-0.156
-335.275	-200.000	0.031	-0.214
-334.260	-88.604	0.116	-0.034
-333.245	-200.000	-0.038	-0.281
-332.231	146.892	-0.118	-0.157
-331.216	-76.424	0.236	-0.082
-330.202	-200.000	0.050	-0.395
-329.187	89.243	0.198	-0.218
-328.172	455.277	-0.017	0.037
-327.158	80.054	0.159	0.169
-326.143	-25.868	-0.239	-0.139
-325.129	295.369	0.071	0.129
-324.114	194.863	0.263	-0.394
-323.099	253.160	-0.019	-0.032
-322.085	683.364	0.096	0.248
-321.070	-200.000	-0.035	-0.162
-320.056	-47.645	-0.230	-0.110
-319.041	11.868	-0.055	-0.042
-318.026	-24.854	-0.105	-0.062
-317.012	-8.129	-0.127	0.084
-315.997	-200.000	-0.012	0.267
-314.983	55.923	-0.100	0.096
-313.968	-130.411	0.326	0.044
-312.953	-89.287	-0.180	0.052
-311.939	-200.000	0.011	-0.071
-310.924	92.423	-0.107	-0.119
-309.910	-156.188	0.244	0.015
-308.895	800.000	0.098	0.417
-307.880	-67.167	0.168	-0.065
-306.866	-166.360	0.098	-0.004
-305.851	-200.000	0.008	0.054
-304.837	800.000	-0.025	-0.083
-303.822	403.864	0.146	0.303
-302.807	139.112	-0.251	0.325
-301.793	1.984	0.105	0.075
-300.778	-80.881	-0.236	-0.077
-299.764	-26.166	0.323	0.187
-298.749	257.196	0.071	0.120
-297.735	-200.000	0.003	0.282
-296.720	-200.000	0.010	-0.096
-295.705	-156.643	0.365	0.022
-294.691	-30.839	-0.109	0.061
-293.676	800.000	-0.020	0.078
-292.662	27.831	0.226	0.188
-291.647	-15.683	-0.211	-0.133
-290.632	470.674	0.073	0.162
-289.618	10.244	0.189	-0.142
-288.603	10.996	0.157	-0.119
-287.589	-200.000	0.016	0.170
-286.574	257.085	-0.143	0.242
-285.559	-105.293	0.211	-0.047
-284.545	-200.000	-0.020	-0.117
-283.530	15.837	-0.083	-0.065
-282.516	-200.000	0.000	-0.478
-281.501	-200.000	0.044	0.276
-280.486	-143.374	-0.408	0.038
-279.472	-69.502	0.457	-0.173
-278.457	-34.885	0.184	0.099
-277.443	16.663	-0.138	0.108
-276.428	204.026	0.113	-0.172
-275.413	-73.338	-0.233	0.084
-274.399	-14.006	0.398	0.253
-273.384	18.092	0.210	0.165
-272.370	256.220	0.138	0.233
-271.355	-144.826	0.304	0.028
-270.340	-12.602	0.342	-0.220
-269.326	-81.344	-0.277	0.090
-268.311	-200.000	0.003	-0.036
-267.297	49.946	-0.291	-0.270
-266.282	355.189	0.196	0.384
-265.267	800.000	-0.080	0.259
-264.253	140.259	-0.106	-0.138
-263.238	-149.324	0.352	0.028
-262.224	-102.328	0.297	-0.070
-261.209	800.000	0.024	0.071
-260.195	-146.836	0.148	-0.013
-259.180	85.347	0.151	-0.163
-258.165	165.241	-0.187	-0.260
-257.151	-75.119	-0.083	0.029
-256.136	62.018	0.170	0.167
-255.122	763.158	0.085	0.229
-254.107	37.772	-0.033	-0.029
-253.092	-75.400	-0.224	-0.079
-252.078	-76.753	-0.176	-0.061
-251.063	-24.220	-0.118	-0.069
-250.049	48.784	-0.245	-0.226
-249.034	-42.852	0.112	0.056
-248.019	-40.713	0.187	0.095
-247.005	52.277	-0.195	-0.183
-245.990	-200.000	0.009	0.121
-244.976	40.478	0.085	-0.075
-243.961	-69.657	-0.114	0.043
-242.946	220.897	0.134	0.211
-241.932	-155.240	-0.108	-0.007
-240.917	-48.982	0.066	-0.031
-239.903	237.414	0.019	-0.031
-238.888	57.616	-0.169	0.163
-237.873	23.090	0.126	0.102
-236.859	-200.000	-0.012	0.250
-235.844	-200.000	0.007	-0.120
-234.830	-95.911	-0.016	0.004
-233.815	-157.797	0.227	0.013
-232.800	-200.000	-0.097	-0.540
-231.786	-200.000	-0.042	-0.297
-230.771	38.523	0.225	0.198
-229.757	-200.000	-0.030	-0.201
-228.742	110.085	0.157	0.186
-227.727	-74.595	-0.342	0.121
-226.713	-200.000	0.025	0.260
-225.698	-84.259	0.487	0.152
-224.684	-46.281	-0.144	-0.070
-223.669	84.439	-0.324	0.348
-222.655	-31.898	0.212	-0.117
-221.640	-159.852	0.309	0.017
-220.625	-200.000	0.003	0.451
-219.611	16.245	0.219	-0.170
-218.596	-100.337	0.072	0.018
-217.582	347.397	0.171	-0.332
-216.567	-143.495	-0.415	0.039
-215.552	-11.052	0.208	-0.135
-214.538	540.497	0.060	-0.140
-213.523	14.730	0.193	0.149
-212.509	220.422	0.121	-0.191
-211.494	-200.000	-0.022	-0.280
-210.479	-200.000	-0.059	0.319
-209.465	104.048	0.215	-0.249
-208.450	-165.902	0.065	-0.003
-207.436	-84.366	-0.063	0.020
-206.421	174.331	-0.054	-0.077
-205.406	300.166	0.151	0.274
-204.392	-56.198	0.134	-0.059
-203.377	-51.963	-0.112	-0.051
-202.363	792.668	-0.055	-0.148
-201.348	-65.009	-0.145	0.058
-200.333	330.477	-0.163	0.309
-199.319	-37.494	0.125	0.065
-198.304	784.839	-0.054	0.145
-197.290	-81.251	-0.219	-0.071
-196.275	800.000	-0.104	0.289
-195.260	-47.344	-0.130	0.062
-194.246	-111.457	0.233	0.047
-193.231	-200.000	-0.015	0.196
-192.217	-200.000	-0.024	0.129
-191.202	-200.000	0.021	0.198
-190.187	-93.567	0.191	-0.052
-189.173	-7.177	0.081	-0.054
-188.158	-200.000	-0.070	-0.422
-187.144	800.000	0.081	0.308
-186.129	39.794	-0.301	0.265
-185.114	-10.403	-0.376	0.245
-184.100	159.113	-0.091	-0.124
-183.085	504.397	0.174	-0.396
-182.071	800.000	0.059	0.240
-181.056	324.312	0.122	0.229
-180.042	4.319	0.234	0.169
-179.027	-192.769	-0.157	-0.001
-178.012	103.323	-0.076	0.088
-176.998	10.356	-0.138	0.103
-175.983	-131.812	0.185	0.024
-174.969	-122.366	-0.288	0.046
-173.954	800.000	-0.127	0.357
-172.939	715.764	-0.031	0.081
-171.925	78.560	-0.129	-0.135
-170.910	-200.000	0.017	0.121
-169.896	-113.054	-0.417	-0.081
-168.881	-200.000	-0.007	0.056
-167.866	-100.442	-0.040	-0.010
-166.852	66.435	0.030	-0.030
-165.837	346.665	-0.172	-0.333
-164.823	125.520	-0.180	-0.223
-163.808	175.317	-0.062	0.088
-162.793	-181.564	0.214	-0.004
-161.779	-200.000	-0.028	-0.226
-160.764	-10.539	-0.025	-0.016
-159.750	-82.620	0.206	0.066
-158.735	521.954	0.057	0.132
-157.720	-97.987	-0.386	0.098
-156.706	-65.006	-0.418	-0.166
-155.691	-77.033	0.353	0.121
-154.677	12.015	0.050	-0.038
-153.662	-138.164	-0.193	0.021
-152.647	197.020	-0.141	0.212
-151.633	800.000	-0.080	0.240
-150.618	800.000	-0.047	-0.141
-149.604	37.081	0.146	-0.127
-148.589	42.121	0.086	0.077
-147.574	228.758	-0.177	-0.284
-146.560	-200.000	0.012	-0.084
-145.545	-200.000	-0.002	0.058
-144.531	800.000	-0.014	-0.041
-143.516	-133.634	-0.161	0.020
-142.502	24.144	0.241	-0.195
-141.487	401.829	-0.119	-0.246
-140.472	-56.917	0.083	0.036
-139.458	-132.448	0.164	-0.021
-138.443	-76.599	0.241	-0.083
-137.429	800.000	-0.048	-0.169
-136.414	56.633	-0.212	-0.202
-135.399	-157.110	0.267	0.016
-134.385	680.873	-0.106	-0.271
-133.370	107.067	-0.038	0.044
-132.356	-182.724	-0.179	-0.003
-131.341	109.319	0.277	0.325
-130.326	12.236	0.138	0.104
-129.312	17.405	0.143	-0.111
-128.297	21.863	-0.247	0.198
-127.283	-105.618	-0.211	-0.047
-126.268	105.098	-0.089	-0.102
-125.253	74.548	-0.305	-0.314
-124.239	130.573	0.101	-0.127
-123.224	-127.906	-0.155	-0.022
-122.210	-102.020	0.220	0.052
-121.195	209.027	0.099	-0.152
