DTS Sentinel unit serial number:	SN413079Multiplexer serial number:	ORYXHardware model number:	OX4-SRSoftware version number:	ORYX F/W v4.00 Oryx Data Collector v3.7.2.0data status	okinstallation	princeton_trtdifferential loss correction	single-endedforward channel	channel 2reverse channel	N/Adate	2019/09/18time	08:51:34forward acquisition time	60.00reverse acquisition time	0.00gamma	496.2192k internal	0.2339k external	0.2339temperature offset calibration	0.9983default loss term (dB/km)	0.3790temperature slope calibration	1.0000multiplexer offset coefficient	1.0000multiplexer slope coefficient	1.0000fibre end	0.00T internal ref (°C)	24.81T ext. ref 1 (°C)	0.23T ext. ref 2 (°C)	20.82length (m)	temperature (°C)	Stokes	anti-Stokes-747.200	-20.891	-0.173	0.106
-746.185	-69.972	-0.220	-0.084
-745.171	-2.356	0.271	0.191
-744.156	-200.000	-0.046	0.502
-743.142	-53.482	0.384	-0.176
-742.127	-134.519	-0.236	0.029
-741.112	193.596	0.128	0.194
-740.098	-142.405	-0.141	0.014
-739.083	413.380	-0.129	0.275
-738.069	26.444	0.191	0.160
-737.054	-81.525	-0.118	-0.039
-736.039	-93.473	-0.326	-0.091
-735.025	-156.202	0.259	-0.016
-734.010	-55.098	0.106	0.048
-732.996	-83.300	-0.448	-0.144
-731.981	800.000	-0.016	-0.067
-730.966	339.917	-0.064	0.126
-729.952	-200.000	0.019	0.217
-728.937	-105.231	0.099	-0.023
-727.923	-32.706	-0.050	-0.028
-726.908	800.000	0.067	-0.197
-725.894	7.400	0.190	-0.142
-724.879	-16.945	0.188	0.119
-723.864	-11.896	-0.219	-0.144
-722.850	800.000	0.013	-0.055
-721.835	44.129	0.058	0.054
-720.821	800.000	0.065	-0.226
-719.806	22.725	0.155	-0.127
-718.791	1.912	-0.284	-0.206
-717.777	137.245	0.149	0.195
-716.762	-91.164	0.206	-0.059
-715.748	-21.094	-0.109	0.067
-714.733	288.615	-0.099	-0.179
-713.718	501.840	-0.194	-0.448
-712.704	-68.263	-0.306	-0.119
-711.689	146.730	0.218	-0.293
-710.675	237.170	-0.092	0.152
-709.660	12.317	-0.173	0.133
-708.645	-98.219	-0.499	-0.128
-707.631	-155.746	0.269	0.017
-706.616	-200.000	0.023	0.130
-705.602	-200.000	-0.026	-0.195
-704.587	-125.668	0.345	-0.052
-703.572	7.841	0.154	-0.116
-702.558	50.574	-0.148	-0.140
-701.543	-200.000	-0.009	0.079
-700.529	233.161	-0.095	0.156
-699.514	-150.273	-0.048	-0.004
-698.499	800.000	-0.057	-0.223
-697.485	-3.778	-0.304	0.212
-696.470	-41.395	-0.106	0.055
-695.456	-44.379	0.103	-0.052
-694.441	12.293	-0.094	0.073
-693.426	453.777	0.165	0.365
-692.412	800.000	-0.015	-0.051
-691.397	285.800	-0.072	-0.130
-690.383	-176.573	-0.126	0.003
-689.368	12.965	-0.188	0.145
-688.354	184.852	-0.227	-0.337
-687.339	262.361	0.042	0.072
-686.324	34.361	-0.070	-0.061
-685.310	-107.324	-0.173	0.038
-684.295	800.000	0.065	-0.205
-683.281	-200.000	0.012	0.061
-682.266	149.565	-0.117	-0.159
-681.251	-200.000	0.043	0.209
-680.237	-4.116	0.230	-0.159
-679.222	800.000	0.147	-0.550
-678.208	244.743	-0.098	0.165
-677.193	-141.904	-0.280	-0.028
-676.178	800.000	-0.043	-0.164
-675.164	-14.742	-0.120	-0.077
-674.149	0.134	0.151	0.107
-673.135	800.000	-0.112	0.323
-672.120	800.000	-0.061	0.267
-671.105	-125.014	0.222	-0.034
-670.091	-62.158	0.115	0.048
-669.076	-1.223	0.237	-0.167
-668.062	77.045	0.278	0.295
-667.047	22.414	-0.304	-0.248
-666.032	-163.158	-0.247	-0.012
-665.018	-147.659	0.191	0.016
-664.003	-5.197	-0.148	0.102
-662.989	160.496	-0.213	-0.296
-661.974	160.174	-0.202	-0.282
-660.959	-66.784	-0.143	-0.056
-659.945	495.856	-0.026	-0.060
-658.930	-34.870	0.154	0.084
-657.916	-103.270	0.256	-0.061
-656.901	-87.593	-0.119	-0.036
-655.886	438.611	-0.181	-0.394
-654.872	-100.992	0.152	-0.037
-653.857	72.538	0.263	-0.274
-652.843	-0.956	-0.096	-0.068
-651.828	-200.000	-0.003	-0.128
-650.814	120.575	0.134	-0.167
-649.799	549.128	0.045	0.107
-648.784	-200.000	0.033	0.266
-647.770	-200.000	-0.021	-0.404
-646.755	444.498	-0.223	0.488
-645.741	-200.000	0.024	0.112
-644.726	184.779	-0.089	0.132
-643.711	98.389	-0.085	-0.097
-642.697	-165.247	-0.219	0.010
-641.682	-33.505	0.108	0.060
-640.668	-170.288	0.325	0.011
-639.653	-0.024	-0.261	0.186
-638.638	15.893	0.340	0.268
-637.624	-51.588	0.158	-0.073
-636.609	-41.874	0.452	0.232
-635.595	-36.165	-0.139	0.075
-634.580	104.315	-0.145	0.170
-633.565	-37.579	-0.158	0.084
-632.551	-59.898	0.195	0.083
-631.536	-27.280	0.305	0.177
-630.522	-6.019	-0.085	0.058
-629.507	-175.859	0.595	0.016
-628.492	-13.415	-0.395	-0.255
-627.478	179.264	-0.078	-0.113
-626.463	144.865	-0.058	0.078
-625.449	508.103	-0.022	-0.051
-624.434	659.781	-0.103	-0.266
-623.419	83.454	0.240	0.261
-622.405	-7.107	-0.169	0.114
-621.390	203.199	0.103	0.160
-620.376	-200.000	0.014	0.229
-619.361	-200.000	-0.033	0.261
-618.346	503.262	0.038	-0.088
-617.332	-108.503	-0.414	-0.089
-616.317	646.410	-0.058	-0.147
-615.303	-137.430	0.101	-0.011
-614.288	-200.000	0.045	0.204
-613.273	-159.601	0.536	-0.030
-612.259	-108.578	-0.205	-0.044
-611.244	74.958	0.285	0.299
-610.230	-57.863	-0.130	-0.057
-609.215	-25.635	-0.314	-0.185
-608.201	-22.753	0.017	0.010
-607.186	27.127	-0.166	-0.139
-606.171	301.585	-0.105	0.193
-605.157	-7.848	-0.373	0.251
-604.142	28.520	-0.081	0.069
-603.128	-31.697	-0.078	0.044
-602.113	664.740	-0.068	-0.174
-601.098	-56.677	-0.205	-0.090
-600.084	26.960	0.095	0.080
-599.069	800.000	0.118	-0.381
-598.055	17.695	-0.299	-0.237
-597.040	520.508	-0.103	-0.241
-596.025	-99.426	0.278	0.070
-595.011	358.885	-0.168	0.336
-593.996	23.820	-0.060	-0.049
-592.982	-200.000	-0.020	0.182
-591.967	-68.262	0.189	0.073
-590.952	-39.834	-0.083	-0.043
-589.938	242.638	-0.146	-0.243
-588.923	-200.000	0.020	-0.344
-587.909	66.321	-0.247	-0.251
-586.894	-93.562	-0.286	0.079
-585.879	451.763	0.199	0.439
-584.865	800.000	-0.106	-0.441
-583.850	800.000	-0.091	-0.262
-582.836	-75.674	0.312	0.110
-581.821	-117.877	-0.130	0.023
-580.806	-200.000	0.000	0.102
-579.792	-74.053	0.159	-0.058
-578.777	-200.000	0.009	-0.135
-577.763	506.005	-0.163	-0.375
-576.748	21.463	0.144	-0.117
-575.733	-181.396	0.310	-0.006
-574.719	4.567	-0.260	-0.190
-573.704	27.433	0.170	0.142
-572.690	23.501	0.290	-0.238
-571.675	89.602	0.186	-0.207
-570.661	-164.284	-0.259	-0.012
-569.646	-98.457	-0.080	0.020
-568.631	-200.000	-0.056	0.301
-567.617	-200.000	0.036	-0.222
-566.602	-200.000	0.026	0.287
-565.588	185.799	0.044	0.066
-564.573	276.473	0.166	-0.294
-563.558	-70.446	-0.229	-0.086
-562.544	-64.592	-0.276	0.112
-561.529	-77.731	0.353	-0.121
-560.515	-131.722	-0.286	-0.037
-559.500	-26.762	0.198	-0.115
-558.485	-123.495	-0.279	-0.044
-557.471	800.000	-0.104	-0.297
-556.456	-80.755	0.159	-0.053
-555.442	-200.000	0.191	-0.001
-554.427	234.711	-0.157	0.258
-553.412	-53.984	-0.137	-0.062
-552.398	-200.000	0.040	0.434
-551.383	76.833	-0.231	-0.244
-550.369	17.855	-0.057	0.045
-549.354	-109.839	-0.238	-0.050
-548.339	-48.784	0.083	-0.040
-547.325	-37.334	-0.160	0.085
-546.310	-200.000	-0.033	-0.387
-545.296	-200.000	0.019	-0.210
-544.281	158.039	-0.160	0.220
-543.266	-69.222	-0.202	-0.077
-542.252	56.790	0.230	-0.223
-541.237	-102.465	-0.055	0.013
-540.223	-187.797	0.284	0.004
-539.208	-129.437	-0.180	0.025
-538.193	424.382	0.034	-0.074
-537.179	-104.257	-0.272	-0.063
-536.164	406.670	0.267	0.561
-535.150	-119.189	-0.496	0.086
-534.135	327.032	-0.066	-0.125
-533.121	265.106	0.060	-0.104
-532.106	342.249	0.007	-0.013
-531.091	-52.120	-0.491	-0.227
-530.077	-200.000	0.044	-0.269
-529.062	-34.713	0.041	0.022
-528.048	-200.000	0.030	0.183
-527.033	3.605	0.084	0.061
-526.018	-166.874	-0.225	0.009
-525.004	4.960	0.138	-0.101
-523.989	508.311	0.054	-0.124
-522.975	-89.481	-0.298	-0.087
-521.960	800.000	-0.061	0.192
-520.945	-37.947	0.138	-0.073
-519.931	800.000	-0.102	0.346
-518.916	-171.998	-0.188	-0.006
-517.902	27.287	0.422	0.352
-516.887	454.154	0.020	0.044
-515.872	-90.879	-0.123	-0.035
-514.858	-99.167	0.117	0.029
-513.843	-8.184	0.160	-0.107
-512.829	-1.161	-0.067	-0.047
-511.814	26.493	0.055	0.046
-510.799	-122.870	-0.160	0.026
-509.785	132.818	-0.168	0.215
-508.770	-32.424	0.028	0.015
-507.756	-200.000	-0.002	0.178
-506.741	67.065	-0.058	-0.059
-505.726	70.608	0.179	0.184
-504.712	800.000	0.157	-0.482
-503.697	-73.011	-0.099	0.036
-502.683	-102.920	0.292	-0.069
-501.668	650.120	0.082	-0.209
-500.653	163.567	-0.124	-0.173
-499.639	-12.370	-0.156	-0.101
-498.624	-95.342	-0.233	0.062
-497.610	427.159	0.043	0.092
-496.595	25.533	0.293	0.242
-495.581	26.788	0.271	0.226
-494.566	-92.438	0.210	0.059
-493.551	-176.938	-0.190	-0.005
-492.537	269.937	0.081	0.142
-491.522	-200.000	-0.016	-0.144
-490.508	800.000	-0.016	0.051
-489.493	179.314	-0.184	0.267
-488.478	-10.485	0.131	-0.086
-487.464	300.768	-0.016	0.028
-486.449	258.420	-0.278	0.476
-485.435	178.535	-0.152	0.220
-484.420	-4.170	0.081	0.056
-483.405	-200.000	0.014	-0.113
-482.391	614.504	-0.026	0.065
-481.376	-200.000	0.000	0.120
-480.362	-200.000	0.053	-0.304
-479.347	800.000	0.043	-0.177
-478.332	-80.233	-0.052	-0.017
-477.318	-200.000	0.028	-0.423
-476.303	800.000	0.085	0.258
-475.289	551.183	-0.267	0.636
-474.274	-128.878	-0.124	-0.017
-473.259	217.713	0.167	0.264
-472.245	-175.138	0.075	-0.002
-471.230	107.893	-0.100	-0.119
-470.216	0.107	0.130	-0.092
-469.201	-48.961	-0.410	-0.195
-468.186	-73.680	-0.215	-0.078
-467.172	-167.830	-0.136	0.005
-466.157	-43.605	-0.045	0.023
-465.143	-200.000	0.021	0.510
-464.128	63.285	0.218	-0.216
-463.113	-127.017	0.288	0.042
-462.099	-200.000	0.014	0.076
-461.084	169.873	0.054	-0.076
-460.070	267.235	-0.010	-0.017
-459.055	51.197	-0.090	-0.085
-458.040	-200.000	-0.002	0.058
-457.026	-32.317	-0.161	0.089
-456.011	-200.000	0.013	-0.070
-454.997	61.479	-0.105	0.104
-453.982	-158.845	0.144	0.008
-452.968	-74.439	0.228	-0.081
-451.953	491.117	0.066	-0.151
-450.938	-200.000	-0.012	-0.066
-449.924	9.051	-0.034	-0.025
-448.909	749.471	-0.132	-0.352
-447.895	-200.000	-0.016	0.080
-446.880	-27.191	0.173	0.100
-445.865	342.512	-0.125	0.243
-444.851	45.271	0.128	-0.117
-443.836	-125.100	-0.456	-0.069
-442.822	534.862	-0.050	-0.118
-441.807	-98.546	-0.237	-0.060
-440.792	123.523	0.169	-0.210
-439.778	19.316	-0.126	0.100
-438.763	-152.151	-0.150	0.011
-437.749	-125.132	-0.137	0.021
-436.734	281.295	0.115	0.204
-435.719	5.247	-0.091	-0.067
-434.705	-200.000	-0.026	-0.341
-433.690	-69.450	0.117	-0.045
-432.676	22.669	0.090	0.073
-431.661	-162.714	-0.378	-0.018
-430.646	-87.099	-0.163	0.049
-429.632	-200.000	0.017	0.265
-428.617	-48.025	-0.097	-0.047
-427.603	800.000	-0.018	-0.071
-426.588	-71.166	0.294	-0.109
-425.573	683.217	0.097	-0.250
-424.559	-111.951	-0.209	-0.042
-423.544	-62.596	-0.192	0.079
-422.530	2.831	0.359	-0.258
-421.515	-81.781	0.145	0.047
-420.500	47.954	-0.138	0.128
-419.486	-47.468	0.156	-0.075
-418.471	-141.702	0.084	-0.008
-417.457	114.127	0.083	-0.100
-416.442	-7.917	0.154	0.103
-415.428	-200.000	-0.007	0.084
-414.413	16.045	0.131	0.102
-413.398	-200.000	0.022	-0.330
-412.384	-200.000	0.008	-0.206
-411.369	-154.732	0.185	-0.012
-410.355	-196.963	0.186	-0.001
-409.340	166.685	0.085	0.119
-408.325	144.600	-0.196	-0.259
-407.311	132.298	0.310	0.395
-406.296	19.844	-0.118	-0.094
-405.282	1.159	0.106	0.076
-404.267	-121.281	-0.353	-0.058
-403.252	-136.154	0.155	0.018
-402.238	-117.092	-0.159	0.029
-401.223	-92.084	0.148	0.042
-400.209	91.654	0.151	-0.168
-399.194	-76.342	-0.166	0.058
-398.179	800.000	-0.085	-0.285
-397.165	88.257	-0.157	0.173
-396.150	114.720	0.229	-0.276
-395.136	-200.000	0.065	0.303
-394.121	800.000	-0.053	0.203
-393.106	-122.585	-0.094	0.015
-392.092	-143.054	0.352	0.034
-391.077	-65.698	-0.702	0.278
-390.063	737.975	0.062	0.165
-389.048	76.195	0.309	0.323
-388.033	116.258	-0.246	-0.298
-387.019	363.259	-0.160	-0.318
-386.004	439.969	-0.069	-0.149
-384.990	800.000	-0.121	-0.455
-383.975	-200.000	-0.018	-0.167
-382.960	291.730	-0.043	-0.077
-381.946	-115.544	0.154	-0.029
-380.931	17.618	-0.175	0.138
-379.917	757.520	-0.079	-0.211
-378.902	124.575	0.160	-0.199
-377.888	438.949	-0.068	0.147
-376.873	-144.867	0.283	-0.026
-375.858	-71.571	0.047	0.017
-374.844	-75.600	0.253	0.089
-373.829	-37.713	0.227	0.120
-372.815	231.488	0.210	0.340
-371.800	-79.270	0.206	-0.069
-370.785	-117.111	-0.318	-0.057
-369.771	800.000	0.061	0.230
-368.756	141.899	-0.162	-0.212
-367.742	-122.622	0.096	-0.015
-366.727	-48.215	-0.251	-0.120
-365.712	-52.372	0.382	-0.175
-364.698	-61.135	-0.392	-0.163
-363.683	151.310	-0.047	-0.064
-362.669	84.090	-0.202	0.218
-361.654	-80.970	-0.305	0.100
-360.639	246.959	0.032	-0.054
-359.625	136.779	0.087	0.113
-358.610	-200.000	0.013	0.166
-357.596	43.846	-0.025	0.022
-356.581	368.694	0.066	0.132
-355.566	137.589	-0.101	0.130
-354.552	-110.292	0.475	-0.098
-353.537	219.069	-0.148	-0.233
-352.523	-136.304	-0.049	-0.006
-351.508	-200.000	-0.063	-0.324
-350.493	621.159	-0.091	-0.225
-349.479	48.551	0.191	-0.177
-348.464	-97.656	-0.208	0.053
-347.450	-128.945	-0.090	0.012
-346.435	-98.435	0.116	-0.029
-345.420	-200.000	-0.001	-0.143
-344.406	-166.127	0.036	0.001
-343.391	800.000	-0.051	-0.221
-342.377	800.000	-0.069	-0.193
-341.362	84.295	-0.154	-0.166
-340.348	800.000	0.037	0.146
-339.333	-200.000	-0.031	0.217
-338.318	-142.113	0.408	-0.040
-337.304	-78.000	-0.167	0.057
-336.289	-78.269	0.407	0.138
-335.275	22.150	-0.145	0.117
-334.260	52.363	0.135	0.127
-333.245	390.845	-0.082	0.167
-332.231	-200.000	0.020	0.121
-331.216	409.664	-0.071	0.149
-330.202	258.306	0.079	-0.134
-329.187	79.907	0.290	-0.307
-328.172	-200.000	0.020	0.089
-327.158	-200.000	-0.017	-0.171
-326.143	-69.049	0.098	-0.037
-325.129	677.490	-0.121	-0.311
-324.114	-35.007	-0.083	-0.045
-323.099	-25.343	0.203	-0.118
-322.085	800.000	-0.085	0.333
-321.070	-111.747	-0.249	0.050
-320.056	-131.897	0.284	0.037
-319.041	120.613	0.070	-0.086
-318.026	-84.855	-0.252	0.078
-317.012	179.220	-0.253	0.364
-315.997	-178.760	-0.435	0.010
-314.983	-124.575	0.210	-0.032
-313.968	224.339	-0.141	0.225
-312.953	-200.000	0.032	0.253
-311.939	800.000	-0.083	0.307
-310.924	761.918	0.099	0.266
-309.910	-33.286	0.448	0.245
-308.895	166.934	-0.158	0.221
-307.880	223.780	-0.116	-0.184
-306.866	800.000	0.025	-0.078
-305.851	1.802	-0.230	-0.164
-304.837	83.281	-0.249	0.267
-303.822	21.141	-0.279	-0.223
-302.807	-146.213	0.368	0.032
-301.793	-66.566	0.266	0.104
-300.778	-200.000	-0.021	0.165
-299.764	-64.638	0.448	0.179
-298.749	-124.740	0.329	0.050
-297.735	-105.404	0.209	0.047
-296.720	-200.000	-0.004	0.126
-295.705	800.000	0.046	0.154
-294.691	-35.196	-0.337	0.181
-293.676	-133.712	0.200	0.025
-292.662	-117.415	-0.107	0.019
-291.647	-200.000	0.033	-0.359
-290.632	95.983	-0.248	-0.280
-289.618	-200.000	-0.021	-0.224
-288.603	800.000	0.041	-0.132
-287.589	-73.991	-0.162	-0.058
-286.574	143.782	0.245	0.321
-285.559	106.389	-0.237	0.277
-284.545	540.769	0.040	0.093
-283.530	-13.103	0.085	-0.054
-282.516	-36.499	-0.119	-0.063
-281.501	-142.262	0.388	-0.038
-280.486	-200.000	0.048	0.450
-279.472	362.968	0.042	-0.082
-278.457	-170.767	-0.132	-0.004
-277.443	-200.000	-0.301	-0.001
-276.428	-200.000	-0.042	-0.189
-275.413	124.904	0.167	-0.207
-274.399	-111.509	-0.298	0.060
-273.384	-200.000	-0.003	-0.153
-272.370	-200.000	-0.000	-0.182
-271.355	800.000	-0.047	0.147
-270.340	690.369	-0.053	-0.137
-269.326	94.128	0.071	0.079
-268.311	-200.000	-0.001	0.145
-267.297	-118.932	0.311	-0.054
-266.282	244.846	-0.094	-0.155
-265.267	-75.821	0.151	0.053
-264.253	43.784	0.165	0.149
-263.238	800.000	-0.108	0.331
-262.224	-152.577	0.205	-0.014
-261.209	28.115	0.087	-0.072
-260.195	35.910	0.173	-0.149
-259.180	125.340	0.050	0.062
-258.165	-130.860	0.182	0.024
-257.151	-200.000	0.060	-0.299
-256.136	-200.000	-0.005	0.409
-255.122	-163.519	-0.089	-0.004
-254.107	-46.007	-0.352	0.171
-253.092	-200.000	0.045	0.325
-252.078	130.121	-0.077	-0.097
-251.063	-54.845	0.174	-0.077
-250.049	225.087	-0.143	0.228
-249.034	800.000	0.067	0.208
-248.019	390.002	-0.032	0.065
-247.005	-154.318	0.143	-0.009
-245.990	800.000	-0.047	-0.143
-244.976	151.974	0.158	0.212
-243.961	93.231	0.074	0.082
-242.946	-200.000	0.014	-0.126
-241.932	-200.000	0.019	-0.226
-240.917	133.108	-0.234	-0.298
-239.903	-94.138	0.177	-0.048
-238.888	-42.076	0.288	0.145
-237.873	800.000	0.081	0.252
-236.859	62.345	0.170	-0.167
-235.844	800.000	-0.061	-0.217
-234.830	-127.998	0.143	-0.020
-233.815	307.144	-0.118	-0.217
-232.800	30.846	0.041	0.035
-231.786	-17.870	0.268	0.165
-230.771	-95.205	-0.345	-0.091
-229.757	290.493	0.045	0.080
-228.742	-59.269	0.275	-0.117
-227.727	-123.551	0.359	0.056
-226.713	-48.624	-0.027	-0.013
-225.698	-76.824	0.112	-0.039
-224.684	-106.546	-0.181	-0.040
-223.669	23.664	0.145	-0.117
-222.655	-28.242	0.219	-0.124
-221.640	-200.000	-0.033	-0.314
-220.625	800.000	0.083	0.260
-219.611	800.000	-0.020	-0.060
-218.596	6.016	0.180	0.131
-217.582	-12.803	0.210	-0.135
-216.567	800.000	0.090	0.357
-215.552	-81.357	-0.176	0.057
-214.538	17.390	0.380	0.296
-213.523	-45.801	-0.135	0.066
-212.509	174.340	0.150	-0.214
-211.494	-111.056	0.165	0.033
-210.479	-200.000	0.014	0.231
-209.465	-94.825	-0.214	0.057
-208.450	-11.238	0.125	-0.081
-207.436	-87.172	-0.038	-0.011
-206.421	-200.000	0.008	0.088
-205.406	-200.000	0.006	0.389
-204.392	551.129	0.105	-0.248
-203.377	-36.082	0.362	0.192
-202.363	-200.000	-0.015	-0.250
-201.348	3.415	0.275	0.197
-200.333	-179.953	0.178	0.004
-199.319	-144.351	-0.198	0.018
-198.304	-200.000	-0.000	-0.094
-197.290	-200.000	-0.057	-0.254
-196.275	-181.474	-0.540	-0.010
-195.260	-107.582	0.289	-0.062
-194.246	330.047	-0.043	-0.081
-193.231	-89.704	-0.021	-0.006
-192.217	-200.000	-0.022	-0.126
-191.202	109.168	-0.224	-0.263
-190.187	-79.928	0.170	-0.056
-189.173	800.000	-0.049	-0.167
-188.158	-149.225	-0.089	-0.007
-187.144	169.161	-0.061	0.086
-186.129	74.769	0.316	-0.327
-185.114	730.031	0.132	-0.345
-184.100	-66.039	0.066	0.026
-183.085	-200.000	-0.006	-0.034
-182.071	800.000	-0.089	0.292
-181.056	457.611	-0.084	0.184
-180.042	-200.000	-0.018	-0.312
-179.027	432.213	-0.016	-0.034
-178.012	-200.000	-0.028	-0.286
-176.998	-200.000	0.025	-0.245
-175.983	800.000	-0.068	0.255
-174.969	-200.000	-0.046	0.314
-173.954	179.255	0.182	0.262
-172.939	800.000	-0.026	-0.110
-171.925	61.221	0.081	-0.079
-170.910	-158.073	0.095	-0.005
-169.896	-51.135	-0.215	-0.099
-168.881	-145.175	-0.387	-0.034
-167.866	83.200	-0.220	0.235
-166.852	-23.300	-0.030	0.018
-165.837	-55.102	0.027	-0.012
-164.823	578.160	0.083	-0.200
-163.808	-48.692	-0.323	0.152
-162.793	104.995	-0.029	-0.033
-161.779	150.290	-0.064	0.085
-160.764	35.474	0.239	-0.206
-159.750	800.000	-0.073	0.273
-158.735	57.463	0.332	0.318
-157.720	-112.343	-0.216	0.042
-156.706	800.000	-0.085	-0.302
-155.691	447.788	0.101	-0.219
-154.677	-200.000	0.023	-0.169
-153.662	108.027	0.237	-0.277
-152.647	-190.511	-0.309	-0.003
-151.633	-0.349	-0.282	-0.197
-150.618	111.956	0.152	0.179
-149.604	89.661	0.035	0.038
-148.589	-200.000	-0.002	-0.273
-147.574	-31.586	0.117	-0.065
-146.560	-66.830	-0.300	0.116
-145.545	36.806	0.160	-0.139
-144.531	247.362	-0.134	0.222
-143.516	417.797	0.116	-0.243
-142.502	-53.678	-0.206	0.092
-141.487	-200.000	0.045	0.201
-140.472	800.000	-0.034	0.135
-139.458	117.667	0.076	0.091
-138.443	166.532	0.105	-0.145
-137.429	-170.197	-0.189	0.007
-136.414	368.974	-0.019	-0.038
-135.399	133.262	-0.214	-0.271
-134.385	100.264	-0.133	-0.151
-133.370	11.807	-0.319	0.240
-132.356	-107.220	0.125	-0.027
-131.341	135.324	0.103	0.131
-130.326	-107.450	0.275	0.059
-129.312	48.382	0.130	0.119
-128.297	69.454	0.220	0.222
-127.283	243.688	0.099	0.163
-126.268	-86.039	0.059	-0.018
-125.253	-200.000	-0.006	0.316
-124.239	-145.541	0.238	-0.021
-123.224	-145.221	0.254	-0.023
-122.210	-194.102	-0.148	-0.001
