DTS Sentinel unit serial number:	SN413079Multiplexer serial number:	ORYXHardware model number:	OX4-SRSoftware version number:	ORYX F/W v4.00 Oryx Data Collector v3.7.2.0data status	okinstallation	princeton_trtdifferential loss correction	single-endedforward channel	channel 2reverse channel	N/Adate	2019/09/16time	15:43:35forward acquisition time	60.00reverse acquisition time	0.00gamma	496.2192k internal	0.2298k external	0.2298temperature offset calibration	0.9937default loss term (dB/km)	0.3790temperature slope calibration	1.0000multiplexer offset coefficient	1.0000multiplexer slope coefficient	1.0000fibre end	0.00T internal ref (°C)	41.17T ext. ref 1 (°C)	14.77T ext. ref 2 (°C)	36.44length (m)	temperature (°C)	Stokes	anti-Stokes-747.200	80.031	-0.057	0.063
-746.185	-91.671	0.148	-0.043
-745.171	-19.480	-0.066	-0.042
-744.156	124.687	0.057	-0.073
-743.142	-154.623	0.155	0.011
-742.127	243.666	-0.249	0.427
-741.112	-200.000	-0.004	0.344
-740.098	567.566	-0.124	0.307
-739.083	81.934	0.153	0.169
-738.069	-200.000	-0.015	0.190
-737.054	164.422	0.058	0.084
-736.039	239.312	-0.154	-0.261
-735.025	800.000	0.031	-0.139
-734.010	-106.641	-0.386	0.088
-732.996	17.067	0.039	-0.032
-731.981	123.567	0.051	0.065
-730.966	-83.590	-0.420	-0.137
-729.952	-47.095	0.117	-0.058
-728.937	28.345	0.124	-0.107
-727.923	88.073	-0.122	0.138
-726.908	800.000	-0.028	0.105
-725.894	-88.555	0.178	0.054
-724.879	30.187	-0.176	0.153
-723.864	800.000	0.053	-0.194
-722.850	-56.243	0.175	-0.079
-721.835	457.224	0.145	-0.329
-720.821	-53.589	-0.183	0.085
-719.806	30.151	0.080	-0.070
-718.791	-200.000	-0.002	0.105
-717.777	295.933	0.115	-0.215
-716.762	67.397	-0.166	-0.173
-715.748	-200.000	-0.005	0.104
-714.733	-85.523	-0.194	-0.062
-713.718	87.387	-0.112	-0.127
-712.704	70.169	0.224	0.236
-711.689	23.427	0.188	0.157
-710.675	-123.621	0.201	-0.032
-709.660	-68.279	-0.386	-0.153
-708.645	109.946	-0.139	-0.169
-707.631	-46.792	0.211	-0.105
-706.616	800.000	-0.006	-0.025
-705.602	-34.234	0.145	-0.081
-704.587	-200.000	-0.002	-0.131
-703.572	52.657	0.152	-0.148
-702.558	174.545	0.202	0.298
-701.543	43.259	-0.041	-0.038
-700.529	34.646	0.315	-0.281
-699.514	66.329	0.330	-0.341
-698.499	6.365	0.266	-0.201
-697.485	50.984	0.052	0.050
-696.470	0.974	-0.142	0.104
-695.456	800.000	0.088	0.322
-694.441	28.843	0.110	0.095
-693.426	33.730	-0.029	0.025
-692.412	525.789	0.060	-0.143
-691.397	800.000	0.087	-0.299
-690.383	47.287	0.151	0.143
-689.368	45.514	-0.244	0.229
-688.354	725.308	-0.025	0.067
-687.339	349.014	0.126	-0.252
-686.324	-108.890	0.216	-0.047
-685.310	429.648	-0.031	-0.068
-684.295	-200.000	-0.011	-0.072
-683.281	168.431	-0.177	0.256
-682.266	800.000	0.140	-0.419
-681.251	-103.782	-0.274	-0.065
-680.237	800.000	0.049	-0.214
-679.222	-200.000	0.079	-0.373
-678.208	-200.000	-0.043	-0.417
-677.193	-65.122	-0.108	0.044
-676.178	-200.000	0.006	-0.110
-675.164	-91.272	-0.093	-0.027
-674.149	-81.680	-0.058	0.019
-673.135	171.194	-0.194	-0.283
-672.120	-169.025	-0.266	0.010
-671.105	-35.936	-0.435	0.239
-670.091	-46.572	-0.141	-0.070
-669.076	800.000	0.054	0.190
-668.062	-107.790	0.208	-0.046
-667.047	-137.317	0.155	-0.018
-666.032	13.923	-0.268	-0.212
-665.018	-121.514	0.176	0.030
-664.003	-200.000	0.010	0.546
-662.989	-71.799	-0.181	-0.069
-661.974	-200.000	-0.010	0.313
-660.959	-200.000	-0.042	0.256
-659.945	88.355	0.046	-0.052
-658.930	188.155	-0.049	-0.074
-657.916	70.215	-0.265	0.279
-656.901	800.000	-0.042	0.154
-655.886	-150.896	0.248	-0.019
-654.872	-97.432	0.026	-0.007
-653.857	176.190	0.248	-0.366
-652.843	-80.017	0.063	0.022
-651.828	23.758	0.257	0.215
-650.814	23.450	-0.191	-0.160
-649.799	-200.000	-0.068	-0.339
-648.784	458.456	-0.147	0.332
-647.770	-117.905	-0.390	0.071
-646.755	-3.276	0.148	-0.105
-645.741	-113.255	0.283	0.057
-644.726	-71.299	-0.122	-0.046
-643.711	623.831	0.035	0.089
-642.697	-200.000	0.010	0.238
-641.682	-126.422	-0.205	0.031
-640.668	96.987	0.163	0.190
-639.653	-55.487	-0.291	-0.133
-638.638	-117.950	-0.283	-0.052
-637.624	-99.229	-0.348	0.089
-636.609	441.712	-0.116	-0.259
-635.595	-148.769	0.299	0.025
-634.580	-200.000	0.013	-0.159
-633.565	171.781	-0.120	-0.175
-632.551	3.875	0.202	-0.150
-631.536	103.474	0.235	0.280
-630.522	800.000	0.073	-0.324
-629.507	-200.000	0.003	0.274
-628.492	474.982	0.044	-0.100
-627.478	-200.000	-0.111	-0.528
-626.463	352.463	0.153	-0.307
-625.449	-200.000	0.034	-0.321
-624.434	-127.722	-0.133	-0.019
-623.419	-200.000	-0.049	-0.255
-622.405	127.187	-0.228	-0.294
-621.390	5.505	0.188	0.141
-620.376	117.363	0.086	0.108
-619.361	-83.808	-0.175	-0.057
-618.346	62.581	-0.207	0.210
-617.332	-103.677	-0.056	0.013
-616.317	-80.903	0.046	0.015
-615.303	-65.368	-0.287	-0.117
-614.288	27.183	-0.152	0.130
-613.273	401.517	-0.015	0.031
-612.259	-156.255	0.278	0.018
-611.244	203.153	-0.148	-0.232
-610.230	-54.064	0.065	0.030
-609.215	102.287	0.245	-0.291
-608.201	154.087	-0.049	-0.069
-607.186	-200.000	0.033	-0.238
-606.171	-9.736	-0.310	0.209
-605.157	-1.903	-0.106	-0.076
-604.142	-200.000	-0.010	0.198
-603.128	-90.448	-0.018	-0.005
-602.113	-79.670	0.161	-0.055
-601.098	-158.412	0.149	0.009
-600.084	-96.893	-0.220	0.059
-599.069	-200.000	-0.029	0.221
-598.055	800.000	0.185	-0.528
-597.040	-28.374	0.352	0.206
-596.025	800.000	0.029	-0.118
-595.011	-0.167	0.237	-0.171
-593.996	-22.917	0.124	0.076
-592.982	-200.000	-0.001	-0.193
-591.967	-92.692	-0.089	0.025
-590.952	-200.000	-0.048	0.405
-589.938	-34.628	0.305	0.169
-588.923	253.234	0.020	0.034
-587.909	358.376	0.111	-0.225
-586.894	-200.000	-0.003	0.089
-585.879	-200.000	0.040	0.304
-584.865	-143.384	0.264	0.026
-583.850	157.874	0.031	-0.044
-582.836	-200.000	0.010	0.111
-581.821	-200.000	-0.018	0.143
-580.806	800.000	-0.041	-0.138
-579.792	-161.678	-0.319	-0.017
-578.777	62.816	0.228	-0.231
-577.763	-41.684	-0.076	-0.040
-576.748	-6.358	-0.417	-0.289
-575.733	-4.623	-0.019	0.013
-574.719	94.076	0.237	-0.273
-573.704	-200.000	-0.014	0.373
-572.690	800.000	0.039	0.136
-571.675	354.972	-0.114	-0.230
-570.661	339.131	-0.145	-0.286
-569.646	39.208	-0.196	-0.178
-568.631	-200.000	0.029	-0.271
-567.617	546.255	-0.111	0.268
-566.602	-66.973	-0.231	0.092
-565.588	87.153	0.073	-0.081
-564.573	556.814	0.137	-0.336
-563.558	118.388	-0.099	-0.124
-562.544	11.042	-0.321	0.249
-561.529	-76.305	0.159	0.057
-560.515	-111.573	0.080	-0.016
-559.500	535.733	0.126	0.302
-558.485	-97.125	-0.142	0.038
-557.471	54.293	0.096	0.094
-556.456	-12.208	0.113	0.075
-555.442	-176.707	0.157	-0.004
-554.427	-200.000	-0.018	-0.141
-553.412	-105.879	-0.188	-0.043
-552.398	145.459	0.086	0.117
-551.383	126.005	0.218	-0.280
-550.369	-43.661	-0.088	0.045
-549.354	227.568	0.086	-0.141
-548.339	800.000	0.092	0.341
-547.325	-74.380	-0.040	-0.014
-546.310	18.021	-0.059	0.047
-545.296	172.314	-0.083	-0.122
-544.281	-21.869	-0.152	-0.094
-543.266	-200.000	-0.004	-0.194
-542.252	-50.948	0.168	0.080
-541.237	-200.000	-0.014	-0.330
-540.223	-200.000	-0.049	-0.243
-539.208	-200.000	0.082	-0.401
-538.193	-176.343	-0.427	-0.011
-537.179	800.000	0.007	-0.027
-536.164	-200.000	-0.004	-0.137
-535.150	-200.000	-0.007	0.079
-534.135	800.000	-0.140	0.480
-533.121	-121.615	0.367	0.062
-532.106	22.953	0.142	0.118
-531.091	-4.895	-0.137	0.096
-530.077	-172.328	-0.279	-0.009
-529.062	75.233	0.101	-0.108
-528.048	-96.863	0.194	0.051
-527.033	259.855	-0.096	0.168
-526.018	313.506	0.108	0.206
-525.004	136.267	-0.102	0.135
-523.989	800.000	0.043	-0.175
-522.975	120.366	0.166	0.209
-521.960	225.928	0.150	-0.246
-520.945	-96.768	0.147	0.039
-519.931	93.790	0.232	-0.266
-518.916	70.080	0.298	-0.311
-517.902	297.778	-0.077	0.142
-516.887	324.528	-0.170	0.329
-515.872	170.642	-0.237	0.344
-514.858	-200.000	-0.056	-0.338
-513.843	143.150	-0.269	-0.362
-512.829	-200.000	0.303	0.000
-511.814	800.000	0.068	-0.270
-510.799	-124.869	-0.372	0.058
-509.785	-112.815	0.053	0.011
-508.770	800.000	-0.007	-0.023
-507.756	-200.000	0.036	0.355
-506.741	84.886	-0.117	0.129
-505.726	-200.000	0.002	-0.045
-504.712	-26.635	0.347	0.206
-503.697	800.000	0.038	-0.155
-502.683	254.032	-0.088	0.152
-501.668	-69.807	0.011	0.004
-500.653	119.354	0.009	-0.011
-499.639	-200.000	-0.050	0.233
-498.624	16.884	0.258	0.206
-497.610	800.000	0.064	0.247
-496.595	49.588	0.145	0.138
-495.581	-88.785	0.292	0.088
-494.566	43.761	-0.135	0.125
-493.551	-104.474	0.202	-0.047
-492.537	-200.000	0.039	0.179
-491.522	-141.208	0.109	-0.011
-490.508	-113.223	-0.270	0.054
-489.493	433.390	0.146	0.319
-488.478	-35.993	0.342	0.187
-487.464	-120.497	0.079	-0.014
-486.449	-162.057	0.229	-0.012
-485.435	121.021	0.119	0.150
-484.420	-40.621	0.163	0.085
-483.405	-61.603	-0.111	0.047
-482.391	416.146	0.017	0.036
-481.376	-117.119	-0.264	-0.049
-480.362	175.526	0.016	-0.023
-479.347	-69.307	0.061	-0.024
-478.332	-200.000	0.002	0.211
-477.318	24.393	0.221	0.184
-476.303	-113.912	0.346	0.068
-475.289	-200.000	0.006	-0.159
-474.274	-85.300	0.253	-0.080
-473.259	-90.010	0.017	0.005
-472.245	-58.818	-0.370	0.162
-471.230	800.000	0.051	-0.209
-470.216	-200.000	0.002	-0.308
-469.201	52.932	0.202	0.195
-468.186	-116.726	0.184	0.034
-467.172	-200.000	0.042	0.206
-466.157	-96.982	-0.344	-0.091
-465.143	-61.697	-0.095	0.040
-464.128	-200.000	-0.040	-0.191
-463.113	54.900	0.125	0.121
-462.099	-125.963	0.249	-0.038
-461.084	-200.000	-0.018	0.272
-460.070	-158.577	0.434	-0.025
-459.055	-101.820	0.387	0.095
-458.040	56.448	0.230	0.226
-457.026	-151.736	-0.294	0.022
-456.011	94.677	-0.168	0.193
-454.997	61.112	0.118	0.119
-453.982	-65.667	-0.267	0.108
-452.968	-169.729	-0.325	-0.012
-451.953	78.693	-0.309	-0.334
-450.938	800.000	-0.080	0.242
-449.924	-200.000	0.005	0.056
-448.909	-41.080	-0.189	0.098
-447.895	-125.517	0.130	-0.020
-446.880	433.171	-0.108	-0.236
-445.865	472.745	0.109	0.248
-444.851	-200.000	-0.007	0.075
-443.836	31.037	-0.063	-0.054
-442.822	391.697	0.047	0.098
-441.807	800.000	-0.046	0.186
-440.792	800.000	-0.063	0.240
-439.778	12.516	-0.187	-0.146
-438.763	-133.343	0.243	0.031
-437.749	800.000	-0.077	0.223
-436.734	458.788	0.081	-0.182
-435.719	-44.048	-0.218	-0.111
-434.705	-13.676	-0.116	0.076
-433.690	679.236	-0.047	0.123
-432.676	-49.077	-0.331	0.160
-431.661	339.615	-0.202	-0.397
-430.646	-200.000	0.015	-0.170
-429.632	189.735	0.039	-0.059
-428.617	-8.489	0.267	0.181
-427.603	340.073	-0.127	0.249
-426.588	104.017	0.116	-0.138
-425.573	-200.000	-0.015	0.084
-424.559	-12.874	0.374	-0.246
-423.544	-49.248	-0.234	0.113
-422.530	52.301	0.197	0.190
-421.515	-27.577	-0.143	-0.084
-420.500	308.027	0.133	-0.249
-419.486	-122.914	0.190	-0.031
-418.471	646.942	0.056	0.145
-417.457	0.969	0.087	-0.063
-416.442	-6.394	0.263	0.181
-415.428	-200.000	0.040	-0.290
-414.413	-200.000	-0.018	-0.212
-413.398	-11.004	0.099	0.066
-412.384	-135.713	-0.512	-0.061
-411.369	-56.862	-0.260	0.116
-410.355	800.000	-0.110	-0.316
-409.340	129.603	-0.165	0.212
-408.325	-98.203	-0.365	-0.095
-407.311	-25.289	-0.111	-0.066
-406.296	-101.535	0.095	-0.023
-405.282	12.642	-0.231	0.180
-404.267	-200.000	-0.012	0.506
-403.252	226.726	-0.128	0.209
-402.238	-200.000	0.049	0.493
-401.223	245.297	-0.170	-0.288
-400.209	483.039	-0.137	0.315
-399.194	-200.000	0.016	0.138
-398.179	46.207	0.134	-0.125
-397.165	95.921	0.311	-0.358
-396.150	123.362	-0.091	-0.114
-395.136	-141.655	-0.080	0.008
-394.121	160.082	-0.229	-0.322
-393.106	-55.225	-0.189	-0.085
-392.092	99.186	0.070	-0.082
-391.077	-111.703	-0.091	0.018
-390.063	800.000	-0.098	-0.336
-389.048	800.000	0.041	-0.118
-388.033	-116.617	0.203	0.038
-387.019	-41.976	-0.202	-0.104
-386.004	-77.628	-0.224	0.078
-384.990	110.299	-0.287	0.347
-383.975	800.000	0.044	-0.184
-382.960	-24.237	0.126	-0.075
-381.946	-200.000	-0.006	-0.028
-380.931	43.222	-0.267	-0.245
-379.917	-37.492	-0.186	0.100
-378.902	-136.492	-0.277	-0.032
-377.888	245.522	-0.163	0.275
-376.873	314.812	0.186	-0.352
-375.858	-200.000	-0.027	-0.187
-374.844	-200.000	-0.048	-0.250
-373.829	33.745	0.299	0.262
-372.815	-99.310	-0.046	0.012
-371.800	119.787	-0.137	-0.171
-370.785	679.357	-0.060	0.157
-369.771	-128.343	-0.207	0.030
-368.756	354.687	0.143	-0.286
-367.742	-8.366	-0.178	0.120
-366.727	287.981	0.172	-0.313
-365.712	-16.110	0.214	-0.137
-364.698	-148.319	0.223	0.018
-363.683	-200.000	-0.013	0.346
-362.669	-200.000	0.031	0.212
-361.654	-94.579	-0.232	-0.063
-360.639	800.000	-0.107	-0.403
-359.625	-154.209	-0.166	0.011
-358.610	-15.630	-0.187	-0.120
-357.596	800.000	0.065	0.205
-356.581	-200.000	0.049	0.224
-355.566	-121.842	0.225	0.037
-354.552	626.236	0.047	-0.119
-353.537	-120.058	-0.162	-0.028
-352.523	-181.436	0.177	-0.003
-351.508	-44.127	-0.208	0.105
-350.493	-74.507	0.101	0.037
-349.479	139.165	0.143	0.189
-348.464	463.567	-0.104	-0.233
-347.450	-12.418	0.099	-0.065
-346.435	800.000	0.042	-0.136
-345.420	-49.138	0.138	0.066
-344.406	-88.682	0.081	-0.024
-343.391	-26.501	0.364	-0.214
-342.377	-62.265	-0.369	-0.154
-341.362	800.000	0.081	0.252
-340.348	180.870	-0.114	0.169
-339.333	201.774	-0.143	-0.221
-338.318	103.473	0.123	-0.145
-337.304	-69.869	0.327	-0.125
-336.289	6.625	-0.208	-0.155
-335.275	-8.799	-0.146	0.098
-334.260	188.548	0.192	-0.289
-333.245	46.969	-0.300	-0.281
-332.231	-200.000	0.013	-0.149
-331.216	27.168	-0.107	-0.090
-330.202	-107.462	0.400	0.088
-329.187	52.349	0.073	-0.070
-328.172	347.491	0.085	-0.168
-327.158	-191.211	0.059	0.001
-326.143	-82.439	-0.380	-0.124
-325.129	-200.000	0.021	0.256
-324.114	33.635	0.360	0.314
-323.099	-73.498	0.104	0.038
-322.085	-65.416	-0.470	-0.190
-321.070	-76.573	-0.207	-0.073
-320.056	800.000	-0.056	-0.224
-319.041	800.000	-0.060	0.176
-318.026	14.137	0.146	-0.114
-317.012	-77.942	0.097	-0.033
-315.997	-200.000	-0.006	-0.051
-314.983	279.012	-0.069	-0.124
-313.968	769.303	-0.142	0.387
-312.953	-57.675	-0.102	0.045
-311.939	-124.249	-0.089	-0.014
-310.924	-184.473	-0.174	0.003
-309.910	-84.667	0.077	0.024
-308.895	-200.000	0.019	-0.105
-307.880	-200.000	0.029	0.183
-306.866	71.558	-0.230	-0.240
-305.851	-50.551	0.109	-0.052
-304.837	-110.532	0.173	0.036
-303.822	525.141	-0.159	0.376
-302.807	-87.964	-0.225	-0.068
-301.793	-200.000	0.040	-0.186
-300.778	-200.000	-0.010	-0.395
-299.764	800.000	-0.081	0.261
-298.749	138.104	0.066	-0.086
-297.735	-200.000	0.017	-0.080
-296.720	-200.000	0.007	-0.104
-295.705	9.016	-0.051	0.038
-294.691	-200.000	0.009	0.369
-293.676	-200.000	0.009	0.218
-292.662	5.967	-0.116	0.086
-291.647	800.000	0.088	0.333
-290.632	800.000	0.050	-0.167
-289.618	769.815	0.054	0.148
-288.603	-200.000	-0.013	0.307
-287.589	41.006	-0.182	0.164
-286.574	800.000	0.067	0.211
-285.559	35.836	0.372	-0.328
-284.545	-20.119	-0.077	-0.047
-283.530	800.000	0.056	-0.168
-282.516	800.000	-0.044	-0.191
-281.501	354.970	0.165	0.329
-280.486	-28.765	0.336	0.194
-279.472	278.384	-0.178	-0.318
-278.457	-200.000	-0.066	-0.347
-277.443	207.015	-0.163	-0.255
-276.428	-5.256	0.280	-0.193
-275.413	503.413	0.048	-0.111
-274.399	-200.000	-0.030	0.170
-273.384	-140.548	-0.212	0.022
-272.370	-64.337	0.191	-0.078
-271.355	-200.000	0.032	0.208
-270.340	-75.822	-0.071	-0.025
-269.326	-9.389	0.071	-0.047
-268.311	-4.518	0.164	-0.114
-267.297	-200.000	-0.039	0.259
-266.282	357.527	-0.122	-0.244
-265.267	-82.431	0.217	0.071
-264.253	800.000	0.096	-0.276
-263.238	800.000	-0.047	-0.204
-262.224	-37.480	-0.103	0.055
-261.209	107.239	0.280	0.333
-260.195	276.214	-0.094	0.167
-259.180	159.376	-0.073	-0.101
-258.165	-113.148	-0.194	0.038
-257.151	38.818	-0.116	0.104
-256.136	800.000	-0.075	0.242
-255.122	-200.000	0.023	-0.250
-254.107	-137.119	-0.424	0.049
-253.092	-74.627	0.443	-0.160
-252.078	-37.551	0.318	-0.170
-251.063	17.521	0.164	-0.131
-250.049	-86.214	-0.034	0.011
-249.034	661.978	-0.100	-0.258
-248.019	8.958	0.096	-0.073
-247.005	-48.575	0.192	0.093
-245.990	-200.000	0.010	-0.074
-244.976	153.234	-0.239	0.327
-243.961	239.456	0.111	0.185
-242.946	68.237	-0.077	0.079
-241.932	-147.386	0.177	0.015
-240.917	-137.890	0.335	-0.037
-239.903	-70.105	-0.316	0.120
-238.888	360.768	-0.181	-0.362
-237.873	786.305	-0.126	-0.346
-236.859	79.022	0.162	-0.173
-235.844	-200.000	0.014	-0.085
-234.830	-50.787	-0.246	0.116
-233.815	484.167	0.146	0.333
-232.800	-84.106	0.274	-0.087
-231.786	-103.169	0.036	0.008
-230.771	331.249	-0.039	-0.075
-229.757	-37.575	-0.196	-0.105
-228.742	-200.000	0.000	0.069
-227.727	-200.000	0.003	0.251
-226.713	54.992	0.057	-0.055
-225.698	-200.000	0.037	0.219
-224.684	-102.322	0.230	0.055
-223.669	56.578	0.151	-0.147
-222.655	-51.443	0.087	0.041
-221.640	800.000	-0.054	-0.157
-220.625	4.583	-0.309	0.227
-219.611	-200.000	0.004	0.028
-218.596	615.513	-0.084	0.210
-217.582	-200.000	0.007	0.162
-216.567	55.943	0.084	-0.081
-215.552	-52.831	-0.066	-0.030
-214.538	-56.928	0.212	0.094
-213.523	11.647	-0.124	0.095
-212.509	349.726	-0.014	0.029
-211.494	480.610	-0.087	-0.198
-210.479	-22.166	-0.170	0.103
-209.465	60.272	-0.124	0.123
-208.450	199.665	0.150	0.231
-207.436	-200.000	-0.003	-0.145
-206.421	-7.139	-0.340	-0.231
-205.406	241.783	0.067	-0.111
-204.392	-200.000	-0.042	0.303
-203.377	-138.557	-0.272	0.030
-202.363	800.000	-0.059	0.193
-201.348	20.524	0.126	-0.102
-200.333	-41.417	0.245	0.126
-199.319	-0.647	0.242	-0.172
-198.304	234.258	-0.190	0.313
-197.290	63.780	-0.142	0.142
-196.275	-5.975	-0.243	0.166
-195.260	800.000	0.147	0.441
-194.246	-35.226	0.247	0.134
-193.231	12.405	-0.065	0.050
-192.217	-200.000	-0.023	-0.540
-191.202	-91.734	-0.193	0.055
-190.187	247.408	-0.148	0.250
-189.173	130.478	-0.153	0.196
-188.158	-200.000	-0.003	-0.050
-187.144	138.562	-0.108	-0.141
-186.129	800.000	-0.031	0.091
-185.114	17.401	0.225	-0.179
-184.100	-200.000	-0.036	-0.199
-183.085	-200.000	0.042	-0.344
-182.071	-32.069	-0.303	-0.169
-181.056	314.522	0.116	0.219
-180.042	-22.609	0.214	0.129
-179.027	-75.829	0.304	0.108
-178.012	9.637	-0.103	-0.078
-176.998	62.329	0.189	0.188
-175.983	-200.000	0.037	0.210
-174.969	-200.000	0.019	0.156
-173.954	126.538	0.105	0.132
-172.939	-150.313	0.148	-0.011
-171.925	50.982	-0.242	-0.229
-170.910	157.735	0.211	-0.292
-169.896	-107.515	0.118	0.026
-168.881	108.881	0.087	-0.104
-167.866	-99.349	0.198	0.050
-166.852	-125.587	0.250	0.038
-165.837	-200.000	-0.001	0.062
-164.823	100.917	0.117	-0.136
-163.808	-112.712	-0.222	-0.044
-162.793	363.920	-0.025	0.050
-161.779	-200.000	0.025	0.336
-160.764	4.024	0.215	-0.157
-159.750	562.985	0.069	-0.167
-158.735	284.446	-0.033	-0.060
-157.720	-16.947	0.062	-0.039
-156.706	-200.000	-0.027	0.264
-155.691	154.994	0.120	0.165
-154.677	-39.829	-0.358	0.187
-153.662	26.391	-0.114	-0.095
-152.647	137.225	0.123	-0.160
-151.633	-63.626	0.284	0.116
-150.618	-120.682	0.513	0.086
-149.604	581.202	0.117	0.285
-148.589	373.472	-0.114	-0.231
-147.574	625.131	0.022	-0.056
-146.560	142.718	0.112	-0.149
-145.545	-129.413	0.134	-0.019
-144.531	-8.049	0.179	-0.121
-143.516	691.869	-0.086	-0.225
-142.502	800.000	-0.056	-0.198
-141.487	-0.091	-0.081	0.058
-140.472	24.751	0.398	0.328
-139.458	32.423	-0.180	-0.155
-138.443	-162.209	0.107	-0.005
-137.429	-68.202	0.250	0.097
-136.414	-200.000	-0.084	0.389
-135.399	-200.000	-0.072	0.435
-134.385	-69.441	0.286	-0.109
-133.370	-200.000	-0.035	0.408
-132.356	-117.608	-0.082	0.015
-131.341	683.078	-0.168	-0.436
-130.326	-147.248	0.102	0.009
-129.312	-155.997	0.334	-0.021
-128.297	-153.765	-0.169	0.012
-127.283	800.000	0.048	0.188
-126.268	650.455	-0.092	-0.234
-125.253	-200.000	-0.014	0.131
-124.239	-88.226	0.234	0.070
-123.224	245.713	0.119	-0.199
-122.210	163.568	0.035	0.049
-121.195	-200.000	-0.007	-0.059
-120.180	21.539	-0.146	0.118
