DTS Sentinel unit serial number:	SN413079Multiplexer serial number:	ORYXHardware model number:	OX4-SRSoftware version number:	ORYX F/W v4.00 Oryx Data Collector v3.7.2.0data status	okinstallation	princeton_trtdifferential loss correction	single-endedforward channel	channel 2reverse channel	N/Adate	2019/09/17time	03:39:35forward acquisition time	60.00reverse acquisition time	0.00gamma	496.2192k internal	0.2326k external	0.2326temperature offset calibration	0.9974default loss term (dB/km)	0.3790temperature slope calibration	1.0000multiplexer offset coefficient	1.0000multiplexer slope coefficient	1.0000fibre end	0.00T internal ref (°C)	30.00T ext. ref 1 (°C)	0.13T ext. ref 2 (°C)	24.50length (m)	temperature (°C)	Stokes	anti-Stokes-747.200	404.463	-0.048	-0.102
-746.185	24.172	0.070	-0.058
-745.171	-143.663	-0.091	-0.009
-744.156	800.000	0.148	0.492
-743.142	188.385	-0.102	0.153
-742.127	-200.000	0.007	-0.149
-741.112	-53.416	0.155	-0.072
-740.098	-200.000	-0.019	0.361
-739.083	-200.000	0.002	0.052
-738.069	64.707	-0.086	-0.088
-737.054	74.975	-0.243	0.258
-736.039	55.074	-0.190	0.185
-735.025	-85.054	0.192	0.061
-734.010	-38.414	-0.091	0.049
-732.996	60.243	0.080	-0.080
-731.981	-200.000	0.046	0.219
-730.966	218.835	-0.079	-0.127
-729.952	83.652	0.101	-0.111
-728.937	-83.060	-0.478	-0.155
-727.923	-98.081	-0.136	-0.035
-726.908	241.737	0.094	0.158
-725.894	165.851	-0.314	-0.447
-724.879	58.004	0.211	0.208
-723.864	-14.627	0.102	0.066
-722.850	53.081	-0.105	-0.101
-721.835	-53.729	-0.220	0.101
-720.821	571.325	-0.033	-0.082
-719.806	800.000	0.062	-0.258
-718.791	-120.758	-0.133	0.023
-717.777	800.000	-0.039	-0.117
-716.762	-100.385	-0.036	0.009
-715.748	-200.000	-0.085	-0.423
-714.733	-156.196	0.308	-0.020
-713.718	-25.916	-0.137	0.081
-712.704	-148.919	-0.308	-0.025
-711.689	-179.087	-0.162	-0.004
-710.675	-110.532	0.179	0.037
-709.660	265.732	0.120	0.210
-708.645	-52.855	-0.031	0.014
-707.631	-23.944	-0.110	-0.066
-706.616	-23.780	0.281	0.169
-705.602	-58.626	0.171	-0.075
-704.587	553.700	0.053	0.129
-703.572	285.474	-0.270	0.489
-702.558	630.285	-0.011	-0.027
-701.543	6.787	-0.168	-0.126
-700.529	-21.487	0.211	0.130
-699.514	701.476	0.032	0.084
-698.499	7.357	0.087	-0.065
-697.485	-58.281	0.007	0.003
-696.470	106.526	0.146	-0.174
-695.456	-98.063	-0.249	-0.065
-694.441	-200.000	-0.005	-0.316
-693.426	140.509	0.117	0.156
-692.412	166.770	-0.094	0.135
-691.397	-200.000	-0.016	-0.298
-690.383	-200.000	-0.043	-0.355
-689.368	109.889	-0.172	0.207
-688.354	-200.000	-0.001	-0.023
-687.339	166.547	0.104	-0.149
-686.324	-89.596	0.361	0.107
-685.310	199.109	0.038	-0.059
-684.295	126.732	0.138	0.176
-683.281	-105.155	0.156	0.036
-682.266	-74.130	-0.180	0.065
-681.251	-200.000	-0.079	-0.360
-680.237	-200.000	-0.013	-0.215
-679.222	22.434	-0.064	0.052
-678.208	-63.377	0.371	0.154
-677.193	-16.561	-0.197	-0.126
-676.178	-16.140	-0.030	-0.019
-675.164	-60.256	-0.105	-0.045
-674.149	-5.196	0.092	-0.064
-673.135	-28.070	0.162	-0.094
-672.120	21.709	0.123	-0.101
-671.105	-2.816	-0.136	0.096
-670.091	405.712	-0.133	-0.281
-669.076	-100.169	-0.252	0.063
-668.062	-200.000	0.015	0.265
-667.047	800.000	0.089	0.307
-666.032	229.923	-0.032	0.053
-665.018	800.000	0.127	-0.435
-664.003	-61.731	0.411	0.173
-662.989	-200.000	0.022	-0.278
-661.974	800.000	0.011	-0.032
-660.959	106.395	-0.080	0.096
-659.945	-94.965	0.337	0.092
-658.930	-76.898	0.268	-0.094
-657.916	-200.000	0.000	0.042
-656.901	-163.519	0.247	0.012
-655.886	-38.462	0.243	0.129
-654.872	100.769	-0.111	-0.130
-653.857	74.580	0.048	-0.051
-652.843	-22.538	-0.399	0.243
-651.828	-148.506	-0.154	0.013
-650.814	-43.938	0.169	-0.086
-649.799	-22.507	-0.159	0.097
-648.784	601.443	-0.125	0.313
-647.770	-103.656	-0.265	-0.063
-646.755	60.316	-0.228	0.226
-645.741	-2.767	-0.180	0.126
-644.726	30.679	0.140	0.121
-643.711	44.202	-0.086	0.079
-642.697	-61.711	-0.107	-0.045
-641.682	-121.023	-0.217	-0.037
-640.668	370.145	-0.125	-0.253
-639.653	-200.000	0.011	0.073
-638.638	-48.851	0.248	0.119
-637.624	382.757	-0.043	0.089
-636.609	103.692	0.153	0.181
-635.595	800.000	-0.060	0.241
-634.580	217.963	-0.072	-0.116
-633.565	800.000	-0.084	-0.245
-632.551	-96.830	0.423	0.111
-631.536	32.458	0.259	0.225
-630.522	-200.000	0.047	0.219
-629.507	800.000	0.028	0.080
-628.492	800.000	0.034	-0.138
-627.478	800.000	0.100	-0.388
-626.463	82.932	-0.141	-0.154
-625.449	-128.745	-0.083	-0.012
-624.434	-15.592	0.103	0.066
-623.419	795.959	-0.095	0.263
-622.405	-65.609	0.307	-0.123
-621.390	-200.000	0.017	0.150
-620.376	22.919	0.306	-0.252
-619.361	6.591	-0.299	0.223
-618.346	182.908	0.187	-0.277
-617.332	-156.490	-0.053	0.003
-616.317	-112.603	-0.181	-0.036
-615.303	23.526	-0.248	0.205
-614.288	41.242	-0.054	-0.049
-613.273	-47.579	0.046	-0.022
-612.259	-200.000	-0.003	-0.075
-611.244	-200.000	0.008	0.112
-610.230	21.546	-0.087	-0.071
-609.215	-143.735	-0.182	0.017
-608.201	-200.000	-0.040	-0.215
-607.186	272.706	-0.087	-0.154
-606.171	297.298	-0.113	-0.208
-605.157	92.844	0.240	-0.271
-604.142	12.281	0.100	0.077
-603.128	-200.000	-0.002	-0.268
-602.113	-149.320	-0.420	0.034
-601.098	48.021	0.228	-0.214
-600.084	167.829	0.303	-0.433
-599.069	-64.612	0.079	0.032
-598.055	800.000	-0.086	0.360
-597.040	149.046	0.097	-0.131
-596.025	-200.000	-0.032	-0.192
-595.011	-200.000	-0.006	0.397
-593.996	-200.000	-0.037	0.210
-592.982	292.575	-0.095	-0.174
-591.967	-200.000	-0.051	0.331
-590.952	-5.784	0.243	0.167
-589.938	65.899	-0.371	-0.378
-588.923	-72.258	0.358	-0.133
-587.909	-63.041	0.116	0.048
-586.894	-110.720	0.306	0.063
-585.879	-66.020	-0.222	-0.089
-584.865	-18.722	-0.130	-0.081
-583.850	-200.000	-0.004	-0.073
-582.836	800.000	0.084	-0.322
-581.821	58.320	-0.103	-0.101
-580.806	34.728	0.128	-0.112
-579.792	55.387	-0.141	-0.137
-578.777	-48.582	-0.154	0.074
-577.763	-118.079	-0.032	-0.006
-576.748	-41.786	0.069	-0.035
-575.733	184.124	0.148	0.220
-574.719	-200.000	-0.001	0.011
-573.704	-96.852	0.376	-0.099
-572.690	-26.155	0.222	0.131
-571.675	-112.389	-0.520	-0.104
-570.661	800.000	0.031	0.119
-569.646	-63.291	-0.058	0.024
-568.631	227.002	0.138	-0.224
-567.617	-12.201	-0.102	-0.067
-566.602	-78.475	0.044	-0.015
-565.588	312.608	0.160	-0.302
-564.573	-63.056	0.345	-0.142
-563.558	-200.000	-0.039	-0.293
-562.544	140.009	0.115	0.152
-561.529	169.342	-0.180	0.257
-560.515	-200.000	0.007	0.280
-559.500	-156.614	0.443	-0.028
-558.485	-101.979	0.220	-0.053
-557.471	-92.499	-0.147	0.041
-556.456	129.439	0.146	-0.187
-555.442	-200.000	0.001	-0.250
-554.427	-200.000	-0.005	0.037
-553.412	-110.079	0.261	-0.055
-552.398	-135.894	0.420	0.050
-551.383	-193.650	0.097	-0.001
-550.369	-108.924	0.084	0.018
-549.354	-128.305	-0.372	-0.053
-548.339	225.023	0.013	0.021
-547.325	-200.000	-0.017	-0.182
-546.310	104.135	0.082	-0.097
-545.296	-27.304	0.117	-0.068
-544.281	800.000	-0.103	-0.322
-543.266	-200.000	0.033	0.173
-542.252	56.157	-0.054	0.052
-541.237	-106.870	-0.252	0.056
-540.223	-67.170	-0.156	-0.061
-539.208	683.367	-0.087	-0.228
-538.193	-109.454	0.230	-0.049
-537.179	-23.421	0.105	0.063
-536.164	66.980	0.071	0.072
-535.150	-166.945	0.295	-0.012
-534.135	-200.000	0.010	-0.139
-533.121	212.936	0.135	-0.213
-532.106	302.919	-0.069	0.128
-531.091	800.000	0.037	-0.115
-530.077	90.260	0.155	0.174
-529.062	800.000	0.033	-0.097
-528.048	-136.820	-0.038	-0.004
-527.033	-94.544	-0.218	-0.059
-526.018	800.000	0.125	-0.490
-525.004	-1.379	0.111	-0.078
-523.989	-166.271	-0.259	-0.011
-522.975	108.664	0.029	-0.035
-521.960	155.310	-0.110	0.151
-520.945	-85.429	0.185	-0.057
-519.931	-123.001	-0.475	0.076
-518.916	-152.205	0.048	0.003
-517.902	-54.415	-0.239	0.108
-516.887	-200.000	0.029	0.200
-515.872	185.001	-0.118	-0.175
-514.858	-138.110	-0.078	-0.009
-513.843	49.057	0.232	0.218
-512.829	-200.000	-0.029	-0.203
-511.814	-200.000	-0.043	-0.440
-510.799	-39.480	0.249	0.131
-509.785	-82.215	-0.094	-0.030
-508.770	-184.934	0.229	0.004
-507.756	-200.000	-0.000	-0.149
-506.741	154.752	0.192	0.263
-505.726	791.272	-0.013	-0.035
-504.712	239.712	-0.112	0.186
-503.697	-200.000	0.013	0.185
-502.683	-200.000	-0.034	0.340
-501.668	65.105	0.112	0.113
-500.653	752.997	-0.022	0.061
-499.639	-121.295	-0.098	-0.016
-498.624	800.000	0.185	0.536
-497.610	-106.269	-0.257	-0.057
-496.595	-53.688	-0.324	-0.148
-495.581	-131.602	0.509	0.067
-494.566	800.000	-0.033	0.132
-493.551	-57.630	0.238	0.104
-492.537	800.000	-0.030	-0.124
-491.522	-95.800	0.101	0.027
-490.508	33.591	-0.189	0.164
-489.493	261.154	-0.033	0.058
-488.478	428.225	0.073	0.157
-487.464	259.711	0.056	0.096
-486.449	-80.998	-0.329	-0.109
-485.435	800.000	0.039	0.169
-484.420	526.415	-0.087	-0.205
-483.405	-162.414	-0.208	0.010
-482.391	101.349	0.160	-0.186
-481.376	-140.334	0.226	-0.024
-480.362	140.249	0.054	-0.072
-479.347	25.309	-0.200	-0.166
-478.332	-67.605	0.055	-0.022
-477.318	-30.879	0.287	-0.162
-476.303	-0.334	0.212	0.150
-475.289	-99.565	-0.291	0.073
-474.274	800.000	0.038	-0.104
-473.259	347.734	0.119	0.233
-472.245	211.532	-0.190	0.299
-471.230	378.924	0.097	0.198
-470.216	-44.852	0.125	0.062
-469.201	106.509	0.076	-0.090
-468.186	-64.854	0.373	0.150
-467.172	-200.000	0.030	-0.252
-466.157	-200.000	-0.028	-0.163
-465.143	11.192	0.129	-0.098
-464.128	-200.000	-0.018	-0.177
-463.113	18.105	-0.103	0.082
-462.099	29.351	0.134	0.114
-461.084	146.069	0.053	-0.071
-460.070	-7.652	0.163	0.110
-459.055	800.000	0.100	-0.310
-458.040	236.460	-0.170	-0.280
-457.026	-200.000	-0.007	-0.068
-456.011	800.000	-0.036	-0.155
-454.997	585.939	-0.051	-0.126
-453.982	139.643	-0.153	-0.201
-452.968	800.000	-0.029	0.108
-451.953	247.361	-0.190	0.320
-450.938	225.206	-0.134	-0.217
-449.924	32.087	-0.062	-0.054
-448.909	98.962	-0.100	0.115
-447.895	115.154	0.291	0.354
-446.880	-118.974	-0.255	0.045
-445.865	-158.104	-0.215	-0.013
-444.851	52.540	0.165	-0.157
-443.836	324.852	0.054	-0.103
-442.822	-200.000	0.020	-0.219
-441.807	-12.877	-0.243	-0.158
-440.792	800.000	-0.053	-0.227
-439.778	125.809	-0.101	-0.128
-438.763	-200.000	0.013	0.349
-437.749	-100.324	0.197	0.049
-436.734	-129.853	-0.278	0.038
-435.719	800.000	-0.040	-0.159
-434.705	-149.924	-0.361	-0.028
-433.690	70.247	-0.172	0.177
-432.676	-200.000	0.060	0.318
-431.661	107.418	-0.211	-0.250
-430.646	-200.000	0.023	0.205
-429.632	247.423	0.034	0.057
-428.617	-200.000	-0.001	0.021
-427.603	183.388	-0.002	-0.004
-426.588	-39.741	0.384	-0.200
-425.573	35.465	0.159	0.139
-424.559	78.049	-0.173	0.184
-423.544	197.182	-0.101	-0.153
-422.530	-124.212	0.171	-0.027
-421.515	-150.139	-0.216	-0.017
-420.500	152.513	-0.073	-0.099
-419.486	800.000	-0.058	-0.241
-418.471	-58.450	0.030	0.013
-417.457	76.447	-0.107	0.113
-416.442	-23.961	0.362	0.216
-415.428	-200.000	0.028	0.175
-414.413	-14.183	-0.109	0.070
-413.398	-25.538	0.353	0.208
-412.384	-200.000	-0.040	0.190
-411.369	296.222	-0.098	0.179
-410.355	-90.364	-0.255	-0.074
-409.340	-128.267	0.222	0.031
-408.325	-39.027	-0.208	-0.109
-407.311	-43.890	-0.122	0.061
-406.296	800.000	0.144	0.599
-405.282	59.632	0.136	0.133
-404.267	800.000	-0.052	0.183
-403.252	-198.189	0.138	0.001
-402.238	-170.650	0.455	-0.016
-401.223	22.960	0.175	0.143
-400.209	-18.131	0.184	0.115
-399.194	-85.940	-0.142	0.044
-398.179	-185.098	-0.308	0.005
-397.165	788.519	0.029	0.079
-396.150	-152.004	-0.215	0.016
-395.136	-7.364	-0.246	-0.166
-394.121	-52.805	0.303	-0.139
-393.106	-200.000	0.008	-0.038
-392.092	93.446	-0.218	0.245
-391.077	-59.477	-0.297	0.127
-390.063	-155.983	-0.015	0.001
-389.048	-115.706	0.190	0.036
-388.033	567.901	-0.080	0.192
-387.019	-17.134	-0.022	0.014
-386.004	-103.618	-0.205	0.048
-384.990	13.346	-0.295	0.227
-383.975	23.877	-0.262	-0.215
-382.960	130.754	-0.190	-0.242
-381.946	800.000	0.128	-0.391
-380.931	193.550	0.179	-0.269
-379.917	282.949	-0.095	-0.169
-378.902	21.125	0.158	-0.127
-377.888	467.300	0.145	0.322
-376.873	-145.671	-0.084	-0.008
-375.858	800.000	0.034	-0.124
-374.844	76.580	-0.253	-0.267
-373.829	116.208	-0.204	-0.249
-372.815	51.423	-0.247	0.233
-371.800	-14.154	0.157	-0.101
-370.785	-64.870	0.124	0.050
-369.771	-13.624	-0.291	-0.187
-368.756	-42.868	-0.290	-0.146
-367.742	-68.124	-0.226	0.087
-366.727	-83.325	-0.218	-0.069
-365.712	543.736	-0.136	0.323
-364.698	-146.962	-0.181	0.015
-363.683	86.898	0.303	-0.332
-362.669	724.465	-0.086	-0.226
-361.654	107.313	0.108	-0.128
-360.639	-38.139	-0.067	-0.036
-359.625	-79.267	-0.210	-0.071
-358.610	-52.695	-0.493	0.226
-357.596	102.018	0.270	-0.313
-356.581	-197.455	-0.369	0.002
-355.566	-181.127	0.259	-0.005
-354.552	99.120	0.253	0.291
-353.537	800.000	0.112	0.356
-352.523	-99.778	0.129	0.032
-351.508	700.710	-0.128	0.335
-350.493	98.405	-0.140	0.161
-349.479	-58.092	-0.184	0.080
-348.464	-200.000	-0.025	-0.292
-347.450	645.112	-0.120	0.303
-346.435	-200.000	-0.032	-0.258
-345.420	-135.665	-0.042	-0.005
-344.406	800.000	-0.043	-0.143
-343.391	-44.481	-0.272	-0.135
-342.377	-107.698	-0.314	0.068
-341.362	-123.278	0.085	-0.013
-340.348	-2.831	-0.217	0.151
-339.333	190.406	-0.082	-0.122
-338.318	-23.945	0.184	-0.109
-337.304	11.912	-0.272	0.208
-336.289	-111.441	0.314	-0.064
-335.275	-11.341	-0.169	-0.111
-334.260	-163.957	0.184	0.009
-333.245	-200.000	-0.026	-0.220
-332.231	-200.000	0.003	-0.053
-331.216	-12.919	-0.155	-0.100
-330.202	-112.040	-0.260	-0.052
-329.187	7.380	-0.144	0.107
-328.172	800.000	0.049	-0.145
-327.158	-14.043	-0.266	0.170
-326.143	-171.452	-0.267	-0.009
-325.129	-58.160	0.136	-0.059
-324.114	-79.551	-0.351	0.118
-323.099	-200.000	0.008	0.062
-322.085	-200.000	0.015	0.115
-321.070	-75.221	0.274	0.097
-320.056	31.623	-0.314	-0.268
-319.041	245.117	-0.082	-0.136
-318.026	-200.000	-0.031	-0.152
-317.012	271.016	0.073	-0.128
-315.997	-200.000	0.026	0.359
-314.983	800.000	0.046	-0.190
-313.968	-106.357	0.407	-0.090
-312.953	800.000	-0.057	-0.199
-311.939	-53.592	-0.444	0.201
-310.924	800.000	-0.096	0.271
-309.910	800.000	-0.031	0.108
-308.895	-104.061	-0.262	-0.060
-307.880	193.773	-0.006	-0.008
-306.866	-200.000	-0.012	0.110
-305.851	22.756	-0.184	0.149
-304.837	79.498	0.293	-0.312
-303.822	800.000	-0.063	0.191
-302.807	-200.000	0.020	0.117
-301.793	-83.530	0.354	0.112
-300.778	-35.931	0.306	-0.164
-299.764	32.986	-0.120	-0.103
-298.749	-13.710	-0.123	0.079
-297.735	-114.605	0.220	-0.042
-296.720	-200.000	-0.029	0.170
-295.705	5.859	0.129	-0.095
-294.691	65.535	0.245	0.246
-293.676	6.350	-0.153	-0.112
-292.662	-119.210	0.163	0.028
-291.647	-96.441	0.223	0.058
-290.632	271.561	-0.078	-0.136
-289.618	-27.349	0.333	0.192
-288.603	384.489	-0.054	0.110
-287.589	-38.888	0.240	-0.125
-286.574	-97.041	0.257	-0.067
-285.559	-80.361	0.302	0.100
-284.545	10.135	0.136	0.103
-283.530	616.782	-0.140	0.347
-282.516	-85.498	-0.124	0.038
-281.501	800.000	0.077	0.256
-280.486	654.457	0.079	0.202
-279.472	18.753	0.025	-0.020
-278.457	663.454	-0.052	0.133
-277.443	-51.082	-0.139	0.065
-276.428	-108.075	-0.125	0.027
-275.413	99.732	0.327	0.375
-274.399	157.800	0.050	0.069
-273.384	-26.997	0.120	-0.069
-272.370	-3.042	0.360	-0.249
-271.355	273.936	-0.145	-0.253
-270.340	-60.553	0.147	0.062
-269.326	-16.597	-0.290	0.182
-268.311	-200.000	0.028	0.158
-267.297	95.671	0.191	0.216
-266.282	-166.511	-0.224	0.009
-265.267	800.000	0.118	-0.469
-264.253	86.561	-0.132	0.144
-263.238	36.358	0.114	0.099
-262.224	60.645	0.058	-0.057
-261.209	-192.009	0.304	-0.003
-260.195	-28.576	0.115	-0.066
-259.180	-146.447	-0.075	0.006
-258.165	90.915	-0.139	0.154
-257.151	-33.437	-0.177	0.097
-256.136	-21.961	-0.270	-0.162
-255.122	-139.409	-0.174	-0.018
-254.107	306.147	-0.070	-0.128
-253.092	-200.000	0.016	-0.167
-252.078	800.000	0.034	-0.103
-251.063	-69.280	-0.247	0.094
-250.049	-100.672	0.326	-0.080
-249.034	-200.000	0.004	-0.095
-248.019	106.100	-0.246	0.288
-247.005	444.335	-0.092	-0.199
-245.990	38.930	-0.093	-0.082
-244.976	29.774	0.186	0.157
-243.961	-47.148	-0.064	-0.031
-242.946	780.861	-0.074	0.200
-241.932	-38.269	0.158	-0.083
-240.917	-200.000	-0.063	0.431
-239.903	10.553	0.271	0.204
-238.888	530.769	0.191	0.446
-237.873	-116.192	-0.085	-0.016
-236.859	-89.441	-0.200	-0.058
-235.844	777.149	0.020	-0.054
-234.830	-200.000	0.031	0.256
-233.815	-54.299	-0.110	-0.049
-232.800	800.000	0.091	0.317
-231.786	213.202	-0.226	0.353
-230.771	104.525	0.140	-0.162
-229.757	-13.640	0.226	0.145
-228.742	756.843	0.071	-0.189
-227.727	-76.859	0.252	0.087
-226.713	-172.465	0.130	0.004
-225.698	-72.787	-0.078	0.029
-224.684	800.000	0.110	-0.373
-223.669	-115.399	0.180	-0.034
-222.655	-158.287	0.300	-0.017
-221.640	51.818	0.051	-0.048
-220.625	46.080	0.142	0.130
-219.611	-200.000	-0.045	0.341
-218.596	-37.284	0.280	-0.148
-217.582	-200.000	-0.065	-0.472
-216.567	424.747	-0.127	0.271
-215.552	394.147	-0.082	0.170
-214.538	255.951	-0.243	-0.411
-213.523	-3.633	0.300	-0.206
-212.509	800.000	0.054	-0.231
-211.494	559.981	-0.074	0.177
-210.479	-55.429	0.096	0.042
-209.465	-74.421	-0.257	-0.092
-208.450	88.894	0.149	-0.164
-207.436	-48.495	-0.069	0.033
-206.421	800.000	-0.005	0.015
-205.406	91.500	0.132	-0.146
-204.392	800.000	0.032	-0.117
-203.377	800.000	0.108	-0.298
-202.363	49.175	0.100	0.093
-201.348	-111.311	-0.217	-0.044
-200.333	-102.710	0.259	-0.061
-199.319	377.137	0.115	0.231
-198.304	-113.891	0.044	0.009
-197.290	-200.000	0.011	-0.102
-196.275	-82.879	-0.248	0.079
-195.260	800.000	0.097	0.295
-194.246	-200.000	-0.031	0.200
-193.231	-132.485	-0.225	-0.029
-192.217	-53.754	0.343	-0.154
-191.202	90.239	0.254	-0.280
-190.187	800.000	0.137	0.466
-189.173	-67.875	0.081	0.031
-188.158	-200.000	0.038	-0.223
-187.144	225.895	-0.048	0.077
-186.129	71.277	0.158	0.162
-185.114	16.980	-0.200	0.156
-184.100	-24.751	-0.135	-0.079
-183.085	-59.675	0.117	0.049
-182.071	800.000	0.060	-0.199
-181.056	-200.000	-0.005	-0.029
-180.042	351.148	0.025	0.049
-179.027	205.673	-0.161	-0.247
-178.012	800.000	-0.020	0.056
-176.998	-200.000	0.031	0.352
-175.983	-20.720	-0.325	0.197
-174.969	-9.382	0.058	0.038
-173.954	-69.213	-0.137	0.052
-172.939	-12.847	-0.100	-0.064
-171.925	-70.166	0.082	0.031
-170.910	240.651	0.105	-0.172
-169.896	-19.153	0.170	0.104
-168.881	-200.000	-0.008	-0.114
-167.866	17.446	0.083	-0.065
-166.852	800.000	-0.101	-0.366
-165.837	-35.876	-0.142	0.076
-164.823	-77.594	0.445	-0.152
-163.808	-139.442	-0.144	0.015
-162.793	96.622	-0.189	-0.213
-161.779	471.613	0.109	-0.241
-160.764	-89.657	0.096	0.028
-159.750	33.139	0.273	-0.233
-158.735	-101.445	-0.417	0.100
-157.720	-32.512	-0.234	-0.129
-156.706	-200.000	-0.027	0.194
-155.691	249.556	-0.094	-0.157
-154.677	-200.000	-0.029	-0.310
-153.662	-79.290	0.269	0.090
-152.647	-167.420	-0.197	-0.008
-151.633	-9.144	0.100	0.066
-150.618	26.666	-0.156	0.129
-149.604	-19.563	-0.349	0.213
-148.589	-200.000	-0.020	-0.241
-147.574	-119.216	0.288	-0.049
-146.560	-200.000	0.010	-0.136
-145.545	-200.000	-0.017	-0.316
-144.531	-200.000	0.003	0.438
-143.516	-140.821	0.391	-0.040
-142.502	-53.710	-0.249	0.112
-141.487	-102.255	-0.341	-0.081
-140.472	-200.000	0.004	-0.023
-139.458	-200.000	0.000	0.276
-138.443	800.000	-0.072	-0.296
-137.429	-19.513	-0.247	0.151
-136.414	132.799	-0.084	0.106
-135.399	-72.359	0.388	-0.142
-134.385	149.655	0.118	0.157
-133.370	-84.746	-0.150	0.046
-132.356	127.313	0.133	-0.166
-131.341	90.365	0.149	0.164
-130.326	800.000	0.007	0.021
-129.312	-103.335	0.166	-0.038
-128.297	-9.220	0.263	-0.173
-127.283	-40.361	0.253	-0.129
-126.268	107.736	0.091	0.107
-125.253	-141.725	-0.254	-0.025
-124.239	-137.730	-0.131	-0.014
-123.224	-140.817	-0.353	-0.036
-122.210	-9.828	-0.159	0.104
