DTS Sentinel unit serial number:	SN413079Multiplexer serial number:	ORYXHardware model number:	OX4-SRSoftware version number:	ORYX F/W v4.00 Oryx Data Collector v3.7.2.0data status	okinstallation	princeton_trtdifferential loss correction	single-endedforward channel	channel 2reverse channel	N/Adate	2019/09/15time	20:43:35forward acquisition time	60.00reverse acquisition time	0.00gamma	496.2192k internal	0.2332k external	0.2332temperature offset calibration	0.9937default loss term (dB/km)	0.3790temperature slope calibration	1.0000multiplexer offset coefficient	1.0000multiplexer slope coefficient	1.0000fibre end	0.00T internal ref (°C)	32.64T ext. ref 1 (°C)	7.93T ext. ref 2 (°C)	24.58length (m)	temperature (°C)	Stokes	anti-Stokes-747.200	-185.595	0.181	-0.003
-746.185	142.189	0.086	0.114
-745.171	396.183	-0.040	-0.084
-744.156	-34.847	-0.107	-0.059
-743.142	-130.026	-0.109	0.015
-742.127	-78.622	-0.240	-0.082
-741.112	25.027	0.420	0.350
-740.098	24.834	-0.212	0.177
-739.083	167.674	0.084	-0.120
-738.069	-50.639	0.036	-0.017
-737.054	249.866	-0.123	-0.210
-736.039	-78.390	-0.313	0.108
-735.025	164.040	0.147	-0.209
-734.010	-200.000	-0.017	-0.128
-732.996	84.006	0.178	0.195
-731.981	-200.000	-0.096	-0.443
-730.966	800.000	0.019	-0.066
-729.952	561.596	0.052	-0.126
-728.937	342.384	0.132	-0.260
-727.923	-40.374	-0.270	-0.141
-726.908	800.000	-0.016	0.068
-725.894	174.506	0.035	0.050
-724.879	-200.000	-0.006	-0.120
-723.864	800.000	-0.058	-0.199
-722.850	-184.685	0.179	0.003
-721.835	-200.000	-0.005	-0.035
-720.821	-200.000	0.053	0.268
-719.806	303.230	0.204	0.380
-718.791	223.628	-0.030	0.048
-717.777	-12.125	-0.141	-0.093
-716.762	67.669	-0.300	-0.308
-715.748	800.000	-0.034	0.143
-714.733	672.369	-0.065	-0.169
-713.718	29.952	0.231	0.198
-712.704	-14.543	-0.284	0.184
-711.689	-140.874	0.261	0.027
-710.675	-200.000	0.001	-0.081
-709.660	-56.542	0.092	0.041
-708.645	-124.670	0.302	-0.047
-707.631	-9.270	-0.169	-0.113
-706.616	-135.680	0.105	0.013
-705.602	61.900	0.039	0.039
-704.587	32.707	-0.099	-0.086
-703.572	-200.000	0.003	-0.114
-702.558	800.000	0.074	-0.269
-701.543	-200.000	0.008	0.072
-700.529	800.000	0.052	-0.158
-699.514	47.382	0.251	0.235
-698.499	800.000	-0.044	0.158
-697.485	-167.310	-0.298	0.012
-696.470	178.747	0.130	-0.191
-695.456	272.409	-0.112	-0.198
-694.441	622.796	0.187	-0.472
-693.426	193.671	-0.096	-0.146
-692.412	30.536	-0.172	-0.147
-691.397	-42.557	-0.145	-0.074
-690.383	-12.061	-0.244	-0.161
-689.368	154.856	-0.292	0.403
-688.354	-176.321	0.348	0.009
-687.339	30.607	-0.086	0.074
-686.324	-111.180	-0.578	0.119
-685.310	-76.356	-0.286	0.101
-684.295	-23.207	0.206	0.124
-683.281	50.877	0.371	0.353
-682.266	447.368	-0.096	-0.212
-681.251	43.824	-0.131	0.121
-680.237	-200.000	0.019	-0.212
-679.222	-101.620	-0.051	0.013
-678.208	800.000	-0.021	0.083
-677.193	-142.564	-0.354	-0.035
-676.178	-29.166	-0.233	0.134
-675.164	-23.005	0.170	0.103
-674.149	-94.898	0.264	-0.072
-673.135	364.877	0.094	-0.191
-672.120	25.646	-0.106	-0.088
-671.105	45.436	-0.144	0.133
-670.091	-3.251	-0.230	0.161
-669.076	-113.858	-0.260	0.051
-668.062	213.432	0.141	-0.223
-667.047	-48.086	0.114	-0.055
-666.032	128.452	-0.085	-0.109
-665.018	-9.082	-0.068	-0.045
-664.003	158.985	-0.032	0.045
-662.989	800.000	-0.042	-0.155
-661.974	-37.776	-0.305	0.163
-660.959	12.040	0.254	-0.196
-659.945	771.917	0.002	-0.006
-658.930	210.501	-0.161	-0.253
-657.916	-200.000	0.108	-0.479
-656.901	-200.000	0.018	-0.233
-655.886	65.554	0.165	-0.168
-654.872	29.014	-0.239	0.204
-653.857	-200.000	0.009	0.231
-652.843	225.934	0.133	-0.216
-651.828	-19.215	-0.203	0.127
-650.814	190.843	-0.195	-0.294
-649.799	-152.588	-0.183	0.013
-648.784	800.000	-0.045	-0.177
-647.770	-38.621	0.104	0.055
-646.755	-78.980	-0.116	0.039
-645.741	625.014	-0.116	-0.294
-644.726	745.156	-0.153	-0.413
-643.711	-200.000	0.062	0.316
-642.697	-175.940	0.065	-0.002
-641.682	-72.071	0.324	-0.121
-640.668	-140.358	0.176	0.018
-639.653	-8.161	-0.233	0.157
-638.638	69.948	0.228	-0.235
-637.624	-147.863	-0.118	0.010
-636.609	800.000	0.032	0.120
-635.595	97.652	-0.135	0.156
-634.580	-200.000	0.001	0.131
-633.565	310.858	-0.141	-0.264
-632.551	-71.915	-0.112	-0.042
-631.536	13.951	0.134	-0.104
-630.522	6.433	0.192	-0.143
-629.507	-93.693	-0.245	0.068
-628.492	-177.172	-0.194	-0.005
-627.478	54.437	0.039	-0.037
-626.463	195.829	-0.098	0.150
-625.449	-1.708	-0.235	-0.166
-624.434	-200.000	-0.044	0.473
-623.419	-60.576	-0.275	-0.117
-622.405	440.779	0.128	0.280
-621.390	135.427	-0.012	0.016
-620.376	-200.000	0.030	0.135
-619.361	-66.687	-0.146	-0.058
-618.346	16.714	-0.206	0.163
-617.332	-195.290	0.328	-0.002
-616.317	49.101	0.076	-0.071
-615.303	-94.575	-0.314	-0.086
-614.288	765.096	0.056	-0.152
-613.273	800.000	0.119	-0.381
-612.259	49.051	-0.026	0.025
-611.244	-75.240	-0.504	0.180
-610.230	9.513	0.165	0.125
-609.215	-200.000	0.048	0.264
-608.201	-200.000	0.025	0.247
-607.186	114.220	0.294	0.358
-606.171	20.646	-0.164	0.133
-605.157	201.796	-0.076	0.116
-604.142	-200.000	0.022	0.195
-603.128	129.965	0.037	-0.048
-602.113	-10.432	-0.150	-0.099
-601.098	-200.000	0.006	0.047
-600.084	800.000	0.074	0.229
-599.069	137.744	0.099	-0.130
-598.055	569.033	-0.114	0.278
-597.040	493.284	0.053	-0.123
-596.025	-200.000	0.065	0.000
-595.011	413.415	-0.048	-0.102
-593.996	58.013	-0.120	0.118
-592.982	441.517	-0.093	0.203
-591.967	-23.150	0.132	-0.079
-590.952	-200.000	-0.014	0.377
-589.938	-200.000	-0.011	0.585
-588.923	800.000	-0.023	0.067
-587.909	-9.165	-0.071	0.047
-586.894	800.000	-0.074	0.241
-585.879	-93.112	0.247	0.069
-584.865	-53.370	-0.095	0.043
-583.850	-47.089	-0.099	0.049
-582.836	-123.348	0.064	-0.010
-581.821	-39.976	-0.184	-0.096
-580.806	503.469	-0.133	-0.308
-579.792	-101.496	0.237	-0.058
-578.777	-200.000	0.268	0.001
-577.763	-85.353	0.115	0.036
-576.748	-200.000	0.049	-0.256
-575.733	-200.000	-0.017	0.152
-574.719	800.000	-0.040	0.163
-573.704	403.392	0.123	0.258
-572.690	52.607	0.106	0.101
-571.675	-66.274	-0.206	-0.082
-570.661	63.386	0.178	0.178
-569.646	-159.484	-0.147	0.008
-568.631	143.531	-0.179	-0.239
-567.617	-10.842	0.233	0.154
-566.602	-85.305	-0.310	-0.097
-565.588	-200.000	0.024	-0.379
-564.573	84.050	-0.100	-0.109
-563.558	-82.493	-0.086	-0.028
-562.544	56.702	0.228	0.221
-561.529	800.000	0.113	-0.348
-560.515	-95.326	-0.286	-0.077
-559.500	-71.325	0.049	-0.018
-558.485	800.000	-0.094	0.365
-557.471	-47.458	0.147	-0.071
-556.456	-78.698	-0.071	0.024
-555.442	-125.168	0.254	0.039
-554.427	23.844	0.251	0.206
-553.412	629.654	-0.048	-0.122
-552.398	210.898	-0.094	0.147
-551.383	3.740	0.176	0.128
-550.369	800.000	-0.029	-0.106
-549.354	-104.560	-0.306	0.070
-548.339	11.665	0.214	-0.164
-547.325	-200.000	-0.046	-0.233
-546.310	800.000	0.052	-0.167
-545.296	-77.169	-0.072	0.025
-544.281	319.593	0.121	-0.230
-543.266	16.617	0.168	-0.133
-542.252	532.362	0.066	-0.156
-541.237	229.281	-0.034	-0.055
-540.223	99.052	0.268	-0.309
-539.208	-32.433	0.225	-0.125
-538.193	562.869	0.069	0.167
-537.179	102.917	0.023	-0.026
-536.164	-73.914	0.222	-0.080
-535.150	-149.336	-0.193	0.015
-534.135	800.000	0.075	0.208
-533.121	-88.908	-0.219	0.065
-532.106	57.766	0.045	0.044
-531.091	-200.000	-0.055	-0.328
-530.077	-119.404	0.102	-0.018
-529.062	-200.000	-0.019	-0.379
-528.048	26.545	-0.242	0.202
-527.033	575.520	-0.066	0.161
-526.018	-200.000	-0.042	0.307
-525.004	-104.424	0.159	-0.037
-523.989	-80.232	-0.336	0.112
-522.975	193.963	-0.157	-0.237
-521.960	-200.000	-0.023	0.172
-520.945	-44.156	0.358	-0.179
-519.931	-200.000	-0.059	-0.260
-518.916	-118.184	0.375	-0.067
-517.902	800.000	0.075	-0.279
-516.887	-146.611	-0.262	-0.023
-515.872	-200.000	0.032	-0.267
-514.858	15.415	-0.141	-0.110
-513.843	529.796	0.079	-0.186
-512.829	9.733	0.185	0.140
-511.814	-63.881	-0.172	0.070
-510.799	-200.000	-0.063	0.355
-509.785	-199.062	-0.208	-0.001
-508.770	63.850	-0.108	0.108
-507.756	196.505	-0.090	-0.137
-506.741	265.579	0.185	-0.322
-505.726	-123.028	-0.401	-0.064
-504.712	-78.865	-0.125	0.043
-503.697	11.645	-0.055	0.042
-502.683	64.599	0.202	-0.203
-501.668	172.669	0.171	-0.245
-500.653	-91.300	-0.330	0.094
-499.639	302.229	-0.104	-0.192
-498.624	-31.136	-0.051	-0.029
-497.610	102.716	-0.188	-0.219
-496.595	-200.000	-0.057	0.424
-495.581	-86.122	-0.174	0.053
-494.566	-82.355	0.328	-0.106
-493.551	737.826	-0.061	-0.162
-492.537	676.655	-0.189	-0.489
-491.522	594.726	0.037	0.091
-490.508	-200.000	-0.032	0.398
-489.493	32.253	0.038	0.033
-488.478	-200.000	0.003	0.035
-487.464	507.624	-0.168	-0.388
-486.449	800.000	0.039	-0.122
-485.435	393.435	0.142	-0.295
-484.420	183.846	0.077	0.113
-483.405	16.703	0.240	0.189
-482.391	-200.000	0.008	0.040
-481.376	-200.000	-0.040	-0.208
-480.362	-134.004	-0.293	0.036
-479.347	-83.563	-0.135	-0.043
-478.332	800.000	-0.031	-0.106
-477.318	-118.111	0.415	-0.074
-476.303	0.942	-0.291	-0.207
-475.289	-37.055	0.163	0.087
-474.274	-192.711	0.352	-0.003
-473.259	-9.262	-0.101	-0.067
-472.245	-25.268	0.164	-0.097
-471.230	800.000	-0.045	-0.163
-470.216	800.000	-0.059	-0.201
-469.201	-31.847	-0.140	0.078
-468.186	-200.000	0.020	0.155
-467.172	9.579	0.104	-0.078
-466.157	800.000	-0.048	-0.148
-465.143	-133.299	0.225	-0.028
-464.128	-200.000	-0.005	0.061
-463.113	-200.000	0.008	0.038
-462.099	36.502	-0.253	-0.222
-461.084	-200.000	-0.036	-0.261
-460.070	452.152	-0.124	0.274
-459.055	800.000	0.102	0.386
-458.040	94.006	0.127	-0.143
-457.026	800.000	0.081	-0.222
-456.011	-180.698	-0.192	0.004
-454.997	201.466	-0.086	-0.132
-453.982	-48.321	-0.063	0.030
-452.968	-200.000	0.023	-0.128
-451.953	63.735	0.058	-0.058
-450.938	-200.000	-0.021	0.298
-449.924	-30.672	-0.022	0.012
-448.909	-19.502	0.271	0.167
-447.895	-200.000	0.010	0.143
-446.880	-28.694	0.093	-0.053
-445.865	180.288	0.069	-0.101
-444.851	646.363	-0.085	-0.216
-443.836	-200.000	0.010	0.104
-442.822	800.000	-0.070	0.251
-441.807	206.951	-0.150	0.233
-440.792	-15.269	-0.181	0.115
-439.778	-200.000	-0.021	0.104
-438.763	-91.631	0.242	0.069
-437.749	107.175	-0.032	-0.038
-436.734	-24.286	0.416	-0.247
-435.719	-22.491	0.309	-0.186
-434.705	-72.413	0.179	-0.066
-433.690	237.130	-0.120	0.198
-432.676	-200.000	0.023	0.099
-431.661	-117.048	0.421	0.076
-430.646	-200.000	0.001	-0.068
-429.632	-19.071	0.328	0.203
-428.617	-110.221	-0.316	0.065
-427.603	-136.441	-0.282	0.033
-426.588	-136.979	-0.253	-0.029
-425.573	174.783	0.071	0.102
-424.559	-109.910	-0.307	0.064
-423.544	800.000	-0.075	0.285
-422.530	-75.501	0.254	-0.090
-421.515	-72.128	-0.272	0.100
-420.500	13.823	-0.164	0.127
-419.486	-72.462	-0.218	-0.080
-418.471	-106.689	0.359	0.079
-417.457	14.920	0.146	0.114
-416.442	12.057	-0.177	0.135
-415.428	-140.436	0.179	-0.018
-414.413	-200.000	-0.098	-0.586
-413.398	-85.759	0.342	-0.105
-412.384	125.199	0.087	0.109
-411.369	-50.412	-0.218	-0.102
-410.355	-200.000	0.005	-0.064
-409.340	-125.657	-0.609	0.092
-408.325	-7.942	0.121	0.081
-407.311	-169.394	-0.174	-0.006
-406.296	-200.000	-0.050	0.304
-405.282	71.517	0.116	0.120
-404.267	99.301	-0.161	0.184
-403.252	44.873	-0.343	0.314
-402.238	39.146	0.039	0.034
-401.223	106.849	-0.171	0.202
-400.209	-158.956	0.117	0.007
-399.194	-134.714	0.360	-0.043
-398.179	-200.000	0.038	0.280
-397.165	103.660	-0.181	-0.211
-396.150	-172.662	0.306	0.010
-395.136	-40.780	0.274	0.141
-394.121	-7.704	0.216	-0.145
-393.106	-17.495	-0.129	-0.081
-392.092	292.304	-0.178	-0.322
-391.077	-98.101	-0.151	-0.039
-390.063	-50.502	-0.219	-0.102
-389.048	208.036	0.147	0.228
-388.033	-200.000	0.272	-0.001
-387.019	-200.000	0.067	0.369
-386.004	-87.251	-0.112	0.034
-384.990	-139.887	-0.120	-0.013
-383.975	60.447	0.201	0.198
-382.960	-95.995	0.315	0.083
-381.946	-135.159	-0.227	-0.027
-380.931	-5.628	0.074	-0.050
-379.917	-17.490	0.074	-0.046
-378.902	52.034	0.204	0.192
-377.888	341.977	0.047	0.091
-376.873	779.268	-0.079	0.214
-375.858	-200.000	-0.029	0.153
-374.844	-139.869	-0.167	0.018
-373.829	294.106	-0.146	-0.265
-372.815	-41.334	-0.249	0.127
-371.800	-200.000	0.041	0.228
-370.785	-81.859	-0.357	0.116
-369.771	-169.706	-0.102	-0.004
-368.756	159.791	-0.138	-0.190
-367.742	324.194	0.126	0.239
-366.727	339.306	-0.180	0.348
-365.712	-159.678	0.161	0.009
-364.698	-36.775	-0.185	0.099
-363.683	75.930	-0.130	-0.136
-362.669	210.066	-0.072	-0.112
-361.654	64.324	0.255	-0.254
-360.639	138.484	0.095	0.123
-359.625	-26.655	0.386	-0.224
-358.610	-124.103	-0.458	0.071
-357.596	266.115	0.152	0.263
-356.581	-200.000	0.009	0.230
-355.566	-26.580	-0.322	0.187
-354.552	800.000	0.034	-0.144
-353.537	-200.000	0.036	-0.182
-352.523	-200.000	-0.046	-0.244
-351.508	-65.946	-0.191	-0.076
-350.493	-200.000	-0.027	-0.150
-349.479	97.678	0.124	0.141
-348.464	-12.836	0.226	0.146
-347.450	-30.649	0.231	-0.129
-346.435	-145.552	0.223	-0.020
-345.420	-110.800	-0.321	-0.065
-344.406	287.942	0.019	-0.034
-343.391	32.465	-0.051	-0.044
-342.377	350.951	0.130	-0.254
-341.362	-60.431	-0.267	0.112
-340.348	493.434	-0.067	0.152
-339.333	-200.000	-0.036	0.292
-338.318	-174.142	0.233	0.007
-337.304	-200.000	-0.001	-0.166
-336.289	21.638	0.307	-0.247
-335.275	-60.213	-0.050	-0.021
-334.260	-6.142	-0.046	0.031
-333.245	541.650	-0.192	0.454
-332.231	693.313	0.052	-0.135
-331.216	-113.827	0.415	0.080
-330.202	-10.296	0.215	0.141
-329.187	48.190	-0.090	0.083
-328.172	275.999	-0.108	0.190
-327.158	-200.000	0.029	0.147
-326.143	-200.000	-0.024	-0.386
-325.129	-49.729	0.110	0.052
-324.114	19.206	0.182	-0.145
-323.099	-49.158	0.284	-0.134
-322.085	40.580	0.121	0.108
-321.070	340.183	-0.163	-0.314
-320.056	800.000	-0.093	-0.307
-319.041	-12.082	0.358	0.232
-318.026	-89.796	-0.078	-0.022
-317.012	6.484	0.052	-0.038
-315.997	-80.176	-0.070	-0.023
-314.983	-177.916	0.141	0.003
-313.968	-200.000	-0.076	-0.336
-312.953	-137.867	0.273	-0.030
-311.939	717.446	0.068	-0.179
-310.924	172.408	-0.095	0.136
-309.910	-200.000	0.004	-0.094
-308.895	-200.000	-0.002	-0.018
-307.880	147.753	-0.187	0.249
-306.866	279.823	0.020	-0.036
-305.851	-200.000	-0.002	0.405
-304.837	728.680	0.069	-0.182
-303.822	122.241	-0.208	-0.258
-302.807	-149.916	0.218	-0.017
-301.793	-1.390	-0.350	0.244
-300.778	-58.594	0.343	0.147
-299.764	32.001	0.123	0.105
-298.749	128.476	0.155	0.196
-297.735	236.328	0.230	0.377
-296.720	-26.846	0.289	-0.167
-295.705	-40.208	-0.316	-0.163
-294.691	6.085	0.189	0.138
-293.676	-109.401	-0.118	0.025
-292.662	58.852	0.121	-0.118
-291.647	-57.014	0.107	-0.047
-290.632	-147.191	0.320	-0.027
-289.618	-200.000	0.029	-0.181
-288.603	96.090	-0.321	0.362
-287.589	-129.482	-0.092	0.013
-286.574	553.430	0.206	-0.490
-285.559	382.330	0.044	0.089
-284.545	800.000	-0.042	0.148
-283.530	-200.000	0.019	-0.170
-282.516	222.543	-0.206	-0.327
-281.501	94.520	0.245	-0.275
-280.486	-200.000	-0.004	0.155
-279.472	712.657	0.076	-0.198
-278.457	800.000	-0.029	0.100
-277.443	-35.190	-0.263	-0.141
-276.428	51.922	0.193	0.181
-275.413	-140.336	-0.181	-0.019
-274.399	48.728	-0.134	-0.124
-273.384	-46.798	0.211	-0.102
-272.370	-37.111	0.187	-0.099
-271.355	10.891	-0.194	0.146
-270.340	215.376	0.089	0.140
-269.326	-70.070	0.243	0.091
-268.311	-127.903	0.232	-0.033
-267.297	134.428	0.165	-0.212
-266.282	154.961	-0.075	-0.102
-265.267	93.205	0.083	-0.093
-264.253	-38.758	-0.363	-0.189
-263.238	-37.318	0.044	0.023
-262.224	424.796	-0.083	0.177
-261.209	-73.920	0.205	-0.074
-260.195	141.407	-0.075	-0.098
-259.180	-39.493	0.242	-0.125
-258.165	-162.080	-0.195	0.010
-257.151	-200.000	-0.046	0.217
-256.136	-200.000	0.017	-0.198
-255.122	228.281	0.047	0.076
-254.107	712.616	-0.039	-0.102
-253.092	800.000	-0.070	-0.250
-252.078	-200.000	-0.037	-0.303
-251.063	800.000	0.137	-0.484
-250.049	-144.247	-0.272	-0.025
-249.034	-200.000	-0.012	-0.112
-248.019	-94.022	0.128	0.035
-247.005	-102.804	0.092	0.022
-245.990	-200.000	-0.005	0.025
-244.976	-13.623	-0.062	0.040
-243.961	449.182	-0.136	0.297
-242.946	800.000	0.148	0.433
-241.932	-57.327	-0.174	-0.075
-240.917	-128.921	0.138	-0.019
-239.903	800.000	0.035	0.122
-238.888	-115.415	-0.255	0.047
-237.873	75.557	-0.122	0.127
-236.859	428.671	-0.117	0.249
-235.844	-141.780	-0.169	-0.017
-234.830	-200.000	-0.020	-0.275
-233.815	800.000	-0.054	0.167
-232.800	-32.123	-0.197	-0.109
-231.786	-200.000	-0.059	-0.302
-230.771	-200.000	0.019	-0.137
-229.757	137.713	-0.041	0.053
-228.742	45.037	-0.322	-0.293
-227.727	-80.507	0.262	0.086
-226.713	-112.105	0.393	-0.078
-225.698	430.699	0.059	-0.125
-224.684	-93.774	0.289	0.079
-223.669	-60.363	-0.312	0.131
-222.655	-57.377	0.138	0.060
-221.640	149.257	-0.190	0.253
-220.625	-200.000	-0.025	0.208
-219.611	-119.829	0.134	-0.023
-218.596	-40.009	-0.483	-0.248
-217.582	-126.990	-0.168	-0.024
-216.567	56.535	-0.216	-0.207
-215.552	118.104	-0.128	0.155
-214.538	-147.655	-0.217	0.018
-213.523	-2.942	-0.135	0.093
-212.509	-200.000	-0.007	-0.141
-211.494	800.000	-0.048	-0.152
-210.479	116.227	0.226	-0.273
-209.465	-46.418	0.188	0.091
-208.450	-92.369	0.211	0.059
-207.436	140.961	-0.216	-0.282
-206.421	-78.457	-0.228	-0.077
-205.406	414.117	0.155	0.324
-204.392	800.000	0.114	-0.360
-203.377	234.494	0.212	-0.344
-202.363	115.160	0.156	0.188
-201.348	-191.238	-0.126	-0.001
-200.333	-200.000	-0.031	-0.174
-199.319	273.453	0.079	0.138
-198.304	525.791	0.090	0.208
-197.290	-200.000	0.025	-0.149
-196.275	213.369	0.145	0.225
-195.260	10.086	-0.208	-0.155
-194.246	168.546	-0.171	0.240
-193.231	77.976	0.133	0.139
-192.217	-26.867	-0.111	-0.064
-191.202	-101.256	0.154	-0.037
-190.187	-133.486	-0.375	-0.046
-189.173	-156.421	-0.201	0.012
-188.158	479.165	0.149	0.333
-187.144	-95.487	-0.216	0.057
-186.129	-134.794	-0.358	-0.043
-185.114	-200.000	-0.027	0.127
-184.100	105.505	0.262	0.305
-183.085	110.902	0.199	-0.236
-182.071	223.269	0.094	0.149
-181.056	-190.932	0.121	0.001
-180.042	-87.801	-0.067	-0.020
-179.027	-87.970	-0.233	-0.069
-178.012	88.702	0.173	-0.189
-176.998	-66.963	-0.415	0.161
-175.983	38.210	0.393	-0.344
-174.969	138.068	-0.060	0.077
-173.954	-80.741	0.265	-0.087
-172.939	103.907	0.143	0.165
-171.925	3.283	0.105	0.075
-170.910	-200.000	-0.006	-0.287
-169.896	-25.494	0.513	0.298
-168.881	-109.499	-0.197	0.041
-167.866	-200.000	0.033	-0.250
-166.852	119.274	0.294	0.357
-165.837	-129.948	-0.094	-0.013
-164.823	-167.196	-0.106	0.004
-163.808	25.609	-0.065	-0.053
-162.793	175.837	0.220	0.314
-161.779	-164.896	-0.073	-0.003
-160.764	-200.000	-0.002	0.022
-159.750	-101.380	-0.140	0.034
-158.735	-200.000	0.007	0.176
-157.720	-200.000	0.026	-0.158
-156.706	78.415	0.176	0.185
-155.691	-26.291	-0.222	-0.128
-154.677	32.366	-0.076	-0.065
-153.662	-125.523	0.119	0.018
-152.647	800.000	-0.029	-0.082
-151.633	81.476	-0.143	-0.152
-150.618	-44.570	0.256	0.126
-149.604	-29.894	-0.140	-0.078
-148.589	264.729	0.074	0.126
-147.574	63.906	-0.169	0.167
-146.560	-52.132	-0.355	-0.162
-145.545	-200.000	0.067	-0.434
-144.531	800.000	0.033	-0.094
-143.516	499.225	-0.051	0.116
-142.502	-124.966	0.535	0.081
-141.487	127.847	-0.130	-0.162
-140.472	-9.216	-0.217	-0.142
-139.458	800.000	0.125	-0.493
-138.443	328.972	0.055	0.103
-137.429	-112.993	0.344	0.067
-136.414	583.583	-0.127	0.306
-135.399	-115.969	0.165	-0.030
-134.385	287.812	-0.088	-0.156
-133.370	800.000	0.148	0.427
-132.356	-59.450	0.175	-0.074
-131.341	67.539	-0.066	0.066
-130.326	52.584	0.164	0.154
-129.312	54.220	0.143	0.135
-128.297	-2.115	0.175	0.121
-127.283	800.000	0.077	0.273
-126.268	67.863	0.311	-0.313
-125.253	-22.478	0.119	0.071
-124.239	472.734	-0.049	-0.108
-123.224	-107.452	-0.229	-0.049
-122.210	-200.000	0.069	-0.321
-121.195	-72.966	0.302	-0.109
