DTS Sentinel unit serial number:	SN413079Multiplexer serial number:	ORYXHardware model number:	OX4-SRSoftware version number:	ORYX F/W v4.00 Oryx Data Collector v3.7.2.0data status	okinstallation	princeton_trtdifferential loss correction	single-endedforward channel	channel 2reverse channel	N/Adate	2019/09/15time	21:55:35forward acquisition time	60.00reverse acquisition time	0.00gamma	496.2192k internal	0.2334k external	0.2334temperature offset calibration	0.9943default loss term (dB/km)	0.3790temperature slope calibration	1.0000multiplexer offset coefficient	1.0000multiplexer slope coefficient	1.0000fibre end	0.00T internal ref (°C)	29.98T ext. ref 1 (°C)	8.49T ext. ref 2 (°C)	23.01length (m)	temperature (°C)	Stokes	anti-Stokes-747.200	-34.644	0.177	0.098
-746.185	648.191	-0.061	0.156
-745.171	-200.000	0.058	0.352
-744.156	122.639	-0.318	0.400
-743.142	-120.316	0.420	-0.072
-742.127	-40.258	-0.234	0.122
-741.112	484.828	-0.031	-0.072
-740.098	157.188	0.087	-0.121
-739.083	-79.237	-0.460	-0.157
-738.069	473.951	0.192	0.435
-737.054	359.460	-0.080	-0.162
-736.039	238.850	-0.203	-0.338
-735.025	-200.000	-0.032	0.194
-734.010	-13.309	-0.360	-0.235
-732.996	-200.000	-0.057	0.285
-731.981	544.861	0.110	0.264
-730.966	-116.852	-0.253	0.047
-729.952	800.000	-0.067	0.262
-728.937	-200.000	0.016	0.118
-727.923	115.729	-0.246	-0.302
-726.908	434.642	-0.087	-0.190
-725.894	96.309	-0.083	-0.095
-724.879	-74.545	0.134	-0.049
-723.864	49.145	0.198	-0.187
-722.850	16.217	-0.542	-0.429
-721.835	-84.719	0.293	-0.093
-720.821	-86.914	-0.212	-0.065
-719.806	-67.318	-0.322	0.127
-718.791	-19.744	0.068	-0.042
-717.777	-0.804	0.066	-0.047
-716.762	-78.120	-0.065	0.022
-715.748	-23.640	-0.071	0.043
-714.733	-112.192	-0.152	-0.031
-713.718	-134.822	0.236	0.029
-712.704	278.336	0.107	-0.191
-711.689	115.629	0.093	-0.114
-710.675	-116.771	-0.149	0.027
-709.660	75.523	0.043	0.045
-708.645	-21.848	-0.375	-0.229
-707.631	-129.023	0.254	-0.036
-706.616	-19.614	-0.125	-0.078
-705.602	-99.026	-0.538	0.137
-704.587	-106.205	0.075	0.017
-703.572	-176.738	0.161	-0.004
-702.558	70.788	0.134	0.140
-701.543	800.000	0.051	0.198
-700.529	-200.000	-0.006	0.051
-699.514	-172.555	-0.233	-0.007
-698.499	800.000	-0.053	0.174
-697.485	-102.678	-0.161	-0.039
-696.470	800.000	-0.116	0.371
-695.456	237.006	-0.275	-0.457
-694.441	800.000	0.055	-0.177
-693.426	593.708	0.120	-0.298
-692.412	210.531	0.055	0.087
-691.397	-61.860	0.146	0.061
-690.383	-200.000	-0.041	-0.413
-689.368	-93.294	-0.252	0.070
-688.354	347.340	0.068	-0.134
-687.339	89.661	0.036	0.041
-686.324	95.868	0.130	0.149
-685.310	189.161	-0.136	-0.204
-684.295	-134.004	0.132	-0.016
-683.281	-52.765	-0.298	-0.138
-682.266	1.247	-0.037	-0.026
-681.251	-200.000	0.046	-0.453
-680.237	55.528	0.166	0.161
-679.222	-200.000	-0.001	0.154
-678.208	366.647	-0.063	0.127
-677.193	595.206	-0.149	0.370
-676.178	-166.061	-0.090	-0.004
-675.164	220.579	0.186	-0.299
-674.149	-51.286	-0.083	-0.039
-673.135	-115.492	-0.220	0.042
-672.120	-66.939	-0.440	0.174
-671.105	211.577	-0.214	-0.338
-670.091	-43.507	0.217	-0.110
-669.076	146.933	0.037	-0.049
-668.062	199.545	0.097	-0.149
-667.047	387.182	-0.062	-0.129
-666.032	336.321	-0.172	-0.335
-665.018	236.546	0.180	-0.298
-664.003	-51.186	-0.294	-0.138
-662.989	-96.572	0.075	0.020
-661.974	-200.000	-0.010	0.052
-660.959	399.347	-0.255	-0.536
-659.945	-160.696	-0.221	0.012
-658.930	403.621	-0.086	-0.181
-657.916	138.484	0.129	0.170
-656.901	-97.623	-0.180	-0.047
-655.886	-11.130	-0.290	-0.191
-654.872	-78.260	0.309	-0.106
-653.857	-5.600	-0.179	-0.123
-652.843	14.346	0.134	-0.105
-651.828	59.964	-0.374	-0.370
-650.814	29.665	-0.268	-0.229
-649.799	-5.580	0.107	0.074
-648.784	-97.527	-0.391	-0.102
-647.770	-105.152	0.287	-0.066
-646.755	26.796	-0.359	-0.301
-645.741	368.738	0.140	-0.284
-644.726	100.425	0.054	0.063
-643.711	731.096	-0.154	0.413
-642.697	-29.807	0.163	0.093
-641.682	498.258	0.066	-0.152
-640.668	-103.263	0.275	0.065
-639.653	90.712	-0.104	0.117
-638.638	40.848	0.196	0.177
-637.624	23.542	0.108	0.089
-636.609	325.396	0.110	0.211
-635.595	-53.517	-0.089	0.041
-634.580	58.598	-0.069	-0.068
-633.565	-124.129	-0.154	0.024
-632.551	517.914	-0.070	0.163
-631.536	800.000	-0.051	-0.202
-630.522	-200.000	-0.004	0.053
-629.507	15.965	0.144	-0.113
-628.492	-185.370	0.195	0.003
-627.478	121.928	-0.152	0.190
-626.463	-140.112	-0.165	0.017
-625.449	-155.670	0.246	0.016
-624.434	129.087	0.100	0.128
-623.419	223.338	-0.025	0.040
-622.405	94.604	-0.152	-0.172
-621.390	269.166	-0.082	0.144
-620.376	110.490	-0.120	0.144
-619.361	-200.000	0.034	0.270
-618.346	-118.083	0.143	-0.026
-617.332	34.826	-0.132	0.116
-616.317	264.361	-0.102	-0.177
-615.303	125.393	-0.156	0.197
-614.288	297.671	0.057	-0.104
-613.273	-181.952	-0.327	-0.006
-612.259	-73.674	-0.297	-0.108
-611.244	-0.754	0.142	0.101
-610.230	391.371	-0.095	-0.198
-609.215	-51.265	0.120	0.056
-608.201	501.892	-0.144	0.333
-607.186	-200.000	0.022	0.181
-606.171	-127.885	-0.292	-0.042
-605.157	242.461	0.079	0.132
-604.142	-200.000	-0.011	0.270
-603.128	211.305	0.151	0.237
-602.113	22.356	0.196	-0.160
-601.098	-200.000	-0.003	-0.395
-600.084	-24.116	0.332	0.198
-599.069	-56.591	-0.196	0.087
-598.055	-151.500	0.300	-0.022
-597.040	303.967	0.005	0.009
-596.025	800.000	0.073	0.267
-595.011	-48.518	0.249	-0.120
-593.996	-200.000	0.035	0.244
-592.982	-200.000	-0.006	-0.177
-591.967	-123.516	0.051	0.008
-590.952	-200.000	0.019	0.112
-589.938	-74.405	0.158	0.057
-588.923	242.227	0.216	-0.361
-587.909	800.000	-0.064	-0.193
-586.894	-111.336	-0.094	0.019
-585.879	-200.000	0.115	-0.528
-584.865	751.715	0.172	-0.464
-583.850	-58.821	0.346	-0.149
-582.836	-81.428	-0.146	0.048
-581.821	-19.500	0.252	-0.156
-580.806	-105.228	-0.270	0.061
-579.792	800.000	0.025	0.109
-578.777	-142.679	0.421	-0.041
-577.763	16.309	-0.079	0.062
-576.748	14.059	-0.128	-0.100
-575.733	-128.740	0.064	-0.009
-574.719	146.959	-0.142	-0.191
-573.704	800.000	-0.075	0.211
-572.690	-98.706	-0.213	-0.054
-571.675	226.111	-0.116	0.187
-570.661	15.489	0.117	-0.092
-569.646	800.000	-0.007	-0.029
-568.631	-75.910	0.226	0.080
-567.617	800.000	0.085	0.304
-566.602	269.660	0.090	-0.158
-565.588	18.990	0.224	-0.179
-564.573	-200.000	-0.009	-0.226
-563.558	6.151	0.173	0.128
-562.544	107.778	0.174	0.207
-561.529	-163.744	0.184	0.009
-560.515	-200.000	0.009	0.455
-559.500	-200.000	0.017	0.198
-558.485	800.000	-0.051	-0.157
-557.471	330.595	-0.144	0.276
-556.456	-154.099	0.261	-0.018
-555.442	311.676	0.109	0.204
-554.427	-89.646	-0.282	0.082
-553.412	-112.839	-0.111	0.022
-552.398	-7.741	-0.059	-0.040
-551.383	-142.159	0.024	-0.002
-550.369	53.298	-0.308	0.294
-549.354	-200.000	0.014	0.255
-548.339	-200.000	-0.031	0.209
-547.325	-73.024	-0.245	-0.090
-546.310	-98.166	-0.176	-0.045
-545.296	-98.286	0.103	-0.026
-544.281	800.000	0.015	-0.065
-543.266	24.153	0.159	0.131
-542.252	78.018	0.268	-0.285
-541.237	137.360	0.189	-0.246
-540.223	280.202	0.068	-0.121
-539.208	800.000	0.084	0.232
-538.193	-29.203	-0.263	0.150
-537.179	-82.743	0.152	0.049
-536.164	-77.040	0.108	0.037
-535.150	800.000	-0.053	-0.203
-534.135	-62.635	0.199	0.082
-533.121	-135.346	-0.082	0.010
-532.106	132.081	-0.198	-0.254
-531.091	-35.205	0.344	0.186
-530.077	-200.000	0.015	0.225
-529.062	-114.796	0.315	-0.060
-528.048	-200.000	-0.039	-0.448
-527.033	-160.260	-0.140	-0.008
-526.018	218.405	-0.167	-0.266
-525.004	-54.530	0.163	-0.074
-523.989	29.396	-0.337	0.285
-522.975	256.951	-0.151	0.258
-521.960	31.374	0.358	0.306
-520.945	800.000	0.088	0.282
-519.931	-200.000	0.033	-0.176
-518.916	526.524	-0.086	0.201
-517.902	-119.308	0.194	0.034
-516.887	95.379	-0.209	0.238
-515.872	112.134	0.275	-0.331
-514.858	0.689	0.099	-0.071
-513.843	233.982	0.112	-0.183
-512.829	197.944	0.070	-0.106
-511.814	-200.000	0.001	-0.033
-510.799	-200.000	0.009	0.102
-509.785	-32.029	-0.130	-0.073
-508.770	-35.030	-0.535	-0.290
-507.756	-67.763	0.275	0.107
-506.741	369.868	0.073	0.147
-505.726	-33.809	-0.158	0.087
-504.712	27.736	-0.105	-0.088
-503.697	120.988	0.146	0.181
-502.683	-200.000	-0.024	-0.204
-501.668	563.096	-0.038	0.091
-500.653	39.111	0.207	0.184
-499.639	-13.277	0.254	-0.164
-498.624	228.598	0.080	0.129
-497.610	441.488	0.019	0.042
-496.595	-48.488	-0.201	0.096
-495.581	-46.933	-0.127	0.062
-494.566	413.340	0.094	-0.199
-493.551	-31.951	-0.120	0.067
-492.537	-200.000	-0.044	-0.227
-491.522	-55.578	-0.020	-0.009
-490.508	-24.587	-0.026	-0.016
-489.493	60.236	0.078	-0.077
-488.478	37.507	0.108	0.096
-487.464	12.759	-0.031	-0.024
-486.449	-10.149	0.088	-0.058
-485.435	-200.000	-0.046	0.222
-484.420	91.314	-0.102	-0.114
-483.405	159.406	0.227	0.315
-482.391	-144.638	0.165	0.015
-481.376	361.186	0.046	0.091
-480.362	57.108	0.070	-0.068
-479.347	-114.609	-0.301	0.057
-478.332	-16.184	0.295	-0.187
-477.318	253.770	-0.100	-0.169
-476.303	196.331	-0.136	0.206
-475.289	-110.005	-0.304	-0.063
-474.274	-15.953	-0.245	0.155
-473.259	174.613	-0.021	0.030
-472.245	-77.772	0.542	-0.186
-471.230	590.804	0.087	-0.214
-470.216	1.408	0.099	-0.071
-469.201	-10.203	0.228	0.150
-468.186	-42.453	0.196	0.099
-467.172	800.000	-0.052	-0.194
-466.157	-135.533	-0.227	0.027
-465.143	-12.219	0.240	-0.156
-464.128	166.208	-0.129	-0.182
-463.113	-13.343	0.040	0.026
-462.099	41.172	-0.126	-0.113
-461.084	379.308	0.098	-0.199
-460.070	34.747	0.093	0.081
-459.055	-200.000	0.007	-0.182
-458.040	-55.164	-0.143	-0.064
-457.026	-200.000	0.037	0.330
-456.011	-9.391	-0.214	-0.142
-454.997	-13.102	-0.139	0.090
-453.982	-182.104	-0.033	0.001
-452.968	282.845	0.061	-0.109
-451.953	274.756	-0.086	-0.152
-450.938	-93.473	0.405	0.111
-449.924	-61.339	-0.179	0.075
-448.909	122.252	0.102	0.126
-447.895	209.140	0.213	0.332
-446.880	-31.677	0.306	0.171
-445.865	-200.000	0.009	0.180
-444.851	44.609	-0.059	0.054
-443.836	-79.272	0.247	-0.083
-442.822	11.788	-0.082	0.063
-441.807	-16.586	0.034	0.021
-440.792	-196.679	-0.354	-0.002
-439.778	-74.749	0.262	-0.094
-438.763	-82.711	-0.180	-0.058
-437.749	13.926	0.243	0.188
-436.734	-200.000	-0.030	0.209
-435.719	800.000	0.048	0.200
-434.705	-200.000	0.004	-0.018
-433.690	-12.329	-0.240	0.156
-432.676	84.915	0.242	-0.263
-431.661	2.805	-0.215	-0.155
-430.646	-200.000	0.022	0.134
-429.632	135.703	-0.092	-0.119
-428.617	57.703	-0.264	-0.256
-427.603	-65.810	-0.257	-0.102
-426.588	-36.766	-0.044	-0.024
-425.573	-14.247	0.523	0.335
-424.559	112.091	0.149	-0.179
-423.544	81.230	-0.222	-0.238
-422.530	-200.000	0.025	-0.209
-421.515	-177.485	0.080	0.002
-420.500	-143.889	-0.186	0.017
-419.486	86.506	-0.167	0.183
-418.471	254.139	0.057	-0.097
-417.457	7.149	0.309	-0.229
-416.442	283.090	-0.150	-0.268
-415.428	22.768	-0.093	0.075
-414.413	-48.580	0.216	0.103
-413.398	-143.941	0.109	-0.010
-412.384	-83.829	-0.214	-0.068
-411.369	48.679	-0.121	-0.113
-410.355	-97.780	0.224	-0.058
-409.340	-200.000	-0.178	0.000
-408.325	467.840	-0.069	0.154
-407.311	18.817	0.104	0.083
-406.296	800.000	-0.080	-0.292
-405.282	-65.895	0.152	-0.060
-404.267	800.000	0.115	0.426
-403.252	800.000	0.077	-0.214
-402.238	163.654	0.191	-0.267
-401.223	-200.000	-0.060	0.366
-400.209	-49.649	-0.227	-0.107
-399.194	-200.000	0.026	-0.161
-398.179	85.406	-0.187	-0.204
-397.165	-36.615	0.257	-0.137
-396.150	59.141	-0.031	-0.031
-395.136	-82.818	0.219	-0.070
-394.121	-86.548	0.115	-0.035
-393.106	-156.084	-0.075	-0.005
-392.092	-72.148	-0.102	-0.038
-391.077	800.000	0.072	-0.280
-390.063	-200.000	0.006	-0.087
-389.048	-139.015	0.294	-0.032
-388.033	660.980	0.103	0.264
-387.019	-135.231	-0.223	-0.027
-386.004	162.474	-0.283	-0.394
-384.990	96.334	-0.099	-0.112
-383.975	-200.000	-0.023	-0.235
-382.960	-127.697	-0.344	0.049
-381.946	800.000	-0.065	0.264
-380.931	-200.000	0.004	0.289
-379.917	-125.561	0.224	-0.034
-378.902	73.215	0.106	-0.110
-377.888	121.996	0.052	0.064
-376.873	-149.595	-0.068	-0.005
-375.858	-200.000	-0.036	-0.332
-374.844	-200.000	-0.035	-0.165
-373.829	-200.000	0.018	0.206
-372.815	-26.014	-0.110	-0.064
-371.800	-38.573	-0.243	0.127
-370.785	-200.000	-0.138	-0.001
-369.771	-200.000	0.042	0.448
-368.756	393.119	-0.049	0.102
-367.742	800.000	-0.056	0.225
-366.727	-17.528	-0.154	-0.096
-365.712	-200.000	0.013	-0.065
-364.698	128.692	0.140	-0.176
-363.683	800.000	0.042	0.125
-362.669	79.471	-0.045	-0.048
-361.654	-61.871	0.288	-0.119
-360.639	618.046	-0.070	-0.175
-359.625	-200.000	-0.030	-0.184
-358.610	-200.000	0.007	0.082
-357.596	40.972	0.110	0.098
-356.581	-200.000	-0.012	-0.124
-355.566	159.094	0.209	-0.288
-354.552	-127.198	-0.288	-0.042
-353.537	119.432	-0.039	-0.048
-352.523	95.819	0.183	0.207
-351.508	158.060	0.205	0.281
-350.493	127.910	0.133	0.167
-349.479	800.000	0.087	-0.252
-348.464	2.038	-0.157	0.112
-347.450	491.080	0.089	-0.201
-346.435	800.000	-0.077	-0.331
-345.420	-42.911	0.170	-0.085
-344.406	-109.969	-0.297	0.061
-343.391	-108.173	-0.122	0.026
-342.377	331.638	-0.106	-0.201
-341.362	-144.043	-0.018	0.002
-340.348	-200.000	0.023	0.285
-339.333	-13.268	-0.182	0.117
-338.318	-83.327	0.216	-0.069
-337.304	-0.241	-0.290	-0.204
-336.289	774.335	-0.118	-0.319
-335.275	-143.038	0.222	-0.021
-334.260	51.037	0.171	0.161
-333.245	-111.864	0.218	-0.044
-332.231	-74.208	-0.210	-0.075
-331.216	-130.070	-0.325	0.044
-330.202	136.028	0.119	-0.153
-329.187	192.897	-0.015	0.022
-328.172	-200.000	0.031	0.152
-327.158	-166.807	0.010	-0.000
-326.143	-53.889	-0.302	0.136
-325.129	90.981	-0.149	0.165
-324.114	800.000	-0.051	0.183
-323.099	478.949	0.098	0.219
-322.085	-75.577	-0.059	-0.021
-321.070	79.364	0.122	0.129
-320.056	-147.143	0.094	0.008
-319.041	-200.000	-0.006	-0.215
-318.026	-200.000	0.016	-0.149
-317.012	-146.665	0.248	0.021
-315.997	69.883	0.014	-0.014
-314.983	390.830	0.069	-0.141
-313.968	294.797	-0.113	-0.204
-312.953	174.211	-0.192	0.274
-311.939	654.015	-0.041	-0.105
-310.924	-200.000	0.066	-0.365
-309.910	-89.037	0.160	0.047
-308.895	14.217	-0.185	-0.142
-307.880	-63.101	-0.248	0.101
-306.866	-190.510	-0.448	0.005
-305.851	642.367	0.100	-0.253
-304.837	-30.879	-0.169	-0.094
-303.822	-125.031	-0.200	-0.030
-302.807	-30.726	0.183	-0.102
-301.793	-113.792	0.165	-0.032
-300.778	215.385	-0.103	0.162
-299.764	67.414	-0.219	-0.221
-298.749	-124.843	-0.196	0.030
-297.735	86.983	-0.136	0.148
-296.720	-145.864	0.265	-0.023
-295.705	16.807	-0.098	-0.077
-294.691	800.000	-0.034	0.124
-293.676	67.125	0.269	-0.270
-292.662	-54.556	-0.245	-0.110
-291.647	-200.000	-0.042	0.261
-290.632	-200.000	0.002	0.166
-289.618	-200.000	-0.007	-0.181
-288.603	800.000	0.056	-0.160
-287.589	409.829	-0.124	-0.260
-286.574	-200.000	-0.014	0.124
-285.559	338.054	0.175	0.337
-284.545	-165.161	0.237	-0.010
-283.530	-92.984	0.265	0.073
-282.516	753.760	-0.093	0.247
-281.501	-31.823	-0.200	0.110
-280.486	-125.752	-0.089	0.013
-279.472	-60.667	0.135	-0.057
-278.457	135.191	0.183	-0.235
-277.443	181.100	0.061	0.088
-276.428	-200.000	0.096	0.467
-275.413	-200.000	-0.006	0.304
-274.399	214.881	-0.213	-0.333
-273.384	129.117	0.030	-0.037
-272.370	-15.052	-0.105	0.066
-271.355	37.164	-0.231	0.202
-270.340	-200.000	0.048	-0.322
-269.326	-87.600	0.120	-0.036
-268.311	-38.964	-0.155	0.081
-267.297	-137.894	-0.471	0.052
-266.282	136.442	-0.098	-0.126
-265.267	-200.000	0.028	0.247
-264.253	363.205	0.080	0.159
-263.238	33.566	0.233	0.200
-262.224	154.133	-0.071	0.096
-261.209	48.108	0.050	-0.046
-260.195	214.865	-0.128	0.200
-259.180	-200.000	-0.026	-0.342
-258.165	-95.741	0.198	-0.052
-257.151	10.296	-0.039	-0.029
-256.136	-4.354	0.417	-0.284
-255.122	800.000	-0.121	0.350
-254.107	792.200	-0.046	0.125
-253.092	-140.639	0.256	0.026
-252.078	-8.183	-0.164	0.109
-251.063	106.823	0.195	0.228
-250.049	-200.000	-0.002	-0.243
-249.034	15.662	-0.099	-0.077
-248.019	8.653	-0.330	-0.245
-247.005	800.000	0.103	0.298
-245.990	-200.000	-0.051	-0.232
-244.976	-200.000	0.003	-0.365
-243.961	-35.304	-0.127	0.068
-242.946	-200.000	-0.002	-0.241
-241.932	-117.789	0.326	0.058
-240.917	380.016	-0.143	0.289
-239.903	-6.366	0.421	0.283
-238.888	308.671	-0.077	-0.142
-237.873	76.202	0.164	-0.171
-236.859	345.486	-0.048	0.093
-235.844	-200.000	-0.008	0.238
-234.830	233.744	-0.137	-0.223
-233.815	142.884	0.221	-0.290
-232.800	-128.262	-0.469	0.066
-231.786	-200.000	-0.037	0.324
-230.771	-200.000	0.046	-0.235
-229.757	252.732	0.098	0.164
-228.742	-17.275	-0.074	-0.046
-227.727	542.786	-0.036	0.084
-226.713	-32.312	0.242	0.133
-225.698	79.718	0.212	0.224
-224.684	-200.000	-0.001	0.045
-223.669	-68.044	-0.382	0.147
-222.655	-70.503	-0.046	-0.017
-221.640	42.497	-0.067	-0.060
-220.625	-22.774	0.142	0.085
-219.611	-94.287	0.064	-0.017
-218.596	-65.691	0.070	-0.028
-217.582	-200.000	-0.012	-0.252
-216.567	32.509	0.037	-0.031
-215.552	780.849	-0.054	0.145
-214.538	-3.875	-0.074	-0.050
-213.523	-97.354	0.387	0.099
-212.509	602.587	-0.088	-0.215
-211.494	-113.870	-0.325	-0.062
-210.479	67.506	0.056	-0.056
-209.465	800.000	0.051	0.181
-208.450	800.000	-0.066	-0.219
-207.436	800.000	0.061	-0.192
-206.421	-126.221	-0.167	0.025
-205.406	60.144	-0.247	-0.240
-204.392	-146.606	-0.106	-0.009
-203.377	-47.494	0.210	0.100
-202.363	-168.575	-0.254	0.010
-201.348	-88.877	-0.051	0.015
-200.333	80.903	-0.305	0.324
-199.319	63.107	0.198	-0.195
-198.304	299.068	0.079	-0.142
-197.290	28.393	0.149	0.124
-196.275	-200.000	0.053	-0.275
-195.260	-143.308	-0.151	0.014
-194.246	189.760	-0.081	0.119
-193.231	800.000	-0.076	0.304
-192.217	-45.290	-0.150	0.073
-191.202	-200.000	-0.046	0.387
-190.187	-126.726	0.371	-0.054
-189.173	548.332	0.091	-0.215
-188.158	170.046	-0.069	0.097
-187.144	-107.187	-0.395	0.086
-186.129	751.409	-0.076	0.201
-185.114	579.741	0.086	0.206
-184.100	-9.002	0.139	0.092
-183.085	-200.000	-0.059	-0.297
-182.071	-75.649	0.338	0.118
-181.056	180.917	-0.104	0.150
-180.042	-15.526	0.073	0.046
-179.027	-180.026	-0.144	0.003
-178.012	-200.000	-0.075	0.505
-176.998	-85.502	-0.375	0.115
-175.983	-200.000	0.004	0.104
-174.969	58.676	0.087	-0.084
-173.954	205.862	-0.125	-0.191
-172.939	-103.784	-0.037	-0.008
-171.925	118.208	0.277	-0.336
-170.910	620.375	-0.112	-0.278
-169.896	52.459	0.268	-0.252
-168.881	407.480	0.058	0.120
-167.866	514.886	-0.222	0.509
-166.852	-43.631	-0.237	-0.118
-165.837	646.223	0.076	-0.191
-164.823	-152.285	0.220	0.016
-163.808	-112.121	-0.360	-0.071
-162.793	7.242	0.135	0.099
-161.779	204.374	0.260	-0.396
-160.764	66.457	0.033	-0.033
-159.750	56.043	-0.414	-0.394
-158.735	-200.000	0.018	0.250
-157.720	267.885	0.048	-0.082
-156.706	-133.102	-0.334	-0.042
-155.691	-200.000	0.045	-0.348
-154.677	-138.832	-0.328	0.035
-153.662	-62.141	-0.300	-0.123
-152.647	364.175	0.120	0.237
-151.633	-200.000	0.004	-0.045
-150.618	217.278	-0.275	-0.430
-149.604	-64.834	0.318	0.126
-148.589	-200.000	0.024	-0.174
-147.574	13.585	-0.219	-0.167
-146.560	173.336	0.099	0.140
-145.545	-157.958	0.269	-0.016
-144.531	380.904	-0.207	-0.418
-143.516	148.628	0.053	-0.070
-142.502	800.000	0.047	-0.154
-141.487	-166.900	-0.154	-0.006
-140.472	74.867	-0.168	-0.173
-139.458	800.000	-0.051	-0.213
-138.443	-126.800	-0.405	-0.059
-137.429	-8.484	0.247	0.163
-136.414	57.733	0.101	-0.097
-135.399	-143.541	0.043	-0.004
-134.385	-44.524	-0.051	0.025
-133.370	-200.000	-0.048	0.504
-132.356	-70.280	-0.286	-0.107
-131.341	-11.175	0.425	-0.275
-130.326	-20.460	-0.103	0.062
-129.312	768.189	0.100	-0.267
-128.297	-200.000	-0.014	-0.106
-127.283	27.210	-0.198	0.163
-126.268	-50.719	0.098	0.045
-125.253	-32.720	0.115	-0.063
-124.239	63.670	-0.309	-0.304
-123.224	-54.200	-0.131	0.058
-122.210	27.384	0.184	-0.152
