DTS Sentinel unit serial number:	SN413079Multiplexer serial number:	ORYXHardware model number:	OX4-SRSoftware version number:	ORYX F/W v4.00 Oryx Data Collector v3.7.2.0data status	okinstallation	princeton_trtdifferential loss correction	single-endedforward channel	channel 2reverse channel	N/Adate	2019/09/16time	11:19:35forward acquisition time	60.00reverse acquisition time	0.00gamma	496.2192k internal	0.2313k external	0.2313temperature offset calibration	0.9956default loss term (dB/km)	0.3790temperature slope calibration	1.0000multiplexer offset coefficient	1.0000multiplexer slope coefficient	1.0000fibre end	0.00T internal ref (°C)	37.25T ext. ref 1 (°C)	12.88T ext. ref 2 (°C)	33.79length (m)	temperature (°C)	Stokes	anti-Stokes-747.200	-31.432	0.151	0.086
-746.185	-200.000	-0.032	0.253
-745.171	-107.759	-0.216	-0.048
-744.156	800.000	0.083	0.301
-743.142	-111.679	0.286	-0.059
-742.127	-118.963	0.053	0.009
-741.112	-75.205	-0.149	-0.054
-740.098	-187.205	0.209	0.003
-739.083	800.000	-0.044	-0.138
-738.069	83.926	-0.225	0.249
-737.054	-87.850	-0.141	-0.043
-736.039	800.000	-0.030	0.105
-735.025	471.457	0.035	0.081
-734.010	207.678	-0.193	-0.306
-732.996	-179.275	0.106	-0.002
-731.981	-99.084	-0.071	-0.018
-730.966	-200.000	0.027	0.267
-729.952	-106.572	-0.057	-0.013
-728.937	-97.198	-0.350	0.093
-727.923	-200.000	-0.015	0.114
-726.908	262.153	0.106	-0.186
-725.894	800.000	-0.073	-0.239
-724.879	-31.079	-0.303	-0.173
-723.864	-200.000	-0.006	-0.226
-722.850	-200.000	-0.025	-0.219
-721.835	-75.927	-0.145	0.052
-720.821	-56.462	0.219	-0.099
-719.806	70.150	-0.139	-0.146
-718.791	-171.894	0.274	0.009
-717.777	280.941	-0.051	-0.093
-716.762	800.000	-0.098	-0.365
-715.748	-200.000	0.004	0.253
-714.733	-114.756	-0.268	-0.052
-713.718	9.446	0.074	-0.057
-712.704	-51.750	0.339	0.160
-711.689	-68.565	0.037	0.015
-710.675	-200.000	-0.003	0.111
-709.660	190.029	0.100	0.152
-708.645	545.062	0.076	-0.183
-707.631	-23.626	0.191	0.116
-706.616	-200.000	-0.019	-0.166
-705.602	-200.000	0.065	-0.429
-704.587	-1.198	0.219	0.157
-703.572	28.937	-0.098	-0.084
-702.558	14.967	-0.161	-0.128
-701.543	-12.141	-0.137	-0.091
-700.529	-200.000	-0.026	0.138
-699.514	-169.260	0.046	0.002
-698.499	37.827	-0.199	-0.179
-697.485	60.574	0.034	-0.034
-696.470	800.000	0.116	-0.391
-695.456	-2.828	-0.382	-0.270
-694.441	800.000	0.071	-0.267
-693.426	-128.717	0.176	-0.025
-692.412	-200.000	0.027	0.208
-691.397	-31.742	-0.109	-0.062
-690.383	-14.141	0.115	0.075
-689.368	23.125	-0.148	-0.123
-688.354	800.000	0.022	-0.073
-687.339	-200.000	-0.053	0.282
-686.324	-200.000	0.044	0.254
-685.310	-200.000	-0.045	0.489
-684.295	-152.245	0.152	0.011
-683.281	54.701	-0.096	-0.094
-682.266	-85.523	-0.238	-0.075
-681.251	24.598	-0.275	0.230
-680.237	-194.451	-0.166	-0.001
-679.222	-120.302	0.098	0.017
-678.208	149.603	0.056	0.076
-677.193	-88.634	0.274	0.082
-676.178	-200.000	-0.001	-0.134
-675.164	-200.000	-0.002	-0.058
-674.149	800.000	0.019	-0.078
-673.135	71.978	-0.092	-0.097
-672.120	8.534	0.190	-0.145
-671.105	37.871	0.169	0.152
-670.091	544.772	-0.008	0.020
-669.076	-155.625	-0.348	-0.023
-668.062	-200.000	-0.008	-0.169
-667.047	-200.000	-0.012	-0.092
-666.032	161.638	-0.213	0.301
-665.018	-52.690	0.486	0.227
-664.003	-200.000	0.016	0.242
-662.989	5.244	0.115	0.086
-661.974	-105.127	0.142	0.033
-660.959	-200.000	0.046	-0.257
-659.945	-200.000	-0.080	0.455
-658.930	553.848	-0.136	0.330
-657.916	54.686	0.177	-0.172
-656.901	41.527	-0.068	0.062
-655.886	-58.984	-0.145	-0.063
-654.872	-121.447	-0.229	0.038
-653.857	295.596	-0.092	0.169
-652.843	584.222	-0.155	0.384
-651.828	-155.464	0.082	0.005
-650.814	98.685	0.094	0.109
-649.799	60.779	-0.071	0.071
-648.784	-176.566	0.231	0.006
-647.770	-116.164	0.131	-0.025
-646.755	113.785	0.060	0.073
-645.741	409.578	-0.047	-0.100
-644.726	-36.182	-0.219	-0.120
-643.711	-30.468	0.200	-0.114
-642.697	84.159	-0.055	0.060
-641.682	186.157	0.254	0.382
-640.668	-102.797	-0.275	-0.066
-639.653	-14.883	-0.078	0.050
-638.638	168.989	0.117	-0.169
-637.624	239.489	0.022	-0.037
-636.609	72.180	0.200	-0.210
-635.595	-134.653	-0.217	-0.027
-634.580	-200.000	0.006	0.259
-633.565	412.950	0.058	0.124
-632.551	178.792	-0.229	0.337
-631.536	29.687	-0.219	0.188
-630.522	-70.657	-0.169	-0.064
-629.507	-80.273	-0.031	0.011
-628.492	-138.279	0.494	-0.055
-627.478	-127.233	0.170	0.025
-626.463	800.000	0.068	-0.300
-625.449	342.344	0.077	-0.153
-624.434	-16.258	0.025	-0.016
-623.419	692.858	-0.126	-0.334
-622.405	-200.000	-0.011	-0.105
-621.390	-66.367	-0.118	-0.047
-620.376	38.697	0.008	-0.007
-619.361	233.717	0.262	-0.436
-618.346	-55.044	0.254	0.116
-617.332	-134.985	0.275	0.034
-616.317	665.686	0.023	0.059
-615.303	326.446	0.108	0.209
-614.288	752.153	0.101	0.275
-613.273	310.123	-0.095	0.178
-612.259	-151.159	-0.128	0.010
-611.244	102.742	-0.117	0.138
-610.230	-200.000	0.037	-0.223
-609.215	-76.078	-0.131	-0.047
-608.201	-26.371	0.221	-0.131
-607.186	473.844	-0.033	-0.075
-606.171	800.000	-0.081	0.233
-605.157	-200.000	-0.017	0.117
-604.142	-0.019	0.174	0.125
-603.128	800.000	0.025	0.107
-602.113	341.124	-0.124	0.244
-601.098	-145.266	-0.533	0.049
-600.084	-63.561	-0.030	-0.013
-599.069	-62.669	-0.449	-0.188
-598.055	800.000	0.063	-0.180
-597.040	-200.000	0.000	0.110
-596.025	142.853	0.056	0.075
-595.011	46.683	0.210	0.197
-593.996	-32.152	-0.035	-0.020
-592.982	-200.000	0.027	-0.188
-591.967	-136.001	-0.124	0.015
-590.952	444.526	0.044	-0.097
-589.938	800.000	-0.081	0.325
-588.923	-87.895	-0.249	0.076
-587.909	800.000	0.074	-0.242
-586.894	-170.495	0.232	0.008
-585.879	-67.061	-0.327	0.130
-584.865	-49.826	-0.244	-0.117
-583.850	-51.931	-0.303	-0.142
-582.836	800.000	-0.038	0.125
-581.821	587.871	-0.104	0.257
-580.806	-200.000	-0.010	0.088
-579.792	-61.250	0.119	0.051
-578.777	198.600	-0.068	0.105
-577.763	-200.000	-0.008	-0.210
-576.748	-17.999	-0.140	-0.088
-575.733	-92.511	-0.104	0.029
-574.719	277.492	0.191	-0.343
-573.704	-200.000	0.033	-0.286
-572.690	-26.736	0.120	0.070
-571.675	147.817	-0.060	0.081
-570.661	109.967	-0.165	0.199
-569.646	70.495	0.106	-0.110
-568.631	-200.000	-0.045	-0.304
-567.617	-200.000	0.088	-0.399
-566.602	-200.000	-0.041	-0.182
-565.588	-37.047	-0.246	0.133
-564.573	-146.593	0.295	-0.026
-563.558	279.482	-0.075	-0.136
-562.544	-18.241	0.206	0.130
-561.529	-142.459	-0.239	-0.024
-560.515	-37.751	0.153	-0.082
-559.500	222.901	-0.132	-0.215
-558.485	-145.168	0.274	0.025
-557.471	594.212	0.118	0.295
-556.456	293.273	0.151	0.278
-555.442	800.000	0.061	0.245
-554.427	-200.000	0.013	0.301
-553.412	291.462	0.192	0.352
-552.398	126.832	0.186	0.238
-551.383	6.917	-0.173	-0.130
-550.369	-130.805	0.104	-0.014
-549.354	154.341	-0.031	-0.043
-548.339	-132.143	0.025	-0.003
-547.325	-64.172	-0.426	-0.175
-546.310	-128.980	0.263	-0.037
-545.296	128.717	0.118	0.152
-544.281	587.567	-0.073	0.182
-543.266	-144.862	-0.094	-0.009
-542.252	122.768	-0.178	-0.224
-541.237	-130.518	-0.334	0.045
-540.223	-95.532	0.054	0.015
-539.208	-96.195	0.188	0.050
-538.193	138.166	-0.131	0.173
-537.179	800.000	0.080	0.322
-536.164	800.000	-0.004	0.013
-535.150	-79.009	-0.273	-0.093
-534.135	-200.000	-0.050	-0.243
-533.121	-44.562	0.109	-0.055
-532.106	525.965	0.058	-0.137
-531.091	679.276	-0.078	-0.204
-530.077	-57.195	-0.120	0.053
-529.062	800.000	0.054	-0.176
-528.048	-200.000	0.051	-0.224
-527.033	-85.769	0.165	0.051
-526.018	2.014	-0.083	-0.060
-525.004	-28.769	0.284	-0.164
-523.989	-200.000	-0.003	-0.112
-522.975	301.169	-0.245	-0.456
-521.960	-39.358	0.064	0.034
-520.945	800.000	-0.042	-0.138
-519.931	-123.417	0.308	0.049
-518.916	800.000	-0.080	0.311
-517.902	-200.000	-0.087	-0.456
-516.887	134.933	-0.136	-0.177
-515.872	-120.653	0.126	-0.021
-514.858	91.850	0.063	-0.071
-513.843	-63.470	0.227	-0.094
-512.829	-50.982	0.121	0.057
-511.814	-60.233	-0.099	0.043
-510.799	104.699	0.172	0.204
-509.785	58.060	-0.105	0.103
-508.770	-200.000	0.005	-0.140
-507.756	-200.000	-0.014	-0.104
-506.741	-200.000	-0.018	-0.374
-505.726	-200.000	-0.108	-0.000
-504.712	-150.312	0.280	0.022
-503.697	-200.000	0.003	-0.157
-502.683	39.616	0.060	-0.054
-501.668	325.990	-0.148	-0.285
-500.653	578.672	0.015	-0.036
-499.639	177.891	-0.145	0.212
-498.624	-200.000	0.020	-0.203
-497.610	800.000	0.066	0.242
-496.595	-106.695	0.129	0.029
-495.581	800.000	0.031	-0.106
-494.566	-120.775	-0.205	0.035
-493.551	-124.452	-0.228	-0.036
-492.537	31.446	0.311	-0.268
-491.522	800.000	0.093	0.316
-490.508	-200.000	-0.002	-0.206
-489.493	158.237	-0.077	-0.108
-488.478	5.181	0.113	0.083
-487.464	295.850	0.195	-0.358
-486.449	52.274	-0.037	0.036
-485.435	-200.000	0.004	0.085
-484.420	-80.452	0.107	0.036
-483.405	-46.571	-0.137	0.067
-482.391	-167.561	-0.380	0.015
-481.376	135.587	-0.056	0.073
-480.362	39.530	0.225	0.203
-479.347	372.420	-0.083	-0.170
-478.332	-82.045	0.198	-0.065
-477.318	800.000	-0.069	0.200
-476.303	-76.368	0.392	-0.138
-475.289	-51.476	0.169	-0.079
-474.274	48.250	0.198	0.186
-473.259	261.655	-0.080	0.139
-472.245	-99.979	0.341	0.085
-471.230	559.560	0.060	-0.146
-470.216	-200.000	-0.070	-0.375
-469.201	-78.130	-0.228	0.079
-468.186	82.135	-0.023	0.025
-467.172	-200.000	-0.007	-0.078
-466.157	520.398	0.241	0.567
-465.143	36.663	0.198	0.175
-464.128	-86.746	-0.418	0.128
-463.113	-75.604	0.220	-0.078
-462.099	-8.501	-0.197	-0.133
-461.084	-58.147	-0.374	-0.164
-460.070	-52.054	0.336	0.157
-459.055	800.000	0.014	0.060
-458.040	-39.121	0.166	0.087
-457.026	-200.000	-0.278	-0.001
-456.011	-200.000	0.010	0.067
-454.997	-5.411	-0.179	-0.123
-453.982	-40.318	-0.134	0.070
-452.968	70.896	-0.184	0.191
-451.953	-200.000	-0.049	0.289
-450.938	-147.907	0.401	-0.034
-449.924	243.855	0.107	-0.180
-448.909	-33.410	-0.109	-0.061
-447.895	211.325	-0.120	-0.189
-446.880	-200.000	0.007	-0.184
-445.865	136.170	0.192	0.251
-444.851	-191.844	-0.409	-0.004
-443.836	-158.371	-0.279	0.016
-442.822	100.660	0.235	-0.274
-441.807	321.503	0.159	-0.303
-440.792	-200.000	-0.007	0.066
-439.778	-87.946	0.247	-0.075
-438.763	-75.607	0.186	0.066
-437.749	800.000	0.039	0.143
-436.734	-200.000	-0.012	-0.090
-435.719	295.905	-0.044	0.081
-434.705	171.674	-0.147	0.212
-433.690	-123.787	-0.141	0.022
-432.676	297.547	0.326	-0.600
-431.661	36.668	0.069	0.061
-430.646	93.065	-0.179	0.203
-429.632	-72.093	-0.325	-0.121
-428.617	-143.915	0.218	0.021
-427.603	-62.886	-0.195	0.081
-426.588	515.051	-0.112	-0.261
-425.573	-119.111	-0.287	-0.050
-424.559	-124.657	0.307	-0.048
-423.544	-56.116	0.343	-0.153
-422.530	49.862	0.229	-0.216
-421.515	-174.340	-0.280	-0.008
-420.500	-1.135	-0.241	-0.170
-419.486	128.152	-0.273	0.348
-418.471	41.827	-0.132	-0.120
-417.457	-117.170	0.401	-0.073
-416.442	800.000	-0.145	-0.416
-415.428	257.492	0.072	0.124
-414.413	-55.482	-0.266	0.119
-413.398	-119.936	0.457	0.079
-412.384	-130.728	0.545	0.073
-411.369	63.900	0.084	0.085
-410.355	526.506	-0.132	0.310
-409.340	800.000	-0.071	0.208
-408.325	-43.310	-0.173	0.088
-407.311	150.746	0.016	0.022
-406.296	75.405	-0.174	0.184
-405.282	800.000	-0.011	-0.045
-404.267	143.610	0.069	0.091
-403.252	-51.859	-0.210	-0.098
-402.238	526.546	-0.142	-0.335
-401.223	34.394	-0.078	-0.068
-400.209	-90.680	-0.223	-0.064
-399.194	-200.000	-0.001	-0.316
-398.179	-27.015	-0.189	-0.111
-397.165	335.254	-0.119	-0.231
-396.150	-30.311	-0.214	-0.121
-395.136	604.313	-0.104	0.260
-394.121	33.501	0.117	-0.101
-393.106	104.222	-0.126	-0.148
-392.092	800.000	0.110	0.325
-391.077	-69.101	0.101	0.039
-390.063	149.037	0.103	0.139
-389.048	-128.144	-0.114	0.016
-388.033	327.978	-0.257	-0.493
-387.019	390.583	-0.088	-0.182
-386.004	-24.678	0.243	-0.144
-384.990	-43.022	0.062	0.032
-383.975	181.433	-0.164	0.241
-382.960	-200.000	0.001	-0.368
-381.946	-200.000	0.011	-0.085
-380.931	-200.000	0.058	-0.402
-379.917	-67.043	-0.046	-0.018
-378.902	366.765	-0.138	-0.279
-377.888	63.068	-0.225	-0.225
-376.873	351.192	0.092	-0.182
-375.858	-20.429	0.217	0.133
-374.844	-24.700	-0.105	-0.063
-373.829	-12.994	-0.078	-0.051
-372.815	-24.174	-0.086	0.052
-371.800	-119.152	-0.114	0.020
-370.785	-200.000	0.004	-0.288
-369.771	357.527	0.119	-0.238
-368.756	-127.369	-0.331	-0.048
-367.742	800.000	-0.103	0.309
-366.727	224.146	-0.122	0.197
-365.712	-200.000	-0.025	0.335
-364.698	-200.000	-0.063	0.330
-363.683	26.634	-0.415	0.347
-362.669	146.299	0.044	-0.059
-361.654	-200.000	-0.009	-0.117
-360.639	-200.000	-0.039	0.309
-359.625	800.000	-0.011	-0.038
-358.610	-200.000	0.041	0.418
-357.596	-92.160	0.170	0.048
-356.581	295.338	-0.151	-0.276
-355.566	-200.000	0.007	-0.138
-354.552	-200.000	-0.070	-0.345
-353.537	-25.376	-0.363	-0.215
-352.523	34.701	-0.087	-0.076
-351.508	168.897	0.149	-0.212
-350.493	3.727	0.282	-0.206
-349.479	-114.354	0.502	-0.097
-348.464	-45.284	-0.144	0.072
-347.450	-7.835	-0.044	0.030
-346.435	-200.000	-0.013	-0.198
-345.420	800.000	-0.048	0.147
-344.406	-200.000	-0.014	-0.136
-343.391	68.897	0.023	0.024
-342.377	-67.724	-0.114	-0.045
-341.362	518.323	0.095	0.221
-340.348	-144.785	0.172	0.016
-339.333	792.560	-0.050	0.138
-338.318	689.674	-0.211	0.550
-337.304	-130.744	0.220	0.030
-336.289	800.000	-0.052	0.178
-335.275	-62.839	0.265	0.109
-334.260	800.000	-0.014	-0.056
-333.245	79.162	-0.244	0.261
-332.231	-55.191	0.064	0.029
-331.216	67.307	0.221	0.225
-330.202	128.028	-0.179	0.228
-329.187	-19.501	-0.016	0.010
-328.172	44.935	0.105	-0.096
-327.158	-114.213	0.382	-0.074
-326.143	289.863	-0.030	0.055
-325.129	37.993	0.368	-0.327
-324.114	152.762	-0.070	0.096
-323.099	-77.300	-0.221	0.077
-322.085	-61.074	0.085	-0.036
-321.070	153.383	0.124	0.169
-320.056	-94.464	-0.199	0.054
-319.041	-130.687	0.109	0.015
-318.026	250.311	-0.033	-0.056
-317.012	273.400	0.114	-0.201
-315.997	56.622	-0.074	0.072
-314.983	-146.627	-0.197	0.017
-313.968	-200.000	0.003	-0.127
-312.953	-200.000	0.088	0.472
-311.939	53.713	0.225	0.215
-310.924	-144.158	-0.121	0.011
-309.910	109.127	-0.049	0.058
-308.895	405.359	0.088	0.185
-307.880	-200.000	0.040	-0.208
-306.866	78.248	0.136	-0.145
-305.851	-195.606	0.193	0.001
-304.837	-69.616	-0.118	0.045
-303.822	-19.556	0.115	0.071
-302.807	32.650	0.213	-0.184
-301.793	-121.575	0.244	-0.040
-300.778	300.604	-0.173	0.318
-299.764	37.632	-0.283	0.250
-298.749	-200.000	0.078	0.405
-297.735	131.681	-0.214	-0.275
-296.720	-200.000	-0.017	0.362
-295.705	155.250	0.098	0.134
-294.691	17.591	0.049	-0.038
-293.676	-67.110	-0.136	0.053
-292.662	288.301	-0.118	0.212
-291.647	-63.995	-0.130	0.053
-290.632	-122.223	0.030	0.005
-289.618	-33.494	0.327	-0.180
-288.603	800.000	-0.088	0.362
-287.589	-41.174	0.122	0.063
-286.574	800.000	0.025	-0.089
-285.559	-12.167	0.045	0.029
-284.545	360.274	-0.175	-0.349
-283.530	-38.729	-0.226	-0.119
-282.516	-114.673	0.181	-0.035
-281.501	-186.883	0.144	0.002
-280.486	570.138	0.121	0.294
-279.472	459.723	-0.132	0.293
-278.457	-111.472	0.202	0.041
-277.443	-27.379	0.121	0.070
-276.428	45.875	-0.066	0.061
-275.413	-42.036	-0.204	0.104
-274.399	32.702	0.089	-0.076
-273.384	22.750	0.141	-0.115
-272.370	-14.527	-0.234	-0.150
-271.355	-147.371	0.101	0.009
-270.340	358.160	-0.062	0.124
-269.326	326.338	0.170	0.324
-268.311	-178.617	-0.396	-0.009
-267.297	-200.000	-0.008	0.071
-266.282	8.690	-0.422	-0.317
-265.267	-2.850	0.140	0.097
-264.253	312.357	-0.080	0.150
-263.238	-200.000	-0.002	-0.238
-262.224	173.745	-0.095	-0.136
-261.209	-91.932	0.276	0.078
-260.195	-157.106	-0.277	-0.017
-259.180	800.000	-0.034	-0.129
-258.165	800.000	0.020	0.058
-257.151	284.837	0.062	-0.111
-256.136	-200.000	0.040	0.188
-255.122	-200.000	-0.005	0.153
-254.107	278.400	-0.114	-0.203
-253.092	-200.000	0.052	-0.401
-252.078	180.042	0.153	-0.223
-251.063	-91.308	0.204	0.058
-250.049	-145.676	0.167	-0.015
-249.034	800.000	-0.020	0.057
-248.019	-12.596	-0.095	-0.061
-247.005	-112.954	-0.163	-0.032
-245.990	54.958	-0.097	-0.094
-244.976	-200.000	-0.360	0.000
-243.961	-200.000	0.202	0.000
-242.946	576.218	-0.072	-0.176
-241.932	-57.920	-0.105	0.046
-240.917	-44.037	0.172	0.086
-239.903	-129.974	0.299	-0.041
-238.888	297.159	-0.139	0.254
-237.873	-200.000	0.012	0.325
-236.859	-144.779	0.264	0.024
-235.844	-200.000	-0.045	-0.446
-234.830	344.749	-0.091	0.178
-233.815	-189.399	-0.050	0.001
-232.800	-118.187	-0.379	-0.067
-231.786	-20.000	0.175	-0.108
-230.771	-72.472	-0.430	0.158
-229.757	-134.987	-0.292	-0.035
-228.742	23.532	-0.265	0.217
-227.727	-200.000	-0.005	-0.064
-226.713	-84.139	-0.162	0.051
-225.698	376.169	-0.089	0.181
-224.684	277.520	0.064	-0.114
-223.669	1.284	0.206	-0.147
-222.655	778.707	0.131	0.356
-221.640	7.908	-0.239	0.178
-220.625	7.450	0.014	0.010
-219.611	115.245	0.104	0.126
-218.596	-43.028	-0.015	0.008
-217.582	-63.657	-0.159	-0.065
-216.567	84.080	0.107	-0.116
-215.552	-200.000	0.038	0.519
-214.538	741.757	0.062	-0.164
-213.523	-13.329	0.067	-0.043
-212.509	800.000	0.014	-0.053
-211.494	351.614	0.071	-0.140
-210.479	-200.000	0.018	0.162
-209.465	800.000	-0.104	0.323
-208.450	-90.150	0.185	0.053
-207.436	-27.828	0.087	0.050
-206.421	421.618	0.211	-0.450
-205.406	3.664	0.165	0.120
-204.392	-200.000	0.004	0.243
-203.377	-146.463	0.219	-0.019
-202.363	-152.299	0.328	-0.024
-201.348	210.062	0.018	0.028
-200.333	43.101	0.109	0.099
-199.319	50.541	-0.066	-0.062
-198.304	666.985	-0.076	0.194
-197.290	11.852	0.073	0.055
-196.275	-28.295	-0.225	-0.129
-195.260	-77.614	0.190	-0.065
-194.246	-16.708	0.232	0.145
-193.231	124.649	0.173	0.216
-192.217	-56.967	-0.258	-0.113
-191.202	87.557	0.057	0.063
-190.187	-155.997	-0.180	-0.011
-189.173	-200.000	-0.039	0.212
-188.158	-99.371	0.233	0.058
-187.144	363.558	0.160	-0.319
-186.129	100.573	0.112	0.130
-185.114	344.533	0.182	0.355
-184.100	800.000	0.099	0.380
-183.085	32.334	0.094	-0.081
-182.071	-200.000	0.041	0.217
-181.056	196.667	0.081	0.122
-180.042	-76.425	-0.223	0.078
-179.027	342.400	-0.124	-0.240
-178.012	10.838	0.285	-0.216
-176.998	-134.760	0.235	-0.028
-175.983	42.767	0.338	-0.305
-174.969	-187.696	-0.215	0.003
-173.954	-14.546	-0.020	0.013
-172.939	1.000	0.215	0.153
-171.925	800.000	-0.098	0.281
-170.910	800.000	0.054	-0.163
-169.896	65.639	0.123	-0.123
-168.881	3.643	-0.264	-0.191
-167.866	680.460	0.050	0.129
-166.852	-19.916	-0.078	-0.048
-165.837	82.404	-0.159	-0.171
-164.823	-68.162	-0.072	-0.028
-163.808	-200.000	-0.013	-0.063
-162.793	18.787	0.117	-0.093
-161.779	-200.000	-0.068	-0.421
-160.764	-156.767	-0.207	-0.013
-159.750	-200.000	-0.045	0.357
-158.735	-128.512	-0.079	0.011
-157.720	168.397	-0.151	0.213
-156.706	-21.261	-0.174	-0.106
-155.691	54.333	0.209	-0.200
-154.677	24.677	0.163	-0.134
-153.662	-69.826	-0.263	-0.100
-152.647	-89.146	0.047	0.014
-151.633	135.212	0.144	-0.186
-150.618	-91.832	-0.318	-0.089
-149.604	-88.853	0.169	-0.050
-148.589	124.712	0.136	-0.169
-147.574	-90.908	-0.314	0.090
-146.560	-124.380	-0.295	0.046
-145.545	800.000	0.139	0.412
-144.531	43.927	-0.127	-0.115
-143.516	-192.021	0.148	-0.001
-142.502	192.462	-0.123	-0.185
-141.487	-12.070	0.164	0.106
-140.472	634.804	0.048	-0.120
-139.458	-97.000	0.483	-0.125
-138.443	800.000	-0.036	0.119
-137.429	752.206	-0.106	0.283
-136.414	600.754	0.075	-0.184
-135.399	-18.493	-0.087	-0.053
-134.385	364.726	-0.066	-0.131
-133.370	-99.654	0.284	-0.071
-132.356	143.514	0.226	-0.298
-131.341	163.078	0.124	-0.173
-130.326	-75.816	-0.126	0.044
-129.312	-69.333	0.117	-0.044
-128.297	-20.137	0.241	0.147
-127.283	-129.140	-0.139	0.019
-126.268	800.000	0.074	-0.279
-125.253	800.000	-0.058	0.232
-124.239	-65.485	0.158	-0.063
-123.224	-147.088	-0.141	-0.012
-122.210	-98.308	-0.312	0.079
-121.195	17.247	0.392	0.308
