DTS Sentinel unit serial number:	SN413079Multiplexer serial number:	ORYXHardware model number:	OX4-SRSoftware version number:	ORYX F/W v4.00 Oryx Data Collector v3.7.2.0data status	okinstallation	princeton_trtdifferential loss correction	single-endedforward channel	channel 2reverse channel	N/Adate	2019/09/15time	04:23:35forward acquisition time	60.00reverse acquisition time	0.00gamma	496.2192k internal	0.2325k external	0.2325temperature offset calibration	1.0030default loss term (dB/km)	0.3790temperature slope calibration	1.0000multiplexer offset coefficient	1.0000multiplexer slope coefficient	1.0000fibre end	0.00T internal ref (°C)	30.89T ext. ref 1 (°C)	4.62T ext. ref 2 (°C)	25.62length (m)	temperature (°C)	Stokes	anti-Stokes-747.200	-141.870	-0.104	-0.011
-746.185	-127.084	-0.368	0.054
-745.171	34.140	-0.209	-0.184
-744.156	-52.937	0.187	0.087
-743.142	-129.460	-0.311	-0.043
-742.127	-200.000	0.024	0.281
-741.112	103.473	0.168	0.199
-740.098	-14.624	-0.225	0.146
-739.083	54.908	-0.256	-0.249
-738.069	280.584	0.034	-0.061
-737.054	-200.000	0.008	0.182
-736.039	-106.612	-0.320	0.072
-735.025	221.061	-0.119	0.193
-734.010	171.695	-0.078	0.113
-732.996	800.000	-0.075	-0.288
-731.981	-96.439	-0.143	-0.038
-730.966	-38.465	-0.195	-0.104
-729.952	-86.169	0.175	0.054
-728.937	80.613	-0.122	0.133
-727.923	202.051	0.078	-0.121
-726.908	-190.367	-0.272	0.003
-725.894	-114.457	-0.242	-0.047
-724.879	14.229	0.123	-0.097
-723.864	-34.729	0.109	0.060
-722.850	-13.530	-0.175	0.114
-721.835	800.000	-0.115	-0.424
-720.821	-20.183	0.145	0.090
-719.806	800.000	-0.073	-0.261
-718.791	7.095	-0.185	0.139
-717.777	-7.002	0.135	-0.092
-716.762	-200.000	-0.008	0.167
-715.748	115.803	-0.117	-0.144
-714.733	-76.667	-0.217	-0.077
-713.718	-155.329	-0.267	0.017
-712.704	327.438	0.242	-0.467
-711.689	-200.000	0.018	-0.087
-710.675	-56.579	-0.164	-0.073
-709.660	-96.652	0.199	0.053
-708.645	-156.345	-0.153	-0.010
-707.631	800.000	0.046	0.145
-706.616	-105.223	-0.143	-0.033
-705.602	487.439	0.110	0.254
-704.587	-176.565	0.348	-0.009
-703.572	-200.000	-0.001	-0.100
-702.558	-200.000	0.023	0.218
-701.543	-200.000	-0.003	0.294
-700.529	44.894	-0.035	-0.032
-699.514	-101.577	-0.038	-0.009
-698.499	800.000	0.067	-0.201
-697.485	-200.000	-0.014	-0.068
-696.470	-78.904	-0.435	-0.149
-695.456	564.911	0.005	-0.013
-694.441	22.212	-0.181	0.149
-693.426	-77.811	-0.196	0.068
-692.412	-200.000	-0.027	-0.381
-691.397	447.193	-0.091	-0.202
-690.383	-146.126	0.352	0.031
-689.368	-65.502	-0.216	-0.087
-688.354	-200.000	0.003	-0.111
-687.339	378.073	-0.147	-0.302
-686.324	-153.555	0.104	-0.007
-685.310	-200.000	0.037	0.272
-684.295	-63.292	-0.334	-0.138
-683.281	800.000	0.062	-0.173
-682.266	-92.980	-0.031	-0.009
-681.251	-43.073	-0.239	0.122
-680.237	9.529	-0.050	0.038
-679.222	-200.000	0.025	-0.346
-678.208	195.224	-0.093	-0.142
-677.193	-26.278	0.044	-0.026
-676.178	-200.000	-0.002	-0.016
-675.164	-37.955	0.164	-0.087
-674.149	24.762	-0.147	-0.123
-673.135	-200.000	0.061	-0.310
-672.120	-152.836	0.140	0.010
-671.105	-200.000	-0.037	-0.303
-670.091	-10.317	-0.215	-0.143
-669.076	-25.023	-0.125	-0.075
-668.062	-200.000	0.063	-0.306
-667.047	97.324	-0.045	-0.052
-666.032	357.501	-0.210	0.421
-665.018	-36.710	-0.090	0.048
-664.003	592.865	0.045	0.113
-662.989	-148.741	-0.241	-0.020
-661.974	-151.536	0.285	-0.021
-660.959	-8.297	-0.168	0.113
-659.945	-200.000	-0.016	0.266
-658.930	-138.408	-0.511	-0.057
-657.916	-153.512	0.479	-0.033
-656.901	342.181	0.049	0.097
-655.886	251.858	-0.032	0.055
-654.872	-200.000	0.015	-0.072
-653.857	-67.390	-0.236	-0.093
-652.843	800.000	-0.085	0.340
-651.828	-56.998	0.371	0.165
-650.814	490.786	0.099	0.229
-649.799	-41.655	0.106	0.055
-648.784	622.792	0.019	-0.047
-647.770	-87.716	0.351	-0.107
-646.755	96.639	0.014	-0.016
-645.741	165.469	-0.187	-0.266
-644.726	800.000	0.025	-0.103
-643.711	64.293	-0.114	0.115
-642.697	-58.724	0.076	-0.033
-641.682	800.000	-0.015	0.067
-640.668	308.229	0.050	0.094
-639.653	-122.940	-0.259	-0.042
-638.638	-191.408	0.215	0.002
-637.624	-102.132	0.188	0.045
-636.609	136.360	0.197	-0.258
-635.595	509.705	-0.157	-0.367
-634.580	800.000	-0.022	-0.061
-633.565	-2.932	-0.327	0.229
-632.551	-124.982	-0.158	0.024
-631.536	225.173	-0.169	-0.276
-630.522	3.320	-0.237	-0.173
-629.507	-5.352	-0.178	0.122
-628.492	-146.732	0.127	-0.011
-627.478	25.027	-0.377	0.314
-626.463	-115.599	-0.055	-0.010
-625.449	-200.000	-0.017	0.241
-624.434	800.000	0.145	0.411
-623.419	-200.000	-0.043	-0.191
-622.405	-200.000	0.032	-0.162
-621.390	-200.000	-0.009	0.090
-620.376	-180.013	-0.287	-0.006
-619.361	581.873	-0.029	0.072
-618.346	270.069	-0.043	-0.076
-617.332	800.000	-0.056	-0.217
-616.317	-39.768	0.124	-0.065
-615.303	-132.016	0.129	-0.017
-614.288	-159.509	0.235	-0.013
-613.273	-20.300	-0.201	-0.124
-612.259	800.000	-0.018	0.063
-611.244	-114.643	0.257	0.049
-610.230	-116.580	0.262	-0.048
-609.215	-200.000	0.005	-0.105
-608.201	-75.339	-0.148	-0.053
-607.186	104.661	-0.237	-0.280
-606.171	-200.000	0.067	0.297
-605.157	137.989	0.193	0.254
-604.142	-75.452	-0.294	-0.105
-603.128	-200.000	0.012	0.336
-602.113	57.083	0.048	-0.047
-601.098	15.709	0.074	0.059
-600.084	-200.000	-0.010	-0.079
-599.069	36.280	0.063	-0.056
-598.055	153.096	0.055	-0.076
-597.040	-38.090	0.251	0.134
-596.025	42.799	0.123	0.113
-595.011	251.535	0.107	-0.182
-593.996	-92.750	-0.261	-0.073
-592.982	-48.764	0.495	-0.238
-591.967	-118.487	-0.228	-0.041
-590.952	-28.925	-0.279	-0.161
-589.938	406.933	0.067	-0.143
-588.923	-200.000	0.006	-0.081
-587.909	171.127	-0.033	0.047
-586.894	-200.000	-0.034	-0.278
-585.879	4.337	-0.114	-0.084
-584.865	168.625	0.074	-0.106
-583.850	-200.000	-0.052	0.338
-582.836	235.773	-0.104	-0.172
-581.821	-200.000	-0.042	-0.247
-580.806	-119.044	-0.123	-0.022
-579.792	-56.793	-0.293	-0.130
-578.777	226.332	-0.016	-0.025
-577.763	-42.335	-0.375	0.192
-576.748	-191.633	0.146	-0.001
-575.733	515.174	0.019	0.045
-574.719	800.000	-0.048	0.172
-573.704	-164.871	0.144	0.006
-572.690	-200.000	-0.011	-0.206
-571.675	183.863	-0.069	-0.102
-570.661	336.566	-0.208	-0.405
-569.646	800.000	0.045	0.151
-568.631	67.932	-0.053	-0.054
-567.617	-200.000	0.059	-0.365
-566.602	-200.000	-0.028	-0.207
-565.588	283.706	-0.128	0.231
-564.573	-127.538	-0.153	0.022
-563.558	-156.786	0.249	0.015
-562.544	279.062	0.085	-0.152
-561.529	-200.000	-0.026	0.162
-560.515	-39.768	-0.259	0.136
-559.500	32.006	-0.368	-0.318
-558.485	-19.260	-0.043	0.027
-557.471	43.418	-0.109	-0.100
-556.456	800.000	-0.080	0.234
-555.442	433.784	-0.065	-0.142
-554.427	-132.472	-0.353	-0.046
-553.412	108.499	-0.088	0.105
-552.398	-71.072	-0.293	-0.110
-551.383	419.120	-0.147	0.316
-550.369	-23.689	-0.256	0.153
-549.354	743.413	-0.143	0.386
-548.339	470.879	-0.114	-0.257
-547.325	-84.396	0.263	-0.083
-546.310	-200.000	0.038	-0.430
-545.296	201.987	0.098	-0.151
-544.281	-39.373	0.244	0.128
-543.266	-200.000	0.005	0.281
-542.252	-18.013	0.203	0.128
-541.237	138.222	0.207	-0.272
-540.223	-18.454	-0.034	0.021
-539.208	604.030	-0.107	-0.267
-538.193	159.546	-0.098	0.137
-537.179	313.534	-0.233	0.439
-536.164	-80.316	-0.105	0.035
-535.150	-200.000	0.000	-0.134
-534.135	261.031	0.156	0.270
-533.121	44.633	0.219	-0.201
-532.106	-200.000	-0.015	-0.203
-531.091	-200.000	-0.015	-0.120
-530.077	-47.342	-0.469	0.228
-529.062	283.549	-0.152	0.274
-528.048	334.434	0.028	0.053
-527.033	498.342	0.129	0.298
-526.018	-200.000	0.003	0.130
-525.004	146.115	0.148	0.198
-523.989	-28.516	0.398	-0.230
-522.975	-73.810	-0.226	0.082
-521.960	78.307	0.151	0.162
-520.945	-4.607	-0.356	-0.246
-519.931	566.826	-0.146	-0.355
-518.916	-11.578	0.077	0.051
-517.902	124.064	-0.109	0.137
-516.887	106.157	-0.182	-0.215
-515.872	-23.395	-0.401	0.241
-514.858	85.783	-0.232	-0.255
-513.843	-200.000	-0.055	-0.301
-512.829	-142.340	-0.192	0.019
-511.814	-114.371	-0.238	-0.046
-510.799	100.302	0.163	0.189
-509.785	-59.484	-0.323	-0.139
-508.770	-200.000	-0.056	-0.278
-507.756	-3.376	0.156	0.109
-506.741	-113.984	-0.304	0.059
-505.726	-175.899	0.330	0.009
-504.712	152.439	-0.192	-0.261
-503.697	800.000	-0.051	-0.174
-502.683	229.440	-0.130	-0.212
-501.668	-118.573	-0.136	-0.024
-500.653	-200.000	0.050	-0.385
-499.639	158.099	-0.141	-0.195
-498.624	-200.000	0.006	0.173
-497.610	131.020	0.044	-0.057
-496.595	-50.611	-0.211	-0.099
-495.581	398.471	-0.044	0.092
-494.566	233.794	-0.093	0.153
-493.551	498.407	0.098	0.225
-492.537	-60.838	-0.117	-0.050
-491.522	-68.061	0.242	-0.094
-490.508	-200.000	0.043	0.278
-489.493	-54.245	-0.334	0.151
-488.478	84.176	-0.155	-0.169
-487.464	-46.878	0.194	0.095
-486.449	-22.235	-0.251	-0.152
-485.435	-200.000	0.050	-0.293
-484.420	213.598	0.079	0.124
-483.405	800.000	-0.047	0.200
-482.391	-51.171	-0.109	-0.051
-481.376	734.328	-0.044	-0.117
-480.362	-172.066	0.091	0.003
-479.347	49.205	-0.147	0.138
-478.332	-200.000	0.016	0.262
-477.318	-99.077	-0.185	-0.047
-476.303	9.256	0.157	-0.118
-475.289	29.570	-0.081	-0.069
-474.274	800.000	0.072	-0.306
-473.259	203.088	-0.115	-0.177
-472.245	-200.000	-0.016	-0.069
-471.230	-35.664	0.241	-0.130
-470.216	-108.169	0.228	-0.049
-469.201	-12.747	-0.139	-0.090
-468.186	-183.390	0.305	0.005
-467.172	560.313	0.016	-0.038
-466.157	800.000	0.042	-0.156
-465.143	-33.480	0.175	-0.097
-464.128	111.679	-0.223	-0.268
-463.113	-124.814	-0.201	0.031
-462.099	-161.796	0.338	0.017
-461.084	-18.142	-0.123	0.077
-460.070	-39.106	-0.184	-0.096
-459.055	-115.383	0.165	-0.031
-458.040	-94.278	-0.261	0.071
-457.026	-200.000	-0.031	0.195
-456.011	429.468	0.122	-0.264
-454.997	87.489	-0.154	0.170
-453.982	800.000	0.033	-0.102
-452.968	-200.000	-0.068	-0.393
-451.953	243.292	0.162	-0.270
-450.938	-32.126	0.147	0.082
-449.924	278.965	-0.068	-0.121
-448.909	-57.195	0.308	0.135
-447.895	243.616	0.084	-0.140
-446.880	101.998	-0.059	-0.068
-445.865	-138.254	-0.182	0.020
-444.851	265.142	0.050	-0.087
-443.836	-22.285	0.139	0.084
-442.822	-89.275	0.334	0.098
-441.807	260.474	-0.099	-0.171
-440.792	87.134	0.286	0.315
-439.778	-200.000	-0.035	-0.289
-438.763	800.000	-0.029	0.082
-437.749	-200.000	-0.014	0.105
-436.734	-139.320	0.234	-0.025
-435.719	-63.701	0.151	-0.062
-434.705	-115.572	-0.086	-0.016
-433.690	133.235	-0.271	0.349
-432.676	-98.539	0.274	-0.070
-431.661	-104.721	-0.188	-0.043
-430.646	-117.518	-0.057	0.010
-429.632	-57.951	0.048	-0.021
-428.617	-200.000	-0.042	-0.248
-427.603	-99.594	0.268	-0.067
-426.588	-200.000	-0.062	-0.418
-425.573	92.648	0.175	-0.197
-424.559	82.598	-0.054	-0.058
-423.544	-145.773	-0.445	-0.040
-422.530	49.772	0.221	0.207
-421.515	3.502	-0.353	0.256
-420.500	-200.000	0.026	0.128
-419.486	88.791	0.259	0.287
-418.471	-118.327	0.356	0.063
-417.457	361.499	-0.047	-0.093
-416.442	-13.023	-0.133	0.086
-415.428	241.463	-0.110	-0.183
-414.413	-200.000	0.025	0.179
-413.398	-200.000	-0.006	-0.036
-412.384	-66.038	0.177	0.070
-411.369	-154.994	0.412	0.027
-410.355	662.694	-0.086	0.220
-409.340	300.952	0.149	0.273
-408.325	118.650	0.159	0.196
-407.311	-200.000	0.009	0.172
-406.296	541.274	0.060	0.142
-405.282	-200.000	-0.047	0.306
-404.267	800.000	0.015	0.047
-403.252	-200.000	0.052	-0.279
-402.238	67.331	0.142	-0.144
-401.223	-142.986	-0.158	0.015
-400.209	160.084	0.234	0.325
-399.194	66.671	0.153	-0.155
-398.179	-200.000	-0.015	0.102
-397.165	335.732	-0.191	0.368
-396.150	509.119	0.050	0.116
-395.136	663.161	-0.109	0.281
-394.121	167.937	-0.126	0.179
-393.106	-129.380	0.184	-0.025
-392.092	55.931	-0.076	0.074
-391.077	-200.000	0.030	0.166
-390.063	255.501	-0.117	-0.199
-389.048	2.229	0.229	0.165
-388.033	-200.000	-0.019	0.287
-387.019	-145.581	0.062	-0.006
-386.004	-106.662	0.270	-0.060
-384.990	371.586	-0.055	-0.111
-383.975	-190.695	-0.198	0.002
-382.960	-149.161	-0.364	-0.029
-381.946	733.628	-0.055	-0.147
-380.931	800.000	0.044	-0.180
-379.917	-200.000	0.048	-0.258
-378.902	-200.000	-0.022	0.119
-377.888	-200.000	0.012	0.181
-376.873	-60.533	0.122	-0.052
-375.858	800.000	-0.073	-0.236
-374.844	60.265	0.214	0.211
-373.829	-200.000	0.013	0.165
-372.815	-70.260	-0.039	-0.015
-371.800	-59.423	0.351	0.150
-370.785	-200.000	-0.010	-0.177
-369.771	528.208	0.104	0.243
-368.756	-23.196	-0.024	0.014
-367.742	46.072	0.201	0.185
-366.727	-155.590	-0.278	0.018
-365.712	-42.118	0.226	-0.115
-364.698	15.959	-0.010	-0.008
-363.683	409.621	-0.111	-0.233
-362.669	62.840	0.151	0.150
-361.654	-142.789	-0.238	0.023
-360.639	-17.736	0.235	-0.147
-359.625	236.257	-0.128	-0.210
-358.610	-92.351	0.184	-0.051
-357.596	165.995	-0.210	0.296
-356.581	800.000	0.103	0.315
-355.566	469.670	0.113	0.251
-354.552	-200.000	0.296	0.001
-353.537	168.979	-0.202	0.286
-352.523	-200.000	0.029	-0.382
-351.508	-200.000	-0.011	-0.222
-350.493	0.076	-0.071	-0.051
-349.479	202.297	0.046	0.071
-348.464	73.627	-0.088	0.092
-347.450	800.000	0.069	0.210
-346.435	-164.138	0.547	-0.025
-345.420	-144.969	-0.074	0.007
-344.406	57.706	-0.089	-0.087
-343.391	119.163	-0.214	-0.263
-342.377	-157.074	0.349	-0.021
-341.362	218.940	0.184	-0.292
-340.348	-69.453	0.091	-0.035
-339.333	-200.000	-0.065	0.454
-338.318	215.661	0.118	-0.186
-337.304	285.745	-0.083	0.148
-336.289	-52.714	0.166	0.076
-335.275	153.809	0.074	-0.100
-334.260	668.565	-0.114	0.293
-333.245	-146.766	0.376	0.032
-332.231	-200.000	0.015	0.077
-331.216	-117.691	-0.384	-0.069
-330.202	24.554	0.085	-0.070
-329.187	800.000	-0.113	-0.353
-328.172	800.000	0.041	-0.165
-327.158	50.874	-0.339	-0.319
-326.143	535.923	-0.076	-0.179
-325.129	-43.201	0.316	-0.159
-324.114	325.840	0.079	-0.149
-323.099	122.374	-0.041	-0.050
-322.085	-92.741	0.112	-0.031
-321.070	-65.313	0.053	0.021
-320.056	71.039	-0.223	-0.230
-319.041	-49.522	-0.381	-0.180
-318.026	720.289	0.208	-0.548
-317.012	-200.000	-0.005	-0.129
-315.997	-28.525	-0.274	-0.157
-314.983	277.882	0.054	0.096
-313.968	-73.530	-0.203	-0.074
-312.953	60.550	0.134	0.132
-311.939	-122.689	-0.342	0.055
-310.924	-81.036	0.213	-0.070
-309.910	-50.930	0.181	0.084
-308.895	330.078	-0.086	0.165
-307.880	800.000	0.093	0.313
-306.866	800.000	0.032	0.102
-305.851	359.344	-0.031	0.061
-304.837	43.670	0.335	0.304
-303.822	142.784	0.260	-0.343
-302.807	800.000	-0.069	0.204
-301.793	71.109	-0.245	0.252
-300.778	-200.000	0.012	0.136
-299.764	-200.000	-0.018	0.141
-298.749	261.858	-0.082	-0.141
-297.735	2.186	0.258	0.185
-296.720	273.872	-0.024	0.042
-295.705	-148.922	0.241	0.019
-294.691	-113.271	0.382	0.075
-293.676	65.656	0.050	0.050
-292.662	-200.000	-0.037	-0.212
-291.647	800.000	-0.059	0.257
-290.632	-200.000	0.026	-0.178
-289.618	-200.000	-0.008	0.266
-288.603	-200.000	0.009	0.245
-287.589	-46.896	-0.234	0.113
-286.574	-200.000	-0.035	0.206
-285.559	-200.000	0.037	-0.164
-284.545	800.000	-0.087	-0.286
-283.530	166.698	0.148	0.208
-282.516	29.474	0.185	-0.156
-281.501	-127.629	-0.485	-0.070
-280.486	-82.684	0.237	-0.076
-279.472	-58.835	0.219	0.094
-278.457	800.000	-0.046	-0.182
-277.443	800.000	0.060	0.166
-276.428	-1.487	0.320	0.224
-275.413	108.373	-0.298	0.353
-274.399	250.142	0.256	-0.430
-273.384	-200.000	0.002	0.162
-272.370	-200.000	0.005	-0.054
-271.355	-106.586	-0.301	-0.066
-270.340	-27.032	0.107	0.062
-269.326	493.013	-0.025	0.058
-268.311	162.504	-0.198	-0.274
-267.297	97.714	0.112	-0.127
-266.282	-108.552	-0.134	-0.029
-265.267	34.390	-0.152	0.131
-264.253	3.866	0.069	0.050
-263.238	-154.259	0.108	0.007
-262.224	800.000	0.070	0.263
-261.209	520.969	-0.178	0.412
-260.195	13.255	-0.084	0.064
-259.180	-200.000	-0.051	-0.344
-258.165	-140.654	-0.229	-0.023
-257.151	-200.000	-0.007	0.127
-256.136	515.449	-0.133	0.308
-255.122	-174.857	0.279	-0.008
-254.107	141.984	-0.234	0.307
-253.092	-107.512	-0.212	-0.046
-252.078	-15.793	0.179	0.113
-251.063	302.703	0.210	-0.385
-250.049	53.173	-0.179	-0.170
-249.034	468.406	-0.094	-0.208
-248.019	-12.560	-0.053	-0.034
-247.005	800.000	0.043	-0.157
-245.990	-142.935	0.291	-0.028
-244.976	462.966	0.087	0.191
-243.961	-133.597	-0.097	-0.012
-242.946	-30.532	0.194	-0.109
-241.932	-58.436	0.107	-0.046
-240.917	800.000	-0.060	-0.258
-239.903	193.464	-0.153	-0.229
-238.888	-13.232	0.120	-0.077
-237.873	800.000	0.106	0.343
-236.859	301.769	0.149	0.273
-235.844	691.217	-0.075	-0.195
-234.830	800.000	0.130	0.521
-233.815	800.000	-0.071	-0.242
-232.800	-25.586	0.368	-0.215
-231.786	-63.893	-0.365	-0.148
-230.771	190.969	0.074	0.110
-229.757	181.300	0.211	0.307
-228.742	7.315	-0.115	-0.085
-227.727	-200.000	-0.017	0.329
-226.713	-67.011	0.067	0.026
-225.698	0.998	0.358	0.254
-224.684	-36.150	-0.055	-0.029
-223.669	-200.000	-0.000	0.041
-222.655	-200.000	0.017	0.121
-221.640	29.339	0.129	-0.108
-220.625	392.124	0.137	0.282
-219.611	254.245	-0.123	-0.207
-218.596	-134.974	0.210	0.025
-217.582	-200.000	-0.034	-0.256
-216.567	-25.339	0.312	-0.182
-215.552	-200.000	0.003	-0.076
-214.538	-200.000	0.048	0.372
-213.523	800.000	-0.030	-0.118
-212.509	68.504	-0.132	-0.134
-211.494	-68.222	-0.348	-0.134
-210.479	268.387	0.066	0.114
-209.465	800.000	0.080	-0.331
-208.450	-200.000	-0.035	0.177
-207.436	264.475	-0.104	0.179
-206.421	800.000	-0.048	-0.162
-205.406	-200.000	0.031	0.245
-204.392	-196.156	-0.157	-0.001
-203.377	-171.984	-0.272	-0.009
-202.363	-30.869	-0.284	0.159
-201.348	-25.453	-0.155	-0.090
-200.333	-200.000	-0.061	0.271
-199.319	-116.795	0.504	0.091
-198.304	-200.000	0.012	-0.135
-197.290	-200.000	0.003	0.040
-196.275	-200.000	0.010	-0.082
-195.260	800.000	-0.096	0.268
-194.246	19.942	-0.416	0.331
-193.231	-200.000	0.021	0.471
-192.217	-200.000	-0.005	0.201
-191.202	-50.089	-0.161	-0.076
-190.187	295.391	0.067	-0.122
-189.173	-46.376	-0.078	0.038
-188.158	-81.727	0.161	0.052
-187.144	-67.748	-0.222	0.086
-186.129	-29.265	0.139	0.078
-185.114	-126.686	0.421	-0.062
-184.100	364.513	0.068	-0.135
-183.085	130.810	-0.130	-0.164
-182.071	91.509	0.140	-0.155
-181.056	-200.000	0.009	0.063
-180.042	95.185	0.232	0.261
-179.027	800.000	-0.066	-0.232
-178.012	-36.938	-0.143	-0.076
-176.998	3.730	0.342	0.246
-175.983	-70.071	0.205	0.077
-174.969	-121.516	-0.303	-0.050
-173.954	393.575	0.004	-0.009
-172.939	-185.547	0.276	-0.004
-171.925	-12.885	0.309	0.199
-170.910	-5.265	0.281	0.191
-169.896	-200.000	-0.003	-0.107
-168.881	68.356	0.390	0.394
-167.866	252.670	-0.032	0.054
-166.852	186.767	0.175	0.257
-165.837	327.410	-0.037	-0.070
-164.823	449.024	-0.110	-0.239
-163.808	800.000	0.043	-0.129
-162.793	-124.783	0.104	-0.016
-161.779	-111.392	-0.309	0.062
-160.764	84.241	-0.028	-0.030
-159.750	118.287	0.286	0.348
-158.735	389.627	0.119	-0.244
-157.720	-39.901	-0.106	-0.054
-156.706	-113.168	-0.072	-0.014
-155.691	-174.430	0.161	0.005
-154.677	-77.651	0.115	0.039
-153.662	-143.852	-0.291	0.027
-152.647	-73.091	-0.157	-0.057
-151.633	-200.000	-0.050	-0.248
-150.618	-142.489	-0.167	-0.016
-149.604	-139.696	-0.127	0.013
-148.589	399.698	-0.079	0.164
-147.574	-86.372	0.146	0.044
-146.560	237.024	0.079	-0.129
-145.545	-200.000	-0.003	0.201
-144.531	800.000	0.050	0.203
-143.516	43.454	0.208	-0.187
-142.502	165.740	-0.116	-0.162
-141.487	-200.000	-0.041	-0.309
-140.472	473.896	-0.140	0.311
-139.458	-200.000	0.033	0.157
-138.443	-200.000	0.008	-0.174
-137.429	184.513	-0.100	0.147
-136.414	549.388	0.138	0.326
-135.399	231.784	0.097	-0.156
-134.385	-54.694	-0.334	-0.149
-133.370	191.091	0.097	-0.144
-132.356	800.000	0.090	-0.382
-131.341	-49.316	0.248	-0.117
-130.326	-89.065	-0.121	-0.035
-129.312	23.038	-0.237	-0.191
-128.297	174.245	-0.091	0.129
-127.283	108.015	0.327	-0.384
-126.268	-45.985	-0.136	-0.066
-125.253	-173.413	0.357	0.011
-124.239	-200.000	-0.011	0.140
