DTS Sentinel unit serial number:	SN413079Multiplexer serial number:	ORYXHardware model number:	OX4-SRSoftware version number:	ORYX F/W v4.00 Oryx Data Collector v3.7.2.0data status	okinstallation	princeton_trtdifferential loss correction	single-endedforward channel	channel 2reverse channel	N/Adate	2019/09/17time	01:39:35forward acquisition time	60.00reverse acquisition time	0.00gamma	496.2192k internal	0.2329k external	0.2329temperature offset calibration	0.9976default loss term (dB/km)	0.3790temperature slope calibration	1.0000multiplexer offset coefficient	1.0000multiplexer slope coefficient	1.0000fibre end	0.00T internal ref (°C)	29.56T ext. ref 1 (°C)	0.11T ext. ref 2 (°C)	24.52length (m)	temperature (°C)	Stokes	anti-Stokes-747.200	704.120	-0.127	0.339
-746.185	111.754	0.011	-0.014
-745.171	542.093	-0.032	-0.077
-744.156	241.917	-0.260	0.439
-743.142	647.866	0.037	-0.096
-742.127	169.754	0.146	0.210
-741.112	-66.622	0.281	-0.112
-740.098	-200.000	-0.067	-0.302
-739.083	-200.000	-0.028	0.197
-738.069	84.720	0.055	0.061
-737.054	4.313	-0.213	-0.157
-736.039	36.574	-0.091	0.080
-735.025	-74.661	-0.249	-0.090
-734.010	-131.324	-0.128	0.017
-732.996	254.289	0.055	0.094
-731.981	-149.075	-0.090	0.007
-730.966	418.290	-0.153	-0.329
-729.952	700.221	0.123	-0.327
-728.937	63.712	-0.051	-0.052
-727.923	57.253	-0.206	-0.203
-726.908	529.924	0.058	0.138
-725.894	-200.000	-0.037	-0.192
-724.879	75.296	-0.218	-0.231
-723.864	-13.484	0.312	0.204
-722.850	68.175	-0.175	0.180
-721.835	-16.180	0.072	0.046
-720.821	-162.002	-0.246	-0.013
-719.806	-33.311	0.104	-0.058
-718.791	-200.000	-0.003	-0.192
-717.777	93.830	0.176	0.201
-716.762	800.000	-0.106	-0.379
-715.748	-102.463	0.151	0.036
-714.733	-200.000	0.002	-0.214
-713.718	-200.000	-0.015	-0.070
-712.704	147.385	0.157	-0.212
-711.689	471.135	-0.056	0.127
-710.675	-200.000	-0.046	-0.205
-709.660	-71.045	0.207	-0.078
-708.645	-106.257	0.428	0.096
-707.631	268.073	-0.062	0.109
-706.616	800.000	-0.112	-0.316
-705.602	-200.000	-0.044	-0.283
-704.587	74.999	-0.181	-0.192
-703.572	134.180	0.125	0.163
-702.558	117.842	0.283	0.350
-701.543	7.021	0.103	-0.077
-700.529	-36.715	-0.168	-0.091
-699.514	-96.206	0.022	0.006
-698.499	-151.270	-0.237	-0.018
-697.485	-91.923	-0.055	-0.016
-696.470	800.000	0.053	0.204
-695.456	-200.000	-0.033	-0.196
-694.441	74.955	0.093	0.099
-693.426	800.000	0.047	-0.132
-692.412	-126.994	0.130	-0.019
-691.397	-40.379	-0.101	-0.053
-690.383	-200.000	-0.052	-0.293
-689.368	1.078	0.019	0.014
-688.354	-200.000	0.008	-0.102
-687.339	-6.321	-0.187	-0.128
-686.324	207.991	-0.032	0.049
-685.310	281.770	-0.064	0.116
-684.295	-200.000	-0.003	-0.040
-683.281	-81.462	-0.058	-0.019
-682.266	12.655	-0.167	0.129
-681.251	187.452	0.115	-0.173
-680.237	535.363	-0.049	-0.116
-679.222	-106.420	0.165	-0.037
-678.208	-22.397	0.151	0.092
-677.193	-50.249	0.305	0.145
-676.178	800.000	0.057	0.189
-675.164	-200.000	0.025	0.337
-674.149	-200.000	0.012	-0.114
-673.135	557.793	0.160	-0.388
-672.120	18.704	0.174	0.140
-671.105	96.583	0.194	-0.224
-670.091	-134.966	0.172	-0.021
-669.076	800.000	0.045	0.162
-668.062	-123.696	-0.053	-0.009
-667.047	-55.210	-0.166	-0.075
-666.032	-200.000	0.001	0.087
-665.018	8.233	0.178	-0.135
-664.003	-43.820	-0.184	0.093
-662.989	800.000	0.085	0.241
-661.974	800.000	0.132	-0.439
-660.959	800.000	-0.067	-0.259
-659.945	35.317	-0.179	-0.158
-658.930	24.208	-0.178	-0.148
-657.916	3.405	-0.315	-0.230
-656.901	-177.496	0.071	0.002
-655.886	-200.000	-0.030	-0.139
-654.872	338.205	0.262	0.513
-653.857	50.847	0.270	-0.257
-652.843	8.494	0.420	-0.317
-651.828	-79.778	0.241	0.082
-650.814	372.880	-0.069	0.141
-649.799	77.182	0.046	-0.049
-648.784	-53.395	0.219	0.101
-647.770	-125.398	-0.086	0.013
-646.755	800.000	0.018	0.072
-645.741	-200.000	0.002	0.035
-644.726	-200.000	0.035	0.245
-643.711	69.637	-0.179	-0.185
-642.697	117.430	0.212	-0.262
-641.682	-200.000	0.017	0.154
-640.668	223.093	-0.151	-0.244
-639.653	-113.949	0.103	0.020
-638.638	-68.614	-0.174	-0.068
-637.624	-200.000	-0.027	0.213
-636.609	104.648	-0.180	-0.213
-635.595	-200.000	0.062	-0.275
-634.580	-4.555	0.131	-0.091
-633.565	139.281	0.137	-0.181
-632.551	687.989	0.079	-0.206
-631.536	-200.000	-0.005	-0.287
-630.522	-130.986	-0.153	0.020
-629.507	-146.877	0.298	-0.026
-628.492	-118.401	-0.551	0.098
-627.478	332.890	-0.136	0.264
-626.463	587.363	0.098	0.241
-625.449	-0.401	-0.088	0.062
-624.434	-39.995	0.181	0.095
-623.419	-66.473	-0.454	0.181
-622.405	-112.429	0.330	0.066
-621.390	-106.022	0.299	-0.068
-620.376	-57.236	0.235	-0.104
-619.361	244.032	-0.075	0.126
-618.346	-200.000	-0.014	-0.087
-617.332	35.426	0.158	0.139
-616.317	227.203	0.148	0.241
-615.303	-94.228	-0.188	0.052
-614.288	800.000	0.020	0.063
-613.273	56.589	0.043	-0.042
-612.259	267.165	-0.265	-0.464
-611.244	-91.109	0.074	0.021
-610.230	-69.695	-0.364	0.140
-609.215	-97.530	0.057	-0.015
-608.201	800.000	0.094	0.318
-607.186	800.000	-0.077	0.335
-606.171	-166.536	-0.319	0.013
-605.157	-7.967	-0.286	0.193
-604.142	-36.274	0.055	0.030
-603.128	85.200	0.079	-0.087
-602.113	-69.122	-0.296	0.114
-601.098	79.867	0.076	0.082
-600.084	94.798	-0.125	0.142
-599.069	169.230	0.213	-0.304
-598.055	69.911	-0.298	-0.307
-597.040	800.000	-0.078	0.239
-596.025	-200.000	0.149	-0.000
-595.011	66.525	-0.266	-0.271
-593.996	-58.839	-0.071	-0.031
-592.982	53.316	-0.192	-0.185
-591.967	-48.356	0.192	-0.093
-590.952	85.943	0.290	-0.319
-589.938	96.457	-0.075	-0.086
-588.923	128.453	0.063	0.080
-587.909	87.307	-0.117	-0.129
-586.894	-131.487	0.171	0.023
-585.879	380.240	0.060	-0.123
-584.865	36.905	-0.270	-0.239
-583.850	-55.478	-0.096	-0.043
-582.836	694.717	-0.095	0.248
-581.821	216.155	0.239	0.380
-580.806	36.903	-0.146	0.129
-579.792	-134.863	0.207	-0.025
-578.777	68.334	0.202	-0.207
-577.763	-12.184	0.107	-0.070
-576.748	800.000	0.092	0.282
-575.733	-66.582	-0.380	-0.151
-574.719	-64.695	-0.041	-0.017
-573.704	-96.337	0.050	-0.013
-572.690	-65.729	-0.294	0.118
-571.675	51.525	-0.066	0.063
-570.661	-200.000	-0.011	-0.066
-569.646	-53.727	0.230	-0.105
-568.631	-132.217	0.159	0.021
-567.617	-105.670	-0.102	-0.023
-566.602	708.995	-0.111	-0.294
-565.588	65.965	0.034	0.034
-564.573	-19.177	0.358	0.223
-563.558	-200.000	-0.005	-0.073
-562.544	-125.755	-0.427	0.065
-561.529	-200.000	-0.018	-0.241
-560.515	210.886	-0.088	0.139
-559.500	800.000	-0.036	-0.143
-558.485	93.406	-0.108	0.122
-557.471	-131.981	0.294	0.038
-556.456	80.604	-0.012	0.013
-555.442	-65.305	0.084	0.034
-554.427	-158.421	-0.117	0.007
-553.412	-32.889	0.263	-0.146
-552.398	117.204	0.072	-0.089
-551.383	-120.287	-0.241	-0.041
-550.369	144.130	0.091	-0.121
-549.354	32.441	-0.112	0.097
-548.339	293.434	-0.049	0.090
-547.325	-200.000	0.001	-0.066
-546.310	26.349	0.154	-0.129
-545.296	-139.302	-0.266	0.029
-544.281	-28.171	-0.182	0.105
-543.266	148.852	0.180	0.243
-542.252	-52.047	-0.074	-0.034
-541.237	45.152	0.226	-0.209
-540.223	-36.785	-0.085	0.045
-539.208	-200.000	-0.011	-0.066
-538.193	459.566	-0.094	0.210
-537.179	-200.000	-0.027	-0.133
-536.164	151.698	0.024	0.033
-535.150	250.159	0.062	-0.106
-534.135	-200.000	-0.012	-0.130
-533.121	-200.000	-0.037	0.211
-532.106	-34.270	0.199	-0.109
-531.091	-89.362	0.134	0.039
-530.077	-200.000	-0.002	-0.387
-529.062	190.332	-0.147	0.221
-528.048	-107.364	0.188	-0.041
-527.033	195.283	0.174	-0.265
-526.018	-200.000	-0.034	-0.560
-525.004	509.192	0.127	0.295
-523.989	-40.663	0.159	-0.082
-522.975	-200.000	0.025	0.223
-521.960	800.000	0.049	-0.194
-520.945	-160.488	0.103	-0.006
-519.931	11.287	-0.202	0.154
-518.916	-189.212	-0.210	0.002
-517.902	-55.529	-0.313	0.140
-516.887	117.444	-0.019	-0.023
-515.872	-200.000	-0.022	-0.226
-514.858	-143.094	0.100	0.010
-513.843	124.138	-0.099	0.124
-512.829	280.680	0.008	0.015
-511.814	129.308	-0.160	0.204
-510.799	-29.092	-0.130	0.074
-509.785	-131.463	-0.216	-0.029
-508.770	111.872	0.232	0.280
-507.756	86.999	0.191	0.210
-506.741	800.000	0.092	-0.394
-505.726	-200.000	0.032	-0.161
-504.712	-200.000	-0.007	-0.098
-503.697	-55.553	0.349	0.156
-502.683	405.235	0.201	-0.423
-501.668	37.166	-0.224	-0.198
-500.653	257.067	-0.222	-0.380
-499.639	-120.961	-0.242	-0.041
-498.624	-200.000	0.029	0.128
-497.610	136.117	-0.194	0.252
-496.595	-200.000	-0.027	0.153
-495.581	-200.000	-0.075	-0.344
-494.566	169.026	-0.085	0.121
-493.551	-33.303	0.085	-0.047
-492.537	704.158	0.029	0.077
-491.522	-28.464	0.451	-0.259
-490.508	101.412	0.147	-0.171
-489.493	328.184	-0.085	-0.162
-488.478	-181.877	-0.189	-0.004
-487.464	-99.211	0.163	0.041
-486.449	225.298	0.041	0.066
-485.435	-14.487	0.218	0.140
-484.420	150.293	-0.283	0.383
-483.405	-200.000	0.012	0.159
-482.391	-169.645	0.210	-0.008
-481.376	17.464	-0.263	-0.209
-480.362	-45.769	-0.154	-0.076
-479.347	-200.000	-0.002	-0.331
-478.332	18.480	-0.246	0.196
-477.318	106.585	0.079	-0.093
-476.303	800.000	-0.036	0.140
-475.289	-44.847	-0.250	0.124
-474.274	-200.000	0.050	0.359
-473.259	53.184	-0.059	-0.057
-472.245	-23.113	0.302	0.181
-471.230	-200.000	-0.092	0.496
-470.216	-200.000	-0.028	-0.226
-469.201	-200.000	-0.001	0.265
-468.186	178.062	0.124	0.180
-467.172	-82.051	-0.359	0.117
-466.157	800.000	0.042	-0.173
-465.143	-57.977	-0.195	-0.085
-464.128	626.054	-0.030	0.076
-463.113	-144.848	-0.369	-0.034
-462.099	688.615	0.088	0.230
-461.084	800.000	-0.114	-0.414
-460.070	163.751	0.356	0.499
-459.055	-92.350	-0.176	-0.049
-458.040	97.823	-0.039	0.045
-457.026	-173.989	0.630	-0.018
-456.011	-71.944	0.306	0.114
-454.997	9.342	-0.311	0.234
-453.982	-147.761	0.137	-0.011
-452.968	184.016	0.191	-0.282
-451.953	-63.013	-0.258	-0.106
-450.938	-187.015	0.295	-0.004
-449.924	-126.879	-0.136	-0.020
-448.909	-200.000	-0.012	-0.310
-447.895	141.319	-0.197	-0.259
-446.880	-95.034	-0.093	0.025
-445.865	-200.000	-0.010	0.318
-444.851	-51.655	0.182	-0.085
-443.836	79.620	0.163	-0.175
-442.822	800.000	-0.045	0.182
-441.807	-39.772	-0.411	-0.214
-440.792	-57.075	-0.325	0.143
-439.778	-200.000	-0.026	-0.277
-438.763	215.336	-0.051	-0.080
-437.749	800.000	-0.089	0.261
-436.734	10.093	-0.190	0.144
-435.719	88.220	-0.063	0.069
-434.705	-67.765	0.483	0.188
-433.690	-200.000	0.002	0.275
-432.676	800.000	-0.145	0.483
-431.661	181.922	-0.092	0.136
-430.646	800.000	-0.064	-0.187
-429.632	115.423	0.101	0.123
-428.617	51.638	-0.223	0.211
-427.603	-53.339	0.221	0.101
-426.588	-140.330	-0.093	-0.010
-425.573	-161.284	0.143	0.007
-424.559	-161.343	0.217	-0.011
-423.544	18.764	-0.261	0.208
-422.530	76.447	0.039	0.041
-421.515	18.152	0.206	0.163
-420.500	-82.167	0.222	0.072
-419.486	-51.308	-0.116	-0.054
-418.471	3.668	-0.206	0.150
-417.457	-200.000	0.001	0.076
-416.442	439.318	-0.120	0.260
-415.428	-102.975	0.219	-0.052
-414.413	-82.235	0.182	0.059
-413.398	-62.329	0.091	0.038
-412.384	198.879	-0.208	-0.317
-411.369	-141.517	-0.174	0.017
-410.355	-200.000	0.027	0.321
-409.340	-24.468	-0.146	-0.086
-408.325	97.960	-0.099	-0.113
-407.311	-34.992	0.238	-0.129
-406.296	-59.708	0.143	-0.061
-405.282	-17.944	0.188	0.117
-404.267	-200.000	-0.013	-0.164
-403.252	800.000	-0.062	0.192
-402.238	-200.000	-0.036	-0.278
-401.223	198.330	0.095	-0.144
-400.209	175.604	0.111	-0.160
-399.194	-200.000	-0.022	-0.152
-398.179	-45.001	0.337	-0.167
-397.165	-200.000	-0.007	-0.205
-396.150	-144.588	-0.311	0.029
-395.136	-68.948	0.096	0.037
-394.121	-189.200	-0.058	0.001
-393.106	-27.660	-0.257	-0.148
-392.092	-105.064	-0.242	0.055
-391.077	-2.030	0.142	0.099
-390.063	-61.604	0.049	0.021
-389.048	800.000	0.105	-0.320
-388.033	28.816	-0.296	0.249
-387.019	65.214	0.114	0.115
-386.004	187.328	-0.295	-0.437
-384.990	-72.155	-0.276	0.102
-383.975	431.089	0.047	0.100
-382.960	246.882	0.084	0.141
-381.946	800.000	0.028	-0.118
-380.931	800.000	0.020	0.085
-379.917	187.073	-0.083	-0.122
-378.902	263.730	0.139	0.240
-377.888	135.663	0.198	0.256
-376.873	75.837	-0.088	-0.093
-375.858	-200.000	-0.002	0.559
-374.844	800.000	-0.087	0.271
-373.829	157.460	0.112	-0.154
-372.815	-200.000	-0.060	-0.309
-371.800	4.577	-0.202	-0.147
-370.785	104.898	0.073	-0.085
-369.771	-200.000	0.034	-0.578
-368.756	-144.385	-0.136	0.013
-367.742	355.840	-0.027	0.053
-366.727	-109.454	0.278	0.058
-365.712	-38.170	0.258	0.136
-364.698	4.280	0.145	-0.106
-363.683	-165.131	-0.033	0.001
-362.669	42.901	0.076	0.068
-361.654	-200.000	0.002	0.108
-360.639	336.252	0.157	0.302
-359.625	31.869	-0.132	-0.113
-358.610	-98.891	0.041	-0.010
-357.596	-200.000	-0.021	0.173
-356.581	800.000	-0.046	0.197
-355.566	55.699	-0.116	-0.111
-354.552	-200.000	-0.070	-0.423
-353.537	-89.097	0.040	-0.012
-352.523	278.712	-0.068	0.119
-351.508	211.242	-0.080	-0.125
-350.493	-28.302	-0.068	0.039
-349.479	-61.161	0.258	-0.108
-348.464	253.183	-0.106	-0.180
-347.450	459.203	-0.030	-0.067
-346.435	-200.000	0.086	-0.468
-345.420	-200.000	0.014	-0.200
-344.406	25.271	-0.271	-0.223
-343.391	552.992	0.059	0.140
-342.377	-141.451	-0.134	0.013
-341.362	7.720	-0.225	-0.167
-340.348	-96.660	0.417	0.109
-339.333	133.035	0.096	0.123
-338.318	-140.218	-0.114	-0.012
-337.304	199.888	0.295	0.449
-336.289	-59.803	-0.164	0.070
-335.275	-21.261	0.154	-0.093
-334.260	-31.230	-0.219	-0.122
-333.245	10.904	-0.084	0.063
-332.231	51.599	-0.090	0.084
-331.216	-200.000	-0.039	-0.190
-330.202	800.000	0.074	0.213
-329.187	-200.000	0.005	-0.209
-328.172	17.688	0.211	-0.167
-327.158	299.833	-0.142	0.260
-326.143	-140.065	-0.316	-0.033
-325.129	-73.442	0.398	-0.144
-324.114	492.704	-0.204	-0.464
-323.099	-200.000	-0.026	-0.231
-322.085	-46.795	0.175	0.085
-321.070	-99.221	-0.201	0.050
-320.056	-200.000	0.097	-0.454
-319.041	-31.008	0.329	-0.184
-318.026	-107.659	-0.386	0.084
-317.012	161.988	-0.042	0.058
-315.997	29.622	-0.123	0.104
-314.983	-104.388	0.175	-0.040
-313.968	106.111	-0.124	0.145
-312.953	296.534	0.114	0.208
-311.939	232.059	-0.071	0.115
-310.924	-51.633	0.112	0.052
-309.910	-80.781	-0.160	-0.053
-308.895	-99.570	0.350	0.087
-307.880	-78.549	0.171	-0.058
-306.866	101.457	0.151	0.175
-305.851	-192.090	0.199	0.002
-304.837	-51.456	-0.220	-0.102
-303.822	-94.421	0.315	-0.085
-302.807	800.000	-0.058	-0.208
-301.793	162.952	0.204	-0.283
-300.778	-186.185	0.181	0.003
-299.764	31.653	0.020	0.017
-298.749	-57.521	-0.234	-0.101
-297.735	-125.425	0.344	0.052
-296.720	-200.000	0.038	0.300
-295.705	39.395	-0.187	0.165
-294.691	34.910	0.066	-0.057
-293.676	-56.550	0.323	-0.142
-292.662	-106.447	0.180	0.040
-291.647	-110.548	-0.298	0.061
-290.632	-93.124	-0.179	-0.049
-289.618	96.915	-0.199	-0.226
-288.603	-200.000	0.019	0.136
-287.589	374.213	-0.098	0.198
-286.574	6.126	0.250	0.183
-285.559	-121.422	-0.337	0.056
-284.545	-200.000	-0.082	0.407
-283.530	-98.062	-0.191	0.049
-282.516	-26.781	0.218	0.126
-281.501	-15.429	-0.263	-0.166
-280.486	37.060	0.199	0.174
-279.472	182.980	-0.042	-0.061
-278.457	168.381	-0.210	-0.295
-277.443	173.126	0.088	0.125
-276.428	308.662	-0.101	0.187
-275.413	-200.000	0.034	-0.346
-274.399	-200.000	0.010	-0.183
-273.384	-200.000	-0.002	0.214
-272.370	155.135	0.126	0.171
-271.355	85.530	0.115	-0.124
-270.340	68.593	0.053	0.054
-269.326	150.043	0.114	0.153
-268.311	800.000	-0.085	-0.295
-267.297	-67.288	0.255	-0.099
-266.282	-150.150	0.324	-0.025
-265.267	446.419	-0.073	-0.158
-264.253	-114.675	0.055	0.010
-263.238	-78.879	0.042	0.014
-262.224	-38.225	-0.300	-0.157
-261.209	-200.000	-0.019	0.102
-260.195	191.498	-0.137	-0.204
-259.180	-83.834	0.014	0.004
-258.165	198.632	0.171	0.259
-257.151	-200.000	0.019	0.084
-256.136	-200.000	-0.024	-0.137
-255.122	633.495	-0.080	-0.200
-254.107	-137.775	0.136	-0.015
-253.092	-38.462	-0.229	0.120
-252.078	214.724	0.150	0.236
-251.063	-134.401	0.081	-0.010
-250.049	84.535	0.153	0.166
-249.034	-114.943	-0.274	0.052
-248.019	-167.904	0.127	-0.005
-247.005	72.859	0.174	0.180
-245.990	-200.000	0.024	0.307
-244.976	91.400	0.075	0.083
-243.961	120.208	0.071	-0.088
-242.946	-26.048	-0.062	-0.036
-241.932	800.000	-0.027	-0.080
-240.917	-50.244	0.183	0.085
-239.903	-20.375	0.248	0.150
-238.888	-128.546	-0.188	0.026
-237.873	-119.770	0.079	-0.013
-236.859	-200.000	0.015	0.189
-235.844	-28.307	-0.373	0.212
-234.830	-65.211	0.314	0.125
-233.815	70.483	0.163	0.166
-232.800	-58.573	-0.238	0.102
-231.786	102.426	0.208	-0.240
-230.771	-93.915	0.123	-0.033
-229.757	-200.000	-0.021	0.167
-228.742	-183.802	-0.078	0.001
-227.727	-42.374	-0.251	0.126
-226.713	90.464	-0.187	-0.207
-225.698	-200.000	-0.062	0.339
-224.684	170.694	0.224	-0.317
-223.669	706.185	0.055	-0.144
-222.655	551.670	0.083	0.197
-221.640	-186.331	0.486	0.007
-220.625	-89.394	0.312	0.091
-219.611	-200.000	-0.042	-0.193
-218.596	-200.000	0.022	-0.193
-217.582	-137.307	-0.114	-0.013
-216.567	-43.515	-0.248	0.123
-215.552	157.773	0.094	0.128
-214.538	9.022	0.092	-0.069
-213.523	-115.209	0.120	0.022
-212.509	94.198	0.024	0.027
-211.494	219.823	-0.206	-0.326
-210.479	-200.000	-0.099	0.499
-209.465	-125.835	0.400	-0.060
-208.450	-194.768	0.266	0.002
-207.436	-200.000	0.013	-0.144
-206.421	10.185	-0.226	0.169
-205.406	257.204	-0.096	0.163
-204.392	141.807	-0.086	-0.113
-203.377	800.000	-0.059	0.205
-202.363	58.299	-0.209	-0.202
-201.348	-22.889	0.090	0.054
-200.333	703.812	0.104	-0.269
-199.319	15.492	0.214	-0.166
-198.304	27.251	0.143	-0.118
-197.290	-17.702	0.137	-0.085
-196.275	800.000	-0.069	0.231
-195.260	67.157	0.251	-0.252
-194.246	-141.919	0.072	0.007
-193.231	-147.391	-0.290	-0.024
-192.217	91.080	0.075	-0.083
-191.202	-200.000	-0.022	-0.243
-190.187	179.225	0.208	-0.300
-189.173	52.908	0.112	-0.106
-188.158	-43.009	-0.129	0.065
-187.144	380.495	0.085	-0.171
-186.129	332.022	0.115	0.220
-185.114	-155.253	-0.193	-0.012
-184.100	58.702	0.104	-0.100
-183.085	288.756	-0.139	0.247
-182.071	-82.122	-0.296	-0.095
-181.056	89.732	-0.302	-0.332
-180.042	-53.031	-0.331	-0.150
-179.027	-23.291	-0.123	-0.073
-178.012	-200.000	0.004	-0.185
-176.998	-11.816	-0.088	-0.057
-175.983	-200.000	-0.006	-0.140
-174.969	-200.000	0.013	0.168
-173.954	30.086	-0.161	0.136
-172.939	-200.000	-0.000	0.114
-171.925	79.210	0.145	0.153
-170.910	-200.000	-0.044	0.295
-169.896	721.910	0.075	-0.197
-168.881	-200.000	0.022	0.109
-167.866	-200.000	-0.002	0.311
-166.852	172.715	-0.049	0.069
-165.837	-56.673	-0.258	0.113
-164.823	-126.877	0.189	0.027
-163.808	358.797	-0.096	-0.189
-162.793	-200.000	-0.001	-0.033
-161.779	-200.000	0.031	0.152
-160.764	-79.464	-0.158	-0.053
-159.750	800.000	0.072	-0.254
-158.735	-7.936	-0.183	-0.122
-157.720	-14.779	0.048	-0.030
-156.706	-200.000	-0.045	0.242
-155.691	62.125	0.101	-0.099
-154.677	-74.983	0.186	-0.065
-153.662	-145.071	0.230	0.021
-152.647	800.000	-0.027	0.107
-151.633	800.000	0.103	0.282
-150.618	209.801	-0.126	0.194
-149.604	173.196	0.063	0.089
-148.589	-200.000	0.011	0.095
-147.574	238.477	-0.029	0.047
-146.560	-64.849	0.171	-0.068
-145.545	422.941	-0.040	0.084
-144.531	185.105	-0.103	0.150
-143.516	-200.000	-0.063	0.314
-142.502	-200.000	0.028	-0.246
-141.487	-136.184	0.122	0.014
-140.472	271.273	-0.209	0.362
-139.458	-200.000	-0.024	0.165
-138.443	-200.000	0.025	-0.163
-137.429	470.157	0.149	-0.330
-136.414	438.312	0.101	0.217
-135.399	-70.587	-0.272	-0.101
-134.385	800.000	0.057	0.182
-133.370	157.311	0.048	-0.065
-132.356	-178.361	0.502	0.012
-131.341	800.000	-0.045	0.132
-130.326	64.661	0.058	-0.058
-129.312	-160.621	0.091	-0.005
-128.297	-77.988	0.321	-0.109
-127.283	-46.771	0.214	-0.103
-126.268	411.213	-0.122	-0.255
-125.253	88.229	0.097	-0.106
-124.239	75.648	-0.150	0.156
-123.224	-200.000	-0.005	-0.647
-122.210	-200.000	0.040	0.253
-121.195	508.153	-0.098	0.224
