DTS Sentinel unit serial number:	SN413079Multiplexer serial number:	ORYXHardware model number:	OX4-SRSoftware version number:	ORYX F/W v4.00 Oryx Data Collector v3.7.2.0data status	okinstallation	princeton_trtdifferential loss correction	single-endedforward channel	channel 2reverse channel	N/Adate	2019/09/18time	01:47:34forward acquisition time	60.00reverse acquisition time	0.00gamma	496.2192k internal	0.2350k external	0.2350temperature offset calibration	0.9980default loss term (dB/km)	0.3790temperature slope calibration	1.0000multiplexer offset coefficient	1.0000multiplexer slope coefficient	1.0000fibre end	0.00T internal ref (°C)	23.00T ext. ref 1 (°C)	0.17T ext. ref 2 (°C)	16.55length (m)	temperature (°C)	Stokes	anti-Stokes-747.200	-158.318	0.379	-0.022
-746.185	-123.787	-0.477	-0.075
-745.171	727.790	0.152	0.405
-744.156	18.018	0.186	0.148
-743.142	105.074	0.220	0.259
-742.127	-8.590	-0.238	0.160
-741.112	124.439	0.067	0.084
-740.098	155.606	0.063	0.086
-739.083	192.523	0.147	0.221
-738.069	800.000	0.173	0.645
-737.054	-200.000	-0.060	-0.268
-736.039	-35.895	-0.449	-0.242
-735.025	-51.967	0.335	-0.155
-734.010	-86.382	-0.658	-0.202
-732.996	800.000	-0.130	-0.449
-731.981	174.704	-0.211	-0.305
-730.966	800.000	0.030	0.101
-729.952	800.000	0.147	0.473
-728.937	-25.061	0.318	0.188
-727.923	-94.094	-0.344	-0.094
-726.908	628.870	0.069	0.175
-725.894	-35.117	-0.501	0.272
-724.879	800.000	0.078	0.222
-723.864	-200.000	0.024	0.281
-722.850	259.340	-0.072	-0.124
-721.835	67.536	0.276	-0.281
-720.821	-107.136	0.271	-0.060
-719.806	-48.753	0.167	-0.080
-718.791	-120.890	0.407	-0.068
-717.777	-124.122	-0.340	0.053
-716.762	24.594	0.100	-0.083
-715.748	-46.498	-0.201	0.099
-714.733	-200.000	-0.048	-0.218
-713.718	-119.266	-0.174	-0.030
-712.704	-200.000	-0.012	-0.198
-711.689	-53.763	-0.150	0.068
-710.675	-42.215	0.405	-0.206
-709.660	-124.400	0.083	-0.013
-708.645	-147.849	0.064	-0.005
-707.631	69.560	-0.110	-0.113
-706.616	40.117	0.189	-0.170
-705.602	-200.000	-0.050	-0.477
-704.587	27.302	-0.092	0.077
-703.572	800.000	-0.049	-0.139
-702.558	153.723	0.182	-0.249
-701.543	-124.401	0.162	0.025
-700.529	105.395	-0.151	-0.177
-699.514	502.643	-0.030	0.070
-698.499	-54.785	0.380	-0.171
-697.485	-71.540	0.074	-0.028
-696.470	165.419	-0.084	-0.119
-695.456	-200.000	0.007	0.032
-694.441	-31.394	-0.096	-0.054
-693.426	-200.000	-0.011	-0.097
-692.412	-200.000	0.000	-0.415
-691.397	-129.695	0.103	-0.014
-690.383	310.501	0.051	-0.095
-689.368	179.905	0.086	-0.125
-688.354	156.949	-0.028	0.039
-687.339	800.000	-0.086	-0.343
-686.324	220.456	0.242	0.387
-685.310	-108.657	-0.228	-0.049
-684.295	-49.905	0.247	-0.117
-683.281	27.068	0.378	-0.316
-682.266	-200.000	-0.053	-0.240
-681.251	-45.050	-0.355	-0.176
-680.237	385.283	-0.068	-0.140
-679.222	-133.799	0.216	0.027
-678.208	222.428	-0.122	-0.196
-677.193	-132.285	-0.535	0.069
-676.178	-57.218	-0.088	-0.039
-675.164	-154.280	-0.320	-0.021
-674.149	764.817	0.119	-0.323
-673.135	-137.305	-0.320	-0.036
-672.120	-200.000	0.034	0.174
-671.105	-9.027	0.105	-0.070
-670.091	-99.655	-0.269	-0.067
-669.076	-200.000	0.008	-0.104
-668.062	-20.335	-0.195	-0.119
-667.047	-134.503	-0.302	-0.037
-666.032	-111.383	-0.162	0.033
-665.018	-41.290	-0.151	-0.078
-664.003	144.220	0.082	-0.109
-662.989	-82.454	0.196	-0.063
-661.974	114.086	-0.142	0.172
-660.959	800.000	0.052	0.148
-659.945	253.837	0.235	-0.399
-658.930	-200.000	0.002	0.010
-657.916	-107.474	0.164	-0.036
-656.901	-32.729	-0.057	0.031
-655.886	346.004	0.081	-0.159
-654.872	-36.374	-0.032	-0.017
-653.857	-113.870	0.066	0.013
-652.843	531.781	0.036	-0.085
-651.828	-49.260	0.331	-0.157
-650.814	258.808	0.236	-0.405
-649.799	800.000	-0.104	-0.297
-648.784	248.805	0.070	-0.118
-647.770	56.261	-0.135	-0.131
-646.755	528.706	-0.050	0.117
-645.741	32.966	0.172	-0.148
-644.726	-200.000	-0.010	0.107
-643.711	-200.000	-0.057	0.353
-642.697	-102.507	-0.153	0.036
-641.682	-51.900	0.293	-0.135
-640.668	-56.960	-0.234	0.103
-639.653	-25.902	-0.482	-0.282
-638.638	-121.812	-0.223	-0.037
-637.624	-200.000	0.016	-0.192
-636.609	-57.785	0.317	0.138
-635.595	-65.767	-0.292	-0.116
-634.580	129.137	-0.106	-0.135
-633.565	223.118	-0.164	-0.263
-632.551	256.752	-0.054	0.092
-631.536	-200.000	0.033	-0.186
-630.522	-10.177	-0.304	-0.201
-629.507	312.830	-0.128	0.239
-628.492	-71.266	-0.211	0.079
-627.478	-200.000	-0.113	0.000
-626.463	128.821	-0.211	0.267
-625.449	-154.153	0.253	-0.017
-624.434	8.522	-0.130	0.097
-623.419	-57.636	-0.097	-0.042
-622.405	-116.355	-0.075	-0.014
-621.390	-200.000	-0.038	-0.213
-620.376	579.387	-0.068	-0.164
-619.361	500.855	0.134	-0.308
-618.346	-56.025	0.437	-0.193
-617.332	800.000	0.025	-0.104
-616.317	-22.662	0.033	0.020
-615.303	-19.896	-0.186	0.114
-614.288	714.189	0.052	0.136
-613.273	-72.952	0.307	-0.112
-612.259	-158.425	-0.349	0.020
-611.244	247.483	-0.033	0.055
-610.230	96.170	0.141	-0.160
-609.215	-83.184	-0.199	-0.063
-608.201	-200.000	0.010	-0.311
-607.186	-96.388	-0.214	-0.056
-606.171	254.030	-0.075	0.127
-605.157	465.186	-0.180	-0.399
-604.142	-200.000	-0.043	-0.478
-603.128	85.262	-0.169	-0.184
-602.113	430.433	-0.153	-0.328
-601.098	2.250	-0.118	-0.085
-600.084	67.742	0.188	-0.191
-599.069	-135.285	0.100	0.012
-598.055	308.227	0.138	0.255
-597.040	-200.000	0.003	0.433
-596.025	-26.955	-0.145	-0.084
-595.011	800.000	0.059	0.222
-593.996	7.894	0.338	-0.251
-592.982	16.168	-0.188	0.147
-591.967	800.000	0.132	-0.458
-590.952	-117.977	-0.204	-0.036
-589.938	369.985	-0.030	-0.060
-588.923	-12.312	-0.215	0.139
-587.909	514.352	0.120	0.279
-586.894	8.459	0.151	-0.113
-585.879	-200.000	0.014	0.220
-584.865	-29.524	-0.108	-0.061
-583.850	800.000	0.035	0.144
-582.836	-102.225	0.145	0.034
-581.821	-200.000	0.027	-0.150
-580.806	-12.426	0.148	0.096
-579.792	-141.901	0.237	-0.024
-578.777	104.045	-0.172	0.201
-577.763	-75.252	-0.081	-0.029
-576.748	-200.000	-0.011	0.166
-575.733	190.004	0.131	-0.195
-574.719	351.518	0.078	-0.154
-573.704	103.399	-0.341	-0.397
-572.690	-50.153	0.063	-0.030
-571.675	800.000	0.107	-0.430
-570.661	-200.000	0.002	-0.011
-569.646	-71.836	0.388	0.143
-568.631	-85.319	-0.572	-0.177
-567.617	-200.000	0.016	0.291
-566.602	7.372	0.088	0.065
-565.588	-91.507	-0.056	0.016
-564.573	204.086	-0.100	0.154
-563.558	109.741	0.132	-0.157
-562.544	-200.000	0.079	0.359
-561.529	-200.000	0.008	0.039
-560.515	-200.000	0.027	-0.209
-559.500	-200.000	-0.007	0.318
-558.485	775.732	-0.126	-0.342
-557.471	76.752	-0.327	0.344
-556.456	-49.337	-0.156	0.074
-555.442	200.396	-0.058	-0.089
-554.427	-200.000	-0.037	0.197
-553.412	203.660	0.152	-0.233
-552.398	-157.702	0.237	0.014
-551.383	137.895	0.062	-0.080
-550.369	-200.000	0.046	0.204
-549.354	777.885	-0.031	0.085
-548.339	-200.000	0.005	-0.225
-547.325	-4.197	0.182	0.125
-546.310	98.328	0.192	-0.219
-545.296	-54.107	-0.285	-0.129
-544.281	141.113	-0.077	-0.100
-543.266	-140.403	-0.352	0.036
-542.252	-200.000	0.051	-0.328
-541.237	12.572	-0.084	-0.064
-540.223	136.529	-0.167	0.216
-539.208	-101.822	0.056	0.013
-538.193	-5.985	0.215	-0.146
-537.179	-144.863	-0.302	-0.027
-536.164	-200.000	-0.003	-0.099
-535.150	-40.746	0.193	0.099
-534.135	-84.711	0.090	0.028
-533.121	-104.818	-0.058	-0.013
-532.106	-55.285	0.321	0.143
-531.091	221.423	-0.067	0.106
-530.077	529.096	0.094	0.221
-529.062	24.846	-0.127	-0.104
-528.048	218.914	0.195	0.309
-527.033	-200.000	-0.020	0.383
-526.018	-21.629	0.262	0.158
-525.004	136.075	-0.087	-0.112
-523.989	-200.000	0.078	-0.398
-522.975	-100.069	0.204	0.050
-521.960	-101.658	-0.108	-0.026
-520.945	-200.000	0.028	0.263
-519.931	800.000	0.050	0.206
-518.916	-64.059	0.108	0.044
-517.902	-126.150	-0.234	0.035
-516.887	-200.000	0.040	-0.225
-515.872	72.654	-0.183	0.189
-514.858	-17.199	-0.332	-0.207
-513.843	-70.859	0.182	-0.068
-512.829	-126.776	-0.153	-0.022
-511.814	-200.000	0.003	-0.193
-510.799	-200.000	-0.037	0.175
-509.785	98.453	-0.147	-0.168
-508.770	-64.428	-0.088	0.035
-507.756	800.000	0.050	-0.205
-506.741	403.335	-0.117	0.243
-505.726	-40.283	-0.093	0.048
-504.712	-60.667	-0.111	-0.047
-503.697	309.662	0.142	0.263
-502.683	-198.005	-0.288	0.002
-501.668	-200.000	-0.022	-0.097
-500.653	115.503	0.162	-0.196
-499.639	-98.470	-0.275	0.069
-498.624	-200.000	0.054	-0.298
-497.610	-100.033	0.311	0.077
-496.595	-170.201	-0.164	-0.006
-495.581	800.000	0.058	-0.161
-494.566	-106.408	0.350	-0.077
-493.551	38.378	0.148	-0.130
-492.537	20.427	0.115	0.092
-491.522	-74.458	-0.301	0.107
-490.508	20.380	0.113	0.091
-489.493	185.632	0.114	0.168
-488.478	-153.940	-0.149	-0.010
-487.464	800.000	-0.087	0.339
-486.449	26.173	0.056	-0.046
-485.435	-191.102	0.242	-0.002
-484.420	-200.000	0.040	0.177
-483.405	-98.527	0.337	-0.085
-482.391	-99.404	-0.183	0.045
-481.376	-200.000	0.017	-0.159
-480.362	22.638	-0.074	-0.060
-479.347	-154.054	0.271	-0.018
-478.332	-200.000	0.002	0.190
-477.318	-79.147	0.353	-0.118
-476.303	800.000	0.083	0.304
-475.289	-14.412	-0.042	-0.027
-474.274	-32.249	0.171	-0.094
-473.259	-119.125	0.209	-0.036
-472.245	241.986	0.194	0.321
-471.230	-30.055	-0.182	0.102
-470.216	-102.819	0.197	0.046
-469.201	-103.364	-0.103	-0.024
-468.186	800.000	0.034	-0.135
-467.172	0.597	-0.205	-0.145
-466.157	-76.544	0.346	0.120
-465.143	62.211	-0.169	-0.167
-464.128	420.378	-0.101	0.214
-463.113	-18.909	0.198	0.122
-462.099	103.424	-0.059	-0.068
-461.084	-54.754	-0.106	0.047
-460.070	800.000	0.084	-0.297
-459.055	-67.321	-0.253	-0.098
-458.040	423.837	0.090	0.190
-457.026	135.457	0.125	-0.161
-456.011	-142.590	-0.317	-0.031
-454.997	-98.876	-0.229	-0.057
-453.982	800.000	0.033	-0.119
-452.968	578.842	-0.148	-0.357
-451.953	139.955	0.227	-0.296
-450.938	36.610	0.076	-0.066
-449.924	-42.156	0.081	-0.041
-448.909	-23.705	0.293	-0.173
-447.895	166.448	-0.139	0.194
-446.880	94.290	0.097	0.109
-445.865	-200.000	0.051	-0.236
-444.851	-181.077	-0.246	-0.005
-443.836	-38.392	-0.115	-0.060
-442.822	-128.135	-0.214	0.030
-441.807	-200.000	-0.074	-0.322
-440.792	-61.924	0.334	-0.138
-439.778	359.423	-0.049	-0.096
-438.763	53.972	0.148	-0.141
-437.749	105.085	-0.035	-0.041
-436.734	98.404	-0.192	-0.218
-435.719	-133.111	0.151	-0.019
-434.705	36.059	-0.253	-0.220
-433.690	14.111	-0.289	-0.222
-432.676	-50.371	-0.020	-0.009
-431.661	252.312	0.067	-0.112
-430.646	-149.092	0.119	-0.009
-429.632	-20.475	-0.264	-0.160
-428.617	-127.924	0.074	-0.010
-427.603	-79.576	0.100	0.033
-426.588	481.527	0.041	0.092
-425.573	-200.000	0.001	-0.234
-424.559	-200.000	0.021	0.317
-423.544	189.422	-0.038	0.057
-422.530	-200.000	0.033	-0.269
-421.515	15.535	-0.260	0.201
-420.500	240.653	-0.164	-0.270
-419.486	648.825	0.180	0.453
-418.471	800.000	0.074	0.229
-417.457	-200.000	0.020	0.136
-416.442	800.000	-0.048	-0.193
-415.428	219.283	-0.026	0.040
-414.413	-8.390	0.099	0.066
-413.398	-200.000	0.005	0.157
-412.384	-200.000	-0.023	-0.183
-411.369	-142.656	-0.246	-0.024
-410.355	-200.000	0.019	0.151
-409.340	-39.402	-0.157	-0.081
-408.325	-162.766	0.081	0.004
-407.311	-60.902	0.255	0.106
-406.296	412.897	-0.191	-0.401
-405.282	-78.199	0.309	0.105
-404.267	-200.000	-0.002	0.204
-403.252	115.671	-0.124	0.149
-402.238	-106.544	-0.106	-0.023
-401.223	56.499	0.076	-0.073
-400.209	-147.564	-0.200	-0.017
-399.194	800.000	-0.088	0.243
-398.179	-26.553	0.325	-0.187
-397.165	-81.635	-0.099	-0.032
-396.150	165.573	0.019	-0.027
-395.136	244.552	-0.110	0.181
-394.121	-101.373	0.150	0.036
-393.106	-6.099	0.257	-0.173
-392.092	769.415	0.051	0.137
-391.077	-104.117	-0.419	-0.096
-390.063	59.788	0.046	-0.045
-389.048	-58.114	0.300	0.129
-388.033	-163.092	0.157	0.007
-387.019	-21.437	0.139	0.083
-386.004	-131.898	-0.245	0.031
-384.990	-156.976	-0.371	-0.022
-383.975	-200.000	0.052	0.286
-382.960	800.000	0.062	0.217
-381.946	-134.204	0.269	-0.033
-380.931	66.042	0.266	-0.266
-379.917	-200.000	0.046	-0.315
-378.902	-68.258	-0.423	-0.162
-377.888	-83.431	-0.032	0.010
-376.873	-200.000	-0.016	0.097
-375.858	-31.879	-0.367	-0.202
-374.844	176.063	-0.044	0.063
-373.829	-31.493	-0.221	0.122
-372.815	-18.838	-0.406	0.249
-371.800	244.909	0.077	0.127
-370.785	-200.000	0.003	0.060
-369.771	-151.356	-0.221	0.016
-368.756	-200.000	-0.015	0.118
-367.742	243.717	0.176	0.290
-366.727	88.249	-0.072	-0.079
-365.712	-200.000	0.028	0.157
-364.698	539.851	0.044	0.104
-363.683	86.554	-0.219	-0.238
-362.669	198.429	-0.207	-0.311
-361.654	800.000	0.013	-0.050
-360.639	153.327	0.106	0.143
-359.625	-19.930	0.088	0.053
-358.610	-134.216	-0.151	0.018
-357.596	800.000	0.087	0.350
-356.581	-33.877	0.121	0.065
-355.566	-200.000	-0.012	-0.161
-354.552	-75.365	-0.185	0.065
-353.537	-29.317	-0.046	-0.026
-352.523	-200.000	-0.074	0.326
-351.508	-200.000	0.011	-0.086
-350.493	106.323	0.139	-0.162
-349.479	403.834	0.044	-0.092
-348.464	800.000	-0.003	-0.012
-347.450	514.474	-0.042	0.096
-346.435	113.850	0.041	-0.049
-345.420	-200.000	-0.019	0.242
-344.406	-94.645	-0.338	-0.090
-343.391	-107.754	0.169	-0.036
-342.377	800.000	-0.109	0.352
-341.362	161.034	0.220	0.302
-340.348	-135.259	0.126	0.015
-339.333	-32.035	0.200	0.110
-338.318	-79.713	0.044	0.015
-337.304	-200.000	-0.043	-0.229
-336.289	445.367	-0.064	-0.138
-335.275	800.000	-0.046	0.151
-334.260	137.887	0.138	-0.178
-333.245	800.000	-0.051	0.145
-332.231	-47.799	0.026	0.012
-331.216	-82.306	0.301	0.096
-330.202	228.690	-0.121	0.194
-329.187	151.272	0.072	-0.097
-328.172	199.507	-0.029	0.044
-327.158	-132.448	0.084	-0.011
-326.143	-65.862	0.146	0.057
-325.129	291.659	-0.130	0.232
-324.114	148.787	0.192	-0.255
-323.099	-10.213	0.176	-0.115
-322.085	-102.197	0.063	0.015
-321.070	108.575	0.333	-0.390
-320.056	-52.073	0.199	0.091
-319.041	-200.000	-0.010	0.075
-318.026	-131.612	-0.226	0.029
-317.012	800.000	-0.053	0.189
-315.997	-64.389	-0.196	-0.078
-314.983	-200.000	0.363	-0.002
-313.968	65.001	0.118	0.117
-312.953	174.114	0.121	0.172
-311.939	53.337	-0.293	-0.276
-310.924	120.296	-0.068	0.083
-309.910	-131.141	-0.096	-0.013
-308.895	800.000	-0.076	-0.217
-307.880	354.236	0.068	0.132
-306.866	-141.644	-0.316	-0.031
-305.851	102.279	0.096	0.110
-304.837	-47.123	0.083	0.039
-303.822	-93.199	0.352	0.096
-302.807	-200.000	-0.072	-0.371
-301.793	800.000	-0.059	0.208
-300.778	-9.323	0.206	0.135
-299.764	-200.000	-0.034	-0.231
-298.749	800.000	0.088	0.258
-297.735	-200.000	0.007	0.224
-296.720	-200.000	0.030	0.214
-295.705	97.620	-0.097	0.110
-294.691	-16.770	-0.171	-0.106
-293.676	380.454	-0.091	-0.182
-292.662	-200.000	0.044	0.313
-291.647	83.618	0.109	0.117
-290.632	-96.343	-0.167	-0.043
-289.618	-102.464	0.346	0.081
-288.603	52.859	-0.150	-0.141
-287.589	-40.045	0.224	-0.115
-286.574	94.717	-0.233	-0.260
-285.559	427.089	0.027	0.057
-284.545	313.914	-0.159	0.294
-283.530	-186.220	-0.100	-0.001
-282.516	100.340	0.083	-0.095
-281.501	-146.019	-0.083	-0.007
-280.486	60.003	0.131	-0.127
-279.472	334.132	0.059	-0.112
-278.457	-91.148	-0.048	-0.013
-277.443	-200.000	0.010	0.150
-276.428	-200.000	-0.087	0.402
-275.413	694.629	0.125	-0.322
-274.399	197.974	-0.220	-0.329
-273.384	32.583	0.308	-0.261
-272.370	-120.345	-0.227	0.038
-271.355	34.773	-0.088	-0.076
-270.340	-114.752	0.269	-0.050
-269.326	-160.993	-0.088	0.005
-268.311	18.901	0.366	0.287
-267.297	255.299	0.073	-0.122
-266.282	81.902	-0.092	0.097
-265.267	328.739	-0.154	0.290
-264.253	-179.993	-0.130	0.003
-263.238	-156.664	0.532	-0.032
-262.224	235.074	-0.080	0.129
-261.209	11.324	-0.064	0.048
-260.195	32.730	0.178	-0.151
-259.180	14.094	-0.113	-0.086
-258.165	-84.246	0.173	-0.054
-257.151	-18.780	-0.160	0.098
-256.136	-59.461	0.153	0.065
-255.122	-43.741	0.101	-0.050
-254.107	800.000	-0.060	0.233
-253.092	132.704	0.042	-0.054
-252.078	-33.622	0.132	0.071
-251.063	-138.593	0.299	-0.032
-250.049	-117.004	0.166	0.030
-249.034	800.000	-0.081	-0.324
-248.019	-113.524	-0.194	0.037
-247.005	-55.897	0.209	0.091
-245.990	-163.504	-0.171	-0.008
-244.976	-200.000	-0.038	0.283
-243.961	-10.161	0.190	-0.124
-242.946	35.227	0.088	-0.076
-241.932	668.881	0.066	0.168
-240.917	10.831	0.270	0.202
-239.903	-51.839	0.148	0.068
-238.888	59.361	0.106	-0.102
-237.873	-174.200	0.163	0.005
-236.859	-200.000	-0.001	0.179
-235.844	-160.617	-0.574	-0.030
-234.830	-105.277	-0.168	0.038
-233.815	10.082	0.132	-0.098
-232.800	157.220	-0.252	-0.341
-231.786	-148.910	-0.155	-0.012
-230.771	-11.537	-0.226	-0.145
-229.757	50.660	0.064	0.060
-228.742	-200.000	-0.056	0.244
-227.727	-72.222	0.135	0.049
-226.713	74.539	-0.071	-0.073
-225.698	149.365	0.122	0.161
-224.684	-100.284	-0.084	0.021
-223.669	-111.461	0.277	0.055
-222.655	68.769	0.154	0.155
-221.640	102.609	0.153	0.175
-220.625	335.589	0.017	-0.032
-219.611	30.553	-0.208	-0.174
-218.596	55.222	0.018	-0.017
-217.582	-60.226	-0.157	-0.065
-216.567	513.401	0.101	-0.230
-215.552	-111.695	0.246	0.049
-214.538	-200.000	-0.010	-0.126
-213.523	47.515	-0.176	-0.160
-212.509	-39.011	0.334	0.172
-211.494	-200.000	0.046	0.222
-210.479	-200.000	0.015	0.199
-209.465	-200.000	0.008	0.214
-208.450	-113.752	0.203	0.039
-207.436	-200.000	-0.017	-0.160
-206.421	-100.986	0.336	0.081
-205.406	-29.511	-0.214	-0.120
-204.392	-20.504	-0.286	-0.172
-203.377	-43.603	0.118	-0.058
-202.363	-200.000	-0.015	0.124
-201.348	-200.000	-0.011	0.157
-200.333	-93.253	-0.374	0.102
-199.319	-200.000	-0.015	0.240
-198.304	-87.393	-0.239	0.071
-197.290	-174.190	0.191	-0.005
-196.275	-26.572	0.188	-0.107
-195.260	-200.000	0.007	0.126
-194.246	76.413	0.035	-0.037
-193.231	-73.476	-0.151	0.054
-192.217	95.757	0.124	0.138
-191.202	-13.322	0.085	-0.054
-190.187	209.795	-0.030	-0.046
-189.173	-139.562	-0.224	0.023
-188.158	800.000	-0.062	0.248
-187.144	75.336	0.262	0.270
-186.129	4.799	0.039	0.028
-185.114	800.000	0.052	-0.145
-184.100	-35.314	0.227	0.121
-183.085	30.801	-0.121	-0.101
-182.071	-107.233	0.187	-0.040
-181.056	-200.000	-0.033	0.195
-180.042	-200.000	0.015	-0.201
-179.027	-35.335	-0.141	0.075
-178.012	-114.552	0.473	-0.089
-176.998	-200.000	-0.063	0.365
-175.983	-26.585	-0.171	0.097
-174.969	-177.627	0.190	0.004
-173.954	-83.023	0.127	0.040
-172.939	104.474	-0.290	-0.333
-171.925	-77.518	0.187	-0.063
-170.910	-78.190	-0.211	-0.071
-169.896	-200.000	-0.057	-0.337
-168.881	-92.335	0.109	-0.030
-167.866	-90.016	-0.269	-0.077
-166.852	192.174	-0.064	0.094
-165.837	-200.000	0.030	0.276
-164.823	55.730	0.076	-0.072
-163.808	800.000	-0.109	-0.398
-162.793	11.648	0.147	0.110
-161.779	46.270	-0.075	0.068
-160.764	-104.212	-0.205	0.046
-159.750	-106.089	0.151	-0.033
-158.735	800.000	-0.033	0.111
-157.720	-152.941	0.128	-0.009
-156.706	28.187	0.141	0.116
-155.691	170.667	-0.188	-0.263
-154.677	-24.066	-0.384	0.224
-153.662	-115.422	-0.103	0.019
-152.647	-50.904	0.119	0.054
-151.633	157.238	0.333	0.449
-150.618	-39.629	-0.334	0.171
-149.604	800.000	0.078	0.225
-148.589	-200.000	0.059	0.365
-147.574	466.803	0.114	0.248
-146.560	-68.762	-0.211	-0.080
-145.545	10.253	0.277	0.205
-144.531	-13.445	-0.234	-0.148
-143.516	20.810	0.226	0.178
-142.502	-200.000	0.061	0.335
-141.487	359.217	0.131	-0.255
-140.472	389.274	-0.107	0.216
-139.458	800.000	-0.096	-0.330
-138.443	800.000	0.070	0.214
-137.429	-200.000	0.057	0.250
-136.414	-200.000	0.040	-0.371
-135.399	231.404	0.100	-0.160
-134.385	-200.000	0.004	0.177
-133.370	-200.000	-0.010	-0.079
-132.356	-87.277	-0.125	-0.037
-131.341	-79.989	0.148	-0.048
-130.326	3.727	-0.014	-0.010
-129.312	760.362	0.026	-0.068
-128.297	-200.000	-0.076	0.349
-127.283	565.862	-0.111	0.262
-126.268	158.240	0.128	-0.173
-125.253	-63.724	0.108	-0.043
-124.239	-200.000	0.002	-0.085
-123.224	-64.593	-0.216	0.085
