DTS Sentinel unit serial number:	SN413079Multiplexer serial number:	ORYXHardware model number:	OX4-SRSoftware version number:	ORYX F/W v4.00 Oryx Data Collector v3.7.2.0data status	okinstallation	princeton_trtdifferential loss correction	single-endedforward channel	channel 2reverse channel	N/Adate	2019/09/13time	05:59:35forward acquisition time	60.00reverse acquisition time	0.00gamma	496.2192k internal	0.2338k external	0.2338temperature offset calibration	1.0193default loss term (dB/km)	0.3790temperature slope calibration	1.0000multiplexer offset coefficient	1.0000multiplexer slope coefficient	1.0000fibre end	0.00T internal ref (°C)	26.16T ext. ref 1 (°C)	4.08T ext. ref 2 (°C)	20.97length (m)	temperature (°C)	Stokes	anti-Stokes-747.200	243.506	-0.166	0.279
-746.185	318.614	-0.092	-0.174
-745.171	-137.874	-0.102	0.011
-744.156	-68.511	-0.164	0.064
-743.142	103.913	-0.045	-0.053
-742.127	-84.320	0.180	0.057
-741.112	-200.000	0.082	-0.546
-740.098	-163.311	-0.097	-0.005
-739.083	334.926	0.107	-0.207
-738.069	-200.000	-0.016	-0.201
-737.054	125.569	-0.106	0.134
-736.039	38.218	-0.387	-0.346
-735.025	189.477	0.216	-0.326
-734.010	-41.561	-0.238	-0.123
-732.996	-86.869	0.061	-0.019
-731.981	116.130	-0.236	0.290
-730.966	-37.428	-0.127	-0.068
-729.952	224.320	-0.130	-0.211
-728.937	-84.896	-0.168	-0.053
-727.923	78.425	0.119	-0.128
-726.908	36.906	0.046	0.041
-725.894	280.784	-0.188	0.337
-724.879	-130.720	0.087	-0.012
-723.864	-45.375	-0.171	0.085
-722.850	-200.000	-0.009	-0.316
-721.835	-33.301	-0.133	0.074
-720.821	9.945	-0.186	-0.141
-719.806	46.181	-0.043	0.040
-718.791	-32.076	-0.072	-0.040
-717.777	-7.388	-0.204	-0.139
-716.762	-95.755	-0.167	0.045
-715.748	-26.354	0.316	0.186
-714.733	-15.434	0.259	-0.166
-713.718	800.000	0.054	-0.214
-712.704	-187.177	0.200	0.003
-711.689	-106.469	0.160	-0.036
-710.675	-200.000	0.010	-0.083
-709.660	-170.027	0.292	-0.010
-708.645	182.381	-0.232	0.343
-707.631	-33.802	-0.144	-0.080
-706.616	42.032	0.104	0.095
-705.602	71.205	-0.144	-0.150
-704.587	-63.843	-0.112	-0.046
-703.572	-200.000	-0.031	0.196
-702.558	-200.000	0.022	0.234
-701.543	-200.000	-0.010	0.331
-700.529	-20.624	0.205	0.126
-699.514	-143.579	-0.118	0.011
-698.499	800.000	-0.041	0.172
-697.485	800.000	0.075	-0.270
-696.470	-28.650	0.164	-0.095
-695.456	-80.386	-0.491	0.164
-694.441	39.950	0.055	-0.050
-693.426	-69.658	-0.253	-0.097
-692.412	-200.000	0.031	0.182
-691.397	55.696	-0.038	0.037
-690.383	415.357	-0.211	0.450
-689.368	800.000	0.066	-0.248
-688.354	130.095	-0.091	-0.117
-687.339	37.941	0.102	-0.091
-686.324	52.979	-0.335	-0.321
-685.310	800.000	0.093	-0.337
-684.295	-67.953	-0.260	-0.102
-683.281	-94.122	-0.237	-0.065
-682.266	788.170	-0.093	-0.254
-681.251	8.481	-0.309	0.232
-680.237	685.950	0.074	-0.192
-679.222	-200.000	0.331	-0.001
-678.208	-42.157	-0.337	-0.173
-677.193	-173.519	-0.318	0.010
-676.178	-200.000	-0.025	-0.312
-675.164	-20.590	-0.041	0.025
-674.149	-127.847	-0.106	-0.015
-673.135	-200.000	0.028	-0.217
-672.120	58.633	-0.178	0.175
-671.105	-14.270	-0.206	0.133
-670.091	-8.328	-0.197	-0.133
-669.076	383.659	-0.073	0.150
-668.062	-200.000	0.047	0.226
-667.047	-200.000	-0.003	-0.298
-666.032	-10.747	0.268	0.177
-665.018	-84.422	-0.159	-0.050
-664.003	-10.952	-0.193	-0.127
-662.989	-59.528	0.387	-0.166
-661.974	105.221	-0.154	-0.181
-660.959	-105.455	0.246	0.056
-659.945	-200.000	-0.017	-0.219
-658.930	-200.000	-0.008	0.210
-657.916	-200.000	-0.021	0.197
-656.901	800.000	0.058	0.179
-655.886	-33.219	0.411	-0.228
-654.872	415.825	-0.100	0.213
-653.857	-200.000	0.021	-0.245
-652.843	639.627	-0.075	0.190
-651.828	-152.806	0.225	-0.016
-650.814	-200.000	0.007	0.098
-649.799	-114.524	-0.131	0.025
-648.784	-80.750	-0.154	0.051
-647.770	55.523	0.187	0.181
-646.755	12.710	-0.123	-0.095
-645.741	-24.767	-0.209	0.124
-644.726	54.735	-0.190	0.183
-643.711	42.774	-0.454	0.414
-642.697	87.643	0.038	0.043
-641.682	190.318	0.235	0.353
-640.668	-69.059	0.119	-0.046
-639.653	318.497	-0.144	0.273
-638.638	-128.845	0.317	0.045
-637.624	-200.000	-0.009	0.267
-636.609	-200.000	0.003	-0.106
-635.595	111.114	0.067	-0.081
-634.580	35.417	0.351	-0.308
-633.565	62.292	0.138	0.138
-632.551	-200.000	-0.043	-0.213
-631.536	8.893	-0.044	0.033
-630.522	646.652	-0.052	0.132
-629.507	-114.950	0.043	-0.008
-628.492	-200.000	0.004	-0.164
-627.478	21.463	-0.154	-0.125
-626.463	334.536	0.073	-0.142
-625.449	6.015	-0.116	-0.086
-624.434	-35.067	-0.149	-0.081
-623.419	36.435	-0.220	-0.194
-622.405	-86.119	0.072	-0.022
-621.390	4.041	-0.326	0.238
-620.376	52.561	0.309	0.295
-619.361	-172.649	-0.201	-0.006
-618.346	800.000	-0.113	-0.414
-617.332	-22.919	0.023	0.014
-616.317	800.000	-0.054	0.165
-615.303	-100.979	-0.023	-0.006
-614.288	189.829	0.226	-0.339
-613.273	16.905	0.070	0.056
-612.259	800.000	0.078	-0.327
-611.244	97.598	-0.180	0.207
-610.230	97.406	-0.119	0.136
-609.215	-67.335	0.199	0.078
-608.201	207.649	0.081	-0.127
-607.186	-132.011	0.064	-0.008
-606.171	-200.000	0.000	-0.085
-605.157	-36.256	-0.063	-0.034
-604.142	90.283	0.112	0.125
-603.128	-69.432	-0.342	-0.131
-602.113	800.000	-0.092	-0.337
-601.098	158.606	0.131	0.182
-600.084	295.484	-0.108	-0.197
-599.069	800.000	-0.078	0.291
-598.055	-34.153	0.327	0.180
-597.040	-18.039	0.315	-0.197
-596.025	-57.491	-0.127	0.055
-595.011	116.036	0.208	0.255
-593.996	655.207	0.030	0.076
-592.982	-200.000	-0.022	0.168
-591.967	-124.545	0.088	0.014
-590.952	277.168	-0.131	0.233
-589.938	793.359	0.031	0.086
-588.923	-14.308	-0.309	0.199
-587.909	344.519	-0.072	-0.142
-586.894	568.265	-0.144	0.349
-585.879	-89.402	0.204	0.060
-584.865	-24.100	0.123	-0.073
-583.850	-200.000	-0.007	0.088
-582.836	95.614	0.072	-0.082
-581.821	68.300	0.168	-0.171
-580.806	-22.117	-0.151	0.091
-579.792	800.000	0.018	0.067
-578.777	134.673	0.180	0.233
-577.763	23.252	0.082	-0.067
-576.748	-148.297	-0.097	-0.008
-575.733	-23.246	-0.344	-0.206
-574.719	72.601	0.129	-0.134
-573.704	0.828	0.165	-0.118
-572.690	518.529	0.136	-0.318
-571.675	35.070	0.132	-0.115
-570.661	78.511	0.267	0.285
-569.646	188.128	-0.054	-0.080
-568.631	-28.631	-0.122	0.070
-567.617	-157.749	0.169	0.010
-566.602	-190.761	-0.344	-0.004
-565.588	-141.087	-0.260	0.026
-564.573	-127.416	0.363	-0.053
-563.558	-62.303	0.313	0.130
-562.544	21.409	0.017	0.014
-561.529	-83.097	-0.273	0.087
-560.515	36.161	-0.112	0.099
-559.500	222.092	-0.141	0.226
-558.485	-12.321	-0.061	0.040
-557.471	800.000	0.076	0.309
-556.456	-200.000	-0.052	-0.292
-555.442	-181.727	0.221	0.004
-554.427	-200.000	-0.062	-0.321
-553.412	196.839	-0.137	-0.209
-552.398	800.000	-0.039	-0.114
-551.383	800.000	0.091	0.293
-550.369	800.000	-0.048	-0.138
-549.354	-46.169	0.135	0.066
-548.339	-174.296	0.245	-0.007
-547.325	800.000	-0.042	-0.129
-546.310	-34.592	0.237	0.129
-545.296	-15.390	-0.138	0.088
-544.281	-200.000	0.008	0.139
-543.266	-200.000	0.008	-0.200
-542.252	10.862	-0.236	-0.180
-541.237	-6.081	-0.203	-0.138
-540.223	-145.628	-0.364	-0.032
-539.208	6.166	0.426	0.314
-538.193	-113.023	0.383	-0.075
-537.179	16.280	0.358	0.281
-536.164	-110.318	0.348	0.072
-535.150	-200.000	-0.022	0.343
-534.135	346.089	0.063	0.124
-533.121	-105.341	-0.305	0.069
-532.106	-55.490	-0.157	0.070
-531.091	97.712	-0.139	-0.159
-530.077	-72.778	0.168	-0.062
-529.062	-43.795	-0.110	-0.055
-528.048	-172.247	-0.504	0.016
-527.033	-200.000	0.007	0.048
-526.018	3.656	-0.188	0.137
-525.004	704.918	-0.062	0.163
-523.989	22.775	-0.276	0.225
-522.975	56.956	-0.223	-0.217
-521.960	-108.111	0.104	-0.022
-520.945	156.270	-0.219	0.301
-519.931	37.060	-0.274	-0.241
-518.916	-81.637	-0.195	0.064
-517.902	-107.146	-0.238	0.052
-516.887	33.186	-0.193	0.166
-515.872	46.041	-0.095	0.087
-514.858	407.880	-0.151	-0.318
-513.843	-174.946	0.083	-0.002
-512.829	160.829	-0.080	0.111
-511.814	155.509	0.282	0.387
-510.799	378.654	-0.089	-0.181
-509.785	145.754	0.207	0.275
-508.770	-200.000	0.011	0.173
-507.756	-80.926	-0.237	-0.078
-506.741	-51.276	0.208	-0.097
-505.726	-109.799	0.306	0.064
-504.712	498.885	0.082	0.188
-503.697	-200.000	-0.023	0.366
-502.683	-42.223	-0.112	0.057
-501.668	-100.078	0.301	-0.075
-500.653	488.130	0.074	-0.168
-499.639	227.118	0.124	0.201
-498.624	800.000	-0.086	-0.252
-497.610	-200.000	-0.001	0.223
-496.595	73.081	-0.256	-0.266
-495.581	466.688	0.035	-0.077
-494.566	800.000	-0.107	0.331
-493.551	-34.897	-0.143	0.077
-492.537	482.099	0.007	0.017
-491.522	-26.079	0.102	-0.060
-490.508	-105.455	-0.279	0.063
-489.493	-200.000	0.016	-0.429
-488.478	-200.000	0.068	-0.376
-487.464	104.848	0.212	-0.249
-486.449	-200.000	-0.020	0.102
-485.435	82.185	0.159	0.171
-484.420	14.747	0.209	0.163
-483.405	-140.591	0.130	0.013
-482.391	-147.806	-0.258	-0.021
-481.376	-113.880	0.322	0.062
-480.362	-63.781	-0.220	-0.089
-479.347	96.240	-0.110	-0.125
-478.332	-200.000	-0.004	0.268
-477.318	-26.451	0.447	0.260
-476.303	800.000	0.101	0.438
-475.289	-168.290	0.203	-0.008
-474.274	-200.000	0.016	0.104
-473.259	800.000	0.054	0.227
-472.245	126.262	-0.187	-0.235
-471.230	-61.678	-0.190	0.079
-470.216	436.483	-0.031	0.068
-469.201	457.045	-0.178	-0.393
-468.186	517.665	0.063	0.146
-467.172	225.655	0.146	0.234
-466.157	-200.000	0.194	0.001
-465.143	-41.214	-0.055	-0.028
-464.128	-156.515	0.179	0.011
-463.113	205.401	-0.063	-0.097
-462.099	-90.966	-0.197	-0.056
-461.084	718.976	-0.142	0.374
-460.070	203.550	0.070	0.107
-459.055	-200.000	0.002	0.272
-458.040	208.916	0.039	-0.061
-457.026	-28.659	-0.192	-0.110
-456.011	388.807	-0.033	-0.068
-454.997	-4.969	0.294	-0.201
-453.982	-67.383	0.290	-0.113
-452.968	-200.000	0.017	-0.188
-451.953	800.000	0.049	0.150
-450.938	-45.216	0.104	0.051
-449.924	196.120	0.164	-0.247
-448.909	-67.724	-0.460	0.179
-447.895	-84.054	-0.148	0.047
-446.880	-200.000	0.313	-0.001
-445.865	36.118	0.179	0.156
-444.851	70.707	-0.080	0.082
-443.836	470.476	-0.140	-0.312
-442.822	-184.445	0.399	-0.006
-441.807	-130.495	0.315	-0.042
-440.792	-200.000	-0.042	0.361
-439.778	-57.274	0.230	0.100
-438.763	358.598	-0.061	-0.120
-437.749	-67.689	0.068	-0.026
-436.734	800.000	-0.065	-0.212
-435.719	97.373	0.227	-0.259
-434.705	-47.501	0.142	-0.068
-433.690	-200.000	-0.000	0.197
-432.676	324.893	-0.032	0.061
-431.661	-103.556	0.146	-0.034
-430.646	-50.854	-0.308	0.144
-429.632	-200.000	0.009	-0.063
-428.617	800.000	0.018	-0.068
-427.603	-64.846	-0.286	-0.115
-426.588	-19.478	0.266	-0.164
-425.573	-200.000	0.034	-0.202
-424.559	709.119	-0.182	-0.476
-423.544	302.652	0.128	-0.236
-422.530	-119.828	-0.333	-0.057
-421.515	-109.472	-0.050	0.010
-420.500	-158.125	0.262	-0.015
-419.486	-200.000	0.016	0.089
-418.471	66.419	0.140	0.141
-417.457	385.110	0.054	-0.110
-416.442	-200.000	0.013	-0.473
-415.428	-149.309	0.230	-0.018
-414.413	-106.091	0.161	-0.036
-413.398	15.118	-0.188	0.146
-412.384	-24.241	-0.074	-0.044
-411.369	-56.584	-0.127	-0.056
-410.355	800.000	-0.049	-0.197
-409.340	237.457	0.147	-0.241
-408.325	-109.060	0.295	-0.062
-407.311	-91.487	-0.205	0.058
-406.296	-200.000	-0.006	-0.125
-405.282	-200.000	-0.024	-0.350
-404.267	153.237	0.115	0.156
-403.252	-109.633	-0.232	0.048
-402.238	108.232	-0.091	0.108
-401.223	800.000	0.112	-0.390
-400.209	389.822	-0.153	0.313
-399.194	800.000	-0.065	0.214
-398.179	800.000	0.119	-0.342
-397.165	-200.000	0.021	0.209
-396.150	561.309	-0.060	-0.145
-395.136	-19.498	0.121	0.074
-394.121	-74.283	0.309	0.110
-393.106	149.992	0.105	-0.140
-392.092	-48.099	-0.409	-0.196
-391.077	762.118	-0.101	0.272
-390.063	22.700	0.280	-0.227
-389.048	-99.471	-0.266	-0.066
-388.033	-150.128	0.374	0.029
-387.019	-48.277	0.100	0.048
-386.004	736.660	0.051	-0.135
-384.990	-200.000	-0.038	-0.231
-383.975	-6.282	0.230	0.156
-382.960	800.000	-0.154	0.449
-381.946	-32.535	-0.156	-0.086
-380.931	-131.569	-0.059	0.008
-379.917	57.066	0.073	-0.070
-378.902	-200.000	0.010	0.317
-377.888	-200.000	-0.056	-0.304
-376.873	-60.326	0.100	0.042
-375.858	-200.000	0.004	-0.171
-374.844	-73.453	-0.308	-0.111
-373.829	-105.347	-0.172	-0.039
-372.815	-200.000	-0.027	0.130
-371.800	305.736	0.091	0.168
-370.785	1.935	-0.149	-0.107
-369.771	228.019	-0.046	-0.073
-368.756	800.000	0.063	0.192
-367.742	-2.986	-0.267	-0.184
-366.727	-81.806	-0.081	0.026
-365.712	-67.053	0.251	-0.098
-364.698	-73.464	0.180	0.065
-363.683	-180.553	0.244	-0.005
-362.669	253.335	-0.047	-0.080
-361.654	-87.134	-0.306	0.092
-360.639	-85.195	0.059	0.018
-359.625	-129.729	0.287	0.039
-358.610	-200.000	-0.006	-0.155
-357.596	2.634	0.115	0.082
-356.581	800.000	0.078	0.216
-355.566	-28.350	0.098	0.056
-354.552	-31.377	-0.275	0.153
-353.537	-30.056	-0.221	-0.124
-352.523	-160.333	0.311	0.017
-351.508	-92.278	-0.188	-0.052
-350.493	-200.000	-0.000	-0.231
-349.479	234.075	-0.078	-0.127
-348.464	-108.665	0.070	0.015
-347.450	71.825	0.122	0.125
-346.435	-56.163	0.139	-0.061
-345.420	-88.570	0.229	0.067
-344.406	274.357	0.111	0.195
-343.391	-68.221	-0.261	0.100
-342.377	-48.474	-0.194	0.092
-341.362	-25.224	-0.275	0.161
-340.348	308.705	-0.155	0.285
-339.333	34.565	0.332	0.286
-338.318	259.430	0.049	-0.083
-337.304	278.451	-0.060	0.106
-336.289	-200.000	-0.009	-0.282
-335.275	147.958	-0.187	-0.249
-334.260	54.360	-0.130	-0.123
-333.245	-60.043	0.156	-0.066
-332.231	-126.746	-0.298	-0.044
-331.216	87.124	0.175	-0.190
-330.202	-200.000	0.030	0.271
-329.187	-200.000	-0.028	-0.236
-328.172	181.593	0.082	-0.119
-327.158	87.529	-0.109	-0.119
-326.143	499.235	-0.158	0.360
-325.129	729.766	-0.016	-0.043
-324.114	5.361	0.062	0.045
-323.099	128.765	-0.335	0.422
-322.085	82.483	-0.284	-0.304
-321.070	-200.000	0.004	-0.027
-320.056	-129.762	-0.219	-0.030
-319.041	-78.934	0.161	-0.054
-318.026	31.958	0.128	-0.109
-317.012	-200.000	-0.016	0.088
-315.997	-200.000	-0.028	-0.394
-314.983	95.233	0.181	0.203
-313.968	499.787	-0.073	-0.167
-312.953	177.384	0.202	-0.290
-311.939	526.395	0.047	0.109
-310.924	71.433	-0.093	0.096
-309.910	-14.899	0.294	-0.186
-308.895	-40.502	-0.271	-0.139
-307.880	-200.000	0.012	-0.147
-306.866	-47.902	0.453	0.216
-305.851	2.657	0.226	-0.161
-304.837	69.443	0.216	-0.220
-303.822	190.669	0.084	0.125
-302.807	-200.000	0.007	0.378
-301.793	-119.248	-0.305	-0.052
-300.778	-9.804	0.060	-0.039
-299.764	-200.000	0.072	0.397
-298.749	146.276	-0.161	-0.214
-297.735	-55.451	-0.244	0.108
-296.720	-83.579	-0.239	0.075
-295.705	-41.815	-0.478	-0.242
-294.691	-200.000	-0.004	-0.160
-293.676	-126.801	-0.269	0.039
-292.662	-60.173	0.116	-0.049
-291.647	-39.698	-0.100	0.051
-290.632	122.943	-0.057	0.070
-289.618	338.890	-0.108	-0.207
-288.603	-200.000	0.062	0.277
-287.589	-157.162	-0.640	0.038
-286.574	374.012	0.132	0.264
-285.559	-49.378	0.136	0.064
-284.545	-110.930	-0.147	-0.030
-283.530	216.998	0.055	0.087
-282.516	-200.000	-0.011	-0.153
-281.501	-86.917	0.107	-0.032
-280.486	-108.119	-0.299	-0.064
-279.472	-72.533	0.190	0.069
-278.457	-52.641	-0.160	-0.073
-277.443	-90.278	-0.393	0.113
-276.428	-200.000	0.026	-0.312
-275.413	-200.000	0.027	0.202
-274.399	718.955	-0.159	-0.416
-273.384	201.376	-0.098	0.149
-272.370	34.508	-0.143	0.123
-271.355	-200.000	-0.016	-0.300
-270.340	-200.000	0.050	-0.425
-269.326	-200.000	0.011	-0.075
-268.311	-200.000	0.018	-0.170
-267.297	27.329	0.012	0.010
-266.282	315.851	0.213	-0.396
-265.267	800.000	-0.066	-0.191
-264.253	13.160	-0.279	-0.213
-263.238	45.593	0.314	0.286
-262.224	444.712	0.139	0.301
-261.209	-148.989	0.201	0.016
-260.195	43.922	0.178	-0.161
-259.180	445.453	0.202	-0.438
-258.165	800.000	-0.058	-0.176
-257.151	800.000	-0.060	0.188
-256.136	-200.000	-0.020	-0.213
-255.122	318.788	0.047	0.087
-254.107	157.648	-0.228	0.311
-253.092	800.000	0.081	-0.298
-252.078	-128.330	-0.175	0.025
-251.063	136.535	0.249	0.320
-250.049	-117.230	-0.337	-0.060
-249.034	-102.835	0.401	0.094
-248.019	-169.444	0.084	0.003
-247.005	85.856	-0.021	0.022
-245.990	-133.379	-0.111	-0.014
-244.976	-119.386	-0.272	0.047
-243.961	336.692	-0.060	0.115
-242.946	35.408	-0.143	-0.124
-241.932	-200.000	0.009	0.111
-240.917	-71.366	-0.250	-0.092
-239.903	149.242	-0.202	0.269
-238.888	-48.804	0.209	0.099
-237.873	387.501	-0.131	0.266
-236.859	685.477	0.131	-0.337
-235.844	-200.000	0.074	-0.332
-234.830	-31.977	0.238	0.131
-233.815	166.939	-0.075	-0.105
-232.800	430.980	0.147	0.312
-231.786	218.585	0.081	-0.127
-230.771	27.333	0.168	0.139
-229.757	-143.976	-0.286	-0.026
-228.742	-200.000	-0.030	0.233
-227.727	-79.518	0.067	0.022
-226.713	800.000	-0.059	-0.237
-225.698	-141.962	-0.176	0.017
-224.684	26.627	-0.185	0.152
-223.669	-156.436	-0.178	0.011
-222.655	223.810	0.040	0.064
-221.640	167.786	0.090	-0.126
-220.625	426.430	0.163	-0.346
-219.611	-33.343	0.031	-0.017
-218.596	62.473	0.185	0.182
-217.582	-81.138	0.269	-0.087
-216.567	29.863	0.138	-0.116
-215.552	15.066	0.192	-0.148
-214.538	-119.847	-0.305	0.052
-213.523	180.411	-0.147	-0.212
-212.509	-76.543	0.054	0.019
-211.494	-30.380	-0.171	-0.095
-210.479	238.397	-0.129	-0.211
-209.465	-200.000	-0.044	0.302
-208.450	-44.199	0.081	0.040
-207.436	41.134	-0.042	-0.037
-206.421	-200.000	-0.061	0.305
-205.406	-167.850	-0.205	-0.008
-204.392	-200.000	-0.012	0.201
-203.377	118.588	-0.072	-0.087
-202.363	-104.110	-0.135	-0.031
-201.348	-147.713	0.258	-0.021
-200.333	109.379	0.101	0.119
-199.319	-22.511	0.184	0.109
-198.304	-6.400	-0.149	-0.100
-197.290	4.049	0.222	0.159
-196.275	149.281	-0.252	0.335
-195.260	-45.080	-0.242	-0.118
-194.246	35.296	-0.251	-0.216
-193.231	-137.425	0.302	0.034
-192.217	-181.943	0.361	-0.007
-191.202	-42.502	0.267	0.134
-190.187	207.764	0.089	-0.136
-189.173	-145.340	0.178	-0.016
-188.158	-200.000	0.004	-0.127
-187.144	53.980	0.125	-0.118
-186.129	-100.037	0.453	-0.111
-185.114	-200.000	-0.050	-0.427
-184.100	800.000	-0.071	-0.268
-183.085	394.960	0.107	-0.219
-182.071	181.049	0.213	0.307
-181.056	-68.533	0.485	-0.185
-180.042	-109.045	0.302	-0.063
-179.027	800.000	0.073	0.251
-178.012	800.000	-0.098	0.317
-176.998	-200.000	0.010	0.139
-175.983	-7.242	-0.177	0.118
-174.969	-200.000	-0.003	0.037
-173.954	504.700	-0.052	-0.119
-172.939	124.366	-0.049	0.060
-171.925	213.607	0.073	0.113
-170.910	-79.558	-0.311	-0.103
-169.896	-200.000	0.016	0.375
-168.881	-200.000	-0.082	-0.498
-167.866	-200.000	-0.008	-0.198
-166.852	800.000	-0.090	0.377
-165.837	-200.000	-0.005	0.232
-164.823	-88.954	0.067	0.019
-163.808	47.920	0.120	0.110
-162.793	-43.152	0.220	0.109
-161.779	-200.000	-0.026	-0.212
-160.764	618.684	0.125	0.307
-159.750	-200.000	-0.032	-0.154
-158.735	800.000	-0.077	-0.287
-157.720	-165.330	0.101	-0.004
-156.706	-144.313	-0.231	0.021
-155.691	-200.000	0.017	0.215
-154.677	-46.615	-0.231	-0.111
-153.662	164.441	-0.209	-0.290
-152.647	-156.296	-0.127	-0.008
-151.633	-124.601	0.262	0.040
-150.618	173.325	0.096	0.136
-149.604	90.911	-0.185	-0.204
-148.589	-81.592	-0.286	-0.092
-147.574	-13.336	-0.311	0.198
-146.560	-200.000	0.015	0.180
-145.545	218.763	-0.087	0.136
-144.531	-106.808	-0.204	-0.044
-143.516	-200.000	0.016	0.175
-142.502	-200.000	-0.003	-0.289
-141.487	-29.713	-0.090	0.050
-140.472	800.000	0.048	-0.149
-139.458	-200.000	-0.002	-0.214
-138.443	-97.932	0.608	0.154
-137.429	-200.000	-0.068	-0.398
-136.414	118.115	-0.084	-0.101
-135.399	-61.229	-0.097	-0.040
-134.385	-65.774	0.275	-0.108
-133.370	-47.202	-0.213	-0.102
-132.356	800.000	-0.104	0.344
-131.341	800.000	-0.019	-0.080
-130.326	-200.000	0.033	-0.290
-129.312	49.438	-0.034	-0.031
-128.297	68.362	0.248	0.249
-127.283	-47.879	-0.186	-0.088
-126.268	56.222	-0.155	-0.147
-125.253	187.310	-0.031	0.045
-124.239	15.116	-0.190	-0.146
-123.224	800.000	-0.060	0.251
-122.210	-52.216	-0.094	0.043
