DTS Sentinel unit serial number:	SN413079Multiplexer serial number:	ORYXHardware model number:	OX4-SRSoftware version number:	ORYX F/W v4.00 Oryx Data Collector v3.7.2.0data status	okinstallation	princeton_trtdifferential loss correction	single-endedforward channel	channel 2reverse channel	N/Adate	2019/09/16time	17:39:35forward acquisition time	60.00reverse acquisition time	0.00gamma	496.2192k internal	0.2312k external	0.2312temperature offset calibration	0.9945default loss term (dB/km)	0.3790temperature slope calibration	1.0000multiplexer offset coefficient	1.0000multiplexer slope coefficient	1.0000fibre end	0.00T internal ref (°C)	38.23T ext. ref 1 (°C)	15.52T ext. ref 2 (°C)	32.23length (m)	temperature (°C)	Stokes	anti-Stokes-747.200	-122.571	0.148	0.024
-746.185	45.230	-0.097	0.091
-745.171	-23.391	0.104	0.063
-744.156	800.000	0.112	0.354
-743.142	-151.234	-0.160	-0.012
-742.127	-127.354	-0.118	0.017
-741.112	347.782	-0.143	-0.287
-740.098	357.206	-0.091	0.185
-739.083	800.000	-0.080	0.289
-738.069	293.408	-0.038	0.070
-737.054	-200.000	-0.033	0.217
-736.039	-85.231	-0.095	0.030
-735.025	51.639	0.200	0.193
-734.010	-5.411	-0.073	0.051
-732.996	-16.557	-0.148	-0.095
-731.981	-200.000	0.012	-0.577
-730.966	-34.895	0.197	-0.109
-729.952	800.000	-0.057	0.201
-728.937	-182.762	-0.170	0.003
-727.923	-200.000	0.006	-0.101
-726.908	2.647	-0.297	0.218
-725.894	-13.719	-0.070	-0.046
-724.879	78.007	0.090	-0.097
-723.864	800.000	-0.102	-0.428
-722.850	-54.228	-0.247	0.114
-721.835	-105.647	-0.118	-0.027
-720.821	90.857	-0.106	0.121
-719.806	378.752	-0.197	-0.410
-718.791	369.521	0.104	0.213
-717.777	-76.967	-0.415	-0.147
-716.762	85.686	-0.126	0.140
-715.748	-76.459	-0.459	0.164
-714.733	-137.852	0.241	-0.027
-713.718	4.211	0.261	-0.194
-712.704	175.831	-0.060	-0.089
-711.689	-135.608	-0.069	-0.008
-710.675	-107.368	-0.135	0.030
-709.660	308.609	0.104	-0.196
-708.645	191.156	-0.167	0.255
-707.631	238.095	0.148	-0.249
-706.616	-99.819	-0.251	0.064
-705.602	70.478	0.148	0.155
-704.587	-200.000	-0.006	-0.134
-703.572	-75.174	-0.050	-0.018
-702.558	229.734	-0.110	0.182
-701.543	-12.009	0.192	0.127
-700.529	92.634	-0.230	-0.263
-699.514	-108.438	0.301	0.066
-698.499	127.778	-0.174	0.225
-697.485	-158.572	-0.069	-0.004
-696.470	-110.605	-0.251	0.053
-695.456	542.710	-0.137	-0.330
-694.441	-9.990	-0.234	0.157
-693.426	-76.125	0.380	0.136
-692.412	-64.713	-0.051	0.021
-691.397	800.000	0.033	-0.145
-690.383	-200.000	-0.026	0.138
-689.368	188.069	0.142	0.215
-688.354	-134.088	0.256	-0.032
-687.339	-43.725	0.271	-0.138
-686.324	-200.000	-0.036	-0.405
-685.310	-29.076	-0.163	-0.095
-684.295	84.126	0.244	-0.270
-683.281	-66.325	0.169	-0.068
-682.266	69.326	0.219	0.228
-681.251	236.070	-0.122	-0.204
-680.237	-159.286	0.188	-0.011
-679.222	-133.702	-0.094	0.012
-678.208	-101.629	-0.430	-0.106
-677.193	-161.193	0.270	0.014
-676.178	-68.781	0.095	0.037
-675.164	11.823	0.223	-0.173
-674.149	37.234	-0.242	0.217
-673.135	-51.271	0.185	0.088
-672.120	217.249	-0.029	-0.046
-671.105	-81.010	0.291	-0.097
-670.091	148.114	0.129	-0.176
-669.076	-200.000	-0.056	-0.320
-668.062	-200.000	-0.015	-0.226
-667.047	-200.000	0.005	0.169
-666.032	-126.970	-0.080	0.012
-665.018	-108.542	0.363	-0.079
-664.003	-200.000	-0.015	-0.126
-662.989	208.946	-0.286	-0.452
-661.974	-162.742	-0.207	-0.010
-660.959	800.000	-0.097	-0.288
-659.945	800.000	0.049	-0.185
-658.930	-14.879	0.119	-0.077
-657.916	-178.833	-0.297	0.007
-656.901	-200.000	0.013	0.069
-655.886	-33.090	0.186	0.104
-654.872	89.009	-0.175	-0.197
-653.857	169.855	-0.140	-0.203
-652.843	-97.311	-0.286	0.075
-651.828	708.892	0.110	-0.295
-650.814	-200.000	-0.008	0.136
-649.799	100.985	-0.151	-0.177
-648.784	160.381	-0.025	-0.036
-647.770	-19.775	-0.229	0.143
-646.755	69.312	0.024	0.025
-645.741	-100.098	-0.313	0.079
-644.726	-95.769	-0.145	-0.039
-643.711	22.780	0.198	-0.164
-642.697	631.253	-0.031	-0.080
-641.682	520.515	0.041	0.097
-640.668	-200.000	0.024	0.148
-639.653	444.748	-0.014	-0.031
-638.638	77.446	-0.048	-0.052
-637.624	254.760	-0.088	-0.153
-636.609	196.990	0.092	0.142
-635.595	800.000	-0.027	0.088
-634.580	405.959	0.018	0.039
-633.565	-200.000	0.024	-0.114
-632.551	91.712	0.085	0.096
-631.536	-19.451	0.336	-0.211
-630.522	29.957	-0.352	-0.303
-629.507	51.558	-0.079	0.076
-628.492	1.508	0.054	-0.040
-627.478	-167.114	-0.632	-0.026
-626.463	-200.000	-0.049	-0.334
-625.449	-200.000	-0.033	0.274
-624.434	-200.000	0.018	0.229
-623.419	-14.736	0.232	-0.151
-622.405	-73.954	0.251	-0.092
-621.390	12.797	-0.114	-0.089
-620.376	-200.000	0.017	-0.187
-619.361	-112.177	0.304	-0.062
-618.346	160.998	0.140	0.198
-617.332	-113.305	0.249	-0.049
-616.317	9.882	0.146	0.112
-615.303	-80.690	-0.139	0.047
-614.288	-70.299	-0.130	-0.050
-613.273	-59.218	-0.312	0.136
-612.259	-47.325	-0.133	-0.065
-611.244	800.000	0.110	-0.317
-610.230	-19.288	-0.053	-0.033
-609.215	92.696	-0.071	0.081
-608.201	-200.000	0.026	-0.200
-607.186	800.000	-0.038	-0.138
-606.171	-183.815	-0.241	0.004
-605.157	-200.000	0.010	-0.060
-604.142	7.491	0.056	-0.042
-603.128	-102.688	0.297	-0.072
-602.113	800.000	0.169	-0.492
-601.098	-126.326	-0.212	-0.032
-600.084	-101.460	-0.257	-0.063
-599.069	34.847	0.243	0.214
-598.055	50.306	-0.129	-0.123
-597.040	-200.000	-0.011	-0.202
-596.025	-10.451	-0.051	0.034
-595.011	-168.491	-0.262	0.010
-593.996	-200.000	-0.042	-0.265
-592.982	543.204	0.026	-0.063
-591.967	-148.162	0.175	-0.015
-590.952	800.000	-0.101	-0.398
-589.938	800.000	-0.070	-0.278
-588.923	-200.000	0.017	-0.282
-587.909	800.000	-0.052	-0.157
-586.894	-101.063	-0.060	-0.015
-585.879	-79.902	-0.025	-0.008
-584.865	-200.000	0.002	-0.081
-583.850	0.278	0.459	-0.330
-582.836	-200.000	0.021	-0.100
-581.821	-200.000	0.016	-0.090
-580.806	-86.205	-0.321	0.100
-579.792	-30.956	-0.048	-0.027
-578.777	-200.000	0.002	-0.140
-577.763	35.200	-0.078	0.069
-576.748	12.654	0.179	-0.140
-575.733	-53.124	-0.210	0.097
-574.719	800.000	-0.045	-0.140
-573.704	-110.221	0.187	-0.039
-572.690	372.687	-0.180	0.368
-571.675	-175.028	-0.268	0.008
-570.661	485.287	-0.066	-0.151
-569.646	-83.821	-0.197	-0.063
-568.631	483.139	-0.134	0.307
-567.617	172.301	0.024	-0.035
-566.602	595.566	-0.130	0.323
-565.588	94.285	0.108	-0.124
-564.573	-200.000	0.029	-0.168
-563.558	-41.912	-0.116	-0.060
-562.544	-16.619	0.296	0.189
-561.529	800.000	0.060	0.246
-560.515	-200.000	0.053	-0.267
-559.500	-200.000	-0.024	0.112
-558.485	-25.293	0.229	-0.137
-557.471	178.491	0.138	-0.203
-556.456	-164.818	-0.430	-0.019
-555.442	-37.607	-0.249	-0.134
-554.427	106.563	0.037	-0.044
-553.412	151.905	0.047	-0.064
-552.398	-112.190	0.087	0.018
-551.383	-23.883	-0.104	0.063
-550.369	407.791	0.222	0.473
-549.354	136.948	0.219	-0.288
-548.339	274.322	-0.118	0.210
-547.325	24.660	-0.029	-0.024
-546.310	-106.360	0.183	-0.041
-545.296	548.814	0.086	0.208
-544.281	162.791	-0.070	-0.099
-543.266	12.392	0.033	0.026
-542.252	-200.000	0.018	0.353
-541.237	-25.464	0.128	-0.076
-540.223	800.000	-0.125	-0.474
-539.208	-74.050	-0.190	-0.069
-538.193	-179.961	-0.138	-0.003
-537.179	487.412	0.043	0.098
-536.164	-127.238	-0.178	-0.026
-535.150	159.051	0.151	-0.211
-534.135	71.826	0.141	-0.148
-533.121	112.521	-0.206	0.251
-532.106	-54.090	0.133	-0.061
-531.091	800.000	0.012	0.052
-530.077	255.856	-0.092	-0.159
-529.062	-103.897	0.266	-0.063
-528.048	800.000	-0.111	0.394
-527.033	-134.405	0.020	0.002
-526.018	20.122	0.273	-0.221
-525.004	-141.139	0.171	-0.018
-523.989	-35.128	0.056	-0.031
-522.975	-200.000	0.009	-0.378
-521.960	65.030	0.086	0.087
-520.945	-68.688	-0.227	0.088
-519.931	-124.624	0.103	-0.016
-518.916	81.848	-0.097	0.105
-517.902	138.850	0.131	-0.173
-516.887	-200.000	0.059	0.279
-515.872	53.526	-0.220	0.212
-514.858	580.546	-0.030	-0.073
-513.843	95.986	-0.201	-0.231
-512.829	19.465	-0.206	-0.167
-511.814	-0.832	0.186	-0.132
-510.799	-200.000	-0.022	0.196
-509.785	-43.954	0.069	-0.035
-508.770	397.030	0.090	0.189
-507.756	253.957	0.146	0.250
-506.741	154.765	-0.106	0.147
-505.726	800.000	0.019	-0.066
-504.712	-200.000	0.062	-0.740
-503.697	267.428	0.102	-0.179
-502.683	-7.340	0.362	0.246
-501.668	40.228	0.062	-0.056
-500.653	-200.000	-0.029	0.151
-499.639	-60.504	0.235	0.101
-498.624	513.004	-0.167	-0.390
-497.610	-24.679	-0.119	-0.071
-496.595	-95.306	0.198	0.054
-495.581	-200.000	0.036	0.255
-494.566	325.179	-0.082	-0.157
-493.551	152.387	0.020	-0.028
-492.537	-200.000	-0.010	-0.245
-491.522	800.000	0.037	-0.103
-490.508	800.000	-0.052	-0.170
-489.493	-132.203	0.205	-0.027
-488.478	-109.832	-0.490	-0.103
-487.464	-111.249	0.193	-0.040
-486.449	800.000	-0.041	0.179
-485.435	273.504	-0.155	0.275
-484.420	-125.886	0.137	0.021
-483.405	-80.072	0.346	0.116
-482.391	327.573	-0.101	0.194
-481.376	800.000	0.049	-0.166
-480.362	529.372	0.053	0.125
-479.347	343.511	-0.123	0.242
-478.332	-140.371	0.110	0.012
-477.318	172.195	-0.112	0.162
-476.303	453.469	0.101	-0.225
-475.289	-101.693	0.043	0.010
-474.274	33.425	-0.101	0.088
-473.259	-200.000	-0.005	0.434
-472.245	-51.488	0.270	0.126
-471.230	800.000	-0.077	-0.266
-470.216	114.931	0.111	-0.136
-469.201	-200.000	0.013	0.395
-468.186	-200.000	-0.004	0.229
-467.172	239.992	-0.146	0.244
-466.157	-12.353	-0.084	-0.055
-465.143	291.227	0.101	-0.184
-464.128	-70.209	-0.138	0.053
-463.113	231.178	-0.067	-0.110
-462.099	-200.000	0.006	-0.137
-461.084	-101.108	-0.335	0.082
-460.070	56.123	-0.219	0.213
-459.055	-190.243	0.095	0.001
-458.040	10.968	0.187	0.144
-457.026	-200.000	-0.012	0.177
-456.011	-200.000	0.076	-0.398
-454.997	-159.931	0.024	-0.001
-453.982	55.770	-0.156	0.152
-452.968	116.888	0.187	-0.231
-451.953	800.000	-0.048	0.149
-450.938	-45.488	-0.283	0.141
-449.924	146.660	0.154	-0.208
-448.909	-74.039	0.205	0.075
-447.895	800.000	0.061	-0.201
-446.880	-23.576	0.401	-0.241
-445.865	-200.000	0.013	-0.196
-444.851	800.000	-0.100	0.343
-443.836	200.752	-0.104	0.161
-442.822	107.014	0.183	-0.217
-441.807	255.821	-0.091	-0.157
-440.792	54.656	0.169	0.164
-439.778	-200.000	-0.008	0.040
-438.763	-22.639	-0.221	0.134
-437.749	800.000	0.103	0.326
-436.734	-88.858	-0.141	0.042
-435.719	158.234	-0.199	-0.277
-434.705	-45.295	-0.548	0.273
-433.690	546.563	0.043	0.104
-432.676	72.318	0.141	-0.147
-431.661	8.402	0.223	-0.168
-430.646	19.344	0.222	-0.179
-429.632	-200.000	0.005	-0.199
-428.617	374.197	-0.038	0.079
-427.603	-19.476	-0.066	0.041
-426.588	-153.048	-0.349	-0.025
-425.573	91.619	0.247	0.278
-424.559	579.041	0.061	-0.150
-423.544	-200.000	-0.024	-0.331
-422.530	21.383	-0.122	0.099
-421.515	24.859	-0.103	-0.086
-420.500	246.964	0.071	-0.121
-419.486	-59.590	0.424	0.182
-418.471	-200.000	0.032	0.156
-417.457	42.304	-0.100	-0.091
-416.442	-200.000	0.000	0.068
-415.428	800.000	-0.060	0.257
-414.413	196.806	-0.059	0.089
-413.398	-101.403	0.139	0.034
-412.384	-182.384	0.104	-0.002
-411.369	57.717	0.192	0.188
-410.355	-26.133	0.236	0.139
-409.340	574.529	-0.221	0.541
-408.325	-113.846	-0.100	-0.019
-407.311	370.539	-0.078	-0.158
-406.296	100.777	-0.158	-0.184
-405.282	-200.000	0.003	0.173
-404.267	-68.925	0.154	-0.060
-403.252	411.225	-0.110	0.233
-402.238	3.958	0.102	-0.075
-401.223	-161.145	0.177	-0.009
-400.209	-200.000	-0.009	-0.056
-399.194	40.922	-0.117	0.106
-398.179	-86.463	-0.327	0.101
-397.165	-158.273	0.189	-0.011
-396.150	-116.873	0.231	-0.042
-395.136	-104.962	-0.095	0.022
-394.121	-40.948	0.132	-0.068
-393.106	-200.000	-0.002	0.374
-392.092	-5.724	-0.139	0.095
-391.077	-39.714	-0.199	-0.104
-390.063	219.158	0.102	0.163
-389.048	-91.874	-0.036	-0.010
-388.033	332.392	0.128	-0.248
-387.019	-80.172	-0.102	0.034
-386.004	-38.035	-0.199	0.106
-384.990	142.456	-0.055	-0.074
-383.975	-189.022	-0.371	0.004
-382.960	26.953	-0.306	0.257
-381.946	-200.000	-0.029	-0.155
-380.931	-72.264	-0.181	-0.067
-379.917	259.610	0.195	0.338
-378.902	-200.000	0.043	0.245
-377.888	-10.880	-0.091	-0.060
-376.873	82.299	-0.084	0.091
-375.858	401.072	-0.122	0.255
-374.844	-75.774	-0.159	0.056
-373.829	-200.000	0.052	-0.510
-372.815	-37.748	-0.444	-0.236
-371.800	-200.000	-0.026	-0.178
-370.785	-68.756	-0.299	-0.116
-369.771	333.155	0.083	-0.160
-368.756	800.000	0.162	0.543
-367.742	444.870	-0.190	0.417
-366.727	-86.614	-0.243	-0.074
-365.712	-200.000	0.030	-0.266
-364.698	800.000	0.066	0.195
-363.683	-47.487	0.177	0.086
-362.669	800.000	-0.058	-0.246
-361.654	59.289	-0.196	-0.193
-360.639	-200.000	-0.039	0.180
-359.625	-162.486	0.306	-0.015
-358.610	45.351	-0.282	-0.260
-357.596	800.000	-0.144	0.437
-356.581	-70.828	0.141	0.053
-355.566	-48.017	-0.178	0.086
-354.552	-74.246	0.260	0.094
-353.537	323.507	0.094	-0.180
-352.523	-168.437	-0.367	0.014
-351.508	-53.419	-0.195	0.089
-350.493	420.367	0.026	-0.056
-349.479	30.088	-0.151	-0.129
-348.464	17.290	0.234	0.186
-347.450	-61.947	0.240	-0.100
-346.435	800.000	0.057	0.206
-345.420	-28.716	-0.131	-0.076
-344.406	15.848	0.103	0.081
-343.391	61.155	0.088	0.087
-342.377	240.283	0.092	0.153
-341.362	181.014	-0.173	-0.253
-340.348	135.257	-0.184	0.240
-339.333	-200.000	-0.052	-0.246
-338.318	-200.000	-0.011	0.079
-337.304	-21.199	0.111	-0.068
-336.289	43.789	-0.127	-0.117
-335.275	-36.081	0.087	-0.047
-334.260	-45.144	0.143	-0.071
-333.245	292.115	-0.049	0.089
-332.231	92.260	-0.072	-0.081
-331.216	-76.123	0.328	0.116
-330.202	-18.533	0.067	-0.042
-329.187	-24.606	0.210	-0.125
-328.172	689.228	0.199	-0.519
-327.158	-200.000	-0.053	-0.269
-326.143	121.876	-0.174	-0.216
-325.129	-200.000	0.048	0.241
-324.114	-164.329	0.317	0.015
-323.099	552.707	-0.012	-0.029
-322.085	52.449	-0.093	-0.088
-321.070	-44.066	-0.149	-0.075
-320.056	116.309	-0.041	0.050
-319.041	-200.000	0.008	0.212
-318.026	-70.745	0.156	0.059
-317.012	-28.775	0.148	-0.085
-315.997	68.071	-0.028	0.029
-314.983	-200.000	0.031	-0.264
-313.968	-39.031	0.166	-0.087
-312.953	-98.559	-0.160	0.041
-311.939	-71.006	-0.170	0.064
-310.924	-56.373	0.018	-0.008
-309.910	-32.461	0.132	-0.074
-308.895	-183.725	0.183	-0.003
-307.880	800.000	-0.058	0.177
-306.866	-200.000	0.036	-0.368
-305.851	-31.064	-0.198	-0.112
-304.837	-181.715	-0.333	0.006
-303.822	-107.787	0.291	-0.063
-302.807	-200.000	0.018	0.212
-301.793	-200.000	-0.025	0.381
-300.778	-88.040	-0.164	-0.049
-299.764	112.389	0.291	-0.351
-298.749	-63.719	0.463	-0.189
-297.735	-194.604	0.241	0.002
-296.720	-51.700	0.252	0.117
-295.705	-200.000	0.047	-0.218
-294.691	549.364	0.081	-0.194
-293.676	211.136	0.053	-0.083
-292.662	-200.000	-0.021	-0.236
-291.647	-200.000	-0.065	-0.328
-290.632	-154.027	0.072	0.005
-289.618	117.809	0.075	0.092
-288.603	-75.201	0.160	0.057
-287.589	-65.749	0.456	-0.182
-286.574	-86.446	0.171	-0.052
-285.559	-200.000	0.038	0.387
-284.545	87.800	-0.312	0.345
-283.530	709.100	0.124	0.328
-282.516	119.646	-0.094	0.116
-281.501	-66.020	-0.212	0.084
-280.486	56.609	0.116	0.112
-279.472	-128.917	0.252	0.035
-278.457	-200.000	-0.003	0.117
-277.443	-134.584	0.486	0.059
-276.428	23.618	0.006	-0.005
-275.413	223.936	0.111	-0.178
-274.399	-200.000	0.011	-0.059
-273.384	-200.000	0.044	0.240
-272.370	417.785	-0.166	-0.352
-271.355	-200.000	0.003	-0.348
-270.340	13.952	-0.287	0.222
-269.326	112.810	0.248	0.300
-268.311	800.000	-0.060	-0.262
-267.297	-82.478	0.236	-0.076
-266.282	782.586	0.053	-0.144
-265.267	800.000	-0.074	0.262
-264.253	-96.639	0.235	0.062
-263.238	285.766	0.080	-0.144
-262.224	-200.000	-0.056	0.284
-261.209	-134.522	-0.091	0.011
-260.195	81.439	0.222	-0.239
-259.180	57.445	0.100	0.097
-258.165	167.824	-0.068	0.096
-257.151	164.283	0.139	0.195
-256.136	528.009	0.036	-0.085
-255.122	34.588	0.100	-0.087
-254.107	-200.000	0.009	0.157
-253.092	-200.000	0.034	0.161
-252.078	65.898	0.306	-0.309
-251.063	800.000	-0.088	0.316
-250.049	123.488	-0.105	0.131
-249.034	-114.650	-0.165	0.031
-248.019	508.606	0.096	-0.222
-247.005	658.852	0.051	0.130
-245.990	-200.000	-0.007	0.289
-244.976	275.623	-0.036	0.064
-243.961	-133.747	-0.211	-0.026
-242.946	-91.605	-0.349	0.099
-241.932	771.609	0.106	0.286
-240.917	-200.000	0.001	-0.210
-239.903	302.781	0.098	-0.181
-238.888	30.972	-0.211	-0.180
-237.873	-2.817	-0.046	0.032
-236.859	535.207	-0.201	-0.473
-235.844	-200.000	-0.003	0.218
-234.830	63.303	-0.085	-0.085
-233.815	47.455	-0.064	-0.059
-232.800	-110.681	0.138	-0.028
-231.786	25.940	-0.219	-0.181
-230.771	-148.681	-0.351	-0.028
-229.757	-115.780	0.179	0.033
-228.742	-126.013	-0.246	0.037
-227.727	742.672	0.083	0.221
-226.713	389.144	0.094	-0.193
-225.698	-73.702	-0.374	-0.135
-224.684	29.857	0.100	0.084
-223.669	441.165	0.118	0.258
-222.655	-200.000	-0.025	-0.156
-221.640	-29.195	-0.154	-0.088
-220.625	-60.487	-0.391	0.165
-219.611	-99.722	-0.265	0.066
-218.596	-12.235	-0.185	0.120
-217.582	-121.091	0.198	-0.033
-216.567	-200.000	0.003	0.036
-215.552	353.467	-0.195	-0.385
-214.538	201.086	-0.292	0.446
-213.523	710.243	-0.144	0.380
-212.509	-148.316	0.092	0.008
-211.494	-34.654	0.016	-0.008
-210.479	-139.082	0.359	0.039
-209.465	800.000	-0.039	0.129
-208.450	-136.086	0.246	-0.029
-207.436	394.422	-0.100	0.207
-206.421	-43.626	0.273	-0.137
-205.406	48.031	0.049	0.046
-204.392	-200.000	-0.000	-0.085
-203.377	-77.523	0.086	0.030
-202.363	80.686	-0.066	-0.071
-201.348	-39.620	-0.133	0.069
-200.333	106.663	0.413	0.486
-199.319	-98.863	-0.111	-0.028
-198.304	-200.000	-0.043	0.244
-197.290	146.297	0.107	-0.142
-196.275	-200.000	-0.012	0.115
-195.260	102.907	-0.149	0.173
-194.246	800.000	0.027	0.075
-193.231	658.787	-0.028	0.071
-192.217	-149.898	0.209	-0.016
-191.202	-86.573	-0.263	-0.080
-190.187	140.768	-0.210	0.276
-189.173	-200.000	-0.004	-0.136
-188.158	-79.448	0.024	0.008
-187.144	-155.250	-0.174	-0.011
-186.129	-88.906	0.369	0.109
-185.114	-200.000	-0.044	0.230
-184.100	800.000	0.066	0.274
-183.085	-116.713	0.304	-0.056
-182.071	205.629	0.070	-0.108
-181.056	234.588	-0.209	0.342
-180.042	-131.672	0.226	-0.029
-179.027	-130.204	-0.085	-0.011
-178.012	-129.573	0.391	-0.054
-176.998	-38.664	-0.139	0.073
-175.983	-127.554	-0.266	-0.038
-174.969	687.630	0.148	0.383
-173.954	790.448	0.044	-0.120
-172.939	16.540	0.178	-0.140
-171.925	-12.891	0.129	-0.083
-170.910	-50.809	-0.052	0.024
-169.896	-32.289	-0.304	0.168
-168.881	272.725	0.062	-0.108
-167.866	244.891	-0.103	-0.171
-166.852	-29.451	0.223	0.126
-165.837	-55.021	-0.083	0.037
-164.823	-200.000	-0.003	-0.198
-163.808	-67.288	-0.196	-0.076
-162.793	-94.608	0.400	-0.108
-161.779	189.661	0.102	0.152
-160.764	-127.767	-0.313	0.045
-159.750	-31.598	-0.395	-0.220
-158.735	1.633	0.165	0.118
-157.720	222.503	-0.082	0.132
-156.706	-120.170	0.314	0.053
-155.691	70.910	-0.057	-0.059
-154.677	-110.436	0.216	0.045
-153.662	-53.818	-0.386	-0.175
-152.647	-71.214	0.011	0.004
-151.633	-103.977	0.139	0.032
-150.618	187.612	0.218	-0.322
-149.604	0.849	-0.116	-0.082
-148.589	-80.490	-0.154	-0.051
-147.574	-38.242	0.349	0.183
-146.560	381.044	-0.062	-0.126
-145.545	-196.674	0.041	0.000
-144.531	722.883	-0.038	0.100
-143.516	30.579	-0.160	-0.136
-142.502	-140.828	-0.240	0.025
-141.487	-119.792	-0.126	0.021
-140.472	-39.795	0.191	-0.099
-139.458	800.000	0.081	-0.284
-138.443	-84.751	0.134	0.042
-137.429	199.943	-0.166	0.253
-136.414	-87.367	-0.355	-0.107
-135.399	800.000	-0.120	-0.365
-134.385	-76.628	0.261	-0.091
-133.370	-139.269	-0.253	0.027
-132.356	-33.612	0.149	0.082
-131.341	54.589	-0.111	-0.106
-130.326	800.000	0.033	-0.131
-129.312	-58.108	-0.275	0.119
-128.297	16.584	-0.158	0.124
-127.283	203.396	0.057	0.088
-126.268	56.161	0.076	0.073
-125.253	-0.808	-0.278	-0.195
-124.239	279.410	0.132	-0.234
-123.224	-200.000	0.005	0.102
-122.210	16.121	0.044	0.034
