DTS Sentinel unit serial number:	SN413079Multiplexer serial number:	ORYXHardware model number:	OX4-SRSoftware version number:	ORYX F/W v4.00 Oryx Data Collector v3.7.2.0data status	okinstallation	princeton_trtdifferential loss correction	single-endedforward channel	channel 2reverse channel	N/Adate	2019/09/13time	11:47:35forward acquisition time	60.00reverse acquisition time	0.00gamma	496.2192k internal	0.2318k external	0.2318temperature offset calibration	1.0211default loss term (dB/km)	0.3790temperature slope calibration	1.0000multiplexer offset coefficient	1.0000multiplexer slope coefficient	1.0000fibre end	0.00T internal ref (°C)	33.25T ext. ref 1 (°C)	4.54T ext. ref 2 (°C)	30.24length (m)	temperature (°C)	Stokes	anti-Stokes-747.200	64.272	0.167	0.170
-746.185	-26.260	-0.181	0.108
-745.171	-200.000	-0.007	0.417
-744.156	561.813	0.124	0.304
-743.142	64.765	0.229	-0.234
-742.127	-2.236	0.285	0.203
-741.112	-117.263	-0.151	-0.028
-740.098	-200.000	0.007	0.419
-739.083	-36.737	0.046	0.025
-738.069	-200.000	-0.020	0.221
-737.054	800.000	-0.070	-0.266
-736.039	96.019	-0.026	0.030
-735.025	800.000	-0.064	0.231
-734.010	-200.000	0.020	-0.098
-732.996	-150.378	0.296	0.023
-731.981	-64.702	0.126	-0.052
-730.966	136.812	-0.146	0.193
-729.952	800.000	-0.058	-0.241
-728.937	-84.931	-0.264	-0.084
-727.923	-200.000	0.006	-0.043
-726.908	-32.125	-0.082	0.046
-725.894	-111.644	-0.224	0.046
-724.879	474.146	0.073	-0.167
-723.864	23.203	0.016	-0.013
-722.850	-200.000	0.052	-0.286
-721.835	-200.000	0.002	-0.128
-720.821	-52.347	-0.176	-0.082
-719.806	-122.463	-0.326	-0.054
-718.791	-76.962	-0.283	0.100
-717.777	-157.525	-0.258	-0.016
-716.762	116.415	-0.119	-0.148
-715.748	6.728	0.175	0.131
-714.733	800.000	0.044	0.165
-713.718	380.689	0.151	-0.312
-712.704	111.877	-0.077	0.094
-711.689	-101.485	-0.035	-0.009
-710.675	94.069	-0.171	-0.196
-709.660	74.004	-0.035	-0.037
-708.645	-200.000	0.003	-0.056
-707.631	800.000	-0.052	0.151
-706.616	-137.077	0.049	0.006
-705.602	-34.700	0.226	-0.125
-704.587	15.740	0.391	-0.310
-703.572	-200.000	-0.030	-0.187
-702.558	272.728	0.079	-0.141
-701.543	-77.205	-0.250	0.088
-700.529	-130.830	-0.159	-0.022
-699.514	-56.045	0.130	0.058
-698.499	-14.526	-0.197	0.128
-697.485	-155.155	0.158	0.010
-696.470	-170.019	-0.199	0.007
-695.456	800.000	-0.079	0.250
-694.441	-192.938	-0.137	0.001
-693.426	-132.884	-0.168	-0.022
-692.412	299.376	-0.133	-0.248
-691.397	52.000	0.072	0.069
-690.383	-117.562	-0.243	-0.044
-689.368	502.792	-0.087	-0.204
-688.354	800.000	-0.013	-0.051
-687.339	86.527	0.065	-0.072
-686.324	222.770	-0.080	0.131
-685.310	-56.679	-0.200	0.089
-684.295	800.000	0.066	0.215
-683.281	-125.994	-0.083	-0.013
-682.266	-9.576	0.106	-0.072
-681.251	264.146	0.130	-0.228
-680.237	-100.879	-0.162	0.040
-679.222	-200.000	-0.029	-0.144
-678.208	-10.999	0.215	0.144
-677.193	-117.385	-0.164	0.030
-676.178	800.000	0.006	0.019
-675.164	106.643	0.192	-0.230
-674.149	-77.588	0.068	0.024
-673.135	-173.559	-0.096	-0.003
-672.120	678.504	0.091	-0.240
-671.105	-200.000	-0.008	-0.397
-670.091	-6.740	-0.381	-0.261
-669.076	239.837	-0.122	-0.206
-668.062	103.999	0.070	-0.083
-667.047	-94.623	-0.172	0.047
-666.032	647.987	-0.062	0.160
-665.018	800.000	-0.023	0.065
-664.003	-57.245	0.201	0.089
-662.989	-112.371	-0.179	0.036
-661.974	-200.000	0.051	0.364
-660.959	-200.000	-0.035	-0.162
-659.945	468.285	-0.126	-0.286
-658.930	192.894	0.135	-0.205
-657.916	-200.000	0.052	-0.310
-656.901	23.096	0.091	-0.075
-655.886	-200.000	-0.040	0.361
-654.872	35.241	-0.252	-0.223
-653.857	94.148	0.067	0.077
-652.843	-137.196	0.144	-0.017
-651.828	-110.028	-0.148	0.031
-650.814	-200.000	0.033	-0.306
-649.799	-50.183	0.168	-0.080
-648.784	140.186	-0.150	-0.199
-647.770	-163.642	-0.238	0.011
-646.755	800.000	0.046	0.176
-645.741	108.841	0.078	-0.094
-644.726	-200.000	0.013	-0.100
-643.711	-200.000	-0.020	-0.224
-642.697	-102.355	-0.315	-0.076
-641.682	-98.124	0.182	0.047
-640.668	-104.642	-0.251	-0.058
-639.653	-112.956	-0.352	0.070
-638.638	146.014	-0.139	-0.188
-637.624	297.409	0.165	-0.306
-636.609	-200.000	-0.063	-0.475
-635.595	20.995	-0.255	0.208
-634.580	133.017	-0.175	-0.228
-633.565	119.984	-0.029	0.036
-632.551	800.000	0.042	-0.177
-631.536	-44.098	-0.146	-0.074
-630.522	4.512	0.173	-0.128
-629.507	150.517	0.097	-0.132
-628.492	543.299	0.029	0.071
-627.478	22.806	-0.245	-0.202
-626.463	-200.000	-0.038	0.207
-625.449	492.495	-0.056	0.128
-624.434	460.620	0.094	0.212
-623.419	-200.000	0.009	-0.063
-622.405	190.388	0.040	-0.060
-621.390	-46.446	-0.474	0.234
-620.376	16.485	0.081	-0.065
-619.361	-200.000	-0.024	-0.148
-618.346	-49.083	-0.128	-0.062
-617.332	131.226	-0.134	-0.174
-616.317	-22.279	-0.259	-0.158
-615.303	-103.492	-0.251	-0.060
-614.288	-158.760	-0.230	0.013
-613.273	-116.731	0.263	0.049
-612.259	70.735	-0.015	-0.016
-611.244	313.788	-0.018	-0.035
-610.230	-21.977	0.252	-0.154
-609.215	157.733	0.111	-0.155
-608.201	118.747	-0.266	0.331
-607.186	-153.295	-0.206	-0.014
-606.171	-70.341	0.270	-0.103
-605.157	800.000	-0.085	-0.300
-604.142	642.613	-0.124	0.319
-603.128	-136.037	-0.107	0.013
-602.113	-141.036	-0.238	-0.025
-601.098	131.970	0.165	0.214
-600.084	-37.982	-0.066	-0.035
-599.069	-152.213	-0.331	-0.024
-598.055	416.335	0.071	-0.152
-597.040	-12.074	-0.131	-0.087
-596.025	800.000	-0.108	-0.399
-595.011	-92.689	-0.202	-0.057
-593.996	208.488	-0.030	0.047
-592.982	-0.765	-0.353	-0.252
-591.967	-78.319	0.068	0.023
-590.952	-80.204	-0.133	-0.045
-589.938	-95.998	-0.315	-0.084
-588.923	-148.587	-0.543	-0.045
-587.909	-200.000	0.031	0.191
-586.894	-137.786	-0.291	0.033
-585.879	-200.000	0.016	0.262
-584.865	-200.000	-0.048	0.452
-583.850	800.000	0.072	-0.238
-582.836	122.401	0.279	0.350
-581.821	-200.000	-0.046	0.210
-580.806	800.000	-0.064	-0.213
-579.792	57.658	0.039	0.038
-578.777	-93.144	0.344	-0.096
-577.763	800.000	0.023	0.065
-576.748	101.644	-0.052	0.061
-575.733	-200.000	0.001	-0.205
-574.719	-200.000	0.016	-0.138
-573.704	-90.809	-0.241	0.070
-572.690	-88.929	0.134	-0.040
-571.675	-104.769	0.024	-0.006
-570.661	-120.296	-0.244	0.042
-569.646	584.647	-0.200	-0.494
-568.631	-74.095	0.069	-0.025
-567.617	-130.631	0.279	-0.038
-566.602	800.000	0.123	0.483
-565.588	414.734	-0.044	0.094
-564.573	158.643	-0.052	-0.072
-563.558	36.386	-0.309	0.274
-562.544	-200.000	0.021	-0.184
-561.529	5.411	-0.219	0.163
-560.515	44.824	-0.247	0.228
-559.500	-33.301	-0.132	0.074
-558.485	-72.596	-0.078	-0.029
-557.471	-97.203	-0.076	-0.020
-556.456	-101.217	-0.154	-0.038
-555.442	26.839	0.364	0.306
-554.427	-64.281	0.135	0.055
-553.412	326.300	0.176	0.338
-552.398	-200.000	-0.014	-0.089
-551.383	-35.637	0.150	0.082
-550.369	117.724	-0.257	-0.318
-549.354	44.484	-0.355	-0.328
-548.339	20.637	-0.025	0.020
-547.325	-200.000	-0.027	0.305
-546.310	-33.087	-0.248	0.138
-545.296	-115.934	0.233	0.044
-544.281	199.362	-0.048	0.074
-543.266	-74.925	-0.390	0.141
-542.252	114.791	0.087	0.107
-541.237	-13.391	0.017	0.011
-540.223	470.853	-0.010	-0.022
-539.208	-15.771	0.121	0.077
-538.193	-200.000	0.011	-0.194
-537.179	-200.000	-0.018	-0.521
-536.164	-67.887	-0.242	0.095
-535.150	-78.016	-0.136	-0.047
-534.135	-129.718	0.348	-0.048
-533.121	-124.256	0.254	-0.040
-532.106	-200.000	0.023	0.104
-531.091	239.146	0.074	0.123
-530.077	21.380	0.111	0.091
-529.062	-200.000	-0.047	-0.330
-528.048	-1.650	-0.254	-0.180
-527.033	-200.000	0.008	0.130
-526.018	-125.579	-0.425	0.065
-525.004	84.600	0.066	-0.073
-523.989	-8.620	0.066	-0.044
-522.975	-152.609	0.264	-0.019
-521.960	80.964	0.238	0.257
-520.945	800.000	-0.036	0.137
-519.931	-148.210	-0.235	0.019
-518.916	-68.447	-0.100	0.039
-517.902	33.942	-0.119	-0.104
-516.887	-55.386	-0.180	-0.081
-515.872	-32.177	-0.129	-0.072
-514.858	800.000	-0.062	0.237
-513.843	2.244	0.365	0.264
-512.829	637.405	0.086	-0.220
-511.814	-29.293	-0.109	0.063
-510.799	-103.862	-0.240	-0.056
-509.785	378.244	0.055	-0.113
-508.770	-30.560	0.159	-0.090
-507.756	-109.447	0.214	-0.045
-506.741	28.381	0.144	-0.122
-505.726	244.588	0.230	0.387
-504.712	-85.976	-0.199	-0.062
-503.697	-85.065	-0.162	0.051
-502.683	443.051	-0.145	-0.319
-501.668	-59.669	0.180	0.077
-500.653	108.644	-0.303	-0.363
-499.639	-22.203	-0.338	-0.206
-498.624	-92.929	-0.145	0.041
-497.610	-200.000	-0.022	0.251
-496.595	90.823	-0.052	0.058
-495.581	800.000	0.081	-0.259
-494.566	233.688	-0.073	0.120
-493.551	-200.000	0.001	0.095
-492.537	800.000	-0.088	-0.367
-491.522	-79.938	0.309	-0.104
-490.508	50.880	0.053	-0.051
-489.493	185.762	-0.118	-0.176
-488.478	-200.000	-0.032	0.330
-487.464	-20.383	-0.027	-0.016
-486.449	-119.279	-0.234	0.041
-485.435	-78.548	0.345	0.118
-484.420	-200.000	0.037	-0.234
-483.405	-88.426	0.227	-0.068
-482.391	450.759	-0.024	0.052
-481.376	-92.409	-0.210	-0.059
-480.362	415.752	-0.123	-0.263
-479.347	-97.706	0.274	0.071
-478.332	-200.000	0.049	0.253
-477.318	-71.215	0.062	0.023
-476.303	574.761	0.056	0.137
-475.289	-200.000	0.029	0.312
-474.274	-97.984	0.313	-0.081
-473.259	-113.330	0.062	-0.012
-472.245	-57.844	0.223	0.098
-471.230	-24.734	0.058	-0.034
-470.216	167.250	0.130	0.185
-469.201	-37.272	-0.157	-0.084
-468.186	45.215	-0.126	0.116
-467.172	548.757	0.052	0.124
-466.157	-146.148	-0.248	-0.022
-465.143	309.502	-0.171	0.320
-464.128	317.679	0.004	0.008
-463.113	-200.000	0.059	-0.326
-462.099	-200.000	-0.053	-0.244
-461.084	-72.715	-0.056	-0.021
-460.070	-153.437	-0.172	-0.012
-459.055	-200.000	-0.024	0.196
-458.040	9.329	-0.185	-0.140
-457.026	-111.235	-0.061	-0.012
-456.011	475.570	-0.165	0.373
-454.997	-200.000	-0.008	0.133
-453.982	-200.000	0.018	0.238
-452.968	-200.000	-0.024	-0.243
-451.953	-188.540	-0.219	0.003
-450.938	168.481	-0.114	-0.163
-449.924	274.786	-0.079	0.140
-448.909	-200.000	-0.029	-0.169
-447.895	-200.000	0.025	0.117
-446.880	368.506	0.155	0.313
-445.865	-68.889	-0.232	0.090
-444.851	113.238	-0.102	-0.123
-443.836	-172.122	-0.237	-0.008
-442.822	-200.000	0.009	0.338
-441.807	-96.566	0.181	0.048
-440.792	58.534	-0.203	-0.199
-439.778	-123.488	0.204	-0.032
-438.763	-200.000	-0.018	-0.349
-437.749	-200.000	0.065	-0.324
-436.734	35.862	0.119	0.104
-435.719	301.323	-0.061	0.114
-434.705	-46.501	-0.114	-0.056
-433.690	290.400	-0.033	0.059
-432.676	-24.455	0.317	0.189
-431.661	81.224	0.073	0.079
-430.646	210.336	-0.038	-0.060
-429.632	-200.000	0.033	0.191
-428.617	-25.732	-0.202	0.119
-427.603	-29.502	0.285	0.163
-426.588	-200.000	0.006	-0.069
-425.573	800.000	-0.057	-0.195
-424.559	-100.188	0.188	0.047
-423.544	30.215	-0.057	-0.049
-422.530	800.000	0.023	0.068
-421.515	-200.000	-0.012	-0.063
-420.500	-190.754	-0.050	-0.001
-419.486	-200.000	0.015	-0.134
-418.471	800.000	-0.086	0.285
-417.457	-200.000	-0.001	0.101
-416.442	-108.179	0.539	-0.117
-415.428	-190.108	0.218	0.002
-414.413	-142.879	0.083	0.008
-413.398	-200.000	-0.049	0.214
-412.384	-32.680	-0.235	0.131
-411.369	13.905	0.354	-0.275
-410.355	800.000	-0.047	-0.135
-409.340	-99.474	0.203	0.051
-408.325	-146.123	0.429	0.038
-407.311	432.351	-0.072	0.156
-406.296	-200.000	-0.042	-0.225
-405.282	48.290	0.285	0.267
-404.267	-126.836	0.192	-0.028
-403.252	-200.000	0.042	-0.240
-402.238	-200.000	0.017	0.401
-401.223	800.000	0.054	-0.211
-400.209	73.721	-0.255	-0.267
-399.194	-80.041	0.156	0.052
-398.179	587.622	0.068	-0.168
-397.165	-102.805	0.106	0.025
-396.150	-200.000	0.033	0.204
-395.136	-200.000	0.006	-0.255
-394.121	-200.000	-0.058	-0.410
-393.106	77.637	0.077	0.081
-392.092	-38.206	0.285	-0.151
-391.077	0.811	-0.204	-0.146
-390.063	-200.000	-0.005	0.073
-389.048	56.011	0.101	0.098
-388.033	468.051	-0.048	-0.108
-387.019	-200.000	0.000	0.257
-386.004	-200.000	-0.011	0.053
-384.990	-42.279	0.250	0.128
-383.975	281.570	0.095	-0.170
-382.960	-73.480	0.219	0.080
-381.946	249.832	-0.101	-0.170
-380.931	800.000	-0.046	-0.181
-379.917	141.436	0.198	-0.261
-378.902	100.290	0.061	0.070
-377.888	-200.000	0.068	0.347
-376.873	-66.572	0.478	0.189
-375.858	222.508	0.086	0.137
-374.844	57.022	-0.188	-0.183
-373.829	-71.058	0.035	0.013
-372.815	-88.991	0.114	0.034
-371.800	800.000	-0.046	0.156
-370.785	119.089	-0.163	0.201
-369.771	35.996	0.151	-0.132
-368.756	-88.246	0.165	-0.049
-367.742	-200.000	0.011	0.202
-366.727	800.000	-0.009	-0.039
-365.712	-74.686	-0.067	-0.024
-364.698	52.383	0.197	0.188
-363.683	31.277	0.129	-0.110
-362.669	33.757	0.064	0.056
-361.654	176.349	-0.075	-0.109
-360.639	-146.323	-0.284	0.025
-359.625	-200.000	0.001	-0.036
-358.610	-94.135	0.236	0.064
-357.596	-17.350	-0.151	0.095
-356.581	2.350	-0.148	-0.107
-355.566	-100.278	0.204	-0.051
-354.552	92.084	0.108	0.122
-353.537	97.276	0.117	0.134
-352.523	-187.654	-0.117	0.002
-351.508	98.303	0.129	0.148
-350.493	328.971	0.035	-0.067
-349.479	-200.000	-0.021	0.194
-348.464	-122.960	0.085	0.014
-347.450	-1.133	0.066	0.047
-346.435	800.000	-0.042	0.154
-345.420	-200.000	-0.012	0.276
-344.406	335.969	-0.167	-0.323
-343.391	-51.612	-0.093	-0.043
-342.377	-122.286	-0.016	-0.003
-341.362	-158.822	0.275	0.016
-340.348	139.799	0.096	-0.126
-339.333	-28.719	0.297	-0.170
-338.318	-45.316	-0.162	-0.080
-337.304	-200.000	-0.019	-0.192
-336.289	8.546	0.669	0.502
-335.275	56.597	0.074	0.071
-334.260	114.794	-0.205	-0.249
-333.245	-79.865	-0.286	-0.096
-332.231	191.405	-0.063	0.094
-331.216	267.373	0.187	0.326
-330.202	64.230	0.165	-0.166
-329.187	57.546	0.206	0.201
-328.172	-100.437	-0.454	0.112
-327.158	-196.775	-0.306	-0.002
-326.143	-37.399	-0.218	0.116
-325.129	438.290	-0.071	-0.155
-324.114	-200.000	0.039	0.228
-323.099	-68.262	0.268	0.104
-322.085	200.216	0.110	0.169
-321.070	107.745	0.252	-0.299
-320.056	-200.000	-0.038	-0.415
-319.041	22.907	-0.146	0.119
-318.026	800.000	-0.038	0.126
-317.012	-200.000	-0.033	-0.167
-315.997	-200.000	0.039	0.191
-314.983	-79.783	0.158	0.053
-313.968	293.002	-0.141	0.256
-312.953	-29.034	-0.033	-0.019
-311.939	-200.000	-0.068	0.636
-310.924	-33.345	0.272	0.150
-309.910	-200.000	0.021	0.326
-308.895	-57.409	0.210	0.092
-307.880	151.279	-0.129	0.174
-306.866	57.915	-0.211	0.205
-305.851	-200.000	0.007	-0.121
-304.837	74.184	0.089	-0.093
-303.822	-200.000	-0.021	-0.188
-302.807	-200.000	0.001	0.013
-301.793	-104.190	0.341	-0.079
-300.778	129.839	-0.101	0.128
-299.764	-14.926	0.223	-0.142
-298.749	-200.000	-0.027	-0.151
-297.735	-55.741	0.310	0.138
-296.720	-127.330	0.247	0.036
-295.705	-92.059	-0.317	0.089
-294.691	800.000	0.036	-0.117
-293.676	-96.207	-0.451	-0.119
-292.662	-200.000	-0.015	0.272
-291.647	-200.000	0.021	-0.137
-290.632	267.195	-0.084	-0.147
-289.618	-57.860	0.370	0.161
-288.603	-170.099	-0.120	-0.004
-287.589	64.971	-0.215	0.216
-286.574	-200.000	-0.011	0.303
-285.559	-200.000	-0.050	0.308
-284.545	-200.000	-0.026	-0.198
-283.530	218.618	0.168	-0.268
-282.516	450.238	0.162	-0.355
-281.501	91.650	0.062	-0.069
-280.486	89.415	-0.063	0.070
-279.472	-20.518	-0.420	0.257
-278.457	-18.962	0.368	0.228
-277.443	-200.000	-0.000	0.042
-276.428	-15.213	-0.164	0.104
-275.413	74.226	-0.137	-0.143
-274.399	-60.850	-0.547	0.230
-273.384	184.635	-0.065	-0.095
-272.370	176.064	0.188	0.271
-271.355	346.241	0.106	-0.207
-270.340	-113.898	0.292	0.056
-269.326	100.273	0.296	0.341
-268.311	-200.000	-0.043	-0.244
-267.297	325.117	0.026	-0.050
-266.282	141.925	0.064	-0.084
-265.267	27.364	0.139	-0.116
-264.253	-57.742	0.207	-0.090
-263.238	-95.095	-0.080	-0.021
-262.224	800.000	-0.051	0.149
-261.209	632.841	0.043	-0.108
-260.195	41.116	-0.095	0.086
-259.180	-82.485	-0.296	-0.095
-258.165	-184.453	0.528	-0.009
-257.151	242.415	0.083	-0.138
-256.136	-54.554	-0.041	-0.019
-255.122	16.778	0.223	-0.175
-254.107	-69.982	0.292	-0.111
-253.092	9.965	-0.097	-0.074
-252.078	-125.212	-0.143	-0.022
-251.063	-35.570	-0.208	-0.112
-250.049	-76.212	0.050	-0.018
-249.034	-125.665	-0.393	0.059
-248.019	-140.527	-0.353	-0.036
-247.005	-105.391	0.234	0.053
-245.990	-127.182	-0.060	-0.009
-244.976	590.192	-0.048	0.118
-243.961	800.000	-0.088	-0.241
-242.946	41.421	0.140	0.126
-241.932	-200.000	0.033	-0.149
-240.917	631.702	0.055	-0.138
-239.903	-43.474	0.148	-0.074
-238.888	-95.628	0.146	-0.039
-237.873	148.345	-0.114	0.152
-236.859	284.603	0.076	0.136
-235.844	-9.951	-0.213	-0.140
-234.830	-52.000	0.321	-0.148
-233.815	-34.526	-0.310	0.168
-232.800	-200.000	0.007	0.177
-231.786	109.550	0.262	-0.312
-230.771	-200.000	0.033	-0.169
-229.757	800.000	-0.097	-0.281
-228.742	344.960	0.158	-0.308
-227.727	-200.000	0.008	-0.304
-226.713	-46.510	-0.196	-0.095
-225.698	800.000	-0.120	0.346
-224.684	-27.540	0.158	-0.091
-223.669	113.581	-0.212	-0.255
-222.655	146.893	0.060	0.080
-221.640	-97.553	-0.194	0.050
-220.625	-66.077	0.134	0.053
-219.611	2.923	-0.059	-0.043
-218.596	167.569	0.428	0.603
-217.582	-200.000	-0.007	-0.194
-216.567	-200.000	0.047	-0.294
-215.552	10.327	-0.141	0.107
-214.538	-200.000	-0.053	0.270
-213.523	17.257	-0.290	-0.228
-212.509	-200.000	-0.001	-0.102
-211.494	51.235	-0.077	-0.073
-210.479	-106.633	0.205	-0.045
-209.465	148.546	0.044	-0.059
-208.450	137.866	-0.127	0.165
-207.436	-146.951	0.316	-0.027
-206.421	-42.160	-0.190	0.096
-205.406	-43.790	0.067	0.034
-204.392	800.000	0.035	-0.144
-203.377	-200.000	0.004	0.093
-202.363	-124.308	0.260	0.040
-201.348	-51.707	0.219	0.101
-200.333	45.617	0.144	-0.132
-199.319	-126.649	0.565	-0.083
-198.304	99.254	0.129	-0.148
-197.290	800.000	0.106	0.439
-196.275	-47.196	0.095	0.046
-195.260	357.500	0.069	0.136
-194.246	-93.148	0.008	-0.002
-193.231	-200.000	-0.007	0.115
-192.217	-152.783	0.372	0.026
-191.202	65.234	-0.023	-0.023
-190.187	33.585	0.109	-0.094
-189.173	621.394	0.059	-0.146
-188.158	-165.669	-0.264	0.011
-187.144	-113.964	-0.305	-0.059
-186.129	75.218	0.164	-0.171
-185.114	-101.633	-0.316	0.076
-184.100	228.273	0.138	0.222
-183.085	-123.092	0.305	-0.048
-182.071	-129.481	0.240	0.033
-181.056	194.555	-0.162	0.244
-180.042	-44.187	-0.172	0.085
-179.027	-9.577	-0.046	-0.030
-178.012	-89.450	-0.236	0.069
-176.998	-200.000	0.059	-0.277
-175.983	60.932	-0.314	-0.309
-174.969	58.536	0.159	0.154
-173.954	-71.541	-0.120	-0.045
-172.939	800.000	0.061	0.256
-171.925	-200.000	0.019	0.115
-170.910	25.606	0.375	0.309
-169.896	2.260	0.235	-0.168
-168.881	365.573	0.095	-0.189
-167.866	169.771	-0.242	-0.343
-166.852	53.583	0.195	0.185
-165.837	-78.261	0.205	-0.070
-164.823	-18.139	0.343	-0.213
-163.808	-200.000	-0.021	-0.135
-162.793	-120.682	-0.226	0.038
-161.779	-119.123	-0.104	-0.018
-160.764	185.077	-0.129	-0.190
-159.750	800.000	0.064	0.208
-158.735	8.730	-0.243	0.181
-157.720	-102.794	-0.102	0.024
-156.706	-2.823	0.304	-0.210
-155.691	-86.347	0.147	0.045
-154.677	-55.798	-0.226	0.100
-153.662	45.028	-0.210	0.192
-152.647	-94.229	-0.180	-0.049
-151.633	-200.000	0.008	-0.412
-150.618	-200.000	-0.027	0.227
-149.604	23.352	0.216	-0.175
-148.589	-15.853	0.054	0.034
-147.574	452.868	0.052	-0.113
-146.560	-125.524	0.089	-0.013
-145.545	290.868	0.054	0.096
-144.531	-200.000	-0.009	0.068
-143.516	32.472	0.130	0.111
-142.502	-200.000	0.006	0.039
-141.487	613.983	-0.058	0.144
-140.472	420.712	0.050	0.106
-139.458	-200.000	0.005	0.057
-138.443	119.915	0.098	0.121
-137.429	-112.835	-0.108	0.021
-136.414	-135.570	0.037	-0.004
-135.399	800.000	0.074	-0.284
-134.385	-144.826	-0.261	0.024
-133.370	21.253	0.111	0.089
-132.356	-177.050	0.230	0.006
-131.341	800.000	0.021	0.061
-130.326	-200.000	-0.025	-0.323
-129.312	118.984	-0.048	0.059
-128.297	-86.700	0.298	-0.090
-127.283	178.770	-0.023	0.033
-126.268	-37.668	0.148	-0.078
-125.253	-56.480	0.092	-0.040
-124.239	78.573	-0.228	-0.241
-123.224	45.405	0.051	0.046
-122.210	-91.868	-0.283	0.079
