DTS Sentinel unit serial number:	SN413079Multiplexer serial number:	ORYXHardware model number:	OX4-SRSoftware version number:	ORYX F/W v4.00 Oryx Data Collector v3.7.2.0data status	okinstallation	princeton_trtdifferential loss correction	single-endedforward channel	channel 2reverse channel	N/Adate	2019/09/15time	12:27:35forward acquisition time	60.00reverse acquisition time	0.00gamma	496.2192k internal	0.2313k external	0.2313temperature offset calibration	1.0012default loss term (dB/km)	0.3790temperature slope calibration	1.0000multiplexer offset coefficient	1.0000multiplexer slope coefficient	1.0000fibre end	0.00T internal ref (°C)	35.05T ext. ref 1 (°C)	5.05T ext. ref 2 (°C)	32.65length (m)	temperature (°C)	Stokes	anti-Stokes-747.200	93.109	-0.037	-0.042
-746.185	800.000	0.107	0.335
-745.171	11.511	-0.254	0.197
-744.156	184.913	0.205	0.308
-743.142	298.545	-0.077	0.144
-742.127	-7.489	-0.097	-0.067
-741.112	-137.147	-0.298	-0.034
-740.098	393.202	-0.069	-0.146
-739.083	-170.972	0.234	-0.008
-738.069	-141.392	0.159	-0.016
-737.054	-47.312	0.145	0.072
-736.039	452.576	0.066	-0.148
-735.025	134.354	0.206	0.270
-734.010	79.226	-0.092	0.100
-732.996	78.031	0.131	0.142
-731.981	800.000	-0.072	-0.300
-730.966	91.162	-0.291	-0.331
-729.952	-116.323	-0.340	0.064
-728.937	800.000	0.070	-0.214
-727.923	-200.000	0.051	-0.275
-726.908	-10.730	0.255	-0.171
-725.894	-12.018	0.164	-0.109
-724.879	160.981	-0.090	-0.127
-723.864	-169.033	-0.102	-0.004
-722.850	-122.526	0.105	0.017
-721.835	190.883	-0.128	-0.195
-720.821	408.674	-0.116	0.249
-719.806	300.977	-0.114	-0.213
-718.791	253.141	-0.026	0.045
-717.777	-35.697	0.226	-0.124
-716.762	800.000	0.040	-0.159
-715.748	-161.133	-0.348	0.018
-714.733	-143.959	0.201	-0.019
-713.718	-200.000	-0.011	-0.179
-712.704	71.262	0.076	-0.080
-711.689	-11.132	0.274	0.183
-710.675	101.493	-0.068	-0.081
-709.660	-114.529	0.069	-0.014
-708.645	-6.918	-0.189	0.130
-707.631	149.474	-0.252	0.346
-706.616	-20.028	0.148	-0.093
-705.602	186.705	-0.138	-0.208
-704.587	800.000	-0.009	0.033
-703.572	-200.000	-0.002	0.102
-702.558	454.566	-0.128	-0.288
-701.543	628.356	0.045	-0.114
-700.529	610.315	0.052	-0.133
-699.514	-107.632	-0.408	-0.090
-698.499	412.893	-0.129	-0.277
-697.485	70.514	-0.307	-0.321
-696.470	57.565	-0.121	0.120
-695.456	-200.000	-0.008	-0.041
-694.441	800.000	-0.070	-0.223
-693.426	-113.924	0.326	-0.064
-692.412	701.680	-0.065	-0.174
-691.397	-179.367	0.339	-0.008
-690.383	-104.889	-0.317	-0.074
-689.368	-102.856	-0.101	0.024
-688.354	-165.000	-0.186	0.008
-687.339	12.764	-0.256	-0.200
-686.324	-68.973	0.189	-0.074
-685.310	-200.000	-0.019	-0.111
-684.295	-120.301	0.184	-0.032
-683.281	290.269	0.047	-0.086
-682.266	10.320	-0.253	-0.195
-681.251	6.112	-0.171	-0.128
-680.237	-21.496	0.259	-0.160
-679.222	-21.461	0.025	-0.015
-678.208	-41.170	-0.317	0.165
-677.193	73.375	0.123	-0.130
-676.178	-146.212	0.093	0.008
-675.164	32.703	0.111	0.097
-674.149	-59.244	0.215	0.094
-673.135	175.202	-0.244	-0.357
-672.120	351.387	0.186	0.373
-671.105	800.000	0.079	0.248
-670.091	-121.623	-0.424	0.071
-669.076	-67.488	-0.069	-0.027
-668.062	-200.000	-0.042	0.308
-667.047	118.274	0.131	-0.163
-666.032	90.266	0.157	-0.178
-665.018	-130.503	0.113	0.015
-664.003	222.447	-0.084	0.136
-662.989	-200.000	0.003	-0.211
-661.974	533.121	-0.073	0.175
-660.959	-52.982	-0.469	-0.218
-659.945	58.929	0.269	-0.267
-658.930	-91.716	-0.187	0.054
-657.916	-128.050	0.178	0.026
-656.901	93.424	-0.055	-0.063
-655.886	101.743	-0.115	0.135
-654.872	800.000	0.010	-0.030
-653.857	330.236	0.032	0.062
-652.843	203.802	-0.064	0.101
-651.828	-200.000	0.022	-0.098
-650.814	-34.772	-0.143	-0.079
-649.799	43.424	0.118	-0.109
-648.784	-8.089	-0.077	0.052
-647.770	-168.419	0.228	-0.009
-646.755	-66.396	0.366	-0.147
-645.741	41.455	-0.072	-0.066
-644.726	416.822	-0.071	0.154
-643.711	-61.107	-0.197	0.084
-642.697	249.047	0.164	0.281
-641.682	430.731	-0.011	-0.024
-640.668	800.000	0.075	0.264
-639.653	800.000	0.029	0.100
-638.638	-59.722	-0.115	0.050
-637.624	55.715	-0.283	-0.277
-636.609	-200.000	0.009	0.132
-635.595	800.000	-0.045	0.145
-634.580	68.103	-0.051	0.053
-633.565	62.046	0.307	0.309
-632.551	-37.033	0.140	0.076
-631.536	-51.824	0.343	0.161
-630.522	136.767	0.330	0.436
-629.507	-26.513	-0.164	-0.097
-628.492	-51.307	-0.206	0.097
-627.478	358.537	0.057	-0.114
-626.463	365.560	-0.115	-0.235
-625.449	-195.643	-0.294	0.002
-624.434	297.602	-0.208	0.386
-623.419	67.370	0.208	-0.214
-622.405	153.179	0.122	0.168
-621.390	155.808	0.060	-0.084
-620.376	-121.051	0.297	0.050
-619.361	-155.411	0.326	-0.021
-618.346	25.608	-0.187	0.157
-617.332	-86.052	0.396	-0.123
-616.317	-70.124	-0.326	-0.125
-615.303	112.259	0.137	-0.168
-614.288	346.663	0.083	0.166
-613.273	42.622	-0.072	0.067
-612.259	636.912	0.128	-0.328
-611.244	-78.766	0.136	0.047
-610.230	1.020	-0.281	0.203
-609.215	-200.000	-0.059	0.323
-608.201	-45.806	0.238	-0.118
-607.186	-200.000	0.033	-0.285
-606.171	-200.000	0.030	0.219
-605.157	800.000	0.066	0.230
-604.142	-27.670	0.325	0.190
-603.128	-116.351	0.365	0.068
-602.113	-68.468	0.154	0.060
-601.098	-138.493	-0.447	-0.050
-600.084	800.000	-0.043	-0.176
-599.069	614.916	0.050	0.125
-598.055	-200.000	-0.013	-0.086
-597.040	-68.709	-0.215	0.084
-596.025	92.880	-0.138	-0.157
-595.011	81.731	0.120	-0.131
-593.996	92.714	0.033	-0.037
-592.982	-113.747	0.390	0.077
-591.967	-69.811	0.195	0.075
-590.952	181.021	-0.064	-0.095
-589.938	-200.000	-0.032	0.221
-588.923	337.007	0.067	0.130
-587.909	-132.571	-0.226	-0.029
-586.894	305.753	0.077	0.145
-585.879	-77.070	0.165	-0.058
-584.865	-19.511	-0.174	-0.109
-583.850	212.088	0.136	-0.216
-582.836	25.669	0.172	-0.145
-581.821	-200.000	0.035	-0.237
-580.806	30.338	-0.271	0.233
-579.792	165.558	-0.178	-0.254
-578.777	74.194	0.192	0.203
-577.763	800.000	0.069	0.293
-576.748	800.000	-0.105	-0.307
-575.733	-6.435	0.012	-0.008
-574.719	676.715	-0.089	0.232
-573.704	-144.977	0.331	-0.030
-572.690	-28.738	-0.348	0.202
-571.675	-110.940	0.294	-0.061
-570.661	-120.090	-0.071	0.012
-569.646	-96.414	-0.067	0.018
-568.631	-129.512	0.262	-0.037
-567.617	543.940	-0.155	-0.372
-566.602	-46.403	-0.144	-0.071
-565.588	417.171	0.163	-0.350
-564.573	-136.542	0.187	-0.022
-563.558	-200.000	-0.003	-0.150
-562.544	-31.551	0.059	0.033
-561.529	-64.778	0.144	0.059
-560.515	-118.748	0.138	0.024
-559.500	-87.072	-0.131	-0.040
-558.485	-110.194	0.087	0.018
-557.471	-23.165	-0.105	-0.063
-556.456	9.119	-0.096	0.073
-555.442	286.465	-0.041	-0.075
-554.427	15.053	-0.205	-0.161
-553.412	-164.046	-0.127	0.006
-552.398	376.067	0.200	0.411
-551.383	83.203	-0.057	-0.062
-550.369	5.377	0.286	-0.212
-549.354	749.877	0.028	0.075
-548.339	-189.494	0.095	0.001
-547.325	-200.000	-0.056	-0.322
-546.310	-25.767	0.268	0.159
-545.296	131.266	0.173	0.224
-544.281	-200.000	-0.013	-0.096
-543.266	-200.000	0.000	-0.062
-542.252	-200.000	0.031	0.279
-541.237	-153.702	-0.154	-0.011
-540.223	-33.945	-0.030	0.017
-539.208	-149.376	0.393	-0.031
-538.193	21.952	-0.015	0.012
-537.179	-15.670	0.157	-0.101
-536.164	-6.106	0.127	-0.087
-535.150	95.555	-0.241	-0.277
-534.135	461.271	0.154	-0.345
-533.121	20.564	0.059	0.048
-532.106	179.793	-0.025	0.037
-531.091	-75.863	-0.213	-0.076
-530.077	236.290	-0.071	0.118
-529.062	-9.542	0.105	0.070
-528.048	-53.614	0.229	-0.105
-527.033	-146.486	-0.151	-0.013
-526.018	-38.825	-0.290	0.154
-525.004	305.582	-0.174	0.325
-523.989	-48.347	-0.108	-0.052
-522.975	-77.647	0.126	-0.044
-521.960	10.399	-0.057	0.044
-520.945	89.667	0.048	-0.054
-519.931	-93.794	-0.053	0.015
-518.916	34.144	0.082	0.072
-517.902	-129.782	0.240	0.033
-516.887	588.625	0.019	-0.046
-515.872	-200.000	-0.035	-0.173
-514.858	-89.049	-0.142	-0.042
-513.843	-93.467	-0.135	-0.037
-512.829	178.322	0.085	-0.125
-511.814	-200.000	-0.018	0.103
-510.799	242.635	0.051	-0.085
-509.785	29.275	-0.202	-0.173
-508.770	800.000	-0.090	-0.322
-507.756	-200.000	0.003	-0.234
-506.741	12.949	0.169	0.131
-505.726	222.765	0.059	0.095
-504.712	71.443	0.074	0.077
-503.697	-199.214	-0.207	-0.001
-502.683	629.482	-0.043	-0.109
-501.668	-23.051	-0.275	0.167
-500.653	-197.103	-0.070	-0.000
-499.639	74.310	-0.175	0.185
-498.624	172.002	0.101	0.146
-497.610	32.671	0.228	0.198
-496.595	719.652	0.203	0.541
-495.581	273.217	-0.233	0.413
-494.566	-40.822	0.266	0.138
-493.551	25.324	0.122	-0.102
-492.537	-74.525	-0.203	-0.073
-491.522	138.358	0.152	-0.201
-490.508	495.110	0.101	0.233
-489.493	42.185	-0.065	0.060
-488.478	88.243	0.181	-0.201
-487.464	-200.000	-0.016	0.156
-486.449	53.820	0.269	0.260
-485.435	-140.582	-0.345	0.036
-484.420	-121.491	0.140	0.023
-483.405	-77.753	-0.278	-0.096
-482.391	-200.000	0.018	0.322
-481.376	38.961	0.189	-0.169
-480.362	-200.000	0.003	0.072
-479.347	101.482	-0.074	-0.086
-478.332	-200.000	-0.030	0.168
-477.318	-51.717	-0.196	0.092
-476.303	-200.000	-0.019	-0.171
-475.289	155.357	-0.088	0.122
-474.274	-200.000	0.014	-0.454
-473.259	800.000	-0.100	-0.309
-472.245	101.183	-0.077	-0.090
-471.230	-76.538	-0.107	-0.038
-470.216	-200.000	0.024	0.110
-469.201	-14.800	-0.114	-0.073
-468.186	32.572	0.090	-0.078
-467.172	-200.000	0.089	0.394
-466.157	131.180	-0.144	0.186
-465.143	15.621	-0.216	-0.170
-464.128	800.000	0.039	-0.122
-463.113	-61.150	0.389	0.165
-462.099	800.000	0.038	0.113
-461.084	12.322	-0.381	0.294
-460.070	-200.000	0.028	-0.184
-459.055	-103.709	0.204	0.048
-458.040	2.892	-0.217	0.158
-457.026	-138.342	-0.156	0.017
-456.011	-200.000	0.024	-0.420
-454.997	800.000	-0.032	0.133
-453.982	-87.937	0.401	0.121
-452.968	-179.561	-0.173	-0.004
-451.953	-200.000	0.017	-0.100
-450.938	176.316	0.105	0.153
-449.924	-200.000	0.017	-0.305
-448.909	27.439	0.295	-0.249
-447.895	-200.000	-0.024	0.268
-446.880	197.317	-0.109	-0.167
-445.865	-5.756	0.161	-0.111
-444.851	-133.641	0.036	0.005
-443.836	-200.000	0.010	0.130
-442.822	-33.498	0.238	0.132
-441.807	800.000	0.042	-0.167
-440.792	28.838	0.165	0.140
-439.778	219.465	-0.116	0.186
-438.763	-160.744	-0.197	0.010
-437.749	-56.905	-0.452	-0.200
-436.734	-200.000	-0.113	0.520
-435.719	116.369	-0.296	0.363
-434.705	67.158	0.152	-0.155
-433.690	-36.071	-0.224	0.121
-432.676	421.480	0.124	-0.266
-431.661	800.000	0.068	0.243
-430.646	-141.540	-0.109	-0.011
-429.632	-107.713	0.141	-0.031
-428.617	-98.194	-0.435	0.112
-427.603	-72.827	0.160	0.059
-426.588	-200.000	0.030	-0.189
-425.573	154.039	-0.107	-0.147
-424.559	47.788	-0.287	0.268
-423.544	-200.000	0.005	0.083
-422.530	-155.918	-0.157	0.010
-421.515	-158.010	0.284	-0.017
-420.500	-27.335	-0.113	-0.066
-419.486	-200.000	-0.018	-0.288
-418.471	-60.121	0.286	-0.122
-417.457	800.000	-0.039	0.110
-416.442	800.000	0.047	-0.156
-415.428	405.113	-0.106	-0.225
-414.413	800.000	0.057	-0.236
-413.398	173.335	0.169	-0.244
-412.384	-200.000	0.027	-0.161
-411.369	-104.931	-0.203	0.047
-410.355	-200.000	0.066	0.314
-409.340	-45.593	-0.252	0.125
-408.325	-137.573	0.267	0.030
-407.311	-137.318	0.111	0.013
-406.296	-100.846	0.209	0.051
-405.282	-200.000	-0.001	0.131
-404.267	-200.000	0.024	0.316
-403.252	-200.000	-0.025	0.116
-402.238	-200.000	-0.013	-0.356
-401.223	-200.000	-0.006	0.029
-400.209	541.011	-0.069	0.165
-399.194	179.818	-0.089	-0.131
-398.179	-200.000	0.348	-0.002
-397.165	800.000	0.080	0.246
-396.150	13.376	-0.189	-0.147
-395.136	-200.000	0.182	-0.000
-394.121	0.081	0.165	-0.118
-393.106	45.608	-0.127	-0.118
-392.092	-200.000	-0.082	-0.377
-391.077	-9.917	-0.167	-0.111
-390.063	-200.000	-0.056	0.320
-389.048	-142.976	-0.269	0.026
-388.033	-200.000	-0.015	0.239
-387.019	359.041	-0.096	0.193
-386.004	43.879	0.150	-0.138
-384.990	-38.271	-0.253	0.134
-383.975	-46.731	-0.046	-0.022
-382.960	-200.000	-0.003	0.157
-381.946	-200.000	-0.013	-0.213
-380.931	-200.000	0.038	-0.191
-379.917	-85.066	0.282	0.088
-378.902	11.607	0.221	-0.170
-377.888	41.066	-0.024	0.022
-376.873	122.603	0.112	-0.140
-375.858	209.086	0.028	0.043
-374.844	-80.123	0.170	-0.057
-373.829	-200.000	0.045	0.252
-372.815	-146.125	-0.167	0.015
-371.800	198.415	-0.105	-0.160
-370.785	219.681	0.068	0.109
-369.771	52.819	-0.273	0.261
-368.756	-3.679	-0.170	0.118
-367.742	256.337	0.126	0.216
-366.727	201.988	0.078	0.121
-365.712	37.005	-0.252	-0.223
-364.698	-200.000	0.007	-0.140
-363.683	-28.965	0.231	-0.132
-362.669	-50.532	-0.238	0.112
-361.654	-200.000	0.003	-0.181
-360.639	800.000	-0.051	-0.147
-359.625	95.798	-0.109	0.124
-358.610	-119.754	-0.489	0.084
-357.596	800.000	-0.049	-0.166
-356.581	52.743	-0.256	-0.245
-355.566	120.505	0.052	0.064
-354.552	87.973	-0.285	-0.316
-353.537	800.000	0.054	-0.197
-352.523	-200.000	0.015	-0.111
-351.508	-124.591	0.203	-0.032
-350.493	-31.482	0.193	-0.108
-349.479	319.496	-0.028	-0.054
-348.464	-172.008	0.412	0.013
-347.450	-200.000	0.046	-0.218
-346.435	-182.351	-0.073	-0.001
-345.420	-123.497	0.239	-0.038
-344.406	42.964	0.272	-0.248
-343.391	-200.000	0.034	-0.161
-342.377	-44.321	0.233	-0.116
-341.362	-200.000	-0.001	0.018
-340.348	12.342	-0.265	0.204
-339.333	112.132	-0.076	0.091
-338.318	-141.627	-0.148	-0.015
-337.304	469.940	-0.058	0.131
-336.289	800.000	-0.106	0.327
-335.275	-61.304	0.458	0.192
-334.260	-134.235	0.165	0.020
-333.245	-107.061	-0.193	-0.043
-332.231	-176.366	-0.263	-0.007
-331.216	-148.848	0.106	0.009
-330.202	62.051	-0.038	-0.038
-329.187	-16.217	-0.344	-0.218
-328.172	38.224	0.293	-0.260
-327.158	-106.548	0.262	0.058
-326.143	226.026	-0.120	-0.194
-325.129	-200.000	0.007	-0.200
-324.114	670.602	0.068	-0.176
-323.099	-200.000	-0.022	-0.264
-322.085	199.454	-0.017	0.026
-321.070	-56.123	-0.182	-0.081
-320.056	-111.251	0.257	-0.052
-319.041	192.172	0.122	0.184
-318.026	-127.313	0.096	-0.014
-317.012	-98.680	0.135	0.034
-315.997	319.293	-0.145	-0.274
-314.983	170.280	-0.195	-0.279
-313.968	-86.958	0.381	0.116
-312.953	120.901	0.125	-0.155
-311.939	-200.000	0.082	-0.393
-310.924	159.520	-0.142	-0.197
-309.910	8.164	-0.078	-0.058
-308.895	36.222	0.254	-0.223
-307.880	-154.040	-0.473	-0.032
-306.866	-19.858	-0.068	0.042
-305.851	-52.727	-0.102	-0.047
-304.837	-200.000	-0.010	-0.343
-303.822	34.998	0.056	0.048
-302.807	152.182	-0.104	0.141
-301.793	-67.984	-0.198	-0.077
-300.778	-66.724	0.297	-0.117
-299.764	800.000	-0.078	0.235
-298.749	-87.405	-0.264	-0.080
-297.735	28.772	0.270	0.228
-296.720	47.519	-0.106	0.099
-295.705	-200.000	-0.009	0.136
-294.691	99.584	-0.052	0.060
-293.676	-200.000	-0.028	-0.312
-292.662	290.065	-0.051	0.092
-291.647	-200.000	0.026	-0.147
-290.632	-148.861	0.168	-0.014
-289.618	-200.000	0.040	0.214
-288.603	-135.849	0.177	-0.021
-287.589	800.000	0.091	-0.348
-286.574	39.690	-0.107	0.096
-285.559	475.706	0.059	-0.132
-284.545	-200.000	-0.007	0.124
-283.530	-79.751	-0.138	-0.046
-282.516	446.359	-0.161	-0.352
-281.501	-200.000	-0.055	0.258
-280.486	-15.277	-0.207	-0.132
-279.472	411.675	-0.046	-0.097
-278.457	204.311	-0.082	-0.126
-277.443	73.163	0.189	0.196
-276.428	62.182	-0.042	0.041
-275.413	-0.570	-0.141	-0.099
-274.399	154.909	0.196	0.269
-273.384	-200.000	0.049	0.222
-272.370	-39.803	-0.392	0.204
-271.355	-39.886	0.321	-0.167
-270.340	33.128	-0.044	0.038
-269.326	115.464	0.246	-0.300
-268.311	40.290	-0.155	-0.138
-267.297	-95.704	-0.126	-0.034
-266.282	173.683	-0.131	0.188
-265.267	-39.214	-0.089	0.047
-264.253	697.091	0.053	-0.138
-263.238	-195.771	-0.126	-0.001
-262.224	-135.665	0.409	0.048
-261.209	262.344	0.070	-0.121
-260.195	800.000	0.063	-0.274
-259.180	306.780	-0.093	-0.173
-258.165	17.066	0.316	0.249
-257.151	193.243	-0.050	-0.075
-256.136	800.000	0.016	0.063
-255.122	800.000	0.097	0.333
-254.107	564.736	0.107	0.257
-253.092	-200.000	0.006	0.102
-252.078	-12.555	0.059	-0.038
-251.063	202.923	-0.157	-0.241
-250.049	171.126	0.220	0.314
-249.034	800.000	0.046	-0.132
-248.019	87.268	0.127	-0.140
-247.005	-152.353	0.106	-0.008
-245.990	73.594	0.057	0.059
-244.976	105.820	-0.136	-0.160
-243.961	-200.000	0.041	-0.332
-242.946	-132.541	-0.080	-0.010
-241.932	-200.000	0.026	0.134
-240.917	60.912	-0.365	0.360
-239.903	-71.189	0.151	0.056
-238.888	800.000	0.012	-0.043
-237.873	-200.000	0.063	0.299
-236.859	-98.938	0.220	0.055
-235.844	-58.789	-0.278	-0.120
-234.830	-48.474	0.184	-0.088
-233.815	-26.240	0.057	0.033
-232.800	-151.410	0.137	-0.010
-231.786	178.877	0.145	0.210
-230.771	800.000	0.029	-0.126
-229.757	-200.000	0.015	-0.188
-228.742	306.131	-0.110	0.203
-227.727	163.699	0.106	-0.149
-226.713	-152.333	-0.234	0.017
-225.698	75.000	0.110	-0.115
-224.684	800.000	0.012	0.043
-223.669	-85.375	-0.309	0.096
-222.655	779.825	-0.060	0.163
-221.640	800.000	0.007	0.030
-220.625	486.994	-0.115	0.260
-219.611	-200.000	0.044	-0.233
-218.596	71.298	0.127	0.131
-217.582	-21.700	0.089	0.054
-216.567	800.000	-0.074	-0.212
-215.552	482.284	-0.026	0.058
-214.538	482.189	-0.119	0.269
-213.523	-0.076	0.198	-0.140
-212.509	-87.263	0.227	0.068
-211.494	-200.000	-0.066	0.448
-210.479	-200.000	0.009	0.232
-209.465	33.541	-0.148	-0.128
-208.450	-200.000	0.018	0.186
-207.436	-58.296	0.198	0.086
-206.421	221.836	-0.073	0.116
-205.406	-37.635	-0.190	-0.101
-204.392	632.404	0.069	-0.173
-203.377	-29.717	0.048	-0.027
-202.363	-200.000	0.094	0.508
-201.348	108.297	-0.236	-0.280
-200.333	-200.000	0.003	-0.155
-199.319	800.000	-0.080	-0.232
-198.304	-96.676	-0.104	-0.027
-197.290	-109.013	-0.228	-0.048
-196.275	492.094	-0.107	0.244
-195.260	180.315	-0.224	-0.326
-194.246	800.000	0.075	-0.305
-193.231	-85.736	-0.126	-0.039
-192.217	13.705	-0.237	-0.182
-191.202	-48.137	0.370	0.177
-190.187	93.514	0.097	-0.109
-189.173	342.541	-0.065	-0.126
-188.158	228.984	-0.060	-0.097
-187.144	-119.553	-0.260	0.045
-186.129	-122.776	0.197	-0.032
-185.114	216.166	0.053	-0.084
-184.100	-178.192	-0.234	0.005
-183.085	320.765	-0.222	0.419
-182.071	-19.040	-0.251	0.155
-181.056	54.786	0.045	-0.044
-180.042	-35.232	0.218	0.118
-179.027	-104.802	0.021	0.005
-178.012	-200.000	-0.011	0.265
-176.998	-18.941	-0.117	-0.072
-175.983	-200.000	-0.016	0.313
-174.969	50.119	-0.130	0.122
-173.954	99.989	-0.231	-0.265
-172.939	-200.000	0.025	0.166
-171.925	-24.707	0.164	-0.097
-170.910	393.536	0.056	-0.116
-169.896	-64.078	-0.185	-0.075
-168.881	182.214	-0.103	-0.151
-167.866	396.647	-0.063	0.131
-166.852	13.229	-0.226	-0.173
-165.837	94.444	0.196	-0.220
-164.823	-200.000	-0.023	0.157
-163.808	-84.007	-0.117	-0.037
-162.793	-171.043	-0.355	0.012
-161.779	-91.390	0.024	-0.007
-160.764	15.872	-0.197	0.154
-159.750	-39.649	-0.286	-0.148
-158.735	-63.292	-0.133	-0.054
-157.720	-30.819	0.212	-0.119
-156.706	800.000	0.032	-0.101
-155.691	-69.153	0.128	0.049
-154.677	298.147	-0.123	0.225
-153.662	-52.826	-0.264	0.121
-152.647	2.397	0.172	0.123
-151.633	800.000	-0.081	0.326
-150.618	800.000	0.024	0.090
-149.604	800.000	0.034	0.132
-148.589	-200.000	-0.032	0.146
-147.574	-108.888	-0.120	0.025
-146.560	-79.833	0.111	-0.037
-145.545	-110.416	0.395	0.081
-144.531	-55.884	0.168	0.074
-143.516	26.974	-0.134	0.112
-142.502	800.000	0.047	0.198
-141.487	22.579	0.097	0.078
-140.472	800.000	-0.032	-0.112
-139.458	175.652	0.273	-0.393
-138.443	-11.219	0.083	0.054
-137.429	275.892	-0.085	0.149
-136.414	-143.523	-0.434	-0.041
-135.399	-109.126	0.217	-0.046
-134.385	177.308	-0.222	0.320
-133.370	-200.000	0.009	0.084
-132.356	513.207	0.115	0.266
-131.341	800.000	-0.005	-0.016
-130.326	583.282	-0.039	0.095
-129.312	279.461	-0.044	-0.078
-128.297	800.000	0.062	0.200
-127.283	800.000	-0.071	-0.248
-126.268	-200.000	-0.017	0.086
-125.253	37.620	-0.259	0.228
-124.239	-81.703	0.161	0.052
-123.224	-52.666	0.221	0.101
-122.210	223.478	0.144	0.229
-121.195	800.000	0.083	-0.241
