DTS Sentinel unit serial number:	SN413079Multiplexer serial number:	ORYXHardware model number:	OX4-SRSoftware version number:	ORYX F/W v4.00 Oryx Data Collector v3.7.2.0data status	okinstallation	princeton_trtdifferential loss correction	single-endedforward channel	channel 2reverse channel	N/Adate	2019/09/18time	08:15:35forward acquisition time	60.00reverse acquisition time	0.00gamma	496.2192k internal	0.2344k external	0.2344temperature offset calibration	0.9980default loss term (dB/km)	0.3790temperature slope calibration	1.0000multiplexer offset coefficient	1.0000multiplexer slope coefficient	1.0000fibre end	0.00T internal ref (°C)	23.95T ext. ref 1 (°C)	0.20T ext. ref 2 (°C)	19.61length (m)	temperature (°C)	Stokes	anti-Stokes-747.200	61.622	0.073	-0.073
-746.185	71.382	-0.326	0.339
-745.171	-59.967	-0.151	0.065
-744.156	403.501	-0.091	0.191
-743.142	800.000	-0.089	0.257
-742.127	14.828	-0.311	0.244
-741.112	182.646	-0.320	0.472
-740.098	-17.475	-0.265	-0.167
-739.083	-91.716	-0.214	0.061
-738.069	-118.789	-0.316	-0.056
-737.054	767.573	-0.070	0.190
-736.039	-51.583	-0.322	0.150
-735.025	23.731	0.209	0.172
-734.010	-200.000	0.001	-0.221
-732.996	-54.835	-0.075	-0.034
-731.981	-200.000	-0.018	-0.131
-730.966	-79.161	-0.454	-0.154
-729.952	-53.371	0.287	-0.131
-728.937	800.000	-0.066	-0.203
-727.923	-75.272	0.110	0.039
-726.908	743.341	-0.118	-0.318
-725.894	800.000	-0.117	-0.368
-724.879	-51.872	-0.145	-0.067
-723.864	99.550	-0.075	0.087
-722.850	-46.788	-0.095	-0.047
-721.835	-62.251	-0.127	0.053
-720.821	148.622	0.102	-0.138
-719.806	-113.156	0.225	-0.044
-718.791	93.437	0.181	0.205
-717.777	-70.677	-0.307	0.116
-716.762	199.344	-0.100	0.154
-715.748	-84.529	-0.119	-0.038
-714.733	-199.702	-0.083	-0.000
-713.718	28.042	0.071	0.060
-712.704	-200.000	-0.041	-0.232
-711.689	13.926	-0.127	-0.099
-710.675	-200.000	0.005	0.332
-709.660	800.000	-0.022	0.084
-708.645	139.855	-0.141	-0.185
-707.631	-139.373	-0.080	0.009
-706.616	-200.000	0.031	-0.199
-705.602	768.779	0.052	-0.141
-704.587	695.509	0.138	-0.362
-703.572	-153.564	0.037	0.003
-702.558	-20.208	0.245	0.151
-701.543	-200.000	0.194	-0.000
-700.529	-145.849	0.186	0.016
-699.514	800.000	0.095	0.311
-698.499	84.261	0.250	-0.273
-697.485	800.000	-0.064	0.225
-696.470	333.137	0.089	-0.173
-695.456	538.009	0.236	-0.561
-694.441	-39.002	-0.351	0.184
-693.426	182.127	-0.026	-0.038
-692.412	800.000	-0.045	0.193
-691.397	16.874	-0.145	0.115
-690.383	157.203	0.062	-0.086
-689.368	85.815	-0.198	-0.218
-688.354	19.423	-0.117	0.094
-687.339	-200.000	-0.003	0.067
-686.324	-83.474	-0.281	-0.090
-685.310	-91.260	-0.428	-0.122
-684.295	-200.000	0.112	-0.604
-683.281	-200.000	0.011	0.120
-682.266	-113.889	-0.254	-0.049
-681.251	-52.293	-0.022	0.010
-680.237	-58.748	0.382	0.165
-679.222	63.446	-0.126	-0.126
-678.208	-200.000	-0.031	-0.143
-677.193	-200.000	-0.000	-0.029
-676.178	-8.127	-0.124	0.083
-675.164	-29.352	-0.321	0.183
-674.149	-56.152	0.304	-0.135
-673.135	800.000	-0.117	0.353
-672.120	-108.293	-0.328	0.071
-671.105	-128.775	-0.297	0.042
-670.091	62.798	0.145	0.145
-669.076	-7.022	-0.129	-0.088
-668.062	-120.731	-0.201	-0.034
-667.047	-200.000	0.015	0.133
-666.032	-54.246	0.238	-0.108
-665.018	58.146	-0.190	0.185
-664.003	-25.372	-0.171	-0.101
-662.989	-200.000	-0.009	0.262
-661.974	800.000	0.032	-0.103
-660.959	800.000	0.091	0.336
-659.945	-99.588	-0.270	0.068
-658.930	364.524	-0.076	-0.154
-657.916	-62.971	-0.453	-0.187
-656.901	-5.051	0.202	-0.139
-655.886	-200.000	0.013	-0.138
-654.872	48.881	0.094	-0.088
-653.857	-79.356	0.226	0.076
-652.843	-16.555	-0.195	-0.123
-651.828	8.807	0.102	-0.077
-650.814	87.234	0.196	-0.216
-649.799	-180.188	-0.296	-0.006
-648.784	-29.617	0.184	0.105
-647.770	-43.875	-0.127	0.064
-646.755	800.000	0.096	-0.300
-645.741	-91.883	-0.202	0.057
-644.726	317.206	0.174	-0.329
-643.711	-200.000	0.004	-0.197
-642.697	2.699	-0.193	-0.140
-641.682	-92.081	-0.104	0.029
-640.668	-86.193	-0.090	0.028
-639.653	-6.543	0.199	-0.135
-638.638	-186.557	-0.156	-0.002
-637.624	-104.598	-0.374	0.086
-636.609	300.543	-0.099	-0.182
-635.595	-200.000	0.010	0.049
-634.580	15.649	0.083	0.065
-633.565	93.725	-0.153	-0.173
-632.551	39.311	-0.224	-0.200
-631.536	-36.733	0.115	0.061
-630.522	-134.103	0.017	0.002
-629.507	217.235	0.062	0.099
-628.492	76.870	0.158	-0.167
-627.478	-61.129	0.441	-0.185
-626.463	-200.000	-0.015	-0.275
-625.449	-17.307	-0.180	0.113
-624.434	-200.000	-0.015	0.267
-623.419	-192.967	0.146	-0.001
-622.405	-200.000	-0.015	0.117
-621.390	191.630	0.162	-0.243
-620.376	121.725	0.076	-0.094
-619.361	-88.009	0.084	-0.025
-618.346	-200.000	-0.018	-0.346
-617.332	800.000	-0.053	-0.180
-616.317	-48.030	0.282	0.136
-615.303	-62.139	-0.071	0.030
-614.288	-200.000	-0.048	0.242
-613.273	-162.459	-0.177	-0.009
-612.259	272.110	0.059	0.104
-611.244	-13.056	-0.253	-0.164
-610.230	-73.170	-0.324	0.118
-609.215	395.246	-0.154	0.320
-608.201	24.473	0.159	-0.131
-607.186	800.000	0.063	-0.249
-606.171	21.951	0.155	-0.126
-605.157	84.513	0.155	-0.169
-604.142	8.219	-0.402	0.301
-603.128	695.040	0.064	-0.167
-602.113	-200.000	0.029	-0.222
-601.098	130.811	-0.197	-0.251
-600.084	232.165	-0.122	-0.200
-599.069	215.083	-0.149	0.235
-598.055	-200.000	-0.008	0.260
-597.040	-200.000	-0.007	0.059
-596.025	-43.868	0.164	0.082
-595.011	87.244	0.172	-0.189
-593.996	303.110	0.168	0.310
-592.982	-200.000	0.010	-0.285
-591.967	-112.371	-0.200	-0.040
-590.952	-10.104	-0.236	-0.156
-589.938	70.838	0.273	0.281
-588.923	-112.389	0.027	0.005
-587.909	-178.645	0.221	0.005
-586.894	-53.856	-0.161	-0.073
-585.879	87.790	-0.105	-0.116
-584.865	-200.000	0.008	-0.163
-583.850	-106.549	-0.257	-0.057
-582.836	122.833	-0.059	-0.073
-581.821	-44.090	-0.043	0.021
-580.806	-120.855	-0.286	0.048
-579.792	440.243	0.029	0.063
-578.777	267.044	-0.030	-0.052
-577.763	-113.976	0.230	0.044
-576.748	33.487	-0.213	-0.184
-575.733	-149.317	-0.298	-0.024
-574.719	-103.162	0.506	0.119
-573.704	-200.000	0.008	-0.178
-572.690	-140.340	0.322	0.033
-571.675	-134.702	0.355	0.043
-570.661	195.763	0.039	0.059
-569.646	-2.494	0.300	0.209
-568.631	-135.352	0.209	-0.025
-567.617	800.000	-0.005	-0.020
-566.602	-200.000	0.017	-0.257
-565.588	-116.301	0.248	0.046
-564.573	800.000	-0.044	0.157
-563.558	220.900	0.051	-0.081
-562.544	143.378	-0.212	-0.280
-561.529	-41.605	-0.397	0.203
-560.515	-200.000	-0.013	0.143
-559.500	649.512	0.066	-0.168
-558.485	211.307	0.138	0.216
-557.471	206.808	-0.088	0.137
-556.456	338.219	0.202	0.390
-555.442	-42.392	-0.442	-0.224
-554.427	321.109	0.063	0.119
-553.412	-9.682	-0.274	0.181
-552.398	-26.464	-0.092	-0.054
-551.383	196.449	-0.179	0.271
-550.369	-23.221	-0.219	-0.131
-549.354	-200.000	-0.041	0.284
-548.339	-125.333	0.317	0.048
-547.325	-200.000	0.030	-0.158
-546.310	-200.000	0.004	0.190
-545.296	271.153	0.124	-0.217
-544.281	-200.000	-0.032	0.394
-543.266	-137.908	-0.259	-0.029
-542.252	-24.043	-0.045	-0.027
-541.237	305.535	0.140	-0.258
-540.223	-44.392	-0.361	-0.180
-539.208	800.000	-0.096	0.294
-538.193	-93.042	-0.065	-0.018
-537.179	154.040	-0.205	-0.280
-536.164	27.932	-0.161	0.135
-535.150	77.536	-0.200	0.211
-534.135	10.354	0.087	-0.066
-533.121	-106.776	-0.178	-0.039
-532.106	-122.068	0.045	0.007
-531.091	800.000	0.031	0.094
-530.077	-37.172	-0.316	-0.168
-529.062	221.092	-0.211	-0.336
-528.048	-113.278	0.242	-0.047
-527.033	68.271	0.075	-0.076
-526.018	26.114	-0.193	-0.160
-525.004	-172.460	0.090	0.003
-523.989	-3.212	0.156	0.108
-522.975	80.560	-0.405	0.433
-521.960	-166.562	-0.241	0.010
-520.945	310.338	0.115	-0.213
-519.931	72.446	0.093	0.096
-518.916	13.750	0.090	0.069
-517.902	-200.000	0.017	-0.081
-516.887	257.648	0.083	0.142
-515.872	109.562	-0.071	0.085
-514.858	-38.351	-0.202	0.106
-513.843	-200.000	-0.020	0.240
-512.829	640.361	0.088	-0.222
-511.814	110.211	-0.163	-0.195
-510.799	-86.718	-0.193	0.058
-509.785	800.000	-0.143	-0.394
-508.770	39.822	-0.264	-0.235
-507.756	-131.073	0.224	-0.030
-506.741	-124.797	-0.118	-0.018
-505.726	-60.387	-0.280	-0.118
-504.712	-55.656	-0.172	0.076
-503.697	-89.696	-0.185	0.054
-502.683	-182.867	-0.132	-0.002
-501.668	-35.907	-0.065	0.035
-500.653	-145.721	0.383	0.034
-499.639	113.947	0.116	0.140
-498.624	-200.000	-0.135	0.000
-497.610	800.000	-0.032	-0.110
-496.595	-200.000	0.021	0.141
-495.581	-31.187	-0.319	-0.178
-494.566	-200.000	-0.011	-0.155
-493.551	-200.000	-0.002	0.103
-492.537	-35.384	0.048	-0.026
-491.522	-200.000	-0.009	0.316
-490.508	155.462	0.078	0.107
-489.493	-200.000	0.014	-0.105
-488.478	-24.062	0.062	0.037
-487.464	-2.383	0.247	-0.172
-486.449	-200.000	0.007	-0.087
-485.435	-200.000	0.020	0.356
-484.420	-200.000	0.014	0.378
-483.405	-200.000	0.009	0.204
-482.391	449.696	0.054	-0.117
-481.376	-200.000	-0.034	-0.162
-480.362	-0.223	0.257	0.181
-479.347	240.594	-0.093	0.154
-478.332	-83.643	0.177	0.056
-477.318	-19.908	0.157	0.096
-476.303	-143.652	0.024	0.002
-475.289	-50.385	0.067	-0.031
-474.274	-147.091	-0.138	-0.012
-473.259	782.099	-0.140	-0.378
-472.245	303.028	-0.126	-0.231
-471.230	-200.000	-0.004	0.122
-470.216	-52.796	0.298	-0.136
-469.201	-200.000	-0.047	0.292
-468.186	-73.685	-0.205	0.074
-467.172	-60.044	0.044	0.018
-466.157	33.572	0.043	0.037
-465.143	151.547	0.077	0.104
-464.128	173.950	-0.247	-0.354
-463.113	510.645	0.119	0.274
-462.099	-78.763	0.359	-0.121
-461.084	-43.370	-0.216	-0.108
-460.070	-96.939	-0.198	-0.051
-459.055	-200.000	0.033	0.254
-458.040	250.883	0.057	-0.096
-457.026	21.778	0.263	-0.212
-456.011	101.941	-0.172	-0.198
-454.997	149.863	-0.030	0.041
-453.982	653.892	-0.127	0.322
-452.968	-158.813	0.297	0.017
-451.953	-43.897	-0.113	0.056
-450.938	268.590	0.104	0.180
-449.924	-105.750	-0.219	0.049
-448.909	68.064	-0.221	0.224
-447.895	-38.221	-0.037	-0.020
-446.880	13.046	0.284	0.217
-445.865	-2.818	-0.129	-0.089
-444.851	-200.000	0.041	-0.318
-443.836	-128.048	0.497	-0.070
-442.822	800.000	-0.057	-0.178
-441.807	-70.676	0.267	-0.100
-440.792	-200.000	0.001	-0.099
-439.778	-71.499	0.164	-0.061
-438.763	-86.914	0.102	-0.031
-437.749	-148.370	-0.398	0.032
-436.734	206.219	-0.245	0.377
-435.719	-71.629	-0.217	-0.080
-434.705	667.811	-0.108	-0.275
-433.690	63.511	0.147	-0.146
-432.676	-38.038	0.142	-0.075
-431.661	-200.000	0.351	0.001
-430.646	-89.663	-0.153	-0.044
-429.632	543.483	-0.119	-0.281
-428.617	800.000	-0.030	0.108
-427.603	-200.000	-0.017	0.106
-426.588	-78.627	-0.121	-0.041
-425.573	252.523	-0.092	0.155
-424.559	67.716	0.352	-0.355
-423.544	49.055	0.292	-0.271
-422.530	-66.785	0.293	0.114
-421.515	-200.000	-0.068	0.567
-420.500	-200.000	0.015	0.097
-419.486	800.000	0.036	-0.142
-418.471	-43.662	0.315	0.157
-417.457	91.420	0.030	-0.034
-416.442	-36.465	-0.292	-0.155
-415.428	-79.294	-0.141	-0.047
-414.413	223.193	-0.080	-0.128
-413.398	-143.897	-0.179	0.017
-412.384	-91.900	-0.530	0.149
-411.369	-70.082	0.119	0.045
-410.355	800.000	0.028	-0.082
-409.340	-148.801	-0.096	-0.008
-408.325	-182.395	0.169	-0.003
-407.311	-47.729	-0.320	-0.153
-406.296	-155.538	-0.111	-0.007
-405.282	80.590	-0.299	0.318
-404.267	222.904	0.150	-0.239
-403.252	800.000	0.039	0.116
-402.238	146.391	-0.081	0.107
-401.223	275.202	0.046	0.080
-400.209	-11.729	0.116	0.075
-399.194	-10.077	0.246	-0.162
-398.179	-81.444	-0.360	0.117
-397.165	-200.000	0.032	0.326
-396.150	-200.000	0.010	-0.391
-395.136	-60.621	0.244	-0.102
-394.121	323.356	-0.166	-0.312
-393.106	78.890	0.078	0.082
-392.092	32.488	0.130	0.111
-391.077	-8.113	-0.126	0.084
-390.063	-54.215	0.081	0.036
-389.048	-200.000	0.009	0.065
-388.033	44.758	-0.280	-0.254
-387.019	-137.969	0.480	-0.053
-386.004	-26.865	-0.127	-0.073
-384.990	-154.978	0.185	-0.012
-383.975	800.000	-0.097	0.384
-382.960	-84.558	0.174	0.054
-381.946	-3.935	0.069	0.048
-380.931	-200.000	0.019	-0.272
-379.917	-57.240	-0.142	0.062
-378.902	-93.886	0.438	-0.119
-377.888	800.000	0.042	0.167
-376.873	-118.640	-0.174	-0.030
-375.858	-25.571	-0.100	-0.058
-374.844	-67.842	0.269	0.104
-373.829	-70.558	0.245	0.091
-372.815	-200.000	0.023	0.143
-371.800	42.302	0.148	0.133
-370.785	353.378	0.108	0.212
-369.771	800.000	-0.003	0.008
-368.756	-200.000	-0.042	0.339
-367.742	-20.828	0.082	-0.050
-366.727	-48.420	-0.394	-0.187
-365.712	171.328	-0.098	0.138
-364.698	393.322	-0.130	-0.267
-363.683	176.027	0.106	-0.151
-362.669	-85.434	0.357	0.110
-361.654	-98.716	0.346	-0.087
-360.639	205.344	-0.055	-0.084
-359.625	225.289	-0.028	-0.045
-358.610	534.889	0.142	0.332
-357.596	481.131	-0.097	0.216
-356.581	-23.878	0.174	-0.103
-355.566	-40.187	0.221	0.113
-354.552	-200.000	0.021	0.096
-353.537	-200.000	-0.044	0.220
-352.523	-200.000	-0.021	-0.096
-351.508	101.044	0.281	0.322
-350.493	-46.457	0.357	-0.173
-349.479	86.384	-0.173	0.188
-348.464	-200.000	-0.058	0.323
-347.450	-24.544	0.134	-0.079
-346.435	170.436	0.153	0.216
-345.420	800.000	-0.119	-0.428
-344.406	-15.954	-0.248	-0.156
-343.391	193.314	-0.066	0.098
-342.377	-200.000	-0.036	0.190
-341.362	-141.148	0.511	0.051
-340.348	73.145	0.086	-0.088
-339.333	-18.663	0.251	0.154
-338.318	28.189	-0.288	-0.240
-337.304	-73.254	0.036	0.013
-336.289	369.698	-0.089	-0.177
-335.275	-81.932	0.311	0.100
-334.260	800.000	-0.025	-0.074
-333.245	218.367	0.163	-0.256
-332.231	-7.603	0.137	0.092
-331.216	46.523	-0.065	-0.059
-330.202	800.000	0.059	0.240
-329.187	-200.000	0.001	0.293
-328.172	-200.000	-0.003	-0.151
-327.158	304.319	-0.087	-0.158
-326.143	464.247	0.166	0.365
-325.129	111.687	0.293	-0.348
-324.114	132.305	0.055	0.070
-323.099	33.660	0.297	-0.254
-322.085	-177.176	-0.212	0.005
-321.070	97.472	-0.111	-0.125
-320.056	-200.000	-0.012	-0.246
-319.041	127.902	0.199	-0.249
-318.026	-200.000	-0.017	-0.235
-317.012	547.774	0.036	-0.084
-315.997	-63.467	0.068	-0.028
-314.983	-200.000	0.005	-0.176
-313.968	756.623	0.142	0.378
-312.953	183.711	0.051	0.075
-311.939	540.168	0.098	0.229
-310.924	-15.146	-0.218	-0.137
-309.910	-68.478	0.165	-0.063
-308.895	-62.146	-0.098	-0.040
-307.880	-59.135	-0.189	0.080
-306.866	-200.000	0.012	-0.099
-305.851	207.175	-0.122	0.187
-304.837	-61.604	-0.419	-0.173
-303.822	-25.827	0.287	-0.166
-302.807	-54.050	0.217	0.097
-301.793	139.411	-0.112	-0.145
-300.778	800.000	0.100	0.361
-299.764	800.000	0.095	-0.300
-298.749	-108.820	0.120	0.025
-297.735	334.661	-0.053	-0.102
-296.720	-85.804	0.186	0.057
-295.705	800.000	0.096	-0.336
-294.691	173.766	-0.101	0.144
-293.676	-160.451	0.185	-0.010
-292.662	29.094	-0.103	-0.086
-291.647	-200.000	0.028	0.215
-290.632	-91.189	-0.322	-0.091
-289.618	79.463	-0.136	-0.144
-288.603	75.958	0.131	-0.136
-287.589	190.703	-0.096	0.142
-286.574	-14.168	-0.069	0.044
-285.559	92.824	0.057	0.064
-284.545	76.691	-0.134	0.140
-283.530	419.273	0.113	-0.237
-282.516	-200.000	0.021	0.255
-281.501	105.102	0.129	0.150
-280.486	61.769	0.081	0.079
-279.472	645.498	0.066	-0.165
-278.457	-200.000	-0.034	-0.195
-277.443	-83.770	0.223	-0.070
-276.428	-200.000	0.074	-0.346
-275.413	71.387	-0.255	-0.260
-274.399	14.468	0.149	-0.114
-273.384	800.000	-0.068	0.243
-272.370	-200.000	-0.084	0.442
-271.355	800.000	0.046	0.177
-270.340	-112.345	-0.168	0.033
-269.326	85.597	0.155	-0.168
-268.311	-84.915	-0.109	-0.034
-267.297	-200.000	-0.023	0.537
-266.282	-200.000	0.039	-0.226
-265.267	70.763	-0.205	-0.208
-264.253	121.467	0.146	-0.178
-263.238	273.347	-0.193	-0.336
-262.224	543.527	0.135	0.317
-261.209	-54.850	0.192	-0.085
-260.195	800.000	-0.110	0.445
-259.180	-86.665	0.230	-0.069
-258.165	45.586	-0.055	-0.050
-257.151	800.000	0.032	-0.101
-256.136	-48.861	0.051	-0.024
-255.122	-86.197	0.042	-0.013
-254.107	233.184	0.162	-0.262
-253.092	800.000	0.053	0.221
-252.078	194.225	0.052	-0.077
-251.063	-46.065	-0.144	0.069
-250.049	48.373	0.288	-0.265
-249.034	733.797	0.052	0.137
-248.019	800.000	0.059	-0.236
-247.005	416.815	0.131	0.274
-245.990	110.235	-0.030	0.035
-244.976	-159.116	-0.340	-0.019
-243.961	244.376	0.179	-0.295
-242.946	136.830	0.161	-0.207
-241.932	-56.400	-0.053	-0.023
-240.917	-45.783	-0.196	-0.095
-239.903	-55.706	0.262	0.115
-238.888	25.663	0.327	-0.268
-237.873	493.318	-0.051	0.114
-236.859	6.131	0.322	-0.234
-235.844	-115.023	-0.225	0.042
-234.830	800.000	-0.208	0.579
-233.815	163.320	-0.119	-0.164
-232.800	349.170	0.162	-0.314
-231.786	800.000	-0.061	0.189
-230.771	-58.458	-0.095	0.040
-229.757	59.798	-0.026	-0.025
-228.742	-41.209	0.090	-0.046
-227.727	51.910	-0.214	0.200
-226.713	-200.000	0.015	-0.194
-225.698	800.000	-0.086	-0.245
-224.684	240.866	0.119	0.195
-223.669	45.230	0.229	-0.207
-222.655	259.403	0.157	-0.266
-221.640	441.343	0.058	-0.123
-220.625	-200.000	-0.017	-0.089
-219.611	192.623	-0.164	0.243
-218.596	298.153	0.079	0.142
-217.582	424.722	-0.010	0.021
-216.567	-113.704	0.348	0.066
-215.552	19.322	-0.191	0.150
-214.538	-112.018	0.095	-0.019
-213.523	-200.000	0.014	-0.106
-212.509	-60.476	-0.076	0.032
-211.494	130.390	-0.173	-0.217
-210.479	196.668	0.123	0.184
-209.465	800.000	-0.030	0.119
-208.450	-126.200	-0.462	-0.068
-207.436	-86.804	-0.077	0.023
-206.421	-16.214	0.066	0.041
-205.406	800.000	0.070	0.192
-204.392	-141.940	-0.262	-0.026
-203.377	369.738	0.194	0.385
-202.363	-103.406	-0.168	0.039
-201.348	-97.725	0.096	-0.024
-200.333	346.707	0.025	0.047
-199.319	49.204	-0.115	0.106
-198.304	-200.000	-0.009	-0.042
-197.290	323.726	-0.229	0.428
-196.275	800.000	0.018	0.065
-195.260	-24.044	0.308	0.180
-194.246	-176.634	0.159	-0.004
-193.231	91.341	-0.193	-0.213
-192.217	11.943	-0.198	0.149
-191.202	-47.105	0.296	0.141
-190.187	-49.402	-0.283	0.132
-189.173	194.936	0.136	-0.203
-188.158	-16.222	-0.132	0.082
-187.144	22.993	0.179	0.144
-186.129	246.062	0.159	0.262
-185.114	110.973	-0.133	0.157
-184.100	283.000	-0.150	0.263
-183.085	113.410	0.149	0.177
-182.071	-200.000	-0.054	0.269
-181.056	-70.306	0.362	-0.134
-180.042	183.902	-0.065	-0.094
-179.027	-39.135	0.084	0.043
-178.012	-158.337	0.344	-0.020
-176.998	-33.719	-0.505	0.273
-175.983	7.593	-0.127	0.093
-174.969	254.669	-0.120	0.200
-173.954	210.056	0.050	-0.077
-172.939	193.160	-0.052	-0.078
-171.925	-8.576	-0.198	-0.130
-170.910	176.378	-0.089	-0.126
-169.896	-25.789	-0.321	0.185
-168.881	800.000	0.015	0.043
-167.866	509.951	0.067	-0.153
-166.852	177.889	-0.073	0.104
-165.837	-60.175	-0.149	0.062
-164.823	-16.047	0.060	-0.037
-163.808	37.933	0.209	-0.182
-162.793	-38.544	-0.244	-0.126
-161.779	-99.820	-0.250	-0.061
-160.764	-66.253	-0.252	0.098
-159.750	209.069	-0.064	0.099
-158.735	-200.000	-0.032	-0.253
-157.720	406.238	-0.073	-0.151
-156.706	-10.785	0.289	0.187
-155.691	-50.904	-0.464	-0.213
-154.677	-200.000	-0.013	0.237
-153.662	-130.423	0.132	0.018
-152.647	19.337	0.075	-0.059
-151.633	43.541	0.140	-0.125
-150.618	800.000	-0.077	0.271
-149.604	800.000	0.026	0.092
-148.589	126.896	-0.148	0.183
-147.574	31.013	0.224	-0.187
-146.560	-200.000	0.009	0.147
-145.545	246.680	0.255	0.421
-144.531	346.139	-0.069	-0.132
-143.516	-73.842	0.102	-0.036
-142.502	800.000	-0.043	0.133
-141.487	9.405	0.437	0.323
-140.472	-44.236	0.227	-0.111
-139.458	316.830	0.155	-0.287
-138.443	180.225	-0.045	-0.065
-137.429	-18.585	0.200	0.122
-136.414	-45.188	0.059	0.029
-135.399	-200.000	-0.030	-0.170
-134.385	-12.915	0.154	0.098
-133.370	-104.607	-0.220	-0.050
-132.356	800.000	0.040	0.143
-131.341	800.000	-0.029	-0.098
-130.326	-200.000	-0.012	0.113
-129.312	561.504	0.055	0.131
-128.297	-20.129	-0.166	-0.100
-127.283	-200.000	-0.054	0.309
-126.268	608.901	0.061	0.149
-125.253	-114.582	0.282	-0.053
-124.239	51.931	-0.275	-0.256
-123.224	-200.000	0.074	0.513
-122.210	-200.000	-0.062	0.373
-121.195	748.513	0.111	-0.292
