DTS Sentinel unit serial number:	SN413079Multiplexer serial number:	ORYXHardware model number:	OX4-SRSoftware version number:	ORYX F/W v4.00 Oryx Data Collector v3.7.2.0data status	okinstallation	princeton_trtdifferential loss correction	single-endedforward channel	channel 2reverse channel	N/Adate	2019/09/12time	19:43:49forward acquisition time	15.00reverse acquisition time	0.00gamma	496.2192k internal	0.2327k external	0.2327temperature offset calibration	1.0156default loss term (dB/km)	0.3790temperature slope calibration	1.0000multiplexer offset coefficient	1.0000multiplexer slope coefficient	1.0000fibre end	0.00T internal ref (°C)	32.06T ext. ref 1 (°C)	3.48T ext. ref 2 (°C)	26.57length (m)	temperature (°C)	Stokes	anti-Stokes-747.200	47.359	0.156	-0.146
-746.185	-196.972	0.541	-0.004
-745.171	53.272	-0.389	0.376
-744.156	510.410	0.324	-0.760
-743.142	-160.236	-1.051	0.057
-742.127	-63.457	-0.328	0.136
-741.112	314.786	-0.252	0.479
-740.098	-126.924	0.763	-0.113
-739.083	-200.000	0.042	0.764
-738.069	-66.291	-0.477	0.191
-737.054	-152.067	0.269	-0.020
-736.039	156.124	-0.385	0.535
-735.025	-200.000	-0.030	0.531
-734.010	142.817	-0.525	-0.704
-732.996	-200.000	-0.002	0.153
-731.981	800.000	0.148	-0.440
-730.966	35.298	-0.543	0.480
-729.952	-6.174	0.728	-0.501
-728.937	-80.041	-0.608	-0.205
-727.923	81.806	0.388	-0.424
-726.908	-99.405	-0.320	-0.081
-725.894	-86.887	-0.192	-0.059
-724.879	696.235	-0.229	-0.607
-723.864	763.541	0.230	0.630
-722.850	-14.001	-0.378	-0.246
-721.835	800.000	-0.208	0.695
-720.821	800.000	-0.087	0.326
-719.806	188.983	-0.536	0.808
-718.791	-200.000	-0.041	0.267
-717.777	800.000	-0.160	-0.646
-716.762	125.004	0.114	0.144
-715.748	-200.000	0.238	1.110
-714.733	119.924	0.364	0.455
-713.718	-200.000	0.184	-1.064
-712.704	-90.476	1.198	0.349
-711.689	432.975	0.295	-0.645
-710.675	-91.100	-0.307	0.089
-709.660	-86.064	0.108	-0.034
-708.645	-72.067	-0.430	0.161
-707.631	-81.046	-0.582	0.194
-706.616	270.238	0.292	0.516
-705.602	-200.000	-0.144	0.883
-704.587	7.933	0.817	0.617
-703.572	67.840	-0.616	0.634
-702.558	154.931	0.123	-0.170
-701.543	62.011	-0.149	-0.149
-700.529	-101.977	-0.714	-0.173
-699.514	308.015	-0.195	0.367
-698.499	-78.535	0.257	-0.089
-697.485	696.234	0.312	0.826
-696.470	88.684	0.892	-0.998
-695.456	-200.000	0.048	-0.265
-694.441	-9.833	0.231	-0.155
-693.426	-115.257	0.311	-0.059
-692.412	-94.703	0.894	-0.244
-691.397	-41.765	0.514	-0.265
-690.383	63.113	0.786	0.792
-689.368	89.596	0.758	0.851
-688.354	52.372	-0.203	-0.195
-687.339	391.581	0.095	-0.199
-686.324	36.865	0.323	0.287
-685.310	112.159	0.692	0.842
-684.295	244.429	0.198	0.334
-683.281	3.785	0.349	0.256
-682.266	-147.148	0.898	0.077
-681.251	800.000	-0.037	-0.157
-680.237	121.204	0.478	-0.598
-679.222	800.000	0.227	-0.902
-678.208	-200.000	0.017	0.508
-677.193	-9.529	-0.778	-0.522
-676.178	-47.200	0.350	-0.171
-675.164	-101.339	0.296	0.073
-674.149	-23.899	-0.534	-0.321
-673.135	274.133	0.198	-0.353
-672.120	-54.312	-0.993	0.453
-671.105	-43.986	-0.506	-0.256
-670.091	-29.184	-0.387	0.223
-669.076	-114.006	0.519	0.101
-668.062	-200.000	0.050	-0.406
-667.047	454.063	-0.211	-0.469
-666.032	-200.000	-0.108	0.611
-665.018	-125.076	0.650	-0.100
-664.003	800.000	0.034	0.135
-662.989	33.166	-0.628	-0.547
-661.974	197.260	-0.175	-0.269
-660.959	621.548	0.124	-0.313
-659.945	-200.000	-0.076	-0.678
-658.930	60.408	0.401	0.399
-657.916	-119.314	-0.796	0.139
-656.901	-118.448	0.616	0.110
-655.886	34.950	0.581	0.511
-654.872	-200.000	-0.003	-0.405
-653.857	-200.000	0.005	-0.886
-652.843	-200.000	0.095	0.640
-651.828	47.487	-0.149	0.140
-650.814	800.000	0.220	0.871
-649.799	800.000	-0.020	0.073
-648.784	-5.020	0.480	0.332
-647.770	-94.607	-0.570	-0.156
-646.755	-53.635	0.536	0.246
-645.741	274.786	0.348	0.619
-644.726	-192.132	-0.774	-0.007
-643.711	-200.000	-0.158	-0.826
-642.697	-133.780	-0.413	0.052
-641.682	140.229	-0.436	0.577
-640.668	15.042	0.121	0.095
-639.653	-200.000	-0.022	-0.184
-638.638	94.313	-0.426	-0.485
-637.624	800.000	-0.190	-0.571
-636.609	253.539	-0.180	0.309
-635.595	121.606	-0.191	0.238
-634.580	71.951	0.387	0.404
-633.565	-20.537	-0.529	0.326
-632.551	-200.000	-0.040	0.355
-631.536	-29.133	0.401	0.231
-630.522	-200.000	0.076	0.653
-629.507	-113.884	-0.422	0.082
-628.492	-62.869	-0.228	-0.095
-627.478	-101.149	0.372	0.091
-626.463	148.360	-0.289	-0.391
-625.449	800.000	-0.094	-0.408
-624.434	-193.424	-0.952	0.008
-623.419	-124.976	-0.536	0.083
-622.405	44.604	0.590	0.544
-621.390	304.811	0.116	0.217
-620.376	-24.253	-0.135	0.081
-619.361	466.792	0.330	0.743
-618.346	-136.913	-0.961	0.111
-617.332	70.496	-0.071	-0.074
-616.317	-200.000	-0.141	-0.901
-615.303	-141.662	-1.009	0.102
-614.288	800.000	0.130	0.486
-613.273	-168.446	0.142	-0.005
-612.259	-109.243	-0.730	-0.155
-611.244	800.000	0.198	-0.688
-610.230	-200.000	0.030	0.418
-609.215	247.850	-0.041	-0.069
-608.201	686.129	-0.301	-0.788
-607.186	257.144	0.130	0.224
-606.171	66.058	0.245	0.249
-605.157	-64.282	-0.238	0.097
-604.142	-112.542	-0.269	-0.054
-603.128	-36.043	-0.457	0.248
-602.113	-200.000	0.103	-0.590
-601.098	800.000	0.191	-0.759
-600.084	-200.000	-0.027	-0.431
-599.069	800.000	0.098	-0.310
-598.055	632.703	-0.292	0.740
-597.040	94.450	-0.276	0.315
-596.025	-200.000	0.016	-0.680
-595.011	414.901	0.196	0.419
-593.996	-125.271	0.386	0.059
-592.982	-87.445	0.161	0.049
-591.967	152.227	0.524	-0.716
-590.952	-77.139	-0.224	-0.078
-589.938	-200.000	-0.115	0.706
-588.923	-92.851	-0.505	-0.141
-587.909	-51.894	0.123	0.057
-586.894	49.954	-0.384	-0.363
-585.879	282.998	-0.246	-0.443
-584.865	-7.726	0.060	-0.040
-583.850	-200.000	-0.041	-0.422
-582.836	-200.000	0.034	0.974
-581.821	-65.522	-0.459	0.184
-580.806	575.863	-0.202	-0.494
-579.792	-38.682	0.778	0.411
-578.777	-27.789	-0.568	-0.330
-577.763	50.707	0.239	0.226
-576.748	639.063	0.039	0.100
-575.733	-105.523	-0.549	-0.125
-574.719	-121.273	0.189	-0.032
-573.704	53.653	0.263	-0.253
-572.690	629.098	-0.161	0.407
-571.675	88.409	-0.478	-0.531
-570.661	-179.833	0.245	0.005
-569.646	-55.302	0.392	0.176
-568.631	-200.000	0.099	0.798
-567.617	125.564	0.462	0.584
-566.602	-137.361	1.002	-0.114
-565.588	332.776	0.293	-0.567
-564.573	515.285	0.084	-0.197
-563.558	-25.477	-0.082	0.048
-562.544	-5.306	-0.527	-0.363
-561.529	-200.000	-0.063	0.595
-560.515	800.000	-0.167	0.692
-559.500	-200.000	-0.013	-0.797
-558.485	218.935	0.186	-0.297
-557.471	231.496	0.629	-1.031
-556.456	-33.316	-1.148	-0.635
-555.442	-118.830	-0.553	-0.097
-554.427	-200.000	0.121	-0.608
-553.412	264.109	0.090	0.157
-552.398	531.152	-0.040	0.094
-551.383	-76.030	0.350	-0.124
-550.369	-140.596	0.229	-0.024
-549.354	219.163	-0.315	-0.504
-548.339	-88.928	0.770	-0.228
-547.325	81.158	0.559	-0.604
-546.310	157.134	-0.367	0.507
-545.296	73.667	-0.068	-0.071
-544.281	12.390	0.495	0.382
-543.266	194.850	0.105	-0.159
-542.252	94.197	0.229	0.259
-541.237	350.823	0.409	-0.810
-540.223	800.000	0.282	-0.990
-539.208	-154.765	-0.529	-0.035
-538.193	315.937	-0.371	0.699
-537.179	206.164	0.550	-0.856
-536.164	50.937	0.086	0.082
-535.150	185.689	-0.154	-0.229
-534.135	800.000	0.123	-0.378
-533.121	-7.608	-0.286	0.194
-532.106	-74.413	0.448	-0.162
-531.091	20.268	0.291	-0.235
-530.077	-45.878	-0.238	0.117
-529.062	82.644	0.291	0.316
-528.048	-59.611	0.726	-0.311
-527.033	158.818	-0.456	0.633
-526.018	-27.425	-0.221	0.128
-525.004	204.544	0.499	-0.773
-523.989	101.717	-0.230	0.268
-522.975	-23.149	0.440	-0.264
-521.960	35.929	-0.307	0.270
-520.945	-152.264	0.515	-0.037
-519.931	41.596	-0.633	0.572
-518.916	-200.000	-0.105	-0.700
-517.902	247.990	-0.204	0.344
-516.887	-113.201	-0.796	0.157
-515.872	-33.649	0.367	-0.202
-514.858	-50.396	0.700	0.330
-513.843	-54.447	0.255	0.116
-512.829	-98.838	0.206	-0.052
-511.814	265.475	-0.234	0.407
-510.799	365.888	-0.213	0.429
-509.785	-69.992	0.230	0.087
-508.770	64.737	0.344	-0.346
-507.756	800.000	0.121	-0.465
-506.741	777.508	0.191	-0.521
-505.726	800.000	-0.145	-0.623
-504.712	-200.000	0.067	0.295
-503.697	55.511	-0.168	0.163
-502.683	313.864	-0.089	0.168
-501.668	800.000	0.059	0.220
-500.653	-84.871	-0.934	0.293
-499.639	800.000	0.245	0.840
-498.624	-107.904	-0.863	0.187
-497.610	-200.000	0.015	0.429
-496.595	126.993	0.568	0.719
-495.581	-103.958	0.121	0.028
-494.566	1.985	0.319	-0.230
-493.551	-59.646	0.314	0.134
-492.537	794.291	-0.255	-0.699
-491.522	269.552	0.294	0.515
-490.508	-200.000	-0.070	-0.445
-489.493	-108.147	-1.064	-0.230
-488.478	166.081	0.442	0.624
-487.464	-200.000	0.067	0.626
-486.449	-200.000	-0.048	-0.555
-485.435	53.230	-0.496	0.474
-484.420	102.684	0.140	0.163
-483.405	-200.000	0.006	0.125
-482.391	4.145	0.102	-0.075
-481.376	384.285	-0.280	-0.576
-480.362	-47.580	0.086	0.042
-479.347	-200.000	-0.058	-0.470
-478.332	-200.000	0.070	0.402
-477.318	-39.296	-0.229	0.120
-476.303	-200.000	0.006	-0.378
-475.289	-100.289	0.298	-0.074
-474.274	207.066	-0.350	-0.544
-473.259	309.481	-0.424	-0.790
-472.245	336.152	-0.473	0.916
-471.230	60.232	-0.396	-0.390
-470.216	-200.000	-0.012	-0.334
-469.201	-12.918	-0.653	-0.424
-468.186	-17.641	0.637	-0.399
-467.172	-51.021	0.871	-0.407
-466.157	-200.000	0.013	0.077
-465.143	-30.355	0.743	-0.420
-464.128	-165.249	0.323	0.014
-463.113	-200.000	-0.122	-1.144
-462.099	24.996	0.656	0.543
-461.084	-200.000	-0.050	0.259
-460.070	-200.000	0.005	-0.160
-459.055	-77.351	0.139	0.048
-458.040	-63.072	0.749	0.308
-457.026	-70.756	0.371	0.140
-456.011	59.487	0.415	0.408
-454.997	231.815	-0.316	-0.517
-453.982	-175.178	-0.483	0.013
-452.968	-96.642	0.808	-0.212
-451.953	-200.000	-0.052	0.261
-450.938	-97.737	-0.496	0.128
-449.924	125.178	0.563	0.707
-448.909	800.000	-0.033	-0.138
-447.895	-116.269	0.295	-0.054
-446.880	21.411	-0.731	-0.592
-445.865	-58.817	0.300	-0.129
-444.851	-60.589	0.429	-0.181
-443.836	202.113	0.482	-0.741
-442.822	14.068	0.291	-0.226
-441.807	-185.843	-0.731	0.011
-440.792	80.924	-0.493	0.530
-439.778	-45.223	0.768	-0.380
-438.763	78.234	0.267	-0.284
-437.749	-200.000	0.079	0.568
-436.734	800.000	0.207	0.694
-435.719	-90.028	0.027	0.008
-434.705	-68.575	0.041	-0.016
-433.690	-83.106	-0.532	-0.170
-432.676	-146.081	0.644	-0.057
-431.661	800.000	-0.201	0.560
-430.646	-114.606	0.918	0.175
-429.632	-123.613	0.809	-0.128
-428.617	101.972	0.073	0.084
-427.603	313.812	-0.046	0.085
-426.588	15.325	0.280	-0.218
-425.573	17.703	-0.135	-0.107
-424.559	-41.195	0.444	0.228
-423.544	-61.969	0.372	0.155
-422.530	-200.000	0.063	0.836
-421.515	123.338	0.277	-0.346
-420.500	800.000	0.106	-0.315
-419.486	-200.000	-0.013	0.134
-418.471	-24.229	0.412	-0.245
-417.457	-117.414	0.692	-0.125
-416.442	39.102	0.336	0.299
-415.428	800.000	-0.092	-0.298
-414.413	54.793	0.472	0.453
-413.398	-109.042	0.047	-0.010
-412.384	157.979	0.759	-1.047
-411.369	-114.411	-0.763	-0.146
-410.355	-123.808	0.168	-0.026
-409.340	-58.687	0.221	0.095
-408.325	800.000	0.191	0.531
-407.311	-188.732	-1.082	0.013
-406.296	-147.790	-0.828	0.069
-405.282	-154.923	1.073	-0.070
-404.267	-200.000	-0.189	0.890
-403.252	-200.000	0.094	0.898
-402.238	100.343	-0.095	-0.110
-401.223	-9.241	-1.146	-0.762
-400.209	-19.910	-0.732	-0.450
-399.194	-104.367	-0.676	0.156
-398.179	-25.950	-0.463	-0.271
-397.165	-147.867	-0.204	-0.017
-396.150	-118.419	-0.925	-0.163
-395.136	-95.622	-0.307	-0.082
-394.121	466.013	0.096	0.214
-393.106	106.396	-0.096	0.113
-392.092	25.914	0.086	0.072
-391.077	674.784	-0.189	0.487
-390.063	1.606	-0.144	-0.103
-389.048	192.986	0.516	0.775
-388.033	315.195	0.128	-0.240
-387.019	-200.000	-0.128	1.107
-386.004	-65.714	0.211	-0.084
-384.990	142.530	-0.210	-0.277
-383.975	-200.000	0.112	-0.802
-382.960	-5.989	0.776	0.527
-381.946	-30.553	0.571	-0.322
-380.931	-200.000	0.009	0.343
-379.917	800.000	-0.074	-0.313
-378.902	-6.346	0.932	-0.632
-377.888	78.181	-0.310	-0.329
-376.873	363.487	0.283	-0.565
-375.858	-134.413	0.579	0.070
-374.844	-150.370	-0.369	-0.028
-373.829	-20.755	0.740	0.451
-372.815	73.609	0.373	0.389
-371.800	36.184	-0.091	0.080
-370.785	-14.485	-0.688	0.440
-369.771	-200.000	0.062	-0.454
-368.756	-200.000	-0.078	1.264
-367.742	-83.471	-0.236	-0.075
-366.727	345.976	0.259	-0.505
-365.712	-91.529	-0.656	0.186
-364.698	65.415	-0.291	0.293
-363.683	8.277	0.512	-0.382
-362.669	377.492	0.398	-0.807
-361.654	-2.264	0.335	-0.234
-360.639	-77.733	-0.711	-0.244
-359.625	103.894	-0.348	0.406
-358.610	13.407	-0.624	-0.480
-357.596	544.001	0.111	-0.263
-356.581	-122.340	-0.263	0.043
-355.566	-27.741	-0.283	-0.163
-354.552	-200.000	-0.027	-0.363
-353.537	-200.000	-0.044	-0.421
-352.523	426.205	0.367	-0.785
-351.508	158.993	-0.715	0.986
-350.493	-200.000	0.017	0.140
-349.479	-200.000	0.083	-1.064
-348.464	5.530	-0.275	-0.202
-347.450	-200.000	-0.187	-0.864
-346.435	-69.087	-0.275	0.105
-345.420	347.691	-0.151	0.295
-344.406	75.080	-0.634	0.663
-343.391	13.655	-0.302	0.233
-342.377	-40.835	-0.148	0.076
-341.362	-66.688	0.737	0.290
-340.348	-2.660	0.540	0.375
-339.333	182.284	0.265	-0.388
-338.318	-177.825	1.066	-0.025
-337.304	632.916	0.121	0.305
-336.289	-10.156	-0.537	0.354
-335.275	-108.858	-1.099	0.233
-334.260	-200.000	-0.174	1.103
-333.245	47.901	-0.135	0.126
-332.231	370.509	0.572	-1.149
-331.216	-92.665	-0.173	0.048
-330.202	-180.238	-0.259	0.005
-329.187	-200.000	-0.164	0.955
-328.172	19.894	0.504	-0.403
-327.158	800.000	0.232	-0.635
-326.143	-88.219	-0.342	0.102
-325.129	-67.818	-1.007	0.390
-324.114	-108.513	0.416	0.089
-323.099	-75.318	1.239	-0.438
-322.085	590.096	0.326	-0.797
-321.070	-165.932	0.302	-0.013
-320.056	-173.183	-0.812	-0.025
-319.041	-165.488	0.111	-0.005
-318.026	800.000	0.193	0.756
-317.012	49.438	0.465	-0.433
-315.997	502.074	-0.269	-0.617
-314.983	64.971	-0.664	0.665
-313.968	-71.403	-0.910	0.338
-312.953	-3.759	0.427	-0.294
-311.939	800.000	-0.079	-0.242
-310.924	-49.052	0.576	-0.273
-309.910	339.833	0.279	0.540
-308.895	800.000	0.166	0.500
-307.880	765.907	0.068	0.182
-306.866	0.738	-0.529	-0.375
-305.851	-70.924	-0.579	0.216
-304.837	367.642	-0.135	0.270
-303.822	-15.442	-0.424	0.268
-302.807	-81.525	-0.102	-0.033
-301.793	253.746	0.152	-0.258
-300.778	55.143	0.123	-0.118
-299.764	-50.438	-0.310	-0.145
-298.749	44.458	-0.275	0.250
-297.735	361.446	0.106	0.210
-296.720	16.852	0.286	0.224
-295.705	-59.410	0.279	0.119
-294.691	-200.000	-0.078	0.731
-293.676	-200.000	0.043	0.422
-292.662	-200.000	-0.005	0.198
-291.647	176.233	0.289	0.416
-290.632	-106.481	-0.654	0.144
-289.618	800.000	0.241	0.705
-288.603	358.929	0.397	-0.785
-287.589	-200.000	0.121	-0.560
-286.574	34.343	-0.348	-0.301
-285.559	-10.724	0.416	0.273
-284.545	491.741	-0.175	0.396
-283.530	-34.505	0.613	-0.332
-282.516	-131.010	0.085	0.011
-281.501	-200.000	0.008	0.563
-280.486	-200.000	0.130	-0.665
-279.472	-200.000	0.013	0.671
-278.457	56.522	-0.389	0.375
-277.443	-200.000	0.068	-0.531
-276.428	288.524	-0.336	-0.601
-275.413	-39.496	-0.400	-0.208
-274.399	-200.000	0.053	0.279
-273.384	327.804	-0.330	0.626
-272.370	-200.000	-0.046	0.229
-271.355	-91.248	0.344	0.098
-270.340	-116.499	0.805	0.147
-269.326	-112.366	-0.551	0.109
-268.311	479.753	-0.180	-0.403
-267.297	-200.000	-0.042	-0.595
-266.282	-200.000	0.046	-0.341
-265.267	-111.963	-0.709	-0.142
-264.253	-134.023	-0.281	-0.034
-263.238	778.288	-0.280	-0.757
-262.224	800.000	-0.170	0.468
-261.209	-28.542	-0.649	0.370
-260.195	-51.748	0.212	-0.098
-259.180	-65.388	-0.389	0.155
-258.165	28.850	0.586	-0.491
-257.151	-97.867	0.978	0.250
-256.136	-149.233	0.278	-0.022
-255.122	115.196	-0.417	-0.503
-254.107	-200.000	-0.031	0.588
-253.092	-0.057	0.166	0.117
-252.078	-200.000	0.060	0.989
-251.063	-137.491	-0.852	0.095
-250.049	34.770	0.186	0.161
-249.034	157.764	-0.359	0.492
-248.019	12.872	-0.939	-0.717
-247.005	12.497	-0.212	-0.162
-245.990	-11.183	0.224	0.146
-244.976	-35.968	0.323	-0.173
-243.961	45.806	0.540	0.494
-242.946	565.256	0.317	0.759
-241.932	-60.174	-0.459	0.193
-240.917	-76.537	0.657	-0.228
-239.903	-39.212	0.492	-0.256
-238.888	25.912	-0.741	-0.610
-237.873	800.000	0.207	-0.643
-236.859	138.404	-0.442	0.573
-235.844	215.092	-0.371	0.581
-234.830	180.483	0.176	0.255
-233.815	-64.453	-0.781	-0.314
-232.800	-11.174	0.270	-0.176
-231.786	-196.481	-0.348	-0.002
-230.771	-95.835	-0.778	0.205
-229.757	800.000	-0.039	0.135
-228.742	70.350	-0.224	0.228
-227.727	-150.745	1.044	0.078
-226.713	-200.000	0.024	-0.124
-225.698	2.833	0.287	0.206
-224.684	135.198	0.476	-0.611
-223.669	-46.686	0.258	-0.125
-222.655	-41.134	-0.982	0.500
-221.640	-34.414	0.368	-0.199
-220.625	-81.335	0.657	0.214
-219.611	4.124	-0.416	-0.301
-218.596	575.553	0.411	-0.992
-217.582	-200.000	0.037	0.238
-216.567	800.000	0.046	0.174
-215.552	-58.888	-0.515	0.220
-214.538	178.731	0.201	0.291
-213.523	-55.430	0.709	0.314
-212.509	-95.138	0.606	-0.161
-211.494	-109.189	-0.388	-0.081
-210.479	-60.149	0.348	0.146
-209.465	-154.793	0.290	-0.019
-208.450	-200.000	0.098	0.581
-207.436	-143.302	0.574	0.054
-206.421	-200.000	-0.073	0.617
-205.406	434.122	0.134	0.287
-204.392	-57.624	0.280	0.121
-203.377	-2.073	-0.494	-0.343
-202.363	800.000	0.308	-1.039
-201.348	-200.000	-0.063	0.423
-200.333	-137.702	-0.565	0.063
-199.319	-200.000	-0.027	-0.510
-198.304	512.359	-0.308	0.708
-197.290	239.911	-0.668	1.097
-196.275	-141.433	0.809	0.081
-195.260	156.525	0.264	0.359
-194.246	-200.000	-0.033	-0.600
-193.231	-200.000	0.115	-0.784
-192.217	45.306	-0.088	-0.080
-191.202	-96.791	-0.287	-0.074
-190.187	304.981	-0.281	-0.515
-189.173	54.272	0.699	0.663
-188.158	-15.840	-0.136	0.085
-187.144	-200.000	0.128	-0.766
-186.129	-43.301	-0.703	-0.351
-185.114	309.764	-0.202	-0.372
-184.100	343.320	0.372	0.718
-183.085	125.883	-0.102	0.127
-182.071	-155.484	-0.439	0.028
-181.056	-200.000	-0.040	0.381
-180.042	60.934	0.357	-0.349
-179.027	756.929	0.059	0.158
-178.012	800.000	0.205	0.742
-176.998	18.425	-0.068	0.053
-175.983	-121.276	-0.289	-0.048
-174.969	-200.000	-0.090	-0.516
-173.954	800.000	-0.034	-0.111
-172.939	800.000	-0.048	-0.194
-171.925	113.890	0.211	0.253
-170.910	-200.000	0.083	0.452
-169.896	-157.496	0.149	-0.009
-168.881	46.168	-0.463	0.422
-167.866	94.209	0.320	-0.357
-166.852	75.823	0.044	0.046
-165.837	528.810	-0.022	-0.052
-164.823	15.993	0.454	-0.352
-163.808	92.669	-0.581	0.646
-162.793	9.303	0.220	0.164
-161.779	88.926	-0.511	0.561
-160.764	800.000	0.132	0.481
-159.750	800.000	-0.152	-0.534
-158.735	-87.288	-0.279	0.084
-157.720	168.843	-0.119	0.168
-156.706	17.255	0.276	-0.215
-155.691	535.357	0.339	-0.793
-154.677	-32.484	-0.047	-0.026
-153.662	128.226	0.571	-0.716
-152.647	-69.635	0.317	-0.119
-151.633	153.878	0.322	-0.435
-150.618	-42.587	0.621	-0.311
-149.604	-76.803	-0.209	-0.072
-148.589	-48.600	0.822	0.389
-147.574	-39.896	-0.444	0.228
-146.560	157.013	-0.286	0.389
-145.545	800.000	-0.149	-0.453
-144.531	-200.000	0.032	-0.288
-143.516	-200.000	-0.034	0.319
-142.502	800.000	-0.149	0.604
-141.487	225.708	-0.074	-0.119
-140.472	17.610	0.616	0.482
-139.458	-200.000	-0.116	0.730
-138.443	-66.231	0.701	-0.275
-137.429	-167.445	-0.473	0.019
-136.414	208.044	-0.107	0.164
-135.399	800.000	-0.273	0.873
-134.385	-80.950	0.975	0.318
-133.370	-55.252	-0.103	0.045
-132.356	-200.000	-0.120	-0.959
-131.341	-85.250	-0.605	-0.186
-130.326	-113.317	0.916	0.177
-129.312	247.508	0.172	-0.285
-128.297	-153.320	-0.065	-0.004
-127.283	800.000	-0.189	-0.546
-126.268	6.040	-0.423	0.308
-125.253	-200.000	-0.083	-0.611
-124.239	53.149	-0.507	0.478
-123.224	27.550	0.595	-0.493
-122.210	-200.000	0.039	0.333
-121.195	328.942	-0.146	-0.276
-120.180	78.004	-0.642	0.674
