DTS Sentinel unit serial number:	SN413079Multiplexer serial number:	ORYXHardware model number:	OX4-SRSoftware version number:	ORYX F/W v4.00 Oryx Data Collector v3.7.2.0data status	okinstallation	princeton_trtdifferential loss correction	single-endedforward channel	channel 2reverse channel	N/Adate	2019/09/10time	20:09:10forward acquisition time	60.00reverse acquisition time	0.00gamma	496.2192k internal	0.2329k external	0.2329temperature offset calibration	0.9942default loss term (dB/km)	0.3790temperature slope calibration	1.0000multiplexer offset coefficient	1.0000multiplexer slope coefficient	1.0000fibre end	0.00T internal ref (°C)	32.44T ext. ref 1 (°C)	-0.32T ext. ref 2 (°C)	25.41length (m)	temperature (°C)	Stokes	anti-Stokes-747.200	294.945	-0.091	0.168
-746.185	191.358	0.158	0.239
-745.171	-104.441	-0.043	0.010
-744.156	800.000	-0.106	0.420
-743.142	-62.286	0.384	0.161
-742.127	800.000	0.065	0.244
-741.112	-200.000	-0.023	0.269
-740.098	13.371	-0.196	-0.153
-739.083	-96.244	-0.309	-0.082
-738.069	-60.164	-0.194	0.083
-737.054	-125.605	-0.316	0.048
-736.039	-200.000	-0.025	0.221
-735.025	158.307	0.100	-0.139
-734.010	-130.490	-0.253	0.034
-732.996	48.466	-0.253	-0.238
-731.981	74.214	0.139	0.147
-730.966	121.246	-0.242	-0.303
-729.952	325.082	-0.082	0.157
-728.937	-143.826	-0.306	-0.029
-727.923	800.000	-0.054	-0.158
-726.908	-64.467	-0.135	-0.055
-725.894	-160.885	0.087	-0.005
-724.879	178.130	0.099	-0.146
-723.864	253.414	0.164	-0.282
-722.850	-138.574	0.256	-0.028
-721.835	-123.438	-0.233	0.037
-720.821	-60.089	-0.507	0.218
-719.806	-75.195	0.158	0.057
-718.791	255.318	0.070	0.122
-717.777	-200.000	-0.009	-0.320
-716.762	-180.769	-0.365	0.007
-715.748	-164.106	0.089	0.004
-714.733	-200.000	-0.005	-0.044
-713.718	-88.515	0.079	0.024
-712.704	-70.998	-0.104	-0.039
-711.689	-45.610	-0.367	-0.183
-710.675	-16.384	-0.078	-0.049
-709.660	474.999	0.124	0.282
-708.645	-200.000	-0.030	0.157
-707.631	-83.211	-0.101	-0.033
-706.616	63.368	-0.187	-0.188
-705.602	-86.276	-0.382	0.118
-704.587	218.115	0.042	0.067
-703.572	-135.218	-0.113	-0.014
-702.558	176.898	-0.242	-0.353
-701.543	-200.000	-0.013	-0.063
-700.529	154.799	-0.139	0.192
-699.514	574.561	0.112	0.275
-698.499	185.014	-0.243	0.363
-697.485	800.000	-0.088	0.327
-696.470	499.262	-0.134	-0.311
-695.456	73.804	0.126	-0.133
-694.441	800.000	0.038	-0.169
-693.426	391.109	0.194	0.405
-692.412	43.563	-0.142	0.130
-691.397	-43.770	0.115	0.058
-690.383	-4.521	-0.123	0.086
-689.368	-144.588	0.193	0.018
-688.354	-200.000	0.051	-0.317
-687.339	-108.405	-0.018	0.004
-686.324	212.622	0.062	0.098
-685.310	-25.307	-0.174	0.104
-684.295	48.572	-0.399	-0.376
-683.281	33.908	0.082	0.072
-682.266	-10.387	0.016	-0.011
-681.251	-200.000	-0.188	-0.000
-680.237	800.000	-0.118	0.369
-679.222	-200.000	0.006	0.285
-678.208	-27.139	0.067	-0.039
-677.193	-55.757	-0.191	0.086
-676.178	-86.036	-0.196	-0.061
-675.164	-7.722	-0.134	-0.091
-674.149	-200.000	0.016	-0.337
-673.135	108.323	0.090	0.108
-672.120	49.625	-0.206	-0.195
-671.105	188.630	0.121	0.182
-670.091	-60.114	0.107	0.046
-669.076	29.460	-0.101	-0.086
-668.062	-200.000	-0.054	0.354
-667.047	800.000	-0.022	-0.081
-666.032	-200.000	0.050	-0.277
-665.018	30.664	-0.112	-0.097
-664.003	18.959	-0.264	-0.212
-662.989	-80.431	-0.257	0.086
-661.974	-92.108	-0.164	0.046
-660.959	-196.804	0.248	-0.002
-659.945	-200.000	0.054	0.252
-658.930	-200.000	-0.016	0.261
-657.916	67.343	0.136	0.139
-656.901	24.350	-0.070	-0.058
-655.886	357.441	-0.013	0.025
-654.872	-5.067	-0.355	-0.245
-653.857	-90.949	-0.122	0.035
-652.843	2.864	-0.101	0.074
-651.828	-200.000	-0.024	0.313
-650.814	114.373	-0.134	0.163
-649.799	-200.000	0.029	0.379
-648.784	-131.316	0.122	-0.016
-647.770	626.647	-0.099	-0.250
-646.755	-63.811	-0.243	-0.100
-645.741	-10.011	-0.195	-0.130
-644.726	-112.285	0.202	0.041
-643.711	800.000	-0.078	0.309
-642.697	-200.000	-0.057	-0.259
-641.682	54.072	0.294	0.284
-640.668	217.464	-0.052	0.084
-639.653	28.363	-0.344	-0.291
-638.638	-200.000	-0.040	-0.296
-637.624	-73.801	-0.077	-0.028
-636.609	175.506	0.250	-0.363
-635.595	-164.050	-0.212	-0.010
-634.580	396.585	-0.060	-0.126
-633.565	449.783	-0.139	-0.308
-632.551	800.000	-0.041	-0.119
-631.536	-61.180	0.091	0.038
-630.522	-200.000	0.030	-0.214
-629.507	-200.000	-0.043	0.308
-628.492	360.291	-0.177	-0.354
-627.478	-67.004	-0.158	-0.062
-626.463	-153.572	0.015	0.001
-625.449	-176.037	0.204	-0.005
-624.434	345.197	-0.169	0.333
-623.419	800.000	-0.066	0.189
-622.405	281.726	-0.079	-0.142
-621.390	-134.894	-0.124	-0.015
-620.376	160.442	0.192	-0.269
-619.361	85.779	0.121	-0.133
-618.346	800.000	-0.088	0.315
-617.332	-44.227	-0.410	-0.206
-616.317	800.000	0.047	-0.198
-615.303	390.335	0.105	0.219
-614.288	209.324	0.157	0.247
-613.273	574.736	0.045	0.109
-612.259	-61.060	0.074	-0.031
-611.244	-23.903	-0.190	-0.114
-610.230	-137.380	0.231	-0.026
-609.215	734.334	-0.084	0.226
-608.201	-106.256	0.139	0.031
-607.186	800.000	-0.052	0.147
-606.171	800.000	-0.059	0.177
-605.157	-144.772	-0.048	0.004
-604.142	-64.753	-0.263	0.107
-603.128	39.943	-0.070	-0.063
-602.113	725.962	-0.032	0.085
-601.098	-81.131	-0.297	-0.098
-600.084	-11.543	0.159	-0.104
-599.069	-48.612	0.185	0.089
-598.055	17.626	-0.048	-0.038
-597.040	-173.554	-0.264	0.008
-596.025	42.025	0.048	0.043
-595.011	-200.000	-0.022	-0.189
-593.996	-82.418	-0.183	-0.059
-592.982	-162.720	0.325	0.016
-591.967	-200.000	-0.009	-0.083
-590.952	-200.000	0.013	-0.331
-589.938	112.836	-0.134	0.162
-588.923	143.557	0.081	0.107
-587.909	-44.165	0.117	0.059
-586.894	-158.744	-0.030	-0.002
-585.879	-144.261	-0.248	0.023
-584.865	800.000	0.102	-0.321
-583.850	-19.998	0.030	-0.018
-582.836	800.000	-0.080	0.232
-581.821	112.830	0.100	-0.121
-580.806	82.535	-0.332	0.360
-579.792	8.084	0.072	0.054
-578.777	257.710	-0.159	-0.273
-577.763	11.398	-0.165	-0.127
-576.748	-200.000	0.012	0.223
-575.733	296.653	-0.016	0.029
-574.719	-30.737	0.059	0.033
-573.704	577.049	-0.192	0.470
-572.690	101.916	-0.041	-0.048
-571.675	800.000	-0.076	-0.210
-570.661	-23.866	0.116	-0.069
-569.646	800.000	-0.037	0.134
-568.631	25.741	0.158	-0.132
-567.617	-6.310	-0.265	0.181
-566.602	163.094	0.114	0.161
-565.588	117.124	-0.154	-0.190
-564.573	-124.029	-0.183	0.029
-563.558	-200.000	-0.113	-0.657
-562.544	94.918	0.262	-0.298
-561.529	-110.323	-0.336	0.070
-560.515	-91.283	-0.223	0.064
-559.500	606.402	0.020	-0.049
-558.485	-200.000	-0.007	0.071
-557.471	-16.757	-0.355	-0.225
-556.456	-89.682	0.248	-0.073
-555.442	678.687	0.050	0.129
-554.427	14.057	-0.274	0.214
-553.412	-47.329	-0.510	0.248
-552.398	-200.000	-0.013	0.151
-551.383	289.716	-0.145	0.262
-550.369	800.000	0.014	0.056
-549.354	800.000	-0.066	0.251
-548.339	800.000	-0.085	-0.336
-547.325	-200.000	0.056	0.249
-546.310	-165.438	0.165	0.007
-545.296	-200.000	-0.026	-0.305
-544.281	-141.302	0.145	0.015
-543.266	-137.990	0.240	0.027
-542.252	553.000	-0.054	0.129
-541.237	-60.860	-0.092	-0.039
-540.223	800.000	0.047	0.143
-539.208	-151.344	0.326	0.024
-538.193	-3.465	-0.413	-0.287
-537.179	-73.075	0.276	0.101
-536.164	420.206	0.138	-0.294
-535.150	-148.125	-0.373	-0.031
-534.135	800.000	0.036	-0.136
-533.121	-93.540	-0.195	0.054
-532.106	800.000	-0.079	0.314
-531.091	-120.052	0.231	0.040
-530.077	-93.712	0.202	0.056
-529.062	-16.447	0.140	-0.088
-528.048	800.000	0.014	-0.053
-527.033	42.704	-0.189	-0.172
-526.018	-165.330	-0.171	0.007
-525.004	-49.500	0.323	0.154
-523.989	800.000	0.039	-0.157
-522.975	-11.751	-0.313	0.205
-521.960	-23.444	0.054	-0.032
-520.945	800.000	0.032	0.124
-519.931	800.000	-0.015	0.066
-518.916	241.395	0.101	-0.168
-517.902	-33.242	-0.159	0.088
-516.887	552.149	-0.036	-0.086
-515.872	-6.527	-0.213	0.145
-514.858	107.306	-0.060	-0.071
-513.843	144.587	0.087	0.116
-512.829	-200.000	-0.026	0.251
-511.814	-121.894	-0.264	-0.043
-510.799	-50.244	0.149	-0.070
-509.785	800.000	0.090	0.256
-508.770	70.939	-0.146	-0.151
-507.756	11.894	-0.214	-0.164
-506.741	202.293	0.159	-0.245
-505.726	-200.000	0.032	-0.304
-504.712	-200.000	0.013	-0.505
-503.697	-200.000	0.052	-0.434
-502.683	800.000	-0.084	-0.298
-501.668	-73.377	0.437	-0.159
-500.653	-110.889	0.175	0.036
-499.639	-200.000	0.024	0.234
-498.624	123.192	-0.135	-0.169
-497.610	404.791	-0.106	0.223
-496.595	-200.000	0.033	-0.280
-495.581	-69.877	-0.138	0.053
-494.566	-159.316	0.141	-0.008
-493.551	188.835	0.073	-0.109
-492.537	-200.000	-0.002	-0.315
-491.522	-95.289	-0.208	-0.056
-490.508	-154.028	-0.155	-0.011
-489.493	264.362	-0.242	0.420
-488.478	105.793	0.075	0.088
-487.464	-63.226	0.154	0.063
-486.449	315.469	-0.085	-0.160
-485.435	53.388	-0.105	-0.100
-484.420	308.658	-0.215	0.401
-483.405	485.765	-0.055	0.124
-482.391	-200.000	-0.041	0.256
-481.376	23.607	0.198	-0.163
-480.362	-22.006	0.162	-0.098
-479.347	272.423	0.123	0.216
-478.332	39.066	-0.289	0.257
-477.318	-82.246	0.271	0.088
-476.303	-107.040	0.230	0.051
-475.289	-200.000	-0.001	0.050
-474.274	75.791	0.121	0.128
-473.259	59.077	-0.238	-0.233
-472.245	38.349	0.287	-0.255
-471.230	456.244	-0.009	0.019
-470.216	-200.000	-0.063	0.327
-469.201	-113.882	0.242	-0.047
-468.186	-60.457	-0.096	-0.040
-467.172	125.406	0.213	0.268
-466.157	15.603	0.364	-0.285
-465.143	-150.690	-0.202	0.015
-464.128	-154.449	-0.125	-0.008
-463.113	-200.000	0.035	0.163
-462.099	800.000	-0.127	-0.376
-461.084	-66.698	-0.216	-0.085
-460.070	2.724	0.169	0.122
-459.055	-60.824	-0.176	0.074
-458.040	-16.198	-0.214	0.135
-457.026	128.179	0.240	0.304
-456.011	-77.937	0.048	-0.017
-454.997	-140.239	0.413	0.043
-453.982	178.944	0.006	0.009
-452.968	238.747	0.218	0.362
-451.953	20.915	0.218	-0.176
-450.938	-191.399	0.228	-0.002
-449.924	140.276	-0.123	-0.162
-448.909	-80.135	0.213	0.071
-447.895	49.246	0.047	-0.044
-446.880	743.880	0.082	-0.219
-445.865	-122.423	0.162	0.026
-444.851	728.172	-0.014	-0.038
-443.836	-200.000	0.018	0.135
-442.822	-28.368	0.099	0.057
-441.807	37.164	0.117	0.103
-440.792	-200.000	-0.007	-0.259
-439.778	17.958	0.154	0.122
-438.763	-200.000	-0.016	0.083
-437.749	-200.000	0.034	-0.321
-436.734	103.759	-0.162	-0.190
-435.719	-166.386	0.074	0.003
-434.705	-88.951	-0.229	0.067
-433.690	-190.694	0.127	-0.001
-432.676	133.275	0.039	-0.051
-431.661	121.748	0.057	-0.070
-430.646	29.178	-0.158	-0.134
-429.632	-101.729	0.263	-0.063
-428.617	22.872	0.175	-0.143
-427.603	497.368	-0.182	0.417
-426.588	-200.000	-0.010	0.077
-425.573	-70.886	-0.122	-0.046
-424.559	-15.177	-0.412	-0.263
-423.544	196.073	0.214	-0.324
-422.530	51.624	0.223	-0.211
-421.515	-78.348	0.226	-0.077
-420.500	-130.643	-0.174	-0.023
-419.486	-66.870	0.120	0.047
-418.471	-115.106	0.420	0.079
-417.457	-200.000	0.011	0.130
-416.442	321.029	0.061	-0.115
-415.428	-95.442	-0.223	0.059
-414.413	-150.347	-0.260	0.020
-413.398	800.000	0.063	0.253
-412.384	232.031	-0.046	-0.075
-411.369	-41.529	-0.133	-0.068
-410.355	274.333	-0.165	-0.290
-409.340	72.972	-0.178	-0.185
-408.325	-200.000	0.027	0.167
-407.311	-186.827	-0.321	-0.004
-406.296	14.096	0.336	-0.260
-405.282	13.023	-0.358	0.275
-404.267	-89.786	-0.260	-0.076
-403.252	-15.031	0.156	-0.100
-402.238	-155.465	0.068	-0.004
-401.223	-30.029	0.351	0.199
-400.209	8.418	-0.197	0.147
-399.194	-55.728	0.063	-0.028
-398.179	-87.319	-0.135	-0.041
-397.165	323.279	-0.084	-0.159
-396.150	15.161	-0.034	0.026
-395.136	-124.776	0.192	0.030
-394.121	-200.000	-0.034	-0.235
-393.106	-200.000	0.049	0.231
-392.092	-46.357	-0.304	-0.149
-391.077	72.491	0.082	-0.085
-390.063	79.453	0.145	-0.155
-389.048	-200.000	0.028	-0.122
-388.033	464.850	-0.054	-0.119
-387.019	-19.679	0.234	0.144
-386.004	304.156	-0.049	-0.090
-384.990	-200.000	-0.006	0.231
-383.975	-35.424	0.097	0.052
-382.960	-113.616	0.096	0.019
-381.946	-86.732	0.184	0.056
-380.931	-56.638	0.189	0.083
-379.917	-200.000	0.066	0.309
-378.902	-47.898	-0.160	0.077
-377.888	-55.299	0.197	-0.088
-376.873	-200.000	-0.061	0.432
-375.858	795.257	-0.072	0.197
-374.844	8.323	-0.273	-0.204
-373.829	-200.000	0.125	-0.001
-372.815	403.388	0.196	0.410
-371.800	800.000	-0.069	-0.248
-370.785	-130.994	0.275	0.036
-369.771	-88.897	0.091	-0.027
-368.756	-53.925	0.253	0.115
-367.742	-105.558	0.275	-0.062
-366.727	-154.504	0.436	0.029
-365.712	-200.000	-0.021	-0.173
-364.698	800.000	-0.138	0.474
-363.683	-124.319	0.047	0.007
-362.669	800.000	0.061	0.251
-361.654	467.838	-0.128	0.286
-360.639	553.565	0.206	-0.493
-359.625	-25.500	-0.072	-0.042
-358.610	-116.587	-0.124	-0.023
-357.596	365.624	-0.123	0.245
-356.581	509.165	-0.071	0.164
-355.566	-88.719	-0.194	-0.057
-354.552	-115.290	-0.319	-0.060
-353.537	150.109	0.172	0.231
-352.523	-64.915	-0.078	-0.031
-351.508	-127.222	-0.279	-0.040
-350.493	134.283	-0.222	0.286
-349.479	-147.991	-0.220	0.018
-348.464	-200.000	0.068	-0.332
-347.450	-120.319	-0.245	0.041
-346.435	-120.928	0.218	0.036
-345.420	547.330	0.126	-0.298
-344.406	225.145	-0.107	-0.172
-343.391	-73.036	0.138	-0.050
-342.377	798.766	0.044	-0.120
-341.362	-0.492	0.199	-0.140
-340.348	-111.159	0.103	0.021
-339.333	-200.000	0.025	0.218
-338.318	-152.593	0.404	-0.029
-337.304	-13.721	0.120	-0.077
-336.289	136.225	0.026	-0.034
-335.275	83.488	-0.075	0.081
-334.260	103.850	0.304	0.354
-333.245	-14.565	0.166	0.106
-332.231	15.406	-0.309	0.240
-331.216	236.476	0.080	-0.132
-330.202	800.000	0.083	0.308
-329.187	-200.000	0.000	-0.415
-328.172	-21.745	-0.137	-0.083
-327.158	-200.000	0.037	0.198
-326.143	-75.949	0.054	-0.019
-325.129	-200.000	0.011	0.062
-324.114	315.057	-0.034	0.064
-323.099	-83.014	-0.271	0.087
-322.085	-53.536	-0.206	0.093
-321.070	800.000	0.053	0.197
-320.056	241.978	0.093	-0.153
-319.041	-69.973	-0.084	-0.032
-318.026	-200.000	-0.031	-0.217
-317.012	-200.000	-0.006	0.136
-315.997	-146.916	0.420	-0.036
-314.983	161.699	-0.187	-0.260
-313.968	-76.270	0.230	-0.080
-312.953	-85.281	0.306	0.095
-311.939	-125.698	0.057	-0.009
-310.924	-200.000	-0.018	0.122
-309.910	133.798	-0.023	0.030
-308.895	-97.235	0.109	-0.028
-307.880	-200.000	0.016	-0.208
-306.866	-200.000	-0.047	0.401
-305.851	-39.666	-0.286	-0.148
-304.837	277.914	0.151	-0.267
-303.822	247.109	0.086	-0.144
-302.807	56.811	0.082	0.079
-301.793	304.041	-0.092	-0.168
-300.778	-72.376	0.041	0.015
-299.764	-7.907	0.107	-0.071
-298.749	55.292	0.058	-0.056
-297.735	4.308	0.055	0.040
-296.720	10.709	-0.266	-0.201
-295.705	-200.000	0.005	0.386
-294.691	8.229	0.270	0.201
-293.676	-29.829	0.098	-0.055
-292.662	-149.557	0.280	-0.022
-291.647	242.601	0.075	0.125
-290.632	-85.071	-0.154	-0.048
-289.618	-200.000	-0.047	-0.249
-288.603	-200.000	-0.017	-0.150
-287.589	-200.000	-0.012	0.055
-286.574	388.255	0.128	-0.263
-285.559	-40.698	-0.257	0.132
-284.545	-99.887	-0.225	0.056
-283.530	-200.000	-0.026	-0.251
-282.516	-65.451	-0.306	0.122
-281.501	-63.483	0.061	0.025
-280.486	-54.394	-0.326	0.146
-279.472	-80.195	0.166	0.055
-278.457	339.286	0.021	0.040
-277.443	800.000	0.071	0.237
-276.428	-179.103	0.224	0.005
-275.413	309.758	-0.086	-0.160
-274.399	39.953	0.408	0.363
-273.384	49.480	0.161	-0.150
-272.370	-200.000	0.028	-0.144
-271.355	60.786	-0.067	0.065
-270.340	119.650	0.209	-0.255
-269.326	-117.057	-0.044	-0.008
-268.311	51.436	-0.120	-0.112
-267.297	6.853	0.078	0.057
-266.282	-145.727	0.241	-0.021
-265.267	-76.179	0.124	0.043
-264.253	18.181	0.109	0.086
-263.238	-33.729	0.105	-0.057
-262.224	-114.848	0.185	-0.035
-261.209	-186.724	0.298	0.004
-260.195	-200.000	-0.019	0.147
-259.180	-145.717	-0.204	-0.018
-258.165	-200.000	-0.008	0.306
-257.151	800.000	0.043	-0.139
-256.136	88.915	0.116	-0.128
-255.122	424.115	0.140	0.299
-254.107	-182.249	-0.229	0.004
-253.092	-35.677	-0.279	-0.149
-252.078	-96.583	0.126	-0.033
-251.063	-74.039	0.097	0.035
-250.049	481.164	-0.099	0.221
-249.034	-33.969	-0.160	0.087
-248.019	40.571	0.129	-0.115
-247.005	-97.152	0.141	-0.036
-245.990	-76.048	-0.439	-0.153
-244.976	-36.029	-0.129	0.069
-243.961	122.671	0.187	0.231
-242.946	70.589	-0.241	0.246
-241.932	-200.000	-0.051	-0.253
-240.917	89.798	0.162	-0.178
-239.903	131.545	0.184	-0.233
-238.888	52.567	-0.077	-0.073
-237.873	84.713	-0.071	0.077
-236.859	-67.594	0.233	0.090
-235.844	-50.783	-0.377	-0.175
-234.830	-117.690	-0.273	-0.049
-233.815	-200.000	-0.033	-0.146
-232.800	73.496	0.228	-0.236
-231.786	583.496	-0.077	0.187
-230.771	232.188	-0.126	-0.205
-229.757	188.580	0.115	0.169
-228.742	18.469	0.110	0.087
-227.727	120.580	-0.162	-0.199
-226.713	430.717	0.040	-0.085
-225.698	105.507	0.028	-0.032
-224.684	-200.000	0.006	0.217
-223.669	36.041	0.204	0.178
-222.655	36.477	0.039	0.034
-221.640	0.066	-0.121	0.085
-220.625	-60.851	-0.316	-0.132
-219.611	-100.610	0.213	-0.052
-218.596	171.469	-0.048	0.068
-217.582	-200.000	-0.002	-0.050
-216.567	-200.000	0.008	-0.038
-215.552	358.444	-0.130	0.255
-214.538	69.343	-0.120	-0.122
-213.523	-64.909	-0.183	0.073
-212.509	14.051	-0.175	-0.134
-211.494	110.045	0.097	0.115
-210.479	36.395	-0.179	0.156
-209.465	-16.407	-0.055	-0.034
-208.450	164.643	-0.351	0.488
-207.436	353.593	0.071	-0.139
-206.421	-200.000	0.032	-0.153
-205.406	-131.664	-0.494	0.064
-204.392	-34.772	0.159	0.086
-203.377	-124.587	0.170	-0.026
-202.363	800.000	0.083	0.350
-201.348	147.800	-0.180	-0.239
-200.333	-160.545	0.121	-0.006
-199.319	752.751	-0.072	0.191
-198.304	-113.442	-0.321	0.062
-197.290	-56.346	-0.125	-0.055
-196.275	-200.000	-0.038	-0.323
-195.260	17.770	0.229	-0.180
-194.246	142.898	0.335	-0.439
-193.231	-17.194	-0.355	0.221
-192.217	-77.890	-0.205	-0.070
-191.202	-197.959	0.139	-0.001
-190.187	513.014	-0.117	0.270
-189.173	800.000	0.077	0.273
-188.158	800.000	-0.091	0.305
-187.144	179.318	0.106	-0.153
-186.129	-23.386	0.066	-0.039
-185.114	465.774	-0.095	-0.210
-184.100	359.100	-0.076	-0.149
-183.085	-159.972	0.131	-0.007
-182.071	138.871	-0.079	-0.102
-181.056	140.518	0.061	0.079
-180.042	-166.383	0.097	0.004
-179.027	-44.135	0.300	0.148
-178.012	-200.000	-0.023	0.219
-176.998	-103.162	0.171	0.040
-175.983	80.620	-0.136	-0.144
-174.969	-200.000	-0.005	-0.118
-173.954	187.343	0.062	-0.090
-172.939	5.541	0.282	0.205
-171.925	179.429	-0.222	0.320
-170.910	-142.970	0.114	0.011
-169.896	-131.531	-0.091	-0.012
-168.881	443.492	0.089	-0.193
-167.866	-64.105	-0.060	-0.024
-166.852	-37.599	0.318	0.167
-165.837	800.000	-0.008	0.024
-164.823	-81.133	0.354	0.115
-163.808	-200.000	0.019	0.106
-162.793	-111.012	-0.189	-0.038
-161.779	-32.251	-0.039	0.021
-160.764	800.000	0.056	-0.239
-159.750	-36.899	0.174	0.092
-158.735	-65.616	-0.062	-0.024
-157.720	42.531	0.229	0.205
-156.706	800.000	0.095	0.264
-155.691	43.523	-0.179	-0.161
-154.677	-94.389	-0.223	0.060
-153.662	-164.544	-0.159	-0.007
-152.647	467.770	0.122	-0.270
-151.633	372.047	0.047	0.094
-150.618	-92.971	-0.146	-0.040
-149.604	-200.000	-0.044	-0.247
-148.589	306.609	-0.059	0.108
-147.574	246.598	-0.157	-0.261
-146.560	-26.738	-0.125	-0.072
-145.545	-123.162	-0.050	0.008
-144.531	800.000	0.027	-0.089
-143.516	-116.373	0.223	-0.041
-142.502	-40.618	0.244	-0.125
-141.487	-91.134	-0.199	-0.056
-140.472	800.000	0.036	-0.131
-139.458	182.189	0.140	0.204
-138.443	24.313	0.227	0.185
-137.429	-200.000	-0.058	0.340
-136.414	-120.984	0.094	-0.015
-135.399	95.514	-0.141	-0.158
-134.385	-182.505	-0.070	-0.001
-133.370	800.000	-0.087	0.369
-132.356	-33.612	-0.163	-0.089
-131.341	7.190	0.030	0.022
-130.326	-200.000	-0.018	0.147
-129.312	-139.068	-0.184	0.020
-128.297	800.000	-0.032	-0.101
-127.283	-5.113	-0.059	-0.040
-126.268	57.920	0.031	0.030
-125.253	800.000	-0.118	0.374
-124.239	116.241	-0.198	0.238
-123.224	-81.264	-0.236	-0.077
-122.210	-200.000	-0.013	0.286
