DTS Sentinel unit serial number:	SN413079Multiplexer serial number:	ORYXHardware model number:	OX4-SRSoftware version number:	ORYX F/W v4.00 Oryx Data Collector v3.7.2.0data status	okinstallation	princeton_trtdifferential loss correction	single-endedforward channel	channel 2reverse channel	N/Adate	2019/09/17time	19:07:35forward acquisition time	60.00reverse acquisition time	0.00gamma	496.2192k internal	0.2308k external	0.2308temperature offset calibration	0.9986default loss term (dB/km)	0.3790temperature slope calibration	1.0000multiplexer offset coefficient	1.0000multiplexer slope coefficient	1.0000fibre end	0.00T internal ref (°C)	39.72T ext. ref 1 (°C)	0.27T ext. ref 2 (°C)	27.89length (m)	temperature (°C)	Stokes	anti-Stokes-747.200	-200.000	0.045	0.221
-746.185	-200.000	-0.015	0.154
-745.171	-200.000	0.037	0.361
-744.156	800.000	0.053	0.218
-743.142	-129.364	-0.254	-0.036
-742.127	26.032	0.075	0.064
-741.112	-106.591	0.204	0.046
-740.098	171.657	0.116	0.169
-739.083	36.321	0.179	-0.161
-738.069	-200.000	-0.026	0.182
-737.054	-151.678	0.055	-0.004
-736.039	-60.645	-0.304	-0.131
-735.025	196.039	0.197	0.305
-734.010	800.000	0.081	-0.275
-732.996	483.506	0.081	0.187
-731.981	154.433	-0.154	-0.215
-730.966	50.161	-0.169	-0.163
-729.952	-116.309	0.086	0.016
-728.937	183.431	-0.122	-0.184
-727.923	-79.166	0.208	-0.072
-726.908	-66.496	-0.223	-0.090
-725.894	80.118	-0.130	0.142
-724.879	-55.092	-0.040	-0.018
-723.864	269.732	-0.044	0.078
-722.850	104.286	0.073	0.087
-721.835	-32.093	-0.163	0.092
-720.821	-200.000	-0.041	-0.204
-719.806	-200.000	-0.013	-0.164
-718.791	800.000	0.118	0.364
-717.777	654.641	-0.024	0.062
-716.762	358.283	0.066	-0.135
-715.748	-37.398	-0.190	0.103
-714.733	-39.077	-0.129	-0.069
-713.718	-159.620	-0.272	-0.015
-712.704	188.887	-0.008	0.013
-711.689	-200.000	-0.073	0.538
-710.675	223.277	-0.120	0.197
-709.660	792.406	0.092	0.258
-708.645	-197.826	-0.158	0.001
-707.631	80.658	-0.134	0.147
-706.616	800.000	-0.080	-0.310
-705.602	484.624	-0.144	-0.332
-704.587	-157.138	-0.167	-0.010
-703.572	-123.317	-0.268	-0.044
-702.558	170.435	0.208	-0.302
-701.543	-109.931	-0.186	-0.040
-700.529	-200.000	0.007	0.105
-699.514	-200.000	0.004	0.048
-698.499	-33.885	-0.157	0.088
-697.485	184.388	0.094	0.142
-696.470	-200.000	0.000	-0.317
-695.456	159.340	-0.169	-0.238
-694.441	30.246	0.158	0.137
-693.426	281.954	0.152	-0.276
-692.412	-38.964	-0.383	-0.205
-691.397	-94.690	-0.134	0.037
-690.383	445.527	-0.181	0.404
-689.368	292.288	-0.030	-0.055
-688.354	-136.442	-0.062	-0.007
-687.339	353.190	0.076	-0.152
-686.324	-82.663	0.298	-0.098
-685.310	-124.254	-0.298	0.047
-684.295	-62.296	0.309	0.131
-683.281	274.080	0.047	0.084
-682.266	-155.768	-0.116	-0.008
-681.251	-200.000	0.008	-0.075
-680.237	-59.412	0.195	-0.085
-679.222	-200.000	-0.002	-0.114
-678.208	-25.598	0.314	0.188
-677.193	-108.854	-0.437	0.095
-676.178	-146.786	-0.210	-0.018
-675.164	602.909	-0.180	-0.454
-674.149	800.000	0.021	-0.071
-673.135	-133.337	-0.119	-0.015
-672.120	-119.100	-0.110	0.020
-671.105	-200.000	-0.046	-0.303
-670.091	-200.000	0.007	-0.248
-669.076	103.296	0.141	0.167
-668.062	121.764	-0.052	0.065
-667.047	676.903	0.118	0.311
-666.032	28.070	0.269	-0.230
-665.018	-200.000	0.033	0.178
-664.003	-185.665	-0.365	0.006
-662.989	-200.000	-0.025	-0.291
-661.974	800.000	0.128	-0.455
-660.959	11.295	-0.115	0.089
-659.945	-200.000	0.043	-0.392
-658.930	217.154	0.144	-0.232
-657.916	-57.746	-0.402	-0.178
-656.901	399.118	-0.004	-0.009
-655.886	480.164	-0.110	-0.254
-654.872	316.565	-0.078	-0.149
-653.857	-121.202	-0.209	0.035
-652.843	800.000	0.067	-0.219
-651.828	-200.000	-0.036	-0.202
-650.814	428.176	-0.137	-0.300
-649.799	-35.305	-0.241	-0.133
-648.784	-140.467	-0.416	0.044
-647.770	800.000	-0.044	0.129
-646.755	54.441	-0.280	0.273
-645.741	-200.000	-0.033	0.262
-644.726	-96.566	0.216	0.058
-643.711	141.219	0.105	-0.141
-642.697	-8.467	-0.048	-0.033
-641.682	800.000	-0.054	-0.173
-640.668	-156.998	-0.281	-0.017
-639.653	-200.000	-0.078	0.393
-638.638	2.377	0.300	-0.220
-637.624	8.555	0.201	0.153
-636.609	567.278	-0.121	-0.297
-635.595	9.640	0.228	-0.175
-634.580	-22.355	0.309	-0.190
-633.565	-125.429	-0.164	-0.025
-632.551	-92.969	-0.353	0.100
-631.536	800.000	-0.054	0.154
-630.522	-200.000	-0.019	0.128
-629.507	63.289	-0.098	0.100
-628.492	800.000	-0.074	-0.291
-627.478	282.780	-0.103	0.187
-626.463	-124.982	-0.363	0.056
-625.449	16.723	-0.074	0.059
-624.434	2.283	-0.111	-0.081
-623.419	165.232	-0.142	-0.204
-622.405	129.605	-0.072	-0.094
-621.390	26.936	-0.052	0.044
-620.376	-133.050	-0.313	0.040
-619.361	800.000	-0.065	-0.245
-618.346	272.373	-0.140	-0.249
-617.332	28.167	0.224	0.191
-616.317	-11.322	-0.240	0.160
-615.303	-129.383	-0.172	0.024
-614.288	-18.651	-0.101	-0.064
-613.273	-200.000	0.013	-0.252
-612.259	-24.583	0.066	-0.040
-611.244	800.000	-0.069	-0.240
-610.230	-200.000	-0.010	-0.047
-609.215	282.480	-0.067	0.122
-608.201	-45.354	0.183	-0.092
-607.186	87.687	0.090	0.101
-606.171	-158.746	-0.272	0.016
-605.157	-103.865	-0.297	0.070
-604.142	280.462	-0.019	0.034
-603.128	-200.000	-0.017	0.197
-602.113	-36.156	-0.307	0.167
-601.098	30.623	-0.022	0.019
-600.084	167.889	0.241	0.347
-599.069	262.363	0.027	-0.048
-598.055	-37.398	0.114	-0.062
-597.040	-118.476	-0.240	-0.043
-596.025	102.144	-0.011	-0.013
-595.011	-200.000	-0.010	-0.092
-593.996	55.312	-0.147	-0.143
-592.982	10.046	-0.110	0.084
-591.967	220.965	-0.253	-0.411
-590.952	-79.417	-0.302	0.103
-589.938	-14.673	0.167	-0.108
-588.923	333.294	-0.096	0.188
-587.909	-151.823	0.096	0.007
-586.894	-200.000	-0.015	-0.145
-585.879	1.352	-0.129	0.094
-584.865	230.869	-0.184	0.304
-583.850	-108.611	0.161	0.035
-582.836	-200.000	0.034	-0.340
-581.821	-107.737	-0.299	0.066
-580.806	-168.472	-0.117	-0.005
-579.792	153.443	0.241	0.333
-578.777	-200.000	0.043	0.208
-577.763	318.565	0.090	0.172
-576.748	-109.669	0.170	0.036
-575.733	602.504	-0.091	-0.228
-574.719	-6.430	-0.047	-0.032
-573.704	406.620	-0.084	-0.179
-572.690	-200.000	0.008	0.108
-571.675	-36.459	-0.061	0.033
-570.661	276.121	-0.148	-0.266
-569.646	2.143	0.241	-0.176
-568.631	136.450	-0.223	0.294
-567.617	-134.336	0.115	-0.014
-566.602	-87.750	-0.008	-0.002
-565.588	-22.671	-0.383	-0.234
-564.573	-61.768	0.344	-0.145
-563.558	-55.543	0.155	-0.070
-562.544	-95.300	-0.098	0.027
-561.529	800.000	0.043	0.160
-560.515	-14.803	-0.040	0.026
-559.500	-200.000	0.340	0.001
-558.485	84.778	-0.142	0.157
-557.471	-110.577	0.369	-0.077
-556.456	800.000	-0.013	0.055
-555.442	-200.000	-0.009	-0.082
-554.427	-128.722	0.154	-0.022
-553.412	-82.947	0.292	0.095
-552.398	-69.988	0.170	-0.065
-551.383	800.000	0.058	-0.215
-550.369	-34.456	-0.049	-0.027
-549.354	800.000	-0.057	0.175
-548.339	360.272	0.088	-0.177
-547.325	800.000	-0.111	-0.319
-546.310	-2.338	-0.256	-0.181
-545.296	348.703	0.054	-0.108
-544.281	284.264	0.107	-0.194
-543.266	-90.751	-0.349	0.102
-542.252	-35.169	0.404	-0.222
-541.237	532.006	0.093	-0.221
-540.223	800.000	0.041	-0.124
-539.208	-86.223	-0.405	0.126
-538.193	273.097	-0.104	-0.185
-537.179	55.131	-0.233	0.227
-536.164	-200.000	-0.003	-0.137
-535.150	-77.358	-0.150	-0.053
-534.135	-200.000	-0.059	0.278
-533.121	163.717	-0.128	0.182
-532.106	-200.000	0.011	0.079
-531.091	-47.530	-0.217	0.106
-530.077	585.482	0.106	0.264
-529.062	529.162	-0.092	0.220
-528.048	-5.570	0.236	-0.163
-527.033	716.659	-0.061	-0.163
-526.018	-5.109	-0.169	0.117
-525.004	-34.773	-0.374	-0.206
-523.989	34.410	-0.178	-0.157
-522.975	89.895	-0.151	-0.170
-521.960	800.000	-0.031	0.104
-520.945	-131.476	-0.419	-0.056
-519.931	-89.599	0.173	0.051
-518.916	90.638	-0.266	-0.300
-517.902	-47.700	0.158	0.077
-516.887	-155.735	0.177	-0.011
-515.872	-90.755	0.110	0.032
-514.858	-200.000	0.008	-0.192
-513.843	146.054	0.227	0.307
-512.829	94.838	-0.123	0.141
-511.814	-1.859	0.259	-0.183
-510.799	14.484	0.297	-0.233
-509.785	159.472	0.092	-0.129
-508.770	800.000	0.038	-0.143
-507.756	-109.088	0.090	-0.019
-506.741	-6.479	0.207	0.142
-505.726	322.712	0.073	0.139
-504.712	177.563	-0.131	-0.193
-503.697	-83.303	-0.071	0.023
-502.683	335.698	0.030	0.059
-501.668	131.144	0.114	-0.147
-500.653	-200.000	0.003	0.050
-499.639	54.592	0.144	-0.140
-498.624	177.738	-0.187	-0.275
-497.610	379.247	-0.059	0.122
-496.595	170.817	-0.053	-0.076
-495.581	178.688	0.092	0.136
-494.566	-200.000	0.003	0.059
-493.551	-200.000	-0.003	0.289
-492.537	-79.034	-0.277	-0.095
-491.522	-55.481	0.312	-0.141
-490.508	800.000	0.121	0.484
-489.493	-200.000	-0.018	-0.160
-488.478	10.262	-0.354	0.271
-487.464	-200.000	0.050	0.351
-486.449	-109.552	-0.075	-0.016
-485.435	89.930	0.136	-0.153
-484.420	28.320	-0.147	-0.125
-483.405	304.811	-0.173	-0.323
-482.391	61.899	-0.053	0.053
-481.376	-126.299	0.502	-0.075
-480.362	252.770	-0.056	-0.096
-479.347	-124.588	-0.189	-0.029
-478.332	431.438	0.144	-0.314
-477.318	-113.833	-0.271	-0.053
-476.303	122.119	-0.133	0.168
-475.289	759.106	0.097	0.265
-474.274	-95.412	0.103	-0.028
-473.259	124.594	0.080	-0.101
-472.245	47.064	0.080	0.075
-471.230	-142.381	-0.115	0.011
-470.216	-200.000	-0.021	-0.178
-469.201	33.138	0.194	0.169
-468.186	800.000	-0.039	0.149
-467.172	-175.624	-0.276	0.008
-466.157	-115.971	0.223	-0.042
-465.143	-28.784	0.288	0.166
-464.128	50.275	0.059	-0.056
-463.113	800.000	0.061	0.187
-462.099	-80.544	-0.268	0.090
-461.084	85.925	-0.261	-0.289
-460.070	-8.232	-0.198	-0.134
-459.055	-200.000	-0.047	0.225
-458.040	17.086	-0.218	0.174
-457.026	191.319	-0.171	-0.259
-456.011	44.169	0.068	-0.063
-454.997	800.000	0.041	-0.132
-453.982	182.415	-0.156	0.231
-452.968	-39.119	0.207	-0.109
-451.953	53.236	0.163	-0.157
-450.938	28.221	-0.131	-0.111
-449.924	560.734	0.037	-0.089
-448.909	274.340	0.223	-0.397
-447.895	-165.030	0.396	0.018
-446.880	-83.121	-0.224	-0.073
-445.865	181.168	0.075	0.110
-444.851	-135.191	0.219	-0.026
-443.836	-200.000	0.000	-0.049
-442.822	-200.000	-0.015	-0.142
-441.807	-79.815	-0.160	0.054
-440.792	-200.000	-0.064	-0.308
-439.778	-143.833	-0.578	-0.055
-438.763	-200.000	0.073	-0.332
-437.749	-200.000	-0.027	0.194
-436.734	-38.409	0.184	0.098
-435.719	309.361	0.145	-0.272
-434.705	-123.283	0.129	-0.021
-433.690	-200.000	-0.070	-0.355
-432.676	144.240	-0.065	0.087
-431.661	-81.654	0.149	-0.049
-430.646	-40.633	-0.126	-0.066
-429.632	-81.547	-0.236	-0.078
-428.617	18.476	0.150	0.120
-427.603	-150.698	-0.105	-0.008
-426.588	-50.939	0.172	-0.081
-425.573	800.000	-0.080	0.298
-424.559	-129.583	0.359	0.050
-423.544	-26.142	0.103	-0.061
-422.530	-200.000	-0.031	-0.331
-421.515	-10.926	-0.145	0.096
-420.500	-200.000	-0.053	-0.234
-419.486	-200.000	0.008	0.147
-418.471	0.663	0.097	0.069
-417.457	-109.971	0.676	-0.142
-416.442	176.220	0.255	-0.372
-415.428	169.206	0.265	-0.380
-414.413	46.160	0.083	-0.077
-413.398	78.093	-0.096	-0.103
-412.384	-152.674	-0.288	-0.021
-411.369	4.389	-0.202	-0.149
-410.355	22.748	0.228	0.187
-409.340	213.214	0.200	-0.317
-408.325	211.041	0.066	0.104
-407.311	-6.129	0.118	0.081
-406.296	-104.786	0.342	-0.079
-405.282	-200.000	-0.031	0.158
-404.267	800.000	-0.069	-0.206
-403.252	-138.621	-0.081	-0.009
-402.238	-98.190	0.254	0.065
-401.223	-71.118	-0.067	-0.025
-400.209	601.463	-0.059	0.147
-399.194	-200.000	0.008	-0.145
-398.179	56.859	-0.125	0.122
-397.165	-176.416	0.137	-0.004
-396.150	-200.000	-0.071	0.321
-395.136	16.977	0.266	-0.212
-394.121	-200.000	-0.017	0.389
-393.106	357.173	0.150	-0.300
-392.092	-126.782	-0.166	0.025
-391.077	34.132	-0.103	0.090
-390.063	-63.598	0.167	-0.069
-389.048	45.207	0.394	0.364
-388.033	-200.000	-0.013	-0.098
-387.019	71.408	0.133	0.139
-386.004	-52.119	-0.333	0.155
-384.990	-200.000	-0.046	-0.222
-383.975	-200.000	0.041	0.236
-382.960	786.731	-0.065	0.179
-381.946	17.839	0.114	0.091
-380.931	-72.120	0.156	-0.058
-379.917	800.000	0.055	-0.159
-378.902	-200.000	0.008	0.350
-377.888	-121.954	0.334	0.055
-376.873	-200.000	-0.027	0.159
-375.858	-200.000	0.020	-0.122
-374.844	94.808	-0.107	-0.122
-373.829	-83.629	0.160	-0.051
-372.815	-200.000	0.004	-0.029
-371.800	-200.000	-0.020	0.155
-370.785	-106.907	0.151	-0.033
-369.771	-79.895	-0.215	0.072
-368.756	-108.884	-0.179	-0.038
-367.742	158.794	-0.126	-0.176
-366.727	-34.064	-0.143	-0.079
-365.712	-18.680	0.097	0.060
-364.698	-6.830	0.247	-0.168
-363.683	129.902	0.043	0.054
-362.669	-8.348	0.189	0.127
-361.654	28.976	0.273	0.232
-360.639	99.657	-0.129	0.149
-359.625	-61.494	-0.247	0.104
-358.610	404.359	-0.023	0.048
-357.596	304.087	0.190	-0.353
-356.581	-200.000	-0.027	0.189
-355.566	-46.092	-0.294	0.145
-354.552	-118.097	-0.361	-0.065
-353.537	-161.732	0.243	0.012
-352.523	13.276	-0.151	-0.117
-351.508	-200.000	-0.126	0.000
-350.493	421.199	0.152	-0.325
-349.479	-25.526	-0.248	-0.146
-348.464	-79.936	0.536	0.180
-347.450	-47.474	-0.115	-0.056
-346.435	-10.711	-0.132	-0.087
-345.420	-61.320	-0.094	0.040
-344.406	302.424	0.076	0.140
-343.391	339.151	-0.122	-0.238
-342.377	-74.081	0.638	-0.231
-341.362	1.031	-0.133	-0.095
-340.348	325.473	0.254	0.486
-339.333	-200.000	-0.010	-0.129
-338.318	800.000	0.043	-0.138
-337.304	-200.000	-0.023	0.143
-336.289	-114.634	0.236	-0.045
-335.275	-80.982	-0.062	-0.021
-334.260	-75.269	-0.198	-0.071
-333.245	324.905	-0.080	-0.152
-332.231	-5.049	0.266	0.183
-331.216	-82.507	0.365	-0.118
-330.202	2.470	-0.144	0.104
-329.187	800.000	-0.026	-0.077
-328.172	-22.548	-0.090	-0.055
-327.158	-113.264	-0.102	0.020
-326.143	-200.000	0.039	-0.187
-325.129	188.435	0.179	0.267
-324.114	800.000	-0.031	-0.128
-323.099	280.966	0.105	-0.189
-322.085	-92.519	0.312	-0.087
-321.070	-43.910	-0.054	0.027
-320.056	-200.000	-0.011	0.224
-319.041	-117.005	0.118	-0.022
-318.026	44.004	0.166	0.152
-317.012	800.000	0.073	-0.225
-315.997	-102.405	-0.230	0.055
-314.983	-17.658	-0.263	-0.165
-313.968	800.000	-0.008	0.027
-312.953	-2.004	0.124	-0.087
-311.939	82.145	0.217	-0.235
-310.924	-70.257	0.073	0.028
-309.910	67.213	-0.302	-0.308
-308.895	-13.168	-0.129	0.084
-307.880	-79.358	-0.106	-0.036
-306.866	20.179	-0.104	0.084
-305.851	-200.000	0.026	-0.254
-304.837	64.405	-0.081	-0.081
-303.822	-8.126	-0.145	0.097
-302.807	-200.000	0.031	0.297
-301.793	-54.792	0.182	0.082
-300.778	-26.122	0.116	0.068
-299.764	-200.000	-0.008	0.346
-298.749	-146.096	-0.296	-0.026
-297.735	-46.797	-0.205	0.100
-296.720	0.398	0.208	-0.148
-295.705	-78.018	-0.032	0.011
-294.691	800.000	0.107	0.332
-293.676	-200.000	0.043	0.448
-292.662	-96.998	-0.234	-0.061
-291.647	800.000	-0.086	-0.282
-290.632	257.724	0.254	0.437
-289.618	800.000	0.182	0.561
-288.603	532.174	-0.073	-0.172
-287.589	214.452	0.063	-0.100
-286.574	-134.302	-0.307	0.038
-285.559	78.959	-0.105	-0.112
-284.545	161.910	-0.133	0.187
-283.530	-102.662	0.196	0.047
-282.516	-200.000	0.022	-0.240
-281.501	-200.000	-0.018	0.157
-280.486	121.514	0.335	0.417
-279.472	-200.000	0.050	0.262
-278.457	-192.455	-0.151	0.001
-277.443	-96.070	0.180	0.048
-276.428	-116.910	0.252	-0.046
-275.413	-20.326	0.164	-0.101
-274.399	-8.202	-0.099	-0.066
-273.384	208.102	0.069	-0.108
-272.370	-124.132	0.061	-0.010
-271.355	-13.088	-0.303	0.197
-270.340	85.756	-0.168	0.184
-269.326	236.992	-0.049	0.081
-268.311	-64.778	-0.130	-0.053
-267.297	-27.263	-0.103	-0.060
-266.282	132.321	0.087	-0.112
-265.267	-200.000	0.023	-0.145
-264.253	509.896	-0.092	-0.213
-263.238	800.000	-0.157	0.442
-262.224	268.591	-0.298	0.521
-261.209	-46.620	-0.149	-0.073
-260.195	-200.000	-0.017	0.169
-259.180	-17.368	0.164	0.103
-258.165	-86.447	-0.129	-0.040
-257.151	108.779	0.198	0.236
-256.136	-61.199	0.332	-0.140
-255.122	139.779	0.138	-0.182
-254.107	-200.000	0.021	0.102
-253.092	537.345	-0.011	0.026
-252.078	-174.346	-0.209	0.006
-251.063	220.058	-0.046	0.074
-250.049	-59.844	-0.241	-0.103
-249.034	-200.000	0.001	0.318
-248.019	-45.094	0.234	-0.116
-247.005	61.069	0.126	0.124
-245.990	-88.728	-0.120	-0.035
-244.976	800.000	0.060	0.182
-243.961	100.008	-0.043	-0.049
-242.946	-49.722	-0.220	-0.104
-241.932	57.184	-0.217	0.211
-240.917	-132.733	0.246	0.031
-239.903	-18.265	-0.070	0.044
-238.888	-40.092	0.209	0.108
-237.873	82.669	0.103	0.112
-236.859	-191.454	0.117	-0.001
-235.844	319.141	-0.164	-0.310
-234.830	-200.000	0.012	0.101
-233.815	-43.595	-0.114	-0.057
-232.800	64.532	-0.407	-0.409
-231.786	-88.725	-0.146	-0.043
-230.771	89.059	0.246	0.273
-229.757	364.876	-0.125	-0.251
-228.742	-116.436	0.069	0.013
-227.727	800.000	-0.108	0.450
-226.713	-188.084	0.117	0.001
-225.698	-119.602	-0.283	-0.049
-224.684	-89.534	0.275	-0.080
-223.669	800.000	-0.100	-0.344
-222.655	-62.104	-0.184	-0.077
-221.640	237.909	-0.081	0.135
-220.625	15.283	0.237	0.185
-219.611	-200.000	-0.030	-0.276
-218.596	-116.987	0.243	0.044
-217.582	-66.215	-0.196	0.078
-216.567	-36.191	-0.385	0.207
-215.552	-69.712	0.116	-0.044
-214.538	-145.391	-0.184	-0.016
-213.523	63.633	-0.156	-0.156
-212.509	685.946	0.146	-0.379
-211.494	800.000	-0.044	0.131
-210.479	121.828	-0.057	0.071
-209.465	628.739	0.026	-0.065
-208.450	-200.000	0.012	-0.418
-207.436	-200.000	0.016	0.204
-206.421	-200.000	0.010	-0.335
-205.406	263.485	-0.166	0.288
-204.392	5.925	0.195	0.143
-203.377	-180.877	0.358	-0.007
-202.363	-200.000	0.010	-0.184
-201.348	70.606	0.224	0.231
-200.333	349.610	0.161	0.317
-199.319	-106.878	0.073	-0.016
-198.304	433.809	-0.098	0.211
-197.290	-74.186	-0.328	-0.118
-196.275	39.217	0.202	-0.179
-195.260	223.017	0.058	-0.093
-194.246	62.145	0.131	0.130
-193.231	156.549	-0.079	0.108
-192.217	-152.104	-0.283	-0.020
-191.202	124.650	-0.214	-0.268
-190.187	-200.000	0.004	0.134
-189.173	105.627	0.160	-0.188
-188.158	61.987	0.151	0.150
-187.144	-123.695	0.263	0.041
-186.129	40.593	0.200	-0.179
-185.114	125.368	-0.094	0.118
-184.100	45.766	0.241	0.221
-183.085	-200.000	0.025	-0.248
-182.071	-200.000	0.028	-0.183
-181.056	-200.000	0.079	0.345
-180.042	208.248	0.031	0.048
-179.027	-200.000	0.028	-0.217
-178.012	-123.025	0.200	-0.032
-176.998	10.471	0.248	-0.188
-175.983	-34.387	0.072	-0.040
-174.969	-56.024	0.085	0.038
-173.954	800.000	0.052	0.171
-172.939	693.291	-0.123	-0.321
-171.925	661.618	-0.050	0.128
-170.910	91.779	-0.115	0.129
-169.896	-82.339	0.177	-0.057
-168.881	372.060	-0.104	0.209
-167.866	61.443	0.136	0.134
-166.852	330.779	0.109	0.209
-165.837	483.489	0.071	0.161
-164.823	-97.735	0.194	-0.050
-163.808	-45.670	-0.175	0.086
-162.793	-52.234	0.162	0.075
-161.779	-200.000	-0.015	0.185
-160.764	-52.622	-0.277	-0.127
-159.750	-87.501	-0.240	-0.072
-158.735	592.423	-0.096	0.234
-157.720	-21.559	0.222	0.134
-156.706	73.823	0.234	0.244
-155.691	800.000	0.061	-0.172
-154.677	1.078	0.342	0.244
-153.662	-200.000	-0.067	0.313
-152.647	554.530	-0.044	-0.105
-151.633	-200.000	0.016	-0.076
-150.618	106.994	0.287	0.339
-149.604	-75.956	-0.265	-0.093
-148.589	258.933	0.149	-0.254
-147.574	59.874	-0.062	0.061
-146.560	758.201	-0.084	0.225
-145.545	-64.762	-0.099	-0.040
-144.531	800.000	-0.063	0.248
-143.516	-0.497	-0.141	0.099
-142.502	388.121	-0.090	-0.184
-141.487	116.171	0.120	-0.146
-140.472	-200.000	-0.045	0.258
-139.458	209.847	0.144	0.225
-138.443	501.842	-0.062	0.143
-137.429	-121.938	0.222	-0.036
-136.414	800.000	-0.070	0.215
-135.399	-8.593	-0.184	-0.123
-134.385	-15.226	-0.117	-0.074
-133.370	-83.935	-0.250	-0.079
-132.356	29.356	0.134	-0.113
-131.341	-2.162	-0.432	-0.301
-130.326	-110.816	0.154	0.031
-129.312	330.249	-0.082	-0.157
-128.297	-115.866	-0.206	0.038
-127.283	-172.630	-0.100	-0.003
-126.268	-200.000	0.003	-0.050
-125.253	-69.020	-0.255	0.097
-124.239	-200.000	-0.029	0.178
-123.224	-200.000	0.009	0.236
-122.210	-200.000	0.012	0.607
