DTS Sentinel unit serial number:	SN413079Multiplexer serial number:	ORYXHardware model number:	OX4-SRSoftware version number:	ORYX F/W v4.00 Oryx Data Collector v3.7.2.0data status	okinstallation	princeton_trtdifferential loss correction	single-endedforward channel	channel 2reverse channel	N/Adate	2019/09/19time	04:07:35forward acquisition time	60.00reverse acquisition time	0.00gamma	496.2192k internal	0.2352k external	0.2352temperature offset calibration	1.0018default loss term (dB/km)	0.3790temperature slope calibration	1.0000multiplexer offset coefficient	1.0000multiplexer slope coefficient	1.0000fibre end	0.00T internal ref (°C)	20.37T ext. ref 1 (°C)	0.64T ext. ref 2 (°C)	13.92length (m)	temperature (°C)	Stokes	anti-Stokes-747.200	-200.000	0.001	-0.199
-746.185	94.510	0.074	-0.083
-745.171	-200.000	-0.024	0.248
-744.156	111.268	-0.230	0.277
-743.142	99.272	-0.081	-0.093
-742.127	-28.916	-0.343	0.197
-741.112	-200.000	0.011	0.144
-740.098	147.344	-0.016	0.022
-739.083	-76.863	0.323	0.113
-738.069	-103.063	0.377	0.089
-737.054	-64.411	-0.151	0.061
-736.039	-200.000	0.024	-0.221
-735.025	-96.211	-0.236	-0.062
-734.010	-200.000	-0.035	0.294
-732.996	-63.108	-0.449	-0.185
-731.981	-17.016	-0.196	0.123
-730.966	28.926	-0.134	-0.114
-729.952	789.813	0.088	-0.240
-728.937	-200.000	-0.004	-0.117
-727.923	-200.000	0.019	-0.157
-726.908	102.679	0.130	-0.152
-725.894	800.000	-0.060	-0.172
-724.879	269.094	-0.082	0.143
-723.864	-162.743	0.167	-0.008
-722.850	59.061	0.173	0.169
-721.835	800.000	-0.042	0.135
-720.821	-200.000	0.012	0.105
-719.806	204.157	-0.156	0.240
-718.791	45.833	-0.070	0.064
-717.777	-87.991	0.118	-0.035
-716.762	247.889	0.048	-0.081
-715.748	24.394	0.132	0.109
-714.733	-200.000	0.013	0.218
-713.718	292.926	0.114	0.207
-712.704	-160.073	-0.352	0.019
-711.689	579.095	-0.120	0.292
-710.675	114.179	-0.148	0.180
-709.660	-57.787	0.278	-0.121
-708.645	-73.627	0.203	0.074
-707.631	800.000	0.079	0.238
-706.616	206.696	0.169	-0.262
-705.602	91.474	0.113	0.126
-704.587	619.616	-0.113	0.282
-703.572	-68.229	0.146	-0.057
-702.558	42.284	0.191	0.173
-701.543	91.438	-0.179	-0.201
-700.529	-200.000	-0.021	0.173
-699.514	-200.000	0.010	0.213
-698.499	800.000	-0.119	0.422
-697.485	-200.000	0.040	0.345
-696.470	-200.000	0.011	-0.058
-695.456	260.586	-0.205	-0.353
-694.441	-113.264	0.169	-0.033
-693.426	-68.432	0.283	0.109
-692.412	-200.000	-0.006	-0.035
-691.397	343.454	-0.215	-0.419
-690.383	-117.928	-0.254	-0.045
-689.368	766.735	-0.062	-0.167
-688.354	-200.000	-0.037	-0.183
-687.339	-20.207	0.192	-0.118
-686.324	800.000	-0.057	0.204
-685.310	-90.665	-0.322	-0.093
-684.295	-145.584	-0.138	0.012
-683.281	-80.507	0.189	-0.063
-682.266	-16.396	-0.120	0.076
-681.251	-117.779	0.034	0.006
-680.237	-46.864	-0.288	0.140
-679.222	307.341	-0.057	-0.105
-678.208	-200.000	-0.008	-0.204
-677.193	-200.000	0.047	-0.277
-676.178	-200.000	-0.005	-0.214
-675.164	800.000	-0.063	0.174
-674.149	431.686	0.066	-0.143
-673.135	-94.303	0.419	0.114
-672.120	65.264	-0.142	-0.143
-671.105	9.849	0.300	-0.226
-670.091	123.223	0.181	-0.226
-669.076	-37.743	0.218	0.115
-668.062	-96.007	0.108	-0.029
-667.047	239.366	0.012	-0.020
-666.032	-106.832	0.314	-0.069
-665.018	-2.213	0.223	0.155
-664.003	-54.475	-0.192	0.087
-662.989	-30.697	0.101	0.057
-661.974	54.860	-0.252	-0.242
-660.959	-110.827	-0.038	-0.008
-659.945	747.883	-0.117	0.313
-658.930	-126.474	0.126	0.019
-657.916	161.763	0.143	0.199
-656.901	800.000	-0.040	-0.129
-655.886	8.682	0.261	0.195
-654.872	-27.355	-0.091	-0.053
-653.857	161.072	-0.156	-0.217
-652.843	215.851	-0.132	0.209
-651.828	364.446	-0.123	-0.246
-650.814	-26.144	-0.126	-0.073
-649.799	34.006	-0.116	-0.101
-648.784	-66.152	-0.224	0.089
-647.770	800.000	0.041	0.171
-646.755	-47.591	-0.061	-0.029
-645.741	87.558	0.089	-0.098
-644.726	800.000	-0.076	0.258
-643.711	-90.364	-0.283	-0.082
-642.697	-6.547	-0.098	-0.066
-641.682	800.000	0.101	-0.359
-640.668	800.000	-0.085	-0.275
-639.653	17.049	-0.104	-0.082
-638.638	-132.943	0.212	0.027
-637.624	16.486	0.094	-0.074
-636.609	-32.118	-0.245	0.136
-635.595	105.530	0.171	-0.200
-634.580	6.849	-0.267	0.198
-633.565	143.676	-0.097	0.129
-632.551	217.772	0.075	-0.119
-631.536	-114.372	0.261	-0.050
-630.522	-125.485	-0.142	0.022
-629.507	9.224	0.196	-0.147
-628.492	439.836	0.065	0.142
-627.478	-75.182	0.147	0.052
-626.463	-34.384	0.127	-0.069
-625.449	-124.660	0.247	-0.038
-624.434	69.421	-0.132	-0.135
-623.419	-200.000	-0.001	0.020
-622.405	63.341	0.449	0.447
-621.390	112.926	-0.119	-0.143
-620.376	-28.204	0.083	0.048
-619.361	-141.454	0.246	0.025
-618.346	800.000	-0.070	-0.248
-617.332	10.453	-0.097	0.074
-616.317	-84.887	0.279	0.087
-615.303	800.000	-0.042	-0.116
-614.288	-200.000	-0.377	0.001
-613.273	800.000	-0.074	-0.254
-612.259	-200.000	0.032	-0.167
-611.244	-100.987	-0.085	0.021
-610.230	-34.151	0.259	-0.141
-609.215	-200.000	0.053	0.456
-608.201	-80.526	-0.114	0.038
-607.186	-52.732	0.330	-0.151
-606.171	12.524	0.248	-0.190
-605.157	-200.000	0.055	-0.278
-604.142	748.608	0.118	-0.316
-603.128	-50.617	0.116	-0.054
-602.113	-86.536	0.199	-0.061
-601.098	800.000	0.169	-0.564
-600.084	439.606	0.111	0.241
-599.069	103.360	-0.070	-0.081
-598.055	150.881	0.195	-0.264
-597.040	-143.777	0.426	-0.040
-596.025	261.779	-0.124	0.212
-595.011	-200.000	0.022	-0.256
-593.996	53.370	-0.073	-0.070
-592.982	193.946	-0.222	-0.333
-591.967	-66.859	0.115	-0.045
-590.952	38.030	0.171	0.151
-589.938	360.523	0.115	0.229
-588.923	111.129	0.324	0.387
-587.909	800.000	-0.085	-0.278
-586.894	-200.000	0.005	-0.250
-585.879	-200.000	0.003	0.198
-584.865	-150.459	0.367	-0.028
-583.850	-200.000	-0.004	-0.087
-582.836	-136.472	-0.354	0.041
-581.821	446.613	0.088	-0.192
-580.806	800.000	-0.042	0.176
-579.792	-0.986	-0.241	-0.169
-578.777	-118.322	-0.182	0.032
-577.763	78.814	-0.083	0.088
-576.748	83.850	0.128	0.138
-575.733	17.792	0.269	-0.212
-574.719	-79.381	0.119	0.040
-573.704	-67.489	0.165	0.064
-572.690	280.171	0.168	-0.297
-571.675	92.237	-0.191	-0.213
-570.661	-68.247	0.096	-0.037
-569.646	-29.773	0.368	0.208
-568.631	-200.000	0.036	0.219
-567.617	66.206	-0.071	0.072
-566.602	40.255	0.257	0.229
-565.588	-2.275	0.164	0.114
-564.573	800.000	0.059	0.168
-563.558	168.242	-0.190	-0.268
-562.544	-127.612	-0.328	-0.047
-561.529	-74.765	0.133	0.047
-560.515	588.750	0.041	-0.099
-559.500	5.982	0.210	0.154
-558.485	-200.000	0.235	-0.001
-557.471	201.012	0.127	-0.194
-556.456	-21.480	0.321	0.194
-555.442	-144.144	0.087	0.008
-554.427	800.000	-0.074	-0.302
-553.412	-200.000	-0.013	-0.124
-552.398	93.765	-0.169	-0.189
-551.383	75.411	-0.122	0.127
-550.369	-25.614	0.349	-0.204
-549.354	-48.954	-0.095	0.045
-548.339	-123.264	0.256	0.041
-547.325	-200.000	-0.001	-0.043
-546.310	84.622	-0.144	0.156
-545.296	800.000	0.062	-0.231
-544.281	4.268	-0.017	0.012
-543.266	466.129	-0.113	-0.251
-542.252	40.265	0.310	0.276
-541.237	-59.362	-0.178	0.076
-540.223	-200.000	0.009	0.194
-539.208	-83.102	0.138	0.044
-538.193	-21.794	0.191	0.115
-537.179	-200.000	-0.059	0.325
-536.164	-87.895	-0.364	-0.108
-535.150	-98.220	-0.237	-0.060
-534.135	479.574	-0.031	0.070
-533.121	9.392	0.308	0.230
-532.106	-57.329	-0.150	0.065
-531.091	-0.610	0.126	-0.088
-530.077	218.693	-0.109	-0.173
-529.062	-61.457	-0.426	0.177
-528.048	-200.000	-0.010	-0.091
-527.033	-129.065	-0.065	0.009
-526.018	-76.055	0.055	0.019
-525.004	527.240	-0.076	-0.177
-523.989	40.181	-0.297	0.264
-522.975	-200.000	0.014	0.138
-521.960	226.911	-0.249	0.400
-520.945	-100.476	-0.310	0.076
-519.931	-102.464	0.312	-0.074
-518.916	524.906	-0.052	-0.121
-517.902	-64.826	0.150	-0.060
-516.887	-109.279	-0.508	-0.107
-515.872	-24.886	-0.086	-0.050
-514.858	16.442	-0.422	-0.330
-513.843	10.645	0.242	0.182
-512.829	119.072	0.170	0.208
-511.814	-200.000	0.003	0.040
-510.799	-200.000	0.010	-0.118
-509.785	800.000	-0.074	-0.221
-508.770	-2.294	-0.076	0.052
-507.756	208.322	0.128	-0.198
-506.741	-123.717	-0.116	-0.018
-505.726	-158.489	-0.343	-0.020
-504.712	800.000	0.114	0.374
-503.697	800.000	0.084	0.283
-502.683	800.000	0.031	-0.096
-501.668	-70.335	-0.241	-0.090
-500.653	-200.000	-0.025	-0.343
-499.639	-2.593	-0.326	0.226
-498.624	40.872	-0.149	0.133
-497.610	-32.775	-0.288	-0.158
-496.595	629.601	-0.053	0.131
-495.581	183.957	0.109	-0.160
-494.566	-200.000	-0.019	-0.372
-493.551	800.000	-0.072	-0.218
-492.537	3.571	-0.230	0.166
-491.522	30.553	0.255	0.216
-490.508	-6.166	-0.203	0.137
-489.493	800.000	-0.089	0.283
-488.478	800.000	0.063	-0.262
-487.464	162.486	-0.201	-0.279
-486.449	115.726	-0.136	-0.164
-485.435	713.180	0.069	-0.181
-484.420	52.919	0.023	0.022
-483.405	-2.790	0.095	-0.065
-482.391	131.401	-0.052	-0.066
-481.376	101.236	0.232	-0.267
-480.362	112.749	-0.035	-0.042
-479.347	246.854	-0.158	-0.263
-478.332	-105.658	-0.175	0.039
-477.318	-200.000	0.005	0.046
-476.303	800.000	0.097	0.282
-475.289	413.578	-0.054	0.113
-474.274	140.939	-0.082	-0.107
-473.259	-200.000	-0.021	0.121
-472.245	800.000	0.062	0.244
-471.230	-200.000	-0.038	-0.329
-470.216	134.913	-0.132	-0.170
-469.201	800.000	0.076	0.246
-468.186	-200.000	-0.006	0.186
-467.172	20.964	-0.263	-0.210
-466.157	-14.766	-0.115	-0.073
-465.143	-114.023	-0.193	0.037
-464.128	-124.289	-0.238	0.037
-463.113	800.000	-0.115	-0.370
-462.099	163.130	-0.112	0.156
-461.084	56.652	0.085	-0.082
-460.070	60.037	-0.096	-0.094
-459.055	-48.055	-0.288	0.137
-458.040	-178.777	-0.204	-0.005
-457.026	-76.948	-0.185	-0.064
-456.011	-27.365	-0.326	0.187
-454.997	159.677	0.271	-0.372
-453.982	111.700	0.204	0.243
-452.968	-200.000	-0.034	0.170
-451.953	96.042	-0.041	0.046
-450.938	-200.000	0.033	-0.278
-449.924	800.000	-0.025	0.086
-448.909	-106.746	-0.302	-0.066
-447.895	18.075	0.245	-0.193
-446.880	-200.000	-0.005	0.122
-445.865	24.338	-0.127	-0.103
-444.851	5.270	-0.277	0.202
-443.836	-200.000	0.019	-0.110
-442.822	-9.819	0.258	0.169
-441.807	78.458	0.240	-0.253
-440.792	-154.729	-0.175	-0.011
-439.778	516.599	-0.088	-0.204
-438.763	-200.000	0.035	0.387
-437.749	352.620	-0.027	0.054
-436.734	23.134	0.087	0.070
-435.719	-66.220	0.329	-0.129
-434.705	-200.000	-0.000	-0.039
-433.690	-51.215	-0.330	0.152
-432.676	-100.640	0.072	-0.018
-431.661	-91.042	0.103	-0.029
-430.646	-21.939	-0.316	0.189
-429.632	-200.000	-0.064	0.312
-428.617	-35.087	-0.094	-0.050
-427.603	-13.452	0.279	0.178
-426.588	123.547	0.175	0.216
-425.573	16.594	0.041	-0.032
-424.559	65.327	0.124	-0.123
-423.544	336.796	-0.191	-0.366
-422.530	-200.000	0.051	0.429
-421.515	-21.410	-0.338	0.203
-420.500	800.000	0.072	-0.259
-419.486	-113.179	0.031	0.006
-418.471	222.481	0.101	0.160
-417.457	-200.000	-0.020	0.348
-416.442	75.006	0.312	-0.324
-415.428	-24.417	0.108	-0.063
-414.413	176.284	0.177	0.254
-413.398	-136.680	-0.184	-0.021
-412.384	32.597	0.252	0.214
-411.369	149.254	-0.027	-0.037
-410.355	-122.872	0.317	0.050
-409.340	-111.562	-0.122	-0.024
-408.325	88.948	0.081	-0.088
-407.311	344.890	0.067	-0.130
-406.296	-126.322	-0.184	-0.027
-405.282	800.000	-0.032	-0.121
-404.267	-116.312	-0.051	-0.009
-403.252	220.534	0.167	0.264
-402.238	280.731	-0.073	0.128
-401.223	37.167	-0.303	0.264
-400.209	197.773	-0.157	0.236
-399.194	-200.000	0.034	0.229
-398.179	534.524	-0.086	-0.201
-397.165	-75.383	0.515	-0.180
-396.150	35.339	-0.141	-0.122
-395.136	800.000	0.061	0.243
-394.121	-2.448	-0.225	0.155
-393.106	-163.191	-0.317	-0.015
-392.092	282.846	-0.068	-0.120
-391.077	58.197	0.036	-0.035
-390.063	-46.175	0.211	0.102
-389.048	-53.769	-0.097	0.044
-388.033	195.582	0.182	0.273
-387.019	54.620	-0.174	-0.165
-386.004	137.685	0.207	0.267
-384.990	405.823	-0.076	0.158
-383.975	800.000	0.059	-0.164
-382.960	-53.566	0.295	-0.133
-381.946	-103.077	-0.201	-0.047
-380.931	434.823	-0.212	0.454
-379.917	-83.747	-0.166	-0.052
-378.902	287.603	-0.055	0.098
-377.888	-162.836	0.208	-0.010
-376.873	-200.000	-0.019	0.109
-375.858	-82.424	0.306	0.098
-374.844	-100.859	0.140	-0.034
-373.829	118.988	-0.039	0.048
-372.815	800.000	-0.064	-0.185
-371.800	572.727	0.042	0.101
-370.785	-144.793	-0.298	0.027
-369.771	119.423	-0.090	0.110
-368.756	-96.322	0.223	-0.058
-367.742	27.466	0.026	0.022
-366.727	-59.155	0.099	0.042
-365.712	-200.000	0.072	-0.357
-364.698	622.974	0.107	-0.265
-363.683	72.090	-0.219	0.224
-362.669	-105.585	0.131	-0.029
-361.654	-200.000	-0.021	0.235
-360.639	-115.635	0.208	-0.038
-359.625	800.000	-0.083	0.248
-358.610	-21.674	0.228	0.136
-357.596	-90.394	0.158	-0.045
-356.581	-200.000	-0.055	-0.284
-355.566	-76.211	-0.087	-0.030
-354.552	-71.658	-0.219	0.080
-353.537	-191.825	0.204	-0.002
-352.523	800.000	-0.019	0.073
-351.508	265.576	-0.179	-0.307
-350.493	-15.839	0.190	-0.119
-349.479	-57.431	-0.363	0.157
-348.464	-154.393	0.524	0.035
-347.450	45.747	-0.227	0.206
-346.435	-163.900	0.143	0.007
-345.420	626.754	0.107	0.265
-344.406	-200.000	0.010	0.080
-343.391	281.995	0.124	0.218
-342.377	-106.523	-0.382	-0.084
-341.362	319.704	0.113	0.211
-340.348	800.000	0.092	0.254
-339.333	-115.730	-0.226	-0.042
-338.318	131.297	0.109	-0.137
-337.304	-200.000	0.064	-0.483
-336.289	244.257	0.240	-0.396
-335.275	115.133	-0.251	-0.301
-334.260	-92.355	-0.283	0.078
-333.245	-200.000	0.028	0.123
-332.231	-90.546	-0.141	-0.040
-331.216	502.695	0.157	0.357
-330.202	-70.642	0.188	-0.070
-329.187	800.000	-0.061	-0.170
-328.172	330.114	-0.109	-0.206
-327.158	-103.524	-0.168	-0.039
-326.143	51.637	0.093	-0.086
-325.129	587.343	-0.119	0.288
-324.114	94.103	0.282	0.314
-323.099	39.999	-0.209	-0.185
-322.085	248.756	-0.118	-0.196
-321.070	-124.320	-0.070	-0.011
-320.056	-126.742	0.215	0.031
-319.041	43.385	0.064	0.057
-318.026	-72.469	0.076	-0.028
-317.012	30.724	0.017	-0.014
-315.997	-30.169	0.222	0.124
-314.983	-200.000	0.016	-0.103
-313.968	188.574	-0.083	0.122
-312.953	61.312	-0.096	-0.094
-311.939	131.219	0.133	0.167
-310.924	-128.065	-0.475	0.067
-309.910	111.421	0.112	0.132
-308.895	718.800	0.110	-0.286
-307.880	800.000	-0.039	-0.135
-306.866	144.568	0.210	0.275
-305.851	378.975	0.070	-0.140
-304.837	-115.945	0.300	0.055
-303.822	-60.872	-0.320	0.133
-302.807	-177.874	0.166	-0.004
-301.793	148.543	0.039	-0.052
-300.778	-75.427	-0.125	-0.044
-299.764	-134.950	-0.369	-0.044
-298.749	800.000	-0.047	-0.194
-297.735	-146.194	0.351	-0.030
-296.720	-19.257	0.137	-0.083
-295.705	-116.362	-0.125	0.023
-294.691	-102.371	-0.128	0.030
-293.676	251.962	-0.164	-0.274
-292.662	800.000	0.073	0.266
-291.647	82.936	0.161	-0.171
-290.632	800.000	0.066	0.186
-289.618	-72.019	0.369	0.134
-288.603	-169.172	0.066	-0.002
-287.589	64.993	0.124	0.122
-286.574	105.575	0.281	-0.326
-285.559	335.542	0.073	0.139
-284.545	75.427	0.146	0.151
-283.530	800.000	-0.109	-0.295
-282.516	619.756	-0.105	-0.257
-281.501	156.348	0.220	0.297
-280.486	132.987	0.272	0.344
-279.472	52.520	-0.227	0.213
-278.457	-34.286	-0.098	0.053
-277.443	-200.000	0.030	0.129
-276.428	800.000	-0.047	-0.195
-275.413	-89.171	0.392	-0.113
-274.399	206.706	0.089	-0.135
-273.384	-142.137	-0.087	0.008
-272.370	-158.980	0.236	-0.013
-271.355	800.000	-0.060	-0.234
-270.340	800.000	0.076	-0.227
-269.326	150.658	-0.108	-0.144
-268.311	304.999	-0.103	0.187
-267.297	-200.000	0.015	0.113
-266.282	510.258	-0.107	-0.244
-265.267	-200.000	-0.035	-0.208
-264.253	-102.844	0.109	0.025
-263.238	-10.224	-0.268	-0.174
-262.224	113.211	0.271	-0.321
-261.209	800.000	-0.058	0.222
-260.195	-103.143	-0.162	-0.038
-259.180	-200.000	-0.006	0.484
-258.165	152.105	-0.191	-0.254
-257.151	-47.704	0.162	0.077
-256.136	-200.000	0.057	0.247
-255.122	-200.000	-0.030	-0.224
-254.107	1.292	0.142	0.100
-253.092	800.000	-0.126	-0.452
-252.078	-45.011	-0.162	0.079
-251.063	800.000	0.068	-0.221
-250.049	548.102	0.078	0.184
-249.034	-29.340	-0.202	0.113
-248.019	800.000	-0.038	0.156
-247.005	113.429	-0.126	-0.150
-245.990	-104.616	-0.179	0.040
-244.976	491.915	0.119	-0.267
-243.961	543.891	-0.054	-0.127
-242.946	-200.000	0.009	0.155
-241.932	121.326	-0.263	0.320
-240.917	127.781	0.108	0.135
-239.903	89.016	0.061	0.066
-238.888	-200.000	-0.019	0.299
-237.873	-55.290	-0.280	0.123
-236.859	-99.418	-0.241	0.059
-235.844	-114.517	-0.178	0.033
-234.830	-200.000	0.092	-0.398
-233.815	800.000	-0.042	0.150
-232.800	-93.035	0.261	0.071
-231.786	-126.156	-0.271	0.040
-230.771	89.166	0.069	0.075
-229.757	800.000	-0.038	0.149
-228.742	165.877	-0.232	0.322
-227.727	132.222	-0.200	-0.252
-226.713	41.319	-0.110	0.097
-225.698	-51.184	0.238	-0.109
-224.684	782.484	0.062	0.167
-223.669	697.106	-0.086	0.221
-222.655	-86.248	-0.055	0.017
-221.640	-155.090	-0.360	-0.023
-220.625	-200.000	-0.043	-0.191
-219.611	-86.482	0.160	0.048
-218.596	191.134	0.118	0.174
-217.582	-200.000	0.013	-0.065
-216.567	-200.000	0.029	-0.161
-215.552	133.428	-0.059	0.075
-214.538	539.681	0.118	0.273
-213.523	69.538	-0.120	0.121
-212.509	-107.513	-0.079	-0.017
-211.494	-179.859	0.151	-0.003
-210.479	176.857	0.134	-0.190
-209.465	107.834	-0.120	0.139
-208.450	-152.215	0.082	0.006
-207.436	-121.177	-0.169	-0.028
-206.421	-200.000	-0.030	-0.130
-205.406	-21.539	-0.163	0.097
-204.392	-24.431	-0.139	-0.081
-203.377	150.140	0.080	-0.106
-202.363	800.000	0.046	0.178
-201.348	-17.472	-0.058	-0.036
-200.333	-30.353	-0.040	-0.022
-199.319	356.590	0.159	-0.310
-198.304	-200.000	0.016	-0.106
-197.290	50.768	0.103	0.096
-196.275	-200.000	0.004	-0.149
-195.260	-61.736	-0.172	0.071
-194.246	800.000	0.105	0.328
-193.231	358.128	-0.101	0.197
-192.217	-133.322	0.265	-0.033
-191.202	-4.936	0.173	-0.116
-190.187	-35.622	-0.220	-0.117
-189.173	800.000	-0.111	-0.330
-188.158	305.033	0.065	-0.117
-187.144	800.000	-0.143	-0.389
-186.129	760.385	-0.066	0.176
-185.114	-78.499	0.406	-0.136
-184.100	-50.240	0.139	-0.064
-183.085	164.825	-0.117	-0.162
-182.071	-200.000	-0.015	0.090
-181.056	-70.397	0.408	0.151
-180.042	425.049	-0.061	0.129
-179.027	230.947	0.164	0.262
-178.012	800.000	0.049	-0.156
-176.998	-120.838	0.073	-0.012
-175.983	-128.166	-0.067	0.009
-174.969	66.653	-0.261	-0.259
-173.954	-200.000	0.004	-0.522
-172.939	-8.341	-0.248	-0.163
-171.925	800.000	0.006	0.025
-170.910	-146.267	-0.252	-0.022
-169.896	-69.607	0.170	-0.063
-168.881	-101.590	0.259	-0.061
-167.866	-133.638	-0.214	0.026
-166.852	-200.000	-0.040	0.199
-165.837	-142.595	0.154	-0.015
-164.823	79.634	-0.143	0.149
-163.808	-22.902	0.223	0.131
-162.793	-6.538	0.239	0.159
-161.779	-164.115	0.200	-0.009
-160.764	51.263	-0.346	0.320
-159.750	-15.688	0.159	-0.099
-158.735	-41.111	0.139	-0.070
-157.720	-2.007	0.093	0.064
-156.706	50.291	-0.264	-0.243
-155.691	-117.199	-0.094	-0.017
-154.677	491.450	0.028	0.063
-153.662	264.578	0.203	0.345
-152.647	542.271	-0.072	0.168
-151.633	332.935	-0.198	0.372
-150.618	-69.612	0.339	0.126
-149.604	16.285	0.114	0.088
-148.589	77.383	-0.079	-0.082
-147.574	-5.492	0.090	0.060
-146.560	-82.358	0.385	0.122
-145.545	-200.000	0.012	0.099
-144.531	-73.072	0.415	-0.148
-143.516	800.000	0.153	-0.412
-142.502	-200.000	-0.006	0.062
-141.487	118.863	-0.184	-0.221
-140.472	-200.000	0.092	-0.463
-139.458	-90.493	0.301	-0.085
-138.443	251.109	-0.213	-0.353
-137.429	-200.000	0.033	0.157
-136.414	-200.000	0.035	-0.405
-135.399	800.000	-0.056	0.212
-134.385	-71.306	0.096	-0.035
-133.370	-200.000	-0.020	0.182
-132.356	-1.035	0.192	0.132
-131.341	-200.000	-0.004	0.034
-130.326	208.314	-0.200	-0.305
-129.312	500.765	-0.092	-0.207
-128.297	281.978	-0.142	-0.248
-127.283	-176.633	-0.237	-0.006
-126.268	26.449	-0.346	0.281
-125.253	800.000	-0.032	-0.120
-124.239	624.637	0.083	-0.204
-123.224	43.239	-0.215	0.191
-122.210	-152.080	0.304	-0.022
-121.195	-115.685	-0.176	-0.032
