DTS Sentinel unit serial number:	SN413079Multiplexer serial number:	ORYXHardware model number:	OX4-SRSoftware version number:	ORYX F/W v4.00 Oryx Data Collector v3.7.2.0data status	okinstallation	princeton_trtdifferential loss correction	single-endedforward channel	channel 2reverse channel	N/Adate	2019/09/12time	20:35:34forward acquisition time	60.00reverse acquisition time	0.00gamma	496.2192k internal	0.2327k external	0.2327temperature offset calibration	1.0180default loss term (dB/km)	0.3790temperature slope calibration	1.0000multiplexer offset coefficient	1.0000multiplexer slope coefficient	1.0000fibre end	0.00T internal ref (°C)	31.19T ext. ref 1 (°C)	3.68T ext. ref 2 (°C)	25.78length (m)	temperature (°C)	Stokes	anti-Stokes-747.200	-35.434	0.064	0.035
-746.185	109.386	-0.091	0.109
-745.171	-175.480	-0.098	-0.003
-744.156	-40.910	0.044	-0.023
-743.142	110.853	0.251	-0.305
-742.127	-130.644	-0.133	-0.018
-741.112	-84.647	-0.179	-0.057
-740.098	-20.693	0.428	0.265
-739.083	-200.000	0.001	-0.080
-738.069	689.836	0.049	0.129
-737.054	800.000	0.091	-0.308
-736.039	397.308	-0.060	0.126
-735.025	-200.000	0.009	-0.098
-734.010	-71.073	-0.366	-0.139
-732.996	800.000	0.080	-0.264
-731.981	-76.768	-0.267	0.094
-730.966	121.754	-0.077	0.097
-729.952	170.302	-0.183	0.264
-728.937	-119.696	-0.201	0.035
-727.923	122.232	-0.035	0.044
-726.908	-116.821	-0.183	-0.034
-725.894	466.446	0.055	-0.125
-724.879	302.705	-0.030	0.055
-723.864	183.547	0.011	-0.016
-722.850	800.000	-0.043	0.173
-721.835	-47.578	-0.190	-0.093
-720.821	-36.061	0.180	0.098
-719.806	250.392	0.080	0.138
-718.791	489.547	-0.096	-0.221
-717.777	-200.000	-0.043	-0.306
-716.762	118.941	0.106	-0.132
-715.748	44.975	0.097	-0.090
-714.733	-200.000	-0.022	0.211
-713.718	-46.406	-0.039	0.019
-712.704	314.917	-0.064	0.121
-711.689	-41.746	0.109	0.056
-710.675	-200.000	0.058	-0.460
-709.660	-200.000	0.025	0.349
-708.645	-7.601	0.127	-0.086
-707.631	313.089	0.051	-0.096
-706.616	800.000	0.087	-0.256
-705.602	800.000	-0.029	0.100
-704.587	-30.206	-0.195	-0.112
-703.572	-155.730	-0.282	0.018
-702.558	-191.021	-0.239	0.003
-701.543	-36.187	0.226	-0.123
-700.529	-200.000	-0.014	0.315
-699.514	-200.000	-0.028	0.127
-698.499	-82.399	-0.198	-0.065
-697.485	-144.397	-0.390	0.036
-696.470	-89.576	0.133	-0.039
-695.456	-57.274	0.180	0.080
-694.441	800.000	-0.101	0.300
-693.426	-51.239	-0.131	0.062
-692.412	800.000	0.092	-0.298
-691.397	-75.221	-0.205	-0.074
-690.383	71.295	-0.134	-0.140
-689.368	643.972	0.156	-0.400
-688.354	-84.228	-0.017	0.005
-687.339	715.520	0.055	-0.146
-686.324	186.869	-0.191	-0.286
-685.310	-200.000	0.016	0.239
-684.295	-28.416	0.079	-0.046
-683.281	800.000	0.054	0.229
-682.266	-87.349	0.239	0.073
-681.251	-24.116	0.140	-0.084
-680.237	303.234	0.204	-0.381
-679.222	-66.734	0.256	0.102
-678.208	-141.708	-0.239	-0.024
-677.193	-200.000	0.055	-0.266
-676.178	-200.000	-0.052	-0.296
-675.164	67.532	-0.148	0.152
-674.149	50.610	-0.093	-0.088
-673.135	172.532	-0.076	-0.110
-672.120	-68.301	-0.239	-0.093
-671.105	37.454	-0.171	0.153
-670.091	800.000	0.045	-0.138
-669.076	-180.363	-0.265	0.006
-668.062	184.207	0.170	0.253
-667.047	-1.539	-0.164	-0.116
-666.032	-130.693	-0.318	-0.043
-665.018	19.277	-0.145	0.117
-664.003	339.571	0.145	-0.285
-662.989	21.790	-0.140	-0.115
-661.974	800.000	-0.085	-0.250
-660.959	34.451	0.240	0.211
-659.945	-200.000	0.058	0.366
-658.930	-146.365	-0.399	-0.035
-657.916	-106.435	-0.369	-0.083
-656.901	-200.000	0.076	0.451
-655.886	32.985	-0.241	0.210
-654.872	124.756	-0.084	0.107
-653.857	-99.721	-0.229	-0.058
-652.843	35.857	-0.236	-0.208
-651.828	-200.000	-0.002	0.257
-650.814	279.843	-0.154	-0.276
-649.799	-200.000	0.053	-0.325
-648.784	-112.546	0.115	0.023
-647.770	-200.000	-0.226	0.001
-646.755	-200.000	0.026	-0.246
-645.741	716.145	0.124	0.331
-644.726	800.000	0.043	-0.135
-643.711	800.000	-0.144	-0.465
-642.697	-145.336	-0.233	0.021
-641.682	-200.000	0.004	0.119
-640.668	800.000	0.045	0.184
-639.653	-41.368	0.264	0.137
-638.638	-23.161	-0.081	0.049
-637.624	73.457	0.146	0.154
-636.609	-90.059	0.230	-0.067
-635.595	157.272	-0.170	-0.236
-634.580	-126.919	-0.107	-0.016
-633.565	-128.729	0.332	0.047
-632.551	279.419	0.138	-0.247
-631.536	30.131	-0.267	-0.229
-630.522	341.013	0.120	-0.235
-629.507	354.691	0.151	-0.302
-628.492	800.000	-0.046	-0.196
-627.478	-9.894	-0.210	-0.140
-626.463	-200.000	0.044	-0.250
-625.449	800.000	0.064	-0.211
-624.434	-13.835	-0.061	-0.040
-623.419	-128.263	-0.120	0.017
-622.405	800.000	0.024	0.082
-621.390	-52.952	-0.228	0.105
-620.376	-3.094	-0.221	-0.155
-619.361	466.870	-0.042	0.094
-618.346	223.509	-0.120	0.194
-617.332	-112.476	0.155	0.031
-616.317	111.417	0.134	0.162
-615.303	580.968	0.133	-0.327
-614.288	-20.473	0.136	-0.084
-613.273	36.719	0.109	0.097
-612.259	361.798	0.155	0.311
-611.244	232.477	0.005	-0.009
-610.230	30.933	-0.064	-0.055
-609.215	-200.000	-0.008	0.229
-608.201	404.851	-0.163	-0.345
-607.186	-71.301	-0.173	0.065
-606.171	-37.581	-0.071	0.038
-605.157	-200.000	-0.060	-0.369
-604.142	-200.000	-0.003	-0.262
-603.128	-200.000	0.009	-0.143
-602.113	22.690	-0.066	-0.054
-601.098	-68.232	0.371	0.145
-600.084	-73.172	-0.156	0.057
-599.069	116.447	0.042	-0.052
-598.055	-0.492	0.171	0.122
-597.040	492.564	-0.051	-0.117
-596.025	800.000	-0.086	0.374
-595.011	800.000	0.065	0.270
-593.996	315.250	-0.020	0.038
-592.982	-135.930	-0.092	-0.011
-591.967	-67.710	-0.224	0.088
-590.952	-105.149	-0.406	0.093
-589.938	-96.177	-0.311	0.083
-588.923	-38.698	0.302	-0.160
-587.909	-51.691	-0.175	0.082
-586.894	-163.799	0.069	0.003
-585.879	74.213	-0.212	-0.223
-584.865	800.000	0.042	0.122
-583.850	-71.950	-0.115	-0.043
-582.836	-41.798	-0.049	0.025
-581.821	-8.445	-0.094	0.063
-580.806	-70.138	0.073	0.028
-579.792	-58.103	0.261	-0.114
-578.777	47.667	0.191	-0.179
-577.763	671.016	-0.034	0.087
-576.748	-78.462	-0.041	0.014
-575.733	-34.576	-0.183	0.100
-574.719	188.458	0.127	0.191
-573.704	-200.000	-0.009	0.322
-572.690	-103.172	-0.169	0.040
-571.675	248.410	0.029	0.049
-570.661	-86.087	0.063	0.020
-569.646	-200.000	0.000	-0.129
-568.631	120.956	-0.328	-0.409
-567.617	-200.000	-0.294	0.000
-566.602	219.457	0.164	-0.263
-565.588	-92.337	-0.087	0.025
-564.573	800.000	0.068	-0.272
-563.558	48.126	0.088	-0.082
-562.544	148.319	-0.083	-0.113
-561.529	465.572	-0.138	0.309
-560.515	800.000	0.078	0.319
-559.500	453.147	0.030	0.067
-558.485	128.499	-0.016	0.021
-557.471	-200.000	-0.003	0.134
-556.456	673.155	0.086	0.223
-555.442	42.786	0.295	-0.269
-554.427	-200.000	-0.016	-0.093
-553.412	4.997	-0.248	0.182
-552.398	-200.000	0.030	0.195
-551.383	92.655	0.159	-0.179
-550.369	-7.622	0.133	0.090
-549.354	-62.181	-0.181	-0.075
-548.339	44.391	0.114	-0.105
-547.325	800.000	-0.019	-0.075
-546.310	207.403	0.084	-0.131
-545.296	34.912	-0.133	-0.116
-544.281	-116.815	0.493	-0.090
-543.266	-200.000	0.017	0.129
-542.252	67.499	-0.128	0.131
-541.237	4.355	0.183	-0.134
-540.223	-34.918	0.163	-0.089
-539.208	-200.000	0.005	-0.572
-538.193	-200.000	0.025	-0.147
-537.179	-200.000	-0.007	0.099
-536.164	60.859	0.066	0.066
-535.150	-200.000	0.011	0.204
-534.135	116.312	0.175	-0.214
-533.121	800.000	0.043	-0.161
-532.106	-170.491	-0.345	-0.012
-531.091	-96.818	-0.202	0.053
-530.077	-162.585	-0.274	-0.014
-529.062	111.435	-0.117	0.141
-528.048	-166.590	-0.407	-0.017
-527.033	7.156	0.122	-0.091
-526.018	117.658	-0.138	0.170
-525.004	206.157	-0.183	0.284
-523.989	-13.586	-0.296	0.192
-522.975	331.636	-0.060	0.115
-521.960	5.016	0.176	0.129
-520.945	-68.995	0.329	-0.127
-519.931	-200.000	-0.019	-0.393
-518.916	-200.000	-0.005	0.184
-517.902	-200.000	-0.009	-0.210
-516.887	84.454	-0.186	-0.203
-515.872	4.546	-0.040	-0.029
-514.858	-200.000	0.006	0.054
-513.843	69.621	0.124	-0.128
-512.829	-109.745	-0.170	-0.036
-511.814	109.748	-0.078	0.094
-510.799	51.389	-0.024	-0.023
-509.785	-117.189	-0.352	0.064
-508.770	800.000	-0.089	0.371
-507.756	-42.792	-0.270	0.137
-506.741	324.421	-0.032	0.062
-505.726	-10.281	0.229	0.152
-504.712	-53.052	0.066	-0.030
-503.697	441.283	-0.033	-0.072
-502.683	474.111	0.088	-0.197
-501.668	-55.616	0.235	0.105
-500.653	4.485	-0.347	-0.254
-499.639	800.000	-0.055	0.187
-498.624	184.667	0.099	0.147
-497.610	294.654	-0.083	0.151
-496.595	-187.766	0.243	0.003
-495.581	800.000	0.050	-0.163
-494.566	710.543	-0.144	-0.379
-493.551	-200.000	-0.013	0.288
-492.537	-97.510	0.438	0.114
-491.522	165.442	-0.181	-0.255
-490.508	-200.000	0.023	-0.118
-489.493	104.070	0.082	-0.096
-488.478	279.797	-0.025	0.045
-487.464	-69.651	-0.059	-0.023
-486.449	150.128	0.082	0.111
-485.435	741.698	-0.044	-0.118
-484.420	-92.447	0.255	-0.072
-483.405	-90.038	-0.081	-0.023
-482.391	-39.641	-0.228	-0.119
-481.376	121.011	-0.114	-0.141
-480.362	-112.023	-0.346	-0.070
-479.347	-38.860	-0.075	0.040
-478.332	-15.362	-0.075	-0.048
-477.318	86.723	0.192	-0.211
-476.303	397.305	0.050	0.105
-475.289	-200.000	0.046	0.467
-474.274	-200.000	-0.052	0.367
-473.259	-67.380	-0.501	-0.196
-472.245	92.188	0.091	0.103
-471.230	-200.000	0.037	0.168
-470.216	800.000	0.068	-0.229
-469.201	69.391	0.110	-0.113
-468.186	173.477	0.087	-0.125
-467.172	800.000	-0.070	0.265
-466.157	-126.795	-0.226	0.033
-465.143	-139.573	-0.115	0.012
-464.128	-200.000	0.017	-0.120
-463.113	-133.853	0.278	-0.034
-462.099	63.130	0.101	0.101
-461.084	81.687	0.194	0.209
-460.070	140.576	-0.100	-0.131
-459.055	124.570	0.147	-0.184
-458.040	82.846	-0.192	-0.208
-457.026	-200.000	0.008	-0.044
-456.011	-194.291	-0.193	-0.002
-454.997	-50.201	0.044	0.021
-453.982	-34.628	-0.152	-0.083
-452.968	-200.000	-0.061	-0.564
-451.953	-76.333	0.175	-0.061
-450.938	385.003	0.119	-0.245
-449.924	549.533	0.057	-0.136
-448.909	-200.000	0.057	0.000
-447.895	251.543	-0.149	-0.253
-446.880	-21.051	-0.147	-0.090
-445.865	33.732	-0.227	0.197
-444.851	-138.071	0.319	-0.035
-443.836	196.236	-0.139	-0.211
-442.822	-148.659	0.139	0.011
-441.807	57.153	-0.212	0.206
-440.792	12.071	-0.192	0.147
-439.778	-111.269	0.217	0.044
-438.763	-135.956	-0.061	-0.007
-437.749	-83.818	0.243	0.077
-436.734	800.000	0.096	0.338
-435.719	90.602	0.043	-0.048
-434.705	605.998	-0.091	-0.226
-433.690	-87.637	-0.278	0.084
-432.676	216.901	0.064	0.102
-431.661	29.741	-0.192	0.163
-430.646	-41.820	-0.122	-0.062
-429.632	57.031	0.029	0.028
-428.617	-87.158	-0.139	0.042
-427.603	100.954	-0.106	0.122
-426.588	-7.544	0.267	0.180
-425.573	427.366	-0.014	-0.030
-424.559	-200.000	0.013	-0.119
-423.544	18.318	0.268	0.213
-422.530	683.110	0.123	0.320
-421.515	35.567	-0.090	0.079
-420.500	59.779	-0.372	0.366
-419.486	-200.000	-0.016	0.073
-418.471	-200.000	0.057	-0.313
-417.457	800.000	-0.098	-0.294
-416.442	-200.000	-0.130	-0.781
-415.428	-200.000	-0.030	0.254
-414.413	-110.834	-0.206	-0.042
-413.398	-164.059	-0.230	-0.011
-412.384	-153.111	0.267	0.019
-411.369	-21.236	0.231	-0.140
-410.355	800.000	-0.017	-0.065
-409.340	692.440	0.040	0.104
-408.325	-76.397	-0.215	-0.075
-407.311	-42.078	0.161	-0.082
-406.296	141.791	-0.062	-0.081
-405.282	9.476	-0.181	-0.136
-404.267	210.513	0.133	0.208
-403.252	-200.000	-0.018	-0.173
-402.238	84.209	0.032	-0.034
-401.223	-1.794	-0.153	0.107
-400.209	-104.488	0.242	-0.056
-399.194	261.755	-0.141	-0.243
-398.179	208.651	-0.069	0.108
-397.165	-68.126	0.337	0.130
-396.150	185.502	0.041	0.061
-395.136	320.713	0.050	-0.094
-394.121	-57.708	-0.214	-0.093
-393.106	-22.232	-0.148	-0.089
-392.092	-70.092	0.057	0.022
-391.077	653.187	0.153	0.389
-390.063	50.279	-0.175	-0.164
-389.048	535.181	-0.074	-0.175
-388.033	-200.000	-0.004	0.059
-387.019	-151.624	-0.098	-0.007
-386.004	48.698	-0.060	0.056
-384.990	109.280	-0.159	0.189
-383.975	268.201	0.273	0.476
-382.960	800.000	0.109	0.334
-381.946	260.082	0.168	0.288
-380.931	93.846	0.124	-0.140
-379.917	-131.847	0.118	-0.015
-378.902	-70.452	-0.374	-0.141
-377.888	1.861	0.346	-0.248
-376.873	293.119	-0.029	-0.052
-375.858	142.877	-0.127	-0.168
-374.844	108.848	0.219	0.260
-373.829	800.000	-0.036	-0.128
-372.815	25.723	-0.189	0.157
-371.800	365.107	-0.159	0.318
-370.785	-200.000	0.120	0.594
-369.771	-75.127	0.065	-0.023
-368.756	-95.731	0.336	-0.089
-367.742	89.237	0.142	0.157
-366.727	-45.320	-0.030	0.015
-365.712	-136.481	0.265	-0.031
-364.698	761.219	0.065	-0.175
-363.683	-200.000	0.407	-0.001
-362.669	351.095	-0.039	0.077
-361.654	800.000	0.057	-0.188
-360.639	800.000	-0.020	0.077
-359.625	-200.000	-0.003	-0.110
-358.610	9.732	0.163	0.123
-357.596	144.734	-0.090	0.120
-356.581	172.364	0.157	0.225
-355.566	675.448	-0.045	0.115
-354.552	231.984	0.144	-0.234
-353.537	-96.463	0.376	-0.099
-352.523	-200.000	0.051	-0.362
-351.508	-200.000	0.032	-0.350
-350.493	800.000	-0.104	0.302
-349.479	-43.589	-0.459	0.230
-348.464	29.619	0.159	0.134
-347.450	-200.000	0.021	0.238
-346.435	302.797	-0.048	-0.089
-345.420	186.613	-0.162	-0.240
-344.406	-63.683	-0.208	0.085
-343.391	-102.586	-0.350	-0.083
-342.377	800.000	-0.060	-0.221
-341.362	-64.330	-0.521	0.210
-340.348	219.953	0.091	-0.145
-339.333	118.637	-0.173	0.212
-338.318	86.578	0.192	0.210
-337.304	69.930	-0.413	-0.423
-336.289	-134.182	-0.157	-0.019
-335.275	39.523	-0.097	0.086
-334.260	103.264	0.070	0.082
-333.245	-200.000	0.001	-0.147
-332.231	-37.609	-0.019	-0.010
-331.216	-62.119	-0.242	-0.100
-330.202	-37.645	-0.216	0.114
-329.187	82.355	-0.123	0.133
-328.172	-151.840	0.244	0.018
-327.158	-200.000	0.018	0.245
-326.143	-200.000	0.004	-0.134
-325.129	-200.000	-0.009	-0.360
-324.114	194.776	0.190	-0.286
-323.099	-42.191	0.174	0.088
-322.085	-142.347	0.166	0.016
-321.070	-200.000	-0.041	0.248
-320.056	274.837	0.206	0.362
-319.041	-66.151	-0.145	-0.057
-318.026	-200.000	-0.013	0.064
-317.012	158.715	0.117	0.162
-315.997	119.047	0.129	0.158
-314.983	-94.647	0.097	-0.026
-313.968	-200.000	0.012	-0.061
-312.953	501.792	0.123	-0.283
-311.939	-106.738	-0.067	0.015
-310.924	-54.672	-0.143	-0.064
-309.910	67.882	0.242	-0.246
-308.895	-128.172	0.064	-0.009
-307.880	-200.000	0.001	0.229
-306.866	-16.951	0.278	0.174
-305.851	243.434	-0.095	0.158
-304.837	7.760	0.038	-0.028
-303.822	-4.547	0.194	0.133
-302.807	-82.379	0.115	-0.037
-301.793	-117.518	-0.184	-0.033
-300.778	50.113	0.109	0.102
-299.764	800.000	-0.068	0.227
-298.749	-138.834	-0.206	0.022
-297.735	178.171	-0.066	-0.096
-296.720	-200.000	0.004	-0.117
-295.705	-107.150	-0.275	-0.060
-294.691	282.929	-0.161	0.287
-293.676	-200.000	-0.018	0.164
-292.662	696.200	-0.099	-0.257
-291.647	331.823	-0.060	0.115
-290.632	-200.000	0.002	-0.108
-289.618	-83.463	-0.203	-0.064
-288.603	-54.582	0.201	0.090
-287.589	-79.466	0.421	-0.141
-286.574	238.740	-0.138	0.227
-285.559	-79.239	0.170	-0.057
-284.545	58.532	0.315	0.306
-283.530	-200.000	0.001	0.244
-282.516	17.233	0.145	-0.114
-281.501	-141.239	0.261	0.026
-280.486	-11.369	0.188	-0.122
-279.472	-128.481	0.346	-0.049
-278.457	800.000	0.069	-0.249
-277.443	15.055	-0.040	-0.031
-276.428	-97.293	0.256	0.066
-275.413	-200.000	0.024	0.113
-274.399	-200.000	-0.030	0.284
-273.384	94.867	0.145	0.163
-272.370	800.000	0.097	0.374
-271.355	-200.000	0.012	-0.067
-270.340	-200.000	0.021	-0.164
-269.326	-142.272	-0.169	-0.017
-268.311	-51.099	0.256	-0.119
-267.297	-8.536	0.075	-0.050
-266.282	-71.662	0.078	0.029
-265.267	-19.137	-0.186	-0.115
-264.253	169.947	0.095	-0.134
-263.238	101.881	0.122	-0.141
-262.224	-116.362	0.297	0.054
-261.209	49.483	-0.080	0.075
-260.195	-128.804	-0.074	0.010
-259.180	141.129	-0.029	0.038
-258.165	369.960	0.126	-0.252
-257.151	529.586	0.217	0.507
-256.136	127.433	-0.199	0.250
-255.122	142.852	0.091	-0.120
-254.107	-120.012	0.044	-0.007
-253.092	-200.000	-0.021	-0.375
-252.078	-21.675	0.366	-0.221
-251.063	229.980	0.097	-0.157
-250.049	51.119	-0.236	0.221
-249.034	-139.853	0.458	-0.048
-248.019	201.691	-0.212	-0.323
-247.005	-130.616	-0.379	-0.050
-245.990	-134.584	-0.019	0.002
-244.976	-149.759	0.209	-0.016
-243.961	333.610	0.080	0.152
-242.946	-123.090	0.351	0.056
-241.932	24.007	0.227	-0.185
-240.917	417.620	-0.103	0.218
-239.903	82.540	-0.115	-0.123
-238.888	63.935	-0.078	-0.077
-237.873	303.292	-0.188	-0.344
-236.859	-200.000	0.002	-0.089
-235.844	-200.000	-0.003	-0.114
-234.830	482.307	-0.149	-0.334
-233.815	-122.864	-0.354	-0.056
-232.800	-111.166	0.245	-0.050
-231.786	-174.451	-0.147	-0.004
-230.771	-200.000	-0.032	-0.370
-229.757	-200.000	0.025	-0.167
-228.742	-68.543	0.205	0.079
-227.727	-91.716	-0.333	-0.094
-226.713	-200.000	-0.066	0.334
-225.698	-32.074	-0.360	0.199
-224.684	-25.875	0.462	-0.269
-223.669	24.013	0.359	-0.292
-222.655	313.319	-0.042	0.077
-221.640	46.482	-0.216	0.198
-220.625	136.854	0.191	-0.246
-219.611	739.229	-0.114	0.303
-218.596	800.000	-0.008	-0.034
-217.582	-5.571	-0.141	0.095
-216.567	73.593	-0.111	-0.115
-215.552	-52.601	-0.130	0.059
-214.538	79.881	-0.259	-0.275
-213.523	121.773	-0.301	0.370
-212.509	651.636	-0.072	-0.182
-211.494	-7.282	0.108	0.072
-210.479	273.922	-0.081	-0.142
-209.465	800.000	-0.035	0.124
-208.450	316.077	0.115	0.215
-207.436	-56.577	0.129	0.056
-206.421	492.428	0.139	-0.315
-205.406	156.342	-0.126	0.171
-204.392	39.864	0.203	0.180
-203.377	-60.975	0.053	-0.022
-202.363	-200.000	-0.021	-0.109
-201.348	383.628	0.046	0.094
-200.333	-154.816	0.042	0.003
-199.319	-200.000	-0.202	0.000
-198.304	800.000	-0.041	0.156
-197.290	75.072	-0.165	0.171
-196.275	-124.523	-0.134	-0.021
-195.260	800.000	-0.022	-0.075
-194.246	201.116	0.209	0.317
-193.231	-101.659	0.386	0.092
-192.217	800.000	-0.042	0.167
-191.202	-200.000	-0.046	-0.338
-190.187	216.555	-0.052	0.082
-189.173	-117.113	0.062	0.011
-188.158	80.339	0.082	-0.087
-187.144	-114.499	0.131	-0.025
-186.129	328.718	0.124	-0.236
-185.114	91.411	-0.091	0.101
-184.100	44.371	0.116	0.105
-183.085	113.802	-0.061	0.073
-182.071	-200.000	-0.040	-0.294
-181.056	4.163	0.145	-0.105
-180.042	128.493	-0.205	0.258
-179.027	521.006	-0.049	0.113
-178.012	-56.732	-0.072	-0.031
-176.998	204.573	0.130	0.199
-175.983	83.347	-0.130	0.139
-174.969	-200.000	-0.042	0.267
-173.954	15.709	-0.092	0.071
-172.939	550.101	-0.016	0.038
-171.925	-32.567	0.220	-0.121
-170.910	216.681	-0.111	0.174
-169.896	-45.186	0.140	-0.069
-168.881	144.639	0.153	0.201
-167.866	-80.825	0.152	0.050
-166.852	126.301	-0.111	0.139
-165.837	800.000	-0.068	0.251
-164.823	-7.885	0.112	0.075
-163.808	-16.237	-0.166	0.104
-162.793	-127.373	0.139	0.020
-161.779	-72.796	-0.270	0.098
-160.764	566.278	-0.037	0.089
-159.750	-100.750	0.253	-0.061
-158.735	145.949	0.237	0.314
-157.720	800.000	-0.031	0.127
-156.706	45.400	0.125	-0.113
-155.691	-163.309	0.077	-0.004
-154.677	-60.978	-0.158	0.066
-153.662	194.275	-0.155	-0.232
-152.647	-143.444	0.231	0.022
-151.633	-136.216	-0.202	0.023
-150.618	800.000	-0.040	-0.163
-149.604	-200.000	0.023	0.307
-148.589	407.692	-0.056	0.116
-147.574	38.657	-0.230	0.202
-146.560	-70.083	0.223	0.084
-145.545	310.213	-0.033	-0.061
-144.531	-122.332	-0.226	0.036
-143.516	155.069	0.202	0.273
-142.502	98.839	-0.211	-0.240
-141.487	117.055	0.044	-0.053
-140.472	800.000	-0.083	-0.242
-139.458	-200.000	0.020	-0.282
-138.443	-160.820	-0.345	-0.018
-137.429	-200.000	-0.019	0.338
-136.414	-63.094	-0.208	-0.085
-135.399	-112.750	-0.202	-0.040
-134.385	-24.844	-0.339	0.198
-133.370	-200.000	-0.000	-0.230
-132.356	800.000	0.041	0.148
-131.341	-138.677	0.133	-0.014
-130.326	-107.699	-0.414	0.089
-129.312	44.118	-0.183	0.165
-128.297	800.000	-0.069	-0.207
-127.283	25.520	0.113	-0.093
-126.268	800.000	-0.051	0.171
-125.253	-200.000	-0.037	0.188
-124.239	116.522	0.140	-0.168
-123.224	-132.733	0.058	0.007
-122.210	-200.000	0.083	0.479
