DTS Sentinel unit serial number:	SN413079Multiplexer serial number:	ORYXHardware model number:	OX4-SRSoftware version number:	ORYX F/W v4.00 Oryx Data Collector v3.7.2.0data status	okinstallation	princeton_trtdifferential loss correction	single-endedforward channel	channel 2reverse channel	N/Adate	2019/09/17time	06:23:35forward acquisition time	60.00reverse acquisition time	0.00gamma	496.2192k internal	0.2332k external	0.2332temperature offset calibration	0.9978default loss term (dB/km)	0.3790temperature slope calibration	1.0000multiplexer offset coefficient	1.0000multiplexer slope coefficient	1.0000fibre end	0.00T internal ref (°C)	28.31T ext. ref 1 (°C)	0.13T ext. ref 2 (°C)	21.68length (m)	temperature (°C)	Stokes	anti-Stokes-747.200	-35.221	-0.013	0.007
-746.185	-200.000	-0.050	0.322
-745.171	-63.981	0.224	0.092
-744.156	65.206	-0.272	0.277
-743.142	67.717	0.108	0.111
-742.127	-200.000	-0.061	-0.284
-741.112	81.549	-0.026	0.028
-740.098	-126.682	-0.155	-0.023
-739.083	-10.440	-0.113	0.076
-738.069	-91.761	-0.234	0.067
-737.054	-52.574	-0.150	0.070
-736.039	20.236	-0.177	-0.144
-735.025	430.328	0.082	0.178
-734.010	-135.718	0.326	-0.039
-732.996	-200.000	-0.004	-0.124
-731.981	-200.000	-0.036	0.170
-730.966	-189.897	0.122	0.001
-729.952	-65.129	-0.073	-0.030
-728.937	482.907	0.038	0.087
-727.923	800.000	0.037	-0.103
-726.908	-60.062	0.243	-0.104
-725.894	13.049	-0.417	0.324
-724.879	498.718	-0.210	0.487
-723.864	760.836	-0.021	-0.056
-722.850	476.820	0.020	0.046
-721.835	525.666	-0.055	-0.129
-720.821	-200.000	-0.016	-0.223
-719.806	507.192	-0.169	-0.395
-718.791	127.233	-0.256	-0.326
-717.777	204.918	0.239	-0.373
-716.762	-103.921	0.158	0.037
-715.748	397.366	0.086	0.180
-714.733	-99.193	0.308	-0.078
-713.718	742.507	-0.076	0.206
-712.704	103.489	-0.300	-0.354
-711.689	106.971	-0.165	-0.197
-710.675	-46.182	-0.134	-0.066
-709.660	-200.000	0.038	-0.363
-708.645	-200.000	-0.103	0.000
-707.631	40.625	-0.234	-0.212
-706.616	-200.000	0.010	-0.254
-705.602	66.748	-0.211	-0.216
-704.587	800.000	-0.007	0.027
-703.572	71.123	-0.284	0.296
-702.558	45.940	0.236	-0.219
-701.543	-200.000	-0.086	-0.410
-700.529	181.847	0.099	-0.146
-699.514	-147.279	-0.405	0.035
-698.499	110.488	0.161	0.194
-697.485	-200.000	0.026	-0.198
-696.470	800.000	0.034	0.146
-695.456	-152.710	-0.237	0.017
-694.441	-113.402	0.206	0.041
-693.426	358.369	0.148	0.296
-692.412	-130.152	-0.272	-0.037
-691.397	73.593	0.038	0.040
-690.383	143.321	-0.229	0.305
-689.368	-200.000	-0.041	-0.205
-688.354	-28.437	-0.093	0.054
-687.339	-95.028	0.170	-0.046
-686.324	100.700	0.026	-0.030
-685.310	76.411	-0.093	-0.099
-684.295	114.806	-0.134	0.164
-683.281	-116.711	-0.367	0.068
-682.266	-200.000	0.007	0.085
-681.251	-200.000	-0.070	-0.410
-680.237	-149.546	0.176	0.014
-679.222	-51.512	-0.228	-0.107
-678.208	-200.000	-0.006	0.197
-677.193	-200.000	-0.013	0.068
-676.178	-138.166	0.145	-0.016
-675.164	-146.238	-0.221	0.019
-674.149	3.483	-0.414	-0.303
-673.135	42.341	0.081	-0.074
-672.120	-108.301	0.145	-0.031
-671.105	-124.961	-0.071	0.011
-670.091	247.342	0.145	-0.245
-669.076	-200.000	0.015	-0.209
-668.062	362.532	-0.100	0.201
-667.047	800.000	0.052	-0.194
-666.032	-3.972	0.296	-0.206
-665.018	-200.000	0.016	-0.078
-664.003	149.255	-0.215	0.291
-662.989	-150.460	-0.094	-0.007
-661.974	-200.000	-0.000	-0.223
-660.959	-200.000	0.018	0.226
-659.945	12.659	-0.312	-0.242
-658.930	-131.897	0.360	-0.047
-657.916	-119.202	-0.227	0.040
-656.901	90.829	-0.232	-0.261
-655.886	-114.008	0.142	0.028
-654.872	530.787	0.133	-0.315
-653.857	493.699	-0.047	-0.108
-652.843	636.310	-0.062	-0.157
-651.828	-110.353	-0.161	0.034
-650.814	-200.000	0.014	0.117
-649.799	-88.272	-0.176	-0.053
-648.784	495.994	0.090	0.207
-647.770	306.999	-0.098	0.183
-646.755	800.000	-0.018	0.079
-645.741	439.655	-0.071	-0.155
-644.726	645.813	0.121	0.310
-643.711	-138.114	0.278	-0.031
-642.697	-167.337	-0.218	0.009
-641.682	800.000	-0.067	0.282
-640.668	199.172	0.101	0.155
-639.653	15.806	-0.242	0.191
-638.638	-200.000	0.061	-0.316
-637.624	-78.541	0.142	0.049
-636.609	-58.893	-0.243	-0.105
-635.595	67.701	-0.189	0.194
-634.580	2.215	-0.061	-0.044
-633.565	-200.000	0.043	0.435
-632.551	-200.000	-0.009	-0.299
-631.536	800.000	0.036	-0.146
-630.522	800.000	-0.080	-0.266
-629.507	69.593	-0.048	0.049
-628.492	-126.389	-0.316	-0.047
-627.478	104.228	0.248	-0.292
-626.463	16.186	0.143	0.113
-625.449	-66.805	-0.093	-0.037
-624.434	-200.000	0.011	-0.193
-623.419	0.969	0.315	0.226
-622.405	22.423	-0.227	-0.186
-621.390	153.073	0.276	0.377
-620.376	-48.327	0.105	0.050
-619.361	94.692	0.101	0.115
-618.346	-200.000	-0.006	-0.321
-617.332	-22.196	-0.343	-0.208
-616.317	198.236	0.111	-0.170
-615.303	-200.000	-0.000	0.004
-614.288	5.695	-0.221	0.163
-613.273	3.138	0.024	-0.017
-612.259	-90.520	-0.264	-0.076
-611.244	-126.306	0.160	0.024
-610.230	58.278	0.148	0.145
-609.215	-61.600	0.174	-0.073
-608.201	198.656	0.101	0.155
-607.186	45.179	0.060	-0.055
-606.171	800.000	-0.035	0.100
-605.157	-108.854	-0.177	-0.038
-604.142	331.830	-0.126	-0.244
-603.128	-200.000	0.074	-0.444
-602.113	-200.000	-0.024	-0.371
-601.098	-16.894	-0.158	-0.100
-600.084	347.434	0.220	0.433
-599.069	66.811	-0.172	0.175
-598.055	-81.318	-0.188	0.062
-597.040	87.017	-0.147	-0.163
-596.025	81.835	-0.045	0.049
-595.011	175.195	0.070	-0.102
-593.996	454.442	0.081	-0.179
-592.982	-3.739	-0.550	-0.382
-591.967	800.000	-0.071	-0.200
-590.952	664.104	0.059	0.153
-589.938	-118.585	0.157	-0.028
-588.923	69.213	-0.076	-0.078
-587.909	-17.038	0.199	-0.126
-586.894	800.000	0.106	-0.319
-585.879	-167.487	0.320	0.013
-584.865	-94.106	-0.222	0.061
-583.850	456.948	-0.040	-0.090
-582.836	-64.208	-0.063	-0.026
-581.821	800.000	-0.074	0.210
-580.806	-139.660	0.036	-0.004
-579.792	97.357	0.205	-0.235
-578.777	-11.499	0.115	0.076
-577.763	-200.000	-0.011	-0.092
-576.748	-200.000	0.003	0.413
-575.733	58.580	0.306	0.300
-574.719	55.633	0.113	-0.109
-573.704	8.625	-0.145	-0.109
-572.690	27.984	-0.130	0.109
-571.675	-200.000	0.020	-0.199
-570.661	-88.023	-0.055	0.017
-569.646	-121.713	0.168	0.028
-568.631	129.596	0.018	-0.023
-567.617	-39.610	-0.167	0.087
-566.602	118.174	0.041	0.050
-565.588	344.996	0.111	0.218
-564.573	83.164	0.260	0.283
-563.558	800.000	0.051	-0.164
-562.544	218.896	0.037	0.059
-561.529	-108.955	-0.275	-0.059
-560.515	77.564	0.144	0.153
-559.500	40.718	0.071	-0.064
-558.485	-104.827	-0.191	-0.044
-557.471	-104.445	0.352	-0.081
-556.456	484.273	0.078	-0.177
-555.442	503.619	0.051	-0.119
-554.427	-200.000	0.002	0.025
-553.412	-200.000	0.021	0.107
-552.398	139.486	0.064	0.084
-551.383	-129.933	-0.349	-0.048
-550.369	-130.420	-0.235	0.032
-549.354	350.834	0.157	-0.310
-548.339	-13.615	-0.366	-0.237
-547.325	800.000	-0.051	-0.188
-546.310	-22.986	-0.206	0.124
-545.296	-191.869	-0.178	-0.002
-544.281	-200.000	0.049	-0.549
-543.266	21.346	-0.050	-0.041
-542.252	-200.000	-0.002	-0.306
-541.237	276.272	-0.116	-0.206
-540.223	127.812	0.178	-0.225
-539.208	-200.000	0.052	-0.264
-538.193	79.155	-0.162	-0.173
-537.179	800.000	0.088	0.366
-536.164	18.953	0.280	-0.224
-535.150	471.498	-0.060	0.135
-534.135	78.431	-0.185	0.197
-533.121	-3.706	-0.294	0.204
-532.106	36.227	0.017	0.015
-531.091	124.054	-0.081	0.101
-530.077	-88.385	-0.315	-0.094
-529.062	-55.691	0.210	0.094
-528.048	-35.114	0.158	0.086
-527.033	417.275	-0.108	-0.230
-526.018	10.449	0.171	0.130
-525.004	-200.000	0.355	0.002
-523.989	-128.373	0.229	0.033
-522.975	-200.000	0.018	0.358
-521.960	-118.244	0.119	0.021
-520.945	-111.318	0.273	0.056
-519.931	85.579	-0.124	0.136
-518.916	-48.661	0.393	-0.188
-517.902	-23.947	0.093	0.055
-516.887	800.000	0.039	0.166
-515.872	800.000	-0.040	-0.157
-514.858	-97.373	-0.147	0.038
-513.843	-200.000	-0.035	-0.181
-512.829	-200.000	0.048	0.301
-511.814	-136.135	-0.366	-0.043
-510.799	-117.082	-0.166	-0.030
-509.785	800.000	0.112	-0.363
-508.770	13.445	-0.105	-0.082
-507.756	4.261	0.198	-0.145
-506.741	-74.815	-0.430	0.154
-505.726	10.800	0.140	0.107
-504.712	510.465	-0.117	-0.271
-503.697	800.000	-0.043	0.134
-502.683	-200.000	-0.007	-0.062
-501.668	-131.047	-0.116	0.015
-500.653	166.593	0.173	-0.244
-499.639	-200.000	-0.068	-0.321
-498.624	257.222	0.181	0.310
-497.610	90.619	-0.245	0.273
-496.595	-200.000	0.012	0.166
-495.581	-200.000	0.034	-0.207
-494.566	249.386	0.186	0.314
-493.551	-124.607	0.129	-0.020
-492.537	-65.286	-0.207	0.083
-491.522	318.782	0.082	0.155
-490.508	-42.156	0.171	0.087
-489.493	-176.439	0.193	-0.005
-488.478	296.890	0.121	-0.221
-487.464	14.861	0.141	0.110
-486.449	-96.344	0.122	-0.032
-485.435	-109.982	-0.471	-0.098
-484.420	-200.000	-0.003	0.368
-483.405	150.121	0.238	0.322
-482.391	-118.988	-0.263	0.046
-481.376	15.885	0.102	0.080
-480.362	-17.772	0.361	0.226
-479.347	411.258	-0.135	0.286
-478.332	-88.674	0.133	0.039
-477.318	-147.604	0.528	0.044
-476.303	-200.000	-0.002	-0.098
-475.289	54.014	-0.217	0.208
-474.274	185.456	0.091	-0.135
-473.259	-93.589	-0.289	-0.079
-472.245	362.170	0.100	0.200
-471.230	0.391	0.074	-0.053
-470.216	662.568	0.086	0.222
-469.201	9.648	-0.078	0.059
-468.186	-200.000	0.014	-0.247
-467.172	17.076	0.255	0.201
-466.157	-70.370	-0.089	0.033
-465.143	140.363	0.201	0.264
-464.128	388.753	0.105	-0.216
-463.113	4.527	-0.214	0.156
-462.099	800.000	0.081	0.237
-461.084	233.344	-0.194	0.317
-460.070	-200.000	0.008	-0.379
-459.055	-75.595	0.083	-0.029
-458.040	107.214	0.238	-0.281
-457.026	-200.000	0.018	-0.408
-456.011	49.405	-0.318	-0.297
-454.997	-77.736	-0.301	-0.103
-453.982	-136.491	0.097	0.011
-452.968	110.212	0.125	0.150
-451.953	-94.770	0.190	0.051
-450.938	-121.947	-0.099	0.016
-449.924	800.000	0.076	0.221
-448.909	800.000	0.024	0.091
-447.895	-168.602	-0.367	-0.014
-446.880	317.374	-0.122	-0.230
-445.865	166.312	-0.016	0.023
-444.851	-200.000	-0.007	0.065
-443.836	217.598	0.099	0.157
-442.822	-92.276	0.281	-0.079
-441.807	-200.000	0.017	-0.355
-440.792	800.000	-0.018	0.065
-439.778	-77.448	-0.252	0.087
-438.763	70.902	0.127	0.131
-437.749	-200.000	0.015	0.122
-436.734	-30.320	-0.177	0.100
-435.719	-9.212	0.208	-0.138
-434.705	-142.810	0.248	-0.024
-433.690	-25.513	-0.220	0.129
-432.676	84.933	-0.062	0.067
-431.661	-8.349	0.295	-0.197
-430.646	-126.637	0.138	0.020
-429.632	-200.000	-0.003	-0.309
-428.617	-79.759	0.085	0.028
-427.603	-139.176	0.240	-0.026
-426.588	-93.330	-0.071	-0.020
-425.573	51.476	0.124	0.117
-424.559	-200.000	0.058	0.296
-423.544	800.000	-0.084	0.312
-422.530	-71.628	-0.408	-0.151
-421.515	360.371	-0.061	0.122
-420.500	800.000	-0.045	-0.184
-419.486	375.798	-0.033	-0.067
-418.471	-98.180	0.130	0.033
-417.457	800.000	-0.114	0.313
-416.442	-86.648	-0.124	0.038
-415.428	-200.000	-0.062	-0.319
-414.413	-200.000	-0.011	-0.146
-413.398	-41.016	-0.160	-0.082
-412.384	-200.000	0.029	-0.211
-411.369	-27.201	-0.178	-0.103
-410.355	11.076	0.043	0.033
-409.340	800.000	0.037	-0.142
-408.325	223.457	0.120	-0.192
-407.311	295.035	0.202	-0.368
-406.296	800.000	-0.052	-0.215
-405.282	33.048	-0.172	0.148
-404.267	24.708	0.068	-0.056
-403.252	-92.035	0.209	0.059
-402.238	-106.545	0.350	-0.078
-401.223	-92.888	-0.128	-0.035
-400.209	24.875	0.224	0.184
-399.194	-169.699	0.139	-0.005
-398.179	5.689	-0.220	0.162
-397.165	591.158	-0.137	0.337
-396.150	-129.915	0.420	0.057
-395.136	194.484	0.190	0.285
-394.121	-38.704	0.168	0.088
-393.106	233.702	0.112	0.184
-392.092	-104.295	-0.324	0.075
-391.077	-25.571	0.113	-0.066
-390.063	-200.000	0.016	0.272
-389.048	-200.000	0.016	0.125
-388.033	-100.722	0.145	-0.036
-387.019	-72.625	-0.320	-0.117
-386.004	800.000	0.070	0.247
-384.990	-93.508	0.113	-0.031
-383.975	-155.597	-0.369	-0.024
-382.960	-7.719	0.209	-0.140
-381.946	-111.416	0.374	0.076
-380.931	59.618	-0.230	0.225
-379.917	44.628	0.228	0.208
-378.902	-96.639	-0.115	0.030
-377.888	-16.822	-0.238	0.150
-376.873	18.613	-0.067	0.053
-375.858	68.940	-0.234	-0.239
-374.844	135.979	-0.094	-0.121
-373.829	235.201	-0.176	-0.288
-372.815	-17.952	0.233	0.145
-371.800	-142.961	0.058	0.006
-370.785	-117.594	-0.251	0.045
-369.771	243.763	-0.098	0.163
-368.756	298.233	0.071	-0.129
-367.742	-53.632	0.130	0.059
-366.727	16.232	0.113	0.088
-365.712	121.036	0.235	-0.290
-364.698	-63.707	-0.186	-0.076
-363.683	12.295	-0.195	-0.149
-362.669	-200.000	0.001	0.121
-361.654	214.847	-0.033	0.052
-360.639	68.129	-0.064	0.065
-359.625	-110.217	0.122	0.025
-358.610	-200.000	-0.056	-0.273
-357.596	-38.927	0.199	0.104
-356.581	-63.469	-0.173	0.070
-355.566	21.592	0.176	0.142
-354.552	103.343	-0.064	0.075
-353.537	-200.000	0.032	-0.214
-352.523	-92.095	-0.125	0.035
-351.508	476.033	0.008	0.018
-350.493	-200.000	0.019	0.281
-349.479	-108.807	-0.079	0.017
-348.464	-60.630	-0.155	0.065
-347.450	2.179	0.265	0.190
-346.435	-200.000	-0.028	-0.509
-345.420	72.025	-0.152	-0.157
-344.406	800.000	0.072	-0.255
-343.391	80.741	0.074	-0.079
-342.377	783.729	-0.100	-0.271
-341.362	-8.975	0.095	0.063
-340.348	-154.531	0.239	-0.016
-339.333	22.547	-0.222	0.180
-338.318	13.508	0.084	-0.065
-337.304	-65.952	0.118	-0.047
-336.289	-91.841	0.203	-0.057
-335.275	779.476	-0.088	-0.239
-334.260	-121.747	0.063	-0.010
-333.245	90.189	0.046	0.051
-332.231	800.000	0.066	0.250
-331.216	198.060	0.262	-0.396
-330.202	482.475	0.066	0.149
-329.187	-1.537	-0.149	0.104
-328.172	-27.486	-0.129	0.074
-327.158	36.094	0.130	-0.113
-326.143	372.888	0.015	0.029
-325.129	158.165	-0.279	0.383
-324.114	-200.000	0.003	-0.266
-323.099	1.850	-0.127	-0.091
-322.085	614.361	-0.127	0.316
-321.070	326.409	-0.160	0.302
-320.056	349.842	0.172	-0.337
-319.041	255.388	0.041	0.069
-318.026	-200.000	-0.004	0.059
-317.012	-200.000	0.064	-0.641
-315.997	-14.980	0.211	0.134
-314.983	97.121	0.054	0.062
-313.968	-14.882	-0.051	0.032
-312.953	-68.930	0.327	0.125
-311.939	-200.000	-0.005	0.170
-310.924	45.574	-0.155	-0.142
-309.910	259.289	-0.042	0.072
-308.895	-27.979	0.124	-0.071
-307.880	182.320	-0.108	0.157
-306.866	244.099	-0.107	-0.177
-305.851	800.000	-0.046	0.196
-304.837	-135.117	0.222	0.026
-303.822	-200.000	-0.065	0.295
-302.807	-200.000	-0.005	-0.115
-301.793	-78.169	-0.372	-0.127
-300.778	-54.875	0.128	0.057
-299.764	108.160	0.273	0.322
-298.749	-179.883	0.277	-0.006
-297.735	-18.711	-0.251	0.154
-296.720	-200.000	-0.036	0.350
-295.705	438.962	0.068	-0.147
-294.691	30.664	-0.186	-0.157
-293.676	-51.835	0.079	-0.036
-292.662	102.243	-0.129	0.148
-291.647	-145.519	-0.173	0.015
-290.632	-10.664	-0.020	0.013
-289.618	57.592	0.272	-0.262
-288.603	-200.000	-0.036	0.207
-287.589	-200.000	-0.006	0.181
-286.574	141.223	-0.310	-0.405
-285.559	5.363	0.221	-0.161
-284.545	-129.284	0.069	0.010
-283.530	-200.000	0.019	0.152
-282.516	800.000	0.057	-0.240
-281.501	-60.966	0.635	-0.265
-280.486	9.979	-0.154	-0.116
-279.472	-200.000	0.037	-0.241
-278.457	-18.261	0.161	-0.099
-277.443	-24.254	-0.092	0.054
-276.428	61.688	-0.075	-0.074
-275.413	800.000	-0.026	-0.089
-274.399	215.642	-0.109	-0.170
-273.384	99.170	-0.082	0.094
-272.370	65.725	-0.325	-0.325
-271.355	-79.388	0.044	0.015
-270.340	800.000	-0.098	0.376
-269.326	199.211	0.057	0.087
-268.311	-81.623	0.285	-0.092
-267.297	82.850	-0.260	-0.279
-266.282	62.412	-0.083	0.082
-265.267	-24.191	-0.040	-0.024
-264.253	-143.576	-0.318	-0.030
-263.238	23.547	0.135	-0.110
-262.224	260.558	-0.161	-0.275
-261.209	532.093	-0.033	-0.076
-260.195	800.000	-0.074	-0.301
-259.180	-88.873	0.287	0.084
-258.165	-200.000	0.039	0.465
-257.151	-112.771	-0.136	-0.027
-256.136	128.045	-0.074	-0.093
-255.122	-98.512	-0.224	-0.056
-254.107	-34.924	-0.146	-0.079
-253.092	-52.324	-0.234	0.107
-252.078	-171.161	0.237	0.008
-251.063	-200.000	0.013	0.441
-250.049	-35.641	0.253	0.135
-249.034	-113.869	0.244	-0.047
-248.019	-103.465	0.196	0.046
-247.005	-200.000	-0.023	0.213
-245.990	719.789	-0.045	-0.118
-244.976	-63.701	-0.230	0.093
-243.961	207.439	0.060	-0.092
-242.946	800.000	0.021	-0.081
-241.932	-57.829	-0.332	-0.143
-240.917	-80.841	0.333	-0.109
-239.903	-51.987	-0.123	-0.056
-238.888	264.604	0.116	0.199
-237.873	800.000	-0.057	-0.211
-236.859	-106.414	0.165	-0.036
-235.844	478.133	-0.050	0.111
-234.830	574.537	0.113	0.272
-233.815	-29.277	-0.080	-0.045
-232.800	160.604	-0.242	0.334
-231.786	-200.000	0.008	0.039
-230.771	-24.955	-0.364	0.213
-229.757	-14.632	0.129	0.081
-228.742	-39.056	-0.137	0.071
-227.727	-84.869	0.273	0.085
-226.713	-103.452	-0.287	-0.067
-225.698	25.884	-0.296	-0.243
-224.684	1.113	0.072	-0.051
-223.669	800.000	0.016	-0.046
-222.655	-118.189	-0.230	0.040
-221.640	599.498	0.100	-0.245
-220.625	-32.551	0.202	0.111
-219.611	-65.295	0.079	-0.031
-218.596	-110.195	0.213	-0.044
-217.582	122.398	0.242	0.298
-216.567	630.296	-0.111	0.276
-215.552	-162.018	-0.312	0.015
-214.538	-200.000	0.050	-0.372
-213.523	-200.000	0.031	-0.207
-212.509	-200.000	0.018	-0.234
-211.494	98.171	-0.170	-0.193
-210.479	-48.269	0.175	-0.083
-209.465	-103.434	0.114	-0.026
-208.450	161.176	-0.161	-0.221
-207.436	47.684	-0.086	0.079
-206.421	194.188	-0.187	0.279
-205.406	-200.000	-0.041	0.272
-204.392	723.903	-0.143	0.375
-203.377	694.835	-0.071	-0.184
-202.363	-121.610	-0.134	0.022
-201.348	-26.390	0.061	0.035
-200.333	800.000	-0.034	0.112
-199.319	-200.000	-0.029	-0.145
-198.304	46.996	-0.120	-0.110
-197.290	800.000	0.062	0.184
-196.275	-30.460	-0.378	0.211
-195.260	800.000	-0.013	0.053
-194.246	-200.000	-0.028	-0.519
-193.231	-86.894	-0.124	0.037
-192.217	-200.000	0.022	0.193
-191.202	800.000	-0.045	-0.147
-190.187	-9.581	0.363	-0.238
-189.173	-117.535	0.157	-0.028
-188.158	43.471	-0.125	-0.112
-187.144	627.280	-0.005	0.011
-186.129	-79.459	0.199	0.066
-185.114	-19.774	-0.037	0.022
-184.100	-153.697	-0.353	0.024
-183.085	319.879	0.016	0.030
-182.071	-19.556	-0.214	-0.130
-181.056	-200.000	0.035	0.182
-180.042	-117.327	0.216	0.039
-179.027	-200.000	0.012	0.349
-178.012	-200.000	-0.003	-0.137
-176.998	-56.208	0.265	0.116
-175.983	-200.000	0.026	-0.221
-174.969	12.066	0.243	0.184
-173.954	-200.000	0.008	0.106
-172.939	-197.997	-0.118	-0.001
-171.925	-6.670	-0.340	-0.228
-170.910	508.864	0.279	0.637
-169.896	68.676	0.067	0.067
-168.881	-17.811	-0.052	0.032
-167.866	59.573	-0.048	0.046
-166.852	-88.445	-0.511	-0.150
-165.837	226.795	0.118	-0.188
-164.823	-200.000	-0.055	0.359
-163.808	-15.958	0.416	-0.260
-162.793	-81.203	0.127	0.041
-161.779	-66.395	-0.093	0.036
-160.764	194.858	0.057	0.086
-159.750	29.313	0.166	-0.139
-158.735	248.461	0.102	-0.170
-157.720	155.241	-0.061	0.083
-156.706	22.467	0.064	-0.051
-155.691	-31.297	-0.103	0.057
-154.677	-87.299	-0.362	-0.108
-153.662	59.084	-0.098	0.095
-152.647	-80.556	0.247	-0.081
-151.633	136.899	-0.161	0.207
-150.618	800.000	0.101	0.394
-149.604	65.772	-0.025	0.025
-148.589	-54.563	-0.238	-0.106
-147.574	-32.341	0.344	-0.189
-146.560	500.663	0.049	-0.112
-145.545	-200.000	-0.022	0.107
-144.531	-200.000	0.019	-0.117
-143.516	-200.000	0.019	-0.179
-142.502	164.780	0.217	0.301
-141.487	-27.560	-0.243	-0.139
-140.472	-123.844	-0.373	-0.058
-139.458	-152.516	0.379	-0.027
-138.443	51.918	0.024	0.023
-137.429	651.918	0.132	0.331
-136.414	448.404	0.096	0.209
-135.399	46.635	-0.140	-0.128
-134.385	389.722	-0.033	0.068
-133.370	345.362	0.057	0.109
-132.356	557.361	0.097	-0.229
-131.341	63.433	0.099	0.097
-130.326	-15.876	-0.192	-0.120
-129.312	41.724	-0.118	-0.105
-128.297	385.675	0.139	0.282
-127.283	-121.034	0.294	-0.048
-126.268	-200.000	0.078	0.469
-125.253	53.329	0.067	0.064
-124.239	12.915	0.360	0.273
-123.224	-91.831	0.285	0.080
-122.210	-68.813	-0.156	0.059
-121.195	-129.741	-0.188	0.025
-120.180	-200.000	-0.040	-0.192
