DTS Sentinel unit serial number:	SN413079Multiplexer serial number:	ORYXHardware model number:	OX4-SRSoftware version number:	ORYX F/W v4.00 Oryx Data Collector v3.7.2.0data status	okinstallation	princeton_trtdifferential loss correction	single-endedforward channel	channel 2reverse channel	N/Adate	2019/09/17time	13:59:35forward acquisition time	60.00reverse acquisition time	0.00gamma	496.2192k internal	0.2316k external	0.2316temperature offset calibration	0.9983default loss term (dB/km)	0.3790temperature slope calibration	1.0000multiplexer offset coefficient	1.0000multiplexer slope coefficient	1.0000fibre end	0.00T internal ref (°C)	35.56T ext. ref 1 (°C)	0.41T ext. ref 2 (°C)	32.47length (m)	temperature (°C)	Stokes	anti-Stokes-747.200	-31.855	-0.148	-0.084
-746.185	243.033	-0.061	0.104
-745.171	-157.681	0.399	0.024
-744.156	339.696	-0.246	0.487
-743.142	-159.244	-0.081	0.005
-742.127	-24.195	-0.083	0.050
-741.112	429.237	0.097	0.213
-740.098	-200.000	-0.021	0.136
-739.083	15.968	-0.251	0.200
-738.069	800.000	-0.032	0.133
-737.054	800.000	0.057	0.200
-736.039	120.052	-0.280	0.352
-735.025	-13.766	0.163	0.106
-734.010	157.558	-0.262	-0.367
-732.996	-156.351	-0.032	-0.002
-731.981	-160.334	0.111	0.006
-730.966	-56.301	0.255	-0.115
-729.952	203.664	-0.018	0.029
-728.937	-200.000	-0.026	0.188
-727.923	-29.448	-0.241	0.140
-726.908	-200.000	0.052	0.339
-725.894	49.382	0.227	0.216
-724.879	-90.669	-0.273	0.080
-723.864	15.768	0.085	-0.068
-722.850	18.677	-0.230	0.186
-721.835	-200.000	-0.058	0.277
-720.821	2.860	-0.176	-0.129
-719.806	-81.172	-0.332	-0.111
-718.791	-119.751	-0.224	-0.039
-717.777	-109.888	-0.312	0.066
-716.762	-102.478	0.326	0.079
-715.748	-112.745	0.133	-0.027
-714.733	-200.000	-0.049	-0.234
-713.718	695.112	0.128	-0.339
-712.704	-143.488	-0.109	-0.011
-711.689	152.367	-0.158	0.218
-710.675	-37.128	-0.275	-0.149
-709.660	290.102	0.123	-0.227
-708.645	157.237	0.165	0.231
-707.631	34.731	-0.143	0.126
-706.616	108.024	-0.089	-0.107
-705.602	300.450	0.052	-0.096
-704.587	49.930	-0.126	-0.121
-703.572	46.377	-0.268	0.251
-702.558	-2.385	0.166	-0.118
-701.543	265.901	0.078	0.138
-700.529	-102.842	-0.219	0.053
-699.514	-200.000	-0.044	-0.255
-698.499	-55.111	-0.138	-0.063
-697.485	800.000	0.057	-0.231
-696.470	-200.000	0.037	-0.166
-695.456	614.996	-0.027	0.068
-694.441	-68.296	0.065	-0.025
-693.426	800.000	0.048	-0.172
-692.412	119.944	-0.096	-0.121
-691.397	-200.000	0.005	-0.056
-690.383	-133.000	0.195	-0.025
-689.368	-56.725	-0.086	0.039
-688.354	130.789	-0.235	0.305
-687.339	-200.000	-0.006	0.062
-686.324	-40.102	0.330	0.174
-685.310	-200.000	0.010	-0.179
-684.295	800.000	-0.058	0.193
-683.281	-200.000	-0.235	-0.000
-682.266	165.632	-0.210	-0.299
-681.251	479.667	0.044	-0.100
-680.237	309.917	-0.103	-0.195
-679.222	0.177	0.335	-0.241
-678.208	231.777	0.162	-0.269
-677.193	-133.703	-0.071	0.009
-676.178	49.195	0.026	0.025
-675.164	800.000	-0.077	0.294
-674.149	-200.000	-0.050	-0.312
-673.135	800.000	-0.167	-0.469
-672.120	-2.310	0.351	0.249
-671.105	-200.000	0.045	-0.292
-670.091	321.097	0.092	-0.176
-669.076	800.000	-0.050	0.197
-668.062	99.462	-0.083	-0.097
-667.047	-200.000	-0.068	-0.475
-666.032	-88.233	-0.175	-0.053
-665.018	304.419	-0.092	-0.172
-664.003	46.353	-0.033	-0.031
-662.989	-87.031	0.187	0.057
-661.974	577.027	-0.096	0.237
-660.959	-200.000	0.208	0.000
-659.945	227.581	0.176	-0.288
-658.930	-41.172	0.355	-0.185
-657.916	-200.000	0.024	-0.163
-656.901	261.586	-0.045	-0.079
-655.886	669.792	-0.145	-0.379
-654.872	2.949	-0.095	-0.069
-653.857	91.527	0.099	0.112
-652.843	-167.478	-0.099	0.004
-651.828	800.000	-0.076	-0.248
-650.814	31.393	-0.118	-0.103
-649.799	-36.672	0.141	-0.076
-648.784	-200.000	0.029	0.176
-647.770	241.371	-0.099	0.167
-646.755	612.959	0.031	-0.079
-645.741	-128.665	-0.199	-0.028
-644.726	285.775	0.155	0.283
-643.711	164.884	-0.112	-0.159
-642.697	779.327	-0.092	0.254
-641.682	-200.000	-0.035	0.235
-640.668	800.000	0.035	-0.120
-639.653	117.449	0.131	0.162
-638.638	-38.892	-0.077	0.041
-637.624	-50.357	0.018	0.008
-636.609	270.310	0.153	-0.271
-635.595	-200.000	-0.034	0.212
-634.580	173.686	0.147	-0.213
-633.565	800.000	-0.040	-0.144
-632.551	71.199	-0.129	0.134
-631.536	761.253	0.101	0.276
-630.522	800.000	0.135	-0.485
-629.507	-133.715	-0.160	0.020
-628.492	385.810	0.109	0.226
-627.478	594.384	0.066	-0.165
-626.463	-200.000	-0.003	-0.350
-625.449	133.985	-0.030	-0.039
-624.434	-30.774	-0.254	0.145
-623.419	-200.000	-0.025	-0.272
-622.405	186.440	0.149	0.223
-621.390	68.057	0.219	-0.226
-620.376	-148.350	-0.208	-0.017
-619.361	-131.623	-0.130	0.017
-618.346	-93.852	0.162	-0.045
-617.332	-200.000	-0.005	0.075
-616.317	37.117	-0.063	-0.057
-615.303	-151.928	-0.036	-0.003
-614.288	-137.803	-0.282	0.032
-613.273	151.058	-0.214	-0.293
-612.259	148.369	-0.093	0.126
-611.244	45.631	0.197	0.184
-610.230	251.755	-0.118	0.202
-609.215	673.586	0.060	-0.157
-608.201	800.000	-0.131	-0.528
-607.186	481.461	-0.089	-0.203
-606.171	-200.000	-0.002	0.110
-605.157	-118.869	0.137	-0.024
-604.142	-131.741	0.154	-0.020
-603.128	-144.926	0.158	0.015
-602.113	-66.158	0.073	-0.029
-601.098	548.086	-0.052	-0.125
-600.084	-191.126	-0.255	0.003
-599.069	-200.000	0.013	0.223
-598.055	-200.000	0.079	-0.381
-597.040	-200.000	0.024	0.141
-596.025	116.357	-0.046	-0.056
-595.011	-86.956	0.333	-0.102
-593.996	213.699	-0.033	0.052
-592.982	-71.265	-0.298	-0.112
-591.967	439.704	-0.056	-0.124
-590.952	-82.971	0.296	-0.096
-589.938	800.000	-0.028	0.121
-588.923	800.000	-0.119	-0.432
-587.909	237.999	0.079	-0.132
-586.894	99.367	-0.117	0.136
-585.879	-77.632	-0.137	-0.048
-584.865	-200.000	0.024	0.398
-583.850	-107.171	-0.391	0.087
-582.836	-57.429	0.079	-0.035
-581.821	49.623	0.103	0.097
-580.806	800.000	0.048	0.190
-579.792	175.717	0.032	-0.047
-578.777	72.788	0.072	-0.076
-577.763	183.619	-0.109	0.161
-576.748	32.912	-0.179	-0.156
-575.733	95.955	0.037	-0.042
-574.719	149.178	-0.152	0.206
-573.704	-56.572	0.225	0.100
-572.690	-62.670	-0.296	0.123
-571.675	-107.237	0.293	0.065
-570.661	-200.000	0.043	0.292
-569.646	800.000	0.074	-0.227
-568.631	-200.000	-0.006	-0.038
-567.617	-114.449	-0.256	0.050
-566.602	-34.081	-0.210	0.116
-565.588	25.170	-0.169	-0.141
-564.573	84.123	0.127	-0.140
-563.558	-200.000	-0.043	-0.316
-562.544	800.000	0.031	-0.104
-561.529	-59.492	0.165	0.071
-560.515	140.833	0.103	-0.137
-559.500	-142.360	-0.253	-0.025
-558.485	-14.150	0.156	-0.101
-557.471	45.034	-0.264	0.245
-556.456	35.246	0.178	0.157
-555.442	-200.000	-0.026	0.257
-554.427	56.512	0.133	0.130
-553.412	378.996	-0.246	0.505
-552.398	-41.441	-0.185	-0.096
-551.383	-99.188	-0.162	-0.041
-550.369	-131.029	-0.331	-0.044
-549.354	-4.467	0.436	-0.303
-548.339	277.099	0.104	-0.185
-547.325	30.742	-0.152	-0.131
-546.310	-123.082	-0.381	-0.061
-545.296	215.271	0.073	0.117
-544.281	17.421	0.157	0.125
-543.266	-162.315	-0.238	-0.012
-542.252	-200.000	-0.023	0.334
-541.237	551.177	-0.058	-0.139
-540.223	34.512	-0.277	-0.243
-539.208	-25.192	0.136	0.081
-538.193	86.231	0.146	0.162
-537.179	50.830	0.031	0.029
-536.164	-138.416	-0.468	-0.052
-535.150	166.866	-0.150	0.213
-534.135	-139.485	0.302	-0.032
-533.121	-89.407	-0.391	0.115
-532.106	402.931	0.100	0.212
-531.091	648.910	-0.006	-0.015
-530.077	-200.000	-0.049	-0.249
-529.062	451.760	-0.027	0.061
-528.048	-90.836	0.217	0.063
-527.033	-123.018	0.116	-0.019
-526.018	-200.000	-0.008	-0.177
-525.004	-200.000	-0.001	0.057
-523.989	-30.732	-0.189	-0.107
-522.975	799.181	0.061	0.168
-521.960	198.958	-0.182	-0.280
-520.945	-200.000	0.004	-0.201
-519.931	-74.219	0.356	0.129
-518.916	346.498	0.196	-0.387
-517.902	730.795	0.029	-0.078
-516.887	266.923	0.010	0.018
-515.872	-200.000	-0.028	0.148
-514.858	-200.000	-0.031	0.221
-513.843	-60.374	0.279	-0.119
-512.829	-45.914	-0.229	0.114
-511.814	800.000	-0.018	-0.077
-510.799	676.630	0.035	-0.092
-509.785	-121.637	0.239	0.040
-508.770	88.342	0.026	0.029
-507.756	146.577	-0.147	-0.198
-506.741	-101.486	-0.191	-0.047
-505.726	-200.000	0.010	-0.339
-504.712	775.010	-0.026	-0.072
-503.697	77.147	-0.156	-0.166
-502.683	800.000	-0.094	-0.364
-501.668	-200.000	-0.012	0.133
-500.653	-111.874	0.338	0.068
-499.639	-111.929	-0.099	0.020
-498.624	367.363	0.070	0.141
-497.610	208.067	-0.133	-0.208
-496.595	-136.618	-0.210	-0.024
-495.581	-31.013	0.114	-0.064
-494.566	158.727	-0.088	0.122
-493.551	382.767	-0.132	-0.273
-492.537	244.705	0.029	0.049
-491.522	800.000	0.026	0.099
-490.508	147.276	0.250	0.337
-489.493	88.393	0.221	0.246
-488.478	548.421	-0.044	-0.106
-487.464	-121.043	-0.327	-0.055
-486.449	-107.928	0.220	-0.048
-485.435	135.139	0.130	0.170
-484.420	273.628	-0.090	0.160
-483.405	-174.962	-0.316	-0.009
-482.391	620.642	0.180	0.454
-481.376	68.754	0.149	0.153
-480.362	83.803	0.115	0.126
-479.347	181.590	0.052	-0.077
-478.332	-110.370	0.194	-0.040
-477.318	-200.000	0.010	-0.191
-476.303	800.000	-0.076	-0.248
-475.289	9.770	0.286	-0.218
-474.274	11.980	-0.096	0.074
-473.259	203.976	-0.049	-0.076
-472.245	166.483	0.089	-0.126
-471.230	-63.194	0.140	0.058
-470.216	-98.474	-0.101	-0.026
-469.201	48.592	-0.024	0.022
-468.186	-200.000	-0.027	0.218
-467.172	-26.589	-0.169	-0.099
-466.157	-200.000	0.045	0.244
-465.143	-22.505	-0.079	-0.048
-464.128	27.653	0.221	0.186
-463.113	11.609	-0.122	0.094
-462.099	97.840	-0.040	-0.046
-461.084	-38.100	0.408	-0.217
-460.070	-148.156	0.381	0.032
-459.055	-200.000	0.039	0.182
-458.040	-200.000	-0.012	0.087
-457.026	800.000	0.039	-0.120
-456.011	254.165	0.053	0.091
-454.997	-56.382	-0.553	0.246
-453.982	181.270	-0.071	-0.104
-452.968	-200.000	-0.024	-0.208
-451.953	181.628	-0.044	0.065
-450.938	106.603	-0.141	0.167
-449.924	37.823	0.128	0.114
-448.909	-6.957	-0.109	0.074
-447.895	148.612	0.125	0.169
-446.880	-200.000	-0.015	-0.362
-445.865	-41.792	0.244	0.125
-444.851	-200.000	0.088	0.477
-443.836	-79.204	-0.167	-0.057
-442.822	7.448	-0.110	0.082
-441.807	-94.123	0.298	0.082
-440.792	66.475	0.121	0.123
-439.778	81.123	-0.136	-0.147
-438.763	-36.747	0.064	0.034
-437.749	49.594	0.085	0.080
-436.734	112.430	-0.252	0.305
-435.719	-52.479	-0.126	0.058
-434.705	257.022	0.214	0.369
-433.690	-121.085	-0.230	-0.039
-432.676	-200.000	-0.073	-0.341
-431.661	800.000	-0.121	-0.361
-430.646	81.137	0.141	-0.153
-429.632	169.437	0.051	0.073
-428.617	-72.935	0.339	-0.124
-427.603	-109.434	-0.129	0.027
-426.588	-15.672	-0.208	0.133
-425.573	111.393	-0.081	0.098
-424.559	79.189	0.176	0.189
-423.544	475.864	-0.066	-0.148
-422.530	-161.497	0.185	0.010
-421.515	-200.000	0.003	-0.093
-420.500	-100.339	0.239	0.059
-419.486	-101.595	-0.440	0.107
-418.471	74.170	-0.247	0.259
-417.457	800.000	-0.044	-0.162
-416.442	-76.598	0.447	-0.157
-415.428	-20.856	0.155	0.095
-414.413	-45.889	-0.179	-0.088
-413.398	-63.382	0.307	0.126
-412.384	47.547	0.086	-0.080
-411.369	800.000	0.021	0.067
-410.355	-200.000	-0.016	0.179
-409.340	37.079	0.164	0.145
-408.325	-108.454	-0.186	-0.040
-407.311	-38.331	0.279	-0.148
-406.296	-129.646	-0.163	-0.023
-405.282	298.506	-0.085	0.156
-404.267	-9.309	-0.206	0.137
-403.252	-108.719	-0.262	-0.056
-402.238	381.996	0.235	-0.483
-401.223	-28.598	0.109	0.063
-400.209	800.000	0.063	0.190
-399.194	800.000	0.098	-0.274
-398.179	238.096	-0.259	-0.430
-397.165	800.000	0.028	0.079
-396.150	-39.339	-0.166	0.087
-395.136	-55.163	-0.126	-0.057
-394.121	-83.446	0.100	-0.032
-393.106	767.106	0.027	0.074
-392.092	474.998	-0.058	0.130
-391.077	-173.299	-0.171	-0.005
-390.063	-78.734	0.234	-0.080
-389.048	-200.000	0.003	-0.215
-388.033	8.030	-0.065	0.049
-387.019	-100.263	0.325	-0.081
-386.004	-170.332	0.306	0.011
-384.990	-52.903	-0.382	0.176
-383.975	800.000	-0.056	0.207
-382.960	-119.168	0.220	-0.038
-381.946	-40.467	0.109	0.057
-380.931	-43.861	0.446	-0.224
-379.917	615.855	-0.067	-0.169
-378.902	552.955	0.012	-0.029
-377.888	-92.140	-0.193	-0.054
-376.873	-200.000	0.026	-0.238
-375.858	-171.748	-0.223	0.007
-374.844	-75.577	-0.128	-0.046
-373.829	83.247	0.207	0.225
-372.815	106.760	0.082	-0.097
-371.800	-16.414	-0.135	0.085
-370.785	76.312	-0.251	0.265
-369.771	-15.959	0.305	-0.194
-368.756	102.834	-0.272	0.318
-367.742	5.635	-0.320	0.236
-366.727	72.636	-0.158	-0.164
-365.712	-20.873	0.069	0.042
-364.698	496.646	-0.053	-0.121
-363.683	-200.000	0.040	0.197
-362.669	250.703	-0.014	0.023
-361.654	42.578	-0.154	-0.140
-360.639	-47.629	-0.260	-0.126
-359.625	-87.063	0.223	0.068
-358.610	-115.656	0.463	-0.087
-357.596	-93.742	-0.096	0.026
-356.581	3.359	-0.245	0.178
-355.566	45.782	0.239	0.220
-354.552	-47.060	-0.113	-0.055
-353.537	36.639	-0.357	-0.314
-352.523	-200.000	-0.039	0.187
-351.508	389.655	0.215	-0.445
-350.493	-30.586	0.111	0.062
-349.479	-200.000	-0.001	0.139
-348.464	-93.276	0.250	-0.069
-347.450	-18.672	0.179	-0.112
-346.435	-106.140	0.146	-0.033
-345.420	-6.681	0.130	0.088
-344.406	-117.374	0.329	-0.059
-343.391	668.453	-0.177	0.456
-342.377	169.552	0.022	0.032
-341.362	-200.000	-0.050	0.363
-340.348	-84.843	-0.236	-0.074
-339.333	-200.000	0.014	-0.226
-338.318	-200.000	-0.052	0.350
-337.304	170.962	-0.076	0.108
-336.289	82.886	-0.051	-0.056
-335.275	-200.000	0.023	-0.106
-334.260	181.720	-0.090	0.131
-333.245	143.207	-0.040	-0.053
-332.231	-14.283	-0.148	-0.095
-331.216	662.493	-0.104	-0.267
-330.202	-98.181	0.364	-0.093
-329.187	182.855	-0.249	-0.366
-328.172	41.183	0.197	-0.177
-327.158	196.731	-0.396	0.602
-326.143	69.962	-0.148	-0.152
-325.129	-200.000	-0.000	0.070
-324.114	-200.000	0.043	0.359
-323.099	-81.456	0.392	0.128
-322.085	-80.494	-0.155	0.051
-321.070	-200.000	0.035	-0.314
-320.056	292.394	-0.065	0.117
-319.041	268.866	-0.115	0.201
-318.026	263.324	-0.131	0.227
-317.012	-200.000	0.252	-0.001
-315.997	16.059	-0.300	0.236
-314.983	-6.002	-0.167	0.113
-313.968	-200.000	-0.008	-0.290
-312.953	67.654	-0.180	0.183
-311.939	323.164	0.048	0.092
-310.924	252.824	0.086	-0.147
-309.910	-48.838	-0.463	0.221
-308.895	-142.300	0.141	-0.014
-307.880	276.260	-0.165	-0.291
-306.866	129.437	0.032	0.040
-305.851	-116.119	-0.143	0.026
-304.837	229.014	-0.119	0.193
-303.822	-5.589	0.159	0.109
-302.807	-50.981	-0.318	0.149
-301.793	800.000	0.026	-0.075
-300.778	307.936	-0.173	-0.321
-299.764	702.344	-0.107	-0.280
-298.749	203.332	0.080	-0.123
-297.735	409.520	0.206	-0.434
-296.720	-200.000	-0.000	-0.077
-295.705	644.609	-0.077	0.195
-294.691	-109.880	-0.314	-0.066
-293.676	-200.000	0.034	0.187
-292.662	-59.957	0.273	-0.116
-291.647	-114.319	0.181	0.035
-290.632	39.858	-0.133	-0.118
-289.618	-152.716	-0.134	-0.010
-288.603	355.724	0.179	-0.354
-287.589	676.378	0.142	-0.366
-286.574	199.862	-0.067	0.103
-285.559	24.659	0.155	-0.128
-284.545	119.478	0.157	-0.194
-283.530	-19.650	0.125	-0.077
-282.516	-90.208	0.019	-0.005
-281.501	148.161	0.160	0.215
-280.486	16.618	0.459	-0.361
-279.472	563.657	-0.105	-0.252
-278.457	-90.651	-0.073	0.021
-277.443	-200.000	0.062	0.360
-276.428	544.567	0.111	0.264
-275.413	-148.499	0.201	0.016
-274.399	-200.000	0.041	-0.194
-273.384	328.112	-0.096	-0.184
-272.370	-140.938	-0.356	0.036
-271.355	169.113	0.163	-0.231
-270.340	-30.439	-0.331	0.187
-269.326	-200.000	0.006	-0.152
-268.311	135.150	0.160	-0.207
-267.297	646.836	-0.102	-0.260
-266.282	-8.982	0.127	0.085
-265.267	-30.634	-0.213	0.120
-264.253	219.198	-0.071	-0.112
-263.238	476.630	0.070	0.157
-262.224	-200.000	0.009	0.329
-261.209	-7.973	-0.257	0.172
-260.195	-139.850	0.179	-0.019
-259.180	-106.702	0.102	-0.022
-258.165	-138.866	0.308	0.033
-257.151	-24.605	-0.100	0.059
-256.136	60.293	0.316	0.311
-255.122	-200.000	0.012	-0.068
-254.107	-52.274	-0.018	0.008
-253.092	800.000	0.033	-0.107
-252.078	34.658	0.122	-0.106
-251.063	-155.560	0.313	-0.020
-250.049	448.097	-0.075	0.165
-249.034	-22.963	-0.298	0.179
-248.019	800.000	-0.020	0.056
-247.005	-115.722	-0.130	0.024
-245.990	-47.339	0.160	-0.077
-244.976	45.368	-0.173	0.159
-243.961	-200.000	-0.016	-0.144
-242.946	273.880	-0.195	-0.342
-241.932	-47.418	0.217	0.105
-240.917	800.000	-0.058	-0.165
-239.903	-129.860	-0.518	-0.071
-238.888	177.527	-0.250	0.362
-237.873	121.899	-0.122	0.152
-236.859	-200.000	0.001	-0.106
-235.844	-26.148	0.085	0.049
-234.830	-64.190	0.147	0.059
-233.815	4.903	-0.175	-0.128
-232.800	-200.000	-0.005	0.055
-231.786	261.194	-0.083	-0.143
-230.771	181.282	0.204	0.298
-229.757	546.028	0.075	-0.178
-228.742	-8.474	0.331	-0.221
-227.727	-200.000	-0.030	0.178
-226.713	152.826	-0.069	-0.094
-225.698	-37.435	0.302	-0.160
-224.684	-104.595	0.045	0.010
-223.669	546.199	0.040	-0.094
-222.655	8.749	-0.110	-0.082
-221.640	201.891	-0.098	0.150
-220.625	-83.347	0.067	0.021
-219.611	29.120	0.213	-0.179
-218.596	-88.090	-0.100	-0.030
-217.582	155.436	-0.142	0.194
-216.567	-113.169	0.016	-0.003
-215.552	-73.906	0.184	-0.066
-214.538	87.157	-0.217	0.239
-213.523	-91.937	-0.052	0.015
-212.509	135.012	0.166	-0.214
-211.494	471.388	0.048	-0.108
-210.479	122.932	0.246	-0.306
-209.465	182.833	0.147	-0.216
-208.450	-200.000	0.004	-0.139
-207.436	-107.328	0.458	0.100
-206.421	-149.057	0.285	-0.023
-205.406	180.951	0.134	-0.196
-204.392	-76.699	0.225	0.078
-203.377	-10.313	-0.307	-0.202
-202.363	563.754	-0.071	0.170
-201.348	-142.893	0.154	-0.015
-200.333	-9.109	0.239	-0.158
-199.319	-200.000	0.013	0.231
-198.304	-13.195	-0.117	0.076
-197.290	-73.060	-0.377	-0.137
-196.275	437.676	-0.085	-0.185
-195.260	-23.315	0.333	0.199
-194.246	-200.000	-0.035	0.230
-193.231	-64.928	-0.282	0.113
-192.217	-200.000	0.003	-0.019
-191.202	41.676	-0.157	0.141
-190.187	57.705	-0.145	-0.141
-189.173	582.334	0.149	0.363
-188.158	-200.000	0.001	-0.157
-187.144	800.000	0.081	0.233
-186.129	87.669	-0.067	-0.073
-185.114	62.858	-0.102	0.101
-184.100	217.334	0.234	-0.369
-183.085	-86.164	0.398	-0.122
-182.071	-200.000	-0.010	-0.049
-181.056	-121.448	0.388	-0.064
-180.042	218.405	0.158	0.251
-179.027	-40.281	-0.243	0.125
-178.012	185.348	0.275	0.405
-176.998	-76.136	0.256	0.089
-175.983	-49.954	0.113	-0.053
-174.969	187.024	0.087	0.129
-173.954	736.659	-0.100	-0.265
-172.939	-80.382	-0.553	0.183
-171.925	172.593	0.187	-0.267
-170.910	10.529	-0.281	-0.212
-169.896	592.649	-0.080	0.197
-168.881	800.000	0.076	0.324
-167.866	-200.000	-0.094	0.424
-166.852	-135.329	-0.154	0.018
-165.837	22.041	-0.229	-0.185
-164.823	-100.901	0.258	0.063
-163.808	800.000	0.058	-0.235
-162.793	104.215	0.174	-0.202
-161.779	-71.052	0.209	0.078
-160.764	-107.123	0.190	0.042
-159.750	-24.962	-0.066	0.039
-158.735	37.993	-0.354	-0.312
-157.720	97.101	0.222	-0.253
-156.706	800.000	-0.016	0.061
-155.691	11.151	0.122	-0.092
-154.677	-81.537	-0.386	0.126
-153.662	800.000	-0.070	0.196
-152.647	-26.678	-0.095	0.055
-151.633	-200.000	-0.004	0.288
-150.618	248.504	0.021	0.036
-149.604	-86.892	0.153	-0.046
-148.589	84.322	0.285	-0.309
-147.574	-200.000	-0.012	0.061
-146.560	-80.638	-0.145	-0.048
-145.545	-200.000	0.004	-0.041
-144.531	-68.166	-0.073	-0.028
-143.516	26.118	0.175	-0.145
-142.502	184.179	0.151	-0.221
-141.487	-141.140	-0.228	0.023
-140.472	152.269	0.083	-0.111
-139.458	91.046	0.142	0.158
-138.443	-140.690	-0.182	0.019
-137.429	-86.448	0.051	-0.016
-136.414	-122.559	-0.031	0.005
-135.399	-2.708	-0.164	0.113
-134.385	-200.000	-0.016	-0.102
-133.370	-200.000	-0.049	0.331
-132.356	-80.383	0.085	0.028
-131.341	73.582	0.133	0.137
-130.326	-28.294	0.325	-0.186
-129.312	-100.580	-0.214	-0.052
-128.297	340.087	0.128	-0.247
-127.283	-58.381	0.326	0.140
-126.268	35.370	-0.473	0.410
-125.253	-200.000	-0.016	-0.145
-124.239	-67.687	0.460	0.178
-123.224	-20.766	0.059	0.036
-122.210	70.880	-0.070	0.072
-121.195	800.000	0.046	0.185
