DTS Sentinel unit serial number:	SN413079Multiplexer serial number:	ORYXHardware model number:	OX4-SRSoftware version number:	ORYX F/W v4.00 Oryx Data Collector v3.7.2.0data status	okinstallation	princeton_trtdifferential loss correction	single-endedforward channel	channel 2reverse channel	N/Adate	2019/09/13time	02:15:34forward acquisition time	60.00reverse acquisition time	0.00gamma	496.2192k internal	0.2334k external	0.2334temperature offset calibration	1.0178default loss term (dB/km)	0.3790temperature slope calibration	1.0000multiplexer offset coefficient	1.0000multiplexer slope coefficient	1.0000fibre end	0.00T internal ref (°C)	27.56T ext. ref 1 (°C)	3.90T ext. ref 2 (°C)	22.36length (m)	temperature (°C)	Stokes	anti-Stokes-747.200	-200.000	-0.004	0.109
-746.185	36.925	0.460	0.409
-745.171	493.757	0.212	0.489
-744.156	-87.881	-0.184	0.056
-743.142	-100.724	-0.123	0.030
-742.127	-157.610	0.259	0.016
-741.112	95.838	-0.107	0.123
-740.098	194.711	-0.214	0.325
-739.083	-115.094	0.099	0.019
-738.069	8.627	-0.268	0.203
-737.054	-71.724	-0.027	0.010
-736.039	-200.000	-0.001	-0.162
-735.025	-74.463	0.206	-0.075
-734.010	206.261	-0.131	-0.205
-732.996	-58.739	0.184	-0.080
-731.981	-200.000	-0.002	0.126
-730.966	75.241	-0.179	0.190
-729.952	-200.000	0.022	-0.277
-728.937	55.256	-0.145	-0.141
-727.923	-38.900	-0.519	0.275
-726.908	-8.856	0.168	0.113
-725.894	800.000	-0.064	-0.199
-724.879	-200.000	0.026	-0.144
-723.864	145.112	0.124	0.166
-722.850	-160.704	-0.247	0.013
-721.835	527.945	-0.158	-0.375
-720.821	109.499	-0.285	-0.343
-719.806	-200.000	0.008	0.090
-718.791	-184.147	-0.294	-0.005
-717.777	118.522	0.215	-0.267
-716.762	210.464	-0.057	-0.090
-715.748	78.428	0.080	-0.085
-714.733	-154.208	-0.595	-0.040
-713.718	-51.496	0.187	0.088
-712.704	109.247	-0.235	-0.282
-711.689	40.011	-0.381	-0.344
-710.675	-85.863	0.163	0.051
-709.660	-23.435	-0.132	-0.080
-708.645	591.388	0.123	-0.304
-707.631	45.012	-0.176	-0.162
-706.616	800.000	-0.049	-0.169
-705.602	-122.394	-0.076	-0.012
-704.587	505.406	-0.016	-0.037
-703.572	77.426	-0.122	-0.130
-702.558	506.295	0.015	0.034
-701.543	29.846	0.106	0.090
-700.529	-200.000	-0.057	0.333
-699.514	217.913	-0.126	-0.201
-698.499	-136.254	-0.237	0.028
-697.485	168.653	0.156	0.223
-696.470	-106.135	0.111	0.025
-695.456	800.000	-0.041	-0.128
-694.441	279.941	0.144	-0.257
-693.426	198.689	0.119	-0.182
-692.412	-3.014	0.163	0.114
-691.397	-7.109	0.124	0.085
-690.383	-138.719	-0.273	0.030
-689.368	-91.238	0.194	-0.056
-688.354	158.098	0.029	0.040
-687.339	261.821	0.288	0.501
-686.324	-49.059	0.131	-0.063
-685.310	39.910	0.263	0.237
-684.295	280.006	0.111	0.198
-683.281	-42.184	-0.270	-0.139
-682.266	-33.756	-0.217	0.120
-681.251	113.679	-0.180	0.219
-680.237	173.344	-0.135	-0.196
-679.222	-106.564	0.115	-0.026
-678.208	-51.392	-0.154	-0.072
-677.193	800.000	0.091	0.266
-676.178	-139.948	0.119	-0.013
-675.164	149.252	0.146	-0.197
-674.149	-200.000	0.004	-0.227
-673.135	800.000	-0.029	-0.129
-672.120	42.109	0.143	-0.130
-671.105	-37.497	-0.280	-0.150
-670.091	251.647	-0.097	-0.165
-669.076	13.000	0.380	0.295
-668.062	78.524	0.072	-0.077
-667.047	162.323	0.203	-0.285
-666.032	-200.000	-0.044	0.255
-665.018	188.071	-0.142	-0.212
-664.003	-200.000	0.008	0.159
-662.989	-25.119	-0.147	-0.087
-661.974	-129.175	-0.411	0.058
-660.959	71.401	-0.397	-0.413
-659.945	-200.000	0.056	-0.573
-658.930	24.931	0.102	-0.084
-657.916	-200.000	-0.031	0.173
-656.901	-110.816	-0.228	0.047
-655.886	10.840	0.084	0.064
-654.872	197.047	0.080	-0.122
-653.857	-200.000	0.049	-0.291
-652.843	-140.806	-0.317	0.033
-651.828	-31.118	-0.137	0.077
-650.814	314.841	-0.188	-0.354
-649.799	95.158	-0.062	0.071
-648.784	-54.273	-0.400	0.182
-647.770	-8.919	-0.161	0.108
-646.755	227.537	0.145	-0.237
-645.741	-200.000	-0.005	-0.049
-644.726	800.000	0.029	0.101
-643.711	-200.000	-0.040	0.429
-642.697	800.000	-0.062	-0.252
-641.682	87.209	-0.036	0.040
-640.668	-36.909	-0.266	0.143
-639.653	-63.213	-0.135	-0.056
-638.638	138.623	-0.099	0.130
-637.624	-200.000	-0.004	-0.185
-636.609	-200.000	-0.013	0.075
-635.595	-200.000	-0.004	0.108
-634.580	-200.000	0.013	0.122
-633.565	149.607	-0.077	0.105
-632.551	-200.000	-0.040	0.235
-631.536	287.346	-0.074	-0.134
-630.522	114.585	-0.171	0.209
-629.507	-100.382	-0.217	0.054
-628.492	-58.356	-0.151	-0.066
-627.478	-200.000	-0.005	-0.088
-626.463	162.308	-0.139	-0.195
-625.449	571.709	-0.111	-0.271
-624.434	142.268	0.072	-0.095
-623.419	-200.000	-0.011	-0.108
-622.405	42.524	0.104	-0.095
-621.390	-200.000	0.020	0.210
-620.376	800.000	0.007	-0.028
-619.361	-102.905	-0.080	-0.019
-618.346	-200.000	-0.036	-0.266
-617.332	238.986	0.097	0.161
-616.317	-19.649	0.157	0.097
-615.303	-200.000	-0.018	-0.152
-614.288	-41.576	0.123	0.063
-613.273	170.249	0.059	0.084
-612.259	5.340	0.176	0.130
-611.244	64.168	-0.090	0.090
-610.230	118.915	0.107	-0.132
-609.215	-20.013	-0.070	-0.043
-608.201	313.599	-0.127	-0.238
-607.186	6.247	-0.128	-0.095
-606.171	-39.758	-0.201	0.105
-605.157	-6.655	-0.277	-0.188
-604.142	209.845	0.177	-0.278
-603.128	1.825	-0.016	-0.012
-602.113	800.000	-0.109	0.456
-601.098	-111.856	-0.111	0.022
-600.084	800.000	-0.044	0.178
-599.069	38.479	-0.014	-0.012
-598.055	-94.085	0.104	-0.028
-597.040	-91.864	-0.187	-0.053
-596.025	700.987	-0.021	-0.055
-595.011	-109.213	-0.463	-0.098
-593.996	-125.420	0.100	-0.015
-592.982	52.966	-0.156	0.149
-591.967	-47.058	0.179	-0.087
-590.952	800.000	-0.067	-0.201
-589.938	118.683	0.064	0.079
-588.923	-15.332	0.373	-0.238
-587.909	-40.193	0.064	0.033
-586.894	136.907	-0.039	-0.051
-585.879	-200.000	0.002	0.036
-584.865	187.670	0.214	-0.319
-583.850	227.748	0.103	-0.167
-582.836	192.797	0.107	0.161
-581.821	294.545	-0.087	-0.159
-580.806	322.632	-0.133	0.253
-579.792	-106.755	-0.108	0.024
-578.777	-93.825	-0.107	-0.030
-577.763	800.000	0.068	-0.288
-576.748	221.290	-0.182	-0.291
-575.733	-200.000	0.009	0.300
-574.719	269.802	-0.212	0.371
-573.704	70.488	0.087	-0.090
-572.690	374.755	-0.130	0.265
-571.675	495.286	-0.072	0.165
-570.661	411.776	0.030	0.064
-569.646	63.984	0.116	-0.116
-568.631	-200.000	0.070	-0.342
-567.617	48.103	-0.188	-0.175
-566.602	-200.000	-0.007	0.112
-565.588	66.130	0.091	-0.092
-564.573	-192.996	0.280	0.003
-563.558	-160.488	0.147	0.008
-562.544	339.812	0.046	-0.089
-561.529	37.845	0.073	0.064
-560.515	-200.000	-0.009	-0.081
-559.500	15.943	0.074	0.058
-558.485	-200.000	-0.054	-0.305
-557.471	-200.000	-0.019	0.244
-556.456	-132.017	-0.101	-0.013
-555.442	800.000	0.073	-0.268
-554.427	-75.810	-0.178	-0.063
-553.412	-72.576	-0.232	-0.085
-552.398	40.528	0.223	0.201
-551.383	-200.000	-0.012	-0.117
-550.369	-200.000	-0.049	0.258
-549.354	20.195	-0.163	-0.131
-548.339	800.000	0.142	-0.536
-547.325	-55.894	-0.195	0.087
-546.310	387.096	-0.165	-0.341
-545.296	166.811	-0.127	0.180
-544.281	-107.370	-0.253	-0.055
-543.266	83.311	-0.204	-0.222
-542.252	133.290	0.134	0.172
-541.237	238.378	0.106	0.176
-540.223	-31.772	0.127	-0.071
-539.208	57.747	-0.164	-0.160
-538.193	517.410	0.108	0.252
-537.179	-181.791	-0.130	0.002
-536.164	369.451	0.103	-0.207
-535.150	-11.989	-0.236	0.154
-534.135	77.330	0.096	0.102
-533.121	800.000	-0.038	-0.137
-532.106	-93.740	-0.160	-0.044
-531.091	-35.861	-0.379	-0.204
-530.077	-200.000	0.016	-0.226
-529.062	-14.795	-0.183	-0.117
-528.048	-200.000	-0.059	0.463
-527.033	-42.216	0.073	-0.037
-526.018	-74.223	-0.126	-0.046
-525.004	-139.696	-0.249	0.026
-523.989	800.000	-0.043	0.142
-522.975	800.000	0.098	0.278
-521.960	-99.556	0.154	-0.039
-520.945	-104.969	0.338	0.077
-519.931	269.591	-0.143	-0.251
-518.916	-200.000	-0.029	-0.166
-517.902	38.651	-0.228	-0.203
-516.887	15.609	-0.163	0.128
-515.872	-30.234	0.265	-0.150
-514.858	469.141	0.118	-0.264
-513.843	-192.337	0.282	0.003
-512.829	-4.970	-0.387	0.266
-511.814	-200.000	-0.003	-0.221
-510.799	-119.463	0.148	-0.026
-509.785	-50.740	-0.155	0.073
-508.770	79.434	-0.120	0.128
-507.756	568.947	0.199	-0.482
-506.741	89.327	0.274	-0.304
-505.726	-76.198	-0.154	0.054
-504.712	-182.193	0.240	-0.004
-503.697	-200.000	-0.002	-0.011
-502.683	-60.420	0.163	-0.069
-501.668	-200.000	0.084	-0.544
-500.653	35.034	-0.117	-0.102
-499.639	-200.000	0.034	-0.176
-498.624	14.768	-0.183	-0.142
-497.610	-102.512	-0.307	-0.073
-496.595	-82.869	-0.084	0.027
-495.581	543.858	0.045	-0.106
-494.566	-200.000	-0.010	-0.128
-493.551	-59.896	0.169	-0.072
-492.537	-26.079	-0.132	0.077
-491.522	-28.871	0.112	-0.064
-490.508	-200.000	0.010	0.125
-489.493	800.000	-0.100	-0.289
-488.478	481.310	0.123	-0.278
-487.464	-200.000	0.006	0.290
-486.449	449.516	0.044	0.096
-485.435	88.309	0.100	-0.110
-484.420	-24.252	-0.128	-0.076
-483.405	-200.000	0.030	0.252
-482.391	-200.000	-0.027	0.166
-481.376	800.000	0.052	0.175
-480.362	800.000	0.074	-0.250
-479.347	60.521	-0.109	-0.108
-478.332	46.315	-0.134	-0.124
-477.318	-77.693	0.167	-0.058
-476.303	800.000	0.074	0.220
-475.289	-143.110	0.295	-0.028
-474.274	12.154	0.110	0.084
-473.259	800.000	-0.059	-0.193
-472.245	-8.726	0.232	-0.155
-471.230	-73.406	0.049	-0.018
-470.216	6.225	0.217	-0.160
-469.201	68.108	-0.040	0.040
-468.186	253.277	0.089	0.151
-467.172	800.000	0.068	0.267
-466.157	-6.711	0.197	-0.133
-465.143	219.087	-0.163	-0.259
-464.128	-33.543	-0.125	0.069
-463.113	80.257	0.130	0.139
-462.099	292.557	-0.081	0.146
-461.084	38.117	-0.320	0.283
-460.070	66.251	0.269	-0.272
-459.055	-174.476	-0.105	-0.003
-458.040	800.000	0.022	0.088
-457.026	-200.000	0.000	-0.100
-456.011	-29.083	-0.103	-0.059
-454.997	141.853	-0.252	0.332
-453.982	263.718	-0.079	-0.136
-452.968	63.229	-0.074	-0.073
-451.953	-44.313	-0.219	-0.109
-450.938	74.883	-0.018	0.019
-449.924	800.000	0.112	0.315
-448.909	-200.000	-0.012	0.086
-447.895	28.283	-0.129	0.108
-446.880	102.583	0.128	-0.148
-445.865	423.428	0.079	-0.168
-444.851	-200.000	-0.030	0.244
-443.836	800.000	0.006	-0.020
-442.822	106.403	0.183	-0.215
-441.807	-200.000	0.007	-0.040
-440.792	622.820	-0.140	0.350
-439.778	-11.733	0.142	0.093
-438.763	93.519	0.097	-0.109
-437.749	172.788	-0.186	0.266
-436.734	-30.245	0.069	-0.039
-435.719	203.908	-0.145	0.223
-434.705	-43.296	-0.355	-0.178
-433.690	75.153	-0.019	0.020
-432.676	-46.321	-0.027	0.013
-431.661	-200.000	0.087	-0.391
-430.646	127.718	-0.070	-0.088
-429.632	695.259	-0.087	0.227
-428.617	1.047	0.317	0.226
-427.603	-200.000	-0.029	0.475
-426.588	49.441	0.265	-0.247
-425.573	-135.886	-0.211	-0.025
-424.559	-26.700	0.292	-0.169
-423.544	-47.609	0.260	-0.125
-422.530	-200.000	-0.062	-0.389
-421.515	-151.973	-0.241	0.017
-420.500	-162.967	0.170	-0.008
-419.486	1.808	0.047	0.033
-418.471	1.237	0.088	0.063
-417.457	-66.444	-0.405	-0.159
-416.442	156.629	-0.113	-0.155
-415.428	-74.607	0.219	0.078
-414.413	481.763	0.118	0.266
-413.398	-68.487	-0.126	-0.048
-412.384	-12.397	-0.074	0.048
-411.369	-200.000	0.023	0.392
-410.355	14.049	-0.373	0.288
-409.340	800.000	0.090	0.256
-408.325	130.261	0.032	0.040
-407.311	-200.000	0.010	0.109
-406.296	476.482	-0.067	0.149
-405.282	56.924	-0.057	0.055
-404.267	-66.288	-0.244	-0.096
-403.252	-200.000	-0.028	-0.179
-402.238	48.382	-0.129	-0.119
-401.223	-14.267	0.075	0.048
-400.209	31.929	0.411	0.351
-399.194	-101.816	0.181	0.043
-398.179	-24.111	0.295	0.175
-397.165	-200.000	-0.039	0.183
-396.150	188.032	0.141	0.208
-395.136	108.152	-0.164	-0.194
-394.121	-179.102	-0.275	-0.006
-393.106	800.000	-0.033	-0.101
-392.092	11.512	0.306	-0.233
-391.077	109.561	-0.158	-0.187
-390.063	-30.145	0.119	0.067
-389.048	-142.106	-0.297	-0.029
-388.033	382.470	0.263	0.537
-387.019	84.332	-0.107	-0.116
-386.004	-93.992	-0.282	0.077
-384.990	85.035	0.134	-0.145
-383.975	800.000	0.016	-0.062
-382.960	37.525	-0.251	0.221
-381.946	21.113	-0.181	0.146
-380.931	800.000	-0.007	0.025
-379.917	380.769	-0.185	-0.377
-378.902	-162.877	-0.098	0.005
-377.888	57.686	-0.248	0.240
-376.873	-102.684	-0.224	-0.053
-375.858	-145.528	0.464	0.041
-374.844	-86.001	-0.301	0.092
-373.829	-40.017	-0.094	-0.049
-372.815	-200.000	0.003	-0.109
-371.800	-55.413	0.047	0.021
-370.785	188.268	0.130	0.193
-369.771	-13.255	-0.288	0.185
-368.756	-57.155	-0.294	-0.128
-367.742	800.000	0.149	-0.466
-366.727	222.769	0.221	-0.353
-365.712	-98.778	-0.244	0.061
-364.698	-200.000	0.021	-0.399
-363.683	144.712	-0.167	-0.220
-362.669	145.151	0.188	0.249
-361.654	68.363	-0.201	0.204
-360.639	10.971	-0.081	0.061
-359.625	-9.891	0.062	0.041
-358.610	321.115	0.182	0.342
-357.596	81.861	-0.076	0.081
-356.581	88.088	-0.147	0.161
-355.566	-200.000	0.012	0.062
-354.552	-58.364	0.325	-0.140
-353.537	-37.662	0.352	-0.186
-352.523	-25.540	-0.359	0.210
-351.508	221.659	-0.038	0.060
-350.493	305.133	0.067	0.123
-349.479	-61.677	-0.056	-0.023
-348.464	-23.327	0.039	0.023
-347.450	582.224	-0.172	0.418
-346.435	-200.000	0.000	-0.258
-345.420	24.094	-0.089	-0.073
-344.406	182.457	0.194	-0.282
-343.391	29.573	-0.100	0.085
-342.377	363.529	-0.072	0.142
-341.362	-88.909	-0.351	-0.103
-340.348	-135.309	0.146	0.017
-339.333	124.699	-0.120	-0.149
-338.318	800.000	0.052	-0.172
-337.304	-35.452	0.206	0.111
-336.289	800.000	0.117	0.479
-335.275	-25.719	-0.261	-0.152
-334.260	-81.130	-0.096	0.031
-333.245	-160.035	0.283	0.015
-332.231	12.932	0.231	-0.177
-331.216	800.000	-0.055	-0.175
-330.202	-33.818	-0.057	-0.031
-329.187	-127.644	0.204	0.029
-328.172	-65.544	0.131	-0.052
-327.158	-30.414	0.070	-0.039
-326.143	-143.115	0.280	-0.027
-325.129	279.751	-0.133	-0.235
-324.114	-61.625	0.077	0.032
-323.099	303.939	-0.085	0.156
-322.085	-160.701	-0.248	0.013
-321.070	-20.504	0.133	-0.081
-320.056	264.773	-0.036	-0.062
-319.041	800.000	0.069	-0.209
-318.026	244.699	-0.081	-0.135
-317.012	287.518	0.053	-0.095
-315.997	800.000	0.032	0.116
-314.983	-200.000	-0.080	-0.376
-313.968	-21.890	-0.425	-0.256
-312.953	-200.000	-0.010	-0.297
-311.939	-135.431	0.283	0.033
-310.924	-200.000	-0.020	0.404
-309.910	-9.088	-0.072	0.047
-308.895	-200.000	-0.011	0.104
-307.880	333.070	0.129	0.246
-306.866	800.000	-0.090	0.350
-305.851	189.261	0.080	-0.119
-304.837	11.459	-0.214	-0.162
-303.822	321.532	-0.063	-0.118
-302.807	-90.661	0.587	-0.167
-301.793	107.435	0.110	-0.129
-300.778	-38.122	0.069	-0.036
-299.764	-79.278	-0.066	-0.022
-298.749	226.478	0.141	0.227
-297.735	-111.047	-0.137	0.028
-296.720	800.000	0.018	0.078
-295.705	235.473	0.182	0.297
-294.691	-200.000	0.004	-0.126
-293.676	-200.000	0.013	-0.102
-292.662	-106.980	0.098	-0.021
-291.647	800.000	0.023	-0.066
-290.632	5.542	-0.397	0.289
-289.618	200.312	0.150	0.227
-288.603	236.661	0.115	0.189
-287.589	-103.809	0.213	-0.049
-286.574	-38.602	0.259	0.135
-285.559	-90.581	-0.071	0.020
-284.545	53.333	0.260	-0.246
-283.530	-200.000	-0.000	0.039
-282.516	99.376	-0.115	-0.132
-281.501	-132.601	-0.131	-0.017
-280.486	-200.000	0.013	-0.101
-279.472	-200.000	0.019	0.242
-278.457	-46.154	0.152	0.074
-277.443	-200.000	-0.013	-0.267
-276.428	-200.000	0.028	-0.132
-275.413	-200.000	-0.051	0.239
-274.399	-59.425	0.128	-0.054
-273.384	800.000	0.073	-0.208
-272.370	-139.047	0.375	-0.040
-271.355	346.120	0.087	-0.169
-270.340	-200.000	0.033	-0.170
-269.326	330.177	0.177	0.337
-268.311	86.749	-0.230	0.251
-267.297	-99.533	-0.267	0.066
-266.282	-179.201	-0.217	-0.005
-265.267	800.000	0.043	-0.158
-264.253	-200.000	0.008	0.185
-263.238	246.330	0.181	0.301
-262.224	-200.000	0.056	-0.284
-261.209	-200.000	0.035	-0.208
-260.195	-74.148	-0.161	-0.058
-259.180	12.236	0.069	0.053
-258.165	-88.219	0.277	-0.082
-257.151	180.807	0.108	-0.156
-256.136	174.373	-0.091	0.130
-255.122	510.297	0.109	-0.249
-254.107	-158.526	0.185	-0.011
-253.092	63.498	0.172	0.170
-252.078	800.000	0.073	0.217
-251.063	201.175	0.068	0.102
-250.049	-29.493	-0.097	-0.055
-249.034	-200.000	0.021	-0.257
-248.019	10.916	-0.001	0.001
-247.005	31.722	0.099	0.084
-245.990	-200.000	0.004	0.111
-244.976	329.189	-0.080	0.151
-243.961	-68.167	0.104	0.040
-242.946	179.882	0.059	0.085
-241.932	154.226	0.064	0.087
-240.917	-200.000	-0.041	-0.336
-239.903	300.720	0.006	0.012
-238.888	-200.000	0.028	0.368
-237.873	103.523	0.199	-0.230
-236.859	-134.001	0.054	0.007
-235.844	56.467	-0.113	-0.108
-234.830	-53.781	-0.241	0.108
-233.815	486.005	0.146	0.329
-232.800	55.071	-0.063	-0.060
-231.786	324.386	-0.058	-0.109
-230.771	199.965	-0.271	-0.410
-229.757	800.000	-0.087	0.272
-228.742	-60.019	-0.098	-0.041
-227.727	179.624	-0.132	0.190
-226.713	-50.131	-0.100	-0.047
-225.698	-45.931	0.352	0.171
-224.684	-143.326	-0.240	0.023
-223.669	-200.000	0.079	0.394
-222.655	-200.000	-0.028	0.249
-221.640	34.258	-0.100	-0.086
-220.625	-200.000	0.030	-0.153
-219.611	-200.000	-0.059	0.385
-218.596	-72.151	0.126	-0.046
-217.582	617.500	-0.066	-0.162
-216.567	-200.000	0.133	0.000
-215.552	125.501	-0.190	-0.236
-214.538	-48.402	0.226	-0.107
-213.523	-52.196	-0.326	-0.149
-212.509	-200.000	0.032	0.387
-211.494	188.708	0.084	0.123
-210.479	193.897	-0.144	0.214
-209.465	275.885	0.115	-0.201
-208.450	-19.840	0.118	-0.072
-207.436	356.067	-0.027	-0.052
-206.421	-61.655	0.217	0.090
-205.406	800.000	0.101	0.364
-204.392	345.073	0.218	0.421
-203.377	1.774	0.161	0.114
-202.363	-15.113	0.283	0.178
-201.348	-74.782	-0.051	0.018
-200.333	80.274	-0.149	0.158
-199.319	-10.161	0.140	0.092
-198.304	-5.997	-0.154	0.104
-197.290	-116.582	0.161	0.029
-196.275	-141.371	0.306	0.031
-195.260	-88.640	-0.299	-0.088
-194.246	800.000	0.060	-0.220
-193.231	712.059	-0.057	-0.149
-192.217	61.784	0.304	-0.298
-191.202	800.000	0.040	-0.152
-190.187	487.900	0.073	-0.164
-189.173	415.616	0.070	0.146
-188.158	-200.000	-0.000	-0.159
-187.144	-14.024	0.195	-0.124
-186.129	6.571	-0.198	0.145
-185.114	-200.000	0.005	0.187
-184.100	-200.000	0.020	0.090
-183.085	76.306	-0.237	-0.246
-182.071	800.000	-0.061	0.203
-181.056	385.951	0.263	0.533
-180.042	-28.423	-0.131	0.075
-179.027	-77.267	-0.160	-0.055
-178.012	-200.000	0.380	-0.001
-176.998	-200.000	-0.012	0.103
-175.983	-200.000	0.008	0.069
-174.969	-45.748	0.402	0.195
-173.954	-125.733	0.187	0.028
-172.939	-200.000	0.039	0.270
-171.925	19.972	0.062	-0.049
-170.910	233.978	0.168	-0.272
-169.896	5.529	-0.182	-0.132
-168.881	618.982	0.135	-0.333
-167.866	3.184	0.091	-0.065
-166.852	66.021	-0.141	-0.141
-165.837	-88.488	0.175	-0.051
-164.823	561.029	0.050	0.119
-163.808	-145.358	-0.312	-0.028
-162.793	-200.000	-0.008	0.366
-161.779	17.587	0.175	-0.137
-160.764	-30.799	0.054	-0.030
-159.750	-86.084	0.128	0.039
-158.735	-47.757	0.174	0.083
-157.720	-200.000	-0.090	-0.439
-156.706	493.674	-0.082	-0.186
-155.691	333.617	0.118	0.223
-154.677	800.000	0.059	0.202
-153.662	-24.276	0.272	-0.159
-152.647	-200.000	0.047	0.209
-151.633	9.175	-0.236	0.175
-150.618	-200.000	-0.031	0.135
-149.604	-169.335	0.315	0.011
-148.589	-37.154	-0.198	-0.104
-147.574	-15.194	0.137	-0.086
-146.560	27.369	-0.158	-0.130
-145.545	355.834	0.155	0.303
-144.531	-81.552	0.113	0.036
-143.516	800.000	0.077	-0.266
-142.502	-17.918	-0.100	-0.061
-141.487	542.966	-0.130	-0.304
-140.472	132.003	0.074	-0.093
-139.458	-57.763	0.347	-0.149
-138.443	206.573	-0.234	0.358
-137.429	-200.000	-0.009	-0.081
-136.414	-112.443	0.361	0.071
-135.399	-154.107	0.130	-0.009
-134.385	800.000	0.006	-0.024
-133.370	-25.524	0.275	-0.159
-132.356	-48.109	0.278	-0.132
-131.341	-200.000	-0.009	-0.156
-130.326	-85.635	-0.078	-0.024
-129.312	419.311	-0.074	0.154
-128.297	199.152	0.096	0.144
-127.283	-41.939	0.341	-0.171
-126.268	527.483	0.153	-0.354
-125.253	594.945	0.066	-0.160
-124.239	128.925	-0.232	0.290
-123.224	-104.680	0.096	0.022
-122.210	-31.010	-0.094	-0.052
-121.195	67.958	0.203	0.204
