DTS Sentinel unit serial number:	SN413079Multiplexer serial number:	ORYXHardware model number:	OX4-SRSoftware version number:	ORYX F/W v4.00 Oryx Data Collector v3.7.2.0data status	okinstallation	princeton_trtdifferential loss correction	single-endedforward channel	channel 2reverse channel	N/Adate	2019/09/15time	07:43:35forward acquisition time	60.00reverse acquisition time	0.00gamma	496.2192k internal	0.2325k external	0.2325temperature offset calibration	1.0036default loss term (dB/km)	0.3790temperature slope calibration	1.0000multiplexer offset coefficient	1.0000multiplexer slope coefficient	1.0000fibre end	0.00T internal ref (°C)	30.62T ext. ref 1 (°C)	4.97T ext. ref 2 (°C)	25.76length (m)	temperature (°C)	Stokes	anti-Stokes-747.200	800.000	0.081	-0.272
-746.185	800.000	-0.086	-0.352
-745.171	-34.731	-0.164	0.090
-744.156	-88.752	-0.278	0.083
-743.142	-200.000	0.012	0.178
-742.127	269.488	-0.051	0.091
-741.112	481.467	0.024	-0.055
-740.098	179.945	-0.119	-0.176
-739.083	-162.886	0.433	0.021
-738.069	-200.000	0.015	0.096
-737.054	-200.000	-0.056	0.389
-736.039	61.247	-0.197	0.197
-735.025	-200.000	0.017	-0.153
-734.010	76.280	0.055	-0.059
-732.996	17.424	-0.199	0.159
-731.981	-63.553	-0.391	0.162
-730.966	-198.540	-0.079	0.000
-729.952	-65.229	-0.207	0.084
-728.937	384.549	0.092	-0.190
-727.923	126.370	-0.075	0.095
-726.908	-134.233	0.193	0.024
-725.894	-71.239	-0.175	-0.066
-724.879	-200.000	0.025	0.124
-723.864	323.309	0.035	0.067
-722.850	-112.442	-0.225	0.045
-721.835	336.780	0.071	0.139
-720.821	-71.553	0.260	0.098
-719.806	-141.106	0.148	-0.015
-718.791	747.258	-0.041	-0.111
-717.777	-142.235	0.385	-0.038
-716.762	-200.000	0.017	0.234
-715.748	-91.578	-0.253	0.073
-714.733	300.358	-0.055	-0.101
-713.718	-41.950	-0.163	-0.084
-712.704	-122.557	-0.178	-0.029
-711.689	-36.449	0.357	-0.194
-710.675	-124.354	-0.147	0.023
-709.660	235.356	0.091	-0.151
-708.645	-5.017	0.213	0.148
-707.631	-197.061	-0.099	0.001
-706.616	-115.369	-0.203	-0.039
-705.602	62.526	-0.067	-0.068
-704.587	-8.090	-0.160	0.109
-703.572	-193.602	0.144	0.001
-702.558	159.193	-0.090	-0.126
-701.543	-200.000	0.043	-0.204
-700.529	-63.944	-0.282	0.116
-699.514	-140.621	-0.318	-0.033
-698.499	-124.963	-0.172	0.027
-697.485	207.445	-0.044	-0.069
-696.470	-63.993	0.315	0.129
-695.456	48.502	-0.161	0.151
-694.441	63.733	0.227	-0.230
-693.426	800.000	0.131	-0.383
-692.412	-200.000	-0.030	0.155
-691.397	-47.143	-0.164	0.080
-690.383	800.000	-0.076	-0.329
-689.368	-12.851	-0.100	0.065
-688.354	-104.822	0.437	-0.101
-687.339	-6.918	-0.205	0.140
-686.324	-11.823	-0.103	-0.068
-685.310	-130.245	-0.094	0.013
-684.295	114.373	-0.181	-0.222
-683.281	59.620	-0.129	0.128
-682.266	-153.352	0.309	0.022
-681.251	-10.290	-0.336	0.224
-680.237	323.135	-0.035	-0.066
-679.222	139.696	0.138	0.183
-678.208	-165.818	0.137	-0.006
-677.193	-200.000	-0.085	0.484
-676.178	323.328	0.022	-0.043
-675.164	35.061	-0.248	0.218
-674.149	800.000	-0.097	-0.365
-673.135	800.000	-0.042	-0.128
-672.120	68.314	0.012	0.012
-671.105	306.207	-0.117	-0.218
-670.091	62.521	-0.135	0.136
-669.076	162.166	-0.115	0.163
-668.062	800.000	-0.153	-0.463
-667.047	-88.965	-0.219	0.065
-666.032	11.267	0.268	0.206
-665.018	-36.481	0.110	0.060
-664.003	324.387	-0.176	-0.337
-662.989	30.512	0.094	0.081
-661.974	800.000	0.026	0.115
-660.959	-200.000	0.010	-0.102
-659.945	-52.330	0.149	-0.069
-658.930	-100.510	-0.213	0.053
-657.916	-72.032	0.208	0.078
-656.901	-159.478	-0.351	0.020
-655.886	41.198	0.155	-0.141
-654.872	-200.000	0.007	0.057
-653.857	-113.575	-0.156	0.031
-652.843	-200.000	0.000	-0.071
-651.828	257.806	0.057	-0.099
-650.814	48.191	-0.187	0.176
-649.799	55.056	0.254	0.246
-648.784	-13.339	-0.234	-0.153
-647.770	19.107	0.137	-0.110
-646.755	66.335	-0.075	0.077
-645.741	800.000	-0.078	-0.320
-644.726	-34.821	0.121	-0.067
-643.711	36.060	-0.217	-0.192
-642.697	-200.000	0.015	0.175
-641.682	1.203	-0.074	0.054
-640.668	96.570	-0.088	-0.101
-639.653	-7.513	0.113	0.077
-638.638	800.000	0.033	0.123
-637.624	69.418	0.198	0.205
-636.609	-130.297	0.235	0.032
-635.595	-200.000	0.036	0.318
-634.580	-58.132	-0.428	-0.187
-633.565	-175.971	0.239	-0.006
-632.551	114.588	0.045	-0.055
-631.536	83.989	-0.159	0.174
-630.522	79.442	-0.081	-0.087
-629.507	-151.122	-0.289	-0.022
-628.492	-200.000	-0.054	0.360
-627.478	-200.000	0.053	0.423
-626.463	-120.670	-0.234	0.040
-625.449	800.000	-0.141	0.457
-624.434	-200.000	-0.102	-0.535
-623.419	800.000	0.143	0.557
-622.405	108.837	0.149	-0.178
-621.390	-135.467	-0.200	-0.024
-620.376	-200.000	0.021	0.518
-619.361	-6.649	0.111	-0.076
-618.346	-102.310	-0.303	-0.073
-617.332	-200.000	-0.006	0.102
-616.317	-200.000	-0.049	0.230
-615.303	44.290	0.141	-0.130
-614.288	-200.000	-0.013	0.087
-613.273	-155.817	-0.243	-0.016
-612.259	136.769	0.033	-0.043
-611.244	-21.636	-0.265	-0.162
-610.230	-9.813	0.088	0.059
-609.215	187.914	-0.093	-0.139
-608.201	80.554	0.119	0.129
-607.186	186.009	0.044	-0.066
-606.171	-61.751	-0.303	-0.128
-605.157	-38.678	-0.365	0.193
-604.142	231.614	0.076	-0.125
-603.128	800.000	0.038	-0.139
-602.113	-38.139	0.093	0.050
-601.098	147.459	0.190	0.257
-600.084	171.167	-0.007	-0.010
-599.069	-102.011	-0.248	-0.060
-598.055	132.297	0.130	-0.168
-597.040	-200.000	0.032	0.244
-596.025	-200.000	-0.036	0.254
-595.011	-40.453	-0.154	-0.080
-593.996	-79.316	-0.057	0.019
-592.982	-26.735	0.371	-0.218
-591.967	155.628	-0.089	0.123
-590.952	-82.000	-0.163	-0.053
-589.938	-49.748	-0.051	0.024
-588.923	800.000	-0.077	0.239
-587.909	-14.740	0.134	-0.086
-586.894	17.281	0.101	-0.080
-585.879	264.349	-0.195	0.341
-584.865	111.232	-0.055	-0.067
-583.850	183.133	-0.181	0.268
-582.836	-200.000	-0.015	0.173
-581.821	3.386	0.074	0.054
-580.806	-200.000	0.020	0.208
-579.792	661.502	0.118	-0.305
-578.777	-1.964	-0.116	0.082
-577.763	-97.748	-0.307	-0.080
-576.748	-200.000	-0.002	0.081
-575.733	110.728	0.103	-0.125
-574.719	-200.000	-0.055	-0.375
-573.704	-84.340	-0.103	-0.033
-572.690	-81.461	-0.131	0.043
-571.675	39.905	0.070	0.063
-570.661	-84.104	0.444	-0.141
-569.646	151.829	-0.099	0.136
-568.631	609.476	-0.030	0.076
-567.617	-81.085	-0.099	-0.033
-566.602	-44.828	0.399	0.199
-565.588	-155.592	-0.199	0.013
-564.573	800.000	-0.030	-0.087
-563.558	467.069	-0.100	0.226
-562.544	197.510	-0.120	-0.184
-561.529	-102.103	-0.446	0.108
-560.515	-119.750	0.195	-0.034
-559.500	14.383	-0.024	0.019
-558.485	349.502	-0.026	0.051
-557.471	30.006	0.053	-0.046
-556.456	-2.980	0.343	-0.240
-555.442	8.036	-0.290	-0.218
-554.427	-148.167	0.027	-0.002
-553.412	-149.671	-0.210	0.017
-552.398	-59.815	-0.173	0.074
-551.383	-127.328	0.055	0.008
-550.369	-132.124	-0.248	-0.032
-549.354	-111.752	-0.404	0.082
-548.339	72.305	0.133	0.138
-547.325	45.333	-0.173	-0.160
-546.310	-139.506	0.276	-0.030
-545.296	95.100	-0.230	-0.262
-544.281	-59.643	-0.159	0.068
-543.266	-57.114	0.196	-0.087
-542.252	-58.349	0.335	0.146
-541.237	-82.387	0.038	0.013
-540.223	-13.551	-0.227	0.147
-539.208	127.075	0.023	0.029
-538.193	-200.000	0.026	-0.235
-537.179	-164.529	0.185	-0.008
-536.164	-200.000	0.013	-0.095
-535.150	120.242	0.197	-0.244
-534.135	246.641	-0.110	-0.185
-533.121	-48.714	0.163	-0.078
-532.106	-7.717	-0.250	0.169
-531.091	425.506	-0.145	-0.313
-530.077	-41.113	0.334	-0.173
-529.062	-33.061	-0.114	-0.063
-528.048	-38.963	0.113	0.059
-527.033	-200.000	0.010	-0.104
-526.018	-95.208	-0.195	0.053
-525.004	5.182	-0.073	-0.054
-523.989	498.259	-0.046	0.106
-522.975	628.036	-0.111	0.281
-521.960	-16.705	-0.219	0.139
-520.945	-139.427	0.168	0.018
-519.931	336.642	-0.125	0.243
-518.916	-13.537	-0.062	-0.040
-517.902	-34.786	0.161	0.088
-516.887	61.626	-0.162	0.162
-515.872	-40.676	0.074	-0.039
-514.858	-153.210	0.325	0.023
-513.843	-200.000	-0.011	-0.256
-512.829	325.571	-0.129	0.247
-511.814	-13.801	0.214	-0.138
-510.799	298.427	0.139	-0.255
-509.785	-200.000	0.086	-0.393
-508.770	-103.544	-0.120	-0.028
-507.756	-42.297	0.011	0.006
-506.741	23.015	-0.029	-0.024
-505.726	2.565	-0.143	0.104
-504.712	735.973	0.103	0.275
-503.697	158.051	0.059	-0.082
-502.683	744.890	0.067	-0.179
-501.668	-52.849	-0.218	-0.100
-500.653	-89.540	0.403	0.118
-499.639	541.189	0.041	-0.097
-498.624	-38.458	0.261	-0.138
-497.610	-200.000	0.012	0.075
-496.595	12.107	-0.243	-0.187
-495.581	492.147	0.023	0.053
-494.566	773.874	-0.103	-0.282
-493.551	-1.059	-0.068	0.048
-492.537	197.394	0.097	-0.149
-491.522	-20.811	-0.289	0.177
-490.508	-30.051	-0.178	0.101
-489.493	-76.356	-0.134	-0.047
-488.478	128.055	-0.103	0.131
-487.464	-34.100	-0.249	0.137
-486.449	295.615	-0.037	0.068
-485.435	-46.173	0.112	-0.055
-484.420	800.000	0.100	0.314
-483.405	-28.411	0.185	-0.106
-482.391	-200.000	-0.010	0.088
-481.376	-121.828	-0.079	0.013
-480.362	8.147	-0.167	-0.125
-479.347	473.631	-0.101	-0.228
-478.332	-133.754	0.134	-0.017
-477.318	35.700	0.197	0.172
-476.303	-102.984	-0.328	-0.078
-475.289	-19.182	-0.057	-0.035
-474.274	57.811	0.182	-0.177
-473.259	216.343	-0.060	0.096
-472.245	95.514	0.197	-0.224
-471.230	227.752	-0.097	-0.157
-470.216	-200.000	-0.003	0.138
-469.201	-112.687	-0.221	0.044
-468.186	800.000	-0.027	-0.088
-467.172	-149.095	-0.317	-0.025
-466.157	-162.011	0.231	0.012
-465.143	-32.312	0.184	-0.102
-464.128	388.417	0.275	0.568
-463.113	-200.000	-0.075	0.384
-462.099	-48.130	-0.231	-0.111
-461.084	-200.000	-0.048	0.000
-460.070	-200.000	-0.010	-0.391
-459.055	-59.837	0.051	-0.022
-458.040	-30.587	-0.156	0.088
-457.026	-108.997	-0.373	-0.079
-456.011	-126.368	0.138	0.021
-454.997	-7.329	0.177	-0.120
-453.982	234.688	0.042	-0.069
-452.968	181.451	0.204	0.300
-451.953	-38.750	0.199	-0.105
-450.938	-187.577	-0.057	0.001
-449.924	-61.398	-0.128	-0.054
-448.909	-194.107	0.180	-0.001
-447.895	190.427	-0.097	0.145
-446.880	214.342	-0.096	0.151
-445.865	73.178	-0.298	0.311
-444.851	-25.827	-0.164	0.096
-443.836	-200.000	-0.011	-0.336
-442.822	189.791	-0.191	0.285
-441.807	125.748	-0.069	-0.087
-440.792	7.383	-0.026	-0.019
-439.778	-46.363	-0.338	-0.166
-438.763	95.279	-0.086	0.098
-437.749	-200.000	0.033	-0.166
-436.734	-55.440	-0.219	0.098
-435.719	-146.564	-0.304	0.026
-434.705	-173.644	0.165	0.005
-433.690	704.063	0.111	0.291
-432.676	-123.314	-0.211	-0.034
-431.661	217.033	-0.031	0.050
-430.646	116.313	0.270	0.330
-429.632	-85.229	-0.144	0.045
-428.617	103.107	-0.085	-0.099
-427.603	-200.000	0.009	0.179
-426.588	-95.795	0.112	-0.030
-425.573	800.000	0.058	0.207
-424.559	-48.770	0.195	0.093
-423.544	-103.809	0.120	-0.028
-422.530	505.182	0.072	-0.167
-421.515	573.134	0.058	0.140
-420.500	67.002	0.144	-0.146
-419.486	127.241	-0.155	-0.196
-418.471	-200.000	-0.018	-0.271
-417.457	156.470	0.126	0.173
-416.442	-134.760	0.226	0.027
-415.428	-28.121	0.224	-0.129
-414.413	-200.000	-0.078	-0.483
-413.398	-200.000	0.052	0.291
-412.384	-145.285	0.203	-0.018
-411.369	800.000	-0.037	-0.159
-410.355	40.256	-0.085	-0.076
-409.340	471.630	-0.113	-0.253
-408.325	11.683	0.058	-0.045
-407.311	376.621	-0.024	-0.048
-406.296	-82.094	-0.285	-0.093
-405.282	103.966	-0.141	-0.165
-404.267	-200.000	-0.172	0.001
-403.252	-25.260	-0.204	-0.120
-402.238	414.837	-0.132	0.280
-401.223	210.651	0.172	0.269
-400.209	-200.000	-0.013	0.139
-399.194	-155.639	-0.213	-0.014
-398.179	242.145	0.148	0.246
-397.165	-168.781	0.318	0.012
-396.150	176.993	0.074	-0.107
-395.136	-30.653	0.312	0.176
-394.121	132.879	-0.312	-0.401
-393.106	-63.031	0.186	0.077
-392.092	87.881	-0.194	0.214
-391.077	227.865	0.149	0.241
-390.063	-133.144	0.236	-0.030
-389.048	800.000	-0.062	0.182
-388.033	-99.041	0.341	0.086
-387.019	-200.000	-0.039	0.201
-386.004	-173.160	-0.253	0.008
-384.990	-33.355	-0.189	-0.104
-383.975	28.410	0.102	-0.086
-382.960	172.936	0.111	-0.159
-381.946	387.377	-0.087	-0.180
-380.931	-52.966	-0.231	0.106
-379.917	800.000	0.018	-0.052
-378.902	420.768	0.072	-0.154
-377.888	-200.000	0.010	-0.182
-376.873	800.000	-0.045	0.166
-375.858	-116.414	-0.087	-0.016
-374.844	38.068	0.059	-0.052
-373.829	-200.000	-0.023	-0.179
-372.815	24.256	0.024	-0.020
-371.800	-200.000	-0.028	-0.229
-370.785	-51.790	0.411	-0.190
-369.771	-104.754	-0.439	-0.100
-368.756	800.000	-0.131	0.363
-367.742	-9.767	-0.190	-0.126
-366.727	89.212	0.206	-0.229
-365.712	26.801	0.103	-0.085
-364.698	-200.000	-0.005	0.080
-363.683	-36.383	0.114	0.061
-362.669	2.200	0.153	0.110
-361.654	83.120	-0.096	-0.103
-360.639	-99.083	0.155	0.039
-359.625	32.665	-0.216	0.186
-358.610	-30.451	0.215	-0.121
-357.596	116.733	0.085	-0.103
-356.581	-116.012	-0.220	-0.041
-355.566	-90.779	-0.306	-0.088
-354.552	770.329	-0.038	0.104
-353.537	-45.039	0.192	0.095
-352.523	-118.669	-0.150	0.026
-351.508	129.080	0.091	0.116
-350.493	174.820	-0.189	-0.272
-349.479	800.000	0.027	0.104
-348.464	0.703	-0.249	-0.177
-347.450	-68.737	0.069	0.026
-346.435	-200.000	0.017	0.163
-345.420	-200.000	0.023	0.198
-344.406	96.440	0.076	0.087
-343.391	800.000	-0.045	0.182
-342.377	133.928	-0.170	-0.219
-341.362	388.640	0.106	-0.218
-340.348	-41.415	0.066	-0.034
-339.333	-7.191	-0.119	0.080
-338.318	-108.111	0.181	0.039
-337.304	-99.025	-0.116	-0.029
-336.289	423.992	0.105	-0.223
-335.275	21.504	-0.026	0.021
-334.260	68.516	-0.280	-0.285
-333.245	160.687	0.220	0.305
-332.231	-134.406	-0.329	0.040
-331.216	333.200	0.121	-0.232
-330.202	-119.648	0.145	0.025
-329.187	-185.944	-0.222	-0.003
-328.172	-200.000	-0.016	0.365
-327.158	800.000	-0.056	0.167
-326.143	-149.750	-0.138	-0.011
-325.129	-200.000	-0.007	0.083
-324.114	-200.000	-0.009	0.140
-323.099	-36.182	-0.091	0.049
-322.085	-69.371	-0.248	-0.094
-321.070	800.000	0.046	-0.189
-320.056	35.507	-0.081	0.071
-319.041	800.000	-0.029	-0.113
-318.026	-200.000	0.052	-0.421
-317.012	208.598	-0.147	-0.228
-315.997	580.201	0.100	0.242
-314.983	-1.010	0.185	-0.130
-313.968	-73.474	0.290	0.105
-312.953	-77.176	0.193	0.067
-311.939	-200.000	-0.022	-0.348
-310.924	800.000	0.065	-0.272
-309.910	116.214	0.193	0.235
-308.895	-108.981	-0.127	-0.027
-307.880	-200.000	0.054	0.338
-306.866	-84.337	0.072	0.023
-305.851	-33.856	0.132	0.072
-304.837	738.765	0.082	-0.217
-303.822	800.000	0.053	-0.152
-302.807	127.550	-0.142	-0.178
-301.793	-200.000	-0.027	0.252
-300.778	-200.000	0.065	-0.311
-299.764	-191.503	0.095	0.001
-298.749	18.657	-0.165	-0.131
-297.735	227.986	0.248	-0.401
-296.720	-200.000	-0.106	0.529
-295.705	-120.489	0.279	0.047
-294.691	153.960	0.082	0.112
-293.676	800.000	-0.018	-0.065
-292.662	-173.834	0.177	0.005
-291.647	53.795	0.101	-0.096
-290.632	800.000	0.119	0.365
-289.618	247.125	0.167	0.279
-288.603	-18.600	-0.254	-0.157
-287.589	-119.540	0.224	-0.039
-286.574	-200.000	0.031	-0.218
-285.559	-15.019	0.333	-0.211
-284.545	-54.707	0.305	0.137
-283.530	217.808	-0.323	-0.510
-282.516	-52.826	-0.158	0.072
-281.501	-200.000	-0.011	0.071
-280.486	201.965	-0.096	0.147
-279.472	30.201	-0.102	0.086
-278.457	10.772	-0.210	0.159
-277.443	-200.000	-0.010	0.331
-276.428	800.000	0.063	-0.185
-275.413	-80.156	0.262	0.087
-274.399	-200.000	0.003	-0.163
-273.384	-140.941	0.450	0.046
-272.370	-102.303	0.199	-0.047
-271.355	-131.758	0.019	-0.002
-270.340	-200.000	0.000	0.268
-269.326	-200.000	0.048	-0.377
-268.311	-106.878	-0.237	-0.052
-267.297	3.607	-0.189	0.137
-266.282	800.000	0.065	0.197
-265.267	-120.110	0.452	-0.077
-264.253	-200.000	0.037	-0.232
-263.238	66.573	0.162	-0.163
-262.224	-47.807	0.203	-0.097
-261.209	-52.028	-0.309	0.142
-260.195	16.732	-0.051	-0.040
-259.180	800.000	0.044	0.185
-258.165	-200.000	0.031	-0.244
-257.151	-119.704	-0.137	0.023
-256.136	-200.000	0.013	-0.220
-255.122	263.496	-0.134	-0.230
-254.107	800.000	0.056	-0.209
-253.092	-106.041	0.102	-0.023
-252.078	-106.882	-0.041	0.009
-251.063	304.600	0.105	-0.192
-250.049	-46.580	0.222	0.108
-249.034	-200.000	-0.036	-0.253
-248.019	-11.919	0.386	0.250
-247.005	53.438	-0.154	0.147
-245.990	-94.316	0.365	-0.099
-244.976	16.052	-0.154	-0.120
-243.961	800.000	-0.028	-0.110
-242.946	14.960	-0.088	-0.068
-241.932	-74.089	-0.075	0.027
-240.917	714.883	-0.038	0.100
-239.903	-200.000	-0.027	0.152
-238.888	475.114	0.165	0.368
-237.873	-170.596	-0.420	0.014
-236.859	31.939	0.109	-0.093
-235.844	-200.000	0.056	0.267
-234.830	-30.714	-0.042	-0.023
-233.815	-53.620	0.143	0.065
-232.800	348.387	-0.097	-0.190
-231.786	-200.000	0.003	0.106
-230.771	227.714	0.103	-0.165
-229.757	-131.581	0.180	-0.023
-228.742	800.000	-0.046	-0.185
-227.727	-98.989	0.079	0.020
-226.713	-141.940	0.054	-0.005
-225.698	115.952	-0.082	0.099
-224.684	217.493	0.044	0.070
-223.669	800.000	-0.099	-0.310
-222.655	-200.000	0.028	-0.316
-221.640	271.741	-0.127	0.220
-220.625	-200.000	0.070	0.309
-219.611	-61.493	-0.150	0.062
-218.596	373.555	-0.046	-0.092
-217.582	304.240	-0.093	0.170
-216.567	-16.832	0.177	-0.110
-215.552	-200.000	-0.003	-0.136
-214.538	83.499	0.129	0.139
-213.523	800.000	-0.106	-0.308
-212.509	7.266	0.207	0.153
-211.494	-41.419	-0.203	0.103
-210.479	196.405	0.007	-0.011
-209.465	-101.326	-0.144	-0.035
-208.450	132.728	0.048	0.061
-207.436	353.481	0.064	0.126
-206.421	-200.000	-0.006	0.196
-205.406	-149.523	0.116	-0.009
-204.392	-73.612	0.328	0.118
-203.377	-77.169	0.283	-0.097
-202.363	-200.000	-0.021	-0.213
-201.348	-112.111	0.092	0.018
-200.333	-39.172	-0.248	-0.129
-199.319	126.050	0.152	0.190
-198.304	-200.000	0.053	0.423
-197.290	-138.515	0.057	-0.006
-196.275	-110.747	-0.212	0.043
-195.260	-1.633	0.136	-0.095
-194.246	-68.715	0.156	0.059
-193.231	-200.000	-0.040	0.179
-192.217	226.199	0.136	0.218
-191.202	36.004	-0.057	0.050
-190.187	-54.956	-0.088	-0.039
-189.173	-200.000	0.006	-0.173
-188.158	112.917	0.249	0.298
-187.144	-200.000	0.083	0.396
-186.129	-200.000	-0.019	-0.125
-185.114	48.722	0.199	-0.184
-184.100	-36.261	-0.153	-0.081
-183.085	-49.986	0.301	-0.141
-182.071	186.838	-0.056	0.082
-181.056	-51.800	0.236	-0.108
-180.042	800.000	0.104	0.297
-179.027	-28.487	0.272	-0.155
-178.012	-200.000	0.056	-0.310
-176.998	-99.580	-0.247	0.061
-175.983	-34.775	-0.229	0.124
-174.969	39.972	0.086	-0.076
-173.954	-200.000	-0.017	-0.292
-172.939	30.774	0.139	0.117
-171.925	-110.782	0.154	-0.031
-170.910	-67.344	0.252	0.098
-169.896	800.000	-0.022	0.082
-168.881	164.008	-0.052	-0.073
-167.866	-200.000	0.011	0.274
-166.852	-149.882	-0.012	0.001
-165.837	-12.402	0.095	-0.061
-164.823	800.000	-0.044	0.128
-163.808	11.085	-0.268	0.202
-162.793	-200.000	0.023	0.203
-161.779	42.072	0.217	-0.195
-160.764	-200.000	0.011	0.106
-159.750	21.553	-0.088	-0.070
-158.735	554.273	0.094	-0.223
-157.720	134.099	-0.035	-0.045
-156.706	780.296	0.090	-0.243
-155.691	800.000	-0.052	-0.198
-154.677	-0.850	-0.481	-0.336
-153.662	-1.022	0.239	-0.166
-152.647	271.981	0.153	-0.266
-151.633	-200.000	-0.032	0.372
-150.618	8.367	0.126	0.094
-149.604	-132.151	-0.026	0.003
-148.589	-8.669	0.412	-0.272
-147.574	140.726	-0.068	0.088
-146.560	-63.486	0.117	-0.047
-145.545	250.750	-0.108	0.180
-144.531	-42.047	-0.075	-0.038
-143.516	168.590	-0.067	-0.094
-142.502	-200.000	0.571	0.001
-141.487	-200.000	0.077	-0.378
-140.472	-200.000	0.050	0.264
-139.458	62.416	0.166	0.163
-138.443	800.000	0.037	-0.107
-137.429	67.371	-0.168	-0.169
-136.414	-200.000	-0.029	-0.145
-135.399	-119.432	-0.255	0.044
-134.385	53.417	-0.298	0.281
-133.370	280.138	-0.052	0.092
-132.356	9.466	0.101	-0.075
-131.341	-75.458	-0.223	-0.078
-130.326	-200.000	0.005	-0.097
-129.312	-200.000	0.021	0.162
-128.297	153.438	0.085	0.115
-127.283	584.494	-0.130	-0.314
-126.268	195.157	-0.204	-0.304
-125.253	124.953	-0.180	-0.223
-124.239	-48.272	-0.309	-0.147
-123.224	46.598	0.209	0.191
-122.210	111.325	-0.097	0.116
