DTS Sentinel unit serial number:	SN413079Multiplexer serial number:	ORYXHardware model number:	OX4-SRSoftware version number:	ORYX F/W v4.00 Oryx Data Collector v3.7.2.0data status	okinstallation	princeton_trtdifferential loss correction	single-endedforward channel	channel 2reverse channel	N/Adate	2019/09/16time	21:03:34forward acquisition time	60.00reverse acquisition time	0.00gamma	496.2192k internal	0.2329k external	0.2329temperature offset calibration	0.9966default loss term (dB/km)	0.3790temperature slope calibration	1.0000multiplexer offset coefficient	1.0000multiplexer slope coefficient	1.0000fibre end	0.00T internal ref (°C)	31.95T ext. ref 1 (°C)	0.04T ext. ref 2 (°C)	25.36length (m)	temperature (°C)	Stokes	anti-Stokes-747.200	-50.544	0.106	-0.050
-746.185	619.588	-0.072	0.181
-745.171	102.482	-0.136	0.160
-744.156	536.501	0.080	-0.192
-743.142	379.616	-0.104	-0.214
-742.127	-53.897	-0.167	-0.077
-741.112	-107.640	0.142	0.031
-740.098	-200.000	-0.048	0.342
-739.083	281.502	-0.107	0.193
-738.069	144.207	-0.098	-0.132
-737.054	2.483	-0.044	-0.032
-736.039	-61.042	-0.278	-0.118
-735.025	-32.549	0.374	0.210
-734.010	-85.485	0.258	0.081
-732.996	-9.734	-0.158	-0.106
-731.981	-90.135	0.165	-0.048
-730.966	800.000	-0.015	-0.046
-729.952	-70.299	0.092	0.035
-728.937	-6.224	-0.202	-0.139
-727.923	312.234	-0.124	-0.234
-726.908	-200.000	-0.054	0.345
-725.894	620.871	0.024	0.062
-724.879	800.000	-0.090	0.330
-723.864	134.067	0.237	0.310
-722.850	-61.624	-0.121	0.051
-721.835	204.653	-0.132	0.206
-720.821	-112.137	-0.276	-0.056
-719.806	800.000	0.019	0.057
-718.791	139.930	-0.201	0.266
-717.777	337.050	-0.116	0.228
-716.762	-26.810	0.205	-0.120
-715.748	718.887	0.052	-0.139
-714.733	169.909	-0.214	-0.308
-713.718	380.387	-0.122	-0.251
-712.704	-200.000	-0.014	-0.242
-711.689	399.023	-0.007	-0.015
-710.675	4.703	-0.094	-0.070
-709.660	-174.574	-0.217	-0.006
-708.645	233.678	-0.186	-0.309
-707.631	-200.000	0.001	-0.038
-706.616	-4.076	-0.211	-0.147
-705.602	71.418	0.043	0.045
-704.587	110.582	-0.181	0.218
-703.572	-200.000	0.003	-0.084
-702.558	-200.000	-0.083	-0.373
-701.543	194.833	0.168	0.257
-700.529	-79.408	0.247	0.084
-699.514	-167.315	-0.264	-0.011
-698.499	-55.088	-0.070	0.032
-697.485	48.557	0.185	0.175
-696.470	374.631	-0.070	0.143
-695.456	68.650	0.107	0.111
-694.441	427.158	-0.104	-0.226
-693.426	-55.648	0.094	0.042
-692.412	-200.000	0.027	0.158
-691.397	-140.861	0.192	-0.020
-690.383	-200.000	-0.032	0.208
-689.368	191.767	-0.188	0.285
-688.354	290.457	0.099	-0.180
-687.339	-33.944	-0.389	-0.215
-686.324	567.345	0.133	0.324
-685.310	3.038	-0.178	0.130
-684.295	-112.974	0.388	0.077
-683.281	-82.328	-0.247	-0.081
-682.266	800.000	-0.106	0.315
-681.251	798.846	-0.105	-0.290
-680.237	-55.630	-0.153	0.069
-679.222	-189.578	-0.294	-0.003
-678.208	128.501	0.077	0.099
-677.193	21.617	-0.137	-0.112
-676.178	-31.206	-0.221	-0.125
-675.164	-173.284	-0.073	0.002
-674.149	-4.105	-0.121	-0.084
-673.135	575.922	-0.104	0.256
-672.120	105.591	0.176	-0.208
-671.105	-200.000	-0.035	0.212
-670.091	-115.304	-0.298	-0.057
-669.076	-134.308	-0.221	-0.027
-668.062	-60.036	0.184	0.079
-667.047	800.000	0.058	0.247
-666.032	-102.292	0.139	-0.033
-665.018	-5.226	0.064	0.044
-664.003	292.873	0.118	-0.215
-662.989	-25.909	-0.198	-0.117
-661.974	476.684	-0.097	-0.220
-660.959	800.000	0.061	-0.223
-659.945	5.562	0.096	-0.071
-658.930	-200.000	0.014	0.419
-657.916	-122.908	0.220	0.036
-656.901	-74.303	-0.298	-0.108
-655.886	-116.606	0.087	-0.016
-654.872	119.500	0.056	0.070
-653.857	800.000	0.029	0.099
-652.843	-200.000	-0.035	0.235
-651.828	-82.599	-0.360	0.117
-650.814	800.000	0.030	0.109
-649.799	-42.623	0.186	-0.095
-648.784	-200.000	-0.052	0.280
-647.770	139.037	-0.038	-0.050
-646.755	-15.747	0.081	0.052
-645.741	-65.374	-0.295	-0.119
-644.726	124.536	-0.071	0.089
-643.711	-59.659	-0.196	0.084
-642.697	780.061	-0.070	0.193
-641.682	-200.000	0.055	-0.328
-640.668	-113.178	-0.176	-0.035
-639.653	-96.270	-0.189	-0.050
-638.638	-200.000	0.034	0.261
-637.624	228.755	0.126	-0.207
-636.609	800.000	0.054	0.159
-635.595	-112.041	-0.068	0.014
-634.580	-52.684	-0.138	0.064
-633.565	8.251	-0.198	0.149
-632.551	-200.000	0.013	-0.263
-631.536	93.731	0.117	0.133
-630.522	705.377	-0.089	0.234
-629.507	-200.000	-0.010	0.303
-628.492	-200.000	0.028	0.302
-627.478	41.694	0.324	0.294
-626.463	173.070	0.045	0.065
-625.449	-76.734	-0.151	0.053
-624.434	-200.000	0.016	0.203
-623.419	39.871	-0.041	-0.037
-622.405	147.323	-0.054	0.073
-621.390	353.738	-0.083	-0.165
-620.376	800.000	-0.022	0.070
-619.361	127.549	-0.097	0.123
-618.346	-166.553	-0.518	0.022
-617.332	-49.439	0.326	0.156
-616.317	11.206	0.390	0.299
-615.303	13.082	0.144	0.112
-614.288	-106.715	0.048	0.011
-613.273	-200.000	-0.036	-0.236
-612.259	-200.000	0.019	0.189
-611.244	377.210	0.119	0.243
-610.230	82.648	0.256	0.278
-609.215	580.026	0.083	-0.204
-608.201	11.329	-0.056	-0.043
-607.186	29.243	0.216	-0.184
-606.171	-134.034	0.126	-0.016
-605.157	-30.653	-0.151	-0.086
-604.142	800.000	0.081	-0.258
-603.128	800.000	-0.084	-0.237
-602.113	-57.077	0.076	-0.034
-601.098	39.629	-0.102	0.092
-600.084	-123.451	-0.061	-0.010
-599.069	-200.000	0.132	0.656
-598.055	55.643	0.125	-0.122
-597.040	-22.674	0.218	0.132
-596.025	-200.000	0.016	-0.358
-595.011	-9.085	-0.139	-0.093
-593.996	-41.781	0.197	0.101
-592.982	134.783	-0.071	0.092
-591.967	95.859	-0.089	0.102
-590.952	-194.633	0.327	0.003
-589.938	-176.672	0.231	0.006
-588.923	3.424	-0.289	0.211
-587.909	488.838	-0.075	-0.172
-586.894	-191.083	-0.049	0.001
-585.879	800.000	-0.019	-0.056
-584.865	-200.000	-0.044	-0.201
-583.850	542.142	0.169	0.402
-582.836	-89.148	0.143	0.042
-581.821	-108.173	-0.091	-0.020
-580.806	548.745	-0.093	-0.223
-579.792	800.000	-0.062	-0.185
-578.777	-3.647	0.219	-0.152
-577.763	-25.314	0.172	-0.102
-576.748	-27.972	-0.046	-0.027
-575.733	-137.541	0.120	-0.014
-574.719	-35.562	0.198	0.107
-573.704	-96.357	-0.297	0.079
-572.690	373.372	0.114	0.232
-571.675	-57.950	-0.025	0.011
-570.661	800.000	0.046	-0.182
-569.646	-105.081	-0.014	0.003
-568.631	50.739	0.093	-0.088
-567.617	-46.656	-0.159	0.078
-566.602	477.023	0.142	0.322
-565.588	-151.268	-0.304	-0.023
-564.573	-162.661	0.304	-0.015
-563.558	-108.924	0.115	0.025
-562.544	4.015	-0.174	-0.128
-561.529	92.719	0.126	0.143
-560.515	-200.000	0.043	0.290
-559.500	291.189	0.078	0.142
-558.485	195.782	0.219	-0.333
-557.471	24.661	-0.242	-0.201
-556.456	349.592	-0.223	-0.440
-555.442	-179.645	0.287	-0.006
-554.427	-200.000	-0.029	0.204
-553.412	800.000	-0.059	-0.170
-552.398	-32.686	-0.142	-0.079
-551.383	800.000	0.055	0.162
-550.369	-47.204	-0.176	-0.086
-549.354	46.102	-0.228	0.211
-548.339	52.404	-0.267	-0.255
-547.325	58.953	-0.220	0.216
-546.310	-39.474	0.143	0.075
-545.296	-78.854	-0.109	-0.037
-544.281	-77.259	-0.135	-0.047
-543.266	110.555	0.076	0.091
-542.252	-106.955	-0.334	0.074
-541.237	13.868	0.126	0.098
-540.223	-166.822	-0.423	0.017
-539.208	193.389	0.164	-0.248
-538.193	-114.182	-0.190	0.037
-537.179	33.304	-0.161	-0.139
-536.164	-37.204	0.140	0.075
-535.150	-0.696	0.149	0.105
-534.135	301.630	0.107	0.198
-533.121	-200.000	-0.030	0.168
-532.106	-44.016	-0.427	-0.214
-531.091	-73.837	-0.231	-0.084
-530.077	-135.325	0.343	0.041
-529.062	800.000	0.058	0.253
-528.048	399.704	-0.120	-0.251
-527.033	-22.984	-0.343	-0.206
-526.018	-200.000	0.017	0.085
-525.004	-2.577	-0.137	-0.096
-523.989	-52.408	0.529	-0.244
-522.975	-17.728	0.085	-0.053
-521.960	327.983	-0.213	0.408
-520.945	-29.306	-0.235	0.134
-519.931	-51.800	0.087	0.040
-518.916	-166.495	0.363	-0.015
-517.902	-14.802	-0.217	0.139
-516.887	-120.439	-0.170	-0.029
-515.872	61.790	0.107	-0.107
-514.858	-130.763	-0.123	-0.016
-513.843	80.906	-0.072	-0.077
-512.829	160.719	0.352	-0.491
-511.814	217.608	0.070	0.111
-510.799	-63.298	-0.041	-0.017
-509.785	519.315	-0.128	0.300
-508.770	285.478	0.152	0.273
-507.756	211.890	0.088	0.138
-506.741	-115.112	0.261	-0.049
-505.726	-200.000	0.062	-0.434
-504.712	-200.000	0.044	0.412
-503.697	360.222	0.187	0.374
-502.683	3.997	0.297	0.217
-501.668	-56.705	0.249	0.110
-500.653	200.964	-0.048	0.074
-499.639	-200.000	0.009	-0.253
-498.624	-178.921	0.374	0.008
-497.610	277.430	0.156	0.276
-496.595	-200.000	-0.004	-0.068
-495.581	-200.000	0.060	0.387
-494.566	23.146	0.049	0.040
-493.551	-200.000	0.043	-0.297
-492.537	-72.960	-0.252	0.092
-491.522	-200.000	0.003	0.030
-490.508	-113.786	0.334	0.065
-489.493	-90.004	-0.227	-0.066
-488.478	320.158	-0.083	-0.158
-487.464	-200.000	0.042	-0.316
-486.449	-143.779	-0.332	-0.031
-485.435	-9.003	-0.272	-0.182
-484.420	-200.000	-0.005	0.148
-483.405	-200.000	0.024	0.146
-482.391	-200.000	-0.051	-0.288
-481.376	-123.781	-0.339	0.053
-480.362	398.430	-0.132	0.274
-479.347	-10.299	-0.223	0.148
-478.332	-33.423	-0.163	0.090
-477.318	37.561	0.102	0.090
-476.303	-35.382	-0.062	0.034
-475.289	-67.057	0.412	0.162
-474.274	-94.337	-0.048	-0.013
-473.259	-157.503	-0.334	-0.020
-472.245	20.573	0.142	0.114
-471.230	-130.812	0.071	-0.009
-470.216	-192.806	0.195	0.002
-469.201	800.000	0.043	0.136
-468.186	48.773	-0.066	-0.062
-467.172	-101.903	-0.283	-0.068
-466.157	-84.745	-0.288	0.090
-465.143	-135.543	0.264	0.031
-464.128	800.000	0.073	-0.246
-463.113	233.114	-0.072	-0.118
-462.099	194.870	0.096	-0.146
-461.084	-58.537	-0.237	-0.103
-460.070	-17.002	0.122	-0.077
-459.055	335.706	0.109	-0.210
-458.040	-33.670	0.156	0.086
-457.026	719.839	-0.100	-0.265
-456.011	-65.492	0.178	0.071
-454.997	298.700	0.151	0.276
-453.982	24.835	-0.174	0.144
-452.968	114.951	-0.269	-0.327
-451.953	175.442	-0.101	-0.146
-450.938	800.000	0.092	-0.371
-449.924	-27.618	-0.138	0.080
-448.909	4.984	0.194	-0.142
-447.895	-20.540	-0.060	-0.037
-446.880	-199.845	0.130	0.001
-445.865	12.886	0.253	-0.194
-444.851	408.939	-0.038	0.080
-443.836	-84.961	0.205	-0.064
-442.822	12.510	0.139	-0.107
-441.807	462.648	-0.121	-0.268
-440.792	297.636	0.079	0.144
-439.778	553.782	-0.089	0.214
-438.763	-0.678	0.247	0.174
-437.749	6.334	0.114	-0.084
-436.734	-95.273	0.191	-0.051
-435.719	192.909	0.089	0.134
-434.705	184.399	-0.119	-0.175
-433.690	-73.534	-0.342	0.124
-432.676	104.581	0.145	-0.169
-431.661	-200.000	-0.033	0.216
-430.646	-200.000	-0.024	-0.151
-429.632	-60.092	-0.402	0.171
-428.617	-101.044	0.020	-0.005
-427.603	-0.545	-0.175	-0.124
-426.588	-128.100	-0.033	0.005
-425.573	-92.606	-0.155	0.043
-424.559	-86.432	-0.274	0.084
-423.544	-98.396	0.275	0.070
-422.530	30.081	-0.341	-0.289
-421.515	-61.429	-0.221	-0.092
-420.500	99.008	0.117	0.135
-419.486	-200.000	0.006	-0.207
-418.471	-200.000	-0.063	-0.579
-417.457	374.085	0.072	-0.145
-416.442	-200.000	0.023	-0.313
-415.428	800.000	-0.084	-0.260
-414.413	118.429	-0.041	0.050
-413.398	-200.000	0.031	0.147
-412.384	78.678	0.140	-0.149
-411.369	331.525	0.054	0.104
-410.355	46.249	-0.026	-0.024
-409.340	208.475	0.221	-0.344
-408.325	-109.546	0.434	0.091
-407.311	59.107	0.214	0.209
-406.296	130.544	-0.139	0.178
-405.282	8.091	0.263	-0.196
-404.267	-34.405	-0.096	0.052
-403.252	201.284	0.162	0.248
-402.238	-200.000	-0.002	-0.087
-401.223	-136.761	-0.074	-0.008
-400.209	103.126	-0.128	-0.149
-399.194	-200.000	0.077	-0.440
-398.179	-200.000	-0.014	-0.194
-397.165	4.049	0.144	0.105
-396.150	366.060	0.047	0.094
-395.136	-7.278	0.208	-0.140
-394.121	-80.906	-0.251	0.083
-393.106	144.473	0.167	0.222
-392.092	-113.980	-0.234	0.045
-391.077	181.469	0.166	-0.243
-390.063	-200.000	0.029	0.229
-389.048	-108.224	-0.288	-0.062
-388.033	-28.476	0.049	0.028
-387.019	33.203	-0.212	-0.183
-386.004	800.000	0.025	0.081
-384.990	-47.447	0.192	-0.093
-383.975	331.989	-0.040	0.077
-382.960	197.467	-0.023	0.035
-381.946	19.142	0.170	0.135
-380.931	-102.064	0.172	0.041
-379.917	8.962	0.178	0.133
-378.902	-62.268	0.224	-0.093
-377.888	-121.524	0.130	-0.021
-376.873	132.187	-0.272	0.348
-375.858	-180.952	0.114	0.002
-374.844	-117.863	0.017	0.003
-373.829	256.165	0.146	0.249
-372.815	185.638	0.081	-0.119
-371.800	37.208	-0.077	-0.068
-370.785	-200.000	0.015	-0.208
-369.771	-200.000	-0.018	0.194
-368.756	-98.286	-0.156	0.040
-367.742	-200.000	0.003	-0.387
-366.727	-37.972	-0.192	0.101
-365.712	-14.429	0.167	-0.107
-364.698	800.000	0.039	-0.142
-363.683	-112.740	-0.324	0.064
-362.669	280.409	0.128	0.227
-361.654	124.827	-0.096	0.120
-360.639	1.378	-0.149	0.106
-359.625	-27.894	-0.070	-0.040
-358.610	-68.075	-0.083	0.032
-357.596	-28.884	0.164	-0.094
-356.581	67.078	-0.133	-0.134
-355.566	-145.495	-0.151	-0.013
-354.552	-27.911	-0.285	0.164
-353.537	12.966	0.163	0.125
-352.523	-40.783	-0.253	-0.130
-351.508	199.988	0.083	0.127
-350.493	-200.000	-0.004	-0.182
-349.479	-200.000	-0.008	0.238
-348.464	125.956	0.219	0.274
-347.450	-200.000	0.074	0.343
-346.435	-83.002	0.193	0.062
-345.420	-36.385	-0.181	-0.096
-344.406	-200.000	-0.005	0.330
-343.391	-200.000	-0.035	0.456
-342.377	-107.031	-0.041	-0.009
-341.362	426.168	-0.062	-0.134
-340.348	124.676	0.194	-0.242
-339.333	-112.976	0.273	0.054
-338.318	206.549	-0.066	-0.101
-337.304	800.000	-0.071	-0.305
-336.289	38.951	-0.183	0.163
-335.275	-58.107	-0.180	0.078
-334.260	25.283	-0.228	-0.188
-333.245	-102.663	0.078	-0.018
-332.231	42.852	0.427	0.386
-331.216	-83.061	-0.138	0.044
-330.202	-121.437	0.214	-0.035
-329.187	92.165	-0.220	-0.246
-328.172	243.380	0.165	-0.275
-327.158	-31.531	-0.110	0.061
-326.143	-27.912	0.157	-0.090
-325.129	117.184	-0.154	0.188
-324.114	-38.133	-0.156	-0.082
-323.099	-26.064	-0.345	-0.201
-322.085	-200.000	0.002	-0.154
-321.070	-152.833	-0.237	0.017
-320.056	541.682	0.133	-0.314
-319.041	-160.787	0.262	-0.014
-318.026	165.172	0.130	-0.182
-317.012	273.260	0.159	-0.278
-315.997	220.264	0.152	0.241
-314.983	54.351	0.074	-0.071
-313.968	-102.398	-0.136	0.032
-312.953	-44.596	0.081	-0.040
-311.939	-200.000	0.016	-0.382
-310.924	-111.755	-0.192	-0.038
-309.910	39.495	0.224	-0.199
-308.895	289.589	0.139	-0.250
-307.880	286.260	0.051	0.091
-306.866	667.491	0.102	-0.260
-305.851	-158.230	0.118	-0.007
-304.837	-132.652	-0.361	-0.046
-303.822	208.096	0.199	0.307
-302.807	-19.268	0.182	0.112
-301.793	-141.469	-0.056	0.006
-300.778	800.000	0.064	-0.181
-299.764	186.116	0.006	-0.008
-298.749	-31.162	0.169	0.094
-297.735	22.009	-0.270	-0.218
-296.720	24.893	-0.217	0.178
-295.705	99.693	0.146	-0.167
-294.691	38.725	-0.174	0.154
-293.676	-200.000	-0.014	0.124
-292.662	21.606	-0.046	0.037
-291.647	-78.218	-0.116	0.039
-290.632	259.135	0.070	-0.120
-289.618	-169.342	0.391	-0.014
-288.603	-67.497	-0.160	0.062
-287.589	449.951	0.133	0.291
-286.574	-33.646	0.370	0.202
-285.559	8.848	-0.206	0.154
-284.545	205.439	-0.058	-0.089
-283.530	800.000	0.057	-0.186
-282.516	-29.885	-0.065	-0.037
-281.501	122.411	-0.161	-0.199
-280.486	87.041	-0.054	-0.060
-279.472	-200.000	-0.004	0.021
-278.457	-59.941	-0.327	0.138
-277.443	-132.130	-0.165	0.021
-276.428	-127.763	-0.284	-0.041
-275.413	28.561	0.205	-0.172
-274.399	800.000	-0.063	-0.263
-273.384	35.605	-0.281	0.244
-272.370	-145.600	0.468	0.041
-271.355	-200.000	-0.008	-0.117
-270.340	109.697	0.131	0.155
-269.326	18.350	0.351	-0.277
-268.311	-120.060	-0.221	0.037
-267.297	27.998	0.172	0.143
-266.282	-19.134	-0.162	0.099
-265.267	245.418	-0.086	-0.144
-264.253	313.435	0.058	0.107
-263.238	-58.501	0.470	-0.202
-262.224	800.000	0.017	-0.061
-261.209	123.832	-0.208	0.258
-260.195	-34.117	-0.076	0.041
-259.180	389.232	-0.065	0.134
-258.165	-67.922	0.159	-0.061
-257.151	104.510	0.146	0.170
-256.136	-182.559	-0.210	-0.004
-255.122	-200.000	0.043	0.294
-254.107	230.135	0.169	0.272
-253.092	274.375	-0.066	0.116
-252.078	23.208	0.139	0.113
-251.063	-200.000	-0.009	-0.198
-250.049	44.679	0.093	-0.084
-249.034	-5.888	-0.149	0.101
-248.019	392.543	0.136	0.280
-247.005	-156.397	0.300	-0.019
-245.990	404.825	-0.102	0.213
-244.976	-37.990	-0.203	0.107
-243.961	-162.926	0.243	-0.012
-242.946	30.033	0.077	0.065
-241.932	-200.000	0.014	0.242
-240.917	-23.783	-0.082	0.049
-239.903	393.341	-0.124	0.255
-238.888	523.126	-0.105	-0.244
-237.873	52.107	-0.163	-0.154
-236.859	288.336	-0.179	0.321
-235.844	-200.000	0.023	-0.101
-234.830	-40.521	-0.130	-0.066
-233.815	31.362	0.114	0.096
-232.800	-146.855	-0.124	-0.011
-231.786	-36.611	0.097	-0.052
-230.771	800.000	0.075	0.247
-229.757	-74.082	0.219	-0.078
-228.742	-70.471	-0.135	-0.051
-227.727	314.368	0.173	0.322
-226.713	113.076	-0.065	-0.078
-225.698	34.476	-0.104	-0.090
-224.684	-60.645	-0.425	-0.178
-223.669	32.451	-0.129	0.110
-222.655	-56.954	-0.099	-0.043
-221.640	-4.327	-0.153	-0.104
-220.625	95.301	0.178	0.200
-219.611	-138.900	0.153	0.016
-218.596	800.000	0.041	-0.134
-217.582	-39.396	-0.126	-0.065
-216.567	56.696	0.053	-0.051
-215.552	-200.000	-0.032	-0.398
-214.538	380.480	-0.038	0.077
-213.523	236.425	0.149	0.243
-212.509	-176.758	-0.401	0.010
-211.494	-200.000	-0.009	-0.155
-210.479	-145.627	-0.181	0.016
-209.465	-30.213	0.153	0.086
-208.450	-118.580	-0.094	-0.016
-207.436	800.000	0.084	-0.293
-206.421	-200.000	-0.015	-0.147
-205.406	-89.735	-0.036	-0.010
-204.392	800.000	-0.089	0.277
-203.377	23.426	-0.216	-0.176
-202.363	20.838	-0.230	-0.183
-201.348	565.063	-0.037	-0.089
-200.333	-154.184	-0.160	-0.011
-199.319	-124.098	0.233	-0.036
-198.304	-150.852	-0.153	-0.011
-197.290	132.464	-0.098	0.125
-196.275	42.385	0.337	-0.302
-195.260	138.245	-0.022	-0.028
-194.246	-200.000	-0.001	-0.157
-193.231	8.033	0.222	0.164
-192.217	-101.153	-0.149	0.036
-191.202	11.160	-0.038	-0.029
-190.187	474.366	0.054	-0.119
-189.173	112.037	-0.121	-0.144
-188.158	800.000	-0.149	-0.502
-187.144	-200.000	0.028	-0.296
-186.129	113.876	0.125	-0.150
-185.114	-200.000	-0.021	0.161
-184.100	800.000	0.129	-0.407
-183.085	-200.000	-0.026	-0.247
-182.071	800.000	0.027	0.101
-181.056	98.461	-0.183	0.208
-180.042	-100.955	-0.322	-0.078
-179.027	800.000	0.035	-0.140
-178.012	-66.057	-0.112	-0.044
-176.998	7.625	0.239	0.176
-175.983	110.069	0.189	0.224
-174.969	245.199	-0.079	0.131
-173.954	-52.536	-0.146	-0.066
-172.939	-17.541	0.210	0.130
-171.925	-200.000	-0.016	-0.166
-170.910	-55.042	0.426	0.189
-169.896	-55.063	0.072	-0.032
-168.881	400.473	-0.080	-0.166
-167.866	-200.000	-0.023	0.111
-166.852	-34.503	0.025	-0.014
-165.837	11.233	-0.216	0.163
-164.823	330.398	-0.147	0.278
-163.808	-200.000	0.011	-0.120
-162.793	-200.000	-0.003	-0.253
-161.779	-185.728	0.281	-0.004
-160.764	118.375	-0.161	-0.196
-159.750	-27.612	0.220	-0.126
-158.735	267.542	-0.171	0.294
-157.720	302.069	-0.060	0.110
-156.706	-200.000	-0.037	0.262
-155.691	-93.245	0.211	0.058
-154.677	-140.039	0.388	0.040
-153.662	-154.813	-0.175	-0.011
-152.647	480.554	-0.096	-0.214
-151.633	-200.000	-0.009	-0.286
-150.618	-46.581	0.096	-0.046
-149.604	38.571	0.151	0.132
-148.589	-200.000	0.027	0.159
-147.574	174.017	0.224	0.318
-146.560	-200.000	0.005	-0.298
-145.545	-48.787	-0.187	0.088
-144.531	514.832	-0.113	-0.260
-143.516	20.990	0.030	-0.024
-142.502	-87.101	-0.138	-0.041
-141.487	-37.265	0.185	0.097
-140.472	-106.913	-0.462	-0.101
-139.458	-200.000	-0.078	0.337
-138.443	-75.656	-0.196	0.068
-137.429	-142.972	-0.100	-0.009
-136.414	-37.754	-0.312	0.163
-135.399	-154.297	0.065	0.004
-134.385	-200.000	0.007	0.301
-133.370	800.000	-0.030	-0.121
-132.356	97.783	-0.134	0.151
-131.341	-153.687	0.265	0.018
-130.326	-101.788	0.325	0.077
-129.312	0.815	0.129	0.091
-128.297	-200.000	-0.040	0.289
-127.283	73.582	-0.202	0.208
-126.268	223.382	0.067	-0.106
-125.253	25.393	0.223	0.182
-124.239	-93.222	-0.177	0.048
-123.224	-189.495	-0.247	-0.003
-122.210	-200.000	0.068	0.341
-121.195	378.611	0.171	0.343
