DTS Sentinel unit serial number:	SN413079Multiplexer serial number:	ORYXHardware model number:	OX4-SRSoftware version number:	ORYX F/W v4.00 Oryx Data Collector v3.7.2.0data status	okinstallation	princeton_trtdifferential loss correction	single-endedforward channel	channel 2reverse channel	N/Adate	2019/09/18time	00:39:35forward acquisition time	60.00reverse acquisition time	0.00gamma	496.2192k internal	0.2349k external	0.2349temperature offset calibration	0.9984default loss term (dB/km)	0.3790temperature slope calibration	1.0000multiplexer offset coefficient	1.0000multiplexer slope coefficient	1.0000fibre end	0.00T internal ref (°C)	23.44T ext. ref 1 (°C)	0.16T ext. ref 2 (°C)	17.14length (m)	temperature (°C)	Stokes	anti-Stokes-747.200	371.842	0.156	0.317
-746.185	-145.840	-0.182	-0.016
-745.171	800.000	0.036	-0.157
-744.156	323.377	-0.122	0.232
-743.142	229.248	-0.027	0.043
-742.127	-52.745	-0.076	-0.035
-741.112	-44.755	-0.186	0.093
-740.098	-68.724	-0.441	0.170
-739.083	759.418	-0.110	0.298
-738.069	15.029	0.239	0.187
-737.054	800.000	-0.018	0.051
-736.039	73.380	-0.214	0.223
-735.025	408.570	0.187	-0.395
-734.010	-200.000	0.015	-0.074
-732.996	800.000	-0.080	-0.335
-731.981	337.394	-0.082	-0.160
-730.966	109.581	-0.110	-0.132
-729.952	-58.515	-0.116	-0.050
-728.937	-17.638	-0.105	0.066
-727.923	203.940	0.084	-0.129
-726.908	-200.000	0.006	0.181
-725.894	-167.377	-0.399	0.016
-724.879	-200.000	-0.004	-0.027
-723.864	800.000	-0.061	-0.192
-722.850	-106.370	-0.211	-0.047
-721.835	-200.000	0.021	0.294
-720.821	-200.000	0.011	-0.422
-719.806	-200.000	0.007	-0.133
-718.791	-200.000	-0.129	-0.638
-717.777	4.655	-0.260	0.190
-716.762	-200.000	0.030	0.198
-715.748	533.920	0.116	-0.274
-714.733	469.968	-0.087	-0.196
-713.718	31.349	0.124	0.106
-712.704	-2.315	-0.134	-0.094
-711.689	-200.000	-0.064	-0.443
-710.675	-73.482	0.157	0.057
-709.660	-145.863	-0.243	-0.022
-708.645	-38.098	0.213	0.113
-707.631	-200.000	0.027	0.128
-706.616	53.978	-0.108	0.104
-705.602	-52.001	0.181	0.084
-704.587	800.000	0.103	0.379
-703.572	-121.217	0.352	0.059
-702.558	-121.254	-0.114	0.019
-701.543	-102.022	-0.073	0.018
-700.529	-200.000	-0.037	-0.178
-699.514	800.000	0.072	-0.282
-698.499	45.671	0.140	0.129
-697.485	133.214	0.237	-0.305
-696.470	231.658	-0.110	-0.180
-695.456	-200.000	0.002	-0.132
-694.441	800.000	0.049	0.169
-693.426	225.798	-0.074	-0.120
-692.412	-39.490	0.193	-0.101
-691.397	-40.084	-0.169	0.088
-690.383	349.502	-0.119	-0.235
-689.368	-7.144	0.078	-0.052
-688.354	8.392	0.136	-0.102
-687.339	-135.437	0.306	-0.036
-686.324	-33.729	-0.439	-0.241
-685.310	-39.267	-0.316	-0.166
-684.295	20.791	-0.219	-0.177
-683.281	800.000	0.054	-0.154
-682.266	-29.395	-0.166	-0.095
-681.251	-26.801	-0.320	-0.186
-680.237	272.644	-0.066	-0.116
-679.222	-200.000	-0.014	-0.187
-678.208	-149.979	-0.225	0.017
-677.193	-154.660	0.213	-0.014
-676.178	10.528	0.076	0.058
-675.164	-116.714	-0.412	-0.075
-674.149	-51.892	-0.183	0.085
-673.135	800.000	-0.081	-0.227
-672.120	-21.451	-0.093	0.056
-671.105	-1.102	0.139	0.098
-670.091	170.561	0.105	-0.150
-669.076	-200.000	-0.002	0.252
-668.062	-50.516	-0.241	-0.113
-667.047	-13.852	0.092	0.059
-666.032	-45.141	-0.110	-0.054
-665.018	-36.958	0.339	-0.181
-664.003	73.486	-0.120	-0.125
-662.989	-129.025	-0.589	-0.082
-661.974	-200.000	0.013	0.070
-660.959	115.924	0.139	0.169
-659.945	89.421	-0.106	-0.117
-658.930	-141.770	-0.164	-0.016
-657.916	-45.940	0.217	-0.107
-656.901	83.402	0.056	0.060
-655.886	-200.000	-0.026	0.132
-654.872	-200.000	0.003	0.055
-653.857	-123.346	-0.235	-0.037
-652.843	-200.000	-0.051	-0.263
-651.828	-111.484	0.295	0.060
-650.814	-150.056	0.140	0.011
-649.799	-54.087	0.180	-0.082
-648.784	746.992	0.047	-0.125
-647.770	-106.545	0.248	0.055
-646.755	-92.737	0.109	-0.030
-645.741	83.930	-0.209	-0.227
-644.726	800.000	0.093	0.300
-643.711	696.457	0.012	-0.031
-642.697	800.000	-0.037	-0.143
-641.682	345.071	0.131	-0.256
-640.668	584.638	0.085	0.208
-639.653	50.889	-0.077	-0.072
-638.638	-90.015	-0.040	0.012
-637.624	-106.908	-0.081	-0.018
-636.609	-35.879	-0.026	0.014
-635.595	-119.157	-0.246	-0.043
-634.580	-32.232	0.168	0.093
-633.565	217.516	-0.168	-0.266
-632.551	-200.000	0.031	-0.372
-631.536	-150.204	0.260	0.020
-630.522	-25.236	0.141	0.083
-629.507	237.346	0.042	-0.069
-628.492	32.899	-0.236	0.203
-627.478	-200.000	0.019	0.211
-626.463	-141.324	0.120	0.012
-625.449	-56.173	0.075	-0.033
-624.434	-30.631	-0.143	0.081
-623.419	130.638	-0.041	0.052
-622.405	-164.365	-0.134	0.006
-621.390	365.242	0.036	-0.072
-620.376	-200.000	-0.011	0.269
-619.361	-81.229	0.455	-0.149
-618.346	110.486	0.164	0.196
-617.332	800.000	-0.025	0.107
-616.317	-200.000	-0.031	-0.223
-615.303	263.068	-0.208	-0.359
-614.288	-200.000	0.022	0.108
-613.273	7.140	-0.152	-0.113
-612.259	136.524	-0.216	-0.280
-611.244	655.480	0.049	0.126
-610.230	-76.981	-0.207	-0.072
-609.215	-39.956	0.177	-0.092
-608.201	-21.727	-0.167	0.101
-607.186	106.817	0.235	0.276
-606.171	-200.000	0.061	0.359
-605.157	-98.033	-0.088	-0.023
-604.142	-27.344	-0.259	0.150
-603.128	-96.453	-0.099	-0.026
-602.113	85.835	-0.112	0.122
-601.098	-200.000	0.063	-0.319
-600.084	-151.393	0.020	-0.001
-599.069	786.512	-0.103	-0.279
-598.055	236.546	-0.237	-0.390
-597.040	-83.841	0.287	0.091
-596.025	159.583	-0.051	0.070
-595.011	-155.463	-0.167	-0.011
-593.996	-95.291	-0.224	-0.060
-592.982	131.422	-0.047	0.060
-591.967	5.318	-0.078	-0.057
-590.952	-1.413	-0.239	-0.167
-589.938	-113.636	-0.337	-0.065
-588.923	135.902	0.113	0.146
-587.909	-86.878	0.056	0.017
-586.894	4.121	-0.169	-0.123
-585.879	-166.439	-0.546	0.023
-584.865	-42.517	-0.175	0.089
-583.850	-147.571	0.131	0.011
-582.836	446.682	-0.045	0.097
-581.821	0.916	0.094	0.067
-580.806	-168.644	-0.186	-0.007
-579.792	444.122	0.041	-0.089
-578.777	-40.952	0.232	-0.119
-577.763	-131.271	0.271	-0.036
-576.748	32.624	-0.199	0.170
-575.733	-200.000	-0.002	0.114
-574.719	17.917	0.192	-0.152
-573.704	-28.652	0.047	-0.027
-572.690	-111.297	-0.261	0.053
-571.675	-124.441	-0.260	0.040
-570.661	-137.507	0.079	-0.009
-569.646	-21.132	0.221	-0.134
-568.631	-13.031	-0.197	-0.127
-567.617	435.520	-0.117	0.252
-566.602	37.538	-0.171	-0.151
-565.588	800.000	0.074	-0.215
-564.573	483.048	0.086	0.193
-563.558	-122.113	0.388	-0.063
-562.544	800.000	-0.057	0.241
-561.529	369.651	0.125	0.251
-560.515	800.000	-0.085	0.285
-559.500	-200.000	-0.032	0.174
-558.485	204.856	-0.111	-0.171
-557.471	-200.000	0.016	-0.076
-556.456	-200.000	-0.007	-0.060
-555.442	-5.968	0.276	0.187
-554.427	155.176	-0.215	0.293
-553.412	-20.863	-0.176	0.107
-552.398	65.065	0.205	0.206
-551.383	-200.000	0.028	-0.195
-550.369	-200.000	0.040	-0.282
-549.354	-131.508	0.383	-0.050
-548.339	240.398	0.094	0.154
-547.325	800.000	0.046	0.191
-546.310	-38.325	-0.064	0.034
-545.296	-107.896	0.413	-0.089
-544.281	-41.918	-0.312	-0.158
-543.266	575.226	-0.066	0.160
-542.252	-59.832	0.214	0.091
-541.237	-52.121	-0.091	-0.042
-540.223	-108.407	-0.118	0.025
-539.208	30.193	0.171	0.145
-538.193	-157.187	0.329	-0.020
-537.179	198.480	-0.119	0.180
-536.164	-200.000	0.008	0.183
-535.150	-46.340	-0.182	-0.089
-534.135	800.000	-0.077	0.238
-533.121	800.000	-0.035	0.149
-532.106	203.557	-0.086	-0.132
-531.091	-99.887	-0.148	0.037
-530.077	-52.429	0.109	-0.050
-529.062	800.000	-0.038	-0.106
-528.048	-94.746	0.198	-0.053
-527.033	-200.000	0.053	-0.443
-526.018	-7.803	0.298	0.199
-525.004	800.000	-0.098	-0.276
-523.989	800.000	-0.015	-0.050
-522.975	-200.000	-0.004	0.153
-521.960	472.462	0.034	0.075
-520.945	-78.905	-0.152	-0.051
-519.931	-200.000	0.000	0.056
-518.916	-84.170	-0.081	0.026
-517.902	-200.000	-0.025	0.148
-516.887	800.000	-0.093	-0.273
-515.872	-172.470	-0.219	-0.007
-514.858	68.693	-0.012	0.012
-513.843	-134.748	-0.323	-0.039
-512.829	-1.990	-0.296	-0.206
-511.814	186.621	0.113	0.166
-510.799	8.398	-0.021	0.015
-509.785	-200.000	-0.027	-0.275
-508.770	-147.874	-0.153	0.013
-507.756	67.339	0.218	0.220
-506.741	-189.538	0.323	0.004
-505.726	184.698	-0.096	-0.141
-504.712	78.451	0.137	0.145
-503.697	-200.000	-0.005	-0.136
-502.683	69.713	0.043	0.044
-501.668	212.911	0.032	0.050
-500.653	4.421	0.312	0.226
-499.639	548.688	0.089	0.210
-498.624	-23.459	0.418	0.248
-497.610	800.000	0.036	-0.112
-496.595	-76.333	-0.122	-0.042
-495.581	104.395	-0.216	-0.252
-494.566	-1.928	-0.124	-0.086
-493.551	-131.643	0.513	0.067
-492.537	13.188	-0.069	-0.053
-491.522	25.371	0.363	-0.298
-490.508	-119.292	0.153	-0.026
-489.493	800.000	0.040	-0.162
-488.478	-200.000	-0.029	-0.370
-487.464	433.678	0.136	0.291
-486.449	174.435	-0.074	-0.106
-485.435	-141.846	-0.133	0.013
-484.420	234.835	0.097	-0.158
-483.405	-200.000	0.001	0.070
-482.391	126.721	0.175	-0.220
-481.376	43.394	-0.154	0.139
-480.362	-200.000	0.026	0.403
-479.347	-160.398	-0.296	0.016
-478.332	-35.909	0.140	0.075
-477.318	283.154	-0.107	0.190
-476.303	800.000	-0.077	0.259
-475.289	800.000	-0.039	-0.124
-474.274	-71.331	-0.149	-0.055
-473.259	-60.301	0.231	-0.097
-472.245	168.632	-0.145	-0.204
-471.230	7.399	-0.023	-0.017
-470.216	-200.000	-0.037	0.477
-469.201	627.671	-0.073	0.182
-468.186	537.302	0.083	-0.194
-467.172	125.727	0.156	-0.194
-466.157	14.348	-0.225	-0.173
-465.143	-73.292	-0.228	0.082
-464.128	-200.000	-0.018	0.260
-463.113	-200.000	-0.058	-0.414
-462.099	135.176	0.267	0.343
-461.084	-60.727	0.070	-0.029
-460.070	-32.819	0.212	-0.117
-459.055	-200.000	-0.008	-0.293
-458.040	171.325	0.102	0.144
-457.026	178.003	0.153	0.221
-456.011	-197.959	-0.124	0.001
-454.997	-119.781	-0.220	0.038
-453.982	-200.000	0.056	0.362
-452.968	59.349	-0.340	-0.330
-451.953	-187.489	0.440	-0.006
-450.938	403.340	0.065	0.135
-449.924	-32.905	0.348	0.191
-448.909	-161.120	-0.109	0.006
-447.895	-8.814	-0.243	-0.161
-446.880	94.452	-0.077	0.086
-445.865	-48.024	-0.077	0.037
-444.851	800.000	0.043	0.168
-443.836	800.000	-0.063	-0.219
-442.822	-28.675	-0.028	-0.016
-441.807	-113.487	-0.397	-0.077
-440.792	68.537	-0.090	-0.091
-439.778	-167.851	0.298	-0.012
-438.763	-88.544	-0.147	-0.043
-437.749	151.249	0.123	0.165
-436.734	-200.000	0.032	0.192
-435.719	-37.496	0.111	0.059
-434.705	-150.977	0.118	-0.009
-433.690	-26.995	0.236	-0.136
-432.676	582.929	-0.104	0.252
-431.661	-27.484	0.013	-0.007
-430.646	109.741	0.195	-0.231
-429.632	-14.259	-0.198	-0.126
-428.617	-200.000	0.016	-0.414
-427.603	-138.145	0.138	-0.015
-426.588	-89.281	0.390	-0.113
-425.573	-74.145	0.280	-0.100
-424.559	269.981	0.150	0.259
-423.544	-106.982	0.089	0.019
-422.530	800.000	-0.140	0.595
-421.515	3.339	0.429	-0.308
-420.500	78.695	0.096	-0.102
-419.486	800.000	-0.072	0.287
-418.471	-88.546	0.469	0.138
-417.457	800.000	0.060	-0.211
-416.442	95.551	0.086	0.096
-415.428	72.642	-0.179	0.184
-414.413	-192.012	-0.160	-0.002
-413.398	-200.000	-0.018	0.086
-412.384	800.000	-0.026	-0.078
-411.369	-59.926	0.351	-0.148
-410.355	-200.000	0.005	0.115
-409.340	-95.937	-0.115	0.030
-408.325	-68.479	-0.053	-0.020
-407.311	-200.000	-0.008	-0.072
-406.296	-200.000	-0.015	0.138
-405.282	800.000	-0.097	0.277
-404.267	-200.000	-0.019	-0.370
-403.252	800.000	0.039	-0.165
-402.238	242.544	0.100	-0.165
-401.223	800.000	-0.079	-0.217
-400.209	-136.692	-0.102	-0.012
-399.194	-53.162	-0.280	-0.127
-398.179	-63.741	-0.391	-0.158
-397.165	-68.126	-0.328	-0.126
-396.150	338.262	-0.033	0.063
-395.136	455.537	-0.116	0.252
-394.121	-141.259	0.207	0.021
-393.106	198.968	-0.303	-0.457
-392.092	-200.000	0.018	0.260
-391.077	125.376	0.354	0.440
-390.063	-39.825	0.116	0.059
-389.048	-57.958	0.209	-0.090
-388.033	260.376	-0.168	0.286
-387.019	128.857	-0.200	0.251
-386.004	-140.980	0.095	0.010
-384.990	-164.578	0.306	-0.014
-383.975	800.000	-0.059	0.251
-382.960	1.807	-0.157	-0.112
-381.946	-92.354	0.144	0.040
-380.931	392.267	-0.066	-0.136
-379.917	162.815	-0.076	-0.105
-378.902	-0.109	-0.187	0.131
-377.888	262.603	0.042	0.072
-376.873	-62.503	-0.160	0.065
-375.858	68.584	0.059	0.060
-374.844	86.829	0.140	0.152
-373.829	-28.044	0.104	0.059
-372.815	66.746	-0.039	-0.039
-371.800	-76.823	0.370	0.127
-370.785	28.711	0.330	0.275
-369.771	90.551	-0.270	-0.298
-368.756	-200.000	-0.029	-0.126
-367.742	-151.417	0.315	-0.023
-366.727	-200.000	0.048	-0.321
-365.712	-89.012	-0.199	-0.058
-364.698	-74.302	-0.594	-0.211
-363.683	-65.251	0.131	-0.052
-362.669	-200.000	0.036	0.343
-361.654	-200.000	-0.007	0.175
-360.639	800.000	-0.041	-0.124
-359.625	232.339	0.096	0.155
-358.610	387.066	0.093	0.188
-357.596	-39.713	-0.220	-0.113
-356.581	785.891	0.077	-0.208
-355.566	-200.000	0.024	-0.165
-354.552	453.101	0.129	-0.280
-353.537	109.519	-0.123	0.145
-352.523	-51.970	0.139	-0.063
-351.508	134.812	0.177	0.226
-350.493	-200.000	-0.018	-0.154
-349.479	12.306	-0.149	0.113
-348.464	800.000	0.072	0.226
-347.450	-40.688	0.175	-0.089
-346.435	-200.000	0.035	0.303
-345.420	-200.000	0.030	0.147
-344.406	-70.873	0.355	0.131
-343.391	21.951	0.106	-0.085
-342.377	84.922	-0.112	-0.121
-341.362	72.876	-0.393	-0.404
-340.348	286.383	-0.096	-0.171
-339.333	343.240	-0.110	0.212
-338.318	116.769	-0.040	-0.048
-337.304	-138.465	-0.110	-0.012
-336.289	13.709	0.208	0.159
-335.275	-200.000	-0.024	0.207
-334.260	36.289	0.145	0.125
-333.245	-200.000	0.005	-0.081
-332.231	176.808	0.215	-0.308
-331.216	143.459	0.126	0.164
-330.202	-82.702	-0.177	0.056
-329.187	545.342	0.220	-0.515
-328.172	167.673	0.040	0.056
-327.158	800.000	0.011	0.037
-326.143	800.000	-0.057	0.190
-325.129	68.770	0.192	0.194
-324.114	-200.000	0.029	-0.244
-323.099	60.850	0.179	0.175
-322.085	-36.029	0.208	0.110
-321.070	-200.000	-0.029	0.192
-320.056	-92.528	0.235	0.065
-319.041	-200.000	-0.014	-0.219
-318.026	-61.699	-0.228	-0.094
-317.012	501.392	-0.117	0.265
-315.997	-34.292	-0.354	-0.191
-314.983	165.662	0.089	0.123
-313.968	-105.094	0.223	0.050
-312.953	82.229	0.116	0.124
-311.939	-200.000	-0.017	-0.170
-310.924	-89.397	0.329	0.095
-309.910	-92.353	0.372	0.103
-308.895	-200.000	0.045	0.322
-307.880	-0.546	-0.151	0.105
-306.866	370.236	0.062	-0.124
-305.851	172.559	0.061	-0.086
-304.837	293.551	0.194	-0.347
-303.822	-200.000	0.019	-0.126
-302.807	-54.954	-0.167	0.074
-301.793	25.643	0.219	0.179
-300.778	-200.000	-0.087	-0.375
-299.764	68.470	-0.227	0.228
-298.749	61.206	0.248	0.242
-297.735	-70.271	-0.291	-0.108
-296.720	235.824	-0.118	-0.192
-295.705	-200.000	0.042	0.302
-294.691	-200.000	-0.032	0.231
-293.676	-200.000	0.055	0.257
-292.662	-99.914	0.143	0.035
-291.647	-72.673	-0.164	0.059
-290.632	163.861	0.039	-0.055
-289.618	93.772	-0.088	0.098
-288.603	800.000	0.050	-0.179
-287.589	-22.494	-0.151	-0.090
-286.574	-27.238	-0.083	-0.047
-285.559	-173.681	-0.284	-0.008
-284.545	-115.498	-0.163	-0.030
-283.530	-23.594	-0.134	-0.079
-282.516	42.658	0.112	-0.100
-281.501	6.430	-0.268	0.195
-280.486	-200.000	-0.027	-0.206
-279.472	-145.745	-0.158	-0.014
-278.457	-126.300	0.244	-0.036
-277.443	-38.708	0.083	0.043
-276.428	167.139	-0.121	-0.168
-275.413	-129.749	-0.264	0.036
-274.399	-68.710	-0.193	-0.073
-273.384	-200.000	-0.061	-0.286
-272.370	-200.000	-0.004	-0.246
-271.355	114.984	0.293	0.350
-270.340	-200.000	0.014	0.134
-269.326	414.497	-0.165	-0.344
-268.311	98.257	0.157	-0.177
-267.297	26.503	0.205	-0.168
-266.282	236.668	-0.085	0.138
-265.267	-87.739	0.225	-0.067
-264.253	-200.000	0.008	0.171
-263.238	224.244	0.105	-0.167
-262.224	106.638	-0.129	0.149
-261.209	-200.000	-0.045	0.197
-260.195	10.703	0.099	-0.074
-259.180	123.773	-0.215	-0.264
-258.165	-36.489	-0.183	-0.096
-257.151	-200.000	-0.044	-0.250
-256.136	-200.000	-0.012	-0.069
-255.122	-99.918	-0.400	0.098
-254.107	345.262	0.150	-0.288
-253.092	33.536	-0.110	-0.094
-252.078	468.310	-0.120	0.263
-251.063	-37.971	-0.254	-0.132
-250.049	52.050	0.101	-0.095
-249.034	-23.980	0.122	-0.071
-248.019	800.000	-0.023	-0.082
-247.005	-88.050	-0.178	-0.052
-245.990	-176.889	-0.217	-0.005
-244.976	-200.000	0.007	0.090
-243.961	-144.428	-0.178	0.016
-242.946	380.638	0.078	-0.156
-241.932	772.071	-0.110	-0.294
-240.917	-30.075	0.120	0.067
-239.903	-82.681	0.280	0.089
-238.888	195.572	-0.189	0.281
-237.873	2.570	0.019	0.013
-236.859	-111.558	0.395	-0.079
-235.844	-171.589	0.354	-0.011
-234.830	-47.963	0.222	-0.105
-233.815	-56.891	-0.212	-0.092
-232.800	-200.000	-0.006	-0.046
-231.786	800.000	-0.040	0.148
-230.771	710.789	-0.122	0.316
-229.757	-73.143	0.338	0.121
-228.742	-89.309	0.093	0.027
-227.727	-64.873	-0.363	-0.144
-226.713	-79.588	0.098	-0.032
-225.698	-200.000	0.002	-0.117
-224.684	288.383	0.076	0.134
-223.669	424.884	-0.110	0.232
-222.655	-94.065	0.050	-0.014
-221.640	313.399	-0.127	0.234
-220.625	-134.846	-0.066	-0.008
-219.611	172.758	-0.087	0.123
-218.596	81.042	0.193	0.203
-217.582	-200.000	0.012	0.275
-216.567	74.386	-0.183	-0.188
-215.552	800.000	0.086	0.244
-214.538	-193.236	0.208	-0.002
-213.523	527.709	-0.191	-0.440
-212.509	-200.000	-0.018	-0.080
-211.494	380.436	-0.112	-0.224
-210.479	410.058	0.148	0.307
-209.465	78.777	-0.379	0.397
-208.450	149.900	-0.125	0.166
-207.436	350.074	-0.023	0.044
-206.421	-74.583	-0.334	0.118
-205.406	-200.000	-0.010	-0.162
-204.392	-94.234	-0.644	-0.172
-203.377	-6.194	0.169	0.113
-202.363	677.146	-0.090	-0.228
-201.348	125.689	-0.255	-0.314
-200.333	800.000	0.084	0.357
-199.319	38.715	0.091	0.079
-198.304	800.000	0.049	-0.168
-197.290	146.438	0.118	0.154
-196.275	800.000	0.080	-0.239
-195.260	800.000	-0.012	0.035
-194.246	29.475	-0.160	0.133
-193.231	7.173	0.266	0.194
-192.217	-71.217	-0.408	-0.149
-191.202	-80.628	-0.250	0.081
-190.187	13.250	0.196	-0.149
-189.173	-168.099	-0.167	0.006
-188.158	491.836	0.030	-0.066
-187.144	-119.052	-0.264	-0.045
-186.129	234.028	0.042	0.068
-185.114	548.483	-0.048	-0.112
-184.100	-142.125	0.350	0.034
-183.085	-76.161	0.092	0.032
-182.071	134.639	0.181	-0.229
-181.056	-200.000	0.011	-0.376
-180.042	-185.118	-0.165	0.003
-179.027	-200.000	-0.030	-0.417
-178.012	104.965	0.053	0.061
-176.998	-142.961	0.037	0.004
-175.983	800.000	0.099	0.318
-174.969	16.401	0.230	-0.177
-173.954	8.062	-0.217	-0.159
-172.939	-163.809	0.035	0.002
-171.925	800.000	0.048	-0.134
-170.910	73.681	0.089	0.091
-169.896	26.032	0.232	-0.189
-168.881	-200.000	-0.042	-0.202
-167.866	-29.510	0.269	-0.150
-166.852	522.524	-0.020	0.045
-165.837	255.085	0.110	-0.184
-164.823	800.000	-0.020	0.081
-163.808	-71.576	0.242	-0.088
-162.793	-85.621	-0.268	-0.081
-161.779	-93.600	0.298	-0.080
-160.764	-5.524	0.047	-0.032
-159.750	-49.087	-0.289	0.135
-158.735	800.000	0.111	0.335
-157.720	130.522	-0.093	-0.117
-156.706	-200.000	0.075	0.334
-155.691	105.582	-0.111	-0.128
-154.677	247.769	-0.133	0.220
-153.662	2.555	-0.273	0.193
-152.647	-94.827	-0.153	-0.041
-151.633	68.797	-0.128	-0.128
-150.618	154.656	-0.090	-0.121
-149.604	-200.000	0.006	0.202
-148.589	-5.976	0.119	0.079
-147.574	-200.000	0.074	0.350
-146.560	-94.378	-0.173	-0.046
-145.545	-200.000	0.005	0.133
-144.531	69.792	-0.285	0.287
-143.516	-200.000	0.059	0.333
-142.502	-145.455	-0.220	0.019
-141.487	4.923	0.176	0.126
-140.472	800.000	0.013	-0.039
-139.458	370.437	-0.178	-0.352
-138.443	-60.662	0.141	-0.058
-137.429	-64.195	-0.271	0.108
-136.414	28.323	-0.208	0.171
-135.399	53.260	0.156	0.146
-134.385	-200.000	-0.082	0.428
-133.370	64.297	-0.128	0.126
-132.356	800.000	0.014	0.057
-131.341	-157.960	0.313	-0.018
-130.326	-60.900	-0.015	-0.006
-129.312	74.215	-0.190	0.194
-128.297	-200.000	0.020	-0.150
-127.283	249.972	-0.020	-0.034
-126.268	359.520	-0.081	-0.159
-125.253	-77.047	0.279	-0.095
-124.239	770.003	-0.064	-0.171
-123.224	-200.000	-0.067	-0.337
-122.210	15.379	0.058	0.044
