DTS Sentinel unit serial number:	SN413079Multiplexer serial number:	ORYXHardware model number:	OX4-SRSoftware version number:	ORYX F/W v4.00 Oryx Data Collector v3.7.2.0data status	okinstallation	princeton_trtdifferential loss correction	single-endedforward channel	channel 2reverse channel	N/Adate	2019/09/18time	12:11:35forward acquisition time	60.00reverse acquisition time	0.00gamma	496.2192k internal	0.2325k external	0.2325temperature offset calibration	0.9989default loss term (dB/km)	0.3790temperature slope calibration	1.0000multiplexer offset coefficient	1.0000multiplexer slope coefficient	1.0000fibre end	0.00T internal ref (°C)	31.69T ext. ref 1 (°C)	0.50T ext. ref 2 (°C)	27.22length (m)	temperature (°C)	Stokes	anti-Stokes-747.200	-56.688	0.143	0.064
-746.185	-18.655	-0.224	0.141
-745.171	571.738	-0.051	-0.126
-744.156	-128.992	0.211	0.030
-743.142	800.000	-0.024	0.094
-742.127	152.190	-0.158	0.218
-741.112	-200.000	0.013	-0.142
-740.098	-20.083	-0.121	-0.075
-739.083	-70.812	-0.156	0.059
-738.069	800.000	-0.070	0.248
-737.054	-30.048	-0.349	-0.200
-736.039	-140.121	-0.159	0.017
-735.025	4.444	0.217	0.161
-734.010	-200.000	-0.042	-0.312
-732.996	-200.000	-0.015	-0.331
-731.981	317.383	0.042	0.081
-730.966	-200.000	-0.045	-0.250
-729.952	-19.732	-0.047	-0.029
-728.937	-44.288	-0.210	0.106
-727.923	-130.663	-0.120	0.016
-726.908	-156.009	-0.299	-0.019
-725.894	-84.977	0.176	-0.056
-724.879	-200.000	0.014	0.103
-723.864	800.000	0.059	-0.257
-722.850	-51.835	-0.252	-0.118
-721.835	-101.678	0.160	0.039
-720.821	800.000	0.055	0.217
-719.806	44.668	0.132	-0.122
-718.791	800.000	-0.112	-0.318
-717.777	-8.310	0.173	0.118
-716.762	800.000	-0.040	-0.160
-715.748	-153.751	-0.331	-0.023
-714.733	385.671	0.071	0.148
-713.718	-136.562	-0.258	-0.030
-712.704	-200.000	0.045	0.214
-711.689	800.000	-0.021	-0.062
-710.675	-93.299	0.272	0.076
-709.660	-75.249	0.165	-0.059
-708.645	800.000	-0.073	0.303
-707.631	-111.311	-0.316	-0.065
-706.616	350.412	0.040	-0.080
-705.602	109.915	-0.105	-0.126
-704.587	-62.862	-0.144	0.060
-703.572	-200.000	0.052	0.448
-702.558	325.521	-0.081	0.156
-701.543	-51.111	0.380	0.179
-700.529	617.041	0.130	0.329
-699.514	-112.774	-0.334	0.067
-698.499	800.000	0.098	-0.299
-697.485	-200.000	0.016	0.431
-696.470	67.488	0.169	0.174
-695.456	-65.627	-0.517	0.209
-694.441	-77.844	-0.256	-0.089
-693.426	-200.000	-0.477	-0.001
-692.412	-200.000	0.016	0.277
-691.397	-166.816	-0.123	0.005
-690.383	800.000	0.108	0.391
-689.368	-200.000	-0.008	-0.153
-688.354	-160.133	-0.112	0.006
-687.339	28.701	-0.149	-0.127
-686.324	-56.597	0.383	-0.171
-685.310	35.239	-0.344	-0.303
-684.295	-200.000	0.012	-0.218
-683.281	54.722	-0.164	0.159
-682.266	-100.357	0.134	0.033
-681.251	-200.000	-0.008	-0.152
-680.237	-3.500	0.083	-0.058
-679.222	138.108	0.163	-0.215
-678.208	-174.811	0.062	-0.002
-677.193	-142.577	-0.091	0.009
-676.178	0.507	-0.097	-0.070
-675.164	184.003	-0.258	0.385
-674.149	-90.390	-0.251	-0.073
-673.135	15.412	0.155	-0.123
-672.120	-155.159	0.370	-0.024
-671.105	-142.241	-0.218	-0.022
-670.091	454.400	-0.081	0.181
-669.076	38.143	-0.150	0.135
-668.062	233.636	-0.171	0.283
-667.047	-105.194	-0.262	0.060
-666.032	-140.097	0.026	-0.003
-665.018	-200.000	-0.002	-0.118
-664.003	-152.225	0.104	0.008
-662.989	-200.000	-0.011	-0.065
-661.974	-9.758	0.118	-0.079
-660.959	-33.658	0.173	-0.096
-659.945	-131.660	0.226	-0.030
-658.930	-121.305	-0.054	0.009
-657.916	-200.000	0.031	-0.287
-656.901	-200.000	-0.034	-0.208
-655.886	54.396	-0.070	0.068
-654.872	-200.000	-0.001	-0.115
-653.857	-105.238	0.229	0.053
-652.843	65.684	0.152	-0.155
-651.828	138.634	0.129	0.171
-650.814	-200.000	-0.008	-0.059
-649.799	-146.741	0.200	0.017
-648.784	142.020	-0.084	-0.112
-647.770	363.837	-0.048	-0.097
-646.755	477.778	-0.058	0.132
-645.741	800.000	-0.064	0.208
-644.726	201.764	0.138	0.214
-643.711	369.836	0.118	0.240
-642.697	-125.406	-0.346	0.053
-641.682	57.812	0.078	0.077
-640.668	-135.234	-0.203	0.024
-639.653	95.982	0.251	-0.288
-638.638	-73.257	-0.079	0.029
-637.624	405.209	0.041	-0.087
-636.609	-200.000	0.010	-0.378
-635.595	400.539	0.117	0.248
-634.580	800.000	0.040	0.145
-633.565	327.426	-0.127	0.245
-632.551	-161.457	0.489	0.025
-631.536	-134.403	-0.206	0.025
-630.522	800.000	0.028	-0.115
-629.507	391.248	0.094	0.196
-628.492	-145.057	-0.176	-0.016
-627.478	109.938	0.177	-0.214
-626.463	96.452	0.353	0.406
-625.449	-200.000	-0.005	0.185
-624.434	-85.375	-0.270	-0.085
-623.419	71.251	-0.284	-0.296
-622.405	-200.000	-0.074	-0.327
-621.390	-112.015	0.079	-0.016
-620.376	431.840	-0.067	0.146
-619.361	800.000	0.019	0.065
-618.346	39.120	-0.108	0.097
-617.332	800.000	0.073	-0.214
-616.317	109.327	0.109	0.132
-615.303	-200.000	0.003	0.116
-614.288	-120.736	-0.013	-0.002
-613.273	800.000	0.120	-0.458
-612.259	341.653	0.049	-0.097
-611.244	-200.000	-0.042	-0.197
-610.230	-200.000	0.015	-0.088
-609.215	334.975	0.029	0.057
-608.201	182.147	0.086	-0.127
-607.186	-109.806	-0.333	-0.070
-606.171	60.528	0.195	-0.194
-605.157	-42.951	0.201	0.103
-604.142	-35.599	0.088	0.048
-603.128	64.213	-0.194	0.196
-602.113	-40.907	0.497	-0.258
-601.098	-84.498	-0.211	-0.067
-600.084	-200.000	-0.014	-0.131
-599.069	63.399	-0.067	-0.067
-598.055	-116.219	0.024	0.004
-597.040	-114.722	0.223	-0.043
-596.025	31.084	-0.056	-0.048
-595.011	-151.511	0.223	-0.017
-593.996	271.646	-0.160	-0.283
-592.982	-89.644	-0.154	0.045
-591.967	800.000	0.022	-0.093
-590.952	-1.399	0.161	-0.114
-589.938	56.638	0.173	-0.169
-588.923	621.432	0.091	-0.229
-587.909	-52.364	-0.172	0.080
-586.894	-113.930	-0.296	-0.058
-585.879	-200.000	-0.007	0.083
-584.865	-67.852	0.022	0.009
-583.850	125.423	0.087	0.111
-582.836	-200.000	0.097	0.482
-581.821	-200.000	-0.017	-0.096
-580.806	61.301	0.128	-0.128
-579.792	15.708	0.171	-0.135
-578.777	-81.917	0.363	0.119
-577.763	800.000	0.084	-0.367
-576.748	-100.429	0.182	0.045
-575.733	24.956	-0.202	0.168
-574.719	-113.161	-0.075	0.015
-573.704	184.063	0.241	-0.358
-572.690	-59.357	-0.315	0.136
-571.675	195.717	0.116	-0.177
-570.661	-160.631	0.329	0.018
-569.646	-98.725	0.263	-0.067
-568.631	178.737	-0.029	0.042
-567.617	-200.000	-0.021	0.155
-566.602	800.000	-0.056	-0.168
-565.588	77.048	-0.265	0.282
-564.573	-200.000	0.041	0.184
-563.558	700.101	0.071	-0.188
-562.544	800.000	-0.089	0.319
-561.529	360.811	0.077	-0.154
-560.515	-98.766	0.268	-0.068
-559.500	215.851	-0.088	0.141
-558.485	12.581	-0.105	0.081
-557.471	-54.448	0.130	-0.059
-556.456	370.768	-0.126	0.256
-555.442	87.016	0.143	-0.159
-554.427	16.731	-0.236	0.187
-553.412	25.086	0.109	-0.091
-552.398	-200.000	0.000	0.132
-551.383	-200.000	0.017	0.210
-550.369	-135.328	-0.336	-0.040
-549.354	-36.116	-0.077	-0.042
-548.339	388.390	-0.057	-0.118
-547.325	-200.000	0.005	-0.302
-546.310	-33.747	0.106	-0.059
-545.296	-182.815	0.251	0.005
-544.281	261.025	-0.120	0.209
-543.266	0.789	0.536	-0.384
-542.252	37.575	0.040	0.035
-541.237	80.992	-0.155	0.168
-540.223	800.000	0.034	-0.128
-539.208	-83.418	0.201	0.065
-538.193	519.130	-0.029	0.068
-537.179	-200.000	0.037	0.289
-536.164	101.938	-0.108	0.126
-535.150	-106.238	-0.154	-0.035
-534.135	191.525	0.167	0.252
-533.121	95.823	0.109	0.125
-532.106	800.000	-0.106	0.338
-531.091	-80.627	-0.192	0.064
-530.077	133.319	-0.144	-0.186
-529.062	-128.119	0.306	0.044
-528.048	-177.228	0.322	-0.008
-527.033	5.537	-0.215	0.159
-526.018	-119.782	-0.256	-0.044
-525.004	-78.606	-0.188	0.064
-523.989	73.987	0.080	-0.084
-522.975	54.329	0.226	-0.217
-521.960	-95.308	-0.278	-0.075
-520.945	7.884	0.219	0.164
-519.931	-28.341	-0.315	-0.182
-518.916	-32.367	-0.295	-0.164
-517.902	-90.496	0.455	-0.132
-516.887	800.000	0.030	-0.097
-515.872	367.875	0.266	-0.538
-514.858	-5.622	-0.218	-0.149
-513.843	800.000	0.027	0.111
-512.829	-15.684	0.357	-0.228
-511.814	66.283	-0.113	-0.115
-510.799	142.622	-0.119	-0.159
-509.785	800.000	0.055	0.154
-508.770	-47.546	-0.240	0.117
-507.756	-200.000	-0.038	-0.328
-506.741	202.174	0.064	0.099
-505.726	-139.534	-0.297	-0.032
-504.712	800.000	-0.060	0.212
-503.697	-148.021	-0.199	0.017
-502.683	2.870	-0.280	-0.203
-501.668	210.156	0.084	-0.132
-500.653	-58.360	0.109	-0.048
-499.639	404.209	0.115	0.242
-498.624	-92.723	0.263	-0.074
-497.610	131.092	-0.347	0.445
-496.595	79.228	-0.094	0.101
-495.581	215.548	0.089	-0.142
-494.566	118.291	0.039	-0.048
-493.551	62.310	-0.180	-0.179
-492.537	149.887	-0.080	0.108
-491.522	-70.563	0.294	0.111
-490.508	-200.000	0.044	0.400
-489.493	800.000	-0.046	-0.153
-488.478	-65.963	0.047	0.019
-487.464	-200.000	0.185	-0.000
-486.449	66.453	-0.233	0.237
-485.435	-103.666	-0.090	0.021
-484.420	-200.000	-0.006	-0.312
-483.405	-108.432	0.064	0.014
-482.391	-169.647	-0.162	0.006
-481.376	290.873	0.118	-0.213
-480.362	531.241	0.138	-0.327
-479.347	87.224	0.390	-0.431
-478.332	-200.000	0.006	0.090
-477.318	209.669	0.097	-0.152
-476.303	-200.000	-0.049	0.216
-475.289	-43.102	-0.090	0.046
-474.274	-81.196	-0.210	0.069
-473.259	-200.000	-0.008	0.289
-472.245	800.000	0.107	0.308
-471.230	-162.931	-0.077	0.004
-470.216	100.872	0.187	-0.217
-469.201	89.459	-0.216	-0.241
-468.186	-101.279	-0.092	0.022
-467.172	-19.822	-0.270	0.167
-466.157	-200.000	0.052	-0.336
-465.143	-113.107	-0.136	0.027
-464.128	225.863	-0.048	-0.077
-463.113	-0.561	-0.239	-0.169
-462.099	800.000	-0.100	-0.311
-461.084	-135.631	0.198	0.023
-460.070	800.000	0.068	0.280
-459.055	-162.739	0.279	-0.014
-458.040	796.728	-0.103	-0.283
-457.026	332.514	0.189	-0.364
-456.011	-128.871	-0.082	-0.012
-454.997	-200.000	-0.018	-0.177
-453.982	98.122	0.162	0.186
-452.968	-200.000	-0.024	-0.138
-451.953	268.469	0.089	-0.156
-450.938	-126.872	0.216	0.032
-449.924	49.641	-0.066	-0.062
-448.909	-200.000	-0.014	-0.066
-447.895	800.000	-0.039	0.158
-446.880	-67.731	-0.272	-0.106
-445.865	-118.875	0.349	0.061
-444.851	-107.458	-0.436	-0.095
-443.836	-34.701	-0.155	0.084
-442.822	-200.000	-0.019	-0.303
-441.807	-51.489	0.198	0.092
-440.792	-34.918	0.295	-0.160
-439.778	-65.144	-0.078	0.032
-438.763	72.703	0.312	0.325
-437.749	800.000	-0.024	0.087
-436.734	553.082	-0.095	-0.228
-435.719	-161.722	-0.074	0.004
-434.705	443.147	0.050	-0.110
-433.690	800.000	-0.034	0.116
-432.676	81.714	0.085	0.092
-431.661	800.000	0.074	0.297
-430.646	-0.193	-0.151	-0.107
-429.632	500.535	-0.056	-0.128
-428.617	-56.335	-0.267	0.118
-427.603	-200.000	0.018	-0.279
-426.588	-81.368	-0.156	0.051
-425.573	111.609	-0.134	-0.161
-424.559	249.802	0.099	0.167
-423.544	-123.973	0.185	-0.029
-422.530	-142.619	-0.315	-0.031
-421.515	725.789	-0.017	-0.046
-420.500	-172.756	0.199	-0.006
-419.486	155.039	0.136	-0.186
-418.471	-95.023	0.178	-0.048
-417.457	294.028	-0.178	-0.325
-416.442	-23.069	0.244	0.147
-415.428	169.628	0.114	-0.163
-414.413	-8.479	-0.099	-0.066
-413.398	-181.161	-0.378	0.007
-412.384	-133.888	-0.139	0.017
-411.369	-19.821	-0.094	-0.058
-410.355	-114.355	0.413	-0.079
-409.340	800.000	0.062	-0.231
-408.325	-6.342	0.228	0.155
-407.311	115.948	-0.182	0.222
-406.296	237.925	-0.075	-0.124
-405.282	-200.000	0.029	-0.146
-404.267	-200.000	0.007	0.133
-403.252	800.000	-0.056	0.210
-402.238	-172.599	-0.065	-0.002
-401.223	-200.000	0.052	-0.425
-400.209	-161.155	-0.248	-0.013
-399.194	-57.693	0.118	-0.051
-398.179	-155.125	-0.112	0.007
-397.165	-200.000	0.003	-0.110
-396.150	800.000	0.124	0.420
-395.136	800.000	-0.063	0.268
-394.121	720.284	0.077	-0.204
-393.106	64.656	0.120	0.120
-392.092	-200.000	-0.035	0.303
-391.077	799.034	-0.078	-0.214
-390.063	-200.000	-0.015	-0.367
-389.048	-79.564	0.189	-0.064
-388.033	-89.090	-0.120	-0.035
-387.019	5.789	0.134	-0.099
-386.004	-151.985	0.260	0.019
-384.990	-152.737	0.179	0.013
-383.975	-134.094	0.256	0.031
-382.960	-25.408	0.096	0.056
-381.946	473.035	0.043	-0.096
-380.931	-128.776	0.127	-0.018
-379.917	17.800	-0.245	0.194
-378.902	800.000	0.051	-0.200
-377.888	86.877	-0.154	0.169
-376.873	380.881	0.111	0.227
-375.858	-55.110	-0.200	-0.090
-374.844	-200.000	0.012	0.115
-373.829	305.069	-0.090	0.167
-372.815	168.910	-0.170	0.241
-371.800	-92.300	0.106	-0.030
-370.785	-61.897	-0.276	-0.115
-369.771	-200.000	0.045	0.222
-368.756	122.432	0.002	-0.003
-367.742	2.805	0.167	0.120
-366.727	431.185	0.125	0.270
-365.712	-38.836	-0.329	-0.172
-364.698	-37.124	0.246	0.131
-363.683	-200.000	-0.028	0.141
-362.669	517.790	0.046	-0.108
-361.654	246.002	-0.201	0.337
-360.639	-127.800	0.178	-0.025
-359.625	-200.000	-0.003	0.206
-358.610	46.785	-0.016	0.014
-357.596	98.294	0.104	0.119
-356.581	67.024	0.153	0.155
-355.566	800.000	-0.061	0.185
-354.552	-73.085	-0.082	-0.030
-353.537	-6.247	0.150	-0.102
-352.523	-200.000	-0.003	0.143
-351.508	-25.806	-0.182	0.106
-350.493	-92.656	0.170	-0.047
-349.479	-176.155	-0.115	0.003
-348.464	-62.444	0.219	-0.090
-347.450	-124.436	0.239	0.037
-346.435	800.000	0.022	0.067
-345.420	-112.424	-0.352	-0.070
-344.406	274.473	0.036	0.063
-343.391	-37.430	0.127	-0.067
-342.377	412.737	-0.132	-0.278
-341.362	161.819	-0.211	-0.293
-340.348	-200.000	-0.020	0.131
-339.333	-200.000	-0.034	0.175
-338.318	800.000	0.024	0.083
-337.304	-152.200	0.101	-0.007
-336.289	-4.432	-0.069	-0.047
-335.275	-169.985	-0.210	0.007
-334.260	-61.369	0.103	0.043
-333.245	88.049	0.173	-0.190
-332.231	-200.000	0.017	0.130
-331.216	-153.063	0.464	0.032
-330.202	-200.000	0.049	0.361
-329.187	-86.642	-0.133	0.040
-328.172	119.932	-0.127	0.157
-327.158	-68.503	-0.242	-0.093
-326.143	470.569	-0.073	0.162
-325.129	251.430	0.137	-0.231
-324.114	-44.485	0.267	-0.133
-323.099	562.189	0.035	-0.085
-322.085	-26.779	-0.291	0.169
-321.070	88.714	-0.233	-0.258
-320.056	-92.545	-0.272	0.076
-319.041	-130.856	-0.071	-0.009
-318.026	-78.875	0.240	0.081
-317.012	-143.628	0.203	0.019
-315.997	217.955	0.037	-0.059
-314.983	-51.104	0.243	0.113
-313.968	-66.810	0.238	0.094
-312.953	-32.385	-0.463	-0.256
-311.939	-200.000	0.006	-0.042
-310.924	-200.000	-0.004	-0.072
-309.910	-0.995	-0.224	-0.157
-308.895	120.457	0.080	-0.098
-307.880	123.375	0.116	0.145
-306.866	-77.449	0.038	0.013
-305.851	579.817	-0.088	0.215
-304.837	189.469	0.088	0.130
-303.822	324.208	-0.087	-0.165
-302.807	-52.514	-0.051	0.023
-301.793	-143.433	0.294	-0.028
-300.778	-155.322	-0.456	-0.029
-299.764	80.381	-0.112	-0.120
-298.749	-26.016	0.303	-0.177
-297.735	11.338	-0.372	-0.282
-296.720	-160.407	-0.223	0.012
-295.705	-200.000	0.052	0.410
-294.691	-55.015	0.290	-0.129
-293.676	451.553	-0.034	-0.074
-292.662	-38.458	-0.270	-0.142
-291.647	364.904	-0.052	-0.104
-290.632	23.018	-0.133	0.108
-289.618	562.603	0.072	-0.173
-288.603	7.315	-0.296	0.219
-287.589	-200.000	0.004	0.064
-286.574	105.643	0.253	0.297
-285.559	-121.505	-0.192	0.032
-284.545	-86.544	0.374	-0.114
-283.530	-200.000	0.010	0.292
-282.516	-7.109	-0.253	-0.170
-281.501	800.000	0.139	0.385
-280.486	800.000	-0.075	0.223
-279.472	59.950	-0.293	-0.287
-278.457	-99.040	0.423	0.106
-277.443	-200.000	-0.331	-0.000
-276.428	-200.000	0.001	0.045
-275.413	101.363	-0.040	-0.046
-274.399	477.107	0.056	-0.126
-273.384	58.713	-0.177	0.172
-272.370	-59.239	-0.141	0.060
-271.355	-95.643	-0.080	-0.021
-270.340	-132.033	0.235	-0.030
-269.326	-74.573	-0.384	-0.137
-268.311	-116.251	0.223	0.041
-267.297	539.670	-0.059	0.140
-266.282	-60.705	0.315	0.132
-265.267	-104.506	-0.183	-0.042
-264.253	-131.695	0.055	-0.007
-263.238	696.635	0.060	0.156
-262.224	-137.834	-0.158	-0.017
-261.209	800.000	0.013	-0.053
-260.195	209.674	0.218	-0.339
-259.180	-7.915	-0.238	0.159
-258.165	-200.000	-0.025	-0.267
-257.151	-24.336	-0.096	0.056
-256.136	-200.000	0.062	0.398
-255.122	-57.129	0.118	0.051
-254.107	-106.727	0.183	-0.040
-253.092	-106.133	0.203	0.045
-252.078	-66.282	0.224	-0.088
-251.063	-42.653	-0.249	0.125
-250.049	-200.000	0.004	0.163
-249.034	-31.406	-0.262	-0.146
-248.019	-51.268	-0.197	0.091
-247.005	267.436	-0.053	-0.092
-245.990	-200.000	0.020	-0.094
-244.976	290.960	-0.204	0.367
-243.961	159.575	-0.298	0.410
-242.946	372.561	-0.165	0.332
-241.932	-63.827	-0.171	0.069
-240.917	-52.141	-0.170	0.078
-239.903	152.804	-0.093	0.126
-238.888	232.638	0.156	-0.253
-237.873	-162.295	0.253	0.012
-236.859	-200.000	-0.036	0.358
-235.844	278.978	0.063	-0.111
-234.830	-200.000	0.026	0.170
-233.815	247.698	-0.128	-0.214
-232.800	-186.563	0.164	0.002
-231.786	-138.810	-0.417	-0.045
-230.771	637.095	0.113	-0.283
-229.757	-28.726	-0.129	0.074
-228.742	-200.000	-0.011	0.076
-227.727	-200.000	-0.024	0.148
-226.713	64.631	0.307	0.306
-225.698	-200.000	0.296	0.000
-224.684	94.441	-0.198	-0.222
-223.669	79.607	0.022	0.024
-222.655	91.367	0.098	0.109
-221.640	-1.773	-0.280	-0.195
-220.625	222.397	-0.056	-0.090
-219.611	-200.000	0.039	0.256
-218.596	800.000	-0.021	-0.072
-217.582	-200.000	0.023	0.121
-216.567	78.266	-0.118	-0.125
-215.552	-76.745	-0.133	-0.046
-214.538	650.896	-0.035	0.087
-213.523	45.311	0.156	-0.143
-212.509	-200.000	0.016	-0.082
-211.494	-200.000	0.003	-0.165
-210.479	-28.698	-0.198	-0.113
-209.465	-33.118	-0.035	-0.019
-208.450	-65.424	0.068	-0.027
-207.436	800.000	0.029	-0.083
-206.421	800.000	0.101	-0.310
-205.406	-13.172	-0.264	0.170
-204.392	408.481	0.103	0.215
-203.377	-200.000	0.018	-0.226
-202.363	41.566	-0.090	0.081
-201.348	316.387	-0.065	0.121
-200.333	-91.725	-0.371	0.104
-199.319	14.504	0.210	-0.162
-198.304	724.870	-0.086	0.225
-197.290	189.857	0.092	0.137
-196.275	800.000	-0.050	-0.206
-195.260	-200.000	0.023	0.115
-194.246	-200.000	0.039	-0.254
-193.231	51.942	-0.239	-0.225
-192.217	5.887	-0.084	0.062
-191.202	-184.414	0.256	-0.004
-190.187	114.025	0.147	-0.177
-189.173	25.999	-0.168	-0.138
-188.158	-21.721	-0.079	-0.047
-187.144	-17.900	0.228	-0.141
-186.129	-188.005	0.659	0.008
-185.114	119.437	0.051	-0.063
-184.100	324.058	0.051	-0.096
-183.085	48.469	0.332	0.307
-182.071	-103.979	0.158	0.036
-181.056	72.623	0.129	-0.133
-180.042	-116.811	0.355	0.064
-179.027	-91.059	0.344	-0.097
-178.012	5.755	-0.134	-0.097
-176.998	-200.000	0.038	0.320
-175.983	-71.696	-0.130	0.048
-174.969	-33.742	-0.090	-0.049
-173.954	-126.556	-0.094	-0.014
-172.939	-200.000	0.015	-0.143
-171.925	-89.164	0.270	0.079
-170.910	-64.342	-0.061	-0.025
-169.896	800.000	-0.091	0.316
-168.881	-200.000	-0.015	0.078
-167.866	-45.701	-0.155	0.076
-166.852	-33.561	0.295	0.161
-165.837	378.195	-0.139	-0.280
-164.823	800.000	-0.089	0.375
-163.808	-126.267	-0.150	-0.022
-162.793	-53.612	-0.182	-0.082
-161.779	-39.954	0.226	0.116
-160.764	301.200	0.085	-0.155
-159.750	-119.355	-0.180	-0.031
-158.735	-48.126	-0.211	-0.100
-157.720	-68.100	-0.317	0.122
-156.706	-2.537	-0.096	0.067
-155.691	251.441	0.067	0.112
-154.677	27.101	-0.187	0.154
-153.662	800.000	-0.013	0.036
-152.647	-34.481	-0.158	-0.085
-151.633	800.000	-0.065	0.186
-150.618	241.363	-0.127	0.210
-149.604	-40.669	-0.091	-0.046
-148.589	-200.000	0.071	-0.358
-147.574	-46.838	0.218	-0.105
-146.560	-123.993	0.128	-0.020
-145.545	232.081	-0.079	-0.128
-144.531	161.717	0.124	0.172
-143.516	258.156	-0.096	0.163
-142.502	800.000	-0.060	0.218
-141.487	696.115	0.039	0.102
-140.472	-101.717	0.289	-0.069
-139.458	800.000	0.045	0.183
-138.443	-200.000	-0.028	-0.143
-137.429	-69.817	0.057	0.021
-136.414	800.000	0.022	0.064
-135.399	617.908	0.145	-0.359
-134.385	236.032	0.155	-0.252
-133.370	800.000	0.026	-0.107
-132.356	800.000	0.093	-0.266
-131.341	-95.471	-0.275	0.073
-130.326	49.249	0.231	0.214
-129.312	800.000	0.031	0.122
-128.297	-130.107	-0.510	0.069
-127.283	-200.000	0.042	-0.273
-126.268	195.410	-0.247	-0.370
-125.253	127.656	0.197	-0.246
-124.239	-157.712	0.054	0.003
-123.224	511.714	0.109	0.250
-122.210	800.000	-0.030	-0.118
