DTS Sentinel unit serial number:	SN413079Multiplexer serial number:	ORYXHardware model number:	OX4-SRSoftware version number:	ORYX F/W v4.00 Oryx Data Collector v3.7.2.0data status	okinstallation	princeton_trtdifferential loss correction	single-endedforward channel	channel 2reverse channel	N/Adate	2019/09/10time	22:57:10forward acquisition time	60.00reverse acquisition time	0.00gamma	496.2192k internal	0.2330k external	0.2330temperature offset calibration	0.9945default loss term (dB/km)	0.3790temperature slope calibration	1.0000multiplexer offset coefficient	1.0000multiplexer slope coefficient	1.0000fibre end	0.00T internal ref (°C)	30.06T ext. ref 1 (°C)	-0.31T ext. ref 2 (°C)	23.35length (m)	temperature (°C)	Stokes	anti-Stokes-747.200	-200.000	-0.037	0.199
-746.185	800.000	-0.086	0.278
-745.171	-47.990	-0.252	0.123
-744.156	715.722	-0.068	0.183
-743.142	-23.049	0.221	-0.134
-742.127	42.819	-0.207	-0.190
-741.112	-71.498	0.446	-0.168
-740.098	-200.000	-0.022	-0.298
-739.083	-12.318	0.091	0.060
-738.069	-83.748	-0.227	0.073
-737.054	-200.000	-0.028	0.151
-736.039	16.308	0.156	0.124
-735.025	-7.655	0.192	-0.130
-734.010	600.189	-0.051	0.126
-732.996	-69.336	-0.131	-0.051
-731.981	-25.220	0.199	-0.119
-730.966	101.530	-0.194	-0.228
-729.952	800.000	0.038	0.161
-728.937	223.710	0.095	0.154
-727.923	-68.638	0.341	0.133
-726.908	63.067	0.074	0.074
-725.894	653.441	-0.076	0.197
-724.879	90.484	-0.021	0.024
-723.864	-200.000	0.006	-0.055
-722.850	36.188	0.191	-0.169
-721.835	31.587	-0.229	-0.198
-720.821	77.159	-0.091	-0.097
-719.806	-46.875	0.035	0.017
-718.791	-86.764	0.052	-0.016
-717.777	133.053	0.110	0.143
-716.762	-163.695	-0.186	-0.009
-715.748	-28.638	0.141	-0.082
-714.733	-12.331	0.565	-0.372
-713.718	44.882	-0.107	-0.099
-712.704	-21.523	-0.188	0.115
-711.689	-41.426	0.259	-0.134
-710.675	565.495	-0.166	-0.405
-709.660	-34.471	-0.093	-0.051
-708.645	-75.535	0.101	0.036
-707.631	800.000	0.100	-0.299
-706.616	-51.915	-0.051	0.024
-705.602	204.412	-0.319	-0.497
-704.587	-111.888	0.252	-0.051
-703.572	25.617	-0.214	0.179
-702.558	13.081	-0.081	-0.063
-701.543	-200.000	0.014	-0.168
-700.529	145.876	-0.282	-0.380
-699.514	185.673	0.057	0.085
-698.499	-6.398	0.153	-0.105
-697.485	136.311	-0.071	0.093
-696.470	-32.900	-0.142	-0.079
-695.456	800.000	-0.045	0.183
-694.441	-94.877	0.216	0.059
-693.426	-112.921	0.141	0.028
-692.412	800.000	-0.052	0.215
-691.397	-88.025	0.253	-0.076
-690.383	12.774	0.286	-0.222
-689.368	800.000	-0.053	-0.193
-688.354	-200.000	0.023	-0.184
-687.339	119.433	-0.121	-0.151
-686.324	475.164	-0.069	-0.155
-685.310	-200.000	-0.016	0.176
-684.295	225.743	-0.116	-0.189
-683.281	800.000	-0.082	-0.282
-682.266	-107.696	0.130	-0.029
-681.251	-54.685	0.505	-0.229
-680.237	-46.912	-0.100	-0.049
-679.222	490.258	-0.103	-0.236
-678.208	-200.000	-0.050	-0.285
-677.193	800.000	-0.086	-0.243
-676.178	-112.411	0.216	-0.043
-675.164	-57.690	-0.208	-0.092
-674.149	-200.000	0.002	-0.027
-673.135	-144.055	0.045	-0.004
-672.120	399.641	-0.138	0.291
-671.105	-51.000	0.259	-0.122
-670.091	788.644	0.103	-0.283
-669.076	-169.021	0.189	0.007
-668.062	135.836	-0.091	-0.119
-667.047	-62.418	0.026	-0.011
-666.032	-68.020	0.159	0.062
-665.018	321.463	-0.175	-0.334
-664.003	121.166	-0.228	-0.285
-662.989	82.333	0.158	0.172
-661.974	-64.452	-0.291	-0.119
-660.959	-128.713	0.098	0.014
-659.945	800.000	0.041	0.166
-658.930	-24.419	0.154	0.092
-657.916	-24.254	0.160	0.096
-656.901	-85.459	0.036	-0.011
-655.886	-200.000	0.037	-0.180
-654.872	800.000	-0.042	-0.151
-653.857	800.000	0.039	-0.150
-652.843	318.620	-0.079	0.150
-651.828	281.262	0.224	-0.402
-650.814	207.229	0.161	0.251
-649.799	22.887	0.180	-0.148
-648.784	-7.854	-0.210	-0.142
-647.770	-136.234	-0.408	-0.048
-646.755	-120.917	-0.285	-0.048
-645.741	50.751	0.039	0.037
-644.726	-200.000	-0.033	0.185
-643.711	800.000	0.091	0.362
-642.697	-105.118	-0.029	-0.007
-641.682	239.154	0.079	0.131
-640.668	15.969	0.189	-0.149
-639.653	-148.586	-0.423	-0.035
-638.638	-55.121	-0.232	0.105
-637.624	4.347	0.188	0.138
-636.609	8.153	0.162	0.122
-635.595	526.564	-0.147	0.348
-634.580	-122.677	0.048	0.008
-633.565	-81.394	0.276	0.091
-632.551	-97.283	-0.473	0.124
-631.536	800.000	0.026	-0.111
-630.522	-200.000	-0.062	-0.275
-629.507	800.000	0.118	-0.422
-628.492	-64.206	0.257	0.105
-627.478	-57.866	-0.064	0.028
-626.463	-200.000	-0.007	0.187
-625.449	800.000	-0.121	0.340
-624.434	-200.000	-0.031	0.157
-623.419	207.793	0.269	-0.421
-622.405	-162.532	0.104	0.005
-621.390	800.000	0.136	0.453
-620.376	371.786	-0.125	-0.254
-619.361	273.027	0.100	-0.177
-618.346	352.766	-0.057	0.114
-617.332	109.377	0.240	0.288
-616.317	68.486	0.112	0.115
-615.303	800.000	-0.084	0.246
-614.288	386.251	0.108	0.222
-613.273	-0.233	0.122	0.087
-612.259	-149.781	-0.174	-0.014
-611.244	-200.000	0.014	-0.327
-610.230	-200.000	-0.041	0.230
-609.215	539.268	0.069	0.165
-608.201	-123.098	-0.200	0.032
-607.186	800.000	-0.043	0.124
-606.171	27.630	-0.123	0.104
-605.157	37.365	-0.116	-0.103
-604.142	-200.000	-0.010	0.056
-603.128	-200.000	-0.004	-0.060
-602.113	800.000	-0.087	-0.293
-601.098	635.532	-0.086	-0.218
-600.084	6.564	-0.212	-0.158
-599.069	-63.224	0.306	0.126
-598.055	403.069	0.150	-0.316
-597.040	453.058	-0.040	-0.088
-596.025	800.000	0.081	0.246
-595.011	24.369	-0.123	0.102
-593.996	-137.117	0.364	-0.042
-592.982	-127.378	0.306	0.045
-591.967	-200.000	0.010	-0.128
-590.952	-200.000	0.003	-0.131
-589.938	-76.578	0.426	0.150
-588.923	246.450	-0.110	-0.185
-587.909	-147.961	0.350	-0.029
-586.894	-200.000	0.008	-0.094
-585.879	-88.161	-0.236	-0.071
-584.865	-200.000	-0.049	-0.250
-583.850	800.000	0.059	0.210
-582.836	-200.000	0.040	-0.206
-581.821	-130.707	0.203	0.027
-580.806	-200.000	0.008	-0.058
-579.792	-67.275	-0.400	0.157
-578.777	-200.000	0.034	-0.405
-577.763	91.720	0.089	-0.100
-576.748	-200.000	-0.010	-0.095
-575.733	7.296	-0.099	-0.074
-574.719	-10.566	-0.225	-0.149
-573.704	-200.000	0.023	-0.175
-572.690	-200.000	-0.006	-0.092
-571.675	-92.304	0.180	0.051
-570.661	-69.014	0.213	0.082
-569.646	-62.403	0.106	0.044
-568.631	155.892	0.093	-0.128
-567.617	800.000	0.064	0.192
-566.602	186.350	-0.085	0.127
-565.588	45.867	-0.093	0.086
-564.573	800.000	-0.116	-0.357
-563.558	116.940	0.133	-0.163
-562.544	-12.559	-0.334	-0.218
-561.529	219.713	-0.125	-0.200
-560.515	68.516	-0.149	-0.153
-559.500	-90.277	0.132	0.038
-558.485	-128.272	0.160	-0.023
-557.471	59.298	0.131	-0.129
-556.456	-58.881	0.078	-0.034
-555.442	800.000	0.091	0.271
-554.427	197.738	0.092	0.141
-553.412	-200.000	-0.044	-0.221
-552.398	-200.000	0.034	-0.280
-551.383	-51.679	0.301	-0.140
-550.369	-143.369	-0.319	0.030
-549.354	-2.351	-0.031	0.022
-548.339	101.016	-0.118	0.137
-547.325	284.371	-0.110	0.198
-546.310	-200.000	-0.018	-0.221
-545.296	151.108	-0.093	0.126
-544.281	-200.000	0.017	0.295
-543.266	175.889	0.121	0.175
-542.252	-72.509	-0.410	0.151
-541.237	7.311	0.362	-0.270
-540.223	348.845	0.030	-0.059
-539.208	0.119	-0.046	0.033
-538.193	-200.000	0.050	0.269
-537.179	-58.763	0.324	-0.140
-536.164	-57.019	0.073	-0.032
-535.150	-195.455	-0.068	-0.000
-534.135	-160.368	-0.311	0.017
-533.121	-200.000	-0.020	0.147
-532.106	-200.000	0.017	0.212
-531.091	561.862	-0.033	-0.079
-530.077	-40.978	-0.201	0.104
-529.062	74.369	-0.144	0.151
-528.048	-13.547	-0.165	-0.107
-527.033	800.000	-0.044	-0.129
-526.018	323.628	-0.081	0.154
-525.004	40.202	-0.188	-0.169
-523.989	-76.010	0.118	-0.042
-522.975	800.000	-0.036	-0.128
-521.960	17.175	0.153	0.121
-520.945	129.489	-0.208	0.265
-519.931	126.507	0.065	-0.082
-518.916	-200.000	0.060	-0.336
-517.902	-200.000	-0.064	-0.318
-516.887	432.549	0.062	-0.135
-515.872	-85.276	-0.202	-0.063
-514.858	-177.649	-0.353	0.009
-513.843	-200.000	-0.080	-0.484
-512.829	97.210	-0.189	-0.216
-511.814	-1.794	0.258	0.181
-510.799	-59.749	0.188	0.080
-509.785	-53.225	0.114	-0.052
-508.770	159.688	-0.187	-0.260
-507.756	59.028	-0.118	-0.116
-506.741	-117.107	0.288	-0.052
-505.726	-2.011	0.101	-0.071
-504.712	-200.000	-0.057	0.249
-503.697	800.000	-0.101	-0.340
-502.683	401.280	-0.077	-0.161
-501.668	273.222	-0.155	-0.273
-500.653	28.667	-0.079	-0.067
-499.639	-65.263	-0.125	-0.050
-498.624	313.905	-0.053	0.099
-497.610	-200.000	0.019	0.114
-496.595	-15.048	-0.213	-0.136
-495.581	-8.747	0.185	-0.124
-494.566	307.531	-0.106	-0.198
-493.551	-4.410	-0.142	0.098
-492.537	-66.233	0.203	-0.081
-491.522	800.000	-0.022	-0.087
-490.508	-200.000	0.019	-0.189
-489.493	-61.492	-0.099	0.041
-488.478	-200.000	0.006	-0.113
-487.464	126.984	-0.023	-0.029
-486.449	502.634	0.015	-0.034
-485.435	-43.924	0.199	0.100
-484.420	390.997	0.080	-0.166
-483.405	74.335	0.211	0.220
-482.391	800.000	-0.079	0.234
-481.376	-200.000	-0.004	-0.088
-480.362	800.000	0.059	0.233
-479.347	62.711	-0.240	0.239
-478.332	-133.485	-0.085	0.011
-477.318	-200.000	0.016	0.119
-476.303	276.300	0.089	0.158
-475.289	-141.973	-0.298	0.030
-474.274	-82.013	0.296	-0.096
-473.259	51.738	-0.223	0.212
-472.245	642.399	0.044	-0.113
-471.230	-61.572	0.175	0.073
-470.216	260.540	0.237	-0.408
-469.201	800.000	0.085	-0.235
-468.186	-200.000	-0.030	0.150
-467.172	136.053	-0.083	0.108
-466.157	318.083	-0.097	-0.184
-465.143	47.460	-0.124	-0.115
-464.128	206.465	0.091	0.141
-463.113	141.334	0.180	0.237
-462.099	-68.933	0.165	0.063
-461.084	-76.376	-0.006	-0.002
-460.070	-163.934	-0.228	-0.011
-459.055	347.231	0.045	-0.088
-458.040	-200.000	0.032	-0.174
-457.026	366.920	-0.078	-0.157
-456.011	-200.000	-0.040	-0.224
-454.997	-200.000	-0.023	0.250
-453.982	700.089	0.067	0.176
-452.968	-200.000	0.004	0.120
-451.953	-156.408	-0.516	-0.032
-450.938	800.000	-0.072	0.262
-449.924	800.000	-0.041	0.149
-448.909	800.000	0.035	-0.133
-447.895	-51.343	-0.050	-0.023
-446.880	98.986	-0.115	0.133
-445.865	800.000	0.096	0.276
-444.851	-156.862	0.307	-0.019
-443.836	388.637	0.077	-0.159
-442.822	24.205	0.110	-0.090
-441.807	365.994	0.113	0.226
-440.792	2.470	0.342	-0.246
-439.778	101.631	-0.130	-0.151
-438.763	800.000	0.176	-0.697
-437.749	-19.310	0.314	0.194
-436.734	800.000	0.058	0.161
-435.719	83.732	-0.170	0.185
-434.705	80.522	-0.083	0.089
-433.690	-144.265	0.375	0.035
-432.676	-66.146	0.304	-0.121
-431.661	-5.006	-0.169	0.116
-430.646	-136.198	0.141	-0.016
-429.632	248.650	-0.093	-0.156
-428.617	-200.000	0.001	0.248
-427.603	800.000	-0.028	-0.085
-426.588	-171.857	0.139	0.005
-425.573	-127.547	0.112	0.016
-424.559	-200.000	0.015	-0.206
-423.544	-79.715	0.058	-0.019
-422.530	-31.654	-0.226	-0.126
-421.515	-50.520	0.142	-0.066
-420.500	-103.667	-0.224	0.052
-419.486	-91.379	-0.241	-0.068
-418.471	800.000	-0.017	0.067
-417.457	-123.455	0.136	0.022
-416.442	177.250	-0.086	0.124
-415.428	-56.472	0.075	0.033
-414.413	-141.170	-0.182	-0.018
-413.398	10.442	-0.090	0.068
-412.384	-174.113	-0.192	0.006
-411.369	-36.887	0.102	-0.054
-410.355	28.672	0.299	-0.252
-409.340	-200.000	-0.005	-0.142
-408.325	313.200	0.095	-0.178
-407.311	220.424	-0.182	-0.289
-406.296	6.031	-0.381	0.280
-405.282	-57.803	-0.119	0.052
-404.267	39.467	-0.266	0.236
-403.252	-94.706	-0.162	0.044
-402.238	510.307	-0.104	-0.239
-401.223	-20.187	-0.057	-0.035
-400.209	630.877	0.109	-0.273
-399.194	-200.000	0.045	0.261
-398.179	-28.167	0.277	0.159
-397.165	-9.241	0.146	-0.097
-396.150	-23.488	-0.142	-0.085
-395.136	43.290	0.075	-0.068
-394.121	-33.490	0.114	0.063
-393.106	142.148	0.210	0.276
-392.092	26.114	0.113	0.094
-391.077	-200.000	-0.359	-0.001
-390.063	50.561	0.069	0.065
-389.048	-200.000	-0.050	-0.225
-388.033	170.032	0.019	-0.026
-387.019	-200.000	-0.014	0.189
-386.004	126.264	0.047	-0.059
-384.990	247.774	-0.099	-0.166
-383.975	-132.790	0.094	-0.012
-382.960	-64.612	-0.323	-0.130
-381.946	73.818	-0.117	0.122
-380.931	34.639	0.123	0.106
-379.917	-163.688	0.157	0.007
-378.902	-150.182	-0.354	-0.027
-377.888	-200.000	0.002	-0.025
-376.873	-64.874	0.154	-0.062
-375.858	-84.983	-0.080	0.025
-374.844	-200.000	0.020	-0.211
-373.829	-200.000	0.025	0.178
-372.815	800.000	0.050	0.202
-371.800	-130.767	-0.242	0.032
-370.785	800.000	-0.115	-0.371
-369.771	110.549	0.304	0.363
-368.756	-99.774	0.157	0.039
-367.742	535.934	-0.039	0.092
-366.727	-117.931	-0.221	0.039
-365.712	244.471	0.016	-0.027
-364.698	-80.123	0.111	-0.037
-363.683	7.732	-0.206	0.153
-362.669	-200.000	-0.015	-0.066
-361.654	-200.000	0.004	0.186
-360.639	-143.189	0.293	-0.028
-359.625	-159.882	0.282	0.015
-358.610	-154.664	-0.253	0.017
-357.596	-56.135	-0.216	-0.095
-356.581	-6.216	-0.076	0.052
-355.566	298.427	0.024	0.044
-354.552	-200.000	-0.001	-0.070
-353.537	-48.417	0.333	-0.159
-352.523	-167.172	0.108	-0.004
-351.508	55.884	0.182	0.175
-350.493	-56.954	0.241	0.106
-349.479	-200.000	-0.014	-0.171
-348.464	-53.861	-0.070	0.032
-347.450	-200.000	-0.016	0.155
-346.435	346.170	0.101	0.197
-345.420	194.568	-0.045	-0.067
-344.406	800.000	0.059	0.218
-343.391	-200.000	0.022	-0.298
-342.377	197.348	-0.230	-0.348
-341.362	117.655	-0.228	0.278
-340.348	161.983	-0.187	0.259
-339.333	-56.750	-0.079	-0.034
-338.318	357.832	0.119	-0.235
-337.304	274.355	0.136	0.239
-336.289	26.328	0.220	0.182
-335.275	-69.860	0.279	0.106
-334.260	5.570	-0.156	0.114
-333.245	-87.528	0.316	-0.095
-332.231	-160.736	-0.253	0.013
-331.216	105.094	-0.018	-0.021
-330.202	136.071	-0.046	0.060
-329.187	29.764	-0.132	-0.111
-328.172	-200.000	-0.030	-0.252
-327.158	-119.279	-0.250	-0.043
-326.143	-86.520	0.128	0.039
-325.129	-147.580	-0.207	-0.017
-324.114	-200.000	-0.011	-0.111
-323.099	-200.000	0.023	-0.541
-322.085	800.000	-0.089	-0.267
-321.070	800.000	-0.032	0.121
-320.056	274.302	0.048	0.084
-319.041	-30.088	0.094	0.053
-318.026	251.082	-0.135	0.227
-317.012	245.495	-0.053	-0.088
-315.997	-200.000	-0.016	-0.212
-314.983	800.000	0.032	-0.094
-313.968	-176.909	-0.382	-0.010
-312.953	363.767	0.120	-0.240
-311.939	-200.000	-0.014	-0.112
-310.924	16.493	-0.150	-0.117
-309.910	190.898	0.024	-0.036
-308.895	533.968	0.056	-0.132
-307.880	525.742	0.100	0.234
-306.866	-50.704	0.254	-0.119
-305.851	800.000	-0.035	-0.120
-304.837	-3.921	-0.166	0.114
-303.822	-35.109	0.115	-0.062
-302.807	800.000	-0.091	0.280
-301.793	129.222	-0.185	0.234
-300.778	109.306	-0.056	0.067
-299.764	-168.029	-0.252	0.010
-298.749	191.017	-0.058	-0.086
-297.735	800.000	0.099	0.284
-296.720	7.998	-0.216	0.160
-295.705	-200.000	0.042	-0.229
-294.691	100.712	0.202	-0.232
-293.676	237.913	0.206	0.339
-292.662	-200.000	0.024	0.444
-291.647	31.708	0.294	-0.250
-290.632	338.090	-0.181	-0.348
-289.618	800.000	-0.037	0.117
-288.603	24.042	-0.051	0.041
-287.589	338.181	0.076	-0.147
-286.574	-53.973	0.144	0.065
-285.559	-94.402	0.182	0.049
-284.545	-130.678	-0.104	-0.014
-283.530	-25.824	0.362	0.211
-282.516	-22.630	-0.205	-0.122
-281.501	-1.337	-0.211	0.148
-280.486	-157.308	-0.148	-0.009
-279.472	-200.000	-0.009	-0.204
-278.457	106.190	-0.145	-0.170
-277.443	-141.929	0.235	-0.023
-276.428	-135.786	-0.158	0.018
-275.413	185.300	-0.175	-0.257
-274.399	233.311	-0.177	-0.288
-273.384	-200.000	0.040	0.237
-272.370	119.334	0.096	-0.118
-271.355	-74.564	0.074	-0.026
-270.340	216.157	-0.185	0.290
-269.326	114.960	-0.263	0.317
-268.311	-191.055	0.238	-0.002
-267.297	268.812	-0.171	0.297
-266.282	-9.168	0.194	0.128
-265.267	800.000	0.038	-0.138
-264.253	-200.000	-0.020	-0.132
-263.238	-41.531	-0.122	0.062
-262.224	183.457	0.080	-0.118
-261.209	800.000	-0.046	0.161
-260.195	117.016	0.186	0.226
-259.180	-167.395	0.241	-0.010
-258.165	-108.559	0.257	0.055
-257.151	-32.984	-0.147	-0.081
-256.136	133.062	0.113	-0.144
-255.122	-125.780	-0.254	-0.038
-254.107	197.339	-0.052	0.078
-253.092	353.628	-0.134	-0.262
-252.078	800.000	-0.057	-0.196
-251.063	98.314	-0.077	-0.088
-250.049	-200.000	0.002	0.044
-249.034	800.000	0.096	-0.395
-248.019	800.000	-0.084	-0.250
-247.005	79.187	-0.176	0.186
-245.990	151.147	0.170	-0.228
-244.976	222.743	-0.134	-0.214
-243.961	-92.888	-0.162	0.045
-242.946	-91.972	0.163	-0.046
-241.932	-142.986	0.153	0.015
-240.917	-13.464	-0.044	0.028
-239.903	-30.227	-0.241	0.135
-238.888	181.912	0.028	-0.041
-237.873	30.362	-0.069	0.058
-236.859	509.186	0.144	0.331
-235.844	24.419	0.112	0.092
-234.830	-200.000	0.001	0.113
-233.815	58.390	-0.050	-0.049
-232.800	-83.311	-0.047	-0.015
-231.786	422.530	-0.083	-0.177
-230.771	-68.107	-0.289	0.111
-229.757	373.483	0.044	0.089
-228.742	379.719	-0.133	-0.270
-227.727	276.249	0.251	0.439
-226.713	348.024	-0.024	0.048
-225.698	-200.000	0.042	-0.190
-224.684	-200.000	0.031	0.315
-223.669	24.839	0.345	0.282
-222.655	129.971	-0.091	0.115
-221.640	-37.607	0.110	-0.058
-220.625	214.225	0.061	0.096
-219.611	800.000	0.009	0.037
-218.596	-151.455	-0.066	-0.005
-217.582	-9.215	-0.048	0.032
-216.567	-102.564	-0.216	0.051
-215.552	294.241	-0.163	0.293
-214.538	363.698	0.081	0.161
-213.523	-200.000	-0.034	0.181
-212.509	263.289	0.274	0.469
-211.494	-161.000	-0.039	0.002
-210.479	-200.000	-0.059	-0.285
-209.465	-45.926	-0.386	-0.188
-208.450	800.000	-0.021	-0.064
-207.436	63.904	0.152	0.150
-206.421	18.916	0.188	-0.148
-205.406	476.772	-0.104	0.232
-204.392	-176.517	0.220	0.006
-203.377	-145.633	0.255	-0.022
-202.363	-200.000	-0.058	-0.277
-201.348	207.017	0.043	0.065
-200.333	-40.188	-0.140	-0.072
-199.319	-76.928	0.240	-0.083
-198.304	-20.080	0.151	0.092
-197.290	332.959	-0.090	0.172
-196.275	134.464	0.386	-0.493
-195.260	-200.000	0.012	-0.079
-194.246	-183.162	0.319	-0.006
-193.231	-90.087	0.375	0.108
-192.217	751.815	-0.023	-0.061
-191.202	-200.000	-0.016	-0.143
-190.187	245.436	-0.019	-0.031
-189.173	213.280	-0.151	-0.235
-188.158	-200.000	-0.023	0.259
-187.144	557.761	0.055	-0.130
-186.129	-48.203	-0.068	0.032
-185.114	-200.000	-0.003	-0.238
-184.100	800.000	-0.099	0.336
-183.085	235.950	0.084	0.136
-182.071	800.000	-0.120	0.356
-181.056	45.302	0.190	0.172
-180.042	800.000	0.110	0.347
-179.027	158.609	-0.191	-0.261
-178.012	-119.927	0.212	-0.036
-176.998	191.471	0.204	0.303
-175.983	-200.000	0.008	0.239
-174.969	211.732	-0.162	0.251
-173.954	-10.574	0.272	0.177
-172.939	-60.272	-0.101	0.042
-171.925	-152.895	-0.466	0.032
-170.910	800.000	0.103	0.415
-169.896	800.000	-0.015	-0.055
-168.881	-172.257	0.355	0.011
-167.866	-39.332	-0.071	-0.037
-166.852	367.524	0.048	0.095
-165.837	-200.000	-0.051	0.229
-164.823	27.135	-0.134	-0.111
-163.808	47.903	0.165	-0.152
-162.793	267.602	-0.171	0.294
-161.779	-172.595	0.183	-0.006
-160.764	-200.000	-0.013	0.144
-159.750	-200.000	-0.021	-0.147
-158.735	105.325	-0.108	0.126
-157.720	564.785	-0.071	-0.170
-156.706	110.761	-0.116	0.137
-155.691	-114.973	0.443	0.083
-154.677	-53.558	-0.072	-0.032
-153.662	-200.000	0.037	-0.238
-152.647	-99.708	-0.202	-0.050
-151.633	-2.435	0.115	-0.079
-150.618	-41.053	0.285	0.145
-149.604	-200.000	-0.015	-0.077
-148.589	-181.048	-0.395	0.008
-147.574	-147.194	-0.109	-0.009
-146.560	643.369	0.099	-0.248
-145.545	-200.000	-0.038	-0.377
-144.531	-200.000	0.001	-0.026
-143.516	-94.188	-0.053	0.014
-142.502	-104.861	0.329	0.074
-141.487	-147.650	0.315	-0.026
-140.472	800.000	-0.105	0.284
-139.458	139.393	-0.175	0.227
-138.443	800.000	-0.012	0.034
-137.429	-200.000	0.015	-0.147
-136.414	-200.000	-0.059	0.271
-135.399	183.366	0.171	0.249
-134.385	-15.013	0.171	0.108
-133.370	173.157	0.100	-0.141
-132.356	219.517	-0.163	0.257
-131.341	800.000	0.137	0.380
-130.326	800.000	0.078	0.243
-129.312	-168.540	0.295	0.011
-128.297	-84.526	-0.172	0.053
-127.283	79.526	0.292	-0.308
-126.268	-200.000	-0.036	0.330
-125.253	-200.000	0.094	-0.451
-124.239	484.436	-0.041	-0.092
-123.224	41.175	0.226	-0.201
-122.210	-0.694	-0.110	-0.077
