DTS Sentinel unit serial number:	SN413079Multiplexer serial number:	ORYXHardware model number:	OX4-SRSoftware version number:	ORYX F/W v4.00 Oryx Data Collector v3.7.2.0data status	okinstallation	princeton_trtdifferential loss correction	single-endedforward channel	channel 2reverse channel	N/Adate	2019/09/15time	11:03:35forward acquisition time	60.00reverse acquisition time	0.00gamma	496.2192k internal	0.2316k external	0.2316temperature offset calibration	1.0015default loss term (dB/km)	0.3790temperature slope calibration	1.0000multiplexer offset coefficient	1.0000multiplexer slope coefficient	1.0000fibre end	0.00T internal ref (°C)	34.28T ext. ref 1 (°C)	5.05T ext. ref 2 (°C)	29.64length (m)	temperature (°C)	Stokes	anti-Stokes-747.200	-171.374	-0.316	-0.011
-746.185	60.287	-0.169	0.169
-745.171	800.000	0.014	-0.054
-744.156	194.709	0.055	-0.085
-743.142	-58.581	-0.112	0.049
-742.127	-69.881	0.076	0.029
-741.112	-126.957	0.095	-0.014
-740.098	238.272	-0.064	-0.107
-739.083	-126.265	0.170	0.026
-738.069	-85.143	-0.419	0.133
-737.054	-200.000	-0.063	0.501
-736.039	42.117	-0.253	0.233
-735.025	-54.257	0.093	-0.043
-734.010	94.025	-0.022	-0.026
-732.996	-84.188	-0.173	0.056
-731.981	94.582	0.126	-0.145
-730.966	41.811	-0.238	-0.218
-729.952	-53.133	-0.407	-0.189
-728.937	800.000	0.025	-0.075
-727.923	156.567	-0.144	-0.202
-726.908	21.992	-0.177	-0.146
-725.894	-71.938	0.106	0.040
-724.879	-71.523	-0.046	-0.017
-723.864	-13.026	-0.179	0.118
-722.850	-95.089	0.158	-0.043
-721.835	138.684	0.113	-0.150
-720.821	800.000	-0.108	-0.387
-719.806	-200.000	-0.025	-0.300
-718.791	265.396	0.111	-0.196
-717.777	-62.792	-0.266	-0.111
-716.762	233.401	-0.073	0.122
-715.748	-109.319	0.278	-0.060
-714.733	252.283	0.094	0.162
-713.718	-157.182	-0.237	-0.015
-712.704	-107.983	0.020	-0.004
-711.689	45.231	-0.160	0.149
-710.675	-147.965	-0.347	0.029
-709.660	-200.000	0.008	-0.320
-708.645	297.795	-0.043	-0.080
-707.631	-9.752	-0.174	-0.117
-706.616	52.504	-0.019	-0.018
-705.602	155.181	0.122	0.170
-704.587	275.535	0.110	-0.197
-703.572	-32.781	0.094	0.053
-702.558	-59.624	-0.160	0.069
-701.543	263.904	-0.138	-0.244
-700.529	-47.121	-0.201	-0.099
-699.514	29.676	-0.185	0.159
-698.499	-15.915	0.199	-0.128
-697.485	-112.744	-0.241	0.048
-696.470	-198.315	0.257	-0.002
-695.456	-10.426	-0.183	0.123
-694.441	206.277	0.122	0.191
-693.426	-43.878	-0.114	0.058
-692.412	-146.991	0.207	-0.018
-691.397	-131.787	0.146	0.019
-690.383	-102.966	0.240	0.058
-689.368	29.004	0.023	-0.019
-688.354	-15.068	-0.151	0.098
-687.339	61.963	0.085	-0.086
-686.324	62.077	0.103	-0.104
-685.310	-200.000	-0.003	-0.046
-684.295	480.178	0.174	-0.400
-683.281	23.493	-0.115	-0.096
-682.266	202.361	-0.188	-0.293
-681.251	40.686	-0.263	0.239
-680.237	-5.361	0.093	0.064
-679.222	373.275	-0.074	-0.151
-678.208	111.826	-0.158	-0.193
-677.193	35.217	-0.111	-0.099
-676.178	77.376	-0.179	0.193
-675.164	216.159	-0.154	0.248
-674.149	-145.655	0.163	-0.015
-673.135	77.906	0.134	0.145
-672.120	105.665	-0.206	0.246
-671.105	206.041	0.273	0.429
-670.091	-20.822	0.305	0.189
-669.076	277.955	0.186	-0.334
-668.062	386.034	-0.117	0.244
-667.047	800.000	0.024	-0.078
-666.032	-200.000	0.001	0.067
-665.018	-192.626	0.482	-0.004
-664.003	308.993	-0.037	0.069
-662.989	-200.000	0.017	0.218
-661.974	7.028	0.369	-0.278
-660.959	55.712	-0.143	-0.140
-659.945	-159.617	-0.347	0.019
-658.930	-96.311	0.243	-0.065
-657.916	-54.302	-0.110	-0.051
-656.901	800.000	-0.053	-0.190
-655.886	376.973	-0.125	-0.258
-654.872	-84.182	-0.206	0.066
-653.857	191.069	0.202	-0.307
-652.843	736.209	0.089	0.242
-651.828	-128.826	0.369	0.052
-650.814	-200.000	0.037	-0.195
-649.799	191.980	0.129	0.196
-648.784	-48.588	0.256	0.124
-647.770	-34.369	0.246	0.136
-646.755	175.682	-0.019	-0.028
-645.741	132.242	-0.062	0.080
-644.726	107.073	0.198	0.238
-643.711	377.532	0.078	-0.161
-642.697	490.255	0.083	-0.191
-641.682	180.388	0.180	-0.267
-640.668	-84.374	0.251	-0.080
-639.653	-61.151	-0.407	-0.173
-638.638	-11.448	-0.157	-0.104
-637.624	-119.788	0.563	0.098
-636.609	43.368	-0.138	-0.127
-635.595	-66.902	-0.155	-0.062
-634.580	7.224	0.243	0.183
-633.565	-200.000	-0.008	-0.191
-632.551	-154.688	0.074	-0.005
-631.536	-60.632	0.055	-0.023
-630.522	800.000	-0.053	0.234
-629.507	-101.349	0.205	-0.050
-628.492	-200.000	0.059	-0.380
-627.478	-34.853	0.092	-0.050
-626.463	-57.226	-0.232	-0.103
-625.449	58.927	-0.075	-0.075
-624.434	690.928	-0.071	-0.187
-623.419	-165.292	-0.267	0.012
-622.405	19.855	0.280	-0.228
-621.390	-127.752	0.481	-0.070
-620.376	-13.558	0.025	0.017
-619.361	69.047	-0.085	-0.088
-618.346	39.700	-0.152	-0.137
-617.332	-163.317	-0.225	-0.011
-616.317	262.450	-0.096	-0.167
-615.303	2.282	-0.107	-0.078
-614.288	-200.000	0.026	0.434
-613.273	289.493	0.105	0.192
-612.259	308.077	-0.092	-0.172
-611.244	172.392	0.137	-0.199
-610.230	81.173	-0.185	-0.201
-609.215	6.473	0.292	-0.219
-608.201	80.110	-0.261	-0.283
-607.186	-200.000	-0.071	-0.407
-606.171	28.917	0.057	0.049
-605.157	617.409	0.071	0.180
-604.142	-4.209	0.205	-0.143
-603.128	-180.334	-0.253	0.005
-602.113	-200.000	-0.001	0.154
-601.098	-20.239	0.296	0.183
-600.084	800.000	0.008	0.028
-599.069	133.535	-0.231	0.302
-598.055	634.502	0.049	0.126
-597.040	-77.206	0.347	0.122
-596.025	70.595	-0.031	0.032
-595.011	107.660	0.389	-0.466
-593.996	-36.066	0.419	-0.228
-592.982	402.371	0.108	-0.228
-591.967	280.315	-0.052	-0.093
-590.952	-72.272	0.179	0.067
-589.938	-43.460	-0.046	0.023
-588.923	132.373	-0.093	-0.120
-587.909	800.000	0.083	-0.261
-586.894	-158.661	-0.180	-0.010
-585.879	24.022	-0.048	-0.040
-584.865	-82.454	-0.045	0.015
-583.850	800.000	0.021	-0.075
-582.836	290.168	0.095	0.174
-581.821	-200.000	-0.039	-0.183
-580.806	138.910	-0.048	0.063
-579.792	16.495	0.139	0.111
-578.777	800.000	-0.071	-0.237
-577.763	-142.850	0.180	0.018
-576.748	-16.654	-0.075	-0.048
-575.733	-60.748	-0.313	-0.133
-574.719	118.036	-0.071	0.088
-573.704	-44.156	0.068	-0.034
-572.690	106.575	0.121	0.145
-571.675	172.889	-0.103	-0.150
-570.661	43.530	0.116	-0.107
-569.646	800.000	0.016	-0.052
-568.631	134.423	0.195	-0.254
-567.617	413.136	-0.066	-0.142
-566.602	152.826	-0.036	-0.050
-565.588	-200.000	0.023	0.301
-564.573	109.609	0.025	0.031
-563.558	-200.000	0.023	-0.168
-562.544	-200.000	0.020	-0.137
-561.529	-200.000	-0.019	0.116
-560.515	-200.000	0.024	0.110
-559.500	71.207	-0.140	0.146
-558.485	793.401	0.106	-0.294
-557.471	-45.942	-0.163	-0.081
-556.456	68.091	-0.103	0.106
-555.442	-146.005	0.395	0.035
-554.427	-128.470	-0.251	0.036
-553.412	-44.907	-0.259	-0.130
-552.398	-75.758	0.320	-0.114
-551.383	-164.452	0.130	-0.006
-550.369	-200.000	0.035	0.174
-549.354	-30.472	-0.191	-0.109
-548.339	-200.000	-0.023	0.270
-547.325	350.772	0.134	0.267
-546.310	-200.000	0.011	0.143
-545.296	800.000	0.060	0.185
-544.281	-126.171	-0.305	-0.046
-543.266	-101.619	-0.055	-0.013
-542.252	478.885	0.173	-0.393
-541.237	-12.539	0.201	-0.132
-540.223	-11.030	0.095	0.063
-539.208	-200.000	-0.005	0.303
-538.193	-200.000	-0.002	0.267
-537.179	-35.836	-0.026	-0.014
-536.164	-108.509	-0.037	-0.008
-535.150	800.000	0.063	0.182
-534.135	201.811	0.143	0.221
-533.121	-19.861	-0.257	0.160
-532.106	406.695	0.068	-0.145
-531.091	38.677	0.167	-0.150
-530.077	-200.000	-0.006	0.164
-529.062	319.702	0.185	0.353
-528.048	-97.888	0.141	0.037
-527.033	105.608	0.108	-0.128
-526.018	-200.000	-0.016	-0.405
-525.004	248.566	0.125	0.213
-523.989	-200.000	0.041	0.274
-522.975	229.861	-0.131	-0.216
-521.960	-47.260	0.102	0.050
-520.945	164.756	-0.238	0.337
-519.931	155.411	0.099	0.137
-518.916	-200.000	-0.014	-0.108
-517.902	360.869	-0.093	-0.187
-516.887	-200.000	-0.020	-0.201
-515.872	62.763	-0.255	0.257
-514.858	800.000	-0.045	0.161
-513.843	213.036	-0.070	-0.112
-512.829	800.000	0.108	-0.336
-511.814	521.039	-0.031	-0.072
-510.799	-81.877	-0.051	0.017
-509.785	111.275	0.236	-0.285
-508.770	134.685	-0.125	0.163
-507.756	800.000	-0.046	0.191
-506.741	-17.886	-0.108	-0.068
-505.726	-100.969	-0.288	0.071
-504.712	40.563	0.290	0.262
-503.697	396.798	-0.020	-0.043
-502.683	-200.000	0.019	-0.354
-501.668	192.841	0.092	0.140
-500.653	-78.802	-0.451	-0.154
-499.639	685.058	0.108	-0.282
-498.624	-45.946	0.125	-0.062
-497.610	-139.365	-0.193	0.021
-496.595	-200.000	0.035	0.245
-495.581	-189.371	0.238	0.003
-494.566	26.692	0.136	0.114
-493.551	135.807	-0.245	-0.320
-492.537	-154.696	0.206	0.014
-491.522	800.000	-0.101	0.295
-490.508	-50.739	-0.292	0.138
-489.493	87.378	-0.285	0.316
-488.478	-134.789	0.224	0.027
-487.464	34.821	0.134	-0.117
-486.449	-128.481	0.245	0.035
-485.435	91.573	-0.049	0.056
-484.420	-50.384	-0.142	-0.067
-483.405	-114.123	-0.043	-0.008
-482.391	199.692	0.128	0.197
-481.376	-151.412	-0.235	0.017
-480.362	-200.000	0.047	-0.299
-479.347	356.566	-0.121	-0.243
-478.332	46.811	-0.226	0.211
-477.318	-200.000	0.028	-0.281
-476.303	-79.863	0.077	-0.026
-475.289	175.870	0.019	-0.027
-474.274	34.292	-0.274	-0.240
-473.259	-200.000	-0.031	-0.159
-472.245	269.659	0.106	-0.186
-471.230	-56.249	-0.515	0.230
-470.216	-200.000	-0.010	-0.233
-469.201	800.000	0.138	0.425
-468.186	-63.952	-0.335	0.137
-467.172	380.406	0.088	0.181
-466.157	-161.611	0.322	-0.017
-465.143	100.765	0.241	-0.281
-464.128	-200.000	0.046	-0.249
-463.113	800.000	0.063	-0.177
-462.099	30.817	-0.175	0.150
-461.084	82.646	0.132	-0.144
-460.070	-101.862	-0.299	0.073
-459.055	45.995	-0.166	-0.154
-458.040	4.653	-0.094	0.069
-457.026	40.726	0.038	0.034
-456.011	-200.000	-0.009	0.102
-454.997	-58.384	0.204	-0.089
-453.982	131.033	-0.023	-0.030
-452.968	-90.573	-0.180	0.052
-451.953	135.425	0.054	-0.070
-450.938	213.576	0.118	0.186
-449.924	456.939	-0.064	-0.142
-448.909	210.669	-0.034	-0.054
-447.895	800.000	-0.023	0.096
-446.880	33.788	-0.129	0.112
-445.865	-200.000	-0.016	0.180
-444.851	-200.000	-0.010	-0.074
-443.836	-38.573	0.152	0.080
-442.822	800.000	0.062	0.210
-441.807	-44.308	-0.235	0.118
-440.792	-181.291	-0.204	-0.004
-439.778	444.209	0.053	-0.117
-438.763	192.104	0.050	-0.075
-437.749	-65.648	-0.076	0.030
-436.734	-43.819	0.391	-0.197
-435.719	56.041	0.159	-0.155
-434.705	10.135	-0.257	-0.196
-433.690	388.192	0.154	0.319
-432.676	164.286	-0.045	-0.063
-431.661	-7.823	-0.126	0.085
-430.646	302.442	0.107	-0.198
-429.632	-153.309	-0.297	0.021
-428.617	122.231	0.160	-0.200
-427.603	27.143	-0.219	-0.184
-426.588	28.520	0.201	0.170
-425.573	379.544	0.145	0.298
-424.559	-46.226	-0.237	0.116
-423.544	-80.811	-0.041	0.014
-422.530	-102.247	0.201	0.048
-421.515	628.211	0.045	-0.113
-420.500	800.000	0.047	-0.142
-419.486	-51.403	-0.363	-0.170
-418.471	11.333	-0.320	-0.245
-417.457	-178.050	0.354	0.008
-416.442	800.000	-0.043	-0.154
-415.428	-97.600	0.089	0.023
-414.413	120.797	0.129	0.160
-413.398	322.970	0.057	0.109
-412.384	-109.036	-0.055	-0.012
-411.369	69.365	0.180	-0.185
-410.355	-43.589	-0.064	-0.032
-409.340	-120.946	0.247	-0.041
-408.325	350.439	-0.108	-0.213
-407.311	-27.791	-0.221	0.128
-406.296	32.636	-0.130	-0.112
-405.282	-107.782	0.184	0.040
-404.267	-14.553	0.106	-0.068
-403.252	368.456	0.107	-0.216
-402.238	556.499	-0.078	0.188
-401.223	-15.924	-0.371	0.236
-400.209	-84.449	-0.076	-0.024
-399.194	329.712	-0.105	-0.203
-398.179	7.998	0.175	0.131
-397.165	-52.402	0.294	0.136
-396.150	-4.761	0.151	-0.104
-395.136	-70.027	0.149	-0.057
-394.121	-65.033	0.255	0.103
-393.106	433.986	-0.133	0.288
-392.092	-105.817	-0.175	-0.039
-391.077	-55.848	-0.176	0.079
-390.063	-127.882	-0.257	-0.037
-389.048	33.839	0.187	-0.163
-388.033	-33.028	0.109	0.061
-387.019	456.864	-0.046	0.102
-386.004	232.396	-0.213	0.350
-384.990	355.304	-0.091	-0.180
-383.975	800.000	0.146	-0.579
-382.960	115.474	-0.122	0.149
-381.946	-103.442	0.280	0.066
-380.931	62.230	0.210	-0.209
-379.917	-200.000	-0.021	0.113
-378.902	298.326	0.046	-0.084
-377.888	145.845	-0.051	-0.068
-376.873	-200.000	0.020	-0.132
-375.858	408.062	0.082	-0.174
-374.844	-46.357	0.092	0.045
-373.829	-200.000	-0.014	0.129
-372.815	-122.161	-0.470	0.077
-371.800	118.506	0.076	-0.094
-370.785	-200.000	0.041	0.351
-369.771	-13.674	-0.154	-0.099
-368.756	-3.745	-0.165	0.114
-367.742	800.000	-0.116	0.425
-366.727	-200.000	-0.064	0.349
-365.712	167.442	-0.168	0.239
-364.698	72.559	-0.172	0.179
-363.683	-160.684	0.184	0.010
-362.669	49.710	-0.164	-0.154
-361.654	800.000	0.104	0.295
-360.639	33.387	-0.121	-0.105
-359.625	-200.000	-0.012	0.079
-358.610	-169.042	-0.041	-0.002
-357.596	144.703	0.034	-0.045
-356.581	55.772	0.180	-0.174
-355.566	414.855	-0.068	-0.144
-354.552	45.087	0.222	-0.204
-353.537	800.000	0.065	-0.216
-352.523	0.098	-0.137	0.097
-351.508	800.000	-0.077	0.230
-350.493	266.141	0.142	0.247
-349.479	-54.847	-0.381	0.172
-348.464	-156.849	0.071	-0.004
-347.450	-50.046	-0.175	-0.083
-346.435	393.316	-0.084	0.173
-345.420	-52.275	0.098	0.045
-344.406	179.216	-0.117	-0.171
-343.391	9.469	-0.113	-0.085
-342.377	73.385	0.128	0.134
-341.362	-13.176	-0.114	0.074
-340.348	-74.938	-0.158	-0.056
-339.333	-111.701	0.310	-0.063
-338.318	-9.879	0.466	0.309
-337.304	-47.630	-0.190	-0.092
-336.289	-26.011	-0.286	0.168
-335.275	358.473	-0.138	0.275
-334.260	22.960	-0.110	-0.090
-333.245	-200.000	0.013	-0.123
-332.231	-200.000	-0.009	-0.243
-331.216	-68.521	0.112	0.043
-330.202	-109.004	-0.438	0.093
-329.187	692.678	-0.124	0.324
-328.172	465.994	-0.060	0.134
-327.158	117.239	-0.071	-0.087
-326.143	96.322	0.136	0.155
-325.129	-200.000	-0.003	0.181
-324.114	-147.222	-0.348	-0.030
-323.099	-200.000	-0.042	0.183
-322.085	-200.000	0.024	0.253
-321.070	6.012	-0.081	0.060
-320.056	-200.000	-0.002	-0.042
-319.041	-22.353	0.556	0.335
-318.026	800.000	0.114	0.419
-317.012	161.444	0.074	0.103
-315.997	186.872	-0.159	-0.236
-314.983	15.136	-0.193	0.150
-313.968	56.852	0.259	-0.251
-312.953	134.124	-0.081	0.105
-311.939	-200.000	-0.015	0.209
-310.924	-86.741	0.054	0.016
-309.910	-21.166	0.194	-0.118
-308.895	-52.785	0.128	-0.059
-307.880	-200.000	-0.005	0.104
-306.866	-74.193	-0.229	-0.083
-305.851	800.000	0.047	-0.158
-304.837	48.405	-0.278	0.259
-303.822	-38.117	0.368	-0.195
-302.807	-119.316	0.194	-0.034
-301.793	-72.497	-0.224	-0.083
-300.778	-63.748	-0.040	-0.016
-299.764	124.225	-0.193	0.241
-298.749	228.776	0.243	-0.394
-297.735	119.563	-0.124	-0.153
-296.720	800.000	-0.059	-0.163
-295.705	384.560	0.114	-0.233
-294.691	488.062	0.028	-0.064
-293.676	416.637	0.291	0.618
-292.662	214.998	-0.234	0.369
-291.647	-200.000	0.010	-0.211
-290.632	33.514	0.201	-0.174
-289.618	59.741	0.128	0.125
-288.603	-82.509	-0.123	0.040
-287.589	-29.234	-0.186	-0.106
-286.574	-200.000	-0.034	-0.181
-285.559	131.271	0.120	-0.153
-284.545	160.906	-0.116	-0.161
-283.530	-67.603	0.043	-0.017
-282.516	-59.786	-0.350	0.149
-281.501	232.808	-0.176	0.288
-280.486	311.028	-0.096	0.179
-279.472	53.143	-0.086	0.082
-278.457	-32.401	-0.090	0.050
-277.443	-14.834	-0.234	0.150
-276.428	-24.189	-0.164	-0.098
-275.413	-63.805	0.320	-0.130
-274.399	-200.000	-0.008	0.236
-273.384	112.352	-0.133	-0.159
-272.370	26.492	0.036	-0.030
-271.355	312.217	0.038	-0.070
-270.340	219.484	0.121	-0.193
-269.326	43.846	-0.101	-0.092
-268.311	-200.000	-0.040	0.242
-267.297	-200.000	-0.009	-0.058
-266.282	30.389	-0.204	-0.173
-265.267	106.107	0.149	-0.176
-264.253	75.957	0.177	-0.186
-263.238	175.603	-0.104	0.150
-262.224	64.370	0.163	-0.164
-261.209	147.596	0.131	-0.175
-260.195	-200.000	-0.054	-0.263
-259.180	-147.822	0.065	-0.005
-258.165	-40.954	0.272	0.140
-257.151	-200.000	-0.030	0.176
-256.136	255.596	-0.071	0.121
-255.122	87.093	0.083	-0.092
-254.107	-133.231	-0.016	0.002
-253.092	800.000	0.076	0.264
-252.078	-171.880	-0.320	0.010
-251.063	36.203	0.116	0.102
-250.049	-16.320	0.386	0.243
-249.034	-168.587	0.299	-0.011
-248.019	-35.583	0.123	-0.066
-247.005	28.672	0.169	-0.142
-245.990	800.000	0.062	-0.186
-244.976	103.079	0.068	0.079
-243.961	220.563	-0.160	0.255
-242.946	-28.290	0.338	0.194
-241.932	681.837	-0.114	-0.294
-240.917	728.594	-0.052	-0.138
-239.903	12.527	0.141	-0.108
-238.888	-112.907	-0.466	-0.092
-237.873	-153.917	0.499	-0.034
-236.859	-114.893	0.326	0.062
-235.844	52.468	0.196	0.186
-234.830	239.743	-0.069	-0.115
-233.815	-185.575	-0.129	-0.002
-232.800	-86.710	0.282	0.086
-231.786	-108.679	0.158	-0.034
-230.771	-200.000	-0.065	0.330
-229.757	360.367	0.098	-0.195
-228.742	-98.522	-0.375	-0.095
-227.727	616.379	-0.052	-0.131
-226.713	53.313	-0.241	-0.229
-225.698	122.322	0.040	0.050
-224.684	-77.081	0.100	0.035
-223.669	22.394	0.106	0.086
-222.655	45.741	-0.235	0.215
-221.640	-200.000	-0.092	0.426
-220.625	800.000	-0.017	-0.052
-219.611	82.520	-0.259	0.279
-218.596	-118.755	0.051	-0.009
-217.582	352.528	0.116	0.227
-216.567	123.613	0.058	-0.072
-215.552	237.533	0.135	0.221
-214.538	72.619	0.199	-0.206
-213.523	45.395	-0.064	-0.058
-212.509	101.979	-0.097	-0.112
-211.494	-126.209	-0.327	-0.049
-210.479	-135.004	-0.122	-0.015
-209.465	800.000	0.089	-0.358
-208.450	-60.156	0.392	-0.166
-207.436	62.073	-0.256	0.254
-206.421	440.348	-0.106	0.231
-205.406	38.048	-0.053	-0.047
-204.392	146.047	0.126	-0.168
-203.377	257.597	0.072	0.123
-202.363	90.025	-0.188	0.209
-201.348	800.000	-0.047	0.150
-200.333	119.497	0.062	-0.076
-199.319	174.126	0.171	0.246
-198.304	-200.000	-0.016	0.168
-197.290	-132.519	-0.255	-0.033
-196.275	-5.919	-0.059	0.040
-195.260	-200.000	-0.053	0.289
-194.246	-200.000	0.011	0.142
-193.231	-63.712	-0.173	0.070
-192.217	-200.000	-0.019	0.090
-191.202	-200.000	0.006	-0.181
-190.187	-139.481	0.227	-0.024
-189.173	44.948	-0.293	-0.268
-188.158	800.000	0.074	0.265
-187.144	800.000	0.083	0.299
-186.129	-79.462	-0.166	-0.056
-185.114	349.025	-0.070	-0.137
-184.100	156.805	0.075	0.103
-183.085	-33.392	0.218	-0.120
-182.071	-200.000	-0.040	-0.190
-181.056	140.578	-0.185	-0.243
-180.042	1.993	0.156	-0.111
-179.027	287.971	-0.167	-0.300
-178.012	-20.943	0.112	0.068
-176.998	-156.867	0.059	-0.004
-175.983	-200.000	-0.007	-0.189
-174.969	-163.578	0.351	0.016
-173.954	56.288	-0.287	0.276
-172.939	-114.642	-0.051	-0.010
-171.925	50.038	0.118	-0.110
-170.910	-93.595	-0.136	-0.037
-169.896	-200.000	-0.014	-0.090
-168.881	-200.000	0.017	-0.125
-167.866	321.264	-0.174	-0.328
-166.852	753.813	0.129	0.347
-165.837	800.000	0.077	-0.220
-164.823	-200.000	-0.058	-0.281
-163.808	639.151	-0.159	-0.401
-162.793	309.094	0.171	0.317
-161.779	-85.462	0.179	0.055
-160.764	-39.689	0.181	-0.094
-159.750	242.290	0.111	-0.183
-158.735	-124.306	-0.259	0.040
-157.720	40.656	-0.223	0.199
-156.706	-138.873	-0.094	-0.010
-155.691	758.501	0.076	0.204
-154.677	-108.956	-0.258	0.055
-153.662	126.366	-0.058	-0.072
-152.647	-200.000	-0.026	0.308
-151.633	-75.256	-0.175	0.062
-150.618	-101.505	0.182	0.044
-149.604	49.752	0.222	0.207
-148.589	-200.000	0.006	-0.148
-147.574	-188.329	-0.246	0.003
-146.560	611.254	0.080	-0.198
-145.545	-8.350	-0.152	0.101
-144.531	645.488	-0.014	-0.037
-143.516	-200.000	0.047	0.253
-142.502	-56.113	0.174	0.077
-141.487	107.159	-0.149	0.175
-140.472	-200.000	-0.000	0.268
-139.458	-6.826	0.171	-0.115
-138.443	-99.766	-0.316	-0.078
-137.429	-200.000	0.023	0.220
-136.414	-88.209	0.144	0.043
-135.399	29.093	-0.057	-0.048
-134.385	61.063	0.080	0.079
-133.370	-200.000	0.004	-0.144
-132.356	-129.701	-0.641	0.087
-131.341	-124.453	-0.319	-0.049
-130.326	150.280	0.065	-0.088
-129.312	-121.267	-0.169	-0.028
-128.297	-140.418	0.225	-0.023
-127.283	85.226	0.137	-0.148
-126.268	-200.000	0.004	-0.205
-125.253	-17.269	-0.242	0.151
-124.239	-200.000	0.047	0.343
-123.224	431.478	0.186	-0.398
-122.210	-200.000	0.015	-0.216
-121.195	-59.570	0.124	-0.053
