DTS Sentinel unit serial number:	SN413079Multiplexer serial number:	ORYXHardware model number:	OX4-SRSoftware version number:	ORYX F/W v4.00 Oryx Data Collector v3.7.2.0data status	okinstallation	princeton_trtdifferential loss correction	single-endedforward channel	channel 2reverse channel	N/Adate	2019/09/15time	16:59:35forward acquisition time	60.00reverse acquisition time	0.00gamma	496.2192k internal	0.2285k external	0.2285temperature offset calibration	0.9931default loss term (dB/km)	0.3790temperature slope calibration	1.0000multiplexer offset coefficient	1.0000multiplexer slope coefficient	1.0000fibre end	0.00T internal ref (°C)	44.48T ext. ref 1 (°C)	5.85T ext. ref 2 (°C)	40.49length (m)	temperature (°C)	Stokes	anti-Stokes-747.200	-200.000	-0.005	0.040
-746.185	36.924	0.127	-0.115
-745.171	204.098	0.088	0.140
-744.156	6.812	-0.217	0.166
-743.142	-155.275	-0.237	-0.016
-742.127	-134.847	-0.167	0.021
-741.112	-81.000	0.286	-0.097
-740.098	-200.000	-0.056	0.257
-739.083	-200.000	0.042	0.249
-738.069	-200.000	-0.035	-0.218
-737.054	179.345	0.123	-0.185
-736.039	104.502	0.137	0.166
-735.025	-27.375	0.179	-0.107
-734.010	-4.883	0.153	-0.109
-732.996	-102.148	-0.267	0.066
-731.981	-200.000	-0.007	-0.079
-730.966	800.000	0.016	0.067
-729.952	-160.340	0.051	-0.003
-728.937	192.309	-0.109	0.168
-727.923	800.000	-0.095	-0.270
-726.908	800.000	-0.056	-0.236
-725.894	-138.316	-0.141	-0.016
-724.879	-133.504	-0.265	-0.034
-723.864	800.000	-0.070	-0.231
-722.850	800.000	-0.027	-0.113
-721.835	88.258	0.164	-0.187
-720.821	-147.608	-0.087	-0.008
-719.806	428.552	-0.107	0.237
-718.791	-35.393	-0.018	-0.010
-717.777	-95.317	-0.347	-0.096
-716.762	-78.924	-0.159	0.055
-715.748	413.768	-0.044	-0.097
-714.733	-78.165	0.122	-0.043
-713.718	800.000	-0.127	-0.563
-712.704	2.299	0.140	0.104
-711.689	171.803	0.151	0.223
-710.675	2.317	0.163	0.121
-709.660	-200.000	0.078	-0.489
-708.645	-200.000	-0.036	-0.253
-707.631	209.635	0.046	-0.075
-706.616	618.549	-0.037	-0.095
-705.602	644.570	-0.091	0.239
-704.587	368.073	-0.080	-0.166
-703.572	-200.000	0.001	0.102
-702.558	75.187	-0.090	0.097
-701.543	-101.260	-0.243	-0.061
-700.529	-45.903	-0.370	0.187
-699.514	-183.843	0.282	-0.005
-698.499	800.000	-0.048	0.153
-697.485	-200.000	-0.030	-0.156
-696.470	-84.228	-0.126	-0.041
-695.456	-105.890	-0.373	-0.086
-694.441	627.499	0.063	-0.162
-693.426	708.391	-0.103	-0.279
-692.412	-58.378	0.234	0.104
-691.397	-20.768	-0.434	0.273
-690.383	-200.000	-0.005	0.176
-689.368	-138.483	-0.665	-0.075
-688.354	-97.235	-0.050	0.013
-687.339	-54.926	0.274	0.127
-686.324	-82.851	-0.097	-0.032
-685.310	-84.108	-0.238	-0.078
-684.295	348.698	0.050	0.101
-683.281	-125.610	-0.003	-0.000
-682.266	-200.000	-0.024	0.134
-681.251	2.704	0.129	-0.096
-680.237	-49.517	0.302	0.147
-679.222	-70.296	0.079	0.031
-678.208	-104.625	-0.316	0.075
-677.193	122.674	-0.090	-0.116
-676.178	800.000	-0.084	0.336
-675.164	556.029	0.052	-0.128
-674.149	800.000	-0.040	-0.154
-673.135	-173.888	-0.231	0.007
-672.120	-28.509	-0.254	-0.150
-671.105	-64.033	-0.260	-0.109
-670.091	65.647	0.095	-0.099
-669.076	-43.734	-0.089	-0.046
-668.062	103.043	-0.084	-0.100
-667.047	-10.928	0.224	0.152
-666.032	35.793	-0.073	-0.065
-665.018	156.652	-0.113	-0.160
-664.003	-126.329	0.087	0.013
-662.989	800.000	-0.026	0.092
-661.974	-52.489	0.288	-0.136
-660.959	-121.533	-0.185	-0.031
-659.945	-200.000	-0.008	0.094
-658.930	111.816	0.057	0.070
-657.916	800.000	0.015	0.054
-656.901	24.007	-0.147	0.124
-655.886	-146.192	-0.184	-0.017
-654.872	99.753	-0.104	-0.123
-653.857	32.705	0.159	-0.141
-652.843	-16.850	-0.187	-0.121
-651.828	-135.784	-0.100	0.012
-650.814	7.987	-0.284	-0.218
-649.799	-200.000	-0.018	-0.241
-648.784	-99.262	-0.251	0.065
-647.770	-200.000	-0.001	0.142
-646.755	-10.140	-0.247	0.168
-645.741	211.056	0.122	-0.197
-644.726	233.672	-0.172	0.290
-643.711	-105.525	-0.211	0.049
-642.697	-74.487	-0.199	0.074
-641.682	347.361	-0.060	0.122
-640.668	-29.202	-0.055	-0.032
-639.653	62.616	-0.161	-0.165
-638.638	-200.000	-0.006	-0.258
-637.624	-76.297	0.290	0.104
-636.609	202.712	-0.209	0.331
-635.595	56.919	-0.157	0.157
-634.580	-200.000	-0.023	-0.166
-633.565	64.901	0.105	-0.108
-632.551	17.150	0.205	-0.166
-631.536	800.000	0.106	-0.457
-630.522	-200.000	0.016	0.345
-629.507	-129.192	0.231	0.033
-628.492	-110.420	-0.096	0.020
-627.478	131.184	-0.026	-0.034
-626.463	0.507	0.103	-0.075
-625.449	166.609	0.219	-0.317
-624.434	306.364	-0.115	-0.219
-623.419	-4.035	-0.202	0.143
-622.405	-132.559	-0.208	-0.027
-621.390	50.237	-0.235	-0.227
-620.376	-115.165	0.284	0.055
-619.361	800.000	-0.079	-0.346
-618.346	73.897	-0.131	-0.140
-617.332	-124.987	-0.117	0.018
-616.317	-6.279	-0.166	-0.116
-615.303	76.383	0.169	0.183
-614.288	35.120	-0.064	-0.057
-613.273	-76.518	-0.266	-0.095
-612.259	235.152	-0.116	0.196
-611.244	-134.785	0.100	-0.012
-610.230	88.381	-0.165	-0.187
-609.215	-200.000	0.038	-0.224
-608.201	601.622	-0.082	0.209
-607.186	69.745	0.059	-0.062
-606.171	800.000	-0.092	-0.361
-605.157	-200.000	-0.026	-0.376
-604.142	800.000	-0.168	-0.520
-603.128	226.641	0.079	-0.131
-602.113	3.766	-0.099	-0.074
-601.098	647.855	0.066	-0.173
-600.084	458.281	-0.094	0.213
-599.069	-18.981	0.227	0.144
-598.055	-65.710	0.163	0.067
-597.040	-28.077	-0.109	-0.064
-596.025	-19.909	-0.253	0.160
-595.011	395.140	0.034	0.071
-593.996	800.000	0.104	0.401
-592.982	-99.295	-0.071	0.018
-591.967	-200.000	-0.004	0.127
-590.952	272.140	0.187	0.336
-589.938	9.877	-0.254	0.197
-588.923	-39.356	-0.345	-0.185
-587.909	-112.200	-0.265	-0.054
-586.894	800.000	0.086	0.253
-585.879	800.000	0.062	-0.183
-584.865	509.208	0.066	-0.157
-583.850	650.418	-0.038	0.098
-582.836	800.000	-0.013	-0.049
-581.821	800.000	0.071	0.244
-580.806	-91.802	0.125	0.036
-579.792	-109.226	-0.201	-0.044
-578.777	115.213	0.103	0.128
-577.763	-122.979	0.294	-0.048
-576.748	800.000	0.117	0.517
-575.733	-168.418	-0.220	-0.009
-574.719	-124.345	-0.098	0.016
-573.704	-60.268	-0.080	0.035
-572.690	-200.000	-0.030	-0.335
-571.675	82.733	-0.130	-0.144
-570.661	34.228	-0.248	-0.221
-569.646	-75.244	0.263	0.096
-568.631	-2.288	-0.069	0.049
-567.617	348.016	-0.136	-0.274
-566.602	-20.816	-0.180	0.112
-565.588	701.941	0.046	-0.123
-564.573	-127.638	-0.203	-0.030
-563.558	88.756	-0.132	-0.150
-562.544	-161.146	-0.281	-0.015
-561.529	-67.822	0.540	0.215
-560.515	-200.000	0.005	0.224
-559.500	-200.000	-0.022	-0.331
-558.485	542.438	-0.104	0.253
-557.471	59.182	0.120	0.120
-556.456	-33.847	-0.231	0.130
-555.442	-31.958	0.144	-0.082
-554.427	-8.658	-0.164	-0.112
-553.412	-200.000	0.016	-0.083
-552.398	596.560	-0.115	-0.290
-551.383	-200.000	0.037	-0.219
-550.369	710.490	0.028	0.076
-549.354	-81.711	0.052	0.017
-548.339	-77.434	-0.158	-0.056
-547.325	-200.000	0.046	-0.333
-546.310	-200.000	0.026	0.386
-545.296	-200.000	-0.017	0.225
-544.281	-152.304	-0.304	0.022
-543.266	-35.700	0.339	-0.187
-542.252	-73.541	0.252	-0.094
-541.237	105.293	-0.048	-0.058
-540.223	566.215	0.090	0.222
-539.208	800.000	0.061	-0.172
-538.193	-170.555	0.048	-0.002
-537.179	60.581	0.094	-0.094
-536.164	151.292	-0.095	-0.132
-535.150	-200.000	-0.017	0.115
-534.135	152.081	-0.049	-0.068
-533.121	-93.799	-0.136	-0.038
-532.106	-200.000	0.013	0.086
-531.091	800.000	-0.066	-0.228
-530.077	-41.955	0.138	0.072
-529.062	-200.000	0.021	0.266
-528.048	-200.000	0.022	-0.204
-527.033	-84.079	0.040	0.013
-526.018	112.864	-0.055	-0.068
-525.004	-44.142	0.045	-0.023
-523.989	158.484	-0.058	-0.082
-522.975	-169.373	-0.155	-0.006
-521.960	-200.000	0.018	-0.087
-520.945	-129.235	-0.356	-0.050
-519.931	-112.029	-0.053	0.011
-518.916	800.000	-0.005	0.019
-517.902	303.332	-0.103	0.194
-516.887	-52.908	0.196	0.092
-515.872	-115.404	-0.131	-0.025
-514.858	503.382	-0.095	-0.225
-513.843	-124.352	-0.143	-0.023
-512.829	40.617	-0.161	0.147
-511.814	112.091	0.090	-0.111
-510.799	-120.322	0.364	0.063
-509.785	-200.000	-0.016	-0.294
-508.770	-200.000	-0.039	-0.181
-507.756	-27.823	0.173	-0.102
-506.741	-61.364	-0.229	0.098
-505.726	-200.000	-0.047	0.370
-504.712	693.637	0.071	-0.191
-503.697	289.031	-0.101	0.186
-502.683	-117.321	-0.260	-0.048
-501.668	-200.000	-0.024	-0.328
-500.653	17.440	0.214	-0.173
-499.639	214.123	-0.098	-0.158
-498.624	-200.000	0.026	0.155
-497.610	-80.402	-0.128	0.043
-496.595	-107.250	0.211	-0.047
-495.581	-70.643	0.209	0.080
-494.566	-38.612	-0.313	0.168
-493.551	681.700	0.067	-0.178
-492.537	-200.000	0.020	0.157
-491.522	9.691	0.110	0.085
-490.508	-131.451	0.266	-0.036
-489.493	-78.930	0.119	-0.041
-488.478	-150.804	0.187	0.014
-487.464	800.000	0.036	0.145
-486.449	484.026	0.059	0.137
-485.435	-50.865	0.200	-0.095
-484.420	396.271	0.166	0.352
-483.405	150.466	-0.192	0.266
-482.391	672.606	0.037	0.098
-481.376	-113.467	0.136	-0.027
-480.362	-146.234	-0.278	0.025
-479.347	67.987	0.096	-0.100
-478.332	-127.760	-0.220	-0.032
-477.318	-200.000	0.062	0.514
-476.303	-45.527	0.081	-0.041
-475.289	-200.000	0.010	0.074
-474.274	-200.000	0.005	-0.058
-473.259	-200.000	0.030	0.292
-472.245	800.000	0.056	-0.238
-471.230	-81.230	-0.188	0.063
-470.216	306.524	-0.059	0.112
-469.201	476.837	-0.039	-0.089
-468.186	431.927	-0.086	-0.188
-467.172	-147.984	0.247	-0.021
-466.157	-200.000	0.007	-0.328
-465.143	163.031	0.208	0.297
-464.128	-3.881	-0.344	-0.242
-463.113	-200.000	-0.015	0.224
-462.099	-183.337	0.284	-0.005
-461.084	-200.000	0.020	0.355
-460.070	-10.450	0.191	-0.128
-459.055	-200.000	0.011	-0.135
-458.040	800.000	-0.034	0.100
-457.026	73.980	-0.153	-0.163
-456.011	-40.625	0.094	-0.049
-454.997	197.311	0.122	-0.188
-453.982	18.209	-0.278	-0.226
-452.968	27.804	-0.180	-0.154
-451.953	800.000	-0.031	-0.128
-450.938	539.763	0.140	0.338
-449.924	-200.000	0.003	0.120
-448.909	142.629	-0.030	0.040
-447.895	-200.000	-0.013	-0.136
-446.880	428.321	0.111	-0.244
-445.865	-129.854	0.255	-0.035
-444.851	86.573	0.215	0.240
-443.836	157.011	0.298	0.419
-442.822	800.000	0.071	-0.283
-441.807	-200.000	-0.044	0.467
-440.792	-86.092	0.084	-0.026
-439.778	800.000	-0.047	0.173
-438.763	-105.883	0.084	0.019
-437.749	-200.000	-0.039	0.218
-436.734	800.000	-0.037	-0.148
-435.719	-163.497	0.188	-0.009
-434.705	800.000	-0.036	0.109
-433.690	-200.000	-0.025	0.151
-432.676	-95.688	-0.311	-0.084
-431.661	156.471	0.163	-0.228
-430.646	-77.133	-0.164	0.058
-429.632	-41.959	0.195	-0.102
-428.617	800.000	0.075	0.237
-427.603	-125.467	0.036	0.006
-426.588	-101.352	0.135	-0.033
-425.573	-109.160	0.151	0.033
-424.559	3.152	-0.258	-0.191
-423.544	6.927	0.051	0.039
-422.530	499.488	-0.116	0.271
-421.515	61.038	0.175	-0.176
-420.500	91.978	0.146	-0.166
-419.486	-93.040	-0.135	0.038
-418.471	677.997	-0.037	0.096
-417.457	-200.000	0.001	0.045
-416.442	-12.043	-0.195	-0.130
-415.428	-99.546	0.204	-0.052
-414.413	-49.686	0.573	0.276
-413.398	-82.910	0.116	-0.038
-412.384	800.000	-0.087	-0.314
-411.369	-74.219	-0.263	0.096
-410.355	85.111	0.165	0.183
-409.340	-139.580	-0.470	0.051
-408.325	800.000	0.012	0.047
-407.311	-200.000	-0.023	-0.148
-406.296	-46.327	0.384	0.191
-405.282	-73.956	-0.327	-0.120
-404.267	-78.995	0.200	-0.069
-403.252	195.955	0.222	0.342
-402.238	-100.098	0.101	-0.025
-401.223	96.000	0.085	0.098
-400.209	-200.000	-0.006	0.237
-399.194	6.341	0.139	0.105
-398.179	800.000	0.039	-0.168
-397.165	1.136	-0.159	0.115
-396.150	800.000	-0.105	0.338
-395.136	-200.000	0.028	-0.242
-394.121	-146.185	0.178	-0.016
-393.106	124.818	-0.163	0.208
-392.092	-9.959	-0.336	0.226
-391.077	-50.839	0.235	-0.112
-390.063	-27.480	0.200	0.118
-389.048	-200.000	0.001	0.011
-388.033	-111.068	0.173	-0.036
-387.019	-185.158	-0.208	0.003
-386.004	240.850	0.176	0.298
-384.990	-200.000	-0.030	0.200
-383.975	-76.201	-0.223	-0.080
-382.960	57.405	0.281	-0.278
-381.946	-103.563	0.426	0.101
-380.931	115.108	0.229	0.283
-379.917	-200.000	0.018	-0.132
-378.902	-200.000	-0.019	-0.206
-377.888	-200.000	0.003	0.206
-376.873	800.000	-0.073	0.230
-375.858	-101.456	-0.130	0.032
-374.844	-200.000	0.041	0.273
-373.829	339.672	0.150	0.296
-372.815	-120.466	-0.294	-0.050
-371.800	800.000	0.073	0.217
-370.785	324.692	0.133	0.256
-369.771	129.421	0.084	-0.109
-368.756	-200.000	0.036	0.281
-367.742	87.163	-0.103	-0.115
-366.727	48.474	0.128	0.122
-365.712	28.112	-0.125	-0.107
-364.698	-87.244	-0.400	0.123
-363.683	226.045	0.043	-0.071
-362.669	31.008	-0.092	-0.079
-361.654	-60.188	0.239	0.103
-360.639	-62.581	0.289	0.121
-359.625	467.494	0.121	-0.274
-358.610	-121.213	0.414	0.070
-357.596	83.604	-0.114	0.126
-356.581	160.294	-0.211	-0.298
-355.566	-120.638	-0.302	0.052
-354.552	-53.972	-0.210	0.097
-353.537	278.889	0.061	-0.110
-352.523	128.719	-0.105	-0.136
-351.508	-158.505	-0.098	-0.006
-350.493	263.906	-0.162	-0.284
-349.479	-74.981	-0.444	-0.161
-348.464	800.000	-0.053	0.179
-347.450	524.623	-0.039	-0.092
-346.435	-3.250	-0.172	0.121
-345.420	-200.000	0.028	-0.154
-344.406	205.777	0.055	-0.086
-343.391	33.635	0.107	0.094
-342.377	15.742	-0.075	-0.059
-341.362	800.000	0.067	0.189
-340.348	14.276	0.229	-0.180
-339.333	800.000	0.043	0.138
-338.318	148.786	-0.138	-0.188
-337.304	-200.000	-0.011	0.193
-336.289	572.982	0.124	-0.307
-335.275	-7.173	0.119	0.081
-334.260	-53.669	-0.215	-0.099
-333.245	55.836	0.133	-0.131
-332.231	203.693	-0.197	-0.308
-331.216	800.000	0.132	0.529
-330.202	231.697	0.157	-0.260
-329.187	187.610	-0.122	-0.183
-328.172	-75.522	-0.152	0.055
-327.158	800.000	-0.036	-0.155
-326.143	-178.892	-0.117	0.003
-325.129	-200.000	0.040	0.265
-324.114	-200.000	0.023	-0.149
-323.099	-114.827	-0.157	-0.030
-322.085	-78.213	0.135	-0.047
-321.070	52.576	0.366	-0.353
-320.056	346.153	0.237	0.472
-319.041	800.000	0.052	-0.150
-318.026	-74.266	0.116	-0.042
-317.012	-4.236	-0.217	0.151
-315.997	-33.016	0.102	0.057
-314.983	-91.684	-0.335	0.096
-313.968	399.049	-0.045	0.094
-312.953	316.389	0.169	0.322
-311.939	98.044	-0.163	0.190
-310.924	-200.000	0.019	-0.269
-309.910	-200.000	0.008	-0.064
-308.895	-200.000	-0.016	-0.180
-307.880	-51.088	0.158	-0.075
-306.866	45.282	0.063	0.059
-305.851	-9.896	-0.103	-0.069
-304.837	58.208	0.239	0.237
-303.822	-88.748	-0.109	0.033
-302.807	-200.000	-0.014	0.155
-301.793	143.197	-0.148	-0.199
-300.778	-18.083	0.103	-0.065
-299.764	162.185	-0.163	-0.230
-298.749	-200.000	-0.016	-0.079
-297.735	204.319	0.020	-0.031
-296.720	15.667	-0.161	-0.127
-295.705	-200.000	-0.037	0.178
-294.691	687.384	-0.039	0.103
-293.676	-176.820	-0.220	-0.006
-292.662	53.843	-0.091	-0.088
-291.647	800.000	0.023	-0.076
-290.632	333.372	0.072	-0.140
-289.618	-128.460	0.184	-0.026
-288.603	-167.462	-0.259	0.010
-287.589	151.277	-0.090	0.124
-286.574	-109.335	0.162	-0.035
-285.559	-106.618	-0.133	-0.030
-284.545	-150.772	-0.125	0.010
-283.530	-146.241	0.156	-0.014
-282.516	774.785	-0.210	0.578
-281.501	-105.110	0.242	-0.056
-280.486	-200.000	0.026	-0.141
-279.472	-131.862	0.319	-0.042
-278.457	-200.000	0.001	0.207
-277.443	-160.482	0.432	0.023
-276.428	516.106	0.148	-0.349
-275.413	-33.776	0.215	-0.120
-274.399	800.000	-0.062	0.197
-273.384	114.207	-0.249	0.305
-272.370	-88.772	0.183	-0.055
-271.355	270.762	0.204	-0.362
-270.340	195.684	0.104	-0.160
-269.326	236.348	0.100	0.166
-268.311	72.498	-0.064	0.068
-267.297	173.927	0.253	0.369
-266.282	800.000	0.078	-0.286
-265.267	308.833	0.129	0.244
-264.253	566.705	-0.072	-0.176
-263.238	87.698	-0.227	-0.254
-262.224	222.369	0.090	0.146
-261.209	-68.222	-0.281	0.110
-260.195	-200.000	0.031	0.329
-259.180	-200.000	0.000	0.015
-258.165	-4.701	-0.355	-0.247
-257.151	800.000	-0.113	-0.333
-256.136	102.468	0.088	-0.104
-255.122	-11.634	0.309	-0.204
-254.107	-16.941	0.140	-0.089
-253.092	631.526	0.038	-0.097
-252.078	-85.552	-0.042	0.013
-251.063	207.935	-0.163	0.256
-250.049	-200.000	0.038	0.188
-249.034	322.459	0.159	-0.305
-248.019	-132.213	-0.406	0.053
-247.005	121.360	-0.128	0.161
-245.990	38.660	0.100	0.090
-244.976	-1.130	0.077	0.055
-243.961	-14.222	-0.190	0.124
-242.946	-17.706	-0.169	-0.107
-241.932	-200.000	-0.029	-0.175
-240.917	-200.000	-0.019	-0.108
-239.903	-200.000	0.081	0.363
-238.888	62.465	-0.243	0.244
-237.873	-48.935	0.362	0.175
-236.859	125.336	0.203	-0.258
-235.844	-99.019	0.181	-0.046
-234.830	21.261	0.175	-0.143
-233.815	186.947	-0.161	-0.241
-232.800	-200.000	0.109	-0.000
-231.786	270.361	-0.091	-0.161
-230.771	-5.923	-0.184	0.127
-229.757	-108.613	0.207	-0.045
-228.742	800.000	0.111	-0.331
-227.727	800.000	-0.085	-0.290
-226.713	-85.548	0.183	0.057
-225.698	-200.000	-0.004	0.038
-224.684	-75.579	0.173	-0.062
-223.669	-33.477	-0.214	-0.119
-222.655	111.019	0.064	0.078
-221.640	281.820	0.094	0.170
-220.625	362.912	-0.134	0.271
-219.611	43.718	0.115	-0.106
-218.596	14.520	0.161	-0.127
-217.582	20.611	-0.328	-0.267
-216.567	-97.518	0.326	-0.085
-215.552	-144.163	-0.427	0.040
-214.538	-200.000	-0.037	0.235
-213.523	-91.691	-0.197	0.056
-212.509	-109.127	0.015	0.003
-211.494	-57.934	0.249	0.110
-210.479	-102.623	0.054	-0.013
-209.465	209.810	0.033	0.051
-208.450	800.000	0.011	-0.046
-207.436	499.617	0.182	-0.422
-206.421	-70.659	0.183	0.069
-205.406	-200.000	-0.003	0.032
-204.392	349.683	-0.177	-0.352
-203.377	51.328	0.180	-0.172
-202.363	-165.163	0.394	-0.018
-201.348	-67.095	0.359	0.142
-200.333	129.242	0.207	0.266
-199.319	281.818	0.079	-0.142
-198.304	-25.277	0.071	-0.042
-197.290	17.889	-0.054	0.043
-196.275	-90.993	-0.111	-0.032
-195.260	-181.395	-0.131	0.003
-194.246	-200.000	0.064	0.402
-193.231	599.818	0.058	0.145
-192.217	-27.094	0.286	0.168
-191.202	-200.000	0.013	-0.449
-190.187	34.829	-0.202	0.178
-189.173	-146.355	-0.138	-0.012
-188.158	-125.057	0.148	0.023
-187.144	109.141	-0.090	-0.109
-186.129	800.000	-0.038	0.149
-185.114	-49.116	-0.150	0.072
-184.100	-200.000	0.025	-0.278
-183.085	531.625	-0.130	-0.310
-182.071	-133.371	0.170	-0.022
-181.056	17.895	-0.303	0.242
-180.042	-200.000	-0.007	-0.045
-179.027	188.809	0.265	-0.399
-178.012	338.941	0.067	-0.130
-176.998	-200.000	0.013	0.117
-175.983	800.000	-0.136	0.403
-174.969	800.000	-0.054	-0.215
-173.954	351.499	-0.145	0.289
-172.939	-200.000	-0.049	0.416
-171.925	436.009	-0.060	-0.130
-170.910	80.297	-0.083	-0.090
-169.896	-200.000	-0.014	-0.232
-168.881	-60.679	0.276	-0.118
-167.866	168.180	0.164	-0.235
-166.852	-200.000	0.018	0.126
-165.837	-32.131	0.150	-0.084
-164.823	-122.447	-0.195	0.032
-163.808	-79.086	-0.413	0.141
-162.793	-59.183	0.295	0.128
-161.779	800.000	-0.057	0.219
-160.764	-189.811	-0.305	0.003
-159.750	-2.536	-0.239	0.168
-158.735	278.791	-0.055	-0.099
-157.720	-129.046	-0.409	0.057
-156.706	-157.681	0.056	-0.003
-155.691	64.861	-0.141	0.143
-154.677	253.225	0.101	-0.173
-153.662	224.885	-0.021	-0.034
-152.647	-200.000	-0.028	-0.142
-151.633	-57.194	0.161	0.071
-150.618	135.402	-0.202	0.264
-149.604	-60.178	-0.099	-0.042
-148.589	9.968	-0.095	-0.072
-147.574	-141.574	-0.279	-0.028
-146.560	101.616	0.108	0.126
-145.545	84.533	0.141	0.155
-144.531	-200.000	0.021	-0.215
-143.516	-200.000	0.008	0.164
-142.502	800.000	0.034	-0.116
-141.487	134.071	-0.220	-0.286
-140.472	-86.627	-0.119	-0.037
-139.458	-53.182	-0.133	0.061
-138.443	800.000	-0.085	0.371
-137.429	149.055	-0.191	-0.259
-136.414	-115.779	-0.026	0.005
-135.399	-37.500	0.353	0.189
-134.385	-104.524	-0.161	0.037
-133.370	-200.000	0.010	-0.067
-132.356	287.255	-0.142	-0.258
-131.341	-200.000	0.024	-0.303
-130.326	124.468	0.099	-0.125
-129.312	-119.348	0.174	0.030
-128.297	103.768	-0.155	0.182
-127.283	-141.016	-0.235	-0.024
-126.268	-65.514	-0.060	-0.024
-125.253	-61.323	0.168	0.071
-124.239	-50.540	-0.221	0.104
-123.224	279.156	-0.108	0.192
