DTS Sentinel unit serial number:	SN413079Multiplexer serial number:	ORYXHardware model number:	OX4-SRSoftware version number:	ORYX F/W v4.00 Oryx Data Collector v3.7.2.0data status	okinstallation	princeton_trtdifferential loss correction	single-endedforward channel	channel 2reverse channel	N/Adate	2019/09/16time	14:19:35forward acquisition time	60.00reverse acquisition time	0.00gamma	496.2192k internal	0.2296k external	0.2296temperature offset calibration	0.9942default loss term (dB/km)	0.3790temperature slope calibration	1.0000multiplexer offset coefficient	1.0000multiplexer slope coefficient	1.0000fibre end	0.00T internal ref (°C)	42.16T ext. ref 1 (°C)	14.17T ext. ref 2 (°C)	36.78length (m)	temperature (°C)	Stokes	anti-Stokes-747.200	-10.691	0.078	0.053
-746.185	-136.424	0.272	0.032
-745.171	-109.211	0.099	0.022
-744.156	45.033	0.107	0.101
-743.142	-152.338	0.268	-0.020
-742.127	-200.000	0.124	0.605
-741.112	158.009	-0.127	-0.180
-740.098	-200.000	0.068	0.360
-739.083	-15.565	0.193	-0.126
-738.069	-111.347	-0.389	0.081
-737.054	-97.412	-0.239	0.064
-736.039	-42.339	-0.167	0.087
-735.025	-72.601	0.216	0.082
-734.010	47.889	-0.408	-0.389
-732.996	550.041	-0.111	-0.272
-731.981	2.955	-0.128	0.095
-730.966	800.000	-0.098	-0.315
-729.952	-200.000	0.023	-0.293
-728.937	-127.131	-0.051	0.008
-727.923	-3.747	-0.286	-0.203
-726.908	735.423	-0.125	-0.343
-725.894	110.519	-0.147	0.180
-724.879	-4.121	0.288	0.204
-723.864	-153.868	0.078	0.005
-722.850	-200.000	0.039	-0.326
-721.835	157.159	0.108	-0.152
-720.821	-99.412	0.222	0.057
-719.806	50.580	-0.129	0.125
-718.791	-200.000	0.017	-0.211
-717.777	275.003	0.072	0.131
-716.762	-200.000	-0.027	-0.210
-715.748	-45.575	-0.338	0.171
-714.733	212.194	-0.056	-0.089
-713.718	-74.281	-0.109	0.040
-712.704	-200.000	-0.002	0.084
-711.689	-200.000	0.008	-0.183
-710.675	-200.000	0.001	0.012
-709.660	80.120	0.170	-0.187
-708.645	-113.506	-0.204	-0.041
-707.631	421.952	0.122	-0.268
-706.616	-34.732	0.198	-0.110
-705.602	800.000	-0.098	0.350
-704.587	443.070	-0.080	0.179
-703.572	-96.351	0.159	0.043
-702.558	-142.477	-0.176	0.018
-701.543	-138.387	0.203	0.023
-700.529	800.000	0.050	-0.166
-699.514	191.701	-0.042	0.065
-698.499	578.346	-0.068	0.170
-697.485	-68.627	0.301	0.119
-696.470	-123.164	-0.143	-0.023
-695.456	445.624	-0.118	-0.265
-694.441	800.000	-0.077	-0.258
-693.426	31.732	-0.076	0.067
-692.412	345.195	-0.073	0.146
-691.397	-64.280	-0.147	-0.061
-690.383	-79.888	-0.195	0.067
-689.368	136.165	-0.126	0.168
-688.354	172.216	0.029	-0.043
-687.339	-200.000	0.024	-0.177
-686.324	265.333	-0.044	0.079
-685.310	48.967	-0.034	0.032
-684.295	27.460	0.031	0.027
-683.281	-36.910	0.173	-0.095
-682.266	18.912	0.271	-0.222
-681.251	5.878	-0.098	0.074
-680.237	126.262	-0.140	-0.180
-679.222	800.000	0.015	0.043
-678.208	107.542	0.049	-0.060
-677.193	-195.197	-0.197	-0.002
-676.178	201.892	-0.114	-0.180
-675.164	-200.000	-0.009	-0.132
-674.149	-64.069	-0.038	-0.016
-673.135	-109.322	0.295	0.064
-672.120	-200.000	0.006	0.394
-671.105	406.459	-0.143	0.308
-670.091	3.287	-0.319	0.237
-669.076	-200.000	-0.002	0.055
-668.062	125.639	0.080	0.103
-667.047	352.197	0.080	0.161
-666.032	67.063	-0.133	-0.138
-665.018	-1.601	-0.112	0.081
-664.003	-2.701	0.234	0.167
-662.989	-44.830	-0.140	-0.071
-661.974	199.509	-0.232	0.362
-660.959	-200.000	0.051	0.263
-659.945	240.540	0.110	-0.187
-658.930	-114.812	-0.322	-0.062
-657.916	-69.949	-0.136	-0.053
-656.901	800.000	-0.028	0.083
-655.886	94.279	0.262	0.303
-654.872	90.171	-0.098	-0.112
-653.857	-169.811	-0.231	-0.008
-652.843	27.380	-0.187	-0.160
-651.828	-5.996	0.093	-0.065
-650.814	125.404	0.054	-0.069
-649.799	-200.000	0.006	0.080
-648.784	-89.757	-0.268	0.080
-647.770	-200.000	0.015	-0.230
-646.755	51.323	-0.118	0.114
-645.741	-135.542	-0.100	0.012
-644.726	800.000	-0.047	0.138
-643.711	-125.983	-0.118	0.018
-642.697	342.306	0.061	-0.122
-641.682	-200.000	0.024	-0.298
-640.668	-200.000	0.001	0.133
-639.653	146.613	-0.055	-0.075
-638.638	16.746	0.179	-0.144
-637.624	497.460	-0.066	-0.154
-636.609	-133.907	0.129	0.016
-635.595	-38.195	-0.106	0.057
-634.580	-200.000	-0.008	0.115
-633.565	322.516	-0.157	-0.304
-632.551	-13.612	0.122	0.080
-631.536	-200.000	-0.055	0.284
-630.522	-200.000	-0.038	0.242
-629.507	212.392	0.083	-0.132
-628.492	347.103	0.021	-0.042
-627.478	-96.932	0.131	-0.035
-626.463	599.030	-0.074	0.186
-625.449	-54.534	0.032	0.015
-624.434	610.899	-0.100	-0.253
-623.419	-200.000	-0.017	-0.099
-622.405	327.296	-0.071	-0.138
-621.390	-136.958	-0.316	-0.037
-620.376	-96.669	0.150	0.040
-619.361	120.836	0.071	-0.089
-618.346	-67.103	-0.107	0.043
-617.332	24.564	0.214	0.180
-616.317	-200.000	0.001	-0.209
-615.303	164.150	0.064	-0.091
-614.288	-117.487	-0.387	0.071
-613.273	-51.264	-0.203	-0.096
-612.259	-151.421	0.187	-0.014
-611.244	800.000	-0.048	0.202
-610.230	-200.000	-0.045	-0.382
-609.215	800.000	-0.077	-0.318
-608.201	800.000	0.087	-0.336
-607.186	65.214	-0.136	0.140
-606.171	-191.088	-0.124	0.001
-605.157	-139.054	0.264	0.029
-604.142	-200.000	-0.081	0.364
-603.128	-143.584	-0.190	-0.018
-602.113	-67.263	-0.167	0.067
-601.098	800.000	0.035	-0.133
-600.084	-145.897	0.278	-0.025
-599.069	-200.000	0.032	0.424
-598.055	800.000	-0.101	0.302
-597.040	276.411	0.205	0.370
-596.025	157.410	-0.019	-0.027
-595.011	-18.987	-0.134	-0.085
-593.996	-52.009	0.338	0.160
-592.982	17.159	-0.068	-0.055
-591.967	-200.000	-0.006	0.045
-590.952	119.735	-0.295	0.371
-589.938	-200.000	-0.057	-0.332
-588.923	46.797	0.134	-0.127
-587.909	-11.949	0.120	0.080
-586.894	-27.755	-0.104	0.061
-585.879	-156.302	0.201	-0.013
-584.865	-170.905	0.184	0.006
-583.850	-102.787	-0.254	-0.061
-582.836	79.432	-0.417	0.454
-581.821	-55.827	0.014	-0.007
-580.806	-89.854	0.173	-0.051
-579.792	-56.625	-0.108	-0.049
-578.777	595.463	0.093	-0.233
-577.763	452.605	0.097	-0.217
-576.748	52.653	-0.088	0.085
-575.733	-63.862	0.280	-0.117
-574.719	162.744	0.023	-0.033
-573.704	800.000	0.067	0.278
-572.690	-119.591	-0.138	0.024
-571.675	800.000	0.028	-0.087
-570.661	-143.475	-0.161	0.016
-569.646	-26.050	-0.234	0.139
-568.631	164.710	-0.093	0.133
-567.617	-200.000	-0.029	-0.292
-566.602	-175.783	-0.305	0.008
-565.588	-8.849	-0.274	-0.186
-564.573	-200.000	0.007	-0.070
-563.558	-40.547	-0.094	-0.050
-562.544	7.009	0.075	-0.057
-561.529	-190.433	-0.352	-0.004
-560.515	117.685	0.134	-0.168
-559.500	-200.000	-0.006	0.092
-558.485	79.522	-0.158	-0.172
-557.471	269.773	-0.138	-0.246
-556.456	-92.183	-0.133	0.038
-555.442	-119.612	0.193	0.034
-554.427	128.829	0.034	-0.044
-553.412	260.037	-0.092	0.161
-552.398	800.000	-0.046	-0.137
-551.383	-2.884	0.205	0.146
-550.369	600.101	0.157	-0.396
-549.354	-93.106	0.221	-0.062
-548.339	374.308	0.119	0.246
-547.325	-200.000	0.032	-0.244
-546.310	453.867	0.002	0.005
-545.296	-200.000	-0.013	-0.518
-544.281	-38.820	0.538	0.287
-543.266	67.647	0.160	0.166
-542.252	-105.913	-0.131	0.030
-541.237	-82.622	0.090	-0.029
-540.223	800.000	-0.052	0.183
-539.208	-14.161	-0.278	0.182
-538.193	800.000	-0.023	0.102
-537.179	-84.315	0.232	-0.075
-536.164	755.349	0.044	0.120
-535.150	-93.814	-0.206	0.058
-534.135	-148.955	-0.398	-0.032
-533.121	212.492	-0.098	-0.156
-532.106	-29.617	0.268	0.155
-531.091	-7.950	0.031	0.021
-530.077	10.775	0.106	0.082
-529.062	-18.218	0.085	0.054
-528.048	228.733	0.035	-0.058
-527.033	302.667	0.166	-0.311
-526.018	-200.000	0.015	0.137
-525.004	-200.000	-0.033	-0.228
-523.989	-50.126	0.227	0.109
-522.975	160.587	0.098	0.138
-521.960	-200.000	-0.027	0.279
-520.945	800.000	0.017	0.072
-519.931	-174.239	-0.146	-0.004
-518.916	-64.913	-0.197	0.081
-517.902	-10.891	-0.112	0.075
-516.887	274.692	-0.227	0.407
-515.872	-200.000	-0.033	-0.163
-514.858	-109.889	0.037	-0.008
-513.843	-142.643	-0.256	-0.025
-512.829	-62.030	-0.425	0.180
-511.814	-59.610	-0.149	-0.065
-510.799	352.186	0.103	-0.206
-509.785	-43.304	0.042	0.021
-508.770	-200.000	-0.027	-0.175
-507.756	800.000	0.065	-0.221
-506.741	22.184	0.203	-0.168
-505.726	-77.100	0.164	0.058
-504.712	547.594	-0.249	0.602
-503.697	800.000	-0.120	-0.398
-502.683	-62.042	0.014	-0.006
-501.668	-133.329	0.101	0.013
-500.653	70.107	-0.220	0.229
-499.639	-128.661	-0.155	0.022
-498.624	-43.275	0.266	0.136
-497.610	-200.000	0.012	-0.077
-496.595	-200.000	0.012	-0.151
-495.581	37.574	-0.199	0.178
-494.566	20.596	0.153	0.126
-493.551	-78.125	-0.248	0.086
-492.537	401.447	-0.082	0.174
-491.522	-88.002	0.338	-0.103
-490.508	-159.350	0.251	0.014
-489.493	787.006	0.204	-0.566
-488.478	-41.784	-0.233	-0.121
-487.464	205.850	0.033	0.052
-486.449	800.000	0.056	-0.162
-485.435	-31.428	-0.205	-0.116
-484.420	199.983	0.099	-0.153
-483.405	15.331	-0.115	-0.091
-482.391	-200.000	-0.002	0.101
-481.376	147.522	0.140	0.190
-480.362	-36.588	0.350	-0.190
-479.347	10.511	-0.149	0.115
-478.332	134.816	0.179	-0.235
-477.318	-200.000	0.046	0.388
-476.303	-200.000	-0.024	-0.377
-475.289	-200.000	0.001	-0.187
-474.274	-166.624	0.310	0.013
-473.259	-75.223	-0.316	0.114
-472.245	164.754	-0.121	-0.173
-471.230	475.841	-0.098	0.225
-470.216	128.802	-0.379	-0.489
-469.201	232.648	-0.066	-0.110
-468.186	-130.252	-0.265	-0.036
-467.172	38.649	0.098	-0.089
-466.157	48.110	-0.187	-0.177
-465.143	386.164	-0.047	0.098
-464.128	-13.208	-0.254	-0.167
-463.113	51.782	0.367	-0.353
-462.099	151.769	-0.042	0.058
-461.084	93.059	-0.136	0.155
-460.070	159.231	-0.176	-0.247
-459.055	-90.130	0.062	-0.018
-458.040	-162.262	-0.344	0.017
-457.026	4.632	-0.052	-0.039
-456.011	-200.000	-0.009	-0.069
-454.997	800.000	0.042	0.177
-453.982	220.395	0.147	0.238
-452.968	-75.914	-0.124	0.045
-451.953	346.354	-0.060	0.119
-450.938	-154.957	-0.212	0.014
-449.924	-99.261	-0.257	-0.066
-448.909	-51.870	0.284	0.134
-447.895	-200.000	-0.054	-0.422
-446.880	229.798	-0.210	-0.346
-445.865	87.567	-0.136	-0.153
-444.851	-77.860	0.239	-0.083
-443.836	84.328	-0.091	-0.100
-442.822	-200.000	0.050	-0.391
-441.807	-200.000	0.026	-0.164
-440.792	27.176	-0.092	-0.078
-439.778	25.369	-0.047	-0.039
-438.763	-193.424	-0.288	0.003
-437.749	20.785	-0.269	-0.220
-436.734	8.460	-0.115	0.088
-435.719	42.778	0.278	0.256
-434.705	196.265	0.190	0.293
-433.690	-10.805	-0.122	0.081
-432.676	288.467	-0.066	-0.121
-431.661	32.401	0.352	-0.307
-430.646	-120.271	-0.337	-0.058
-429.632	-189.788	-0.157	-0.002
-428.617	37.139	0.185	0.166
-427.603	617.921	0.072	0.182
-426.588	-154.111	0.074	-0.005
-425.573	176.523	-0.131	0.193
-424.559	-200.000	-0.035	-0.241
-423.544	186.199	-0.119	-0.179
-422.530	146.818	0.104	0.141
-421.515	-120.275	-0.098	-0.017
-420.500	-115.803	-0.289	-0.055
-419.486	-200.000	0.050	0.242
-418.471	800.000	-0.067	0.292
-417.457	-148.377	0.342	0.028
-416.442	-194.526	0.277	0.002
-415.428	-26.512	0.130	0.077
-414.413	24.186	0.101	0.084
-413.398	-200.000	-0.019	0.212
-412.384	-200.000	0.074	0.367
-411.369	-200.000	-0.044	-0.355
-410.355	95.437	-0.062	-0.071
-409.340	4.464	-0.286	-0.212
-408.325	753.949	-0.131	-0.357
-407.311	31.180	-0.098	0.085
-406.296	800.000	0.034	-0.111
-405.282	-200.000	0.005	-0.078
-404.267	73.597	-0.191	0.201
-403.252	19.023	-0.248	0.201
-402.238	211.179	-0.108	0.171
-401.223	-200.000	-0.311	0.001
-400.209	216.676	0.153	-0.245
-399.194	-131.100	0.360	0.048
-398.179	-112.048	0.531	-0.108
-397.165	4.718	-0.142	0.105
-396.150	-0.363	0.154	0.111
-395.136	-200.000	0.010	-0.116
-394.121	-190.025	0.079	-0.001
-393.106	500.251	0.048	0.113
-392.092	-14.467	-0.092	0.060
-391.077	-125.392	0.329	0.051
-390.063	-139.867	-0.274	-0.029
-389.048	176.296	-0.250	0.365
-388.033	-50.082	0.171	-0.081
-387.019	800.000	0.085	0.369
-386.004	11.105	-0.343	0.264
-384.990	490.746	0.141	-0.325
-383.975	-200.000	0.049	-0.266
-382.960	-84.494	0.113	0.036
-381.946	-24.747	0.129	-0.077
-380.931	-12.858	-0.040	-0.026
-379.917	100.395	-0.078	0.091
-378.902	553.618	-0.082	-0.199
-377.888	204.875	0.121	0.189
-376.873	-62.283	0.309	-0.130
-375.858	1.473	-0.079	-0.057
-374.844	39.969	0.291	-0.263
-373.829	6.014	-0.253	-0.189
-372.815	-158.946	0.304	-0.017
-371.800	212.509	-0.012	-0.019
-370.785	-13.433	0.117	0.076
-369.771	-123.697	0.221	0.035
-368.756	604.217	0.032	0.080
-367.742	18.596	-0.162	0.131
-366.727	-200.000	0.052	0.240
-365.712	179.761	0.195	-0.288
-364.698	-200.000	0.001	-0.236
-363.683	-62.118	-0.378	-0.159
-362.669	800.000	0.044	0.156
-361.654	29.255	0.157	-0.135
-360.639	-9.437	0.245	0.165
-359.625	-108.500	0.519	0.112
-358.610	-119.877	-0.380	-0.066
-357.596	577.877	0.053	0.131
-356.581	-200.000	0.022	0.350
-355.566	-200.000	0.003	0.157
-354.552	-96.913	-0.383	-0.101
-353.537	33.819	0.226	-0.197
-352.523	332.109	0.154	0.299
-351.508	35.943	-0.156	0.138
-350.493	495.912	-0.106	0.244
-349.479	-188.057	0.298	0.004
-348.464	137.517	-0.196	0.258
-347.450	589.808	0.018	0.044
-346.435	-87.793	0.072	0.022
-345.420	-27.706	0.008	-0.005
-344.406	-27.198	0.272	0.159
-343.391	-200.000	0.003	-0.052
-342.377	-200.000	0.002	0.074
-341.362	71.150	0.096	0.101
-340.348	800.000	0.121	0.448
-339.333	-97.869	-0.349	0.091
-338.318	-70.784	-0.266	0.101
-337.304	27.682	-0.192	0.163
-336.289	607.661	-0.084	-0.211
-335.275	-200.000	0.025	0.170
-334.260	428.870	0.062	0.134
-333.245	-126.005	-0.172	-0.026
-332.231	-200.000	0.043	-0.198
-331.216	800.000	0.134	-0.502
-330.202	647.599	-0.150	0.385
-329.187	-171.300	-0.370	-0.012
-328.172	216.147	0.130	-0.208
-327.158	-163.837	0.180	-0.008
-326.143	129.716	0.181	0.232
-325.129	-117.374	0.226	0.041
-324.114	-9.613	0.216	-0.144
-323.099	47.195	0.277	0.259
-322.085	195.556	-0.232	-0.355
-321.070	800.000	-0.035	-0.151
-320.056	18.612	0.239	0.192
-319.041	-89.019	0.095	0.028
-318.026	-19.979	0.152	-0.095
-317.012	29.585	0.342	0.293
-315.997	35.583	-0.024	0.021
-314.983	-13.164	0.254	0.166
-313.968	-200.000	-0.012	0.118
-312.953	-200.000	0.028	-0.331
-311.939	154.642	0.133	-0.184
-310.924	350.630	0.182	-0.361
-309.910	800.000	-0.043	0.136
-308.895	57.710	-0.166	-0.163
-307.880	37.818	0.105	-0.094
-306.866	-200.000	0.027	-0.208
-305.851	-28.438	0.307	-0.178
-304.837	-148.340	0.374	-0.031
-303.822	-200.000	-0.005	0.031
-302.807	-200.000	0.046	-0.397
-301.793	30.044	0.021	0.018
-300.778	800.000	-0.057	-0.197
-299.764	-58.405	0.015	0.007
-298.749	-0.948	0.057	-0.041
-297.735	178.625	-0.094	0.138
-296.720	-129.220	-0.042	-0.006
-295.705	-12.611	0.187	0.123
-294.691	-133.407	0.146	0.018
-293.676	79.695	0.035	0.038
-292.662	-200.000	-0.046	0.318
-291.647	-57.253	0.180	0.080
-290.632	1.302	-0.189	0.136
-289.618	-90.192	-0.081	-0.024
-288.603	-200.000	0.003	-0.279
-287.589	210.618	0.017	0.027
-286.574	-131.980	-0.035	0.005
-285.559	-141.079	0.227	0.023
-284.545	-54.507	-0.340	0.155
-283.530	-45.359	-0.042	-0.021
-282.516	305.779	0.143	0.267
-281.501	233.033	0.199	0.328
-280.486	-112.897	-0.070	0.014
-279.472	-67.085	-0.191	-0.076
-278.457	52.752	0.348	-0.333
-277.443	-74.644	0.371	0.134
-276.428	449.473	0.171	-0.377
-275.413	-200.000	-0.018	0.188
-274.399	-88.801	0.277	-0.083
-273.384	-32.193	0.194	-0.108
-272.370	245.959	-0.143	0.241
-271.355	39.201	0.292	0.262
-270.340	292.283	-0.062	-0.114
-269.326	249.177	-0.158	-0.268
-268.311	315.566	-0.074	0.139
-267.297	800.000	0.052	0.173
-266.282	85.207	-0.102	-0.113
-265.267	-137.160	0.191	-0.022
-264.253	-200.000	0.007	0.343
-263.238	-155.780	0.209	-0.013
-262.224	800.000	-0.020	0.084
-261.209	380.045	0.154	-0.317
-260.195	-200.000	-0.038	-0.181
-259.180	-115.522	-0.260	-0.049
-258.165	321.549	0.179	0.342
-257.151	46.714	0.009	-0.008
-256.136	159.004	-0.205	-0.285
-255.122	-93.271	-0.187	-0.052
-254.107	-200.000	0.003	-0.129
-253.092	27.136	0.203	0.171
-252.078	14.601	0.152	0.119
-251.063	459.409	0.150	0.334
-250.049	-200.000	-0.015	-0.171
-249.034	761.159	-0.059	0.160
-248.019	198.651	0.061	-0.093
-247.005	-56.701	-0.326	-0.145
-245.990	-200.000	0.032	-0.249
-244.976	-80.266	-0.218	-0.073
-243.961	-200.000	0.006	0.108
-242.946	-14.406	0.092	-0.059
-241.932	-34.758	0.082	0.045
-240.917	-119.272	-0.158	-0.028
-239.903	-144.514	0.128	-0.012
-238.888	41.635	-0.070	-0.063
-237.873	169.485	0.101	0.144
-236.859	-200.000	0.024	0.214
-235.844	390.248	0.049	-0.103
-234.830	-52.108	-0.222	-0.103
-233.815	65.678	0.172	0.174
-232.800	-200.000	-0.007	-0.098
-231.786	-200.000	-0.032	-0.146
-230.771	-75.485	0.178	0.063
-229.757	-89.503	0.084	-0.025
-228.742	247.033	0.133	-0.226
-227.727	-76.105	-0.217	0.077
-226.713	-200.000	0.007	-0.055
-225.698	263.557	-0.200	-0.348
-224.684	-87.599	-0.157	0.048
-223.669	-4.125	-0.078	-0.054
-222.655	-55.990	-0.262	-0.117
-221.640	-200.000	-0.139	-0.000
-220.625	582.096	0.105	0.258
-219.611	-89.184	0.305	0.090
-218.596	-163.672	-0.413	-0.019
-217.582	-9.183	-0.079	0.053
-216.567	20.732	-0.073	0.059
-215.552	800.000	0.026	0.090
-214.538	63.787	-0.277	0.278
-213.523	-200.000	0.051	0.257
-212.509	-139.071	0.245	-0.027
-211.494	46.286	-0.182	0.169
-210.479	-200.000	-0.060	0.337
-209.465	80.274	0.062	-0.066
-208.450	-32.193	0.177	0.099
-207.436	-83.004	0.215	0.069
-206.421	164.393	0.159	0.225
-205.406	134.965	-0.090	-0.117
-204.392	-60.116	-0.048	0.020
-203.377	79.568	-0.083	-0.089
-202.363	-39.026	0.157	-0.083
-201.348	111.177	-0.272	0.328
-200.333	-73.157	0.075	-0.027
-199.319	-182.364	-0.048	0.001
-198.304	57.068	-0.256	0.249
-197.290	-117.796	0.167	0.030
-196.275	247.869	-0.164	0.278
-195.260	-200.000	0.021	0.109
-194.246	-134.223	-0.162	-0.020
-193.231	-26.058	0.135	-0.080
-192.217	361.949	0.164	-0.329
-191.202	-48.106	0.263	0.127
-190.187	-16.037	0.055	0.035
-189.173	-13.330	-0.237	0.154
-188.158	-161.247	0.129	-0.007
-187.144	-130.706	0.127	0.017
-186.129	-89.858	0.303	-0.089
-185.114	223.405	0.124	0.200
-184.100	-200.000	0.003	-0.104
-183.085	-66.441	-0.294	0.117
-182.071	94.297	-0.176	-0.199
-181.056	391.760	0.176	0.366
-180.042	493.314	-0.033	-0.076
-179.027	-126.358	-0.137	0.020
-178.012	-200.000	-0.014	0.163
-176.998	800.000	-0.064	-0.182
-175.983	57.164	-0.496	-0.484
-174.969	73.407	0.291	-0.304
-173.954	576.268	-0.065	-0.158
-172.939	-200.000	-0.098	-0.450
-171.925	-200.000	0.003	0.068
-170.910	-200.000	0.031	0.330
-169.896	-21.890	-0.212	0.129
-168.881	345.063	0.140	0.275
-167.866	405.472	-0.133	0.280
-166.852	-130.372	-0.163	0.022
-165.837	-107.321	0.139	-0.030
-164.823	-24.319	-0.353	-0.210
-163.808	-200.000	0.002	-0.240
-162.793	-17.164	-0.167	-0.105
-161.779	-61.821	0.303	-0.127
-160.764	83.246	0.283	0.308
-159.750	-66.855	0.508	0.201
-158.735	121.004	-0.040	-0.050
-157.720	-45.794	-0.099	0.049
-156.706	20.287	0.213	0.172
-155.691	800.000	-0.139	-0.453
-154.677	800.000	-0.045	-0.149
-153.662	-138.057	0.033	0.004
-152.647	-34.208	-0.165	0.090
-151.633	-126.434	0.042	0.006
-150.618	-200.000	-0.056	0.304
-149.604	130.029	-0.067	-0.086
-148.589	-166.242	0.246	-0.010
-147.574	4.729	0.161	-0.118
-146.560	343.640	0.113	0.221
-145.545	800.000	-0.100	-0.347
-144.531	-23.750	-0.126	-0.075
-143.516	-200.000	0.039	-0.173
-142.502	399.274	-0.066	-0.138
-141.487	141.229	-0.064	-0.084
-140.472	-109.977	-0.209	0.044
-139.458	366.379	-0.091	0.183
-138.443	-34.075	0.125	-0.069
-137.429	-38.542	0.269	0.142
-136.414	-72.586	0.112	0.041
-135.399	-125.274	-0.204	-0.031
-134.385	447.478	0.093	0.204
-133.370	-108.459	-0.237	0.051
-132.356	6.889	0.039	-0.029
-131.341	800.000	-0.074	-0.263
-130.326	75.424	0.073	-0.077
-129.312	644.539	-0.046	0.116
-128.297	-17.579	-0.154	-0.097
-127.283	-200.000	-0.014	0.077
-126.268	219.685	0.107	0.171
-125.253	-40.073	0.293	0.152
-124.239	800.000	-0.028	0.089
-123.224	-54.094	0.220	0.100
-122.210	800.000	-0.035	-0.118
-121.195	800.000	-0.068	0.234
