DTS Sentinel unit serial number:	SN413079Multiplexer serial number:	ORYXHardware model number:	OX4-SRSoftware version number:	ORYX F/W v4.00 Oryx Data Collector v3.7.2.0data status	okinstallation	princeton_trtdifferential loss correction	single-endedforward channel	channel 2reverse channel	N/Adate	2019/09/17time	05:07:34forward acquisition time	60.00reverse acquisition time	0.00gamma	496.2192k internal	0.2329k external	0.2329temperature offset calibration	0.9978default loss term (dB/km)	0.3790temperature slope calibration	1.0000multiplexer offset coefficient	1.0000multiplexer slope coefficient	1.0000fibre end	0.00T internal ref (°C)	29.44T ext. ref 1 (°C)	0.14T ext. ref 2 (°C)	23.90length (m)	temperature (°C)	Stokes	anti-Stokes-747.200	40.657	-0.184	-0.167
-746.185	-81.799	0.059	-0.020
-745.171	-28.964	0.011	-0.007
-744.156	-101.852	0.176	-0.043
-743.142	577.834	-0.070	-0.171
-742.127	100.586	-0.165	0.193
-741.112	9.127	0.105	-0.080
-740.098	500.858	0.064	0.148
-739.083	-175.932	-0.259	-0.007
-738.069	800.000	0.130	0.381
-737.054	-161.974	-0.189	-0.010
-736.039	-61.835	-0.245	0.103
-735.025	-61.470	0.419	0.177
-734.010	-200.000	0.004	0.241
-732.996	31.093	-0.134	-0.115
-731.981	-200.000	-0.050	0.306
-730.966	-50.885	0.209	0.099
-729.952	-200.000	-0.003	-0.376
-728.937	265.674	-0.248	-0.436
-727.923	-90.059	0.142	-0.042
-726.908	-10.622	-0.073	0.049
-725.894	-16.429	-0.259	-0.165
-724.879	156.054	-0.085	-0.118
-723.864	66.041	-0.092	0.094
-722.850	-200.000	0.073	-0.404
-721.835	513.198	-0.046	-0.109
-720.821	800.000	-0.072	-0.292
-719.806	482.878	0.067	0.154
-718.791	25.686	-0.304	-0.255
-717.777	-200.000	-0.063	0.377
-716.762	-200.000	0.041	0.247
-715.748	239.344	-0.182	-0.305
-714.733	-91.078	0.197	-0.057
-713.718	-66.858	-0.210	0.084
-712.704	800.000	0.018	0.053
-711.689	-200.000	0.000	0.143
-710.675	800.000	0.128	-0.429
-709.660	-200.000	-0.074	-0.472
-708.645	-41.443	-0.116	0.060
-707.631	-200.000	-0.005	0.240
-706.616	-126.612	0.232	0.035
-705.602	-11.478	0.234	0.155
-704.587	-69.770	0.077	0.030
-703.572	-132.515	-0.112	-0.014
-702.558	131.942	0.226	0.293
-701.543	20.330	0.138	0.112
-700.529	21.995	-0.031	-0.025
-699.514	800.000	-0.022	0.083
-698.499	-26.289	0.148	-0.087
-697.485	-14.285	0.055	0.036
-696.470	-78.413	-0.181	-0.062
-695.456	800.000	0.050	0.142
-694.441	-77.250	0.342	0.120
-693.426	-152.177	0.233	0.017
-692.412	-74.533	-0.490	0.178
-691.397	-200.000	-0.018	0.142
-690.383	-127.406	-0.192	0.028
-689.368	-200.000	-0.227	-0.001
-688.354	-200.000	0.004	0.122
-687.339	800.000	-0.058	-0.195
-686.324	2.740	0.254	0.185
-685.310	112.524	-0.237	-0.288
-684.295	137.019	-0.181	-0.237
-683.281	-103.495	0.124	0.029
-682.266	-94.941	0.281	-0.076
-681.251	-72.397	-0.240	0.089
-680.237	53.596	-0.089	0.086
-679.222	-125.501	-0.148	-0.023
-678.208	-92.328	0.061	0.017
-677.193	-76.558	-0.218	-0.077
-676.178	72.420	-0.216	-0.227
-675.164	-104.358	0.100	0.023
-674.149	450.326	-0.062	0.138
-673.135	-97.231	-0.131	0.034
-672.120	133.974	-0.040	0.052
-671.105	518.368	-0.143	-0.336
-670.091	498.322	0.158	-0.366
-669.076	577.779	-0.041	0.100
-668.062	800.000	0.071	-0.254
-667.047	9.706	-0.091	0.069
-666.032	-127.139	0.184	0.027
-665.018	61.350	0.048	0.048
-664.003	-159.667	-0.184	-0.010
-662.989	-200.000	-0.005	0.256
-661.974	38.420	-0.277	0.248
-660.959	453.956	-0.076	-0.169
-659.945	-200.000	-0.008	-0.093
-658.930	209.669	-0.133	0.210
-657.916	54.445	-0.131	-0.127
-656.901	37.260	-0.104	-0.092
-655.886	-15.194	0.228	-0.147
-654.872	76.649	0.164	-0.175
-653.857	-200.000	-0.020	-0.422
-652.843	-74.030	0.483	0.176
-651.828	50.636	0.121	0.115
-650.814	-36.966	-0.147	0.079
-649.799	-39.870	-0.190	-0.099
-648.784	622.998	0.102	0.257
-647.770	-200.000	0.042	-0.344
-646.755	-114.815	-0.055	-0.010
-645.741	-200.000	-0.038	-0.499
-644.726	-57.340	-0.141	-0.062
-643.711	-200.000	0.001	-0.066
-642.697	-200.000	0.022	0.262
-641.682	175.127	-0.110	0.160
-640.668	107.797	0.238	-0.284
-639.653	-200.000	-0.033	0.149
-638.638	6.649	-0.190	-0.141
-637.624	-200.000	0.013	0.274
-636.609	540.621	0.086	-0.206
-635.595	60.299	-0.098	-0.097
-634.580	-113.386	-0.138	-0.027
-633.565	-169.903	0.216	0.008
-632.551	-5.142	0.056	-0.038
-631.536	-13.162	-0.190	0.124
-630.522	-119.190	-0.380	-0.067
-629.507	-200.000	-0.034	-0.416
-628.492	800.000	0.090	-0.279
-627.478	-104.949	-0.246	-0.056
-626.463	800.000	-0.081	-0.256
-625.449	800.000	-0.048	0.178
-624.434	-103.924	-0.085	-0.020
-623.419	-200.000	0.011	-0.156
-622.405	21.897	-0.184	-0.150
-621.390	289.813	-0.010	-0.017
-620.376	29.338	-0.089	-0.076
-619.361	-192.207	-0.384	-0.004
-618.346	76.074	-0.231	-0.245
-617.332	-188.800	-0.251	-0.003
-616.317	-114.046	0.059	-0.011
-615.303	-200.000	0.031	0.172
-614.288	-29.292	-0.239	0.137
-613.273	371.985	0.123	-0.251
-612.259	381.788	0.189	0.389
-611.244	-27.804	-0.122	0.071
-610.230	206.949	0.129	-0.201
-609.215	416.540	-0.045	0.096
-608.201	-100.445	0.172	0.043
-607.186	-5.480	-0.225	-0.155
-606.171	-200.000	0.009	0.226
-605.157	-136.386	0.276	0.032
-604.142	-200.000	-0.038	-0.331
-603.128	-127.770	0.244	-0.035
-602.113	800.000	0.053	-0.203
-601.098	-200.000	0.006	0.042
-600.084	-136.773	-0.150	-0.017
-599.069	800.000	0.047	-0.187
-598.055	-69.734	0.155	0.059
-597.040	-145.954	0.094	0.008
-596.025	-137.735	-0.362	-0.041
-595.011	750.784	0.069	0.186
-593.996	-3.760	-0.221	0.153
-592.982	566.694	0.082	-0.199
-591.967	-84.282	-0.263	0.083
-590.952	552.918	-0.062	-0.149
-589.938	-153.034	-0.365	-0.026
-588.923	308.684	-0.071	-0.134
-587.909	33.258	0.105	0.091
-586.894	162.898	0.104	-0.146
-585.879	71.933	0.135	-0.141
-584.865	-163.453	0.061	-0.003
-583.850	328.870	-0.045	0.086
-582.836	244.205	-0.178	0.299
-581.821	-116.881	0.139	-0.025
-580.806	-133.042	0.132	-0.017
-579.792	44.525	0.061	-0.056
-578.777	193.668	-0.137	0.207
-577.763	-75.711	-0.034	-0.012
-576.748	-112.114	-0.045	-0.009
-575.733	-54.826	-0.096	0.043
-574.719	-130.190	-0.258	-0.035
-573.704	269.125	-0.123	-0.215
-572.690	150.032	-0.180	-0.244
-571.675	-197.414	0.245	0.002
-570.661	-37.771	-0.280	0.149
-569.646	158.262	0.112	-0.155
-568.631	800.000	0.069	-0.201
-567.617	151.772	0.161	0.219
-566.602	233.062	-0.206	-0.339
-565.588	-162.736	0.046	0.002
-564.573	-14.159	-0.089	0.057
-563.558	-178.783	-0.178	0.004
-562.544	273.355	-0.098	-0.173
-561.529	800.000	-0.073	-0.309
-560.515	-39.770	0.281	0.147
-559.500	28.927	-0.220	-0.186
-558.485	207.065	-0.066	0.102
-557.471	-200.000	-0.005	0.167
-556.456	7.062	-0.114	-0.085
-555.442	256.288	-0.015	-0.026
-554.427	-200.000	-0.019	0.103
-553.412	-200.000	-0.001	-0.007
-552.398	167.785	0.037	-0.053
-551.383	-66.207	-0.118	-0.047
-550.369	181.044	0.066	0.097
-549.354	397.273	0.145	0.302
-548.339	-8.016	-0.146	-0.098
-547.325	434.169	0.064	0.140
-546.310	-171.497	-0.142	-0.005
-545.296	205.479	-0.186	-0.288
-544.281	800.000	0.027	-0.095
-543.266	-108.022	0.115	-0.025
-542.252	60.264	0.165	-0.163
-541.237	3.455	0.305	-0.222
-540.223	-200.000	0.004	-0.083
-539.208	363.320	0.054	-0.107
-538.193	-97.830	-0.175	-0.045
-537.179	-200.000	0.002	-0.131
-536.164	152.835	0.202	-0.276
-535.150	210.083	-0.147	-0.231
-534.135	-81.162	0.507	-0.168
-533.121	800.000	-0.072	0.206
-532.106	12.241	-0.299	0.230
-531.091	185.244	-0.164	-0.243
-530.077	236.359	-0.149	0.247
-529.062	5.664	-0.413	0.305
-528.048	370.649	0.101	-0.205
-527.033	800.000	0.054	-0.154
-526.018	-0.530	-0.242	-0.171
-525.004	-14.184	0.142	-0.091
-523.989	-200.000	-0.017	0.189
-522.975	-200.000	-0.032	-0.224
-521.960	-200.000	0.018	0.102
-520.945	280.910	0.241	-0.430
-519.931	-149.822	-0.101	0.008
-518.916	102.080	0.148	-0.173
-517.902	-59.703	0.223	0.095
-516.887	-93.966	0.276	0.076
-515.872	61.655	0.120	0.119
-514.858	-88.092	-0.108	-0.032
-513.843	-39.777	-0.160	0.083
-512.829	193.498	-0.017	0.025
-511.814	306.212	-0.056	0.105
-510.799	-4.140	-0.083	-0.058
-509.785	766.449	0.132	-0.359
-508.770	-129.550	-0.216	0.030
-507.756	401.183	-0.071	-0.148
-506.741	-112.250	0.275	0.055
-505.726	-200.000	0.003	-0.031
-504.712	1.600	-0.207	0.149
-503.697	225.496	-0.113	0.183
-502.683	-98.174	-0.172	0.044
-501.668	800.000	0.092	-0.296
-500.653	-200.000	-0.020	-0.267
-499.639	-177.078	-0.073	0.002
-498.624	43.538	0.089	0.081
-497.610	-91.545	-0.173	0.049
-496.595	-32.763	-0.076	-0.042
-495.581	86.151	0.129	0.142
-494.566	-200.000	0.008	0.070
-493.551	56.088	-0.051	-0.050
-492.537	800.000	-0.044	0.164
-491.522	372.287	0.063	-0.128
-490.508	-200.000	-0.046	-0.228
-489.493	-124.924	0.066	0.010
-488.478	11.594	0.087	-0.066
-487.464	-68.316	-0.165	0.064
-486.449	-130.369	-0.238	-0.032
-485.435	105.844	-0.198	-0.234
-484.420	-200.000	0.051	0.269
-483.405	20.755	-0.124	0.100
-482.391	105.752	-0.026	0.030
-481.376	-118.067	0.274	-0.049
-480.362	-200.000	-0.017	0.075
-479.347	15.156	0.144	0.113
-478.332	-34.846	-0.254	0.138
-477.318	-152.646	0.074	-0.005
-476.303	-38.738	-0.019	0.010
-475.289	13.782	-0.264	0.205
-474.274	-200.000	0.027	0.285
-473.259	-142.508	0.400	0.039
-472.245	800.000	0.080	-0.305
-471.230	34.259	0.105	-0.091
-470.216	75.321	0.091	0.095
-469.201	800.000	0.093	-0.328
-468.186	24.250	0.317	0.261
-467.172	77.554	0.091	-0.097
-466.157	46.502	0.058	0.054
-465.143	-182.256	-0.226	0.004
-464.128	322.709	0.145	0.276
-463.113	-14.340	0.214	0.137
-462.099	-200.000	-0.023	-0.120
-461.084	-200.000	0.011	0.268
-460.070	800.000	-0.042	-0.179
-459.055	384.533	-0.063	-0.129
-458.040	36.533	-0.122	-0.107
-457.026	144.936	0.113	-0.150
-456.011	-19.303	-0.196	-0.121
-454.997	-77.091	0.401	0.139
-453.982	-100.293	-0.202	0.050
-452.968	-19.171	-0.071	-0.044
-451.953	800.000	0.051	0.214
-450.938	3.254	0.193	0.140
-449.924	-149.453	0.123	0.010
-448.909	335.010	0.092	-0.178
-447.895	-183.830	-0.091	0.002
-446.880	217.808	0.138	0.219
-445.865	-200.000	-0.008	-0.190
-444.851	129.338	0.146	0.185
-443.836	17.676	0.237	0.188
-442.822	31.182	-0.267	0.228
-441.807	107.979	0.254	0.301
-440.792	-129.112	-0.204	-0.028
-439.778	284.770	-0.152	-0.272
-438.763	506.733	-0.086	0.197
-437.749	53.727	0.162	-0.154
-436.734	-200.000	0.051	-0.257
-435.719	184.354	0.172	0.254
-434.705	23.328	0.319	-0.261
-433.690	235.828	0.085	0.140
-432.676	-90.302	0.156	0.045
-431.661	-200.000	0.015	0.134
-430.646	-200.000	-0.023	0.121
-429.632	45.319	0.109	0.100
-428.617	800.000	0.051	-0.144
-427.603	578.016	-0.113	0.275
-426.588	7.202	0.079	0.059
-425.573	614.554	0.042	-0.103
-424.559	9.511	0.354	-0.267
-423.544	-12.727	-0.356	0.231
-422.530	800.000	0.042	-0.152
-421.515	-107.436	-0.062	-0.014
-420.500	-179.260	0.092	-0.002
-419.486	254.348	0.138	0.234
-418.471	-200.000	0.040	-0.296
-417.457	800.000	-0.056	-0.159
-416.442	-160.523	-0.135	0.007
-415.428	135.385	-0.101	-0.130
-414.413	706.451	-0.083	-0.217
-413.398	-32.157	0.074	0.041
-412.384	-200.000	0.019	0.223
-411.369	-118.837	0.439	0.077
-410.355	-58.732	0.238	0.103
-409.340	-46.541	-0.322	0.157
-408.325	719.054	-0.112	0.295
-407.311	-41.737	-0.284	0.145
-406.296	-10.175	-0.243	-0.160
-405.282	697.675	-0.049	0.129
-404.267	800.000	0.118	0.349
-403.252	-168.928	-0.269	-0.010
-402.238	194.341	0.247	-0.372
-401.223	-8.958	-0.170	0.113
-400.209	-37.771	-0.166	0.088
-399.194	-200.000	-0.007	0.110
-398.179	216.859	0.058	-0.092
-397.165	-119.556	0.416	0.072
-396.150	-37.964	-0.432	0.228
-395.136	130.973	-0.092	0.117
-394.121	-200.000	0.003	-0.114
-393.106	-139.535	-0.077	0.008
-392.092	-138.143	-0.433	0.048
-391.077	73.480	-0.038	0.039
-390.063	-130.916	-0.194	-0.026
-389.048	-148.621	0.118	-0.010
-388.033	-14.538	-0.115	0.074
-387.019	800.000	0.048	0.141
-386.004	187.326	0.200	-0.296
-384.990	354.448	-0.174	-0.344
-383.975	-200.000	0.006	-0.156
-382.960	15.197	-0.026	-0.021
-381.946	47.403	0.112	0.103
-380.931	-122.835	0.249	-0.040
-379.917	263.834	0.058	0.101
-378.902	-48.238	-0.195	-0.093
-377.888	-11.912	0.063	0.041
-376.873	-159.356	0.293	-0.016
-375.858	-85.089	-0.293	0.091
-374.844	-91.687	0.124	-0.035
-373.829	-130.346	0.459	0.062
-372.815	375.887	0.140	-0.283
-371.800	800.000	-0.075	-0.251
-370.785	-30.712	0.244	-0.137
-369.771	-128.084	-0.248	-0.035
-368.756	117.120	0.210	-0.257
-367.742	-141.662	-0.352	0.035
-366.727	-87.584	-0.040	0.012
-365.712	-128.844	-0.380	-0.053
-364.698	-200.000	-0.027	-0.202
-363.683	112.113	-0.216	-0.259
-362.669	-200.000	0.026	0.175
-361.654	75.490	0.193	0.202
-360.639	800.000	0.028	0.101
-359.625	-200.000	-0.013	0.128
-358.610	-200.000	0.055	0.311
-357.596	408.501	-0.106	-0.223
-356.581	-7.076	0.096	-0.065
-355.566	93.996	0.201	-0.226
-354.552	-154.919	-0.110	0.007
-353.537	67.689	-0.244	0.247
-352.523	482.375	-0.082	-0.185
-351.508	-99.977	0.186	0.046
-350.493	-164.877	0.293	-0.013
-349.479	144.077	0.073	-0.097
-348.464	17.347	-0.026	0.020
-347.450	-200.000	0.004	0.088
-346.435	-153.307	0.123	0.009
-345.420	59.679	0.193	0.189
-344.406	800.000	-0.041	0.157
-343.391	-119.727	0.408	-0.070
-342.377	294.130	0.086	-0.156
-341.362	-3.033	-0.094	0.065
-340.348	-81.758	0.251	0.082
-339.333	-86.559	0.088	-0.027
-338.318	20.264	-0.296	-0.237
-337.304	-200.000	-0.007	0.157
-336.289	-82.714	0.142	-0.045
-335.275	800.000	0.073	-0.230
-334.260	499.378	-0.109	-0.250
-333.245	-60.757	0.278	0.117
-332.231	-84.574	0.329	0.103
-331.216	-138.250	-0.538	-0.059
-330.202	269.049	-0.053	0.092
-329.187	800.000	0.074	-0.270
-328.172	295.004	0.095	-0.172
-327.158	141.453	0.134	0.175
-326.143	-200.000	-0.014	-0.246
-325.129	-85.740	0.096	-0.029
-324.114	-200.000	0.018	-0.108
-323.099	368.661	-0.048	-0.097
-322.085	663.996	-0.058	-0.149
-321.070	-21.128	-0.192	-0.116
-320.056	135.798	-0.131	-0.169
-319.041	-200.000	0.437	0.002
-318.026	27.223	-0.220	0.183
-317.012	48.257	-0.201	-0.186
-315.997	800.000	0.028	0.089
-314.983	18.502	0.112	0.089
-313.968	800.000	-0.045	0.128
-312.953	-200.000	-0.006	0.270
-311.939	-200.000	0.048	-0.241
-310.924	800.000	0.093	-0.276
-309.910	-5.175	-0.166	-0.113
-308.895	-200.000	-0.035	-0.282
-307.880	-200.000	-0.010	0.086
-306.866	22.630	0.144	-0.117
-305.851	-120.523	-0.233	-0.039
-304.837	-26.740	0.128	-0.074
-303.822	510.816	0.116	0.268
-302.807	53.088	-0.045	-0.043
-301.793	800.000	-0.065	-0.197
-300.778	-121.799	0.260	0.042
-299.764	171.950	-0.113	-0.161
-298.749	576.765	0.012	0.029
-297.735	271.961	0.086	-0.151
-296.720	-144.362	0.215	0.020
-295.705	-1.009	0.279	0.195
-294.691	2.318	-0.300	0.215
-293.676	-147.639	-0.390	-0.032
-292.662	-200.000	-0.045	0.306
-291.647	-119.134	-0.193	-0.033
-290.632	-200.000	-0.009	-0.306
-289.618	800.000	-0.042	0.130
-288.603	800.000	-0.076	-0.207
-287.589	-154.854	-0.343	0.022
-286.574	800.000	0.111	0.344
-285.559	252.487	0.119	-0.201
-284.545	-115.208	-0.178	-0.033
-283.530	-18.961	-0.323	-0.199
-282.516	-200.000	0.026	0.268
-281.501	-112.098	-0.373	0.074
-280.486	-125.205	-0.149	-0.022
-279.472	-102.041	-0.082	-0.020
-278.457	467.387	0.164	-0.364
-277.443	135.227	-0.045	0.058
-276.428	-200.000	-0.030	-0.332
-275.413	800.000	0.079	-0.247
-274.399	-35.950	0.151	0.081
-273.384	-200.000	0.062	0.311
-272.370	-13.502	0.428	-0.274
-271.355	11.259	0.234	-0.177
-270.340	800.000	-0.029	0.110
-269.326	-63.869	0.216	-0.088
-268.311	51.983	0.192	-0.181
-267.297	-171.109	0.196	0.007
-266.282	267.937	0.115	0.198
-265.267	174.332	-0.134	0.191
-264.253	58.271	-0.113	0.109
-263.238	-64.137	-0.146	-0.059
-262.224	-15.366	0.025	-0.016
-261.209	320.098	-0.012	0.022
-260.195	63.965	-0.254	0.253
-259.180	198.750	0.072	0.109
-258.165	39.860	-0.191	0.170
-257.151	-200.000	-0.007	0.070
-256.136	-16.951	-0.368	0.230
-255.122	-72.930	0.202	0.073
-254.107	576.234	-0.062	0.150
-253.092	96.104	-0.127	0.144
-252.078	30.258	0.279	0.235
-251.063	-81.592	0.291	0.094
-250.049	-200.000	-0.003	-0.206
-249.034	150.205	-0.128	0.172
-248.019	-11.403	-0.140	0.091
-247.005	46.552	-0.176	-0.161
-245.990	-200.000	-0.013	0.061
-244.976	-42.311	-0.307	-0.155
-243.961	84.182	0.240	0.260
-242.946	308.346	0.062	-0.114
-241.932	-141.963	0.102	-0.010
-240.917	-200.000	-0.006	0.244
-239.903	-31.754	0.193	0.107
-238.888	136.704	0.067	0.087
-237.873	-131.846	-0.437	-0.056
-236.859	125.567	0.099	0.124
-235.844	-0.998	0.158	-0.110
-234.830	-200.000	-0.029	-0.227
-233.815	-200.000	0.029	-0.162
-232.800	-10.431	0.141	0.092
-231.786	237.092	0.017	-0.027
-230.771	-143.898	0.197	-0.018
-229.757	46.247	0.216	0.198
-228.742	-200.000	-0.059	-0.335
-227.727	-6.696	-0.198	-0.133
-226.713	170.378	-0.116	0.163
-225.698	800.000	0.117	0.361
-224.684	39.055	0.222	0.196
-223.669	0.488	-0.094	-0.066
-222.655	197.824	-0.049	0.074
-221.640	-140.155	0.101	-0.010
-220.625	-32.254	0.135	-0.075
-219.611	-200.000	0.080	0.373
-218.596	-129.196	0.043	0.006
-217.582	469.276	-0.125	0.278
-216.567	-200.000	-0.016	-0.409
-215.552	82.633	-0.061	0.065
-214.538	-89.624	0.056	-0.016
-213.523	800.000	0.061	0.261
-212.509	15.453	0.304	0.235
-211.494	-200.000	0.218	-0.001
-210.479	-127.535	0.203	-0.029
-209.465	210.490	0.085	-0.131
-208.450	9.668	0.130	-0.097
-207.436	-200.000	-0.044	0.480
-206.421	-141.470	0.194	0.019
-205.406	158.180	0.201	0.275
-204.392	-43.014	0.180	0.090
-203.377	11.396	-0.178	-0.134
-202.363	800.000	-0.079	-0.232
-201.348	800.000	-0.018	0.058
-200.333	-200.000	-0.075	0.421
-199.319	-26.445	-0.158	-0.091
-198.304	124.647	0.176	0.219
-197.290	-200.000	-0.084	0.450
-196.275	38.440	-0.301	0.264
-195.260	142.540	-0.103	0.135
-194.246	381.841	0.140	-0.284
-193.231	-140.430	0.086	-0.009
-192.217	-137.661	0.061	-0.007
-191.202	-119.354	-0.276	-0.047
-190.187	186.478	-0.086	0.126
-189.173	12.855	0.078	0.060
-188.158	-60.694	0.169	0.071
-187.144	-133.995	0.326	0.040
-186.129	286.065	0.099	0.175
-185.114	-200.000	0.008	0.110
-184.100	9.460	0.201	0.150
-183.085	-98.305	0.064	0.016
-182.071	126.883	0.082	0.102
-181.056	1.633	-0.249	0.177
-180.042	74.446	0.192	0.199
-179.027	-159.320	-0.277	0.015
-178.012	-200.000	0.003	0.282
-176.998	-34.167	-0.023	0.012
-175.983	35.337	-0.053	0.046
-174.969	800.000	-0.119	-0.371
-173.954	-200.000	0.015	0.081
-172.939	293.642	0.042	-0.075
-171.925	-9.310	0.398	0.262
-170.910	-141.924	0.104	0.010
-169.896	-66.674	0.108	-0.042
-168.881	800.000	0.027	-0.114
-167.866	-43.365	-0.125	0.062
-166.852	800.000	0.140	0.449
-165.837	-38.273	-0.363	0.189
-164.823	-12.298	0.123	-0.079
-163.808	66.473	-0.085	-0.085
-162.793	800.000	0.084	0.288
-161.779	201.986	0.124	-0.188
-160.764	186.440	-0.098	-0.144
-159.750	-70.727	-0.333	-0.124
-158.735	80.758	0.078	-0.083
-157.720	-200.000	0.021	0.208
-156.706	-70.307	-0.072	-0.027
-155.691	-83.759	-0.059	0.019
-154.677	453.265	0.114	-0.248
-153.662	-200.000	0.060	-0.342
-152.647	-200.000	-0.034	0.234
-151.633	-200.000	0.070	0.564
-150.618	-56.729	0.230	0.100
-149.604	631.907	-0.097	0.241
-148.589	-93.728	-0.122	0.033
-147.574	800.000	0.067	0.183
-146.560	800.000	-0.040	0.173
-145.545	-200.000	0.018	-0.231
-144.531	151.217	-0.094	0.126
-143.516	-200.000	-0.011	0.444
-142.502	22.174	-0.096	-0.078
-141.487	-153.645	0.054	-0.004
-140.472	-200.000	0.044	-0.201
-139.458	-35.540	0.145	0.078
-138.443	750.597	-0.103	0.275
-137.429	426.426	0.110	0.233
-136.414	800.000	-0.045	0.182
-135.399	138.045	-0.050	-0.064
-134.385	77.263	0.239	0.250
-133.370	-200.000	-0.006	-0.137
-132.356	152.995	-0.097	0.131
-131.341	48.617	0.160	-0.147
-130.326	-200.000	0.016	-0.121
-129.312	-200.000	0.065	-0.289
-128.297	-148.822	-0.207	0.017
-127.283	47.276	0.154	0.141
-126.268	46.401	-0.067	-0.061
-125.253	-178.055	-0.199	0.005
-124.239	-106.472	0.084	-0.018
-123.224	-19.302	-0.099	0.060
-122.210	20.482	0.175	0.139
-121.195	-63.603	-0.242	0.098
