DTS Sentinel unit serial number:	SN413079Multiplexer serial number:	ORYXHardware model number:	OX4-SRSoftware version number:	ORYX F/W v4.00 Oryx Data Collector v3.7.2.0data status	okinstallation	princeton_trtdifferential loss correction	single-endedforward channel	channel 2reverse channel	N/Adate	2019/09/15time	03:43:35forward acquisition time	60.00reverse acquisition time	0.00gamma	496.2192k internal	0.2326k external	0.2326temperature offset calibration	1.0033default loss term (dB/km)	0.3790temperature slope calibration	1.0000multiplexer offset coefficient	1.0000multiplexer slope coefficient	1.0000fibre end	0.00T internal ref (°C)	31.00T ext. ref 1 (°C)	4.61T ext. ref 2 (°C)	25.91length (m)	temperature (°C)	Stokes	anti-Stokes-747.200	61.091	0.320	0.321
-746.185	-200.000	0.037	0.199
-745.171	-12.442	0.105	0.069
-744.156	-200.000	-0.017	0.251
-743.142	157.405	0.166	-0.231
-742.127	73.634	-0.080	0.084
-741.112	384.095	0.080	0.166
-740.098	85.918	-0.163	0.181
-739.083	-200.000	0.011	0.197
-738.069	10.707	-0.066	-0.051
-737.054	-63.248	-0.111	0.046
-736.039	146.739	-0.074	-0.101
-735.025	-148.420	0.144	0.012
-734.010	145.896	-0.090	-0.122
-732.996	-115.018	-0.243	0.047
-731.981	695.465	-0.039	0.104
-730.966	-54.706	-0.112	0.051
-729.952	-129.216	-0.056	-0.008
-728.937	-69.164	-0.193	0.075
-727.923	261.797	-0.099	-0.173
-726.908	718.275	-0.038	0.101
-725.894	-158.665	0.161	0.009
-724.879	-70.573	-0.444	-0.169
-723.864	-111.106	-0.236	0.049
-722.850	342.139	-0.108	0.214
-721.835	222.931	-0.216	0.351
-720.821	-23.518	-0.109	-0.066
-719.806	-44.738	-0.076	-0.038
-718.791	307.986	-0.032	-0.060
-717.777	412.316	0.093	-0.198
-716.762	219.590	0.184	-0.296
-715.748	-200.000	0.014	0.071
-714.733	-44.371	-0.222	0.112
-713.718	-91.022	-0.206	0.060
-712.704	-146.240	-0.299	0.026
-711.689	-9.509	0.201	0.135
-710.675	515.401	-0.051	-0.119
-709.660	-128.719	0.306	-0.043
-708.645	-5.867	-0.147	0.102
-707.631	203.868	-0.214	-0.334
-706.616	-96.423	0.125	0.033
-705.602	28.865	-0.144	0.123
-704.587	800.000	-0.052	-0.171
-703.572	-99.920	0.084	0.021
-702.558	-37.650	-0.174	0.093
-701.543	91.012	-0.202	0.228
-700.529	-200.000	-0.004	-0.018
-699.514	576.025	0.088	-0.216
-698.499	800.000	-0.119	0.518
-697.485	295.212	0.091	-0.167
-696.470	-115.891	-0.286	-0.054
-695.456	-69.546	0.361	0.139
-694.441	-47.327	0.075	0.037
-693.426	-200.000	0.016	-0.134
-692.412	-35.658	-0.331	-0.181
-691.397	-3.640	-0.137	-0.096
-690.383	335.272	-0.063	0.123
-689.368	-88.898	-0.394	0.118
-688.354	246.406	-0.163	-0.276
-687.339	-50.799	0.301	0.143
-686.324	127.112	-0.143	0.182
-685.310	40.210	0.051	-0.046
-684.295	75.108	-0.274	0.291
-683.281	-66.859	0.058	0.023
-682.266	-200.000	-0.083	0.407
-681.251	281.882	-0.216	0.390
-680.237	111.563	0.059	-0.071
-679.222	-68.637	0.052	0.020
-678.208	26.929	-0.056	0.047
-677.193	800.000	-0.057	0.203
-676.178	-87.095	0.215	-0.066
-675.164	-141.795	-0.293	-0.030
-674.149	-200.000	0.022	0.205
-673.135	69.409	0.363	-0.375
-672.120	292.023	0.209	-0.383
-671.105	-12.743	-0.201	-0.132
-670.091	-119.008	0.245	0.043
-669.076	131.461	-0.152	-0.197
-668.062	800.000	0.040	-0.149
-667.047	-149.402	0.217	0.017
-666.032	92.360	0.104	0.118
-665.018	726.139	-0.053	0.143
-664.003	-79.859	0.151	-0.051
-662.989	-106.268	-0.095	0.021
-661.974	800.000	0.052	0.163
-660.959	-45.890	0.060	0.030
-659.945	312.402	-0.078	-0.146
-658.930	-200.000	-0.021	-0.331
-657.916	96.119	-0.147	0.168
-656.901	394.584	-0.106	0.222
-655.886	377.839	-0.097	-0.200
-654.872	74.746	0.337	-0.356
-653.857	-82.457	0.075	0.025
-652.843	65.755	0.061	-0.062
-651.828	458.048	0.130	0.290
-650.814	-64.606	-0.149	-0.061
-649.799	800.000	0.104	-0.298
-648.784	-92.307	0.141	0.040
-647.770	800.000	-0.098	-0.289
-646.755	71.926	-0.039	-0.040
-645.741	-9.413	-0.146	-0.098
-644.726	192.873	0.129	-0.196
-643.711	134.413	-0.102	-0.134
-642.697	-200.000	-0.035	-0.167
-641.682	-157.911	-0.034	-0.002
-640.668	-200.000	0.006	-0.187
-639.653	62.186	-0.022	0.022
-638.638	83.719	-0.169	0.185
-637.624	-84.587	-0.208	0.066
-636.609	800.000	-0.045	0.129
-635.595	243.255	-0.092	0.155
-634.580	-107.957	0.165	-0.036
-633.565	244.828	-0.100	-0.169
-632.551	-34.374	0.107	0.059
-631.536	-109.919	0.073	-0.015
-630.522	36.866	-0.103	-0.092
-629.507	303.248	0.154	-0.287
-628.492	173.541	0.105	-0.152
-627.478	442.038	-0.126	-0.277
-626.463	-200.000	-0.011	-0.094
-625.449	-200.000	0.052	0.253
-624.434	29.408	-0.083	-0.071
-623.419	-200.000	0.010	-0.632
-622.405	10.274	0.111	0.085
-621.390	-107.702	0.279	0.061
-620.376	-200.000	0.001	0.260
-619.361	800.000	-0.093	-0.290
-618.346	108.609	-0.143	0.171
-617.332	26.967	-0.376	-0.317
-616.317	-59.459	-0.189	-0.081
-615.303	-77.913	0.148	-0.051
-614.288	-120.607	0.300	-0.051
-613.273	671.142	-0.101	-0.263
-612.259	12.031	0.019	0.015
-611.244	-200.000	-0.004	0.079
-610.230	800.000	-0.008	0.030
-609.215	-200.000	-0.006	0.100
-608.201	-200.000	-0.016	0.121
-607.186	147.555	-0.036	-0.048
-606.171	138.167	0.030	-0.040
-605.157	-37.371	0.075	-0.040
-604.142	8.422	0.220	-0.166
-603.128	-69.566	0.170	-0.065
-602.113	-200.000	-0.036	-0.163
-601.098	-52.931	-0.123	0.057
-600.084	-200.000	0.006	-0.036
-599.069	800.000	0.020	0.078
-598.055	-12.884	0.141	0.092
-597.040	21.866	0.331	-0.270
-596.025	-102.361	-0.168	0.040
-595.011	-200.000	-0.030	0.142
-593.996	67.868	-0.214	-0.220
-592.982	-84.170	0.428	-0.136
-591.967	-17.374	0.098	-0.062
-590.952	-31.740	-0.217	0.122
-589.938	167.064	0.080	0.114
-588.923	-200.000	-0.061	-0.333
-587.909	-23.223	-0.317	-0.191
-586.894	-43.897	0.277	-0.140
-585.879	-76.783	-0.062	-0.022
-584.865	-76.479	-0.185	0.065
-583.850	-200.000	0.052	0.352
-582.836	68.114	-0.110	-0.113
-581.821	61.972	-0.095	0.094
-580.806	-200.000	0.076	-0.408
-579.792	-38.764	-0.026	-0.014
-578.777	447.599	0.093	-0.206
-577.763	8.631	0.112	0.085
-576.748	1.426	-0.105	0.076
-575.733	81.031	-0.146	0.158
-574.719	199.586	-0.176	-0.270
-573.704	635.071	0.125	0.318
-572.690	-67.583	0.521	0.205
-571.675	278.870	-0.053	-0.095
-570.661	68.851	0.276	-0.284
-569.646	-76.766	0.177	0.062
-568.631	-0.243	0.120	0.086
-567.617	152.833	0.202	-0.276
-566.602	-87.063	-0.104	-0.032
-565.588	37.099	-0.231	0.205
-564.573	-200.000	-0.002	0.206
-563.558	-72.362	-0.164	0.061
-562.544	-200.000	0.010	0.132
-561.529	127.868	0.080	0.102
-560.515	88.034	-0.239	-0.265
-559.500	-114.160	0.137	-0.026
-558.485	318.425	-0.056	0.106
-557.471	-92.618	0.131	-0.037
-556.456	-4.517	-0.319	-0.221
-555.442	59.676	0.115	-0.114
-554.427	-21.226	-0.163	0.100
-553.412	232.301	0.072	-0.118
-552.398	-49.425	-0.099	-0.047
-551.383	99.399	-0.019	-0.022
-550.369	106.585	0.102	0.121
-549.354	-200.000	-0.016	-0.078
-548.339	-200.000	-0.293	-0.001
-547.325	-89.114	0.304	0.090
-546.310	12.455	0.182	0.141
-545.296	-119.223	-0.115	-0.020
-544.281	-24.841	-0.331	-0.197
-543.266	51.530	0.177	-0.169
-542.252	-200.000	0.053	0.245
-541.237	-94.961	0.149	0.040
-540.223	-74.313	-0.213	-0.077
-539.208	60.641	0.102	0.101
-538.193	-128.483	-0.154	-0.022
-537.179	12.540	-0.070	-0.054
-536.164	-43.928	-0.278	-0.140
-535.150	40.442	-0.283	-0.255
-534.135	800.000	-0.069	-0.194
-533.121	-200.000	0.002	0.066
-532.106	-200.000	0.018	-0.227
-531.091	-87.229	-0.137	-0.042
-530.077	-200.000	0.007	0.231
-529.062	190.387	0.044	-0.066
-528.048	240.356	0.109	0.182
-527.033	414.512	0.069	0.147
-526.018	800.000	0.021	0.064
-525.004	-40.325	0.228	-0.119
-523.989	-200.000	-0.020	-0.197
-522.975	-67.321	0.053	0.021
-521.960	-161.458	0.303	0.016
-520.945	21.012	-0.187	0.152
-519.931	-105.238	-0.019	0.004
-518.916	-146.012	-0.272	-0.024
-517.902	99.432	0.159	-0.184
-516.887	10.167	0.284	-0.216
-515.872	261.285	-0.182	0.315
-514.858	-103.846	-0.279	-0.065
-513.843	123.248	0.115	0.144
-512.829	-184.847	-0.064	0.001
-511.814	198.015	-0.121	0.185
-510.799	-156.416	0.293	-0.018
-509.785	-78.922	-0.138	-0.047
-508.770	268.398	0.185	0.325
-507.756	-200.000	0.017	-0.158
-506.741	-88.294	0.167	-0.050
-505.726	98.790	-0.157	-0.181
-504.712	800.000	-0.046	-0.191
-503.697	-6.464	0.034	-0.023
-502.683	-111.040	-0.074	0.015
-501.668	-200.000	-0.049	0.398
-500.653	20.516	-0.171	-0.138
-499.639	172.341	0.033	0.047
-498.624	634.508	0.114	-0.288
-497.610	-150.120	-0.487	0.038
-496.595	-28.400	-0.102	-0.059
-495.581	116.098	0.234	-0.286
-494.566	-200.000	0.001	0.026
-493.551	800.000	-0.093	-0.297
-492.537	474.995	0.057	-0.129
-491.522	95.203	-0.311	0.354
-490.508	-200.000	0.009	-0.107
-489.493	800.000	-0.013	-0.051
-488.478	-124.411	0.202	0.031
-487.464	-69.853	0.256	0.098
-486.449	-27.665	-0.373	0.216
-485.435	-200.000	-0.027	-0.281
-484.420	-48.437	-0.204	0.098
-483.405	638.371	0.150	-0.380
-482.391	426.414	-0.097	-0.208
-481.376	-29.859	0.177	-0.101
-480.362	127.319	-0.176	0.223
-479.347	-174.637	-0.055	0.002
-478.332	-119.108	0.215	-0.038
-477.318	-39.175	0.239	-0.125
-476.303	-44.352	-0.192	-0.096
-475.289	-113.083	0.195	0.038
-474.274	-160.152	-0.241	-0.013
-473.259	67.817	-0.082	0.084
-472.245	-140.823	-0.050	0.005
-471.230	-182.620	0.395	-0.007
-470.216	-4.353	0.141	-0.097
-469.201	-200.000	-0.023	-0.154
-468.186	2.916	0.333	-0.241
-467.172	454.456	-0.108	0.238
-466.157	217.805	-0.194	0.309
-465.143	-200.000	-0.084	0.468
-464.128	93.176	-0.268	0.302
-463.113	-97.173	0.426	-0.111
-462.099	486.494	0.122	0.278
-461.084	32.339	0.099	-0.085
-460.070	86.822	0.344	0.379
-459.055	532.084	0.039	0.092
-458.040	-120.817	-0.310	0.052
-457.026	-200.000	0.002	0.139
-456.011	764.505	-0.112	0.303
-454.997	109.178	-0.198	-0.236
-453.982	90.284	-0.218	-0.243
-452.968	136.443	-0.128	0.166
-451.953	475.042	0.097	-0.219
-450.938	320.369	0.126	-0.239
-449.924	0.273	0.115	0.082
-448.909	-77.315	0.512	0.177
-447.895	106.114	-0.207	-0.245
-446.880	203.821	-0.098	0.151
-445.865	23.576	-0.031	0.025
-444.851	-17.492	-0.405	-0.254
-443.836	-20.693	0.080	0.049
-442.822	93.399	0.215	0.242
-441.807	-200.000	-0.033	0.211
-440.792	800.000	-0.074	-0.217
-439.778	-104.962	0.275	0.063
-438.763	-200.000	0.037	0.213
-437.749	-132.117	0.203	-0.026
-436.734	-200.000	0.071	-0.335
-435.719	-114.482	-0.253	-0.049
-434.705	-96.299	-0.224	0.059
-433.690	97.787	0.065	-0.074
-432.676	101.217	0.108	-0.125
-431.661	-200.000	-0.054	0.319
-430.646	99.440	0.136	-0.156
-429.632	127.954	-0.087	-0.110
-428.617	317.799	0.088	-0.166
-427.603	26.345	-0.158	0.132
-426.588	418.742	-0.086	-0.184
-425.573	58.365	-0.248	-0.242
-424.559	33.617	0.322	0.279
-423.544	-125.006	0.208	-0.032
-422.530	331.314	-0.059	-0.114
-421.515	-200.000	-0.322	-0.001
-420.500	-122.108	-0.212	0.035
-419.486	-200.000	0.028	-0.254
-418.471	8.974	-0.166	0.125
-417.457	-23.623	-0.191	-0.114
-416.442	237.906	0.014	0.023
-415.428	100.417	0.146	-0.169
-414.413	-200.000	-0.000	0.247
-413.398	-200.000	-0.115	0.503
-412.384	245.515	0.163	0.273
-411.369	75.803	0.034	0.036
-410.355	14.260	0.182	-0.142
-409.340	8.507	-0.345	-0.259
-408.325	-200.000	0.029	-0.365
-407.311	12.856	-0.073	-0.057
-406.296	800.000	-0.048	0.205
-405.282	-200.000	-0.002	0.056
-404.267	-10.184	-0.076	0.050
-403.252	40.689	0.114	0.102
-402.238	-200.000	0.005	0.392
-401.223	151.457	0.121	0.164
-400.209	197.853	0.116	-0.177
-399.194	303.979	-0.160	-0.295
-398.179	135.915	-0.239	0.310
-397.165	-53.263	0.309	-0.141
-396.150	-130.858	0.053	0.007
-395.136	424.472	-0.085	0.183
-394.121	-11.167	0.311	0.204
-393.106	228.082	0.186	-0.301
-392.092	584.638	0.053	-0.129
-391.077	572.341	0.088	-0.214
-390.063	63.629	0.044	-0.044
-389.048	-16.832	-0.185	0.117
-388.033	-116.256	-0.149	-0.028
-387.019	-200.000	-0.002	-0.044
-386.004	192.392	-0.100	0.150
-384.990	800.000	-0.019	-0.082
-383.975	-159.143	0.208	-0.012
-382.960	800.000	0.060	0.234
-381.946	-28.533	0.162	-0.093
-380.931	127.030	-0.043	-0.054
-379.917	-3.443	0.062	-0.043
-378.902	800.000	-0.097	-0.322
-377.888	-179.097	-0.376	0.008
-376.873	-123.874	-0.313	-0.049
-375.858	-107.127	-0.367	0.080
-374.844	-9.839	-0.316	0.209
-373.829	372.882	-0.129	0.261
-372.815	18.742	0.117	-0.093
-371.800	800.000	0.031	-0.089
-370.785	132.164	-0.162	0.207
-369.771	-28.534	-0.199	0.114
-368.756	-200.000	-0.023	-0.182
-367.742	800.000	0.027	0.083
-366.727	-3.494	-0.272	-0.188
-365.712	-156.953	-0.031	-0.002
-364.698	500.471	-0.151	-0.346
-363.683	169.574	0.035	0.049
-362.669	-123.215	-0.100	0.016
-361.654	116.371	-0.380	0.463
-360.639	188.616	0.164	-0.243
-359.625	-147.085	-0.322	-0.027
-358.610	548.697	0.099	0.235
-357.596	800.000	-0.019	-0.071
-356.581	262.027	0.049	-0.085
-355.566	-111.137	-0.097	-0.020
-354.552	-200.000	0.049	-0.223
-353.537	378.744	0.088	-0.179
-352.523	321.222	0.034	0.064
-351.508	10.187	0.333	0.252
-350.493	-200.000	0.012	0.114
-349.479	-75.049	0.144	0.051
-348.464	-6.940	-0.399	0.269
-347.450	-200.000	-0.001	-0.175
-346.435	106.395	0.130	0.153
-345.420	-200.000	-0.007	-0.092
-344.406	38.650	0.240	-0.213
-343.391	-15.476	0.142	-0.090
-342.377	-200.000	-0.013	0.245
-341.362	-164.508	-0.176	-0.008
-340.348	-200.000	0.014	-0.184
-339.333	-27.877	0.121	-0.070
-338.318	-46.118	-0.322	0.157
-337.304	56.127	0.055	0.053
-336.289	-200.000	0.040	0.179
-335.275	800.000	0.057	0.223
-334.260	-9.997	0.211	-0.139
-333.245	-58.533	0.302	-0.130
-332.231	-135.381	-0.290	-0.034
-331.216	-200.000	0.000	0.032
-330.202	-200.000	0.069	0.464
-329.187	-200.000	-0.045	0.288
-328.172	4.425	-0.149	-0.108
-327.158	800.000	0.051	-0.196
-326.143	-138.587	-0.459	0.050
-325.129	-56.785	0.160	-0.070
-324.114	1.242	-0.136	0.097
-323.099	109.570	-0.316	0.376
-322.085	-200.000	-0.004	-0.314
-321.070	-97.672	-0.181	0.046
-320.056	-27.373	0.257	-0.148
-319.041	-101.716	-0.152	-0.037
-318.026	19.746	0.129	-0.103
-317.012	-128.254	0.161	-0.023
-315.997	-40.524	-0.184	-0.095
-314.983	193.986	0.129	0.194
-313.968	-102.735	0.381	0.090
-312.953	-200.000	0.005	-0.279
-311.939	402.000	-0.143	0.298
-310.924	-67.558	-0.214	0.083
-309.910	480.927	0.028	-0.063
-308.895	-200.000	0.004	-0.218
-307.880	53.160	0.205	-0.194
-306.866	205.764	0.166	-0.256
-305.851	125.981	-0.185	0.232
-304.837	800.000	-0.038	0.131
-303.822	800.000	0.021	-0.086
-302.807	-98.358	0.307	0.078
-301.793	800.000	-0.054	0.233
-300.778	-67.651	-0.170	0.066
-299.764	98.105	0.084	0.096
-298.749	325.713	0.118	-0.224
-297.735	-16.751	0.384	0.241
-296.720	131.452	-0.137	-0.174
-295.705	800.000	0.068	-0.208
-294.691	-90.986	-0.314	-0.090
-293.676	-138.956	-0.083	-0.009
-292.662	800.000	0.061	0.229
-291.647	-89.290	-0.108	0.032
-290.632	55.244	0.225	-0.216
-289.618	-51.479	-0.182	-0.084
-288.603	-15.379	0.189	0.120
-287.589	800.000	0.083	0.262
-286.574	-55.862	0.184	0.081
-285.559	-12.194	-0.228	0.148
-284.545	-200.000	-0.046	0.289
-283.530	213.511	0.032	-0.050
-282.516	236.260	-0.076	-0.125
-281.501	-2.618	0.334	0.231
-280.486	-20.881	0.196	-0.119
-279.472	97.351	0.275	0.312
-278.457	250.948	0.218	0.367
-277.443	-114.610	-0.111	-0.021
-276.428	-11.414	-0.239	0.156
-275.413	-148.229	0.490	0.040
-274.399	313.878	-0.039	0.072
-273.384	-11.407	-0.021	-0.013
-272.370	-29.635	0.162	0.092
-271.355	-69.212	-0.331	0.126
-270.340	-40.828	-0.265	-0.136
-269.326	-200.000	-0.006	-0.043
-268.311	18.238	0.107	0.085
-267.297	32.849	0.447	0.383
-266.282	39.387	0.156	0.139
-265.267	-155.503	0.249	-0.016
-264.253	-114.536	0.233	-0.044
-263.238	435.115	-0.073	0.157
-262.224	187.891	0.205	0.304
-261.209	184.124	0.135	0.198
-260.195	52.557	0.115	0.109
-259.180	85.876	0.248	0.270
-258.165	-61.674	-0.309	0.128
-257.151	118.954	0.023	0.029
-256.136	-77.245	-0.141	-0.048
-255.122	-46.000	0.192	-0.094
-254.107	89.125	-0.072	0.079
-253.092	202.628	0.295	-0.451
-252.078	-9.341	0.211	0.139
-251.063	-178.158	-0.284	0.007
-250.049	-62.858	0.139	0.057
-249.034	-200.000	-0.012	0.193
-248.019	294.294	0.038	0.069
-247.005	-52.037	-0.304	0.140
-245.990	-37.414	-0.118	-0.063
-244.976	-4.747	0.164	0.112
-243.961	38.218	-0.128	0.112
-242.946	52.872	-0.158	0.150
-241.932	290.212	-0.139	0.249
-240.917	800.000	0.057	0.162
-239.903	-200.000	-0.014	-0.154
-238.888	768.419	-0.155	-0.416
-237.873	-200.000	0.023	0.349
-236.859	4.586	0.175	0.127
-235.844	3.389	0.062	-0.044
-234.830	64.352	0.198	-0.198
-233.815	9.105	-0.096	-0.072
-232.800	-113.258	-0.169	-0.033
-231.786	46.407	0.188	0.173
-230.771	22.920	-0.314	-0.255
-229.757	92.263	-0.125	-0.140
-228.742	-180.674	0.294	-0.006
-227.727	-200.000	-0.034	-0.346
-226.713	120.785	0.235	0.289
-225.698	34.409	-0.084	0.072
-224.684	-200.000	-0.009	0.160
-223.669	20.645	-0.093	0.075
-222.655	195.656	0.104	0.156
-221.640	52.937	0.072	0.068
-220.625	-138.292	0.380	0.041
-219.611	-143.963	0.073	-0.007
-218.596	-36.273	-0.369	0.197
-217.582	-42.872	-0.108	0.054
-216.567	800.000	-0.072	-0.250
-215.552	45.911	-0.150	0.137
-214.538	527.333	0.010	0.024
-213.523	-115.335	0.304	0.057
-212.509	800.000	-0.076	0.319
-211.494	-30.938	-0.083	-0.046
-210.479	74.322	0.103	0.106
-209.465	90.552	-0.255	0.282
-208.450	-100.764	0.213	0.052
-207.436	800.000	-0.019	0.074
-206.421	176.854	0.076	-0.109
-205.406	-93.446	-0.239	0.065
-204.392	-161.997	-0.105	-0.005
-203.377	800.000	-0.091	0.309
-202.363	762.529	0.077	-0.206
-201.348	-42.250	-0.276	0.139
-200.333	-200.000	-0.017	-0.308
-199.319	-127.307	0.052	-0.007
-198.304	365.823	0.051	0.102
-197.290	21.454	-0.191	-0.154
-196.275	11.620	0.179	-0.136
-195.260	-55.030	0.216	0.096
-194.246	74.404	0.168	-0.174
-193.231	-131.218	-0.206	-0.027
-192.217	-200.000	-0.063	0.378
-191.202	-31.125	0.438	0.244
-190.187	743.097	-0.051	0.135
-189.173	31.364	-0.054	-0.046
-188.158	125.172	-0.204	-0.254
-187.144	-55.097	0.225	0.100
-186.129	5.855	-0.389	-0.284
-185.114	56.763	-0.135	-0.130
-184.100	-200.000	-0.021	-0.287
-183.085	519.012	0.082	0.190
-182.071	90.366	0.086	-0.095
-181.056	197.121	0.120	-0.181
-180.042	178.897	-0.140	0.202
-179.027	-200.000	-0.001	0.012
-178.012	-56.399	0.367	-0.161
-176.998	318.818	-0.204	0.382
-175.983	14.658	-0.274	0.211
-174.969	-200.000	-0.000	0.103
-173.954	-155.175	-0.142	0.009
-172.939	-57.586	-0.310	-0.134
-171.925	-10.237	0.221	0.145
-170.910	-59.969	0.334	-0.141
-169.896	400.688	-0.187	-0.386
-168.881	-200.000	-0.028	-0.264
-167.866	-151.716	0.330	0.024
-166.852	-167.258	0.214	-0.009
-165.837	5.937	-0.162	0.119
-164.823	307.057	0.120	-0.220
-163.808	800.000	0.080	-0.227
-162.793	-134.653	0.110	0.013
-161.779	173.401	-0.043	0.062
-160.764	-200.000	-0.045	-0.199
-159.750	800.000	0.064	-0.234
-158.735	-200.000	-0.019	-0.196
-157.720	-200.000	0.053	-0.350
-156.706	-200.000	0.028	0.205
-155.691	117.525	0.223	-0.270
-154.677	10.561	-0.185	0.139
-153.662	105.841	-0.142	0.166
-152.647	-13.948	0.255	0.162
-151.633	-15.196	-0.062	-0.039
-150.618	-32.095	0.305	0.168
-149.604	-27.188	0.066	-0.038
-148.589	-6.321	-0.233	0.156
-147.574	-200.000	-0.035	0.192
-146.560	451.675	-0.030	0.066
-145.545	264.939	0.123	0.212
-144.531	-33.716	0.246	-0.134
-143.516	18.321	-0.317	-0.250
-142.502	-157.327	-0.034	0.002
-141.487	-84.391	0.471	-0.147
-140.472	243.747	0.072	0.119
-139.458	0.611	-0.146	-0.103
-138.443	800.000	-0.014	-0.047
-137.429	364.272	0.186	-0.368
-136.414	-130.688	0.326	0.043
-135.399	-126.715	-0.242	0.035
-134.385	692.342	0.120	0.309
-133.370	-185.035	-0.257	0.004
-132.356	82.851	0.249	-0.266
-131.341	-136.580	-0.106	0.012
-130.326	800.000	0.052	0.167
-129.312	-116.357	0.401	-0.073
-128.297	-64.056	-0.194	-0.078
-127.283	-200.000	0.012	-0.123
-126.268	800.000	0.047	0.145
-125.253	132.425	-0.300	-0.381
-124.239	68.713	0.037	0.037
-123.224	145.388	0.176	-0.231
-122.210	800.000	0.073	-0.292
-121.195	11.787	-0.097	-0.073
-120.180	800.000	0.100	0.321
