DTS Sentinel unit serial number:	SN413079Multiplexer serial number:	ORYXHardware model number:	OX4-SRSoftware version number:	ORYX F/W v4.00 Oryx Data Collector v3.7.2.0data status	okinstallation	princeton_trtdifferential loss correction	single-endedforward channel	channel 2reverse channel	N/Adate	2019/09/12time	23:19:35forward acquisition time	60.00reverse acquisition time	0.00gamma	496.2192k internal	0.2332k external	0.2332temperature offset calibration	1.0169default loss term (dB/km)	0.3790temperature slope calibration	1.0000multiplexer offset coefficient	1.0000multiplexer slope coefficient	1.0000fibre end	0.00T internal ref (°C)	29.11T ext. ref 1 (°C)	3.73T ext. ref 2 (°C)	23.68length (m)	temperature (°C)	Stokes	anti-Stokes-747.200	-200.000	0.007	0.177
-746.185	-26.944	-0.212	0.125
-745.171	-163.393	0.375	-0.018
-744.156	87.637	-0.065	0.072
-743.142	46.716	0.282	0.264
-742.127	-171.248	-0.070	-0.002
-741.112	-19.117	0.237	0.148
-740.098	-16.747	-0.069	-0.044
-739.083	-36.145	0.319	-0.173
-738.069	-76.091	-0.418	0.148
-737.054	139.116	-0.105	0.139
-736.039	705.019	-0.032	0.084
-735.025	-200.000	-0.001	-0.088
-734.010	-71.642	-0.322	-0.121
-732.996	-200.000	0.005	-0.078
-731.981	-89.047	-0.397	-0.118
-730.966	-96.191	0.220	-0.059
-729.952	4.434	-0.124	-0.091
-728.937	-200.000	0.005	-0.340
-727.923	800.000	0.085	0.244
-726.908	-94.135	-0.257	-0.071
-725.894	-14.396	-0.283	-0.183
-724.879	-140.246	0.037	-0.004
-723.864	-200.000	0.047	0.223
-722.850	-200.000	-0.013	-0.089
-721.835	-117.502	-0.251	-0.046
-720.821	635.718	0.077	-0.197
-719.806	134.602	-0.159	-0.208
-718.791	148.594	0.202	-0.274
-717.777	364.560	-0.086	0.173
-716.762	63.793	0.248	-0.250
-715.748	-200.000	-0.041	-0.185
-714.733	65.270	-0.149	-0.152
-713.718	800.000	0.012	0.036
-712.704	-195.638	-0.348	-0.003
-711.689	800.000	0.073	-0.220
-710.675	-200.000	0.022	0.113
-709.660	-186.442	0.288	-0.004
-708.645	-200.000	-0.013	0.194
-707.631	800.000	-0.025	-0.073
-706.616	-37.921	0.304	0.162
-705.602	-32.611	-0.115	0.064
-704.587	-200.000	0.025	0.153
-703.572	22.360	-0.034	0.028
-702.558	727.652	-0.080	0.214
-701.543	-92.665	-0.119	0.034
-700.529	166.928	0.109	0.155
-699.514	-43.419	-0.197	-0.100
-698.499	548.788	-0.036	-0.086
-697.485	109.111	-0.015	0.018
-696.470	-96.927	0.330	-0.087
-695.456	87.230	-0.184	0.205
-694.441	40.465	0.061	0.055
-693.426	697.806	-0.018	-0.047
-692.412	-128.250	0.619	0.089
-691.397	484.465	-0.156	-0.356
-690.383	-21.596	-0.175	-0.107
-689.368	-116.171	-0.324	-0.060
-688.354	-155.699	0.092	0.006
-687.339	145.330	0.114	0.153
-686.324	-85.795	-0.276	-0.086
-685.310	46.661	0.296	0.276
-684.295	-42.950	-0.248	-0.126
-683.281	91.187	-0.130	-0.147
-682.266	31.113	-0.114	0.098
-681.251	163.795	0.056	-0.080
-680.237	220.130	0.103	0.165
-679.222	-52.660	-0.101	0.047
-678.208	20.821	-0.274	-0.223
-677.193	-31.001	-0.062	-0.035
-676.178	171.785	-0.143	0.205
-675.164	800.000	-0.051	0.210
-674.149	-41.732	-0.120	-0.062
-673.135	8.073	-0.289	0.217
-672.120	-68.784	0.131	-0.051
-671.105	-99.059	-0.278	0.071
-670.091	-200.000	-0.016	0.225
-669.076	800.000	-0.012	-0.045
-668.062	696.027	0.175	0.460
-667.047	-57.871	-0.160	0.070
-666.032	179.872	0.161	0.237
-665.018	-11.157	-0.278	0.184
-664.003	232.671	-0.096	-0.159
-662.989	58.531	-0.218	-0.214
-661.974	-59.248	-0.116	-0.050
-660.959	84.588	-0.115	-0.127
-659.945	401.147	-0.085	-0.179
-658.930	-0.751	0.143	-0.102
-657.916	-200.000	-0.065	-0.310
-656.901	-112.671	0.140	0.028
-655.886	-200.000	0.006	-0.115
-654.872	468.871	-0.068	-0.153
-653.857	-200.000	-0.017	-0.245
-652.843	-200.000	-0.013	0.197
-651.828	109.540	-0.188	-0.225
-650.814	128.734	0.147	-0.188
-649.799	7.486	0.153	-0.114
-648.784	5.027	-0.255	-0.188
-647.770	-96.416	0.375	-0.099
-646.755	-200.000	-0.059	-0.326
-645.741	493.847	0.078	-0.179
-644.726	-200.000	-0.010	-0.049
-643.711	163.309	-0.276	0.388
-642.697	-102.569	-0.250	-0.060
-641.682	-145.398	0.293	-0.026
-640.668	-168.002	-0.197	-0.008
-639.653	-200.000	0.036	0.340
-638.638	-96.054	-0.124	-0.033
-637.624	155.750	-0.126	0.174
-636.609	138.361	0.219	0.288
-635.595	800.000	-0.041	0.158
-634.580	-88.992	0.230	0.068
-633.565	610.871	-0.197	-0.493
-632.551	800.000	0.043	0.147
-631.536	61.152	-0.106	-0.106
-630.522	153.858	0.093	-0.128
-629.507	27.741	-0.022	-0.018
-628.492	-200.000	0.041	0.186
-627.478	-51.131	-0.254	-0.119
-626.463	27.787	-0.245	0.206
-625.449	-200.000	0.030	-0.139
-624.434	-41.674	-0.089	0.046
-623.419	-75.737	-0.374	0.133
-622.405	687.200	0.018	-0.047
-621.390	-45.719	0.247	-0.122
-620.376	382.065	-0.083	-0.170
-619.361	142.267	0.247	-0.328
-618.346	161.065	-0.128	-0.179
-617.332	-69.552	-0.456	-0.175
-616.317	-200.000	-0.017	0.376
-615.303	800.000	-0.089	-0.276
-614.288	-200.000	-0.026	-0.183
-613.273	-20.260	0.099	-0.061
-612.259	-200.000	-0.023	0.115
-611.244	57.718	-0.214	-0.210
-610.230	53.469	-0.096	0.092
-609.215	39.739	-0.196	-0.176
-608.201	-111.781	-0.311	0.063
-607.186	-43.328	-0.170	0.086
-606.171	44.643	0.209	-0.192
-605.157	-200.000	0.020	-0.186
-604.142	-3.841	-0.218	-0.152
-603.128	192.928	0.084	-0.127
-602.113	-64.191	0.078	0.032
-601.098	54.012	-0.120	-0.115
-600.084	-65.056	0.294	0.119
-599.069	169.459	0.058	-0.083
-598.055	-123.245	0.291	0.047
-597.040	-123.274	0.105	0.017
-596.025	-133.510	0.112	0.014
-595.011	23.310	-0.102	0.083
-593.996	61.825	0.299	0.298
-592.982	92.017	-0.111	-0.125
-591.967	-93.801	-0.230	0.063
-590.952	8.009	0.139	-0.104
-589.938	-174.662	-0.418	0.012
-588.923	-131.123	-0.413	-0.055
-587.909	159.722	-0.115	-0.159
-586.894	-113.547	0.124	0.024
-585.879	-74.617	0.224	-0.081
-584.865	-52.766	0.222	-0.102
-583.850	-195.177	0.139	0.001
-582.836	-200.000	0.017	-0.096
-581.821	452.324	0.081	0.180
-580.806	-200.000	-0.056	0.305
-579.792	450.244	-0.062	-0.136
-578.777	111.406	0.155	0.186
-577.763	275.528	-0.157	0.278
-576.748	137.304	-0.167	0.218
-575.733	800.000	0.064	0.279
-574.719	-160.844	0.045	0.002
-573.704	-200.000	0.079	0.388
-572.690	104.887	0.343	-0.404
-571.675	-200.000	-0.023	-0.191
-570.661	2.914	-0.233	0.169
-569.646	-105.577	-0.258	-0.059
-568.631	-200.000	-0.010	0.274
-567.617	-200.000	0.008	-0.094
-566.602	14.000	0.243	0.189
-565.588	800.000	0.090	-0.262
-564.573	44.201	0.179	-0.164
-563.558	800.000	0.074	0.208
-562.544	-153.174	-0.178	0.012
-561.529	-184.358	-0.380	-0.006
-560.515	-158.350	-0.227	0.013
-559.500	-101.583	0.200	0.049
-558.485	-163.961	0.192	-0.009
-557.471	-35.088	-0.055	0.030
-556.456	-10.916	0.364	-0.240
-555.442	255.869	0.109	-0.187
-554.427	-19.886	0.349	-0.215
-553.412	-137.582	-0.246	0.028
-552.398	-34.358	-0.050	0.027
-551.383	94.313	-0.175	0.199
-550.369	357.293	-0.084	0.167
-549.354	314.362	0.107	0.201
-548.339	-17.950	0.136	-0.085
-547.325	-200.000	0.022	0.167
-546.310	-130.038	0.029	0.004
-545.296	-200.000	0.000	-0.146
-544.281	800.000	0.068	0.267
-543.266	48.415	0.100	-0.093
-542.252	-6.261	-0.096	-0.066
-541.237	-200.000	0.005	0.178
-540.223	-6.159	0.094	0.064
-539.208	-159.172	0.306	-0.017
-538.193	-91.669	-0.241	-0.068
-537.179	16.373	0.135	0.107
-536.164	493.781	-0.102	0.234
-535.150	279.285	-0.164	0.293
-534.135	149.758	0.074	-0.100
-533.121	-200.000	0.043	0.421
-532.106	230.079	-0.087	0.141
-531.091	-200.000	0.003	-0.127
-530.077	490.095	0.129	-0.293
-529.062	-11.900	-0.159	-0.104
-528.048	-110.129	-0.160	-0.033
-527.033	-200.000	-0.025	0.202
-526.018	81.269	0.244	0.263
-525.004	-160.070	-0.248	-0.013
-523.989	-74.217	-0.192	-0.069
-522.975	-38.480	0.150	0.079
-521.960	-77.956	0.100	-0.034
-520.945	-27.999	0.080	0.046
-519.931	-23.177	-0.242	0.145
-518.916	-130.262	0.292	0.040
-517.902	180.074	0.163	-0.238
-516.887	215.609	-0.133	-0.211
-515.872	153.254	-0.133	0.182
-514.858	-6.675	0.085	0.058
-513.843	305.357	-0.148	-0.274
-512.829	-7.139	0.067	-0.045
-511.814	115.618	0.209	0.254
-510.799	-27.453	0.433	-0.251
-509.785	-200.000	-0.012	0.067
-508.770	6.998	0.149	0.111
-507.756	-40.354	-0.318	0.165
-506.741	-74.759	-0.067	-0.024
-505.726	137.227	0.117	0.153
-504.712	-44.530	-0.088	0.044
-503.697	-200.000	-0.007	-0.049
-502.683	406.237	0.071	-0.148
-501.668	800.000	0.008	-0.024
-500.653	713.527	0.124	-0.328
-499.639	188.411	0.058	-0.086
-498.624	-80.815	0.248	0.082
-497.610	-95.125	-0.198	0.053
-496.595	-75.218	-0.123	-0.044
-495.581	800.000	-0.084	0.235
-494.566	800.000	-0.121	0.342
-493.551	-200.000	-0.023	-0.136
-492.537	-200.000	0.003	0.272
-491.522	620.454	-0.078	0.195
-490.508	299.222	0.225	0.412
-489.493	800.000	-0.022	0.063
-488.478	-73.610	0.077	0.028
-487.464	-172.740	0.277	-0.009
-486.449	305.893	-0.004	0.008
-485.435	-63.992	0.265	0.108
-484.420	55.614	0.087	-0.084
-483.405	164.989	-0.107	-0.150
-482.391	76.978	0.101	0.107
-481.376	-50.306	-0.071	0.033
-480.362	-166.412	0.390	-0.016
-479.347	-120.523	-0.334	-0.056
-478.332	-83.520	0.202	-0.064
-477.318	65.590	-0.183	0.184
-476.303	-200.000	-0.022	0.162
-475.289	-147.779	-0.187	0.016
-474.274	-7.454	-0.268	-0.180
-473.259	-200.000	0.045	-0.221
-472.245	179.484	-0.069	0.101
-471.230	-200.000	0.044	0.375
-470.216	800.000	-0.105	-0.396
-469.201	800.000	0.058	-0.208
-468.186	-33.515	0.180	0.099
-467.172	221.427	-0.096	-0.153
-466.157	14.485	-0.173	-0.134
-465.143	176.823	0.240	-0.347
-464.128	85.213	0.118	-0.129
-463.113	292.446	0.073	0.133
-462.099	-200.000	-0.026	0.168
-461.084	-30.129	-0.070	0.039
-460.070	-61.989	0.213	-0.089
-459.055	-119.197	-0.355	-0.062
-458.040	-38.262	0.179	0.094
-457.026	-200.000	-0.017	-0.157
-456.011	-124.186	-0.220	-0.034
-454.997	800.000	0.057	-0.163
-453.982	571.138	0.053	-0.129
-452.968	452.275	0.071	0.157
-451.953	266.959	0.162	0.281
-450.938	207.315	0.187	-0.290
-449.924	-12.000	-0.093	-0.061
-448.909	-200.000	-0.026	0.212
-447.895	-50.166	-0.243	0.114
-446.880	-88.795	-0.125	0.037
-445.865	-77.128	0.054	0.019
-444.851	391.382	0.085	-0.176
-443.836	166.453	-0.130	-0.183
-442.822	-200.000	-0.028	-0.340
-441.807	-200.000	0.015	-0.182
-440.792	800.000	0.094	-0.283
-439.778	-150.135	-0.096	0.007
-438.763	112.817	-0.199	0.240
-437.749	800.000	0.093	0.265
-436.734	-200.000	-0.025	0.202
-435.719	-103.101	-0.232	0.055
-434.705	-20.359	-0.147	0.090
-433.690	-58.619	0.124	0.054
-432.676	30.972	-0.235	-0.200
-431.661	-48.824	-0.356	0.170
-430.646	60.253	-0.215	-0.212
-429.632	-200.000	0.059	0.257
-428.617	-96.786	-0.188	0.049
-427.603	-5.622	-0.247	-0.168
-426.588	-41.673	0.182	-0.093
-425.573	-200.000	0.035	-0.186
-424.559	156.303	0.151	-0.207
-423.544	17.346	-0.128	-0.101
-422.530	232.247	0.069	0.113
-421.515	72.069	0.084	0.087
-420.500	-77.966	0.181	-0.062
-419.486	30.122	-0.196	0.166
-418.471	800.000	0.082	0.271
-417.457	-141.807	0.404	0.040
-416.442	-200.000	-0.010	0.072
-415.428	-200.000	0.019	-0.360
-414.413	552.955	-0.028	-0.068
-413.398	69.599	0.201	-0.206
-412.384	-15.176	-0.262	-0.167
-411.369	-72.842	0.136	0.050
-410.355	119.549	0.163	0.200
-409.340	-200.000	-0.021	0.178
-408.325	-134.376	0.202	-0.025
-407.311	387.396	0.060	-0.123
-406.296	306.604	-0.135	-0.249
-405.282	-200.000	0.003	0.090
-404.267	-190.348	-0.220	-0.002
-403.252	-79.118	0.096	0.032
-402.238	-75.680	0.376	-0.133
-401.223	259.097	-0.232	0.398
-400.209	-200.000	0.005	-0.085
-399.194	-200.000	-0.013	-0.218
-398.179	-200.000	-0.009	-0.059
-397.165	-78.208	0.213	0.073
-396.150	433.833	0.194	-0.418
-395.136	-57.965	-0.094	0.041
-394.121	-24.630	0.094	-0.055
-393.106	-126.955	-0.258	-0.038
-392.092	46.515	-0.129	0.119
-391.077	-200.000	-0.040	-0.246
-390.063	800.000	-0.049	-0.184
-389.048	-132.528	-0.265	0.034
-388.033	195.578	-0.045	0.068
-387.019	440.850	0.039	-0.084
-386.004	253.195	0.197	0.334
-384.990	-93.309	-0.117	0.032
-383.975	-34.266	0.279	-0.152
-382.960	-73.629	-0.084	-0.030
-381.946	-40.775	-0.113	0.058
-380.931	800.000	0.033	-0.123
-379.917	-50.104	0.150	0.070
-378.902	-105.068	0.227	0.052
-377.888	-200.000	-0.026	0.158
-376.873	800.000	-0.069	-0.190
-375.858	-200.000	-0.062	0.383
-374.844	-200.000	0.013	-0.155
-373.829	-4.647	-0.116	-0.079
-372.815	-133.682	-0.394	0.049
-371.800	-72.478	-0.157	-0.058
-370.785	-200.000	0.034	0.226
-369.771	-136.852	0.279	-0.032
-368.756	-3.342	-0.108	0.075
-367.742	246.710	-0.032	-0.053
-366.727	-200.000	0.033	0.171
-365.712	-200.000	-0.027	0.117
-364.698	645.467	0.028	-0.071
-363.683	-200.000	-0.036	-0.308
-362.669	-96.051	-0.230	0.061
-361.654	-178.502	0.090	0.002
-360.639	286.560	0.042	-0.075
-359.625	159.830	0.205	0.283
-358.610	574.632	0.064	0.154
-357.596	52.036	-0.113	-0.107
-356.581	-5.311	-0.192	0.131
-355.566	800.000	-0.044	0.187
-354.552	34.847	0.206	-0.178
-353.537	-200.000	-0.001	0.078
-352.523	-127.877	-0.206	-0.029
-351.508	-129.592	-0.316	-0.043
-350.493	422.310	0.137	-0.292
-349.479	800.000	0.056	-0.156
-348.464	-70.530	0.028	0.010
-347.450	-18.356	0.170	-0.105
-346.435	144.673	-0.156	-0.207
-345.420	-86.425	0.110	0.033
-344.406	800.000	-0.100	-0.424
-343.391	-173.780	0.448	0.013
-342.377	-56.796	0.389	0.170
-341.362	-64.841	-0.239	-0.096
-340.348	800.000	-0.027	-0.111
-339.333	-76.587	-0.225	-0.078
-338.318	-18.858	-0.161	0.099
-337.304	-14.125	-0.344	0.219
-336.289	-94.250	0.319	-0.086
-335.275	112.506	-0.197	-0.236
-334.260	800.000	-0.076	0.227
-333.245	52.515	-0.370	0.350
-332.231	125.627	0.188	-0.235
-331.216	-200.000	0.006	-0.384
-330.202	533.879	-0.094	-0.219
-329.187	-51.033	0.064	-0.030
-328.172	-102.672	-0.487	-0.115
-327.158	-200.000	0.004	-0.223
-326.143	-6.836	0.057	-0.038
-325.129	31.073	0.191	0.162
-324.114	51.372	-0.185	0.174
-323.099	-125.300	-0.313	-0.047
-322.085	-10.711	-0.309	-0.202
-321.070	-55.958	0.235	-0.104
-320.056	-200.000	0.041	-0.240
-319.041	-151.351	0.366	0.027
-318.026	800.000	-0.143	-0.409
-317.012	-136.102	0.101	0.012
-315.997	37.167	-0.176	0.154
-314.983	735.263	0.057	0.152
-313.968	-145.037	-0.013	-0.001
-312.953	-78.507	-0.035	0.012
-311.939	-145.769	-0.335	0.030
-310.924	15.686	0.239	0.186
-309.910	-200.000	0.011	0.434
-308.895	60.075	0.190	-0.186
-307.880	-104.226	-0.419	0.096
-306.866	-200.000	-0.049	0.535
-305.851	55.596	-0.095	-0.091
-304.837	-93.377	-0.122	0.033
-303.822	-200.000	0.025	0.150
-302.807	800.000	0.077	-0.213
-301.793	623.654	-0.037	0.092
-300.778	-200.000	0.052	0.476
-299.764	683.836	-0.046	0.117
-298.749	800.000	0.075	-0.232
-297.735	336.341	0.104	0.199
-296.720	-161.064	0.206	0.011
-295.705	656.942	0.040	0.101
-294.691	20.110	-0.262	0.209
-293.676	800.000	0.072	-0.216
-292.662	362.911	-0.098	0.195
-291.647	-48.853	0.161	0.077
-290.632	444.193	0.109	-0.235
-289.618	-18.097	0.358	0.221
-288.603	-158.334	0.265	0.015
-287.589	-200.000	-0.024	0.105
-286.574	-91.221	-0.102	0.029
-285.559	93.640	-0.143	0.160
-284.545	-36.371	0.320	0.170
-283.530	800.000	0.064	-0.178
-282.516	-119.474	0.222	-0.038
-281.501	466.689	-0.098	-0.218
-280.486	-200.000	0.007	0.076
-279.472	-51.123	0.434	-0.201
-278.457	800.000	0.062	0.256
-277.443	-106.352	-0.304	-0.067
-276.428	289.373	-0.089	-0.159
-275.413	-182.228	0.105	0.002
-274.399	81.094	-0.150	-0.160
-273.384	555.437	0.012	-0.028
-272.370	-200.000	0.009	-0.165
-271.355	163.074	-0.113	0.156
-270.340	79.743	-0.064	0.067
-269.326	-133.091	0.069	0.009
-268.311	46.495	0.235	0.215
-267.297	732.066	-0.019	-0.051
-266.282	-38.311	-0.257	-0.134
-265.267	42.256	0.242	0.217
-264.253	-78.443	-0.064	-0.022
-263.238	180.633	-0.170	-0.246
-262.224	33.456	-0.161	0.138
-261.209	-128.097	-0.319	0.045
-260.195	16.027	0.104	0.081
-259.180	-94.038	-0.362	0.098
-258.165	800.000	-0.030	0.123
-257.151	375.215	-0.049	0.098
-256.136	-98.076	0.250	0.063
-255.122	1.521	0.175	-0.125
-254.107	-29.754	-0.132	0.074
-253.092	-56.342	0.224	0.098
-252.078	-27.460	0.204	0.117
-251.063	86.446	-0.054	0.059
-250.049	-200.000	0.008	0.101
-249.034	118.639	0.035	-0.042
-248.019	-25.150	0.095	-0.055
-247.005	-200.000	0.043	-0.281
-245.990	264.736	0.210	-0.361
-244.976	-43.627	0.030	-0.015
-243.961	122.144	0.319	0.392
-242.946	-59.776	0.134	-0.056
-241.932	234.202	-0.130	0.212
-240.917	-115.027	0.239	0.045
-239.903	54.045	0.215	-0.204
-238.888	56.428	0.126	-0.121
-237.873	92.678	0.066	-0.073
-236.859	630.872	0.080	-0.199
-235.844	800.000	0.075	0.259
-234.830	-125.616	0.220	-0.033
-233.815	-200.000	0.021	0.497
-232.800	33.595	-0.147	0.126
-231.786	36.412	-0.252	0.219
-230.771	-30.765	0.342	-0.191
-229.757	484.223	-0.200	0.449
-228.742	-116.008	-0.345	0.063
-227.727	49.920	0.203	0.189
-226.713	196.179	-0.116	0.174
-225.698	-145.851	0.013	0.001
-224.684	8.381	0.270	0.200
-223.669	140.894	-0.130	-0.170
-222.655	-47.882	0.270	-0.129
-221.640	-200.000	-0.011	0.211
-220.625	800.000	-0.038	0.108
-219.611	-45.951	-0.183	0.089
-218.596	77.201	0.097	0.102
-217.582	-110.413	-0.041	0.008
-216.567	147.743	-0.021	0.028
-215.552	25.249	0.252	-0.207
-214.538	125.740	-0.055	0.068
-213.523	-200.000	0.019	-0.183
-212.509	194.040	-0.102	-0.153
-211.494	-200.000	0.021	-0.180
-210.479	660.889	0.015	-0.037
-209.465	632.128	0.058	-0.144
-208.450	348.163	-0.152	-0.294
-207.436	800.000	-0.042	-0.150
-206.421	800.000	0.072	-0.258
-205.406	-200.000	-0.000	0.151
-204.392	-174.678	0.111	-0.003
-203.377	328.338	0.054	-0.103
-202.363	-68.571	-0.333	-0.127
-201.348	-200.000	0.093	0.450
-200.333	33.965	-0.048	-0.041
-199.319	5.473	0.150	-0.109
-198.304	193.561	0.154	-0.229
-197.290	233.317	0.108	-0.175
-196.275	-157.752	0.205	0.012
-195.260	-200.000	0.018	0.118
-194.246	-72.877	-0.235	-0.085
-193.231	-108.581	0.151	-0.032
-192.217	-144.536	-0.160	0.015
-191.202	-200.000	0.041	-0.231
-190.187	-200.000	-0.007	-0.275
-189.173	-200.000	-0.055	-0.289
-188.158	100.329	-0.232	-0.265
-187.144	-101.475	0.336	-0.081
-186.129	-27.360	0.162	0.093
-185.114	673.590	-0.113	0.288
-184.100	122.753	0.151	0.186
-183.085	80.245	0.158	0.168
-182.071	399.948	-0.092	0.189
-181.056	-72.905	0.198	0.071
-180.042	-200.000	-0.019	0.269
-179.027	-135.021	-0.141	-0.017
-178.012	94.945	0.161	-0.180
-176.998	-4.308	-0.244	-0.166
-175.983	-1.443	0.339	-0.235
-174.969	51.587	-0.350	-0.327
-173.954	11.307	-0.294	-0.221
-172.939	139.894	-0.270	0.350
-171.925	167.263	0.161	0.225
-170.910	-200.000	-0.033	0.171
-169.896	99.751	-0.290	0.330
-168.881	27.693	-0.219	-0.181
-167.866	0.435	0.281	-0.197
-166.852	296.166	-0.117	0.211
-165.837	-18.792	0.141	0.086
-164.823	20.891	0.094	-0.075
-163.808	94.919	0.101	-0.113
-162.793	-146.416	-0.289	-0.025
-161.779	6.066	0.185	-0.135
-160.764	383.351	-0.059	-0.119
-159.750	-68.569	0.245	0.093
-158.735	-65.816	0.273	0.107
-157.720	293.602	-0.032	0.057
-156.706	-48.366	-0.199	-0.094
-155.691	-116.017	0.092	0.017
-154.677	-32.966	-0.293	0.160
-153.662	119.042	0.146	-0.178
-152.647	250.755	-0.073	-0.122
-151.633	302.433	-0.041	-0.075
-150.618	86.521	-0.073	-0.079
-149.604	-92.255	-0.163	-0.045
-148.589	196.591	0.202	0.302
-147.574	800.000	0.044	-0.140
-146.560	637.420	-0.130	-0.324
-145.545	82.748	0.223	0.238
-144.531	-104.736	-0.189	-0.043
-143.516	-91.338	-0.016	-0.005
-142.502	38.796	0.030	-0.026
-141.487	257.002	0.201	-0.340
-140.472	277.313	-0.162	-0.283
-139.458	-108.602	-0.046	0.010
-138.443	800.000	0.100	-0.420
-137.429	800.000	-0.096	-0.286
-136.414	-200.000	-0.018	-0.078
-135.399	389.914	0.111	0.227
-134.385	-200.000	0.053	0.266
-133.370	710.539	-0.158	0.409
-132.356	39.221	0.212	0.186
-131.341	800.000	-0.075	0.204
-130.326	-199.396	-0.349	-0.002
-129.312	-200.000	0.001	-0.032
-128.297	23.941	0.214	0.173
-127.283	-108.817	-0.158	-0.033
-126.268	21.906	0.092	0.074
-125.253	-133.683	0.258	0.032
-124.239	242.759	0.039	-0.064
-123.224	-26.694	0.267	0.153
-122.210	-66.033	-0.056	-0.022
-121.195	327.898	-0.155	0.292
