DTS Sentinel unit serial number:	SN413079Multiplexer serial number:	ORYXHardware model number:	OX4-SRSoftware version number:	ORYX F/W v4.00 Oryx Data Collector v3.7.2.0data status	okinstallation	princeton_trtdifferential loss correction	single-endedforward channel	channel 2reverse channel	N/Adate	2019/09/19time	07:31:35forward acquisition time	60.00reverse acquisition time	0.00gamma	496.2192k internal	0.2351k external	0.2351temperature offset calibration	1.0011default loss term (dB/km)	0.3790temperature slope calibration	1.0000multiplexer offset coefficient	1.0000multiplexer slope coefficient	1.0000fibre end	0.00T internal ref (°C)	19.25T ext. ref 1 (°C)	0.55T ext. ref 2 (°C)	13.98length (m)	temperature (°C)	Stokes	anti-Stokes-747.200	-200.000	0.016	-0.241
-746.185	-119.742	-0.281	-0.048
-745.171	800.000	-0.111	0.337
-744.156	-37.415	0.127	-0.068
-743.142	-200.000	0.002	-0.057
-742.127	-65.677	-0.097	-0.039
-741.112	-18.175	0.386	0.241
-740.098	800.000	-0.058	0.226
-739.083	-153.439	0.271	0.019
-738.069	-135.722	-0.367	0.043
-737.054	-200.000	-0.014	-0.187
-736.039	-59.904	-0.140	0.060
-735.025	109.963	0.307	0.368
-734.010	-63.517	-0.678	-0.278
-732.996	-200.000	0.031	0.208
-731.981	-182.866	0.304	0.005
-730.966	62.273	-0.352	-0.351
-729.952	94.325	0.221	-0.250
-728.937	800.000	-0.019	-0.056
-727.923	-129.617	-0.222	0.031
-726.908	-200.000	-0.029	0.222
-725.894	-33.290	-0.091	-0.050
-724.879	155.870	-0.045	-0.061
-723.864	99.253	-0.065	-0.075
-722.850	-84.166	-0.312	-0.099
-721.835	-200.000	0.001	-0.156
-720.821	-200.000	-0.045	-0.376
-719.806	172.805	0.135	0.193
-718.791	800.000	-0.117	-0.382
-717.777	274.087	-0.037	-0.066
-716.762	82.895	0.137	0.149
-715.748	-73.647	0.092	-0.033
-714.733	-109.235	-0.306	0.065
-713.718	-200.000	-0.000	-0.101
-712.704	800.000	0.022	-0.061
-711.689	51.604	-0.156	0.148
-710.675	10.078	-0.196	-0.148
-709.660	100.220	0.081	-0.093
-708.645	127.794	-0.299	0.379
-707.631	559.226	0.066	-0.159
-706.616	-200.000	-0.054	0.339
-705.602	-200.000	-0.000	0.072
-704.587	85.880	0.177	-0.194
-703.572	446.093	0.211	-0.463
-702.558	19.131	0.103	0.082
-701.543	800.000	0.028	0.099
-700.529	428.035	-0.038	-0.083
-699.514	102.169	-0.232	0.270
-698.499	-200.000	0.014	0.353
-697.485	-200.000	0.070	-0.357
-696.470	204.999	0.183	-0.283
-695.456	20.543	0.301	0.242
-694.441	640.529	0.122	-0.309
-693.426	185.760	0.151	0.224
-692.412	26.730	-0.216	0.180
-691.397	-21.964	0.181	0.109
-690.383	-73.144	-0.270	0.098
-689.368	-113.071	0.215	0.042
-688.354	-200.000	0.008	-0.496
-687.339	800.000	-0.020	0.066
-686.324	800.000	0.079	-0.235
-685.310	-200.000	0.087	0.467
-684.295	70.870	-0.120	0.124
-683.281	21.548	-0.255	-0.207
-682.266	325.595	-0.075	0.142
-681.251	57.919	0.151	-0.147
-680.237	24.312	0.286	0.235
-679.222	-141.677	0.273	0.027
-678.208	-27.317	0.032	-0.019
-677.193	-100.998	0.349	0.085
-676.178	-200.000	0.006	0.190
-675.164	553.327	-0.070	0.167
-674.149	-9.479	-0.226	-0.150
-673.135	267.108	0.125	-0.217
-672.120	-73.861	-0.121	0.044
-671.105	-200.000	0.022	0.298
-670.091	-59.789	-0.171	-0.073
-669.076	-11.109	0.228	-0.149
-668.062	-159.258	-0.394	0.022
-667.047	-200.000	0.017	0.076
-666.032	-200.000	-0.033	0.223
-665.018	110.832	-0.140	-0.167
-664.003	53.523	-0.107	0.102
-662.989	-200.000	-0.005	-0.405
-661.974	800.000	0.104	-0.289
-660.959	-128.450	-0.465	-0.066
-659.945	-98.941	-0.300	0.076
-658.930	171.248	0.183	0.261
-657.916	-148.061	0.272	0.022
-656.901	-142.763	0.246	0.024
-655.886	-200.000	0.009	-0.262
-654.872	-169.080	-0.310	-0.011
-653.857	-25.901	0.038	0.022
-652.843	90.977	-0.033	-0.037
-651.828	-200.000	0.005	0.124
-650.814	336.865	0.173	0.334
-649.799	-200.000	-0.022	0.362
-648.784	-50.664	0.140	0.066
-647.770	-200.000	0.071	0.392
-646.755	-2.577	0.186	-0.129
-645.741	76.215	-0.275	-0.290
-644.726	291.613	-0.239	0.433
-643.711	185.493	0.026	-0.038
-642.697	-200.000	0.013	0.167
-641.682	-79.566	-0.198	0.066
-640.668	416.226	0.032	-0.067
-639.653	262.560	-0.095	-0.164
-638.638	26.227	-0.314	0.260
-637.624	449.945	0.046	0.101
-636.609	-200.000	0.002	-0.050
-635.595	22.711	-0.237	0.193
-634.580	4.909	-0.150	0.110
-633.565	200.104	0.091	-0.140
-632.551	-35.506	-0.208	0.112
-631.536	800.000	0.049	-0.151
-630.522	-141.877	-0.052	0.005
-629.507	35.564	-0.222	0.194
-628.492	-86.012	-0.272	0.084
-627.478	-174.540	-0.040	-0.001
-626.463	77.496	-0.176	0.187
-625.449	-54.777	-0.385	0.173
-624.434	-84.664	0.082	0.026
-623.419	-124.475	-0.296	-0.046
-622.405	800.000	0.055	-0.227
-621.390	-69.753	0.015	0.006
-620.376	800.000	-0.103	-0.288
-619.361	-170.991	-0.279	-0.009
-618.346	50.109	0.242	-0.227
-617.332	800.000	-0.069	0.212
-616.317	111.473	0.049	0.059
-615.303	-115.412	0.141	0.026
-614.288	745.517	0.038	0.101
-613.273	-107.800	0.046	0.010
-612.259	491.801	-0.036	0.083
-611.244	134.098	-0.243	-0.312
-610.230	-3.111	-0.205	-0.142
-609.215	-45.801	0.318	0.156
-608.201	-101.562	0.074	0.018
-607.186	-151.655	-0.396	0.029
-606.171	-1.240	0.137	0.096
-605.157	116.748	-0.108	0.131
-604.142	800.000	0.122	-0.497
-603.128	210.435	-0.221	-0.345
-602.113	67.012	0.272	0.275
-601.098	148.542	0.075	0.101
-600.084	800.000	0.113	-0.329
-599.069	-43.672	-0.161	0.081
-598.055	18.979	0.235	0.187
-597.040	-8.684	-0.144	0.096
-596.025	-125.821	0.073	0.011
-595.011	47.553	0.172	0.159
-593.996	800.000	0.127	0.380
-592.982	-102.709	0.017	0.004
-591.967	169.178	-0.231	-0.327
-590.952	-125.314	0.325	-0.049
-589.938	-66.156	-0.310	-0.123
-588.923	-200.000	-0.082	-0.358
-587.909	195.877	-0.104	-0.157
-586.894	64.543	0.150	-0.150
-585.879	9.323	0.031	-0.023
-584.865	73.536	0.207	-0.215
-583.850	-113.483	-0.152	-0.029
-582.836	205.057	-0.245	0.377
-581.821	-79.748	-0.463	-0.155
-580.806	-28.345	0.162	-0.092
-579.792	-41.040	0.050	-0.025
-578.777	9.801	0.309	0.232
-577.763	697.511	-0.294	-0.765
-576.748	45.510	0.237	-0.217
-575.733	-164.643	-0.386	0.017
-574.719	-86.861	-0.264	-0.080
-573.704	-200.000	-0.029	-0.126
-572.690	-33.936	0.108	-0.059
-571.675	-170.117	-0.398	-0.014
-570.661	381.276	-0.116	-0.236
-569.646	-20.812	0.097	-0.059
-568.631	-129.073	-0.125	0.017
-567.617	-136.077	-0.091	-0.011
-566.602	313.191	0.020	0.037
-565.588	800.000	0.027	-0.082
-564.573	-154.666	-0.147	0.010
-563.558	800.000	0.033	-0.112
-562.544	-200.000	-0.010	-0.199
-561.529	-150.681	-0.355	0.027
-560.515	10.947	-0.180	-0.136
-559.500	171.832	0.169	-0.241
-558.485	601.517	0.081	-0.199
-557.471	-153.098	0.257	-0.018
-556.456	-113.304	-0.147	0.029
-555.442	64.740	-0.262	0.261
-554.427	-200.000	-0.012	-0.142
-553.412	-10.659	-0.084	0.055
-552.398	-120.384	-0.324	0.055
-551.383	800.000	0.036	0.107
-550.369	-200.000	-0.027	-0.229
-549.354	-200.000	-0.016	0.091
-548.339	-200.000	0.021	0.284
-547.325	800.000	-0.014	0.062
-546.310	110.876	0.153	0.182
-545.296	241.797	0.010	0.016
-544.281	-145.593	0.292	-0.026
-543.266	474.307	-0.108	0.242
-542.252	34.921	-0.109	0.094
-541.237	-85.982	0.205	-0.063
-540.223	-200.000	-0.019	-0.400
-539.208	-200.000	-0.006	0.043
-538.193	-80.605	0.093	-0.031
-537.179	-154.115	-0.165	0.011
-536.164	77.918	-0.199	0.210
-535.150	-200.000	-0.066	0.293
-534.135	-78.739	0.092	0.031
-533.121	-71.452	-0.151	0.056
-532.106	-56.743	0.219	-0.096
-531.091	-165.298	-0.125	0.005
-530.077	-55.090	-0.150	0.067
-529.062	-200.000	0.008	0.145
-528.048	-200.000	-0.054	-0.327
-527.033	-200.000	0.013	0.150
-526.018	91.742	0.327	-0.364
-525.004	-32.744	0.195	0.107
-523.989	-105.227	0.181	-0.041
-522.975	139.893	0.187	0.244
-521.960	-175.386	-0.201	-0.005
-520.945	47.221	0.294	-0.270
-519.931	-200.000	0.086	0.405
-518.916	-62.949	-0.171	-0.070
-517.902	-23.333	-0.075	-0.045
-516.887	405.175	0.096	0.200
-515.872	-75.316	0.412	0.145
-514.858	-48.742	0.232	-0.110
-513.843	-162.595	-0.371	-0.018
-512.829	7.308	0.157	0.116
-511.814	-57.630	0.252	0.109
-510.799	-200.000	-0.004	0.080
-509.785	800.000	-0.070	-0.202
-508.770	-83.123	-0.292	0.093
-507.756	-91.795	0.065	0.018
-506.741	-200.000	-0.055	0.248
-505.726	168.182	-0.115	0.161
-504.712	-87.962	-0.066	-0.019
-503.697	-200.000	-0.025	-0.276
-502.683	494.185	0.168	-0.380
-501.668	-200.000	0.038	-0.326
-500.653	-91.893	-0.026	-0.007
-499.639	4.510	-0.199	0.145
-498.624	-200.000	0.020	0.107
-497.610	-103.883	-0.128	-0.029
-496.595	-133.040	-0.220	0.028
-495.581	-69.715	-0.380	-0.143
-494.566	39.920	-0.122	-0.108
-493.551	-137.409	0.198	0.022
-492.537	-200.000	-0.055	-0.328
-491.522	800.000	-0.093	-0.305
-490.508	-121.555	-0.142	0.023
-489.493	1.595	-0.024	0.017
-488.478	40.310	0.343	-0.305
-487.464	-200.000	0.011	0.089
-486.449	197.385	-0.060	-0.090
-485.435	130.242	0.092	0.117
-484.420	-55.258	-0.162	0.072
-483.405	-110.244	0.251	0.052
-482.391	224.616	0.163	-0.260
-481.376	381.334	-0.048	0.097
-480.362	-188.395	-0.063	-0.001
-479.347	-200.000	0.017	-0.205
-478.332	-92.208	-0.194	-0.054
-477.318	130.975	-0.318	0.403
-476.303	-38.009	0.486	0.255
-475.289	-14.056	0.072	0.046
-474.274	507.326	-0.062	0.142
-473.259	-127.375	-0.231	0.033
-472.245	27.630	0.423	0.352
-471.230	-200.000	0.177	0.000
-470.216	137.072	0.090	0.116
-469.201	800.000	0.053	-0.211
-468.186	-15.696	0.051	0.032
-467.172	-67.099	-0.221	0.086
-466.157	-200.000	-0.036	-0.179
-465.143	-200.000	-0.054	-0.347
-464.128	446.286	0.109	-0.236
-463.113	-11.459	0.144	0.094
-462.099	-156.785	-0.417	0.025
-461.084	-147.894	0.196	0.016
-460.070	-164.213	0.203	-0.009
-459.055	-132.479	-0.180	-0.023
-458.040	-200.000	-0.056	-0.271
-457.026	-153.245	-0.324	-0.022
-456.011	324.228	-0.039	0.074
-454.997	68.281	0.121	-0.123
-453.982	730.731	-0.062	-0.164
-452.968	293.666	-0.084	0.151
-451.953	-34.230	-0.286	-0.155
-450.938	131.218	-0.100	-0.127
-449.924	-7.210	0.303	-0.203
-448.909	-70.145	0.089	-0.033
-447.895	-106.707	0.278	0.061
-446.880	348.321	-0.129	-0.252
-445.865	-200.000	-0.006	0.160
-444.851	-164.046	0.219	-0.010
-443.836	-9.817	0.036	0.024
-442.822	-42.889	0.253	0.127
-441.807	43.618	-0.115	0.104
-440.792	70.627	-0.149	-0.152
-439.778	-127.647	-0.236	0.034
-438.763	-22.821	-0.346	-0.206
-437.749	-39.755	-0.282	-0.145
-436.734	800.000	-0.079	-0.322
-435.719	3.780	-0.259	0.186
-434.705	-62.151	0.222	-0.091
-433.690	800.000	0.081	-0.230
-432.676	800.000	-0.044	0.167
-431.661	-83.904	-0.100	0.031
-430.646	-51.983	0.350	0.160
-429.632	-131.302	0.170	-0.022
-428.617	271.181	-0.094	0.163
-427.603	-200.000	0.027	-0.213
-426.588	-157.384	0.192	-0.011
-425.573	-107.307	-0.477	-0.103
-424.559	-200.000	0.016	-0.133
-423.544	-177.633	-0.178	0.004
-422.530	-159.475	-0.175	-0.010
-421.515	334.031	0.124	0.237
-420.500	-200.000	-0.001	0.049
-419.486	93.281	-0.257	0.286
-418.471	-116.154	-0.258	-0.047
-417.457	389.590	-0.125	0.255
-416.442	650.439	0.055	0.139
-415.428	126.566	0.184	0.230
-414.413	-200.000	0.009	-0.215
-413.398	-25.614	0.438	0.255
-412.384	78.860	-0.091	0.096
-411.369	73.943	0.067	-0.069
-410.355	518.811	0.147	0.339
-409.340	9.119	0.342	-0.255
-408.325	-200.000	-0.022	-0.171
-407.311	-85.236	0.254	0.078
-406.296	-24.959	0.104	0.061
-405.282	49.891	-0.028	-0.026
-404.267	91.807	0.315	0.349
-403.252	229.504	-0.103	0.165
-402.238	-154.644	0.187	-0.012
-401.223	-131.872	0.295	0.038
-400.209	-20.714	0.122	0.074
-399.194	-125.124	-0.238	0.036
-398.179	266.932	0.141	-0.243
-397.165	-113.237	-0.239	-0.046
-396.150	146.250	-0.164	0.216
-395.136	10.287	-0.197	-0.147
-394.121	-99.794	0.149	-0.037
-393.106	-143.817	0.044	0.004
-392.092	-64.542	0.063	0.025
-391.077	179.494	-0.222	0.320
-390.063	-200.000	-0.018	0.278
-389.048	76.066	-0.183	0.191
-388.033	-3.110	0.131	0.090
-387.019	382.645	0.055	-0.111
-386.004	-72.980	-0.035	0.013
-384.990	-136.946	-0.201	0.023
-383.975	-3.920	-0.200	-0.136
-382.960	-200.000	-0.022	-0.375
-381.946	-38.517	0.046	-0.024
-380.931	129.893	0.054	-0.068
-379.917	69.698	0.070	0.071
-378.902	-144.672	0.368	0.033
-377.888	-13.840	0.401	0.255
-376.873	-74.425	-0.248	-0.088
-375.858	-84.948	0.095	0.029
-374.844	132.883	0.087	0.111
-373.829	566.634	0.026	0.063
-372.815	84.336	-0.078	-0.084
-371.800	110.027	-0.052	0.061
-370.785	780.368	-0.063	0.170
-369.771	-61.902	0.462	0.190
-368.756	-105.444	0.163	0.036
-367.742	800.000	-0.158	-0.508
-366.727	-86.407	0.131	-0.040
-365.712	-200.000	-0.025	-0.190
-364.698	-153.344	-0.209	-0.014
-363.683	295.003	0.255	-0.459
-362.669	-116.632	0.127	-0.023
-361.654	526.417	0.076	-0.176
-360.639	-51.890	0.219	0.100
-359.625	-49.250	0.315	0.148
-358.610	-84.222	-0.152	-0.047
-357.596	-121.095	-0.059	-0.010
-356.581	800.000	-0.065	-0.241
-355.566	124.394	-0.093	0.114
-354.552	285.686	0.179	-0.317
-353.537	-7.737	0.069	-0.046
-352.523	-189.301	0.304	0.004
-351.508	-53.852	0.042	-0.019
-350.493	93.183	0.206	-0.228
-349.479	233.162	-0.159	0.257
-348.464	-39.887	0.143	0.073
-347.450	64.521	0.065	-0.064
-346.435	-129.515	0.228	-0.031
-345.420	-86.822	-0.169	0.051
-344.406	76.952	0.055	-0.057
-343.391	-200.000	0.036	-0.193
-342.377	-137.401	0.199	-0.022
-341.362	-30.126	0.230	0.129
-340.348	261.156	-0.019	-0.033
-339.333	-33.222	-0.090	0.049
-338.318	177.084	0.221	-0.316
-337.304	606.293	0.047	0.116
-336.289	-99.967	0.432	-0.106
-335.275	120.392	-0.130	-0.159
-334.260	559.718	0.087	0.206
-333.245	-200.000	-0.021	0.259
-332.231	215.340	-0.016	-0.025
-331.216	6.342	0.118	-0.086
-330.202	254.274	0.085	0.143
-329.187	65.253	-0.220	-0.218
-328.172	-124.628	-0.242	0.037
-327.158	-80.583	-0.050	-0.016
-326.143	-58.851	0.323	0.137
-325.129	-197.914	0.571	-0.003
-324.114	-200.000	-0.008	0.134
-323.099	-127.190	0.227	0.033
-322.085	-200.000	0.082	0.490
-321.070	236.722	-0.113	0.184
-320.056	-33.559	-0.149	0.081
-319.041	-36.043	-0.072	0.038
-318.026	767.465	0.094	-0.251
-317.012	800.000	-0.028	0.109
-315.997	252.267	0.076	0.127
-314.983	-41.095	-0.116	0.059
-313.968	100.140	0.120	-0.137
-312.953	192.560	-0.052	0.076
-311.939	-8.248	0.406	0.268
-310.924	-4.806	-0.147	-0.100
-309.910	-81.703	-0.175	0.056
-308.895	-7.793	-0.330	0.219
-307.880	29.842	0.222	-0.186
-306.866	80.824	0.102	-0.108
-305.851	144.942	0.057	0.075
-304.837	-62.957	-0.126	0.051
-303.822	107.031	-0.206	0.240
-302.807	61.653	0.108	-0.105
-301.793	-105.214	-0.059	-0.013
-300.778	-175.840	0.173	-0.005
-299.764	-70.207	-0.120	0.045
-298.749	-200.000	0.003	0.323
-297.735	800.000	0.079	0.318
-296.720	-83.424	0.048	0.015
-295.705	800.000	0.041	0.152
-294.691	-200.000	-0.010	0.345
-293.676	501.331	-0.162	0.367
-292.662	-76.574	0.128	-0.044
-291.647	132.539	-0.216	-0.273
-290.632	12.155	-0.153	0.115
-289.618	-85.879	0.201	0.061
-288.603	-68.591	-0.224	0.085
-287.589	800.000	-0.117	-0.376
-286.574	-113.851	-0.162	0.031
-285.559	471.032	-0.210	-0.463
-284.545	-200.000	-0.011	0.142
-283.530	486.382	-0.160	-0.358
-282.516	-21.685	-0.131	-0.078
-281.501	573.030	0.035	0.083
-280.486	48.848	0.121	0.111
-279.472	-132.986	0.300	-0.037
-278.457	-45.534	-0.187	-0.091
-277.443	-169.022	0.208	-0.008
-276.428	208.517	0.172	0.264
-275.413	-67.972	-0.262	0.100
-274.399	39.343	0.198	0.173
-273.384	-200.000	0.006	0.388
-272.370	34.773	-0.244	-0.209
-271.355	-112.219	-0.070	0.014
-270.340	-68.695	-0.076	0.029
-269.326	114.326	0.055	-0.065
-268.311	189.473	0.165	-0.242
-267.297	-114.179	0.293	-0.055
-266.282	310.876	-0.072	0.132
-265.267	-30.409	-0.278	0.155
-264.253	141.908	-0.014	-0.018
-263.238	104.178	-0.062	0.071
-262.224	179.400	-0.134	0.192
-261.209	-62.720	-0.140	-0.057
-260.195	-200.000	-0.026	0.256
-259.180	12.737	0.206	0.156
-258.165	-200.000	0.023	0.276
-257.151	212.529	0.242	-0.373
-256.136	122.408	0.091	-0.111
-255.122	54.094	-0.154	-0.145
-254.107	-120.063	-0.169	-0.028
-253.092	800.000	-0.065	-0.265
-252.078	800.000	-0.040	-0.108
-251.063	140.374	-0.053	-0.068
-250.049	-64.998	-0.319	-0.126
-249.034	196.884	0.139	-0.207
-248.019	-115.004	0.053	0.010
-247.005	29.704	0.148	-0.123
-245.990	627.279	0.032	0.078
-244.976	800.000	0.056	0.201
-243.961	-200.000	0.006	-0.210
-242.946	-200.000	0.023	0.221
-241.932	307.145	0.075	0.137
-240.917	-200.000	-0.033	-0.183
-239.903	-42.514	0.167	0.083
-238.888	128.510	0.096	-0.120
-237.873	-125.171	0.257	-0.039
-236.859	119.461	0.118	0.143
-235.844	-162.413	0.397	-0.019
-234.830	48.580	-0.208	-0.191
-233.815	32.351	-0.093	-0.079
-232.800	15.395	-0.119	-0.092
-231.786	-84.626	-0.277	-0.085
-230.771	35.462	-0.292	-0.251
-229.757	-200.000	0.059	-0.379
-228.742	-132.962	-0.261	0.032
-227.727	48.899	-0.126	-0.116
-226.713	109.333	-0.293	0.343
-225.698	-200.000	-0.014	-0.091
-224.684	409.873	0.073	-0.152
-223.669	-93.574	0.436	-0.118
-222.655	-79.354	-0.226	0.075
-221.640	-32.441	0.445	-0.243
-220.625	-200.000	-0.036	0.171
-219.611	-200.000	-0.017	-0.280
-218.596	-107.940	0.465	-0.099
-217.582	800.000	0.099	-0.346
-216.567	-145.208	-0.306	0.027
-215.552	159.050	0.066	0.090
-214.538	800.000	0.059	0.251
-213.523	-200.000	-0.001	0.183
-212.509	-200.000	-0.024	-0.178
-211.494	-135.790	-0.079	-0.009
-210.479	-200.000	0.004	-0.090
-209.465	-131.176	-0.217	-0.028
-208.450	-200.000	0.027	0.181
-207.436	-150.351	-0.308	0.023
-206.421	-142.609	-0.333	0.032
-205.406	-148.275	-0.222	-0.018
-204.392	50.434	0.196	0.181
-203.377	184.991	0.184	0.267
-202.363	107.282	-0.022	0.026
-201.348	19.972	0.371	0.292
-200.333	-184.087	0.271	0.004
-199.319	-197.227	-0.296	0.002
-198.304	800.000	-0.114	-0.357
-197.290	83.027	-0.176	-0.187
-196.275	-17.457	-0.191	-0.117
-195.260	62.596	-0.298	-0.291
-194.246	48.023	0.205	-0.187
-193.231	-200.000	0.022	-0.149
-192.217	-110.602	-0.239	0.048
-191.202	-200.000	0.024	0.403
-190.187	-11.382	-0.171	-0.110
-189.173	19.401	0.103	-0.081
-188.158	737.691	0.096	0.250
-187.144	-86.421	0.428	0.128
-186.129	-200.000	0.003	-0.049
-185.114	-161.561	0.097	-0.005
-184.100	-16.248	-0.243	0.151
-183.085	-108.347	0.154	-0.032
-182.071	-91.461	0.361	-0.101
-181.056	54.019	-0.144	-0.135
-180.042	800.000	0.032	0.134
-179.027	-150.893	0.164	0.012
-178.012	-62.603	-0.233	0.095
-176.998	-66.397	-0.238	0.092
-175.983	-200.000	-0.084	-0.371
-174.969	94.028	-0.311	-0.345
-173.954	649.216	0.127	0.316
-172.939	-52.080	-0.066	0.030
-171.925	800.000	0.063	0.249
-170.910	92.328	0.222	0.244
-169.896	48.716	-0.185	0.170
-168.881	77.475	-0.264	0.274
-167.866	-162.157	0.259	-0.013
-166.852	-74.652	0.108	0.038
-165.837	-158.926	0.092	-0.005
-164.823	-164.444	0.359	-0.016
-163.808	-104.107	0.493	0.112
-162.793	-67.126	0.152	-0.058
-161.779	-159.029	-0.261	-0.014
-160.764	-108.382	0.204	0.043
-159.750	158.609	0.298	0.404
-158.735	-200.000	-0.009	0.100
-157.720	-96.478	0.466	-0.120
-156.706	8.339	-0.137	0.100
-155.691	800.000	-0.055	-0.197
-154.677	-76.701	-0.039	-0.013
-153.662	-111.442	-0.334	-0.066
-152.647	-200.000	-0.001	0.203
-151.633	-167.463	0.305	-0.012
-150.618	-200.000	0.034	-0.253
-149.604	-200.000	-0.081	-0.478
-148.589	-59.825	-0.235	0.098
-147.574	349.949	0.211	-0.406
-146.560	-64.438	0.085	-0.034
-145.545	800.000	0.188	0.515
-144.531	-85.873	0.290	-0.087
-143.516	-51.848	-0.287	0.130
-142.502	-89.160	-0.177	0.051
-141.487	800.000	0.072	-0.197
-140.472	95.679	0.093	0.104
-139.458	450.481	-0.074	-0.160
-138.443	-64.151	-0.373	-0.148
-137.429	-200.000	-0.000	0.006
-136.414	-125.718	0.476	-0.070
-135.399	-200.000	-0.142	-0.000
-134.385	371.971	-0.068	-0.134
-133.370	-156.458	0.327	0.020
-132.356	-92.546	-0.326	-0.089
-131.341	-119.929	0.104	-0.017
-130.326	495.849	0.115	0.258
-129.312	-93.267	-0.257	0.069
-128.297	-70.763	0.212	-0.078
-127.283	-200.000	-0.010	-0.063
-126.268	34.971	-0.066	0.057
-125.253	20.655	-0.129	-0.102
-124.239	800.000	-0.045	-0.163
-123.224	256.543	0.036	-0.061
-122.210	-74.016	-0.279	-0.098
