DTS Sentinel unit serial number:	SN413079Multiplexer serial number:	ORYXHardware model number:	OX4-SRSoftware version number:	ORYX F/W v4.00 Oryx Data Collector v3.7.2.0data status	okinstallation	princeton_trtdifferential loss correction	single-endedforward channel	channel 2reverse channel	N/Adate	2019/09/14time	14:35:35forward acquisition time	60.00reverse acquisition time	0.00gamma	496.2192k internal	0.2300k external	0.2300temperature offset calibration	1.0143default loss term (dB/km)	0.3790temperature slope calibration	1.0000multiplexer offset coefficient	1.0000multiplexer slope coefficient	1.0000fibre end	0.00T internal ref (°C)	39.20T ext. ref 1 (°C)	5.02T ext. ref 2 (°C)	35.33length (m)	temperature (°C)	Stokes	anti-Stokes-747.200	196.880	0.270	0.420
-746.185	-101.637	-0.380	0.094
-745.171	800.000	0.055	-0.233
-744.156	10.239	-0.042	0.033
-743.142	149.731	0.166	-0.229
-742.127	191.367	-0.104	0.160
-741.112	-64.372	0.315	0.131
-740.098	10.484	0.341	0.265
-739.083	475.958	-0.082	0.189
-738.069	67.956	-0.129	0.134
-737.054	-200.000	-0.027	0.229
-736.039	-75.536	-0.244	0.089
-735.025	81.981	0.347	0.383
-734.010	-200.000	0.009	-0.213
-732.996	162.057	-0.321	-0.458
-731.981	207.139	-0.131	-0.208
-730.966	-200.000	-0.004	0.165
-729.952	-200.000	0.019	-0.166
-728.937	24.590	0.194	-0.164
-727.923	-200.000	-0.001	-0.018
-726.908	-24.850	-0.035	-0.021
-725.894	-92.247	-0.110	-0.032
-724.879	-115.549	-0.227	-0.044
-723.864	-78.002	-0.234	-0.082
-722.850	800.000	0.111	0.359
-721.835	-200.000	0.046	0.413
-720.821	-87.722	0.126	0.039
-719.806	36.489	-0.119	0.107
-718.791	-49.575	-0.308	0.149
-717.777	800.000	0.047	0.205
-716.762	-200.000	-0.001	-0.011
-715.748	488.061	0.108	0.250
-714.733	465.120	-0.063	-0.144
-713.718	-63.089	-0.151	0.064
-712.704	15.140	-0.263	-0.210
-711.689	-200.000	0.002	-0.015
-710.675	-112.872	-0.108	-0.022
-709.660	153.241	-0.058	0.081
-708.645	-137.208	-0.170	-0.020
-707.631	135.672	0.051	-0.067
-706.616	33.786	-0.168	-0.149
-705.602	50.325	0.227	0.218
-704.587	800.000	-0.046	-0.155
-703.572	-92.193	-0.221	0.064
-702.558	117.511	-0.162	0.203
-701.543	-158.734	0.092	0.005
-700.529	353.062	0.202	0.407
-699.514	-35.496	0.029	-0.016
-698.499	-125.614	-0.237	-0.037
-697.485	2.111	0.151	0.111
-696.470	377.094	-0.177	0.368
-695.456	217.920	0.241	-0.392
-694.441	-51.939	0.139	-0.066
-693.426	-24.360	-0.275	0.167
-692.412	134.751	0.132	-0.175
-691.397	800.000	-0.109	-0.328
-690.383	50.259	-0.117	-0.113
-689.368	409.945	-0.120	-0.259
-688.354	-148.400	-0.096	-0.008
-687.339	-95.994	0.375	-0.102
-686.324	-51.575	-0.068	0.032
-685.310	-200.000	0.041	-0.195
-684.295	800.000	0.020	0.084
-683.281	156.071	0.104	-0.146
-682.266	77.170	-0.329	-0.356
-681.251	-157.755	0.218	-0.013
-680.237	150.870	-0.215	-0.298
-679.222	-61.483	-0.176	-0.075
-678.208	224.550	-0.201	-0.331
-677.193	800.000	-0.131	-0.410
-676.178	-162.386	-0.273	-0.014
-675.164	430.867	0.077	0.170
-674.149	576.384	0.029	-0.073
-673.135	-200.000	0.049	-0.273
-672.120	-16.060	-0.431	-0.279
-671.105	-39.041	-0.052	-0.028
-670.091	800.000	-0.106	0.336
-669.076	-67.599	-0.011	0.004
-668.062	800.000	-0.048	-0.145
-667.047	382.678	0.125	0.261
-666.032	-200.000	0.027	-0.227
-665.018	111.687	0.098	0.121
-664.003	-200.000	0.020	0.554
-662.989	-4.308	-0.231	-0.162
-661.974	12.973	0.173	-0.136
-660.959	-104.059	0.126	0.030
-659.945	-17.593	-0.153	0.098
-658.930	-86.958	0.165	0.051
-657.916	-131.802	0.089	-0.012
-656.901	-6.509	0.134	-0.093
-655.886	-119.109	-0.507	0.090
-654.872	-200.000	0.028	-0.166
-653.857	-70.332	0.171	0.066
-652.843	-200.000	-0.024	-0.110
-651.828	-88.714	-0.136	-0.041
-650.814	-165.991	-0.285	0.012
-649.799	128.100	-0.318	0.411
-648.784	-12.837	-0.221	0.146
-647.770	-200.000	-0.023	-0.175
-646.755	-72.849	-0.341	0.127
-645.741	88.991	0.117	-0.132
-644.726	800.000	-0.095	-0.272
-643.711	-154.483	-0.155	0.011
-642.697	790.124	-0.040	0.112
-641.682	102.206	0.118	-0.140
-640.668	-200.000	-0.003	-0.199
-639.653	-98.687	-0.145	-0.038
-638.638	150.837	-0.156	0.215
-637.624	297.257	0.067	-0.126
-636.609	-88.251	-0.495	0.150
-635.595	-2.162	0.080	-0.057
-634.580	104.046	0.042	-0.050
-633.565	311.391	-0.070	0.133
-632.551	443.032	-0.095	-0.212
-631.536	-57.348	0.314	-0.140
-630.522	-94.669	0.308	0.085
-629.507	-146.395	-0.021	-0.002
-628.492	-17.437	-0.171	0.109
-627.478	-17.499	-0.178	0.114
-626.463	-68.712	-0.192	0.076
-625.449	394.501	0.143	0.302
-624.434	51.549	0.079	0.076
-623.419	33.966	0.257	-0.227
-622.405	124.781	0.116	-0.148
-621.390	182.423	-0.188	-0.282
-620.376	-200.000	0.045	-0.266
-619.361	-5.659	-0.153	-0.107
-618.346	-61.512	-0.407	-0.174
-617.332	-21.003	0.143	-0.089
-616.317	800.000	-0.015	-0.059
-615.303	-38.816	0.286	0.153
-614.288	-176.623	0.426	-0.011
-613.273	-77.592	-0.398	0.140
-612.259	800.000	0.080	0.266
-611.244	800.000	0.052	0.157
-610.230	-200.000	-0.017	0.078
-609.215	80.340	-0.204	-0.223
-608.201	-49.627	0.157	0.076
-607.186	-136.070	0.256	-0.031
-606.171	-200.000	0.020	-0.126
-605.157	-200.000	0.033	0.187
-604.142	-15.081	-0.239	-0.155
-603.128	229.171	-0.146	-0.242
-602.113	7.648	-0.155	-0.118
-601.098	-200.000	0.004	0.344
-600.084	56.098	0.108	-0.106
-599.069	-25.165	-0.376	0.226
-598.055	66.840	0.122	-0.126
-597.040	83.622	-0.105	-0.116
-596.025	-153.905	0.277	0.019
-595.011	125.435	-0.157	-0.201
-593.996	-23.697	0.125	-0.076
-592.982	-50.241	0.222	0.107
-591.967	49.762	0.172	0.165
-590.952	-200.000	0.019	-0.268
-589.938	-92.171	-0.156	0.045
-588.923	-163.621	-0.233	0.011
-587.909	78.192	-0.237	-0.257
-586.894	-200.000	-0.024	-0.239
-585.879	364.668	-0.103	-0.211
-584.865	356.687	-0.072	0.146
-583.850	-200.000	-0.031	0.228
-582.836	-88.219	0.244	-0.074
-581.821	-32.548	-0.210	-0.118
-580.806	397.038	-0.045	0.095
-579.792	428.099	-0.145	0.317
-578.777	800.000	0.116	-0.366
-577.763	148.502	-0.246	0.337
-576.748	-131.452	-0.180	0.024
-575.733	307.038	0.056	-0.105
-574.719	-127.811	0.271	-0.040
-573.704	-40.070	-0.528	-0.279
-572.690	-112.106	-0.315	-0.064
-571.675	11.622	0.209	-0.163
-570.661	800.000	0.035	0.132
-569.646	67.145	-0.225	0.232
-568.631	179.146	0.039	0.058
-567.617	-115.716	0.211	-0.040
-566.602	-98.081	-0.178	0.046
-565.588	-121.355	0.359	-0.061
-564.573	-200.000	-0.014	0.087
-563.558	-174.275	-0.236	-0.007
-562.544	800.000	0.039	0.148
-561.529	589.248	-0.038	0.096
-560.515	206.710	-0.033	0.052
-559.500	-64.586	-0.037	-0.015
-558.485	-150.636	0.196	0.015
-557.471	-200.000	-0.032	0.150
-556.456	14.396	-0.224	-0.177
-555.442	-182.485	0.149	-0.003
-554.427	538.368	-0.099	0.239
-553.412	-200.000	0.016	0.115
-552.398	268.524	-0.126	0.223
-551.383	-103.541	-0.220	-0.052
-550.369	-92.059	0.256	-0.073
-549.354	-71.938	-0.357	-0.135
-548.339	-15.324	0.063	0.041
-547.325	-5.850	0.148	-0.102
-546.310	28.356	0.103	-0.088
-545.296	-131.169	0.238	-0.032
-544.281	-200.000	0.003	0.072
-543.266	-40.228	-0.107	0.057
-542.252	405.787	-0.048	-0.102
-541.237	-124.686	0.238	-0.037
-540.223	-58.579	-0.196	0.086
-539.208	-200.000	-0.018	0.134
-538.193	800.000	0.053	0.155
-537.179	-129.018	-0.075	0.011
-536.164	-50.366	0.252	-0.120
-535.150	-200.000	0.002	-0.057
-534.135	-200.000	0.040	-0.294
-533.121	-58.192	-0.344	-0.152
-532.106	29.942	-0.102	0.088
-531.091	-200.000	-0.020	0.239
-530.077	200.688	-0.158	-0.245
-529.062	28.670	-0.054	0.046
-528.048	-107.075	-0.144	0.032
-527.033	-42.846	-0.132	-0.068
-526.018	-22.592	0.064	0.039
-525.004	-23.273	0.158	0.096
-523.989	-86.789	-0.128	-0.040
-522.975	128.697	-0.053	0.068
-521.960	-6.079	0.017	0.011
-520.945	-126.098	-0.087	-0.013
-519.931	-93.343	-0.196	-0.055
-518.916	-136.655	-0.291	-0.034
-517.902	44.851	0.142	0.132
-516.887	800.000	-0.076	-0.276
-515.872	-73.191	0.105	-0.039
-514.858	800.000	0.059	-0.170
-513.843	-45.236	-0.161	-0.081
-512.829	-41.928	-0.118	-0.061
-511.814	313.400	0.212	-0.403
-510.799	362.990	0.151	0.307
-509.785	249.372	0.098	-0.168
-508.770	-12.421	0.022	-0.014
-507.756	800.000	0.073	-0.235
-506.741	-200.000	-0.007	-0.280
-505.726	177.699	-0.036	-0.053
-504.712	424.505	0.082	0.179
-503.697	432.378	-0.160	-0.351
-502.683	11.571	-0.056	0.043
-501.668	600.969	-0.132	0.330
-500.653	-200.000	-0.030	0.229
-499.639	800.000	-0.034	-0.101
-498.624	-200.000	0.008	-0.092
-497.610	-200.000	-0.034	0.280
-496.595	-200.000	0.005	0.105
-495.581	-106.439	0.437	0.099
-494.566	636.817	0.085	0.218
-493.551	294.901	0.195	-0.360
-492.537	800.000	0.027	-0.113
-491.522	-91.047	0.192	-0.056
-490.508	156.162	-0.157	-0.218
-489.493	-97.119	0.240	-0.063
-488.478	-100.479	-0.037	-0.009
-487.464	76.579	0.137	-0.147
-486.449	281.902	0.134	0.242
-485.435	606.719	-0.036	0.089
-484.420	-50.630	-0.123	-0.059
-483.405	-175.665	-0.197	0.005
-482.391	-120.059	-0.226	0.039
-481.376	278.423	0.266	0.479
-480.362	-200.000	0.017	0.461
-479.347	625.940	-0.145	-0.369
-478.332	-107.431	0.301	-0.067
-477.318	-0.497	-0.067	0.048
-476.303	53.407	0.102	-0.099
-475.289	800.000	0.055	0.163
-474.274	-142.581	0.064	-0.006
-473.259	-200.000	-0.002	-0.181
-472.245	568.847	-0.054	-0.132
-471.230	411.732	-0.052	-0.112
-470.216	800.000	0.012	0.043
-469.201	491.153	-0.074	-0.171
-468.186	105.703	-0.201	0.240
-467.172	-200.000	0.041	0.184
-466.157	-200.000	0.078	0.376
-465.143	-104.905	0.275	-0.064
-464.128	-72.979	-0.271	0.100
-463.113	800.000	-0.078	-0.271
-462.099	656.304	-0.085	-0.220
-461.084	800.000	-0.027	-0.087
-460.070	7.461	0.194	-0.147
-459.055	-47.056	0.220	-0.108
-458.040	800.000	0.040	-0.176
-457.026	800.000	0.083	0.292
-456.011	261.675	-0.141	-0.246
-454.997	-23.967	0.227	-0.137
-453.982	18.726	-0.024	-0.019
-452.968	100.864	0.186	0.219
-451.953	-137.924	0.093	-0.010
-450.938	48.284	-0.155	0.146
-449.924	-113.791	-0.060	0.012
-448.909	800.000	0.033	-0.096
-447.895	363.640	0.004	-0.008
-446.880	82.503	-0.196	-0.214
-445.865	-200.000	-0.019	-0.123
-444.851	230.329	0.062	0.102
-443.836	800.000	0.051	-0.144
-442.822	287.622	0.059	-0.108
-441.807	800.000	-0.034	-0.105
-440.792	38.973	0.237	0.213
-439.778	41.195	-0.074	0.068
-438.763	225.498	-0.102	0.166
-437.749	-76.417	0.263	-0.093
-436.734	800.000	0.073	-0.282
-435.719	334.169	-0.070	0.137
-434.705	230.426	0.196	0.323
-433.690	59.112	-0.186	0.185
-432.676	-97.360	0.136	-0.036
-431.661	-80.097	0.114	-0.039
-430.646	-98.957	0.125	0.032
-429.632	-200.000	-0.001	0.175
-428.617	800.000	-0.012	-0.051
-427.603	-92.736	0.293	0.083
-426.588	800.000	0.008	-0.033
-425.573	-84.242	0.090	-0.029
-424.559	800.000	-0.019	-0.080
-423.544	-200.000	0.067	-0.315
-422.530	-93.527	-0.469	0.131
-421.515	-19.151	0.334	0.209
-420.500	-121.335	0.255	-0.043
-419.486	-78.840	0.019	0.007
-418.471	623.769	0.124	-0.313
-417.457	-200.000	0.019	-0.334
-416.442	-77.132	0.281	-0.098
-415.428	-200.000	0.037	-0.224
-414.413	64.759	-0.108	-0.110
-413.398	-13.914	0.160	0.104
-412.384	800.000	-0.085	0.322
-411.369	9.218	0.232	-0.176
-410.355	-175.387	-0.171	-0.005
-409.340	-32.935	0.420	0.235
-408.325	454.227	0.190	0.424
-407.311	113.274	-0.047	-0.058
-406.296	0.531	0.095	-0.068
-405.282	-152.219	0.308	0.022
-404.267	-52.068	-0.122	0.057
-403.252	-200.000	0.051	-0.470
-402.238	24.013	-0.174	-0.145
-401.223	423.641	-0.110	-0.238
-400.209	3.052	-0.091	0.067
-399.194	-111.438	0.068	0.014
-398.179	-53.012	0.395	0.183
-397.165	602.001	-0.093	-0.233
-396.150	-94.029	0.055	0.015
-395.136	-25.039	0.280	-0.167
-394.121	-71.389	0.254	0.096
-393.106	-200.000	-0.050	0.297
-392.092	45.354	-0.155	0.144
-391.077	218.737	0.039	-0.063
-390.063	110.426	-0.107	-0.129
-389.048	77.036	-0.180	-0.192
-388.033	631.263	0.089	-0.227
-387.019	-81.790	0.172	0.057
-386.004	93.669	0.071	0.081
-384.990	250.897	-0.033	-0.056
-383.975	-17.753	-0.357	0.225
-382.960	800.000	0.071	-0.221
-381.946	219.342	0.046	0.074
-380.931	-139.895	0.189	0.020
-379.917	-53.157	0.144	0.067
-378.902	-2.034	-0.143	0.101
-377.888	-155.918	0.277	0.018
-376.873	-200.000	-0.025	-0.173
-375.858	-200.000	0.010	-0.072
-374.844	50.051	0.116	-0.110
-373.829	578.623	0.044	0.109
-372.815	162.135	-0.058	0.081
-371.800	13.127	-0.060	-0.047
-370.785	256.603	-0.092	0.159
-369.771	-170.984	-0.235	0.008
-368.756	61.957	0.157	-0.157
-367.742	-200.000	0.009	0.071
-366.727	-143.077	0.121	0.012
-365.712	-200.000	0.015	-0.081
-364.698	-52.864	0.129	0.060
-363.683	800.000	-0.061	-0.174
-362.669	-47.456	0.234	0.114
-361.654	-116.282	0.222	-0.041
-360.639	-200.000	0.019	-0.164
-359.625	-118.656	0.130	-0.023
-358.610	459.630	0.074	-0.165
-357.596	-200.000	-0.015	0.097
-356.581	141.182	0.003	0.004
-355.566	513.254	0.103	-0.241
-354.552	121.545	0.123	0.154
-353.537	-130.067	-0.063	-0.009
-352.523	9.448	-0.411	-0.312
-351.508	161.950	0.120	0.169
-350.493	-200.000	0.000	0.041
-349.479	-32.091	-0.138	-0.077
-348.464	75.483	0.169	0.179
-347.450	198.791	-0.150	0.230
-346.435	-96.379	-0.169	0.045
-345.420	14.077	0.019	0.015
-344.406	800.000	-0.056	-0.196
-343.391	-116.970	-0.271	0.050
-342.377	-200.000	-0.017	0.247
-341.362	-44.182	-0.211	-0.106
-340.348	-92.601	-0.135	0.038
-339.333	-200.000	0.033	-0.259
-338.318	605.951	0.030	0.074
-337.304	-0.110	0.128	-0.092
-336.289	800.000	-0.022	0.060
-335.275	-200.000	0.041	0.251
-334.260	-3.504	0.174	-0.122
-333.245	193.965	-0.051	-0.078
-332.231	-136.748	0.128	-0.015
-331.216	-123.870	-0.148	0.023
-330.202	-159.411	0.194	0.011
-329.187	-49.000	-0.288	0.139
-328.172	-4.922	-0.127	-0.088
-327.158	-191.457	0.179	0.002
-326.143	-200.000	0.004	0.112
-325.129	-119.751	-0.335	-0.058
-324.114	268.042	0.051	0.090
-323.099	-121.911	-0.551	0.091
-322.085	506.812	-0.198	-0.461
-321.070	659.842	-0.046	0.119
-320.056	105.496	0.066	0.078
-319.041	-107.772	-0.263	-0.058
-318.026	60.078	0.142	-0.140
-317.012	-48.543	0.060	-0.029
-315.997	237.871	0.177	0.295
-314.983	-89.952	-0.213	0.062
-313.968	-200.000	0.031	-0.163
-312.953	-101.619	-0.248	0.060
-311.939	-108.919	-0.220	-0.047
-310.924	463.372	0.144	0.323
-309.910	780.263	0.054	-0.149
-308.895	-122.156	-0.319	0.052
-307.880	65.079	-0.130	0.131
-306.866	53.173	-0.065	-0.062
-305.851	-200.000	-0.004	0.152
-304.837	350.382	-0.154	-0.304
-303.822	-53.521	0.139	0.064
-302.807	-54.165	-0.365	0.167
-301.793	-115.066	-0.295	-0.056
-300.778	-162.887	0.113	0.006
-299.764	-85.964	0.186	-0.058
-298.749	-200.000	0.010	-0.140
-297.735	-54.184	0.267	-0.122
-296.720	-200.000	-0.033	0.224
-295.705	11.790	-0.266	0.205
-294.691	-150.106	-0.080	0.006
-293.676	-200.000	-0.031	0.374
-292.662	145.838	-0.167	-0.224
-291.647	454.311	-0.156	0.346
-290.632	-0.115	0.095	0.068
-289.618	-200.000	0.005	-0.229
-288.603	574.199	-0.098	-0.239
-287.589	-30.571	0.077	-0.044
-286.574	169.990	0.144	0.206
-285.559	91.616	0.156	0.175
-284.545	-27.407	0.293	-0.170
-283.530	70.330	0.103	0.107
-282.516	-200.000	-0.025	-0.167
-281.501	-136.035	0.364	-0.043
-280.486	-80.234	-0.370	0.124
-279.472	-200.000	0.044	0.213
-278.457	704.710	-0.062	0.165
-277.443	-61.911	0.259	0.109
-276.428	800.000	0.065	0.242
-275.413	-141.559	0.301	-0.030
-274.399	-88.970	-0.455	0.135
-273.384	87.970	0.157	-0.174
-272.370	-200.000	0.016	-0.241
-271.355	-137.215	-0.263	0.030
-270.340	-167.445	-0.232	-0.009
-269.326	-50.496	-0.114	0.054
-268.311	177.258	-0.243	-0.354
-267.297	-200.000	-0.087	-0.453
-266.282	62.389	0.152	0.152
-265.267	17.722	0.055	0.044
-264.253	-31.176	0.223	0.126
-263.238	-126.013	0.246	-0.037
-262.224	735.976	-0.090	0.241
-261.209	92.884	-0.093	0.105
-260.195	15.371	-0.477	-0.375
-259.180	77.183	-0.085	0.090
-258.165	800.000	-0.122	0.363
-257.151	32.909	-0.153	-0.132
-256.136	-133.578	0.118	-0.015
-255.122	-131.321	0.212	0.028
-254.107	800.000	0.079	0.258
-253.092	-200.000	-0.069	0.334
-252.078	213.325	-0.119	0.189
-251.063	-64.413	-0.432	-0.176
-250.049	800.000	-0.024	-0.082
-249.034	-200.000	-0.008	0.202
-248.019	29.600	0.153	-0.130
-247.005	101.187	0.108	-0.126
-245.990	51.686	-0.098	0.093
-244.976	-50.738	-0.090	0.042
-243.961	78.574	0.041	-0.044
-242.946	143.094	0.082	0.110
-241.932	67.621	-0.273	-0.279
-240.917	163.213	-0.067	-0.094
-239.903	182.970	-0.162	-0.239
-238.888	-123.994	0.434	0.068
-237.873	-85.220	-0.127	0.040
-236.859	-119.879	0.240	0.041
-235.844	176.195	0.067	0.098
-234.830	-10.568	0.186	-0.123
-233.815	35.175	0.302	-0.264
-232.800	149.962	-0.087	-0.118
-231.786	294.817	-0.043	0.078
-230.771	-200.000	0.032	0.144
-229.757	-38.311	0.154	-0.081
-228.742	87.719	0.138	-0.153
-227.727	-123.713	0.324	0.051
-226.713	-200.000	-0.023	0.362
-225.698	28.453	-0.153	0.129
-224.684	181.238	-0.212	0.312
-223.669	-200.000	-0.024	-0.119
-222.655	-101.275	-0.192	0.047
-221.640	217.990	0.089	0.141
-220.625	-83.924	0.223	0.071
-219.611	-5.226	0.457	-0.314
-218.596	-142.005	0.316	-0.031
-217.582	-200.000	0.011	-0.207
-216.567	403.528	-0.023	-0.048
-215.552	23.293	0.017	-0.014
-214.538	123.521	-0.159	-0.200
-213.523	68.889	0.244	0.250
-212.509	-93.457	-0.123	0.034
-211.494	-71.414	0.400	-0.150
-210.479	24.210	-0.298	-0.246
-209.465	15.744	0.083	0.065
-208.450	-159.787	0.206	0.011
-207.436	156.114	-0.154	0.212
-206.421	-200.000	0.003	-0.062
-205.406	800.000	-0.097	0.290
-204.392	-26.311	-0.309	-0.181
-203.377	-173.010	0.418	-0.013
-202.363	129.265	-0.123	0.157
-201.348	57.647	0.263	0.257
-200.333	12.616	-0.228	0.176
-199.319	-95.808	-0.067	-0.018
-198.304	800.000	-0.149	0.477
-197.290	-54.560	-0.240	0.108
-196.275	117.986	-0.175	0.215
-195.260	17.411	0.131	-0.104
-194.246	100.058	0.122	-0.141
-193.231	258.238	0.114	0.195
-192.217	65.165	-0.165	-0.166
-191.202	-181.465	-0.184	0.004
-190.187	284.854	0.124	-0.224
-189.173	-172.921	0.188	0.006
-188.158	-200.000	-0.020	-0.217
-187.144	179.261	-0.064	0.093
-186.129	57.761	-0.119	-0.116
-185.114	2.865	-0.154	-0.111
-184.100	3.999	0.082	0.060
-183.085	147.897	-0.152	0.204
-182.071	-19.935	-0.061	0.037
-181.056	-200.000	-0.002	-0.110
-180.042	-0.310	0.263	0.187
-179.027	-200.000	0.002	0.263
-178.012	16.298	0.203	0.160
-176.998	-48.884	0.110	0.053
-175.983	800.000	0.044	0.161
-174.969	63.594	0.132	-0.132
-173.954	-77.839	-0.148	-0.051
-172.939	-13.086	0.246	-0.159
-171.925	276.502	0.005	0.009
-170.910	800.000	-0.026	0.094
-169.896	49.822	-0.168	0.157
-168.881	141.528	0.067	-0.088
-167.866	-163.104	0.240	-0.012
-166.852	-98.937	0.215	0.054
-165.837	800.000	-0.029	0.110
-164.823	86.333	0.125	-0.137
-163.808	276.330	-0.161	0.286
-162.793	90.744	-0.181	0.202
-161.779	800.000	0.034	-0.116
-160.764	197.415	-0.123	0.187
-159.750	584.203	-0.149	-0.364
-158.735	42.040	0.132	-0.120
-157.720	800.000	-0.063	0.232
-156.706	-135.064	0.303	0.036
-155.691	207.279	-0.080	0.124
-154.677	-189.319	0.263	-0.003
-153.662	800.000	-0.079	-0.271
-152.647	-200.000	-0.026	-0.203
-151.633	800.000	0.079	0.236
-150.618	44.099	0.245	0.224
-149.604	-200.000	0.021	-0.126
-148.589	112.534	0.095	-0.115
-147.574	629.632	0.066	0.167
-146.560	800.000	-0.095	-0.287
-145.545	84.230	-0.162	0.177
-144.531	122.661	-0.029	-0.036
-143.516	-26.709	0.099	-0.058
-142.502	-200.000	-0.034	0.212
-141.487	13.235	-0.033	0.025
-140.472	-76.705	0.195	0.068
-139.458	-200.000	-0.034	-0.336
-138.443	-101.199	-0.146	0.036
-137.429	-24.654	-0.150	-0.089
-136.414	-200.000	-0.005	-0.032
-135.399	33.227	0.181	0.156
-134.385	68.904	-0.134	-0.137
-133.370	-35.210	-0.096	-0.052
-132.356	-128.342	-0.056	0.008
-131.341	59.488	0.187	-0.183
-130.326	73.213	0.261	0.272
-129.312	-200.000	-0.018	0.163
-128.297	-200.000	0.007	-0.099
-127.283	9.089	-0.140	-0.105
-126.268	320.184	-0.048	0.090
-125.253	-0.943	0.241	-0.170
-124.239	203.105	-0.219	-0.336
-123.224	-130.958	0.376	0.050
-122.210	-44.345	-0.149	0.074
-121.195	-65.936	-0.264	-0.105
