DTS Sentinel unit serial number:	SN413079Multiplexer serial number:	ORYXHardware model number:	OX4-SRSoftware version number:	ORYX F/W v4.00 Oryx Data Collector v3.7.2.0data status	okinstallation	princeton_trtdifferential loss correction	single-endedforward channel	channel 2reverse channel	N/Adate	2019/09/13time	05:35:35forward acquisition time	60.00reverse acquisition time	0.00gamma	496.2192k internal	0.2338k external	0.2338temperature offset calibration	1.0190default loss term (dB/km)	0.3790temperature slope calibration	1.0000multiplexer offset coefficient	1.0000multiplexer slope coefficient	1.0000fibre end	0.00T internal ref (°C)	26.25T ext. ref 1 (°C)	4.05T ext. ref 2 (°C)	20.87length (m)	temperature (°C)	Stokes	anti-Stokes-747.200	-26.891	-0.281	-0.165
-746.185	450.840	-0.114	0.253
-745.171	-104.886	-0.487	-0.112
-744.156	-4.335	-0.274	0.191
-743.142	426.731	-0.045	0.098
-742.127	251.681	-0.217	-0.370
-741.112	354.195	0.071	0.141
-740.098	271.365	-0.066	0.116
-739.083	27.808	0.141	0.119
-738.069	232.330	-0.072	0.119
-737.054	-112.816	0.340	-0.068
-736.039	-170.515	-0.535	-0.019
-735.025	462.570	0.175	0.393
-734.010	-6.540	-0.148	0.101
-732.996	-56.489	-0.363	0.161
-731.981	800.000	-0.067	0.275
-730.966	-200.000	-0.035	-0.224
-729.952	295.887	0.081	-0.148
-728.937	-11.345	0.190	0.125
-727.923	42.966	-0.131	-0.120
-726.908	76.909	-0.220	0.234
-725.894	-33.785	-0.228	-0.126
-724.879	-137.871	-0.247	0.028
-723.864	-22.323	-0.097	-0.059
-722.850	-11.651	0.063	0.042
-721.835	-95.360	0.302	-0.081
-720.821	36.912	0.093	0.082
-719.806	-153.578	0.139	0.010
-718.791	-79.793	-0.122	-0.041
-717.777	15.017	-0.291	0.229
-716.762	-200.000	0.015	-0.351
-715.748	414.868	0.108	-0.231
-714.733	-200.000	0.020	0.098
-713.718	800.000	0.083	-0.268
-712.704	41.791	-0.152	-0.139
-711.689	-117.990	-0.272	0.049
-710.675	-175.742	0.391	-0.011
-709.660	114.300	0.240	-0.293
-708.645	-200.000	-0.019	0.195
-707.631	-12.264	-0.292	-0.191
-706.616	800.000	0.045	0.143
-705.602	212.855	-0.139	0.220
-704.587	149.950	0.180	-0.245
-703.572	-141.193	-0.294	0.030
-702.558	35.787	-0.106	-0.093
-701.543	-80.874	-0.187	-0.062
-700.529	-106.668	0.096	0.021
-699.514	588.593	0.064	-0.159
-698.499	-96.621	0.125	-0.033
-697.485	143.189	0.200	0.266
-696.470	-20.968	-0.117	-0.072
-695.456	-42.732	-0.192	-0.098
-694.441	172.724	-0.159	0.229
-693.426	-3.061	-0.326	-0.228
-692.412	-12.487	0.308	0.202
-691.397	-117.769	-0.179	0.032
-690.383	-200.000	0.001	-0.054
-689.368	1.680	-0.234	-0.169
-688.354	-17.816	0.495	0.311
-687.339	3.325	-0.231	0.169
-686.324	-77.680	-0.376	-0.130
-685.310	800.000	0.066	0.190
-684.295	-200.000	-0.038	0.418
-683.281	108.248	-0.096	-0.115
-682.266	-106.097	0.250	0.056
-681.251	-200.000	0.002	0.136
-680.237	-200.000	0.028	-0.295
-679.222	-32.345	0.372	0.208
-678.208	-1.871	-0.042	0.030
-677.193	800.000	0.059	-0.252
-676.178	1.176	0.100	-0.072
-675.164	-200.000	0.024	0.312
-674.149	-118.009	-0.224	0.040
-673.135	-200.000	0.013	-0.295
-672.120	800.000	0.070	-0.296
-671.105	-125.349	0.162	-0.025
-670.091	-74.402	0.199	0.072
-669.076	187.132	-0.097	0.144
-668.062	2.995	0.109	-0.079
-667.047	800.000	-0.117	-0.365
-666.032	371.000	0.097	-0.196
-665.018	536.812	0.027	0.065
-664.003	-148.181	-0.195	0.016
-662.989	800.000	-0.018	0.051
-661.974	328.395	-0.203	-0.389
-660.959	-122.326	-0.264	-0.043
-659.945	296.801	-0.094	-0.173
-658.930	277.698	-0.148	-0.264
-657.916	724.360	-0.215	-0.574
-656.901	335.702	0.033	-0.063
-655.886	595.368	0.069	0.170
-654.872	-107.470	-0.297	0.065
-653.857	-107.604	-0.128	0.028
-652.843	800.000	0.028	-0.118
-651.828	28.028	0.162	0.137
-650.814	214.804	-0.084	-0.133
-649.799	-200.000	-0.018	-0.159
-648.784	377.833	-0.071	0.146
-647.770	800.000	0.014	-0.057
-646.755	-100.260	0.392	0.097
-645.741	-116.312	-0.341	0.063
-644.726	-104.162	0.191	0.044
-643.711	792.697	0.070	0.192
-642.697	-43.455	0.315	-0.159
-641.682	-116.606	-0.517	0.095
-640.668	-200.000	0.068	-0.380
-639.653	-200.000	0.008	-0.201
-638.638	-69.867	-0.187	0.071
-637.624	-99.587	0.209	0.052
-636.609	-25.400	0.225	0.133
-635.595	-99.023	-0.076	0.019
-634.580	-200.000	-0.010	-0.318
-633.565	-98.756	-0.202	-0.051
-632.551	-149.795	0.526	0.041
-631.536	4.627	0.116	0.085
-630.522	-59.747	0.136	-0.058
-629.507	-93.375	0.058	-0.016
-628.492	-104.768	0.412	0.095
-627.478	800.000	-0.113	-0.482
-626.463	210.823	0.155	-0.244
-625.449	570.163	-0.024	-0.059
-624.434	215.125	-0.128	-0.202
-623.419	-200.000	0.023	0.245
-622.405	-25.966	0.218	-0.128
-621.390	-200.000	0.038	-0.183
-620.376	-200.000	-0.030	-0.182
-619.361	-200.000	0.063	-0.399
-618.346	138.773	-0.112	0.147
-617.332	373.199	-0.107	-0.218
-616.317	800.000	0.094	0.328
-615.303	-35.906	-0.147	-0.080
-614.288	-115.336	-0.470	-0.089
-613.273	-56.548	0.158	0.070
-612.259	7.409	-0.239	0.178
-611.244	-86.416	-0.172	0.053
-610.230	-22.718	-0.087	0.052
-609.215	-102.085	0.153	0.037
-608.201	-0.949	0.189	0.133
-607.186	800.000	-0.017	-0.074
-606.171	-200.000	0.021	-0.218
-605.157	213.030	0.142	-0.224
-604.142	-26.848	-0.262	0.153
-603.128	-200.000	-0.020	0.185
-602.113	230.956	-0.083	0.135
-601.098	79.498	-0.071	0.076
-600.084	-200.000	0.008	-0.278
-599.069	205.786	-0.049	0.076
-598.055	-65.044	0.147	-0.059
-597.040	800.000	0.011	-0.034
-596.025	-50.242	0.182	-0.086
-595.011	-200.000	-0.012	-0.105
-593.996	-170.522	-0.111	0.004
-592.982	-34.680	0.149	-0.082
-591.967	-129.956	-0.152	0.021
-590.952	800.000	-0.066	-0.230
-589.938	-200.000	0.054	0.475
-588.923	-63.817	-0.132	-0.054
-587.909	-200.000	0.057	-0.407
-586.894	-68.961	-0.298	-0.114
-585.879	800.000	-0.050	0.154
-584.865	-45.716	0.302	0.149
-583.850	-200.000	-0.073	-0.432
-582.836	-200.000	-0.019	-0.121
-581.821	800.000	-0.049	-0.183
-580.806	-65.598	-0.251	-0.101
-579.792	-200.000	-0.051	0.259
-578.777	8.537	-0.260	-0.195
-577.763	-195.554	0.490	-0.004
-576.748	-39.960	-0.091	0.048
-575.733	-6.934	0.256	0.173
-574.719	-192.438	-0.287	-0.003
-573.704	426.131	0.076	0.162
-572.690	219.832	0.175	0.279
-571.675	115.666	-0.132	0.161
-570.661	-170.432	-0.289	0.010
-569.646	60.969	-0.107	0.106
-568.631	-19.629	0.280	0.173
-567.617	-200.000	-0.016	0.197
-566.602	-84.876	-0.197	0.062
-565.588	-113.890	0.166	0.032
-564.573	-149.056	0.230	-0.018
-563.558	0.050	0.338	-0.240
-562.544	446.830	-0.071	0.156
-561.529	247.650	0.083	0.140
-560.515	-200.000	0.036	0.351
-559.500	11.340	-0.099	-0.076
-558.485	-134.031	-0.324	-0.040
-557.471	-137.337	-0.387	0.044
-556.456	107.910	-0.080	0.095
-555.442	196.813	-0.177	0.269
-554.427	-8.366	0.383	0.257
-553.412	34.591	-0.067	-0.058
-552.398	800.000	0.054	-0.151
-551.383	-109.071	0.322	-0.068
-550.369	-103.215	-0.183	0.043
-549.354	-46.304	-0.272	0.133
-548.339	-200.000	-0.016	0.147
-547.325	-18.082	-0.360	0.224
-546.310	-200.000	0.062	0.322
-545.296	206.753	0.072	-0.111
-544.281	428.350	0.056	-0.121
-543.266	50.451	-0.177	-0.166
-542.252	-166.967	-0.047	-0.002
-541.237	24.503	-0.083	0.068
-540.223	-158.632	-0.546	0.031
-539.208	-147.192	0.070	0.006
-538.193	-126.071	-0.247	0.037
-537.179	156.034	-0.238	0.327
-536.164	800.000	0.027	-0.105
-535.150	-138.492	0.323	-0.035
-534.135	-200.000	-0.030	-0.200
-533.121	-73.614	0.188	0.068
-532.106	-32.509	-0.103	-0.057
-531.091	280.833	-0.157	-0.280
-530.077	72.392	0.331	-0.343
-529.062	437.346	-0.113	0.244
-528.048	-21.523	-0.162	-0.098
-527.033	134.306	0.286	-0.369
-526.018	196.051	-0.095	-0.144
-525.004	-94.080	0.274	0.075
-523.989	665.625	-0.198	0.508
-522.975	229.781	-0.063	-0.103
-521.960	457.072	0.158	0.349
-520.945	-124.048	0.126	0.020
-519.931	244.648	0.113	0.189
-518.916	-200.000	0.029	0.401
-517.902	61.085	-0.011	-0.011
-516.887	71.645	-0.138	-0.143
-515.872	-143.817	0.134	0.013
-514.858	177.394	0.170	-0.246
-513.843	-200.000	0.020	-0.108
-512.829	-200.000	-0.022	0.234
-511.814	5.795	-0.384	-0.283
-510.799	-109.653	0.151	0.032
-509.785	309.482	0.065	0.122
-508.770	-33.756	0.463	-0.254
-507.756	-104.070	-0.355	0.082
-506.741	-85.207	-0.301	0.094
-505.726	-200.000	-0.042	0.231
-504.712	-81.227	0.151	0.050
-503.697	-150.924	0.087	-0.007
-502.683	80.920	-0.072	-0.077
-501.668	-87.663	0.097	0.029
-500.653	0.661	0.189	0.134
-499.639	-200.000	0.004	0.061
-498.624	9.010	-0.217	-0.163
-497.610	-90.902	-0.239	-0.069
-496.595	-125.580	0.098	0.015
-495.581	-10.491	0.030	-0.019
-494.566	-124.848	0.154	-0.024
-493.551	8.661	-0.095	-0.071
-492.537	-200.000	-0.005	0.416
-491.522	-104.428	0.325	-0.075
-490.508	138.864	0.272	-0.355
-489.493	-146.388	-0.118	0.010
-488.478	32.816	-0.479	-0.412
-487.464	144.299	0.194	0.257
-486.449	-90.992	0.344	0.098
-485.435	144.876	-0.058	0.077
-484.420	232.282	0.056	-0.091
-483.405	53.396	-0.199	0.190
-482.391	-200.000	-0.001	0.063
-481.376	-37.838	0.220	-0.116
-480.362	-74.178	-0.344	-0.124
-479.347	-86.480	0.389	0.118
-478.332	-129.280	-0.153	-0.021
-477.318	800.000	-0.046	0.132
-476.303	82.868	0.225	0.242
-475.289	-86.490	0.304	-0.093
-474.274	-159.135	0.071	0.004
-473.259	-27.213	-0.250	0.145
-472.245	209.591	0.134	0.209
-471.230	284.762	-0.226	0.403
-470.216	26.353	0.300	0.249
-469.201	283.392	-0.139	0.248
-468.186	-200.000	0.005	0.308
-467.172	6.280	-0.069	-0.051
-466.157	-200.000	-0.085	-0.385
-465.143	-120.201	0.195	-0.033
-464.128	800.000	-0.013	0.053
-463.113	-59.663	-0.173	-0.074
-462.099	800.000	-0.006	0.023
-461.084	-90.431	0.156	0.045
-460.070	-144.850	-0.161	0.015
-459.055	-200.000	0.037	0.241
-458.040	-119.349	-0.036	-0.006
-457.026	800.000	0.067	0.224
-456.011	-200.000	-0.032	-0.159
-454.997	214.608	-0.023	-0.036
-453.982	-22.115	0.038	-0.023
-452.968	365.469	-0.120	-0.239
-451.953	-77.975	-0.156	-0.053
-450.938	-145.968	-0.253	0.022
-449.924	38.100	-0.220	-0.194
-448.909	-63.833	0.215	-0.088
-447.895	-145.298	-0.223	-0.020
-446.880	800.000	0.063	0.272
-445.865	437.204	0.226	-0.488
-444.851	-81.175	0.293	0.096
-443.836	-200.000	-0.036	0.206
-442.822	113.695	0.303	-0.365
-441.807	-139.419	0.305	0.032
-440.792	-200.000	0.017	0.108
-439.778	-76.623	0.134	0.047
-438.763	46.230	-0.124	-0.114
-437.749	800.000	0.073	0.230
-436.734	43.120	0.059	0.054
-435.719	-200.000	0.077	-0.545
-434.705	-200.000	0.108	-0.473
-433.690	-52.263	-0.297	0.136
-432.676	-10.923	-0.182	-0.119
-431.661	13.498	0.021	0.016
-430.646	133.460	-0.081	-0.103
-429.632	-200.000	0.044	-0.210
-428.617	282.738	-0.119	0.212
-427.603	142.929	-0.080	-0.105
-426.588	170.757	0.234	0.332
-425.573	-153.958	-0.237	-0.016
-424.559	-64.315	-0.002	-0.001
-423.544	-25.519	-0.195	0.114
-422.530	77.568	-0.011	-0.012
-421.515	-70.607	-0.249	-0.093
-420.500	-200.000	-0.013	0.316
-419.486	48.030	-0.108	-0.100
-418.471	470.516	0.160	-0.357
-417.457	-102.019	0.203	0.049
-416.442	-59.983	-0.081	0.034
-415.428	-26.075	-0.083	0.049
-414.413	356.393	0.045	-0.089
-413.398	800.000	0.159	-0.558
-412.384	656.397	-0.033	-0.085
-411.369	692.655	-0.054	0.139
-410.355	800.000	0.100	0.366
-409.340	759.190	0.092	-0.247
-408.325	-62.844	-0.123	-0.050
-407.311	46.681	-0.077	-0.071
-406.296	7.848	0.247	-0.183
-405.282	-200.000	0.048	-0.215
-404.267	-0.893	0.074	-0.052
-403.252	-96.009	0.319	-0.084
-402.238	303.492	-0.164	-0.300
-401.223	-200.000	-0.002	0.028
-400.209	139.381	-0.093	-0.121
-399.194	-1.098	0.193	-0.135
-398.179	-200.000	0.038	0.322
-397.165	-200.000	-0.031	-0.338
-396.150	800.000	0.041	-0.127
-395.136	32.312	0.218	-0.187
-394.121	22.250	-0.438	-0.354
-393.106	123.292	-0.109	-0.136
-392.092	800.000	-0.057	-0.163
-391.077	150.483	-0.260	0.349
-390.063	-116.127	0.311	0.057
-389.048	-71.577	-0.062	0.023
-388.033	-44.044	-0.158	0.079
-387.019	-81.342	-0.249	-0.081
-386.004	47.288	0.055	-0.051
-384.990	-92.970	0.235	0.065
-383.975	800.000	-0.076	0.270
-382.960	800.000	0.072	-0.211
-381.946	329.233	0.096	-0.182
-380.931	-98.777	-0.373	-0.094
-379.917	800.000	-0.093	-0.346
-378.902	631.089	-0.073	-0.183
-377.888	-72.272	0.333	-0.122
-376.873	100.197	0.113	-0.129
-375.858	270.334	-0.111	-0.193
-374.844	-200.000	-0.003	0.033
-373.829	-40.464	0.242	0.125
-372.815	-200.000	-0.072	-0.331
-371.800	27.273	0.308	-0.256
-370.785	-94.317	0.101	-0.027
-369.771	39.426	-0.205	-0.182
-368.756	427.181	-0.187	-0.399
-367.742	86.907	0.138	0.151
-366.727	-86.957	-0.236	-0.071
-365.712	284.290	0.127	-0.226
-364.698	41.127	0.224	0.200
-363.683	-56.708	-0.347	-0.152
-362.669	-69.435	-0.208	0.079
-361.654	-169.880	0.063	-0.002
-360.639	-200.000	0.029	0.394
-359.625	-200.000	0.057	0.540
-358.610	-42.850	0.190	0.095
-357.596	183.247	-0.045	0.065
-356.581	61.730	-0.140	0.138
-355.566	446.631	-0.032	0.071
-354.552	800.000	-0.039	0.111
-353.537	-90.947	0.445	-0.127
-352.523	234.066	-0.080	-0.131
-351.508	87.533	0.092	-0.100
-350.493	-71.266	-0.152	0.056
-349.479	-200.000	-0.002	0.216
-348.464	-200.000	0.021	0.300
-347.450	-200.000	-0.021	-0.278
-346.435	-66.485	0.177	0.070
-345.420	-105.777	0.083	-0.019
-344.406	10.305	0.266	0.200
-343.391	137.987	0.137	-0.178
-342.377	511.932	-0.127	0.293
-341.362	182.867	0.078	0.114
-340.348	-151.773	-0.357	0.026
-339.333	800.000	-0.075	0.260
-338.318	-84.052	0.312	0.098
-337.304	56.347	0.185	0.178
-336.289	-131.618	0.172	-0.022
-335.275	-150.884	0.224	0.017
-334.260	-200.000	-0.002	0.208
-333.245	-200.000	0.022	0.167
-332.231	233.547	-0.005	-0.007
-331.216	616.937	-0.079	-0.196
-330.202	53.737	0.083	-0.079
-329.187	-90.194	0.325	-0.093
-328.172	-200.000	0.035	-0.282
-327.158	-35.156	-0.038	-0.020
-326.143	16.067	-0.290	-0.226
-325.129	-136.558	0.210	0.024
-324.114	800.000	0.038	0.123
-323.099	-176.785	-0.088	0.002
-322.085	125.404	-0.046	-0.057
-321.070	78.526	-0.095	-0.100
-320.056	-130.207	0.179	-0.024
-319.041	248.567	-0.163	-0.272
-318.026	54.036	-0.177	-0.168
-317.012	-100.879	0.298	0.072
-315.997	-13.281	-0.073	-0.047
-314.983	-121.458	0.061	0.010
-313.968	-106.138	0.132	0.029
-312.953	41.004	0.074	0.066
-311.939	491.301	-0.134	-0.303
-310.924	-100.151	0.276	0.068
-309.910	-200.000	-0.032	0.249
-308.895	-48.397	0.057	-0.027
-307.880	535.203	-0.160	0.375
-306.866	15.709	-0.209	0.162
-305.851	-91.900	-0.114	0.032
-304.837	-27.197	0.340	-0.195
-303.822	-96.099	0.050	0.013
-302.807	66.138	-0.132	-0.132
-301.793	-32.434	0.302	0.166
-300.778	-200.000	0.012	0.158
-299.764	383.159	-0.048	-0.098
-298.749	-23.343	-0.284	-0.169
-297.735	-87.653	0.088	0.026
-296.720	45.538	0.096	0.088
-295.705	-200.000	-0.012	-0.250
-294.691	-94.597	-0.511	-0.137
-293.676	98.974	0.102	0.117
-292.662	330.831	0.086	-0.163
-291.647	-80.785	-0.585	0.192
-290.632	80.258	-0.261	-0.276
-289.618	-38.181	0.201	0.105
-288.603	-200.000	0.004	0.068
-287.589	-200.000	-0.006	-0.118
-286.574	-43.027	0.200	0.100
-285.559	589.929	0.036	0.088
-284.545	-155.810	-0.191	-0.012
-283.530	-30.892	-0.218	0.121
-282.516	-61.633	0.265	0.110
-281.501	-97.081	0.239	0.062
-280.486	121.366	0.227	-0.278
-279.472	-100.718	0.330	-0.080
-278.457	36.604	-0.154	0.134
-277.443	-48.949	-0.241	-0.114
-276.428	-88.295	0.064	-0.019
-275.413	-157.047	0.417	0.025
-274.399	-121.058	0.195	-0.032
-273.384	511.636	0.130	0.298
-272.370	-200.000	-0.016	0.160
-271.355	-200.000	-0.009	0.050
-270.340	85.964	0.093	0.101
-269.326	-7.959	0.127	0.084
-268.311	234.053	0.101	-0.164
-267.297	-200.000	0.144	-0.000
-266.282	21.771	0.091	-0.073
-265.267	112.207	0.152	-0.181
-264.253	-35.085	-0.280	-0.151
-263.238	154.615	-0.170	-0.230
-262.224	800.000	0.020	-0.074
-261.209	16.901	-0.205	0.160
-260.195	-140.882	0.242	-0.024
-259.180	-110.524	-0.464	0.095
-258.165	-200.000	0.009	-0.063
-257.151	-200.000	0.075	0.403
-256.136	-67.644	-0.198	-0.077
-255.122	-200.000	-0.024	-0.287
-254.107	-26.050	-0.108	0.062
-253.092	293.981	0.052	0.093
-252.078	-51.192	0.268	0.124
-251.063	167.208	-0.160	0.224
-250.049	-200.000	-0.016	-0.112
-249.034	200.542	-0.185	0.280
-248.019	-73.440	-0.166	0.060
-247.005	-190.490	-0.085	-0.001
-245.990	287.872	0.231	0.412
-244.976	-82.860	0.295	0.094
-243.961	645.793	0.040	-0.100
-242.946	107.249	0.170	0.199
-241.932	-61.009	-0.148	-0.061
-240.917	223.491	-0.079	-0.125
-239.903	74.611	0.042	0.044
-238.888	-200.000	-0.014	0.216
-237.873	-12.203	0.097	-0.062
-236.859	170.049	0.202	-0.284
-235.844	800.000	-0.128	0.432
-234.830	-154.213	0.377	0.025
-233.815	-200.000	0.025	0.314
-232.800	-200.000	-0.034	0.282
-231.786	93.469	-0.106	0.118
-230.771	-200.000	-0.034	-0.150
-229.757	-200.000	-0.054	-0.234
-228.742	47.408	-0.112	0.102
-227.727	800.000	0.048	0.206
-226.713	8.453	-0.088	-0.065
-225.698	-200.000	-0.022	0.180
-224.684	20.520	-0.100	-0.079
-223.669	315.505	0.100	-0.185
-222.655	56.968	0.232	0.223
-221.640	60.933	-0.060	-0.059
-220.625	800.000	0.040	0.133
-219.611	-99.453	0.236	-0.058
-218.596	800.000	-0.045	-0.135
-217.582	-200.000	0.006	-0.485
-216.567	-80.678	0.144	0.047
-215.552	-22.015	-0.240	0.144
-214.538	-76.565	-0.141	-0.049
-213.523	800.000	-0.049	-0.197
-212.509	222.415	-0.235	0.371
-211.494	79.834	0.122	0.129
-210.479	-34.544	0.143	0.077
-209.465	74.451	-0.238	0.246
-208.450	13.304	-0.066	-0.051
-207.436	-108.781	0.109	-0.023
-206.421	-14.208	0.257	-0.163
-205.406	-200.000	-0.001	0.094
-204.392	-200.000	-0.025	0.141
-203.377	-12.023	0.112	-0.072
-202.363	-200.000	0.035	-0.151
-201.348	800.000	-0.084	0.260
-200.333	-200.000	0.021	0.213
-199.319	37.090	-0.092	0.080
-198.304	272.619	0.088	-0.152
-197.290	-200.000	0.029	0.346
-196.275	-74.316	-0.287	0.102
-195.260	-200.000	-0.020	0.167
-194.246	0.127	0.044	-0.031
-193.231	-200.000	0.025	-0.111
-192.217	-64.994	-0.184	-0.073
-191.202	-128.559	-0.109	0.015
-190.187	756.222	-0.101	-0.267
-189.173	-83.327	-0.225	0.071
-188.158	98.180	-0.211	0.239
-187.144	17.144	0.206	-0.160
-186.129	-118.171	-0.306	-0.054
-185.114	-137.414	0.159	0.018
-184.100	800.000	-0.047	-0.192
-183.085	-159.525	0.348	-0.019
-182.071	357.568	-0.070	-0.137
-181.056	441.346	0.048	0.103
-180.042	101.302	0.115	-0.131
-179.027	800.000	0.110	0.386
-178.012	-200.000	-0.026	-0.185
-176.998	-200.000	-0.012	-0.265
-175.983	-185.500	-0.138	0.002
-174.969	20.538	-0.133	-0.106
-173.954	-40.688	-0.242	-0.123
-172.939	298.335	-0.090	0.163
-171.925	42.991	-0.189	-0.169
-170.910	-200.000	-0.026	-0.159
-169.896	800.000	-0.122	0.360
-168.881	-86.496	0.280	0.084
-167.866	53.253	-0.200	0.188
-166.852	-72.521	-0.286	-0.104
-165.837	215.625	0.185	0.287
-164.823	45.541	0.169	-0.153
-163.808	-75.370	0.053	0.019
-162.793	-78.009	-0.157	0.053
-161.779	75.579	-0.162	-0.168
-160.764	800.000	-0.086	-0.258
-159.750	458.137	0.023	0.051
-158.735	-70.496	-0.116	-0.043
-157.720	-68.709	-0.414	-0.157
-156.706	-153.985	0.044	-0.003
-155.691	294.902	-0.152	0.272
-154.677	-158.923	-0.189	0.011
-153.662	-41.812	-0.082	-0.041
-152.647	-111.018	0.092	-0.019
-151.633	-121.798	0.133	-0.022
-150.618	14.445	-0.074	-0.057
-149.604	60.703	0.027	-0.026
-148.589	-200.000	-0.012	-0.071
-147.574	-14.768	-0.145	0.091
-146.560	-200.000	0.036	0.179
-145.545	48.460	0.261	-0.240
-144.531	-51.925	0.155	-0.070
-143.516	-53.831	0.135	0.060
-142.502	473.258	-0.121	-0.266
-141.487	-200.000	-0.050	-0.271
-140.472	-97.751	-0.271	0.069
-139.458	-70.016	0.311	0.116
-138.443	-173.309	-0.189	-0.006
-137.429	-61.213	0.154	-0.064
-136.414	-200.000	-0.016	-0.329
-135.399	-113.048	0.141	0.027
-134.385	30.656	0.373	-0.312
-133.370	-122.550	-0.162	-0.026
-132.356	800.000	0.035	0.112
-131.341	-6.794	-0.199	-0.133
-130.326	80.613	-0.080	-0.084
-129.312	-85.126	-0.132	0.040
-128.297	-200.000	-0.019	0.098
-127.283	-165.024	-0.241	0.011
-126.268	93.256	-0.305	0.338
-125.253	-47.605	0.127	-0.061
-124.239	92.183	0.307	-0.338
-123.224	-200.000	-0.009	-0.165
-122.210	-39.125	-0.124	0.064
