DTS Sentinel unit serial number:	SN413079Multiplexer serial number:	ORYXHardware model number:	OX4-SRSoftware version number:	ORYX F/W v4.00 Oryx Data Collector v3.7.2.0data status	okinstallation	princeton_trtdifferential loss correction	single-endedforward channel	channel 2reverse channel	N/Adate	2019/09/13time	19:07:35forward acquisition time	60.00reverse acquisition time	0.00gamma	496.2192k internal	0.2328k external	0.2328temperature offset calibration	1.0170default loss term (dB/km)	0.3790temperature slope calibration	1.0000multiplexer offset coefficient	1.0000multiplexer slope coefficient	1.0000fibre end	0.00T internal ref (°C)	31.64T ext. ref 1 (°C)	3.87T ext. ref 2 (°C)	24.97length (m)	temperature (°C)	Stokes	anti-Stokes-747.200	8.596	0.216	0.164
-746.185	-130.832	-0.255	0.034
-745.171	-200.000	-0.036	0.433
-744.156	-122.158	-0.083	-0.014
-743.142	-156.217	0.311	-0.020
-742.127	12.682	0.183	-0.142
-741.112	-1.828	-0.104	-0.074
-740.098	112.035	0.297	0.362
-739.083	-44.658	-0.223	0.112
-738.069	-200.000	-0.033	0.345
-737.054	429.252	0.035	-0.076
-736.039	-63.868	-0.430	0.177
-735.025	8.934	-0.114	-0.087
-734.010	-179.092	0.301	-0.007
-732.996	-117.579	-0.256	0.047
-731.981	-88.132	-0.131	-0.039
-730.966	-89.299	-0.148	0.044
-729.952	-75.953	0.137	-0.049
-728.937	532.501	0.124	-0.295
-727.923	-63.032	-0.209	0.087
-726.908	-27.691	-0.144	0.084
-725.894	-50.469	-0.187	-0.089
-724.879	447.173	-0.039	-0.086
-723.864	264.026	-0.104	-0.183
-722.850	-96.796	0.216	-0.057
-721.835	-50.488	-0.175	0.083
-720.821	-111.981	0.036	-0.007
-719.806	378.644	-0.107	-0.220
-718.791	-200.000	-0.061	-0.365
-717.777	800.000	0.086	-0.347
-716.762	98.665	-0.249	0.289
-715.748	-200.000	0.004	-0.044
-714.733	390.797	-0.078	-0.163
-713.718	144.729	0.078	-0.105
-712.704	129.536	-0.181	-0.232
-711.689	-124.492	0.218	-0.034
-710.675	291.204	0.090	0.164
-709.660	6.505	0.157	0.117
-708.645	230.083	-0.160	-0.264
-707.631	-24.263	-0.091	-0.055
-706.616	0.509	-0.173	0.124
-705.602	253.028	-0.067	0.115
-704.587	-200.000	-0.083	-0.398
-703.572	800.000	0.015	-0.052
-702.558	448.411	0.083	0.183
-701.543	416.791	0.095	-0.204
-700.529	180.493	0.129	-0.191
-699.514	-92.444	-0.081	-0.023
-698.499	16.475	0.094	0.075
-697.485	274.642	-0.156	-0.279
-696.470	-43.862	-0.114	-0.058
-695.456	202.175	-0.069	0.106
-694.441	-19.932	-0.178	0.110
-693.426	-103.773	0.129	0.030
-692.412	423.754	0.033	-0.071
-691.397	-200.000	-0.003	0.144
-690.383	64.726	0.152	-0.154
-689.368	-100.865	-0.068	-0.017
-688.354	-59.386	-0.083	0.036
-687.339	-63.955	0.261	-0.107
-686.324	-200.000	-0.011	0.077
-685.310	800.000	-0.047	0.204
-684.295	800.000	0.104	-0.359
-683.281	36.960	-0.072	-0.064
-682.266	-24.052	0.053	0.032
-681.251	-132.554	-0.189	0.024
-680.237	80.961	0.036	0.039
-679.222	119.502	-0.116	-0.144
-678.208	-102.860	0.084	-0.020
-677.193	-31.823	0.230	-0.130
-676.178	-103.058	-0.171	0.041
-675.164	-53.460	-0.189	0.087
-674.149	30.672	-0.243	0.209
-673.135	-85.951	-0.349	0.108
-672.120	800.000	-0.079	-0.227
-671.105	-45.082	-0.613	-0.306
-670.091	-1.057	0.093	0.066
-669.076	-200.000	-0.037	-0.401
-668.062	149.025	0.211	-0.287
-667.047	-117.773	-0.081	0.015
-666.032	-200.000	-0.024	-0.115
-665.018	-127.924	-0.188	0.027
-664.003	-28.815	0.108	0.062
-662.989	223.598	-0.228	-0.369
-661.974	215.445	-0.063	-0.100
-660.959	104.607	0.151	-0.178
-659.945	196.140	-0.128	0.196
-658.930	9.683	-0.062	0.047
-657.916	275.300	0.101	-0.180
-656.901	-200.000	-0.000	-0.214
-655.886	328.143	0.055	0.105
-654.872	800.000	0.115	0.398
-653.857	155.885	-0.038	-0.053
-652.843	-116.129	0.139	0.026
-651.828	-200.000	0.009	-0.096
-650.814	-20.047	0.210	0.130
-649.799	-200.000	0.022	0.331
-648.784	-200.000	-0.057	0.302
-647.770	-24.374	-0.092	0.055
-646.755	173.904	0.217	-0.315
-645.741	-21.128	-0.374	-0.229
-644.726	-56.821	0.121	-0.054
-643.711	186.026	-0.096	-0.143
-642.697	-200.000	-0.012	-0.063
-641.682	55.367	0.027	-0.026
-640.668	-200.000	-0.021	-0.099
-639.653	800.000	-0.030	0.101
-638.638	-200.000	0.002	0.014
-637.624	-200.000	0.019	-0.115
-636.609	800.000	-0.098	-0.290
-635.595	160.952	0.230	0.323
-634.580	-57.174	-0.239	-0.106
-633.565	-15.754	-0.108	0.069
-632.551	-200.000	-0.015	-0.271
-631.536	-122.406	-0.060	-0.010
-630.522	800.000	-0.045	-0.166
-629.507	-38.687	-0.250	0.132
-628.492	-15.196	0.014	0.009
-627.478	41.614	-0.208	-0.189
-626.463	-91.607	-0.480	-0.137
-625.449	-94.417	0.146	-0.040
-624.434	281.533	0.171	0.307
-623.419	-134.212	0.079	-0.010
-622.405	-133.154	-0.264	-0.033
-621.390	193.218	-0.107	0.162
-620.376	38.398	-0.160	0.143
-619.361	-87.824	0.233	-0.070
-618.346	-33.357	-0.227	-0.126
-617.332	-162.189	0.373	0.019
-616.317	-73.306	0.342	-0.126
-615.303	48.775	-0.210	-0.197
-614.288	-111.970	-0.272	-0.055
-613.273	424.136	-0.039	0.084
-612.259	800.000	-0.063	0.209
-611.244	800.000	0.027	-0.092
-610.230	800.000	0.026	-0.072
-609.215	38.474	0.323	0.288
-608.201	68.282	-0.016	0.017
-607.186	218.573	-0.077	-0.124
-606.171	68.071	0.164	0.168
-605.157	-129.998	0.263	0.036
-604.142	125.666	-0.345	-0.437
-603.128	364.131	-0.078	0.158
-602.113	-37.634	-0.193	-0.103
-601.098	74.299	0.029	0.031
-600.084	-52.712	0.383	-0.177
-599.069	-160.005	0.093	0.005
-598.055	443.855	0.128	0.282
-597.040	-176.406	0.141	-0.004
-596.025	206.682	-0.109	0.171
-595.011	70.519	-0.182	0.189
-593.996	-147.405	-0.296	0.025
-592.982	-10.645	0.036	-0.024
-591.967	-200.000	-0.040	0.338
-590.952	205.668	-0.024	-0.037
-589.938	434.849	0.033	0.072
-588.923	113.513	-0.067	-0.082
-587.909	-2.418	0.198	0.139
-586.894	-17.325	0.160	-0.101
-585.879	29.494	0.098	0.084
-584.865	-58.152	-0.167	0.073
-583.850	800.000	-0.049	-0.169
-582.836	-24.118	-0.107	-0.064
-581.821	-18.561	-0.137	-0.086
-580.806	-200.000	-0.053	-0.279
-579.792	-31.117	0.171	0.096
-578.777	-200.000	0.015	0.105
-577.763	-80.962	-0.212	-0.070
-576.748	21.326	-0.065	-0.053
-575.733	-109.102	0.089	0.019
-574.719	22.178	-0.152	-0.124
-573.704	-134.228	-0.337	0.042
-572.690	-54.414	-0.071	-0.032
-571.675	-4.999	0.151	-0.104
-570.661	69.844	0.099	0.102
-569.646	547.849	-0.145	0.347
-568.631	-2.865	0.196	-0.137
-567.617	-57.562	0.188	-0.083
-566.602	64.056	0.265	-0.267
-565.588	733.446	0.041	-0.110
-564.573	373.576	0.068	0.139
-563.558	800.000	0.037	-0.110
-562.544	-89.699	-0.181	0.053
-561.529	800.000	0.014	-0.058
-560.515	137.873	-0.197	-0.258
-559.500	-200.000	-0.017	-0.171
-558.485	-106.239	-0.144	-0.032
-557.471	-200.000	-0.029	-0.253
-556.456	-9.816	0.048	-0.032
-555.442	-200.000	0.406	0.002
-554.427	800.000	-0.015	0.046
-553.412	-78.397	0.335	-0.115
-552.398	-200.000	-0.033	-0.235
-551.383	800.000	-0.058	-0.200
-550.369	-123.693	-0.207	0.033
-549.354	130.918	-0.026	0.034
-548.339	800.000	-0.069	0.240
-547.325	-200.000	0.025	0.293
-546.310	-200.000	-0.012	0.064
-545.296	-200.000	-0.036	0.243
-544.281	653.385	0.025	0.064
-543.266	-157.351	0.314	-0.019
-542.252	-49.482	-0.149	0.071
-541.237	144.503	-0.042	0.056
-540.223	-200.000	0.016	-0.125
-539.208	800.000	0.034	0.142
-538.193	-0.182	0.195	0.139
-537.179	230.144	0.115	-0.188
-536.164	208.347	0.217	-0.340
-535.150	800.000	0.109	-0.310
-534.135	800.000	-0.067	-0.261
-533.121	-52.947	0.201	0.092
-532.106	-64.094	0.293	-0.120
-531.091	124.222	0.129	0.162
-530.077	-120.758	-0.088	-0.015
-529.062	41.648	0.145	0.131
-528.048	195.467	-0.098	0.149
-527.033	-49.405	0.367	-0.175
-526.018	-200.000	0.013	0.236
-525.004	-70.013	0.200	0.076
-523.989	-110.332	-0.417	-0.087
-522.975	-200.000	-0.010	-0.213
-521.960	-113.029	-0.267	0.053
-520.945	-200.000	0.000	-0.155
-519.931	-158.735	0.113	-0.006
-518.916	-200.000	0.060	-0.286
-517.902	241.355	-0.320	-0.534
-516.887	-127.883	0.167	-0.024
-515.872	-93.619	0.241	-0.066
-514.858	147.033	-0.087	0.117
-513.843	-151.312	-0.267	0.020
-512.829	-23.420	-0.234	0.140
-511.814	800.000	0.033	0.122
-510.799	88.000	0.164	0.181
-509.785	-28.414	-0.162	-0.094
-508.770	-127.949	-0.085	-0.012
-507.756	-200.000	-0.026	0.147
-506.741	19.915	-0.174	0.140
-505.726	-170.678	-0.027	0.001
-504.712	49.244	0.120	-0.113
-503.697	-200.000	0.052	-0.292
-502.683	-44.081	-0.198	-0.099
-501.668	-200.000	0.015	0.143
-500.653	-113.636	0.103	-0.020
-499.639	-200.000	-0.043	0.282
-498.624	-200.000	-0.029	0.136
-497.610	-139.880	0.121	0.013
-496.595	-30.469	0.228	0.129
-495.581	-200.000	0.038	-0.380
-494.566	-200.000	0.025	-0.214
-493.551	-81.003	-0.447	-0.148
-492.537	-200.000	-0.015	0.256
-491.522	-200.000	0.046	0.237
-490.508	-200.000	0.018	0.092
-489.493	-27.455	0.147	0.085
-488.478	800.000	-0.099	-0.407
-487.464	800.000	0.019	0.055
-486.449	-200.000	-0.008	-0.218
-485.435	188.391	-0.232	0.347
-484.420	-111.517	0.331	0.067
-483.405	-185.977	-0.289	-0.004
-482.391	-61.536	-0.097	-0.040
-481.376	-200.000	-0.010	-0.186
-480.362	-84.161	-0.433	0.137
-479.347	146.628	0.092	-0.124
-478.332	800.000	0.010	0.040
-477.318	800.000	0.022	0.085
-476.303	360.788	0.185	0.370
-475.289	-200.000	0.027	-0.192
-474.274	-200.000	0.018	-0.090
-473.259	8.144	-0.057	-0.043
-472.245	-52.842	0.046	-0.021
-471.230	-200.000	0.040	0.345
-470.216	-13.940	-0.190	-0.122
-469.201	-18.284	0.268	-0.167
-468.186	-38.741	0.171	0.090
-467.172	-127.889	-0.287	0.041
-466.157	2.025	-0.170	-0.122
-465.143	99.588	0.297	-0.343
-464.128	-200.000	-0.006	-0.031
-463.113	276.685	-0.199	0.352
-462.099	-73.759	-0.220	-0.080
-461.084	13.426	0.120	0.093
-460.070	297.832	0.108	0.198
-459.055	-168.348	-0.227	-0.009
-458.040	1.657	0.150	0.108
-457.026	473.956	0.046	0.103
-456.011	-159.545	0.080	-0.004
-454.997	-134.799	0.289	-0.035
-453.982	-200.000	-0.003	0.276
-452.968	-131.365	0.227	-0.030
-451.953	70.854	0.080	-0.083
-450.938	-193.074	0.422	0.004
-449.924	800.000	0.055	-0.161
-448.909	-117.273	0.142	0.026
-447.895	153.198	-0.190	0.259
-446.880	121.098	-0.279	-0.346
-445.865	-65.064	-0.539	0.217
-444.851	-200.000	-0.018	0.113
-443.836	-34.100	-0.213	0.116
-442.822	-135.299	-0.033	-0.004
-441.807	284.883	0.043	0.076
-440.792	128.759	0.100	-0.126
-439.778	-88.820	-0.234	0.069
-438.763	143.601	0.125	-0.166
-437.749	31.712	-0.177	0.152
-436.734	-200.000	-0.011	0.079
-435.719	-48.296	-0.259	-0.124
-434.705	-79.441	0.341	0.115
-433.690	-166.899	-0.302	0.012
-432.676	-47.216	0.126	0.061
-431.661	249.628	-0.097	0.164
-430.646	800.000	0.025	0.070
-429.632	0.238	-0.039	-0.027
-428.617	-60.698	0.324	0.137
-427.603	235.452	-0.071	-0.117
-426.588	800.000	-0.058	-0.248
-425.573	800.000	-0.072	0.253
-424.559	27.955	-0.148	0.124
-423.544	69.898	0.113	-0.116
-422.530	513.173	-0.048	0.112
-421.515	-170.361	-0.271	-0.009
-420.500	-11.480	-0.162	-0.106
-419.486	800.000	-0.096	0.303
-418.471	12.246	0.141	0.108
-417.457	-127.711	-0.094	0.014
-416.442	133.374	0.134	-0.172
-415.428	27.272	0.087	-0.073
-414.413	182.226	-0.097	0.142
-413.398	13.440	0.078	0.060
-412.384	637.928	0.110	0.279
-411.369	-86.665	0.282	-0.086
-410.355	-200.000	0.011	-0.109
-409.340	563.819	-0.098	0.237
-408.325	174.600	-0.158	-0.227
-407.311	-172.301	-0.400	-0.013
-406.296	7.155	0.054	0.040
-405.282	-69.356	-0.176	0.067
-404.267	30.266	-0.152	-0.129
-403.252	9.960	0.148	-0.112
-402.238	-61.637	0.498	0.208
-401.223	636.698	0.055	0.140
-400.209	116.233	0.126	-0.154
-399.194	-82.088	-0.110	0.036
-398.179	-54.507	-0.044	0.020
-397.165	-26.076	0.343	0.200
-396.150	800.000	-0.017	0.071
-395.136	121.274	0.076	0.094
-394.121	-112.428	-0.459	-0.091
-393.106	-140.529	-0.217	-0.022
-392.092	-160.467	0.216	-0.012
-391.077	526.036	-0.130	-0.303
-390.063	-200.000	0.071	-0.457
-389.048	-200.000	0.007	-0.046
-388.033	800.000	-0.046	-0.136
-387.019	32.636	-0.331	-0.285
-386.004	147.141	0.068	0.091
-384.990	186.108	-0.104	-0.153
-383.975	-87.343	0.254	-0.077
-382.960	800.000	-0.059	0.195
-381.946	-31.162	-0.242	-0.136
-380.931	45.698	0.146	0.134
-379.917	-200.000	-0.016	0.073
-378.902	-75.264	-0.168	0.060
-377.888	35.342	0.197	0.171
-376.873	-66.973	-0.130	-0.051
-375.858	429.375	-0.143	0.307
-374.844	-96.083	-0.384	-0.101
-373.829	103.563	-0.118	0.138
-372.815	143.802	-0.198	-0.262
-371.800	800.000	-0.134	0.374
-370.785	245.741	0.115	0.192
-369.771	-80.356	-0.191	0.064
-368.756	-66.767	-0.332	-0.130
-367.742	-184.207	-0.268	-0.004
-366.727	-200.000	0.075	0.419
-365.712	297.681	-0.096	0.175
-364.698	-111.828	-0.153	-0.031
-363.683	-139.755	-0.346	0.037
-362.669	51.613	-0.117	-0.111
-361.654	800.000	0.092	0.267
-360.639	-200.000	0.059	0.310
-359.625	-51.095	-0.384	-0.179
-358.610	-200.000	0.004	0.151
-357.596	131.823	0.041	0.053
-356.581	-68.336	-0.080	0.031
-355.566	223.829	-0.206	-0.329
-354.552	4.856	0.050	0.037
-353.537	-69.552	-0.234	-0.089
-352.523	-187.598	0.103	0.001
-351.508	-200.000	-0.040	-0.285
-350.493	-141.414	0.228	-0.023
-349.479	718.852	-0.065	-0.172
-348.464	800.000	0.027	0.085
-347.450	-14.372	-0.137	0.088
-346.435	-200.000	-0.016	0.178
-345.420	800.000	-0.099	-0.338
-344.406	-200.000	-0.020	0.145
-343.391	-200.000	0.056	0.460
-342.377	46.165	-0.117	0.108
-341.362	-200.000	0.281	0.001
-340.348	800.000	0.009	-0.025
-339.333	-200.000	0.005	0.189
-338.318	-133.048	0.146	0.018
-337.304	250.404	-0.192	0.324
-336.289	767.773	0.046	0.123
-335.275	-77.672	-0.054	0.019
-334.260	-150.259	-0.147	0.011
-333.245	37.598	0.052	-0.046
-332.231	-200.000	0.019	0.127
-331.216	-64.722	-0.006	0.002
-330.202	800.000	-0.025	0.087
-329.187	164.412	-0.160	0.223
-328.172	-129.063	-0.309	0.043
-327.158	68.319	-0.262	-0.266
-326.143	-200.000	-0.023	-0.113
-325.129	-200.000	0.014	0.282
-324.114	-200.000	-0.018	-0.198
-323.099	470.254	0.149	-0.333
-322.085	61.432	0.016	0.016
-321.070	78.640	0.160	0.169
-320.056	-200.000	-0.011	-0.101
-319.041	12.322	-0.090	-0.069
-318.026	-170.900	-0.100	-0.003
-317.012	22.141	0.028	0.023
-315.997	135.857	0.153	-0.198
-314.983	199.004	-0.131	0.198
-313.968	-87.382	-0.244	0.073
-312.953	-165.020	-0.196	0.009
-311.939	-111.689	-0.167	-0.033
-310.924	-92.758	-0.189	0.052
-309.910	-31.831	0.143	0.079
-308.895	-71.212	0.502	-0.187
-307.880	9.033	-0.324	-0.242
-306.866	-200.000	-0.003	-0.209
-305.851	800.000	-0.090	-0.349
-304.837	171.460	-0.062	0.088
-303.822	10.384	-0.114	-0.086
-302.807	629.690	0.073	-0.182
-301.793	-26.750	0.302	-0.175
-300.778	149.882	0.158	0.212
-299.764	404.164	0.109	0.227
-298.749	123.259	0.065	-0.081
-297.735	-83.218	0.155	-0.049
-296.720	218.495	-0.085	-0.135
-295.705	-41.582	0.115	-0.058
-294.691	363.326	-0.145	-0.288
-293.676	-200.000	0.005	-0.140
-292.662	800.000	0.026	0.105
-291.647	-9.334	0.193	-0.128
-290.632	800.000	0.039	0.111
-289.618	246.962	0.345	0.577
-288.603	800.000	-0.077	0.236
-287.589	-71.278	0.418	0.155
-286.574	-104.006	0.125	-0.029
-285.559	-76.263	0.162	-0.056
-284.545	236.665	0.029	-0.048
-283.530	800.000	-0.019	-0.060
-282.516	-97.207	-0.123	-0.032
-281.501	48.299	0.283	-0.262
-280.486	-2.055	-0.372	0.258
-279.472	-85.992	-0.169	-0.052
-278.457	153.644	0.087	0.118
-277.443	-200.000	0.487	0.001
-276.428	-18.563	0.340	0.210
-275.413	55.935	0.099	-0.095
-274.399	-200.000	-0.045	0.310
-273.384	-11.286	0.049	-0.032
-272.370	-200.000	-0.011	-0.220
-271.355	-200.000	0.012	0.127
-270.340	-115.125	-0.331	0.062
-269.326	-5.125	0.218	-0.148
-268.311	800.000	-0.085	-0.240
-267.297	-104.680	-0.264	0.060
-266.282	619.582	-0.163	0.405
-265.267	34.145	-0.292	-0.251
-264.253	-200.000	-0.104	0.461
-263.238	96.512	0.142	0.161
-262.224	-200.000	0.000	0.012
-261.209	279.087	-0.061	0.107
-260.195	98.649	0.206	0.235
-259.180	6.476	-0.154	0.113
-258.165	-150.250	0.435	0.033
-257.151	-177.284	0.250	0.006
-256.136	267.011	0.208	-0.359
-255.122	-54.363	0.137	0.061
-254.107	272.276	-0.123	-0.214
-253.092	459.336	0.052	0.115
-252.078	800.000	-0.009	-0.036
-251.063	800.000	-0.042	-0.151
-250.049	51.097	0.092	0.086
-249.034	91.239	-0.142	0.158
-248.019	147.579	-0.050	-0.067
-247.005	-61.435	0.299	0.124
-245.990	-200.000	0.001	-0.182
-244.976	98.513	0.191	-0.217
-243.961	-15.518	-0.055	-0.035
-242.946	255.455	0.166	-0.281
-241.932	207.305	0.091	0.140
-240.917	126.574	0.201	-0.252
-239.903	80.671	0.171	-0.182
-238.888	130.383	0.117	-0.148
-237.873	77.889	0.142	-0.149
-236.859	-119.592	0.186	0.032
-235.844	-184.612	-0.211	-0.003
-234.830	-63.736	-0.258	-0.105
-233.815	-14.641	0.231	-0.146
-232.800	15.264	-0.197	-0.153
-231.786	70.839	-0.080	0.082
-230.771	-200.000	0.201	-0.001
-229.757	432.003	-0.113	-0.243
-228.742	74.311	-0.103	0.107
-227.727	-77.058	-0.216	0.074
-226.713	-141.984	0.246	0.024
-225.698	-140.213	0.472	-0.049
-224.684	-50.447	-0.156	-0.073
-223.669	-200.000	-0.025	0.367
-222.655	-24.016	-0.247	0.146
-221.640	70.951	0.184	0.188
-220.625	-9.255	-0.123	0.081
-219.611	353.781	0.057	-0.111
-218.596	99.372	-0.108	-0.124
-217.582	-200.000	-0.086	-0.431
-216.567	138.886	-0.099	0.128
-215.552	-72.225	0.271	0.099
-214.538	800.000	0.075	-0.253
-213.523	-36.916	0.250	0.132
-212.509	-42.977	0.156	0.078
-211.494	-38.038	-0.326	-0.171
-210.479	53.124	0.144	0.136
-209.465	-200.000	0.003	0.047
-208.450	-135.798	0.300	-0.035
-207.436	-19.617	0.152	-0.093
-206.421	-88.920	0.333	0.097
-205.406	-200.000	0.011	-0.051
-204.392	-97.262	0.174	-0.045
-203.377	-19.532	0.272	-0.166
-202.363	20.703	0.131	-0.105
-201.348	755.205	0.099	-0.263
-200.333	29.635	-0.178	-0.149
-199.319	-196.951	0.284	0.002
-198.304	-66.125	0.386	-0.152
-197.290	694.146	0.123	-0.317
-196.275	800.000	-0.050	-0.208
-195.260	-200.000	0.007	-0.057
-194.246	800.000	-0.073	-0.243
-193.231	-51.036	0.335	-0.155
-192.217	216.031	-0.235	0.368
-191.202	-92.395	0.124	0.034
-190.187	184.585	-0.100	-0.146
-189.173	-151.418	0.090	-0.007
-188.158	-49.997	-0.369	0.173
-187.144	-90.487	-0.014	0.004
-186.129	-200.000	0.001	0.086
-185.114	-200.000	0.032	0.338
-184.100	32.165	0.156	0.133
-183.085	-114.237	-0.127	0.024
-182.071	-30.808	-0.140	0.078
-181.056	-8.407	0.268	0.178
-180.042	-25.776	-0.164	0.095
-179.027	-200.000	-0.026	-0.144
-178.012	-200.000	-0.009	-0.252
-176.998	264.728	0.116	-0.200
-175.983	271.786	0.089	-0.154
-174.969	-200.000	0.003	0.391
-173.954	290.398	-0.025	-0.044
-172.939	2.349	-0.138	0.098
-171.925	-101.676	0.115	0.027
-170.910	230.584	0.156	0.251
-169.896	-131.433	0.246	0.032
-168.881	800.000	-0.062	0.251
-167.866	707.709	0.057	-0.148
-166.852	78.717	0.210	-0.221
-165.837	800.000	-0.078	0.274
-164.823	433.589	-0.129	0.277
-163.808	800.000	0.061	0.176
-162.793	-149.687	0.172	-0.013
-161.779	-76.465	0.252	-0.087
-160.764	58.466	-0.207	0.200
-159.750	73.990	-0.058	0.059
-158.735	249.307	-0.172	-0.288
-157.720	117.650	0.175	0.212
-156.706	-193.260	-0.149	-0.001
-155.691	-141.610	-0.136	-0.013
-154.677	108.788	0.098	0.115
-153.662	-200.000	0.053	-0.252
-152.647	129.426	-0.267	-0.336
-151.633	-200.000	0.004	0.092
-150.618	32.804	-0.039	0.033
-149.604	-200.000	0.043	0.316
-148.589	-14.741	-0.098	0.062
-147.574	-200.000	0.026	0.210
-146.560	419.958	-0.112	-0.236
-145.545	96.362	-0.210	0.237
-144.531	22.460	0.077	-0.062
-143.516	-200.000	-0.016	-0.136
-142.502	-200.000	0.058	0.338
-141.487	-30.976	0.080	-0.044
-140.472	0.048	-0.190	-0.133
-139.458	167.615	0.026	-0.036
-138.443	406.714	-0.070	-0.145
-137.429	134.397	0.044	-0.056
-136.414	-200.000	-0.045	0.223
-135.399	41.564	0.279	-0.248
-134.385	83.028	-0.097	0.104
-133.370	2.038	-0.246	0.175
-132.356	-53.438	0.159	0.072
-131.341	800.000	-0.018	-0.066
-130.326	-65.148	-0.140	0.056
-129.312	-116.435	0.175	0.032
-128.297	191.079	0.109	0.161
-127.283	-200.000	-0.014	0.228
-126.268	256.647	0.083	0.141
-125.253	-58.001	0.355	-0.152
-124.239	-85.489	0.198	-0.061
-123.224	259.218	0.051	-0.086
-122.210	-200.000	-0.024	-0.118
-121.195	-89.013	0.364	-0.106
