DTS Sentinel unit serial number:	SN413079Multiplexer serial number:	ORYXHardware model number:	OX4-SRSoftware version number:	ORYX F/W v4.00 Oryx Data Collector v3.7.2.0data status	okinstallation	princeton_trtdifferential loss correction	single-endedforward channel	channel 2reverse channel	N/Adate	2019/09/14time	00:43:35forward acquisition time	60.00reverse acquisition time	0.00gamma	496.2192k internal	0.2338k external	0.2338temperature offset calibration	1.0123default loss term (dB/km)	0.3790temperature slope calibration	1.0000multiplexer offset coefficient	1.0000multiplexer slope coefficient	1.0000fibre end	0.00T internal ref (°C)	26.44T ext. ref 1 (°C)	3.17T ext. ref 2 (°C)	21.03length (m)	temperature (°C)	Stokes	anti-Stokes-747.200	29.088	0.261	-0.222
-746.185	301.978	0.131	0.243
-745.171	-200.000	0.020	-0.285
-744.156	-200.000	0.017	0.106
-743.142	-70.020	0.144	-0.055
-742.127	-200.000	0.008	0.261
-741.112	800.000	0.011	-0.043
-740.098	15.615	-0.084	-0.066
-739.083	-200.000	0.027	0.126
-738.069	-200.000	-0.028	0.182
-737.054	200.948	-0.197	0.304
-736.039	-200.000	0.002	0.244
-735.025	125.242	0.181	-0.228
-734.010	105.323	-0.177	-0.209
-732.996	691.350	-0.118	-0.309
-731.981	-86.353	-0.252	-0.078
-730.966	169.814	-0.174	-0.249
-729.952	-54.035	0.334	-0.152
-728.937	176.822	-0.170	-0.247
-727.923	57.405	0.225	-0.221
-726.908	-200.000	0.005	-0.222
-725.894	750.046	0.055	-0.150
-724.879	62.571	0.110	-0.110
-723.864	-83.510	-0.106	0.034
-722.850	331.800	-0.028	0.055
-721.835	-200.000	0.004	0.062
-720.821	-62.014	-0.278	-0.116
-719.806	-24.931	-0.102	-0.061
-718.791	1.866	0.230	0.166
-717.777	-179.798	-0.262	-0.006
-716.762	-200.000	-0.010	-0.445
-715.748	747.290	-0.134	-0.362
-714.733	-200.000	0.092	0.406
-713.718	-56.774	-0.356	0.158
-712.704	-200.000	0.033	-0.291
-711.689	-200.000	-0.038	0.216
-710.675	-59.644	-0.188	0.081
-709.660	-170.694	0.125	-0.004
-708.645	26.990	0.306	-0.257
-707.631	19.172	0.203	0.164
-706.616	357.465	-0.180	0.360
-705.602	-200.000	0.028	0.160
-704.587	-59.045	0.242	-0.104
-703.572	800.000	0.005	0.019
-702.558	203.790	-0.041	-0.064
-701.543	-76.919	-0.199	0.070
-700.529	529.161	-0.033	0.078
-699.514	339.962	-0.091	-0.179
-698.499	65.220	0.206	-0.208
-697.485	-50.239	-0.322	-0.153
-696.470	398.550	-0.162	-0.339
-695.456	402.614	-0.121	0.255
-694.441	77.563	-0.093	0.099
-693.426	60.375	0.175	-0.174
-692.412	-75.072	0.060	-0.021
-691.397	-147.851	0.211	-0.018
-690.383	800.000	-0.075	-0.300
-689.368	-88.539	0.356	-0.106
-688.354	-200.000	-0.033	-0.207
-687.339	800.000	-0.085	0.321
-686.324	-200.000	0.007	-0.112
-685.310	-55.652	0.331	-0.148
-684.295	-200.000	-0.023	0.287
-683.281	-71.865	-0.522	0.195
-682.266	-134.324	0.515	-0.063
-681.251	-39.476	0.121	0.063
-680.237	12.011	0.239	-0.184
-679.222	211.714	0.083	0.130
-678.208	-200.000	0.042	-0.320
-677.193	-69.371	-0.216	-0.083
-676.178	34.415	0.053	-0.047
-675.164	272.918	-0.102	-0.180
-674.149	800.000	0.058	-0.223
-673.135	800.000	0.043	-0.187
-672.120	800.000	-0.076	-0.211
-671.105	-200.000	-0.039	-0.218
-670.091	-60.620	-0.180	0.077
-669.076	800.000	-0.114	-0.322
-668.062	223.855	-0.123	-0.198
-667.047	-162.126	-0.369	0.019
-666.032	3.575	-0.141	0.103
-665.018	800.000	-0.012	0.050
-664.003	114.964	0.171	-0.209
-662.989	62.565	0.182	-0.182
-661.974	311.016	-0.042	0.079
-660.959	-103.230	-0.262	0.062
-659.945	263.987	-0.106	-0.185
-658.930	422.276	-0.105	0.226
-657.916	-76.397	-0.197	-0.069
-656.901	-200.000	-0.006	-0.057
-655.886	-73.060	0.159	0.058
-654.872	-189.265	0.165	-0.002
-653.857	-122.009	0.199	-0.033
-652.843	115.440	0.054	0.066
-651.828	-200.000	0.007	-0.175
-650.814	207.691	-0.071	-0.111
-649.799	-200.000	0.007	-0.076
-648.784	-150.955	-0.228	-0.017
-647.770	-126.935	0.139	0.020
-646.755	491.460	-0.047	0.108
-645.741	-200.000	-0.163	-0.001
-644.726	-200.000	-0.005	-0.423
-643.711	-103.862	-0.074	-0.017
-642.697	-13.278	-0.302	-0.196
-641.682	-85.775	0.211	-0.065
-640.668	51.383	-0.152	-0.144
-639.653	800.000	0.132	-0.373
-638.638	-200.000	-0.058	0.399
-637.624	-84.675	-0.324	0.102
-636.609	153.386	-0.178	0.243
-635.595	-113.581	-0.246	0.048
-634.580	-129.606	-0.123	0.017
-633.565	-61.241	-0.295	0.124
-632.551	-200.000	0.008	0.186
-631.536	-141.172	0.319	-0.033
-630.522	800.000	0.133	-0.494
-629.507	-75.499	-0.209	0.074
-628.492	134.724	-0.158	-0.205
-627.478	238.959	-0.241	-0.400
-626.463	800.000	-0.078	0.252
-625.449	-200.000	-0.046	-0.270
-624.434	-200.000	-0.062	0.378
-623.419	77.823	0.330	0.351
-622.405	-48.300	0.172	0.083
-621.390	-200.000	0.031	-0.160
-620.376	800.000	-0.074	-0.246
-619.361	539.104	0.130	-0.310
-618.346	265.017	0.063	-0.110
-617.332	483.854	-0.026	-0.060
-616.317	-131.692	0.050	-0.007
-615.303	-13.177	-0.269	-0.174
-614.288	-79.474	0.249	-0.084
-613.273	303.235	0.157	0.291
-612.259	431.169	-0.033	0.072
-611.244	634.657	-0.046	-0.117
-610.230	-200.000	0.098	-0.436
-609.215	-110.522	-0.122	0.025
-608.201	-118.275	0.348	-0.062
-607.186	-83.345	-0.252	0.081
-606.171	-81.162	-0.224	-0.074
-605.157	520.375	0.077	-0.180
-604.142	96.981	0.088	-0.101
-603.128	-200.000	0.003	-0.194
-602.113	457.909	-0.127	-0.282
-601.098	-68.556	-0.402	-0.155
-600.084	-104.910	0.435	0.100
-599.069	145.705	0.168	0.225
-598.055	-146.591	0.137	0.012
-597.040	-200.000	0.004	0.051
-596.025	223.055	0.055	0.089
-595.011	583.608	0.055	-0.135
-593.996	-200.000	0.019	0.244
-592.982	410.904	0.132	0.279
-591.967	97.859	0.133	0.153
-590.952	-69.460	0.189	-0.072
-589.938	-147.044	0.342	-0.029
-588.923	-24.778	0.163	0.096
-587.909	-60.896	0.120	-0.051
-586.894	-103.802	0.159	-0.037
-585.879	-104.459	0.109	-0.025
-584.865	-35.881	0.183	-0.099
-583.850	-167.984	0.239	0.009
-582.836	-123.272	0.088	-0.014
-581.821	800.000	-0.042	-0.171
-580.806	-200.000	0.067	-0.330
-579.792	-83.701	-0.216	-0.069
-578.777	3.861	0.351	-0.256
-577.763	-200.000	-0.001	0.299
-576.748	21.683	-0.144	-0.117
-575.733	117.427	0.111	0.136
-574.719	-200.000	-0.020	0.241
-573.704	-55.496	-0.261	-0.116
-572.690	-43.524	0.161	-0.081
-571.675	-166.908	0.087	0.004
-570.661	191.299	-0.078	-0.117
-569.646	48.357	0.108	0.101
-568.631	-167.806	-0.318	-0.013
-567.617	122.260	0.177	0.220
-566.602	6.301	0.177	-0.131
-565.588	442.085	-0.082	-0.179
-564.573	162.409	0.259	0.361
-563.558	-61.295	-0.186	-0.078
-562.544	128.918	-0.124	0.157
-561.529	544.881	0.031	0.073
-560.515	-151.524	-0.270	-0.020
-559.500	2.168	0.209	0.151
-558.485	-90.245	-0.322	0.093
-557.471	-5.096	0.029	-0.020
-556.456	128.941	0.142	0.180
-555.442	-135.982	0.281	0.033
-554.427	-105.931	0.217	-0.049
-553.412	436.336	-0.015	0.033
-552.398	-2.883	0.153	-0.107
-551.383	-158.794	-0.300	-0.017
-550.369	155.707	-0.138	0.189
-549.354	-14.980	0.092	-0.059
-548.339	373.041	0.030	0.061
-547.325	108.905	-0.098	0.116
-546.310	-48.516	-0.141	0.068
-545.296	-25.713	0.066	0.039
-544.281	-151.889	-0.125	0.009
-543.266	800.000	0.067	-0.192
-542.252	800.000	-0.058	-0.246
-541.237	367.842	-0.135	0.272
-540.223	-38.537	0.174	0.092
-539.208	114.836	-0.259	0.314
-538.193	-1.217	0.184	0.129
-537.179	523.484	-0.195	0.456
-536.164	-95.074	-0.226	0.061
-535.150	800.000	0.060	-0.254
-534.135	-69.869	-0.090	0.034
-533.121	-74.325	-0.083	-0.030
-532.106	800.000	-0.023	-0.075
-531.091	57.863	-0.114	-0.111
-530.077	102.921	0.144	0.168
-529.062	210.766	-0.059	-0.092
-528.048	99.536	0.114	-0.131
-527.033	-200.000	-0.010	-0.256
-526.018	382.094	0.140	-0.286
-525.004	508.324	0.079	-0.183
-523.989	800.000	0.036	0.111
-522.975	24.600	0.370	-0.304
-521.960	-200.000	0.007	-0.231
-520.945	199.177	-0.099	-0.150
-519.931	-59.591	0.211	0.090
-518.916	-44.595	0.173	0.086
-517.902	-200.000	-0.045	-0.288
-516.887	222.164	-0.144	0.231
-515.872	-16.300	-0.221	0.139
-514.858	-62.252	0.160	-0.066
-513.843	-126.905	0.134	-0.020
-512.829	-117.109	0.183	0.033
-511.814	-200.000	-0.007	-0.034
-510.799	-79.603	-0.303	0.102
-509.785	-200.000	-0.005	0.264
-508.770	20.884	-0.219	-0.177
-507.756	64.290	-0.073	0.074
-506.741	750.413	0.066	0.178
-505.726	165.866	-0.155	-0.219
-504.712	121.132	0.207	-0.256
-503.697	-200.000	0.002	-0.107
-502.683	9.755	-0.113	-0.085
-501.668	800.000	-0.067	0.231
-500.653	-200.000	0.014	0.188
-499.639	-85.381	-0.123	0.038
-498.624	169.492	0.075	0.106
-497.610	800.000	0.015	-0.064
-496.595	-18.956	-0.273	0.169
-495.581	-200.000	-0.020	-0.096
-494.566	-95.621	-0.146	0.039
-493.551	75.920	0.146	0.153
-492.537	218.643	-0.090	-0.143
-491.522	-195.757	-0.242	0.002
-490.508	-200.000	-0.004	-0.064
-489.493	800.000	0.081	0.276
-488.478	-97.682	-0.317	-0.082
-487.464	17.511	-0.362	-0.286
-486.449	-107.575	0.052	0.011
-485.435	-152.870	0.503	-0.035
-484.420	-5.665	-0.199	0.136
-483.405	16.657	0.185	0.145
-482.391	-63.613	0.115	-0.047
-481.376	-42.254	-0.147	-0.074
-480.362	-80.116	-0.288	-0.096
-479.347	393.108	-0.066	0.136
-478.332	-105.719	-0.188	-0.042
-477.318	-200.000	0.016	-0.105
-476.303	-27.176	0.051	0.029
-475.289	204.460	-0.049	0.075
-474.274	-28.893	-0.182	0.104
-473.259	-200.000	0.035	0.214
-472.245	86.664	0.105	0.114
-471.230	800.000	0.039	-0.145
-470.216	708.363	-0.180	0.472
-469.201	800.000	0.061	0.259
-468.186	52.581	0.170	-0.161
-467.172	-200.000	-0.021	-0.203
-466.157	800.000	-0.078	0.312
-465.143	-98.369	-0.116	0.029
-464.128	-200.000	-0.019	0.089
-463.113	179.463	0.150	0.217
-462.099	-102.885	0.231	-0.054
-461.084	-135.147	0.225	-0.027
-460.070	-55.052	-0.435	-0.195
-459.055	-61.895	0.316	-0.131
-458.040	-106.579	-0.119	-0.026
-457.026	800.000	0.097	0.271
-456.011	-137.181	-0.098	0.011
-454.997	-15.678	0.260	0.165
-453.982	-60.463	0.125	0.053
-452.968	189.859	0.121	-0.180
-451.953	800.000	-0.086	0.279
-450.938	0.211	0.410	0.290
-449.924	-155.190	0.225	-0.015
-448.909	-155.268	-0.164	-0.011
-447.895	-117.005	0.183	0.033
-446.880	56.480	0.068	0.065
-445.865	104.598	-0.192	-0.224
-444.851	42.678	-0.295	-0.266
-443.836	-133.274	-0.106	-0.013
-442.822	347.091	0.084	0.164
-441.807	-122.068	0.044	-0.007
-440.792	-200.000	-0.001	-0.177
-439.778	-14.573	-0.209	0.133
-438.763	-187.043	-0.123	-0.002
-437.749	800.000	0.048	-0.154
-436.734	171.875	0.254	0.362
-435.719	317.203	0.052	0.098
-434.705	140.623	0.102	0.133
-433.690	-19.924	0.124	0.076
-432.676	-117.774	0.209	0.037
-431.661	-135.911	0.226	0.026
-430.646	-200.000	-0.036	0.203
-429.632	56.576	0.157	0.151
-428.617	-200.000	0.015	0.115
-427.603	98.670	0.040	0.045
-426.588	198.971	-0.181	0.275
-425.573	-200.000	0.016	0.121
-424.559	97.081	0.254	0.289
-423.544	-200.000	-0.039	0.173
-422.530	214.664	0.138	-0.217
-421.515	17.949	0.290	0.229
-420.500	800.000	-0.053	0.166
-419.486	-200.000	-0.110	0.478
-418.471	800.000	-0.044	0.158
-417.457	-1.363	-0.101	-0.071
-416.442	517.184	0.059	-0.137
-415.428	775.485	-0.057	-0.153
-414.413	214.599	0.047	-0.074
-413.398	-107.560	-0.475	-0.103
-412.384	-30.220	-0.300	0.169
-411.369	-176.859	0.277	0.007
-410.355	137.167	0.132	0.170
-409.340	-200.000	0.001	-0.186
-408.325	4.509	0.147	-0.107
-407.311	641.190	0.215	-0.542
-406.296	170.788	-0.128	0.182
-405.282	-200.000	-0.018	-0.118
-404.267	-145.313	0.286	-0.026
-403.252	-161.363	-0.110	0.006
-402.238	-157.536	-0.201	-0.012
-401.223	-126.722	-0.250	0.037
-400.209	-87.862	0.140	0.042
-399.194	54.956	0.089	-0.085
-398.179	75.058	-0.389	-0.406
-397.165	-48.926	0.027	-0.013
-396.150	-83.036	-0.213	0.068
-395.136	-200.000	0.002	0.030
-394.121	800.000	0.076	0.249
-393.106	10.617	0.182	-0.137
-392.092	-200.000	0.045	-0.339
-391.077	-40.618	-0.151	-0.077
-390.063	-19.845	-0.093	0.057
-389.048	-72.592	-0.402	-0.147
-388.033	40.042	-0.131	-0.116
-387.019	-86.200	0.201	0.061
-386.004	-17.459	0.314	0.195
-384.990	201.468	0.083	0.126
-383.975	108.269	-0.102	0.120
-382.960	74.125	-0.195	0.202
-381.946	-122.915	-0.279	-0.045
-380.931	21.416	-0.179	0.144
-379.917	-101.079	-0.163	0.040
-378.902	800.000	-0.017	0.064
-377.888	-181.736	-0.200	0.004
-376.873	222.873	0.038	0.060
-375.858	-200.000	-0.016	-0.096
-374.844	-15.035	0.203	-0.128
-373.829	97.967	0.135	0.154
-372.815	-151.734	0.112	-0.008
-371.800	255.815	0.149	-0.252
-370.785	46.631	0.092	0.084
-369.771	-113.240	-0.396	-0.077
-368.756	-113.288	0.148	-0.029
-367.742	800.000	0.065	0.202
-366.727	-83.755	0.047	0.015
-365.712	-200.000	0.026	0.314
-364.698	-187.781	-0.159	0.002
-363.683	196.916	0.185	-0.279
-362.669	30.349	-0.166	0.140
-361.654	178.772	-0.132	-0.191
-360.639	213.109	-0.162	-0.253
-359.625	-139.380	0.222	0.024
-358.610	41.104	-0.080	0.071
-357.596	-105.440	0.204	-0.046
-356.581	-185.628	-0.267	0.004
-355.566	-200.000	0.010	0.077
-354.552	-7.258	-0.350	-0.235
-353.537	204.789	-0.060	0.092
-352.523	498.051	0.074	-0.169
-351.508	22.296	-0.307	-0.248
-350.493	29.040	0.138	-0.116
-349.479	-200.000	0.008	0.162
-348.464	-200.000	0.013	-0.146
-347.450	-11.733	-0.129	-0.084
-346.435	6.747	0.229	-0.169
-345.420	93.120	-0.087	-0.097
-344.406	29.913	0.035	0.029
-343.391	95.286	0.032	-0.037
-342.377	-93.994	-0.142	0.038
-341.362	-95.503	0.118	0.031
-340.348	-59.595	0.141	-0.060
-339.333	-200.000	-0.024	-0.222
-338.318	-200.000	0.041	0.264
-337.304	-3.151	0.086	-0.059
-336.289	-129.207	-0.150	0.021
-335.275	-200.000	-0.024	0.360
-334.260	-200.000	0.020	-0.359
-333.245	83.523	-0.131	-0.141
-332.231	56.088	-0.037	0.036
-331.216	-52.439	0.085	0.039
-330.202	100.658	-0.262	-0.301
-329.187	-200.000	0.005	0.073
-328.172	196.425	0.131	-0.198
-327.158	800.000	0.067	0.214
-326.143	234.947	0.040	0.065
-325.129	-131.213	0.342	-0.045
-324.114	15.401	-0.162	0.125
-323.099	-200.000	0.003	0.214
-322.085	-200.000	-0.021	0.296
-321.070	-155.679	-0.306	0.019
-320.056	-17.013	0.061	-0.038
-319.041	-46.602	-0.260	0.126
-318.026	-200.000	-0.053	0.270
-317.012	-121.548	-0.218	0.036
-315.997	-27.704	-0.086	-0.049
-314.983	639.380	0.115	-0.290
-313.968	-4.927	-0.267	-0.182
-312.953	-9.198	-0.334	0.221
-311.939	738.029	-0.054	-0.143
-310.924	-59.063	0.299	-0.127
-309.910	313.745	0.047	-0.086
-308.895	91.493	-0.065	0.072
-307.880	-200.000	0.005	0.071
-306.866	-76.202	0.007	-0.003
-305.851	120.800	0.209	-0.256
-304.837	-72.952	0.046	0.017
-303.822	-200.000	0.002	-0.331
-302.807	271.338	0.038	0.067
-301.793	-105.746	0.055	0.012
-300.778	-200.000	-0.022	-0.374
-299.764	-89.880	0.211	-0.061
-298.749	93.243	0.101	0.113
-297.735	-200.000	-0.015	-0.222
-296.720	327.314	-0.070	0.132
-295.705	355.617	-0.155	-0.304
-294.691	252.528	0.069	0.116
-293.676	-64.712	0.109	-0.043
-292.662	461.270	0.150	-0.329
-291.647	-164.457	-0.122	0.005
-290.632	647.077	-0.104	0.262
-289.618	230.739	0.083	-0.134
-288.603	-200.000	-0.040	-0.194
-287.589	800.000	0.148	-0.543
-286.574	499.555	0.053	0.121
-285.559	-200.000	0.050	-0.260
-284.545	800.000	-0.016	0.046
-283.530	800.000	-0.062	0.223
-282.516	-52.783	0.160	0.073
-281.501	57.791	0.341	0.328
-280.486	-77.853	-0.229	-0.078
-279.472	319.165	0.016	0.030
-278.457	42.054	0.192	-0.171
-277.443	-85.335	0.101	0.031
-276.428	-96.468	-0.279	-0.073
-275.413	-200.000	0.008	-0.226
-274.399	-33.366	-0.059	-0.032
-273.384	43.115	-0.248	-0.223
-272.370	113.896	0.194	0.232
-271.355	122.107	-0.191	-0.236
-270.340	76.881	0.129	0.135
-269.326	-80.280	0.387	0.128
-268.311	33.443	0.364	0.311
-267.297	-32.399	0.225	-0.123
-266.282	-8.171	-0.253	0.168
-265.267	-200.000	0.072	0.332
-264.253	800.000	0.063	-0.235
-263.238	332.152	0.107	0.203
-262.224	-31.371	0.175	0.097
-261.209	156.116	-0.213	-0.290
-260.195	108.721	0.122	-0.144
-259.180	492.945	-0.096	0.216
-258.165	232.823	0.190	-0.307
-257.151	-149.509	-0.133	0.010
-256.136	-200.000	0.014	-0.159
-255.122	231.192	0.010	-0.016
-254.107	-60.201	0.261	-0.109
-253.092	12.057	0.096	0.073
-252.078	31.683	0.088	-0.074
-251.063	-151.541	0.161	-0.012
-250.049	469.785	-0.057	0.126
-249.034	800.000	-0.097	0.266
-248.019	-120.040	-0.240	-0.041
-247.005	-200.000	-0.042	-0.275
-245.990	64.529	0.119	-0.118
-244.976	-200.000	0.030	-0.307
-243.961	360.970	-0.134	-0.265
-242.946	-14.382	0.203	-0.129
-241.932	191.932	-0.065	-0.097
-240.917	-106.402	0.554	-0.122
-239.903	-37.786	-0.030	-0.016
-238.888	-96.737	0.105	0.027
-237.873	342.254	0.111	-0.213
-236.859	-200.000	-0.013	-0.078
-235.844	-168.099	-0.297	0.011
-234.830	-86.220	-0.224	0.068
-233.815	-168.801	0.165	-0.006
-232.800	-200.000	-0.041	0.177
-231.786	-200.000	0.019	-0.086
-230.771	324.278	0.064	0.120
-229.757	204.312	-0.041	-0.062
-228.742	18.544	-0.159	0.125
-227.727	-117.465	-0.340	-0.060
-226.713	-115.812	-0.160	0.029
-225.698	533.312	0.103	0.240
-224.684	24.309	0.152	0.123
-223.669	-200.000	0.004	0.104
-222.655	530.263	0.076	0.176
-221.640	645.226	-0.110	-0.276
-220.625	-93.730	0.462	-0.125
-219.611	800.000	0.053	0.169
-218.596	800.000	-0.026	0.091
-217.582	-31.100	0.264	0.146
-216.567	54.172	-0.096	-0.091
-215.552	-21.486	0.241	-0.145
-214.538	299.948	0.204	0.370
-213.523	17.964	-0.099	0.077
-212.509	178.576	0.105	0.151
-211.494	-143.110	-0.222	0.021
-210.479	685.014	0.089	0.229
-209.465	99.277	0.127	0.145
-208.450	-86.652	0.154	0.046
-207.436	219.035	-0.037	0.057
-206.421	-107.222	-0.129	0.028
-205.406	46.732	-0.322	-0.294
-204.392	-65.808	0.072	-0.028
-203.377	-123.357	-0.165	0.026
-202.363	-64.257	-0.293	0.117
-201.348	-78.209	0.222	-0.075
-200.333	-200.000	0.007	0.055
-199.319	71.947	-0.205	-0.210
-198.304	598.897	0.080	0.194
-197.290	-200.000	0.013	0.099
-196.275	-101.423	0.208	-0.050
-195.260	-172.024	-0.388	-0.012
-194.246	800.000	0.043	0.130
-193.231	800.000	0.044	-0.127
-192.217	390.036	-0.018	-0.038
-191.202	-143.555	-0.191	-0.018
-190.187	644.756	-0.107	0.268
-189.173	-25.594	0.217	0.126
-188.158	-120.592	-0.087	0.015
-187.144	800.000	-0.064	-0.219
-186.129	-200.000	0.025	0.348
-185.114	800.000	-0.042	-0.170
-184.100	-177.333	0.067	0.002
-183.085	79.472	0.290	-0.305
-182.071	-10.937	-0.060	-0.039
-181.056	126.902	-0.214	0.266
-180.042	198.806	0.098	0.148
-179.027	-200.000	0.027	0.249
-178.012	-200.000	-0.054	0.285
-176.998	-200.000	0.025	0.410
-175.983	77.203	0.026	-0.027
-174.969	-200.000	-0.040	-0.455
-173.954	-36.478	-0.136	-0.072
-172.939	-200.000	-0.028	0.121
-171.925	-200.000	0.022	-0.214
-170.910	-43.291	-0.337	-0.167
-169.896	800.000	0.066	0.202
-168.881	51.291	-0.252	0.234
-167.866	-200.000	-0.009	0.115
-166.852	-200.000	-0.026	0.244
-165.837	240.661	-0.078	-0.128
-164.823	-27.351	0.108	-0.061
-163.808	-54.055	0.384	-0.172
-162.793	-93.315	-0.108	0.029
-161.779	22.169	-0.294	0.235
-160.764	173.306	0.126	0.179
-159.750	749.436	-0.124	-0.328
-158.735	-31.072	-0.135	0.075
-157.720	-146.811	0.135	0.011
-156.706	-149.063	0.195	-0.015
-155.691	-124.696	-0.392	0.060
-154.677	-48.378	-0.152	-0.072
-153.662	302.616	-0.068	-0.124
-152.647	-200.000	0.054	-0.294
-151.633	-36.010	0.250	0.132
-150.618	64.437	-0.285	0.281
-149.604	-200.000	-0.013	0.191
-148.589	-114.768	0.128	-0.024
-147.574	-117.930	-0.229	0.040
-146.560	-63.974	0.202	-0.081
-145.545	-141.513	0.154	0.015
-144.531	269.935	-0.050	0.086
-143.516	16.780	0.159	-0.123
-142.502	113.535	0.142	-0.169
-141.487	-200.000	0.041	0.289
-140.472	-141.984	-0.338	0.033
-139.458	-67.050	-0.276	0.107
-138.443	457.891	0.022	0.047
-137.429	-92.504	0.195	-0.054
-136.414	541.514	-0.032	0.076
-135.399	-200.000	-0.031	0.192
-134.385	64.989	0.059	0.059
-133.370	-200.000	-0.045	0.266
-132.356	614.260	-0.047	-0.115
-131.341	187.369	-0.127	0.185
-130.326	150.867	-0.147	0.196
-129.312	83.682	0.209	-0.224
-128.297	-87.812	0.072	-0.021
-127.283	-93.029	0.064	-0.018
-126.268	800.000	0.054	-0.199
-125.253	-200.000	-0.029	-0.180
-124.239	-78.401	-0.142	-0.048
-123.224	-15.336	-0.088	-0.055
-122.210	-14.100	0.265	-0.168
