DTS Sentinel unit serial number:	SN413079Multiplexer serial number:	ORYXHardware model number:	OX4-SRSoftware version number:	ORYX F/W v4.00 Oryx Data Collector v3.7.2.0data status	okinstallation	princeton_trtdifferential loss correction	single-endedforward channel	channel 2reverse channel	N/Adate	2019/09/13time	04:55:35forward acquisition time	60.00reverse acquisition time	0.00gamma	496.2192k internal	0.2336k external	0.2336temperature offset calibration	1.0189default loss term (dB/km)	0.3790temperature slope calibration	1.0000multiplexer offset coefficient	1.0000multiplexer slope coefficient	1.0000fibre end	0.00T internal ref (°C)	26.52T ext. ref 1 (°C)	4.06T ext. ref 2 (°C)	20.98length (m)	temperature (°C)	Stokes	anti-Stokes-747.200	-29.267	0.095	0.055
-746.185	-83.815	-0.437	-0.140
-745.171	-131.236	-0.052	0.007
-744.156	-113.723	0.381	-0.075
-743.142	-200.000	0.006	0.112
-742.127	-200.000	0.015	0.262
-741.112	-65.231	0.242	-0.098
-740.098	800.000	-0.080	0.225
-739.083	-54.903	0.166	0.075
-738.069	124.547	-0.221	0.280
-737.054	91.867	0.049	0.055
-736.039	-200.000	0.010	-0.085
-735.025	-121.929	0.374	0.062
-734.010	154.878	0.077	-0.107
-732.996	-53.797	-0.444	-0.203
-731.981	-200.000	0.012	-0.114
-730.966	-11.250	0.174	-0.115
-729.952	-119.311	-0.308	0.054
-728.937	-200.000	0.053	-0.245
-727.923	-64.509	-0.199	-0.081
-726.908	-14.381	-0.266	-0.172
-725.894	-68.083	-0.423	-0.165
-724.879	-53.312	0.231	-0.106
-723.864	499.593	-0.080	-0.185
-722.850	-73.868	0.268	-0.098
-721.835	506.085	-0.023	-0.054
-720.821	-21.496	0.021	-0.013
-719.806	21.597	0.156	-0.127
-718.791	-169.877	0.092	-0.003
-717.777	-99.591	-0.177	-0.045
-716.762	-160.311	0.111	-0.006
-715.748	103.963	-0.052	-0.061
-714.733	-200.000	0.007	-0.218
-713.718	-79.002	0.281	0.096
-712.704	800.000	-0.040	-0.169
-711.689	39.670	-0.397	-0.357
-710.675	398.194	-0.163	0.342
-709.660	-9.306	0.361	0.242
-708.645	98.869	-0.157	-0.181
-707.631	-127.823	-0.215	-0.031
-706.616	449.390	-0.134	-0.297
-705.602	106.691	0.106	0.126
-704.587	-78.004	0.182	0.063
-703.572	-10.078	0.262	-0.174
-702.558	-75.863	-0.127	0.045
-701.543	194.178	-0.120	0.182
-700.529	45.065	0.222	0.205
-699.514	-200.000	0.030	-0.134
-698.499	-200.000	-0.020	-0.332
-697.485	-52.698	-0.410	0.190
-696.470	-200.000	-0.006	0.207
-695.456	-35.401	-0.516	0.281
-694.441	19.766	-0.199	0.161
-693.426	-142.882	0.267	-0.026
-692.412	87.702	-0.164	0.182
-691.397	-32.908	-0.232	-0.129
-690.383	-19.832	0.167	-0.103
-689.368	213.309	0.104	0.164
-688.354	-33.210	-0.110	0.061
-687.339	-93.409	-0.173	0.048
-686.324	28.575	-0.166	-0.141
-685.310	72.233	0.144	-0.151
-684.295	-87.589	-0.169	-0.051
-683.281	800.000	0.054	0.154
-682.266	727.540	-0.055	-0.147
-681.251	330.323	-0.193	-0.373
-680.237	800.000	-0.070	-0.283
-679.222	-200.000	-0.049	-0.249
-678.208	-200.000	0.006	0.234
-677.193	-95.347	-0.321	-0.087
-676.178	-200.000	0.049	-0.232
-675.164	-11.324	-0.068	0.045
-674.149	-200.000	0.003	-0.130
-673.135	20.920	-0.278	0.226
-672.120	-200.000	-0.020	0.356
-671.105	-139.828	-0.100	0.011
-670.091	-200.000	0.019	0.223
-669.076	-93.510	0.044	-0.012
-668.062	-61.331	0.190	0.080
-667.047	-200.000	-0.011	-0.486
-666.032	3.835	0.071	-0.052
-665.018	196.040	0.090	0.137
-664.003	800.000	0.033	0.122
-662.989	-200.000	-0.016	0.340
-661.974	-150.201	0.267	0.021
-660.959	-29.572	0.085	-0.049
-659.945	800.000	-0.019	-0.072
-658.930	-200.000	0.004	-0.105
-657.916	597.955	0.080	-0.199
-656.901	-150.877	0.222	-0.017
-655.886	-51.313	0.267	-0.125
-654.872	-200.000	-0.016	-0.257
-653.857	-91.573	0.387	-0.110
-652.843	-127.866	-0.226	-0.033
-651.828	167.234	0.203	-0.289
-650.814	-200.000	-0.508	-0.002
-649.799	-43.207	-0.203	-0.103
-648.784	190.862	0.038	0.057
-647.770	-119.852	0.184	-0.032
-646.755	181.654	0.055	0.081
-645.741	-15.627	-0.259	0.166
-644.726	-34.674	-0.164	0.090
-643.711	170.750	0.112	0.160
-642.697	0.077	-0.187	-0.133
-641.682	-14.086	-0.055	0.036
-640.668	-92.192	-0.062	-0.018
-639.653	-63.993	0.083	0.034
-638.638	-161.678	0.094	-0.005
-637.624	-200.000	0.001	0.278
-636.609	-140.132	-0.074	-0.008
-635.595	77.668	-0.185	0.197
-634.580	267.702	-0.094	0.164
-633.565	-108.812	-0.150	0.032
-632.551	421.615	-0.114	-0.244
-631.536	-7.194	-0.272	0.185
-630.522	-83.043	-0.141	0.045
-629.507	-56.064	-0.167	-0.074
-628.492	10.998	-0.173	-0.132
-627.478	217.739	0.087	-0.139
-626.463	26.516	0.149	-0.125
-625.449	441.475	0.102	-0.222
-624.434	78.275	-0.146	-0.155
-623.419	-1.780	0.256	-0.180
-622.405	140.577	0.096	-0.126
-621.390	-151.526	-0.053	0.004
-620.376	34.904	0.133	0.116
-619.361	-152.091	-0.282	-0.021
-618.346	-40.411	0.169	0.088
-617.332	-92.611	-0.126	-0.035
-616.317	-185.903	0.125	0.002
-615.303	800.000	0.025	-0.081
-614.288	356.198	0.086	0.172
-613.273	-140.137	-0.537	-0.056
-612.259	800.000	0.063	-0.180
-611.244	-200.000	-0.033	-0.294
-610.230	-200.000	0.077	-0.352
-609.215	-81.212	0.158	-0.052
-608.201	-46.321	-0.047	0.023
-607.186	-13.188	-0.082	0.053
-606.171	-37.960	0.273	-0.145
-605.157	-200.000	0.009	-0.246
-604.142	800.000	-0.053	0.195
-603.128	800.000	0.159	0.450
-602.113	341.563	-0.015	-0.030
-601.098	-63.984	0.198	-0.081
-600.084	-200.000	-0.040	0.222
-599.069	-40.769	-0.162	0.084
-598.055	-61.655	-0.025	-0.011
-597.040	140.437	0.203	0.267
-596.025	-61.443	-0.102	-0.043
-595.011	800.000	-0.076	-0.229
-593.996	-200.000	-0.033	-0.450
-592.982	-98.556	0.240	-0.061
-591.967	546.956	-0.159	0.380
-590.952	-122.262	0.063	-0.010
-589.938	-200.000	-0.034	0.162
-588.923	-89.896	-0.154	0.045
-587.909	-200.000	-0.005	-0.080
-586.894	-200.000	-0.070	0.408
-585.879	731.266	0.062	-0.165
-584.865	-98.370	-0.271	-0.069
-583.850	256.294	-0.057	-0.097
-582.836	800.000	-0.082	-0.322
-581.821	-69.961	-0.233	0.088
-580.806	-195.700	-0.048	-0.000
-579.792	683.893	-0.110	0.287
-578.777	-200.000	0.003	0.017
-577.763	128.102	-0.049	-0.062
-576.748	-90.334	-0.152	-0.044
-575.733	-100.892	-0.137	0.034
-574.719	-80.520	-0.106	-0.035
-573.704	-139.823	-0.407	0.043
-572.690	240.319	0.057	-0.094
-571.675	-133.627	-0.310	0.039
-570.661	23.785	0.141	-0.116
-569.646	299.476	0.225	-0.413
-568.631	20.572	-0.287	-0.232
-567.617	-30.331	0.305	-0.173
-566.602	-200.000	-0.100	0.459
-565.588	-200.000	0.047	0.333
-564.573	-200.000	-0.013	0.421
-563.558	-93.988	0.189	0.052
-562.544	800.000	-0.060	-0.238
-561.529	67.459	-0.191	-0.194
-560.515	177.291	-0.324	-0.470
-559.500	-200.000	-0.011	-0.206
-558.485	262.685	0.195	-0.337
-557.471	-78.006	-0.106	-0.036
-556.456	-39.712	0.232	-0.121
-555.442	-200.000	0.069	0.364
-554.427	32.922	0.266	0.230
-553.412	-56.659	0.164	-0.073
-552.398	800.000	-0.029	0.089
-551.383	-173.551	-0.498	-0.015
-550.369	-77.221	0.072	0.025
-549.354	70.282	0.308	-0.318
-548.339	163.285	-0.191	-0.267
-547.325	-200.000	-0.054	-0.384
-546.310	119.088	0.046	0.056
-545.296	32.352	-0.047	0.040
-544.281	-80.189	-0.043	-0.014
-543.266	-58.634	-0.084	0.036
-542.252	-129.566	-0.254	-0.035
-541.237	-34.400	-0.076	-0.041
-540.223	372.156	-0.051	0.103
-539.208	-200.000	-0.024	0.233
-538.193	800.000	0.044	-0.164
-537.179	326.281	-0.059	0.113
-536.164	-200.000	0.004	0.167
-535.150	-3.939	0.364	-0.252
-534.135	-35.352	-0.137	-0.074
-533.121	-200.000	-0.017	0.163
-532.106	-92.203	-0.065	-0.018
-531.091	332.119	-0.110	0.212
-530.077	791.012	0.071	0.194
-529.062	-77.761	-0.072	-0.025
-528.048	35.466	-0.119	-0.104
-527.033	41.823	-0.107	-0.097
-526.018	-200.000	0.019	0.167
-525.004	-200.000	-0.009	0.320
-523.989	-56.599	0.048	0.021
-522.975	-2.823	-0.036	-0.025
-521.960	-131.342	0.116	-0.015
-520.945	4.904	-0.243	0.178
-519.931	75.460	0.056	-0.059
-518.916	-74.408	-0.065	0.023
-517.902	3.331	-0.230	-0.166
-516.887	627.182	0.073	-0.183
-515.872	138.521	-0.103	0.135
-514.858	-200.000	0.018	0.218
-513.843	800.000	0.097	0.303
-512.829	75.281	0.106	-0.111
-511.814	-46.248	0.399	0.195
-510.799	-200.000	-0.055	-0.282
-509.785	161.348	0.102	0.143
-508.770	133.103	-0.087	0.111
-507.756	-13.802	-0.152	0.098
-506.741	-122.431	-0.253	-0.041
-505.726	-200.000	-0.036	-0.243
-504.712	343.633	-0.065	-0.126
-503.697	-119.930	0.224	0.038
-502.683	171.493	0.022	-0.032
-501.668	18.211	-0.196	-0.155
-500.653	-2.212	-0.145	-0.101
-499.639	-111.013	0.110	-0.022
-498.624	158.071	0.090	0.124
-497.610	9.491	0.040	0.030
-496.595	177.056	0.151	-0.219
-495.581	576.274	-0.049	-0.119
-494.566	225.725	0.158	-0.255
-493.551	334.079	0.109	-0.211
-492.537	111.333	0.097	-0.117
-491.522	800.000	0.039	-0.135
-490.508	-30.176	0.174	0.098
-489.493	-117.431	-0.374	-0.067
-488.478	378.753	0.034	-0.070
-487.464	758.226	-0.114	0.307
-486.449	-83.850	-0.131	0.042
-485.435	-96.218	0.229	-0.060
-484.420	-200.000	-0.021	-0.191
-483.405	375.169	0.175	0.355
-482.391	800.000	0.054	0.184
-481.376	-200.000	0.019	-0.091
-480.362	102.827	-0.095	0.111
-479.347	-93.921	-0.117	-0.032
-478.332	-91.983	0.133	-0.037
-477.318	-200.000	0.014	-0.120
-476.303	-200.000	-0.021	-0.364
-475.289	690.669	0.071	-0.184
-474.274	-71.853	-0.064	-0.024
-473.259	-123.629	0.055	0.009
-472.245	-47.827	0.139	0.067
-471.230	-70.694	-0.019	-0.007
-470.216	-32.494	-0.144	-0.080
-469.201	800.000	-0.059	-0.213
-468.186	497.448	-0.120	-0.274
-467.172	69.565	0.087	0.089
-466.157	-200.000	-0.035	0.270
-465.143	-136.635	0.279	-0.032
-464.128	-200.000	-0.017	0.221
-463.113	-200.000	-0.024	-0.165
-462.099	-106.577	0.386	-0.085
-461.084	416.029	0.224	-0.474
-460.070	235.270	0.098	0.161
-459.055	-109.970	-0.121	0.025
-458.040	-99.033	0.194	-0.049
-457.026	-151.830	0.213	0.016
-456.011	-44.254	0.207	-0.103
-454.997	539.937	-0.133	0.315
-453.982	-47.210	-0.306	0.148
-452.968	-160.642	-0.341	0.018
-451.953	-85.798	-0.605	-0.186
-450.938	800.000	-0.095	0.306
-449.924	-157.312	0.182	0.011
-448.909	-200.000	-0.052	-0.230
-447.895	-52.069	0.287	0.132
-446.880	-65.688	-0.190	0.076
-445.865	800.000	0.076	0.272
-444.851	448.487	-0.037	0.082
-443.836	96.775	0.074	0.084
-442.822	-200.000	0.007	-0.079
-441.807	118.388	0.104	-0.127
-440.792	11.375	-0.162	-0.123
-439.778	-200.000	-0.008	0.066
-438.763	-37.680	0.261	0.138
-437.749	-23.721	-0.361	0.214
-436.734	-58.454	-0.133	0.057
-435.719	13.872	-0.179	0.138
-434.705	64.383	0.162	-0.161
-433.690	1.162	-0.089	0.064
-432.676	13.088	-0.365	0.280
-431.661	-198.376	0.429	-0.002
-430.646	-62.124	-0.518	-0.214
-429.632	228.676	-0.219	0.354
-428.617	-23.889	0.031	-0.018
-427.603	89.419	0.218	-0.241
-426.588	-200.000	-0.061	0.407
-425.573	86.570	-0.102	-0.112
-424.559	631.819	0.094	-0.237
-423.544	251.208	-0.039	-0.066
-422.530	63.160	0.262	0.260
-421.515	126.814	0.034	-0.042
-420.500	-54.831	-0.071	0.032
-419.486	9.984	0.343	0.258
-418.471	-118.519	0.249	0.044
-417.457	-80.586	0.371	0.123
-416.442	66.648	0.163	-0.164
-415.428	-200.000	0.039	-0.231
-414.413	-166.620	-0.253	-0.010
-413.398	239.749	0.042	-0.069
-412.384	41.680	0.065	0.058
-411.369	291.243	-0.128	-0.230
-410.355	-56.564	-0.168	0.074
-409.340	207.708	-0.034	0.053
-408.325	-99.362	-0.070	0.018
-407.311	56.784	-0.052	-0.050
-406.296	-96.963	-0.242	-0.063
-405.282	121.079	-0.107	0.132
-404.267	-200.000	0.015	0.083
-403.252	-104.897	-0.185	-0.042
-402.238	83.940	0.434	-0.470
-401.223	800.000	-0.101	-0.303
-400.209	94.578	-0.096	-0.108
-399.194	800.000	0.018	0.052
-398.179	-69.332	-0.077	-0.029
-397.165	-200.000	0.015	0.156
-396.150	51.713	-0.106	-0.100
-395.136	50.365	0.406	-0.380
-394.121	-200.000	-0.009	-0.213
-393.106	180.998	0.111	0.161
-392.092	102.225	-0.197	0.228
-391.077	-120.834	0.335	0.056
-390.063	244.237	-0.070	-0.116
-389.048	256.640	-0.029	-0.049
-388.033	4.069	0.090	0.065
-387.019	800.000	-0.048	-0.145
-386.004	-93.251	0.456	-0.126
-384.990	-134.453	0.216	-0.026
-383.975	-109.232	0.331	-0.070
-382.960	266.468	-0.067	0.117
-381.946	-102.254	0.202	0.048
-380.931	-72.990	-0.083	-0.030
-379.917	-119.530	0.096	-0.017
-378.902	-29.978	0.107	-0.060
-377.888	-98.517	0.249	-0.063
-376.873	707.410	-0.142	-0.371
-375.858	-138.304	0.234	0.026
-374.844	800.000	0.028	0.078
-373.829	-12.729	-0.150	-0.097
-372.815	-200.000	0.076	0.408
-371.800	-200.000	0.004	-0.278
-370.785	-87.113	0.292	0.088
-369.771	-200.000	-0.052	0.359
-368.756	-63.662	0.046	0.019
-367.742	-141.601	-0.286	-0.029
-366.727	610.364	-0.079	-0.196
-365.712	74.287	0.066	0.069
-364.698	-112.294	-0.106	-0.021
-363.683	-52.659	-0.152	-0.070
-362.669	800.000	0.062	-0.255
-361.654	29.510	0.102	-0.086
-360.639	-147.477	-0.269	-0.022
-359.625	-149.649	-0.093	0.007
-358.610	172.601	-0.142	-0.202
-357.596	-200.000	0.013	-0.060
-356.581	19.589	-0.070	-0.056
-355.566	244.831	-0.122	-0.203
-354.552	39.704	-0.159	-0.141
-353.537	-74.837	-0.152	-0.054
-352.523	-200.000	-0.002	-0.059
-351.508	706.149	0.058	-0.151
-350.493	-187.026	0.180	-0.002
-349.479	-200.000	-0.009	0.107
-348.464	12.736	0.039	0.030
-347.450	74.396	-0.124	-0.128
-346.435	308.194	-0.102	0.189
-345.420	43.089	-0.203	0.183
-344.406	800.000	0.053	-0.171
-343.391	-44.378	0.228	-0.113
-342.377	113.327	-0.214	0.257
-341.362	-139.847	0.412	0.043
-340.348	1.745	-0.085	0.060
-339.333	263.541	-0.195	0.334
-338.318	369.242	0.033	-0.065
-337.304	-175.436	-0.222	-0.006
-336.289	131.709	0.159	-0.202
-335.275	-126.702	-0.334	0.049
-334.260	475.253	-0.033	-0.073
-333.245	-200.000	0.032	0.327
-332.231	77.239	-0.049	0.052
-331.216	800.000	0.100	0.332
-330.202	18.320	0.132	-0.104
-329.187	-15.499	0.172	0.108
-328.172	137.944	-0.166	0.216
-327.158	-126.950	-0.023	-0.003
-326.143	-32.274	-0.219	-0.121
-325.129	-200.000	-0.005	0.062
-324.114	-14.987	-0.164	0.104
-323.099	-64.591	0.069	0.028
-322.085	800.000	0.092	-0.364
-321.070	173.183	0.196	0.279
-320.056	-200.000	-0.093	0.526
-319.041	-100.177	0.345	0.085
-318.026	429.879	-0.091	-0.195
-317.012	77.806	0.151	-0.159
-315.997	-66.067	-0.236	-0.093
-314.983	-92.428	0.037	0.010
-313.968	-200.000	0.378	-0.000
-312.953	-160.526	0.318	-0.017
-311.939	433.292	0.141	0.302
-310.924	-200.000	0.005	0.356
-309.910	-140.720	0.297	0.030
-308.895	-46.388	-0.202	-0.098
-307.880	-200.000	-0.005	0.090
-306.866	-29.386	-0.282	-0.159
-305.851	-77.341	0.276	-0.095
-304.837	-5.347	-0.298	-0.202
-303.822	24.186	0.126	0.102
-302.807	101.459	0.107	0.123
-301.793	236.605	-0.126	-0.206
-300.778	800.000	-0.052	-0.190
-299.764	-200.000	0.045	0.247
-298.749	116.834	0.068	-0.083
-297.735	-88.661	-0.118	0.035
-296.720	-78.303	0.349	0.118
-295.705	64.666	0.083	-0.082
-294.691	445.840	0.182	-0.394
-293.676	287.365	-0.195	-0.348
-292.662	-15.607	0.135	0.085
-291.647	-200.000	0.037	0.291
-290.632	-79.645	0.241	0.080
-289.618	83.046	-0.113	-0.121
-288.603	214.131	-0.143	0.223
-287.589	562.299	-0.128	0.306
-286.574	-200.000	0.039	-0.193
-285.559	-160.472	0.086	-0.005
-284.545	388.114	-0.076	-0.155
-283.530	-200.000	-0.021	0.098
-282.516	-70.816	0.450	0.168
-281.501	-200.000	0.027	0.226
-280.486	88.063	-0.064	0.071
-279.472	-24.316	0.293	0.172
-278.457	-14.870	-0.153	0.097
-277.443	-36.340	-0.060	-0.032
-276.428	221.519	-0.109	-0.173
-275.413	-96.026	-0.179	-0.047
-274.399	15.075	-0.313	-0.242
-273.384	571.500	-0.038	-0.091
-272.370	-200.000	0.043	0.222
-271.355	-69.778	0.256	0.096
-270.340	-47.329	-0.233	0.112
-269.326	-12.398	0.009	-0.006
-268.311	-200.000	-0.028	0.200
-267.297	151.558	-0.209	0.280
-266.282	426.075	-0.108	0.229
-265.267	-7.792	0.256	0.170
-264.253	648.226	0.049	-0.123
-263.238	-156.153	-0.140	-0.009
-262.224	81.045	0.192	-0.204
-261.209	-79.062	0.169	0.057
-260.195	-200.000	-0.010	-0.154
-259.180	-75.488	0.177	0.062
-258.165	-124.117	-0.276	0.043
-257.151	-151.140	-0.031	-0.002
-256.136	711.118	0.092	0.241
-255.122	80.300	-0.182	0.193
-254.107	800.000	0.135	-0.409
-253.092	-1.645	0.112	0.078
-252.078	-118.548	-0.108	0.019
-251.063	-126.795	-0.098	-0.014
-250.049	-200.000	-0.052	0.394
-249.034	3.629	-0.437	0.314
-248.019	-111.810	-0.222	-0.044
-247.005	490.969	0.036	0.080
-245.990	800.000	-0.166	0.475
-244.976	-200.000	-0.020	-0.255
-243.961	137.233	0.170	-0.219
-242.946	-135.006	0.343	-0.041
-241.932	-161.948	0.284	-0.014
-240.917	800.000	-0.088	-0.294
-239.903	-102.559	0.155	-0.037
-238.888	441.812	-0.108	0.233
-237.873	-98.998	0.189	-0.047
-236.859	31.738	-0.365	0.309
-235.844	-147.940	-0.218	0.018
-234.830	-153.865	-0.257	-0.017
-233.815	-128.096	0.207	-0.029
-232.800	681.110	-0.054	0.138
-231.786	-200.000	0.080	0.510
-230.771	-194.922	-0.049	-0.000
-229.757	800.000	-0.111	-0.412
-228.742	457.431	-0.113	-0.247
-227.727	-79.984	-0.213	-0.070
-226.713	110.204	-0.135	-0.160
-225.698	37.560	0.233	-0.204
-224.684	-74.871	-0.143	-0.050
-223.669	-170.563	0.389	0.013
-222.655	-25.981	-0.355	-0.206
-221.640	325.946	-0.056	-0.106
-220.625	-10.539	0.215	0.140
-219.611	-172.420	0.401	0.013
-218.596	-113.676	-0.196	0.038
-217.582	-200.000	-0.024	-0.107
-216.567	-46.810	0.163	-0.078
-215.552	800.000	-0.048	0.199
-214.538	87.794	-0.206	-0.224
-213.523	181.123	0.008	-0.011
-212.509	-118.985	-0.183	-0.032
-211.494	-200.000	-0.027	0.524
-210.479	234.294	0.063	-0.102
-209.465	-80.864	0.112	-0.037
-208.450	29.213	0.165	0.138
-207.436	-146.230	0.327	-0.028
-206.421	345.657	0.105	-0.202
-205.406	-63.287	0.228	0.092
-204.392	4.235	0.116	0.083
-203.377	15.588	-0.132	-0.102
-202.363	-129.178	0.205	-0.028
-201.348	-200.000	-0.040	0.255
-200.333	-88.304	0.054	0.016
-199.319	-115.265	0.222	0.041
-198.304	-66.471	0.206	0.080
-197.290	-200.000	-0.019	-0.334
-196.275	3.949	0.109	-0.078
-195.260	-200.000	0.026	-0.188
-194.246	273.236	-0.066	0.115
-193.231	-107.026	0.230	0.050
-192.217	106.040	0.303	0.353
-191.202	131.506	-0.169	-0.214
-190.187	229.513	-0.094	-0.150
-189.173	-83.345	-0.079	0.025
-188.158	-81.950	0.122	-0.039
-187.144	136.157	0.277	0.354
-186.129	-79.628	0.222	-0.073
-185.114	-32.596	-0.124	0.068
-184.100	156.849	0.077	0.104
-183.085	-116.223	-0.207	-0.038
-182.071	302.967	-0.182	0.331
-181.056	18.663	-0.252	0.198
-180.042	-53.183	0.179	0.081
-179.027	104.664	0.117	-0.136
-178.012	-200.000	0.034	-0.242
-176.998	-21.359	-0.197	0.118
-175.983	139.062	0.284	0.366
-174.969	-30.912	-0.250	-0.139
-173.954	-200.000	-0.045	-0.197
-172.939	-135.097	-0.202	0.024
-171.925	134.546	0.078	-0.099
-170.910	42.424	0.190	0.170
-169.896	800.000	-0.060	0.215
-168.881	189.038	-0.012	-0.018
-167.866	-91.685	-0.194	-0.054
-166.852	-200.000	-0.003	0.084
-165.837	-180.491	0.069	0.001
-164.823	64.709	0.163	-0.161
-163.808	41.117	0.183	-0.162
-162.793	-118.576	0.054	-0.009
-161.779	87.957	0.241	-0.262
-160.764	306.357	-0.027	-0.049
-159.750	-41.039	-0.171	0.087
-158.735	-192.679	0.219	-0.002
-157.720	52.359	-0.101	0.094
-156.706	-9.320	-0.136	-0.089
-155.691	-200.000	0.006	0.212
-154.677	-200.000	-0.022	-0.189
-153.662	-120.241	0.320	-0.054
-152.647	109.295	0.022	0.025
-151.633	-200.000	-0.023	0.125
-150.618	-55.371	0.175	0.077
-149.604	-116.563	0.198	-0.036
-148.589	227.847	0.060	-0.096
-147.574	800.000	0.081	-0.295
-146.560	24.753	-0.155	0.126
-145.545	6.671	0.199	-0.146
-144.531	96.352	-0.111	-0.125
-143.516	-63.275	-0.177	0.072
-142.502	382.717	0.046	-0.092
-141.487	354.729	0.124	-0.241
-140.472	326.648	-0.064	-0.120
-139.458	-200.000	-0.000	-0.180
-138.443	-134.264	0.260	-0.031
-137.429	800.000	-0.039	0.115
-136.414	800.000	-0.111	0.345
-135.399	-113.258	0.240	0.046
-134.385	56.720	0.190	0.182
-133.370	38.726	-0.168	0.147
-132.356	18.855	0.167	0.131
-131.341	800.000	-0.040	-0.124
-130.326	417.279	-0.130	0.272
-129.312	-102.133	-0.298	-0.070
-128.297	632.140	-0.134	-0.334
-127.283	349.591	0.032	0.063
-126.268	112.072	0.134	0.159
-125.253	3.303	-0.361	-0.258
-124.239	21.254	0.210	-0.167
-123.224	-157.644	-0.136	-0.008
