DTS Sentinel unit serial number:	SN413079Multiplexer serial number:	ORYXHardware model number:	OX4-SRSoftware version number:	ORYX F/W v4.00 Oryx Data Collector v3.7.2.0data status	okinstallation	princeton_trtdifferential loss correction	single-endedforward channel	channel 2reverse channel	N/Adate	2019/09/13time	08:51:35forward acquisition time	60.00reverse acquisition time	0.00gamma	496.2192k internal	0.2332k external	0.2332temperature offset calibration	1.0192default loss term (dB/km)	0.3790temperature slope calibration	1.0000multiplexer offset coefficient	1.0000multiplexer slope coefficient	1.0000fibre end	0.00T internal ref (°C)	28.12T ext. ref 1 (°C)	4.34T ext. ref 2 (°C)	25.12length (m)	temperature (°C)	Stokes	anti-Stokes-747.200	111.582	0.258	0.313
-746.185	800.000	-0.056	0.243
-745.171	15.897	0.134	0.106
-744.156	-173.764	0.099	-0.003
-743.142	-159.970	-0.250	-0.014
-742.127	-200.000	-0.003	0.298
-741.112	-69.668	0.296	-0.114
-740.098	592.858	-0.054	0.133
-739.083	800.000	-0.135	-0.452
-738.069	-55.725	-0.377	0.170
-737.054	-95.304	0.340	-0.092
-736.039	-83.999	-0.092	0.029
-735.025	800.000	-0.033	0.100
-734.010	-63.434	-0.232	-0.096
-732.996	-200.000	-0.074	-0.475
-731.981	3.351	-0.262	-0.192
-730.966	30.913	-0.225	-0.193
-729.952	212.287	0.065	-0.102
-728.937	-200.000	0.027	-0.244
-727.923	-108.928	-0.133	0.028
-726.908	-45.692	0.089	0.044
-725.894	398.092	-0.035	0.075
-724.879	-200.000	0.015	-0.153
-723.864	-11.555	0.104	0.069
-722.850	13.362	0.175	-0.137
-721.835	-83.967	0.273	0.087
-720.821	11.194	-0.118	0.090
-719.806	800.000	0.038	-0.117
-718.791	106.077	0.148	-0.176
-717.777	-200.000	-0.049	0.291
-716.762	800.000	-0.092	-0.332
-715.748	-200.000	0.036	0.260
-714.733	-80.746	-0.016	0.005
-713.718	-156.348	-0.361	-0.023
-712.704	-3.066	0.389	0.273
-711.689	-198.358	0.383	0.002
-710.675	-47.533	-0.144	0.070
-709.660	800.000	-0.080	-0.234
-708.645	-59.075	-0.183	-0.079
-707.631	151.951	-0.058	-0.079
-706.616	150.123	-0.224	-0.306
-705.602	-200.000	0.090	-0.458
-704.587	120.434	-0.241	-0.301
-703.572	10.183	0.021	0.016
-702.558	-100.040	0.257	0.064
-701.543	-53.609	0.228	-0.105
-700.529	-94.199	-0.066	0.018
-699.514	2.648	-0.060	0.044
-698.499	434.114	-0.058	0.127
-697.485	437.877	-0.131	-0.287
-696.470	334.310	0.136	0.264
-695.456	375.773	0.059	0.120
-694.441	-200.000	0.021	-0.170
-693.426	-94.322	0.156	-0.043
-692.412	14.650	-0.166	-0.130
-691.397	-91.409	0.088	0.025
-690.383	-2.962	0.073	-0.051
-689.368	161.063	-0.039	0.055
-688.354	800.000	-0.042	0.147
-687.339	-59.120	0.250	-0.108
-686.324	42.853	0.241	0.221
-685.310	-200.000	0.005	0.173
-684.295	83.137	0.242	-0.265
-683.281	287.308	-0.131	0.237
-682.266	641.705	-0.120	-0.307
-681.251	-105.601	-0.113	-0.026
-680.237	3.513	0.216	0.158
-679.222	800.000	0.066	0.244
-678.208	-109.905	0.343	0.072
-677.193	-88.527	-0.150	-0.045
-676.178	613.437	-0.029	0.072
-675.164	-200.000	-0.009	-0.193
-674.149	-194.919	0.112	-0.001
-673.135	-2.719	-0.254	0.178
-672.120	-200.000	-0.042	-0.272
-671.105	-66.929	-0.037	0.015
-670.091	152.966	0.082	-0.112
-669.076	-118.235	-0.063	0.011
-668.062	264.257	0.076	-0.132
-667.047	34.736	0.064	-0.056
-666.032	32.186	-0.063	0.054
-665.018	-26.949	0.179	-0.105
-664.003	-72.394	-0.074	0.027
-662.989	62.935	-0.220	0.221
-661.974	37.945	0.060	-0.054
-660.959	112.969	-0.149	0.181
-659.945	800.000	0.019	0.084
-658.930	-200.000	-0.031	0.319
-657.916	448.712	-0.126	-0.279
-656.901	-200.000	0.029	-0.176
-655.886	94.597	-0.238	0.271
-654.872	406.978	-0.104	0.220
-653.857	429.624	-0.086	-0.186
-652.843	-124.408	0.165	0.026
-651.828	32.205	0.306	-0.265
-650.814	-66.830	0.153	0.060
-649.799	156.306	0.040	0.056
-648.784	22.215	0.067	0.055
-647.770	-80.766	0.367	-0.122
-646.755	278.279	0.111	-0.198
-645.741	-76.987	-0.235	-0.082
-644.726	629.197	-0.080	-0.203
-643.711	-71.190	-0.192	0.072
-642.697	8.360	0.210	-0.159
-641.682	-22.401	-0.366	-0.222
-640.668	-82.415	0.286	-0.093
-639.653	800.000	-0.055	-0.156
-638.638	-37.651	0.209	-0.111
-637.624	800.000	0.026	-0.090
-636.609	121.214	0.099	0.123
-635.595	800.000	0.118	0.419
-634.580	306.623	-0.116	-0.216
-633.565	-46.885	0.087	-0.043
-632.551	-141.269	-0.369	0.038
-631.536	84.865	0.122	0.134
-630.522	-38.097	-0.049	0.026
-629.507	-55.771	-0.149	0.067
-628.492	124.033	-0.112	-0.141
-627.478	650.188	0.078	0.199
-626.463	12.396	-0.280	-0.216
-625.449	-136.005	0.064	0.008
-624.434	-52.657	-0.116	-0.054
-623.419	408.389	0.041	-0.086
-622.405	-117.168	-0.194	0.035
-621.390	-72.114	0.192	0.071
-620.376	-13.331	0.142	-0.092
-619.361	-63.762	-0.293	-0.120
-618.346	71.836	0.191	0.199
-617.332	223.503	0.320	0.517
-616.317	-41.013	0.069	-0.036
-615.303	-23.256	-0.178	-0.107
-614.288	-40.794	0.089	0.046
-613.273	167.553	-0.065	-0.093
-612.259	118.113	0.086	-0.106
-611.244	-200.000	-0.002	-0.047
-610.230	-200.000	-0.034	0.269
-609.215	5.238	0.168	-0.124
-608.201	-75.304	-0.179	-0.064
-607.186	-150.767	-0.347	-0.026
-606.171	31.543	0.291	-0.250
-605.157	113.544	-0.059	-0.072
-604.142	684.469	-0.137	-0.359
-603.128	486.230	-0.105	-0.239
-602.113	-200.000	0.025	-0.466
-601.098	-36.151	0.335	0.181
-600.084	-36.615	0.365	0.196
-599.069	-37.828	0.044	-0.023
-598.055	70.386	-0.157	-0.162
-597.040	-200.000	-0.036	-0.175
-596.025	-112.076	-0.052	-0.010
-595.011	-167.308	-0.162	0.007
-593.996	-175.650	-0.626	-0.017
-592.982	-50.694	-0.268	0.126
-591.967	-200.000	0.027	-0.162
-590.952	800.000	0.100	0.299
-589.938	-200.000	0.041	-0.290
-588.923	432.213	0.017	0.038
-587.909	-49.585	0.220	0.105
-586.894	-200.000	0.003	-0.181
-585.879	-26.429	0.350	0.205
-584.865	-100.541	-0.120	-0.030
-583.850	800.000	-0.050	-0.215
-582.836	-27.579	0.301	0.175
-581.821	-35.215	-0.065	-0.036
-580.806	-91.755	-0.217	0.062
-579.792	800.000	0.028	0.085
-578.777	134.018	-0.130	-0.168
-577.763	-131.462	0.071	-0.009
-576.748	61.292	0.033	0.033
-575.733	511.564	0.076	0.177
-574.719	-166.159	0.092	0.004
-573.704	266.559	0.176	0.307
-572.690	-62.985	-0.108	-0.045
-571.675	-134.827	-0.182	0.022
-570.661	-25.018	0.212	0.126
-569.646	187.149	-0.089	-0.133
-568.631	154.403	-0.029	-0.039
-567.617	-56.845	-0.253	0.112
-566.602	172.205	-0.148	-0.213
-565.588	-106.166	0.392	-0.088
-564.573	-92.965	0.422	-0.118
-563.558	-92.575	0.241	0.068
-562.544	-200.000	0.053	0.391
-561.529	-200.000	-0.024	-0.137
-560.515	658.743	-0.089	-0.229
-559.500	514.768	-0.156	-0.364
-558.485	800.000	-0.042	-0.176
-557.471	-36.345	0.040	0.022
-556.456	800.000	0.169	-0.535
-555.442	-169.410	0.211	-0.008
-554.427	-37.611	-0.064	0.034
-553.412	451.370	-0.018	0.039
-552.398	800.000	-0.073	0.214
-551.383	-84.816	0.098	-0.031
-550.369	91.485	0.228	0.256
-549.354	-200.000	-0.001	-0.183
-548.339	373.875	0.106	0.215
-547.325	800.000	0.049	-0.190
-546.310	687.274	-0.061	0.160
-545.296	-200.000	-0.009	-0.064
-544.281	348.549	0.031	-0.062
-543.266	49.032	-0.121	-0.114
-542.252	-71.460	0.136	-0.051
-541.237	-200.000	-0.026	0.193
-540.223	-200.000	-0.025	0.120
-539.208	800.000	-0.089	0.257
-538.193	-57.233	0.318	0.140
-537.179	-200.000	0.058	-0.332
-536.164	-88.395	0.076	-0.023
-535.150	-93.654	-0.203	0.056
-534.135	-78.647	-0.046	-0.016
-533.121	29.534	0.358	0.304
-532.106	21.868	-0.120	0.098
-531.091	-97.076	0.063	0.016
-530.077	431.411	-0.045	0.098
-529.062	-108.618	0.112	0.024
-528.048	-200.000	-0.048	0.303
-527.033	-70.053	0.034	-0.013
-526.018	198.596	0.012	0.018
-525.004	113.414	0.039	0.047
-523.989	329.618	-0.067	0.128
-522.975	-155.454	-0.529	0.034
-521.960	-200.000	0.008	0.224
-520.945	800.000	0.035	0.115
-519.931	-200.000	-0.015	-0.095
-518.916	462.044	0.063	0.141
-517.902	-144.568	-0.238	-0.022
-516.887	-200.000	-0.004	-0.410
-515.872	277.792	0.096	-0.171
-514.858	379.447	-0.191	0.389
-513.843	453.555	0.089	-0.197
-512.829	76.899	-0.213	-0.225
-511.814	178.954	0.055	-0.080
-510.799	-200.000	0.055	0.285
-509.785	-96.679	0.142	0.037
-508.770	-116.911	0.168	-0.031
-507.756	-127.607	-0.197	-0.028
-506.741	-108.345	0.095	-0.020
-505.726	-106.447	-0.212	-0.047
-504.712	381.714	0.057	-0.117
-503.697	-33.756	0.299	-0.164
-502.683	-40.505	-0.319	-0.165
-501.668	-200.000	-0.027	0.173
-500.653	-200.000	0.012	0.151
-499.639	-147.777	-0.128	0.011
-498.624	783.944	-0.073	0.200
-497.610	89.146	-0.121	-0.134
-496.595	358.607	-0.114	0.227
-495.581	-22.531	-0.043	-0.026
-494.566	-71.692	0.158	-0.059
-493.551	-38.909	0.060	-0.031
-492.537	2.433	0.126	0.091
-491.522	-103.456	-0.240	0.056
-490.508	-186.952	-0.311	0.004
-489.493	558.293	-0.038	0.091
-488.478	210.926	0.068	0.106
-487.464	601.450	0.102	-0.253
-486.449	93.776	0.144	0.163
-485.435	-200.000	0.006	-0.259
-484.420	-200.000	-0.033	0.177
-483.405	133.137	0.062	-0.079
-482.391	-28.702	-0.287	0.164
-481.376	800.000	0.038	-0.141
-480.362	174.784	0.112	-0.161
-479.347	-111.735	-0.341	0.069
-478.332	-61.635	-0.166	0.069
-477.318	-176.389	-0.171	-0.004
-476.303	-200.000	-0.029	0.358
-475.289	-39.333	-0.232	-0.121
-474.274	314.099	-0.114	-0.214
-473.259	134.222	-0.082	-0.106
-472.245	-200.000	-0.011	-0.076
-471.230	-170.084	0.121	-0.004
-470.216	95.799	-0.285	0.323
-469.201	389.073	0.097	-0.201
-468.186	195.113	0.080	-0.121
-467.172	-200.000	-0.021	0.174
-466.157	-74.950	0.036	0.013
-465.143	51.299	0.082	0.077
-464.128	154.420	0.190	0.259
-463.113	-200.000	0.051	0.563
-462.099	189.630	0.053	-0.080
-461.084	800.000	-0.078	0.277
-460.070	205.877	0.019	0.029
-459.055	-52.922	-0.132	0.061
-458.040	39.416	0.088	-0.079
-457.026	34.538	-0.120	0.104
-456.011	-98.686	0.326	0.083
-454.997	800.000	0.128	0.467
-453.982	800.000	-0.020	-0.069
-452.968	498.477	0.187	-0.429
-451.953	-21.741	0.174	-0.106
-450.938	559.430	-0.040	0.096
-449.924	-103.136	-0.253	-0.059
-448.909	-66.906	0.176	0.069
-447.895	800.000	0.070	-0.193
-446.880	-50.786	-0.088	0.041
-445.865	-172.200	-0.083	0.003
-444.851	46.147	0.157	0.144
-443.836	10.571	0.145	0.110
-442.822	-200.000	-0.003	-0.275
-441.807	-115.626	-0.204	-0.038
-440.792	-11.022	0.084	0.055
-439.778	-44.898	-0.101	0.050
-438.763	15.279	0.106	-0.083
-437.749	76.108	-0.051	-0.054
-436.734	216.126	-0.089	0.141
-435.719	-39.798	0.278	0.144
-434.705	800.000	0.035	0.138
-433.690	64.165	0.071	-0.071
-432.676	306.188	0.201	0.372
-431.661	800.000	0.029	0.103
-430.646	-61.287	0.371	0.155
-429.632	-81.035	0.054	-0.018
-428.617	-54.338	0.097	0.044
-427.603	-80.780	0.140	0.046
-426.588	-200.000	0.107	-0.553
-425.573	729.163	-0.089	0.236
-424.559	236.192	-0.034	-0.057
-423.544	-159.867	0.384	-0.021
-422.530	-200.000	0.030	-0.366
-421.515	-200.000	0.029	-0.210
-420.500	-190.337	-0.052	-0.001
-419.486	-46.210	0.158	-0.077
-418.471	-2.974	0.088	0.061
-417.457	-95.244	-0.309	-0.083
-416.442	-54.844	0.081	0.036
-415.428	-200.000	-0.008	0.122
-414.413	-200.000	0.021	-0.143
-413.398	37.763	0.042	0.037
-412.384	-70.113	-0.103	0.039
-411.369	-13.620	0.243	0.157
-410.355	-97.162	-0.180	-0.047
-409.340	97.017	-0.229	-0.260
-408.325	-134.484	0.038	0.005
-407.311	-173.952	0.091	0.003
-406.296	-200.000	-0.005	-0.156
-405.282	-200.000	-0.163	0.001
-404.267	-35.414	-0.032	0.017
-403.252	-55.622	-0.062	0.027
-402.238	75.534	-0.088	-0.092
-401.223	-105.253	-0.221	-0.050
-400.209	176.566	0.106	-0.153
-399.194	148.105	0.293	0.392
-398.179	177.058	0.059	-0.086
-397.165	-200.000	-0.008	0.119
-396.150	800.000	-0.073	0.250
-395.136	319.047	0.137	-0.258
-394.121	-62.877	-0.152	-0.062
-393.106	341.733	0.084	-0.163
-392.092	46.830	0.150	-0.139
-391.077	46.090	-0.230	-0.212
-390.063	55.027	-0.177	-0.170
-389.048	-14.839	0.288	0.183
-388.033	106.317	-0.018	0.022
-387.019	800.000	0.088	0.316
-386.004	211.628	0.123	-0.192
-384.990	520.729	0.072	0.167
-383.975	21.989	-0.129	0.104
-382.960	116.452	0.115	0.140
-381.946	-163.368	-0.135	0.006
-380.931	71.880	0.094	-0.097
-379.917	9.535	-0.345	-0.259
-378.902	-200.000	0.051	-0.400
-377.888	-200.000	0.026	-0.146
-376.873	800.000	-0.043	-0.126
-375.858	208.293	0.164	-0.255
-374.844	218.298	0.158	-0.250
-373.829	-49.189	0.084	0.040
-372.815	800.000	-0.026	-0.084
-371.800	40.021	0.107	0.095
-370.785	-200.000	-0.250	0.000
-369.771	-200.000	-0.013	-0.069
-368.756	360.464	0.179	0.356
-367.742	-61.535	0.209	0.087
-366.727	32.866	-0.139	0.120
-365.712	398.979	0.095	0.198
-364.698	-134.403	-0.386	-0.047
-363.683	217.701	0.130	0.206
-362.669	-69.263	0.221	0.084
-361.654	-162.980	0.271	-0.013
-360.639	-173.006	0.305	0.009
-359.625	800.000	0.038	-0.129
-358.610	-200.000	-0.044	0.391
-357.596	-135.962	0.429	0.050
-356.581	291.272	-0.156	0.282
-355.566	-58.334	-0.219	0.094
-354.552	166.424	-0.262	0.368
-353.537	800.000	-0.029	0.080
-352.523	-106.605	-0.175	0.039
-351.508	-116.146	0.206	-0.038
-350.493	-35.394	0.127	0.068
-349.479	-9.193	-0.155	-0.103
-348.464	-200.000	-0.015	0.080
-347.450	218.278	0.196	-0.311
-346.435	81.688	0.074	0.079
-345.420	-190.851	0.111	-0.001
-344.406	-14.595	-0.331	-0.211
-343.391	-200.000	-0.049	-0.443
-342.377	401.224	-0.172	0.357
-341.362	525.365	-0.040	0.092
-340.348	276.417	0.081	-0.142
-339.333	-153.546	-0.489	-0.033
-338.318	228.531	-0.034	0.055
-337.304	-200.000	0.063	0.320
-336.289	-26.639	0.098	0.057
-335.275	67.781	0.250	0.253
-334.260	-200.000	-0.095	0.446
-333.245	-200.000	-0.004	0.178
-332.231	-146.548	-0.129	0.011
-331.216	83.624	0.177	-0.191
-330.202	-119.576	0.118	-0.020
-329.187	-5.459	-0.296	0.201
-328.172	119.830	-0.211	0.259
-327.158	157.834	0.142	0.195
-326.143	-200.000	-0.013	0.254
-325.129	-91.151	-0.209	0.059
-324.114	-131.821	0.253	-0.033
-323.099	-127.922	0.327	0.047
-322.085	-79.078	-0.264	0.089
-321.070	-51.487	-0.069	0.032
-320.056	-139.644	-0.228	0.024
-319.041	275.038	0.105	-0.184
-318.026	586.124	0.079	-0.192
-317.012	-177.900	-0.139	0.003
-315.997	-4.229	0.219	0.150
-314.983	51.573	-0.078	0.073
-313.968	-114.331	-0.223	-0.042
-312.953	-19.065	0.092	-0.056
-311.939	696.922	0.134	-0.348
-310.924	-46.267	0.187	-0.091
-309.910	-123.055	0.208	0.033
-308.895	271.865	0.033	-0.057
-307.880	525.224	-0.085	-0.199
-306.866	179.266	0.152	-0.220
-305.851	52.139	0.372	0.351
-304.837	-47.957	0.228	0.109
-303.822	-132.077	0.112	-0.014
-302.807	-6.006	-0.185	-0.125
-301.793	27.465	-0.156	-0.130
-300.778	143.378	-0.107	0.141
-299.764	-200.000	-0.028	-0.346
-298.749	-200.000	0.060	0.387
-297.735	240.769	-0.124	0.204
-296.720	800.000	0.065	-0.243
-295.705	-50.348	-0.070	0.033
-294.691	88.081	0.091	-0.099
-293.676	-200.000	0.011	-0.308
-292.662	304.510	-0.043	-0.079
-291.647	-151.684	0.053	0.004
-290.632	68.918	0.011	-0.011
-289.618	89.638	0.134	-0.148
-288.603	91.072	-0.065	-0.072
-287.589	-101.075	0.302	-0.073
-286.574	-200.000	0.052	-0.277
-285.559	-91.149	-0.264	-0.075
-284.545	-77.633	-0.079	0.027
-283.530	-168.274	0.342	-0.013
-282.516	-200.000	0.080	-0.435
-281.501	-143.901	-0.059	-0.005
-280.486	44.437	0.126	-0.115
-279.472	-0.329	-0.086	-0.061
-278.457	-37.784	0.129	0.068
-277.443	62.423	-0.245	-0.242
-276.428	-200.000	0.012	0.247
-275.413	-15.653	0.221	-0.139
-274.399	-53.523	-0.455	0.206
-273.384	86.537	0.155	-0.168
-272.370	283.561	-0.062	-0.111
-271.355	-170.917	-0.008	0.000
-270.340	102.050	-0.066	-0.076
-269.326	800.000	0.029	0.120
-268.311	115.598	-0.076	0.091
-267.297	-9.128	0.161	-0.106
-266.282	547.623	-0.162	-0.384
-265.267	-118.900	0.288	-0.050
-264.253	-200.000	-0.011	0.065
-263.238	-71.042	-0.096	-0.036
-262.224	-35.457	-0.294	0.158
-261.209	-200.000	-0.011	0.067
-260.195	800.000	-0.080	-0.310
-259.180	-191.031	-0.218	-0.002
-258.165	190.925	0.164	0.244
-257.151	-113.492	-0.347	0.067
-256.136	123.058	-0.173	-0.214
-255.122	800.000	-0.089	-0.327
-254.107	800.000	0.081	0.248
-253.092	4.874	0.094	0.068
-252.078	-144.898	-0.330	-0.030
-251.063	652.319	-0.093	0.236
-250.049	-131.924	-0.059	0.008
-249.034	79.394	0.043	0.046
-248.019	405.370	-0.079	-0.165
-247.005	-76.913	-0.116	-0.040
-245.990	-48.690	-0.107	-0.051
-244.976	80.399	-0.118	0.126
-243.961	-155.258	0.311	-0.020
-242.946	-103.148	-0.323	0.075
-241.932	-14.410	0.251	0.159
-240.917	-163.278	-0.292	-0.014
-239.903	-200.000	0.037	0.191
-238.888	150.163	-0.198	-0.266
-237.873	-200.000	-0.024	0.203
-236.859	-51.864	0.244	0.112
-235.844	477.580	-0.064	-0.142
-234.830	306.603	0.046	-0.084
-233.815	-144.040	0.092	0.008
-232.800	60.185	-0.108	-0.105
-231.786	-200.000	-0.021	0.204
-230.771	-200.000	-0.015	0.110
-229.757	800.000	-0.090	0.371
-228.742	800.000	0.040	-0.130
-227.727	276.790	0.088	0.155
-226.713	40.135	-0.187	0.166
-225.698	800.000	-0.043	-0.120
-224.684	-49.058	0.431	-0.203
-223.669	-8.106	-0.254	0.168
-222.655	13.805	-0.119	0.091
-221.640	39.207	0.181	-0.160
-220.625	-32.382	-0.098	0.054
-219.611	281.411	-0.045	0.080
-218.596	-88.073	0.046	-0.014
-217.582	-99.446	0.099	0.025
-216.567	21.492	0.134	0.108
-215.552	70.996	-0.118	0.120
-214.538	569.751	0.031	0.074
-213.523	216.224	0.133	0.209
-212.509	-139.574	0.128	-0.014
-211.494	-42.779	-0.025	-0.013
-210.479	-13.383	-0.288	-0.184
-209.465	734.667	-0.057	-0.150
-208.450	436.558	-0.063	0.135
-207.436	-145.681	-0.504	0.044
-206.421	-23.106	0.129	0.077
-205.406	32.463	-0.080	0.068
-204.392	-200.000	0.047	0.207
-203.377	29.212	-0.118	-0.099
-202.363	90.432	0.313	0.345
-201.348	-34.944	0.243	0.130
-200.333	427.610	-0.088	-0.188
-199.319	728.470	0.081	0.214
-198.304	-14.168	0.302	0.192
-197.290	-46.493	-0.253	0.122
-196.275	-83.603	-0.232	-0.073
-195.260	-111.897	-0.083	-0.017
-194.246	-200.000	-0.016	0.186
-193.231	-19.405	-0.267	-0.163
-192.217	-67.345	0.123	-0.047
-191.202	-114.516	-0.183	-0.035
-190.187	240.123	-0.328	-0.538
-189.173	-200.000	-0.015	-0.354
-188.158	-64.288	0.115	-0.046
-187.144	-57.756	0.323	-0.139
-186.129	-62.578	0.081	0.033
-185.114	-200.000	0.215	0.000
-184.100	1.039	0.021	-0.015
-183.085	-28.883	-0.408	0.231
-182.071	-80.634	0.096	0.031
-181.056	129.101	-0.025	0.032
-180.042	529.539	-0.119	-0.276
-179.027	-64.442	0.241	0.096
-178.012	-180.218	0.437	0.009
-176.998	123.332	0.182	-0.224
-175.983	-17.176	0.148	-0.092
-174.969	502.672	0.051	-0.115
-173.954	87.866	0.034	0.038
-172.939	-200.000	0.009	-0.229
-171.925	176.824	0.055	0.078
-170.910	-34.493	-0.208	-0.112
-169.896	-200.000	-0.060	-0.411
-168.881	7.293	-0.178	-0.131
-167.866	-55.660	0.089	-0.039
-166.852	-200.000	0.072	-0.427
-165.837	194.278	-0.149	0.222
-164.823	112.410	0.112	-0.133
-163.808	88.858	-0.186	-0.203
-162.793	-200.000	0.007	0.330
-161.779	-45.785	-0.259	0.126
-160.764	453.207	-0.091	0.197
-159.750	-48.837	0.068	0.032
-158.735	-51.390	0.179	-0.082
-157.720	-45.747	-0.298	0.145
-156.706	-65.336	0.174	0.069
-155.691	-16.291	-0.064	-0.040
-154.677	408.157	-0.174	0.362
-153.662	26.473	0.194	0.160
-152.647	205.541	-0.065	0.100
-151.633	-153.525	-0.462	-0.031
-150.618	98.260	-0.072	-0.082
-149.604	188.513	0.142	0.209
-148.589	499.732	-0.117	0.264
-147.574	252.365	0.168	0.281
-146.560	-33.023	0.163	0.089
-145.545	-200.000	0.065	0.309
-144.531	13.915	-0.109	0.083
-143.516	-200.000	0.028	0.309
-142.502	-160.209	-0.368	0.020
-141.487	-29.269	-0.156	-0.088
-140.472	-1.779	0.200	0.138
-139.458	-103.943	0.122	0.028
-138.443	158.800	0.040	0.055
-137.429	-200.000	0.012	-0.157
-136.414	-81.073	-0.389	-0.126
-135.399	-200.000	0.028	0.346
-134.385	-200.000	-0.019	-0.223
-133.370	-200.000	-0.048	0.277
-132.356	-30.516	0.224	0.125
-131.341	412.335	0.091	0.189
-130.326	317.177	-0.066	-0.123
-129.312	698.556	0.062	0.160
-128.297	-20.568	0.085	0.051
-127.283	-200.000	0.025	-0.356
-126.268	107.297	-0.197	-0.230
-125.253	305.202	0.089	-0.163
-124.239	-200.000	-0.030	-0.130
-123.224	-113.187	0.265	-0.051
-122.210	14.428	-0.235	0.180
-121.195	800.000	0.026	-0.081
