DTS Sentinel unit serial number:	SN413079Multiplexer serial number:	ORYXHardware model number:	OX4-SRSoftware version number:	ORYX F/W v4.00 Oryx Data Collector v3.7.2.0data status	okinstallation	princeton_trtdifferential loss correction	single-endedforward channel	channel 2reverse channel	N/Adate	2019/09/16time	02:23:34forward acquisition time	60.00reverse acquisition time	0.00gamma	496.2192k internal	0.2335k external	0.2335temperature offset calibration	0.9966default loss term (dB/km)	0.3790temperature slope calibration	1.0000multiplexer offset coefficient	1.0000multiplexer slope coefficient	1.0000fibre end	0.00T internal ref (°C)	27.62T ext. ref 1 (°C)	10.23T ext. ref 2 (°C)	22.63length (m)	temperature (°C)	Stokes	anti-Stokes-747.200	-37.476	-0.188	0.101
-746.185	501.193	0.054	0.126
-745.171	553.556	-0.087	0.211
-744.156	133.413	-0.390	0.506
-743.142	-191.726	0.090	-0.001
-742.127	132.546	-0.094	0.122
-741.112	-73.434	0.234	0.086
-740.098	-152.688	-0.035	-0.003
-739.083	-200.000	0.010	-0.067
-738.069	-7.368	-0.400	0.272
-737.054	-170.010	-0.211	0.008
-736.039	17.603	0.131	-0.104
-735.025	-200.000	-0.051	0.259
-734.010	634.665	-0.018	0.045
-732.996	223.637	-0.150	0.243
-731.981	180.242	0.067	-0.098
-730.966	-141.700	-0.137	0.014
-729.952	-200.000	0.008	0.063
-728.937	-10.624	-0.229	0.152
-727.923	36.136	0.212	0.187
-726.908	-200.000	0.023	0.362
-725.894	-167.116	-0.313	0.013
-724.879	-200.000	0.043	-0.287
-723.864	-116.069	-0.368	-0.069
-722.850	-54.444	0.159	-0.073
-721.835	21.441	0.072	-0.059
-720.821	-200.000	0.059	-0.293
-719.806	-80.688	0.332	-0.111
-718.791	312.586	0.074	-0.140
-717.777	800.000	-0.036	0.147
-716.762	-40.747	-0.174	-0.090
-715.748	-175.913	-0.317	0.008
-714.733	-24.473	0.312	-0.187
-713.718	-128.634	-0.137	0.019
-712.704	800.000	0.079	0.336
-711.689	-131.911	-0.194	0.025
-710.675	104.120	0.017	-0.021
-709.660	800.000	0.049	-0.150
-708.645	-50.006	-0.156	0.074
-707.631	57.383	-0.037	-0.036
-706.616	-49.511	-0.267	0.128
-705.602	-200.000	-0.033	0.246
-704.587	187.678	0.169	0.254
-703.572	-88.534	0.152	0.046
-702.558	800.000	0.054	0.160
-701.543	-71.558	-0.428	0.160
-700.529	-200.000	-0.023	0.282
-699.514	465.497	0.124	0.277
-698.499	-200.000	0.000	-0.277
-697.485	-44.030	-0.167	-0.084
-696.470	800.000	-0.028	0.096
-695.456	-200.000	0.002	-0.048
-694.441	-200.000	-0.000	0.056
-693.426	-4.858	-0.118	0.081
-692.412	0.167	-0.238	-0.171
-691.397	-200.000	-0.027	-0.242
-690.383	-45.630	-0.371	0.184
-689.368	123.122	-0.155	-0.194
-688.354	-32.132	0.148	-0.083
-687.339	-55.346	0.142	0.064
-686.324	-20.924	0.542	-0.333
-685.310	-200.000	-0.011	-0.271
-684.295	59.876	-0.091	0.090
-683.281	-100.826	-0.249	-0.062
-682.266	-147.862	0.232	-0.019
-681.251	-89.057	0.370	-0.110
-680.237	800.000	0.028	-0.084
-679.222	-96.615	-0.413	-0.109
-678.208	-200.000	0.022	-0.122
-677.193	-87.128	-0.464	-0.141
-676.178	-186.363	0.175	-0.003
-675.164	680.554	0.093	0.242
-674.149	115.883	-0.092	0.113
-673.135	714.620	0.074	0.196
-672.120	-84.958	-0.172	0.054
-671.105	-200.000	-0.016	0.312
-670.091	-105.416	0.308	0.070
-669.076	0.561	0.189	-0.135
-668.062	800.000	0.041	0.155
-667.047	-140.283	-0.102	0.011
-666.032	-163.782	-0.050	0.002
-665.018	103.721	-0.149	-0.175
-664.003	-171.325	-0.300	0.010
-662.989	68.522	-0.125	-0.129
-661.974	-68.153	0.316	-0.123
-660.959	78.235	-0.122	-0.131
-659.945	40.111	0.197	-0.178
-658.930	-180.162	0.392	-0.008
-657.916	357.741	0.141	-0.281
-656.901	150.283	0.075	-0.103
-655.886	-200.000	0.014	-0.066
-654.872	152.305	0.045	-0.062
-653.857	-200.000	-0.068	0.321
-652.843	46.400	0.085	0.079
-651.828	539.808	-0.054	-0.128
-650.814	56.022	-0.250	-0.243
-649.799	97.475	0.044	0.050
-648.784	800.000	0.062	0.267
-647.770	-72.624	-0.255	-0.094
-646.755	-34.817	0.193	-0.105
-645.741	800.000	0.072	-0.229
-644.726	31.653	0.072	-0.062
-643.711	800.000	0.064	0.180
-642.697	-58.558	0.243	-0.105
-641.682	171.589	0.082	0.117
-640.668	-77.443	0.353	0.123
-639.653	-90.184	-0.162	0.047
-638.638	-171.795	0.222	0.007
-637.624	-200.000	-0.060	-0.459
-636.609	-45.738	-0.154	-0.076
-635.595	-5.140	-0.276	-0.190
-634.580	293.884	-0.095	-0.174
-633.565	131.123	-0.154	0.198
-632.551	-25.192	-0.196	0.116
-631.536	800.000	0.082	-0.263
-630.522	189.235	-0.040	0.059
-629.507	-19.866	-0.183	-0.113
-628.492	-200.000	-0.001	-0.186
-627.478	282.860	0.007	-0.012
-626.463	30.131	0.152	-0.130
-625.449	145.516	0.070	0.093
-624.434	-27.643	0.204	0.119
-623.419	-59.276	0.336	-0.145
-622.405	112.997	-0.036	-0.043
-621.390	139.839	-0.316	0.416
-620.376	-161.822	-0.286	-0.015
-619.361	319.993	-0.118	-0.224
-618.346	71.624	0.149	-0.154
-617.332	93.950	0.157	-0.178
-616.317	-200.000	-0.016	0.163
-615.303	-4.043	-0.257	0.178
-614.288	-115.068	-0.248	-0.047
-613.273	83.588	0.116	-0.126
-612.259	48.783	0.117	-0.110
-611.244	2.284	0.132	-0.095
-610.230	-184.167	0.053	-0.001
-609.215	-89.781	-0.043	-0.012
-608.201	-80.668	0.161	0.053
-607.186	-29.717	-0.147	-0.084
-606.171	219.331	0.237	-0.379
-605.157	-200.000	0.024	-0.111
-604.142	-142.721	-0.120	-0.012
-603.128	-200.000	0.030	-0.160
-602.113	-169.796	-0.215	0.008
-601.098	-66.878	0.032	-0.013
-600.084	98.540	0.198	-0.228
-599.069	52.059	0.150	0.143
-598.055	-42.169	0.056	0.029
-597.040	48.048	-0.131	0.122
-596.025	-116.639	-0.151	-0.028
-595.011	467.778	0.039	-0.088
-593.996	-142.379	-0.142	0.014
-592.982	103.333	-0.168	-0.196
-591.967	-59.952	-0.110	-0.047
-590.952	-106.877	0.430	-0.095
-589.938	-92.137	0.421	-0.119
-588.923	-145.688	0.328	-0.029
-587.909	-200.000	0.039	0.233
-586.894	127.577	0.169	-0.215
-585.879	345.842	-0.087	0.171
-584.865	-12.399	-0.238	0.155
-583.850	117.110	0.145	0.178
-582.836	266.253	-0.044	0.076
-581.821	-200.000	-0.048	0.260
-580.806	766.725	-0.069	0.188
-579.792	-200.000	0.068	-0.296
-578.777	54.165	-0.065	0.062
-577.763	-9.030	-0.288	0.192
-576.748	226.366	0.224	0.364
-575.733	-144.742	-0.174	-0.016
-574.719	-30.494	-0.217	-0.123
-573.704	166.998	0.193	0.274
-572.690	179.309	-0.279	-0.408
-571.675	234.727	0.196	-0.323
-570.661	-87.598	-0.044	-0.013
-569.646	-93.686	-0.302	0.083
-568.631	296.411	0.127	0.232
-567.617	128.984	0.047	0.060
-566.602	61.752	0.204	-0.203
-565.588	800.000	-0.085	-0.245
-564.573	-148.063	-0.138	0.011
-563.558	82.381	-0.215	0.233
-562.544	-200.000	0.018	-0.264
-561.529	187.510	-0.066	-0.099
-560.515	154.337	0.190	0.260
-559.500	707.193	-0.148	-0.390
-558.485	111.463	-0.037	0.045
-557.471	-133.966	-0.273	-0.034
-556.456	800.000	-0.088	0.304
-555.442	-12.588	0.236	0.153
-554.427	-1.603	0.362	0.255
-553.412	236.490	-0.213	0.351
-552.398	-122.797	0.151	0.024
-551.383	-21.272	0.182	-0.111
-550.369	800.000	-0.045	0.195
-549.354	-200.000	-0.024	0.168
-548.339	-40.074	0.241	0.125
-547.325	349.699	0.146	0.288
-546.310	-200.000	-0.003	-0.249
-545.296	783.662	-0.112	0.305
-544.281	-90.444	0.192	0.056
-543.266	800.000	0.098	0.319
-542.252	-72.195	-0.262	-0.097
-541.237	151.967	0.047	-0.063
-540.223	-200.000	0.041	-0.188
-539.208	500.898	0.063	-0.144
-538.193	-86.976	0.224	0.068
-537.179	-151.590	0.213	-0.016
-536.164	-33.350	-0.249	0.137
-535.150	68.992	-0.168	0.172
-534.135	463.593	0.057	-0.127
-533.121	-200.000	0.032	-0.197
-532.106	466.068	-0.282	0.628
-531.091	239.823	-0.066	0.110
-530.077	31.707	-0.057	0.049
-529.062	-36.817	-0.375	0.201
-528.048	800.000	0.069	-0.200
-527.033	800.000	0.078	-0.270
-526.018	-200.000	-0.076	0.380
-525.004	90.335	0.113	0.126
-523.989	800.000	-0.062	-0.193
-522.975	-79.356	-0.195	0.066
-521.960	-26.187	0.252	-0.147
-520.945	-88.246	0.352	0.105
-519.931	380.289	-0.206	0.420
-518.916	490.396	0.098	-0.223
-517.902	-9.526	-0.053	0.035
-516.887	20.868	-0.091	0.074
-515.872	800.000	-0.097	0.283
-514.858	153.751	0.127	-0.174
-513.843	-200.000	-0.062	-0.385
-512.829	80.468	-0.031	-0.033
-511.814	603.207	0.019	0.047
-510.799	-144.721	0.280	-0.026
-509.785	-200.000	0.044	0.402
-508.770	-63.560	-0.343	0.140
-507.756	165.973	-0.035	-0.049
-506.741	800.000	-0.076	-0.280
-505.726	-76.928	-0.177	-0.061
-504.712	-26.192	0.171	-0.100
-503.697	800.000	-0.081	0.308
-502.683	-126.112	-0.338	-0.050
-501.668	-103.557	0.183	-0.043
-500.653	727.425	-0.080	0.211
-499.639	779.430	0.037	-0.102
-498.624	18.583	0.033	0.026
-497.610	-150.752	0.045	0.003
-496.595	-46.997	0.252	0.123
-495.581	-108.251	-0.082	0.018
-494.566	-113.340	0.042	0.008
-493.551	-56.807	-0.093	-0.041
-492.537	-38.975	-0.342	-0.179
-491.522	176.155	0.045	-0.065
-490.508	-200.000	-0.008	0.059
-489.493	-84.851	-0.360	0.112
-488.478	64.325	-0.092	0.093
-487.464	795.984	-0.028	0.076
-486.449	-53.303	0.459	0.210
-485.435	10.644	-0.119	0.090
-484.420	-136.600	-0.202	-0.023
-483.405	-200.000	-0.015	0.081
-482.391	204.381	0.082	0.127
-481.376	-50.225	-0.189	-0.089
-480.362	147.512	-0.020	0.026
-479.347	351.817	0.062	-0.121
-478.332	-41.534	-0.236	0.121
-477.318	-147.986	-0.463	0.038
-476.303	-200.000	0.034	0.193
-475.289	461.574	0.084	-0.187
-474.274	-142.913	-0.055	-0.005
-473.259	94.735	-0.043	0.048
-472.245	-105.287	-0.259	0.059
-471.230	-60.452	0.375	0.159
-470.216	-31.093	-0.061	-0.034
-469.201	-32.310	0.270	0.150
-468.186	9.289	0.053	0.040
-467.172	-200.000	0.037	-0.179
-466.157	53.272	0.224	0.213
-465.143	275.828	-0.202	0.356
-464.128	249.760	-0.118	-0.198
-463.113	48.824	-0.051	-0.047
-462.099	-25.171	0.190	-0.112
-461.084	44.935	-0.094	-0.086
-460.070	48.305	-0.028	-0.026
-459.055	46.706	0.080	0.074
-458.040	-200.000	0.004	-0.140
-457.026	-30.268	0.292	0.165
-456.011	367.768	-0.185	-0.372
-454.997	800.000	0.151	-0.493
-453.982	-87.644	0.109	-0.033
-452.968	76.600	-0.238	-0.251
-451.953	-52.169	-0.181	0.084
-450.938	-112.325	0.279	0.055
-449.924	800.000	-0.037	0.117
-448.909	-181.403	0.244	-0.005
-447.895	-145.335	-0.430	0.039
-446.880	-29.199	0.175	0.100
-445.865	-89.316	0.223	-0.065
-444.851	29.150	-0.036	0.030
-443.836	57.146	-0.245	0.237
-442.822	7.944	-0.101	0.075
-441.807	-159.803	0.245	0.013
-440.792	-73.041	0.201	-0.073
-439.778	-110.031	-0.091	-0.019
-438.763	-200.000	0.006	0.142
-437.749	195.357	-0.279	-0.421
-436.734	-136.874	-0.172	0.020
-435.719	-197.899	-0.196	-0.001
-434.705	800.000	-0.011	-0.037
-433.690	-89.744	0.237	0.069
-432.676	-179.755	-0.388	-0.008
-431.661	-109.233	0.339	0.071
-430.646	510.358	-0.067	-0.154
-429.632	800.000	0.071	0.303
-428.617	-138.929	-0.459	0.050
-427.603	-200.000	-0.015	0.096
-426.588	-110.416	-0.112	-0.023
-425.573	117.291	0.076	-0.093
-424.559	155.462	0.169	-0.230
-423.544	800.000	-0.039	0.117
-422.530	77.658	-0.193	-0.204
-421.515	-200.000	0.017	-0.512
-420.500	-58.231	0.134	-0.058
-419.486	70.512	-0.177	-0.181
-418.471	800.000	-0.068	0.191
-417.457	69.516	-0.158	-0.161
-416.442	-142.391	0.275	0.027
-415.428	-200.000	0.020	-0.106
-414.413	-91.443	-0.335	0.095
-413.398	800.000	0.036	0.146
-412.384	-91.273	0.032	0.009
-411.369	-200.000	0.034	0.456
-410.355	483.498	0.066	0.150
-409.340	43.552	0.328	0.297
-408.325	308.416	0.155	0.287
-407.311	-89.470	0.148	0.043
-406.296	-176.141	0.159	-0.004
-405.282	-200.000	-0.010	0.097
-404.267	-200.000	-0.051	0.443
-403.252	-6.814	0.247	-0.167
-402.238	-161.369	0.078	-0.004
-401.223	-58.495	-0.138	-0.059
-400.209	-65.047	0.175	0.070
-399.194	-200.000	-0.003	0.014
-398.179	87.890	-0.105	-0.115
-397.165	-65.156	0.138	0.055
-396.150	-45.987	-0.233	-0.114
-395.136	-37.910	-0.183	0.096
-394.121	15.828	-0.200	0.156
-393.106	14.109	0.157	-0.121
-392.092	-159.111	-0.109	0.006
-391.077	171.653	0.067	0.096
-390.063	513.052	0.128	0.296
-389.048	-126.528	0.121	0.018
-388.033	22.196	-0.265	-0.214
-387.019	-106.555	0.083	0.018
-386.004	51.199	0.039	-0.037
-384.990	107.869	-0.073	-0.086
-383.975	-200.000	-0.030	0.244
-382.960	-22.984	0.091	0.054
-381.946	-60.115	0.240	-0.102
-380.931	-200.000	-0.056	-0.283
-379.917	-37.870	0.103	-0.054
-378.902	-200.000	0.070	0.562
-377.888	800.000	-0.020	-0.068
-376.873	59.050	0.239	-0.233
-375.858	107.339	-0.063	0.074
-374.844	5.328	-0.126	0.092
-373.829	45.760	0.365	-0.334
-372.815	-87.574	0.048	-0.015
-371.800	-200.000	-0.077	-0.399
-370.785	-183.995	-0.338	-0.006
-369.771	5.446	-0.218	-0.159
-368.756	78.782	0.180	-0.191
-367.742	800.000	-0.079	-0.234
-366.727	-200.000	-0.021	0.470
-365.712	-157.487	0.070	0.004
-364.698	-200.000	-0.033	-0.408
-363.683	-200.000	0.020	0.191
-362.669	-141.764	-0.195	-0.019
-361.654	800.000	-0.111	-0.375
-360.639	-141.174	-0.226	0.023
-359.625	-200.000	-0.019	0.129
-358.610	235.784	0.041	-0.067
-357.596	-182.606	0.271	-0.005
-356.581	253.340	0.031	-0.053
-355.566	-17.921	-0.278	0.172
-354.552	-147.754	-0.093	-0.008
-353.537	787.744	0.183	0.496
-352.523	143.325	-0.183	-0.241
-351.508	26.162	0.419	0.346
-350.493	96.337	0.040	-0.046
-349.479	800.000	0.039	0.157
-348.464	-72.404	0.049	-0.018
-347.450	-61.355	0.164	0.068
-346.435	-130.342	0.212	0.028
-345.420	800.000	0.033	0.124
-344.406	-200.000	-0.008	0.075
-343.391	-100.004	0.319	0.079
-342.377	483.433	0.100	0.225
-341.362	269.964	0.136	0.237
-340.348	800.000	0.079	-0.269
-339.333	-88.225	0.223	-0.066
-338.318	-73.990	-0.032	0.011
-337.304	213.383	0.157	0.245
-336.289	381.906	-0.132	-0.268
-335.275	-143.622	0.253	-0.024
-334.260	15.160	-0.051	0.040
-333.245	-55.978	-0.245	-0.108
-332.231	-200.000	-0.015	-0.238
-331.216	93.092	0.125	-0.140
-330.202	106.225	0.061	-0.071
-329.187	-148.473	-0.170	-0.014
-328.172	114.935	0.110	-0.133
-327.158	-200.000	-0.015	-0.142
-326.143	-200.000	-0.003	0.187
-325.129	-22.239	0.258	-0.155
-324.114	-200.000	0.045	0.354
-323.099	-131.323	-0.125	-0.016
-322.085	-61.207	-0.128	0.053
-321.070	800.000	-0.070	-0.282
-320.056	50.707	-0.219	-0.205
-319.041	-186.793	0.332	-0.005
-318.026	-60.519	0.264	0.111
-317.012	-200.000	-0.002	-0.029
-315.997	234.709	0.157	-0.256
-314.983	739.959	0.162	-0.430
-313.968	593.415	-0.060	-0.147
-312.953	332.590	-0.081	0.155
-311.939	800.000	-0.231	-0.640
-310.924	800.000	-0.033	-0.119
-309.910	-141.608	0.294	0.029
-308.895	5.893	-0.135	0.099
-307.880	-200.000	-0.016	-0.211
-306.866	800.000	0.060	-0.170
-305.851	800.000	0.071	0.260
-304.837	109.245	0.029	-0.035
-303.822	534.976	-0.038	0.089
-302.807	-200.000	-0.002	-0.203
-301.793	-79.369	0.244	-0.082
-300.778	101.462	0.136	0.157
-299.764	-200.000	-0.030	0.272
-298.749	-200.000	-0.047	0.401
-297.735	65.327	0.222	0.221
-296.720	-101.168	0.237	0.057
-295.705	33.946	-0.044	-0.038
-294.691	-97.734	-0.217	0.055
-293.676	707.289	-0.104	0.270
-292.662	800.000	-0.077	0.329
-291.647	-13.388	-0.295	-0.189
-290.632	92.222	0.132	0.147
-289.618	170.457	-0.067	-0.094
-288.603	199.349	-0.064	-0.097
-287.589	-140.832	-0.037	0.004
-286.574	800.000	-0.064	0.243
-285.559	379.115	-0.065	0.132
-284.545	417.363	0.049	-0.103
-283.530	-115.143	0.254	-0.047
-282.516	-200.000	-0.033	0.146
-281.501	-25.403	0.275	-0.161
-280.486	152.497	-0.133	-0.179
-279.472	384.739	0.043	-0.088
-278.457	129.003	-0.187	-0.236
-277.443	800.000	-0.063	0.194
-276.428	-200.000	0.011	0.063
-275.413	39.453	0.027	0.024
-274.399	451.390	-0.066	-0.144
-273.384	600.989	-0.071	-0.175
-272.370	17.137	-0.173	0.135
-271.355	-146.158	0.087	-0.008
-270.340	157.541	-0.306	0.418
-269.326	159.629	0.158	0.217
-268.311	-33.509	-0.528	-0.288
-267.297	-86.781	-0.161	0.049
-266.282	17.011	-0.089	-0.070
-265.267	-200.000	-0.026	0.180
-264.253	182.842	-0.132	0.192
-263.238	-200.000	-0.034	0.151
-262.224	211.444	-0.132	-0.206
-261.209	800.000	0.030	-0.099
-260.195	-200.000	0.005	0.029
-259.180	-75.544	-0.287	-0.101
-258.165	-67.575	0.041	0.016
-257.151	-43.715	0.258	-0.128
-256.136	69.374	0.104	0.106
-255.122	-131.234	0.138	0.018
-254.107	82.105	0.154	-0.165
-253.092	800.000	0.078	0.223
-252.078	396.259	0.129	-0.266
-251.063	101.946	0.042	0.048
-250.049	96.356	-0.123	-0.139
-249.034	695.050	0.079	-0.205
-248.019	79.744	0.051	-0.054
-247.005	-200.000	-0.020	-0.182
-245.990	-200.000	0.014	0.327
-244.976	-171.137	-0.142	-0.005
-243.961	19.297	0.146	-0.116
-242.946	-200.000	0.224	0.000
-241.932	-200.000	-0.012	0.131
-240.917	-58.353	0.125	-0.053
-239.903	76.302	0.175	-0.183
-238.888	-123.330	-0.075	0.012
-237.873	715.224	-0.102	-0.267
-236.859	-132.147	0.019	0.002
-235.844	569.754	-0.097	-0.231
-234.830	800.000	0.054	-0.155
-233.815	-160.996	0.198	-0.010
-232.800	-52.502	-0.293	0.134
-231.786	-179.017	0.174	-0.004
-230.771	-115.928	0.094	-0.017
-229.757	-22.060	-0.141	-0.085
-228.742	-111.116	-0.091	0.018
-227.727	-200.000	0.084	0.386
-226.713	448.494	0.068	-0.148
-225.698	202.842	-0.100	-0.152
-224.684	800.000	0.051	0.177
-223.669	26.509	0.094	0.077
-222.655	-106.715	0.135	-0.029
-221.640	212.012	0.072	0.112
-220.625	-200.000	0.007	-0.316
-219.611	800.000	0.058	-0.182
-218.596	-200.000	0.005	-0.073
-217.582	66.929	-0.227	-0.228
-216.567	263.090	-0.237	-0.406
-215.552	66.924	-0.050	-0.051
-214.538	-44.718	0.062	-0.030
-213.523	85.996	0.163	0.176
-212.509	-199.264	-0.110	-0.001
-211.494	192.923	0.082	0.121
-210.479	100.824	-0.081	0.092
-209.465	-200.000	-0.005	-0.243
-208.450	-103.932	-0.087	0.020
-207.436	43.147	-0.275	-0.247
-206.421	-12.103	0.242	0.156
-205.406	-38.071	-0.370	-0.193
-204.392	-6.304	0.035	0.023
-203.377	24.101	0.243	-0.197
-202.363	-99.351	-0.446	-0.111
-201.348	800.000	0.064	-0.179
-200.333	314.731	-0.107	-0.198
-199.319	244.064	0.109	0.179
-198.304	800.000	0.102	0.365
-197.290	52.033	0.117	0.110
-196.275	-111.664	0.196	0.039
-195.260	-146.827	0.222	-0.019
-194.246	188.581	-0.181	0.267
-193.231	325.674	0.142	0.267
-192.217	-11.698	-0.276	0.178
-191.202	398.727	-0.113	-0.232
-190.187	46.499	-0.079	0.072
-189.173	-34.650	-0.168	-0.090
-188.158	-88.308	-0.258	-0.076
-187.144	72.389	0.152	0.155
-186.129	-118.767	-0.519	-0.090
-185.114	-165.526	0.163	0.007
-184.100	571.499	-0.047	0.113
-183.085	-12.179	0.409	0.263
-182.071	-83.725	0.351	0.110
-181.056	-49.904	-0.162	-0.075
-180.042	496.377	0.046	-0.104
-179.027	-20.342	0.272	-0.164
-178.012	369.416	0.100	-0.199
-176.998	-173.025	-0.377	-0.011
-175.983	65.153	-0.150	0.149
-174.969	-162.713	0.129	0.006
-173.954	5.020	-0.144	0.104
-172.939	-87.468	-0.095	-0.028
-171.925	-78.804	0.161	-0.054
-170.910	-13.849	-0.070	-0.044
-169.896	-191.544	0.194	-0.002
-168.881	175.694	0.176	-0.251
-167.866	11.780	-0.039	-0.030
-166.852	136.455	-0.194	0.249
-165.837	-3.812	0.231	-0.158
-164.823	-200.000	-0.060	0.548
-163.808	453.457	0.154	-0.335
-162.793	84.129	-0.144	-0.154
-161.779	-115.343	-0.089	-0.016
-160.764	800.000	-0.087	-0.251
-159.750	243.831	0.123	0.203
-158.735	-162.855	-0.291	0.014
-157.720	800.000	0.066	0.194
-156.706	-136.772	0.060	-0.007
-155.691	-127.687	-0.354	-0.050
-154.677	-80.097	0.045	0.015
-153.662	59.132	0.079	0.076
-152.647	-200.000	0.075	-0.359
-151.633	34.095	-0.146	0.125
-150.618	-46.962	0.115	-0.055
-149.604	-27.122	-0.223	0.127
-148.589	-58.766	-0.211	0.090
-147.574	11.055	-0.047	0.035
-146.560	244.307	-0.278	-0.458
-145.545	-31.267	0.359	-0.198
-144.531	-200.000	0.000	0.116
-143.516	-68.435	0.220	0.084
-142.502	437.646	0.093	-0.199
-141.487	800.000	0.045	0.130
-140.472	-77.665	-0.147	-0.050
-139.458	41.740	-0.196	-0.174
-138.443	-119.936	0.297	-0.050
-137.429	-200.000	-0.001	-0.411
-136.414	-200.000	0.019	-0.156
-135.399	-130.992	-0.092	0.012
-134.385	-176.880	0.299	0.007
-133.370	-200.000	-0.052	-0.418
-132.356	-42.883	0.200	-0.100
-131.341	-200.000	-0.126	-0.570
-130.326	-109.468	0.195	0.040
-129.312	800.000	0.067	-0.243
-128.297	800.000	0.070	-0.269
-127.283	800.000	0.055	0.176
-126.268	800.000	0.029	0.122
-125.253	-200.000	0.023	-0.111
-124.239	-79.430	0.296	0.098
-123.224	-93.459	-0.128	-0.035
-122.210	-136.683	-0.207	0.023
