DTS Sentinel unit serial number:	SN413079Multiplexer serial number:	ORYXHardware model number:	OX4-SRSoftware version number:	ORYX F/W v4.00 Oryx Data Collector v3.7.2.0data status	okinstallation	princeton_trtdifferential loss correction	single-endedforward channel	channel 2reverse channel	N/Adate	2019/09/19time	12:07:35forward acquisition time	60.00reverse acquisition time	0.00gamma	496.2192k internal	0.2338k external	0.2338temperature offset calibration	1.0012default loss term (dB/km)	0.3790temperature slope calibration	1.0000multiplexer offset coefficient	1.0000multiplexer slope coefficient	1.0000fibre end	0.00T internal ref (°C)	26.22T ext. ref 1 (°C)	0.84T ext. ref 2 (°C)	22.67length (m)	temperature (°C)	Stokes	anti-Stokes-747.200	-45.970	-0.328	-0.163
-746.185	136.719	-0.160	0.210
-745.171	-58.703	0.253	0.110
-744.156	-122.913	-0.137	0.022
-743.142	36.363	0.133	0.118
-742.127	320.795	-0.104	0.199
-741.112	-125.139	-0.089	0.014
-740.098	-167.826	-0.179	0.007
-739.083	-95.185	0.226	-0.061
-738.069	47.071	-0.107	-0.100
-737.054	-84.808	-0.159	0.050
-736.039	204.263	-0.160	-0.249
-735.025	-200.000	0.012	-0.189
-734.010	30.987	0.076	-0.065
-732.996	92.061	-0.234	-0.264
-731.981	-200.000	0.034	-0.209
-730.966	-157.035	-0.202	-0.012
-729.952	-9.430	0.184	-0.123
-728.937	-95.750	-0.309	-0.083
-727.923	-112.698	-0.065	0.013
-726.908	-86.253	-0.260	-0.080
-725.894	-1.054	0.445	-0.316
-724.879	45.284	-0.289	0.268
-723.864	-200.000	0.001	0.124
-722.850	-200.000	0.002	0.095
-721.835	58.566	0.220	0.217
-720.821	-200.000	0.007	-0.107
-719.806	-153.850	-0.191	-0.013
-718.791	-13.509	0.224	-0.145
-717.777	-91.630	-0.440	-0.126
-716.762	-61.874	0.151	0.063
-715.748	-200.000	-0.008	0.082
-714.733	-200.000	0.015	0.294
-713.718	800.000	0.018	0.069
-712.704	-13.546	-0.165	0.107
-711.689	397.648	0.095	-0.199
-710.675	312.664	-0.081	-0.153
-709.660	-53.326	-0.080	0.037
-708.645	-200.000	-0.025	-0.194
-707.631	-99.598	0.132	-0.033
-706.616	-71.617	0.213	-0.080
-705.602	-200.000	-0.028	0.170
-704.587	130.817	-0.185	-0.238
-703.572	-149.741	-0.338	-0.027
-702.558	-1.595	0.179	0.127
-701.543	-95.467	-0.449	0.121
-700.529	-51.395	-0.113	0.053
-699.514	-200.000	0.043	0.246
-698.499	-200.000	-0.009	-0.268
-697.485	-200.000	-0.241	0.000
-696.470	110.516	-0.133	-0.160
-695.456	-76.621	-0.128	-0.045
-694.441	794.478	0.054	-0.149
-693.426	-120.002	0.340	-0.058
-692.412	66.650	0.153	-0.156
-691.397	25.719	-0.005	-0.004
-690.383	295.383	0.162	-0.298
-689.368	404.336	0.043	0.091
-688.354	243.508	0.119	-0.199
-687.339	773.549	-0.141	0.385
-686.324	-122.844	0.356	-0.057
-685.310	-200.000	0.006	0.138
-684.295	-24.995	0.140	-0.083
-683.281	-11.645	-0.302	-0.199
-682.266	-33.320	-0.199	0.110
-681.251	180.666	-0.048	0.071
-680.237	346.131	-0.176	0.347
-679.222	429.815	-0.118	0.256
-678.208	512.064	-0.012	0.028
-677.193	-126.033	0.237	0.036
-676.178	-90.559	-0.291	0.084
-675.164	27.370	0.327	0.275
-674.149	155.421	-0.081	0.111
-673.135	-200.000	-0.001	-0.345
-672.120	-18.673	-0.200	-0.125
-671.105	-200.000	0.012	0.174
-670.091	-62.959	0.272	-0.113
-669.076	-36.813	0.381	-0.204
-668.062	-113.242	-0.226	0.044
-667.047	695.719	-0.191	0.502
-666.032	714.123	0.081	0.214
-665.018	140.153	-0.261	-0.344
-664.003	724.318	-0.104	-0.276
-662.989	-200.000	0.003	0.234
-661.974	726.233	0.056	-0.150
-660.959	-200.000	-0.024	0.263
-659.945	-54.044	-0.160	-0.073
-658.930	213.785	0.034	0.054
-657.916	-200.000	0.035	-0.219
-656.901	-34.427	-0.526	-0.288
-655.886	-44.023	-0.061	-0.031
-654.872	241.901	0.077	0.129
-653.857	-200.000	-0.009	0.122
-652.843	262.482	0.101	0.175
-651.828	273.669	-0.074	-0.131
-650.814	-60.983	0.139	0.059
-649.799	-20.403	0.221	-0.136
-648.784	63.956	-0.144	-0.145
-647.770	273.225	0.120	-0.213
-646.755	37.598	-0.315	-0.280
-645.741	-73.154	-0.219	0.080
-644.726	-25.797	0.156	-0.092
-643.711	-200.000	0.011	-0.112
-642.697	800.000	0.102	-0.294
-641.682	-42.979	0.165	-0.084
-640.668	800.000	-0.047	-0.198
-639.653	-57.812	-0.094	0.041
-638.638	566.951	0.023	0.056
-637.624	174.611	0.111	0.160
-636.609	-108.642	-0.141	0.030
-635.595	-200.000	0.000	-0.161
-634.580	800.000	0.027	0.097
-633.565	-111.057	0.169	-0.035
-632.551	271.543	0.067	-0.119
-631.536	144.607	-0.185	-0.247
-630.522	-7.884	-0.178	-0.120
-629.507	-149.619	-0.210	0.017
-628.492	155.101	-0.138	-0.189
-627.478	219.292	0.059	0.094
-626.463	-58.027	-0.311	0.136
-625.449	-134.608	0.216	0.026
-624.434	-200.000	-0.018	0.089
-623.419	-2.877	0.208	0.145
-622.405	56.068	-0.101	-0.098
-621.390	770.263	0.168	0.456
-620.376	310.091	0.038	0.070
-619.361	-26.016	0.190	-0.111
-618.346	-127.238	-0.357	-0.052
-617.332	68.719	0.384	0.393
-616.317	-93.456	0.162	-0.045
-615.303	219.871	-0.196	-0.313
-614.288	104.785	-0.304	0.358
-613.273	-117.655	-0.269	-0.048
-612.259	324.121	-0.120	-0.228
-611.244	-100.479	-0.219	0.054
-610.230	-119.190	0.204	0.036
-609.215	-138.759	-0.191	0.021
-608.201	241.031	0.180	-0.300
-607.186	295.765	0.056	-0.102
-606.171	-140.736	0.184	0.019
-605.157	-142.238	0.349	-0.034
-604.142	-90.711	-0.213	0.061
-603.128	-65.626	0.067	-0.027
-602.113	-199.026	-0.280	-0.002
-601.098	420.250	-0.091	0.194
-600.084	-200.000	0.026	0.213
-599.069	-26.842	0.142	-0.083
-598.055	20.017	0.053	-0.043
-597.040	-159.592	0.165	0.009
-596.025	-200.000	0.031	-0.190
-595.011	-104.826	-0.123	-0.028
-593.996	-200.000	-0.009	0.130
-592.982	-200.000	-0.013	0.120
-591.967	-99.174	-0.289	-0.073
-590.952	-15.704	-0.321	0.204
-589.938	162.774	-0.047	0.065
-588.923	662.957	-0.073	0.187
-587.909	800.000	-0.102	-0.399
-586.894	101.650	-0.103	-0.120
-585.879	19.933	0.114	0.091
-584.865	800.000	0.046	0.172
-583.850	-187.266	0.068	-0.001
-582.836	-200.000	-0.005	0.272
-581.821	258.641	0.106	-0.183
-580.806	-78.147	-0.503	0.173
-579.792	265.436	0.146	0.254
-578.777	109.472	-0.109	0.131
-577.763	281.924	-0.049	-0.087
-576.748	15.691	-0.106	0.083
-575.733	165.351	-0.145	0.204
-574.719	-200.000	-0.018	0.198
-573.704	-188.385	-0.068	0.001
-572.690	97.797	-0.251	-0.287
-571.675	-149.987	0.231	-0.018
-570.661	-200.000	0.005	-0.292
-569.646	-166.184	0.075	-0.003
-568.631	70.539	-0.229	-0.236
-567.617	295.973	-0.034	0.063
-566.602	269.244	-0.094	-0.165
-565.588	-63.506	-0.395	-0.162
-564.573	-1.832	0.074	-0.052
-563.558	273.193	0.084	-0.148
-562.544	-83.929	-0.260	-0.083
-561.529	-23.675	-0.370	0.221
-560.515	-35.777	0.339	0.183
-559.500	63.183	0.257	-0.256
-558.485	-200.000	0.024	0.140
-557.471	-121.908	-0.054	-0.009
-556.456	181.327	0.180	-0.264
-555.442	-200.000	0.026	-0.134
-554.427	149.464	0.143	-0.192
-553.412	102.797	-0.256	-0.298
-552.398	242.868	-0.206	0.344
-551.383	-200.000	0.024	0.301
-550.369	190.156	-0.177	-0.264
-549.354	-167.546	0.296	-0.012
-548.339	-49.183	-0.093	-0.044
-547.325	346.971	-0.057	0.113
-546.310	43.247	0.091	-0.083
-545.296	-9.323	0.077	-0.051
-544.281	800.000	-0.015	0.052
-543.266	60.775	0.159	-0.157
-542.252	-106.392	0.252	0.056
-541.237	-65.571	-0.327	-0.131
-540.223	250.688	-0.058	-0.099
-539.208	146.969	-0.119	-0.159
-538.193	-4.892	0.139	-0.095
-537.179	-3.290	-0.076	-0.053
-536.164	-98.567	-0.139	0.035
-535.150	-200.000	0.022	0.171
-534.135	151.539	0.148	0.201
-533.121	-104.376	-0.154	0.036
-532.106	340.524	0.087	-0.169
-531.091	-144.389	0.048	0.004
-530.077	9.041	0.413	0.310
-529.062	-41.995	-0.350	-0.178
-528.048	229.843	-0.179	-0.290
-527.033	384.990	-0.093	-0.190
-526.018	189.069	-0.235	-0.350
-525.004	7.709	-0.210	-0.157
-523.989	-72.560	-0.163	0.060
-522.975	175.870	0.181	-0.262
-521.960	100.986	0.137	0.159
-520.945	120.552	0.223	-0.275
-519.931	800.000	-0.022	-0.068
-518.916	-200.000	0.030	-0.139
-517.902	59.681	0.172	0.169
-516.887	66.936	0.026	-0.026
-515.872	789.804	0.028	-0.077
-514.858	-142.438	0.356	0.035
-513.843	800.000	-0.050	0.182
-512.829	-45.223	0.080	0.040
-511.814	-180.027	0.087	0.002
-510.799	114.687	-0.103	0.125
-509.785	-195.506	-0.234	-0.002
-508.770	716.375	-0.108	-0.285
-507.756	33.439	0.127	0.109
-506.741	-110.885	0.179	-0.037
-505.726	-200.000	0.026	-0.252
-504.712	-200.000	-0.035	0.347
-503.697	-94.669	-0.288	-0.078
-502.683	-129.828	-0.086	-0.012
-501.668	-200.000	0.022	-0.389
-500.653	-200.000	-0.012	0.067
-499.639	665.502	0.151	0.388
-498.624	-166.219	-0.038	0.002
-497.610	292.201	-0.069	0.124
-496.595	-200.000	0.021	-0.234
-495.581	65.059	0.270	-0.271
-494.566	-18.596	0.143	-0.089
-493.551	-51.553	0.306	-0.142
-492.537	-79.218	0.316	-0.107
-491.522	-150.669	-0.030	-0.002
-490.508	800.000	-0.045	0.175
-489.493	-72.644	-0.194	0.071
-488.478	472.834	0.060	-0.135
-487.464	-58.842	0.317	0.136
-486.449	253.714	-0.082	0.139
-485.435	-83.655	0.153	0.049
-484.420	535.300	-0.060	0.142
-483.405	-133.062	0.142	0.018
-482.391	315.245	-0.076	-0.142
-481.376	-84.358	0.275	-0.087
-480.362	-87.092	0.127	0.038
-479.347	-16.117	-0.164	-0.104
-478.332	-122.499	0.174	0.028
-477.318	-6.588	-0.246	0.166
-476.303	-79.288	0.276	-0.093
-475.289	-138.395	-0.253	0.028
-474.274	-144.202	0.222	0.021
-473.259	-200.000	-0.011	-0.223
-472.245	-200.000	0.036	-0.197
-471.230	-36.244	-0.204	0.109
-470.216	-200.000	0.009	-0.178
-469.201	172.981	0.228	-0.326
-468.186	-97.157	-0.248	0.064
-467.172	-200.000	0.029	-0.130
-466.157	-58.970	0.510	0.219
-465.143	-45.894	-0.215	0.105
-464.128	46.955	-0.151	0.139
-463.113	-73.814	-0.163	0.059
-462.099	-200.000	0.003	0.183
-461.084	-200.000	-0.043	0.445
-460.070	128.584	0.153	0.194
-459.055	366.464	-0.126	-0.252
-458.040	521.603	0.144	0.335
-457.026	180.030	-0.102	0.148
-456.011	800.000	0.033	0.101
-454.997	95.918	0.126	-0.143
-453.982	-200.000	0.006	-0.061
-452.968	157.564	-0.166	0.228
-451.953	-25.360	0.339	0.199
-450.938	-200.000	0.002	0.270
-449.924	-200.000	0.034	0.347
-448.909	670.523	0.088	-0.225
-447.895	-115.239	0.332	-0.062
-446.880	514.628	-0.100	0.230
-445.865	-47.683	-0.057	0.028
-444.851	88.312	-0.174	-0.191
-443.836	-200.000	0.040	0.329
-442.822	51.383	-0.081	0.076
-441.807	71.290	-0.075	0.078
-440.792	539.357	-0.086	-0.204
-439.778	318.128	0.091	0.171
-438.763	-196.184	0.248	-0.002
-437.749	164.074	-0.128	-0.178
-436.734	-200.000	-0.036	0.340
-435.719	759.116	0.080	-0.214
-434.705	112.870	0.092	0.111
-433.690	182.960	0.160	-0.234
-432.676	800.000	0.024	-0.081
-431.661	800.000	-0.026	-0.096
-430.646	-200.000	-0.004	0.027
-429.632	5.146	-0.113	-0.083
-428.617	-200.000	0.055	-0.366
-427.603	69.824	-0.270	-0.276
-426.588	-116.724	-0.080	0.015
-425.573	-113.878	-0.261	-0.050
-424.559	-200.000	-0.014	0.134
-423.544	370.809	0.060	0.120
-422.530	-200.000	-0.060	0.272
-421.515	-200.000	-0.073	0.332
-420.500	99.138	0.119	-0.136
-419.486	71.555	-0.181	0.187
-418.471	-200.000	-0.045	0.419
-417.457	-200.000	0.020	-0.198
-416.442	800.000	0.122	-0.340
-415.428	45.038	0.123	0.112
-414.413	-5.664	-0.236	0.161
-413.398	-200.000	-0.028	-0.337
-412.384	-21.241	-0.200	-0.121
-411.369	-200.000	0.059	-0.299
-410.355	-200.000	0.054	-0.282
-409.340	-164.126	-0.376	-0.017
-408.325	-195.786	-0.261	-0.002
-407.311	-90.387	-0.315	-0.090
-406.296	177.305	-0.175	-0.252
-405.282	169.549	-0.108	0.153
-404.267	-40.247	-0.265	-0.137
-403.252	-113.475	-0.455	0.088
-402.238	-161.453	-0.242	0.012
-401.223	186.809	0.046	-0.068
-400.209	800.000	-0.082	-0.241
-399.194	-200.000	0.012	-0.070
-398.179	377.796	-0.119	0.242
-397.165	-200.000	0.017	-0.338
-396.150	-88.412	-0.087	-0.026
-395.136	417.116	-0.104	-0.221
-394.121	-200.000	0.034	0.334
-393.106	-200.000	0.002	-0.212
-392.092	94.111	0.069	-0.078
-391.077	190.646	0.075	0.112
-390.063	-80.742	-0.278	0.091
-389.048	-200.000	-0.014	0.222
-388.033	-93.960	0.178	-0.048
-387.019	-200.000	0.009	0.432
-386.004	77.237	0.101	0.106
-384.990	-16.081	0.213	-0.134
-383.975	-161.970	-0.150	0.007
-382.960	-78.592	-0.257	0.087
-381.946	-200.000	-0.031	-0.166
-380.931	-200.000	-0.032	0.205
-379.917	626.692	0.036	0.090
-378.902	-61.663	0.047	0.020
-377.888	-200.000	-0.008	-0.166
-376.873	41.806	-0.223	-0.200
-375.858	-200.000	-0.030	0.307
-374.844	390.527	-0.198	0.406
-373.829	-71.376	-0.128	-0.048
-372.815	447.484	0.034	-0.074
-371.800	36.783	-0.022	0.019
-370.785	176.861	0.133	0.192
-369.771	68.183	-0.087	0.089
-368.756	97.883	0.175	0.200
-367.742	18.218	-0.073	0.057
-366.727	-47.519	0.393	-0.189
-365.712	-84.092	-0.124	-0.039
-364.698	-92.297	-0.190	0.053
-363.683	-149.381	-0.350	0.028
-362.669	263.642	0.120	-0.206
-361.654	109.829	0.058	0.069
-360.639	-78.395	0.288	-0.098
-359.625	-200.000	0.012	-0.138
-358.610	305.136	0.093	-0.171
-357.596	-15.872	0.140	-0.088
-356.581	-70.650	0.220	0.082
-355.566	-110.738	0.196	-0.040
-354.552	-135.978	-0.270	0.031
-353.537	97.622	0.030	0.034
-352.523	128.874	0.197	-0.249
-351.508	-200.000	-0.011	-0.056
-350.493	-200.000	-0.014	0.092
-349.479	5.199	0.163	-0.119
-348.464	-200.000	0.016	0.234
-347.450	-148.734	0.045	0.004
-346.435	795.695	0.076	0.207
-345.420	16.556	0.136	0.106
-344.406	585.259	0.069	0.167
-343.391	214.840	0.083	-0.130
-342.377	-200.000	-0.007	-0.041
-341.362	324.159	-0.148	-0.279
-340.348	191.669	0.098	0.145
-339.333	308.292	0.154	0.284
-338.318	-97.535	0.249	-0.064
-337.304	48.724	0.074	0.068
-336.289	-99.935	-0.357	0.088
-335.275	-200.000	-0.002	0.318
-334.260	-200.000	0.001	-0.042
-333.245	-2.999	0.068	0.047
-332.231	80.320	0.219	0.232
-331.216	411.296	-0.199	0.417
-330.202	-78.566	0.247	0.084
-329.187	104.084	0.224	0.260
-328.172	-48.901	-0.157	-0.074
-327.158	800.000	0.027	-0.102
-326.143	79.491	-0.114	0.121
-325.129	58.792	0.152	0.147
-324.114	-56.050	0.230	-0.101
-323.099	-50.375	-0.055	-0.026
-322.085	65.144	0.141	0.140
-321.070	-200.000	0.035	-0.333
-320.056	-72.835	-0.019	-0.007
-319.041	-123.816	0.275	-0.043
-318.026	-8.708	-0.116	-0.077
-317.012	-200.000	-0.034	-0.172
-315.997	800.000	-0.084	0.305
-314.983	91.920	0.141	-0.157
-313.968	-25.708	0.304	0.177
-312.953	-1.763	0.211	0.146
-311.939	-51.061	0.135	-0.062
-310.924	-200.000	-0.042	-0.337
-309.910	-44.173	0.413	-0.204
-308.895	12.594	-0.068	0.052
-307.880	94.139	-0.124	0.138
-306.866	-142.196	-0.160	0.016
-305.851	-52.633	-0.303	-0.138
-304.837	-32.242	-0.176	-0.097
-303.822	800.000	0.087	0.251
-302.807	-200.000	-0.008	0.057
-301.793	-200.000	0.004	0.163
-300.778	800.000	-0.045	0.193
-299.764	41.280	-0.179	-0.160
-298.749	800.000	-0.154	-0.429
-297.735	800.000	0.036	0.100
-296.720	707.090	-0.112	0.292
-295.705	-50.752	0.354	-0.164
-294.691	-70.726	0.278	-0.104
-293.676	25.724	0.083	-0.068
-292.662	-38.944	0.216	-0.112
-291.647	12.721	-0.113	0.086
-290.632	-36.503	-0.317	-0.168
-289.618	800.000	0.035	-0.132
-288.603	-200.000	-0.032	-0.154
-287.589	800.000	-0.123	0.425
-286.574	800.000	0.128	0.399
-285.559	266.990	0.089	-0.154
-284.545	421.633	-0.111	-0.234
-283.530	-110.987	-0.084	-0.017
-282.516	800.000	-0.003	-0.008
-281.501	2.165	-0.460	0.327
-280.486	-98.131	-0.455	-0.115
-279.472	188.734	-0.234	0.345
-278.457	-51.994	0.164	-0.075
-277.443	272.920	0.106	-0.185
-276.428	-200.000	-0.061	-0.286
-275.413	-16.472	0.256	0.160
-274.399	388.315	0.154	0.313
-273.384	-200.000	0.002	0.172
-272.370	583.214	0.084	0.203
-271.355	-200.000	-0.071	0.347
-270.340	62.835	-0.130	0.128
-269.326	-40.487	0.196	-0.100
-268.311	123.271	0.115	-0.142
-267.297	-81.060	-0.247	0.081
-266.282	27.144	-0.084	0.070
-265.267	-200.000	0.002	0.214
-264.253	-200.000	-0.005	0.108
-263.238	92.699	-0.041	0.045
-262.224	340.684	-0.193	-0.371
-261.209	-168.781	-0.151	0.006
-260.195	800.000	0.064	-0.202
-259.180	-94.597	0.408	-0.109
-258.165	176.199	-0.242	-0.345
-257.151	-53.927	-0.220	-0.099
-256.136	110.722	0.121	-0.143
-255.122	-103.039	-0.096	-0.022
-254.107	800.000	0.096	0.345
-253.092	-153.700	-0.135	0.009
-252.078	-200.000	-0.229	0.001
-251.063	90.021	-0.186	0.205
-250.049	800.000	-0.029	0.108
-249.034	64.431	-0.177	-0.175
-248.019	-200.000	-0.036	0.289
-247.005	800.000	-0.133	-0.386
-245.990	-138.691	0.393	0.042
-244.976	370.513	0.048	-0.096
-243.961	219.555	0.144	0.227
-242.946	-26.289	-0.169	0.098
-241.932	787.096	-0.042	-0.114
-240.917	-51.244	0.402	-0.185
-239.903	-200.000	-0.025	-0.174
-238.888	-87.450	0.261	-0.078
-237.873	-200.000	0.020	0.160
-236.859	339.169	-0.180	-0.346
-235.844	16.659	-0.127	0.099
-234.830	800.000	-0.058	0.176
-233.815	75.731	0.088	-0.092
-232.800	105.087	-0.344	0.399
-231.786	90.289	0.020	0.022
-230.771	107.998	0.216	0.253
-229.757	198.027	-0.153	-0.231
-228.742	363.896	-0.139	-0.274
-227.727	-38.248	0.371	-0.193
-226.713	800.000	-0.072	0.220
-225.698	800.000	0.137	0.497
-224.684	184.442	0.147	-0.214
-223.669	-32.273	-0.169	0.093
-222.655	-50.978	-0.135	-0.062
-221.640	-82.200	0.251	-0.080
-220.625	-25.707	0.340	0.197
-219.611	-114.338	-0.305	-0.058
-218.596	191.406	0.100	-0.148
-217.582	-71.164	0.083	-0.031
-216.567	-200.000	-0.005	-0.378
-215.552	-39.652	0.289	-0.149
-214.538	185.719	0.165	0.241
-213.523	-75.327	-0.159	-0.056
-212.509	800.000	-0.029	0.085
-211.494	-200.000	-0.007	0.302
-210.479	-8.839	-0.186	-0.123
-209.465	36.922	0.165	-0.143
-208.450	257.252	-0.129	0.218
-207.436	-200.000	0.051	-0.451
-206.421	-31.226	0.158	0.088
-205.406	-200.000	-0.005	0.074
-204.392	-200.000	-0.038	0.395
-203.377	-89.479	0.264	0.076
-202.363	-7.483	-0.082	0.055
-201.348	130.175	-0.061	0.076
-200.333	45.429	-0.164	0.149
-199.319	-82.317	0.302	0.096
-198.304	-57.170	-0.445	-0.193
-197.290	-61.687	0.310	0.128
-196.275	-30.282	-0.166	0.093
-195.260	-113.251	-0.168	-0.033
-194.246	-200.000	-0.021	0.116
-193.231	-40.806	0.252	-0.128
-192.217	-200.000	-0.027	-0.189
-191.202	508.924	-0.105	-0.239
-190.187	-172.104	0.139	0.004
-189.173	2.572	0.014	0.010
-188.158	39.504	0.031	-0.027
-187.144	-10.299	-0.024	0.016
-186.129	-27.859	0.412	-0.234
-185.114	-1.863	-0.073	-0.050
-184.100	800.000	-0.028	0.108
-183.085	386.648	0.082	0.166
-182.071	-8.121	0.097	-0.064
-181.056	74.754	-0.248	0.256
-180.042	-17.083	0.295	-0.182
-179.027	79.826	0.137	0.145
-178.012	-111.331	-0.174	-0.035
-176.998	243.601	0.096	-0.158
-175.983	0.942	0.234	0.164
-174.969	41.964	0.194	0.173
-173.954	-110.053	-0.041	-0.008
-172.939	328.912	-0.176	0.333
-171.925	800.000	0.107	-0.421
-170.910	50.111	0.116	0.107
-169.896	-42.942	0.328	0.164
-168.881	-159.666	0.168	0.009
-167.866	-67.412	-0.434	0.167
-166.852	-200.000	-0.007	0.134
-165.837	-132.536	-0.250	0.032
-164.823	303.318	0.157	-0.285
-163.808	-5.980	0.084	0.057
-162.793	-130.508	-0.240	-0.032
-161.779	-200.000	0.033	0.364
-160.764	-62.552	-0.220	-0.090
-159.750	-89.036	0.329	0.095
-158.735	-24.670	0.105	0.061
-157.720	-50.230	0.343	-0.159
-156.706	-70.688	0.220	0.081
-155.691	134.054	0.089	-0.113
-154.677	-200.000	-0.006	-0.118
-153.662	383.626	-0.073	-0.147
-152.647	59.243	0.183	-0.177
-151.633	800.000	0.086	-0.255
-150.618	55.964	-0.074	-0.071
-149.604	-200.000	-0.020	0.404
-148.589	800.000	0.051	0.151
-147.574	208.870	0.250	0.384
-146.560	-102.016	0.074	-0.017
-145.545	-200.000	-0.044	-0.188
-144.531	-49.203	0.339	-0.159
-143.516	-104.682	0.178	0.040
-142.502	-200.000	0.033	0.329
-141.487	-200.000	-0.055	0.314
-140.472	216.942	0.211	-0.330
-139.458	215.936	-0.058	0.090
-138.443	-200.000	0.012	-0.210
-137.429	-135.682	-0.109	0.013
-136.414	800.000	-0.065	0.252
-135.399	85.703	0.192	0.206
-134.385	-200.000	0.024	0.257
-133.370	-164.241	0.198	-0.009
-132.356	96.874	-0.101	-0.113
-131.341	731.051	0.182	0.477
-130.326	-53.187	0.275	-0.124
-129.312	-85.072	-0.302	0.093
-128.297	52.419	-0.104	0.097
-127.283	163.645	-0.161	0.221
-126.268	159.943	0.198	0.270
-125.253	-197.396	-0.368	-0.002
-124.239	-16.936	0.182	-0.113
-123.224	-200.000	-0.001	-0.008
-122.210	14.179	-0.077	-0.059
