DTS Sentinel unit serial number:	SN413079Multiplexer serial number:	ORYXHardware model number:	OX4-SRSoftware version number:	ORYX F/W v4.00 Oryx Data Collector v3.7.2.0data status	okinstallation	princeton_trtdifferential loss correction	single-endedforward channel	channel 2reverse channel	N/Adate	2019/09/18time	17:55:34forward acquisition time	60.00reverse acquisition time	0.00gamma	496.2192k internal	0.2302k external	0.2302temperature offset calibration	1.0025default loss term (dB/km)	0.3790temperature slope calibration	1.0000multiplexer offset coefficient	1.0000multiplexer slope coefficient	1.0000fibre end	0.00T internal ref (°C)	39.94T ext. ref 1 (°C)	0.92T ext. ref 2 (°C)	30.71length (m)	temperature (°C)	Stokes	anti-Stokes-747.200	-17.189	0.105	0.068
-746.185	12.205	0.316	0.248
-745.171	21.076	0.211	0.175
-744.156	-200.000	-0.046	0.334
-743.142	564.025	0.074	0.183
-742.127	-29.426	-0.162	0.094
-741.112	-153.510	-0.236	0.017
-740.098	42.439	0.117	0.109
-739.083	-83.865	0.306	0.099
-738.069	-200.000	-0.007	0.170
-737.054	-200.000	0.062	-0.285
-736.039	96.173	-0.159	-0.185
-735.025	-59.257	0.148	-0.065
-734.010	-175.271	-0.216	0.006
-732.996	-78.447	0.526	-0.184
-731.981	355.388	-0.136	-0.275
-730.966	564.097	-0.103	0.254
-729.952	-124.714	-0.307	0.048
-728.937	199.775	0.096	0.149
-727.923	236.184	0.095	-0.159
-726.908	162.613	-0.190	-0.272
-725.894	143.323	-0.080	-0.109
-724.879	-158.758	0.267	-0.016
-723.864	179.393	-0.082	0.122
-722.850	365.248	0.081	0.165
-721.835	253.179	-0.235	-0.408
-720.821	250.765	0.087	-0.150
-719.806	-200.000	0.102	-0.486
-718.791	509.141	-0.085	-0.201
-717.777	546.755	0.010	-0.025
-716.762	30.747	0.173	-0.151
-715.748	-76.366	0.338	-0.121
-714.733	-200.000	0.011	0.171
-713.718	474.842	-0.030	-0.069
-712.704	-110.039	0.333	-0.071
-711.689	800.000	-0.070	-0.217
-710.675	-87.358	0.225	0.069
-709.660	-128.510	0.243	0.035
-708.645	-100.634	-0.393	-0.099
-707.631	-200.000	0.077	0.605
-706.616	234.311	-0.146	0.245
-705.602	51.678	-0.254	-0.246
-704.587	-166.365	-0.104	-0.004
-703.572	713.392	0.037	-0.101
-702.558	416.717	-0.152	-0.329
-701.543	141.440	0.191	0.258
-700.529	-167.604	0.118	0.005
-699.514	181.230	0.058	0.087
-698.499	-146.826	0.048	0.004
-697.485	-36.435	0.134	-0.074
-696.470	-200.000	-0.021	0.100
-695.456	-15.346	0.254	0.165
-694.441	96.255	0.273	-0.317
-693.426	-11.951	-0.384	0.256
-692.412	31.919	-0.192	0.168
-691.397	800.000	-0.085	-0.331
-690.383	-200.000	-0.020	0.155
-689.368	326.220	-0.088	-0.172
-688.354	-57.915	-0.099	0.044
-687.339	54.611	0.132	-0.130
-686.324	575.403	0.105	0.261
-685.310	54.675	0.180	-0.176
-684.295	328.769	-0.098	-0.192
-683.281	42.390	0.040	-0.037
-682.266	-57.673	-0.176	-0.078
-681.251	-2.024	0.152	-0.109
-680.237	349.514	-0.045	-0.090
-679.222	800.000	-0.073	0.213
-678.208	-84.290	-0.033	-0.011
-677.193	13.177	-0.205	0.162
-676.178	39.560	-0.158	-0.144
-675.164	-148.288	-0.205	0.017
-674.149	-29.714	0.106	0.062
-673.135	42.423	0.045	0.041
-672.120	-99.370	0.209	0.053
-671.105	380.210	-0.036	-0.076
-670.091	800.000	-0.048	-0.200
-669.076	800.000	0.147	-0.461
-668.062	315.651	-0.085	-0.163
-667.047	264.328	-0.029	0.052
-666.032	115.497	-0.280	0.348
-665.018	11.682	-0.074	0.058
-664.003	-118.211	0.240	0.043
-662.989	35.630	-0.199	-0.177
-661.974	800.000	-0.058	-0.253
-660.959	0.459	0.191	0.139
-659.945	40.730	-0.161	0.147
-658.930	-78.022	-0.242	-0.085
-657.916	-59.324	-0.195	0.085
-656.901	-21.738	0.178	0.110
-655.886	102.016	-0.112	-0.133
-654.872	800.000	0.086	0.355
-653.857	800.000	0.070	0.229
-652.843	160.125	-0.090	-0.128
-651.828	800.000	0.085	-0.297
-650.814	470.653	0.036	-0.081
-649.799	-97.892	0.230	0.060
-648.784	506.230	-0.070	0.165
-647.770	-144.635	0.058	-0.005
-646.755	-4.655	-0.326	0.228
-645.741	41.292	0.065	-0.060
-644.726	386.820	0.092	0.193
-643.711	-67.038	0.188	0.075
-642.697	-155.607	-0.365	0.024
-641.682	105.307	0.110	0.132
-640.668	-89.132	0.425	0.128
-639.653	-4.431	-0.093	0.065
-638.638	-3.098	-0.192	0.136
-637.624	-86.129	0.057	-0.018
-636.609	-51.380	-0.096	0.045
-635.595	-128.165	0.182	0.026
-634.580	7.217	0.232	-0.176
-633.565	59.916	0.290	0.290
-632.551	-0.699	-0.101	-0.073
-631.536	-170.629	0.156	-0.005
-630.522	-45.757	-0.215	0.108
-629.507	-2.482	-0.178	0.127
-628.492	-18.910	0.242	0.153
-627.478	-44.507	0.295	0.150
-626.463	800.000	0.107	0.365
-625.449	-88.865	-0.334	-0.100
-624.434	6.256	-0.140	-0.105
-623.419	-122.532	-0.136	-0.022
-622.405	800.000	0.077	0.291
-621.390	-67.220	0.050	-0.020
-620.376	581.743	-0.158	-0.393
-619.361	169.873	0.067	-0.098
-618.346	-27.349	0.106	-0.062
-617.332	-200.000	0.020	-0.115
-616.317	800.000	0.054	0.218
-615.303	-58.100	0.226	-0.100
-614.288	-200.000	0.044	0.250
-613.273	-104.644	-0.132	-0.031
-612.259	18.472	0.059	0.047
-611.244	800.000	0.047	0.166
-610.230	-115.940	0.292	0.055
-609.215	-86.526	-0.206	0.064
-608.201	59.461	0.162	0.162
-607.186	-7.944	-0.225	-0.154
-606.171	0.372	0.160	0.116
-605.157	66.570	0.257	0.265
-604.142	-100.457	-0.226	0.057
-603.128	-7.629	0.101	-0.069
-602.113	-200.000	-0.056	-0.387
-601.098	60.125	0.319	-0.320
-600.084	-195.626	-0.185	-0.001
-599.069	86.396	0.097	-0.108
-598.055	800.000	-0.042	0.188
-597.040	-89.311	-0.132	-0.039
-596.025	203.015	0.069	-0.108
-595.011	-130.051	-0.132	0.018
-593.996	-49.724	0.285	-0.137
-592.982	-95.270	-0.229	0.062
-591.967	154.546	-0.128	-0.178
-590.952	800.000	-0.101	-0.348
-589.938	232.404	0.070	-0.117
-588.923	263.817	0.033	-0.058
-587.909	-160.665	-0.250	0.013
-586.894	-126.572	-0.133	-0.020
-585.879	8.376	0.067	-0.051
-584.865	-135.418	0.272	-0.033
-583.850	86.066	0.089	-0.099
-582.836	88.171	0.123	0.138
-581.821	278.802	-0.120	-0.217
-580.806	-90.904	-0.244	-0.071
-579.792	791.707	-0.034	0.094
-578.777	70.968	0.121	-0.127
-577.763	201.533	-0.015	-0.024
-576.748	385.097	-0.080	-0.167
-575.733	-119.409	0.178	-0.031
-574.719	-118.541	-0.095	-0.017
-573.704	-200.000	0.004	0.051
-572.690	-39.094	0.158	-0.084
-571.675	-50.921	-0.243	-0.115
-570.661	-107.951	0.243	-0.053
-569.646	-33.455	-0.091	-0.051
-568.631	189.050	-0.070	-0.106
-567.617	209.739	0.210	0.333
-566.602	619.723	0.020	-0.052
-565.588	-116.236	-0.338	-0.064
-564.573	16.858	-0.190	0.153
-563.558	36.322	0.230	0.205
-562.544	74.122	-0.093	0.098
-561.529	-200.000	-0.033	-0.160
-560.515	-111.629	-0.194	-0.040
-559.500	230.535	0.068	-0.113
-558.485	800.000	0.075	-0.227
-557.471	-41.398	-0.021	-0.011
-556.456	253.668	0.094	0.162
-555.442	85.702	-0.022	-0.025
-554.427	203.124	-0.108	-0.169
-553.412	-200.000	0.038	0.184
-552.398	81.634	-0.323	0.354
-551.383	-200.000	0.052	0.278
-550.369	-200.000	0.005	-0.060
-549.354	800.000	-0.079	0.296
-548.339	524.226	-0.012	0.028
-547.325	60.766	-0.025	0.025
-546.310	800.000	-0.084	-0.288
-545.296	-77.778	0.189	-0.066
-544.281	-40.435	-0.203	-0.107
-543.266	799.496	-0.173	-0.484
-542.252	-78.395	-0.379	0.131
-541.237	42.602	0.222	-0.205
-540.223	666.497	0.064	0.166
-539.208	-200.000	0.056	-0.251
-538.193	-161.831	0.202	-0.010
-537.179	-112.245	0.100	-0.020
-536.164	800.000	-0.046	0.152
-535.150	32.009	-0.127	-0.111
-534.135	-103.932	-0.255	-0.060
-533.121	34.097	-0.108	0.095
-532.106	-108.155	0.243	-0.053
-531.091	-117.233	0.323	-0.059
-530.077	-51.132	0.146	0.069
-529.062	-2.216	-0.247	-0.175
-528.048	800.000	0.087	0.276
-527.033	43.869	-0.180	-0.166
-526.018	-37.676	0.107	-0.057
-525.004	430.469	-0.102	0.222
-523.989	6.068	-0.069	-0.051
-522.975	-87.095	0.115	-0.035
-521.960	-200.000	-0.017	-0.123
-520.945	8.778	0.102	-0.078
-519.931	-77.211	0.260	-0.092
-518.916	-89.238	0.045	-0.013
-517.902	-74.213	0.196	-0.071
-516.887	88.473	-0.125	-0.140
-515.872	-149.572	-0.171	0.014
-514.858	-189.004	0.168	0.002
-513.843	355.189	-0.087	-0.175
-512.829	-146.546	-0.173	-0.015
-511.814	233.675	0.061	0.102
-510.799	-55.114	-0.143	-0.065
-509.785	-200.000	-0.049	0.287
-508.770	-90.969	0.432	-0.125
-507.756	-106.155	-0.069	0.016
-506.741	-200.000	0.005	0.298
-505.726	800.000	0.031	-0.128
-504.712	474.467	0.108	0.245
-503.697	135.689	-0.191	0.251
-502.683	243.286	-0.142	0.240
-501.668	-60.122	-0.245	0.106
-500.653	49.744	0.164	0.156
-499.639	155.801	0.066	-0.091
-498.624	-55.301	0.387	-0.176
-497.610	-54.712	-0.450	0.205
-496.595	-3.363	-0.183	0.128
-495.581	40.146	-0.161	-0.146
-494.566	651.546	-0.014	0.035
-493.551	800.000	0.024	0.072
-492.537	616.755	-0.058	0.146
-491.522	432.563	-0.081	0.176
-490.508	-57.477	-0.183	-0.081
-489.493	-44.592	-0.139	0.070
-488.478	-81.085	0.202	-0.068
-487.464	-6.230	-0.162	0.112
-486.449	-200.000	-0.029	0.362
-485.435	-161.147	0.270	-0.014
-484.420	226.333	-0.192	0.314
-483.405	800.000	-0.022	0.061
-482.391	54.687	-0.014	0.014
-481.376	-35.704	-0.120	-0.065
-480.362	800.000	0.010	0.032
-479.347	169.897	0.146	0.210
-478.332	-82.983	-0.211	-0.069
-477.318	800.000	-0.112	-0.463
-476.303	800.000	-0.062	0.193
-475.289	127.480	-0.187	0.240
-474.274	800.000	0.062	0.181
-473.259	-200.000	-0.061	0.354
-472.245	-200.000	0.042	-0.220
-471.230	91.324	0.155	-0.175
-470.216	1.285	-0.294	0.213
-469.201	119.004	0.116	0.145
-468.186	-136.177	0.234	0.028
-467.172	-39.731	0.059	0.031
-466.157	66.101	0.074	-0.076
-465.143	-84.559	0.313	-0.100
-464.128	50.726	0.058	0.055
-463.113	-142.321	-0.088	0.009
-462.099	-23.925	-0.325	-0.196
-461.084	-77.499	-0.158	0.055
-460.070	-200.000	-0.011	-0.207
-459.055	40.068	0.149	0.135
-458.040	-200.000	-0.006	-0.064
-457.026	-140.068	-0.190	0.020
-456.011	-34.123	0.078	0.043
-454.997	104.986	0.073	0.086
-453.982	-102.582	-0.174	-0.042
-452.968	-185.432	0.136	0.002
-451.953	-200.000	-0.039	0.214
-450.938	42.625	-0.216	-0.198
-449.924	-134.035	0.072	0.009
-448.909	-16.129	0.086	-0.055
-447.895	-27.117	0.252	-0.148
-446.880	-28.121	0.212	0.123
-445.865	-200.000	0.041	0.224
-444.851	-91.874	-0.296	0.085
-443.836	-200.000	0.024	-0.267
-442.822	602.181	-0.070	-0.175
-441.807	-200.000	0.012	0.420
-440.792	135.586	0.132	0.173
-439.778	-120.771	-0.241	0.041
-438.763	-15.744	0.256	-0.164
-437.749	125.490	-0.089	-0.113
-436.734	-200.000	0.030	-0.452
-435.719	-128.025	0.535	0.077
-434.705	-83.119	-0.148	0.048
-433.690	-200.000	-0.009	-0.173
-432.676	262.532	-0.141	-0.247
-431.661	-123.832	-0.180	-0.029
-430.646	-32.615	0.012	0.007
-429.632	104.762	-0.109	0.129
-428.617	-122.020	0.334	0.055
-427.603	-80.835	-0.249	0.083
-426.588	-43.118	0.162	-0.082
-425.573	-133.200	-0.160	-0.020
-424.559	23.163	0.237	0.196
-423.544	-94.852	0.183	-0.050
-422.530	-22.611	0.276	-0.168
-421.515	-200.000	0.007	0.272
-420.500	-200.000	0.030	0.201
-419.486	729.350	-0.086	-0.231
-418.471	-56.282	0.047	0.021
-417.457	-36.667	-0.171	-0.092
-416.442	-54.602	0.210	0.095
-415.428	2.471	0.191	-0.139
-414.413	800.000	0.144	-0.436
-413.398	242.745	-0.166	-0.280
-412.384	-70.330	0.183	0.070
-411.369	83.715	0.287	-0.315
-410.355	-200.000	0.061	-0.314
-409.340	800.000	-0.086	-0.276
-408.325	-162.129	-0.259	0.013
-407.311	-82.462	-0.182	-0.059
-406.296	158.048	0.062	-0.087
-405.282	29.030	0.419	-0.358
-404.267	80.159	-0.168	0.182
-403.252	-21.239	-0.158	0.097
-402.238	19.152	-0.113	-0.091
-401.223	84.683	0.096	-0.106
-400.209	566.942	0.069	-0.168
-399.194	219.097	-0.104	0.167
-398.179	165.836	0.127	0.180
-397.165	40.664	0.090	0.082
-396.150	70.814	-0.151	-0.157
-395.136	-144.266	0.331	0.031
-394.121	-200.000	-0.008	0.172
-393.106	-0.114	-0.184	0.132
-392.092	-62.734	0.199	0.083
-391.077	-188.644	-0.296	0.004
-390.063	-30.904	-0.174	0.099
-389.048	-13.452	-0.376	-0.245
-388.033	65.759	0.236	0.240
-387.019	136.943	-0.076	0.100
-386.004	82.579	0.443	-0.484
-384.990	-128.397	0.457	-0.065
-383.975	-200.000	-0.018	0.268
-382.960	-92.202	-0.146	-0.041
-381.946	800.000	0.034	0.142
-380.931	118.999	-0.132	-0.164
-379.917	0.487	0.144	-0.103
-378.902	-200.000	0.017	0.162
-377.888	444.007	-0.148	0.327
-376.873	181.155	-0.225	-0.332
-375.858	-21.052	0.202	0.125
-374.844	-68.836	-0.148	-0.057
-373.829	-200.000	-0.033	0.233
-372.815	-157.754	-0.286	-0.017
-371.800	195.195	0.031	-0.047
-370.785	65.522	0.108	0.109
-369.771	800.000	0.029	0.081
-368.756	-27.149	-0.071	0.042
-367.742	197.473	-0.091	0.139
-366.727	-200.000	0.039	-0.205
-365.712	-129.368	0.087	0.012
-364.698	67.671	0.072	-0.074
-363.683	378.633	0.106	-0.219
-362.669	-131.888	-0.301	0.039
-361.654	-200.000	0.034	-0.271
-360.639	-30.138	-0.073	0.042
-359.625	210.886	0.178	-0.281
-358.610	-57.715	0.107	-0.047
-357.596	300.193	-0.058	0.108
-356.581	-32.540	-0.141	-0.079
-355.566	-54.180	-0.295	-0.135
-354.552	-68.762	0.060	0.023
-353.537	-116.485	0.215	0.040
-352.523	800.000	0.073	0.291
-351.508	-9.616	0.267	0.179
-350.493	800.000	-0.029	-0.082
-349.479	-184.941	0.158	-0.003
-348.464	-200.000	0.027	0.136
-347.450	-41.470	0.048	0.025
-346.435	11.723	-0.102	-0.079
-345.420	-26.540	0.265	-0.156
-344.406	107.151	-0.137	-0.164
-343.391	513.621	-0.167	0.390
-342.377	800.000	-0.107	-0.427
-341.362	-131.661	-0.307	-0.040
-340.348	80.972	0.084	-0.091
-339.333	277.248	0.034	0.061
-338.318	378.436	-0.099	0.204
-337.304	8.019	-0.275	-0.207
-336.289	-52.782	0.338	-0.156
-335.275	-200.000	0.017	-0.104
-334.260	199.566	0.152	-0.234
-333.245	-20.564	-0.272	-0.168
-332.231	1.582	0.101	0.073
-331.216	-100.866	-0.217	-0.053
-330.202	800.000	0.053	-0.189
-329.187	-57.734	-0.349	-0.153
-328.172	-96.353	-0.443	0.118
-327.158	-44.614	0.041	0.020
-326.143	-123.921	0.014	0.002
-325.129	-0.609	-0.087	-0.062
-324.114	-200.000	-0.052	-0.355
-323.099	-200.000	0.012	-0.236
-322.085	-40.973	-0.200	-0.103
-321.070	11.487	0.142	0.109
-320.056	673.849	-0.051	-0.133
-319.041	-10.567	0.084	0.056
-318.026	-10.234	0.127	-0.085
-317.012	2.393	-0.134	0.097
-315.997	-151.119	-0.463	0.035
-314.983	86.817	0.128	-0.142
-313.968	223.434	-0.122	0.197
-312.953	347.938	-0.056	0.110
-311.939	272.400	-0.018	0.032
-310.924	-74.676	-0.350	-0.126
-309.910	204.947	0.287	-0.447
-308.895	-0.686	-0.268	-0.190
-307.880	15.268	0.436	0.343
-306.866	-111.916	-0.253	-0.051
-305.851	11.272	0.063	-0.049
-304.837	-152.065	-0.383	0.028
-303.822	-110.623	0.268	0.056
-302.807	-109.139	0.396	0.084
-301.793	-200.000	-0.031	0.394
-300.778	-33.817	-0.228	-0.126
-299.764	62.183	-0.029	-0.029
-298.749	209.122	-0.218	0.343
-297.735	-18.387	-0.115	0.072
-296.720	-70.341	0.263	-0.100
-295.705	596.574	0.156	0.387
-294.691	800.000	0.103	0.407
-293.676	-200.000	0.017	0.117
-292.662	-22.434	-0.213	0.129
-291.647	-200.000	-0.037	-0.348
-290.632	-133.257	0.153	0.019
-289.618	800.000	-0.049	-0.180
-288.603	-146.002	-0.142	-0.013
-287.589	-119.558	-0.231	-0.040
-286.574	800.000	-0.024	0.101
-285.559	800.000	-0.012	-0.038
-284.545	-78.929	-0.228	-0.078
-283.530	227.639	0.176	-0.287
-282.516	-200.000	0.007	0.286
-281.501	-167.724	0.089	0.004
-280.486	110.496	-0.245	0.295
-279.472	800.000	0.055	0.220
-278.457	-200.000	-0.010	0.243
-277.443	-200.000	-0.034	0.288
-276.428	-148.224	0.051	0.004
-275.413	305.684	-0.025	-0.046
-274.399	46.319	0.181	0.168
-273.384	-200.000	-0.004	0.214
-272.370	3.806	-0.154	0.113
-271.355	216.678	-0.032	0.051
-270.340	-50.599	0.120	-0.057
-269.326	248.673	-0.162	0.275
-268.311	182.547	0.179	-0.264
-267.297	165.147	0.375	-0.530
-266.282	159.550	-0.071	-0.099
-265.267	-98.324	0.418	-0.107
-264.253	-156.608	0.253	-0.016
-263.238	40.592	0.111	0.100
-262.224	-18.697	0.391	-0.244
-261.209	27.560	-0.183	0.154
-260.195	-200.000	0.036	-0.203
-259.180	-67.123	-0.064	0.025
-258.165	-200.000	0.065	-0.347
-257.151	-200.000	0.024	0.125
-256.136	-200.000	-0.037	0.469
-255.122	-9.310	0.078	0.052
-254.107	-200.000	0.017	0.104
-253.092	-67.748	-0.288	-0.112
-252.078	-29.676	-0.146	0.083
-251.063	202.595	-0.108	0.167
-250.049	-41.124	0.069	-0.036
-249.034	-200.000	0.001	-0.104
-248.019	4.886	-0.123	0.090
-247.005	-107.009	-0.373	0.082
-245.990	-19.685	0.115	-0.071
-244.976	-200.000	-0.003	0.066
-243.961	-200.000	0.013	0.112
-242.946	-110.942	0.218	0.045
-241.932	-135.187	-0.120	0.014
-240.917	-1.183	0.070	0.050
-239.903	40.823	-0.196	0.177
-238.888	800.000	0.030	0.108
-237.873	-10.890	-0.260	-0.172
-236.859	-112.002	0.161	0.032
-235.844	-104.169	-0.265	0.061
-234.830	-200.000	0.018	-0.155
-233.815	-113.398	0.166	-0.032
-232.800	214.224	-0.081	0.128
-231.786	-73.689	0.117	0.042
-230.771	-77.183	0.193	-0.067
-229.757	399.808	-0.129	-0.270
-228.742	-140.994	0.191	0.020
-227.727	176.550	0.204	0.297
-226.713	356.711	-0.154	0.306
-225.698	-24.043	0.202	0.121
-224.684	279.746	0.213	-0.379
-223.669	-200.000	0.022	-0.109
-222.655	-200.000	0.010	0.076
-221.640	183.251	-0.073	0.108
-220.625	233.170	-0.081	0.133
-219.611	-69.248	-0.095	-0.037
-218.596	-200.000	0.021	0.173
-217.582	-200.000	-0.007	0.041
-216.567	-120.851	0.239	0.040
-215.552	-36.548	-0.167	-0.090
-214.538	45.307	0.153	0.141
-213.523	330.195	0.139	0.267
-212.509	-0.338	-0.158	0.112
-211.494	-109.106	-0.177	-0.038
-210.479	-200.000	0.001	-0.009
-209.465	-86.574	0.594	0.182
-208.450	389.370	-0.081	0.168
-207.436	72.923	-0.121	-0.126
-206.421	171.501	0.082	0.117
-205.406	800.000	-0.037	-0.125
-204.392	127.255	0.171	-0.216
-203.377	-21.736	0.069	0.042
-202.363	47.474	0.160	-0.149
-201.348	31.695	-0.182	-0.156
-200.333	104.012	-0.204	0.239
-199.319	800.000	0.057	0.202
-198.304	-128.311	0.095	-0.014
-197.290	-77.654	-0.124	0.043
-196.275	73.499	-0.203	-0.212
-195.260	-200.000	-0.021	-0.185
-194.246	6.750	-0.248	-0.184
-193.231	107.343	-0.150	0.178
-192.217	62.255	0.156	0.155
-191.202	-200.000	-0.000	-0.190
-190.187	-148.633	0.325	-0.026
-189.173	-200.000	-0.014	-0.102
-188.158	800.000	0.058	-0.231
-187.144	-84.712	0.230	0.072
-186.129	-53.322	-0.137	-0.062
-185.114	372.712	-0.227	-0.460
-184.100	-200.000	-0.041	-0.209
-183.085	-128.605	0.341	-0.048
-182.071	-40.966	0.316	-0.163
-181.056	-129.135	-0.090	-0.013
-180.042	8.205	0.354	0.265
-179.027	495.692	0.043	-0.097
-178.012	-35.569	-0.076	0.041
-176.998	-58.238	-0.212	-0.092
-175.983	191.836	0.110	-0.165
-174.969	-200.000	0.019	-0.225
-173.954	-200.000	-0.345	-0.001
-172.939	-80.429	-0.129	0.043
-171.925	333.627	0.088	-0.170
-170.910	-39.576	-0.182	-0.095
-169.896	-192.781	-0.274	0.002
-168.881	91.972	0.099	0.111
-167.866	-200.000	-0.028	-0.273
-166.852	-200.000	0.004	0.227
-165.837	800.000	0.075	0.233
-164.823	-66.630	0.277	-0.109
-163.808	-52.482	0.085	-0.039
-162.793	-200.000	-0.003	0.084
-161.779	-155.980	-0.124	0.008
-160.764	93.753	-0.112	0.126
-159.750	800.000	0.042	0.160
-158.735	-24.155	0.075	-0.045
-157.720	354.887	-0.007	0.014
-156.706	-105.547	0.115	-0.026
-155.691	25.515	-0.192	0.159
-154.677	-200.000	-0.027	-0.184
-153.662	800.000	-0.059	-0.242
-152.647	151.319	-0.150	-0.203
-151.633	-28.373	0.276	0.159
-150.618	42.508	-0.111	0.100
-149.604	-200.000	0.040	0.259
-148.589	-71.025	0.332	0.124
-147.574	-78.089	-0.465	-0.159
-146.560	98.586	0.212	0.243
-145.545	121.527	0.078	-0.097
-144.531	-149.127	-0.034	0.003
-143.516	-200.000	0.305	0.001
-142.502	115.409	0.146	-0.177
-141.487	-44.990	0.205	-0.102
-140.472	-160.886	0.226	-0.012
-139.458	131.980	0.035	0.045
-138.443	81.272	0.170	0.183
-137.429	800.000	0.083	0.324
-136.414	-150.447	0.206	0.016
-135.399	47.652	0.151	0.140
-134.385	59.180	0.128	0.126
-133.370	51.716	0.179	-0.169
-132.356	278.011	0.138	0.245
-131.341	70.209	-0.061	0.063
-130.326	800.000	0.044	-0.160
-129.312	-200.000	-0.029	-0.205
-128.297	419.973	0.111	0.236
-127.283	45.825	-0.270	0.248
-126.268	492.579	0.097	0.222
-125.253	-31.477	0.180	0.101
-124.239	66.354	-0.162	-0.164
-123.224	-200.000	-0.032	0.350
-122.210	-200.000	0.034	0.194
-121.195	564.086	-0.076	-0.182
-120.180	429.541	0.056	0.120
