DTS Sentinel unit serial number:	SN413079Multiplexer serial number:	ORYXHardware model number:	OX4-SRSoftware version number:	ORYX F/W v4.00 Oryx Data Collector v3.7.2.0data status	okinstallation	princeton_trtdifferential loss correction	single-endedforward channel	channel 2reverse channel	N/Adate	2019/09/18time	12:51:34forward acquisition time	60.00reverse acquisition time	0.00gamma	496.2192k internal	0.2321k external	0.2321temperature offset calibration	0.9991default loss term (dB/km)	0.3790temperature slope calibration	1.0000multiplexer offset coefficient	1.0000multiplexer slope coefficient	1.0000fibre end	0.00T internal ref (°C)	33.12T ext. ref 1 (°C)	0.56T ext. ref 2 (°C)	29.02length (m)	temperature (°C)	Stokes	anti-Stokes-747.200	800.000	-0.077	0.287
-746.185	349.563	-0.084	0.167
-745.171	-119.118	-0.121	0.021
-744.156	145.844	-0.133	0.181
-743.142	-133.743	0.168	-0.021
-742.127	697.687	0.031	-0.082
-741.112	91.173	-0.192	-0.218
-740.098	237.662	-0.216	-0.362
-739.083	-27.309	0.145	-0.085
-738.069	299.759	0.243	0.452
-737.054	-11.207	-0.150	0.100
-736.039	-67.624	-0.177	0.070
-735.025	-200.000	0.077	0.469
-734.010	800.000	-0.080	-0.328
-732.996	-77.109	-0.438	0.154
-731.981	-200.000	-0.025	0.134
-730.966	-200.000	0.005	-0.097
-729.952	243.735	0.099	0.167
-728.937	-200.000	-0.041	-0.182
-727.923	34.573	-0.053	0.047
-726.908	67.224	-0.157	0.161
-725.894	542.299	0.096	0.230
-724.879	-92.487	0.184	-0.052
-723.864	-200.000	-0.031	-0.141
-722.850	-52.457	0.115	-0.054
-721.835	-200.000	0.056	-0.363
-720.821	-24.255	-0.431	0.259
-719.806	800.000	0.102	0.367
-718.791	60.934	-0.134	0.135
-717.777	-200.000	-0.019	-0.192
-716.762	-41.903	0.213	-0.110
-715.748	800.000	0.036	-0.114
-714.733	-124.067	-0.067	0.011
-713.718	800.000	-0.025	0.082
-712.704	-121.360	-0.269	0.045
-711.689	59.710	-0.107	0.106
-710.675	160.572	-0.238	-0.335
-709.660	-200.000	-0.015	0.507
-708.645	-200.000	0.012	0.099
-707.631	17.536	-0.299	-0.240
-706.616	171.193	0.110	-0.159
-705.602	315.668	-0.030	0.056
-704.587	-68.253	-0.123	0.048
-703.572	-155.154	0.150	-0.010
-702.558	20.447	-0.113	0.092
-701.543	111.866	0.184	0.224
-700.529	-91.659	-0.190	0.055
-699.514	-57.058	-0.139	0.062
-698.499	-78.827	0.101	0.035
-697.485	-70.247	-0.218	-0.084
-696.470	50.175	-0.183	0.174
-695.456	-78.061	0.097	0.034
-694.441	75.024	0.044	-0.047
-693.426	215.616	-0.063	0.101
-692.412	167.640	-0.309	-0.444
-691.397	-133.874	-0.331	0.041
-690.383	800.000	-0.061	0.170
-689.368	-200.000	0.037	-0.174
-688.354	714.599	-0.140	0.375
-687.339	390.655	-0.166	-0.347
-686.324	123.421	-0.178	-0.225
-685.310	-200.000	-0.063	0.422
-684.295	72.187	0.174	-0.183
-683.281	14.537	0.159	-0.125
-682.266	181.815	-0.178	0.264
-681.251	-200.000	-0.074	-0.343
-680.237	800.000	-0.128	-0.385
-679.222	29.039	-0.150	0.129
-678.208	85.360	-0.045	0.050
-677.193	27.697	0.040	0.034
-676.178	367.512	-0.044	-0.089
-675.164	35.270	-0.369	-0.326
-674.149	-200.000	0.014	-0.126
-673.135	800.000	0.081	-0.354
-672.120	650.718	-0.019	-0.050
-671.105	541.540	-0.131	-0.314
-670.091	-200.000	-0.048	-0.214
-669.076	10.106	-0.065	-0.050
-668.062	-177.524	-0.081	-0.002
-667.047	384.428	-0.131	-0.273
-666.032	40.847	0.320	-0.291
-665.018	-71.479	-0.067	0.025
-664.003	-124.946	-0.135	-0.021
-662.989	-58.900	-0.155	-0.068
-661.974	635.206	-0.078	-0.199
-660.959	-200.000	-0.046	-0.218
-659.945	-2.393	-0.311	0.219
-658.930	-56.355	0.188	-0.084
-657.916	17.785	-0.077	-0.062
-656.901	-80.149	-0.167	-0.056
-655.886	-32.693	-0.026	0.014
-654.872	-79.968	-0.395	-0.133
-653.857	-99.338	-0.167	-0.043
-652.843	33.937	-0.210	-0.184
-651.828	800.000	0.111	-0.334
-650.814	769.481	0.052	0.143
-649.799	-143.768	0.076	-0.007
-648.784	-200.000	-0.024	-0.141
-647.770	313.216	-0.070	0.132
-646.755	-10.244	0.226	0.151
-645.741	360.720	-0.159	-0.321
-644.726	-200.000	-0.009	-0.140
-643.711	-41.927	-0.239	0.124
-642.697	-200.000	-0.022	0.099
-641.682	222.026	-0.144	-0.233
-640.668	-97.834	-0.257	-0.067
-639.653	149.877	0.248	-0.338
-638.638	40.077	-0.231	-0.209
-637.624	-200.000	-0.001	0.157
-636.609	-52.713	0.194	-0.090
-635.595	-77.984	-0.152	-0.053
-634.580	800.000	0.079	-0.223
-633.565	-42.063	-0.193	-0.100
-632.551	-98.497	0.188	-0.048
-631.536	169.054	-0.289	-0.415
-630.522	800.000	-0.035	0.107
-629.507	-50.713	-0.307	-0.145
-628.492	-142.669	-0.403	0.040
-627.478	593.484	-0.033	-0.082
-626.463	-105.137	-0.109	0.025
-625.449	-82.398	-0.150	0.049
-624.434	-200.000	-0.003	-0.098
-623.419	-200.000	0.027	-0.137
-622.405	-155.046	0.435	-0.029
-621.390	800.000	-0.079	0.233
-620.376	63.453	-0.122	-0.123
-619.361	164.618	-0.229	-0.325
-618.346	-21.408	0.267	-0.164
-617.332	-4.922	0.194	0.134
-616.317	64.940	-0.100	-0.102
-615.303	-12.112	0.038	0.025
-614.288	3.409	-0.049	-0.036
-613.273	800.000	-0.082	-0.251
-612.259	-200.000	0.011	-0.199
-611.244	-48.229	-0.204	0.099
-610.230	-82.305	0.045	0.015
-609.215	-136.320	-0.223	0.026
-608.201	56.617	-0.079	-0.077
-607.186	-200.000	-0.006	0.603
-606.171	-99.692	0.104	0.026
-605.157	800.000	-0.082	0.358
-604.142	55.990	0.116	0.113
-603.128	339.753	-0.061	0.119
-602.113	-76.803	0.243	0.085
-601.098	131.480	-0.043	-0.056
-600.084	71.161	-0.277	-0.289
-599.069	-129.881	-0.177	0.024
-598.055	-200.000	0.016	0.081
-597.040	24.632	0.302	0.251
-596.025	-17.848	0.349	-0.220
-595.011	800.000	0.053	0.167
-593.996	800.000	0.017	-0.068
-592.982	-67.965	0.368	0.144
-591.967	800.000	-0.043	0.144
-590.952	-200.000	-0.050	-0.228
-589.938	43.250	-0.146	-0.134
-588.923	-69.177	0.138	0.053
-587.909	208.833	-0.140	-0.220
-586.894	212.372	-0.097	0.154
-585.879	201.927	-0.194	-0.300
-584.865	-200.000	0.016	-0.140
-583.850	-28.089	-0.133	-0.077
-582.836	-200.000	-0.042	0.231
-581.821	-111.275	-0.257	-0.053
-580.806	83.502	0.117	0.128
-579.792	800.000	-0.020	0.079
-578.777	-18.256	0.389	0.244
-577.763	-95.399	-0.109	0.029
-576.748	800.000	-0.006	-0.026
-575.733	-0.357	-0.124	0.089
-574.719	-200.000	-0.041	0.264
-573.704	120.725	0.090	0.113
-572.690	-200.000	0.012	0.281
-571.675	-200.000	0.012	-0.156
-570.661	83.217	0.068	-0.074
-569.646	322.942	-0.103	0.196
-568.631	72.797	-0.079	-0.083
-567.617	669.074	0.010	-0.027
-566.602	800.000	0.061	0.192
-565.588	-110.364	0.067	-0.014
-564.573	-78.283	0.161	-0.055
-563.558	-200.000	-0.032	0.283
-562.544	191.406	-0.136	0.206
-561.529	418.491	0.063	0.136
-560.515	-161.398	-0.253	-0.013
-559.500	-45.969	-0.129	-0.064
-558.485	-45.165	-0.054	0.027
-557.471	-200.000	-0.019	0.575
-556.456	-200.000	0.287	-0.000
-555.442	-200.000	-0.009	-0.083
-554.427	-67.103	-0.140	0.055
-553.412	800.000	-0.091	0.253
-552.398	-21.090	-0.412	-0.253
-551.383	-200.000	-0.002	-0.227
-550.369	226.334	-0.145	-0.236
-549.354	-51.192	-0.282	0.133
-548.339	-200.000	-0.000	-0.070
-547.325	-109.464	-0.371	-0.079
-546.310	34.041	-0.134	-0.117
-545.296	-200.000	0.032	-0.143
-544.281	-19.051	-0.427	-0.266
-543.266	-179.236	0.117	-0.003
-542.252	147.311	-0.195	0.263
-541.237	-116.286	-0.186	0.035
-540.223	139.229	-0.124	0.163
-539.208	622.218	-0.131	-0.330
-538.193	55.198	-0.094	-0.091
-537.179	-30.860	0.032	-0.018
-536.164	-133.433	-0.078	0.010
-535.150	-200.000	0.025	0.216
-534.135	-49.924	-0.298	0.142
-533.121	-136.687	-0.125	0.014
-532.106	63.361	0.161	0.162
-531.091	220.038	-0.024	0.038
-530.077	-200.000	-0.006	-0.557
-529.062	-147.881	0.186	-0.016
-528.048	-107.054	-0.255	-0.056
-527.033	-13.236	0.305	0.198
-526.018	-185.823	-0.084	0.001
-525.004	629.354	0.047	0.119
-523.989	686.229	-0.084	0.219
-522.975	129.675	-0.116	-0.148
-521.960	80.529	0.231	0.250
-520.945	30.711	-0.131	0.112
-519.931	94.069	0.279	-0.317
-518.916	-36.930	-0.141	0.076
-517.902	-98.933	-0.249	-0.063
-516.887	-200.000	0.003	-0.157
-515.872	-95.795	0.136	0.036
-514.858	139.283	0.078	-0.103
-513.843	800.000	0.109	0.312
-512.829	522.196	0.154	0.361
-511.814	-129.581	0.117	-0.016
-510.799	800.000	-0.099	-0.376
-509.785	800.000	-0.016	-0.044
-508.770	191.113	0.090	-0.136
-507.756	51.622	-0.070	-0.066
-506.741	134.135	0.194	-0.251
-505.726	153.836	0.192	-0.264
-504.712	-58.831	0.155	0.067
-503.697	800.000	-0.061	0.248
-502.683	192.486	0.325	0.491
-501.668	47.844	-0.272	0.254
-500.653	-23.375	0.374	0.225
-499.639	13.510	-0.341	0.265
-498.624	-200.000	0.030	-0.252
-497.610	45.913	0.137	0.127
-496.595	68.623	0.094	-0.097
-495.581	440.595	-0.066	-0.144
-494.566	-80.037	-0.241	0.081
-493.551	21.884	0.232	0.189
-492.537	205.102	-0.282	-0.438
-491.522	200.257	0.110	0.169
-490.508	-200.000	-0.056	0.293
-489.493	-162.400	0.193	0.010
-488.478	-45.609	0.099	-0.049
-487.464	800.000	0.025	-0.080
-486.449	343.725	0.023	0.045
-485.435	-200.000	-0.040	0.351
-484.420	797.538	-0.100	-0.277
-483.405	-200.000	0.049	-0.428
-482.391	-60.437	0.163	-0.069
-481.376	-2.473	-0.056	-0.039
-480.362	-103.843	0.392	0.092
-479.347	-133.676	-0.185	0.023
-478.332	-129.983	0.275	-0.038
-477.318	800.000	0.054	-0.169
-476.303	210.776	-0.053	-0.084
-475.289	800.000	0.088	0.269
-474.274	101.419	-0.082	0.095
-473.259	-200.000	0.000	-0.309
-472.245	33.152	-0.058	-0.050
-471.230	232.307	0.240	0.394
-470.216	129.589	0.005	0.007
-469.201	-200.000	0.028	0.151
-468.186	262.130	-0.145	-0.251
-467.172	-138.106	0.431	0.048
-466.157	54.915	-0.038	0.037
-465.143	800.000	-0.047	0.196
-464.128	800.000	0.054	-0.201
-463.113	-200.000	-0.012	0.053
-462.099	192.230	-0.137	-0.207
-461.084	800.000	0.116	-0.361
-460.070	-185.700	0.135	-0.002
-459.055	75.190	-0.223	0.234
-458.040	-104.086	-0.311	-0.072
-457.026	213.115	-0.210	0.331
-456.011	-44.941	0.098	0.049
-454.997	183.179	-0.009	0.014
-453.982	116.651	-0.028	0.034
-452.968	-141.946	0.106	-0.011
-451.953	3.826	-0.140	-0.102
-450.938	-66.102	-0.261	-0.104
-449.924	800.000	-0.121	0.385
-448.909	-200.000	0.025	-0.162
-447.895	-4.126	-0.241	-0.167
-446.880	-40.416	-0.105	0.055
-445.865	507.828	-0.157	-0.363
-444.851	-200.000	0.014	-0.240
-443.836	69.365	0.099	0.102
-442.822	-200.000	0.035	0.184
-441.807	-107.382	0.198	0.044
-440.792	-200.000	0.021	0.205
-439.778	-122.444	0.143	0.023
-438.763	443.291	-0.132	-0.290
-437.749	-9.755	-0.223	0.148
-436.734	-200.000	0.016	-0.136
-435.719	-151.422	-0.135	-0.010
-434.705	55.888	0.409	-0.396
-433.690	534.283	-0.151	-0.357
-432.676	13.051	-0.201	0.155
-431.661	-200.000	-0.026	0.388
-430.646	-193.648	0.462	0.004
-429.632	800.000	0.056	0.163
-428.617	18.703	-0.114	-0.091
-427.603	128.096	0.065	0.083
-426.588	78.013	0.190	-0.202
-425.573	-77.335	-0.068	-0.024
-424.559	-164.470	-0.279	0.013
-423.544	-36.198	-0.106	-0.057
-422.530	132.757	-0.100	0.129
-421.515	-200.000	0.052	0.256
-420.500	-21.844	0.130	-0.079
-419.486	4.958	0.046	-0.034
-418.471	120.504	-0.112	0.139
-417.457	46.508	-0.048	0.044
-416.442	-41.927	-0.429	0.220
-415.428	32.476	-0.148	-0.128
-414.413	142.468	-0.145	0.192
-413.398	-200.000	-0.031	0.507
-412.384	32.654	-0.300	0.259
-411.369	-200.000	0.020	-0.169
-410.355	192.561	-0.176	-0.265
-409.340	-200.000	-0.007	0.045
-408.325	-200.000	0.050	-0.315
-407.311	34.929	-0.207	0.180
-406.296	-190.770	0.386	0.004
-405.282	-153.063	-0.279	-0.020
-404.267	644.230	-0.052	0.133
-403.252	17.337	-0.030	0.024
-402.238	35.305	-0.136	0.119
-401.223	-200.000	-0.063	0.415
-400.209	216.607	-0.035	0.056
-399.194	-200.000	0.022	-0.221
-398.179	-200.000	-0.019	-0.207
-397.165	-84.290	-0.191	0.060
-396.150	-104.444	0.123	-0.028
-395.136	-6.801	-0.147	-0.099
-394.121	-87.818	0.252	-0.076
-393.106	-79.367	-0.167	0.056
-392.092	-153.844	0.430	-0.029
-391.077	164.980	0.091	0.127
-390.063	436.199	-0.182	-0.396
-389.048	-127.450	0.361	-0.052
-388.033	126.531	-0.114	-0.143
-387.019	-200.000	0.001	-0.283
-386.004	-18.411	-0.164	-0.102
-384.990	219.152	0.100	0.160
-383.975	-200.000	0.001	0.136
-382.960	267.452	-0.078	0.136
-381.946	221.076	0.111	-0.178
-380.931	-129.942	-0.213	0.029
-379.917	555.325	-0.045	-0.107
-378.902	-24.537	0.164	-0.098
-377.888	-58.681	0.420	-0.181
-376.873	800.000	0.065	-0.273
-375.858	131.264	0.209	-0.268
-374.844	-200.000	-0.004	-0.051
-373.829	-4.104	-0.174	0.120
-372.815	0.151	-0.165	-0.117
-371.800	-33.809	0.263	0.144
-370.785	-110.010	0.200	-0.042
-369.771	-200.000	0.039	-0.264
-368.756	607.425	-0.119	-0.296
-367.742	-40.463	0.302	-0.156
-366.727	144.297	0.044	0.059
-365.712	-154.081	0.179	0.012
-364.698	-86.574	0.192	-0.059
-363.683	138.027	-0.179	0.234
-362.669	-200.000	-0.018	-0.090
-361.654	-80.929	0.098	-0.032
-360.639	-22.821	0.397	-0.238
-359.625	-40.537	-0.067	0.034
-358.610	-98.435	-0.157	-0.040
-357.596	-200.000	-0.004	-0.292
-356.581	-200.000	0.057	0.524
-355.566	800.000	-0.114	0.320
-354.552	190.057	0.215	0.321
-353.537	-200.000	0.073	-0.319
-352.523	-64.697	-0.146	-0.059
-351.508	118.712	-0.085	0.105
-350.493	800.000	0.064	0.206
-349.479	-56.532	-0.328	0.145
-348.464	800.000	-0.096	-0.313
-347.450	-51.115	-0.171	0.080
-346.435	715.190	0.118	0.312
-345.420	438.184	0.130	-0.283
-344.406	110.722	-0.259	0.310
-343.391	81.510	-0.179	0.193
-342.377	-49.317	0.307	0.146
-341.362	-3.250	-0.170	-0.118
-340.348	377.451	0.167	0.339
-339.333	543.881	-0.104	0.247
-338.318	-90.194	0.094	-0.027
-337.304	-124.729	-0.202	-0.031
-336.289	-200.000	0.031	-0.170
-335.275	800.000	0.049	-0.142
-334.260	-100.300	-0.151	-0.037
-333.245	404.176	0.029	-0.061
-332.231	-153.250	0.248	0.017
-331.216	454.324	0.071	-0.157
-330.202	-200.000	-0.061	0.386
-329.187	-200.000	-0.071	0.378
-328.172	-85.217	-0.075	-0.023
-327.158	-82.195	0.061	-0.020
-326.143	-67.139	0.134	-0.052
-325.129	-110.146	0.256	0.053
-324.114	531.973	-0.185	0.434
-323.099	-20.907	0.119	0.072
-322.085	265.416	-0.046	-0.079
-321.070	15.919	-0.168	-0.131
-320.056	-122.867	0.236	0.038
-319.041	28.963	-0.045	-0.038
-318.026	-56.890	-0.209	0.092
-317.012	800.000	0.003	0.010
-315.997	496.411	-0.135	0.309
-314.983	71.893	0.351	0.363
-313.968	-142.706	-0.063	0.006
-312.953	-0.994	-0.250	-0.176
-311.939	-200.000	-0.006	-0.116
-310.924	256.136	-0.165	0.282
-309.910	29.976	0.301	-0.255
-308.895	800.000	-0.104	-0.420
-307.880	-158.176	-0.269	0.016
-306.866	-45.046	-0.222	0.110
-305.851	32.502	0.255	-0.219
-304.837	212.081	-0.110	0.172
-303.822	623.557	0.049	-0.122
-302.807	394.371	0.099	-0.205
-301.793	29.972	0.136	0.115
-300.778	228.664	0.064	0.103
-299.764	-200.000	0.156	0.000
-298.749	-45.128	0.203	-0.100
-297.735	491.177	0.111	-0.253
-296.720	45.445	0.181	0.165
-295.705	-200.000	0.013	0.392
-294.691	158.721	0.097	-0.134
-293.676	367.368	-0.083	0.167
-292.662	-200.000	-0.006	0.359
-291.647	-200.000	0.006	0.156
-290.632	117.982	-0.133	0.163
-289.618	95.197	0.105	0.119
-288.603	-67.477	0.145	0.056
-287.589	100.895	0.130	-0.150
-286.574	43.316	0.239	-0.217
-285.559	-124.383	0.177	-0.027
-284.545	-139.035	-0.126	0.014
-283.530	-181.258	-0.063	0.001
-282.516	-200.000	0.011	-0.302
-281.501	147.774	0.136	-0.182
-280.486	-145.187	0.286	0.026
-279.472	-200.000	-0.010	-0.099
-278.457	119.562	0.060	-0.074
-277.443	-61.649	-0.152	0.063
-276.428	-200.000	0.018	-0.088
-275.413	546.962	-0.163	-0.387
-274.399	800.000	-0.053	-0.164
-273.384	288.869	-0.054	0.097
-272.370	-119.685	0.415	-0.071
-271.355	800.000	0.043	0.125
-270.340	-122.205	-0.166	0.027
-269.326	-200.000	-0.029	-0.141
-268.311	-137.376	0.119	0.013
-267.297	-136.651	-0.288	-0.033
-266.282	34.471	-0.089	-0.077
-265.267	-200.000	-0.034	0.222
-264.253	800.000	0.085	-0.355
-263.238	-193.169	0.129	-0.001
-262.224	800.000	0.104	0.369
-261.209	39.213	0.111	0.099
-260.195	-200.000	-0.063	-0.302
-259.180	-47.556	0.232	-0.112
-258.165	622.641	0.137	-0.343
-257.151	14.497	0.073	0.057
-256.136	53.515	-0.174	-0.166
-255.122	8.997	0.172	0.129
-254.107	-157.714	0.429	0.025
-253.092	-8.230	-0.224	-0.150
-252.078	7.886	-0.224	0.167
-251.063	491.960	0.047	0.106
-250.049	-137.367	-0.317	-0.036
-249.034	152.211	0.168	0.227
-248.019	95.381	0.196	-0.221
-247.005	496.477	0.076	-0.172
-245.990	-118.282	0.062	0.011
-244.976	385.042	0.007	0.014
-243.961	-95.644	-0.051	0.014
-242.946	160.182	0.080	-0.111
-241.932	4.311	0.149	0.108
-240.917	-162.086	0.484	0.024
-239.903	399.045	-0.129	0.268
-238.888	60.794	-0.166	-0.163
-237.873	-57.699	0.058	0.025
-236.859	1.744	0.328	0.234
-235.844	-15.508	0.176	0.111
-234.830	-185.539	-0.184	-0.003
-233.815	14.091	-0.192	0.148
-232.800	-200.000	-0.029	0.201
-231.786	800.000	-0.055	0.154
-230.771	-165.591	0.053	0.002
-229.757	110.495	0.117	0.140
-228.742	800.000	-0.079	0.305
-227.727	326.264	0.072	-0.137
-226.713	175.853	-0.072	0.103
-225.698	68.608	0.211	0.214
-224.684	-28.498	-0.170	0.097
-223.669	89.489	-0.288	-0.318
-222.655	176.973	-0.230	-0.331
-221.640	119.466	0.321	-0.393
-220.625	-151.557	0.151	0.011
-219.611	-40.417	-0.128	-0.066
-218.596	-200.000	0.080	-0.483
-217.582	-135.877	0.237	-0.028
-216.567	8.345	-0.194	0.144
-215.552	407.984	-0.087	0.181
-214.538	800.000	-0.051	0.211
-213.523	-200.000	0.027	-0.121
-212.509	-49.742	0.152	-0.071
-211.494	-126.472	-0.202	-0.030
-210.479	-94.322	-0.187	0.051
-209.465	72.933	0.160	0.166
-208.450	83.764	0.121	-0.131
-207.436	-200.000	-0.046	0.241
-206.421	556.052	-0.031	-0.073
-205.406	349.741	-0.090	0.176
-204.392	-200.000	-0.006	-0.367
-203.377	-154.687	0.261	0.017
-202.363	-93.224	0.163	-0.045
-201.348	333.039	0.286	0.546
-200.333	-130.135	-0.160	0.022
-199.319	791.170	-0.076	-0.208
-198.304	-65.399	0.346	-0.137
-197.290	474.743	0.103	-0.230
-196.275	800.000	0.053	-0.183
-195.260	169.326	-0.149	-0.211
-194.246	-145.040	-0.266	-0.024
-193.231	-93.977	0.085	-0.023
-192.217	153.861	-0.046	0.063
-191.202	208.920	0.088	0.136
-190.187	287.207	-0.135	-0.241
-189.173	-77.094	0.162	-0.056
-188.158	101.329	-0.103	0.118
-187.144	488.014	0.090	-0.202
-186.129	172.860	0.102	-0.146
-185.114	335.257	0.104	0.199
-184.100	-6.127	0.267	0.180
-183.085	114.772	0.052	0.063
-182.071	93.776	-0.144	-0.161
-181.056	153.636	0.044	-0.059
-180.042	399.322	-0.124	-0.256
-179.027	-200.000	0.011	-0.198
-178.012	800.000	0.042	0.167
-176.998	-200.000	0.082	-0.447
-175.983	67.175	0.206	0.207
-174.969	167.730	-0.146	0.206
-173.954	-200.000	0.001	0.082
-172.939	87.380	0.076	0.083
-171.925	-0.903	-0.213	0.149
-170.910	-200.000	0.036	0.195
-169.896	-130.229	-0.115	-0.016
-168.881	-200.000	0.002	-0.143
-167.866	87.115	0.189	-0.206
-166.852	11.335	0.084	0.064
-165.837	800.000	0.029	0.087
-164.823	75.562	-0.208	0.217
-163.808	-85.762	-0.032	0.010
-162.793	-74.734	0.200	0.071
-161.779	128.431	0.089	-0.111
-160.764	-200.000	-0.007	-0.057
-159.750	97.969	-0.036	-0.041
-158.735	-52.327	-0.183	-0.084
-157.720	-28.721	0.138	0.078
-156.706	-142.549	0.194	-0.019
-155.691	491.354	-0.113	0.255
-154.677	309.381	0.037	0.068
-153.662	12.201	-0.060	0.046
-152.647	800.000	0.046	-0.188
-151.633	53.397	-0.114	0.108
-150.618	-118.692	0.196	0.034
-149.604	-135.467	-0.266	0.031
-148.589	800.000	0.079	0.237
-147.574	-83.939	-0.366	0.115
-146.560	-179.328	-0.438	-0.010
-145.545	-200.000	0.011	0.093
-144.531	5.743	0.339	0.247
-143.516	44.871	-0.175	-0.159
-142.502	-22.507	-0.267	0.159
-141.487	800.000	0.067	-0.287
-140.472	0.333	0.284	0.200
-139.458	189.607	-0.056	0.083
-138.443	-200.000	0.015	-0.273
-137.429	291.158	-0.220	0.395
-136.414	38.576	0.101	-0.089
-135.399	552.737	0.128	0.302
-134.385	22.653	0.150	-0.121
-133.370	10.908	0.076	-0.057
-132.356	-77.111	0.081	-0.028
-131.341	800.000	0.074	0.264
-130.326	-24.429	0.188	-0.111
-129.312	525.840	0.271	0.630
-128.297	-200.000	-0.011	0.104
-127.283	191.335	-0.260	0.386
-126.268	214.050	0.076	-0.118
-125.253	202.926	-0.113	0.173
-124.239	383.796	0.027	0.054
-123.224	240.809	-0.098	0.161
-122.210	800.000	-0.076	-0.261
-121.195	800.000	-0.038	-0.155
