DTS Sentinel unit serial number:	SN413079Multiplexer serial number:	ORYXHardware model number:	OX4-SRSoftware version number:	ORYX F/W v4.00 Oryx Data Collector v3.7.2.0data status	okinstallation	princeton_trtdifferential loss correction	single-endedforward channel	channel 2reverse channel	N/Adate	2019/09/17time	18:51:35forward acquisition time	60.00reverse acquisition time	0.00gamma	496.2192k internal	0.2298k external	0.2298temperature offset calibration	0.9985default loss term (dB/km)	0.3790temperature slope calibration	1.0000multiplexer offset coefficient	1.0000multiplexer slope coefficient	1.0000fibre end	0.00T internal ref (°C)	41.66T ext. ref 1 (°C)	0.28T ext. ref 2 (°C)	30.96length (m)	temperature (°C)	Stokes	anti-Stokes-747.200	-200.000	0.010	-0.128
-746.185	-99.091	0.086	0.022
-745.171	-55.443	-0.293	-0.134
-744.156	448.815	-0.116	0.260
-743.142	800.000	-0.065	0.216
-742.127	800.000	0.143	0.576
-741.112	-200.000	0.004	-0.206
-740.098	-32.308	0.155	0.088
-739.083	800.000	0.088	-0.315
-738.069	800.000	0.030	-0.115
-737.054	-21.883	0.160	-0.100
-736.039	317.469	-0.188	-0.362
-735.025	-200.000	0.035	-0.321
-734.010	179.614	-0.214	-0.320
-732.996	71.798	-0.151	-0.160
-731.981	724.591	0.075	-0.205
-730.966	-85.929	0.078	0.025
-729.952	-25.480	0.050	-0.030
-728.937	-200.000	-0.007	-0.176
-727.923	800.000	-0.033	-0.119
-726.908	159.361	-0.083	0.118
-725.894	-200.000	-0.014	-0.084
-724.879	800.000	0.053	0.154
-723.864	-175.236	0.019	-0.001
-722.850	-91.676	-0.193	0.056
-721.835	-20.785	0.207	-0.129
-720.821	-70.528	-0.089	0.034
-719.806	-200.000	0.067	-0.331
-718.791	-82.586	-0.365	0.121
-717.777	538.154	0.133	-0.321
-716.762	-145.469	0.196	0.018
-715.748	-48.895	0.183	-0.090
-714.733	2.426	-0.286	-0.211
-713.718	-44.379	0.046	-0.023
-712.704	721.938	-0.088	-0.239
-711.689	164.203	-0.103	0.148
-710.675	-23.325	-0.133	0.081
-709.660	327.014	-0.045	-0.089
-708.645	-24.109	0.087	-0.053
-707.631	-139.685	0.464	-0.050
-706.616	15.845	0.224	0.180
-705.602	-200.000	-0.037	-0.278
-704.587	-200.000	0.042	-0.397
-703.572	98.951	0.261	0.307
-702.558	800.000	-0.065	-0.255
-701.543	-200.000	0.021	-0.381
-700.529	800.000	-0.070	0.257
-699.514	-26.142	-0.085	-0.051
-698.499	-125.311	0.148	0.023
-697.485	800.000	0.103	0.296
-696.470	-48.443	-0.240	-0.118
-695.456	-82.623	-0.335	-0.111
-694.441	-174.612	0.117	-0.003
-693.426	-200.000	0.009	0.351
-692.412	22.612	0.089	0.074
-691.397	15.164	0.383	-0.306
-690.383	-89.194	-0.235	0.071
-689.368	-49.077	0.089	0.043
-688.354	732.545	-0.166	0.452
-687.339	-63.478	-0.196	-0.082
-686.324	431.127	0.061	0.135
-685.310	156.552	0.046	0.064
-684.295	62.382	-0.138	-0.141
-683.281	4.829	-0.169	0.126
-682.266	-177.188	-0.316	-0.008
-681.251	-38.358	-0.172	-0.093
-680.237	-23.470	-0.221	0.135
-679.222	-72.752	-0.159	-0.060
-678.208	37.962	0.108	-0.098
-677.193	-110.438	-0.346	0.073
-676.178	58.977	0.203	0.203
-675.164	32.501	0.099	0.087
-674.149	-99.793	0.161	0.041
-673.135	-200.000	-0.102	-0.000
-672.120	-75.773	0.287	-0.104
-671.105	172.123	-0.049	0.072
-670.091	-95.573	-0.332	0.091
-669.076	-100.135	-0.122	-0.031
-668.062	-132.749	-0.226	-0.029
-667.047	441.939	0.039	-0.087
-666.032	277.660	-0.135	0.244
-665.018	-149.209	0.078	-0.006
-664.003	182.771	-0.197	-0.297
-662.989	-54.918	-0.132	-0.061
-661.974	298.788	0.160	0.299
-660.959	-200.000	-0.002	-0.062
-659.945	-51.863	0.219	-0.104
-658.930	780.410	0.090	-0.251
-657.916	-200.000	0.023	0.127
-656.901	-134.373	-0.451	-0.056
-655.886	-85.391	0.080	0.025
-654.872	-176.221	-0.264	0.007
-653.857	-200.000	-0.055	-0.379
-652.843	-27.258	0.064	0.038
-651.828	735.802	0.043	0.116
-650.814	-19.521	-0.111	0.070
-649.799	107.945	-0.124	0.151
-648.784	-112.824	0.374	-0.075
-647.770	-200.000	-0.015	-0.138
-646.755	800.000	-0.037	0.135
-645.741	-200.000	0.001	-0.014
-644.726	169.705	-0.146	0.213
-643.711	-175.456	0.631	-0.018
-642.697	-8.355	0.109	-0.075
-641.682	-174.542	-0.260	-0.008
-640.668	-128.978	0.195	-0.028
-639.653	-0.749	-0.225	0.162
-638.638	-200.000	0.003	0.097
-637.624	-175.429	0.203	-0.006
-636.609	-99.842	-0.277	0.071
-635.595	-146.681	-0.163	-0.014
-634.580	-200.000	-0.007	0.262
-633.565	34.858	-0.109	-0.097
-632.551	-27.311	0.141	0.084
-631.536	-126.811	-0.239	-0.036
-630.522	800.000	0.053	0.160
-629.507	-200.000	0.023	0.154
-628.492	263.776	0.063	0.112
-627.478	368.139	-0.153	-0.315
-626.463	-14.218	-0.153	0.100
-625.449	800.000	-0.074	-0.248
-624.434	158.417	-0.076	-0.107
-623.419	53.479	0.257	0.250
-622.405	115.269	0.082	-0.102
-621.390	401.796	-0.100	0.214
-620.376	-200.000	-0.016	-0.104
-619.361	251.082	-0.120	-0.207
-618.346	35.634	0.123	-0.110
-617.332	128.461	-0.202	0.261
-616.317	59.474	-0.142	-0.142
-615.303	-44.906	0.097	0.049
-614.288	-24.152	0.160	-0.097
-613.273	-37.300	-0.386	0.210
-612.259	-147.117	-0.325	0.028
-611.244	27.704	-0.138	-0.118
-610.230	81.661	-0.263	-0.289
-609.215	-5.083	-0.179	0.125
-608.201	-149.702	-0.368	0.029
-607.186	-110.416	-0.239	-0.050
-606.171	800.000	-0.101	-0.414
-605.157	41.413	0.068	-0.062
-604.142	-200.000	0.030	-0.168
-603.128	98.789	-0.155	0.181
-602.113	120.765	-0.087	-0.110
-601.098	-152.201	0.200	0.015
-600.084	35.876	0.301	-0.269
-599.069	103.978	0.139	-0.166
-598.055	138.983	-0.078	-0.104
-597.040	129.373	0.121	-0.157
-596.025	144.021	-0.094	0.127
-595.011	800.000	0.021	-0.087
-593.996	3.691	0.171	0.126
-592.982	-141.862	0.438	0.045
-591.967	-40.430	-0.446	-0.235
-590.952	-61.952	0.408	-0.173
-589.938	21.024	0.203	-0.167
-588.923	-92.160	-0.237	0.068
-587.909	-149.089	-0.216	0.018
-586.894	285.115	-0.250	-0.457
-585.879	88.430	0.155	-0.175
-584.865	717.382	-0.125	-0.336
-583.850	42.698	-0.263	-0.243
-582.836	-30.595	0.108	-0.062
-581.821	55.445	-0.178	-0.175
-580.806	-11.399	0.152	0.102
-579.792	800.000	-0.021	-0.075
-578.777	-200.000	0.035	-0.199
-577.763	296.836	0.111	-0.206
-576.748	401.750	-0.061	-0.131
-575.733	-79.188	0.239	-0.082
-574.719	-58.104	-0.199	0.088
-573.704	-104.134	-0.181	-0.043
-572.690	800.000	0.027	0.081
-571.675	-36.833	0.203	0.110
-570.661	-200.000	0.005	0.078
-569.646	800.000	0.075	0.215
-568.631	584.683	-0.069	0.173
-567.617	27.569	0.036	-0.031
-566.602	-42.070	-0.094	-0.049
-565.588	70.116	0.050	0.052
-564.573	108.385	-0.161	0.195
-563.558	449.980	-0.166	-0.372
-562.544	-43.700	0.374	0.191
-561.529	731.632	-0.090	0.243
-560.515	-22.297	0.041	-0.025
-559.500	-200.000	-0.070	-0.399
-558.485	-147.094	-0.068	-0.006
-557.471	62.523	-0.141	0.143
-556.456	-82.026	0.046	-0.015
-555.442	-63.957	-0.315	0.130
-554.427	-125.234	-0.240	0.037
-553.412	-50.252	0.098	-0.047
-552.398	11.261	-0.050	-0.039
-551.383	-29.550	0.149	-0.086
-550.369	473.804	-0.045	0.102
-549.354	26.961	0.216	0.183
-548.339	458.885	-0.095	0.213
-547.325	-75.626	-0.148	0.053
-546.310	59.100	0.340	0.339
-545.296	388.220	-0.061	0.129
-544.281	-115.249	-0.320	-0.061
-543.266	-34.443	0.329	0.183
-542.252	315.848	0.085	-0.163
-541.237	21.066	-0.087	-0.072
-540.223	-9.971	-0.324	-0.218
-539.208	68.313	0.247	0.256
-538.193	-46.819	0.327	-0.162
-537.179	-134.587	-0.248	-0.031
-536.164	-200.000	0.033	0.162
-535.150	-100.448	0.233	0.058
-534.135	728.686	0.098	-0.266
-533.121	-75.789	-0.194	0.070
-532.106	336.683	-0.128	0.252
-531.091	454.165	-0.041	0.092
-530.077	-135.585	-0.185	-0.022
-529.062	156.560	0.143	-0.200
-528.048	-30.339	-0.192	-0.110
-527.033	-163.917	0.169	-0.008
-526.018	-182.001	0.186	0.004
-525.004	-100.216	0.132	0.033
-523.989	-77.702	-0.164	-0.057
-522.975	-178.847	0.312	0.007
-521.960	-200.000	0.053	0.334
-520.945	-13.635	-0.242	0.159
-519.931	-200.000	0.001	-0.080
-518.916	268.673	-0.038	0.068
-517.902	124.415	-0.094	-0.120
-516.887	-131.376	-0.191	-0.026
-515.872	-55.032	0.180	-0.082
-514.858	217.816	0.156	0.252
-513.843	800.000	-0.045	0.198
-512.829	360.692	-0.117	0.236
-511.814	-136.904	0.218	-0.025
-510.799	623.327	-0.054	0.137
-509.785	599.630	0.078	0.196
-508.770	-110.586	0.124	0.026
-507.756	392.173	0.175	-0.368
-506.741	-181.523	-0.116	0.002
-505.726	-127.320	-0.208	-0.031
-504.712	-70.954	-0.281	-0.107
-503.697	-46.770	0.239	-0.118
-502.683	645.271	0.096	-0.248
-501.668	-71.904	-0.236	0.089
-500.653	-19.978	0.282	0.176
-499.639	312.977	0.153	-0.292
-498.624	-86.258	0.040	-0.013
-497.610	-64.654	-0.303	-0.124
-496.595	-69.867	-0.508	-0.196
-495.581	-122.887	-0.392	0.064
-494.566	-200.000	0.004	-0.055
-493.551	6.934	-0.292	0.220
-492.537	134.277	0.310	-0.406
-491.522	-200.000	0.007	-0.107
-490.508	-200.000	-0.032	-0.256
-489.493	-51.455	0.222	0.105
-488.478	-56.559	0.240	0.107
-487.464	-15.508	0.233	0.150
-486.449	745.967	0.041	-0.111
-485.435	-120.722	-0.281	-0.048
-484.420	-15.123	0.332	-0.215
-483.405	-87.728	0.238	-0.072
-482.391	-182.702	-0.383	0.007
-481.376	800.000	0.043	-0.187
-480.362	799.979	0.063	-0.177
-479.347	712.118	-0.011	0.031
-478.332	36.089	-0.121	-0.107
-477.318	800.000	-0.063	-0.228
-476.303	402.437	0.111	0.237
-475.289	-200.000	-0.027	0.135
-474.274	513.136	-0.084	0.199
-473.259	470.695	-0.084	-0.190
-472.245	-14.835	-0.172	-0.111
-471.230	-40.752	-0.220	0.115
-470.216	84.841	-0.196	0.217
-469.201	-157.074	-0.284	0.018
-468.186	58.733	0.194	-0.192
-467.172	509.559	0.118	0.278
-466.157	-68.623	0.114	-0.045
-465.143	336.870	0.054	0.106
-464.128	47.847	-0.122	0.115
-463.113	-83.374	-0.230	-0.074
-462.099	127.917	-0.136	-0.174
-461.084	64.056	-0.133	0.135
-460.070	-79.010	0.405	0.139
-459.055	-113.235	0.187	-0.037
-458.040	-123.651	0.155	0.025
-457.026	265.845	-0.022	0.039
-456.011	-200.000	0.052	0.388
-454.997	152.663	-0.046	-0.064
-453.982	28.551	-0.449	-0.383
-452.968	319.579	-0.024	-0.047
-451.953	-37.833	-0.102	-0.055
-450.938	112.571	0.054	0.065
-449.924	128.602	-0.174	-0.224
-448.909	-107.412	0.196	0.043
-447.895	-103.426	0.189	0.045
-446.880	169.305	0.079	-0.113
-445.865	178.042	-0.175	-0.258
-444.851	93.743	0.167	0.191
-443.836	193.857	-0.085	0.129
-442.822	265.196	0.179	-0.315
-441.807	-200.000	-0.023	-0.147
-440.792	-70.604	0.109	0.042
-439.778	43.793	-0.251	0.232
-438.763	-200.000	-0.017	0.525
-437.749	58.539	-0.223	-0.221
-436.734	800.000	-0.070	-0.214
-435.719	-200.000	0.008	0.087
-434.705	320.770	-0.130	-0.249
-433.690	-143.202	-0.146	-0.014
-432.676	674.559	0.063	0.165
-431.661	53.962	-0.136	0.132
-430.646	-97.984	-0.134	0.035
-429.632	26.771	0.269	-0.227
-428.617	-110.256	0.177	-0.037
-427.603	74.766	0.123	-0.131
-426.588	-75.311	0.240	0.086
-425.573	-99.320	-0.035	-0.009
-424.559	9.213	0.113	-0.086
-423.544	-200.000	0.002	0.086
-422.530	-41.103	-0.390	0.203
-421.515	146.515	-0.242	0.328
-420.500	416.998	0.123	-0.264
-419.486	-76.436	0.057	0.020
-418.471	120.061	-0.258	0.322
-417.457	-79.522	0.408	-0.139
-416.442	14.554	0.057	0.045
-415.428	-81.581	-0.075	0.025
-414.413	126.722	0.048	-0.062
-413.398	-200.000	-0.010	0.278
-412.384	-173.955	-0.285	-0.008
-411.369	166.088	0.127	0.181
-410.355	-186.445	-0.267	-0.004
-409.340	3.386	0.136	-0.099
-408.325	-29.665	0.169	-0.097
-407.311	-200.000	0.003	0.115
-406.296	354.769	0.096	0.192
-405.282	-108.901	0.338	0.073
-404.267	-124.111	-0.125	-0.020
-403.252	183.308	0.276	-0.411
-402.238	-21.976	0.136	-0.083
-401.223	-200.000	-0.009	-0.336
-400.209	-86.897	0.300	-0.092
-399.194	113.305	-0.075	0.091
-398.179	800.000	-0.039	0.141
-397.165	-126.629	-0.325	0.049
-396.150	-200.000	-0.015	0.077
-395.136	-186.749	0.164	-0.002
-394.121	82.820	0.030	0.033
-393.106	800.000	0.108	0.378
-392.092	99.287	0.105	-0.122
-391.077	-48.818	-0.257	0.124
-390.063	-200.000	0.057	0.497
-389.048	-200.000	0.024	0.259
-388.033	94.525	0.110	-0.126
-387.019	-49.293	-0.347	-0.167
-386.004	-142.134	-0.345	0.034
-384.990	-177.460	-0.382	-0.009
-383.975	71.102	0.112	-0.117
-382.960	-200.000	-0.032	-0.242
-381.946	-200.000	0.031	-0.151
-380.931	-71.486	0.187	0.070
-379.917	-20.537	-0.200	0.124
-378.902	-4.287	0.147	-0.102
-377.888	-200.000	-0.009	-0.085
-376.873	150.428	0.132	-0.181
-375.858	153.491	-0.164	-0.227
-374.844	-200.000	0.011	0.054
-373.829	80.149	-0.330	0.357
-372.815	102.251	0.171	0.201
-371.800	-42.754	-0.134	0.069
-370.785	800.000	-0.049	0.192
-369.771	800.000	-0.008	-0.034
-368.756	-28.172	0.121	0.070
-367.742	386.845	0.115	0.240
-366.727	-39.044	-0.172	-0.091
-365.712	-23.161	0.261	0.158
-364.698	800.000	0.025	0.092
-363.683	636.559	0.040	0.101
-362.669	-200.000	0.013	-0.147
-361.654	-0.487	-0.214	-0.153
-360.639	181.903	0.083	0.124
-359.625	-70.996	0.250	0.095
-358.610	-28.268	-0.223	0.130
-357.596	475.874	-0.166	0.378
-356.581	38.745	-0.109	0.098
-355.566	-151.177	-0.114	0.009
-354.552	-32.801	0.335	0.187
-353.537	6.205	-0.184	-0.138
-352.523	140.707	0.117	-0.155
-351.508	-200.000	-0.065	-0.304
-350.493	-51.378	-0.433	-0.203
-349.479	6.323	0.212	0.158
-348.464	372.351	-0.148	-0.302
-347.450	-4.828	-0.191	0.133
-346.435	20.638	0.299	-0.243
-345.420	800.000	0.068	-0.207
-344.406	-102.738	0.121	-0.029
-343.391	166.427	0.231	0.329
-342.377	54.194	-0.262	0.253
-341.362	-103.634	0.472	0.111
-340.348	109.437	0.118	0.142
-339.333	-2.137	-0.179	0.126
-338.318	-13.435	-0.044	0.029
-337.304	-200.000	0.007	0.101
-336.289	-200.000	-0.071	0.328
-335.275	-67.632	0.165	-0.065
-334.260	800.000	-0.047	0.172
-333.245	-105.955	0.641	-0.145
-332.231	-192.236	0.441	0.004
-331.216	273.056	0.131	-0.232
-330.202	-200.000	0.002	-0.097
-329.187	40.378	-0.125	0.113
-328.172	-29.357	0.065	0.038
-327.158	-96.868	0.177	0.047
-326.143	37.758	-0.098	0.087
-325.129	-154.635	0.238	0.016
-324.114	-19.063	0.191	-0.119
-323.099	-36.888	0.197	0.106
-322.085	253.899	0.085	0.146
-321.070	-84.134	-0.236	0.075
-320.056	-200.000	0.033	0.220
-319.041	41.525	-0.254	0.231
-318.026	-17.224	0.335	-0.212
-317.012	74.089	0.231	-0.244
-315.997	23.021	0.176	-0.145
-314.983	24.487	-0.192	-0.159
-313.968	697.397	0.036	0.094
-312.953	157.090	-0.159	-0.220
-311.939	69.768	0.310	-0.321
-310.924	-200.000	0.046	-0.475
-309.910	800.000	0.012	-0.045
-308.895	291.662	0.135	-0.247
-307.880	275.124	0.080	0.142
-306.866	-135.431	-0.280	0.034
-305.851	40.564	-0.265	0.239
-304.837	-200.000	0.018	0.187
-303.822	-46.928	0.282	-0.138
-302.807	-200.000	0.009	0.173
-301.793	-50.021	0.221	-0.105
-300.778	-200.000	0.012	0.397
-299.764	-94.190	-0.060	-0.017
-298.749	-200.000	-0.023	0.236
-297.735	-34.373	-0.140	0.077
-296.720	683.360	0.090	-0.236
-295.705	35.515	-0.154	0.136
-294.691	181.305	0.032	0.048
-293.676	23.396	0.111	-0.091
-292.662	800.000	0.077	-0.322
-291.647	-200.000	-0.047	0.311
-290.632	-23.610	-0.326	0.196
-289.618	800.000	0.065	0.230
-288.603	-22.152	0.132	0.080
-287.589	-149.087	0.211	-0.017
-286.574	95.217	0.262	-0.300
-285.559	20.975	0.154	-0.125
-284.545	-20.236	-0.156	0.097
-283.530	-100.261	0.250	0.062
-282.516	-156.032	0.227	-0.014
-281.501	771.897	0.140	-0.381
-280.486	530.054	0.068	0.160
-279.472	577.589	0.083	-0.204
-278.457	-65.212	-0.128	0.052
-277.443	800.000	-0.055	-0.205
-276.428	92.358	-0.243	-0.274
-275.413	40.317	-0.207	0.187
-274.399	48.154	0.145	0.136
-273.384	-118.295	0.402	-0.072
-272.370	-14.619	-0.123	0.080
-271.355	-23.504	-0.121	0.073
-270.340	267.790	-0.117	0.206
-269.326	50.058	0.165	-0.156
-268.311	27.654	0.079	-0.066
-267.297	-99.853	0.231	0.058
-266.282	-66.865	0.286	-0.113
-265.267	-149.907	0.205	0.016
-264.253	-49.067	0.094	-0.045
-263.238	-200.000	0.041	-0.192
-262.224	-44.477	-0.290	-0.145
-261.209	-120.487	0.107	-0.018
-260.195	800.000	0.039	0.158
-259.180	291.873	0.056	0.103
-258.165	111.154	0.121	-0.146
-257.151	-200.000	0.032	0.348
-256.136	-52.391	-0.276	-0.128
-255.122	-92.958	-0.090	-0.025
-254.107	-45.656	0.147	0.073
-253.092	263.336	-0.209	0.363
-252.078	-58.260	-0.358	-0.156
-251.063	112.359	0.167	-0.202
-250.049	-169.819	0.169	0.006
-249.034	-34.554	-0.180	-0.098
-248.019	254.041	-0.114	-0.195
-247.005	-137.150	-0.434	0.050
-245.990	1.948	0.400	-0.289
-244.976	201.191	-0.079	0.122
-243.961	-37.885	0.216	-0.115
-242.946	1.819	0.017	-0.012
-241.932	2.094	0.043	-0.031
-240.917	-200.000	-0.048	0.213
-239.903	-122.597	-0.185	0.030
-238.888	800.000	-0.067	0.267
-237.873	183.904	-0.023	0.034
-236.859	-46.397	-0.165	0.081
-235.844	132.896	-0.074	0.096
-234.830	-200.000	0.010	0.093
-233.815	307.428	0.150	0.280
-232.800	-31.523	-0.303	0.171
-231.786	10.186	0.125	-0.095
-230.771	147.840	-0.143	-0.193
-229.757	-200.000	-0.049	0.345
-228.742	49.945	-0.227	0.214
-227.727	324.410	0.055	0.105
-226.713	595.063	-0.036	0.088
-225.698	800.000	0.049	0.156
-224.684	1.004	-0.203	-0.146
-223.669	-153.802	-0.106	-0.007
-222.655	84.657	0.182	-0.199
-221.640	313.977	0.143	-0.269
-220.625	-82.614	0.299	0.097
-219.611	357.053	0.209	-0.417
-218.596	-200.000	0.046	0.391
-217.582	-200.000	-0.033	-0.208
-216.567	110.319	-0.168	-0.202
-215.552	-200.000	-0.040	-0.289
-214.538	17.509	-0.125	-0.099
-213.523	-48.471	0.100	-0.048
-212.509	721.431	-0.091	-0.243
-211.494	-24.017	-0.108	0.064
-210.479	-45.849	-0.279	0.138
-209.465	20.578	0.134	0.109
-208.450	800.000	-0.057	0.233
-207.436	639.054	0.184	0.469
-206.421	-200.000	-0.019	0.195
-205.406	-200.000	-0.025	-0.167
-204.392	-200.000	-0.021	0.156
-203.377	-123.224	-0.276	0.044
-202.363	800.000	-0.049	-0.175
-201.348	-200.000	0.010	-0.099
-200.333	-100.295	0.163	-0.040
-199.319	-12.352	0.084	0.055
-198.304	-63.031	0.054	0.022
-197.290	75.899	0.097	0.102
-196.275	800.000	-0.088	-0.277
-195.260	36.638	0.180	0.159
-194.246	-160.587	0.341	0.018
-193.231	-23.803	-0.225	0.135
-192.217	-56.765	-0.280	0.124
-191.202	-176.861	0.229	0.006
-190.187	7.284	-0.117	-0.087
-189.173	-200.000	0.022	-0.221
-188.158	-154.248	-0.375	0.025
-187.144	-56.383	-0.195	0.086
-186.129	-66.256	-0.177	0.071
-185.114	418.940	0.068	-0.146
-184.100	-67.423	-0.026	0.010
-183.085	-8.895	0.111	-0.074
-182.071	86.028	-0.054	0.059
-181.056	-140.287	-0.104	0.011
-180.042	181.371	-0.216	0.318
-179.027	421.641	-0.073	0.156
-178.012	382.416	-0.087	-0.179
-176.998	-200.000	0.006	-0.288
-175.983	-125.323	-0.071	-0.011
-174.969	331.287	0.099	-0.191
-173.954	-43.575	-0.135	-0.068
-172.939	19.891	0.123	-0.099
-171.925	-200.000	-0.009	0.147
-170.910	-190.837	-0.140	-0.001
-169.896	-42.544	0.263	-0.134
-168.881	77.767	-0.091	0.097
-167.866	516.586	0.181	0.423
-166.852	-115.538	-0.145	0.027
-165.837	372.796	0.146	-0.296
-164.823	-18.015	0.419	-0.262
-163.808	-200.000	-0.037	0.206
-162.793	451.602	-0.045	-0.099
-161.779	-94.646	0.153	0.041
-160.764	-200.000	0.044	0.401
-159.750	60.537	0.255	-0.252
-158.735	2.918	-0.204	0.148
-157.720	-0.375	0.294	-0.208
-156.706	208.019	0.107	0.167
-155.691	-44.852	-0.229	-0.114
-154.677	126.775	-0.084	-0.106
-153.662	-188.255	0.216	0.003
-152.647	186.294	0.096	-0.142
-151.633	-15.599	-0.068	0.043
-150.618	99.446	-0.041	-0.048
-149.604	-200.000	-0.017	-0.155
-148.589	-8.694	0.202	-0.135
-147.574	699.856	-0.081	0.213
-146.560	-200.000	-0.019	-0.327
-145.545	-200.000	0.036	0.259
-144.531	343.725	-0.184	0.360
-143.516	-200.000	-0.015	0.329
-142.502	-51.461	0.227	-0.106
-141.487	-55.830	0.181	-0.081
-140.472	127.989	0.116	-0.147
-139.458	800.000	0.029	-0.108
-138.443	-91.163	0.090	-0.026
-137.429	-60.640	-0.186	-0.079
-136.414	800.000	-0.071	-0.254
-135.399	569.972	0.049	0.119
-134.385	-170.132	0.365	-0.013
-133.370	72.305	0.072	0.075
-132.356	-53.119	-0.289	0.132
-131.341	-200.000	0.039	0.259
-130.326	-101.913	0.086	-0.021
-129.312	-100.799	0.402	0.099
-128.297	-108.098	-0.076	0.016
-127.283	800.000	-0.034	0.129
-126.268	-200.000	0.064	-0.292
-125.253	-200.000	-0.012	-0.328
-124.239	18.870	0.185	0.147
-123.224	800.000	0.043	0.124
-122.210	-42.952	-0.102	-0.052
-121.195	-200.000	0.012	-0.132
-120.180	-10.223	0.187	-0.123
