DTS Sentinel unit serial number:	SN413079Multiplexer serial number:	ORYXHardware model number:	OX4-SRSoftware version number:	ORYX F/W v4.00 Oryx Data Collector v3.7.2.0data status	okinstallation	princeton_trtdifferential loss correction	single-endedforward channel	channel 2reverse channel	N/Adate	2019/09/18time	15:07:35forward acquisition time	60.00reverse acquisition time	0.00gamma	496.2192k internal	0.2317k external	0.2317temperature offset calibration	0.9997default loss term (dB/km)	0.3790temperature slope calibration	1.0000multiplexer offset coefficient	1.0000multiplexer slope coefficient	1.0000fibre end	0.00T internal ref (°C)	35.33T ext. ref 1 (°C)	0.74T ext. ref 2 (°C)	32.71length (m)	temperature (°C)	Stokes	anti-Stokes-747.200	177.231	-0.023	-0.034
-746.185	130.780	0.227	0.295
-745.171	-133.291	-0.190	-0.024
-744.156	173.780	-0.148	-0.217
-743.142	3.953	0.175	0.130
-742.127	104.087	-0.131	0.156
-741.112	368.185	0.153	-0.314
-740.098	83.000	-0.256	0.281
-739.083	-200.000	0.048	0.227
-738.069	800.000	-0.028	0.104
-737.054	21.826	0.086	-0.071
-736.039	-200.000	-0.065	0.390
-735.025	-0.987	0.148	0.106
-734.010	464.541	-0.113	-0.256
-732.996	183.443	0.059	-0.089
-731.981	-200.000	0.002	0.319
-730.966	-112.801	-0.319	0.064
-729.952	-41.620	-0.049	0.025
-728.937	-200.000	0.007	0.191
-727.923	-200.000	-0.015	-0.114
-726.908	-105.000	-0.397	-0.092
-725.894	800.000	0.023	0.081
-724.879	139.209	-0.225	-0.300
-723.864	243.847	-0.038	-0.064
-722.850	61.278	-0.152	-0.153
-721.835	705.833	0.090	0.240
-720.821	-200.000	0.058	0.288
-719.806	-200.000	-0.025	0.176
-718.791	111.081	0.165	0.201
-717.777	151.634	-0.160	-0.220
-716.762	-45.934	-0.042	0.021
-715.748	73.114	0.061	0.064
-714.733	61.701	-0.161	-0.162
-713.718	-79.640	-0.284	0.097
-712.704	-200.000	0.042	0.269
-711.689	-37.625	-0.229	-0.123
-710.675	38.998	-0.140	-0.126
-709.660	88.145	-0.208	-0.233
-708.645	-79.602	-0.100	0.034
-707.631	-31.885	-0.080	-0.045
-706.616	-200.000	0.034	0.275
-705.602	-200.000	0.001	0.083
-704.587	-82.468	0.248	-0.081
-703.572	-200.000	0.023	0.112
-702.558	-36.317	-0.332	-0.181
-701.543	-200.000	0.047	-0.300
-700.529	-17.662	-0.133	-0.084
-699.514	57.032	-0.101	0.100
-698.499	-57.661	0.368	0.163
-697.485	-19.083	-0.149	0.093
-696.470	-179.162	-0.194	0.004
-695.456	241.843	0.061	0.103
-694.441	-17.875	0.070	-0.044
-693.426	-81.299	0.300	0.100
-692.412	-200.000	0.013	-0.069
-691.397	800.000	0.062	-0.217
-690.383	407.934	-0.126	-0.270
-689.368	0.449	-0.191	-0.138
-688.354	-200.000	-0.043	-0.212
-687.339	-95.173	0.134	0.037
-686.324	-200.000	-0.025	0.140
-685.310	-94.401	-0.249	-0.069
-684.295	-115.966	-0.375	-0.071
-683.281	-128.029	-0.104	0.015
-682.266	800.000	0.090	0.315
-681.251	-134.120	0.053	-0.007
-680.237	-200.000	0.056	0.302
-679.222	-105.970	-0.251	0.057
-678.208	68.448	-0.135	0.140
-677.193	-21.837	-0.136	0.083
-676.178	445.223	-0.089	-0.197
-675.164	800.000	-0.044	-0.147
-674.149	64.818	-0.063	0.064
-673.135	28.894	0.322	-0.275
-672.120	-200.000	0.015	0.066
-671.105	-25.877	0.202	-0.120
-670.091	-200.000	0.014	-0.082
-669.076	-200.000	-0.044	-0.239
-668.062	-200.000	0.021	-0.118
-667.047	-200.000	0.018	-0.272
-666.032	-13.409	-0.380	-0.249
-665.018	203.766	0.054	0.084
-664.003	-24.425	0.132	-0.080
-662.989	59.757	-0.114	0.114
-661.974	-42.408	-0.205	-0.106
-660.959	93.262	-0.095	-0.109
-659.945	-124.678	-0.218	0.034
-658.930	68.583	0.132	-0.137
-657.916	315.362	0.065	-0.123
-656.901	-200.000	-0.129	0.000
-655.886	-42.737	-0.287	0.147
-654.872	800.000	-0.051	0.148
-653.857	-200.000	0.008	-0.094
-652.843	-27.978	0.266	0.156
-651.828	-38.232	0.142	0.076
-650.814	-200.000	-0.035	-0.176
-649.799	-1.375	-0.108	0.077
-648.784	-200.000	-0.001	0.563
-647.770	-94.133	-0.172	-0.047
-646.755	-17.879	0.087	0.055
-645.741	-122.764	-0.271	-0.044
-644.726	145.006	-0.070	-0.094
-643.711	363.497	-0.054	0.109
-642.697	30.126	-0.434	0.373
-641.682	-72.341	0.097	-0.036
-640.668	72.767	-0.246	0.259
-639.653	-66.261	0.409	-0.164
-638.638	120.388	0.033	-0.041
-637.624	-143.596	-0.250	0.024
-636.609	785.502	-0.159	-0.438
-635.595	-161.175	-0.180	-0.009
-634.580	502.144	-0.057	-0.132
-633.565	-200.000	-0.005	-0.081
-632.551	41.871	0.160	-0.147
-631.536	183.269	0.044	-0.066
-630.522	559.765	0.045	-0.109
-629.507	-200.000	0.003	-0.470
-628.492	-42.761	0.192	-0.098
-627.478	-92.015	-0.350	-0.100
-626.463	-200.000	-0.039	-0.323
-625.449	38.496	0.066	-0.059
-624.434	203.869	0.117	-0.182
-623.419	55.314	-0.040	-0.039
-622.405	800.000	0.007	0.023
-621.390	37.819	0.031	0.028
-620.376	93.399	0.145	0.165
-619.361	204.306	0.119	0.185
-618.346	-79.311	0.369	-0.126
-617.332	-200.000	-0.007	-0.104
-616.317	800.000	0.036	0.104
-615.303	15.142	-0.177	-0.140
-614.288	800.000	-0.074	0.282
-613.273	364.352	-0.111	0.225
-612.259	800.000	0.059	0.173
-611.244	81.825	-0.210	-0.229
-610.230	255.928	0.111	-0.192
-609.215	-200.000	-0.026	-0.211
-608.201	65.940	-0.158	-0.162
-607.186	-60.859	0.116	-0.049
-606.171	-54.973	-0.320	0.145
-605.157	-60.569	0.311	0.133
-604.142	-11.656	-0.280	-0.185
-603.128	59.231	0.174	0.172
-602.113	-54.545	-0.138	0.063
-601.098	37.094	-0.140	0.125
-600.084	-20.243	-0.079	0.049
-599.069	57.768	0.058	-0.057
-598.055	-84.405	-0.048	-0.015
-597.040	800.000	-0.070	0.285
-596.025	196.823	-0.195	-0.299
-595.011	-6.664	0.015	-0.010
-593.996	-50.109	0.084	0.040
-592.982	-127.567	-0.231	0.034
-591.967	66.176	0.131	-0.134
-590.952	80.173	0.081	-0.088
-589.938	-107.114	-0.102	0.023
-588.923	-44.810	0.132	0.066
-587.909	-149.687	-0.468	-0.037
-586.894	530.171	-0.049	-0.116
-585.879	121.093	0.100	-0.125
-584.865	-136.634	-0.260	-0.030
-583.850	153.048	-0.028	0.039
-582.836	-62.127	0.156	0.066
-581.821	26.380	-0.194	-0.163
-580.806	-60.012	-0.154	0.066
-579.792	44.115	-0.216	0.200
-578.777	2.061	0.086	0.063
-577.763	-200.000	-0.049	-0.262
-576.748	-200.000	-0.044	0.265
-575.733	-65.893	-0.198	-0.079
-574.719	-200.000	0.056	-0.256
-573.704	-200.000	-0.027	0.313
-572.690	800.000	0.047	0.205
-571.675	-47.461	0.322	0.157
-570.661	-200.000	-0.027	-0.193
-569.646	800.000	0.073	0.204
-568.631	-146.391	0.246	0.022
-567.617	-200.000	-0.002	0.034
-566.602	-200.000	-0.083	-0.373
-565.588	277.817	-0.026	-0.046
-564.573	-37.289	-0.271	0.146
-563.558	125.847	0.231	0.293
-562.544	58.667	0.162	-0.160
-561.529	241.275	0.115	0.193
-560.515	66.019	0.121	-0.123
-559.500	800.000	-0.029	-0.112
-558.485	183.271	0.112	0.166
-557.471	314.435	-0.095	-0.179
-556.456	800.000	-0.053	0.184
-555.442	149.618	-0.263	0.358
-554.427	-4.383	-0.136	0.094
-553.412	228.063	-0.140	0.228
-552.398	-200.000	0.006	-0.237
-551.383	800.000	-0.029	0.113
-550.369	-200.000	0.033	-0.500
-549.354	520.937	-0.100	-0.236
-548.339	-131.263	-0.366	-0.049
-547.325	-111.907	0.185	-0.038
-546.310	-91.801	0.163	0.047
-545.296	12.899	-0.357	0.277
-544.281	101.959	-0.146	0.172
-543.266	38.216	-0.132	0.118
-542.252	34.129	-0.096	-0.084
-541.237	-73.958	0.092	-0.034
-540.223	-200.000	0.047	0.391
-539.208	-60.635	0.241	0.103
-538.193	77.760	0.215	-0.230
-537.179	269.929	0.133	-0.235
-536.164	73.608	0.140	-0.148
-535.150	-128.185	0.311	-0.045
-534.135	66.183	-0.132	-0.135
-533.121	273.893	-0.133	0.236
-532.106	106.383	-0.141	0.167
-531.091	-51.353	-0.273	0.128
-530.077	-96.221	-0.110	-0.029
-529.062	371.182	-0.105	0.214
-528.048	-200.000	0.034	0.308
-527.033	-104.284	0.416	-0.097
-526.018	387.357	0.060	0.124
-525.004	-131.693	-0.205	-0.027
-523.989	184.577	0.126	-0.188
-522.975	107.868	0.219	-0.262
-521.960	-29.921	-0.169	0.097
-520.945	-200.000	-0.010	0.104
-519.931	336.264	-0.035	-0.068
-518.916	-200.000	-0.082	-0.406
-517.902	52.849	-0.147	0.141
-516.887	271.416	0.081	-0.143
-515.872	-166.143	0.396	0.017
-514.858	800.000	0.044	0.180
-513.843	36.231	-0.040	0.035
-512.829	517.757	-0.071	-0.166
-511.814	-104.173	0.033	-0.008
-510.799	159.685	0.063	-0.088
-509.785	-200.000	0.034	0.172
-508.770	-200.000	-0.015	-0.242
-507.756	-88.002	0.302	-0.091
-506.741	188.360	-0.083	0.124
-505.726	-55.865	-0.322	0.144
-504.712	-83.241	-0.368	0.119
-503.697	-200.000	-0.005	-0.139
-502.683	-200.000	-0.010	0.062
-501.668	208.317	-0.265	0.416
-500.653	-58.064	0.358	0.156
-499.639	25.367	0.075	0.063
-498.624	116.087	-0.081	0.100
-497.610	-65.263	-0.128	0.052
-496.595	-27.742	-0.130	-0.075
-495.581	-200.000	0.008	0.133
-494.566	791.325	-0.042	-0.116
-493.551	-98.962	0.235	-0.060
-492.537	-111.147	0.249	-0.051
-491.522	-200.000	-0.011	-0.050
-490.508	-200.000	0.029	-0.176
-489.493	715.494	-0.039	-0.105
-488.478	231.023	0.075	0.123
-487.464	-54.343	-0.042	0.019
-486.449	-105.803	-0.186	0.042
-485.435	287.671	0.032	-0.058
-484.420	-73.030	0.185	0.068
-483.405	79.413	-0.211	0.226
-482.391	-200.000	-0.025	-0.268
-481.376	-18.544	-0.147	0.092
-480.362	19.917	-0.025	-0.020
-479.347	-7.649	0.171	-0.116
-478.332	-116.673	-0.115	0.021
-477.318	-14.890	-0.115	-0.074
-476.303	800.000	0.214	0.592
-475.289	-44.806	-0.036	-0.018
-474.274	37.884	-0.277	-0.246
-473.259	-22.245	-0.120	-0.073
-472.245	-61.933	-0.263	-0.110
-471.230	-17.658	0.066	0.042
-470.216	78.288	0.086	-0.092
-469.201	-27.783	0.472	0.274
-468.186	800.000	0.058	0.226
-467.172	-118.769	-0.215	0.038
-466.157	-200.000	0.042	0.260
-465.143	557.944	0.083	-0.200
-464.128	751.728	-0.159	0.430
-463.113	-200.000	0.020	-0.459
-462.099	-129.162	0.358	0.050
-461.084	309.752	-0.063	-0.118
-460.070	-124.709	0.269	0.042
-459.055	-96.205	0.240	-0.064
-458.040	-200.000	0.066	0.000
-457.026	-95.926	-0.209	-0.056
-456.011	-92.361	0.217	-0.061
-454.997	-48.068	0.234	-0.113
-453.982	-200.000	0.021	0.277
-452.968	-115.064	-0.082	0.016
-451.953	-200.000	-0.019	-0.214
-450.938	-29.023	0.212	-0.122
-449.924	-37.740	0.316	0.169
-448.909	-27.026	-0.213	0.124
-447.895	-200.000	0.035	-0.196
-446.880	710.851	-0.100	0.266
-445.865	76.536	0.096	-0.101
-444.851	-200.000	0.079	-0.358
-443.836	-47.947	-0.292	-0.141
-442.822	136.544	0.145	0.190
-441.807	30.968	0.108	0.093
-440.792	59.093	0.095	-0.094
-439.778	-200.000	-0.026	-0.167
-438.763	-52.787	0.066	0.031
-437.749	800.000	0.024	0.088
-436.734	412.773	0.039	0.083
-435.719	-200.000	-0.000	-0.098
-434.705	46.753	-0.245	0.228
-433.690	800.000	-0.100	0.296
-432.676	0.849	0.270	0.193
-431.661	180.488	-0.120	0.176
-430.646	-35.719	-0.123	-0.067
-429.632	-76.179	0.124	0.044
-428.617	-200.000	0.009	0.043
-427.603	343.495	-0.125	0.246
-426.588	81.630	-0.051	0.055
-425.573	593.045	0.065	-0.161
-424.559	-200.000	0.014	-0.062
-423.544	-98.137	0.228	0.059
-422.530	293.521	0.009	0.017
-421.515	65.595	0.198	0.201
-420.500	-166.201	-0.279	-0.012
-419.486	-39.517	0.184	0.096
-418.471	-118.485	0.217	0.038
-417.457	-83.925	-0.236	-0.075
-416.442	69.067	0.398	-0.409
-415.428	-200.000	-0.118	-0.540
-414.413	-164.015	-0.136	0.006
-413.398	242.227	0.064	0.107
-412.384	-200.000	0.091	0.421
-411.369	71.704	-0.204	0.212
-410.355	800.000	0.070	0.209
-409.340	-69.672	0.230	0.088
-408.325	406.535	0.092	0.195
-407.311	-28.627	-0.185	0.107
-406.296	-149.479	-0.371	-0.029
-405.282	-71.008	0.032	-0.012
-404.267	-10.807	0.209	0.138
-403.252	-114.285	-0.331	0.064
-402.238	105.089	-0.140	-0.165
-401.223	800.000	0.083	-0.322
-400.209	51.288	-0.183	-0.173
-399.194	800.000	-0.045	-0.185
-398.179	41.740	-0.123	-0.112
-397.165	121.751	-0.089	-0.111
-396.150	-200.000	0.033	-0.254
-395.136	-200.000	0.043	0.442
-394.121	610.201	-0.113	-0.283
-393.106	800.000	-0.052	-0.191
-392.092	238.311	0.284	0.471
-391.077	-60.258	0.318	0.135
-390.063	21.136	0.131	-0.107
-389.048	-60.641	0.472	-0.200
-388.033	-33.231	0.255	-0.141
-387.019	97.400	-0.202	-0.231
-386.004	800.000	-0.089	0.268
-384.990	-66.929	0.072	0.028
-383.975	225.671	-0.208	-0.337
-382.960	-200.000	-0.031	-0.222
-381.946	-95.575	0.281	0.075
-380.931	8.058	0.097	-0.073
-379.917	-200.000	-0.009	0.168
-378.902	800.000	0.068	0.235
-377.888	-155.848	-0.160	-0.010
-376.873	800.000	0.109	0.379
-375.858	-119.575	0.154	-0.027
-374.844	-200.000	-0.039	-0.214
-373.829	-15.338	0.082	-0.052
-372.815	-17.725	-0.084	0.053
-371.800	-200.000	-0.031	0.148
-370.785	-28.039	0.112	0.065
-369.771	-200.000	0.035	-0.236
-368.756	-53.840	0.354	-0.161
-367.742	288.234	-0.098	0.177
-366.727	800.000	0.157	-0.435
-365.712	4.653	0.153	-0.112
-364.698	-200.000	-0.046	-0.377
-363.683	800.000	-0.027	0.106
-362.669	229.922	0.131	-0.214
-361.654	103.517	0.135	0.158
-360.639	-92.481	0.026	0.007
-359.625	-200.000	-0.022	0.424
-358.610	-104.402	0.369	0.085
-357.596	800.000	-0.030	-0.114
-356.581	633.459	-0.182	0.459
-355.566	608.213	-0.036	-0.089
-354.552	10.392	-0.444	0.337
-353.537	-200.000	-0.012	-0.151
-352.523	69.435	-0.162	-0.166
-351.508	449.032	0.071	-0.156
-350.493	-16.279	-0.321	0.203
-349.479	72.135	-0.221	-0.229
-348.464	-40.037	0.217	0.113
-347.450	179.779	-0.162	-0.237
-346.435	-200.000	0.017	0.104
-345.420	-200.000	-0.037	0.196
-344.406	-200.000	0.031	-0.217
-343.391	42.317	0.182	0.164
-342.377	92.300	-0.071	0.080
-341.362	-85.867	0.092	-0.028
-340.348	279.324	0.019	-0.033
-339.333	-200.000	-0.005	-0.186
-338.318	-104.000	-0.341	0.079
-337.304	800.000	0.038	0.111
-336.289	246.675	0.174	-0.292
-335.275	-200.000	0.009	-0.184
-334.260	-0.549	0.034	-0.024
-333.245	-104.651	0.288	-0.066
-332.231	-200.000	0.039	-0.232
-331.216	115.829	-0.052	0.063
-330.202	-150.298	-0.487	0.037
-329.187	-23.565	0.302	-0.181
-328.172	64.853	-0.156	-0.157
-327.158	-200.000	-0.063	-0.318
-326.143	237.990	-0.035	0.058
-325.129	126.577	-0.418	0.527
-324.114	-44.402	0.333	0.166
-323.099	-40.344	0.126	0.065
-322.085	-7.114	-0.225	0.152
-321.070	74.096	0.210	0.220
-320.056	-82.010	-0.214	-0.069
-319.041	231.208	-0.067	-0.109
-318.026	800.000	-0.107	0.364
-317.012	-59.137	0.335	0.144
-315.997	800.000	-0.077	0.238
-314.983	800.000	-0.082	0.242
-313.968	-165.154	0.267	0.012
-312.953	176.942	0.118	0.170
-311.939	336.981	0.075	0.145
-310.924	-51.125	0.259	-0.121
-309.910	54.959	-0.250	-0.240
-308.895	-200.000	-0.029	-0.261
-307.880	90.682	0.062	-0.069
-306.866	35.466	-0.119	-0.104
-305.851	465.088	-0.135	-0.300
-304.837	97.661	0.132	-0.151
-303.822	-200.000	-0.023	-0.403
-302.807	-103.192	0.136	-0.032
-301.793	70.853	0.196	-0.202
-300.778	332.892	0.127	-0.245
-299.764	-59.463	-0.091	0.039
-298.749	-200.000	-0.005	-0.301
-297.735	115.381	-0.135	-0.164
-296.720	590.519	-0.026	0.064
-295.705	611.485	-0.038	-0.095
-294.691	126.290	0.114	0.143
-293.676	-50.604	0.235	-0.110
-292.662	-159.937	0.122	-0.007
-291.647	-200.000	-0.008	-0.220
-290.632	548.203	0.018	-0.043
-289.618	554.411	0.133	0.319
-288.603	-69.895	0.271	0.103
-287.589	-172.101	-0.143	-0.005
-286.574	-102.675	0.095	0.023
-285.559	-48.237	-0.271	0.130
-284.545	800.000	-0.071	0.201
-283.530	-82.298	0.209	0.068
-282.516	-200.000	-0.013	0.075
-281.501	319.941	-0.073	0.137
-280.486	21.840	-0.187	-0.151
-279.472	-5.607	0.135	0.092
-278.457	-6.628	0.127	0.086
-277.443	147.623	0.155	-0.208
-276.428	-164.107	0.360	-0.017
-275.413	800.000	0.045	0.132
-274.399	-87.573	0.192	-0.058
-273.384	800.000	-0.066	0.204
-272.370	800.000	0.061	0.261
-271.355	-200.000	-0.025	-0.298
-270.340	-9.364	-0.371	0.246
-269.326	-200.000	-0.002	-0.061
-268.311	-200.000	-0.001	0.171
-267.297	94.910	0.096	0.108
-266.282	639.643	0.123	-0.312
-265.267	800.000	-0.107	0.449
-264.253	25.205	-0.323	0.266
-263.238	318.640	0.128	-0.241
-262.224	800.000	-0.052	0.158
-261.209	-200.000	0.054	0.246
-260.195	-169.803	0.263	0.009
-259.180	38.561	0.153	-0.136
-258.165	-170.621	-0.399	0.014
-257.151	334.278	-0.111	-0.213
-256.136	181.208	0.163	-0.238
-255.122	13.096	-0.180	0.138
-254.107	-200.000	-0.041	0.189
-253.092	-65.983	0.423	-0.168
-252.078	-74.990	-0.267	-0.095
-251.063	114.392	0.077	-0.093
-250.049	800.000	0.108	0.398
-249.034	-200.000	-0.002	-0.460
-248.019	492.849	-0.062	-0.142
-247.005	-200.000	0.072	0.334
-245.990	-200.000	-0.019	-0.295
-244.976	321.684	-0.084	-0.158
-243.961	-200.000	-0.055	0.446
-242.946	111.209	-0.115	-0.137
-241.932	800.000	0.086	-0.326
-240.917	-83.846	-0.317	-0.100
-239.903	-62.115	0.104	-0.043
-238.888	800.000	0.055	0.233
-237.873	-68.414	0.127	0.049
-236.859	800.000	-0.077	0.255
-235.844	455.019	0.063	0.138
-234.830	-57.807	-0.322	-0.140
-233.815	73.134	-0.306	-0.318
-232.800	800.000	-0.046	0.161
-231.786	800.000	-0.028	-0.111
-230.771	165.228	-0.028	-0.039
-229.757	406.500	0.010	-0.021
-228.742	388.018	-0.090	0.184
-227.727	-110.872	-0.346	-0.071
-226.713	151.009	-0.055	-0.074
-225.698	-47.883	-0.401	0.193
-224.684	46.296	-0.103	0.095
-223.669	-181.513	0.218	0.004
-222.655	240.910	0.110	-0.182
-221.640	-166.304	-0.293	-0.012
-220.625	38.639	0.126	0.111
-219.611	-132.119	0.158	0.020
-218.596	-72.565	0.315	-0.115
-217.582	-6.887	-0.278	-0.187
-216.567	-200.000	-0.011	-0.167
-215.552	-158.360	-0.161	-0.009
-214.538	-172.359	0.164	-0.005
-213.523	-130.960	0.164	0.022
-212.509	6.903	0.123	-0.091
-211.494	800.000	0.123	0.349
-210.479	-113.480	0.115	-0.022
-209.465	37.706	0.112	-0.098
-208.450	800.000	-0.104	-0.399
-207.436	-83.567	0.527	0.167
-206.421	-33.643	0.192	-0.105
-205.406	37.231	-0.181	-0.159
-204.392	-200.000	0.040	0.255
-203.377	683.715	0.049	-0.126
-202.363	314.233	0.081	-0.152
-201.348	-67.894	-0.333	-0.129
-200.333	-63.046	-0.137	-0.056
-199.319	194.055	0.025	-0.038
-198.304	800.000	0.052	-0.189
-197.290	45.911	0.061	0.056
-196.275	71.655	0.232	-0.239
-195.260	-200.000	-0.009	-0.091
-194.246	-200.000	0.015	-0.105
-193.231	-143.866	-0.033	-0.003
-192.217	688.959	-0.041	0.107
-191.202	-200.000	0.039	-0.188
-190.187	378.192	0.189	-0.383
-189.173	71.642	-0.179	-0.184
-188.158	534.258	0.119	0.281
-187.144	-200.000	0.004	-0.173
-186.129	434.529	0.196	0.422
-185.114	800.000	0.064	0.228
-184.100	102.445	0.097	0.113
-183.085	211.386	-0.052	-0.081
-182.071	-91.603	-0.137	-0.039
-181.056	-22.578	0.180	0.108
-180.042	-200.000	-0.104	-0.523
-179.027	-77.932	0.261	-0.089
-178.012	191.101	0.073	0.109
-176.998	-169.930	-0.359	-0.013
-175.983	-147.617	-0.419	0.035
-174.969	-200.000	-0.022	-0.175
-173.954	28.955	0.141	0.118
-172.939	65.687	-0.208	0.208
-171.925	-200.000	0.006	0.095
-170.910	-119.276	0.499	0.086
-169.896	800.000	-0.021	0.061
-168.881	-200.000	-0.014	-0.171
-167.866	116.089	-0.244	-0.296
-166.852	-200.000	-0.046	0.254
-165.837	-95.423	-0.071	-0.019
-164.823	10.530	-0.121	0.091
-163.808	-200.000	0.009	0.281
-162.793	178.178	-0.081	-0.117
-161.779	369.357	-0.085	0.171
-160.764	-200.000	0.002	0.055
-159.750	-22.043	0.132	-0.079
-158.735	746.082	0.073	0.195
-157.720	716.442	0.077	0.201
-156.706	-200.000	0.019	-0.172
-155.691	69.533	0.111	-0.114
-154.677	-175.189	-0.225	0.006
-153.662	-124.468	0.214	-0.033
-152.647	156.084	-0.347	0.473
-151.633	778.026	-0.068	0.185
-150.618	-101.310	0.304	-0.073
-149.604	618.188	0.091	-0.225
-148.589	468.625	0.004	-0.008
-147.574	-146.394	0.224	0.019
-146.560	-200.000	0.024	-0.216
-145.545	-129.204	-0.453	-0.062
-144.531	-19.885	0.078	0.048
-143.516	-169.769	0.076	0.003
-142.502	-49.131	0.182	-0.086
-141.487	88.152	0.142	-0.156
-140.472	30.456	0.159	0.135
-139.458	433.596	0.094	0.201
-138.443	-200.000	0.012	-0.222
-137.429	214.532	-0.159	-0.249
-136.414	-200.000	-0.018	0.211
-135.399	-94.741	0.212	-0.057
-134.385	-159.741	-0.173	0.009
-133.370	800.000	-0.046	0.150
-132.356	-200.000	0.058	-0.315
-131.341	46.868	-0.112	-0.103
-130.326	194.612	-0.032	0.048
-129.312	-200.000	0.031	-0.135
-128.297	-195.453	0.293	0.002
-127.283	-112.979	0.094	-0.018
-126.268	-200.000	-0.019	0.117
-125.253	-200.000	0.000	0.204
-124.239	-168.643	0.385	0.014
-123.224	-200.000	-0.024	-0.187
-122.210	-162.287	0.348	0.017
