DTS Sentinel unit serial number:	SN413079Multiplexer serial number:	ORYXHardware model number:	OX4-SRSoftware version number:	ORYX F/W v4.00 Oryx Data Collector v3.7.2.0data status	okinstallation	princeton_trtdifferential loss correction	single-endedforward channel	channel 2reverse channel	N/Adate	2019/09/13time	23:15:34forward acquisition time	60.00reverse acquisition time	0.00gamma	496.2192k internal	0.2337k external	0.2337temperature offset calibration	1.0129default loss term (dB/km)	0.3790temperature slope calibration	1.0000multiplexer offset coefficient	1.0000multiplexer slope coefficient	1.0000fibre end	0.00T internal ref (°C)	27.06T ext. ref 1 (°C)	3.20T ext. ref 2 (°C)	20.97length (m)	temperature (°C)	Stokes	anti-Stokes-747.200	113.535	0.244	0.297
-746.185	628.770	-0.158	0.400
-745.171	-129.128	-0.087	-0.012
-744.156	87.150	0.165	0.183
-743.142	-200.000	0.050	-0.247
-742.127	-18.329	-0.220	0.138
-741.112	-24.132	-0.120	0.072
-740.098	-139.224	-0.405	0.044
-739.083	-39.390	0.178	-0.093
-738.069	405.641	0.052	0.110
-737.054	-200.000	-0.001	0.410
-736.039	90.717	-0.253	0.285
-735.025	-69.473	0.428	-0.165
-734.010	194.099	-0.281	-0.427
-732.996	80.389	-0.120	0.130
-731.981	-200.000	0.015	0.226
-730.966	747.088	-0.068	-0.184
-729.952	800.000	-0.120	-0.394
-728.937	-200.000	0.009	-0.069
-727.923	-23.158	-0.098	0.059
-726.908	2.953	-0.191	-0.139
-725.894	-200.000	0.021	-0.106
-724.879	-200.000	-0.059	-0.387
-723.864	57.856	0.164	-0.161
-722.850	-200.000	-0.048	-0.239
-721.835	57.254	-0.139	-0.136
-720.821	-153.509	0.202	-0.014
-719.806	83.258	0.059	-0.064
-718.791	-42.656	0.215	-0.110
-717.777	-75.400	0.387	0.138
-716.762	-119.431	0.168	0.029
-715.748	246.083	-0.088	-0.149
-714.733	188.783	-0.036	-0.054
-713.718	19.504	0.314	0.253
-712.704	-46.271	0.179	-0.088
-711.689	-155.348	-0.240	-0.016
-710.675	-128.349	-0.221	0.032
-709.660	-121.316	-0.222	-0.037
-708.645	200.036	0.048	0.075
-707.631	800.000	-0.005	-0.018
-706.616	163.935	0.185	0.262
-705.602	-200.000	-0.010	-0.149
-704.587	-18.423	-0.322	0.202
-703.572	-200.000	0.013	0.160
-702.558	-123.643	0.351	-0.056
-701.543	89.955	0.065	0.073
-700.529	-143.012	0.036	-0.003
-699.514	-4.018	-0.415	-0.288
-698.499	-133.054	0.286	0.036
-697.485	55.914	0.223	0.217
-696.470	-200.000	-0.018	-0.266
-695.456	-200.000	0.037	-0.312
-694.441	253.162	-0.081	0.139
-693.426	-36.479	0.305	-0.165
-692.412	-99.878	-0.396	0.099
-691.397	800.000	0.034	-0.110
-690.383	-200.000	0.006	0.387
-689.368	-200.000	-0.009	-0.082
-688.354	-200.000	0.038	0.263
-687.339	60.788	-0.210	0.209
-686.324	183.367	0.025	-0.037
-685.310	-200.000	-0.015	0.109
-684.295	88.101	-0.132	0.147
-683.281	179.873	-0.084	-0.123
-682.266	168.450	-0.040	0.057
-681.251	252.680	0.080	-0.136
-680.237	-137.781	0.075	-0.008
-679.222	-39.265	-0.105	-0.055
-678.208	-200.000	0.038	0.192
-677.193	349.703	-0.059	0.118
-676.178	-200.000	-0.024	-0.171
-675.164	135.165	0.186	0.242
-674.149	78.003	0.136	-0.145
-673.135	64.817	-0.248	0.250
-672.120	334.342	0.138	-0.267
-671.105	-34.790	-0.066	-0.036
-670.091	-42.513	0.331	-0.169
-669.076	269.534	0.140	-0.245
-668.062	800.000	-0.074	-0.290
-667.047	-11.630	-0.179	0.118
-666.032	800.000	0.108	-0.341
-665.018	-84.354	0.237	0.075
-664.003	137.433	0.119	0.156
-662.989	-110.223	0.173	0.036
-661.974	800.000	0.054	-0.157
-660.959	-138.512	0.144	-0.016
-659.945	281.540	-0.265	-0.475
-658.930	532.854	0.156	-0.369
-657.916	-200.000	-0.031	-0.171
-656.901	-200.000	0.009	-0.189
-655.886	136.212	-0.244	-0.318
-654.872	27.822	0.184	-0.155
-653.857	-103.848	-0.160	-0.037
-652.843	130.802	-0.008	0.010
-651.828	-89.748	0.191	-0.056
-650.814	-84.149	0.081	0.026
-649.799	-200.000	-0.022	-0.328
-648.784	-185.085	-0.327	0.005
-647.770	62.655	0.118	-0.118
-646.755	168.960	0.125	-0.179
-645.741	-67.352	0.168	0.066
-644.726	-132.336	-0.200	0.026
-643.711	-45.543	0.259	-0.128
-642.697	-83.707	0.308	0.098
-641.682	-42.940	0.121	-0.061
-640.668	71.996	-0.115	0.120
-639.653	-110.009	0.024	0.005
-638.638	-200.000	0.076	0.358
-637.624	-160.712	-0.329	0.017
-636.609	800.000	-0.023	0.064
-635.595	-107.174	0.234	0.052
-634.580	25.815	-0.197	0.164
-633.565	-80.444	0.054	0.018
-632.551	-73.782	-0.063	0.023
-631.536	748.848	0.115	-0.311
-630.522	133.551	-0.138	0.178
-629.507	-133.555	-0.107	0.013
-628.492	-152.828	-0.277	0.020
-627.478	-61.204	0.272	-0.115
-626.463	24.378	-0.063	-0.052
-625.449	-150.069	-0.117	-0.009
-624.434	-200.000	0.025	-0.114
-623.419	-36.988	-0.166	-0.089
-622.405	-8.584	-0.022	-0.014
-621.390	-16.564	0.143	0.090
-620.376	-81.997	0.212	-0.069
-619.361	287.372	-0.066	-0.120
-618.346	183.783	-0.171	0.252
-617.332	800.000	0.019	0.065
-616.317	187.979	-0.074	-0.110
-615.303	-148.432	0.184	-0.015
-614.288	-131.002	-0.025	-0.003
-613.273	-200.000	-0.004	0.343
-612.259	-200.000	0.053	-0.241
-611.244	-119.727	-0.213	-0.037
-610.230	132.434	-0.150	-0.193
-609.215	45.983	-0.411	-0.380
-608.201	111.764	-0.182	0.220
-607.186	97.251	0.159	0.183
-606.171	136.769	-0.077	-0.100
-605.157	-42.253	0.282	-0.144
-604.142	800.000	0.006	0.025
-603.128	-89.666	-0.164	0.048
-602.113	-48.227	0.112	0.054
-601.098	800.000	0.050	-0.174
-600.084	-111.395	-0.216	0.044
-599.069	83.475	-0.202	-0.220
-598.055	179.794	0.223	0.327
-597.040	60.129	0.158	-0.156
-596.025	-112.355	0.138	0.028
-595.011	-21.145	-0.047	-0.029
-593.996	800.000	-0.077	0.219
-592.982	423.592	-0.140	-0.301
-591.967	-111.108	-0.199	0.041
-590.952	299.217	-0.179	-0.330
-589.938	99.839	-0.143	-0.165
-588.923	-200.000	-0.016	0.113
-587.909	-176.574	0.257	-0.007
-586.894	-200.000	0.077	-0.379
-585.879	-45.646	0.205	0.101
-584.865	-132.937	0.039	0.005
-583.850	164.984	0.208	0.292
-582.836	639.174	0.057	0.144
-581.821	19.408	0.234	0.188
-580.806	-63.670	-0.082	-0.034
-579.792	-70.952	0.430	0.162
-578.777	77.792	0.059	-0.062
-577.763	25.056	0.133	0.110
-576.748	800.000	-0.019	-0.079
-575.733	192.525	-0.313	0.471
-574.719	550.661	0.112	-0.269
-573.704	-200.000	0.001	0.172
-572.690	-200.000	-0.052	0.257
-571.675	-92.110	0.074	-0.021
-570.661	-105.975	-0.123	0.028
-569.646	800.000	0.089	0.260
-568.631	32.694	0.191	-0.165
-567.617	-140.380	0.417	-0.043
-566.602	250.870	-0.171	-0.290
-565.588	-61.601	0.101	-0.042
-564.573	-166.689	0.095	0.004
-563.558	43.510	0.208	-0.190
-562.544	721.197	-0.171	-0.453
-561.529	56.586	-0.259	-0.251
-560.515	43.203	-0.189	-0.172
-559.500	-11.962	-0.195	0.127
-558.485	-200.000	0.018	0.122
-557.471	106.788	0.067	-0.079
-556.456	-200.000	-0.050	0.274
-555.442	-36.803	0.245	0.131
-554.427	7.887	-0.185	0.138
-553.412	213.987	-0.110	0.173
-552.398	39.335	-0.229	0.205
-551.383	800.000	-0.019	-0.064
-550.369	800.000	-0.132	0.435
-549.354	-180.800	0.106	-0.002
-548.339	171.996	-0.130	-0.186
-547.325	-116.365	0.116	-0.021
-546.310	63.235	-0.199	-0.199
-545.296	-126.540	-0.275	-0.041
-544.281	-200.000	-0.014	0.188
-543.266	-56.801	-0.272	-0.120
-542.252	534.408	0.088	-0.207
-541.237	-200.000	-0.026	0.187
-540.223	-65.961	-0.082	-0.033
-539.208	33.576	-0.246	-0.213
-538.193	-200.000	-0.001	-0.046
-537.179	-190.636	0.175	0.002
-536.164	-0.565	-0.079	0.056
-535.150	369.458	-0.181	0.364
-534.135	100.183	0.021	0.024
-533.121	-200.000	0.019	-0.427
-532.106	165.452	0.050	0.070
-531.091	-200.000	0.012	-0.131
-530.077	800.000	-0.023	-0.092
-529.062	-67.932	0.059	-0.023
-528.048	-83.906	-0.086	0.027
-527.033	-169.354	-0.192	-0.007
-526.018	800.000	-0.068	0.198
-525.004	-93.899	-0.047	0.013
-523.989	-104.603	-0.178	-0.041
-522.975	319.249	0.145	-0.273
-521.960	800.000	-0.053	-0.157
-520.945	-54.016	-0.108	-0.049
-519.931	-92.085	-0.157	-0.044
-518.916	-98.184	-0.145	-0.037
-517.902	-134.708	-0.111	0.013
-516.887	-56.077	-0.331	-0.147
-515.872	-59.090	-0.237	0.102
-514.858	-200.000	-0.002	-0.026
-513.843	82.719	-0.002	0.002
-512.829	-13.295	0.293	0.189
-511.814	-40.757	0.297	-0.153
-510.799	800.000	-0.048	0.162
-509.785	167.845	-0.106	0.149
-508.770	119.483	0.024	0.029
-507.756	-200.000	0.019	-0.151
-506.741	194.499	0.058	-0.088
-505.726	-56.972	0.168	-0.074
-504.712	-135.210	0.235	0.028
-503.697	800.000	-0.097	-0.274
-502.683	-118.712	0.280	-0.049
-501.668	-65.599	-0.085	0.034
-500.653	800.000	-0.013	-0.055
-499.639	-200.000	0.020	0.138
-498.624	141.553	0.183	0.242
-497.610	151.474	0.190	0.258
-496.595	-39.951	-0.118	0.061
-495.581	-167.426	-0.344	-0.014
-494.566	-200.000	-0.011	-0.210
-493.551	198.449	-0.061	-0.093
-492.537	800.000	0.055	0.217
-491.522	-119.895	-0.214	-0.037
-490.508	-200.000	0.037	0.225
-489.493	800.000	0.063	0.234
-488.478	231.582	-0.159	-0.259
-487.464	-11.150	0.016	-0.011
-486.449	-140.376	0.118	-0.012
-485.435	218.107	0.036	-0.057
-484.420	-200.000	-0.030	0.155
-483.405	510.711	0.083	0.192
-482.391	-118.877	0.096	0.017
-481.376	75.594	-0.165	-0.173
-480.362	376.003	0.148	0.299
-479.347	185.827	-0.151	0.223
-478.332	-122.714	-0.533	-0.086
-477.318	-51.628	-0.155	-0.072
-476.303	-130.393	0.165	0.022
-475.289	-41.247	-0.222	0.114
-474.274	-30.572	0.116	-0.065
-473.259	-75.626	0.130	-0.046
-472.245	548.526	-0.045	0.108
-471.230	800.000	0.057	-0.220
-470.216	-63.756	0.401	-0.163
-469.201	-6.856	0.168	0.113
-468.186	-113.423	-0.073	-0.014
-467.172	-200.000	0.020	0.164
-466.157	-49.414	0.294	0.139
-465.143	758.756	0.068	-0.183
-464.128	42.332	-0.330	-0.298
-463.113	-16.982	-0.246	0.154
-462.099	-169.367	0.222	0.008
-461.084	299.624	-0.073	-0.133
-460.070	370.434	-0.012	-0.025
-459.055	-93.292	-0.407	-0.112
-458.040	-105.576	-0.172	-0.039
-457.026	-200.000	-0.027	0.132
-456.011	-11.907	-0.256	0.167
-454.997	-32.686	-0.249	0.137
-453.982	-200.000	0.011	-0.092
-452.968	800.000	-0.042	-0.121
-451.953	288.729	0.243	-0.438
-450.938	-57.160	0.328	0.143
-449.924	54.496	-0.251	-0.240
-448.909	77.699	0.133	0.140
-447.895	179.805	0.162	-0.235
-446.880	-88.825	0.223	-0.066
-445.865	48.270	0.038	-0.035
-444.851	-75.491	0.284	-0.100
-443.836	-79.545	0.129	-0.043
-442.822	800.000	-0.080	0.264
-441.807	-62.562	-0.267	-0.110
-440.792	-116.528	-0.142	0.026
-439.778	-157.514	0.475	0.028
-438.763	242.629	0.079	-0.131
-437.749	-200.000	-0.004	0.024
-436.734	800.000	0.018	-0.053
-435.719	-147.745	-0.131	0.011
-434.705	-73.924	0.195	0.070
-433.690	112.114	0.242	0.290
-432.676	-136.786	-0.119	-0.014
-431.661	-45.354	-0.329	-0.162
-430.646	-200.000	0.035	-0.433
-429.632	-136.293	-0.330	0.038
-428.617	-168.027	-0.473	0.018
-427.603	800.000	0.108	0.378
-426.588	-200.000	-0.024	-0.135
-425.573	370.628	-0.090	-0.181
-424.559	4.112	0.067	0.049
-423.544	432.596	-0.141	0.303
-422.530	-150.312	-0.127	-0.010
-421.515	298.638	-0.044	0.080
-420.500	-135.961	0.134	-0.016
-419.486	16.278	0.199	0.155
-418.471	283.079	0.234	-0.417
-417.457	-200.000	-0.025	-0.228
-416.442	20.775	0.161	0.129
-415.428	-148.237	-0.360	-0.029
-414.413	712.052	0.102	-0.268
-413.398	-200.000	0.036	-0.193
-412.384	44.284	-0.049	0.045
-411.369	54.189	0.212	-0.202
-410.355	-86.040	0.201	0.062
-409.340	-54.619	-0.145	0.065
-408.325	334.129	0.258	0.495
-407.311	-65.894	0.156	-0.062
-406.296	763.324	-0.094	-0.252
-405.282	313.146	0.054	0.100
-404.267	-52.552	-0.226	-0.103
-403.252	218.905	0.111	-0.175
-402.238	-46.920	0.398	0.193
-401.223	-81.171	0.103	-0.034
-400.209	-200.000	0.021	0.277
-399.194	-95.452	-0.224	0.060
-398.179	-20.579	-0.163	0.099
-397.165	148.311	0.076	0.101
-396.150	231.546	-0.160	0.259
-395.136	152.147	-0.064	0.086
-394.121	-42.707	-0.323	-0.163
-393.106	-200.000	-0.035	-0.219
-392.092	800.000	-0.028	0.109
-391.077	-92.027	-0.481	0.135
-390.063	-190.062	-0.328	-0.004
-389.048	9.516	-0.190	0.142
-388.033	393.079	0.264	0.544
-387.019	15.693	0.217	0.169
-386.004	800.000	0.066	0.236
-384.990	12.030	-0.182	0.139
-383.975	-65.501	-0.131	-0.052
-382.960	288.357	-0.164	-0.294
-381.946	-89.700	-0.206	0.060
-380.931	36.282	-0.043	-0.037
-379.917	-195.412	0.494	-0.004
-378.902	-118.405	-0.456	-0.080
-377.888	-18.702	0.153	-0.094
-376.873	-8.499	0.183	-0.121
-375.858	-6.996	-0.141	-0.095
-374.844	115.837	-0.127	-0.154
-373.829	-21.781	-0.240	-0.145
-372.815	-20.161	0.075	-0.046
-371.800	-124.963	-0.219	0.033
-370.785	-200.000	-0.021	-0.170
-369.771	-100.883	-0.110	0.027
-368.756	-14.367	0.341	-0.217
-367.742	463.709	-0.152	0.336
-366.727	-136.362	-0.261	-0.030
-365.712	104.799	0.201	-0.234
-364.698	50.618	0.043	-0.040
-363.683	-103.336	0.166	-0.039
-362.669	-89.184	0.240	-0.070
-361.654	-124.526	-0.324	-0.050
-360.639	-200.000	-0.011	0.132
-359.625	-85.883	0.465	-0.142
-358.610	-75.629	0.265	-0.093
-357.596	-17.961	0.183	0.113
-356.581	28.853	0.101	0.084
-355.566	46.046	0.242	0.221
-354.552	-200.000	-0.031	0.171
-353.537	14.906	0.032	-0.024
-352.523	-53.885	0.284	-0.128
-351.508	21.940	0.107	0.086
-350.493	-200.000	0.019	-0.211
-349.479	205.046	-0.238	0.365
-348.464	-163.121	0.107	-0.005
-347.450	318.851	-0.107	0.200
-346.435	-125.050	-0.367	-0.056
-345.420	170.422	0.124	0.176
-344.406	146.662	0.191	0.254
-343.391	-132.223	0.274	-0.035
-342.377	-9.222	0.032	0.021
-341.362	-11.631	-0.314	0.204
-340.348	791.707	0.016	-0.043
-339.333	638.949	-0.037	-0.092
-338.318	10.293	-0.132	0.100
-337.304	-49.823	-0.129	0.060
-336.289	-200.000	-0.015	-0.079
-335.275	-38.298	0.094	0.049
-334.260	60.114	-0.074	0.072
-333.245	-200.000	0.017	0.106
-332.231	34.382	-0.265	-0.229
-331.216	60.013	0.354	-0.345
-330.202	701.057	0.077	-0.201
-329.187	-158.170	-0.201	-0.012
-328.172	-19.251	-0.292	-0.179
-327.158	-32.447	0.264	0.145
-326.143	-30.697	-0.149	-0.083
-325.129	103.548	0.043	0.050
-324.114	800.000	-0.023	-0.077
-323.099	-114.843	0.169	0.032
-322.085	-27.570	0.249	-0.143
-321.070	67.294	0.059	-0.060
-320.056	534.230	-0.110	-0.257
-319.041	-200.000	0.002	0.173
-318.026	-200.000	-0.067	0.337
-317.012	-25.277	-0.069	-0.040
-315.997	-164.958	0.240	-0.011
-314.983	155.245	0.202	-0.275
-313.968	-200.000	0.007	0.195
-312.953	-15.501	-0.139	0.088
-311.939	-66.174	-0.073	-0.029
-310.924	-106.068	-0.038	0.009
-309.910	99.308	0.157	0.180
-308.895	-22.674	0.330	0.197
-307.880	-60.902	-0.246	-0.103
-306.866	-157.864	-0.451	0.026
-305.851	-200.000	0.017	0.087
-304.837	2.626	0.032	-0.023
-303.822	-134.808	-0.362	0.043
-302.807	-68.343	0.100	0.038
-301.793	521.526	0.059	-0.136
-300.778	-153.028	-0.255	0.018
-299.764	-3.464	0.128	-0.088
-298.749	800.000	0.087	0.242
-297.735	-120.313	0.258	0.043
-296.720	137.607	0.123	0.159
-295.705	448.000	0.023	0.051
-294.691	-149.533	-0.223	0.017
-293.676	222.069	0.028	0.044
-292.662	800.000	0.056	-0.169
-291.647	-9.301	-0.204	0.135
-290.632	98.082	0.062	-0.071
-289.618	-77.128	0.171	0.059
-288.603	-17.446	-0.034	-0.021
-287.589	-73.298	-0.313	-0.113
-286.574	-173.159	0.405	0.012
-285.559	800.000	-0.057	0.243
-284.545	-128.343	0.338	0.047
-283.530	-112.042	0.197	-0.039
-282.516	-40.324	0.068	0.035
-281.501	-33.784	-0.172	-0.093
-280.486	-184.449	-0.244	-0.004
-279.472	-200.000	-0.042	-0.185
-278.457	-126.408	0.338	-0.050
-277.443	-200.000	-0.081	0.378
-276.428	194.540	-0.125	-0.187
-275.413	68.548	-0.058	-0.058
-274.399	-37.705	0.205	0.107
-273.384	-200.000	-0.031	-0.237
-272.370	-7.626	-0.112	-0.075
-271.355	126.827	-0.221	0.276
-270.340	-200.000	0.022	0.230
-269.326	800.000	0.022	0.083
-268.311	630.199	-0.117	0.291
-267.297	144.445	-0.130	0.171
-266.282	-82.906	0.091	-0.029
-265.267	155.966	-0.092	-0.125
-264.253	715.360	-0.143	0.373
-263.238	740.675	0.239	0.633
-262.224	71.461	-0.104	-0.106
-261.209	-114.090	0.374	-0.071
-260.195	-68.176	-0.269	0.103
-259.180	-111.711	0.203	-0.041
-258.165	-57.587	0.126	0.054
-257.151	57.507	0.331	0.319
-256.136	-200.000	-0.010	0.189
-255.122	800.000	0.034	-0.094
-254.107	-200.000	0.006	0.090
-253.092	-102.652	0.239	-0.056
-252.078	43.181	0.128	-0.115
-251.063	-76.489	-0.122	0.042
-250.049	800.000	0.098	-0.318
-249.034	479.129	-0.140	0.313
-248.019	-188.134	-0.205	-0.003
-247.005	800.000	-0.035	-0.118
-245.990	45.908	0.230	-0.209
-244.976	-161.688	-0.527	0.026
-243.961	113.568	0.114	-0.136
-242.946	800.000	-0.102	-0.289
-241.932	-118.146	0.280	-0.049
-240.917	158.180	-0.071	-0.097
-239.903	259.846	-0.090	-0.153
-238.888	46.446	0.041	-0.038
-237.873	-71.023	0.135	-0.050
-236.859	-200.000	0.038	-0.165
-235.844	-125.888	0.279	-0.041
-234.830	106.927	0.076	-0.089
-233.815	-92.626	0.111	0.031
-232.800	-99.428	0.213	0.053
-231.786	80.790	0.056	0.059
-230.771	-107.997	0.244	-0.052
-229.757	800.000	-0.013	0.041
-228.742	-183.025	-0.038	-0.001
-227.727	-200.000	0.008	-0.071
-226.713	-78.438	-0.164	0.055
-225.698	192.734	0.091	0.135
-224.684	-123.890	0.107	-0.017
-223.669	85.187	0.320	-0.345
-222.655	246.346	-0.119	0.198
-221.640	-200.000	-0.059	-0.371
-220.625	7.686	0.220	0.162
-219.611	361.712	0.078	-0.154
-218.596	-200.000	0.013	-0.219
-217.582	800.000	0.049	-0.136
-216.567	-200.000	-0.011	-0.223
-215.552	-130.497	0.159	0.021
-214.538	-6.000	0.177	-0.119
-213.523	73.651	-0.142	-0.146
-212.509	-140.536	-0.387	-0.040
-211.494	141.060	-0.140	-0.182
-210.479	343.511	0.067	-0.129
-209.465	800.000	-0.057	0.242
-208.450	-200.000	0.047	-0.254
-207.436	800.000	0.065	-0.202
-206.421	-200.000	0.009	-0.220
-205.406	-75.926	-0.104	-0.036
-204.392	370.201	0.055	-0.110
-203.377	87.500	-0.115	-0.125
-202.363	-182.664	-0.203	-0.004
-201.348	800.000	-0.037	0.129
-200.333	-61.648	0.107	0.044
-199.319	-200.000	-0.005	0.161
-198.304	800.000	-0.082	0.345
-197.290	-200.000	0.045	0.198
-196.275	-135.350	0.070	0.008
-195.260	800.000	0.095	0.362
-194.246	800.000	-0.115	-0.393
-193.231	-12.006	-0.107	-0.069
-192.217	800.000	0.067	-0.267
-191.202	576.521	-0.111	0.265
-190.187	-133.655	0.085	-0.010
-189.173	68.200	-0.077	0.077
-188.158	201.272	0.111	-0.168
-187.144	800.000	0.085	0.321
-186.129	-196.324	-0.318	-0.002
-185.114	-147.951	0.224	-0.018
-184.100	29.117	0.136	0.113
-183.085	800.000	-0.035	-0.143
-182.071	-200.000	0.043	0.319
-181.056	800.000	0.084	0.359
-180.042	-77.932	0.348	0.118
-179.027	-21.601	0.412	0.247
-178.012	-116.509	-0.126	-0.023
-176.998	-139.706	-0.248	-0.026
-175.983	-6.624	0.403	0.269
-174.969	201.267	-0.159	0.240
-173.954	-82.812	0.103	-0.033
-172.939	17.210	0.233	0.181
-171.925	174.781	-0.033	-0.046
-170.910	345.383	-0.063	-0.122
-169.896	-159.898	-0.142	-0.008
-168.881	6.505	-0.273	-0.199
-167.866	800.000	-0.027	0.110
-166.852	800.000	0.102	0.298
-165.837	-98.877	0.066	-0.017
-164.823	-200.000	0.058	-0.408
-163.808	-200.000	-0.047	-0.360
-162.793	-91.288	-0.317	0.089
-161.779	-157.260	0.054	-0.003
-160.764	-116.054	0.367	-0.067
-159.750	-97.439	0.255	-0.065
-158.735	37.560	-0.134	-0.117
-157.720	800.000	-0.070	0.231
-156.706	-200.000	-0.049	-0.220
-155.691	-168.010	0.582	-0.022
-154.677	-200.000	-0.011	0.069
-153.662	-200.000	0.003	-0.102
-152.647	-123.200	-0.224	-0.035
-151.633	-57.200	-0.442	-0.191
-150.618	86.847	0.059	-0.064
-149.604	-93.032	-0.197	0.054
-148.589	-10.980	0.310	0.200
-147.574	-55.005	-0.295	-0.130
-146.560	-200.000	-0.013	0.192
-145.545	-111.604	-0.254	0.051
-144.531	800.000	0.116	0.401
-143.516	96.086	0.131	0.147
-142.502	-4.986	-0.068	0.046
-141.487	-153.129	0.613	-0.042
-140.472	-59.704	0.054	0.023
-139.458	-18.507	0.320	-0.196
-138.443	100.515	0.226	0.257
-137.429	110.941	-0.137	0.162
-136.414	432.005	0.088	0.188
-135.399	159.323	0.223	0.304
-134.385	597.307	0.102	0.247
-133.370	672.370	-0.097	0.247
-132.356	127.329	0.150	0.187
-131.341	-13.315	0.148	-0.094
-130.326	24.756	0.164	0.133
-129.312	-20.282	0.227	0.137
-128.297	-200.000	-0.025	0.274
-127.283	800.000	-0.128	0.532
-126.268	7.570	-0.182	0.134
-125.253	-200.000	0.013	0.217
-124.239	-129.250	-0.225	0.031
-123.224	-74.737	0.174	0.061
-122.210	21.606	-0.067	0.054
