DTS Sentinel unit serial number:	SN413079Multiplexer serial number:	ORYXHardware model number:	OX4-SRSoftware version number:	ORYX F/W v4.00 Oryx Data Collector v3.7.2.0data status	okinstallation	princeton_trtdifferential loss correction	single-endedforward channel	channel 2reverse channel	N/Adate	2019/09/18time	19:11:34forward acquisition time	60.00reverse acquisition time	0.00gamma	496.2192k internal	0.2322k external	0.2322temperature offset calibration	1.0039default loss term (dB/km)	0.3790temperature slope calibration	1.0000multiplexer offset coefficient	1.0000multiplexer slope coefficient	1.0000fibre end	0.00T internal ref (°C)	34.83T ext. ref 1 (°C)	1.13T ext. ref 2 (°C)	24.15length (m)	temperature (°C)	Stokes	anti-Stokes-747.200	800.000	0.066	0.186
-746.185	0.352	-0.146	0.105
-745.171	115.910	-0.152	0.187
-744.156	-0.297	-0.188	0.135
-743.142	300.159	-0.081	-0.150
-742.127	800.000	-0.011	-0.032
-741.112	189.005	0.245	0.370
-740.098	-200.000	0.007	-0.215
-739.083	-157.480	-0.179	-0.011
-738.069	29.373	0.182	0.156
-737.054	-7.478	-0.177	-0.121
-736.039	-29.555	-0.428	0.247
-735.025	542.075	0.044	-0.107
-734.010	-32.637	0.028	-0.016
-732.996	-200.000	0.010	-0.053
-731.981	188.228	-0.170	0.256
-730.966	800.000	-0.051	-0.212
-729.952	58.597	-0.121	-0.120
-728.937	220.910	-0.137	-0.223
-727.923	302.049	0.114	-0.212
-726.908	17.841	0.251	-0.202
-725.894	576.843	0.068	-0.167
-724.879	486.445	-0.086	0.198
-723.864	-104.806	-0.232	-0.054
-722.850	194.256	0.074	-0.113
-721.835	-44.673	-0.403	-0.203
-720.821	-55.749	-0.147	0.066
-719.806	-110.014	-0.161	-0.034
-718.791	-139.350	-0.220	0.024
-717.777	25.199	-0.159	-0.133
-716.762	-91.121	-0.128	-0.037
-715.748	-99.263	0.229	-0.058
-714.733	-200.000	0.016	0.222
-713.718	630.176	-0.164	-0.417
-712.704	611.995	-0.089	0.225
-711.689	-81.734	-0.115	0.038
-710.675	425.342	0.125	0.273
-709.660	-200.000	0.006	0.076
-708.645	-19.568	0.254	0.159
-707.631	115.058	-0.086	0.106
-706.616	-200.000	0.011	-0.158
-705.602	-157.852	0.109	-0.007
-704.587	70.002	0.082	-0.085
-703.572	-200.000	0.005	0.054
-702.558	-61.608	-0.225	-0.095
-701.543	-44.282	0.052	-0.026
-700.529	251.803	-0.057	-0.098
-699.514	18.218	-0.065	0.052
-698.499	-4.564	-0.218	-0.152
-697.485	-75.542	0.203	-0.073
-696.470	306.152	0.013	-0.025
-695.456	-10.539	-0.172	-0.115
-694.441	38.369	-0.017	-0.015
-693.426	-71.204	-0.161	-0.061
-692.412	-78.596	-0.217	-0.075
-691.397	800.000	0.067	-0.296
-690.383	-43.273	0.141	0.072
-689.368	193.966	0.128	-0.195
-688.354	-13.034	0.060	0.039
-687.339	239.910	0.066	0.112
-686.324	-115.253	-0.285	-0.054
-685.310	-114.925	0.294	-0.056
-684.295	35.738	0.082	-0.073
-683.281	-114.558	-0.284	-0.055
-682.266	364.555	-0.033	-0.067
-681.251	-109.707	0.477	0.101
-680.237	-105.957	-0.229	0.052
-679.222	564.675	0.082	-0.199
-678.208	800.000	0.063	0.267
-677.193	-200.000	-0.052	0.248
-676.178	-76.545	0.090	0.032
-675.164	170.748	-0.090	0.130
-674.149	-186.893	0.158	0.002
-673.135	575.797	0.076	0.187
-672.120	-200.000	0.045	-0.207
-671.105	-200.000	-0.023	0.183
-670.091	-70.241	-0.144	-0.055
-669.076	-43.549	0.310	-0.158
-668.062	127.332	-0.261	-0.334
-667.047	800.000	-0.027	0.109
-666.032	-200.000	0.021	0.135
-665.018	245.701	-0.072	0.122
-664.003	400.334	-0.120	-0.252
-662.989	532.530	-0.092	-0.220
-661.974	51.791	0.161	-0.154
-660.959	800.000	0.048	-0.197
-659.945	305.424	0.012	-0.022
-658.930	49.224	0.119	-0.113
-657.916	-200.000	0.009	0.075
-656.901	129.909	-0.077	-0.099
-655.886	-67.662	-0.162	-0.064
-654.872	183.336	0.118	-0.176
-653.857	54.231	-0.112	0.109
-652.843	800.000	-0.034	-0.115
-651.828	-147.012	0.163	0.014
-650.814	-200.000	-0.010	-0.076
-649.799	-200.000	-0.015	0.576
-648.784	800.000	0.044	0.169
-647.770	-90.043	-0.100	0.029
-646.755	800.000	-0.068	-0.298
-645.741	69.662	-0.127	-0.132
-644.726	191.588	-0.182	-0.276
-643.711	-8.926	0.095	-0.064
-642.697	-0.707	-0.218	0.156
-641.682	546.207	0.099	0.239
-640.668	-200.000	-0.188	0.001
-639.653	220.403	-0.075	-0.122
-638.638	800.000	0.075	-0.242
-637.624	86.444	0.261	-0.289
-636.609	-129.779	0.344	-0.048
-635.595	84.073	-0.260	0.286
-634.580	205.008	-0.278	-0.434
-633.565	800.000	-0.087	-0.269
-632.551	151.651	-0.133	-0.182
-631.536	-200.000	-0.110	-0.621
-630.522	800.000	-0.078	-0.280
-629.507	800.000	-0.069	-0.278
-628.492	297.198	0.141	-0.260
-627.478	580.033	-0.092	-0.227
-626.463	221.954	0.188	0.303
-625.449	-28.115	-0.259	-0.151
-624.434	74.157	0.083	0.088
-623.419	-70.198	-0.030	-0.012
-622.405	32.875	-0.043	0.038
-621.390	-70.710	-0.233	0.088
-620.376	422.838	-0.070	0.151
-619.361	-200.000	0.176	-0.000
-618.346	-200.000	0.022	-0.332
-617.332	-200.000	0.263	-0.001
-616.317	143.485	-0.139	-0.186
-615.303	-16.778	0.135	-0.086
-614.288	23.998	0.262	0.217
-613.273	-105.269	0.263	0.060
-612.259	-111.703	-0.261	0.053
-611.244	101.447	-0.085	0.099
-610.230	56.580	0.087	-0.085
-609.215	-200.000	0.047	-0.334
-608.201	82.629	-0.086	-0.094
-607.186	-176.215	0.367	-0.010
-606.171	81.326	0.064	0.070
-605.157	15.577	-0.352	-0.278
-604.142	800.000	-0.022	0.083
-603.128	800.000	-0.031	0.134
-602.113	-200.000	0.040	-0.183
-601.098	647.612	-0.043	-0.110
-600.084	-18.799	0.220	-0.137
-599.069	172.697	-0.194	-0.281
-598.055	88.464	0.158	0.176
-597.040	-101.711	0.137	0.033
-596.025	-124.702	0.216	-0.034
-595.011	-88.132	-0.287	0.086
-593.996	-56.760	0.249	-0.111
-592.982	-24.454	-0.245	0.147
-591.967	800.000	0.052	0.145
-590.952	153.177	-0.197	-0.271
-589.938	-12.484	-0.138	0.091
-588.923	-33.785	-0.284	-0.157
-587.909	88.444	0.115	0.128
-586.894	-200.000	0.021	0.175
-585.879	-58.499	0.173	0.076
-584.865	-200.000	-0.013	-0.094
-583.850	24.820	0.230	-0.192
-582.836	800.000	0.023	0.093
-581.821	800.000	0.074	-0.296
-580.806	-200.000	-0.007	0.296
-579.792	193.864	-0.070	-0.106
-578.777	-41.211	0.384	-0.199
-577.763	518.232	-0.091	0.214
-576.748	58.014	-0.080	-0.079
-575.733	-47.261	0.193	-0.094
-574.719	201.583	-0.234	-0.361
-573.704	-200.000	0.015	-0.127
-572.690	-15.959	0.048	0.031
-571.675	-200.000	0.047	0.400
-570.661	800.000	0.070	0.238
-569.646	2.241	0.150	0.108
-568.631	-200.000	-0.030	0.215
-567.617	-200.000	0.018	0.258
-566.602	73.704	0.143	0.150
-565.588	-121.827	0.055	-0.009
-564.573	589.421	-0.106	-0.261
-563.558	-191.833	0.210	-0.002
-562.544	800.000	0.079	0.236
-561.529	221.633	-0.116	0.187
-560.515	217.960	-0.118	0.188
-559.500	-110.834	0.279	0.058
-558.485	-86.623	-0.036	-0.011
-557.471	23.733	-0.117	0.096
-556.456	-82.720	-0.177	0.058
-555.442	800.000	-0.058	0.225
-554.427	-96.533	-0.122	-0.032
-553.412	-200.000	-0.063	-0.416
-552.398	286.992	-0.183	0.332
-551.383	553.472	0.073	-0.175
-550.369	-88.857	-0.147	0.044
-549.354	8.767	-0.175	-0.132
-548.339	800.000	-0.081	0.294
-547.325	-200.000	0.044	0.213
-546.310	23.914	-0.186	-0.154
-545.296	406.886	-0.095	0.201
-544.281	-131.279	-0.284	0.038
-543.266	323.058	0.116	-0.222
-542.252	-200.000	0.026	-0.133
-541.237	180.662	0.075	-0.111
-540.223	-120.523	-0.337	-0.057
-539.208	-200.000	-0.002	0.081
-538.193	-17.173	0.103	0.065
-537.179	800.000	0.047	0.201
-536.164	249.427	0.094	-0.159
-535.150	172.677	0.022	0.031
-534.135	-51.202	0.108	0.051
-533.121	20.682	0.161	-0.131
-532.106	-108.309	-0.351	-0.076
-531.091	-171.186	-0.211	0.007
-530.077	-200.000	-0.010	0.080
-529.062	-200.000	0.015	0.097
-528.048	769.885	-0.099	0.271
-527.033	-200.000	0.085	-0.396
-526.018	-200.000	-0.024	0.137
-525.004	-49.820	-0.143	0.068
-523.989	55.975	0.113	0.110
-522.975	-55.432	-0.471	-0.211
-521.960	800.000	-0.042	0.152
-520.945	-8.660	-0.309	0.208
-519.931	-95.560	0.436	0.117
-518.916	164.055	-0.166	-0.234
-517.902	638.552	0.166	-0.423
-516.887	-113.989	0.297	-0.058
-515.872	-105.123	-0.228	-0.052
-514.858	-142.518	-0.156	0.015
-513.843	-55.092	-0.187	-0.084
-512.829	800.000	0.074	-0.280
-511.814	-101.886	-0.328	-0.079
-510.799	-70.925	0.202	-0.076
-509.785	-33.498	-0.144	-0.079
-508.770	-155.677	0.058	-0.004
-507.756	-16.394	-0.103	0.065
-506.741	-171.326	0.381	0.013
-505.726	-14.959	0.391	0.251
-504.712	23.543	-0.423	0.348
-503.697	44.652	-0.142	0.131
-502.683	-200.000	0.007	-0.242
-501.668	-35.601	-0.153	0.083
-500.653	800.000	0.016	-0.066
-499.639	237.806	-0.022	-0.036
-498.624	152.571	0.079	0.108
-497.610	-56.162	0.015	-0.007
-496.595	266.222	-0.171	0.298
-495.581	13.677	0.141	-0.109
-494.566	-200.000	-0.021	-0.129
-493.551	-164.037	0.585	-0.027
-492.537	-74.440	-0.053	0.019
-491.522	-152.204	0.244	-0.018
-490.508	-71.900	0.145	0.054
-489.493	1.884	0.135	-0.097
-488.478	279.287	0.067	0.119
-487.464	378.977	0.135	-0.275
-486.449	537.697	-0.091	0.216
-485.435	-200.000	-0.012	0.224
-484.420	-51.334	0.255	0.119
-483.405	-200.000	0.028	0.261
-482.391	-38.695	-0.145	0.076
-481.376	90.190	-0.149	0.166
-480.362	800.000	-0.043	0.135
-479.347	-124.591	0.515	-0.080
-478.332	-200.000	-0.051	0.424
-477.318	-89.262	-0.107	-0.031
-476.303	-200.000	-0.005	-0.162
-475.289	-32.159	-0.029	0.016
-474.274	-36.241	0.315	-0.170
-473.259	276.708	0.172	-0.305
-472.245	674.737	0.038	-0.098
-471.230	800.000	-0.067	-0.282
-470.216	800.000	0.052	-0.170
-469.201	476.077	0.169	0.381
-468.186	-200.000	-0.008	-0.310
-467.172	-130.420	-0.245	-0.033
-466.157	428.301	0.043	0.093
-465.143	590.200	0.088	-0.217
-464.128	-164.128	0.302	-0.014
-463.113	800.000	-0.113	0.363
-462.099	69.706	-0.140	0.145
-461.084	-200.000	-0.008	0.139
-460.070	118.400	-0.053	0.065
-459.055	265.267	0.129	-0.225
-458.040	-105.222	0.208	-0.047
-457.026	106.147	0.153	0.182
-456.011	-0.816	0.144	0.102
-454.997	-200.000	-0.025	-0.392
-453.982	-57.359	0.315	-0.138
-452.968	495.493	0.071	-0.163
-451.953	208.065	0.122	-0.190
-450.938	-200.000	0.026	0.260
-449.924	-93.617	-0.285	0.078
-448.909	109.393	-0.102	0.122
-447.895	-53.666	-0.180	-0.082
-446.880	140.410	0.089	-0.118
-445.865	-50.569	0.051	-0.024
-444.851	290.665	-0.063	-0.114
-443.836	-117.507	-0.128	-0.023
-442.822	-200.000	0.061	0.326
-441.807	-200.000	-0.014	0.202
-440.792	-74.206	0.288	-0.104
-439.778	800.000	-0.078	0.242
-438.763	-33.050	0.383	0.212
-437.749	80.040	0.085	0.092
-436.734	-174.586	0.229	0.007
-435.719	275.338	-0.162	0.287
-434.705	-33.863	-0.188	0.104
-433.690	-122.811	0.155	-0.025
-432.676	381.993	-0.057	-0.116
-431.661	-200.000	0.040	0.222
-430.646	-163.189	-0.102	-0.005
-429.632	-54.908	-0.254	-0.114
-428.617	800.000	-0.057	-0.215
-427.603	433.913	0.126	-0.273
-426.588	-112.571	0.136	0.027
-425.573	-65.811	-0.261	0.104
-424.559	681.281	-0.076	0.198
-423.544	800.000	-0.057	-0.183
-422.530	-122.914	0.133	-0.021
-421.515	347.062	0.061	-0.121
-420.500	410.524	-0.069	-0.145
-419.486	63.185	0.250	0.250
-418.471	311.488	-0.158	0.295
-417.457	-200.000	-0.001	-0.289
-416.442	-109.948	-0.193	-0.040
-415.428	-99.878	0.189	0.047
-414.413	-4.183	0.094	0.065
-413.398	-91.184	-0.430	-0.123
-412.384	-133.278	-0.243	-0.031
-411.369	800.000	-0.096	0.308
-410.355	64.930	0.227	0.228
-409.340	-200.000	-0.048	-0.392
-408.325	-157.867	0.289	-0.017
-407.311	-86.175	0.108	0.033
-406.296	-200.000	0.000	-0.139
-405.282	-95.777	-0.325	-0.087
-404.267	-200.000	0.017	0.139
-403.252	33.793	0.203	0.176
-402.238	-76.235	0.322	-0.113
-401.223	-68.151	0.471	0.183
-400.209	246.496	0.127	0.213
-399.194	538.848	-0.087	-0.205
-398.179	-62.327	-0.266	-0.110
-397.165	659.193	-0.022	0.056
-396.150	-23.660	-0.534	0.319
-395.136	-200.000	-0.018	-0.334
-394.121	-136.927	0.141	0.016
-393.106	80.093	-0.081	0.087
-392.092	-43.053	0.373	0.189
-391.077	263.686	0.182	0.316
-390.063	-77.403	0.233	-0.081
-389.048	-40.969	0.222	-0.114
-388.033	245.153	-0.154	-0.257
-387.019	204.974	0.223	0.344
-386.004	705.900	0.093	-0.244
-384.990	-29.000	-0.188	0.108
-383.975	-121.617	0.093	-0.015
-382.960	-49.498	-0.446	0.212
-381.946	519.360	0.085	0.199
-380.931	-107.414	0.166	-0.036
-379.917	110.929	-0.003	-0.004
-378.902	235.283	-0.118	-0.194
-377.888	181.540	0.101	-0.147
-376.873	-143.547	-0.250	0.024
-375.858	-65.442	0.438	-0.175
-374.844	36.518	0.138	-0.121
-373.829	-200.000	0.006	0.249
-372.815	253.373	0.062	0.105
-371.800	-97.439	0.091	0.024
-370.785	-51.060	-0.247	0.115
-369.771	-200.000	-0.006	0.098
-368.756	489.057	0.145	0.331
-367.742	37.172	0.144	-0.127
-366.727	269.627	-0.100	0.175
-365.712	800.000	-0.022	0.078
-364.698	-200.000	-0.027	0.157
-363.683	800.000	-0.048	-0.156
-362.669	-67.979	-0.154	0.060
-361.654	197.109	-0.329	-0.500
-360.639	91.837	-0.047	0.053
-359.625	-22.304	0.085	-0.051
-358.610	453.423	-0.051	0.111
-357.596	-87.130	-0.448	0.136
-356.581	9.686	-0.203	0.153
-355.566	45.316	-0.205	-0.188
-354.552	-124.307	0.323	-0.050
-353.537	635.826	0.025	-0.063
-352.523	-52.494	-0.164	-0.075
-351.508	-40.062	-0.227	-0.118
-350.493	155.087	-0.204	-0.280
-349.479	-156.791	-0.141	-0.009
-348.464	-40.854	-0.391	-0.201
-347.450	32.323	0.069	0.059
-346.435	-114.170	0.458	0.088
-345.420	-200.000	-0.075	0.334
-344.406	-112.099	0.365	-0.073
-343.391	104.790	-0.080	0.094
-342.377	-200.000	-0.004	-0.252
-341.362	-200.000	-0.025	-0.471
-340.348	-200.000	0.063	0.450
-339.333	-3.631	-0.094	-0.065
-338.318	66.829	-0.232	0.235
-337.304	49.335	-0.084	0.078
-336.289	-44.885	-0.177	0.088
-335.275	-142.914	-0.292	0.028
-334.260	-200.000	-0.023	-0.179
-333.245	27.321	-0.191	0.160
-332.231	40.673	0.137	-0.123
-331.216	188.086	0.122	-0.182
-330.202	717.720	-0.047	-0.123
-329.187	800.000	0.055	-0.173
-328.172	800.000	0.061	0.171
-327.158	364.613	0.035	-0.070
-326.143	470.007	-0.049	0.109
-325.129	-15.746	0.223	-0.141
-324.114	336.918	-0.111	-0.215
-323.099	498.166	-0.061	0.139
-322.085	800.000	-0.050	-0.203
-321.070	800.000	-0.057	0.178
-320.056	-115.604	0.161	0.030
-319.041	122.364	0.123	-0.153
-318.026	241.692	-0.252	0.419
-317.012	-47.094	0.215	-0.104
-315.997	-58.280	-0.082	0.035
-314.983	159.158	-0.148	0.204
-313.968	60.735	0.192	0.189
-312.953	-13.788	0.152	0.097
-311.939	13.259	-0.141	-0.109
-310.924	-102.663	0.213	0.050
-309.910	800.000	0.076	0.310
-308.895	-115.593	-0.212	0.040
-307.880	5.234	-0.159	-0.117
-306.866	-200.000	0.015	0.373
-305.851	800.000	-0.093	-0.344
-304.837	114.938	-0.185	-0.224
-303.822	12.195	0.347	0.265
-302.807	726.037	-0.117	0.309
-301.793	-119.110	0.149	0.026
-300.778	198.746	0.091	-0.139
-299.764	-94.370	0.234	-0.063
-298.749	46.827	0.121	-0.112
-297.735	-200.000	0.037	0.307
-296.720	-93.239	0.132	0.036
-295.705	26.737	-0.187	-0.155
-294.691	-98.482	0.067	0.017
-293.676	800.000	0.190	-0.548
-292.662	-200.000	-0.002	0.284
-291.647	-200.000	0.028	-0.262
-290.632	449.746	-0.041	-0.090
-289.618	51.273	0.220	0.207
-288.603	92.562	-0.182	0.204
-287.589	87.866	0.049	-0.054
-286.574	131.728	0.125	0.159
-285.559	-140.907	-0.147	0.015
-284.545	178.390	0.129	-0.187
-283.530	-200.000	-0.040	-0.218
-282.516	-133.212	-0.123	-0.015
-281.501	202.755	0.217	0.332
-280.486	-35.518	-0.418	-0.225
-279.472	172.136	0.194	0.276
-278.457	353.242	0.183	0.361
-277.443	-96.435	-0.303	-0.080
-276.428	166.630	0.046	-0.065
-275.413	800.000	-0.050	0.198
-274.399	235.241	0.113	0.186
-273.384	27.855	0.159	-0.133
-272.370	-28.022	-0.329	-0.189
-271.355	-39.472	-0.323	-0.168
-270.340	-200.000	0.062	0.446
-269.326	623.480	0.104	0.261
-268.311	-105.384	0.091	0.021
-267.297	-95.994	0.170	-0.045
-266.282	248.019	-0.131	-0.219
-265.267	-38.836	0.273	0.143
-264.253	-83.611	-0.303	0.096
-263.238	-21.200	0.160	0.097
-262.224	35.315	0.436	-0.379
-261.209	-38.350	-0.024	0.013
-260.195	57.662	0.018	0.017
-259.180	-22.271	0.053	0.032
-258.165	224.561	0.050	-0.081
-257.151	800.000	-0.070	-0.269
-256.136	73.608	0.161	0.167
-255.122	-200.000	-0.094	0.533
-254.107	-102.008	0.285	-0.068
-253.092	83.477	-0.076	-0.082
-252.078	-77.536	0.204	0.070
-251.063	20.304	0.059	-0.047
-250.049	-72.777	-0.237	-0.086
-249.034	114.063	-0.205	0.247
-248.019	-200.000	-0.007	0.085
-247.005	-182.710	-0.016	-0.000
-245.990	-28.189	-0.176	0.101
-244.976	170.267	-0.046	0.065
-243.961	-200.000	-0.052	0.229
-242.946	408.288	-0.081	-0.169
-241.932	469.845	-0.048	0.107
-240.917	63.745	0.237	-0.236
-239.903	140.988	-0.088	-0.115
-238.888	383.613	0.055	0.111
-237.873	46.849	0.227	0.209
-236.859	-89.974	0.086	-0.025
-235.844	-70.723	0.149	0.056
-234.830	16.171	0.179	-0.140
-233.815	-14.852	-0.241	0.153
-232.800	227.165	-0.194	-0.312
-231.786	-52.212	0.041	0.019
-230.771	102.715	-0.181	0.210
-229.757	248.660	-0.142	-0.238
-228.742	790.535	0.038	0.104
-227.727	-23.473	-0.117	-0.069
-226.713	-200.000	0.009	0.050
-225.698	91.046	-0.237	-0.264
-224.684	128.873	-0.062	-0.078
-223.669	-164.700	-0.233	-0.010
-222.655	-31.701	0.079	-0.044
-221.640	184.025	0.060	-0.088
-220.625	-159.851	-0.079	-0.004
-219.611	-145.512	0.009	-0.001
-218.596	-172.987	-0.316	0.010
-217.582	-200.000	-0.012	-0.086
-216.567	-35.059	-0.088	-0.047
-215.552	-102.944	0.049	0.012
-214.538	412.513	-0.084	-0.176
-213.523	170.807	0.173	0.245
-212.509	-200.000	0.011	0.054
-211.494	800.000	0.100	-0.308
-210.479	-200.000	-0.016	0.141
-209.465	-116.712	-0.206	-0.037
-208.450	-200.000	-0.049	-0.285
-207.436	-200.000	-0.044	0.383
-206.421	-200.000	0.005	0.108
-205.406	172.903	-0.119	0.169
-204.392	-200.000	0.013	0.343
-203.377	-107.716	-0.303	-0.065
-202.363	43.815	-0.079	-0.071
-201.348	8.004	0.214	0.159
-200.333	445.419	-0.085	-0.185
-199.319	-97.758	0.201	0.051
-198.304	-131.401	0.124	-0.016
-197.290	-43.306	-0.129	0.065
-196.275	800.000	0.041	-0.158
-195.260	-65.134	0.231	0.092
-194.246	800.000	0.053	0.208
-193.231	-34.716	0.363	-0.196
-192.217	800.000	-0.054	-0.158
-191.202	521.339	0.220	-0.510
-190.187	395.081	-0.036	-0.074
-189.173	221.402	-0.077	0.122
-188.158	-136.606	-0.262	0.030
-187.144	31.893	-0.204	-0.174
-186.129	-99.009	0.218	-0.055
-185.114	800.000	0.141	-0.428
-184.100	55.189	-0.213	-0.204
-183.085	12.229	-0.299	-0.227
-182.071	-128.039	-0.117	0.017
-181.056	144.858	-0.218	0.288
-180.042	-134.312	-0.182	0.022
-179.027	7.760	0.329	-0.243
-178.012	11.798	0.141	0.107
-176.998	34.416	0.072	0.062
-175.983	54.525	-0.028	0.026
-174.969	169.558	-0.187	-0.264
-173.954	-82.565	-0.115	-0.037
-172.939	-33.005	-0.054	0.030
-171.925	-200.000	-0.004	-0.215
-170.910	597.291	0.114	0.280
-169.896	-34.513	-0.199	-0.107
-168.881	-70.134	0.376	0.141
-167.866	-170.469	0.297	-0.010
-166.852	-58.481	0.220	-0.095
-165.837	-12.381	0.107	-0.069
-164.823	193.001	0.053	-0.079
-163.808	-23.376	-0.401	-0.238
-162.793	-200.000	-0.033	0.183
-161.779	-127.622	0.230	-0.033
-160.764	-89.144	0.422	0.123
-159.750	23.080	-0.140	0.113
-158.735	194.636	-0.080	0.120
-157.720	-200.000	-0.043	-0.288
-156.706	16.644	-0.094	0.073
-155.691	-200.000	0.013	0.087
-154.677	15.786	0.197	-0.153
-153.662	632.542	-0.105	0.262
-152.647	478.219	-0.073	0.163
-151.633	-22.807	-0.169	0.101
-150.618	800.000	-0.073	0.225
-149.604	800.000	-0.061	-0.231
-148.589	458.034	-0.049	-0.108
-147.574	-66.187	0.452	0.178
-146.560	800.000	-0.075	0.302
-145.545	-125.115	0.066	-0.010
-144.531	-200.000	-0.033	0.266
-143.516	20.108	-0.149	-0.119
-142.502	-70.990	-0.257	-0.096
-141.487	-200.000	0.000	0.076
-140.472	-39.039	-0.186	-0.096
-139.458	-200.000	-0.001	-0.123
-138.443	800.000	-0.121	0.332
-137.429	195.754	-0.026	0.039
-136.414	-3.917	-0.080	-0.054
-135.399	-200.000	0.036	-0.180
-134.385	-200.000	0.056	-0.355
-133.370	-160.525	0.057	0.003
-132.356	-144.817	-0.136	0.012
-131.341	361.343	0.147	-0.292
-130.326	626.125	0.101	-0.252
-129.312	80.865	0.149	0.159
-128.297	-200.000	-0.252	-0.001
-127.283	800.000	0.066	0.191
-126.268	-200.000	0.026	-0.155
-125.253	-169.408	-0.341	0.012
-124.239	-91.683	0.143	-0.040
-123.224	360.983	-0.103	-0.204
-122.210	346.021	-0.159	0.308
