DTS Sentinel unit serial number:	SN413079Multiplexer serial number:	ORYXHardware model number:	OX4-SRSoftware version number:	ORYX F/W v4.00 Oryx Data Collector v3.7.2.0data status	okinstallation	princeton_trtdifferential loss correction	single-endedforward channel	channel 2reverse channel	N/Adate	2019/09/17time	07:19:35forward acquisition time	60.00reverse acquisition time	0.00gamma	496.2192k internal	0.2334k external	0.2334temperature offset calibration	0.9971default loss term (dB/km)	0.3790temperature slope calibration	1.0000multiplexer offset coefficient	1.0000multiplexer slope coefficient	1.0000fibre end	0.00T internal ref (°C)	27.25T ext. ref 1 (°C)	0.13T ext. ref 2 (°C)	21.40length (m)	temperature (°C)	Stokes	anti-Stokes-747.200	-45.562	-0.465	0.231
-746.185	263.457	-0.032	0.055
-745.171	800.000	-0.032	-0.108
-744.156	64.217	-0.100	0.101
-743.142	-49.508	0.098	0.047
-742.127	87.973	0.136	-0.152
-741.112	76.304	0.098	0.104
-740.098	288.410	-0.065	0.118
-739.083	105.909	0.239	-0.284
-738.069	-200.000	0.013	-0.094
-737.054	481.986	0.052	-0.119
-736.039	-32.070	-0.280	-0.157
-735.025	800.000	0.046	0.175
-734.010	-200.000	0.017	-0.126
-732.996	-123.093	-0.132	0.021
-731.981	719.218	0.085	0.228
-730.966	800.000	0.031	0.123
-729.952	156.334	-0.155	-0.215
-728.937	-3.171	0.143	-0.100
-727.923	94.137	0.217	0.247
-726.908	163.810	0.102	0.145
-725.894	800.000	-0.124	-0.361
-724.879	-200.000	-0.015	-0.145
-723.864	-66.316	-0.091	-0.036
-722.850	146.421	0.103	-0.139
-721.835	-128.413	-0.333	-0.047
-720.821	91.301	0.063	-0.071
-719.806	-12.861	-0.322	-0.210
-718.791	-120.080	0.282	0.048
-717.777	543.313	-0.033	-0.078
-716.762	192.557	-0.160	0.243
-715.748	19.618	0.056	0.046
-714.733	-156.216	-0.478	0.030
-713.718	-200.000	0.025	0.280
-712.704	122.025	0.158	-0.199
-711.689	-17.863	-0.095	0.060
-710.675	792.800	-0.059	-0.163
-709.660	79.310	0.172	-0.185
-708.645	-81.993	0.169	0.055
-707.631	-200.000	-0.090	-0.439
-706.616	-72.564	-0.162	0.060
-705.602	14.902	0.266	-0.209
-704.587	-200.000	-0.060	-0.362
-703.572	30.928	-0.085	-0.073
-702.558	-95.458	0.177	-0.048
-701.543	349.277	-0.093	-0.183
-700.529	-38.076	0.291	-0.155
-699.514	18.306	-0.124	0.099
-698.499	-182.504	-0.188	-0.003
-697.485	173.437	-0.182	-0.263
-696.470	55.386	0.210	0.203
-695.456	34.633	-0.102	0.090
-694.441	87.075	0.077	-0.085
-693.426	-200.000	-0.011	0.179
-692.412	800.000	-0.092	0.296
-691.397	-109.860	-0.330	0.070
-690.383	-2.301	-0.322	0.226
-689.368	36.643	0.069	0.061
-688.354	-84.196	-0.051	0.016
-687.339	-43.780	0.108	-0.055
-686.324	176.482	0.120	0.175
-685.310	31.662	0.270	-0.233
-684.295	-12.455	-0.233	0.153
-683.281	641.121	0.040	0.103
-682.266	800.000	-0.059	0.189
-681.251	26.151	-0.146	-0.123
-680.237	-200.000	0.032	-0.261
-679.222	800.000	-0.154	-0.440
-678.208	-102.010	-0.264	0.064
-677.193	-179.089	-0.073	-0.002
-676.178	-191.377	-0.151	-0.002
-675.164	800.000	-0.050	0.182
-674.149	-64.387	-0.140	-0.057
-673.135	293.939	0.051	-0.094
-672.120	472.423	0.052	-0.117
-671.105	59.738	0.092	-0.091
-670.091	-58.491	-0.240	-0.104
-669.076	423.122	0.120	-0.257
-668.062	11.110	-0.148	-0.114
-667.047	330.817	-0.071	0.137
-666.032	800.000	-0.073	0.298
-665.018	-109.907	0.170	-0.036
-664.003	72.096	0.064	0.067
-662.989	-17.453	-0.065	0.041
-661.974	42.448	0.136	-0.124
-660.959	-124.880	-0.183	-0.028
-659.945	164.793	-0.192	-0.271
-658.930	-200.000	0.019	0.133
-657.916	800.000	0.026	-0.086
-656.901	-200.000	0.020	-0.140
-655.886	192.877	-0.005	0.007
-654.872	2.501	-0.151	0.109
-653.857	800.000	0.061	-0.180
-652.843	108.851	-0.136	-0.163
-651.828	-200.000	0.020	0.090
-650.814	187.183	-0.094	-0.141
-649.799	-22.801	-0.349	0.211
-648.784	-63.943	-0.119	-0.049
-647.770	-16.226	0.290	0.184
-646.755	257.792	-0.117	0.202
-645.741	543.098	-0.179	0.427
-644.726	27.529	0.245	0.207
-643.711	-200.000	-0.084	-0.373
-642.697	-200.000	-0.018	-0.117
-641.682	391.623	0.051	-0.105
-640.668	-22.890	-0.313	-0.189
-639.653	-119.453	0.118	0.020
-638.638	-76.637	-0.319	-0.112
-637.624	200.959	0.144	-0.222
-636.609	-200.000	0.029	-0.181
-635.595	1.698	-0.126	0.091
-634.580	303.982	-0.075	-0.139
-633.565	800.000	0.043	0.157
-632.551	57.111	0.073	-0.071
-631.536	-200.000	0.040	-0.506
-630.522	282.115	0.115	0.206
-629.507	-200.000	0.016	-0.120
-628.492	800.000	-0.053	-0.174
-627.478	-183.129	0.081	0.001
-626.463	424.336	0.062	-0.133
-625.449	45.421	0.328	-0.303
-624.434	219.454	0.044	-0.071
-623.419	-1.732	-0.069	-0.049
-622.405	-200.000	-0.012	-0.164
-621.390	-89.913	-0.279	-0.082
-620.376	-84.970	-0.256	-0.080
-619.361	800.000	-0.066	0.241
-618.346	184.868	0.079	0.117
-617.332	800.000	0.040	-0.133
-616.317	-46.075	-0.201	-0.099
-615.303	329.890	0.104	-0.200
-614.288	84.830	0.177	-0.194
-613.273	-64.319	-0.157	-0.064
-612.259	16.203	0.109	-0.086
-611.244	800.000	0.064	0.179
-610.230	85.082	-0.131	-0.144
-609.215	229.139	-0.225	0.367
-608.201	-153.662	0.250	0.017
-607.186	125.215	0.131	0.165
-606.171	-20.400	0.228	0.140
-605.157	-182.909	0.345	0.006
-604.142	94.079	-0.186	-0.211
-603.128	-67.063	0.391	-0.154
-602.113	146.114	-0.115	0.154
-601.098	-97.006	0.140	-0.037
-600.084	297.544	-0.069	0.126
-599.069	-117.501	0.151	-0.027
-598.055	101.119	0.090	-0.105
-597.040	800.000	-0.085	0.244
-596.025	-200.000	0.018	-0.220
-595.011	142.356	0.303	-0.402
-593.996	-13.699	-0.214	-0.138
-592.982	193.240	-0.072	-0.108
-591.967	27.936	-0.130	0.109
-590.952	-200.000	-0.003	0.092
-589.938	-131.144	-0.030	-0.004
-588.923	-89.276	0.133	-0.039
-587.909	22.028	-0.229	-0.187
-586.894	-200.000	0.004	-0.045
-585.879	-97.657	0.574	-0.148
-584.865	-200.000	0.048	-0.295
-583.850	-90.796	0.220	-0.063
-582.836	-54.250	-0.397	-0.180
-581.821	800.000	-0.090	-0.354
-580.806	-200.000	-0.035	-0.368
-579.792	595.066	0.126	0.311
-578.777	-85.987	-0.206	-0.064
-577.763	-68.281	0.127	-0.049
-576.748	-14.395	0.424	-0.273
-575.733	271.956	-0.227	0.399
-574.719	80.887	-0.104	0.112
-573.704	800.000	0.092	0.271
-572.690	47.170	-0.160	-0.149
-571.675	800.000	-0.065	0.212
-570.661	-142.852	-0.187	0.018
-569.646	-49.379	0.244	0.116
-568.631	-200.000	-0.014	-0.136
-567.617	756.247	0.050	0.134
-566.602	-83.747	-0.096	0.031
-565.588	-59.564	-0.294	-0.126
-564.573	718.646	0.098	-0.260
-563.558	217.654	0.039	-0.063
-562.544	30.871	-0.095	0.081
-561.529	411.381	0.104	-0.219
-560.515	-81.577	-0.225	-0.074
-559.500	-110.710	-0.346	-0.071
-558.485	240.275	-0.068	-0.114
-557.471	57.228	-0.169	0.164
-556.456	152.349	-0.041	0.056
-555.442	-200.000	-0.097	-0.489
-554.427	-120.667	-0.087	-0.015
-553.412	-200.000	0.034	0.356
-552.398	-170.334	0.176	0.006
-551.383	-145.166	-0.359	-0.033
-550.369	-200.000	-0.004	-0.519
-549.354	-200.000	0.009	0.078
-548.339	-58.122	-0.667	0.290
-547.325	291.154	-0.100	0.181
-546.310	5.280	-0.136	0.100
-545.296	73.802	0.063	-0.065
-544.281	-90.920	0.155	0.044
-543.266	-121.824	0.259	-0.043
-542.252	620.933	-0.011	0.027
-541.237	-85.307	-0.332	0.103
-540.223	-3.958	0.075	0.052
-539.208	-149.230	-0.372	0.030
-538.193	800.000	-0.047	-0.137
-537.179	688.455	-0.099	-0.258
-536.164	-20.544	-0.392	0.240
-535.150	654.100	0.054	0.138
-534.135	-29.548	-0.298	-0.170
-533.121	-189.868	-0.301	0.003
-532.106	-11.568	-0.124	0.081
-531.091	-82.009	0.235	-0.076
-530.077	-200.000	0.072	-0.390
-529.062	35.180	0.214	0.187
-528.048	293.483	-0.125	0.228
-527.033	-200.000	0.365	-0.000
-526.018	179.449	-0.188	-0.274
-525.004	-181.173	-0.390	-0.008
-523.989	-18.161	-0.319	0.199
-522.975	-200.000	0.011	-0.325
-521.960	128.116	0.189	0.240
-520.945	415.828	0.065	-0.137
-519.931	443.572	0.117	0.255
-518.916	800.000	0.036	0.110
-517.902	-10.005	-0.164	0.109
-516.887	-133.488	-0.054	0.007
-515.872	300.712	0.184	-0.339
-514.858	113.976	-0.191	-0.231
-513.843	-200.000	0.019	0.313
-512.829	-200.000	0.016	0.089
-511.814	-43.939	0.241	-0.121
-510.799	122.842	-0.197	0.246
-509.785	374.914	0.066	-0.135
-508.770	14.906	0.285	0.222
-507.756	-184.899	0.088	-0.001
-506.741	-127.289	0.396	-0.058
-505.726	-164.712	-0.312	0.014
-504.712	678.366	0.058	0.150
-503.697	-200.000	-0.009	0.192
-502.683	33.425	-0.314	0.272
-501.668	-200.000	0.020	-0.351
-500.653	-172.615	0.165	0.005
-499.639	161.248	-0.085	-0.119
-498.624	18.239	0.102	-0.081
-497.610	-54.481	0.352	0.159
-496.595	212.669	0.075	-0.118
-495.581	800.000	-0.039	0.156
-494.566	-71.923	0.071	-0.026
-493.551	162.085	0.034	-0.048
-492.537	-10.088	-0.381	0.252
-491.522	8.092	0.131	0.098
-490.508	390.578	-0.140	-0.290
-489.493	-46.390	0.019	0.009
-488.478	-200.000	0.036	-0.177
-487.464	-89.426	0.227	0.066
-486.449	-77.418	0.015	0.005
-485.435	-78.617	-0.081	0.028
-484.420	-170.819	-0.318	-0.011
-483.405	615.680	-0.073	0.183
-482.391	197.856	0.136	-0.206
-481.376	-200.000	0.084	0.392
-480.362	800.000	0.043	-0.160
-479.347	112.477	0.115	-0.139
-478.332	99.654	0.120	-0.138
-477.318	-159.701	0.225	-0.012
-476.303	-200.000	0.015	0.102
-475.289	-128.522	0.088	0.012
-474.274	75.078	-0.049	0.051
-473.259	-200.000	0.004	-0.114
-472.245	364.106	0.058	0.115
-471.230	-111.890	0.145	0.029
-470.216	-200.000	0.004	0.039
-469.201	-200.000	0.011	-0.111
-468.186	-5.145	0.004	-0.003
-467.172	-200.000	0.076	0.400
-466.157	-46.797	0.252	0.123
-465.143	688.762	-0.022	-0.057
-464.128	96.090	-0.082	0.093
-463.113	-200.000	0.036	0.360
-462.099	113.775	-0.202	0.245
-461.084	-148.796	0.198	-0.016
-460.070	-157.423	0.141	0.008
-459.055	-103.396	-0.332	0.078
-458.040	-5.246	0.179	0.122
-457.026	62.544	0.224	0.223
-456.011	-67.430	0.394	0.154
-454.997	800.000	0.095	-0.377
-453.982	276.951	0.049	0.086
-452.968	78.972	0.201	0.214
-451.953	-65.845	0.097	-0.038
-450.938	62.648	-0.092	0.091
-449.924	-35.459	0.036	-0.019
-448.909	-103.218	-0.057	0.013
-447.895	-92.157	0.190	0.053
-446.880	26.293	0.138	-0.114
-445.865	-200.000	0.027	-0.190
-444.851	72.897	-0.130	0.135
-443.836	235.464	-0.067	0.110
-442.822	-200.000	0.003	-0.026
-441.807	-23.813	-0.277	0.165
-440.792	60.575	0.279	0.275
-439.778	110.016	0.116	-0.138
-438.763	229.661	-0.128	-0.208
-437.749	43.483	0.113	0.102
-436.734	-200.000	0.036	0.226
-435.719	-130.168	-0.295	0.040
-434.705	452.693	-0.069	-0.151
-433.690	-107.941	0.303	-0.065
-432.676	-200.000	0.024	0.258
-431.661	643.359	-0.095	-0.240
-430.646	-85.330	-0.391	0.121
-429.632	-200.000	-0.008	0.238
-428.617	-117.525	0.148	-0.027
-427.603	-106.045	-0.094	0.021
-426.588	800.000	0.031	0.127
-425.573	-200.000	0.007	0.439
-424.559	-62.534	0.253	-0.104
-423.544	-23.480	-0.137	0.081
-422.530	35.703	-0.134	-0.117
-421.515	-9.239	-0.364	0.241
-420.500	-200.000	0.071	0.363
-419.486	669.037	0.026	-0.066
-418.471	800.000	0.054	-0.222
-417.457	-29.794	-0.054	-0.031
-416.442	203.836	0.107	-0.165
-415.428	-97.491	-0.082	-0.021
-414.413	-87.556	-0.188	-0.056
-413.398	424.487	-0.091	0.195
-412.384	568.835	0.064	0.154
-411.369	-106.286	0.238	0.053
-410.355	270.336	-0.092	-0.160
-409.340	800.000	-0.060	-0.244
-408.325	107.217	0.176	-0.207
-407.311	182.051	0.295	0.431
-406.296	-56.934	0.168	0.074
-405.282	-46.344	0.198	-0.097
-404.267	-200.000	-0.032	0.349
-403.252	43.117	0.153	-0.138
-402.238	-131.506	0.112	-0.015
-401.223	47.619	-0.172	0.159
-400.209	405.910	-0.138	0.289
-399.194	-117.529	0.066	0.012
-398.179	9.275	-0.218	0.164
-397.165	-200.000	0.000	-0.072
-396.150	55.523	0.214	-0.205
-395.136	-4.808	0.081	0.055
-394.121	-200.000	0.014	0.104
-393.106	475.493	0.144	0.321
-392.092	-64.308	-0.270	0.109
-391.077	-158.774	0.016	-0.001
-390.063	98.015	0.069	0.079
-389.048	121.855	0.188	-0.232
-388.033	-42.990	-0.181	-0.091
-387.019	-200.000	-0.012	-0.545
-386.004	-9.380	-0.259	0.172
-384.990	-135.519	0.222	0.026
-383.975	174.960	0.302	0.434
-382.960	-51.928	0.205	0.094
-381.946	-103.488	-0.202	-0.047
-380.931	19.581	-0.027	0.022
-379.917	33.753	0.124	-0.107
-378.902	-120.057	-0.271	0.046
-377.888	-200.000	0.011	0.073
-376.873	-200.000	0.004	0.102
-375.858	-58.722	-0.084	0.036
-374.844	-44.128	-0.181	-0.090
-373.829	73.783	-0.110	-0.115
-372.815	4.173	-0.268	-0.194
-371.800	169.246	0.142	-0.201
-370.785	-49.485	0.145	-0.068
-369.771	-200.000	-0.039	0.320
-368.756	202.018	0.180	0.275
-367.742	-200.000	-0.028	-0.145
-366.727	-78.263	-0.107	0.036
-365.712	43.253	-0.097	-0.087
-364.698	-132.870	-0.351	0.044
-363.683	507.871	-0.036	-0.083
-362.669	-95.549	-0.182	-0.048
-361.654	127.771	0.204	0.257
-360.639	-125.301	-0.204	-0.031
-359.625	-200.000	-0.048	-0.222
-358.610	-134.558	0.332	-0.040
-357.596	247.095	0.069	-0.116
-356.581	-9.555	-0.475	0.314
-355.566	-200.000	0.006	0.217
-354.552	-200.000	0.030	-0.175
-353.537	800.000	-0.045	-0.142
-352.523	-69.927	0.416	-0.157
-351.508	-144.582	-0.444	0.041
-350.493	-200.000	0.030	0.155
-349.479	114.776	0.072	0.087
-348.464	525.315	0.097	-0.225
-347.450	800.000	-0.023	0.086
-346.435	186.985	-0.036	0.053
-345.420	189.038	-0.035	-0.052
-344.406	-200.000	0.008	-0.193
-343.391	34.239	-0.062	0.053
-342.377	-50.113	-0.449	0.210
-341.362	344.311	-0.082	0.160
-340.348	50.621	0.191	0.178
-339.333	140.310	0.105	-0.137
-338.318	-200.000	0.030	-0.264
-337.304	-13.600	-0.017	0.011
-336.289	-140.990	-0.336	0.034
-335.275	178.750	0.209	0.303
-334.260	-123.826	0.130	-0.020
-333.245	-73.000	-0.204	-0.074
-332.231	-69.097	0.257	-0.098
-331.216	671.846	0.094	-0.241
-330.202	-191.086	0.302	0.003
-329.187	77.909	0.018	0.019
-328.172	-118.159	0.285	0.050
-327.158	-5.093	-0.448	-0.305
-326.143	-18.232	-0.145	0.090
-325.129	149.927	-0.147	0.197
-324.114	39.855	-0.075	0.067
-323.099	183.223	-0.148	0.216
-322.085	-200.000	0.002	-0.104
-321.070	-51.163	0.248	0.115
-320.056	800.000	0.105	-0.322
-319.041	25.884	-0.106	0.088
-318.026	326.647	0.071	-0.134
-317.012	-200.000	-0.016	-0.282
-315.997	-92.645	0.199	-0.055
-314.983	800.000	0.042	0.149
-313.968	-195.408	-0.205	-0.002
-312.953	286.815	0.078	0.139
-311.939	-46.547	0.102	0.050
-310.924	-200.000	0.000	0.213
-309.910	280.882	0.114	0.201
-308.895	85.527	0.178	0.193
-307.880	-72.627	0.104	-0.038
-306.866	-54.319	0.171	0.076
-305.851	134.667	-0.161	-0.206
-304.837	-6.768	-0.077	0.052
-303.822	-200.000	-0.012	0.101
-302.807	-60.469	-0.200	-0.084
-301.793	237.200	0.141	0.231
-300.778	121.544	0.198	0.244
-299.764	-53.338	-0.044	-0.020
-298.749	-200.000	-0.010	0.064
-297.735	-111.929	-0.240	0.048
-296.720	-77.182	-0.205	0.071
-295.705	332.546	-0.127	0.241
-294.691	-161.535	0.414	0.021
-293.676	95.457	0.151	-0.170
-292.662	55.596	-0.158	-0.151
-291.647	32.202	-0.064	0.055
-290.632	246.008	-0.120	-0.200
-289.618	-80.801	-0.112	0.037
-288.603	-72.801	0.115	0.042
-287.589	226.240	0.243	0.390
-286.574	42.781	-0.148	0.133
-285.559	-192.854	0.164	0.001
-284.545	-128.136	0.305	-0.043
-283.530	6.770	-0.212	0.156
-282.516	-45.637	0.350	0.171
-281.501	-92.173	0.118	-0.033
-280.486	-200.000	0.004	-0.041
-279.472	-161.166	0.262	0.013
-278.457	-200.000	0.030	0.234
-277.443	800.000	0.066	-0.214
-276.428	-200.000	0.017	0.221
-275.413	546.526	-0.067	-0.158
-274.399	-200.000	0.030	0.287
-273.384	-200.000	-0.002	0.107
-272.370	-102.099	-0.412	-0.098
-271.355	800.000	0.094	-0.285
-270.340	-114.552	0.350	-0.066
-269.326	50.752	-0.111	0.103
-268.311	800.000	0.094	-0.298
-267.297	630.330	-0.066	-0.166
-266.282	-105.496	0.562	-0.126
-265.267	-26.050	0.225	0.130
-264.253	-79.455	-0.112	-0.037
-263.238	368.517	-0.205	-0.409
-262.224	-200.000	-0.139	-0.000
-261.209	-200.000	0.059	-0.263
-260.195	-150.592	-0.078	0.006
-259.180	-120.350	-0.186	-0.031
-258.165	50.712	-0.115	-0.107
-257.151	246.523	-0.134	0.223
-256.136	-43.970	0.229	-0.114
-255.122	-150.568	0.252	-0.019
-254.107	-51.796	0.344	0.158
-253.092	-200.000	0.041	-0.413
-252.078	88.415	0.285	-0.312
-251.063	247.846	0.227	0.379
-250.049	-91.268	-0.392	0.111
-249.034	-200.000	0.089	-0.496
-248.019	-164.004	0.148	0.007
-247.005	195.677	-0.152	-0.228
-245.990	27.356	-0.144	0.120
-244.976	352.677	0.113	0.222
-243.961	44.100	0.186	-0.168
-242.946	264.558	-0.159	-0.272
-241.932	-72.910	0.097	0.035
-240.917	-89.892	0.220	-0.063
-239.903	-187.854	-0.085	-0.001
-238.888	800.000	-0.074	-0.255
-237.873	-95.446	-0.295	-0.078
-236.859	253.341	-0.180	-0.302
-235.844	-200.000	0.001	-0.179
-234.830	-145.266	0.108	0.010
-233.815	800.000	0.162	-0.473
-232.800	71.127	-0.196	-0.200
-231.786	-200.000	-0.001	-0.099
-230.771	754.074	0.071	0.190
-229.757	4.936	0.174	-0.126
-228.742	-54.701	0.258	-0.115
-227.727	-200.000	-0.011	-0.570
-226.713	-200.000	0.008	-0.129
-225.698	-200.000	-0.059	0.322
-224.684	-200.000	0.009	0.055
-223.669	-63.404	0.056	-0.023
-222.655	-200.000	0.006	0.192
-221.640	429.009	-0.024	0.052
-220.625	180.366	-0.159	-0.229
-219.611	-200.000	-0.015	-0.105
-218.596	765.139	-0.014	0.037
-217.582	303.940	-0.164	-0.299
-216.567	-184.427	-0.396	0.006
-215.552	-45.298	-0.164	-0.080
-214.538	-200.000	0.022	0.185
-213.523	267.474	-0.236	-0.407
-212.509	86.022	-0.035	0.038
-211.494	49.995	-0.160	0.149
-210.479	800.000	0.058	0.214
-209.465	-132.641	0.124	0.016
-208.450	38.701	-0.273	-0.240
-207.436	-195.030	0.210	0.002
-206.421	127.358	0.170	0.213
-205.406	-57.871	-0.149	0.064
-204.392	-95.490	-0.287	-0.076
-203.377	-169.973	0.158	-0.006
-202.363	800.000	-0.059	0.160
-201.348	86.671	0.084	-0.091
-200.333	-11.578	0.206	-0.134
-199.319	65.906	0.095	0.094
-198.304	-87.639	-0.168	0.050
-197.290	800.000	0.056	0.184
-196.275	-200.000	-0.015	0.287
-195.260	128.013	-0.157	0.196
-194.246	-34.452	-0.065	-0.035
-193.231	373.740	-0.119	0.237
-192.217	512.418	-0.103	0.237
-191.202	-63.185	-0.067	0.027
-190.187	54.309	0.265	-0.251
-189.173	-200.000	0.072	-0.479
-188.158	-20.277	-0.098	0.059
-187.144	-63.146	0.286	-0.116
-186.129	-34.657	0.147	-0.079
-185.114	-63.485	-0.354	0.143
-184.100	646.782	0.058	-0.146
-183.085	-76.591	-0.026	0.009
-182.071	159.425	-0.268	0.367
-181.056	-17.440	-0.206	-0.127
-180.042	-66.452	0.114	0.044
-179.027	709.965	-0.058	-0.151
-178.012	-68.144	-0.349	0.134
-176.998	-123.365	-0.309	0.048
-175.983	-200.000	-0.043	-0.215
-174.969	800.000	-0.091	0.254
-173.954	-120.517	0.512	-0.085
-172.939	64.844	-0.303	-0.301
-171.925	526.517	0.109	0.253
-170.910	-99.707	0.260	0.064
-169.896	31.606	0.291	0.246
-168.881	68.682	-0.372	0.376
-167.866	-64.465	-0.206	0.082
-166.852	-200.000	0.006	0.156
-165.837	87.722	-0.248	0.270
-164.823	407.205	0.096	0.200
-163.808	-139.948	0.123	-0.013
-162.793	38.106	0.226	0.197
-161.779	-200.000	-0.051	0.239
-160.764	186.841	-0.086	0.125
-159.750	-90.594	0.162	0.046
-158.735	-200.000	0.008	-0.536
-157.720	-135.700	0.125	-0.015
-156.706	330.958	0.130	-0.246
-155.691	-36.805	0.271	-0.143
-154.677	-89.323	0.233	-0.067
-153.662	311.268	-0.128	0.235
-152.647	-168.507	0.077	-0.003
-151.633	60.266	-0.119	-0.115
-150.618	-32.117	0.276	-0.151
-149.604	21.238	-0.209	-0.166
-148.589	-24.479	0.083	0.049
-147.574	-138.285	0.091	0.010
-146.560	69.539	0.136	-0.138
-145.545	589.721	0.060	0.144
-144.531	-200.000	-0.037	-0.308
-143.516	-38.747	0.132	0.068
-142.502	-200.000	0.012	0.486
-141.487	407.344	0.146	0.302
-140.472	388.756	-0.114	-0.232
-139.458	-89.990	0.394	0.113
-138.443	-88.758	0.263	0.077
-137.429	-95.302	0.138	-0.037
-136.414	-78.646	0.286	0.096
-135.399	-94.274	-0.201	0.054
-134.385	-200.000	0.023	-0.220
-133.370	-17.883	-0.239	-0.147
-132.356	-200.000	-0.012	-0.082
-131.341	-93.705	-0.489	-0.132
-130.326	131.997	0.213	-0.269
-129.312	-46.548	-0.082	-0.039
-128.297	-145.527	-0.306	0.027
-127.283	-136.036	0.080	0.009
-126.268	-7.680	0.128	0.085
-125.253	78.455	0.256	0.268
-124.239	179.013	-0.129	0.185
-123.224	369.181	-0.019	-0.038
-122.210	-95.776	-0.126	0.033
-121.195	30.013	0.112	0.094
-120.180	101.161	-0.138	0.158
