DTS Sentinel unit serial number:	SN413079Multiplexer serial number:	ORYXHardware model number:	OX4-SRSoftware version number:	ORYX F/W v4.00 Oryx Data Collector v3.7.2.0data status	okinstallation	princeton_trtdifferential loss correction	single-endedforward channel	channel 2reverse channel	N/Adate	2019/09/18time	01:27:35forward acquisition time	60.00reverse acquisition time	0.00gamma	496.2192k internal	0.2350k external	0.2350temperature offset calibration	0.9984default loss term (dB/km)	0.3790temperature slope calibration	1.0000multiplexer offset coefficient	1.0000multiplexer slope coefficient	1.0000fibre end	0.00T internal ref (°C)	23.12T ext. ref 1 (°C)	0.16T ext. ref 2 (°C)	16.84length (m)	temperature (°C)	Stokes	anti-Stokes-747.200	-200.000	-0.019	0.225
-746.185	-200.000	-0.021	0.458
-745.171	-124.239	-0.199	0.031
-744.156	-127.631	-0.195	0.028
-743.142	-200.000	0.033	-0.231
-742.127	-139.283	-0.185	-0.020
-741.112	-72.977	-0.092	-0.034
-740.098	-4.374	-0.258	0.178
-739.083	-166.331	-0.231	0.010
-738.069	160.529	-0.324	0.452
-737.054	-200.000	0.002	0.056
-736.039	-38.493	-0.253	-0.134
-735.025	-57.825	-0.321	-0.140
-734.010	800.000	-0.127	-0.428
-732.996	-200.000	0.000	-0.232
-731.981	-140.163	-0.168	0.018
-730.966	-134.350	0.210	-0.026
-729.952	-200.000	0.008	-0.049
-728.937	58.649	0.072	0.070
-727.923	800.000	-0.094	0.357
-726.908	-200.000	0.008	0.061
-725.894	-200.000	0.020	-0.182
-724.879	-119.900	-0.163	-0.028
-723.864	-200.000	-0.059	-0.290
-722.850	800.000	-0.058	-0.225
-721.835	63.678	0.144	0.145
-720.821	34.875	0.073	-0.063
-719.806	-200.000	0.046	-0.259
-718.791	395.937	0.134	-0.279
-717.777	-102.297	0.230	-0.055
-716.762	-200.000	-0.000	-0.119
-715.748	-66.057	0.317	0.126
-714.733	478.649	-0.058	0.130
-713.718	82.645	-0.152	0.165
-712.704	-200.000	0.098	0.452
-711.689	-82.363	-0.370	-0.120
-710.675	-104.275	0.145	0.033
-709.660	-138.072	-0.202	-0.022
-708.645	-29.232	-0.149	0.085
-707.631	72.557	0.160	-0.167
-706.616	284.808	0.157	-0.281
-705.602	-69.815	-0.180	-0.068
-704.587	-44.368	0.222	0.111
-703.572	800.000	-0.072	0.284
-702.558	451.348	-0.146	0.321
-701.543	239.691	-0.138	0.229
-700.529	582.761	0.015	-0.036
-699.514	179.484	-0.090	-0.132
-698.499	800.000	-0.086	-0.337
-697.485	-35.848	-0.208	-0.112
-696.470	1.071	0.279	-0.200
-695.456	50.726	0.095	-0.089
-694.441	573.338	-0.106	-0.258
-693.426	-200.000	0.009	-0.123
-692.412	501.871	0.036	0.083
-691.397	-200.000	0.091	-0.398
-690.383	450.315	-0.112	0.247
-689.368	207.778	-0.166	-0.258
-688.354	-200.000	-0.003	-0.019
-687.339	-200.000	0.071	-0.000
-686.324	104.403	-0.086	-0.101
-685.310	641.475	0.084	0.212
-684.295	435.578	-0.124	-0.269
-683.281	-154.141	-0.275	-0.019
-682.266	-144.643	-0.190	0.017
-681.251	-28.129	0.220	-0.127
-680.237	75.897	-0.162	-0.170
-679.222	-96.920	0.170	-0.044
-678.208	62.537	-0.225	0.224
-677.193	120.587	0.182	-0.225
-676.178	-72.156	0.142	0.053
-675.164	76.448	-0.149	-0.157
-674.149	66.833	-0.413	-0.418
-673.135	213.905	-0.048	-0.075
-672.120	-200.000	-0.013	-0.383
-671.105	-72.777	0.153	-0.056
-670.091	-74.131	0.356	-0.128
-669.076	-104.483	-0.360	0.083
-668.062	6.943	-0.163	0.121
-667.047	800.000	-0.054	0.192
-666.032	103.485	-0.213	-0.249
-665.018	130.157	-0.126	0.160
-664.003	290.620	-0.024	-0.044
-662.989	-200.000	0.003	0.330
-661.974	-26.015	-0.199	0.116
-660.959	-93.885	-0.201	-0.055
-659.945	279.460	-0.076	-0.136
-658.930	800.000	0.094	0.285
-657.916	-200.000	0.057	-0.370
-656.901	52.245	-0.132	-0.125
-655.886	87.854	-0.052	-0.057
-654.872	40.823	-0.262	0.235
-653.857	-39.274	0.088	0.046
-652.843	800.000	-0.052	0.205
-651.828	45.856	-0.253	0.233
-650.814	166.039	-0.126	-0.177
-649.799	455.730	0.063	0.139
-648.784	-93.486	0.276	-0.076
-647.770	800.000	0.014	-0.046
-646.755	76.560	0.114	-0.120
-645.741	-200.000	0.062	-0.314
-644.726	-83.963	0.138	0.044
-643.711	-9.575	-0.012	-0.008
-642.697	-120.973	-0.028	0.005
-641.682	139.067	0.029	-0.038
-640.668	-120.654	0.257	-0.043
-639.653	-121.139	-0.454	-0.076
-638.638	-53.487	0.313	0.142
-637.624	127.709	-0.087	-0.109
-636.609	-182.656	0.116	-0.002
-635.595	325.961	-0.083	-0.157
-634.580	84.384	0.182	0.197
-633.565	-200.000	-0.047	-0.251
-632.551	-28.744	-0.047	-0.027
-631.536	-200.000	-0.002	0.160
-630.522	-200.000	0.040	0.196
-629.507	-200.000	-0.008	-0.122
-628.492	-126.822	-0.098	0.014
-627.478	192.309	0.068	0.102
-626.463	9.561	0.106	0.080
-625.449	-200.000	0.058	-0.361
-624.434	-200.000	0.008	-0.268
-623.419	-164.229	0.118	0.005
-622.405	178.251	-0.145	-0.210
-621.390	11.665	-0.199	0.152
-620.376	-103.030	0.158	-0.037
-619.361	330.104	0.150	0.287
-618.346	800.000	-0.008	-0.029
-617.332	-120.984	-0.193	0.032
-616.317	247.775	-0.145	0.243
-615.303	5.988	0.045	-0.033
-614.288	21.793	-0.060	-0.049
-613.273	-28.962	0.108	-0.062
-612.259	-46.779	-0.186	0.090
-611.244	87.132	0.237	0.261
-610.230	23.818	-0.046	-0.038
-609.215	221.547	0.121	-0.193
-608.201	571.543	-0.209	0.506
-607.186	82.788	0.154	0.166
-606.171	142.783	0.197	-0.260
-605.157	7.484	0.345	0.256
-604.142	-141.876	0.197	0.020
-603.128	-73.537	-0.213	-0.077
-602.113	274.472	0.213	0.374
-601.098	32.263	0.114	0.097
-600.084	113.308	0.066	-0.079
-599.069	-47.903	-0.090	-0.043
-598.055	292.145	-0.158	0.286
-597.040	23.721	0.196	0.160
-596.025	-146.924	-0.352	-0.030
-595.011	-48.744	-0.245	-0.117
-593.996	19.088	-0.197	-0.157
-592.982	-24.543	-0.206	0.121
-591.967	-200.000	0.020	-0.400
-590.952	-46.669	-0.216	0.105
-589.938	73.824	-0.309	0.322
-588.923	-173.620	0.027	0.001
-587.909	76.657	0.170	-0.178
-586.894	50.807	-0.181	0.170
-585.879	51.838	0.235	0.222
-584.865	-200.000	-0.001	-0.069
-583.850	-59.055	-0.424	-0.182
-582.836	-116.263	0.284	0.052
-581.821	-110.064	-0.286	-0.059
-580.806	-105.493	-0.145	0.033
-579.792	398.353	0.169	0.351
-578.777	153.384	0.234	-0.317
-577.763	22.838	0.425	-0.346
-576.748	65.085	0.089	0.089
-575.733	12.796	-0.217	0.166
-574.719	-18.804	-0.220	0.136
-573.704	272.598	0.164	-0.288
-572.690	-74.094	-0.080	-0.029
-571.675	69.010	-0.229	0.233
-570.661	192.501	0.081	0.121
-569.646	800.000	0.056	-0.162
-568.631	-8.704	-0.069	0.046
-567.617	-82.410	-0.288	0.093
-566.602	569.245	-0.009	-0.021
-565.588	800.000	-0.127	-0.359
-564.573	104.829	0.081	-0.095
-563.558	-114.843	-0.242	0.046
-562.544	800.000	0.122	-0.336
-561.529	-200.000	-0.074	-0.402
-560.515	-75.496	-0.295	0.104
-559.500	-98.105	0.134	-0.034
-558.485	314.028	-0.142	-0.265
-557.471	5.450	0.095	0.069
-556.456	670.327	0.108	-0.276
-555.442	-47.535	-0.072	0.035
-554.427	-29.034	0.392	-0.223
-553.412	147.245	-0.256	0.342
-552.398	216.130	-0.145	-0.228
-551.383	599.792	0.053	-0.129
-550.369	-200.000	0.012	-0.229
-549.354	-135.779	0.102	0.012
-548.339	69.634	0.220	-0.224
-547.325	-200.000	0.023	-0.268
-546.310	-49.196	-0.115	0.055
-545.296	800.000	-0.035	0.136
-544.281	800.000	0.023	-0.097
-543.266	22.815	-0.090	0.073
-542.252	52.832	-0.085	-0.080
-541.237	800.000	-0.013	-0.050
-540.223	-200.000	-0.055	-0.268
-539.208	147.683	-0.138	-0.184
-538.193	-200.000	0.029	-0.432
-537.179	279.802	0.095	-0.167
-536.164	-47.593	0.064	-0.031
-535.150	-133.052	0.314	0.039
-534.135	-200.000	0.012	0.159
-533.121	40.387	0.396	-0.353
-532.106	282.787	-0.115	-0.204
-531.091	224.216	-0.282	-0.451
-530.077	240.954	-0.127	0.209
-529.062	22.048	0.289	0.233
-528.048	800.000	0.016	0.059
-527.033	55.933	-0.167	0.161
-526.018	100.671	0.110	-0.127
-525.004	39.536	0.048	0.042
-523.989	-51.581	0.280	-0.129
-522.975	783.873	-0.088	0.239
-521.960	-200.000	-0.045	0.251
-520.945	12.358	0.285	-0.217
-519.931	156.544	0.187	0.255
-518.916	-200.000	0.013	0.120
-517.902	62.785	0.180	-0.178
-516.887	-147.470	0.223	0.019
-515.872	-3.658	-0.232	-0.159
-514.858	-34.974	-0.109	-0.059
-513.843	103.741	0.182	0.211
-512.829	-200.000	0.004	-0.183
-511.814	-200.000	-0.015	-0.168
-510.799	-144.943	0.215	0.019
-509.785	800.000	-0.071	0.220
-508.770	800.000	0.018	-0.060
-507.756	-59.743	0.117	0.050
-506.741	-85.586	-0.256	-0.079
-505.726	-200.000	-0.016	-0.165
-504.712	-92.052	0.145	0.040
-503.697	-27.653	-0.206	-0.118
-502.683	400.735	-0.090	-0.187
-501.668	64.473	0.187	-0.186
-500.653	-200.000	0.054	0.276
-499.639	-89.379	0.165	0.048
-498.624	259.964	-0.139	-0.238
-497.610	-31.333	0.284	0.158
-496.595	251.474	0.063	-0.106
-495.581	-200.000	0.055	0.478
-494.566	19.814	0.101	0.080
-493.551	674.363	0.023	-0.058
-492.537	106.321	-0.233	0.273
-491.522	69.992	-0.099	0.101
-490.508	-81.820	-0.368	0.119
-489.493	-64.497	0.120	-0.048
-488.478	56.298	-0.089	0.086
-487.464	800.000	0.116	0.320
-486.449	308.866	-0.061	-0.113
-485.435	261.129	0.077	0.132
-484.420	271.359	0.105	0.182
-483.405	-200.000	-0.059	0.257
-482.391	-80.262	0.157	-0.052
-481.376	800.000	0.072	-0.269
-480.362	-109.711	0.233	0.049
-479.347	-40.805	-0.217	0.111
-478.332	113.445	-0.095	0.114
-477.318	-98.988	0.137	0.034
-476.303	-13.185	-0.208	0.134
-475.289	-200.000	0.020	0.119
-474.274	-200.000	-0.008	0.277
-473.259	800.000	0.011	0.038
-472.245	-103.334	0.089	-0.021
-471.230	-200.000	0.051	0.300
-470.216	800.000	-0.061	-0.213
-469.201	330.282	0.144	-0.273
-468.186	-81.642	-0.035	-0.011
-467.172	64.688	0.142	0.142
-466.157	-178.091	0.223	-0.005
-465.143	88.706	0.021	-0.023
-464.128	38.384	-0.080	0.070
-463.113	-63.328	0.130	0.053
-462.099	800.000	-0.012	0.051
-461.084	-200.000	-0.013	0.384
-460.070	26.043	-0.268	-0.221
-459.055	800.000	-0.021	0.058
-458.040	399.701	0.025	-0.052
-457.026	-38.662	-0.069	0.036
-456.011	-104.994	0.199	-0.045
-454.997	-109.803	-0.168	0.035
-453.982	-62.082	-0.231	0.095
-452.968	457.358	0.084	-0.185
-451.953	800.000	0.065	0.204
-450.938	-30.409	-0.171	0.095
-449.924	-200.000	0.011	-0.107
-448.909	-118.573	-0.133	0.023
-447.895	124.395	0.086	0.107
-446.880	-97.960	-0.101	0.026
-445.865	-183.949	-0.180	-0.003
-444.851	-63.915	0.148	0.060
-443.836	-200.000	-0.058	-0.279
-442.822	-200.000	0.027	0.119
-441.807	680.621	-0.063	0.162
-440.792	35.103	-0.131	-0.114
-439.778	-200.000	-0.025	-0.187
-438.763	800.000	0.079	-0.270
-437.749	-129.125	0.154	-0.021
-436.734	-11.460	-0.272	-0.177
-435.719	-74.996	0.090	0.032
-434.705	-200.000	0.003	0.228
-433.690	-200.000	0.049	0.214
-432.676	-57.379	-0.190	-0.082
-431.661	-200.000	0.003	0.032
-430.646	-37.748	-0.121	0.064
-429.632	-88.616	0.265	-0.078
-428.617	-88.613	-0.150	-0.044
-427.603	800.000	-0.101	-0.275
-426.588	800.000	-0.059	-0.166
-425.573	-28.463	-0.228	-0.130
-424.559	107.272	0.088	0.103
-423.544	108.961	0.151	0.178
-422.530	16.564	-0.066	0.051
-421.515	105.474	-0.065	0.076
-420.500	-18.167	0.285	-0.176
-419.486	-200.000	0.044	-0.267
-418.471	-100.977	-0.157	-0.038
-417.457	11.321	0.233	-0.176
-416.442	265.114	-0.169	0.290
-415.428	-200.000	0.028	-0.336
-414.413	103.329	0.160	0.185
-413.398	24.675	0.301	0.246
-412.384	-85.211	-0.369	-0.114
-411.369	37.804	0.147	-0.128
-410.355	-200.000	-0.020	-0.249
-409.340	-200.000	-0.049	-0.226
-408.325	318.329	-0.048	-0.089
-407.311	-34.518	-0.227	-0.123
-406.296	-200.000	0.007	0.154
-405.282	183.104	0.164	0.239
-404.267	-149.327	-0.120	0.009
-403.252	97.678	-0.135	-0.153
-402.238	15.014	-0.175	-0.135
-401.223	-200.000	-0.009	0.047
-400.209	-55.018	-0.311	-0.138
-399.194	-102.916	0.129	-0.030
-398.179	112.105	-0.070	0.084
-397.165	505.995	-0.027	-0.062
-396.150	-92.580	-0.065	0.018
-395.136	-200.000	0.009	0.075
-394.121	-164.316	-0.468	0.021
-393.106	399.699	0.057	0.117
-392.092	800.000	0.052	0.145
-391.077	-32.194	0.026	0.014
-390.063	84.536	0.077	0.083
-389.048	800.000	-0.065	0.200
-388.033	-92.366	0.115	-0.032
-387.019	-155.598	-0.115	-0.007
-386.004	-200.000	0.030	-0.190
-384.990	-200.000	0.322	0.001
-383.975	-127.406	-0.224	0.032
-382.960	20.471	0.060	-0.048
-381.946	44.323	-0.153	-0.138
-380.931	800.000	-0.041	-0.136
-379.917	-158.485	0.122	-0.007
-378.902	-200.000	-0.009	-0.065
-377.888	446.880	-0.125	-0.271
-376.873	-200.000	-0.021	0.124
-375.858	166.848	0.297	0.415
-374.844	800.000	0.140	-0.403
-373.829	289.716	-0.049	0.087
-372.815	21.887	-0.084	-0.068
-371.800	-200.000	-0.007	-0.339
-370.785	135.605	-0.143	-0.183
-369.771	151.456	0.061	-0.082
-368.756	-154.894	-0.215	0.014
-367.742	-174.995	0.295	-0.008
-366.727	800.000	0.058	0.211
-365.712	59.484	0.070	-0.068
-364.698	-56.119	-0.123	0.054
-363.683	-32.491	0.269	0.147
-362.669	353.458	0.027	0.052
-361.654	800.000	-0.059	-0.177
-360.639	-134.910	-0.199	0.024
-359.625	800.000	0.091	0.301
-358.610	475.422	0.133	0.296
-357.596	800.000	0.073	0.247
-356.581	-67.287	0.110	0.043
-355.566	785.603	0.048	0.129
-354.552	24.973	0.080	-0.065
-353.537	28.626	0.196	-0.163
-352.523	46.930	-0.178	0.162
-351.508	-5.803	-0.266	-0.179
-350.493	800.000	0.091	-0.339
-349.479	75.313	0.226	0.234
-348.464	800.000	-0.112	0.340
-347.450	74.148	-0.106	-0.109
-346.435	-35.669	0.135	-0.072
-345.420	11.808	-0.205	-0.155
-344.406	-200.000	-0.019	0.157
-343.391	-113.526	0.265	-0.051
-342.377	227.305	-0.151	-0.242
-341.362	208.742	-0.115	-0.177
-340.348	287.139	-0.059	-0.105
-339.333	-79.618	-0.135	0.045
-338.318	800.000	-0.023	0.069
-337.304	140.159	-0.148	-0.192
-336.289	-200.000	0.054	-0.275
-335.275	-70.812	0.107	0.040
-334.260	-146.859	-0.360	-0.030
-333.245	104.762	-0.146	0.169
-332.231	-200.000	0.006	-0.127
-331.216	800.000	-0.091	0.307
-330.202	-91.320	0.178	-0.050
-329.187	121.542	0.047	-0.057
-328.172	-200.000	0.046	-0.208
-327.158	-168.629	-0.148	0.006
-326.143	-54.959	-0.219	0.097
-325.129	34.385	0.031	0.026
-324.114	800.000	0.140	0.407
-323.099	561.044	0.061	-0.145
-322.085	-70.078	0.393	0.147
-321.070	7.764	-0.138	-0.102
-320.056	-71.718	0.236	0.087
-319.041	-10.416	0.318	-0.207
-318.026	-164.658	0.315	-0.014
-317.012	46.097	-0.153	0.139
-315.997	-33.750	-0.234	0.126
-314.983	800.000	-0.036	0.106
-313.968	-200.000	0.030	0.419
-312.953	-200.000	-0.034	-0.188
-311.939	-200.000	0.018	-0.102
-310.924	800.000	-0.047	-0.139
-309.910	-92.938	-0.165	-0.045
-308.895	0.393	0.124	0.087
-307.880	126.615	-0.224	-0.278
-306.866	150.465	0.098	-0.131
-305.851	-172.635	-0.154	-0.005
-304.837	-57.073	0.311	0.135
-303.822	102.188	0.134	0.153
-302.807	241.782	0.182	0.298
-301.793	100.857	-0.221	-0.252
-300.778	-49.431	-0.035	0.017
-299.764	126.760	0.206	-0.256
-298.749	-80.635	0.037	0.012
-297.735	265.418	-0.131	-0.224
-296.720	184.487	0.126	-0.182
-295.705	-190.173	0.367	0.004
-294.691	-69.903	-0.209	-0.078
-293.676	-30.052	0.270	0.151
-292.662	-40.505	-0.196	-0.100
-291.647	81.691	-0.005	0.005
-290.632	-66.735	-0.082	0.032
-289.618	18.513	-0.303	0.237
-288.603	164.400	0.175	0.242
-287.589	-111.060	0.083	-0.017
-286.574	-100.956	0.267	-0.064
-285.559	-111.752	-0.392	-0.078
-284.545	800.000	0.049	-0.171
-283.530	334.292	-0.030	-0.056
-282.516	391.513	-0.067	0.137
-281.501	800.000	-0.040	0.128
-280.486	-69.338	0.111	0.042
-279.472	-99.189	0.307	-0.076
-278.457	-64.047	0.360	0.144
-277.443	349.847	-0.137	0.266
-276.428	314.905	0.085	0.157
-275.413	20.125	0.376	-0.298
-274.399	800.000	-0.050	-0.144
-273.384	191.559	0.055	-0.081
-272.370	-200.000	0.020	0.102
-271.355	-143.570	-0.277	-0.026
-270.340	19.785	0.262	0.207
-269.326	-200.000	0.086	0.492
-268.311	5.281	0.214	-0.154
-267.297	-50.958	-0.262	-0.120
-266.282	449.616	-0.234	-0.506
-265.267	-37.625	0.131	-0.068
-264.253	-47.300	-0.031	-0.015
-263.238	-120.106	0.290	-0.049
-262.224	187.646	-0.121	0.176
-261.209	-6.291	-0.049	-0.033
-260.195	-200.000	0.021	-0.114
-259.180	86.628	-0.183	-0.198
-258.165	-200.000	-0.000	0.236
-257.151	22.577	0.071	-0.057
-256.136	134.909	0.156	-0.198
-255.122	-200.000	-0.023	-0.390
-254.107	-6.641	-0.091	-0.061
-253.092	-138.158	0.293	0.032
-252.078	43.702	-0.100	-0.090
-251.063	410.804	-0.057	-0.119
-250.049	317.264	0.140	-0.260
-249.034	-24.986	0.168	0.098
-248.019	334.535	0.130	0.246
-247.005	51.486	-0.025	-0.023
-245.990	-54.001	0.114	-0.051
-244.976	205.819	-0.083	-0.127
-243.961	10.527	0.059	-0.044
-242.946	245.574	0.090	-0.148
-241.932	110.438	0.222	0.262
-240.917	-137.089	-0.146	0.016
-239.903	461.923	-0.076	0.165
-238.888	-103.160	-0.083	-0.019
-237.873	-72.775	-0.311	0.112
-236.859	800.000	0.087	0.275
-235.844	-103.607	0.326	-0.075
-234.830	800.000	0.043	-0.182
-233.815	-200.000	0.050	0.300
-232.800	-200.000	0.036	-0.295
-231.786	106.659	-0.016	0.019
-230.771	245.917	-0.172	0.283
-229.757	270.276	0.062	0.107
-228.742	-168.548	-0.168	-0.006
-227.727	-104.644	-0.135	-0.031
-226.713	241.519	-0.159	0.259
-225.698	-78.363	-0.316	0.106
-224.684	-59.958	0.181	0.076
-223.669	110.409	-0.330	-0.388
-222.655	-121.678	0.300	-0.049
-221.640	-1.175	-0.083	0.057
-220.625	-200.000	-0.011	-0.110
-219.611	-88.781	0.170	0.049
-218.596	800.000	0.094	-0.306
-217.582	0.183	0.095	0.066
-216.567	-92.067	-0.122	-0.034
-215.552	-27.328	-0.303	-0.172
-214.538	-111.033	-0.151	0.030
-213.523	-44.696	-0.221	0.108
-212.509	-102.272	0.410	-0.096
-211.494	-13.210	0.171	0.108
-210.479	261.851	0.010	0.016
-209.465	39.448	-0.218	-0.191
-208.450	-130.382	-0.387	0.051
-207.436	70.395	0.080	-0.081
-206.421	106.339	-0.232	0.269
-205.406	-200.000	0.055	0.299
-204.392	384.874	-0.127	-0.255
-203.377	-200.000	-0.054	-0.284
-202.363	800.000	0.063	0.226
-201.348	-200.000	0.019	0.114
-200.333	-200.000	-0.065	0.285
-199.319	-108.525	-0.282	0.059
-198.304	107.396	0.088	0.103
-197.290	21.457	0.102	-0.081
-196.275	-55.616	0.304	-0.133
-195.260	800.000	0.060	-0.169
-194.246	-54.065	-0.177	0.078
-193.231	76.724	-0.084	-0.087
-192.217	-6.596	-0.143	0.095
-191.202	252.828	-0.152	-0.253
-190.187	800.000	-0.109	-0.312
-189.173	-200.000	-0.031	0.187
-188.158	53.072	0.133	0.125
-187.144	297.056	0.084	0.151
-186.129	-14.425	-0.378	0.238
-185.114	-11.069	-0.071	-0.046
-184.100	302.731	-0.025	0.046
-183.085	178.896	0.104	0.149
-182.071	-200.000	-0.035	0.277
-181.056	226.553	-0.068	-0.108
-180.042	-200.000	-0.057	0.392
-179.027	-92.703	0.420	-0.115
-178.012	84.789	0.038	0.040
-176.998	-200.000	-0.055	0.395
-175.983	219.263	0.052	-0.082
-174.969	800.000	-0.052	-0.184
-173.954	-96.700	-0.244	0.063
-172.939	-200.000	0.009	-0.142
-171.925	76.655	0.204	0.211
-170.910	40.363	-0.166	0.146
-169.896	-12.061	0.293	0.187
-168.881	-102.550	-0.408	0.095
-167.866	-121.400	-0.282	-0.046
-166.852	35.772	-0.074	-0.064
-165.837	-198.355	0.135	-0.001
-164.823	-200.000	0.022	-0.269
-163.808	247.354	0.241	-0.397
-162.793	530.376	-0.082	0.190
-161.779	256.193	-0.132	0.220
-160.764	-32.019	0.069	0.037
-159.750	182.669	-0.164	0.235
-158.735	115.201	0.160	0.191
-157.720	202.212	-0.065	0.097
-156.706	-147.759	0.062	0.005
-155.691	104.002	-0.100	-0.115
-154.677	800.000	-0.070	0.191
-153.662	800.000	-0.079	0.268
-152.647	800.000	0.093	0.392
-151.633	46.292	-0.069	0.063
-150.618	649.946	-0.069	0.173
-149.604	-200.000	-0.063	-0.378
-148.589	-132.085	-0.264	-0.033
-147.574	-130.821	-0.448	0.059
-146.560	-4.670	-0.155	-0.105
-145.545	-200.000	0.023	0.198
-144.531	-160.572	0.121	0.006
-143.516	393.444	0.088	-0.179
-142.502	-164.737	-0.160	0.007
-141.487	108.758	-0.048	0.056
-140.472	688.832	-0.045	-0.115
-139.458	-128.902	0.083	0.011
-138.443	458.314	0.106	0.231
-137.429	-105.437	-0.267	0.059
-136.414	16.981	0.112	-0.087
-135.399	-29.740	-0.357	0.198
-134.385	-78.414	0.444	-0.148
-133.370	2.486	0.330	0.233
-132.356	-91.830	0.517	-0.143
-131.341	481.450	-0.062	0.137
-130.326	44.177	-0.219	0.196
-129.312	156.966	0.084	0.114
-128.297	32.478	0.242	-0.204
-127.283	461.148	-0.128	0.278
-126.268	277.867	-0.109	-0.189
-125.253	-18.494	0.199	-0.121
-124.239	26.042	0.158	-0.129
-123.224	-72.786	0.271	0.097
-122.210	68.102	-0.180	-0.179
-121.195	294.002	-0.123	-0.219
