DTS Sentinel unit serial number:	SN413079Multiplexer serial number:	ORYXHardware model number:	OX4-SRSoftware version number:	ORYX F/W v4.00 Oryx Data Collector v3.7.2.0data status	okinstallation	princeton_trtdifferential loss correction	single-endedforward channel	channel 2reverse channel	N/Adate	2019/09/17time	03:55:34forward acquisition time	60.00reverse acquisition time	0.00gamma	496.2192k internal	0.2327k external	0.2327temperature offset calibration	0.9973default loss term (dB/km)	0.3790temperature slope calibration	1.0000multiplexer offset coefficient	1.0000multiplexer slope coefficient	1.0000fibre end	0.00T internal ref (°C)	29.94T ext. ref 1 (°C)	0.13T ext. ref 2 (°C)	24.42length (m)	temperature (°C)	Stokes	anti-Stokes-747.200	-51.134	-0.174	0.082
-746.185	-200.000	-0.029	0.212
-745.171	160.765	-0.129	0.182
-744.156	800.000	-0.092	0.367
-743.142	285.749	0.102	0.186
-742.127	1.074	0.019	-0.014
-741.112	800.000	-0.037	-0.110
-740.098	-179.254	0.153	0.003
-739.083	188.041	0.062	-0.094
-738.069	-200.000	-0.095	0.423
-737.054	194.573	-0.117	0.179
-736.039	-88.885	0.220	-0.066
-735.025	-81.507	-0.131	0.043
-734.010	550.736	-0.052	-0.125
-732.996	-200.000	-0.031	-0.141
-731.981	800.000	-0.061	-0.197
-730.966	64.474	0.169	-0.172
-729.952	62.008	0.128	-0.128
-728.937	32.452	-0.023	-0.020
-727.923	29.146	0.203	-0.173
-726.908	128.624	0.059	-0.076
-725.894	193.012	0.091	0.139
-724.879	364.902	-0.143	-0.289
-723.864	800.000	-0.061	-0.195
-722.850	-3.786	-0.265	-0.185
-721.835	95.944	0.127	0.146
-720.821	800.000	-0.129	-0.404
-719.806	-8.806	-0.152	0.102
-718.791	2.856	-0.092	-0.067
-717.777	800.000	-0.038	0.164
-716.762	-1.703	0.238	-0.169
-715.748	6.552	-0.205	0.153
-714.733	800.000	-0.135	-0.475
-713.718	-200.000	0.059	0.322
-712.704	800.000	0.058	-0.243
-711.689	-53.384	0.359	-0.165
-710.675	-132.439	-0.199	0.026
-709.660	595.328	-0.079	-0.196
-708.645	-128.834	-0.240	0.034
-707.631	-200.000	-0.040	0.224
-706.616	-159.391	0.081	-0.005
-705.602	800.000	0.068	-0.202
-704.587	-117.950	0.300	0.054
-703.572	7.779	-0.060	-0.045
-702.558	-133.172	-0.156	-0.020
-701.543	-17.878	-0.228	0.144
-700.529	233.405	-0.118	-0.196
-699.514	1.348	0.393	-0.285
-698.499	-79.269	-0.109	-0.037
-697.485	-55.839	0.181	0.081
-696.470	376.433	0.099	0.204
-695.456	88.163	0.130	0.145
-694.441	800.000	0.078	0.280
-693.426	81.943	-0.035	0.038
-692.412	-74.389	-0.195	0.071
-691.397	259.961	-0.091	-0.159
-690.383	40.836	0.139	0.126
-689.368	64.281	-0.048	-0.048
-688.354	28.475	0.075	-0.064
-687.339	-200.000	0.018	0.140
-686.324	-2.792	0.280	-0.197
-685.310	5.128	0.092	-0.068
-684.295	476.240	-0.148	-0.336
-683.281	-87.374	-0.437	0.133
-682.266	267.141	-0.023	-0.041
-681.251	800.000	0.057	-0.239
-680.237	44.642	0.070	-0.064
-679.222	-169.880	0.304	0.011
-678.208	26.166	0.041	-0.035
-677.193	549.229	0.094	-0.227
-676.178	-138.819	-0.170	0.019
-675.164	-93.285	-0.172	0.048
-674.149	514.763	0.089	0.210
-673.135	40.780	-0.345	0.312
-672.120	128.369	0.164	-0.211
-671.105	800.000	0.098	-0.390
-670.091	-58.341	-0.323	-0.141
-669.076	286.017	-0.130	-0.236
-668.062	185.556	0.053	-0.080
-667.047	250.469	0.109	0.186
-666.032	-21.270	0.024	0.015
-665.018	-86.956	-0.399	0.122
-664.003	-107.501	0.190	-0.042
-662.989	800.000	0.055	-0.181
-661.974	-27.839	0.250	-0.146
-660.959	74.136	0.045	-0.048
-659.945	57.536	-0.099	-0.098
-658.930	559.921	0.091	-0.221
-657.916	-200.000	-0.011	-0.088
-656.901	-200.000	0.011	-0.102
-655.886	49.686	-0.114	-0.108
-654.872	-8.738	-0.125	-0.084
-653.857	9.329	0.095	-0.072
-652.843	-41.776	-0.198	0.102
-651.828	-0.264	0.216	0.154
-650.814	-107.752	-0.417	0.091
-649.799	-200.000	-0.003	-0.342
-648.784	60.340	-0.188	0.187
-647.770	-55.078	-0.102	-0.046
-646.755	800.000	-0.050	-0.193
-645.741	-154.619	0.081	-0.005
-644.726	-64.117	-0.113	-0.046
-643.711	-63.083	0.425	0.176
-642.697	-84.563	0.081	0.026
-641.682	-31.945	-0.095	-0.053
-640.668	-200.000	0.044	-0.342
-639.653	195.037	-0.100	-0.152
-638.638	800.000	0.078	-0.268
-637.624	-10.344	-0.094	0.063
-636.609	-200.000	0.012	0.086
-635.595	126.014	0.110	-0.140
-634.580	-140.215	-0.093	-0.010
-633.565	-108.028	-0.420	0.092
-632.551	275.879	0.198	-0.352
-631.536	-147.539	0.377	0.032
-630.522	699.514	0.057	-0.151
-629.507	295.203	0.056	-0.103
-628.492	-200.000	0.015	-0.151
-627.478	63.441	-0.209	0.210
-626.463	25.746	0.222	-0.186
-625.449	-184.827	-0.303	-0.005
-624.434	-17.275	-0.250	-0.158
-623.419	94.642	-0.111	0.127
-622.405	800.000	0.041	0.179
-621.390	151.266	0.139	-0.190
-620.376	127.846	0.125	0.159
-619.361	444.422	0.067	0.148
-618.346	69.657	0.101	0.104
-617.332	159.892	0.131	0.184
-616.317	111.113	-0.076	0.092
-615.303	-59.387	-0.154	-0.066
-614.288	26.105	0.155	-0.130
-613.273	-200.000	-0.007	-0.041
-612.259	777.755	-0.088	-0.241
-611.244	-200.000	-0.014	-0.074
-610.230	800.000	-0.014	0.044
-609.215	-18.733	-0.164	-0.103
-608.201	-41.863	0.157	0.081
-607.186	48.121	-0.168	0.157
-606.171	116.123	0.218	0.268
-605.157	-200.000	-0.008	-0.159
-604.142	-57.377	-0.344	0.152
-603.128	25.375	-0.269	0.224
-602.113	-200.000	-0.012	0.213
-601.098	219.711	0.159	0.255
-600.084	-119.599	-0.163	-0.028
-599.069	-65.832	0.485	-0.194
-598.055	365.388	-0.127	0.256
-597.040	-65.901	0.275	0.110
-596.025	410.895	-0.185	0.393
-595.011	-8.130	-0.134	0.091
-593.996	-200.000	-0.026	-0.410
-592.982	800.000	0.088	-0.295
-591.967	137.836	0.117	-0.154
-590.952	-143.543	0.021	-0.002
-589.938	302.140	0.140	0.259
-588.923	-57.182	0.151	-0.067
-587.909	-56.061	-0.081	0.036
-586.894	-45.842	-0.272	0.135
-585.879	-150.432	-0.366	-0.028
-584.865	600.110	0.059	-0.146
-583.850	-121.383	-0.148	0.025
-582.836	5.397	-0.181	-0.134
-581.821	57.369	-0.269	0.263
-580.806	22.804	0.217	-0.178
-579.792	129.598	-0.014	-0.018
-578.777	11.469	0.353	-0.271
-577.763	-176.221	0.198	0.005
-576.748	29.338	-0.445	0.379
-575.733	-61.586	0.055	0.023
-574.719	-164.163	-0.161	0.007
-573.704	368.877	-0.117	-0.237
-572.690	800.000	-0.026	-0.075
-571.675	-160.523	-0.330	0.018
-570.661	800.000	-0.053	-0.221
-569.646	231.515	-0.099	0.163
-568.631	105.822	-0.178	0.211
-567.617	132.748	-0.196	0.253
-566.602	469.474	-0.121	-0.272
-565.588	800.000	-0.048	-0.154
-564.573	164.631	-0.255	-0.361
-563.558	122.971	-0.133	-0.167
-562.544	450.514	-0.146	0.323
-561.529	-200.000	0.007	0.150
-560.515	-80.204	0.198	0.066
-559.500	-156.688	-0.307	-0.019
-558.485	-56.692	-0.040	-0.018
-557.471	800.000	-0.052	-0.202
-556.456	789.201	0.046	-0.128
-555.442	-41.733	-0.104	0.054
-554.427	-139.075	-0.157	-0.017
-553.412	-200.000	0.005	-0.053
-552.398	133.092	-0.141	0.182
-551.383	-147.658	0.143	-0.012
-550.369	800.000	0.053	-0.158
-549.354	28.179	-0.093	-0.079
-548.339	302.994	-0.035	-0.065
-547.325	32.478	0.270	-0.234
-546.310	-200.000	0.051	-0.381
-545.296	-6.120	-0.140	0.095
-544.281	544.887	0.056	0.135
-543.266	230.904	0.005	0.008
-542.252	412.033	0.092	-0.196
-541.237	-0.708	0.179	-0.127
-540.223	-200.000	0.000	0.257
-539.208	-31.363	-0.091	0.051
-538.193	800.000	-0.062	-0.202
-537.179	22.176	0.039	0.032
-536.164	101.418	0.108	-0.126
-535.150	-175.004	0.287	-0.008
-534.135	-59.750	0.142	0.061
-533.121	22.218	0.120	0.098
-532.106	-3.320	0.222	0.155
-531.091	-155.985	0.154	-0.010
-530.077	-27.467	-0.205	0.119
-529.062	-102.531	-0.144	0.034
-528.048	1.171	-0.077	0.055
-527.033	-56.686	-0.256	-0.113
-526.018	789.360	0.132	0.362
-525.004	-200.000	0.004	0.179
-523.989	-200.000	0.072	0.401
-522.975	-134.927	0.087	-0.011
-521.960	800.000	0.074	-0.222
-520.945	-164.007	-0.227	0.011
-519.931	261.695	0.159	0.275
-518.916	283.212	-0.200	0.360
-517.902	-34.501	-0.369	0.202
-516.887	283.624	-0.091	0.164
-515.872	-118.890	-0.141	0.025
-514.858	-27.563	-0.167	0.097
-513.843	-200.000	-0.002	0.247
-512.829	-148.566	-0.078	-0.006
-511.814	-103.820	0.212	0.050
-510.799	172.890	0.157	0.226
-509.785	111.071	0.201	-0.241
-508.770	398.466	0.101	-0.211
-507.756	-75.406	-0.123	0.044
-506.741	58.919	-0.148	-0.145
-505.726	-200.000	-0.030	-0.212
-504.712	-142.909	0.086	0.008
-503.697	-200.000	-0.046	-0.340
-502.683	-60.533	-0.195	0.083
-501.668	-90.907	0.113	0.033
-500.653	230.028	-0.070	0.114
-499.639	-45.796	-0.238	-0.118
-498.624	242.754	-0.080	-0.134
-497.610	66.157	0.182	-0.184
-496.595	300.716	-0.127	0.234
-495.581	304.915	-0.032	-0.059
-494.566	-28.579	0.285	0.164
-493.551	-200.000	-0.015	0.099
-492.537	523.319	-0.140	0.327
-491.522	-154.195	-0.340	-0.023
-490.508	-66.262	0.208	-0.083
-489.493	-200.000	-0.010	-0.281
-488.478	-183.786	0.350	-0.006
-487.464	76.182	0.122	-0.129
-486.449	-200.000	0.018	-0.369
-485.435	412.935	0.101	-0.213
-484.420	800.000	-0.060	-0.184
-483.405	158.653	-0.129	-0.179
-482.391	245.829	-0.075	0.125
-481.376	-200.000	0.008	-0.328
-480.362	110.512	0.184	0.221
-479.347	800.000	0.128	0.457
-478.332	78.244	0.077	0.082
-477.318	201.382	-0.040	-0.062
-476.303	41.923	-0.061	-0.055
-475.289	-142.932	-0.484	-0.047
-474.274	-88.650	0.150	0.045
-473.259	-122.433	-0.314	0.051
-472.245	-13.562	0.432	0.279
-471.230	-19.933	-0.231	0.142
-470.216	-200.000	-0.019	0.190
-469.201	800.000	0.088	-0.308
-468.186	-123.167	-0.069	-0.011
-467.172	-11.232	0.167	-0.110
-466.157	133.890	0.110	-0.142
-465.143	-1.694	0.198	-0.139
-464.128	-200.000	0.034	0.344
-463.113	-200.000	0.026	-0.282
-462.099	28.819	0.233	-0.197
-461.084	-135.556	-0.297	-0.035
-460.070	265.953	0.168	0.293
-459.055	-42.080	0.185	-0.094
-458.040	-200.000	0.043	-0.447
-457.026	-23.467	0.231	0.138
-456.011	243.825	0.185	0.310
-454.997	-107.833	0.377	-0.082
-453.982	4.093	-0.374	-0.272
-452.968	411.276	0.200	-0.423
-451.953	684.510	0.131	-0.340
-450.938	-200.000	-0.004	-0.143
-449.924	-23.744	-0.360	-0.215
-448.909	-94.640	0.213	-0.058
-447.895	800.000	-0.121	0.378
-446.880	-200.000	0.062	-0.356
-445.865	160.186	-0.103	0.144
-444.851	542.396	0.026	0.061
-443.836	-124.762	0.258	-0.040
-442.822	65.646	0.020	0.020
-441.807	468.460	-0.215	-0.480
-440.792	601.081	-0.009	-0.022
-439.778	-9.554	0.178	0.118
-438.763	-31.935	-0.231	-0.129
-437.749	-65.669	-0.305	0.122
-436.734	800.000	-0.004	0.018
-435.719	800.000	0.044	-0.120
-434.705	1.242	-0.376	-0.269
-433.690	-128.701	0.364	0.051
-432.676	-53.364	0.125	0.057
-431.661	-200.000	-0.024	0.239
-430.646	-65.522	-0.074	-0.030
-429.632	26.531	0.204	-0.170
-428.617	11.992	0.214	0.164
-427.603	-180.478	0.086	-0.002
-426.588	-200.000	-0.027	-0.170
-425.573	-151.107	-0.244	-0.018
-424.559	351.555	0.170	0.335
-423.544	-54.182	0.109	0.049
-422.530	800.000	-0.109	0.302
-421.515	-157.068	-0.320	0.019
-420.500	-200.000	0.044	-0.275
-419.486	-200.000	0.005	0.082
-418.471	-34.765	-0.156	-0.085
-417.457	-76.286	-0.203	-0.071
-416.442	-200.000	-0.027	0.225
-415.428	241.628	0.125	-0.207
-414.413	-11.895	0.191	-0.125
-413.398	800.000	0.046	0.168
-412.384	106.010	0.035	0.041
-411.369	431.976	0.088	0.189
-410.355	1.714	-0.363	0.260
-409.340	237.995	-0.039	0.064
-408.325	-65.218	-0.086	-0.035
-407.311	86.690	0.153	0.168
-406.296	800.000	0.062	0.171
-405.282	800.000	-0.052	-0.209
-404.267	-95.036	-0.192	0.052
-403.252	102.756	0.031	0.036
-402.238	51.619	0.024	0.023
-401.223	-68.930	-0.196	0.075
-400.209	200.138	0.156	-0.239
-399.194	96.847	-0.118	-0.134
-398.179	33.966	-0.277	0.240
-397.165	-69.234	0.215	0.082
-396.150	800.000	-0.060	-0.246
-395.136	-200.000	-0.009	0.058
-394.121	79.801	-0.241	0.257
-393.106	-17.994	0.174	0.108
-392.092	384.016	-0.111	0.227
-391.077	244.311	-0.150	-0.251
-390.063	500.683	-0.133	0.305
-389.048	-121.308	0.159	0.026
-388.033	-162.207	0.408	-0.020
-387.019	99.034	-0.047	-0.054
-386.004	-200.000	-0.016	0.427
-384.990	21.155	0.152	-0.123
-383.975	128.507	-0.106	-0.135
-382.960	-114.886	0.138	-0.026
-381.946	12.919	0.175	-0.134
-380.931	-54.729	0.309	-0.139
-379.917	0.491	-0.163	0.115
-378.902	-105.962	0.112	0.025
-377.888	-200.000	0.020	-0.107
-376.873	-25.489	0.170	-0.100
-375.858	124.576	-0.126	-0.158
-374.844	-28.113	-0.188	-0.108
-373.829	-81.650	0.195	0.064
-372.815	-200.000	0.092	0.527
-371.800	442.851	0.122	0.265
-370.785	-131.998	-0.388	-0.050
-369.771	119.885	0.097	0.120
-368.756	800.000	0.021	0.092
-367.742	73.907	0.055	-0.057
-366.727	150.494	0.261	-0.352
-365.712	40.941	0.107	-0.096
-364.698	67.037	-0.358	-0.362
-363.683	-135.798	-0.432	0.051
-362.669	367.680	0.160	0.322
-361.654	-81.314	0.232	-0.076
-360.639	70.701	-0.103	0.105
-359.625	-52.279	-0.131	0.060
-358.610	311.141	0.205	0.382
-357.596	357.393	0.198	0.393
-356.581	800.000	-0.070	0.194
-355.566	25.402	-0.136	0.113
-354.552	800.000	-0.057	-0.197
-353.537	-1.552	0.362	-0.254
-352.523	-128.004	-0.087	0.012
-351.508	121.000	-0.221	-0.273
-350.493	81.494	-0.166	-0.178
-349.479	136.849	0.199	-0.258
-348.464	-200.000	0.003	0.040
-347.450	800.000	0.041	0.169
-346.435	532.349	-0.058	0.137
-345.420	-62.409	0.266	-0.110
-344.406	-147.333	0.305	0.026
-343.391	-49.401	-0.148	0.070
-342.377	31.369	-0.230	0.196
-341.362	-200.000	-0.019	-0.123
-340.348	113.984	0.062	0.075
-339.333	-126.975	-0.301	-0.044
-338.318	800.000	-0.038	0.148
-337.304	-69.702	0.153	0.058
-336.289	-157.497	0.451	-0.027
-335.275	101.646	-0.099	0.114
-334.260	-200.000	-0.035	-0.235
-333.245	-103.409	0.160	-0.037
-332.231	-125.974	0.304	-0.045
-331.216	800.000	0.042	-0.151
-330.202	38.339	0.140	0.124
-329.187	-200.000	-0.048	0.508
-328.172	-43.600	0.386	-0.193
-327.158	-200.000	0.037	0.212
-326.143	366.420	-0.158	-0.316
-325.129	-116.095	0.591	-0.109
-324.114	293.981	0.063	-0.114
-323.099	277.776	0.188	-0.332
-322.085	-84.874	0.330	0.103
-321.070	153.345	-0.111	0.150
-320.056	110.447	0.093	-0.110
-319.041	-101.003	0.140	-0.034
-318.026	309.505	-0.212	0.394
-317.012	-161.824	-0.441	-0.022
-315.997	25.436	-0.187	0.154
-314.983	192.849	0.208	0.311
-313.968	22.864	0.294	0.238
-312.953	93.383	0.177	-0.199
-311.939	-200.000	0.041	-0.239
-310.924	-200.000	-0.022	0.235
-309.910	-200.000	-0.000	-0.274
-308.895	197.018	-0.052	0.079
-307.880	145.181	0.079	0.105
-306.866	-41.100	-0.170	0.087
-305.851	72.010	0.180	-0.185
-304.837	-200.000	0.017	0.097
-303.822	-200.000	0.012	-0.225
-302.807	-89.095	-0.126	-0.037
-301.793	-72.980	0.216	0.079
-300.778	800.000	-0.042	0.131
-299.764	-200.000	0.001	-0.048
-298.749	-26.621	-0.081	0.047
-297.735	36.529	-0.041	0.036
-296.720	115.545	-0.280	-0.340
-295.705	-136.483	-0.122	-0.014
-294.691	-200.000	-0.055	-0.273
-293.676	-200.000	0.007	-0.038
-292.662	26.572	0.086	0.071
-291.647	-200.000	-0.019	0.253
-290.632	101.595	0.050	-0.058
-289.618	142.447	-0.244	0.321
-288.603	800.000	0.092	-0.331
-287.589	180.578	0.001	-0.001
-286.574	-200.000	-0.030	-0.179
-285.559	-200.000	0.048	-0.322
-284.545	-200.000	0.021	0.093
-283.530	42.585	-0.165	-0.148
-282.516	-137.889	-0.069	0.008
-281.501	-162.653	-0.305	0.015
-280.486	-130.021	0.075	-0.010
-279.472	-200.000	-0.052	0.284
-278.457	-200.000	-0.007	-0.057
-277.443	800.000	-0.112	0.377
-276.428	-43.066	-0.154	0.077
-275.413	-87.568	0.385	0.115
-274.399	-63.647	-0.292	0.119
-273.384	-39.754	0.102	0.053
-272.370	8.394	-0.223	-0.166
-271.355	-108.767	0.620	-0.131
-270.340	666.917	-0.078	0.198
-269.326	-109.968	-0.174	0.036
-268.311	498.687	0.187	-0.427
-267.297	-200.000	-0.052	-0.520
-266.282	-200.000	0.029	0.303
-265.267	-200.000	0.000	0.468
-264.253	-200.000	0.032	-0.256
-263.238	34.619	0.053	0.046
-262.224	21.532	-0.196	0.158
-261.209	-200.000	0.056	-0.313
-260.195	-136.597	0.390	0.045
-259.180	123.763	0.148	-0.184
-258.165	-200.000	-0.035	0.345
-257.151	-200.000	0.248	0.001
-256.136	-39.392	0.113	0.059
-255.122	53.948	0.268	0.254
-254.107	39.877	-0.133	-0.118
-253.092	-200.000	-0.013	-0.084
-252.078	800.000	0.068	0.205
-251.063	-17.295	-0.311	0.194
-250.049	143.653	0.085	-0.112
-249.034	-200.000	0.016	-0.301
-248.019	13.281	-0.218	-0.167
-247.005	-200.000	0.004	-0.379
-245.990	-23.887	0.233	-0.138
-244.976	-200.000	-0.043	-0.207
-243.961	-200.000	-0.033	0.187
-242.946	-77.882	-0.265	-0.090
-241.932	-200.000	-0.047	0.306
-240.917	-115.459	-0.157	-0.029
-239.903	761.795	-0.145	0.390
-238.888	-200.000	0.032	0.303
-237.873	-24.111	-0.227	0.134
-236.859	107.514	0.205	0.241
-235.844	-72.002	-0.126	0.046
-234.830	174.289	-0.134	0.191
-233.815	85.785	0.122	0.132
-232.800	-2.191	-0.017	0.012
-231.786	-40.021	-0.052	0.027
-230.771	-61.457	-0.194	-0.080
-229.757	-110.693	-0.184	-0.037
-228.742	-200.000	-0.013	-0.095
-227.727	15.205	-0.145	-0.113
-226.713	390.163	0.011	0.023
-225.698	-68.781	-0.182	-0.069
-224.684	99.635	0.101	0.116
-223.669	298.790	0.083	-0.150
-222.655	119.546	-0.108	-0.133
-221.640	-69.564	0.498	-0.188
-220.625	-180.189	0.342	-0.007
-219.611	-122.587	0.183	0.029
-218.596	-200.000	-0.034	0.446
-217.582	-30.551	0.213	-0.119
-216.567	-200.000	-0.003	0.198
-215.552	-15.002	0.295	0.187
-214.538	-100.546	-0.256	0.063
-213.523	74.481	0.146	-0.152
-212.509	-68.729	0.438	0.167
-211.494	70.030	-0.216	0.220
-210.479	107.555	-0.175	0.205
-209.465	30.554	-0.180	0.152
-208.450	736.714	0.117	0.310
-207.436	-103.204	0.233	0.054
-206.421	328.926	-0.110	-0.210
-205.406	-200.000	-0.091	0.465
-204.392	123.549	0.055	0.068
-203.377	-114.987	0.117	-0.022
-202.363	-48.426	-0.287	0.137
-201.348	86.425	0.239	-0.260
-200.333	-152.744	0.273	-0.019
-199.319	20.209	0.127	-0.101
-198.304	309.097	0.105	-0.193
-197.290	18.693	-0.168	0.133
-196.275	-118.016	-0.334	0.059
-195.260	800.000	0.114	-0.370
-194.246	-130.928	-0.368	-0.049
-193.231	230.621	0.036	-0.057
-192.217	-163.132	-0.125	-0.006
-191.202	-75.913	-0.140	0.049
-190.187	-200.000	-0.013	-0.418
-189.173	215.982	-0.121	0.190
-188.158	800.000	-0.045	-0.167
-187.144	777.660	0.093	-0.251
-186.129	-40.040	-0.219	-0.113
-185.114	80.845	0.177	0.188
-184.100	-200.000	0.042	-0.406
-183.085	-110.828	-0.124	-0.025
-182.071	54.151	-0.179	-0.170
-181.056	459.759	0.071	0.157
-180.042	16.401	0.267	-0.208
-179.027	-187.909	0.413	-0.005
-178.012	800.000	-0.148	-0.407
-176.998	-81.625	0.167	-0.054
-175.983	50.362	-0.222	0.206
-174.969	-53.845	-0.175	0.079
-173.954	-150.895	0.282	-0.021
-172.939	3.292	0.236	0.169
-171.925	20.072	0.202	-0.161
-170.910	-59.662	-0.339	0.143
-169.896	425.505	-0.087	0.185
-168.881	261.889	-0.183	0.313
-167.866	274.237	-0.098	0.171
-166.852	800.000	0.063	0.177
-165.837	-10.913	0.114	-0.074
-164.823	800.000	-0.088	-0.245
-163.808	-102.792	-0.192	-0.045
-162.793	-74.551	-0.161	0.057
-161.779	-89.550	0.141	-0.041
-160.764	268.711	0.046	0.080
-159.750	320.462	-0.098	-0.183
-158.735	253.634	0.073	-0.123
-157.720	614.210	0.111	-0.273
-156.706	86.361	-0.179	0.194
-155.691	-94.924	-0.303	0.081
-154.677	-72.799	0.182	-0.066
-153.662	-200.000	-0.021	-0.173
-152.647	-134.914	0.239	0.029
-151.633	-145.838	-0.279	-0.024
-150.618	-9.619	0.325	-0.214
-149.604	-175.126	0.249	-0.007
-148.589	-200.000	-0.002	-0.048
-147.574	173.316	0.075	-0.106
-146.560	60.559	0.277	0.270
-145.545	509.756	0.033	0.075
-144.531	-200.000	0.046	0.416
-143.516	198.534	-0.192	0.289
-142.502	304.975	-0.154	-0.282
-141.487	-7.257	-0.093	0.062
-140.472	-11.817	0.226	0.146
-139.458	-55.568	-0.114	0.050
-138.443	118.030	0.120	-0.146
-137.429	388.078	0.120	0.245
-136.414	800.000	0.090	0.331
-135.399	-157.961	-0.095	0.005
-134.385	-200.000	-0.020	-0.167
-133.370	-8.666	0.116	0.077
-132.356	-139.169	-0.240	-0.025
-131.341	-80.963	0.112	-0.036
-130.326	800.000	-0.070	-0.263
-129.312	-130.008	0.252	0.034
-128.297	-9.769	0.023	-0.015
-127.283	-200.000	-0.021	0.135
-126.268	-5.166	-0.069	-0.047
-125.253	210.519	-0.094	0.145
-124.239	-200.000	-0.004	0.070
-123.224	-166.606	0.283	0.012
-122.210	85.846	0.058	0.063
-121.195	-200.000	0.040	-0.242
