DTS Sentinel unit serial number:	SN413079Multiplexer serial number:	ORYXHardware model number:	OX4-SRSoftware version number:	ORYX F/W v4.00 Oryx Data Collector v3.7.2.0data status	okinstallation	princeton_trtdifferential loss correction	single-endedforward channel	channel 2reverse channel	N/Adate	2019/09/10time	16:33:11forward acquisition time	60.00reverse acquisition time	0.00gamma	496.2192k internal	0.2309k external	0.2309temperature offset calibration	0.9941default loss term (dB/km)	0.3790temperature slope calibration	1.0000multiplexer offset coefficient	1.0000multiplexer slope coefficient	1.0000fibre end	0.00T internal ref (°C)	37.97T ext. ref 1 (°C)	-0.28T ext. ref 2 (°C)	30.08length (m)	temperature (°C)	Stokes	anti-Stokes-747.200	-5.093	0.199	-0.139
-746.185	-140.644	0.151	-0.016
-745.171	-200.000	0.008	0.077
-744.156	-108.002	0.209	-0.046
-743.142	49.322	-0.262	-0.250
-742.127	21.927	-0.430	0.357
-741.112	-200.000	0.010	-0.119
-740.098	-26.799	0.321	0.191
-739.083	4.695	-0.186	-0.139
-738.069	-49.152	-0.171	0.083
-737.054	-17.888	0.230	0.147
-736.039	-175.084	-0.125	0.004
-735.025	-80.282	0.310	-0.105
-734.010	-200.000	0.104	-0.484
-732.996	-106.786	0.246	0.056
-731.981	3.205	-0.141	0.104
-730.966	-200.000	-0.022	-0.310
-729.952	65.033	-0.188	-0.193
-728.937	800.000	0.142	-0.408
-727.923	-21.299	-0.239	0.148
-726.908	-170.133	0.189	0.007
-725.894	1.988	-0.293	0.214
-724.879	-60.107	-0.057	-0.025
-723.864	-200.000	0.013	0.177
-722.850	-44.849	0.322	-0.163
-721.835	-200.000	-0.025	-0.334
-720.821	-200.000	0.017	0.383
-719.806	-200.000	0.009	-0.161
-718.791	25.484	-0.154	-0.130
-717.777	18.053	0.157	-0.127
-716.762	21.810	-0.303	0.251
-715.748	712.983	0.058	0.156
-714.733	-125.443	0.168	0.026
-713.718	-200.000	0.003	0.070
-712.704	-117.033	-0.311	0.058
-711.689	1.496	0.146	0.107
-710.675	-73.904	0.261	0.096
-709.660	-62.967	0.226	0.095
-708.645	-6.465	0.295	-0.204
-707.631	-111.012	-0.130	-0.027
-706.616	-6.162	-0.204	0.141
-705.602	140.178	-0.128	-0.171
-704.587	143.691	0.032	-0.044
-703.572	1.091	0.299	-0.217
-702.558	-191.061	-0.224	0.002
-701.543	-200.000	-0.023	0.291
-700.529	-129.109	-0.247	0.035
-699.514	-200.000	-0.008	-0.124
-698.499	32.601	-0.191	0.168
-697.485	12.620	0.099	0.077
-696.470	164.292	-0.153	-0.219
-695.456	133.758	0.271	-0.356
-694.441	-153.286	-0.256	0.018
-693.426	-168.547	-0.368	0.014
-692.412	47.139	0.007	0.007
-691.397	773.125	0.144	-0.399
-690.383	543.236	0.036	-0.088
-689.368	65.551	0.096	0.099
-688.354	-151.126	0.115	0.009
-687.339	-15.859	0.176	0.114
-686.324	-2.986	0.051	0.036
-685.310	-19.891	-0.215	0.135
-684.295	160.483	0.143	-0.202
-683.281	195.375	0.186	-0.286
-682.266	-39.050	-0.207	-0.110
-681.251	40.634	0.183	0.167
-680.237	44.526	0.152	-0.142
-679.222	-200.000	-0.046	-0.279
-678.208	-22.400	-0.136	0.083
-677.193	698.045	0.052	-0.138
-676.178	-110.674	0.188	0.039
-675.164	108.714	0.049	-0.059
-674.149	-106.668	-0.120	0.027
-673.135	243.589	0.335	0.570
-672.120	114.109	-0.165	0.203
-671.105	590.482	-0.092	-0.230
-670.091	128.823	-0.098	0.126
-669.076	48.794	-0.068	0.065
-668.062	-45.828	-0.165	-0.083
-667.047	36.108	0.172	0.153
-666.032	213.465	-0.087	0.139
-665.018	306.963	-0.076	-0.143
-664.003	59.459	0.135	-0.134
-662.989	-25.126	0.181	-0.109
-661.974	-33.846	-0.019	-0.011
-660.959	54.696	-0.152	0.148
-659.945	14.465	0.173	-0.137
-658.930	-200.000	-0.031	0.155
-657.916	-41.625	-0.305	-0.159
-656.901	-81.832	0.358	0.119
-655.886	208.128	-0.073	0.115
-654.872	-200.000	0.006	-0.097
-653.857	-79.861	-0.186	-0.063
-652.843	-59.310	0.253	-0.110
-651.828	800.000	-0.005	-0.018
-650.814	-146.276	-0.274	0.024
-649.799	-200.000	-0.011	-0.104
-648.784	257.163	0.143	-0.249
-647.770	-200.000	0.052	0.276
-646.755	-33.603	-0.189	0.106
-645.741	140.899	-0.258	0.345
-644.726	-184.207	-0.158	0.003
-643.711	-20.056	0.375	-0.234
-642.697	280.675	-0.121	-0.219
-641.682	-200.000	-0.029	-0.262
-640.668	120.991	0.161	0.203
-639.653	-200.000	-0.037	0.425
-638.638	-13.138	0.370	0.243
-637.624	32.279	0.216	-0.189
-636.609	-129.864	0.323	-0.045
-635.595	-136.396	0.218	0.026
-634.580	258.156	0.113	0.197
-633.565	-13.972	-0.066	-0.043
-632.551	245.765	0.068	-0.116
-631.536	138.468	-0.063	0.083
-630.522	-143.699	0.325	-0.031
-629.507	800.000	-0.098	-0.381
-628.492	162.527	0.119	-0.169
-627.478	-26.188	-0.056	0.033
-626.463	-200.000	0.044	0.214
-625.449	800.000	0.059	-0.203
-624.434	800.000	0.130	-0.373
-623.419	38.055	-0.075	0.067
-622.405	-8.903	0.057	-0.038
-621.390	19.423	-0.114	-0.093
-620.376	241.628	-0.088	0.148
-619.361	-200.000	-0.045	0.267
-618.346	241.157	-0.049	-0.083
-617.332	609.235	0.095	-0.239
-616.317	-104.175	0.394	0.093
-615.303	-200.000	-0.035	-0.261
-614.288	8.066	0.024	0.018
-613.273	37.993	-0.083	-0.074
-612.259	-16.056	-0.240	0.154
-611.244	-145.824	-0.393	-0.035
-610.230	-116.680	-0.183	0.034
-609.215	-189.532	-0.239	0.003
-608.201	0.838	0.172	-0.125
-607.186	-66.383	-0.242	0.097
-606.171	-135.861	-0.272	0.032
-605.157	-200.000	-0.013	0.134
-604.142	-100.022	0.465	-0.117
-603.128	-200.000	-0.026	0.273
-602.113	-176.127	-0.342	-0.009
-601.098	-78.376	-0.142	-0.049
-600.084	-75.792	-0.330	-0.118
-599.069	170.600	0.068	-0.098
-598.055	-150.013	-0.147	0.012
-597.040	715.657	0.099	-0.266
-596.025	800.000	-0.093	0.318
-595.011	-136.888	-0.089	0.010
-593.996	-149.596	0.073	-0.006
-592.982	43.755	-0.166	-0.154
-591.967	-200.000	0.017	0.092
-590.952	-200.000	0.014	-0.161
-589.938	201.106	0.307	-0.477
-588.923	-200.000	0.039	0.179
-587.909	170.581	-0.077	-0.112
-586.894	-92.517	-0.312	0.088
-585.879	-200.000	-0.028	-0.264
-584.865	29.654	-0.267	-0.230
-583.850	16.934	0.144	0.115
-582.836	800.000	0.096	-0.294
-581.821	800.000	-0.072	0.206
-580.806	95.344	0.096	0.110
-579.792	800.000	-0.014	-0.054
-578.777	386.943	-0.085	0.177
-577.763	800.000	0.030	-0.121
-576.748	-3.314	-0.263	-0.185
-575.733	-200.000	0.006	0.160
-574.719	-134.100	-0.097	-0.012
-573.704	-31.758	0.123	-0.070
-572.690	291.350	0.161	-0.296
-571.675	-200.000	-0.017	-0.425
-570.661	729.243	0.108	0.292
-569.646	-200.000	0.039	-0.264
-568.631	-200.000	-0.046	-0.221
-567.617	800.000	0.047	0.161
-566.602	-153.696	0.402	0.028
-565.588	-83.528	0.355	-0.115
-564.573	-132.851	0.385	-0.050
-563.558	-32.760	-0.264	-0.148
-562.544	-44.856	-0.322	-0.162
-561.529	275.249	-0.086	0.155
-560.515	-122.913	-0.361	-0.059
-559.500	-136.854	-0.090	-0.010
-558.485	-84.806	-0.231	0.073
-557.471	-108.424	0.203	0.044
-556.456	35.340	-0.038	-0.033
-555.442	-25.258	-0.359	0.215
-554.427	-129.461	-0.381	-0.053
-553.412	800.000	0.011	0.036
-552.398	-89.540	-0.182	0.054
-551.383	-72.885	0.148	-0.055
-550.369	293.782	-0.093	0.171
-549.354	-200.000	-0.189	-0.000
-548.339	-200.000	0.008	-0.046
-547.325	-118.115	0.429	-0.077
-546.310	-52.628	0.065	-0.030
-545.296	800.000	0.034	0.111
-544.281	-200.000	-0.030	0.276
-543.266	-108.253	-0.245	-0.053
-542.252	-124.206	-0.275	-0.043
-541.237	800.000	0.018	-0.053
-540.223	800.000	0.065	0.180
-539.208	-200.000	0.003	-0.026
-538.193	-101.840	-0.276	0.067
-537.179	246.707	-0.061	-0.103
-536.164	544.085	0.139	0.336
-535.150	-1.535	0.459	0.326
-534.135	-200.000	0.030	0.502
-533.121	-200.000	-0.023	0.105
-532.106	97.128	-0.037	0.042
-531.091	-68.442	-0.132	-0.052
-530.077	-69.396	-0.105	0.041
-529.062	800.000	0.014	0.055
-528.048	119.786	-0.196	-0.245
-527.033	112.479	-0.076	-0.093
-526.018	252.793	0.207	0.356
-525.004	-51.298	-0.463	0.218
-523.989	-200.000	-0.010	0.176
-522.975	-50.435	0.197	0.094
-521.960	-83.118	0.169	-0.055
-520.945	-200.000	-0.028	0.159
-519.931	-200.000	-0.021	-0.218
-518.916	-200.000	-0.001	0.080
-517.902	-140.073	0.031	-0.003
-516.887	69.227	-0.156	-0.162
-515.872	-135.203	0.225	0.027
-514.858	-97.768	-0.329	0.086
-513.843	-17.588	-0.118	0.075
-512.829	-56.605	0.272	-0.121
-511.814	-200.000	0.074	0.349
-510.799	-200.000	-0.007	-0.040
-509.785	-38.915	0.275	-0.146
-508.770	-21.861	-0.103	0.063
-507.756	-77.868	0.159	-0.055
-506.741	-14.148	-0.293	-0.190
-505.726	-120.506	0.057	0.010
-504.712	-74.053	-0.094	-0.034
-503.697	583.459	0.128	-0.317
-502.683	-33.209	-0.021	-0.011
-501.668	252.995	-0.126	-0.216
-500.653	-28.876	0.181	0.105
-499.639	89.330	0.069	0.077
-498.624	-200.000	0.000	0.163
-497.610	-200.000	-0.003	0.127
-496.595	3.641	-0.095	-0.070
-495.581	-200.000	-0.074	0.000
-494.566	-130.719	-0.393	0.053
-493.551	201.342	-0.144	0.223
-492.537	198.336	0.108	-0.166
-491.522	-111.003	0.246	-0.051
-490.508	106.585	-0.191	0.228
-489.493	85.302	0.154	0.170
-488.478	-117.699	-0.219	-0.040
-487.464	-62.192	-0.109	0.046
-486.449	-13.281	-0.237	-0.155
-485.435	84.325	0.136	0.149
-484.420	-200.000	0.021	0.183
-483.405	-200.000	0.183	-0.001
-482.391	-24.727	-0.077	-0.046
-481.376	118.373	-0.208	-0.258
-480.362	92.162	0.223	0.252
-479.347	207.722	-0.259	-0.407
-478.332	-151.632	0.214	0.016
-477.318	-77.564	0.284	0.099
-476.303	-36.097	-0.156	-0.085
-475.289	256.583	0.137	-0.237
-474.274	-200.000	0.026	-0.265
-473.259	-163.139	0.279	-0.014
-472.245	-129.121	0.091	-0.013
-471.230	-200.000	0.057	0.455
-470.216	67.391	-0.266	0.273
-469.201	-125.227	0.386	0.059
-468.186	-200.000	0.006	0.056
-467.172	100.791	-0.210	0.246
-466.157	-149.727	-0.178	0.014
-465.143	-200.000	-0.048	-0.259
-464.128	90.751	0.238	0.268
-463.113	-200.000	-0.028	0.229
-462.099	-53.335	-0.153	0.070
-461.084	-56.632	0.321	0.143
-460.070	-171.047	-0.295	0.010
-459.055	69.171	0.065	-0.067
-458.040	800.000	-0.118	-0.372
-457.026	-129.531	0.055	-0.008
-456.011	-200.000	-0.037	-0.236
-454.997	-37.934	-0.207	-0.111
-453.982	79.148	-0.015	-0.016
-452.968	142.611	-0.161	-0.214
-451.953	-159.245	0.566	-0.032
-450.938	629.352	-0.056	-0.142
-449.924	118.652	-0.110	-0.136
-448.909	-60.172	0.302	0.129
-447.895	-177.442	-0.402	0.010
-446.880	-90.351	0.191	0.056
-445.865	463.014	0.080	0.179
-444.851	63.799	-0.171	0.173
-443.836	-93.971	-0.040	0.011
-442.822	118.165	0.123	-0.152
-441.807	-164.303	-0.257	0.012
-440.792	201.287	0.043	-0.066
-439.778	-8.006	-0.179	-0.121
-438.763	186.458	0.189	0.283
-437.749	89.639	-0.131	0.147
-436.734	-31.090	-0.174	-0.099
-435.719	800.000	-0.087	0.249
-434.705	-8.818	0.319	-0.215
-433.690	-103.983	0.442	0.103
-432.676	122.026	-0.053	-0.066
-431.661	255.952	0.034	-0.059
-430.646	800.000	-0.114	-0.398
-429.632	222.943	-0.063	0.102
-428.617	-135.913	0.217	-0.026
-427.603	-10.731	0.347	0.230
-426.588	-19.129	0.157	-0.098
-425.573	-149.886	-0.212	-0.017
-424.559	-12.042	0.061	0.040
-423.544	-200.000	-0.019	0.133
-422.530	-90.009	-0.222	-0.065
-421.515	161.807	0.087	-0.122
-420.500	59.159	-0.267	-0.264
-419.486	97.938	0.109	-0.126
-418.471	144.253	-0.067	-0.090
-417.457	-172.847	0.218	0.007
-416.442	-40.283	-0.233	-0.122
-415.428	-49.953	-0.202	0.096
-414.413	800.000	0.031	-0.108
-413.398	-137.265	0.190	0.022
-412.384	-200.000	-0.011	0.148
-411.369	-41.163	0.135	0.070
-410.355	-22.475	-0.418	0.254
-409.340	461.302	0.172	0.384
-408.325	114.848	-0.219	0.267
-407.311	23.699	0.183	-0.151
-406.296	-113.531	-0.023	0.005
-405.282	416.231	-0.197	0.422
-404.267	-200.000	0.014	-0.149
-403.252	456.459	-0.196	-0.436
-402.238	-200.000	-0.032	-0.247
-401.223	444.288	0.112	-0.247
-400.209	53.910	0.096	0.093
-399.194	-56.486	0.109	-0.048
-398.179	-200.000	0.004	0.417
-397.165	4.026	0.155	0.114
-396.150	800.000	0.021	-0.080
-395.136	-62.360	0.099	-0.041
-394.121	-58.918	-0.270	0.117
-393.106	-83.158	0.126	-0.041
-392.092	-89.764	-0.244	0.072
-391.077	-0.191	0.067	0.047
-390.063	167.143	-0.092	-0.131
-389.048	-143.581	0.168	0.016
-388.033	-200.000	-0.043	0.365
-387.019	151.558	-0.137	0.187
-386.004	-200.000	-0.006	-0.121
-384.990	86.066	0.092	-0.101
-383.975	105.215	0.041	-0.049
-382.960	-92.808	-0.175	-0.049
-381.946	-57.189	-0.142	0.063
-380.931	-101.389	0.190	-0.046
-379.917	-200.000	-0.015	-0.230
-378.902	100.888	0.184	-0.215
-377.888	-200.000	-0.011	0.088
-376.873	-200.000	-0.018	-0.113
-375.858	390.923	-0.104	0.216
-374.844	18.114	-0.069	0.055
-373.829	-86.704	-0.349	-0.107
-372.815	-62.944	0.105	0.044
-371.800	-157.707	-0.242	-0.014
-370.785	-200.000	0.066	-0.416
-369.771	-111.443	-0.143	-0.029
-368.756	24.748	-0.322	0.267
-367.742	-187.732	0.123	0.002
-366.727	-200.000	-0.071	-0.509
-365.712	-90.311	0.229	0.066
-364.698	-200.000	-0.017	0.098
-363.683	-133.989	-0.369	0.046
-362.669	-26.625	-0.124	0.073
-361.654	-200.000	0.011	-0.218
-360.639	-200.000	0.069	-0.419
-359.625	448.131	-0.199	-0.438
-358.610	-79.863	0.059	0.020
-357.596	800.000	0.071	0.283
-356.581	800.000	0.049	0.160
-355.566	-107.769	-0.259	-0.057
-354.552	50.407	0.283	0.267
-353.537	-8.278	-0.238	0.160
-352.523	-159.595	0.196	-0.011
-351.508	170.565	0.102	-0.147
-350.493	800.000	-0.079	-0.319
-349.479	-25.160	0.423	0.251
-348.464	-200.000	-0.012	-0.362
-347.450	-200.000	-0.062	-0.282
-346.435	81.006	-0.295	-0.319
-345.420	448.203	-0.108	-0.239
-344.406	-112.364	-0.232	-0.046
-343.391	25.377	-0.035	-0.029
-342.377	-103.442	0.131	0.031
-341.362	-2.701	0.142	0.099
-340.348	800.000	-0.035	-0.139
-339.333	-200.000	0.104	0.000
-338.318	-9.344	-0.164	0.110
-337.304	-200.000	0.033	-0.280
-336.289	-26.950	-0.251	0.147
-335.275	-109.417	-0.280	0.059
-334.260	25.016	-0.155	0.128
-333.245	-124.812	0.195	0.030
-332.231	-200.000	0.003	-0.058
-331.216	11.852	0.365	-0.280
-330.202	-20.609	-0.257	-0.158
-329.187	32.021	0.227	0.196
-328.172	-126.422	-0.082	0.012
-327.158	-200.000	-0.001	0.053
-326.143	-131.871	0.505	0.066
-325.129	487.788	0.131	0.298
-324.114	-200.000	0.027	0.334
-323.099	218.207	0.126	-0.201
-322.085	-1.086	0.085	0.060
-321.070	-80.857	-0.180	-0.060
-320.056	281.718	0.207	0.371
-319.041	53.770	-0.079	0.076
-318.026	19.043	0.268	0.215
-317.012	-200.000	0.014	0.243
-315.997	-8.856	0.089	-0.060
-314.983	-29.178	-0.064	-0.037
-313.968	-200.000	0.052	-0.351
-312.953	-141.080	-0.131	0.013
-311.939	-15.280	-0.237	-0.151
-310.924	-200.000	0.017	-0.332
-309.910	188.273	-0.067	-0.100
-308.895	42.059	0.151	0.137
-307.880	-184.549	0.338	0.005
-306.866	168.794	-0.165	0.235
-305.851	344.462	-0.048	0.095
-304.837	629.102	0.031	-0.078
-303.822	167.283	0.081	0.115
-302.807	321.960	-0.175	0.333
-301.793	-200.000	-0.003	0.062
-300.778	-65.883	0.114	0.046
-299.764	75.512	-0.212	0.223
-298.749	-200.000	-0.001	-0.196
-297.735	191.566	-0.205	0.308
-296.720	-19.922	0.282	0.174
-295.705	-4.351	-0.187	0.129
-294.691	-76.206	-0.166	0.059
-293.676	-64.072	-0.091	-0.037
-292.662	222.485	0.045	-0.072
-291.647	288.005	-0.017	-0.032
-290.632	-44.472	0.178	-0.089
-289.618	-200.000	-0.005	0.202
-288.603	138.084	-0.091	-0.119
-287.589	234.095	0.096	0.157
-286.574	213.229	-0.149	0.234
-285.559	42.438	0.157	0.143
-284.545	-146.743	0.160	0.014
-283.530	-2.584	-0.399	-0.279
-282.516	-77.948	-0.274	-0.094
-281.501	-60.444	-0.125	0.053
-280.486	256.569	-0.090	-0.154
-279.472	282.200	0.174	0.311
-278.457	202.212	0.249	0.384
-277.443	-107.999	-0.218	0.047
-276.428	800.000	0.045	0.126
-275.413	78.972	-0.214	0.229
-274.399	-52.622	0.155	-0.072
-273.384	-76.443	0.188	-0.066
-272.370	3.285	0.173	-0.125
-271.355	-61.375	0.313	-0.132
-270.340	70.486	0.149	-0.154
-269.326	-52.938	-0.247	-0.113
-268.311	337.905	0.119	-0.231
-267.297	-200.000	0.013	-0.223
-266.282	762.333	0.162	0.439
-265.267	-86.450	0.709	0.217
-264.253	409.603	-0.168	0.354
-263.238	-200.000	-0.035	0.296
-262.224	354.743	0.034	-0.067
-261.209	78.876	-0.041	-0.044
-260.195	800.000	0.156	0.455
-259.180	-120.156	-0.407	0.069
-258.165	363.638	0.073	-0.147
-257.151	104.800	-0.081	-0.095
-256.136	43.798	0.142	-0.130
-255.122	16.865	-0.115	0.091
-254.107	370.393	0.103	-0.208
-253.092	-94.222	0.160	-0.044
-252.078	9.900	0.180	0.136
-251.063	-7.788	0.073	-0.049
-250.049	-200.000	0.057	-0.254
-249.034	268.415	0.065	0.113
-248.019	96.539	0.175	-0.199
-247.005	3.612	0.234	0.170
-245.990	41.915	0.098	0.089
-244.976	98.080	0.162	-0.186
-243.961	-138.374	0.522	0.057
-242.946	800.000	-0.050	-0.184
-241.932	-104.249	-0.301	0.070
-240.917	271.372	-0.119	0.210
-239.903	-19.188	-0.059	-0.037
-238.888	800.000	0.071	-0.259
-237.873	1.983	0.231	-0.166
-236.859	-2.582	0.038	-0.026
-235.844	-81.062	0.052	0.017
-234.830	150.647	0.062	0.084
-233.815	-105.939	0.141	0.032
-232.800	-4.616	-0.313	-0.215
-231.786	293.189	0.132	0.239
-230.771	25.168	-0.297	-0.246
-229.757	-97.533	-0.099	0.026
-228.742	653.671	-0.075	-0.192
-227.727	800.000	0.017	0.069
-226.713	112.018	0.183	-0.220
-225.698	119.005	0.306	-0.377
-224.684	-143.590	0.086	0.008
-223.669	28.587	0.253	-0.213
-222.655	326.625	0.022	-0.042
-221.640	281.408	0.013	-0.023
-220.625	800.000	0.036	0.120
-219.611	501.592	0.065	0.149
-218.596	-200.000	0.049	-0.452
-217.582	58.288	0.097	0.094
-216.567	800.000	-0.062	-0.182
-215.552	-200.000	0.009	-0.161
-214.538	-116.323	0.275	0.051
-213.523	100.769	0.215	0.249
-212.509	-200.000	-0.007	-0.069
-211.494	118.822	-0.197	-0.242
-210.479	-127.633	-0.175	-0.025
-209.465	657.004	-0.094	-0.241
-208.450	-200.000	-0.036	-0.518
-207.436	152.266	-0.094	-0.127
-206.421	-200.000	0.020	0.204
-205.406	-33.543	0.068	-0.038
-204.392	76.010	-0.225	0.236
-203.377	800.000	-0.062	0.195
-202.363	71.898	0.213	-0.220
-201.348	-200.000	0.011	-0.112
-200.333	-105.563	-0.189	0.043
-199.319	43.081	-0.018	-0.016
-198.304	-113.509	-0.148	-0.029
-197.290	-53.471	0.205	-0.093
-196.275	284.623	0.133	0.239
-195.260	-25.043	-0.422	-0.249
-194.246	-91.780	-0.308	-0.087
-193.231	-200.000	-0.010	0.087
-192.217	800.000	0.098	0.294
-191.202	800.000	0.043	0.128
-190.187	54.675	-0.237	0.228
-189.173	-170.895	-0.126	0.004
-188.158	-0.488	0.194	-0.137
-187.144	-2.398	-0.215	-0.150
-186.129	-157.250	0.056	0.003
-185.114	-200.000	0.006	0.170
-184.100	69.082	0.134	-0.137
-183.085	-84.367	0.400	0.126
-182.071	286.692	0.036	0.064
-181.056	-37.307	-0.232	0.123
-180.042	149.873	-0.207	-0.280
-179.027	374.646	0.097	-0.196
-178.012	54.153	0.167	-0.160
-176.998	-4.280	0.137	-0.094
-175.983	-20.861	0.115	-0.070
-174.969	-59.411	0.117	0.050
-173.954	353.186	0.195	0.384
-172.939	511.604	-0.078	0.181
-171.925	-22.144	0.094	-0.057
-170.910	-126.180	-0.082	0.012
-169.896	-26.772	-0.361	0.209
-168.881	112.083	-0.294	0.353
-167.866	-200.000	0.029	0.173
-166.852	-199.407	0.317	-0.002
-165.837	-27.118	-0.029	0.017
-164.823	800.000	-0.080	-0.220
-163.808	-94.329	-0.237	0.064
-162.793	23.913	0.190	0.156
-161.779	-200.000	0.000	0.365
-160.764	800.000	-0.027	0.101
-159.750	39.421	0.130	-0.115
-158.735	126.610	-0.157	-0.198
-157.720	-200.000	0.033	0.252
-156.706	-104.616	-0.058	-0.013
-155.691	800.000	0.137	-0.401
-154.677	135.273	0.170	0.220
-153.662	-200.000	-0.001	-0.009
-152.647	-147.377	-0.139	0.012
-151.633	299.070	0.119	0.218
-150.618	-115.051	-0.161	0.030
-149.604	16.846	-0.126	-0.099
-148.589	-200.000	-0.015	-0.159
-147.574	-113.981	-0.185	0.036
-146.560	-82.387	-0.087	0.028
-145.545	-200.000	-0.036	-0.264
-144.531	-27.326	0.460	0.266
-143.516	462.652	0.084	0.186
-142.502	-26.857	-0.074	0.043
-141.487	34.199	0.232	-0.201
-140.472	-127.970	0.221	0.031
-139.458	60.470	0.295	0.290
-138.443	-200.000	0.028	-0.187
-137.429	-200.000	0.043	-0.260
-136.414	172.567	-0.049	0.070
-135.399	-200.000	0.052	0.246
-134.385	149.836	0.276	0.372
-133.370	-8.063	0.206	-0.138
-132.356	-97.481	-0.132	-0.034
-131.341	36.823	0.265	0.232
-130.326	-42.833	0.114	0.058
-129.312	800.000	0.148	0.434
-128.297	-68.428	0.325	-0.125
-127.283	-14.765	-0.170	0.108
-126.268	800.000	-0.071	0.256
-125.253	-89.298	-0.251	-0.073
-124.239	-200.000	-0.055	0.238
-123.224	-93.384	0.359	-0.099
-122.210	-58.137	0.168	-0.073
-121.195	-185.028	0.154	-0.002
