DTS Sentinel unit serial number:	SN413079Multiplexer serial number:	ORYXHardware model number:	OX4-SRSoftware version number:	ORYX F/W v4.00 Oryx Data Collector v3.7.2.0data status	okinstallation	princeton_trtdifferential loss correction	single-endedforward channel	channel 2reverse channel	N/Adate	2019/09/16time	07:31:35forward acquisition time	60.00reverse acquisition time	0.00gamma	496.2192k internal	0.2334k external	0.2334temperature offset calibration	0.9977default loss term (dB/km)	0.3790temperature slope calibration	1.0000multiplexer offset coefficient	1.0000multiplexer slope coefficient	1.0000fibre end	0.00T internal ref (°C)	27.62T ext. ref 1 (°C)	11.64T ext. ref 2 (°C)	23.95length (m)	temperature (°C)	Stokes	anti-Stokes-747.200	-119.598	-0.225	0.039
-746.185	37.199	-0.178	0.158
-745.171	-200.000	-0.035	0.272
-744.156	-20.702	0.190	0.117
-743.142	-200.000	-0.027	-0.454
-742.127	-200.000	-0.013	-0.160
-741.112	-200.000	-0.001	0.172
-740.098	-118.718	-0.189	-0.033
-739.083	91.711	-0.170	0.192
-738.069	20.362	0.126	0.103
-737.054	-7.432	-0.054	-0.037
-736.039	-53.694	-0.319	0.146
-735.025	548.693	-0.032	0.076
-734.010	72.505	-0.141	0.148
-732.996	-177.097	-0.365	0.009
-731.981	205.949	0.246	-0.384
-730.966	-108.988	-0.305	0.065
-729.952	-69.715	0.244	-0.094
-728.937	-98.839	-0.230	0.059
-727.923	-123.858	0.169	0.027
-726.908	-115.520	0.091	0.017
-725.894	-130.270	-0.259	-0.035
-724.879	-200.000	-0.031	-0.201
-723.864	-92.602	0.135	-0.038
-722.850	-188.342	-0.291	0.004
-721.835	800.000	-0.067	0.279
-720.821	-47.451	0.198	0.097
-719.806	141.191	0.053	0.071
-718.791	-31.268	-0.311	0.176
-717.777	-92.027	0.081	-0.023
-716.762	-126.771	-0.238	0.035
-715.748	-91.567	-0.071	0.020
-714.733	121.485	0.210	0.262
-713.718	-200.000	-0.002	0.353
-712.704	-111.402	-0.194	-0.040
-711.689	-11.965	-0.241	0.158
-710.675	-200.000	0.017	-0.173
-709.660	-116.597	0.303	0.056
-708.645	-20.681	0.304	-0.187
-707.631	235.616	0.137	0.227
-706.616	-39.433	-0.138	-0.073
-705.602	156.131	-0.172	0.238
-704.587	20.583	-0.032	-0.026
-703.572	-53.569	0.450	0.206
-702.558	-143.106	-0.179	0.017
-701.543	404.020	0.010	0.022
-700.529	-200.000	0.021	0.150
-699.514	-44.595	-0.223	-0.112
-698.499	323.328	-0.083	-0.159
-697.485	-67.828	0.195	-0.077
-696.470	85.704	-0.096	-0.106
-695.456	24.906	0.023	0.019
-694.441	-132.496	0.284	0.037
-693.426	267.255	0.113	0.198
-692.412	381.925	-0.089	-0.183
-691.397	-200.000	0.070	-0.326
-690.383	-38.216	-0.259	-0.138
-689.368	216.336	0.061	-0.098
-688.354	247.451	-0.086	-0.145
-687.339	-119.547	-0.094	0.016
-686.324	-109.629	-0.278	0.059
-685.310	-94.997	-0.059	-0.016
-684.295	-200.000	-0.004	-0.266
-683.281	-147.756	0.130	-0.011
-682.266	-36.464	-0.214	0.115
-681.251	-176.359	0.076	0.002
-680.237	-12.467	0.252	-0.165
-679.222	-200.000	0.031	0.185
-678.208	106.767	-0.071	-0.084
-677.193	-200.000	0.010	-0.209
-676.178	-154.849	0.150	0.010
-675.164	104.157	0.183	-0.216
-674.149	30.178	-0.303	-0.259
-673.135	-200.000	-0.057	0.259
-672.120	61.924	0.142	0.142
-671.105	189.076	0.202	-0.304
-670.091	71.063	-0.131	0.137
-669.076	600.044	0.110	0.274
-668.062	504.995	-0.111	-0.258
-667.047	5.563	-0.085	0.063
-666.032	67.019	-0.244	-0.250
-665.018	-200.000	0.043	0.232
-664.003	-21.415	-0.265	0.162
-662.989	133.337	-0.098	-0.127
-661.974	-200.000	-0.045	-0.282
-660.959	-200.000	0.013	0.097
-659.945	86.282	0.051	-0.056
-658.930	-130.822	-0.308	-0.041
-657.916	-51.341	0.289	0.136
-656.901	-89.077	0.127	-0.038
-655.886	57.716	-0.370	0.362
-654.872	-200.000	0.010	-0.360
-653.857	-0.543	-0.251	0.178
-652.843	-16.519	-0.280	-0.178
-651.828	-200.000	-0.024	-0.132
-650.814	-200.000	0.006	-0.243
-649.799	-200.000	-0.053	0.238
-648.784	52.137	-0.142	0.136
-647.770	136.914	-0.043	-0.056
-646.755	205.027	-0.193	0.300
-645.741	-98.394	0.245	-0.063
-644.726	-12.868	-0.181	-0.118
-643.711	469.122	0.083	-0.187
-642.697	46.535	-0.208	-0.193
-641.682	-129.853	0.230	0.032
-640.668	177.468	-0.118	0.172
-639.653	-46.094	-0.303	0.149
-638.638	-200.000	-0.000	0.008
-637.624	53.606	0.174	0.167
-636.609	493.126	0.115	0.264
-635.595	117.460	-0.079	-0.097
-634.580	800.000	0.021	0.060
-633.565	-200.000	-0.032	0.207
-632.551	800.000	-0.193	0.602
-631.536	-15.719	-0.093	-0.060
-630.522	58.329	0.213	-0.209
-629.507	114.194	0.214	0.260
-628.492	97.263	-0.039	-0.045
-627.478	73.712	0.122	0.128
-626.463	-123.281	-0.242	-0.039
-625.449	-98.308	-0.200	0.051
-624.434	25.996	-0.311	0.259
-623.419	71.858	0.199	-0.207
-622.405	160.216	-0.066	-0.093
-621.390	-131.982	-0.121	-0.016
-620.376	-76.335	0.161	0.057
-619.361	488.688	-0.083	0.189
-618.346	361.370	-0.077	0.154
-617.332	512.821	0.096	0.225
-616.317	800.000	0.089	0.281
-615.303	-113.714	-0.365	0.071
-614.288	800.000	0.019	-0.053
-613.273	125.911	-0.092	-0.116
-612.259	-79.835	0.122	0.041
-611.244	352.079	-0.067	-0.133
-610.230	-118.666	0.156	-0.028
-609.215	-21.964	-0.150	-0.091
-608.201	224.727	0.112	-0.182
-607.186	237.326	-0.188	-0.312
-606.171	309.596	0.079	0.147
-605.157	-200.000	-0.008	0.314
-604.142	-24.973	-0.122	-0.072
-603.128	5.037	0.159	0.117
-602.113	235.024	-0.076	-0.126
-601.098	-136.472	0.098	0.011
-600.084	-42.531	-0.013	-0.006
-599.069	-9.512	-0.008	-0.006
-598.055	-200.000	0.009	0.354
-597.040	-200.000	-0.054	-0.387
-596.025	-137.908	0.204	-0.023
-595.011	217.500	-0.071	0.113
-593.996	37.702	0.131	-0.116
-592.982	-116.794	0.228	0.042
-591.967	322.144	0.122	0.232
-590.952	161.202	0.031	0.044
-589.938	296.015	0.146	-0.266
-588.923	761.421	-0.114	-0.309
-587.909	-152.432	0.185	-0.013
-586.894	-2.889	-0.084	-0.058
-585.879	284.947	0.122	0.220
-584.865	583.870	-0.037	-0.090
-583.850	-28.658	-0.437	0.251
-582.836	-200.000	-0.093	-0.518
-581.821	-125.508	0.278	-0.042
-580.806	201.557	-0.179	0.276
-579.792	253.917	-0.100	-0.171
-578.777	-158.982	0.224	0.013
-577.763	65.470	-0.230	-0.233
-576.748	-53.929	-0.234	0.106
-575.733	800.000	0.080	-0.228
-574.719	-200.000	-0.032	0.255
-573.704	-200.000	0.018	0.152
-572.690	-200.000	0.001	0.128
-571.675	-71.272	-0.161	-0.060
-570.661	-104.675	-0.164	0.038
-569.646	260.209	-0.155	0.268
-568.631	-135.903	-0.088	-0.010
-567.617	-16.985	0.170	-0.107
-566.602	-91.009	-0.145	0.041
-565.588	-0.752	-0.122	0.087
-564.573	-60.046	0.248	0.106
-563.558	-138.142	0.058	-0.006
-562.544	151.244	0.271	-0.369
-561.529	133.523	-0.127	-0.164
-560.515	43.355	0.088	-0.081
-559.500	800.000	-0.066	0.209
-558.485	800.000	0.014	0.051
-557.471	-200.000	0.013	0.216
-556.456	35.405	0.089	-0.078
-555.442	-81.650	0.036	-0.012
-554.427	22.127	-0.111	0.090
-553.412	577.911	0.087	0.212
-552.398	-200.000	0.027	-0.240
-551.383	207.205	0.190	0.296
-550.369	-59.757	-0.316	-0.135
-549.354	263.851	0.113	0.196
-548.339	-153.936	-0.361	0.025
-547.325	39.542	-0.137	-0.123
-546.310	-93.249	-0.089	-0.025
-545.296	128.180	-0.176	-0.223
-544.281	-200.000	-0.064	-0.319
-543.266	103.639	0.143	-0.167
-542.252	-39.443	0.180	-0.094
-541.237	-77.627	0.188	-0.065
-540.223	-200.000	-0.029	-0.251
-539.208	3.792	-0.136	-0.099
-538.193	-182.285	-0.398	0.007
-537.179	-122.589	0.098	-0.016
-536.164	59.951	-0.328	-0.323
-535.150	-71.308	0.117	-0.044
-534.135	113.576	-0.082	-0.100
-533.121	-200.000	-0.006	0.105
-532.106	-200.000	0.025	0.133
-531.091	-87.697	-0.124	0.037
-530.077	-150.431	0.157	-0.012
-529.062	-66.165	0.066	-0.026
-528.048	356.251	-0.130	0.259
-527.033	667.080	0.057	0.146
-526.018	-45.577	-0.280	0.138
-525.004	-102.832	-0.158	-0.037
-523.989	-6.428	-0.080	0.055
-522.975	-156.569	-0.166	0.010
-521.960	-200.000	0.009	-0.068
-520.945	-200.000	-0.005	-0.094
-519.931	800.000	0.076	0.266
-518.916	545.095	0.028	0.068
-517.902	44.233	0.176	-0.161
-516.887	174.342	0.222	0.320
-515.872	93.078	-0.035	0.039
-514.858	800.000	-0.034	0.142
-513.843	-70.814	0.308	0.116
-512.829	-83.943	-0.265	-0.084
-511.814	-86.909	0.363	0.110
-510.799	-130.169	0.183	-0.025
-509.785	-200.000	-0.002	0.022
-508.770	-184.451	0.226	-0.004
-507.756	800.000	-0.070	-0.263
-506.741	-8.867	-0.140	-0.093
-505.726	-149.951	-0.271	0.021
-504.712	-200.000	-0.033	-0.257
-503.697	-189.032	0.357	0.004
-502.683	-8.989	-0.091	0.061
-501.668	-200.000	0.026	-0.176
-500.653	77.633	-0.080	0.085
-499.639	-44.596	0.075	-0.037
-498.624	800.000	0.070	-0.221
-497.610	-151.222	-0.155	0.012
-496.595	46.839	-0.195	0.181
-495.581	-8.462	0.216	-0.145
-494.566	-115.806	-0.494	-0.092
-493.551	698.435	0.068	-0.178
-492.537	441.157	0.119	0.260
-491.522	51.933	-0.018	0.017
-490.508	800.000	0.072	-0.258
-489.493	-200.000	0.047	0.421
-488.478	-200.000	-0.015	0.177
-487.464	752.975	0.117	0.313
-486.449	-200.000	0.030	0.161
-485.435	-124.146	-0.229	0.036
-484.420	143.774	-0.169	-0.225
-483.405	265.145	0.081	0.141
-482.391	-151.121	0.069	-0.005
-481.376	-94.007	-0.279	-0.076
-480.362	-117.032	-0.008	0.002
-479.347	-115.305	0.326	-0.061
-478.332	-200.000	-0.005	0.393
-477.318	-200.000	-0.045	-0.317
-476.303	-200.000	0.024	-0.208
-475.289	800.000	-0.009	0.038
-474.274	-165.744	0.379	-0.016
-473.259	-36.678	0.128	0.069
-472.245	-200.000	-0.022	-0.170
-471.230	-200.000	-0.001	-0.031
-470.216	293.615	-0.072	-0.131
-469.201	104.898	-0.089	0.104
-468.186	-200.000	-0.066	0.308
-467.172	-61.181	0.090	-0.038
-466.157	-109.263	-0.118	-0.025
-465.143	-200.000	0.020	0.369
-464.128	-135.231	-0.128	-0.015
-463.113	800.000	-0.119	0.460
-462.099	800.000	0.117	0.474
-461.084	-91.936	0.406	-0.114
-460.070	124.686	-0.047	-0.058
-459.055	68.649	-0.170	-0.173
-458.040	-124.696	-0.228	0.035
-457.026	-113.477	-0.383	0.075
-456.011	-200.000	0.040	-0.281
-454.997	-12.090	0.107	0.070
-453.982	800.000	-0.059	0.214
-452.968	-200.000	-0.066	0.308
-451.953	-83.528	0.372	-0.118
-450.938	85.318	-0.161	0.175
-449.924	-76.558	-0.102	-0.036
-448.909	147.870	0.079	-0.106
-447.895	-77.524	0.179	0.062
-446.880	39.970	-0.287	-0.256
-445.865	133.058	0.212	-0.272
-444.851	-40.068	0.131	-0.068
-443.836	213.236	-0.110	-0.172
-442.822	-200.000	-0.006	-0.197
-441.807	-74.386	-0.165	0.059
-440.792	-200.000	0.029	-0.249
-439.778	202.419	-0.099	0.151
-438.763	21.882	-0.147	-0.119
-437.749	-43.705	-0.315	-0.158
-436.734	118.390	0.111	-0.136
-435.719	-200.000	0.082	-0.531
-434.705	-200.000	0.067	-0.430
-433.690	45.111	-0.087	0.079
-432.676	-200.000	-0.020	0.458
-431.661	-55.926	0.194	0.086
-430.646	428.895	0.096	-0.206
-429.632	-200.000	0.032	-0.255
-428.617	48.811	-0.354	0.330
-427.603	-126.796	-0.233	-0.034
-426.588	-65.744	-0.147	-0.058
-425.573	-88.157	0.127	-0.038
-424.559	-142.082	0.120	0.012
-423.544	80.274	0.105	-0.112
-422.530	-200.000	0.006	-0.079
-421.515	-200.000	0.000	0.101
-420.500	315.004	0.071	0.133
-419.486	-98.435	-0.191	-0.048
-418.471	-200.000	-0.005	-0.145
-417.457	-89.638	0.238	0.069
-416.442	-200.000	0.006	0.074
-415.428	-80.971	-0.382	-0.126
-414.413	2.645	0.077	-0.055
-413.398	-123.187	0.282	-0.045
-412.384	-200.000	-0.007	-0.085
-411.369	-60.523	-0.318	-0.134
-410.355	17.412	-0.100	0.079
-409.340	-200.000	-0.003	-0.178
-408.325	-132.988	0.315	-0.040
-407.311	69.548	-0.336	0.344
-406.296	-64.445	0.311	0.125
-405.282	-81.424	-0.111	0.036
-404.267	269.771	0.072	0.125
-403.252	-200.000	0.168	0.000
-402.238	-75.639	-0.169	-0.060
-401.223	7.579	0.061	-0.045
-400.209	-93.991	-0.427	0.116
-399.194	6.310	0.205	-0.151
-398.179	28.627	0.136	-0.114
-397.165	95.261	0.361	-0.408
-396.150	800.000	0.065	0.283
-395.136	349.601	0.046	-0.090
-394.121	-62.861	-0.081	-0.033
-393.106	-200.000	-0.009	-0.268
-392.092	33.247	0.237	-0.204
-391.077	-3.718	-0.144	-0.099
-390.063	239.812	0.126	-0.208
-389.048	475.849	0.093	0.209
-388.033	415.143	0.062	-0.130
-387.019	-151.794	-0.549	0.040
-386.004	623.620	-0.088	0.219
-384.990	-200.000	0.015	-0.280
-383.975	-200.000	0.044	0.236
-382.960	24.284	-0.113	-0.093
-381.946	-124.807	-0.479	-0.073
-380.931	-107.686	0.219	0.047
-379.917	3.846	-0.262	0.190
-378.902	-45.822	0.407	0.199
-377.888	-200.000	-0.016	-0.097
-376.873	158.368	-0.140	-0.192
-375.858	-164.573	-0.294	-0.013
-374.844	70.090	-0.233	-0.238
-373.829	110.122	0.089	0.106
-372.815	-69.604	0.258	0.098
-371.800	-200.000	-0.011	-0.297
-370.785	51.858	0.245	0.231
-369.771	1.442	-0.170	0.121
-368.756	264.815	0.089	0.154
-367.742	201.916	0.044	-0.067
-366.727	256.856	-0.171	0.291
-365.712	504.922	-0.016	-0.038
-364.698	-25.840	-0.204	0.119
-363.683	-200.000	0.042	0.374
-362.669	-200.000	-0.003	0.082
-361.654	161.781	0.271	0.376
-360.639	-42.438	0.485	-0.245
-359.625	267.552	0.185	-0.320
-358.610	-200.000	-0.030	-0.134
-357.596	-33.433	0.121	-0.066
-356.581	311.256	0.130	-0.241
-355.566	800.000	-0.055	0.160
-354.552	-51.163	0.311	-0.144
-353.537	-200.000	0.003	-0.248
-352.523	324.184	-0.199	0.376
-351.508	528.662	-0.030	0.069
-350.493	29.880	0.089	0.075
-349.479	7.335	0.234	-0.173
-348.464	444.307	0.163	-0.354
-347.450	-200.000	0.009	0.350
-346.435	-17.686	-0.054	0.033
-345.420	-200.000	-0.028	0.369
-344.406	114.266	-0.105	0.127
-343.391	-73.465	0.153	-0.055
-342.377	5.862	0.284	-0.208
-341.362	148.384	-0.320	-0.427
-340.348	-152.754	-0.043	0.003
-339.333	29.852	0.181	0.153
-338.318	-78.224	-0.299	-0.102
-337.304	-179.093	0.449	-0.010
-336.289	12.368	0.295	0.225
-335.275	227.497	-0.191	-0.307
-334.260	-200.000	0.011	-0.102
-333.245	-102.086	-0.253	-0.060
-332.231	-200.000	0.004	-0.195
-331.216	276.712	-0.142	0.250
-330.202	-111.526	0.161	0.032
-329.187	-200.000	0.041	-0.353
-328.172	-41.392	0.090	0.046
-327.158	202.693	-0.102	0.156
-326.143	-2.356	-0.394	-0.273
-325.129	544.798	0.099	-0.234
-324.114	7.329	-0.202	-0.149
-323.099	26.503	0.169	0.140
-322.085	434.269	0.098	-0.211
-321.070	-200.000	0.039	-0.188
-320.056	-114.989	-0.048	0.009
-319.041	485.842	0.127	-0.287
-318.026	-54.300	-0.075	0.034
-317.012	29.682	0.116	-0.097
-315.997	-36.795	0.082	-0.044
-314.983	86.805	-0.092	-0.101
-313.968	-55.291	0.225	0.100
-312.953	-142.513	0.143	0.014
-311.939	800.000	0.047	-0.178
-310.924	645.113	-0.153	0.387
-309.910	38.268	0.312	0.274
-308.895	-141.404	0.245	-0.024
-307.880	266.160	-0.076	0.132
-306.866	-6.377	-0.074	-0.050
-305.851	-200.000	0.042	0.309
-304.837	136.545	-0.134	-0.173
-303.822	-98.234	0.148	0.038
-302.807	638.842	0.069	0.173
-301.793	-200.000	0.003	-0.144
-300.778	-68.754	0.260	-0.099
-299.764	242.148	-0.173	0.286
-298.749	-44.191	0.290	0.144
-297.735	308.149	-0.118	0.217
-296.720	-59.372	0.121	-0.051
-295.705	126.425	0.090	-0.113
-294.691	-175.623	0.105	0.003
-293.676	348.335	0.100	0.194
-292.662	-200.000	-0.004	0.036
-291.647	793.120	0.051	-0.138
-290.632	800.000	0.059	0.236
-289.618	-200.000	0.006	0.160
-288.603	141.227	0.201	0.262
-287.589	-63.060	0.176	0.072
-286.574	-200.000	-0.047	-0.227
-285.559	26.302	0.323	-0.267
-284.545	-66.863	-0.287	0.112
-283.530	71.118	0.122	-0.125
-282.516	-84.812	0.134	-0.042
-281.501	265.493	0.115	-0.197
-280.486	-153.292	-0.132	-0.009
-279.472	447.257	-0.102	-0.221
-278.457	800.000	-0.076	-0.265
-277.443	126.882	0.198	0.248
-276.428	-33.324	0.187	0.102
-275.413	-200.000	0.004	0.255
-274.399	285.398	0.039	-0.070
-273.384	-128.453	0.290	0.041
-272.370	-200.000	0.080	0.426
-271.355	-85.097	-0.414	0.128
-270.340	-61.832	-0.161	-0.067
-269.326	80.951	-0.200	0.213
-268.311	-49.144	0.129	0.061
-267.297	-200.000	0.209	-0.001
-266.282	493.484	0.106	-0.241
-265.267	502.248	-0.033	0.075
-264.253	-53.133	-0.409	-0.185
-263.238	191.582	0.157	-0.233
-262.224	-58.602	-0.270	0.115
-261.209	39.525	0.134	-0.118
-260.195	-55.378	-0.227	0.101
-259.180	318.266	-0.095	-0.178
-258.165	-80.967	0.231	0.075
-257.151	-45.166	-0.337	-0.165
-256.136	-18.710	-0.162	0.099
-255.122	97.089	-0.164	-0.185
-254.107	5.273	-0.085	0.062
-253.092	-123.445	-0.051	0.008
-252.078	-7.696	-0.221	0.147
-251.063	176.402	-0.141	0.202
-250.049	-25.905	0.137	0.079
-249.034	66.632	0.221	-0.222
-248.019	-200.000	-0.031	0.352
-247.005	172.619	0.123	0.175
-245.990	22.265	-0.165	-0.133
-244.976	-86.093	-0.213	-0.065
-243.961	-103.884	0.094	-0.022
-242.946	-200.000	0.027	0.130
-241.932	800.000	0.095	-0.282
-240.917	-112.567	-0.316	0.062
-239.903	716.216	0.069	0.181
-238.888	767.539	0.052	0.140
-237.873	-35.729	0.089	0.047
-236.859	-200.000	0.048	-0.370
-235.844	377.343	0.114	-0.230
-234.830	-200.000	0.010	-0.255
-233.815	-200.000	0.021	-0.163
-232.800	617.622	0.092	-0.228
-231.786	102.937	0.159	-0.184
-230.771	-200.000	0.069	0.308
-229.757	19.622	0.058	-0.046
-228.742	-1.976	-0.155	-0.108
-227.727	192.957	0.039	-0.058
-226.713	-200.000	-0.066	0.310
-225.698	-52.625	0.204	0.093
-224.684	-20.013	0.211	0.128
-223.669	72.813	-0.107	0.110
-222.655	-200.000	0.015	-0.083
-221.640	334.585	0.154	-0.295
-220.625	-66.659	-0.199	0.078
-219.611	-22.262	-0.265	0.158
-218.596	415.922	-0.045	0.096
-217.582	-7.255	0.209	0.140
-216.567	-78.114	-0.215	0.073
-215.552	-200.000	0.036	0.238
-214.538	-3.008	-0.142	0.097
-213.523	-200.000	-0.023	0.259
-212.509	800.000	0.068	0.202
-211.494	800.000	-0.063	0.206
-210.479	-147.623	0.069	-0.006
-209.465	369.826	0.226	-0.451
-208.450	86.228	0.032	0.034
-207.436	-200.000	-0.064	0.404
-206.421	162.403	0.078	0.107
-205.406	800.000	-0.091	0.263
-204.392	-106.379	0.082	0.018
-203.377	85.869	0.075	0.082
-202.363	800.000	0.043	-0.178
-201.348	132.005	-0.146	-0.185
-200.333	553.090	-0.157	-0.372
-199.319	366.238	0.169	0.335
-198.304	31.686	-0.266	0.226
-197.290	154.736	-0.080	-0.109
-196.275	800.000	0.054	0.230
-195.260	-110.900	0.121	-0.024
-194.246	-114.537	-0.291	-0.055
-193.231	-16.338	0.214	-0.133
-192.217	198.151	-0.123	-0.185
-191.202	87.408	0.105	-0.114
-190.187	-66.433	0.295	-0.115
-189.173	800.000	-0.027	0.115
-188.158	-68.181	-0.228	-0.087
-187.144	33.613	0.043	-0.036
-186.129	-126.110	0.098	-0.014
-185.114	-9.960	-0.247	-0.162
-184.100	90.452	-0.143	0.158
-183.085	800.000	-0.046	0.164
-182.071	800.000	0.107	-0.405
-181.056	-165.078	0.162	0.007
-180.042	-26.118	-0.287	0.166
-179.027	51.450	0.206	-0.193
-178.012	706.186	0.018	-0.047
-176.998	-200.000	-0.034	-0.235
-175.983	57.464	0.298	-0.286
-174.969	412.487	0.117	0.244
-173.954	800.000	-0.072	-0.285
-172.939	-200.000	-0.027	-0.175
-171.925	-40.397	-0.121	0.062
-170.910	368.015	-0.026	-0.051
-169.896	292.131	0.017	0.031
-168.881	672.593	0.109	-0.278
-167.866	167.920	0.099	0.139
-166.852	108.356	-0.152	-0.178
-165.837	-200.000	0.017	-0.169
-164.823	72.978	-0.097	0.100
-163.808	-111.178	0.084	0.017
-162.793	-138.165	0.033	-0.004
-161.779	-88.357	0.203	-0.060
-160.764	-171.673	0.143	-0.005
-159.750	-52.802	-0.125	-0.057
-158.735	-200.000	0.045	-0.215
-157.720	800.000	0.060	0.236
-156.706	-28.341	-0.068	-0.038
-155.691	128.727	-0.183	0.229
-154.677	-147.409	-0.261	-0.022
-153.662	-153.513	0.324	-0.022
-152.647	800.000	-0.067	0.191
-151.633	-77.380	0.118	-0.040
-150.618	180.363	0.065	0.094
-149.604	-114.987	0.313	0.058
-148.589	-200.000	-0.014	0.357
-147.574	-200.000	0.037	0.210
-146.560	-14.726	-0.033	0.021
-145.545	789.316	-0.085	0.229
-144.531	91.067	0.267	0.294
-143.516	308.606	0.116	0.213
-142.502	-44.748	-0.108	0.053
-141.487	252.003	0.180	-0.300
-140.472	-145.853	-0.229	0.020
-139.458	53.666	0.148	-0.140
-138.443	-71.178	0.216	0.080
-137.429	-92.260	-0.095	-0.026
-136.414	-96.407	0.156	0.041
-135.399	338.930	-0.081	-0.154
-134.385	50.475	0.123	-0.114
-133.370	92.471	0.392	0.434
-132.356	145.876	0.201	-0.265
-131.341	58.919	0.074	-0.072
-130.326	-200.000	-0.014	0.177
-129.312	-161.041	0.475	-0.024
-128.297	-157.966	-0.502	0.029
-127.283	-200.000	0.027	0.190
-126.268	213.840	-0.169	0.262
-125.253	-70.066	-0.120	-0.045
-124.239	-21.355	0.395	0.237
-123.224	-200.000	0.027	-0.193
-122.210	432.066	0.049	-0.103
-121.195	1.229	-0.166	-0.117
