DTS Sentinel unit serial number:	SN413079Multiplexer serial number:	ORYXHardware model number:	OX4-SRSoftware version number:	ORYX F/W v4.00 Oryx Data Collector v3.7.2.0data status	okinstallation	princeton_trtdifferential loss correction	single-endedforward channel	channel 2reverse channel	N/Adate	2019/09/17time	18:03:35forward acquisition time	60.00reverse acquisition time	0.00gamma	496.2192k internal	0.2288k external	0.2288temperature offset calibration	0.9980default loss term (dB/km)	0.3790temperature slope calibration	1.0000multiplexer offset coefficient	1.0000multiplexer slope coefficient	1.0000fibre end	0.00T internal ref (°C)	43.50T ext. ref 1 (°C)	0.33T ext. ref 2 (°C)	38.13length (m)	temperature (°C)	Stokes	anti-Stokes-747.200	61.874	0.116	-0.119
-746.185	800.000	0.066	0.257
-745.171	118.278	-0.042	0.053
-744.156	-200.000	-0.015	0.213
-743.142	-56.106	0.279	-0.128
-742.127	14.566	0.181	0.145
-741.112	-39.442	-0.055	0.029
-740.098	98.088	-0.332	0.391
-739.083	-160.513	0.439	-0.024
-738.069	-148.286	-0.246	0.021
-737.054	-57.796	0.343	0.154
-736.039	-98.288	0.146	-0.038
-735.025	211.576	0.069	0.112
-734.010	89.178	0.077	-0.088
-732.996	-200.000	0.028	-0.265
-731.981	-107.025	0.101	-0.023
-730.966	15.178	-0.188	0.151
-729.952	-125.150	-0.139	-0.022
-728.937	-63.787	-0.211	-0.089
-727.923	177.229	0.116	0.174
-726.908	-50.374	0.110	0.053
-725.894	-129.768	-0.297	0.042
-724.879	744.899	0.062	-0.171
-723.864	46.742	0.198	-0.188
-722.850	233.665	0.061	0.103
-721.835	-127.548	-0.123	-0.018
-720.821	554.416	-0.039	0.095
-719.806	-200.000	0.016	-0.121
-718.791	308.715	0.047	-0.090
-717.777	-57.199	-0.356	-0.160
-716.762	-85.378	-0.420	-0.134
-715.748	-56.282	0.141	0.064
-714.733	188.271	0.171	-0.262
-713.718	-200.000	-0.028	0.147
-712.704	-115.632	-0.266	0.051
-711.689	-3.629	-0.126	-0.090
-710.675	281.322	0.124	0.228
-709.660	-66.395	0.453	-0.184
-708.645	-81.229	-0.127	0.043
-707.631	-200.000	-0.019	0.230
-706.616	35.511	0.113	-0.101
-705.602	246.260	-0.076	0.132
-704.587	204.189	-0.217	0.344
-703.572	-144.135	0.102	0.010
-702.558	-195.898	0.193	0.001
-701.543	448.169	-0.024	-0.055
-700.529	-118.366	-0.209	0.038
-699.514	-137.431	0.185	-0.021
-698.499	154.690	-0.045	0.063
-697.485	-10.049	0.212	0.144
-696.470	35.737	0.159	0.143
-695.456	-160.660	0.164	-0.009
-694.441	255.907	-0.034	0.060
-693.426	364.529	0.081	0.166
-692.412	-200.000	-0.038	0.173
-691.397	-35.125	0.213	0.119
-690.383	692.552	-0.050	-0.133
-689.368	25.877	0.056	0.048
-688.354	-200.000	-0.022	-0.110
-687.339	-27.731	-0.255	-0.151
-686.324	-23.227	0.097	-0.060
-685.310	516.383	-0.099	0.236
-684.295	-28.458	-0.147	-0.087
-683.281	-2.507	0.103	0.074
-682.266	13.793	-0.188	-0.149
-681.251	-200.000	-0.014	0.145
-680.237	355.523	-0.109	0.222
-679.222	-19.351	0.121	0.077
-678.208	-200.000	-0.044	0.000
-677.193	-200.000	-0.013	0.097
-676.178	-159.441	-0.118	-0.007
-675.164	-16.700	-0.138	-0.089
-674.149	35.986	-0.386	0.347
-673.135	0.432	-0.329	-0.241
-672.120	201.953	0.257	0.406
-671.105	-37.085	0.087	0.048
-670.091	-44.898	-0.337	0.172
-669.076	-180.081	-0.207	-0.004
-668.062	299.318	-0.072	0.136
-667.047	-200.000	0.041	-0.238
-666.032	5.823	0.186	-0.141
-665.018	-6.593	-0.059	0.041
-664.003	-200.000	0.023	-0.360
-662.989	283.001	-0.031	-0.058
-661.974	685.747	-0.110	0.295
-660.959	56.477	0.072	0.072
-659.945	-57.333	-0.168	0.076
-658.930	5.882	0.338	-0.256
-657.916	-200.000	0.151	-0.770
-656.901	-3.596	-0.147	-0.105
-655.886	70.875	-0.146	0.154
-654.872	156.815	-0.082	0.116
-653.857	123.623	-0.150	0.192
-652.843	-200.000	0.007	-0.035
-651.828	-4.055	0.091	0.064
-650.814	-64.719	-0.421	-0.174
-649.799	-99.976	-0.125	0.032
-648.784	83.614	0.205	0.228
-647.770	-45.614	-0.293	0.148
-646.755	346.989	-0.093	0.188
-645.741	800.000	-0.055	-0.184
-644.726	-116.130	0.119	-0.023
-643.711	800.000	0.093	0.337
-642.697	-193.215	-0.596	-0.005
-641.682	354.046	-0.120	-0.244
-640.668	-200.000	0.005	-0.192
-639.653	93.082	-0.132	-0.152
-638.638	-101.904	0.159	-0.039
-637.624	-141.749	0.163	0.017
-636.609	-59.934	-0.152	0.066
-635.595	-117.123	0.256	-0.048
-634.580	84.489	0.227	-0.254
-633.565	-48.248	-0.190	0.094
-632.551	-11.735	-0.132	-0.089
-631.536	489.888	-0.085	-0.199
-630.522	-125.823	-0.154	0.024
-629.507	800.000	0.046	0.154
-628.492	-63.980	0.186	-0.078
-627.478	770.784	-0.170	-0.473
-626.463	-200.000	-0.030	-0.428
-625.449	-95.066	-0.092	-0.025
-624.434	145.312	0.092	0.126
-623.419	67.415	-0.337	-0.351
-622.405	-200.000	-0.003	0.029
-621.390	-82.293	0.399	0.133
-620.376	800.000	0.067	-0.204
-619.361	-2.736	0.178	-0.127
-618.346	12.365	0.014	0.011
-617.332	58.107	0.046	0.046
-616.317	-200.000	-0.017	-0.236
-615.303	-200.000	-0.011	-0.120
-614.288	43.929	0.047	-0.044
-613.273	-200.000	-0.012	0.341
-612.259	163.970	0.106	0.152
-611.244	-200.000	-0.049	-0.291
-610.230	-41.159	0.072	-0.038
-609.215	-186.442	-0.401	0.006
-608.201	5.380	0.198	0.149
-607.186	171.149	-0.148	0.217
-606.171	-200.000	-0.048	-0.313
-605.157	-200.000	-0.013	0.138
-604.142	-200.000	0.000	-0.376
-603.128	-1.557	0.057	0.041
-602.113	-102.618	-0.131	-0.032
-601.098	-200.000	0.008	-0.172
-600.084	-200.000	0.025	-0.216
-599.069	-200.000	0.016	-0.073
-598.055	-83.823	-0.213	-0.069
-597.040	194.819	-0.128	-0.198
-596.025	800.000	-0.095	-0.369
-595.011	611.511	-0.099	0.253
-593.996	-64.187	0.216	-0.090
-592.982	-133.522	0.088	0.011
-591.967	800.000	-0.071	0.270
-590.952	-200.000	-0.055	-0.441
-589.938	263.344	-0.107	-0.190
-588.923	65.676	-0.134	-0.139
-587.909	-200.000	-0.031	0.156
-586.894	238.921	0.130	-0.221
-585.879	-44.157	-0.082	0.042
-584.865	-121.840	0.197	0.033
-583.850	246.645	0.193	-0.332
-582.836	-28.662	0.063	0.037
-581.821	-172.281	-0.054	0.002
-580.806	22.284	-0.011	-0.009
-579.792	75.913	-0.040	-0.044
-578.777	-42.138	-0.283	-0.147
-577.763	-200.000	-0.009	0.176
-576.748	-53.856	0.243	-0.113
-575.733	58.864	0.040	-0.040
-574.719	-37.549	-0.314	-0.171
-573.704	59.594	-0.036	-0.037
-572.690	800.000	-0.063	-0.205
-571.675	-80.078	0.120	-0.041
-570.661	47.566	-0.159	0.151
-569.646	10.469	-0.386	0.299
-568.631	-77.794	-0.297	0.104
-567.617	399.399	0.176	0.375
-566.602	88.480	0.184	0.208
-565.588	-200.000	0.018	0.170
-564.573	-22.390	-0.219	-0.135
-563.558	800.000	-0.038	-0.166
-562.544	-50.747	-0.214	0.102
-561.529	213.250	-0.085	-0.137
-560.515	-183.216	0.087	-0.002
-559.500	3.703	0.113	-0.084
-558.485	517.626	0.086	0.204
-557.471	12.951	0.210	0.166
-556.456	382.428	0.047	-0.099
-555.442	-200.000	-0.055	-0.330
-554.427	-93.551	0.194	-0.055
-553.412	800.000	0.111	0.317
-552.398	-200.000	0.040	0.192
-551.383	-58.114	-0.398	0.176
-550.369	441.351	-0.200	-0.445
-549.354	12.752	-0.106	0.083
-548.339	309.247	0.125	-0.237
-547.325	9.933	-0.182	0.141
-546.310	150.267	-0.069	-0.095
-545.296	-0.403	-0.106	0.077
-544.281	178.019	0.046	0.069
-543.266	-34.045	0.087	-0.049
-542.252	800.000	-0.026	0.099
-541.237	473.275	-0.056	0.129
-540.223	29.095	0.144	0.124
-539.208	77.904	-0.057	-0.061
-538.193	262.004	-0.233	-0.410
-537.179	-71.901	0.094	0.035
-536.164	354.461	0.093	0.188
-535.150	-108.143	-0.223	0.049
-534.135	800.000	0.075	-0.300
-533.121	-171.734	0.141	0.005
-532.106	-200.000	0.009	0.081
-531.091	-52.749	-0.140	-0.066
-530.077	334.737	0.091	-0.179
-529.062	-11.139	-0.164	0.110
-528.048	800.000	-0.052	-0.175
-527.033	8.715	0.157	0.120
-526.018	616.259	0.113	0.289
-525.004	127.922	-0.121	-0.156
-523.989	235.258	0.138	0.232
-522.975	20.464	0.115	-0.095
-521.960	800.000	0.106	-0.403
-520.945	-90.938	0.149	0.044
-519.931	87.364	-0.097	-0.109
-518.916	-55.136	0.285	-0.130
-517.902	-15.311	0.219	-0.143
-516.887	601.281	0.052	-0.131
-515.872	280.159	0.077	0.140
-514.858	-53.204	0.109	0.051
-513.843	-47.839	-0.182	0.090
-512.829	2.136	0.022	0.016
-511.814	290.211	-0.197	0.364
-510.799	-98.424	-0.238	-0.062
-509.785	-45.392	-0.228	-0.115
-508.770	-42.293	0.196	-0.102
-507.756	-122.115	-0.288	-0.048
-506.741	-53.905	-0.251	0.116
-505.726	169.093	0.115	0.167
-504.712	55.569	0.136	0.134
-503.697	-42.872	-0.227	0.117
-502.683	-78.329	0.103	0.036
-501.668	-119.539	-0.154	-0.027
-500.653	-200.000	0.048	-0.260
-499.639	-5.365	-0.165	-0.115
-498.624	-146.989	-0.051	0.004
-497.610	99.897	0.142	0.167
-496.595	-96.064	0.242	0.065
-495.581	-77.869	-0.188	0.066
-494.566	-36.839	0.046	-0.025
-493.551	-11.827	-0.260	-0.173
-492.537	-6.632	-0.236	0.163
-491.522	14.643	0.428	0.339
-490.508	-24.624	0.137	-0.083
-489.493	-42.984	0.268	-0.138
-488.478	412.142	-0.115	0.247
-487.464	-200.000	-0.021	-0.398
-486.449	25.438	-0.041	-0.034
-485.435	-200.000	0.012	0.065
-484.420	-191.776	0.077	-0.001
-483.405	388.800	0.022	0.047
-482.391	-180.955	-0.122	0.002
-481.376	-55.500	-0.465	0.212
-480.362	-200.000	-0.064	0.367
-479.347	-200.000	0.025	0.146
-478.332	-118.032	0.182	-0.033
-477.318	-114.278	-0.182	-0.036
-476.303	-69.328	-0.214	0.083
-475.289	-145.050	-0.372	-0.034
-474.274	511.588	-0.149	-0.351
-473.259	32.631	0.275	0.242
-472.245	236.513	0.180	-0.303
-471.230	-34.278	0.317	-0.176
-470.216	140.781	0.152	-0.203
-469.201	26.939	-0.522	-0.444
-468.186	526.506	0.079	0.188
-467.172	-200.000	-0.250	-0.001
-466.157	313.156	0.094	-0.179
-465.143	26.781	-0.054	-0.046
-464.128	-200.000	-0.022	-0.283
-463.113	-49.788	0.113	0.054
-462.099	30.298	-0.347	-0.301
-461.084	221.775	0.135	0.220
-460.070	-200.000	0.009	-0.382
-459.055	-61.902	-0.186	-0.079
-458.040	-200.000	0.043	-0.331
-457.026	3.853	-0.217	-0.160
-456.011	326.511	0.132	0.256
-454.997	297.164	0.190	0.354
-453.982	165.237	0.217	0.311
-452.968	227.297	0.044	-0.072
-451.953	-15.490	0.197	0.128
-450.938	154.257	0.100	-0.139
-449.924	498.856	0.097	-0.226
-448.909	-162.178	0.314	0.016
-447.895	-34.925	-0.216	0.119
-446.880	380.547	-0.068	-0.141
-445.865	141.225	0.102	-0.137
-444.851	183.547	-0.141	-0.211
-443.836	-137.405	-0.139	-0.016
-442.822	-200.000	0.024	0.399
-441.807	-108.613	-0.079	-0.017
-440.792	-18.038	0.358	-0.227
-439.778	-200.000	-0.018	-0.134
-438.763	-14.151	-0.247	0.162
-437.749	-55.067	0.136	-0.062
-436.734	800.000	0.053	0.150
-435.719	-30.537	-0.285	0.164
-434.705	-32.244	-0.280	0.159
-433.690	-41.835	-0.284	0.148
-432.676	-10.193	-0.180	0.121
-431.661	41.743	-0.351	0.322
-430.646	800.000	0.078	0.261
-429.632	-10.556	-0.106	-0.071
-428.617	-136.046	-0.325	0.039
-427.603	370.649	-0.067	-0.138
-426.588	-95.271	0.025	-0.007
-425.573	-52.611	0.115	-0.054
-424.559	-67.070	-0.169	-0.067
-423.544	-55.982	0.233	0.105
-422.530	76.982	-0.231	-0.248
-421.515	165.208	-0.002	-0.003
-420.500	49.468	-0.112	-0.107
-419.486	-58.150	0.269	-0.119
-418.471	94.632	-0.159	0.182
-417.457	541.628	0.213	0.515
-416.442	-78.027	0.096	-0.034
-415.428	201.372	0.210	0.328
-414.413	-14.709	0.203	0.132
-413.398	-127.083	-0.146	-0.022
-412.384	16.427	0.177	0.142
-411.369	-200.000	-0.006	-0.116
-410.355	34.926	0.272	-0.241
-409.340	145.955	0.073	0.099
-408.325	-158.092	0.326	-0.019
-407.311	800.000	-0.047	-0.134
-406.296	-139.226	-0.282	-0.031
-405.282	495.923	0.091	0.211
-404.267	-200.000	0.001	-0.159
-403.252	-40.855	0.094	0.049
-402.238	135.543	0.055	-0.073
-401.223	-88.723	0.052	0.016
-400.209	17.927	-0.098	-0.079
-399.194	425.439	-0.124	0.271
-398.179	-29.608	-0.228	-0.132
-397.165	-200.000	0.035	-0.340
-396.150	800.000	-0.051	-0.169
-395.136	800.000	-0.112	0.370
-394.121	32.898	-0.283	0.247
-393.106	790.411	0.083	0.231
-392.092	-143.358	-0.313	0.030
-391.077	-18.312	-0.070	0.044
-390.063	-49.324	-0.360	-0.174
-389.048	-3.161	0.305	-0.215
-388.033	-130.331	0.190	0.026
-387.019	-78.952	-0.171	0.059
-386.004	-67.194	-0.318	0.127
-384.990	117.638	-0.085	0.106
-383.975	630.897	-0.093	0.238
-382.960	-55.981	-0.168	0.076
-381.946	117.484	-0.071	-0.088
-380.931	800.000	0.226	-0.755
-379.917	-91.407	0.407	0.118
-378.902	-200.000	-0.002	0.108
-377.888	-137.140	-0.300	0.035
-376.873	-123.879	-0.321	0.051
-375.858	800.000	0.138	-0.442
-374.844	35.414	-0.191	0.170
-373.829	800.000	-0.085	0.296
-372.815	329.676	0.041	-0.080
-371.800	-45.219	-0.101	0.050
-370.785	-14.117	-0.046	0.030
-369.771	158.447	0.028	-0.039
-368.756	-200.000	0.000	-0.181
-367.742	-39.727	0.067	-0.035
-366.727	273.125	-0.050	-0.090
-365.712	402.585	-0.116	0.246
-364.698	122.177	-0.131	0.166
-363.683	-114.107	0.195	-0.038
-362.669	230.601	-0.102	-0.169
-361.654	573.187	-0.045	0.110
-360.639	91.921	-0.173	-0.196
-359.625	-7.594	-0.145	0.099
-358.610	92.943	0.207	0.236
-357.596	203.971	0.073	0.114
-356.581	17.828	-0.280	0.225
-355.566	-99.782	0.122	0.031
-354.552	-96.502	-0.208	0.055
-353.537	-140.745	0.153	0.016
-352.523	800.000	-0.117	-0.388
-351.508	-43.674	-0.180	-0.092
-350.493	4.495	-0.130	0.097
-349.479	84.455	0.139	-0.154
-348.464	-38.783	-0.265	0.141
-347.450	-22.332	0.065	0.040
-346.435	-19.535	-0.153	-0.096
-345.420	-81.418	0.229	0.076
-344.406	-60.244	0.356	-0.153
-343.391	155.179	-0.079	0.110
-342.377	278.610	-0.129	0.233
-341.362	100.588	0.239	0.280
-340.348	-97.725	0.266	-0.069
-339.333	-200.000	-0.016	-0.074
-338.318	-200.000	-0.007	-0.303
-337.304	-153.234	-0.281	0.020
-336.289	-172.628	0.064	0.002
-335.275	-102.381	0.425	-0.103
-334.260	-157.294	-0.206	0.013
-333.245	264.497	-0.084	0.147
-332.231	99.029	0.191	-0.222
-331.216	-82.296	0.032	0.010
-330.202	419.708	0.037	0.080
-329.187	609.565	0.088	-0.221
-328.172	-37.647	-0.090	0.048
-327.158	159.281	-0.097	-0.136
-326.143	-99.873	-0.392	-0.099
-325.129	7.781	-0.290	0.219
-324.114	151.449	0.122	0.168
-323.099	-103.759	-0.139	-0.033
-322.085	-57.865	0.156	0.069
-321.070	297.479	0.109	0.202
-320.056	-82.411	0.256	0.084
-319.041	294.690	0.054	-0.099
-318.026	-200.000	-0.014	0.138
-317.012	-200.000	-0.006	-0.210
-315.997	-118.228	0.129	0.023
-314.983	-147.916	0.248	-0.021
-313.968	51.623	-0.101	0.097
-312.953	163.699	0.122	0.173
-311.939	37.469	-0.123	-0.110
-310.924	176.632	-0.090	-0.132
-309.910	670.724	-0.043	0.112
-308.895	397.213	-0.144	-0.304
-307.880	451.076	0.034	-0.075
-306.866	-22.292	0.129	0.079
-305.851	409.948	0.113	0.241
-304.837	800.000	0.098	-0.299
-303.822	-38.286	-0.043	0.023
-302.807	448.341	-0.112	0.249
-301.793	679.979	0.072	0.190
-300.778	-92.013	-0.128	-0.037
-299.764	800.000	-0.085	-0.370
-298.749	46.303	0.092	0.086
-297.735	95.639	-0.143	0.164
-296.720	800.000	-0.062	-0.241
-295.705	280.541	-0.082	0.147
-294.691	-200.000	0.014	-0.081
-293.676	518.521	-0.176	-0.416
-292.662	288.185	0.119	-0.217
-291.647	-64.336	-0.113	-0.046
-290.632	-200.000	-0.023	0.105
-289.618	80.927	0.072	0.078
-288.603	21.327	-0.143	-0.117
-287.589	800.000	0.130	-0.437
-286.574	-84.181	-0.264	-0.084
-285.559	87.653	0.092	-0.102
-284.545	-200.000	0.043	0.197
-283.530	29.681	-0.229	-0.196
-282.516	-79.521	-0.089	-0.030
-281.501	-200.000	-0.006	-0.082
-280.486	-200.000	0.008	-0.318
-279.472	26.410	-0.143	0.120
-278.457	800.000	0.080	-0.298
-277.443	260.149	-0.028	-0.050
-276.428	-102.324	-0.141	-0.034
-275.413	-42.279	0.087	-0.045
-274.399	-69.114	-0.211	-0.082
-273.384	11.223	-0.025	0.020
-272.370	-43.270	0.163	-0.083
-271.355	-200.000	0.001	-0.019
-270.340	489.540	-0.039	-0.089
-269.326	85.765	0.103	-0.114
-268.311	800.000	-0.024	0.083
-267.297	800.000	-0.054	0.218
-266.282	-200.000	0.049	0.271
-265.267	-62.967	0.239	0.099
-264.253	119.778	0.221	0.276
-263.238	110.360	-0.227	0.274
-262.224	-78.024	0.185	0.064
-261.209	-25.959	0.176	0.104
-260.195	8.035	0.125	-0.095
-259.180	144.069	0.064	0.086
-258.165	-192.763	0.460	-0.004
-257.151	800.000	0.044	0.178
-256.136	800.000	0.095	0.310
-255.122	-200.000	0.001	0.084
-254.107	320.587	0.167	0.319
-253.092	-71.873	0.182	0.068
-252.078	-34.194	0.163	-0.090
-251.063	-139.229	-0.131	0.014
-250.049	800.000	0.075	0.259
-249.034	50.551	0.327	-0.311
-248.019	-200.000	0.029	-0.180
-247.005	-48.147	-0.280	-0.136
-245.990	116.284	-0.298	0.367
-244.976	800.000	-0.122	0.356
-243.961	113.936	0.217	-0.265
-242.946	52.192	0.275	0.263
-241.932	-187.624	0.362	-0.005
-240.917	-82.712	0.138	0.045
-239.903	242.903	0.024	-0.040
-238.888	-200.000	0.035	-0.242
-237.873	-161.169	0.197	-0.010
-236.859	-68.493	0.197	0.077
-235.844	-32.721	0.191	0.107
-234.830	-71.143	-0.204	0.077
-233.815	84.289	-0.166	0.182
-232.800	3.050	0.110	0.080
-231.786	-200.000	0.042	0.200
-230.771	685.468	-0.104	0.274
-229.757	-27.361	0.247	0.144
-228.742	-159.525	0.375	-0.021
-227.727	-26.977	0.102	0.060
-226.713	-200.000	-0.055	0.293
-225.698	157.715	-0.055	-0.076
-224.684	183.145	-0.163	-0.242
-223.669	312.179	0.049	0.092
-222.655	800.000	-0.018	-0.049
-221.640	-0.498	0.250	-0.178
-220.625	73.850	-0.131	-0.138
-219.611	-101.481	0.145	0.036
-218.596	604.870	0.094	-0.236
-217.582	-83.481	0.442	0.142
-216.567	-200.000	-0.067	0.300
-215.552	-42.084	-0.208	-0.107
-214.538	92.343	0.063	0.071
-213.523	392.785	0.082	0.172
-212.509	-200.000	-0.046	0.214
-211.494	-112.449	-0.195	0.039
-210.479	-15.844	0.270	0.173
-209.465	-200.000	0.012	-0.174
-208.450	94.452	-0.030	0.035
-207.436	-2.408	0.137	-0.096
-206.421	-114.260	0.251	-0.049
-205.406	-56.448	-0.079	0.035
-204.392	-141.734	0.265	-0.027
-203.377	-200.000	0.028	0.450
-202.363	225.697	-0.116	-0.188
-201.348	140.028	0.031	0.041
-200.333	-59.125	0.210	0.091
-199.319	228.794	0.101	0.165
-198.304	-1.788	0.187	-0.132
-197.290	800.000	0.056	-0.203
-196.275	-12.626	-0.203	-0.133
-195.260	-200.000	0.039	0.285
-194.246	-31.101	-0.312	0.177
-193.231	10.964	-0.201	0.154
-192.217	-52.931	-0.267	0.123
-191.202	-36.848	0.349	0.188
-190.187	-117.420	0.118	-0.021
-189.173	-17.789	-0.170	-0.107
-188.158	800.000	-0.035	-0.143
-187.144	-200.000	0.007	-0.173
-186.129	128.099	0.062	0.079
-185.114	-200.000	-0.021	0.129
-184.100	349.431	-0.138	-0.273
-183.085	800.000	-0.023	0.069
-182.071	22.041	0.122	0.099
-181.056	-29.722	-0.308	0.177
-180.042	34.176	0.043	0.037
-179.027	-46.417	-0.376	-0.185
-178.012	-109.487	-0.185	0.039
-176.998	-13.892	0.220	0.142
-175.983	95.937	0.075	0.086
-174.969	-200.000	-0.008	-0.047
-173.954	718.268	0.078	0.208
-172.939	-59.317	0.241	-0.104
-171.925	-200.000	0.019	0.225
-170.910	17.257	-0.051	-0.040
-169.896	800.000	0.102	-0.323
-168.881	-200.000	0.030	0.333
-167.866	-137.752	0.296	0.033
-166.852	170.407	0.105	0.150
-165.837	-95.630	0.507	0.136
-164.823	800.000	0.104	-0.346
-163.808	-200.000	0.010	-0.246
-162.793	-27.197	0.422	-0.246
-161.779	160.614	0.095	0.133
-160.764	-71.255	0.219	-0.082
-159.750	-3.920	-0.219	0.152
-158.735	-200.000	0.023	0.278
-157.720	222.866	-0.117	-0.189
-156.706	800.000	0.094	0.381
-155.691	800.000	-0.145	0.475
-154.677	-19.743	0.397	-0.246
-153.662	288.739	-0.035	-0.064
-152.647	-125.116	0.217	0.033
-151.633	40.934	0.193	-0.174
-150.618	-40.718	-0.228	0.119
-149.604	194.507	-0.154	0.234
-148.589	-149.137	-0.315	-0.025
-147.574	-200.000	-0.024	0.209
-146.560	296.097	0.244	-0.448
-145.545	800.000	0.079	0.257
-144.531	-54.459	0.261	0.118
-143.516	-94.240	-0.063	-0.017
-142.502	286.890	0.101	0.182
-141.487	82.929	-0.173	0.188
-140.472	-200.000	-0.015	-0.153
-139.458	-38.417	0.189	0.100
-138.443	496.392	0.032	0.074
-137.429	143.831	-0.173	-0.231
-136.414	56.780	0.125	0.122
-135.399	34.390	0.152	-0.133
-134.385	-136.381	0.204	-0.024
-133.370	41.136	0.245	-0.221
-132.356	-7.125	-0.198	-0.134
-131.341	79.887	-0.279	-0.300
-130.326	418.657	0.012	-0.025
-129.312	213.122	-0.122	-0.193
-128.297	-120.736	0.126	0.021
-127.283	-71.906	0.118	-0.044
-126.268	-121.872	0.022	-0.004
-125.253	-83.287	0.399	-0.128
-124.239	258.816	0.054	-0.094
-123.224	800.000	-0.050	0.185
-122.210	27.137	0.146	-0.123
-121.195	800.000	-0.044	-0.154
-120.180	-191.861	-0.280	0.003
-119.166	-200.000	0.028	-0.178
