DTS Sentinel unit serial number:	SN413079Multiplexer serial number:	ORYXHardware model number:	OX4-SRSoftware version number:	ORYX F/W v4.00 Oryx Data Collector v3.7.2.0data status	okinstallation	princeton_trtdifferential loss correction	single-endedforward channel	channel 2reverse channel	N/Adate	2019/09/16time	22:39:34forward acquisition time	60.00reverse acquisition time	0.00gamma	496.2192k internal	0.2328k external	0.2328temperature offset calibration	0.9970default loss term (dB/km)	0.3790temperature slope calibration	1.0000multiplexer offset coefficient	1.0000multiplexer slope coefficient	1.0000fibre end	0.00T internal ref (°C)	30.69T ext. ref 1 (°C)	0.08T ext. ref 2 (°C)	24.26length (m)	temperature (°C)	Stokes	anti-Stokes-747.200	488.512	0.039	0.089
-746.185	800.000	-0.112	0.449
-745.171	-157.562	0.335	-0.020
-744.156	-18.011	0.190	0.120
-743.142	37.911	-0.188	-0.169
-742.127	-22.174	-0.201	-0.123
-741.112	-98.614	0.158	0.041
-740.098	-132.267	-0.267	-0.035
-739.083	-98.700	-0.317	-0.081
-738.069	800.000	0.111	0.386
-737.054	800.000	-0.046	-0.200
-736.039	693.948	-0.049	0.129
-735.025	98.827	0.210	0.244
-734.010	-200.000	-0.073	0.000
-732.996	-69.969	0.062	0.024
-731.981	-116.430	0.213	-0.040
-730.966	546.094	0.075	0.181
-729.952	49.290	0.178	-0.169
-728.937	-106.247	0.269	0.061
-727.923	-200.000	-0.028	-0.126
-726.908	298.470	-0.178	0.329
-725.894	800.000	0.035	-0.105
-724.879	-73.797	0.266	-0.097
-723.864	-44.090	0.210	0.106
-722.850	52.715	0.174	0.168
-721.835	161.950	-0.184	0.259
-720.821	558.001	-0.064	-0.154
-719.806	12.691	-0.158	-0.123
-718.791	-200.000	0.079	0.352
-717.777	-200.000	0.012	0.141
-716.762	-112.239	-0.125	-0.025
-715.748	-200.000	-0.011	-0.142
-714.733	80.406	0.047	0.051
-713.718	81.245	-0.098	-0.106
-712.704	800.000	0.018	-0.076
-711.689	115.037	-0.161	0.197
-710.675	-17.723	-0.160	-0.101
-709.660	-173.078	0.301	-0.009
-708.645	30.431	-0.098	0.084
-707.631	-100.020	-0.282	-0.071
-706.616	62.913	-0.291	0.293
-705.602	-200.000	-0.048	0.481
-704.587	-121.190	0.293	-0.049
-703.572	138.460	0.224	-0.295
-702.558	66.938	-0.160	-0.164
-701.543	249.979	-0.048	-0.081
-700.529	-114.329	-0.199	0.039
-699.514	-14.231	0.075	0.049
-698.499	-200.000	0.041	-0.211
-697.485	-200.000	-0.029	-0.213
-696.470	341.057	-0.106	-0.209
-695.456	62.661	-0.159	0.160
-694.441	-102.974	0.204	0.049
-693.426	138.729	-0.185	-0.244
-692.412	-200.000	-0.074	-0.340
-691.397	-200.000	-0.016	-0.162
-690.383	-200.000	-0.049	-0.261
-689.368	-134.296	0.051	-0.006
-688.354	633.241	0.054	0.137
-687.339	41.500	0.286	-0.261
-686.324	-200.000	0.011	-0.182
-685.310	221.150	0.172	-0.278
-684.295	-3.968	0.085	0.060
-683.281	-163.232	0.442	-0.021
-682.266	77.323	0.085	-0.090
-681.251	-200.000	-0.059	-0.271
-680.237	-133.976	0.645	0.080
-679.222	-11.153	0.059	0.039
-678.208	-118.228	-0.500	0.090
-677.193	16.427	0.234	0.186
-676.178	411.251	-0.098	-0.209
-675.164	47.485	-0.184	-0.172
-674.149	-200.000	0.036	0.239
-673.135	64.664	-0.238	-0.241
-672.120	250.113	0.002	0.003
-671.105	357.032	-0.212	0.425
-670.091	774.064	-0.095	-0.259
-669.076	187.866	0.160	-0.239
-668.062	-187.037	0.081	0.001
-667.047	-82.802	-0.205	0.066
-666.032	-128.195	0.294	0.042
-665.018	-115.596	0.353	-0.067
-664.003	800.000	0.066	0.206
-662.989	-132.816	0.050	0.006
-661.974	175.142	0.187	0.272
-660.959	-91.724	0.051	-0.015
-659.945	138.209	0.128	-0.168
-658.930	56.715	0.217	-0.212
-657.916	-81.450	0.095	0.031
-656.901	-130.444	-0.548	0.074
-655.886	-200.000	0.069	-0.338
-654.872	227.159	0.110	-0.180
-653.857	-29.379	-0.301	0.173
-652.843	-140.915	0.333	-0.034
-651.828	800.000	-0.024	-0.102
-650.814	-200.000	-0.009	-0.154
-649.799	-200.000	0.026	-0.117
-648.784	275.336	0.103	-0.183
-647.770	-200.000	0.009	-0.061
-646.755	-102.864	0.099	-0.024
-645.741	-21.622	-0.198	0.121
-644.726	-200.000	0.009	-0.159
-643.711	587.543	0.088	-0.217
-642.697	493.708	0.040	-0.092
-641.682	-24.510	0.318	-0.190
-640.668	254.393	-0.140	0.241
-639.653	70.130	0.092	-0.095
-638.638	27.744	-0.183	-0.155
-637.624	-200.000	-0.035	-0.223
-636.609	388.044	0.033	0.069
-635.595	-200.000	-0.003	-0.091
-634.580	-200.000	-0.045	-0.203
-633.565	-37.935	-0.165	-0.088
-632.551	78.358	-0.065	-0.070
-631.536	-167.133	-0.311	0.013
-630.522	38.413	0.020	0.018
-629.507	-200.000	0.016	-0.104
-628.492	800.000	-0.064	-0.177
-627.478	-51.896	0.268	0.125
-626.463	800.000	0.018	0.072
-625.449	-157.060	0.220	0.013
-624.434	5.126	-0.022	-0.016
-623.419	145.481	-0.171	-0.230
-622.405	800.000	0.091	0.294
-621.390	-0.785	0.174	-0.123
-620.376	800.000	0.078	-0.310
-619.361	-71.942	-0.381	-0.142
-618.346	-61.564	-0.181	0.076
-617.332	-105.186	0.221	0.051
-616.317	81.684	-0.235	-0.255
-615.303	-153.272	0.158	-0.011
-614.288	-88.055	-0.271	-0.082
-613.273	-122.682	-0.243	0.039
-612.259	-128.525	0.210	0.030
-611.244	-200.000	-0.282	0.001
-610.230	-5.765	-0.179	-0.123
-609.215	257.358	-0.113	0.195
-608.201	-9.458	0.093	0.062
-607.186	35.796	0.117	-0.103
-606.171	200.455	0.098	-0.150
-605.157	45.601	-0.075	-0.069
-604.142	-2.711	0.110	-0.077
-603.128	169.317	0.091	-0.130
-602.113	434.580	-0.073	-0.158
-601.098	-9.277	-0.085	0.057
-600.084	-6.245	-0.584	-0.400
-599.069	260.729	-0.113	-0.196
-598.055	-96.980	0.443	-0.116
-597.040	112.828	0.075	-0.091
-596.025	61.755	-0.250	0.250
-595.011	551.692	0.071	-0.172
-593.996	-200.000	-0.029	0.217
-592.982	-83.435	-0.208	0.067
-591.967	-27.928	-0.382	-0.221
-590.952	227.083	-0.070	-0.114
-589.938	20.543	-0.153	-0.124
-588.923	98.599	0.201	-0.232
-587.909	-106.146	-0.138	-0.031
-586.894	25.607	-0.280	0.233
-585.879	-200.000	0.063	-0.345
-584.865	-140.033	-0.245	-0.026
-583.850	-132.925	-0.295	0.038
-582.836	800.000	0.030	0.085
-581.821	337.999	0.265	0.515
-580.806	-48.071	0.316	0.153
-579.792	146.144	-0.210	-0.282
-578.777	-12.859	0.154	-0.100
-577.763	800.000	-0.067	0.225
-576.748	-84.350	0.332	-0.105
-575.733	-55.586	0.177	0.079
-574.719	127.307	-0.133	0.169
-573.704	-105.572	0.463	0.105
-572.690	-101.662	-0.163	0.040
-571.675	-200.000	0.040	0.210
-570.661	213.257	-0.180	-0.284
-569.646	-99.710	-0.174	-0.044
-568.631	-86.198	-0.296	0.091
-567.617	97.088	-0.131	0.151
-566.602	-90.719	0.272	-0.079
-565.588	-116.926	0.322	-0.059
-564.573	-118.255	-0.149	-0.026
-563.558	242.995	-0.144	0.241
-562.544	77.769	-0.152	0.162
-561.529	207.592	-0.205	-0.319
-560.515	-142.244	-0.071	-0.007
-559.500	9.264	-0.184	-0.139
-558.485	-116.622	-0.195	-0.036
-557.471	-118.303	0.207	-0.037
-556.456	-190.751	-0.257	-0.003
-555.442	178.382	-0.132	0.193
-554.427	122.154	0.129	-0.161
-553.412	-110.912	0.204	-0.042
-552.398	155.717	-0.086	0.118
-551.383	-200.000	-0.036	-0.343
-550.369	113.157	-0.083	-0.100
-549.354	58.448	-0.177	-0.173
-548.339	224.765	0.154	0.248
-547.325	57.506	-0.321	0.314
-546.310	-140.230	0.314	0.033
-545.296	135.598	0.055	0.072
-544.281	5.578	-0.117	-0.086
-543.266	800.000	0.057	0.171
-542.252	800.000	0.058	-0.188
-541.237	11.059	0.292	0.223
-540.223	-52.560	0.028	-0.013
-539.208	800.000	-0.037	0.144
-538.193	76.026	-0.113	0.119
-537.179	395.175	-0.099	0.207
-536.164	800.000	-0.023	0.096
-535.150	-20.755	0.091	-0.056
-534.135	569.165	0.063	-0.152
-533.121	9.632	0.044	0.034
-532.106	-47.072	0.139	-0.068
-531.091	25.657	-0.151	-0.126
-530.077	-134.686	0.276	-0.034
-529.062	-200.000	0.042	0.382
-528.048	58.741	-0.382	-0.375
-527.033	455.632	-0.136	-0.302
-526.018	-131.016	-0.094	-0.013
-525.004	30.643	-0.106	-0.090
-523.989	130.332	0.213	-0.273
-522.975	-66.038	-0.224	0.089
-521.960	-200.000	-0.028	0.184
-520.945	-48.518	0.168	-0.081
-519.931	117.677	0.093	-0.115
-518.916	-200.000	-0.037	-0.327
-517.902	-7.286	-0.325	0.220
-516.887	-71.076	0.204	0.077
-515.872	-200.000	-0.021	0.176
-514.858	61.522	-0.138	0.137
-513.843	204.698	0.187	0.289
-512.829	-200.000	-0.004	-0.018
-511.814	207.677	-0.142	0.221
-510.799	402.090	0.054	-0.113
-509.785	-176.092	-0.070	-0.002
-508.770	-0.897	-0.030	0.022
-507.756	-168.212	0.040	-0.002
-506.741	193.472	0.085	-0.128
-505.726	-200.000	-0.017	-0.112
-504.712	-154.306	-0.165	-0.011
-503.697	72.201	0.115	0.119
-502.683	41.643	0.171	-0.155
-501.668	323.710	0.040	-0.076
-500.653	263.103	-0.035	0.061
-499.639	30.965	0.272	0.233
-498.624	6.265	-0.153	-0.114
-497.610	-71.522	-0.127	-0.047
-496.595	-56.292	0.038	-0.017
-495.581	367.590	-0.055	0.112
-494.566	-200.000	-0.048	-0.215
-493.551	753.450	0.088	-0.238
-492.537	800.000	-0.032	-0.095
-491.522	-52.313	0.102	0.047
-490.508	800.000	0.131	-0.366
-489.493	15.959	-0.195	0.153
-488.478	-200.000	0.035	-0.159
-487.464	-200.000	0.005	-0.158
-486.449	38.135	0.233	0.207
-485.435	789.966	0.040	0.111
-484.420	-113.111	0.282	0.055
-483.405	199.482	-0.101	-0.154
-482.391	68.242	0.057	-0.058
-481.376	81.214	-0.143	0.154
-480.362	-200.000	0.041	-0.444
-479.347	257.558	0.126	0.217
-478.332	19.229	0.418	0.335
-477.318	547.972	-0.099	-0.237
-476.303	5.414	-0.238	0.175
-475.289	-200.000	-0.021	0.147
-474.274	-92.613	0.316	0.088
-473.259	-200.000	0.014	0.398
-472.245	-15.039	0.156	0.100
-471.230	-86.253	0.134	0.041
-470.216	-200.000	-0.071	0.577
-469.201	-69.291	-0.161	0.062
-468.186	-200.000	0.023	-0.228
-467.172	-200.000	0.083	-0.416
-466.157	-25.429	0.082	-0.048
-465.143	21.130	-0.313	0.253
-464.128	-155.608	0.057	-0.004
-463.113	800.000	-0.087	0.299
-462.099	800.000	-0.082	0.280
-461.084	800.000	0.067	-0.211
-460.070	5.649	-0.121	0.089
-459.055	8.223	0.261	0.196
-458.040	633.687	-0.082	0.207
-457.026	89.674	-0.186	0.207
-456.011	325.695	0.078	0.148
-454.997	-200.000	0.015	-0.095
-453.982	123.331	-0.141	0.176
-452.968	-56.493	-0.232	0.102
-451.953	-200.000	-0.061	0.301
-450.938	-72.701	0.617	-0.227
-449.924	218.196	-0.071	-0.113
-448.909	204.507	-0.106	0.164
-447.895	-173.096	0.300	-0.009
-446.880	-58.368	0.122	-0.053
-445.865	800.000	0.087	-0.315
-444.851	-200.000	0.009	0.200
-443.836	-200.000	0.013	-0.082
-442.822	109.649	0.171	0.204
-441.807	-161.687	-0.076	0.004
-440.792	340.750	-0.200	-0.389
-439.778	-5.947	0.158	0.108
-438.763	103.648	0.218	0.255
-437.749	335.563	0.044	-0.084
-436.734	-55.936	0.183	0.081
-435.719	-28.580	-0.191	-0.110
-434.705	-52.982	-0.385	-0.176
-433.690	-18.857	0.341	-0.211
-432.676	158.190	0.114	-0.158
-431.661	223.176	-0.100	0.160
-430.646	319.294	0.079	-0.148
-429.632	181.068	-0.049	0.072
-428.617	-75.033	-0.174	0.062
-427.603	-84.916	0.328	-0.102
-426.588	72.031	0.101	-0.105
-425.573	379.933	0.041	0.083
-424.559	-200.000	0.002	-0.416
-423.544	42.960	0.120	-0.109
-422.530	-200.000	-0.004	0.142
-421.515	74.114	-0.202	-0.211
-420.500	-200.000	0.028	0.190
-419.486	800.000	-0.030	0.090
-418.471	351.202	0.037	-0.073
-417.457	-4.512	-0.112	0.077
-416.442	789.297	0.036	-0.098
-415.428	72.435	0.025	-0.026
-414.413	-200.000	-0.046	-0.248
-413.398	59.052	0.066	0.064
-412.384	-54.010	0.165	0.075
-411.369	-200.000	-0.017	-0.205
-410.355	-83.882	0.291	-0.092
-409.340	-184.617	-0.156	-0.002
-408.325	-200.000	0.017	0.109
-407.311	-65.903	-0.070	0.028
-406.296	-200.000	-0.016	-0.129
-405.282	-7.644	0.181	-0.122
-404.267	-184.121	-0.176	0.003
-403.252	46.657	0.210	-0.194
-402.238	382.659	-0.110	0.225
-401.223	800.000	-0.040	-0.111
-400.209	-200.000	-0.001	0.204
-399.194	21.491	-0.059	-0.048
-398.179	95.229	-0.113	0.128
-397.165	-93.401	0.077	0.021
-396.150	-20.246	-0.020	0.012
-395.136	-200.000	0.015	0.189
-394.121	782.308	-0.049	-0.132
-393.106	-134.595	-0.199	-0.024
-392.092	-89.841	-0.157	0.046
-391.077	13.568	-0.326	0.252
-390.063	106.731	-0.092	-0.109
-389.048	52.237	0.131	0.124
-388.033	-69.188	0.137	-0.052
-387.019	54.409	-0.049	0.047
-386.004	-97.617	-0.143	-0.037
-384.990	-200.000	-0.005	0.052
-383.975	209.876	0.069	0.107
-382.960	219.719	0.073	0.116
-381.946	-29.480	-0.164	0.093
-380.931	245.752	0.156	0.260
-379.917	111.441	-0.114	-0.137
-378.902	58.520	-0.027	-0.026
-377.888	-29.338	0.123	-0.070
-376.873	66.010	-0.049	-0.049
-375.858	-104.003	0.160	0.037
-374.844	-71.500	-0.438	-0.163
-373.829	311.702	-0.145	0.270
-372.815	174.822	0.232	-0.333
-371.800	52.867	-0.140	-0.133
-370.785	-153.636	-0.173	-0.012
-369.771	-200.000	-0.030	-0.319
-368.756	55.759	-0.261	0.251
-367.742	124.643	-0.113	0.141
-366.727	300.316	0.157	0.288
-365.712	-200.000	-0.018	0.099
-364.698	-137.435	-0.242	0.027
-363.683	-50.613	0.084	-0.039
-362.669	-124.099	0.033	0.005
-361.654	-200.000	0.010	-0.262
-360.639	146.951	-0.106	-0.141
-359.625	-124.806	-0.058	-0.009
-358.610	205.786	0.271	-0.418
-357.596	800.000	-0.079	-0.222
-356.581	-200.000	-0.182	0.001
-355.566	-84.619	0.236	0.074
-354.552	-200.000	0.031	-0.362
-353.537	-38.667	-0.174	-0.091
-352.523	-174.292	-0.517	0.015
-351.508	800.000	0.041	-0.164
-350.493	-161.491	0.459	0.023
-349.479	319.508	-0.024	0.045
-348.464	-154.896	-0.158	-0.010
-347.450	23.947	0.021	0.017
-346.435	-200.000	-0.014	0.225
-345.420	45.883	-0.121	0.111
-344.406	26.325	0.197	-0.164
-343.391	139.317	-0.073	0.096
-342.377	-45.195	-0.255	-0.126
-341.362	272.002	-0.062	-0.108
-340.348	-150.207	0.199	-0.015
-339.333	-200.000	0.042	-0.225
-338.318	-200.000	0.028	0.197
-337.304	-38.440	-0.235	-0.123
-336.289	193.592	-0.080	-0.120
-335.275	-200.000	0.003	0.116
-334.260	23.121	-0.108	0.088
-333.245	-41.560	-0.260	0.132
-332.231	10.431	0.027	0.020
-331.216	92.787	0.102	0.115
-330.202	800.000	-0.068	0.249
-329.187	-94.195	-0.147	-0.040
-328.172	-103.604	0.202	-0.047
-327.158	609.276	-0.265	0.655
-326.143	800.000	0.061	0.228
-325.129	311.924	-0.090	0.168
-324.114	-26.625	-0.098	0.057
-323.099	236.729	-0.032	-0.052
-322.085	117.724	0.359	-0.437
-321.070	-200.000	-0.028	0.193
-320.056	103.611	0.086	-0.101
-319.041	800.000	0.033	-0.097
-318.026	-61.111	0.149	-0.062
-317.012	118.686	-0.193	0.237
-315.997	55.530	-0.038	-0.037
-314.983	-200.000	0.005	-0.322
-313.968	-129.903	0.063	-0.009
-312.953	-200.000	0.081	0.415
-311.939	46.486	0.199	-0.183
-310.924	-124.798	0.043	-0.007
-309.910	109.815	-0.190	-0.225
-308.895	-114.558	-0.274	0.052
-307.880	-200.000	-0.084	0.402
-306.866	80.243	0.271	-0.289
-305.851	-26.461	0.103	0.060
-304.837	-142.551	0.361	0.035
-303.822	-22.322	0.048	-0.029
-302.807	-128.318	0.170	-0.024
-301.793	-200.000	0.000	-0.101
-300.778	-107.918	0.112	0.024
-299.764	-146.209	0.168	-0.015
-298.749	-200.000	-0.004	0.295
-297.735	-62.337	-0.062	-0.026
-296.720	109.165	-0.044	0.052
-295.705	800.000	0.052	0.197
-294.691	103.770	0.091	0.105
-293.676	-106.408	-0.493	-0.109
-292.662	800.000	-0.045	0.155
-291.647	-127.070	-0.240	-0.035
-290.632	-200.000	0.020	-0.343
-289.618	-58.950	-0.213	-0.091
-288.603	-79.554	-0.301	-0.100
-287.589	-22.819	-0.279	0.166
-286.574	93.007	0.138	-0.155
-285.559	238.470	0.176	0.290
-284.545	800.000	-0.030	-0.090
-283.530	-21.799	-0.044	-0.026
-282.516	505.732	-0.074	-0.169
-281.501	203.039	-0.136	-0.208
-280.486	18.119	-0.311	-0.245
-279.472	26.121	0.057	0.047
-278.457	144.368	0.160	0.212
-277.443	80.363	-0.186	0.199
-276.428	-71.990	0.338	0.124
-275.413	83.715	-0.157	0.170
-274.399	-139.598	-0.302	0.032
-273.384	-37.639	-0.422	0.222
-272.370	250.982	0.118	-0.199
-271.355	-132.562	0.253	-0.032
-270.340	-200.000	-0.006	-0.359
-269.326	-110.115	-0.138	0.028
-268.311	-86.130	0.261	-0.080
-267.297	-62.187	-0.149	0.061
-266.282	-75.531	0.109	0.038
-265.267	-171.784	-0.380	0.012
-264.253	-143.512	0.137	-0.013
-263.238	800.000	0.056	-0.173
-262.224	-200.000	-0.047	0.321
-261.209	-20.545	0.201	-0.122
-260.195	346.780	0.092	-0.179
-259.180	573.019	0.154	-0.372
-258.165	-98.800	0.229	-0.058
-257.151	-60.429	0.074	-0.031
-256.136	-50.773	-0.072	0.033
-255.122	800.000	0.119	0.367
-254.107	-48.024	0.278	0.133
-253.092	451.595	0.014	0.030
-252.078	-131.152	-0.235	-0.031
-251.063	800.000	0.119	0.352
-250.049	235.514	-0.168	0.274
-249.034	241.263	0.187	-0.308
-248.019	487.549	0.070	-0.159
-247.005	-146.214	0.382	-0.033
-245.990	-136.944	-0.371	0.042
-244.976	144.883	0.129	-0.170
-243.961	-24.776	0.104	-0.061
-242.946	-57.050	-0.111	0.048
-241.932	199.917	0.345	-0.523
-240.917	-186.620	-0.147	-0.002
-239.903	34.636	-0.325	0.280
-238.888	87.293	0.209	-0.228
-237.873	-105.729	0.308	0.069
-236.859	27.251	-0.160	0.133
-235.844	40.188	-0.160	-0.142
-234.830	-200.000	-0.039	-0.730
-233.815	-200.000	0.076	-0.356
-232.800	21.116	-0.090	0.072
-231.786	18.990	-0.063	0.050
-230.771	-33.750	-0.097	-0.053
-229.757	-81.220	0.122	-0.040
-228.742	162.259	0.113	0.156
-227.727	-68.707	0.296	0.113
-226.713	-65.755	0.170	0.067
-225.698	-35.595	0.310	0.166
-224.684	-200.000	-0.037	0.193
-223.669	800.000	-0.109	0.345
-222.655	-130.797	0.128	0.017
-221.640	-200.000	0.068	0.426
-220.625	-13.749	0.255	-0.163
-219.611	-50.856	-0.212	0.098
-218.596	800.000	0.092	0.261
-217.582	63.221	0.185	0.183
-216.567	-17.592	-0.089	-0.055
-215.552	800.000	0.059	0.245
-214.538	67.401	0.273	-0.274
-213.523	40.910	0.187	-0.166
-212.509	-200.000	0.077	0.441
-211.494	-200.000	0.010	-0.240
-210.479	52.719	-0.180	0.170
-209.465	-75.756	0.266	0.093
-208.450	-200.000	-0.008	-0.180
-207.436	-200.000	-0.002	0.341
-206.421	800.000	0.040	0.150
-205.406	116.869	-0.155	0.188
-204.392	-42.376	-0.392	0.198
-203.377	6.232	0.099	0.073
-202.363	-104.402	0.280	-0.064
-201.348	800.000	0.063	0.207
-200.333	-200.000	0.003	-0.171
-199.319	-200.000	-0.017	0.108
-198.304	-200.000	0.003	0.078
-197.290	-4.505	0.258	-0.176
-196.275	-102.187	0.107	0.025
-195.260	85.853	0.148	0.161
-194.246	-200.000	0.048	0.288
-193.231	-76.727	0.151	-0.052
-192.217	-105.629	-0.149	0.033
-191.202	682.270	-0.024	0.061
-190.187	506.384	-0.052	-0.119
-189.173	341.408	0.090	0.174
-188.158	144.950	0.103	0.135
-187.144	-46.027	0.248	0.120
-186.129	291.595	-0.136	0.245
-185.114	-43.844	0.171	0.085
-184.100	-120.529	0.269	-0.045
-183.085	-49.727	-0.291	-0.136
-182.071	136.530	0.046	0.060
-181.056	296.832	0.091	-0.165
-180.042	-96.451	0.216	0.056
-179.027	-200.000	0.011	-0.178
-178.012	-200.000	-0.073	0.329
-176.998	315.798	0.094	-0.174
-175.983	-164.436	0.422	-0.019
-174.969	800.000	0.106	-0.397
-173.954	-39.668	-0.057	0.030
-172.939	147.585	-0.257	0.341
-171.925	-200.000	-0.001	0.010
-170.910	800.000	-0.031	-0.119
-169.896	-95.279	-0.452	0.120
-168.881	-126.560	-0.245	-0.036
-167.866	40.942	0.120	-0.107
-166.852	-14.288	-0.282	0.179
-165.837	574.896	0.028	0.067
-164.823	240.609	-0.225	-0.370
-163.808	156.592	0.129	-0.175
-162.793	-187.626	-0.152	-0.002
-161.779	46.474	-0.069	0.063
-160.764	-148.720	0.116	-0.009
-159.750	60.238	-0.231	-0.225
-158.735	-48.365	0.149	-0.071
-157.720	121.739	0.232	0.285
-156.706	234.513	0.061	0.099
-155.691	-10.894	0.179	0.116
-154.677	15.762	0.178	0.138
-153.662	65.656	0.098	-0.098
-152.647	800.000	-0.024	0.094
-151.633	97.757	0.126	0.143
-150.618	776.764	0.095	-0.255
-149.604	114.324	0.160	0.191
-148.589	741.840	0.147	-0.388
-147.574	-200.000	-0.014	-0.072
-146.560	51.301	0.035	0.033
-145.545	-124.148	0.039	-0.006
-144.531	29.925	0.302	-0.254
-143.516	124.123	0.080	-0.099
-142.502	-9.436	-0.041	0.027
-141.487	-200.000	-0.054	-0.233
-140.472	29.291	-0.128	-0.107
-139.458	347.865	-0.141	-0.274
-138.443	-86.906	-0.124	-0.037
-137.429	-200.000	0.045	-0.215
-136.414	800.000	-0.113	-0.377
-135.399	72.965	0.136	0.140
-134.385	-200.000	-0.010	0.142
-133.370	-114.661	0.139	0.026
-132.356	-115.901	-0.202	0.037
-131.341	122.096	0.231	-0.284
-130.326	800.000	0.045	0.154
-129.312	43.967	-0.113	-0.102
-128.297	-189.770	0.074	0.001
-127.283	-183.255	0.293	0.005
-126.268	-37.239	0.163	0.086
-125.253	-95.616	0.200	0.053
-124.239	-59.305	0.196	0.083
-123.224	165.838	-0.153	-0.212
-122.210	674.715	-0.078	0.200
-121.195	-200.000	0.031	0.350
