DTS Sentinel unit serial number:	SN413079Multiplexer serial number:	ORYXHardware model number:	OX4-SRSoftware version number:	ORYX F/W v4.00 Oryx Data Collector v3.7.2.0data status	okinstallation	princeton_trtdifferential loss correction	single-endedforward channel	channel 2reverse channel	N/Adate	2019/09/16time	08:47:34forward acquisition time	60.00reverse acquisition time	0.00gamma	496.2192k internal	0.2325k external	0.2325temperature offset calibration	0.9972default loss term (dB/km)	0.3790temperature slope calibration	1.0000multiplexer offset coefficient	1.0000multiplexer slope coefficient	1.0000fibre end	0.00T internal ref (°C)	29.87T ext. ref 1 (°C)	12.00T ext. ref 2 (°C)	26.99length (m)	temperature (°C)	Stokes	anti-Stokes-747.200	46.590	0.069	0.065
-746.185	490.748	-0.170	0.393
-745.171	-200.000	-0.073	0.431
-744.156	-111.149	-0.302	-0.062
-743.142	-35.746	-0.058	0.032
-742.127	800.000	-0.111	0.390
-741.112	-170.893	-0.048	-0.002
-740.098	-26.073	0.319	0.189
-739.083	-200.000	0.004	0.167
-738.069	-200.000	-0.031	0.154
-737.054	-80.588	0.211	0.071
-736.039	-8.215	-0.322	0.219
-735.025	800.000	0.138	0.442
-734.010	800.000	0.067	0.261
-732.996	-156.761	-0.484	-0.030
-731.981	-200.000	-0.040	-0.181
-730.966	-42.236	-0.196	0.101
-729.952	-42.280	-0.068	-0.035
-728.937	800.000	0.151	-0.449
-727.923	302.885	-0.173	-0.324
-726.908	-200.000	-0.007	0.483
-725.894	-32.716	0.107	0.060
-724.879	-200.000	0.006	-0.141
-723.864	17.972	-0.305	-0.245
-722.850	120.933	-0.141	0.177
-721.835	-200.000	0.056	0.268
-720.821	52.574	-0.129	-0.124
-719.806	86.141	-0.094	-0.104
-718.791	-64.691	0.477	0.195
-717.777	-8.875	0.232	0.156
-716.762	97.053	-0.094	0.108
-715.748	49.629	-0.068	-0.065
-714.733	-200.000	-0.001	-0.074
-713.718	102.521	0.134	0.158
-712.704	-200.000	0.022	-0.252
-711.689	12.642	-0.315	-0.245
-710.675	-34.070	0.202	-0.112
-709.660	-67.929	-0.096	-0.038
-708.645	280.219	0.107	0.194
-707.631	800.000	-0.083	0.287
-706.616	44.521	-0.201	0.186
-705.602	142.493	0.156	-0.209
-704.587	-186.326	0.113	-0.002
-703.572	1.141	0.110	-0.080
-702.558	-200.000	0.013	0.084
-701.543	144.728	-0.176	0.237
-700.529	-7.874	-0.159	-0.108
-699.514	-75.304	0.234	0.084
-698.499	428.061	-0.054	-0.119
-697.485	-120.346	-0.240	0.041
-696.470	259.648	-0.075	-0.130
-695.456	-30.800	0.324	-0.184
-694.441	204.824	0.069	0.108
-693.426	-200.000	-0.011	0.098
-692.412	447.294	0.047	0.105
-691.397	88.739	-0.083	-0.093
-690.383	84.394	0.149	-0.164
-689.368	55.155	-0.179	0.174
-688.354	161.056	0.062	-0.087
-687.339	13.939	0.163	0.128
-686.324	706.990	-0.180	0.479
-685.310	330.020	-0.039	-0.076
-684.295	548.153	-0.051	-0.124
-683.281	-200.000	-0.049	-0.418
-682.266	32.965	0.150	0.131
-681.251	-200.000	-0.052	0.282
-680.237	-172.670	-0.193	-0.006
-679.222	708.650	0.062	0.165
-678.208	-9.092	0.103	-0.070
-677.193	-113.215	0.204	0.040
-676.178	30.230	0.242	-0.207
-675.164	110.630	-0.051	-0.062
-674.149	-86.802	-0.383	-0.118
-673.135	-68.755	-0.344	-0.134
-672.120	572.526	0.027	-0.067
-671.105	71.774	-0.209	0.218
-670.091	163.423	-0.230	0.325
-669.076	111.180	-0.111	0.135
-668.062	-153.034	-0.105	-0.007
-667.047	-111.317	0.212	-0.043
-666.032	48.673	-0.204	-0.193
-665.018	-200.000	0.012	0.185
-664.003	95.318	0.104	-0.119
-662.989	-173.228	-0.343	-0.011
-661.974	2.357	-0.264	-0.192
-660.959	800.000	-0.071	-0.230
-659.945	800.000	-0.057	0.202
-658.930	-200.000	-0.033	0.188
-657.916	800.000	0.091	-0.253
-656.901	800.000	-0.055	0.224
-655.886	310.849	0.144	-0.272
-654.872	-183.789	-0.529	0.009
-653.857	-81.758	-0.108	-0.036
-652.843	233.186	-0.153	-0.254
-651.828	-200.000	-0.023	-0.188
-650.814	-200.000	-0.027	0.259
-649.799	-142.075	0.209	-0.021
-648.784	79.847	-0.155	-0.168
-647.770	-200.000	0.041	-0.192
-646.755	-72.861	-0.237	0.088
-645.741	800.000	-0.023	-0.087
-644.726	165.844	-0.110	-0.157
-643.711	-163.999	-0.292	0.014
-642.697	-200.000	-0.039	0.432
-641.682	-35.969	-0.086	0.047
-640.668	222.776	0.164	0.266
-639.653	-15.441	0.072	-0.046
-638.638	-200.000	0.007	0.052
-637.624	-127.331	0.146	-0.021
-636.609	-200.000	0.033	0.184
-635.595	-28.225	0.092	-0.053
-634.580	-148.675	0.118	-0.010
-633.565	172.845	-0.194	0.280
-632.551	-66.721	-0.262	-0.104
-631.536	-123.134	0.461	-0.074
-630.522	142.556	0.305	0.408
-629.507	-200.000	-0.011	0.123
-628.492	-128.008	-0.247	-0.036
-627.478	-24.093	-0.222	0.133
-626.463	229.588	-0.181	-0.297
-625.449	695.349	0.199	0.525
-624.434	-200.000	-0.022	0.116
-623.419	-52.700	-0.189	0.088
-622.405	-34.249	-0.166	0.091
-621.390	-131.900	-0.277	0.036
-620.376	122.626	0.060	-0.076
-619.361	-200.000	-0.044	-0.214
-618.346	484.559	-0.225	-0.515
-617.332	-76.976	-0.365	-0.128
-616.317	800.000	-0.015	-0.046
-615.303	27.160	-0.183	-0.155
-614.288	-38.170	0.147	0.078
-613.273	224.142	-0.275	-0.447
-612.259	-35.256	0.153	0.083
-611.244	-97.539	0.145	-0.038
-610.230	-39.856	0.182	-0.095
-609.215	800.000	-0.036	-0.105
-608.201	-65.761	0.148	0.059
-607.186	-52.528	0.364	-0.169
-606.171	-172.145	-0.051	-0.002
-605.157	627.407	0.014	-0.034
-604.142	800.000	-0.076	-0.323
-603.128	-200.000	0.015	-0.163
-602.113	800.000	-0.083	-0.246
-601.098	-113.222	0.156	-0.031
-600.084	-182.208	-0.293	-0.005
-599.069	319.160	-0.064	0.121
-598.055	185.764	-0.194	-0.289
-597.040	-200.000	0.073	0.448
-596.025	-200.000	0.012	0.205
-595.011	-200.000	-0.002	-0.032
-593.996	188.441	-0.130	0.196
-592.982	97.031	0.250	0.288
-591.967	-88.178	-0.155	-0.047
-590.952	-73.670	0.180	0.066
-589.938	736.786	-0.040	0.107
-588.923	9.828	-0.056	0.042
-587.909	242.124	0.291	-0.488
-586.894	-200.000	0.032	-0.259
-585.879	-65.273	-0.065	0.026
-584.865	-7.998	-0.093	0.063
-583.850	-200.000	0.005	0.062
-582.836	-81.191	0.290	-0.096
-581.821	-200.000	0.000	0.144
-580.806	-63.556	-0.058	0.024
-579.792	60.657	0.017	0.017
-578.777	800.000	0.051	0.157
-577.763	117.929	0.105	-0.130
-576.748	95.525	-0.063	-0.072
-575.733	-200.000	-0.009	0.102
-574.719	26.013	0.126	0.106
-573.704	17.808	0.054	-0.043
-572.690	-149.167	0.170	-0.014
-571.675	-200.000	-0.014	0.064
-570.661	-200.000	-0.019	0.127
-569.646	-118.787	-0.140	-0.025
-568.631	-149.617	-0.221	-0.018
-567.617	254.516	-0.068	0.116
-566.602	346.359	-0.060	-0.118
-565.588	-200.000	-0.023	0.164
-564.573	-102.033	0.160	-0.039
-563.558	417.034	-0.162	-0.346
-562.544	-118.473	0.269	0.048
-561.529	-200.000	-0.018	-0.128
-560.515	145.682	-0.189	-0.253
-559.500	-49.383	0.227	-0.108
-558.485	800.000	-0.037	0.154
-557.471	-161.098	-0.147	0.008
-556.456	-200.000	0.004	0.175
-555.442	137.021	0.010	0.013
-554.427	-200.000	-0.042	0.256
-553.412	800.000	-0.029	-0.082
-552.398	53.934	0.220	0.212
-551.383	122.255	0.086	0.108
-550.369	130.917	0.136	-0.175
-549.354	-200.000	0.010	0.422
-548.339	187.872	-0.201	0.301
-547.325	-197.018	0.184	-0.001
-546.310	-167.583	0.197	0.008
-545.296	190.313	-0.201	0.303
-544.281	149.308	0.065	-0.089
-543.266	434.812	0.095	0.208
-542.252	67.649	-0.036	0.037
-541.237	9.411	-0.212	0.160
-540.223	-147.847	0.165	-0.014
-539.208	280.576	-0.007	-0.012
-538.193	23.414	-0.123	-0.101
-537.179	-200.000	0.028	-0.397
-536.164	-200.000	-0.012	0.157
-535.150	78.513	-0.219	0.234
-534.135	213.010	0.076	-0.121
-533.121	-114.442	-0.292	0.056
-532.106	139.124	-0.065	0.086
-531.091	198.367	0.089	-0.137
-530.077	632.635	0.056	-0.141
-529.062	45.185	0.068	0.063
-528.048	800.000	0.022	0.069
-527.033	571.302	0.078	-0.190
-526.018	82.494	-0.087	-0.095
-525.004	17.243	0.062	0.050
-523.989	324.329	-0.078	0.148
-522.975	101.863	-0.103	0.120
-521.960	-44.612	0.139	-0.070
-520.945	-200.000	0.083	0.451
-519.931	-167.217	0.118	-0.005
-518.916	451.026	-0.020	0.045
-517.902	-82.740	-0.280	0.091
-516.887	-62.085	-0.185	0.077
-515.872	-200.000	0.027	-0.117
-514.858	-166.557	0.309	0.013
-513.843	681.430	-0.117	0.304
-512.829	120.749	0.122	0.152
-511.814	47.314	-0.037	-0.035
-510.799	-81.956	0.558	-0.183
-509.785	-6.151	-0.278	0.190
-508.770	-74.176	-0.071	-0.026
-507.756	549.159	0.059	0.142
-506.741	-50.759	-0.311	0.147
-505.726	133.708	0.126	0.164
-504.712	208.939	0.050	-0.079
-503.697	136.431	0.031	0.041
-502.683	-50.692	-0.066	-0.031
-501.668	245.431	-0.106	-0.179
-500.653	-46.926	-0.168	-0.082
-499.639	-43.840	-0.289	-0.145
-498.624	-59.464	-0.155	0.066
-497.610	-200.000	0.036	0.235
-496.595	40.837	-0.086	-0.078
-495.581	39.047	0.146	0.130
-494.566	82.670	-0.202	-0.220
-493.551	800.000	-0.066	-0.254
-492.537	92.216	0.056	0.063
-491.522	-23.978	-0.153	0.091
-490.508	-60.156	0.133	-0.057
-489.493	451.445	0.192	-0.424
-488.478	-94.417	-0.170	0.046
-487.464	269.278	0.135	-0.236
-486.449	-108.422	0.293	-0.063
-485.435	-200.000	0.016	-0.084
-484.420	-5.855	0.222	-0.152
-483.405	-138.042	-0.091	-0.010
-482.391	-200.000	-0.048	-0.228
-481.376	-107.569	-0.142	0.031
-480.362	-51.087	0.194	-0.091
-479.347	156.778	-0.074	0.102
-478.332	800.000	-0.023	0.072
-477.318	-48.357	-0.290	0.140
-476.303	-153.027	0.321	0.023
-475.289	172.900	-0.187	-0.269
-474.274	-200.000	0.011	-0.248
-473.259	101.573	-0.145	0.168
-472.245	252.996	0.195	0.333
-471.230	-200.000	0.009	-0.044
-470.216	123.485	0.125	0.156
-469.201	261.800	-0.093	-0.161
-468.186	800.000	0.036	0.142
-467.172	176.443	-0.032	0.047
-466.157	128.043	-0.121	-0.153
-465.143	142.064	0.064	0.085
-464.128	-200.000	-0.053	0.291
-463.113	512.268	0.071	0.165
-462.099	800.000	-0.070	0.197
-461.084	264.767	-0.111	0.193
-460.070	251.615	0.091	0.154
-459.055	310.775	0.172	-0.322
-458.040	172.577	0.062	-0.089
-457.026	371.186	0.184	0.373
-456.011	-152.653	-0.106	-0.008
-454.997	-200.000	0.034	0.299
-453.982	-80.708	-0.280	-0.093
-452.968	-70.598	-0.152	-0.057
-451.953	-45.719	-0.100	-0.049
-450.938	238.195	0.041	-0.067
-449.924	291.687	0.056	0.101
-448.909	37.543	0.126	0.111
-447.895	24.388	0.210	0.173
-446.880	43.611	-0.158	-0.144
-445.865	39.734	0.246	-0.220
-444.851	-77.965	-0.133	0.046
-443.836	206.718	0.098	0.152
-442.822	262.047	0.096	-0.166
-441.807	279.601	0.116	-0.206
-440.792	-122.442	0.355	-0.058
-439.778	-200.000	-0.009	-0.290
-438.763	80.616	0.218	-0.234
-437.749	-104.990	0.067	0.015
-436.734	109.895	-0.124	0.148
-435.719	61.624	0.013	-0.013
-434.705	-73.101	0.155	0.057
-433.690	-29.490	0.206	-0.117
-432.676	-162.946	0.196	-0.010
-431.661	172.615	0.099	-0.142
-430.646	572.980	-0.057	-0.138
-429.632	-54.780	-0.237	-0.106
-428.617	-200.000	0.011	-0.146
-427.603	-200.000	-0.009	0.158
-426.588	574.125	-0.182	0.443
-425.573	-65.667	0.286	-0.114
-424.559	43.063	-0.086	0.078
-423.544	-50.073	-0.112	-0.053
-422.530	-24.574	-0.256	-0.152
-421.515	800.000	-0.028	-0.103
-420.500	-200.000	-0.003	0.039
-419.486	263.736	-0.234	-0.405
-418.471	437.557	-0.030	-0.066
-417.457	62.470	-0.190	-0.189
-416.442	-128.441	0.061	-0.009
-415.428	-200.000	0.002	-0.058
-414.413	398.134	0.067	-0.140
-413.398	-176.153	-0.204	0.005
-412.384	2.075	0.142	0.102
-411.369	26.427	0.336	0.280
-410.355	-38.794	-0.126	-0.066
-409.340	-77.189	0.360	0.125
-408.325	5.154	-0.090	-0.066
-407.311	-63.265	0.221	0.091
-406.296	-32.780	0.348	-0.193
-405.282	-103.782	0.093	-0.022
-404.267	-200.000	0.023	0.140
-403.252	-114.241	0.153	-0.029
-402.238	533.374	-0.122	0.288
-401.223	789.995	0.033	-0.089
-400.209	-11.039	0.247	-0.163
-399.194	-125.500	0.027	0.004
-398.179	-153.294	0.145	-0.010
-397.165	-169.237	-0.137	0.005
-396.150	146.081	0.137	0.183
-395.136	800.000	-0.046	0.140
-394.121	709.536	0.043	0.112
-393.106	306.877	-0.081	-0.149
-392.092	88.003	-0.300	-0.331
-391.077	7.612	-0.283	-0.211
-390.063	12.397	-0.075	0.057
-389.048	800.000	0.029	-0.106
-388.033	-81.465	-0.332	-0.109
-387.019	236.040	0.073	-0.120
-386.004	79.886	0.168	0.180
-384.990	29.108	-0.108	0.091
-383.975	3.491	0.198	0.144
-382.960	-200.000	0.004	-0.142
-381.946	372.527	-0.042	0.086
-380.931	36.433	-0.143	-0.126
-379.917	105.266	-0.124	0.146
-378.902	151.568	0.099	-0.134
-377.888	44.933	0.107	0.098
-376.873	-41.316	-0.063	0.032
-375.858	-200.000	0.001	-0.136
-374.844	145.896	0.058	-0.077
-373.829	-18.079	-0.267	-0.166
-372.815	-103.936	0.088	-0.020
-371.800	800.000	0.095	-0.376
-370.785	-200.000	0.002	0.127
-369.771	-200.000	0.006	0.081
-368.756	-193.670	-0.386	-0.003
-367.742	800.000	0.127	0.434
-366.727	57.434	0.188	-0.182
-365.712	-116.496	-0.281	-0.051
-364.698	-200.000	-0.005	0.108
-363.683	-167.315	0.145	-0.006
-362.669	-8.505	-0.216	-0.144
-361.654	13.738	-0.116	0.090
-360.639	-7.651	-0.203	-0.136
-359.625	-40.616	-0.300	-0.155
-358.610	-200.000	-0.011	0.203
-357.596	-74.249	-0.124	0.045
-356.581	71.465	0.122	0.126
-355.566	37.282	-0.150	0.132
-354.552	325.635	-0.068	-0.130
-353.537	108.050	-0.110	-0.130
-352.523	211.941	0.259	-0.406
-351.508	-126.838	0.252	0.037
-350.493	-200.000	0.016	-0.124
-349.479	-97.963	0.082	-0.021
-348.464	607.288	-0.088	0.217
-347.450	-200.000	-0.003	-0.141
-346.435	-133.273	0.431	0.054
-345.420	-41.253	0.198	-0.101
-344.406	-200.000	0.012	-0.273
-343.391	88.920	0.344	-0.380
-342.377	24.707	-0.219	-0.180
-341.362	-87.246	-0.199	0.060
-340.348	-200.000	-0.008	0.203
-339.333	79.980	0.159	-0.170
-338.318	800.000	-0.071	0.253
-337.304	-73.417	-0.059	0.021
-336.289	-128.180	0.079	-0.011
-335.275	12.453	0.084	-0.065
-334.260	-26.518	-0.247	-0.144
-333.245	49.241	-0.211	0.197
-332.231	645.989	-0.201	0.511
-331.216	167.069	0.059	-0.084
-330.202	-48.611	0.175	0.084
-329.187	800.000	0.014	-0.049
-328.172	-47.529	-0.148	0.071
-327.158	-7.067	0.156	0.105
-326.143	-82.801	0.228	-0.073
-325.129	27.072	0.143	0.119
-324.114	339.670	-0.107	-0.206
-323.099	-174.300	-0.383	-0.011
-322.085	-200.000	-0.009	0.136
-321.070	-200.000	0.003	0.385
-320.056	-35.336	-0.342	-0.184
-319.041	-200.000	-0.018	-0.078
-318.026	343.560	0.154	0.300
-317.012	-3.651	0.264	0.182
-315.997	-151.023	-0.309	0.023
-314.983	155.291	-0.123	-0.168
-313.968	387.966	-0.115	-0.235
-312.953	-102.189	-0.084	0.020
-311.939	604.633	-0.114	0.283
-310.924	-17.610	0.319	0.199
-309.910	-144.082	0.295	-0.027
-308.895	-180.981	-0.319	0.006
-307.880	30.101	0.123	0.104
-306.866	146.923	0.152	0.203
-305.851	-46.644	-0.144	-0.070
-304.837	-58.245	-0.171	0.074
-303.822	-200.000	0.000	-0.141
-302.807	-110.396	-0.360	0.074
-301.793	-123.405	0.221	0.035
-300.778	276.352	0.068	0.120
-299.764	72.846	-0.237	0.246
-298.749	-200.000	0.052	-0.349
-297.735	257.620	0.069	-0.117
-296.720	251.086	0.170	-0.287
-295.705	-200.000	0.015	0.249
-294.691	800.000	-0.021	-0.086
-293.676	800.000	0.023	-0.082
-292.662	800.000	-0.090	-0.253
-291.647	-44.664	0.207	0.103
-290.632	16.561	0.100	-0.078
-289.618	-153.522	0.249	-0.017
-288.603	800.000	0.034	-0.141
-287.589	128.198	-0.071	-0.090
-286.574	-200.000	-0.022	-0.484
-285.559	-37.935	0.090	0.047
-284.545	-91.800	-0.125	-0.035
-283.530	-200.000	-0.020	-0.206
-282.516	-103.916	-0.244	0.056
-281.501	133.066	0.158	0.202
-280.486	-18.957	-0.288	0.178
-279.472	396.009	0.077	-0.160
-278.457	-2.238	0.215	0.150
-277.443	550.312	0.055	0.131
-276.428	-81.473	0.165	-0.054
-275.413	172.634	0.072	0.103
-274.399	-79.897	0.117	0.039
-273.384	800.000	-0.087	0.309
-272.370	-142.688	0.130	0.013
-271.355	-200.000	0.026	0.259
-270.340	412.054	-0.115	0.241
-269.326	178.316	-0.190	0.275
-268.311	-54.866	-0.286	-0.128
-267.297	179.928	-0.114	0.166
-266.282	99.608	-0.068	0.078
-265.267	170.747	-0.040	-0.057
-264.253	-50.712	-0.031	-0.015
-263.238	2.587	-0.392	-0.281
-262.224	-162.312	-0.123	0.006
-261.209	-85.720	-0.097	0.030
-260.195	-200.000	-0.034	-0.150
-259.180	89.354	0.134	-0.147
-258.165	39.173	-0.172	-0.152
-257.151	-200.000	-0.006	0.099
-256.136	126.080	0.211	0.264
-255.122	701.577	-0.014	0.037
-254.107	159.372	0.080	0.110
-253.092	800.000	0.135	0.483
-252.078	-40.320	-0.185	-0.095
-251.063	-89.207	0.022	-0.007
-250.049	-74.730	0.180	0.064
-249.034	800.000	-0.071	-0.297
-248.019	24.824	0.111	-0.091
-247.005	-114.186	-0.232	-0.044
-245.990	-58.919	-0.118	0.050
-244.976	-72.144	0.108	0.040
-243.961	800.000	-0.064	0.234
-242.946	-134.517	0.282	0.034
-241.932	131.066	-0.126	-0.159
-240.917	800.000	0.033	0.091
-239.903	425.142	0.068	-0.146
-238.888	-140.497	-0.329	-0.034
-237.873	-161.195	-0.417	0.021
-236.859	113.366	-0.196	0.235
-235.844	231.363	0.158	0.256
-234.830	18.112	0.052	-0.041
-233.815	59.302	-0.151	-0.147
-232.800	9.972	0.234	0.176
-231.786	-21.315	-0.060	-0.036
-230.771	-41.927	0.169	-0.085
-229.757	-54.365	-0.271	-0.122
-228.742	-104.283	0.455	0.104
-227.727	-200.000	0.054	0.275
-226.713	-72.412	0.226	-0.083
-225.698	513.131	-0.068	0.157
-224.684	260.547	-0.181	0.310
-223.669	-109.884	0.395	0.082
-222.655	-19.088	-0.087	-0.054
-221.640	108.957	0.108	-0.128
-220.625	-98.721	-0.337	-0.085
-219.611	325.382	-0.196	-0.370
-218.596	37.055	0.105	0.092
-217.582	69.740	0.097	0.099
-216.567	-80.302	0.147	-0.049
-215.552	-200.000	0.042	0.253
-214.538	-11.949	0.103	-0.067
-213.523	-200.000	-0.001	-0.195
-212.509	64.932	0.048	-0.048
-211.494	-200.000	-0.026	0.163
-210.479	-200.000	0.064	-0.385
-209.465	73.149	-0.111	-0.114
-208.450	460.977	-0.126	0.278
-207.436	102.285	-0.160	0.184
-206.421	167.901	0.143	0.201
-205.406	239.895	0.119	-0.196
-204.392	229.973	0.111	-0.180
-203.377	-5.347	0.063	-0.042
-202.363	800.000	-0.177	0.546
-201.348	-39.788	0.321	0.166
-200.333	800.000	-0.014	-0.058
-199.319	-98.368	0.192	0.049
-198.304	-125.410	0.236	-0.036
-197.290	-119.207	-0.136	-0.023
-196.275	504.478	0.084	-0.191
-195.260	-200.000	-0.008	-0.175
-194.246	234.201	-0.015	-0.025
-193.231	166.361	-0.049	-0.068
-192.217	800.000	0.071	0.251
-191.202	74.691	0.166	-0.172
-190.187	30.906	-0.094	-0.079
-189.173	354.332	-0.154	-0.303
-188.158	-200.000	0.068	-0.477
-187.144	-200.000	-0.000	-0.183
-186.129	128.341	0.127	-0.159
-185.114	11.948	-0.139	-0.106
-184.100	-200.000	-0.004	-0.038
-183.085	-146.813	0.268	-0.023
-182.071	-200.000	0.002	-0.097
-181.056	29.532	-0.026	-0.022
-180.042	-140.082	-0.240	0.025
-179.027	352.728	0.056	0.110
-178.012	49.046	0.144	-0.133
-176.998	-142.151	0.145	0.014
-175.983	-134.631	-0.023	-0.003
-174.969	-102.382	-0.141	-0.033
-173.954	-200.000	0.025	-0.214
-172.939	5.346	0.291	0.212
-171.925	-152.624	-0.211	-0.015
-170.910	209.974	0.175	0.271
-169.896	182.423	-0.155	0.225
-168.881	0.136	0.210	-0.148
-167.866	228.435	-0.065	-0.105
-166.852	-200.000	-0.008	-0.152
-165.837	453.842	0.140	-0.305
-164.823	-40.922	0.172	-0.088
-163.808	-101.324	0.046	-0.011
-162.793	-85.929	0.348	-0.106
-161.779	-73.900	-0.055	0.020
-160.764	309.746	-0.159	0.294
-159.750	-10.385	0.071	0.047
-158.735	85.116	-0.152	-0.164
-157.720	-200.000	0.007	0.230
-156.706	-149.291	-0.036	0.003
-155.691	-200.000	0.051	-0.314
-154.677	-200.000	-0.009	0.043
-153.662	-71.282	0.133	0.049
-152.647	16.071	-0.132	-0.103
-151.633	-95.410	-0.296	0.078
-150.618	-200.000	-0.001	-0.229
-149.604	-124.064	-0.034	0.005
-148.589	25.901	0.069	-0.057
-147.574	48.685	-0.159	-0.147
-146.560	39.488	-0.193	-0.171
-145.545	-77.052	0.109	0.037
-144.531	800.000	0.014	-0.050
-143.516	76.645	0.263	-0.275
-142.502	-164.696	-0.254	-0.011
-141.487	774.555	0.142	-0.381
-140.472	-90.343	0.304	-0.087
-139.458	800.000	0.039	-0.159
-138.443	160.795	0.080	-0.110
-137.429	800.000	0.096	-0.290
-136.414	800.000	0.113	-0.353
-135.399	6.138	0.161	-0.118
-134.385	67.688	-0.366	0.368
-133.370	-16.461	0.088	0.055
-132.356	111.346	0.100	0.119
-131.341	368.961	-0.180	-0.358
-130.326	800.000	-0.109	-0.326
-129.312	560.913	-0.052	-0.125
-128.297	-200.000	0.039	0.188
-127.283	749.099	-0.122	0.325
-126.268	-24.280	-0.170	0.100
-125.253	-45.062	0.235	-0.115
-124.239	693.099	-0.071	0.184
-123.224	800.000	-0.113	0.374
-122.210	-200.000	0.026	-0.155
