DTS Sentinel unit serial number:	SN413079Multiplexer serial number:	ORYXHardware model number:	OX4-SRSoftware version number:	ORYX F/W v4.00 Oryx Data Collector v3.7.2.0data status	okinstallation	princeton_trtdifferential loss correction	single-endedforward channel	channel 2reverse channel	N/Adate	2019/09/16time	01:07:35forward acquisition time	60.00reverse acquisition time	0.00gamma	496.2192k internal	0.2337k external	0.2337temperature offset calibration	0.9964default loss term (dB/km)	0.3790temperature slope calibration	1.0000multiplexer offset coefficient	1.0000multiplexer slope coefficient	1.0000fibre end	0.00T internal ref (°C)	27.31T ext. ref 1 (°C)	9.78T ext. ref 2 (°C)	21.59length (m)	temperature (°C)	Stokes	anti-Stokes-747.200	-117.813	0.106	0.019
-746.185	-152.722	-0.275	0.020
-745.171	153.121	-0.190	-0.261
-744.156	-85.064	-0.113	-0.035
-743.142	-54.903	0.249	0.113
-742.127	800.000	-0.030	0.106
-741.112	-163.813	-0.072	0.003
-740.098	-200.000	0.006	-0.095
-739.083	-70.162	0.111	-0.042
-738.069	0.733	0.230	0.165
-737.054	163.120	0.155	0.218
-736.039	12.070	-0.132	0.102
-735.025	-200.000	0.017	0.568
-734.010	-28.270	-0.125	-0.073
-732.996	123.203	0.043	0.054
-731.981	518.026	-0.130	-0.306
-730.966	-96.277	-0.142	0.038
-729.952	172.578	0.129	0.187
-728.937	152.674	-0.107	-0.146
-727.923	-65.484	0.228	0.092
-726.908	128.407	0.060	0.076
-725.894	331.156	-0.122	0.236
-724.879	45.729	-0.142	-0.132
-723.864	127.480	-0.272	-0.347
-722.850	557.099	-0.140	0.339
-721.835	-128.976	-0.261	-0.037
-720.821	800.000	0.057	0.162
-719.806	-51.483	-0.066	-0.031
-718.791	578.224	0.015	0.038
-717.777	-189.804	0.192	-0.002
-716.762	800.000	-0.047	-0.141
-715.748	48.687	0.099	-0.093
-714.733	800.000	-0.176	0.514
-713.718	-200.000	0.062	-0.279
-712.704	490.444	-0.074	-0.170
-711.689	-39.527	0.068	-0.035
-710.675	800.000	0.045	-0.160
-709.660	800.000	-0.099	0.342
-708.645	126.731	-0.161	0.204
-707.631	-72.803	0.362	0.134
-706.616	800.000	0.051	-0.162
-705.602	523.851	0.075	0.178
-704.587	155.242	-0.255	-0.352
-703.572	-95.915	-0.136	-0.036
-702.558	201.064	-0.046	0.071
-701.543	52.410	-0.208	0.199
-700.529	-35.359	0.097	0.053
-699.514	-200.000	-0.004	0.117
-698.499	154.836	0.121	0.167
-697.485	800.000	-0.069	-0.239
-696.470	800.000	-0.064	0.209
-695.456	50.265	0.246	0.232
-694.441	-23.498	-0.473	0.284
-693.426	60.927	0.267	-0.266
-692.412	-200.000	-0.047	-0.215
-691.397	-15.854	0.221	0.141
-690.383	-152.899	-0.180	-0.013
-689.368	-73.254	-0.341	-0.125
-688.354	-160.708	-0.396	0.021
-687.339	-87.988	0.309	0.093
-686.324	22.889	0.349	-0.286
-685.310	800.000	-0.108	0.340
-684.295	61.431	0.144	-0.143
-683.281	658.314	0.091	-0.236
-682.266	-113.051	0.179	0.035
-681.251	91.579	-0.117	0.132
-680.237	-148.853	-0.149	-0.012
-679.222	-58.259	-0.216	-0.094
-678.208	62.634	-0.338	0.338
-677.193	55.024	0.067	-0.065
-676.178	28.314	-0.150	-0.127
-675.164	9.867	0.110	0.084
-674.149	475.991	0.239	0.541
-673.135	800.000	0.019	-0.068
-672.120	86.721	-0.125	0.138
-671.105	232.132	0.038	0.063
-670.091	-1.328	-0.207	0.146
-669.076	402.893	-0.089	-0.188
-668.062	-127.838	-0.390	0.056
-667.047	-82.707	-0.026	-0.009
-666.032	-133.423	-0.249	0.031
-665.018	-126.574	0.331	0.049
-664.003	-119.602	-0.147	-0.025
-662.989	594.154	0.054	0.134
-661.974	-167.143	0.143	-0.006
-660.959	-90.289	-0.201	0.059
-659.945	-83.875	-0.155	0.049
-658.930	-84.183	-0.299	-0.095
-657.916	-69.014	0.188	-0.072
-656.901	-200.000	0.001	-0.222
-655.886	800.000	-0.023	0.067
-654.872	-200.000	-0.035	-0.180
-653.857	800.000	0.064	-0.275
-652.843	-19.254	-0.158	-0.098
-651.828	-171.544	0.282	-0.009
-650.814	24.010	-0.329	0.271
-649.799	-200.000	0.026	-0.123
-648.784	49.053	0.107	-0.101
-647.770	279.933	-0.081	0.144
-646.755	479.926	-0.064	0.146
-645.741	800.000	-0.106	-0.365
-644.726	800.000	0.055	-0.181
-643.711	-200.000	0.009	-0.407
-642.697	358.994	-0.044	0.087
-641.682	-115.464	0.292	-0.055
-640.668	105.537	-0.232	0.274
-639.653	800.000	0.032	0.095
-638.638	-117.029	0.025	-0.005
-637.624	-62.519	-0.106	-0.044
-636.609	386.423	0.164	0.339
-635.595	60.318	-0.338	0.334
-634.580	-15.578	-0.156	-0.099
-633.565	-47.120	0.274	-0.133
-632.551	1.909	0.077	-0.055
-631.536	36.223	-0.178	0.157
-630.522	407.618	0.064	-0.135
-629.507	-75.938	0.136	0.048
-628.492	800.000	0.036	-0.104
-627.478	171.731	0.050	0.071
-626.463	-88.219	-0.177	-0.053
-625.449	800.000	0.094	0.275
-624.434	-97.185	0.035	0.009
-623.419	-100.579	-0.120	0.030
-622.405	-200.000	-0.018	0.103
-621.390	315.303	0.026	-0.048
-620.376	183.812	-0.035	0.052
-619.361	-126.456	-0.385	0.057
-618.346	-149.266	-0.292	-0.023
-617.332	446.940	0.273	0.600
-616.317	-95.498	-0.423	0.113
-615.303	67.197	0.008	-0.008
-614.288	86.889	0.093	0.103
-613.273	623.376	-0.124	-0.312
-612.259	-200.000	-0.056	-0.252
-611.244	-99.322	-0.237	-0.060
-610.230	-15.273	0.208	-0.133
-609.215	800.000	0.064	-0.245
-608.201	21.648	-0.157	-0.127
-607.186	-155.955	-0.206	-0.013
-606.171	-83.998	0.272	-0.086
-605.157	-3.507	-0.300	-0.209
-604.142	800.000	-0.058	-0.180
-603.128	-200.000	-0.009	0.042
-602.113	129.747	-0.139	-0.178
-601.098	193.450	0.021	-0.031
-600.084	800.000	-0.071	-0.203
-599.069	22.963	0.195	-0.160
-598.055	-29.903	-0.022	0.012
-597.040	-64.088	0.065	-0.026
-596.025	415.006	0.159	-0.339
-595.011	-109.694	0.093	0.020
-593.996	-70.244	0.315	-0.119
-592.982	31.679	0.027	-0.023
-591.967	82.749	0.073	0.079
-590.952	-135.347	-0.278	-0.033
-589.938	-79.868	0.129	-0.043
-588.923	-137.229	-0.446	-0.051
-587.909	206.129	-0.094	0.146
-586.894	-92.738	0.258	-0.072
-585.879	145.348	-0.249	0.332
-584.865	-149.312	-0.063	0.005
-583.850	-1.770	-0.273	0.192
-582.836	-9.755	-0.203	-0.135
-581.821	456.765	0.211	-0.467
-580.806	141.719	0.028	0.037
-579.792	164.157	-0.101	-0.141
-578.777	-71.650	-0.307	0.114
-577.763	-186.590	-0.034	0.000
-576.748	400.854	0.166	0.348
-575.733	-200.000	-0.024	-0.207
-574.719	-13.918	-0.304	0.196
-573.704	-110.483	0.451	0.093
-572.690	14.284	-0.200	-0.156
-571.675	49.571	-0.191	-0.179
-570.661	-49.338	-0.237	0.113
-569.646	595.305	0.058	-0.143
-568.631	161.781	-0.114	-0.159
-567.617	24.652	0.142	-0.117
-566.602	800.000	0.048	-0.199
-565.588	270.747	-0.042	-0.073
-564.573	20.527	-0.207	0.167
-563.558	-162.198	0.123	0.006
-562.544	-200.000	-0.048	0.228
-561.529	401.094	-0.037	-0.078
-560.515	-57.500	0.208	0.091
-559.500	800.000	0.026	0.102
-558.485	-28.927	0.169	0.097
-557.471	-84.003	-0.173	0.055
-556.456	-200.000	-0.017	-0.085
-555.442	785.707	0.064	0.176
-554.427	-95.575	0.204	-0.054
-553.412	360.781	-0.139	-0.278
-552.398	-83.550	-0.124	-0.040
-551.383	100.049	-0.116	-0.134
-550.369	-62.551	0.313	0.129
-549.354	-125.680	-0.172	0.026
-548.339	800.000	-0.060	0.165
-547.325	389.866	-0.022	0.045
-546.310	660.175	-0.104	-0.267
-545.296	178.849	0.109	0.158
-544.281	6.180	0.147	-0.108
-543.266	65.638	-0.151	0.152
-542.252	-200.000	0.018	0.231
-541.237	199.248	-0.223	0.341
-540.223	69.608	-0.373	0.383
-539.208	-27.564	0.225	0.130
-538.193	39.737	0.120	-0.107
-537.179	-179.209	0.136	0.003
-536.164	800.000	-0.117	-0.409
-535.150	350.082	0.032	0.064
-534.135	-200.000	-0.002	0.014
-533.121	-200.000	-0.016	-0.407
-532.106	-38.821	-0.228	-0.120
-531.091	-113.045	0.422	-0.083
-530.077	-8.554	0.165	0.110
-529.062	148.514	-0.079	-0.106
-528.048	-137.526	0.267	0.030
-527.033	147.089	-0.163	-0.218
-526.018	22.192	-0.067	-0.055
-525.004	-200.000	0.010	0.185
-523.989	-145.505	0.113	0.010
-522.975	270.055	0.228	-0.398
-521.960	-21.398	0.140	-0.085
-520.945	39.175	0.302	-0.269
-519.931	64.558	0.046	-0.046
-518.916	134.932	-0.233	-0.302
-517.902	98.191	-0.124	0.142
-516.887	-75.147	0.148	-0.053
-515.872	800.000	0.051	0.159
-514.858	-29.086	-0.092	-0.052
-513.843	-171.484	0.220	0.007
-512.829	-129.192	-0.281	0.039
-511.814	-113.120	0.347	0.068
-510.799	-107.351	-0.111	-0.024
-509.785	-136.219	-0.203	0.024
-508.770	274.557	-0.041	0.072
-507.756	-200.000	-0.026	-0.294
-506.741	32.578	0.142	-0.122
-505.726	553.288	0.075	-0.179
-504.712	187.289	0.183	0.272
-503.697	-200.000	-0.007	0.249
-502.683	-51.737	0.148	0.069
-501.668	122.336	-0.077	0.096
-500.653	-97.175	-0.170	0.044
-499.639	410.655	-0.155	-0.327
-498.624	46.790	-0.148	0.137
-497.610	-99.992	0.342	-0.085
-496.595	93.258	0.202	0.228
-495.581	-200.000	0.031	-0.477
-494.566	47.142	-0.031	-0.029
-493.551	163.780	-0.108	0.151
-492.537	-200.000	0.002	-0.230
-491.522	-37.013	-0.083	-0.044
-490.508	-200.000	0.244	0.001
-489.493	361.537	-0.119	0.236
-488.478	-32.447	0.111	-0.061
-487.464	771.371	-0.101	0.272
-486.449	-200.000	-0.051	0.416
-485.435	28.720	-0.141	0.119
-484.420	-85.753	-0.197	-0.061
-483.405	326.960	0.103	-0.196
-482.391	-164.219	0.116	-0.005
-481.376	-147.265	-0.119	0.010
-480.362	-152.419	0.435	0.031
-479.347	-200.000	0.014	-0.194
-478.332	88.988	-0.081	-0.089
-477.318	305.852	0.104	0.193
-476.303	-60.310	-0.279	-0.118
-475.289	-11.108	-0.107	0.070
-474.274	354.323	0.164	0.323
-473.259	800.000	-0.024	0.087
-472.245	-57.290	0.125	0.055
-471.230	-73.057	0.065	0.024
-470.216	-118.623	-0.394	0.069
-469.201	355.734	-0.043	-0.085
-468.186	-91.771	0.384	0.108
-467.172	36.094	0.103	0.090
-466.157	-200.000	-0.021	-0.100
-465.143	613.914	-0.059	0.147
-464.128	-62.020	-0.175	-0.073
-463.113	-18.967	0.220	0.136
-462.099	215.351	-0.124	-0.195
-461.084	20.812	-0.259	0.209
-460.070	674.637	0.054	0.140
-459.055	800.000	0.093	0.285
-458.040	800.000	0.096	-0.372
-457.026	75.741	-0.183	-0.192
-456.011	-200.000	0.003	0.247
-454.997	193.294	-0.090	0.134
-453.982	-10.366	0.188	0.124
-452.968	800.000	-0.051	0.160
-451.953	-2.532	-0.126	0.087
-450.938	-110.430	0.247	-0.051
-449.924	-200.000	-0.005	0.149
-448.909	-102.659	-0.209	-0.049
-447.895	-123.865	0.226	0.035
-446.880	-60.477	-0.184	0.078
-445.865	297.268	0.099	-0.181
-444.851	-78.805	0.417	-0.141
-443.836	55.163	-0.151	-0.144
-442.822	153.894	0.063	-0.085
-441.807	4.343	0.094	-0.068
-440.792	69.491	-0.043	-0.044
-439.778	800.000	-0.058	0.164
-438.763	-129.607	-0.277	0.038
-437.749	-110.298	0.090	0.019
-436.734	-113.516	-0.330	0.064
-435.719	-149.547	0.236	-0.019
-434.705	413.301	0.197	0.415
-433.690	-200.000	-0.024	0.150
-432.676	-117.739	-0.075	-0.013
-431.661	-113.912	0.035	-0.007
-430.646	-30.751	0.275	-0.154
-429.632	-134.517	-0.314	0.038
-428.617	3.424	0.103	0.074
-427.603	-81.160	-0.163	0.054
-426.588	-74.944	0.517	0.184
-425.573	31.689	0.022	0.018
-424.559	-200.000	0.040	0.197
-423.544	48.381	-0.130	0.121
-422.530	-5.302	-0.138	-0.094
-421.515	-200.000	-0.023	0.273
-420.500	-9.797	0.282	0.186
-419.486	-59.834	0.185	-0.079
-418.471	86.458	0.176	0.192
-417.457	-200.000	-0.004	-0.083
-416.442	307.316	-0.055	-0.102
-415.428	32.872	0.274	-0.235
-414.413	-200.000	-0.006	0.035
-413.398	40.878	-0.119	-0.106
-412.384	-200.000	-0.023	0.158
-411.369	21.999	0.231	-0.186
-410.355	41.556	0.430	0.386
-409.340	8.692	-0.251	0.187
-408.325	25.748	-0.107	0.088
-407.311	-94.502	0.293	0.079
-406.296	-200.000	0.069	-0.356
-405.282	-200.000	-0.042	-0.318
-404.267	-200.000	-0.290	-0.001
-403.252	80.322	-0.188	0.201
-402.238	-105.325	-0.144	-0.033
-401.223	19.926	-0.264	0.211
-400.209	-98.178	0.143	0.037
-399.194	-110.352	-0.325	0.067
-398.179	-29.544	0.073	0.041
-397.165	-200.000	0.032	0.173
-396.150	-200.000	-0.015	-0.116
-395.136	88.906	0.056	0.062
-394.121	-181.010	-0.299	-0.006
-393.106	-110.916	0.203	-0.041
-392.092	-98.409	0.190	-0.048
-391.077	-100.532	0.263	0.064
-390.063	-46.012	0.019	-0.009
-389.048	93.740	0.162	-0.182
-388.033	-200.000	-0.045	-0.262
-387.019	87.016	-0.006	0.007
-386.004	55.042	0.021	-0.020
-384.990	-132.280	-0.119	0.015
-383.975	-200.000	-0.056	0.321
-382.960	227.488	-0.076	0.122
-381.946	30.721	0.036	0.031
-380.931	124.487	0.046	-0.057
-379.917	326.608	-0.122	-0.232
-378.902	19.365	-0.239	0.190
-377.888	-170.658	0.313	-0.011
-376.873	-200.000	0.056	-0.367
-375.858	-52.423	0.387	-0.177
-374.844	-27.326	-0.231	-0.133
-373.829	-145.829	0.336	0.030
-372.815	-121.690	0.298	0.049
-371.800	-115.021	-0.347	0.065
-370.785	-106.335	-0.261	-0.058
-369.771	-99.603	-0.050	0.012
-368.756	-177.541	0.032	0.001
-367.742	-200.000	-0.003	-0.080
-366.727	800.000	0.014	-0.054
-365.712	-200.000	-0.007	0.057
-364.698	-39.028	-0.208	-0.108
-363.683	531.441	-0.035	-0.082
-362.669	278.943	-0.233	0.411
-361.654	-26.388	0.197	-0.114
-360.639	-200.000	-0.006	-0.130
-359.625	283.043	0.079	0.140
-358.610	331.727	-0.157	0.299
-357.596	1.010	0.170	0.121
-356.581	-0.159	-0.222	-0.156
-355.566	800.000	-0.082	0.249
-354.552	182.678	-0.071	-0.103
-353.537	51.274	0.297	-0.279
-352.523	242.558	0.074	0.122
-351.508	-200.000	0.010	-0.203
-350.493	800.000	0.093	-0.262
-349.479	-200.000	-0.004	0.112
-348.464	-200.000	-0.024	-0.583
-347.450	565.951	0.067	-0.160
-346.435	-126.149	-0.166	-0.025
-345.420	-200.000	-0.006	0.324
-344.406	-89.000	-0.266	0.078
-343.391	134.890	0.165	0.212
-342.377	-200.000	-0.041	-0.224
-341.362	800.000	0.096	-0.278
-340.348	-200.000	0.011	0.401
-339.333	-59.616	0.259	0.110
-338.318	800.000	0.026	0.104
-337.304	-200.000	0.033	0.217
-336.289	107.384	0.060	-0.070
-335.275	-173.862	0.320	0.009
-334.260	289.854	-0.025	0.046
-333.245	-123.155	-0.681	0.108
-332.231	-200.000	-0.006	0.107
-331.216	-74.570	0.097	0.034
-330.202	443.318	0.111	0.241
-329.187	-50.773	-0.121	-0.056
-328.172	-200.000	-0.030	-0.230
-327.158	-108.385	0.209	-0.045
-326.143	397.608	0.032	0.066
-325.129	-200.000	0.009	0.148
-324.114	243.860	0.106	0.175
-323.099	-45.811	0.195	0.095
-322.085	61.296	-0.123	-0.121
-321.070	304.673	-0.017	0.031
-320.056	-200.000	-0.004	0.357
-319.041	248.820	-0.205	-0.343
-318.026	134.048	-0.027	-0.035
-317.012	-85.086	-0.109	0.034
-315.997	233.816	0.158	-0.257
-314.983	-99.431	0.180	-0.045
-313.968	-25.493	-0.067	0.039
-312.953	-148.640	-0.370	-0.030
-311.939	147.102	0.130	-0.172
-310.924	26.278	-0.234	0.193
-309.910	540.416	0.154	0.361
-308.895	18.874	0.081	0.064
-307.880	-200.000	0.052	-0.296
-306.866	-158.530	-0.349	-0.020
-305.851	-50.622	0.244	0.114
-304.837	-200.000	-0.043	0.263
-303.822	-169.051	0.288	0.011
-302.807	800.000	-0.063	-0.233
-301.793	-158.859	0.217	0.012
-300.778	-99.116	0.187	0.047
-299.764	800.000	0.151	0.429
-298.749	-104.450	-0.154	-0.035
-297.735	47.388	0.204	-0.187
-296.720	-126.542	0.325	-0.048
-295.705	350.523	-0.114	-0.222
-294.691	-190.317	0.276	-0.003
-293.676	132.130	0.058	0.074
-292.662	800.000	-0.035	-0.109
-291.647	-20.506	-0.082	0.050
-290.632	220.805	-0.096	-0.152
-289.618	202.935	0.124	0.188
-288.603	119.699	0.100	0.122
-287.589	122.254	-0.178	-0.220
-286.574	-200.000	-0.033	-0.305
-285.559	359.681	0.067	-0.132
-284.545	-124.147	0.261	0.040
-283.530	451.036	-0.070	0.152
-282.516	17.745	0.201	0.158
-281.501	800.000	0.062	0.224
-280.486	-90.035	0.483	-0.139
-279.472	150.099	0.113	0.151
-278.457	6.499	-0.174	-0.128
-277.443	5.007	0.392	0.284
-276.428	-30.090	-0.241	-0.135
-275.413	63.888	-0.105	-0.104
-274.399	54.172	0.147	0.139
-273.384	154.533	0.027	-0.036
-272.370	313.955	-0.233	-0.433
-271.355	-150.399	0.128	0.010
-270.340	14.391	0.051	-0.040
-269.326	-33.036	-0.226	-0.124
-268.311	-120.768	0.182	0.030
-267.297	800.000	-0.035	-0.143
-266.282	-200.000	0.001	-0.269
-265.267	-196.955	-0.283	0.002
-264.253	92.240	-0.119	-0.132
-263.238	-94.381	0.179	0.048
-262.224	-200.000	-0.019	0.323
-261.209	800.000	-0.018	0.066
-260.195	-200.000	-0.051	-0.303
-259.180	-200.000	0.027	-0.176
-258.165	-200.000	0.025	-0.112
-257.151	-120.174	0.141	0.024
-256.136	-169.958	-0.190	-0.007
-255.122	-200.000	0.018	0.368
-254.107	111.660	0.109	0.130
-253.092	-29.546	0.076	0.043
-252.078	800.000	0.020	0.084
-251.063	-60.709	-0.417	0.174
-250.049	50.598	-0.180	-0.168
-249.034	3.125	-0.234	0.168
-248.019	599.348	-0.032	0.078
-247.005	-200.000	-0.028	0.151
-245.990	20.476	-0.183	0.146
-244.976	43.266	0.206	0.186
-243.961	-135.606	0.140	-0.016
-242.946	-107.671	0.280	0.060
-241.932	-156.863	-0.261	-0.016
-240.917	-83.920	-0.178	-0.056
-239.903	-200.000	0.007	-0.136
-238.888	52.013	-0.209	0.196
-237.873	-200.000	-0.015	0.087
-236.859	800.000	0.046	0.192
-235.844	64.898	-0.388	0.385
-234.830	35.956	-0.217	-0.188
-233.815	-16.359	-0.329	0.205
-232.800	-71.691	0.121	0.045
-231.786	-200.000	0.010	-0.182
-230.771	16.582	0.266	0.207
-229.757	83.448	-0.076	0.082
-228.742	-200.000	-0.002	0.198
-227.727	161.159	-0.154	-0.211
-226.713	312.280	-0.216	-0.399
-225.698	-183.926	0.323	-0.005
-224.684	693.536	-0.065	-0.168
-223.669	-66.986	0.063	-0.025
-222.655	800.000	0.062	0.225
-221.640	-200.000	0.005	-0.134
-220.625	-102.649	-0.173	-0.041
-219.611	-136.181	-0.078	-0.009
-218.596	-138.073	-0.117	0.013
-217.582	-169.630	0.199	0.007
-216.567	-12.758	-0.250	-0.160
-215.552	800.000	0.069	-0.242
-214.538	47.404	-0.213	0.195
-213.523	-102.003	-0.195	0.046
-212.509	-200.000	0.026	0.478
-211.494	64.599	-0.201	-0.199
-210.479	-54.287	-0.162	0.072
-209.465	-37.935	0.394	-0.206
-208.450	-165.110	0.192	0.008
-207.436	89.223	-0.222	-0.243
-206.421	-72.605	-0.205	-0.075
-205.406	71.299	0.150	-0.153
-204.392	-57.600	0.097	-0.042
-203.377	18.423	0.252	-0.198
-202.363	76.359	-0.050	0.052
-201.348	-149.606	0.450	-0.035
-200.333	150.555	0.068	0.091
-199.319	119.492	-0.178	-0.216
-198.304	481.597	-0.033	-0.075
-197.290	9.479	0.034	0.025
-196.275	93.080	0.141	-0.157
-195.260	77.618	-0.116	0.121
-194.246	107.280	0.105	-0.123
-193.231	-37.648	-0.248	-0.130
-192.217	51.150	0.134	0.125
-191.202	-200.000	0.067	0.506
-190.187	-41.594	0.330	0.167
-189.173	-69.017	-0.237	0.090
-188.158	86.344	-0.204	-0.221
-187.144	-154.120	0.111	0.007
-186.129	800.000	-0.108	0.421
-185.114	-69.683	0.220	-0.082
-184.100	-186.756	-0.235	-0.003
-183.085	-44.376	-0.253	0.124
-182.071	293.263	0.057	-0.103
-181.056	63.753	-0.130	-0.128
-180.042	800.000	0.066	0.228
-179.027	-200.000	-0.046	0.358
-178.012	19.959	-0.043	0.034
-176.998	21.483	-0.130	0.104
-175.983	-155.022	-0.175	-0.011
-174.969	173.121	0.268	-0.379
-173.954	424.312	-0.032	-0.068
-172.939	-200.000	-0.027	-0.353
-171.925	-15.017	0.126	-0.080
-170.910	50.821	-0.203	0.189
-169.896	-121.677	-0.142	0.023
-168.881	35.033	0.258	-0.222
-167.866	-140.370	0.177	-0.018
-166.852	-200.000	-0.046	0.406
-165.837	-102.182	0.148	-0.035
-164.823	211.344	-0.195	-0.301
-163.808	-200.000	0.035	-0.190
-162.793	-67.188	0.185	0.072
-161.779	800.000	-0.065	-0.192
-160.764	578.322	-0.060	0.144
-159.750	-200.000	0.024	-0.322
-158.735	800.000	-0.131	0.362
-157.720	256.840	0.082	-0.138
-156.706	-200.000	0.015	-0.356
-155.691	-200.000	0.009	-0.047
-154.677	-200.000	-0.030	-0.166
-153.662	-200.000	-0.016	-0.193
-152.647	-50.259	0.352	0.163
-151.633	-200.000	0.006	-0.062
-150.618	46.948	-0.072	0.066
-149.604	-200.000	-0.005	-0.084
-148.589	-22.515	-0.239	0.142
-147.574	-132.916	-0.157	-0.020
-146.560	-33.571	-0.261	-0.142
-145.545	-116.228	0.248	0.045
-144.531	-29.219	0.029	0.016
-143.516	122.836	-0.194	0.238
-142.502	-23.652	-0.055	-0.032
-141.487	-40.989	0.163	0.082
-140.472	-165.338	0.055	0.002
-139.458	-48.674	-0.117	0.055
-138.443	71.929	0.270	-0.276
-137.429	800.000	0.097	-0.409
-136.414	189.678	-0.153	-0.225
-135.399	-200.000	0.033	-0.259
-134.385	157.876	0.134	0.182
-133.370	-29.667	0.339	0.190
-132.356	58.680	-0.063	-0.061
-131.341	-134.383	0.191	-0.023
-130.326	-126.200	-0.587	0.086
-129.312	-89.139	0.168	0.049
-128.297	-56.145	0.216	0.094
-127.283	-92.173	-0.245	0.068
-126.268	9.710	0.280	0.208
-125.253	229.404	0.121	-0.193
-124.239	-44.592	-0.285	-0.140
-123.224	-94.596	-0.095	0.025
-122.210	31.099	0.142	-0.120
-121.195	-107.992	-0.144	0.031
