DTS Sentinel unit serial number:	SN413079Multiplexer serial number:	ORYXHardware model number:	OX4-SRSoftware version number:	ORYX F/W v4.00 Oryx Data Collector v3.7.2.0data status	okinstallation	princeton_trtdifferential loss correction	single-endedforward channel	channel 2reverse channel	N/Adate	2019/09/13time	02:31:35forward acquisition time	60.00reverse acquisition time	0.00gamma	496.2192k internal	0.2335k external	0.2335temperature offset calibration	1.0184default loss term (dB/km)	0.3790temperature slope calibration	1.0000multiplexer offset coefficient	1.0000multiplexer slope coefficient	1.0000fibre end	0.00T internal ref (°C)	27.50T ext. ref 1 (°C)	3.97T ext. ref 2 (°C)	22.25length (m)	temperature (°C)	Stokes	anti-Stokes-747.200	-70.105	-0.118	0.045
-746.185	203.889	-0.056	-0.088
-745.171	-200.000	-0.004	-0.241
-744.156	-200.000	0.021	0.158
-743.142	190.516	-0.175	0.265
-742.127	-46.096	0.251	0.124
-741.112	-1.715	-0.166	0.117
-740.098	800.000	0.067	-0.235
-739.083	338.920	0.143	0.280
-738.069	602.797	-0.097	0.241
-737.054	-31.680	-0.151	0.085
-736.039	-88.261	-0.159	-0.048
-735.025	-200.000	0.007	0.384
-734.010	-200.000	-0.087	-0.000
-732.996	800.000	0.008	-0.030
-731.981	-200.000	0.002	0.049
-730.966	14.184	0.252	-0.197
-729.952	-23.775	-0.132	-0.079
-728.937	77.876	0.033	0.035
-727.923	-137.496	0.236	-0.027
-726.908	19.182	-0.149	-0.120
-725.894	-200.000	-0.003	-0.215
-724.879	-200.000	0.063	-0.311
-723.864	-65.552	-0.208	0.084
-722.850	466.249	0.094	-0.211
-721.835	800.000	-0.111	-0.412
-720.821	-118.790	0.103	-0.018
-719.806	-200.000	0.018	0.161
-718.791	174.905	0.246	-0.358
-717.777	109.222	-0.150	0.180
-716.762	149.734	0.275	0.374
-715.748	-9.619	-0.367	-0.245
-714.733	10.821	0.386	-0.296
-713.718	-156.347	-0.338	0.021
-712.704	197.948	0.140	-0.214
-711.689	374.094	0.019	0.039
-710.675	491.767	0.081	0.185
-709.660	-87.434	0.356	-0.108
-708.645	-200.000	0.061	0.337
-707.631	147.155	-0.211	-0.284
-706.616	-121.612	0.151	0.025
-705.602	64.061	-0.102	0.103
-704.587	800.000	-0.060	-0.180
-703.572	256.335	-0.039	-0.068
-702.558	-1.476	-0.212	-0.150
-701.543	-61.481	0.281	-0.119
-700.529	-140.747	-0.366	0.038
-699.514	-41.302	0.327	0.169
-698.499	-200.000	-0.101	-0.451
-697.485	-200.000	-0.018	-0.305
-696.470	-105.838	0.149	-0.034
-695.456	3.580	-0.231	-0.169
-694.441	-120.367	-0.169	-0.029
-693.426	-130.245	-0.314	-0.043
-692.412	24.250	0.139	0.116
-691.397	-200.000	-0.020	-0.182
-690.383	-200.000	-0.054	-0.281
-689.368	191.210	-0.074	0.111
-688.354	-107.160	0.290	0.064
-687.339	198.394	0.196	0.301
-686.324	-200.000	-0.057	0.389
-685.310	74.202	-0.009	-0.009
-684.295	-64.199	0.342	0.140
-683.281	-200.000	0.006	0.202
-682.266	313.198	0.099	-0.187
-681.251	641.080	0.085	-0.218
-680.237	74.488	0.090	0.095
-679.222	-200.000	0.018	-0.235
-678.208	193.041	0.133	-0.202
-677.193	435.088	0.055	0.120
-676.178	-200.000	0.087	-0.418
-675.164	-59.836	-0.537	-0.230
-674.149	-110.601	-0.280	0.058
-673.135	175.651	-0.131	-0.190
-672.120	205.447	-0.305	-0.475
-671.105	53.373	-0.063	-0.061
-670.091	-74.475	-0.099	-0.036
-669.076	309.997	0.146	-0.274
-668.062	-42.638	-0.193	0.098
-667.047	800.000	-0.108	0.329
-666.032	-31.240	-0.193	-0.109
-665.018	-200.000	-0.081	-0.482
-664.003	104.330	-0.142	-0.167
-662.989	133.312	0.032	0.041
-661.974	-40.838	-0.237	0.123
-660.959	-200.000	0.037	-0.309
-659.945	201.818	-0.015	-0.023
-658.930	-200.000	-0.007	-0.064
-657.916	-21.661	0.238	0.145
-656.901	-132.972	0.158	-0.020
-655.886	-17.987	-0.368	-0.231
-654.872	-99.211	0.159	0.040
-653.857	120.591	-0.098	-0.122
-652.843	-200.000	-0.033	-0.162
-651.828	-92.928	0.244	-0.068
-650.814	800.000	-0.034	-0.127
-649.799	-163.908	0.493	-0.023
-648.784	-200.000	-0.039	-0.228
-647.770	69.503	-0.251	0.258
-646.755	800.000	0.137	0.549
-645.741	26.249	-0.069	-0.058
-644.726	73.005	0.173	-0.181
-643.711	-145.186	0.065	0.006
-642.697	89.726	-0.080	0.090
-641.682	6.091	0.100	0.074
-640.668	-96.467	0.119	0.031
-639.653	194.125	0.185	-0.281
-638.638	121.500	-0.153	-0.190
-637.624	-200.000	-0.037	-0.265
-636.609	272.523	0.055	-0.097
-635.595	800.000	0.165	-0.497
-634.580	67.372	0.119	0.122
-633.565	-181.513	0.123	-0.002
-632.551	-76.732	-0.314	-0.110
-631.536	233.298	-0.090	-0.148
-630.522	76.588	0.099	-0.105
-629.507	-13.291	-0.189	-0.123
-628.492	-106.472	0.259	0.058
-627.478	-137.571	-0.320	-0.036
-626.463	-98.741	0.103	0.026
-625.449	22.468	-0.266	0.218
-624.434	-85.279	-0.422	-0.132
-623.419	382.880	0.036	-0.074
-622.405	-165.108	-0.415	0.018
-621.390	103.888	0.160	0.188
-620.376	-72.246	-0.303	-0.112
-619.361	369.055	-0.150	-0.304
-618.346	186.200	0.083	-0.124
-617.332	-146.829	-0.127	0.011
-616.317	75.251	-0.211	0.222
-615.303	118.879	-0.103	0.128
-614.288	-200.000	0.007	0.055
-613.273	-164.370	0.223	0.010
-612.259	-200.000	-0.010	0.084
-611.244	77.854	0.043	-0.046
-610.230	248.889	-0.041	0.069
-609.215	-34.078	-0.356	0.196
-608.201	-200.000	0.038	-0.356
-607.186	384.758	-0.061	-0.125
-606.171	369.648	-0.079	0.160
-605.157	-200.000	-0.000	0.174
-604.142	396.247	-0.059	-0.123
-603.128	111.536	0.088	0.106
-602.113	126.155	-0.081	-0.102
-601.098	-103.688	0.166	-0.039
-600.084	-165.903	-0.065	-0.003
-599.069	800.000	-0.010	-0.034
-598.055	-23.511	-0.108	-0.065
-597.040	-40.494	0.293	-0.152
-596.025	399.209	0.054	0.112
-595.011	179.009	0.093	0.135
-593.996	140.599	0.129	0.170
-592.982	-200.000	0.021	0.179
-591.967	800.000	0.079	-0.225
-590.952	-158.725	-0.324	-0.019
-589.938	-43.864	0.270	-0.136
-588.923	-71.365	-0.244	0.091
-587.909	442.332	0.038	-0.084
-586.894	-200.000	-0.062	0.496
-585.879	-49.952	-0.365	0.173
-584.865	-200.000	-0.014	0.109
-583.850	-115.553	0.263	0.049
-582.836	-31.508	-0.209	-0.117
-581.821	-87.067	0.187	0.057
-580.806	800.000	0.063	-0.226
-579.792	-46.363	0.303	-0.148
-578.777	-150.240	-0.274	0.021
-577.763	800.000	0.057	0.217
-576.748	-4.077	0.083	0.057
-575.733	800.000	-0.035	0.128
-574.719	-157.142	-0.137	-0.008
-573.704	61.528	-0.249	-0.248
-572.690	53.030	0.194	0.185
-571.675	138.974	0.054	-0.071
-570.661	451.312	-0.082	0.181
-569.646	13.848	0.112	0.087
-568.631	-65.323	-0.380	0.153
-567.617	-149.136	-0.503	0.040
-566.602	-200.000	-0.023	-0.197
-565.588	-32.503	0.158	-0.088
-564.573	800.000	0.030	-0.110
-563.558	-96.239	-0.134	-0.036
-562.544	-133.863	0.115	-0.014
-561.529	800.000	0.052	-0.205
-560.515	-200.000	0.005	0.214
-559.500	34.494	-0.107	-0.093
-558.485	-200.000	0.011	-0.080
-557.471	-99.380	0.398	0.100
-556.456	-200.000	-0.049	0.421
-555.442	-11.747	-0.121	0.080
-554.427	800.000	0.063	-0.190
-553.412	-116.692	-0.516	0.095
-552.398	-200.000	-0.021	-0.119
-551.383	-127.034	-0.092	-0.013
-550.369	-138.352	0.193	-0.021
-549.354	800.000	-0.033	0.124
-548.339	-78.063	0.224	0.077
-547.325	-200.000	0.007	-0.064
-546.310	-143.642	0.030	0.003
-545.296	298.134	0.180	0.329
-544.281	186.318	0.158	0.234
-543.266	533.315	0.201	-0.475
-542.252	800.000	-0.064	-0.268
-541.237	629.571	-0.048	0.121
-540.223	-90.254	-0.409	0.119
-539.208	116.121	0.162	0.198
-538.193	76.292	-0.169	-0.178
-537.179	-200.000	-0.057	0.247
-536.164	-200.000	0.003	-0.099
-535.150	15.330	-0.211	-0.165
-534.135	-200.000	0.169	-0.001
-533.121	25.259	0.132	-0.109
-532.106	800.000	-0.078	0.300
-531.091	-42.149	-0.174	0.089
-530.077	355.199	-0.220	-0.435
-529.062	-160.342	-0.230	0.012
-528.048	-138.283	0.116	0.013
-527.033	-174.960	0.203	0.006
-526.018	86.868	-0.203	-0.224
-525.004	-177.425	0.195	0.005
-523.989	253.345	-0.097	-0.166
-522.975	-200.000	0.021	-0.204
-521.960	13.670	0.100	-0.077
-520.945	-24.561	0.098	0.058
-519.931	0.116	-0.055	0.039
-518.916	-46.653	0.288	-0.141
-517.902	-62.592	-0.036	-0.015
-516.887	158.418	0.145	-0.200
-515.872	-10.566	-0.097	-0.064
-514.858	-56.238	0.251	-0.111
-513.843	-200.000	-0.001	0.250
-512.829	-73.625	-0.113	0.041
-511.814	417.550	0.057	-0.121
-510.799	-137.009	0.429	-0.049
-509.785	51.956	-0.140	0.133
-508.770	-200.000	-0.071	0.332
-507.756	-108.087	0.499	-0.108
-506.741	-200.000	-0.022	0.165
-505.726	190.935	-0.074	0.110
-504.712	-21.848	-0.297	-0.180
-503.697	-125.639	0.373	0.056
-502.683	-83.835	-0.151	0.048
-501.668	288.969	-0.164	0.296
-500.653	-89.511	0.192	0.056
-499.639	247.121	0.081	-0.137
-498.624	-138.121	-0.168	0.019
-497.610	45.563	0.156	-0.143
-496.595	-105.705	-0.132	0.030
-495.581	-163.871	-0.098	0.005
-494.566	-21.273	0.177	0.108
-493.551	-70.554	0.141	-0.053
-492.537	417.915	-0.108	0.229
-491.522	587.968	0.044	0.107
-490.508	-200.000	-0.009	0.090
-489.493	800.000	0.123	0.426
-488.478	54.049	0.254	0.243
-487.464	92.080	0.090	-0.101
-486.449	113.150	0.116	0.139
-485.435	-200.000	-0.016	0.113
-484.420	-52.294	-0.130	0.060
-483.405	-104.572	-0.155	0.036
-482.391	75.662	0.098	-0.103
-481.376	95.193	0.096	0.108
-480.362	-101.264	-0.117	-0.028
-479.347	214.986	-0.110	0.173
-478.332	-74.597	0.042	0.015
-477.318	-200.000	0.015	0.166
-476.303	173.110	0.216	0.309
-475.289	-114.628	-0.041	-0.008
-474.274	-200.000	0.043	-0.324
-473.259	277.354	0.067	0.119
-472.245	529.609	-0.147	0.346
-471.230	800.000	0.038	-0.148
-470.216	-28.349	0.269	-0.154
-469.201	800.000	-0.030	-0.093
-468.186	335.791	-0.040	-0.078
-467.172	-200.000	0.016	0.446
-466.157	-200.000	0.011	0.109
-465.143	443.452	-0.149	-0.324
-464.128	-74.681	-0.293	0.105
-463.113	5.644	-0.229	-0.168
-462.099	-200.000	-0.010	0.105
-461.084	-110.883	-0.146	0.030
-460.070	800.000	-0.022	-0.091
-459.055	-200.000	-0.008	-0.198
-458.040	-200.000	-0.018	-0.267
-457.026	800.000	0.039	-0.133
-456.011	-90.378	0.182	-0.052
-454.997	18.276	0.182	-0.144
-453.982	772.494	0.057	-0.156
-452.968	43.687	0.226	0.205
-451.953	-73.959	-0.342	-0.123
-450.938	-200.000	-0.013	0.201
-449.924	223.796	-0.231	0.371
-448.909	7.346	-0.181	0.134
-447.895	-76.973	0.191	-0.066
-446.880	-200.000	-0.065	-0.507
-445.865	-83.898	-0.257	-0.081
-444.851	-31.311	0.103	0.058
-443.836	-92.273	-0.229	0.064
-442.822	73.889	0.278	0.289
-441.807	-187.265	-0.232	0.003
-440.792	-147.006	-0.305	-0.026
-439.778	62.751	-0.104	-0.104
-438.763	437.010	-0.028	0.062
-437.749	-71.241	-0.025	0.009
-436.734	747.011	-0.007	-0.019
-435.719	17.302	0.375	0.296
-434.705	550.938	0.165	-0.393
-433.690	446.519	0.193	-0.420
-432.676	-46.350	0.152	-0.074
-431.661	-97.858	-0.354	-0.091
-430.646	438.406	0.082	-0.178
-429.632	344.091	-0.157	-0.305
-428.617	-200.000	0.049	0.245
-427.603	641.655	-0.101	-0.254
-426.588	361.728	0.024	0.047
-425.573	-200.000	-0.037	-0.294
-424.559	-200.000	-0.025	-0.153
-423.544	-1.461	-0.328	-0.230
-422.530	747.125	0.116	-0.310
-421.515	784.786	-0.067	0.183
-420.500	338.572	-0.080	0.154
-419.486	37.791	-0.315	-0.277
-418.471	114.463	-0.055	0.066
-417.457	-43.091	0.180	0.091
-416.442	51.687	-0.016	0.015
-415.428	800.000	0.013	0.044
-414.413	-31.111	-0.149	-0.083
-413.398	-58.572	0.374	0.161
-412.384	153.184	-0.021	-0.029
-411.369	94.296	-0.200	0.226
-410.355	800.000	-0.148	0.483
-409.340	83.084	0.260	0.281
-408.325	9.982	0.244	0.184
-407.311	-58.778	0.162	-0.070
-406.296	-191.240	0.148	-0.002
-405.282	-86.727	-0.244	-0.074
-404.267	800.000	0.049	0.195
-403.252	568.372	-0.133	0.319
-402.238	-200.000	-0.069	0.514
-401.223	-42.709	0.136	0.069
-400.209	-2.113	0.179	0.125
-399.194	800.000	-0.105	-0.338
-398.179	405.080	0.134	0.281
-397.165	386.387	0.049	-0.099
-396.150	261.002	-0.028	-0.048
-395.136	800.000	-0.078	-0.316
-394.121	-126.711	-0.188	0.028
-393.106	33.231	0.251	0.216
-392.092	-200.000	-0.004	-0.304
-391.077	-60.983	0.123	-0.051
-390.063	-49.213	0.097	0.046
-389.048	-2.339	0.171	0.119
-388.033	716.680	0.086	-0.225
-387.019	-74.183	0.437	0.157
-386.004	800.000	0.071	0.296
-384.990	-60.545	0.238	0.100
-383.975	-200.000	-0.073	-0.324
-382.960	-99.543	-0.126	0.031
-381.946	-127.934	-0.089	-0.013
-380.931	117.267	0.086	-0.105
-379.917	352.960	-0.120	-0.237
-378.902	268.230	0.115	-0.199
-377.888	-200.000	0.024	-0.218
-376.873	96.046	0.131	0.149
-375.858	56.535	-0.036	0.035
-374.844	33.815	0.043	-0.037
-373.829	-183.194	0.160	0.003
-372.815	-131.426	-0.330	-0.043
-371.800	317.315	-0.022	0.041
-370.785	318.092	0.042	-0.079
-369.771	-178.823	-0.164	0.004
-368.756	4.714	-0.041	0.030
-367.742	-186.672	0.468	-0.007
-366.727	48.141	0.053	-0.049
-365.712	-32.084	0.194	-0.108
-364.698	-88.316	0.247	-0.073
-363.683	-52.891	-0.217	0.099
-362.669	105.780	0.310	0.363
-361.654	-37.052	-0.109	-0.058
-360.639	551.044	-0.159	-0.378
-359.625	-200.000	-0.050	-0.333
-358.610	248.936	-0.018	0.031
-357.596	-89.388	-0.358	0.104
-356.581	800.000	-0.055	-0.185
-355.566	97.207	0.141	0.160
-354.552	-88.053	0.287	-0.085
-353.537	54.160	-0.268	-0.256
-352.523	-194.581	-0.282	-0.002
-351.508	-55.026	0.068	-0.030
-350.493	287.627	-0.180	-0.322
-349.479	-200.000	0.007	-0.241
-348.464	13.678	0.123	-0.095
-347.450	11.979	-0.171	0.130
-346.435	-200.000	0.005	0.033
-345.420	168.307	0.279	-0.393
-344.406	107.249	0.214	-0.252
-343.391	-42.895	0.161	-0.081
-342.377	-86.968	0.255	0.077
-341.362	153.801	0.190	0.258
-340.348	-200.000	0.039	0.189
-339.333	-170.523	-0.194	-0.007
-338.318	109.642	-0.087	-0.103
-337.304	47.855	-0.128	0.118
-336.289	207.404	0.081	-0.125
-335.275	443.499	-0.171	0.370
-334.260	-4.084	-0.074	0.051
-333.245	-25.206	0.054	0.032
-332.231	-200.000	-0.021	0.103
-331.216	8.527	0.039	0.029
-330.202	795.166	0.086	0.234
-329.187	-52.890	0.265	-0.121
-328.172	-74.916	-0.224	0.079
-327.158	181.676	-0.144	0.210
-326.143	782.129	0.045	0.121
-325.129	-112.129	0.207	0.041
-324.114	-161.131	0.092	0.005
-323.099	-102.851	-0.063	-0.015
-322.085	-67.612	-0.117	-0.045
-321.070	394.469	-0.091	-0.188
-320.056	208.465	-0.063	-0.097
-319.041	-88.973	0.202	-0.059
-318.026	-200.000	0.001	0.357
-317.012	-87.067	0.481	0.145
-315.997	-62.174	-0.208	-0.086
-314.983	532.075	0.130	-0.304
-313.968	-130.276	-0.413	0.055
-312.953	-49.627	0.158	0.074
-311.939	-168.522	-0.255	-0.010
-310.924	800.000	-0.067	0.233
-309.910	-117.625	0.256	0.046
-308.895	50.464	-0.110	0.103
-307.880	800.000	-0.038	-0.108
-306.866	302.945	-0.196	-0.359
-305.851	-68.281	0.255	0.098
-304.837	-81.066	-0.268	0.088
-303.822	19.921	-0.049	-0.039
-302.807	-88.405	0.350	-0.103
-301.793	103.236	0.268	0.310
-300.778	-46.428	0.216	-0.105
-299.764	-139.862	-0.190	0.020
-298.749	8.094	0.299	-0.221
-297.735	-200.000	0.001	0.020
-296.720	-165.499	-0.127	0.005
-295.705	-130.917	0.421	0.056
-294.691	225.897	0.192	0.307
-293.676	-106.015	0.183	-0.041
-292.662	41.416	0.133	-0.119
-291.647	213.126	-0.078	0.121
-290.632	207.766	0.121	-0.187
-289.618	-200.000	-0.003	0.067
-288.603	54.932	0.124	-0.118
-287.589	189.536	0.254	-0.376
-286.574	-148.469	-0.218	0.018
-285.559	-50.107	0.148	0.069
-284.545	-200.000	0.021	-0.131
-283.530	238.559	0.040	-0.065
-282.516	-7.571	-0.182	0.121
-281.501	-127.860	-0.044	-0.006
-280.486	-200.000	-0.019	0.087
-279.472	-113.174	-0.060	-0.012
-278.457	-27.135	-0.339	0.195
-277.443	-156.117	0.138	-0.009
-276.428	499.475	0.177	-0.403
-275.413	-80.623	0.180	0.059
-274.399	-38.745	0.114	0.059
-273.384	-126.489	-0.407	0.060
-272.370	679.384	-0.042	0.107
-271.355	58.579	0.086	-0.084
-270.340	-96.228	-0.409	0.107
-269.326	-5.889	0.164	0.111
-268.311	-200.000	0.004	-0.059
-267.297	-157.583	0.279	0.016
-266.282	-200.000	-0.048	0.219
-265.267	158.042	0.179	-0.245
-264.253	800.000	-0.058	-0.178
-263.238	65.401	0.157	-0.156
-262.224	-104.392	0.288	-0.066
-261.209	-38.799	-0.545	0.283
-260.195	-41.981	-0.297	0.150
-259.180	32.986	-0.080	-0.068
-258.165	14.647	0.215	-0.166
-257.151	328.543	-0.102	0.194
-256.136	-124.949	-0.327	0.050
-255.122	800.000	0.084	-0.263
-254.107	177.442	0.125	-0.180
-253.092	159.756	-0.090	-0.124
-252.078	-200.000	0.032	-0.394
-251.063	-200.000	0.024	-0.128
-250.049	7.614	-0.029	-0.022
-249.034	800.000	0.070	-0.196
-248.019	-200.000	-0.001	-0.056
-247.005	800.000	0.060	0.169
-245.990	-31.590	-0.228	0.126
-244.976	-9.599	0.170	0.111
-243.961	-12.056	0.354	-0.228
-242.946	-200.000	0.005	-0.130
-241.932	341.444	-0.181	0.348
-240.917	-162.003	-0.200	0.010
-239.903	696.609	0.005	-0.014
-238.888	-93.633	0.167	-0.045
-237.873	-90.794	0.105	0.030
-236.859	-81.967	-0.120	0.039
-235.844	800.000	-0.096	0.359
-234.830	-29.575	-0.295	-0.166
-233.815	-84.082	0.168	-0.053
-232.800	-200.000	-0.004	0.307
-231.786	800.000	0.029	0.110
-230.771	-129.622	-0.162	-0.022
-229.757	418.807	-0.064	0.136
-228.742	-33.609	-0.218	0.119
-227.727	-116.723	-0.262	0.047
-226.713	-137.869	-0.199	-0.022
-225.698	17.795	-0.173	-0.136
-224.684	-99.829	0.038	-0.009
-223.669	503.027	-0.099	0.225
-222.655	-23.552	-0.089	0.053
-221.640	160.726	0.189	0.260
-220.625	109.167	0.147	0.174
-219.611	-65.779	-0.437	-0.172
-218.596	-68.719	-0.260	0.099
-217.582	-89.735	0.259	-0.075
-216.567	-200.000	0.061	0.280
-215.552	-28.190	-0.322	0.183
-214.538	163.310	-0.070	-0.096
-213.523	-131.998	0.159	0.020
-212.509	-17.353	0.259	-0.161
-211.494	-200.000	-0.016	0.129
-210.479	-13.871	-0.064	-0.041
-209.465	-65.672	0.182	0.072
-208.450	-200.000	0.073	0.374
-207.436	97.325	-0.080	0.091
-206.421	-200.000	0.061	0.298
-205.406	-133.098	-0.223	-0.028
-204.392	414.433	-0.012	0.025
-203.377	-30.148	-0.473	0.265
-202.363	-111.235	0.110	0.022
-201.348	800.000	-0.086	0.289
-200.333	174.459	-0.132	-0.188
-199.319	-200.000	0.046	-0.381
-198.304	800.000	-0.083	-0.256
-197.290	-200.000	0.077	0.475
-196.275	219.793	-0.203	-0.319
-195.260	-200.000	-0.074	-0.358
-194.246	-2.702	0.146	0.100
-193.231	91.549	0.042	-0.047
-192.217	-2.618	-0.343	0.236
-191.202	-200.000	0.019	-0.140
-190.187	546.020	-0.144	-0.339
-189.173	386.347	0.131	-0.266
-188.158	-67.939	0.228	-0.087
-187.144	-161.928	0.360	0.018
-186.129	632.003	0.092	-0.229
-185.114	-126.219	-0.157	0.023
-184.100	800.000	0.097	0.332
-183.085	-200.000	0.044	-0.199
-182.071	-55.441	-0.115	0.051
-181.056	172.874	0.130	-0.184
-180.042	-29.267	-0.065	-0.036
-179.027	53.753	0.185	-0.175
-178.012	145.718	-0.023	0.030
-176.998	41.531	0.385	0.343
-175.983	-42.788	-0.082	0.041
-174.969	-50.648	-0.205	-0.095
-173.954	-200.000	0.004	-0.043
-172.939	-200.000	0.044	-0.276
-171.925	3.781	0.104	-0.075
-170.910	73.224	0.241	-0.248
-169.896	170.912	0.135	-0.190
-168.881	-57.130	0.155	0.067
-167.866	491.491	-0.110	0.248
-166.852	87.323	0.092	-0.100
-165.837	200.824	0.136	-0.205
-164.823	702.020	-0.101	0.260
-163.808	-200.000	-0.013	0.112
-162.793	800.000	0.084	0.233
-161.779	800.000	0.100	0.359
-160.764	-56.105	-0.104	0.046
-159.750	6.071	-0.275	0.200
-158.735	141.034	-0.199	0.258
-157.720	800.000	-0.028	-0.117
-156.706	-31.733	-0.202	-0.111
-155.691	111.306	0.163	-0.193
-154.677	-200.000	-0.033	-0.509
-153.662	183.713	-0.169	0.245
-152.647	-173.315	-0.114	0.003
-151.633	-122.261	0.196	-0.031
-150.618	158.715	0.060	-0.082
-149.604	-103.005	0.319	0.074
-148.589	-200.000	-0.340	-0.000
-147.574	-200.000	-0.028	0.232
-146.560	398.149	-0.026	0.053
-145.545	800.000	-0.014	-0.045
-144.531	-49.720	-0.306	-0.143
-143.516	316.827	0.098	0.182
-142.502	-200.000	0.040	-0.310
-141.487	-79.050	0.203	0.068
-140.472	326.444	0.051	0.096
-139.458	122.935	0.095	0.116
-138.443	-200.000	-0.001	0.191
-137.429	343.726	0.055	0.106
-136.414	800.000	-0.047	-0.172
-135.399	106.616	-0.234	-0.272
-134.385	-44.242	0.235	0.116
-133.370	-200.000	0.022	-0.124
-132.356	-36.463	0.305	-0.161
-131.341	40.925	0.303	0.268
-130.326	264.556	-0.077	0.132
-129.312	800.000	-0.016	0.055
-128.297	-200.000	0.012	0.144
-127.283	800.000	0.051	0.147
-126.268	-33.325	0.127	-0.069
-125.253	172.589	-0.094	-0.133
-124.239	800.000	0.037	0.156
-123.224	77.273	0.116	-0.121
-122.210	-163.934	-0.085	-0.004
