DTS Sentinel unit serial number:	SN413079Multiplexer serial number:	ORYXHardware model number:	OX4-SRSoftware version number:	ORYX F/W v4.00 Oryx Data Collector v3.7.2.0data status	okinstallation	princeton_trtdifferential loss correction	single-endedforward channel	channel 2reverse channel	N/Adate	2019/09/16time	23:59:34forward acquisition time	60.00reverse acquisition time	0.00gamma	496.2192k internal	0.2330k external	0.2330temperature offset calibration	0.9974default loss term (dB/km)	0.3790temperature slope calibration	1.0000multiplexer offset coefficient	1.0000multiplexer slope coefficient	1.0000fibre end	0.00T internal ref (°C)	29.62T ext. ref 1 (°C)	0.09T ext. ref 2 (°C)	23.94length (m)	temperature (°C)	Stokes	anti-Stokes-747.200	-134.359	-0.244	-0.030
-746.185	-200.000	-0.053	0.389
-745.171	187.331	0.179	-0.268
-744.156	-200.000	0.021	0.346
-743.142	-200.000	-0.023	0.157
-742.127	44.954	-0.245	0.227
-741.112	5.168	0.278	0.206
-740.098	-122.420	0.051	0.008
-739.083	-200.000	-0.017	0.188
-738.069	-200.000	-0.065	0.335
-737.054	-47.275	0.162	-0.079
-736.039	-99.428	-0.209	0.053
-735.025	139.483	0.107	0.142
-734.010	-63.708	-0.344	-0.142
-732.996	-200.000	-0.040	0.271
-731.981	-200.000	0.019	0.242
-730.966	-26.004	-0.154	0.091
-729.952	293.374	0.163	-0.299
-728.937	-66.817	-0.312	-0.124
-727.923	-81.715	-0.257	-0.085
-726.908	-144.235	0.444	-0.042
-725.894	-58.377	-0.227	-0.099
-724.879	-45.574	0.207	-0.103
-723.864	72.684	-0.139	-0.146
-722.850	-200.000	0.072	0.321
-721.835	-200.000	0.048	-0.264
-720.821	-9.124	0.423	-0.284
-719.806	214.861	-0.192	-0.306
-718.791	-200.000	-0.021	-0.101
-717.777	-200.000	0.003	0.075
-716.762	2.275	0.461	0.335
-715.748	-168.655	0.150	-0.006
-714.733	18.651	-0.070	0.056
-713.718	227.022	0.225	0.367
-712.704	25.558	0.155	-0.130
-711.689	-73.118	0.347	-0.128
-710.675	-200.000	-0.001	-0.443
-709.660	800.000	-0.029	0.119
-708.645	800.000	0.078	0.249
-707.631	-59.632	-0.333	0.144
-706.616	-55.516	0.331	0.149
-705.602	49.386	0.246	-0.233
-704.587	199.458	-0.185	-0.285
-703.572	162.196	0.075	-0.106
-702.558	402.768	-0.124	-0.262
-701.543	-200.000	0.006	-0.037
-700.529	-59.060	0.313	-0.136
-699.514	-200.000	0.020	0.288
-698.499	46.174	0.206	0.192
-697.485	-180.459	0.054	-0.001
-696.470	273.057	-0.186	0.330
-695.456	-66.458	-0.201	-0.080
-694.441	-26.159	0.025	0.015
-693.426	34.174	0.169	0.148
-692.412	183.727	0.116	-0.172
-691.397	-86.682	-0.052	0.016
-690.383	13.780	0.162	0.127
-689.368	150.472	0.097	0.132
-688.354	-200.000	0.063	-0.325
-687.339	-46.929	0.098	0.048
-686.324	-200.000	-0.009	-0.088
-685.310	-200.000	0.019	0.116
-684.295	-200.000	0.046	-0.322
-683.281	346.098	-0.116	0.230
-682.266	-200.000	0.002	-0.111
-681.251	77.492	0.271	-0.290
-680.237	-138.432	-0.158	-0.018
-679.222	-19.134	-0.180	-0.113
-678.208	161.081	-0.083	0.116
-677.193	800.000	0.104	0.294
-676.178	800.000	0.050	-0.171
-675.164	32.968	-0.091	0.079
-674.149	378.138	-0.119	-0.244
-673.135	-114.198	0.150	0.029
-672.120	608.524	-0.106	0.265
-671.105	273.438	-0.149	-0.264
-670.091	-93.690	0.268	-0.074
-669.076	114.184	-0.107	-0.130
-668.062	99.720	-0.172	0.200
-667.047	-153.720	-0.156	0.011
-666.032	800.000	0.078	0.236
-665.018	-103.207	-0.254	-0.060
-664.003	-30.394	0.129	-0.073
-662.989	-86.878	0.166	0.051
-661.974	233.702	-0.128	0.211
-660.959	-29.937	-0.343	-0.196
-659.945	215.680	0.042	-0.067
-658.930	64.592	0.122	0.123
-657.916	-88.100	0.408	0.123
-656.901	-161.142	-0.126	-0.007
-655.886	-4.326	-0.268	0.186
-654.872	800.000	0.086	-0.262
-653.857	213.501	-0.021	0.033
-652.843	-101.337	0.319	-0.078
-651.828	-142.130	0.217	0.022
-650.814	623.481	0.081	0.205
-649.799	9.240	-0.158	-0.120
-648.784	537.679	-0.061	0.145
-647.770	170.835	-0.133	0.191
-646.755	111.619	0.077	-0.093
-645.741	79.689	0.169	-0.182
-644.726	800.000	-0.095	-0.307
-643.711	-94.711	0.303	-0.083
-642.697	-30.231	-0.372	0.212
-641.682	-200.000	0.041	0.310
-640.668	-62.242	0.262	0.109
-639.653	800.000	-0.051	0.208
-638.638	-120.303	-0.160	-0.027
-637.624	-180.005	-0.203	-0.004
-636.609	-118.063	-0.135	0.024
-635.595	165.381	0.167	-0.237
-634.580	101.715	0.128	-0.150
-633.565	-114.430	-0.321	0.062
-632.551	121.760	0.104	-0.130
-631.536	-200.000	0.022	0.173
-630.522	-22.736	0.119	-0.072
-629.507	-200.000	0.028	-0.202
-628.492	-38.447	-0.365	-0.193
-627.478	-100.049	0.072	0.018
-626.463	-200.000	-0.012	-0.259
-625.449	-200.000	0.001	0.158
-624.434	-10.640	0.063	0.042
-623.419	-200.000	-0.037	-0.298
-622.405	-157.814	0.126	-0.008
-621.390	-147.555	-0.162	-0.014
-620.376	-107.690	0.397	0.087
-619.361	-179.216	0.307	-0.007
-618.346	382.755	-0.089	0.184
-617.332	435.202	0.064	-0.139
-616.317	207.099	0.127	0.199
-615.303	98.858	-0.307	-0.354
-614.288	56.911	-0.189	0.185
-613.273	800.000	0.041	0.137
-612.259	-200.000	-0.042	-0.404
-611.244	-66.496	0.301	0.120
-610.230	206.265	-0.056	0.087
-609.215	-136.269	-0.188	-0.022
-608.201	-189.052	-0.091	0.001
-607.186	-80.190	-0.370	0.124
-606.171	-200.000	0.014	0.235
-605.157	138.707	0.035	-0.045
-604.142	223.397	-0.165	-0.267
-603.128	57.958	-0.105	-0.103
-602.113	133.019	-0.004	0.005
-601.098	-154.499	-0.427	0.029
-600.084	82.328	0.161	0.175
-599.069	-91.003	-0.274	0.079
-598.055	288.137	-0.181	-0.328
-597.040	788.143	0.121	-0.333
-596.025	125.375	0.204	-0.257
-595.011	69.607	0.086	0.089
-593.996	-200.000	0.035	0.206
-592.982	92.017	0.146	0.165
-591.967	61.601	-0.062	0.062
-590.952	-200.000	0.024	-0.192
-589.938	47.521	-0.090	0.084
-588.923	449.255	-0.016	0.036
-587.909	649.280	-0.045	0.114
-586.894	-200.000	0.052	-0.278
-585.879	-200.000	0.014	-0.060
-584.865	-200.000	0.013	0.091
-583.850	306.053	0.063	0.118
-582.836	-43.791	0.197	0.099
-581.821	-45.175	0.287	0.143
-580.806	39.360	-0.242	0.217
-579.792	106.830	-0.058	-0.069
-578.777	216.330	0.069	-0.110
-577.763	-200.000	-0.009	-0.313
-576.748	665.020	0.005	-0.012
-575.733	-200.000	-0.081	0.375
-574.719	-200.000	0.026	0.304
-573.704	-68.452	-0.246	0.095
-572.690	-84.298	0.107	-0.034
-571.675	-22.278	-0.393	0.238
-570.661	63.506	0.179	0.179
-569.646	643.099	0.061	0.156
-568.631	247.338	0.132	0.223
-567.617	-200.000	0.014	0.064
-566.602	370.017	-0.117	-0.236
-565.588	527.322	-0.034	-0.080
-564.573	-125.613	-0.084	0.013
-563.558	-200.000	0.055	0.362
-562.544	-101.072	-0.380	0.093
-561.529	-26.787	-0.282	0.165
-560.515	-190.788	0.226	-0.002
-559.500	106.591	-0.053	0.063
-558.485	800.000	0.090	-0.303
-557.471	670.497	-0.065	0.168
-556.456	800.000	0.062	-0.254
-555.442	80.203	-0.224	0.240
-554.427	-66.617	0.185	-0.073
-553.412	-19.072	-0.176	0.109
-552.398	-200.000	-0.015	-0.155
-551.383	-51.376	0.170	0.079
-550.369	70.230	-0.172	-0.177
-549.354	-60.888	-0.419	0.177
-548.339	20.852	-0.288	-0.233
-547.325	194.033	0.200	-0.302
-546.310	-200.000	-0.030	-0.191
-545.296	526.796	0.189	-0.444
-544.281	178.011	0.014	-0.020
-543.266	-136.757	0.131	-0.015
-542.252	-200.000	-0.024	-0.108
-541.237	-42.911	-0.143	0.072
-540.223	-18.024	-0.322	-0.202
-539.208	-52.657	-0.360	0.166
-538.193	229.284	-0.108	0.175
-537.179	182.975	0.318	0.469
-536.164	-200.000	0.044	0.192
-535.150	126.430	0.152	-0.192
-534.135	233.917	0.087	-0.144
-533.121	-1.914	-0.124	0.087
-532.106	-20.214	0.127	-0.078
-531.091	65.569	0.216	-0.218
-530.077	-29.181	-0.220	-0.126
-529.062	-180.273	-0.061	-0.001
-528.048	-75.134	-0.038	-0.014
-527.033	-119.849	-0.144	0.025
-526.018	-200.000	0.009	-0.095
-525.004	-94.167	0.047	-0.013
-523.989	69.155	-0.083	0.085
-522.975	-200.000	0.021	-0.171
-521.960	28.872	0.148	0.125
-520.945	28.987	0.109	0.093
-519.931	87.230	-0.425	0.469
-518.916	-130.285	0.299	-0.041
-517.902	-145.529	-0.174	-0.016
-516.887	450.013	-0.080	0.175
-515.872	-155.231	0.130	-0.008
-514.858	-91.652	-0.141	0.040
-513.843	-200.000	-0.067	0.305
-512.829	-61.417	0.167	-0.070
-511.814	800.000	0.020	-0.058
-510.799	39.612	-0.312	-0.279
-509.785	78.123	-0.214	-0.228
-508.770	-88.442	0.197	-0.059
-507.756	365.876	-0.135	0.272
-506.741	-200.000	0.031	-0.148
-505.726	-200.000	0.022	-0.224
-504.712	618.643	-0.052	-0.131
-503.697	-200.000	0.056	-0.290
-502.683	414.543	-0.118	-0.251
-501.668	-84.491	0.127	-0.040
-500.653	800.000	-0.067	-0.293
-499.639	149.160	0.094	-0.127
-498.624	-200.000	0.046	-0.256
-497.610	-27.693	-0.072	-0.042
-496.595	-200.000	0.012	-0.367
-495.581	13.084	0.127	-0.098
-494.566	-200.000	-0.002	0.240
-493.551	97.385	0.231	-0.264
-492.537	-130.764	0.196	0.026
-491.522	800.000	0.078	0.237
-490.508	63.103	0.046	0.046
-489.493	687.484	0.067	-0.175
-488.478	800.000	0.055	0.176
-487.464	-200.000	0.039	-0.438
-486.449	-200.000	-0.010	-0.223
-485.435	800.000	0.105	-0.318
-484.420	800.000	0.063	0.272
-483.405	134.963	-0.052	0.068
-482.391	387.801	0.144	-0.296
-481.376	242.528	0.184	0.307
-480.362	332.240	0.018	-0.034
-479.347	-18.257	-0.158	0.098
-478.332	-87.125	-0.224	0.068
-477.318	-45.960	0.337	0.166
-476.303	-78.646	0.161	-0.055
-475.289	487.601	0.060	-0.137
-474.274	-200.000	0.067	-0.419
-473.259	-135.120	-0.076	-0.009
-472.245	-6.819	0.197	-0.133
-471.230	-19.115	0.274	0.169
-470.216	-58.379	-0.236	-0.102
-469.201	98.402	0.058	0.067
-468.186	402.908	-0.066	-0.139
-467.172	-185.861	0.262	-0.004
-466.157	-135.469	-0.098	0.012
-465.143	-96.570	0.228	-0.060
-464.128	-67.410	0.250	0.098
-463.113	-200.000	-0.010	0.335
-462.099	-155.163	-0.338	0.022
-461.084	541.245	-0.185	-0.438
-460.070	539.400	-0.100	0.236
-459.055	256.058	0.012	-0.021
-458.040	-133.391	0.343	0.043
-457.026	39.620	-0.237	-0.212
-456.011	132.460	-0.157	-0.201
-454.997	45.138	-0.300	0.276
-453.982	592.290	-0.185	-0.454
-452.968	-98.518	-0.230	-0.059
-451.953	-200.000	-0.013	0.115
-450.938	800.000	0.067	-0.184
-449.924	591.084	-0.094	-0.232
-448.909	800.000	-0.055	-0.185
-447.895	800.000	0.087	0.301
-446.880	-200.000	-0.031	0.184
-445.865	-5.026	-0.107	0.073
-444.851	-30.247	-0.040	0.023
-443.836	-78.967	-0.265	0.090
-442.822	-128.765	0.103	0.015
-441.807	800.000	-0.097	0.319
-440.792	-66.593	-0.303	0.120
-439.778	28.389	0.056	0.047
-438.763	-70.591	-0.178	-0.067
-437.749	134.996	0.114	-0.147
-436.734	246.494	-0.110	-0.184
-435.719	-164.581	-0.116	0.005
-434.705	-45.826	-0.206	0.101
-433.690	220.426	-0.114	-0.182
-432.676	155.667	0.307	-0.421
-431.661	-116.438	-0.188	0.034
-430.646	115.603	-0.168	-0.205
-429.632	30.340	-0.154	-0.131
-428.617	-137.753	-0.224	-0.025
-427.603	-11.010	-0.204	0.134
-426.588	800.000	0.085	-0.324
-425.573	1.408	0.130	0.093
-424.559	-170.618	-0.366	-0.013
-423.544	-200.000	0.017	-0.251
-422.530	147.380	-0.074	-0.099
-421.515	-149.817	0.150	-0.012
-420.500	528.003	-0.068	0.159
-419.486	-40.973	0.157	-0.081
-418.471	-25.723	0.339	0.199
-417.457	800.000	-0.100	0.382
-416.442	800.000	-0.050	-0.186
-415.428	168.582	0.087	-0.123
-414.413	-200.000	0.002	0.069
-413.398	-122.828	-0.315	-0.051
-412.384	151.060	0.235	-0.317
-411.369	181.793	-0.086	-0.126
-410.355	555.762	-0.113	0.270
-409.340	-200.000	-0.041	-0.187
-408.325	-30.395	0.345	0.195
-407.311	-47.227	0.084	0.041
-406.296	-38.942	-0.248	0.130
-405.282	87.239	0.278	-0.306
-404.267	800.000	-0.072	0.285
-403.252	-200.000	0.057	0.263
-402.238	57.332	0.313	0.303
-401.223	323.935	0.009	0.017
-400.209	-98.880	0.043	-0.011
-399.194	-84.893	0.018	0.006
-398.179	-18.141	-0.090	0.056
-397.165	-74.006	0.472	0.170
-396.150	-3.462	0.190	-0.131
-395.136	-200.000	-0.004	-0.261
-394.121	-200.000	0.012	0.141
-393.106	419.964	0.150	0.318
-392.092	246.037	-0.059	-0.100
-391.077	745.556	-0.087	0.233
-390.063	-140.873	0.326	0.033
-389.048	-108.406	-0.059	-0.013
-388.033	-108.723	0.242	-0.051
-387.019	-147.920	0.246	0.020
-386.004	-73.789	0.241	-0.087
-384.990	-200.000	0.003	-0.046
-383.975	-136.939	-0.148	0.017
-382.960	351.459	-0.096	-0.189
-381.946	-49.536	0.157	-0.074
-380.931	-200.000	-0.002	0.231
-379.917	-128.090	-0.123	-0.018
-378.902	39.200	-0.337	-0.299
-377.888	-90.188	-0.068	0.020
-376.873	-200.000	0.011	-0.154
-375.858	-200.000	0.070	0.338
-374.844	43.767	0.106	-0.096
-373.829	-200.000	0.051	-0.248
-372.815	245.742	0.071	0.118
-371.800	41.805	-0.109	-0.098
-370.785	-131.644	0.135	0.018
-369.771	-82.791	-0.132	-0.042
-368.756	-200.000	-0.024	0.393
-367.742	157.309	0.195	-0.267
-366.727	-200.000	-0.055	0.319
-365.712	800.000	-0.010	0.030
-364.698	41.334	-0.096	-0.086
-363.683	394.721	-0.067	0.139
-362.669	-200.000	-0.029	0.159
-361.654	-24.200	-0.022	-0.013
-360.639	-84.487	-0.177	-0.055
-359.625	185.797	0.033	0.049
-358.610	-6.919	0.079	0.053
-357.596	-59.895	-0.284	0.120
-356.581	632.479	-0.176	0.443
-355.566	800.000	-0.084	-0.246
-354.552	0.817	-0.081	0.057
-353.537	43.534	-0.215	0.195
-352.523	-37.472	0.251	-0.133
-351.508	146.933	0.134	0.179
-350.493	410.116	-0.046	-0.097
-349.479	653.535	-0.096	-0.245
-348.464	-122.750	-0.417	-0.067
-347.450	-47.358	-0.407	-0.196
-346.435	-84.559	0.289	0.090
-345.420	-182.639	0.289	-0.005
-344.406	61.462	-0.018	0.018
-343.391	-93.004	-0.093	-0.026
-342.377	-95.580	-0.195	0.052
-341.362	-200.000	-0.003	-0.019
-340.348	120.288	-0.275	0.339
-339.333	15.386	0.038	-0.029
-338.318	89.004	0.108	-0.119
-337.304	-200.000	0.013	0.370
-336.289	53.245	0.258	0.245
-335.275	232.265	-0.049	0.080
-334.260	800.000	-0.100	-0.292
-333.245	200.732	0.252	0.384
-332.231	40.364	-0.090	-0.080
-331.216	145.848	-0.140	0.185
-330.202	110.466	0.203	-0.242
-329.187	325.189	-0.019	0.036
-328.172	-28.469	0.194	-0.111
-327.158	-66.848	0.243	-0.095
-326.143	22.081	0.174	-0.141
-325.129	-108.170	0.195	0.042
-324.114	-94.978	-0.094	0.025
-323.099	-200.000	-0.005	0.582
-322.085	87.646	-0.223	0.244
-321.070	-102.739	-0.083	-0.020
-320.056	-6.951	0.419	0.282
-319.041	-41.162	-0.160	0.082
-318.026	-36.568	-0.337	-0.180
-317.012	-152.061	-0.085	-0.006
-315.997	-80.617	0.193	0.064
-314.983	-154.455	-0.152	0.010
-313.968	638.548	-0.058	0.145
-312.953	699.948	0.037	0.095
-311.939	2.849	0.175	-0.126
-310.924	-85.766	0.021	-0.007
-309.910	-101.637	0.438	0.105
-308.895	3.461	0.184	0.133
-307.880	-54.229	0.310	0.139
-306.866	-80.506	-0.140	0.046
-305.851	85.722	0.134	0.146
-304.837	-60.177	0.169	0.071
-303.822	21.087	-0.183	-0.147
-302.807	-200.000	-0.024	0.282
-301.793	145.993	-0.246	-0.326
-300.778	394.600	0.023	-0.047
-299.764	-22.776	0.042	0.025
-298.749	-70.384	-0.251	0.094
-297.735	-66.395	0.177	-0.070
-296.720	-200.000	0.037	0.209
-295.705	800.000	-0.061	0.212
-294.691	-200.000	0.004	-0.073
-293.676	-117.180	0.352	0.063
-292.662	235.313	0.060	0.098
-291.647	604.278	0.096	0.236
-290.632	-164.545	0.346	0.016
-289.618	-71.927	0.213	0.078
-288.603	37.498	-0.129	-0.113
-287.589	-109.014	-0.211	0.045
-286.574	43.972	0.116	-0.105
-285.559	-26.107	-0.369	-0.214
-284.545	102.864	0.121	-0.140
-283.530	800.000	0.068	-0.271
-282.516	65.526	0.230	-0.230
-281.501	-136.042	-0.061	-0.007
-280.486	-50.869	-0.077	0.036
-279.472	47.560	0.109	0.101
-278.457	-162.053	0.087	-0.004
-277.443	-179.627	-0.141	0.003
-276.428	-200.000	0.012	0.054
-275.413	13.159	-0.263	-0.201
-274.399	-16.799	0.260	-0.163
-273.384	-127.603	-0.213	-0.030
-272.370	587.115	0.139	0.339
-271.355	41.278	-0.118	0.105
-270.340	-200.000	0.028	-0.171
-269.326	800.000	-0.144	-0.403
-268.311	513.599	-0.035	-0.082
-267.297	92.743	0.122	-0.136
-266.282	-107.598	-0.194	-0.042
-265.267	-200.000	0.011	-0.440
-264.253	-73.866	0.204	-0.073
-263.238	-52.594	0.317	-0.145
-262.224	-200.000	0.008	-0.080
-261.209	800.000	-0.062	0.184
-260.195	28.602	0.165	-0.138
-259.180	-63.310	0.305	0.124
-258.165	63.153	0.071	0.070
-257.151	-107.448	-0.296	-0.064
-256.136	800.000	0.036	0.108
-255.122	-31.718	0.126	0.070
-254.107	58.002	0.072	0.069
-253.092	7.423	-0.255	0.188
-252.078	-200.000	-0.016	0.247
-251.063	-200.000	-0.030	0.145
-250.049	179.214	-0.114	-0.165
-249.034	-82.307	0.044	0.014
-248.019	13.720	-0.222	0.171
-247.005	56.282	0.121	-0.116
-245.990	-129.365	0.253	0.035
-244.976	-20.975	0.254	0.153
-243.961	217.404	-0.108	0.170
-242.946	417.290	0.048	-0.101
-241.932	390.019	-0.092	-0.187
-240.917	-58.515	-0.170	0.073
-239.903	114.622	-0.126	0.152
-238.888	-141.717	-0.093	0.009
-237.873	654.962	0.121	0.306
-236.859	19.162	0.310	0.245
-235.844	-200.000	-0.037	-0.247
-234.830	-200.000	-0.002	-0.009
-233.815	-200.000	0.027	0.303
-232.800	-80.940	0.316	-0.103
-231.786	-128.648	-0.020	0.003
-230.771	-47.074	-0.222	0.107
-229.757	389.759	0.153	-0.313
-228.742	-86.192	-0.117	-0.036
-227.727	216.142	-0.084	0.132
-226.713	218.937	-0.117	0.185
-225.698	-97.475	-0.186	-0.048
-224.684	107.482	0.058	0.068
-223.669	800.000	-0.055	0.193
-222.655	-200.000	-0.005	-0.167
-221.640	-200.000	0.004	-0.172
-220.625	-86.134	-0.295	0.090
-219.611	181.267	0.160	0.232
-218.596	-42.154	0.241	0.122
-217.582	-11.258	-0.081	0.053
-216.567	-88.179	0.269	-0.079
-215.552	43.042	-0.062	-0.056
-214.538	-112.142	0.061	-0.012
-213.523	68.460	0.238	-0.241
-212.509	-29.595	-0.114	-0.064
-211.494	166.264	0.021	0.029
-210.479	14.711	-0.216	-0.167
-209.465	28.667	0.044	0.037
-208.450	681.885	0.056	-0.143
-207.436	-23.470	0.376	0.223
-206.421	-129.810	0.096	0.013
-205.406	300.116	-0.199	0.361
-204.392	62.008	0.183	0.180
-203.377	-200.000	-0.014	0.203
-202.363	-50.884	0.103	0.048
-201.348	127.463	0.070	-0.088
-200.333	92.647	0.110	0.123
-199.319	-37.318	-0.380	-0.200
-198.304	800.000	-0.016	0.044
-197.290	-131.682	-0.104	0.013
-196.275	-171.756	-0.254	0.008
-195.260	-103.938	-0.175	-0.040
-194.246	-124.156	-0.125	0.019
-193.231	-200.000	0.014	-0.139
-192.217	-140.341	0.198	0.020
-191.202	94.866	-0.141	-0.158
-190.187	27.821	0.354	-0.294
-189.173	93.467	-0.236	0.263
-188.158	255.838	-0.023	0.039
-187.144	416.210	-0.034	0.072
-186.129	-200.000	0.000	0.260
-185.114	110.112	0.125	0.148
-184.100	-72.832	0.058	0.021
-183.085	-49.268	0.356	-0.168
-182.071	-61.041	0.153	0.064
-181.056	-200.000	-0.018	0.153
-180.042	-150.157	-0.181	0.014
-179.027	548.940	-0.038	-0.090
-178.012	-200.000	-0.011	0.205
-176.998	-85.265	-0.116	0.036
-175.983	491.471	-0.086	0.195
-174.969	-65.860	0.182	0.072
-173.954	-138.405	0.440	-0.048
-172.939	-9.289	0.263	-0.173
-171.925	-68.232	0.413	-0.158
-170.910	-91.970	-0.395	0.110
-169.896	-200.000	-0.008	-0.082
-168.881	-19.270	-0.158	0.097
-167.866	-200.000	-0.034	-0.213
-166.852	39.927	0.200	-0.177
-165.837	59.992	-0.121	-0.117
-164.823	-200.000	-0.001	-0.218
-163.808	25.611	0.108	0.088
-162.793	800.000	0.106	0.343
-161.779	-16.323	-0.099	0.062
-160.764	116.450	0.144	-0.174
-159.750	-67.643	-0.198	0.076
-158.735	-200.000	-0.037	-0.178
-157.720	-97.408	-0.340	-0.087
-156.706	-151.000	0.174	-0.013
-155.691	-171.738	0.260	-0.008
-154.677	-200.000	0.035	-0.177
-153.662	-109.522	-0.215	-0.045
-152.647	85.727	0.091	0.099
-151.633	441.136	-0.049	-0.106
-150.618	187.134	-0.114	0.168
-149.604	-173.631	0.294	0.009
-148.589	-46.643	0.189	0.091
-147.574	-38.206	-0.073	-0.038
-146.560	265.613	-0.141	-0.242
-145.545	326.449	0.214	-0.403
-144.531	-200.000	0.004	-0.027
-143.516	-47.784	0.266	0.127
-142.502	34.985	0.075	-0.065
-141.487	-200.000	-0.061	-0.273
-140.472	54.766	0.259	0.246
-139.458	-153.207	0.165	-0.011
-138.443	-141.548	0.241	-0.024
-137.429	2.612	0.135	-0.096
-136.414	30.439	-0.211	-0.177
-135.399	245.636	0.148	0.246
-134.385	-57.940	0.292	0.125
-133.370	800.000	-0.085	-0.285
-132.356	-53.481	0.382	-0.172
-131.341	-200.000	-0.029	-0.323
-130.326	187.981	0.152	-0.222
-129.312	670.886	0.119	0.303
-128.297	32.749	0.003	-0.002
-127.283	800.000	-0.025	-0.103
-126.268	-100.527	-0.237	0.058
-125.253	-31.334	-0.314	0.173
-124.239	-200.000	0.012	0.194
-123.224	800.000	0.092	-0.327
-122.210	126.499	0.163	-0.202
-121.195	151.197	-0.175	0.234
