DTS Sentinel unit serial number:	SN413079Multiplexer serial number:	ORYXHardware model number:	OX4-SRSoftware version number:	ORYX F/W v4.00 Oryx Data Collector v3.7.2.0data status	okinstallation	princeton_trtdifferential loss correction	single-endedforward channel	channel 2reverse channel	N/Adate	2019/09/15time	23:11:35forward acquisition time	60.00reverse acquisition time	0.00gamma	496.2192k internal	0.2335k external	0.2335temperature offset calibration	0.9952default loss term (dB/km)	0.3790temperature slope calibration	1.0000multiplexer offset coefficient	1.0000multiplexer slope coefficient	1.0000fibre end	0.00T internal ref (°C)	28.41T ext. ref 1 (°C)	9.05T ext. ref 2 (°C)	22.19length (m)	temperature (°C)	Stokes	anti-Stokes-747.200	729.679	0.084	0.224
-746.185	-200.000	0.010	0.051
-745.171	-113.868	-0.164	-0.032
-744.156	220.582	-0.176	0.284
-743.142	-200.000	0.015	-0.149
-742.127	-200.000	-0.027	0.249
-741.112	800.000	-0.068	0.269
-740.098	-79.395	-0.158	-0.054
-739.083	-200.000	0.088	0.422
-738.069	-5.077	0.181	0.125
-737.054	-200.000	-0.018	0.127
-736.039	800.000	-0.047	-0.191
-735.025	33.195	0.252	0.219
-734.010	-200.000	-0.009	0.151
-732.996	-69.708	0.221	0.085
-731.981	92.442	-0.048	-0.054
-730.966	-125.768	-0.145	0.022
-729.952	147.092	-0.217	-0.293
-728.937	-200.000	0.004	-0.308
-727.923	-133.132	-0.193	-0.024
-726.908	145.318	-0.120	-0.161
-725.894	285.912	-0.108	-0.195
-724.879	268.891	0.066	-0.116
-723.864	-104.616	-0.201	0.047
-722.850	-116.565	0.189	0.035
-721.835	75.454	0.183	0.193
-720.821	-88.827	-0.201	-0.060
-719.806	-200.000	-0.024	0.147
-718.791	65.376	-0.271	-0.275
-717.777	-53.454	-0.117	0.054
-716.762	-22.683	-0.158	-0.096
-715.748	-200.000	0.016	-0.256
-714.733	104.694	0.126	0.149
-713.718	502.464	0.283	0.656
-712.704	-15.565	-0.310	0.198
-711.689	52.008	0.026	0.025
-710.675	57.392	0.132	-0.129
-709.660	-32.490	0.054	-0.030
-708.645	-64.112	-0.144	-0.059
-707.631	-141.113	0.292	0.030
-706.616	-200.000	0.025	0.328
-705.602	-200.000	0.088	0.449
-704.587	-37.172	-0.179	0.096
-703.572	-126.451	0.229	0.034
-702.558	-200.000	-0.016	0.129
-701.543	200.498	-0.053	0.081
-700.529	37.498	-0.444	-0.395
-699.514	487.935	0.018	0.041
-698.499	527.639	-0.060	0.143
-697.485	-200.000	0.061	0.492
-696.470	77.008	-0.039	-0.041
-695.456	145.681	-0.041	-0.055
-694.441	83.744	0.199	0.218
-693.426	118.715	-0.193	0.239
-692.412	-31.701	0.203	0.114
-691.397	-200.000	-0.049	0.339
-690.383	231.393	-0.062	-0.102
-689.368	216.404	-0.076	0.121
-688.354	157.914	-0.063	0.087
-687.339	74.198	-0.299	-0.315
-686.324	-108.289	0.022	0.005
-685.310	483.059	-0.137	0.313
-684.295	-82.670	0.320	0.104
-683.281	184.300	0.035	-0.052
-682.266	800.000	-0.044	0.128
-681.251	87.531	0.106	-0.118
-680.237	102.170	-0.147	-0.172
-679.222	319.610	0.095	-0.181
-678.208	800.000	-0.027	0.104
-677.193	-200.000	0.005	0.163
-676.178	251.037	-0.062	0.105
-675.164	-21.829	0.204	0.124
-674.149	-50.631	0.076	0.036
-673.135	-200.000	-0.020	0.291
-672.120	-200.000	-0.008	0.044
-671.105	-200.000	0.006	0.253
-670.091	778.915	-0.106	0.289
-669.076	-164.945	0.232	0.010
-668.062	-200.000	0.037	0.212
-667.047	-167.275	-0.301	-0.012
-666.032	24.116	-0.214	0.177
-665.018	515.931	0.068	0.160
-664.003	-58.267	-0.301	0.131
-662.989	800.000	0.060	-0.186
-661.974	85.687	-0.183	0.201
-660.959	28.882	0.430	0.365
-659.945	65.163	-0.049	0.050
-658.930	-100.082	-0.271	-0.067
-657.916	-200.000	0.002	0.316
-656.901	449.023	0.163	-0.360
-655.886	126.605	0.122	-0.154
-654.872	-152.988	-0.193	0.014
-653.857	800.000	-0.070	-0.251
-652.843	800.000	0.054	0.176
-651.828	-66.175	-0.200	-0.080
-650.814	800.000	0.101	-0.351
-649.799	-200.000	0.056	0.449
-648.784	800.000	-0.057	-0.203
-647.770	76.507	0.022	-0.023
-646.755	327.357	0.168	-0.323
-645.741	384.350	-0.069	0.142
-644.726	-66.099	-0.107	-0.043
-643.711	200.796	0.073	-0.113
-642.697	3.670	-0.195	0.143
-641.682	296.364	-0.085	-0.157
-640.668	-84.458	0.094	0.030
-639.653	253.654	-0.116	0.199
-638.638	55.833	0.182	0.177
-637.624	-112.699	0.500	0.099
-636.609	-89.209	0.032	-0.009
-635.595	-11.383	0.208	0.137
-634.580	800.000	0.068	-0.244
-633.565	45.318	-0.130	0.120
-632.551	800.000	0.057	-0.182
-631.536	25.144	-0.318	0.264
-630.522	218.308	-0.161	0.257
-629.507	-200.000	-0.001	-0.294
-628.492	-7.286	0.407	-0.276
-627.478	-200.000	0.044	-0.198
-626.463	-200.000	0.066	-0.326
-625.449	142.595	-0.062	-0.082
-624.434	674.140	0.058	0.152
-623.419	69.969	0.056	0.058
-622.405	9.485	0.113	0.086
-621.390	-109.425	-0.263	-0.056
-620.376	-200.000	0.074	-0.342
-619.361	20.700	-0.253	0.205
-618.346	32.930	-0.423	0.367
-617.332	0.435	-0.243	0.174
-616.317	23.987	-0.220	-0.181
-615.303	800.000	0.053	-0.211
-614.288	23.722	0.200	-0.165
-613.273	-67.252	-0.189	-0.074
-612.259	800.000	-0.135	-0.514
-611.244	-200.000	-0.030	-0.294
-610.230	-51.657	0.113	-0.053
-609.215	34.514	0.112	-0.098
-608.201	204.145	0.119	-0.185
-607.186	187.185	0.195	0.290
-606.171	208.441	-0.176	0.276
-605.157	-58.677	-0.140	0.061
-604.142	-62.829	0.246	0.102
-603.128	49.340	-0.325	-0.305
-602.113	-9.293	-0.274	-0.183
-601.098	5.705	-0.063	0.046
-600.084	-0.084	0.256	0.182
-599.069	117.583	0.153	-0.188
-598.055	724.213	-0.163	-0.435
-597.040	-200.000	-0.065	-0.417
-596.025	-90.877	0.241	-0.069
-595.011	-78.221	0.165	-0.057
-593.996	317.435	-0.035	-0.066
-592.982	800.000	-0.023	-0.088
-591.967	-163.826	-0.273	-0.013
-590.952	141.444	-0.176	0.233
-589.938	-5.600	-0.295	-0.202
-588.923	373.550	-0.112	-0.227
-587.909	584.545	0.073	-0.179
-586.894	520.025	-0.144	-0.336
-585.879	-200.000	0.023	0.172
-584.865	-98.080	0.299	0.077
-583.850	-200.000	-0.017	-0.200
-582.836	49.787	-0.231	0.217
-581.821	-200.000	-0.005	0.057
-580.806	800.000	-0.038	-0.166
-579.792	-76.031	-0.342	0.121
-578.777	262.907	-0.097	0.168
-577.763	-86.394	0.091	-0.028
-576.748	800.000	-0.089	-0.282
-575.733	-39.397	-0.300	0.157
-574.719	-200.000	0.024	-0.145
-573.704	118.623	-0.409	0.504
-572.690	-200.000	0.031	-0.189
-571.675	30.576	0.011	-0.009
-570.661	-93.034	0.363	-0.101
-569.646	497.308	-0.177	0.407
-568.631	216.497	0.107	0.170
-567.617	-169.701	0.452	0.016
-566.602	-200.000	-0.012	0.233
-565.588	-138.792	-0.170	-0.019
-564.573	32.340	0.053	0.046
-563.558	-172.930	-0.130	-0.004
-562.544	154.690	0.091	-0.125
-561.529	-200.000	0.029	0.210
-560.515	-126.378	0.164	0.024
-559.500	-76.951	0.152	-0.053
-558.485	70.428	0.110	0.114
-557.471	-136.468	0.411	-0.048
-556.456	-53.029	-0.171	0.078
-555.442	-128.633	0.156	-0.022
-554.427	32.668	0.066	0.057
-553.412	-200.000	0.031	-0.297
-552.398	800.000	0.064	-0.239
-551.383	157.821	0.144	0.198
-550.369	800.000	0.051	-0.176
-549.354	-119.452	-0.123	0.021
-548.339	-100.021	-0.310	-0.077
-547.325	-1.316	0.350	0.246
-546.310	-101.297	-0.271	0.066
-545.296	9.094	-0.164	-0.124
-544.281	-54.857	0.165	-0.074
-543.266	-23.787	0.434	-0.259
-542.252	297.121	0.279	-0.511
-541.237	-127.496	0.138	-0.020
-540.223	800.000	0.053	-0.177
-539.208	-131.938	-0.271	0.035
-538.193	25.109	0.166	0.138
-537.179	19.663	0.053	0.043
-536.164	-65.399	-0.337	-0.135
-535.150	224.747	-0.163	0.263
-534.135	289.741	-0.148	0.267
-533.121	82.836	-0.143	-0.154
-532.106	281.349	-0.042	0.075
-531.091	-10.801	0.210	-0.138
-530.077	-90.916	-0.163	0.047
-529.062	291.060	-0.204	0.369
-528.048	39.187	-0.117	-0.104
-527.033	6.421	-0.038	0.028
-526.018	274.103	0.108	-0.190
-525.004	-73.067	-0.154	-0.056
-523.989	249.316	-0.042	0.070
-522.975	507.655	-0.165	0.381
-521.960	-132.985	-0.219	0.028
-520.945	-113.090	-0.174	0.034
-519.931	18.043	0.259	-0.206
-518.916	193.446	0.180	-0.270
-517.902	210.275	0.259	0.405
-516.887	-175.550	-0.099	-0.003
-515.872	-200.000	-0.062	-0.278
-514.858	103.496	0.240	-0.280
-513.843	-14.205	0.143	-0.092
-512.829	800.000	-0.113	0.358
-511.814	-171.622	-0.219	-0.007
-510.799	-58.520	0.193	0.083
-509.785	202.702	0.059	0.090
-508.770	18.756	-0.079	-0.063
-507.756	112.739	0.116	-0.140
-506.741	-200.000	-0.064	0.342
-505.726	-80.802	0.141	-0.046
-504.712	800.000	0.058	-0.210
-503.697	-75.248	-0.169	0.060
-502.683	-185.034	-0.123	0.002
-501.668	800.000	-0.101	0.302
-500.653	101.946	0.097	-0.112
-499.639	756.893	0.073	-0.198
-498.624	-118.521	-0.164	0.029
-497.610	-200.000	-0.022	0.181
-496.595	367.373	-0.160	0.321
-495.581	-39.778	0.184	-0.096
-494.566	96.002	-0.049	0.055
-493.551	226.859	0.182	0.293
-492.537	51.317	-0.206	0.195
-491.522	800.000	0.063	0.206
-490.508	-200.000	-0.032	0.337
-489.493	338.957	-0.020	-0.039
-488.478	-8.801	-0.134	0.089
-487.464	-161.106	-0.264	0.014
-486.449	179.368	-0.184	0.268
-485.435	-134.346	0.270	-0.033
-484.420	108.837	-0.127	-0.151
-483.405	-44.413	0.151	0.075
-482.391	-132.112	0.179	-0.023
-481.376	415.735	0.099	-0.211
-480.362	187.901	-0.076	-0.113
-479.347	-200.000	-0.045	0.225
-478.332	58.155	-0.081	0.079
-477.318	135.042	0.149	-0.192
-476.303	-167.003	-0.336	-0.014
-475.289	-62.358	-0.215	0.089
-474.274	-130.191	0.403	0.055
-473.259	67.213	-0.098	-0.100
-472.245	86.986	0.080	0.088
-471.230	111.159	-0.209	0.250
-470.216	-200.000	0.009	0.342
-469.201	213.582	-0.054	-0.084
-468.186	761.426	0.059	-0.158
-467.172	-86.632	0.315	0.096
-466.157	39.757	0.176	-0.157
-465.143	510.612	-0.068	-0.158
-464.128	102.060	-0.156	0.181
-463.113	-163.230	0.515	0.025
-462.099	-137.651	0.206	-0.023
-461.084	-200.000	-0.098	0.529
-460.070	-15.957	0.152	0.096
-459.055	34.384	0.185	0.161
-458.040	-200.000	-0.014	0.308
-457.026	72.877	0.158	0.164
-456.011	-3.596	0.186	-0.129
-454.997	-200.000	-0.067	-0.499
-453.982	-89.798	-0.201	0.058
-452.968	542.283	-0.030	0.071
-451.953	-200.000	-0.044	0.277
-450.938	9.796	0.038	-0.029
-449.924	800.000	0.085	-0.369
-448.909	-101.625	0.136	-0.033
-447.895	-200.000	0.059	-0.419
-446.880	36.938	0.060	-0.052
-445.865	-109.029	-0.058	0.012
-444.851	-61.988	0.204	0.084
-443.836	-118.190	-0.076	0.013
-442.822	-69.613	-0.287	0.109
-441.807	10.922	-0.247	-0.188
-440.792	-70.164	0.188	-0.071
-439.778	67.525	-0.195	-0.197
-438.763	-55.086	-0.249	0.111
-437.749	20.788	-0.187	0.150
-436.734	65.688	0.080	-0.080
-435.719	-54.604	-0.236	0.106
-434.705	-13.240	0.164	0.106
-433.690	-200.000	-0.016	0.240
-432.676	-55.947	0.190	0.084
-431.661	254.167	0.163	0.277
-430.646	170.981	-0.044	0.062
-429.632	-200.000	0.016	0.315
-428.617	-113.360	-0.228	0.044
-427.603	-200.000	0.005	0.032
-426.588	211.467	0.225	-0.351
-425.573	473.215	-0.046	-0.102
-424.559	-200.000	-0.023	-0.171
-423.544	-108.295	-0.019	-0.004
-422.530	-147.341	0.152	-0.013
-421.515	30.340	-0.067	0.057
-420.500	-73.928	0.146	0.053
-419.486	-200.000	-0.039	0.181
-418.471	-200.000	0.053	0.278
-417.457	27.228	-0.180	-0.150
-416.442	-122.158	0.104	-0.017
-415.428	18.122	0.133	-0.105
-414.413	-200.000	0.082	0.387
-413.398	-177.364	-0.115	0.003
-412.384	-68.529	0.066	-0.025
-411.369	-170.897	-0.288	0.010
-410.355	-200.000	0.046	0.311
-409.340	210.215	0.145	0.226
-408.325	49.834	0.036	-0.034
-407.311	356.125	0.056	0.112
-406.296	290.667	-0.166	0.300
-405.282	-111.630	0.105	-0.021
-404.267	33.309	0.151	0.130
-403.252	-200.000	-0.009	-0.136
-402.238	489.959	-0.068	0.153
-401.223	24.696	-0.119	0.097
-400.209	195.260	0.244	-0.367
-399.194	-137.195	0.189	-0.021
-398.179	-200.000	-0.051	0.239
-397.165	187.724	-0.071	0.105
-396.150	-200.000	-0.037	-0.454
-395.136	-101.879	0.178	0.043
-394.121	80.344	-0.216	-0.230
-393.106	231.905	-0.182	-0.296
-392.092	66.748	0.124	-0.125
-391.077	28.353	-0.158	0.132
-390.063	-72.050	0.158	-0.058
-389.048	-118.838	0.134	0.023
-388.033	-200.000	0.011	0.283
-387.019	800.000	0.037	-0.128
-386.004	-166.033	0.525	-0.022
-384.990	-63.834	-0.292	-0.118
-383.975	35.037	0.085	-0.074
-382.960	475.839	0.129	-0.290
-381.946	-200.000	0.038	0.370
-380.931	105.539	-0.116	-0.136
-379.917	-28.785	0.109	-0.062
-378.902	-200.000	0.046	-0.482
-377.888	-38.385	-0.342	-0.180
-376.873	-59.225	0.104	0.044
-375.858	-106.738	0.187	-0.041
-374.844	147.361	0.080	-0.107
-373.829	-200.000	0.003	0.278
-372.815	179.119	-0.175	0.254
-371.800	207.128	-0.055	0.085
-370.785	75.468	-0.131	-0.137
-369.771	-120.664	0.463	-0.077
-368.756	-84.550	-0.163	0.051
-367.742	280.004	-0.093	-0.164
-366.727	385.763	-0.016	0.033
-365.712	-83.301	-0.336	0.107
-364.698	-26.948	-0.281	0.163
-363.683	-70.038	0.328	0.124
-362.669	800.000	0.045	-0.160
-361.654	-0.293	-0.180	0.127
-360.639	772.420	-0.051	-0.137
-359.625	-113.295	0.352	0.068
-358.610	-30.129	0.344	-0.194
-357.596	-200.000	-0.010	-0.149
-356.581	277.929	-0.078	-0.137
-355.566	534.654	-0.126	-0.294
-354.552	-200.000	0.013	-0.098
-353.537	-44.591	0.180	-0.089
-352.523	362.239	-0.023	-0.045
-351.508	-106.915	-0.154	-0.034
-350.493	-155.528	-0.246	-0.016
-349.479	-200.000	0.001	-0.046
-348.464	-123.313	-0.393	-0.062
-347.450	131.904	0.092	0.118
-346.435	-133.928	0.319	0.039
-345.420	142.442	0.016	-0.021
-344.406	483.693	-0.101	-0.228
-343.391	125.118	-0.080	0.100
-342.377	800.000	-0.051	0.219
-341.362	-200.000	0.005	-0.116
-340.348	19.728	-0.034	-0.027
-339.333	-44.569	0.433	0.214
-338.318	172.451	0.165	0.234
-337.304	79.867	-0.155	0.164
-336.289	-42.006	0.264	-0.133
-335.275	342.680	0.104	-0.202
-334.260	-111.703	-0.240	-0.048
-333.245	800.000	0.060	0.178
-332.231	-16.867	0.100	-0.062
-331.216	800.000	0.061	0.230
-330.202	22.728	-0.039	-0.032
-329.187	-200.000	-0.009	0.093
-328.172	114.967	0.069	0.083
-327.158	-152.790	-0.128	0.009
-326.143	-200.000	0.061	-0.332
-325.129	-135.461	0.315	0.037
-324.114	522.163	0.170	0.394
-323.099	-200.000	0.037	-0.312
-322.085	655.998	0.112	-0.285
-321.070	-45.003	-0.114	0.056
-320.056	-87.114	0.184	-0.055
-319.041	-68.940	0.158	0.060
-318.026	-200.000	0.035	0.270
-317.012	-200.000	-0.023	-0.211
-315.997	-200.000	-0.011	-0.299
-314.983	800.000	0.164	0.541
-313.968	-99.564	0.182	-0.045
-312.953	-200.000	0.004	0.184
-311.939	249.094	0.107	-0.178
-310.924	311.024	-0.110	0.203
-309.910	256.909	0.220	-0.373
-308.895	526.601	-0.129	-0.300
-307.880	42.961	0.079	-0.071
-306.866	-200.000	0.026	-0.457
-305.851	15.246	0.047	-0.036
-304.837	105.091	-0.179	-0.208
-303.822	-79.144	-0.208	-0.070
-302.807	-200.000	0.003	0.018
-301.793	405.730	0.051	0.105
-300.778	-181.234	0.057	0.001
-299.764	-200.000	-0.025	0.122
-298.749	-83.620	-0.374	-0.118
-297.735	800.000	0.063	-0.174
-296.720	-121.195	0.264	0.044
-295.705	348.642	-0.065	-0.127
-294.691	800.000	-0.161	-0.460
-293.676	-100.443	0.052	-0.013
-292.662	-47.723	-0.268	-0.128
-291.647	-200.000	0.028	-0.396
-290.632	8.124	0.421	-0.312
-289.618	-90.379	-0.291	-0.083
-288.603	-200.000	0.002	-0.116
-287.589	26.149	-0.070	0.058
-286.574	-200.000	-0.020	-0.256
-285.559	-57.860	0.066	-0.028
-284.545	-87.854	0.108	-0.032
-283.530	-53.730	-0.153	-0.069
-282.516	-142.130	-0.140	0.014
-281.501	316.140	-0.082	-0.153
-280.486	129.163	-0.410	0.517
-279.472	22.370	-0.048	0.039
-278.457	-200.000	0.031	0.238
-277.443	15.067	0.079	-0.061
-276.428	23.496	0.168	-0.137
-275.413	-200.000	-0.011	0.184
-274.399	-115.108	-0.331	-0.062
-273.384	-122.218	0.301	-0.049
-272.370	12.730	-0.281	0.214
-271.355	-200.000	0.007	0.101
-270.340	-20.473	-0.090	0.054
-269.326	-200.000	-0.004	-0.082
-268.311	-200.000	-0.008	-0.115
-267.297	148.020	-0.170	-0.226
-266.282	125.104	-0.038	0.047
-265.267	67.424	-0.044	-0.045
-264.253	-108.397	-0.178	0.038
-263.238	-121.637	0.104	0.017
-262.224	800.000	-0.050	0.154
-261.209	122.360	0.207	0.255
-260.195	238.789	-0.081	0.132
-259.180	-138.414	0.176	-0.019
-258.165	-200.000	-0.010	0.142
-257.151	-70.449	0.102	0.038
-256.136	800.000	0.044	-0.153
-255.122	800.000	-0.088	0.285
-254.107	-20.228	0.130	0.079
-253.092	-200.000	0.029	-0.214
-252.078	-200.000	-0.011	0.105
-251.063	-82.194	-0.293	0.094
-250.049	-200.000	0.002	-0.151
-249.034	63.327	0.158	-0.156
-248.019	-143.352	-0.450	-0.042
-247.005	-127.768	0.177	-0.025
-245.990	-200.000	0.002	-0.224
-244.976	-138.853	0.140	-0.015
-243.961	-85.483	-0.188	0.058
-242.946	-200.000	-0.024	0.308
-241.932	50.442	-0.117	0.109
-240.917	142.462	0.218	-0.285
-239.903	792.388	-0.015	0.040
-238.888	-35.730	0.060	-0.032
-237.873	402.297	-0.158	-0.327
-236.859	-200.000	-0.036	-0.210
-235.844	172.549	-0.182	0.257
-234.830	-200.000	0.022	0.314
-233.815	-57.146	-0.464	0.201
-232.800	157.035	0.091	0.124
-231.786	-43.236	-0.304	0.151
-230.771	-50.833	0.178	-0.082
-229.757	259.131	0.228	-0.387
-228.742	-111.282	-0.026	-0.005
-227.727	-200.000	0.030	0.386
-226.713	82.540	-0.161	0.172
-225.698	800.000	-0.128	-0.426
-224.684	-200.000	0.055	0.242
-223.669	-200.000	0.055	-0.337
-222.655	-165.313	-0.295	0.013
-221.640	800.000	0.045	0.136
-220.625	433.087	-0.121	0.258
-219.611	-169.190	0.226	0.008
-218.596	-32.750	-0.203	-0.111
-217.582	150.968	-0.075	-0.100
-216.567	-200.000	0.007	-0.151
-215.552	13.210	-0.287	0.219
-214.538	-62.615	-0.162	0.066
-213.523	16.259	-0.250	0.194
-212.509	-137.801	0.136	0.015
-211.494	294.136	0.187	-0.337
-210.479	-61.435	-0.436	-0.180
-209.465	104.370	0.110	0.127
-208.450	159.202	0.279	0.382
-207.436	-110.462	0.173	0.035
-206.421	-144.019	0.369	-0.034
-205.406	-200.000	0.012	0.059
-204.392	57.795	0.168	-0.162
-203.377	800.000	-0.048	-0.172
-202.363	-200.000	0.054	-0.420
-201.348	-29.400	0.101	-0.057
-200.333	61.924	0.452	0.443
-199.319	614.551	-0.036	0.088
-198.304	507.548	0.204	0.466
-197.290	-200.000	0.009	-0.344
-196.275	-200.000	-0.028	-0.140
-195.260	-131.812	0.289	0.037
-194.246	486.555	0.036	0.080
-193.231	248.981	0.165	-0.274
-192.217	-123.839	-0.262	0.041
-191.202	69.976	0.145	0.147
-190.187	-86.011	0.281	-0.085
-189.173	-200.000	-0.010	0.048
-188.158	116.028	-0.111	0.133
-187.144	105.743	0.223	0.259
-186.129	-33.203	0.415	-0.226
-185.114	146.581	0.185	0.244
-184.100	483.914	-0.112	0.250
-183.085	102.331	-0.062	0.071
-182.071	800.000	-0.055	-0.152
-181.056	800.000	0.083	-0.282
-180.042	-14.978	-0.146	0.092
-179.027	800.000	0.108	0.298
-178.012	151.897	0.199	0.267
-176.998	-125.590	-0.240	-0.036
-175.983	-30.219	-0.360	0.201
-174.969	-169.890	-0.532	0.019
-173.954	76.145	0.268	0.279
-172.939	-82.561	-0.281	0.089
-171.925	-200.000	-0.032	-0.145
-170.910	-200.000	0.023	0.201
-169.896	-22.253	-0.176	-0.105
-168.881	5.113	0.236	0.171
-167.866	-34.957	0.122	0.065
-166.852	103.259	-0.150	-0.172
-165.837	-80.900	0.232	-0.076
-164.823	-200.000	0.033	0.314
-163.808	-46.116	-0.096	0.047
-162.793	-167.622	-0.306	-0.012
-161.779	-200.000	-0.024	-0.226
-160.764	-71.337	0.081	-0.030
-159.750	800.000	-0.041	0.160
-158.735	-57.638	-0.228	-0.098
-157.720	-20.674	-0.115	0.069
-156.706	-156.641	-0.260	0.016
-155.691	60.244	-0.149	0.145
-154.677	74.954	0.170	-0.176
-153.662	47.275	0.233	0.213
-152.647	316.592	-0.064	-0.118
-151.633	-89.157	0.108	-0.031
-150.618	-122.521	-0.095	-0.015
-149.604	96.390	0.157	-0.176
-148.589	-115.302	0.098	-0.018
-147.574	316.143	0.160	-0.296
-146.560	43.662	0.141	0.127
-145.545	-35.279	0.278	0.148
-144.531	800.000	0.088	0.364
-143.516	-200.000	-0.049	0.218
-142.502	-200.000	0.032	0.154
-141.487	33.870	-0.231	0.197
-140.472	526.964	-0.133	-0.308
-139.458	13.422	0.147	0.112
-138.443	-5.479	0.167	-0.112
-137.429	-109.219	0.165	-0.034
-136.414	-196.887	-0.312	-0.002
-135.399	-191.795	0.384	0.004
-134.385	74.112	-0.195	0.201
-133.370	-200.000	0.017	0.166
-132.356	2.763	-0.281	-0.200
-131.341	23.542	0.144	-0.116
-130.326	71.049	0.072	-0.073
-129.312	-135.592	0.281	0.033
-128.297	-91.957	0.045	-0.012
-127.283	87.585	-0.219	-0.238
-126.268	-79.911	0.065	-0.022
-125.253	269.966	-0.125	-0.216
-124.239	5.866	0.186	0.135
-123.224	71.714	0.196	-0.200
-122.210	271.016	-0.028	-0.049
-121.195	-59.456	0.408	-0.172
