DTS Sentinel unit serial number:	SN413079Multiplexer serial number:	ORYXHardware model number:	OX4-SRSoftware version number:	ORYX F/W v4.00 Oryx Data Collector v3.7.2.0data status	okinstallation	princeton_trtdifferential loss correction	single-endedforward channel	channel 2reverse channel	N/Adate	2019/09/12time	06:37:11forward acquisition time	60.00reverse acquisition time	0.00gamma	496.2192k internal	0.2324k external	0.2324temperature offset calibration	1.0066default loss term (dB/km)	0.3790temperature slope calibration	1.0000multiplexer offset coefficient	1.0000multiplexer slope coefficient	1.0000fibre end	0.00T internal ref (°C)	32.14T ext. ref 1 (°C)	1.57T ext. ref 2 (°C)	27.16length (m)	temperature (°C)	Stokes	anti-Stokes-747.200	155.747	-0.143	-0.199
-746.185	800.000	-0.090	0.314
-745.171	143.979	-0.132	0.178
-744.156	-200.000	0.014	0.095
-743.142	-102.153	-0.253	0.061
-742.127	-200.000	-0.024	0.129
-741.112	87.440	0.082	0.092
-740.098	-95.617	0.158	-0.043
-739.083	235.714	-0.106	0.177
-738.069	425.889	0.160	0.347
-737.054	-13.698	-0.246	0.161
-736.039	-10.059	-0.096	0.065
-735.025	800.000	0.094	0.312
-734.010	175.984	-0.030	-0.044
-732.996	-65.195	-0.277	0.113
-731.981	-102.017	-0.116	0.028
-730.966	236.408	0.037	-0.062
-729.952	800.000	-0.024	0.097
-728.937	-200.000	-0.007	0.237
-727.923	-200.000	-0.089	-0.523
-726.908	50.011	0.111	0.106
-725.894	37.985	-0.189	-0.170
-724.879	88.628	-0.122	-0.137
-723.864	63.985	0.249	-0.253
-722.850	-67.733	-0.182	0.072
-721.835	-200.000	-0.049	0.230
-720.821	-200.000	0.013	-0.239
-719.806	-68.966	-0.056	0.022
-718.791	-59.341	-0.283	-0.123
-717.777	-163.200	-0.331	0.016
-716.762	-200.000	0.022	0.116
-715.748	-113.584	0.389	0.077
-714.733	-109.149	0.163	-0.035
-713.718	-30.258	-0.073	0.042
-712.704	476.500	0.091	-0.207
-711.689	800.000	0.025	0.077
-710.675	-95.914	0.213	-0.057
-709.660	-44.459	0.209	0.106
-708.645	-49.314	0.289	0.139
-707.631	-79.991	0.561	0.190
-706.616	800.000	-0.010	0.037
-705.602	-15.006	0.204	0.132
-704.587	-94.847	-0.194	-0.053
-703.572	214.695	-0.066	-0.106
-702.558	-112.764	0.222	-0.044
-701.543	-200.000	0.009	0.140
-700.529	800.000	-0.038	0.149
-699.514	219.517	0.218	0.352
-698.499	280.014	-0.031	0.055
-697.485	-89.705	-0.114	0.034
-696.470	-167.300	-0.168	-0.007
-695.456	-200.000	-0.003	0.360
-694.441	-200.000	0.044	-0.365
-693.426	181.866	0.073	-0.109
-692.412	-22.319	0.313	-0.191
-691.397	336.030	-0.114	-0.224
-690.383	47.476	-0.175	-0.165
-689.368	-70.907	-0.080	-0.031
-688.354	68.834	-0.108	0.111
-687.339	10.157	0.109	0.084
-686.324	9.636	-0.172	0.131
-685.310	-129.476	0.630	0.088
-684.295	-66.770	0.227	-0.091
-683.281	16.586	0.134	0.107
-682.266	-34.194	0.480	-0.265
-681.251	-200.000	0.028	-0.165
-680.237	-181.832	-0.062	-0.001
-679.222	800.000	0.048	0.147
-678.208	-87.192	-0.208	-0.064
-677.193	-46.145	-0.194	0.096
-676.178	6.147	0.181	0.135
-675.164	-200.000	-0.004	-0.137
-674.149	164.187	-0.146	0.207
-673.135	35.466	0.193	-0.171
-672.120	800.000	0.053	-0.149
-671.105	-104.972	-0.389	-0.090
-670.091	-61.255	0.149	0.063
-669.076	23.733	-0.161	-0.133
-668.062	-122.568	-0.171	0.028
-667.047	42.742	-0.357	-0.327
-666.032	7.659	0.069	-0.052
-665.018	53.783	-0.260	-0.251
-664.003	-67.526	-0.070	0.028
-662.989	74.337	-0.115	-0.122
-661.974	151.107	-0.108	-0.148
-660.959	-200.000	-0.023	0.181
-659.945	800.000	-0.076	0.224
-658.930	-200.000	-0.020	-0.174
-657.916	-67.245	-0.242	-0.096
-656.901	-17.729	-0.040	0.025
-655.886	14.322	-0.140	-0.110
-654.872	-200.000	0.040	-0.206
-653.857	203.881	-0.112	0.174
-652.843	279.172	-0.118	0.211
-651.828	-200.000	0.137	0.667
-650.814	-200.000	-0.028	0.404
-649.799	215.840	-0.107	-0.171
-648.784	22.821	0.301	0.248
-647.770	69.287	0.077	-0.080
-646.755	276.365	0.089	0.159
-645.741	393.359	-0.065	0.137
-644.726	277.665	-0.133	0.238
-643.711	800.000	-0.094	-0.296
-642.697	34.123	0.141	0.124
-641.682	-200.000	-0.018	0.111
-640.668	-69.841	-0.099	-0.038
-639.653	320.002	0.146	0.278
-638.638	197.913	0.024	-0.037
-637.624	800.000	-0.142	-0.409
-636.609	-66.262	0.201	0.080
-635.595	31.215	0.252	-0.217
-634.580	6.748	0.268	-0.201
-633.565	239.313	-0.111	-0.186
-632.551	-84.608	-0.065	-0.021
-631.536	12.500	0.234	0.181
-630.522	800.000	-0.050	-0.177
-629.507	-65.471	-0.230	-0.093
-628.492	-200.000	-0.022	-0.145
-627.478	800.000	0.078	0.242
-626.463	-133.341	-0.176	0.022
-625.449	-145.708	0.217	0.019
-624.434	9.429	0.299	0.227
-623.419	307.885	-0.136	0.254
-622.405	-17.071	0.156	-0.099
-621.390	-121.520	-0.074	0.012
-620.376	446.343	-0.153	0.338
-619.361	181.292	0.090	-0.134
-618.346	-29.806	-0.233	-0.134
-617.332	-42.738	0.279	0.143
-616.317	40.233	0.058	0.052
-615.303	-51.039	0.284	-0.134
-614.288	-79.398	-0.032	-0.011
-613.273	-200.000	0.033	-0.230
-612.259	74.553	-0.047	0.050
-611.244	-200.000	0.013	-0.131
-610.230	787.011	-0.024	-0.067
-609.215	-138.661	0.131	0.014
-608.201	-33.255	0.296	-0.165
-607.186	-96.436	0.239	-0.063
-606.171	122.333	0.089	-0.111
-605.157	63.516	0.254	-0.256
-604.142	-69.628	0.111	-0.043
-603.128	-79.576	-0.078	0.027
-602.113	459.699	-0.056	-0.126
-601.098	197.269	0.177	-0.271
-600.084	53.678	-0.076	-0.073
-599.069	169.629	0.218	-0.313
-598.055	-5.970	-0.104	-0.071
-597.040	800.000	-0.062	-0.184
-596.025	-200.000	0.010	0.106
-595.011	-131.976	0.297	-0.039
-593.996	0.777	-0.295	-0.212
-592.982	-29.250	-0.468	0.269
-591.967	-80.037	0.321	0.108
-590.952	83.821	0.171	0.188
-589.938	101.598	0.254	-0.297
-588.923	138.260	-0.052	0.069
-587.909	-32.470	-0.249	-0.139
-586.894	-43.763	-0.236	-0.119
-585.879	359.891	-0.003	-0.007
-584.865	119.021	-0.270	0.335
-583.850	276.298	0.101	0.179
-582.836	-170.241	-0.189	-0.007
-581.821	-53.539	-0.400	0.184
-580.806	-200.000	-0.002	0.237
-579.792	74.531	0.058	0.061
-578.777	570.885	0.135	-0.330
-577.763	622.028	-0.104	0.263
-576.748	800.000	-0.081	0.235
-575.733	-66.109	0.118	-0.047
-574.719	-59.789	-0.061	-0.026
-573.704	29.557	-0.215	-0.184
-572.690	521.502	0.170	-0.399
-571.675	-160.324	-0.290	-0.016
-570.661	-200.000	0.018	0.196
-569.646	-130.829	-0.210	-0.028
-568.631	373.340	-0.030	-0.062
-567.617	480.280	0.155	-0.353
-566.602	-59.474	0.086	0.037
-565.588	-200.000	-0.058	0.000
-564.573	68.349	-0.239	0.246
-563.558	-53.859	0.107	-0.049
-562.544	65.183	0.022	0.022
-561.529	-200.000	-0.089	-0.541
-560.515	51.694	-0.124	0.118
-559.500	131.406	0.143	-0.184
-558.485	-129.309	0.418	0.058
-557.471	-117.920	0.207	-0.037
-556.456	132.647	-0.016	-0.020
-555.442	800.000	0.052	-0.181
-554.427	-200.000	-0.012	0.198
-553.412	800.000	-0.029	-0.119
-552.398	27.482	0.344	-0.290
-551.383	-122.995	-0.303	0.049
-550.369	-140.076	0.298	-0.031
-549.354	-145.124	0.469	0.043
-548.339	190.465	0.158	-0.237
-547.325	-33.085	0.236	0.131
-546.310	-135.375	0.104	-0.012
-545.296	-200.000	-0.020	0.276
-544.281	479.178	-0.136	0.310
-543.266	90.578	-0.077	0.086
-542.252	20.487	0.301	-0.244
-541.237	55.588	-0.062	-0.060
-540.223	-200.000	0.010	-0.094
-539.208	77.423	-0.128	-0.136
-538.193	-200.000	0.063	-0.311
-537.179	47.428	-0.063	0.058
-536.164	99.130	-0.163	0.189
-535.150	248.268	0.022	-0.037
-534.135	-200.000	0.014	-0.098
-533.121	-154.750	-0.163	-0.011
-532.106	-136.480	-0.310	-0.036
-531.091	363.967	0.132	0.266
-530.077	-108.491	0.030	0.007
-529.062	-161.861	0.297	-0.015
-528.048	171.369	0.067	0.096
-527.033	398.824	-0.027	0.057
-526.018	-14.890	0.116	-0.075
-525.004	598.587	-0.050	-0.124
-523.989	158.834	-0.066	0.092
-522.975	-200.000	-0.010	0.084
-521.960	276.608	0.197	0.350
-520.945	-200.000	-0.009	0.062
-519.931	77.524	-0.013	0.014
-518.916	-98.281	-0.204	0.052
-517.902	504.293	0.083	0.191
-516.887	-200.000	0.014	0.138
-515.872	427.537	0.072	0.155
-514.858	79.879	0.228	-0.245
-513.843	-16.018	-0.106	-0.067
-512.829	380.627	-0.114	-0.234
-511.814	-31.424	0.176	0.099
-510.799	-108.694	-0.149	-0.032
-509.785	-200.000	-0.007	0.185
-508.770	-200.000	0.007	0.537
-507.756	213.772	0.093	-0.146
-506.741	421.578	0.118	-0.253
-505.726	-70.091	-0.128	-0.049
-504.712	51.720	-0.092	0.088
-503.697	4.187	-0.012	-0.009
-502.683	12.471	0.125	0.097
-501.668	-200.000	-0.018	-0.108
-500.653	-128.498	0.053	0.008
-499.639	-152.786	0.222	-0.016
-498.624	-75.302	0.014	-0.005
-497.610	800.000	0.112	0.425
-496.595	-200.000	0.059	0.300
-495.581	-149.480	-0.328	-0.026
-494.566	48.644	-0.230	-0.216
-493.551	-33.375	-0.101	0.056
-492.537	-71.817	-0.186	-0.069
-491.522	-64.162	0.127	0.052
-490.508	-95.178	-0.158	-0.043
-489.493	-200.000	-0.032	0.357
-488.478	800.000	0.035	0.131
-487.464	800.000	-0.022	-0.077
-486.449	-157.874	-0.146	0.009
-485.435	275.805	-0.085	0.151
-484.420	583.277	0.094	-0.232
-483.405	800.000	0.017	-0.063
-482.391	70.526	0.223	-0.230
-481.376	-200.000	-0.015	0.241
-480.362	130.389	0.181	0.232
-479.347	168.912	0.315	0.449
-478.332	-200.000	0.047	0.227
-477.318	225.559	-0.110	0.178
-476.303	800.000	-0.049	-0.171
-475.289	58.707	-0.080	0.078
-474.274	-200.000	-0.009	0.067
-473.259	800.000	-0.004	-0.015
-472.245	-200.000	0.023	0.118
-471.230	-102.904	0.113	-0.027
-470.216	-94.226	-0.201	0.055
-469.201	-198.687	-0.214	-0.001
-468.186	10.161	-0.114	0.087
-467.172	-200.000	-0.029	-0.153
-466.157	156.001	-0.127	0.175
-465.143	-197.736	0.197	-0.001
-464.128	-43.429	-0.136	-0.069
-463.113	-200.000	0.049	-0.253
-462.099	181.080	-0.146	-0.214
-461.084	-186.628	0.210	-0.003
-460.070	-200.000	-0.009	0.106
-459.055	-123.698	0.330	0.052
-458.040	-69.863	-0.290	0.111
-457.026	-200.000	-0.078	0.611
-456.011	-200.000	-0.011	-0.182
-454.997	800.000	0.019	-0.073
-453.982	15.090	-0.399	0.312
-452.968	36.920	0.327	-0.289
-451.953	259.912	0.173	-0.298
-450.938	-10.886	-0.133	-0.088
-449.924	-53.402	0.413	0.189
-448.909	3.914	-0.133	-0.097
-447.895	419.125	-0.202	-0.431
-446.880	-100.614	-0.251	0.062
-445.865	162.956	-0.152	-0.213
-444.851	-17.429	-0.320	0.201
-443.836	25.108	-0.108	-0.090
-442.822	5.691	0.146	0.108
-441.807	-117.443	0.250	0.045
-440.792	96.771	0.227	-0.260
-439.778	-180.666	0.166	-0.003
-438.763	-200.000	-0.032	-0.342
-437.749	397.476	0.138	-0.288
-436.734	-102.017	0.373	-0.090
-435.719	106.092	0.134	-0.159
-434.705	-200.000	-0.014	-0.221
-433.690	485.069	-0.112	-0.255
-432.676	69.773	-0.137	-0.141
-431.661	-200.000	-0.003	-0.081
-430.646	-30.643	-0.440	-0.249
-429.632	-53.288	0.228	0.104
-428.617	-24.414	0.326	-0.194
-427.603	-25.038	0.151	0.089
-426.588	-168.778	-0.079	0.003
-425.573	-31.873	0.043	0.024
-424.559	-12.185	-0.209	0.136
-423.544	50.856	0.165	-0.156
-422.530	-121.527	-0.331	-0.055
-421.515	742.531	-0.093	0.249
-420.500	-169.258	0.250	0.009
-419.486	800.000	-0.074	0.237
-418.471	249.165	-0.094	0.160
-417.457	-78.931	-0.348	0.118
-416.442	800.000	-0.139	-0.389
-415.428	-200.000	-0.071	-0.332
-414.413	-51.891	-0.208	0.097
-413.398	17.726	0.171	-0.136
-412.384	-190.926	-0.084	0.001
-411.369	45.107	-0.109	0.100
-410.355	36.326	0.147	0.129
-409.340	800.000	0.081	0.341
-408.325	-112.694	-0.140	-0.028
-407.311	-182.612	-0.189	0.003
-406.296	-197.514	-0.095	0.001
-405.282	12.582	0.112	0.086
-404.267	-0.508	0.059	-0.042
-403.252	800.000	0.105	0.388
-402.238	-182.910	0.166	0.003
-401.223	90.386	0.121	-0.134
-400.209	800.000	-0.029	-0.106
-399.194	665.767	-0.084	-0.215
-398.179	81.048	0.105	0.112
-397.165	800.000	0.036	0.122
-396.150	-139.327	0.195	0.021
-395.136	-138.117	-0.303	-0.033
-394.121	10.030	0.253	-0.191
-393.106	-73.780	0.116	0.042
-392.092	-28.938	-0.152	0.087
-391.077	-116.168	0.113	-0.021
-390.063	40.454	-0.203	-0.182
-389.048	25.483	-0.240	-0.199
-388.033	62.055	0.082	0.081
-387.019	410.171	0.220	0.465
-386.004	-66.418	0.183	0.073
-384.990	143.578	0.189	0.251
-383.975	-46.456	0.203	0.099
-382.960	198.702	-0.132	0.201
-381.946	-200.000	-0.028	0.246
-380.931	122.577	-0.232	0.289
-379.917	-107.735	-0.115	0.025
-378.902	800.000	-0.072	-0.268
-377.888	800.000	0.104	0.361
-376.873	176.698	0.121	0.175
-375.858	-104.373	0.133	-0.031
-374.844	241.042	-0.072	0.120
-373.829	56.454	-0.192	0.186
-372.815	7.947	0.082	-0.061
-371.800	-56.323	-0.160	-0.071
-370.785	-174.377	0.187	0.005
-369.771	317.669	-0.107	-0.201
-368.756	-200.000	0.003	-0.145
-367.742	-38.464	0.266	0.140
-366.727	-143.821	0.323	-0.030
-365.712	-115.536	-0.431	-0.081
-364.698	-200.000	0.018	-0.113
-363.683	-74.176	0.049	-0.018
-362.669	800.000	0.084	0.261
-361.654	-32.768	-0.082	0.046
-360.639	-200.000	0.009	0.088
-359.625	397.952	-0.020	0.042
-358.610	-97.537	0.332	0.086
-357.596	-200.000	-0.062	-0.309
-356.581	-67.142	-0.118	-0.046
-355.566	-96.353	0.143	0.038
-354.552	-200.000	-0.027	-0.323
-353.537	82.731	-0.229	-0.247
-352.523	800.000	0.127	-0.442
-351.508	454.853	-0.063	-0.140
-350.493	521.123	-0.036	0.084
-349.479	33.290	-0.020	-0.018
-348.464	-78.224	0.149	0.051
-347.450	153.096	0.195	-0.266
-346.435	19.434	-0.231	-0.185
-345.420	-85.337	-0.087	-0.027
-344.406	-184.419	0.248	0.004
-343.391	-200.000	0.027	-0.251
-342.377	-200.000	-0.043	-0.211
-341.362	-56.429	0.194	0.086
-340.348	-86.672	0.232	0.070
-339.333	292.110	0.170	-0.308
-338.318	-51.806	-0.165	0.076
-337.304	-200.000	-0.010	0.058
-336.289	37.177	-0.142	0.125
-335.275	-107.724	-0.160	0.035
-334.260	62.066	-0.087	-0.086
-333.245	-200.000	-0.018	0.168
-332.231	102.520	0.094	-0.109
-331.216	-100.086	-0.202	-0.050
-330.202	88.879	0.125	0.138
-329.187	66.812	-0.119	0.120
-328.172	240.945	-0.354	0.587
-327.158	-117.040	-0.173	0.031
-326.143	109.923	0.184	-0.220
-325.129	76.209	-0.181	0.191
-324.114	240.045	-0.112	-0.185
-323.099	48.977	-0.123	-0.114
-322.085	77.374	0.046	0.049
-321.070	332.178	-0.137	0.263
-320.056	96.587	-0.183	-0.208
-319.041	-94.764	-0.199	-0.054
-318.026	-65.029	-0.199	0.080
-317.012	-28.221	0.234	-0.134
-315.997	202.135	0.074	0.113
-314.983	800.000	-0.025	-0.084
-313.968	800.000	0.082	-0.277
-312.953	150.112	-0.246	0.331
-311.939	-61.514	0.246	-0.102
-310.924	-36.811	0.222	-0.118
-309.910	-43.015	-0.201	-0.101
-308.895	-200.000	0.022	0.143
-307.880	-152.213	-0.394	-0.028
-306.866	407.858	0.169	0.354
-305.851	-150.423	-0.197	0.015
-304.837	-116.876	0.218	-0.040
-303.822	-31.789	0.021	0.011
-302.807	50.485	-0.310	-0.291
-301.793	-79.280	0.048	0.016
-300.778	62.405	-0.292	0.290
-299.764	-200.000	0.046	-0.388
-298.749	-200.000	0.018	-0.135
-297.735	104.660	0.048	-0.057
-296.720	-125.168	0.107	-0.016
-295.705	-200.000	-0.027	-0.223
-294.691	566.722	0.050	-0.121
-293.676	-30.009	0.162	-0.091
-292.662	-22.483	0.227	-0.136
-291.647	-20.417	-0.060	-0.036
-290.632	-97.212	-0.124	0.032
-289.618	317.237	-0.054	0.101
-288.603	-200.000	0.044	0.198
-287.589	69.555	-0.191	-0.195
-286.574	-131.941	0.065	-0.008
-285.559	3.198	-0.202	0.146
-284.545	131.308	-0.131	-0.166
-283.530	39.297	0.161	-0.143
-282.516	649.884	0.175	-0.444
-281.501	47.574	0.160	0.148
-280.486	-164.765	0.123	0.005
-279.472	125.002	-0.087	0.109
-278.457	-165.176	0.240	0.011
-277.443	-40.584	0.211	0.109
-276.428	118.748	-0.079	0.096
-275.413	-107.531	-0.180	0.039
-274.399	146.070	-0.162	0.216
-273.384	-29.175	0.263	-0.150
-272.370	-151.708	0.053	-0.004
-271.355	362.928	0.033	0.067
-270.340	-76.697	-0.095	0.033
-269.326	-50.590	0.134	0.062
-268.311	220.566	-0.120	0.190
-267.297	67.141	0.091	-0.091
-266.282	534.744	-0.022	-0.052
-265.267	-109.471	0.123	0.026
-264.253	276.720	0.051	0.091
-263.238	-200.000	0.024	-0.207
-262.224	-200.000	0.006	0.068
-261.209	115.276	0.103	-0.124
-260.195	-107.704	0.114	0.025
-259.180	-82.144	-0.283	0.091
-258.165	104.622	-0.203	-0.236
-257.151	-69.969	0.364	-0.137
-256.136	-75.834	-0.180	-0.063
-255.122	158.192	-0.107	0.147
-254.107	133.904	-0.132	-0.169
-253.092	361.385	-0.075	0.149
-252.078	800.000	0.059	-0.210
-251.063	-200.000	-0.046	-0.300
-250.049	-118.271	-0.149	-0.026
-249.034	-31.563	0.221	0.123
-248.019	-200.000	-0.005	0.031
-247.005	164.443	-0.140	0.195
-245.990	28.258	-0.244	-0.204
-244.976	-122.313	-0.125	0.020
-243.961	20.902	0.165	-0.132
-242.946	7.137	-0.111	0.082
-241.932	25.656	0.087	0.072
-240.917	140.563	0.064	0.084
-239.903	-122.534	0.295	-0.047
-238.888	-97.035	0.084	-0.022
-237.873	192.680	0.192	-0.287
-236.859	-200.000	-0.025	-0.169
-235.844	85.548	-0.114	0.124
-234.830	223.777	0.113	0.180
-233.815	311.215	-0.129	-0.239
-232.800	-200.000	0.022	0.175
-231.786	800.000	-0.036	-0.101
-230.771	-151.861	0.442	-0.032
-229.757	-114.620	-0.124	-0.023
-228.742	40.935	-0.086	0.077
-227.727	126.095	0.165	0.206
-226.713	-200.000	-0.018	-0.276
-225.698	-37.560	0.195	-0.103
-224.684	-200.000	0.018	-0.360
-223.669	800.000	0.085	0.308
-222.655	-75.891	-0.076	0.027
-221.640	74.055	-0.152	0.158
-220.625	-200.000	-0.035	0.161
-219.611	-86.956	-0.310	-0.093
-218.596	270.866	-0.122	-0.213
-217.582	134.821	0.134	-0.172
-216.567	-128.673	0.112	-0.016
-215.552	118.175	-0.146	0.178
-214.538	-200.000	-0.051	0.437
-213.523	-163.359	0.317	0.015
-212.509	-128.299	-0.199	0.028
-211.494	800.000	0.132	0.375
-210.479	-30.053	-0.226	0.127
-209.465	-17.631	-0.327	-0.203
-208.450	31.214	-0.087	0.074
-207.436	35.021	0.215	-0.186
-206.421	-163.795	0.320	-0.015
-205.406	800.000	-0.080	-0.275
-204.392	140.146	0.089	0.116
-203.377	738.018	-0.088	0.232
-202.363	-200.000	-0.030	0.135
-201.348	103.974	-0.242	0.281
-200.333	102.667	0.167	-0.193
-199.319	-99.422	-0.279	0.070
-198.304	-102.688	0.201	0.047
-197.290	-42.356	-0.121	-0.061
-196.275	369.579	0.124	-0.248
-195.260	-163.873	-0.254	0.012
-194.246	-102.012	-0.213	-0.051
-193.231	103.602	0.158	-0.183
-192.217	800.000	0.059	-0.181
-191.202	-200.000	-0.015	-0.300
-190.187	299.748	-0.161	-0.293
-189.173	-200.000	-0.018	0.214
-188.158	-97.828	-0.312	-0.080
-187.144	-13.631	0.195	-0.125
-186.129	-172.475	-0.198	-0.006
-185.114	-97.760	-0.200	-0.051
-184.100	737.090	0.037	-0.097
-183.085	70.704	-0.160	0.164
-182.071	-131.192	0.199	-0.026
-181.056	132.057	-0.266	-0.338
-180.042	-200.000	-0.045	0.332
-179.027	800.000	0.052	0.187
-178.012	30.722	-0.266	0.224
-176.998	-37.706	-0.379	0.199
-175.983	266.304	-0.187	0.323
-174.969	149.054	0.086	0.115
-173.954	-200.000	-0.044	0.339
-172.939	800.000	0.049	0.136
-171.925	-200.000	0.057	-0.286
-170.910	-58.414	0.224	-0.096
-169.896	-19.936	0.150	0.092
-168.881	93.197	-0.403	0.450
-167.866	-200.000	-0.068	0.335
-166.852	-200.000	-0.025	-0.179
-165.837	15.783	-0.330	0.256
-164.823	-152.226	0.154	-0.011
-163.808	124.925	-0.094	-0.117
-162.793	403.225	0.117	0.242
-161.779	-200.000	0.001	0.118
-160.764	-64.831	-0.060	0.024
-159.750	648.221	0.081	-0.205
-158.735	227.800	0.180	0.290
-157.720	-52.699	0.125	0.057
-156.706	16.371	0.168	0.131
-155.691	503.273	-0.120	0.273
-154.677	-200.000	-0.003	0.183
-153.662	-95.351	0.084	-0.022
-152.647	14.715	-0.210	-0.162
-151.633	627.473	0.076	0.190
-150.618	-63.710	-0.348	0.141
-149.604	104.244	-0.184	-0.214
-148.589	-137.424	-0.352	-0.039
-147.574	74.367	-0.353	-0.366
-146.560	-151.929	0.037	0.003
-145.545	619.053	0.032	-0.080
-144.531	126.017	-0.126	-0.157
-143.516	-28.002	-0.315	-0.180
-142.502	-35.898	0.013	0.007
-141.487	325.304	0.198	0.374
-140.472	-46.068	-0.100	0.049
-139.458	138.789	-0.248	0.321
-138.443	-200.000	0.027	-0.355
-137.429	230.852	0.205	-0.331
-136.414	-48.202	0.178	0.085
-135.399	-198.739	0.347	-0.002
-134.385	-47.221	0.385	0.185
-133.370	-113.227	-0.112	0.022
-132.356	61.439	-0.156	-0.153
-131.341	-78.074	0.229	0.078
-130.326	-43.566	0.282	0.140
-129.312	34.109	-0.143	-0.123
-128.297	800.000	0.083	-0.252
-127.283	-62.518	-0.185	-0.076
-126.268	16.894	-0.140	-0.109
-125.253	-119.546	0.197	0.034
-124.239	-188.548	0.205	0.003
-123.224	53.492	0.101	0.096
-122.210	-36.036	0.141	0.075
-121.195	483.994	-0.050	0.112
