DTS Sentinel unit serial number:	SN413079Multiplexer serial number:	ORYXHardware model number:	OX4-SRSoftware version number:	ORYX F/W v4.00 Oryx Data Collector v3.7.2.0data status	okinstallation	princeton_trtdifferential loss correction	single-endedforward channel	channel 2reverse channel	N/Adate	2019/09/19time	04:43:34forward acquisition time	60.00reverse acquisition time	0.00gamma	496.2192k internal	0.2351k external	0.2351temperature offset calibration	1.0017default loss term (dB/km)	0.3790temperature slope calibration	1.0000multiplexer offset coefficient	1.0000multiplexer slope coefficient	1.0000fibre end	0.00T internal ref (°C)	19.94T ext. ref 1 (°C)	0.62T ext. ref 2 (°C)	12.94length (m)	temperature (°C)	Stokes	anti-Stokes-747.200	-40.324	0.136	-0.071
-746.185	-200.000	0.016	0.254
-745.171	33.079	0.095	0.082
-744.156	-190.417	-0.394	-0.004
-743.142	104.315	-0.118	-0.138
-742.127	-200.000	-0.096	0.530
-741.112	82.838	0.131	0.142
-740.098	-122.883	-0.109	-0.017
-739.083	-142.956	0.163	0.016
-738.069	-136.168	-0.198	-0.023
-737.054	-144.507	-0.228	0.021
-736.039	-200.000	-0.040	0.295
-735.025	34.886	0.056	0.049
-734.010	227.913	-0.195	-0.316
-732.996	-142.279	-0.329	-0.032
-731.981	63.154	-0.125	-0.125
-730.966	-77.328	0.329	0.114
-729.952	-200.000	0.095	-0.418
-728.937	-27.847	-0.217	0.125
-727.923	-131.370	-0.202	0.027
-726.908	464.245	-0.042	-0.094
-725.894	-137.745	-0.189	-0.021
-724.879	-200.000	-0.060	0.269
-723.864	-6.838	-0.450	-0.305
-722.850	362.791	0.046	-0.092
-721.835	161.982	-0.239	0.334
-720.821	-43.978	0.193	-0.097
-719.806	-54.943	-0.098	-0.044
-718.791	43.425	-0.133	-0.121
-717.777	-117.180	-0.082	-0.015
-716.762	-200.000	-0.030	-0.160
-715.748	-140.307	0.337	-0.035
-714.733	-80.588	-0.238	0.079
-713.718	-182.340	0.138	0.003
-712.704	-136.674	0.161	-0.019
-711.689	-200.000	-0.010	0.180
-710.675	-33.421	0.142	0.078
-709.660	-66.476	0.228	0.090
-708.645	31.063	0.112	0.096
-707.631	15.307	-0.145	0.113
-706.616	-162.668	-0.124	0.006
-705.602	-150.247	0.294	-0.023
-704.587	-35.542	0.338	-0.183
-703.572	800.000	0.080	-0.248
-702.558	-177.659	-0.074	0.002
-701.543	800.000	0.120	0.364
-700.529	219.819	-0.217	0.347
-699.514	-100.787	-0.126	-0.031
-698.499	-90.206	0.307	0.089
-697.485	800.000	-0.107	-0.392
-696.470	-59.865	0.208	0.089
-695.456	3.796	-0.223	0.162
-694.441	741.077	0.065	0.174
-693.426	800.000	0.153	-0.424
-692.412	800.000	-0.121	0.389
-691.397	-200.000	-0.030	-0.298
-690.383	47.597	-0.101	-0.094
-689.368	42.521	-0.132	-0.119
-688.354	800.000	0.040	0.139
-687.339	-66.005	-0.085	0.034
-686.324	83.873	-0.310	-0.337
-685.310	-36.380	0.024	0.013
-684.295	-87.897	0.097	-0.029
-683.281	-149.476	0.376	-0.030
-682.266	800.000	-0.078	-0.247
-681.251	132.403	-0.128	-0.164
-680.237	146.829	-0.116	-0.156
-679.222	123.259	0.147	-0.184
-678.208	-200.000	-0.068	-0.511
-677.193	-200.000	0.022	-0.335
-676.178	179.575	-0.101	0.147
-675.164	-200.000	0.003	-0.212
-674.149	1.018	-0.274	0.196
-673.135	155.236	0.210	-0.287
-672.120	-200.000	0.040	-0.387
-671.105	-187.976	-0.586	-0.008
-670.091	78.269	-0.060	0.064
-669.076	800.000	-0.064	-0.211
-668.062	-47.538	0.160	-0.077
-667.047	248.625	0.074	0.125
-666.032	-124.941	0.110	-0.017
-665.018	-121.013	0.165	-0.028
-664.003	-200.000	-0.039	-0.346
-662.989	206.707	0.051	0.078
-661.974	-95.612	0.183	0.049
-660.959	-200.000	0.039	-0.264
-659.945	94.168	0.335	-0.378
-658.930	389.619	0.025	0.051
-657.916	-200.000	0.044	0.303
-656.901	363.928	-0.042	-0.084
-655.886	-156.474	0.251	0.016
-654.872	800.000	-0.065	-0.210
-653.857	-166.903	-0.443	-0.018
-652.843	-200.000	0.003	0.275
-651.828	-200.000	-0.032	-0.233
-650.814	800.000	-0.040	-0.160
-649.799	-40.417	0.291	-0.150
-648.784	-66.120	-0.411	0.163
-647.770	-129.396	0.564	-0.078
-646.755	13.663	0.267	-0.206
-645.741	165.563	-0.137	-0.193
-644.726	138.103	0.156	0.203
-643.711	-200.000	0.036	-0.344
-642.697	75.661	0.231	0.243
-641.682	-200.000	-0.013	-0.182
-640.668	800.000	0.056	-0.191
-639.653	-200.000	0.020	0.113
-638.638	-200.000	0.031	0.281
-637.624	128.558	0.242	0.307
-636.609	-13.190	-0.334	-0.216
-635.595	-110.869	-0.106	-0.022
-634.580	-136.847	0.127	0.015
-633.565	87.317	-0.179	0.196
-632.551	-52.325	-0.217	-0.100
-631.536	-17.664	0.121	-0.076
-630.522	800.000	0.041	0.119
-629.507	39.074	-0.261	0.232
-628.492	136.961	-0.122	0.158
-627.478	18.205	0.080	0.063
-626.463	179.260	-0.059	0.085
-625.449	10.601	0.142	0.107
-624.434	62.250	-0.210	-0.208
-623.419	800.000	-0.049	-0.157
-622.405	-92.252	0.184	0.051
-621.390	-200.000	0.005	0.261
-620.376	216.070	0.147	0.233
-619.361	96.141	-0.145	-0.165
-618.346	31.301	-0.132	-0.113
-617.332	-200.000	-0.035	-0.310
-616.317	-200.000	-0.033	0.268
-615.303	-88.444	-0.285	-0.085
-614.288	-104.939	-0.098	-0.022
-613.273	-89.642	-0.068	0.020
-612.259	-84.051	0.209	0.066
-611.244	-79.138	0.266	0.090
-610.230	-200.000	0.055	-0.249
-609.215	-100.868	-0.292	0.071
-608.201	800.000	0.061	-0.187
-607.186	-152.912	-0.285	-0.020
-606.171	-200.000	-0.020	-0.106
-605.157	800.000	0.027	0.077
-604.142	482.018	0.030	0.067
-603.128	449.637	0.042	0.092
-602.113	232.776	0.170	0.278
-601.098	-200.000	-0.011	-0.057
-600.084	0.971	-0.222	0.158
-599.069	800.000	0.035	-0.109
-598.055	-200.000	0.002	-0.062
-597.040	-20.805	-0.084	-0.051
-596.025	-48.480	-0.363	0.173
-595.011	636.851	-0.141	-0.356
-593.996	-6.506	-0.147	-0.099
-592.982	197.684	0.071	-0.108
-591.967	-90.907	0.162	0.046
-590.952	-71.979	-0.436	0.161
-589.938	670.280	0.081	-0.207
-588.923	-5.259	0.094	-0.064
-587.909	-1.295	0.193	0.135
-586.894	-36.608	-0.232	-0.124
-585.879	800.000	-0.018	0.054
-584.865	-153.705	0.120	0.008
-583.850	142.224	-0.124	0.163
-582.836	-32.053	0.342	0.190
-581.821	212.812	0.194	-0.303
-580.806	-120.927	-0.215	0.036
-579.792	104.359	0.057	0.067
-578.777	111.803	-0.289	0.346
-577.763	-200.000	-0.031	0.262
-576.748	-104.084	-0.040	-0.009
-575.733	-52.252	0.435	-0.200
-574.719	-200.000	-0.003	-0.154
-573.704	-200.000	0.003	-0.186
-572.690	-61.084	-0.550	0.230
-571.675	37.774	0.070	-0.062
-570.661	244.341	0.273	-0.455
-569.646	-200.000	0.010	-0.259
-568.631	-5.719	-0.259	0.176
-567.617	-115.078	-0.399	-0.075
-566.602	-122.536	-0.169	0.027
-565.588	-136.745	-0.191	0.022
-564.573	-64.715	-0.321	0.129
-563.558	265.268	-0.033	-0.056
-562.544	-69.847	0.189	0.071
-561.529	-77.765	-0.244	0.084
-560.515	800.000	-0.062	-0.188
-559.500	381.643	0.112	-0.227
-558.485	-200.000	0.042	-0.232
-557.471	-36.465	-0.164	0.088
-556.456	-112.235	0.303	-0.060
-555.442	-125.582	-0.369	-0.055
-554.427	65.777	-0.169	0.169
-553.412	-200.000	-0.036	-0.277
-552.398	-200.000	-0.001	-0.276
-551.383	-200.000	-0.004	-0.094
-550.369	-158.554	0.153	-0.009
-549.354	-2.819	-0.145	-0.100
-548.339	-111.413	-0.121	-0.024
-547.325	-147.322	0.194	0.016
-546.310	295.590	0.153	-0.278
-545.296	800.000	0.100	0.315
-544.281	107.627	-0.190	0.223
-543.266	30.355	0.247	0.209
-542.252	-200.000	0.015	0.157
-541.237	11.774	-0.071	0.054
-540.223	-200.000	-0.016	0.072
-539.208	-200.000	-0.013	-0.215
-538.193	-65.670	0.422	0.167
-537.179	-71.383	-0.400	0.148
-536.164	351.052	-0.109	0.213
-535.150	156.420	0.070	0.096
-534.135	105.920	0.171	-0.200
-533.121	-200.000	-0.028	0.192
-532.106	-84.941	-0.129	0.040
-531.091	-123.235	0.105	0.017
-530.077	98.956	-0.153	-0.175
-529.062	513.286	0.024	0.056
-528.048	460.767	-0.072	-0.159
-527.033	800.000	-0.095	0.266
-526.018	-9.341	-0.349	-0.231
-525.004	-85.595	-0.096	-0.029
-523.989	-168.785	0.195	0.007
-522.975	-45.730	0.230	0.113
-521.960	-22.618	0.205	0.122
-520.945	-162.201	0.363	0.018
-519.931	357.439	-0.096	0.190
-518.916	-117.683	-0.340	-0.061
-517.902	-112.089	0.263	-0.052
-516.887	800.000	-0.070	-0.258
-515.872	109.785	-0.083	0.099
-514.858	-155.262	0.112	-0.007
-513.843	235.668	-0.080	-0.130
-512.829	255.812	-0.212	0.359
-511.814	659.691	0.110	-0.280
-510.799	-156.446	0.250	-0.015
-509.785	34.784	-0.051	0.044
-508.770	414.214	0.078	-0.164
-507.756	-39.147	0.188	0.098
-506.741	800.000	0.127	-0.458
-505.726	113.848	-0.266	0.320
-504.712	-1.681	-0.115	-0.080
-503.697	-77.434	0.503	0.172
-502.683	518.739	-0.039	0.090
-501.668	-117.203	0.125	-0.022
-500.653	138.126	-0.207	0.269
-499.639	800.000	-0.069	0.215
-498.624	38.626	0.090	-0.079
-497.610	13.277	-0.077	-0.059
-496.595	800.000	0.096	-0.282
-495.581	35.976	0.172	-0.149
-494.566	782.368	-0.038	-0.102
-493.551	800.000	-0.065	0.192
-492.537	-9.940	0.096	0.063
-491.522	800.000	-0.012	-0.051
-490.508	800.000	0.136	-0.381
-489.493	-65.724	-0.192	0.076
-488.478	-76.522	0.094	0.033
-487.464	-150.389	-0.217	-0.016
-486.449	-172.940	-0.028	-0.001
-485.435	800.000	0.027	-0.077
-484.420	-101.191	-0.421	0.102
-483.405	-91.435	0.237	-0.067
-482.391	-80.145	-0.459	0.152
-481.376	273.743	0.131	0.229
-480.362	138.534	0.121	0.157
-479.347	-68.794	-0.078	-0.030
-478.332	-200.000	-0.013	-0.057
-477.318	-186.925	-0.379	0.005
-476.303	800.000	0.070	-0.283
-475.289	48.334	0.151	-0.140
-474.274	-62.904	0.151	0.062
-473.259	-200.000	0.026	-0.133
-472.245	233.799	0.052	-0.084
-471.230	-118.755	0.068	-0.012
-470.216	-118.561	0.512	0.089
-469.201	-137.923	0.096	-0.011
-468.186	42.055	-0.116	0.104
-467.172	-128.774	0.126	0.017
-466.157	-64.161	0.215	-0.087
-465.143	177.163	0.021	-0.030
-464.128	-55.928	-0.289	0.127
-463.113	-177.077	0.288	0.007
-462.099	-200.000	0.013	0.423
-461.084	-28.915	0.177	0.100
-460.070	-200.000	-0.055	-0.253
-459.055	126.001	0.054	0.068
-458.040	800.000	-0.134	0.480
-457.026	-200.000	-0.026	0.304
-456.011	-13.491	-0.146	-0.094
-454.997	-64.730	0.145	-0.058
-453.982	132.738	0.139	0.178
-452.968	80.319	-0.063	-0.067
-451.953	15.434	-0.062	-0.048
-450.938	-86.716	0.199	-0.060
-449.924	79.712	0.150	0.159
-448.909	800.000	-0.075	0.276
-447.895	78.309	-0.138	-0.145
-446.880	5.529	-0.178	0.130
-445.865	137.525	-0.103	-0.133
-444.851	-32.487	0.307	0.169
-443.836	-111.289	-0.193	0.039
-442.822	663.399	-0.043	0.109
-441.807	286.512	0.043	-0.076
-440.792	364.061	-0.074	-0.147
-439.778	-200.000	0.030	0.269
-438.763	66.721	-0.149	-0.149
-437.749	65.006	0.047	0.047
-436.734	-38.519	-0.173	-0.090
-435.719	800.000	0.074	-0.203
-434.705	225.045	-0.078	0.124
-433.690	-85.651	0.485	0.148
-432.676	800.000	0.127	0.366
-431.661	-200.000	-0.014	0.108
-430.646	800.000	-0.034	-0.110
-429.632	-156.990	-0.167	-0.010
-428.617	76.370	-0.149	-0.155
-427.603	-133.682	-0.103	-0.013
-426.588	-61.924	-0.048	-0.020
-425.573	-6.350	-0.138	0.093
-424.559	316.908	0.039	-0.073
-423.544	-170.123	-0.169	-0.006
-422.530	511.675	0.081	0.187
-421.515	-144.559	-0.342	-0.031
-420.500	-200.000	0.014	0.085
-419.486	49.560	-0.150	0.139
-418.471	-51.607	0.175	0.080
-417.457	-122.637	-0.474	0.076
-416.442	800.000	-0.017	-0.050
-415.428	44.368	-0.077	-0.070
-414.413	614.833	-0.102	-0.252
-413.398	-17.223	0.358	-0.222
-412.384	724.535	0.076	-0.199
-411.369	800.000	0.041	-0.171
-410.355	-24.335	0.081	0.048
-409.340	-49.989	-0.132	-0.062
-408.325	-121.131	-0.200	0.033
-407.311	46.576	0.220	-0.201
-406.296	379.399	-0.066	-0.132
-405.282	-120.869	-0.198	-0.033
-404.267	107.397	0.197	0.231
-403.252	-105.005	0.251	0.057
-402.238	-85.806	0.109	0.033
-401.223	-200.000	0.013	0.312
-400.209	-96.134	-0.153	-0.040
-399.194	-200.000	-0.028	-0.283
-398.179	-38.974	-0.290	0.150
-397.165	-110.874	0.127	0.026
-396.150	33.359	-0.029	0.025
-395.136	-96.744	0.104	-0.027
-394.121	-200.000	0.055	-0.244
-393.106	24.609	-0.272	-0.222
-392.092	130.966	-0.188	-0.238
-391.077	3.401	-0.095	-0.068
-390.063	-61.170	0.255	-0.106
-389.048	488.311	-0.149	0.335
-388.033	-200.000	-0.013	-0.261
-387.019	-156.079	0.086	0.005
-386.004	-200.000	-0.156	0.001
-384.990	16.170	0.200	-0.155
-383.975	441.682	-0.137	-0.295
-382.960	540.718	0.140	-0.328
-381.946	388.806	-0.086	-0.176
-380.931	-64.170	0.234	0.094
-379.917	242.179	0.168	0.277
-378.902	-6.686	-0.170	-0.114
-377.888	796.159	-0.072	0.196
-376.873	49.193	-0.101	-0.094
-375.858	133.199	-0.111	0.141
-374.844	394.499	0.006	0.013
-373.829	-200.000	-0.008	-0.094
-372.815	-92.787	-0.110	0.030
-371.800	361.878	-0.142	-0.280
-370.785	-54.931	0.146	-0.065
-369.771	-200.000	0.066	-0.403
-368.756	-122.493	0.228	0.037
-367.742	465.041	0.174	0.382
-366.727	148.090	0.011	-0.015
-365.712	-29.915	0.276	0.155
-364.698	612.253	-0.031	-0.075
-363.683	-71.023	0.059	-0.022
-362.669	-200.000	0.010	0.207
-361.654	-184.800	0.085	0.001
-360.639	-56.152	-0.142	-0.062
-359.625	-76.695	0.230	-0.079
-358.610	-16.840	-0.268	0.166
-357.596	-94.428	0.121	-0.032
-356.581	-79.910	0.258	0.085
-355.566	-200.000	0.076	0.334
-354.552	219.559	-0.077	0.122
-353.537	800.000	-0.053	0.210
-352.523	-200.000	-0.025	-0.117
-351.508	63.099	0.096	-0.094
-350.493	-157.142	0.373	0.022
-349.479	23.203	0.183	0.148
-348.464	38.832	-0.056	-0.050
-347.450	-200.000	0.010	0.298
-346.435	-77.126	-0.229	0.078
-345.420	77.262	-0.278	0.290
-344.406	800.000	0.077	0.256
-343.391	41.286	0.246	0.218
-342.377	400.341	0.024	-0.050
-341.362	-57.664	0.231	-0.099
-340.348	-78.813	-0.289	-0.097
-339.333	17.869	0.267	0.209
-338.318	-200.000	-0.044	-0.320
-337.304	800.000	-0.059	0.225
-336.289	-78.171	0.206	-0.070
-335.275	78.792	-0.124	-0.130
-334.260	800.000	0.060	-0.180
-333.245	-67.197	-0.303	0.117
-332.231	516.844	-0.019	-0.045
-331.216	-20.225	-0.208	0.126
-330.202	-200.000	-0.042	0.205
-329.187	-200.000	-0.017	0.100
-328.172	-151.122	-0.209	-0.015
-327.158	374.207	0.040	-0.079
-326.143	-134.900	0.170	-0.020
-325.129	-94.545	0.195	0.052
-324.114	-169.508	0.340	0.012
-323.099	707.764	-0.081	-0.211
-322.085	-28.725	-0.350	-0.198
-321.070	176.475	0.161	-0.230
-320.056	-124.857	0.290	-0.044
-319.041	-74.056	-0.136	0.048
-318.026	-94.052	-0.059	-0.016
-317.012	-107.238	0.290	-0.063
-315.997	444.018	0.096	0.206
-314.983	230.848	0.151	-0.243
-313.968	-200.000	-0.042	0.370
-312.953	-98.470	0.255	0.064
-311.939	-150.002	-0.161	-0.012
-310.924	32.846	-0.104	0.088
-309.910	5.701	0.131	0.095
-308.895	127.284	-0.190	-0.237
-307.880	-126.133	0.052	-0.008
-306.866	-200.000	0.071	0.436
-305.851	-104.635	0.112	0.025
-304.837	-68.918	0.325	-0.123
-303.822	800.000	-0.069	-0.263
-302.807	-24.785	-0.243	0.142
-301.793	75.058	0.185	0.191
-300.778	-200.000	-0.024	-0.126
-299.764	17.701	0.209	0.163
-298.749	0.725	0.385	0.270
-297.735	430.136	-0.155	-0.328
-296.720	-81.372	-0.090	-0.029
-295.705	-200.000	-0.057	-0.260
-294.691	-103.737	-0.205	-0.047
-293.676	34.888	0.094	0.081
-292.662	800.000	-0.083	-0.259
-291.647	210.112	-0.068	-0.105
-290.632	-73.266	-0.218	-0.078
-289.618	787.970	-0.090	-0.242
-288.603	159.110	-0.157	0.214
-287.589	47.452	-0.009	0.008
-286.574	62.964	-0.195	-0.191
-285.559	800.000	0.006	-0.023
-284.545	446.170	0.096	-0.206
-283.530	-47.211	-0.075	-0.036
-282.516	-104.658	0.154	-0.035
-281.501	-120.592	0.175	0.029
-280.486	-26.150	-0.221	-0.127
-279.472	369.308	0.063	-0.125
-278.457	234.072	0.039	0.062
-277.443	-180.093	-0.323	0.007
-276.428	532.242	-0.011	0.026
-275.413	-200.000	0.000	-0.179
-274.399	86.139	-0.102	-0.110
-273.384	-90.748	0.540	-0.153
-272.370	320.261	-0.147	-0.273
-271.355	-200.000	0.009	-0.058
-270.340	-79.603	0.316	-0.105
-269.326	133.064	-0.132	0.167
-268.311	391.988	-0.099	0.202
-267.297	-200.000	-0.009	-0.052
-266.282	-82.157	-0.246	0.079
-265.267	726.441	-0.099	0.260
-264.253	115.754	-0.265	0.317
-263.238	257.225	0.041	-0.070
-262.224	71.679	-0.265	-0.270
-261.209	418.890	-0.050	-0.105
-260.195	-200.000	0.003	0.123
-259.180	800.000	-0.059	-0.225
-258.165	-200.000	-0.038	-0.180
-257.151	158.266	-0.162	-0.220
-256.136	334.034	0.175	-0.331
-255.122	-9.062	-0.032	0.021
-254.107	800.000	0.104	-0.304
-253.092	-88.374	0.230	-0.067
-252.078	10.770	-0.087	-0.065
-251.063	-56.734	-0.156	0.068
-250.049	-68.373	0.197	0.075
-249.034	193.696	0.083	-0.122
-248.019	-200.000	-0.002	0.158
-247.005	527.111	-0.157	0.363
-245.990	20.965	0.210	0.167
-244.976	-82.189	0.339	0.108
-243.961	5.887	-0.111	0.081
-242.946	-200.000	-0.035	0.163
-241.932	-53.256	0.196	-0.088
-240.917	332.012	0.155	-0.293
-239.903	2.312	0.160	-0.113
-238.888	800.000	-0.042	0.138
-237.873	70.355	-0.030	0.030
-236.859	468.356	0.119	-0.262
-235.844	242.578	0.078	-0.128
-234.830	466.557	-0.176	0.386
-233.815	-106.680	0.093	0.020
-232.800	4.037	0.228	-0.163
-231.786	-15.745	0.286	0.178
-230.771	605.050	-0.123	0.299
-229.757	-15.972	-0.270	0.168
-228.742	18.663	0.263	0.205
-227.727	-39.059	-0.351	0.181
-226.713	253.610	0.168	-0.281
-225.698	151.382	-0.182	-0.243
-224.684	13.406	-0.306	-0.232
-223.669	401.647	0.029	-0.060
-222.655	-200.000	-0.004	0.277
-221.640	120.951	0.053	0.064
-220.625	-133.785	0.267	-0.032
-219.611	-200.000	0.018	0.310
-218.596	-118.420	-0.186	-0.032
-217.582	85.827	0.138	-0.148
-216.567	120.061	0.107	0.130
-215.552	42.572	0.094	0.084
-214.538	154.036	-0.096	-0.129
-213.523	-123.338	-0.259	0.040
-212.509	312.908	-0.153	-0.281
-211.494	212.658	0.086	-0.132
-210.479	222.712	-0.166	0.262
-209.465	-200.000	-0.027	-0.191
-208.450	-200.000	-0.046	0.207
-207.436	-200.000	-0.000	-0.285
-206.421	-21.620	0.123	-0.073
-205.406	5.208	0.090	-0.065
-204.392	-200.000	0.022	-0.181
-203.377	-27.938	0.213	0.120
-202.363	62.074	0.277	0.269
-201.348	163.993	-0.162	0.222
-200.333	-110.525	-0.057	-0.012
-199.319	244.861	-0.054	0.089
-198.304	-149.138	0.226	0.018
-197.290	46.078	-0.045	0.040
-196.275	-200.000	0.001	0.187
-195.260	0.043	-0.152	0.105
-194.246	45.449	-0.154	0.139
-193.231	-14.800	-0.185	-0.116
-192.217	-200.000	0.031	0.436
-191.202	117.124	-0.191	0.229
-190.187	294.746	-0.124	0.222
-189.173	447.576	0.120	0.258
-188.158	-72.470	0.097	-0.035
-187.144	-11.842	-0.371	0.237
-186.129	393.734	0.008	-0.017
-185.114	-125.482	0.366	-0.054
-184.100	800.000	-0.100	-0.347
-183.085	335.616	-0.125	0.237
-182.071	-124.866	0.087	0.013
-181.056	800.000	0.026	-0.093
-180.042	89.342	-0.084	0.091
-179.027	-14.131	0.190	-0.120
-178.012	800.000	-0.029	0.084
-176.998	-189.978	0.217	-0.002
-175.983	129.541	0.198	-0.247
-174.969	159.056	0.131	0.178
-173.954	-138.480	-0.161	-0.017
-172.939	-200.000	0.048	-0.247
-171.925	800.000	0.046	-0.176
-170.910	-200.000	0.070	-0.308
-169.896	27.063	0.239	0.196
-168.881	190.697	-0.162	0.238
-167.866	-200.000	0.066	0.380
-166.852	-144.934	0.201	0.018
-165.837	-79.706	0.107	-0.035
-164.823	22.196	-0.218	0.174
-163.808	529.571	-0.051	-0.117
-162.793	742.037	-0.070	-0.183
-161.779	-160.494	0.364	0.019
-160.764	-75.622	-0.308	0.107
-159.750	-18.981	-0.148	-0.090
-158.735	203.610	0.069	-0.104
-157.720	-69.072	-0.291	-0.109
-156.706	592.031	0.121	-0.292
-155.691	164.288	-0.076	-0.104
-154.677	-200.000	-0.047	-0.255
-153.662	-109.161	0.173	0.036
-152.647	-115.731	0.287	-0.052
-151.633	800.000	-0.057	-0.206
-150.618	124.032	-0.219	-0.268
-149.604	-72.583	0.258	-0.093
-148.589	-104.965	-0.177	0.040
-147.574	444.125	0.134	0.287
-146.560	244.979	-0.111	0.182
-145.545	429.070	0.091	0.191
-144.531	-168.082	-0.129	-0.005
-143.516	-115.756	-0.177	0.032
-142.502	-62.194	0.101	-0.041
-141.487	159.347	-0.112	0.152
-140.472	261.020	0.032	-0.055
-139.458	-200.000	-0.069	-0.334
-138.443	800.000	-0.095	0.370
-137.429	-51.783	-0.167	0.076
-136.414	-200.000	-0.004	0.120
-135.399	-109.206	0.327	0.068
-134.385	800.000	-0.064	0.183
-133.370	368.474	-0.063	0.124
-132.356	-200.000	-0.019	0.115
-131.341	226.303	0.071	-0.112
-130.326	-200.000	-0.010	0.230
-129.312	-171.318	-0.099	-0.003
-128.297	774.887	0.045	0.121
-127.283	-200.000	-0.002	-0.048
-126.268	-120.910	0.236	0.039
-125.253	-200.000	-0.020	-0.145
-124.239	-140.690	0.233	0.023
-123.224	-200.000	-0.017	0.080
-122.210	-83.444	-0.090	0.028
