DTS Sentinel unit serial number:	SN413079Multiplexer serial number:	ORYXHardware model number:	OX4-SRSoftware version number:	ORYX F/W v4.00 Oryx Data Collector v3.7.2.0data status	okinstallation	princeton_trtdifferential loss correction	single-endedforward channel	channel 2reverse channel	N/Adate	2019/09/16time	22:55:35forward acquisition time	60.00reverse acquisition time	0.00gamma	496.2192k internal	0.2329k external	0.2329temperature offset calibration	0.9973default loss term (dB/km)	0.3790temperature slope calibration	1.0000multiplexer offset coefficient	1.0000multiplexer slope coefficient	1.0000fibre end	0.00T internal ref (°C)	30.41T ext. ref 1 (°C)	0.09T ext. ref 2 (°C)	24.02length (m)	temperature (°C)	Stokes	anti-Stokes-747.200	22.854	0.108	0.089
-746.185	-175.947	0.170	0.005
-745.171	-144.507	0.278	-0.026
-744.156	-19.794	-0.311	-0.194
-743.142	-200.000	0.018	0.101
-742.127	-55.263	0.441	-0.200
-741.112	-147.862	0.112	-0.009
-740.098	-200.000	-0.089	0.526
-739.083	-200.000	0.020	-0.340
-738.069	-37.558	-0.193	-0.104
-737.054	-24.971	0.185	-0.110
-736.039	-141.868	-0.213	0.021
-735.025	-20.099	-0.307	0.190
-734.010	-85.967	-0.208	-0.065
-732.996	123.066	0.227	-0.287
-731.981	800.000	-0.126	-0.378
-730.966	-80.115	-0.226	-0.076
-729.952	-200.000	-0.061	-0.278
-728.937	678.448	-0.191	0.500
-727.923	522.737	-0.183	0.432
-726.908	-2.971	0.090	0.063
-725.894	64.856	-0.177	-0.180
-724.879	-200.000	-0.027	-0.309
-723.864	82.112	0.173	-0.189
-722.850	-31.385	-0.377	-0.213
-721.835	44.491	0.245	-0.227
-720.821	-100.700	0.281	-0.070
-719.806	672.818	0.053	0.138
-718.791	-120.027	0.134	0.023
-717.777	-84.636	-0.134	-0.043
-716.762	-146.708	0.187	-0.016
-715.748	279.399	0.063	0.112
-714.733	800.000	0.068	0.202
-713.718	-200.000	-0.008	-0.102
-712.704	-149.336	0.116	-0.009
-711.689	208.478	0.148	0.234
-710.675	187.595	0.083	0.125
-709.660	59.037	-0.065	0.064
-708.645	17.985	0.265	0.212
-707.631	187.413	-0.135	-0.203
-706.616	800.000	-0.025	-0.079
-705.602	-98.832	0.118	-0.030
-704.587	-200.000	-0.070	-0.316
-703.572	156.725	-0.218	-0.303
-702.558	-50.004	-0.063	0.030
-701.543	-12.088	-0.081	0.054
-700.529	-200.000	0.055	-0.250
-699.514	800.000	-0.050	0.154
-698.499	-16.454	0.265	-0.169
-697.485	98.951	0.048	-0.056
-696.470	-3.875	-0.279	-0.195
-695.456	311.692	0.116	-0.219
-694.441	-84.681	-0.043	0.014
-693.426	121.309	-0.190	-0.237
-692.412	-200.000	-0.007	0.239
-691.397	-65.422	-0.300	-0.121
-690.383	724.290	0.090	-0.240
-689.368	3.267	0.187	0.137
-688.354	133.963	-0.123	-0.160
-687.339	-91.050	-0.072	-0.021
-686.324	800.000	-0.135	-0.430
-685.310	-116.011	0.210	0.039
-684.295	136.665	0.194	0.255
-683.281	-200.000	0.122	0.544
-682.266	718.359	-0.090	0.239
-681.251	39.818	0.107	-0.096
-680.237	120.747	-0.361	-0.452
-679.222	-43.987	0.081	0.041
-678.208	-139.209	-0.282	0.031
-677.193	194.149	0.198	0.302
-676.178	-200.000	0.012	0.134
-675.164	56.848	0.322	-0.315
-674.149	-50.885	0.160	0.075
-673.135	-200.000	0.041	0.219
-672.120	-200.000	0.217	0.000
-671.105	800.000	-0.011	0.038
-670.091	199.667	0.128	-0.197
-669.076	54.484	-0.067	0.065
-668.062	27.946	0.154	-0.130
-667.047	-71.618	-0.268	0.101
-666.032	-200.000	0.057	-0.379
-665.018	246.056	0.173	0.293
-664.003	202.534	0.145	0.225
-662.989	-194.407	-0.190	-0.002
-661.974	800.000	-0.054	-0.215
-660.959	-60.144	0.194	-0.083
-659.945	507.424	0.049	0.115
-658.930	101.750	0.087	-0.102
-657.916	-200.000	-0.078	-0.381
-656.901	-70.282	0.233	0.089
-655.886	-104.726	-0.310	0.072
-654.872	19.938	0.144	-0.117
-653.857	-200.000	-0.010	-0.154
-652.843	-156.261	-0.161	-0.010
-651.828	254.916	0.147	-0.252
-650.814	-200.000	-0.023	0.144
-649.799	-112.944	0.241	-0.048
-648.784	78.810	0.331	0.356
-647.770	-147.804	-0.317	0.027
-646.755	560.549	0.095	-0.231
-645.741	-149.906	-0.149	-0.012
-644.726	170.029	0.135	0.194
-643.711	243.167	-0.090	-0.152
-642.697	-90.009	0.350	0.102
-641.682	21.323	-0.049	0.040
-640.668	-78.729	-0.335	0.115
-639.653	-182.472	0.375	-0.007
-638.638	-24.737	0.080	-0.048
-637.624	206.830	-0.225	0.351
-636.609	800.000	0.058	-0.196
-635.595	-85.338	-0.247	0.077
-634.580	-16.461	-0.116	0.074
-633.565	-24.550	0.201	0.120
-632.551	-192.269	-0.426	-0.004
-631.536	-53.243	0.107	-0.049
-630.522	19.605	0.355	-0.286
-629.507	800.000	-0.034	0.110
-628.492	-49.888	-0.227	-0.108
-627.478	-24.928	-0.526	-0.313
-626.463	85.816	0.152	-0.168
-625.449	-154.072	-0.168	0.011
-624.434	355.296	-0.138	-0.275
-623.419	-23.806	-0.352	-0.211
-622.405	-200.000	-0.063	0.317
-621.390	481.050	0.130	-0.296
-620.376	-86.442	0.224	-0.069
-619.361	258.385	-0.036	-0.063
-618.346	70.486	0.142	0.147
-617.332	135.738	-0.140	-0.183
-616.317	800.000	-0.019	0.052
-615.303	103.467	0.096	0.113
-614.288	138.248	0.175	-0.230
-613.273	11.755	-0.212	0.163
-612.259	45.307	0.329	-0.304
-611.244	-107.714	-0.293	0.064
-610.230	11.318	-0.155	0.119
-609.215	-7.345	-0.232	0.158
-608.201	264.267	-0.041	-0.071
-607.186	-200.000	-0.038	0.184
-606.171	-82.715	0.173	0.056
-605.157	-200.000	-0.053	-0.254
-604.142	-64.836	-0.046	-0.019
-603.128	-10.693	-0.372	0.247
-602.113	-48.718	-0.334	-0.161
-601.098	-16.832	0.237	-0.150
-600.084	132.305	-0.054	-0.070
-599.069	125.370	-0.160	0.202
-598.055	329.003	-0.180	-0.347
-597.040	337.502	-0.223	0.434
-596.025	-111.484	-0.182	-0.037
-595.011	-30.050	0.286	-0.163
-593.996	194.876	0.094	-0.142
-592.982	800.000	-0.060	-0.199
-591.967	-101.628	0.121	-0.029
-590.952	2.276	0.381	0.276
-589.938	-200.000	-0.032	-0.176
-588.923	-200.000	0.016	-0.473
-587.909	-152.987	0.146	0.010
-586.894	191.398	-0.053	-0.080
-585.879	-200.000	0.010	-0.183
-584.865	-200.000	-0.063	-0.317
-583.850	26.136	-0.065	0.055
-582.836	2.101	0.172	-0.124
-581.821	-105.375	-0.185	-0.042
-580.806	-109.408	0.281	-0.060
-579.792	-200.000	0.006	-0.053
-578.777	-92.480	-0.346	-0.097
-577.763	-200.000	-0.009	-0.044
-576.748	-22.798	0.139	0.084
-575.733	3.686	0.111	-0.081
-574.719	-118.090	-0.309	0.055
-573.704	-36.691	-0.355	-0.191
-572.690	413.988	-0.075	0.160
-571.675	95.349	-0.130	-0.148
-570.661	126.433	0.258	-0.327
-569.646	-89.319	-0.412	-0.122
-568.631	66.297	0.052	0.053
-567.617	-45.901	-0.242	-0.120
-566.602	-74.837	0.231	0.083
-565.588	-170.624	0.324	0.011
-564.573	241.789	-0.037	0.062
-563.558	186.340	-0.089	-0.132
-562.544	347.595	0.063	-0.124
-561.529	-127.148	-0.450	-0.066
-560.515	-53.134	0.172	0.079
-559.500	-84.563	0.392	0.124
-558.485	158.380	0.089	0.123
-557.471	233.645	0.122	0.201
-556.456	-43.582	-0.050	-0.025
-555.442	-58.888	0.006	0.003
-554.427	-79.251	-0.217	-0.074
-553.412	-140.791	0.169	0.017
-552.398	-200.000	-0.001	-0.022
-551.383	76.204	-0.343	-0.363
-550.369	189.069	0.036	0.053
-549.354	-39.694	-0.248	-0.130
-548.339	800.000	-0.050	0.139
-547.325	-84.395	0.103	0.032
-546.310	-119.175	-0.206	0.036
-545.296	-1.949	0.298	-0.209
-544.281	-110.196	-0.247	0.052
-543.266	118.797	0.103	0.128
-542.252	-200.000	0.053	0.675
-541.237	-200.000	0.010	-0.402
-540.223	-150.656	-0.185	0.014
-539.208	44.394	0.060	-0.055
-538.193	-169.352	-0.062	0.002
-537.179	-111.497	-0.157	-0.032
-536.164	-69.263	-0.195	0.075
-535.150	-200.000	0.022	-0.118
-534.135	-58.858	0.090	-0.039
-533.121	-32.452	-0.255	-0.142
-532.106	297.546	0.093	0.171
-531.091	297.981	-0.198	0.363
-530.077	-69.488	0.268	0.103
-529.062	-200.000	-0.031	0.168
-528.048	-68.260	-0.116	0.045
-527.033	-200.000	-0.018	0.135
-526.018	454.850	-0.135	-0.298
-525.004	-100.096	-0.436	0.108
-523.989	-59.770	0.166	-0.071
-522.975	-24.289	-0.100	0.060
-521.960	-77.285	-0.362	-0.126
-520.945	-200.000	0.014	0.176
-519.931	-89.195	-0.108	0.032
-518.916	-84.333	0.190	-0.060
-517.902	135.287	-0.096	0.125
-516.887	70.496	-0.166	-0.171
-515.872	-200.000	0.009	-0.107
-514.858	-46.230	0.290	0.142
-513.843	198.904	0.133	0.203
-512.829	-98.166	0.340	0.087
-511.814	-107.826	0.219	0.048
-510.799	-11.139	0.249	-0.164
-509.785	-200.000	0.063	-0.299
-508.770	-77.850	-0.148	0.051
-507.756	331.758	0.159	0.307
-506.741	800.000	-0.032	0.112
-505.726	800.000	-0.028	-0.093
-504.712	-53.300	0.066	0.030
-503.697	-10.584	0.215	-0.142
-502.683	8.154	0.254	-0.190
-501.668	-37.537	-0.180	0.096
-500.653	-26.577	-0.024	-0.014
-499.639	-120.735	0.238	0.040
-498.624	241.251	-0.071	0.119
-497.610	-200.000	0.009	0.096
-496.595	180.477	-0.072	-0.105
-495.581	-76.945	0.168	-0.058
-494.566	800.000	0.049	0.160
-493.551	136.573	-0.087	0.114
-492.537	-3.096	-0.175	-0.122
-491.522	800.000	0.067	-0.194
-490.508	383.277	-0.174	-0.356
-489.493	-98.715	-0.508	-0.129
-488.478	-124.500	-0.213	-0.033
-487.464	438.900	-0.058	-0.126
-486.449	44.830	-0.099	-0.091
-485.435	272.120	0.227	-0.398
-484.420	-200.000	-0.010	-0.142
-483.405	5.509	-0.385	0.284
-482.391	85.041	0.130	-0.142
-481.376	567.676	-0.061	0.149
-480.362	44.225	-0.043	-0.039
-479.347	-91.488	0.040	-0.011
-478.332	-82.868	0.237	-0.076
-477.318	-200.000	-0.036	-0.275
-476.303	174.577	0.090	-0.130
-475.289	-200.000	-0.026	0.177
-474.274	-95.867	-0.263	0.070
-473.259	-134.950	0.148	0.018
-472.245	295.507	0.155	-0.283
-471.230	-23.523	-0.245	0.147
-470.216	276.305	0.121	0.213
-469.201	800.000	0.023	-0.091
-468.186	-200.000	-0.017	0.086
-467.172	106.898	0.167	-0.197
-466.157	110.772	-0.137	-0.164
-465.143	-15.889	0.236	-0.150
-464.128	-200.000	0.009	-0.180
-463.113	-200.000	-0.025	-0.156
-462.099	-94.920	0.099	0.027
-461.084	119.461	0.086	-0.106
-460.070	-26.843	-0.087	0.051
-459.055	-200.000	0.016	-0.115
-458.040	-97.233	-0.184	0.048
-457.026	-200.000	-0.006	0.292
-456.011	-169.180	-0.280	0.010
-454.997	114.236	0.074	-0.090
-453.982	479.384	0.095	-0.214
-452.968	800.000	-0.070	-0.218
-451.953	97.964	0.102	0.117
-450.938	226.599	0.152	-0.246
-449.924	-12.760	-0.201	-0.131
-448.909	-53.550	-0.146	-0.067
-447.895	111.695	-0.126	0.152
-446.880	670.402	-0.109	0.282
-445.865	-200.000	-0.002	-0.346
-444.851	-200.000	0.027	0.240
-443.836	-50.918	-0.160	-0.075
-442.822	800.000	-0.015	-0.046
-441.807	48.947	-0.263	-0.245
-440.792	-130.835	-0.134	-0.018
-439.778	407.921	0.048	-0.100
-438.763	-200.000	-0.027	0.157
-437.749	-114.632	0.344	-0.066
-436.734	-200.000	0.003	-0.389
-435.719	409.062	-0.098	-0.207
-434.705	-152.741	0.434	0.031
-433.690	-110.599	0.087	0.018
-432.676	-129.836	-0.242	0.033
-431.661	-79.828	0.141	0.047
-430.646	-200.000	0.014	-0.105
-429.632	-200.000	0.068	-0.470
-428.617	-200.000	0.044	-0.348
-427.603	12.041	0.316	-0.242
-426.588	-15.284	0.266	0.170
-425.573	-52.644	-0.124	0.057
-424.559	-74.849	0.085	-0.030
-423.544	-154.720	-0.077	-0.005
-422.530	-114.813	-0.075	0.014
-421.515	800.000	-0.073	-0.215
-420.500	-200.000	-0.381	0.001
-419.486	494.760	0.146	0.333
-418.471	-109.666	0.232	0.049
-417.457	800.000	0.109	-0.413
-416.442	-35.106	-0.249	-0.135
-415.428	-200.000	0.034	0.186
-414.413	-60.192	-0.272	0.115
-413.398	165.265	0.202	0.284
-412.384	21.287	-0.173	-0.140
-411.369	800.000	0.035	-0.143
-410.355	25.349	0.098	0.081
-409.340	-200.000	0.051	-0.331
-408.325	734.480	-0.030	-0.081
-407.311	800.000	-0.013	-0.038
-406.296	-150.337	-0.195	-0.015
-405.282	800.000	-0.157	0.510
-404.267	-71.829	0.331	-0.122
-403.252	22.682	0.226	0.184
-402.238	-35.616	0.149	-0.080
-401.223	-86.887	0.193	0.059
-400.209	800.000	-0.065	-0.201
-399.194	115.615	-0.244	0.296
-398.179	201.925	0.126	0.193
-397.165	-200.000	0.029	0.269
-396.150	27.996	0.096	0.081
-395.136	366.290	0.191	0.382
-394.121	-47.676	-0.376	-0.181
-393.106	176.756	0.132	-0.190
-392.092	739.407	-0.054	-0.145
-391.077	-46.173	-0.236	0.115
-390.063	185.645	0.165	0.243
-389.048	-49.024	0.129	0.061
-388.033	-200.000	-0.037	0.235
-387.019	-1.360	0.132	0.093
-386.004	-112.884	-0.176	0.035
-384.990	-162.173	0.061	-0.003
-383.975	-108.023	-0.107	0.023
-382.960	453.191	0.067	0.147
-381.946	-200.000	0.026	-0.132
-380.931	800.000	-0.074	0.211
-379.917	-108.484	-0.102	-0.022
-378.902	800.000	0.121	-0.514
-377.888	-176.023	0.509	0.013
-376.873	389.021	0.252	0.518
-375.858	800.000	0.004	-0.016
-374.844	800.000	0.080	0.325
-373.829	529.867	-0.086	0.201
-372.815	468.761	-0.079	0.177
-371.800	-30.488	-0.090	0.051
-370.785	-2.197	-0.081	0.057
-369.771	-200.000	0.005	-0.038
-368.756	376.968	-0.115	0.234
-367.742	-200.000	-0.008	-0.037
-366.727	62.449	0.181	-0.180
-365.712	-72.264	0.331	-0.122
-364.698	18.665	0.239	-0.190
-363.683	800.000	-0.040	0.122
-362.669	-132.175	-0.281	-0.036
-361.654	-119.388	-0.121	0.021
-360.639	794.635	0.043	0.116
-359.625	800.000	0.081	0.246
-358.610	116.358	0.213	0.259
-357.596	-200.000	-0.049	-0.284
-356.581	-60.447	-0.202	-0.085
-355.566	-120.926	-0.182	-0.030
-354.552	-86.755	0.266	0.081
-353.537	-200.000	0.001	0.081
-352.523	-92.984	0.172	0.048
-351.508	-37.479	-0.476	0.252
-350.493	71.710	0.070	-0.072
-349.479	164.947	-0.123	0.172
-348.464	800.000	0.088	0.339
-347.450	95.972	-0.056	0.063
-346.435	-200.000	0.031	0.189
-345.420	76.083	-0.196	-0.206
-344.406	-16.587	-0.221	0.139
-343.391	-6.655	-0.144	-0.097
-342.377	-39.989	0.273	0.141
-341.362	-200.000	0.010	-0.383
-340.348	800.000	0.005	-0.017
-339.333	800.000	0.029	0.085
-338.318	285.358	-0.131	-0.235
-337.304	761.593	0.065	-0.176
-336.289	23.075	-0.066	-0.054
-335.275	800.000	-0.014	0.059
-334.260	350.956	-0.164	0.321
-333.245	-70.694	-0.148	-0.055
-332.231	800.000	-0.069	0.277
-331.216	-39.352	0.399	-0.207
-330.202	347.268	-0.159	0.310
-329.187	800.000	0.065	0.227
-328.172	15.914	-0.154	0.120
-327.158	-96.737	0.063	-0.016
-326.143	-200.000	0.072	0.389
-325.129	-49.340	-0.093	-0.044
-324.114	-34.277	0.256	0.139
-323.099	-6.232	0.289	0.196
-322.085	112.049	0.219	-0.262
-321.070	-200.000	-0.010	0.214
-320.056	-200.000	-0.003	0.021
-319.041	134.761	-0.045	0.057
-318.026	-200.000	0.037	-0.206
-317.012	-60.618	-0.290	-0.122
-315.997	256.455	-0.080	-0.136
-314.983	-14.243	-0.159	-0.102
-313.968	-87.035	0.251	0.076
-312.953	-121.018	0.169	-0.028
-311.939	-200.000	-0.014	0.266
-310.924	-151.147	0.177	-0.013
-309.910	797.816	-0.093	-0.254
-308.895	551.723	0.104	-0.248
-307.880	-160.517	-0.122	0.006
-306.866	-23.406	0.132	0.078
-305.851	193.888	0.267	-0.400
-304.837	-200.000	0.034	0.436
-303.822	-31.649	-0.211	0.117
-302.807	-110.340	-0.353	-0.073
-301.793	800.000	0.163	0.660
-300.778	620.536	0.127	0.315
-299.764	48.072	0.134	0.124
-298.749	635.081	0.015	0.038
-297.735	-67.052	0.151	0.059
-296.720	77.283	0.244	0.257
-295.705	-200.000	0.024	0.213
-294.691	-44.962	0.178	0.088
-293.676	800.000	0.130	0.403
-292.662	-45.961	-0.256	0.125
-291.647	52.280	0.267	0.252
-290.632	-200.000	0.056	0.272
-289.618	-9.711	0.331	0.218
-288.603	800.000	0.022	-0.084
-287.589	-5.653	0.150	-0.102
-286.574	-200.000	0.053	-0.238
-285.559	118.029	-0.140	0.171
-284.545	-38.153	0.035	-0.018
-283.530	259.176	-0.144	-0.245
-282.516	800.000	-0.017	-0.055
-281.501	-177.705	-0.376	0.009
-280.486	-65.725	0.332	-0.131
-279.472	-150.098	0.179	0.014
-278.457	185.836	0.071	0.104
-277.443	225.312	-0.039	0.062
-276.428	23.776	-0.014	-0.012
-275.413	-95.114	0.170	0.045
-274.399	72.925	0.247	-0.255
-273.384	453.823	-0.116	0.254
-272.370	-126.995	0.185	0.027
-271.355	-200.000	-0.010	-0.308
-270.340	800.000	0.069	-0.197
-269.326	-85.286	-0.201	-0.062
-268.311	-6.612	-0.136	0.091
-267.297	122.941	0.129	0.160
-266.282	-114.566	0.259	0.049
-265.267	226.913	0.120	-0.192
-264.253	-46.677	-0.164	0.079
-263.238	-24.552	0.041	-0.024
-262.224	-63.495	-0.157	0.064
-261.209	-54.749	0.293	0.131
-260.195	205.421	0.141	0.216
-259.180	-102.651	0.286	0.067
-258.165	-73.050	0.093	0.034
-257.151	-110.589	-0.299	0.061
-256.136	-200.000	-0.022	0.309
-255.122	175.727	-0.333	0.477
-254.107	-84.605	0.162	-0.051
-253.092	800.000	-0.073	-0.214
-252.078	439.669	-0.154	-0.331
-251.063	-200.000	-0.045	-0.215
-250.049	56.350	-0.070	-0.067
-249.034	-200.000	-0.001	0.016
-248.019	-144.079	0.249	0.023
-247.005	-89.367	0.129	-0.038
-245.990	657.907	0.126	0.319
-244.976	-37.918	-0.265	-0.139
-243.961	-200.000	-0.008	0.264
-242.946	-200.000	-0.052	-0.397
-241.932	-82.841	0.144	-0.046
-240.917	-69.045	-0.113	0.043
-239.903	800.000	-0.029	-0.088
-238.888	-200.000	-0.065	-0.310
-237.873	23.849	-0.057	0.047
-236.859	621.514	-0.099	-0.246
-235.844	-61.127	0.266	0.111
-234.830	-30.319	0.151	0.085
-233.815	-107.910	0.229	0.049
-232.800	16.980	-0.210	-0.165
-231.786	139.248	-0.071	0.092
-230.771	18.518	0.007	-0.006
-229.757	-136.117	0.006	-0.001
-228.742	-158.787	0.194	0.011
-227.727	40.944	0.255	-0.227
-226.713	14.641	-0.056	-0.043
-225.698	-200.000	-0.129	-0.583
-224.684	-200.000	0.034	-0.151
-223.669	-84.309	-0.261	-0.082
-222.655	427.605	-0.073	0.156
-221.640	-134.549	-0.479	-0.058
-220.625	-88.841	-0.125	-0.037
-219.611	-51.209	0.297	-0.137
-218.596	-97.147	0.237	-0.061
-217.582	209.899	-0.140	0.217
-216.567	126.663	0.291	0.363
-215.552	-81.939	-0.099	-0.032
-214.538	118.283	-0.211	0.257
-213.523	-44.512	0.272	0.134
-212.509	-68.626	-0.155	0.059
-211.494	-200.000	0.068	-0.321
-210.479	38.976	0.070	0.062
-209.465	-200.000	0.011	0.156
-208.450	-40.038	0.237	-0.122
-207.436	-107.198	0.217	0.047
-206.421	-200.000	-0.034	0.156
-205.406	-200.000	-0.017	-0.104
-204.392	-97.574	0.084	-0.021
-203.377	-83.711	0.301	0.095
-202.363	408.168	0.229	0.479
-201.348	800.000	-0.040	0.161
-200.333	-17.582	-0.152	0.094
-199.319	58.746	-0.089	-0.086
-198.304	-98.314	0.251	-0.063
-197.290	-51.225	0.349	0.161
-196.275	336.056	-0.284	-0.543
-195.260	122.727	-0.181	-0.224
-194.246	-35.160	0.088	-0.047
-193.231	215.593	0.205	0.321
-192.217	-200.000	-0.161	0.000
-191.202	-96.536	0.300	-0.078
-190.187	150.982	-0.098	0.131
-189.173	377.546	0.183	0.368
-188.158	-136.331	-0.335	0.039
-187.144	261.658	0.066	-0.113
-186.129	63.598	0.147	-0.146
-185.114	-104.407	-0.270	0.062
-184.100	-90.463	-0.441	0.126
-183.085	520.804	0.057	-0.131
-182.071	347.741	-0.099	-0.192
-181.056	-110.077	-0.216	-0.044
-180.042	800.000	-0.105	0.399
-179.027	784.906	-0.061	-0.164
-178.012	79.388	-0.066	-0.070
-176.998	371.572	0.171	-0.342
-175.983	196.171	-0.150	-0.224
-174.969	6.896	0.158	0.116
-173.954	-200.000	0.024	-0.193
-172.939	-200.000	0.002	0.051
-171.925	42.971	0.259	-0.232
-170.910	-56.434	-0.125	-0.055
-169.896	361.969	-0.080	-0.157
-168.881	23.301	0.240	0.194
-167.866	288.620	-0.106	0.189
-166.852	-73.798	0.304	0.109
-165.837	-7.121	0.106	0.071
-164.823	-20.449	-0.258	-0.156
-163.808	800.000	0.103	0.350
-162.793	-200.000	-0.009	0.186
-161.779	-108.481	-0.515	0.109
-160.764	-87.672	-0.295	0.088
-159.750	18.128	0.062	-0.049
-158.735	-200.000	0.035	-0.204
-157.720	-29.245	-0.221	-0.124
-156.706	-77.489	-0.076	0.026
-155.691	-77.931	-0.102	-0.035
-154.677	12.117	0.204	-0.154
-153.662	62.793	0.186	0.183
-152.647	416.108	-0.095	0.199
-151.633	800.000	-0.015	0.044
-150.618	-200.000	0.040	-0.234
-149.604	41.591	0.175	-0.156
-148.589	-30.784	0.179	-0.100
-147.574	-103.978	-0.099	0.023
-146.560	127.953	0.135	0.170
-145.545	334.448	0.149	-0.284
-144.531	-73.974	-0.106	0.038
-143.516	-200.000	0.015	-0.224
-142.502	-119.885	0.217	-0.037
-141.487	-14.466	-0.129	0.082
-140.472	-200.000	-0.050	-0.238
-139.458	22.292	0.233	-0.187
-138.443	239.978	-0.069	0.113
-137.429	800.000	0.136	0.392
-136.414	-200.000	-0.016	-0.101
-135.399	12.556	0.078	-0.060
-134.385	502.925	-0.055	-0.126
-133.370	569.962	0.152	0.363
-132.356	146.167	0.057	0.075
-131.341	406.090	-0.120	0.250
-130.326	208.120	-0.255	0.392
-129.312	-89.011	0.342	-0.099
-128.297	-20.526	0.141	-0.085
-127.283	-50.780	-0.018	0.008
-126.268	-200.000	-0.022	0.159
-125.253	-200.000	0.033	-0.168
-124.239	72.917	0.169	0.173
-123.224	-200.000	-0.002	-0.251
-122.210	-200.000	0.012	0.201
