DTS Sentinel unit serial number:	SN413079Multiplexer serial number:	ORYXHardware model number:	OX4-SRSoftware version number:	ORYX F/W v4.00 Oryx Data Collector v3.7.2.0data status	okinstallation	princeton_trtdifferential loss correction	single-endedforward channel	channel 2reverse channel	N/Adate	2019/09/14time	20:03:35forward acquisition time	60.00reverse acquisition time	0.00gamma	496.2192k internal	0.2321k external	0.2321temperature offset calibration	1.0092default loss term (dB/km)	0.3790temperature slope calibration	1.0000multiplexer offset coefficient	1.0000multiplexer slope coefficient	1.0000fibre end	0.00T internal ref (°C)	34.00T ext. ref 1 (°C)	4.87T ext. ref 2 (°C)	28.35length (m)	temperature (°C)	Stokes	anti-Stokes-747.200	-178.388	-0.159	-0.004
-746.185	-200.000	0.060	0.329
-745.171	534.755	-0.052	0.125
-744.156	-200.000	0.047	0.273
-743.142	-34.225	0.190	0.105
-742.127	-29.601	0.245	0.142
-741.112	-36.812	-0.301	-0.164
-740.098	147.171	-0.077	0.104
-739.083	0.650	0.327	-0.236
-738.069	-158.343	-0.521	-0.031
-737.054	-51.551	0.103	0.048
-736.039	-174.625	-0.203	-0.006
-735.025	-119.656	-0.124	0.022
-734.010	470.295	-0.077	-0.176
-732.996	386.214	-0.109	-0.228
-731.981	-200.000	0.009	0.055
-730.966	-58.723	-0.247	0.108
-729.952	393.180	-0.120	0.253
-728.937	-29.778	-0.287	0.165
-727.923	170.277	0.091	-0.131
-726.908	130.944	0.119	-0.154
-725.894	-167.176	-0.310	0.013
-724.879	136.356	-0.309	-0.407
-723.864	-73.647	-0.218	0.080
-722.850	-158.528	-0.321	-0.019
-721.835	-21.795	0.234	-0.144
-720.821	46.969	0.173	0.162
-719.806	-200.000	0.016	0.312
-718.791	373.296	-0.082	0.169
-717.777	226.510	0.096	0.157
-716.762	-200.000	0.006	-0.537
-715.748	196.978	0.126	-0.194
-714.733	-200.000	-0.010	-0.422
-713.718	147.505	-0.236	-0.321
-712.704	800.000	0.048	-0.206
-711.689	-76.767	-0.166	0.059
-710.675	-91.729	0.179	0.051
-709.660	-152.933	-0.184	-0.013
-708.645	-4.850	-0.198	-0.138
-707.631	-166.871	0.302	-0.013
-706.616	51.039	0.112	-0.107
-705.602	229.346	0.138	0.227
-704.587	-200.000	0.007	0.396
-703.572	-153.350	0.077	-0.005
-702.558	-132.892	-0.086	-0.011
-701.543	116.712	-0.182	-0.225
-700.529	-3.985	-0.407	-0.285
-699.514	-200.000	0.054	-0.550
-698.499	25.434	0.241	0.202
-697.485	800.000	0.065	-0.203
-696.470	-162.520	-0.392	0.020
-695.456	166.889	-0.116	0.166
-694.441	-85.578	0.103	-0.032
-693.426	-200.000	0.004	0.113
-692.412	153.573	0.086	0.118
-691.397	-95.343	-0.367	-0.100
-690.383	-46.366	0.190	-0.094
-689.368	-64.745	0.049	-0.020
-688.354	81.427	0.097	0.106
-687.339	5.857	-0.166	-0.124
-686.324	16.589	-0.245	-0.195
-685.310	-122.923	-0.233	0.038
-684.295	-97.999	-0.191	-0.050
-683.281	-99.341	-0.246	-0.063
-682.266	-52.326	-0.128	-0.060
-681.251	-118.606	-0.126	0.023
-680.237	33.789	-0.180	0.158
-679.222	-80.899	-0.211	0.071
-678.208	287.017	-0.046	-0.084
-677.193	76.104	0.049	0.052
-676.178	293.458	0.162	-0.297
-675.164	9.956	-0.052	0.040
-674.149	-200.000	-0.021	0.109
-673.135	-200.000	0.026	0.127
-672.120	800.000	0.062	-0.269
-671.105	71.255	0.179	0.187
-670.091	2.335	0.272	0.199
-669.076	65.280	-0.217	0.222
-668.062	-57.197	-0.281	-0.125
-667.047	49.662	0.183	-0.174
-666.032	800.000	-0.102	-0.338
-665.018	-104.052	-0.106	0.025
-664.003	30.561	0.051	-0.044
-662.989	800.000	-0.113	0.330
-661.974	-18.745	-0.102	0.064
-660.959	23.359	-0.121	-0.100
-659.945	-200.000	0.017	0.094
-658.930	-200.000	-0.038	0.189
-657.916	-200.000	-0.004	-0.199
-656.901	-25.029	0.267	-0.160
-655.886	141.152	-0.178	0.237
-654.872	36.807	0.126	-0.113
-653.857	55.322	-0.048	-0.046
-652.843	1.148	-0.450	0.326
-651.828	-62.186	0.052	-0.022
-650.814	-161.678	-0.169	0.009
-649.799	-118.391	0.033	-0.006
-648.784	423.679	-0.178	-0.384
-647.770	-75.010	-0.170	0.061
-646.755	83.353	0.132	0.144
-645.741	9.564	-0.100	-0.076
-644.726	249.349	0.150	-0.257
-643.711	151.735	-0.138	-0.190
-642.697	-109.973	-0.156	-0.033
-641.682	-114.882	-0.303	-0.058
-640.668	553.573	0.038	0.093
-639.653	283.025	-0.021	-0.037
-638.638	52.377	0.194	-0.186
-637.624	-143.014	-0.480	0.047
-636.609	233.897	0.057	0.094
-635.595	-200.000	-0.079	-0.392
-634.580	-196.522	-0.116	-0.001
-633.565	-128.606	0.111	0.016
-632.551	800.000	0.134	-0.525
-631.536	800.000	0.069	-0.213
-630.522	-78.155	-0.231	0.080
-629.507	-200.000	0.000	-0.156
-628.492	-145.004	0.216	-0.020
-627.478	-152.163	-0.193	0.014
-626.463	367.150	0.019	-0.038
-625.449	86.155	0.120	0.133
-624.434	800.000	-0.060	0.190
-623.419	-122.276	0.132	0.022
-622.405	-200.000	0.023	0.124
-621.390	-200.000	-0.038	-0.399
-620.376	800.000	-0.061	-0.250
-619.361	335.516	-0.143	-0.280
-618.346	-118.454	0.233	0.042
-617.332	171.433	0.281	-0.406
-616.317	308.828	-0.114	-0.215
-615.303	128.780	-0.067	0.086
-614.288	-200.000	0.018	-0.083
-613.273	11.283	0.121	0.093
-612.259	-33.134	0.126	0.070
-611.244	66.764	-0.276	-0.282
-610.230	800.000	0.061	-0.173
-609.215	8.714	-0.119	0.090
-608.201	-164.185	0.052	-0.002
-607.186	800.000	0.036	0.122
-606.171	-200.000	0.018	0.083
-605.157	800.000	0.057	-0.218
-604.142	251.557	0.060	0.103
-603.128	800.000	0.138	-0.453
-602.113	133.454	-0.201	0.261
-601.098	138.181	-0.125	-0.165
-600.084	-200.000	0.014	0.222
-599.069	-65.363	0.028	-0.011
-598.055	-200.000	0.006	0.260
-597.040	-1.914	-0.096	-0.068
-596.025	-110.045	-0.193	-0.041
-595.011	6.691	0.191	0.143
-593.996	235.921	0.116	0.193
-592.982	79.164	0.085	0.092
-591.967	37.313	0.156	-0.139
-590.952	114.642	-0.113	-0.139
-589.938	800.000	-0.063	-0.182
-588.923	32.890	0.170	0.148
-587.909	153.129	-0.106	0.146
-586.894	-41.309	0.171	-0.088
-585.879	-14.059	0.200	-0.130
-584.865	800.000	-0.088	-0.328
-583.850	80.537	-0.240	0.260
-582.836	172.867	-0.239	-0.346
-581.821	-200.000	0.187	0.001
-580.806	-200.000	-0.012	-0.149
-579.792	-155.224	-0.276	0.018
-578.777	356.422	0.086	0.172
-577.763	47.967	0.306	0.288
-576.748	-71.408	0.307	-0.115
-575.733	-200.000	-0.002	0.188
-574.719	-83.160	-0.176	-0.057
-573.704	460.092	0.126	-0.281
-572.690	5.202	-0.064	0.048
-571.675	-55.812	-0.140	-0.063
-570.661	-79.768	0.174	0.059
-569.646	-21.122	-0.471	-0.289
-568.631	125.979	0.051	-0.065
-567.617	-118.235	-0.257	-0.046
-566.602	-112.796	-0.209	-0.042
-565.588	800.000	0.160	-0.656
-564.573	-158.081	0.221	0.013
-563.558	-35.679	0.218	0.118
-562.544	-200.000	0.006	-0.052
-561.529	-29.107	-0.182	-0.105
-560.515	-200.000	-0.052	0.266
-559.500	-7.518	-0.228	0.155
-558.485	800.000	0.041	-0.128
-557.471	-129.986	0.180	-0.025
-556.456	-200.000	0.003	0.175
-555.442	132.395	-0.089	0.115
-554.427	-200.000	0.004	-0.064
-553.412	799.492	-0.050	0.139
-552.398	187.888	0.063	-0.095
-551.383	369.999	-0.099	-0.201
-550.369	-200.000	-0.039	0.210
-549.354	-168.548	-0.100	0.004
-548.339	-35.426	0.181	0.099
-547.325	-98.203	0.211	0.054
-546.310	455.087	-0.134	-0.298
-545.296	-200.000	0.066	0.384
-544.281	6.468	0.252	0.188
-543.266	-130.836	0.227	-0.030
-542.252	-102.415	0.155	0.037
-541.237	-200.000	0.001	-0.143
-540.223	549.397	0.099	0.238
-539.208	-114.203	-0.252	-0.049
-538.193	82.349	0.087	-0.095
-537.179	-74.431	-0.433	-0.157
-536.164	78.144	0.081	0.087
-535.150	-200.000	0.022	-0.259
-534.135	110.501	-0.082	-0.099
-533.121	-144.230	0.157	0.015
-532.106	720.781	-0.113	0.302
-531.091	-158.848	0.074	0.004
-530.077	55.000	0.191	0.185
-529.062	456.722	-0.126	0.280
-528.048	184.225	-0.046	0.069
-527.033	-64.786	-0.281	0.114
-526.018	149.576	0.148	-0.201
-525.004	-177.151	0.115	-0.003
-523.989	-200.000	-0.011	0.386
-522.975	202.210	0.115	-0.178
-521.960	116.383	0.115	0.141
-520.945	115.052	-0.026	0.032
-519.931	-19.179	-0.168	0.105
-518.916	19.156	-0.197	0.159
-517.902	-71.401	0.158	0.059
-516.887	-181.237	-0.242	-0.005
-515.872	800.000	-0.091	-0.266
-514.858	320.210	-0.098	-0.186
-513.843	-176.245	-0.270	0.007
-512.829	-200.000	-0.024	-0.292
-511.814	800.000	-0.080	-0.298
-510.799	27.748	0.132	-0.112
-509.785	-200.000	0.003	0.013
-508.770	196.437	0.065	0.099
-507.756	-200.000	0.242	0.000
-506.741	55.955	0.126	0.122
-505.726	75.704	0.077	0.081
-504.712	-200.000	0.022	0.405
-503.697	-155.515	-0.292	-0.019
-502.683	-19.979	0.287	-0.177
-501.668	800.000	0.043	0.137
-500.653	-24.512	0.207	0.123
-499.639	-109.183	-0.361	0.077
-498.624	188.819	0.088	0.132
-497.610	204.312	-0.052	-0.080
-496.595	47.411	0.153	0.143
-495.581	471.696	-0.034	0.078
-494.566	-200.000	0.014	0.212
-493.551	800.000	0.033	0.116
-492.537	-200.000	0.002	-0.136
-491.522	-116.303	0.272	0.050
-490.508	-200.000	0.001	0.082
-489.493	-34.658	-0.267	0.146
-488.478	800.000	0.027	-0.105
-487.464	152.844	-0.043	-0.058
-486.449	-45.583	-0.081	0.040
-485.435	19.249	-0.246	-0.197
-484.420	-1.041	0.260	-0.184
-483.405	76.919	-0.259	0.276
-482.391	-200.000	0.017	-0.269
-481.376	113.496	0.051	0.061
-480.362	-200.000	-0.107	-0.598
-479.347	96.447	0.022	-0.025
-478.332	61.853	-0.137	-0.137
-477.318	222.054	-0.072	-0.116
-476.303	62.636	0.093	0.093
-475.289	-200.000	0.020	0.405
-474.274	-65.064	-0.054	-0.022
-473.259	504.598	-0.086	0.200
-472.245	-200.000	0.001	-0.057
-471.230	-200.000	-0.009	0.263
-470.216	112.021	-0.012	-0.015
-469.201	-184.083	0.073	-0.001
-468.186	384.540	0.079	0.163
-467.172	368.084	-0.196	0.396
-466.157	515.996	0.116	-0.270
-465.143	25.352	0.106	-0.088
-464.128	310.980	0.180	-0.337
-463.113	-200.000	0.043	0.297
-462.099	110.602	0.202	0.243
-461.084	-200.000	-0.018	0.258
-460.070	-200.000	0.027	-0.221
-459.055	-136.154	0.242	-0.028
-458.040	-200.000	0.050	-0.485
-457.026	-200.000	-0.009	-0.075
-456.011	39.155	0.171	0.153
-454.997	272.831	-0.086	-0.152
-453.982	800.000	-0.097	-0.280
-452.968	59.594	-0.090	0.089
-451.953	-16.072	-0.204	0.130
-450.938	-126.190	-0.277	-0.041
-449.924	-27.248	0.102	0.059
-448.909	-53.314	0.158	-0.072
-447.895	406.226	-0.121	0.255
-446.880	-87.766	-0.213	-0.064
-445.865	62.324	0.117	0.116
-444.851	285.915	-0.090	0.162
-443.836	-128.476	-0.084	-0.012
-442.822	-200.000	0.002	-0.167
-441.807	-24.867	-0.064	0.038
-440.792	-200.000	0.017	0.323
-439.778	-55.435	0.062	0.028
-438.763	-150.767	0.088	0.007
-437.749	11.519	0.119	0.091
-436.734	183.807	0.087	-0.128
-435.719	-40.707	-0.106	-0.055
-434.705	-129.717	0.086	0.012
-433.690	-85.856	0.010	-0.003
-432.676	-200.000	0.262	0.001
-431.661	-190.080	-0.337	-0.004
-430.646	-200.000	-0.025	-0.167
-429.632	66.324	-0.076	0.077
-428.617	90.424	-0.219	-0.245
-427.603	-155.371	0.248	-0.016
-426.588	-129.700	0.198	-0.027
-425.573	-96.979	0.340	-0.089
-424.559	398.596	0.107	0.223
-423.544	145.980	0.207	-0.277
-422.530	14.721	-0.301	-0.235
-421.515	98.757	0.161	-0.185
-420.500	-200.000	0.002	-0.100
-419.486	-118.319	0.109	0.019
-418.471	-48.410	0.182	-0.087
-417.457	-200.000	0.105	-0.603
-416.442	-115.691	0.094	0.018
-415.428	56.957	0.119	0.116
-414.413	-200.000	-0.026	0.199
-413.398	-44.847	-0.112	-0.056
-412.384	-140.749	-0.093	-0.010
-411.369	374.096	-0.138	0.280
-410.355	10.466	-0.242	-0.184
-409.340	-174.521	-0.137	-0.004
-408.325	-200.000	-0.057	-0.286
-407.311	-72.655	-0.241	-0.089
-406.296	374.521	0.061	-0.124
-405.282	-66.200	0.357	-0.142
-404.267	-45.259	0.114	-0.056
-403.252	463.672	0.068	-0.152
-402.238	-200.000	-0.068	0.326
-401.223	474.464	-0.104	0.233
-400.209	800.000	0.057	0.213
-399.194	31.697	0.060	0.051
-398.179	-133.400	-0.195	0.024
-397.165	-5.523	-0.135	-0.093
-396.150	-200.000	-0.003	-0.073
-395.136	800.000	-0.075	0.304
-394.121	133.599	-0.330	0.425
-393.106	-82.528	-0.344	-0.111
-392.092	-200.000	-0.010	0.065
-391.077	260.351	-0.052	0.089
-390.063	-107.416	-0.280	0.061
-389.048	-95.535	0.058	0.016
-388.033	111.371	0.207	0.249
-387.019	154.349	-0.141	0.193
-386.004	63.940	0.176	-0.177
-384.990	74.023	0.291	0.304
-383.975	-149.064	0.158	-0.013
-382.960	101.385	-0.098	0.114
-381.946	181.567	0.147	0.215
-380.931	-75.580	0.055	0.020
-379.917	-33.790	0.183	0.101
-378.902	-42.035	-0.314	0.160
-377.888	226.724	-0.114	-0.184
-376.873	143.703	0.086	0.114
-375.858	-200.000	-0.036	0.404
-374.844	-40.244	0.323	-0.168
-373.829	78.737	0.047	-0.050
-372.815	-140.240	-0.120	0.013
-371.800	10.529	-0.031	-0.023
-370.785	-200.000	0.012	-0.177
-369.771	-110.917	-0.251	-0.051
-368.756	-200.000	0.001	-0.105
-367.742	17.047	0.221	-0.174
-366.727	-93.273	0.120	0.033
-365.712	149.019	-0.133	0.179
-364.698	132.535	0.066	0.085
-363.683	195.948	0.251	-0.380
-362.669	-114.212	0.201	-0.039
-361.654	-13.839	0.015	0.010
-360.639	-135.191	0.276	-0.033
-359.625	-102.699	0.205	-0.049
-358.610	180.115	-0.076	0.110
-357.596	800.000	-0.108	-0.381
-356.581	29.734	0.239	-0.203
-355.566	-63.915	-0.144	0.059
-354.552	-35.240	0.230	0.124
-353.537	-137.969	0.407	-0.045
-352.523	51.205	-0.125	0.118
-351.508	61.193	-0.043	-0.042
-350.493	-200.000	-0.003	0.154
-349.479	-144.965	0.129	0.012
-348.464	-70.083	0.199	0.075
-347.450	78.446	-0.272	0.290
-346.435	33.207	0.195	0.169
-345.420	75.783	0.219	-0.231
-344.406	75.802	-0.180	-0.189
-343.391	114.381	0.098	0.119
-342.377	-200.000	0.018	-0.312
-341.362	-132.952	-0.054	0.007
-340.348	-138.391	0.297	-0.033
-339.333	-117.972	-0.352	-0.063
-338.318	-200.000	0.100	-0.473
-337.304	154.790	-0.079	0.108
-336.289	800.000	0.062	0.237
-335.275	-52.013	0.006	0.003
-334.260	-200.000	0.017	-0.258
-333.245	-74.190	0.343	0.124
-332.231	-200.000	-0.003	0.388
-331.216	161.854	0.075	-0.105
-330.202	-49.655	-0.272	0.129
-329.187	-122.064	-0.095	-0.015
-328.172	-57.629	0.055	0.024
-327.158	-145.194	-0.242	0.022
-326.143	240.172	-0.118	-0.195
-325.129	-41.951	0.031	0.016
-324.114	800.000	-0.014	0.052
-323.099	-81.429	0.234	-0.077
-322.085	-63.617	0.019	-0.008
-321.070	-133.454	-0.229	0.029
-320.056	-72.211	-0.128	0.047
-319.041	-19.394	0.327	0.202
-318.026	-200.000	-0.082	0.385
-317.012	-122.126	0.182	0.030
-315.997	-200.000	-0.033	-0.173
-314.983	-152.312	-0.290	-0.021
-313.968	-15.766	-0.254	-0.161
-312.953	33.470	0.089	-0.077
-311.939	0.749	-0.117	0.083
-310.924	-31.036	0.179	-0.100
-309.910	2.430	-0.080	-0.057
-308.895	-200.000	-0.041	0.244
-307.880	-49.669	0.196	-0.093
-306.866	-139.773	-0.244	-0.026
-305.851	-114.317	0.140	0.027
-304.837	254.812	-0.056	0.096
-303.822	-200.000	0.002	-0.026
-302.807	606.917	0.090	-0.223
-301.793	122.813	-0.190	0.237
-300.778	-78.262	-0.256	0.087
-299.764	-77.593	0.283	-0.098
-298.749	258.459	-0.102	-0.174
-297.735	125.671	-0.097	-0.121
-296.720	29.679	-0.380	-0.321
-295.705	243.441	-0.133	0.221
-294.691	-26.807	-0.171	0.099
-293.676	-112.170	0.197	-0.039
-292.662	-137.741	0.143	0.016
-291.647	16.852	-0.149	0.117
-290.632	735.228	0.062	-0.164
-289.618	-81.173	0.149	0.049
-288.603	136.248	0.192	0.248
-287.589	-71.779	0.191	-0.071
-286.574	-133.693	-0.400	0.050
-285.559	-200.000	0.048	-0.238
-284.545	-28.602	-0.265	-0.152
-283.530	-200.000	0.002	0.295
-282.516	14.591	0.095	0.074
-281.501	-37.419	0.343	0.182
-280.486	800.000	-0.041	0.127
-279.472	-200.000	0.008	0.063
-278.457	800.000	-0.063	-0.183
-277.443	-134.480	-0.327	0.040
-276.428	-136.405	0.262	0.030
-275.413	-200.000	0.066	0.352
-274.399	777.434	-0.121	0.329
-273.384	-137.009	-0.045	0.005
-272.370	145.872	-0.127	-0.170
-271.355	15.311	0.029	-0.023
-270.340	246.061	-0.165	0.276
-269.326	800.000	-0.048	0.166
-268.311	461.691	0.098	0.217
-267.297	800.000	0.006	-0.020
-266.282	-100.367	0.379	0.093
-265.267	-161.191	-0.078	-0.004
-264.253	101.930	0.060	0.070
-263.238	-106.998	-0.207	-0.045
-262.224	800.000	-0.080	0.233
-261.209	61.103	0.089	0.087
-260.195	-99.501	-0.190	0.047
-259.180	-99.644	0.429	-0.107
-258.165	800.000	0.127	0.356
-257.151	97.634	-0.092	-0.105
-256.136	800.000	-0.066	-0.226
-255.122	-137.918	0.273	0.030
-254.107	-45.299	0.473	-0.233
-253.092	272.795	-0.191	0.335
-252.078	232.600	0.088	-0.143
-251.063	-178.738	-0.212	-0.005
-250.049	-200.000	-0.004	-0.172
-249.034	-200.000	0.003	0.304
-248.019	15.561	0.111	0.086
-247.005	38.067	0.281	-0.248
-245.990	46.547	-0.350	0.322
-244.976	-128.988	-0.166	-0.023
-243.961	-88.851	0.370	0.109
-242.946	73.926	-0.240	0.250
-241.932	207.579	0.253	-0.391
-240.917	-175.829	-0.396	0.010
-239.903	-96.755	0.276	-0.072
-238.888	552.272	-0.061	-0.145
-237.873	489.920	0.162	0.367
-236.859	-156.927	-0.335	-0.020
-235.844	-20.685	-0.249	-0.152
-234.830	-200.000	-0.049	0.493
-233.815	-95.385	0.071	-0.019
-232.800	-131.407	-0.204	-0.027
-231.786	31.480	0.247	-0.211
-230.771	-0.822	-0.057	0.040
-229.757	800.000	-0.057	0.174
-228.742	-29.724	0.121	0.069
-227.727	124.761	-0.160	-0.200
-226.713	-53.190	0.217	0.099
-225.698	528.111	0.157	-0.368
-224.684	190.870	-0.172	0.256
-223.669	-200.000	0.008	0.104
-222.655	800.000	0.023	-0.097
-221.640	652.042	-0.053	-0.134
-220.625	197.296	0.069	-0.105
-219.611	310.942	0.132	0.245
-218.596	-15.534	0.172	0.108
-217.582	198.080	-0.108	-0.163
-216.567	468.006	-0.019	0.042
-215.552	716.350	0.092	0.242
-214.538	800.000	-0.028	-0.092
-213.523	507.167	0.146	-0.336
-212.509	-4.808	0.153	0.105
-211.494	-77.959	0.087	-0.030
-210.479	-151.693	-0.388	0.028
-209.465	-200.000	0.014	-0.098
-208.450	-90.376	-0.144	0.041
-207.436	351.013	-0.051	0.100
-206.421	-156.291	0.225	-0.014
-205.406	-39.940	0.206	0.106
-204.392	150.252	-0.154	-0.207
-203.377	-1.594	0.046	-0.032
-202.363	-96.913	-0.296	-0.077
-201.348	-31.597	0.220	-0.122
-200.333	24.212	0.154	-0.126
-199.319	212.627	0.055	-0.087
-198.304	789.859	0.069	0.188
-197.290	263.837	0.107	0.184
-196.275	146.582	-0.166	-0.221
-195.260	-200.000	-0.009	-0.153
-194.246	-38.821	0.167	0.087
-193.231	627.143	-0.158	0.395
-192.217	132.720	-0.101	-0.129
-191.202	-200.000	0.024	0.140
-190.187	282.002	0.137	-0.243
-189.173	-200.000	0.053	0.346
-188.158	139.835	0.225	-0.293
-187.144	800.000	0.054	-0.157
-186.129	-48.283	0.104	0.050
-185.114	468.549	0.124	-0.276
-184.100	800.000	0.060	0.163
-183.085	352.704	0.045	-0.089
-182.071	39.070	-0.154	-0.136
-181.056	-41.645	0.193	0.098
-180.042	-200.000	-0.007	0.260
-179.027	-17.862	0.359	-0.223
-178.012	-75.769	-0.326	-0.114
-176.998	-81.468	-0.170	0.055
-175.983	-141.338	-0.020	0.002
-174.969	268.963	-0.139	-0.241
-173.954	800.000	-0.023	-0.089
-172.939	153.135	-0.106	-0.143
-171.925	430.034	-0.011	-0.024
-170.910	-39.569	-0.253	0.131
-169.896	-165.220	-0.069	-0.003
-168.881	-200.000	0.017	-0.144
-167.866	-137.051	-0.186	-0.021
-166.852	-98.519	-0.205	-0.052
-165.837	-61.975	0.180	0.074
-164.823	-200.000	0.023	0.431
-163.808	-200.000	-0.001	0.609
-162.793	-200.000	-0.259	0.000
-161.779	-4.160	0.150	0.103
-160.764	-90.473	0.141	-0.040
-159.750	274.553	-0.175	-0.305
-158.735	113.541	-0.150	0.179
-157.720	-41.144	-0.216	0.110
-156.706	-200.000	0.018	0.157
-155.691	-200.000	0.001	0.117
-154.677	-192.880	-0.104	-0.001
-153.662	-200.000	0.023	0.112
-152.647	-200.000	-0.008	-0.129
-151.633	-74.351	-0.393	-0.140
-150.618	395.411	0.143	-0.294
-149.604	-75.534	0.064	-0.022
-148.589	589.646	-0.021	-0.052
-147.574	-96.631	-0.463	-0.121
-146.560	58.125	-0.129	-0.125
-145.545	11.326	0.470	0.355
-144.531	-6.488	-0.237	0.159
-143.516	-127.727	0.147	-0.021
-142.502	-200.000	-0.025	0.211
-141.487	-67.700	0.284	0.110
-140.472	-4.369	0.300	0.205
-139.458	13.269	0.138	0.105
-138.443	-200.000	-0.039	-0.238
-137.429	166.069	0.103	0.145
-136.414	-31.898	-0.207	0.115
-135.399	512.624	-0.050	0.115
-134.385	800.000	-0.062	0.235
-133.370	800.000	-0.054	-0.192
-132.356	-200.000	0.002	-0.071
-131.341	6.753	0.178	0.131
-130.326	-200.000	0.029	0.279
-129.312	-96.568	0.058	0.015
-128.297	-129.362	-0.204	0.028
-127.283	-200.000	-0.005	0.040
-126.268	36.912	-0.142	0.124
-125.253	380.868	-0.072	0.146
-124.239	50.953	0.157	-0.146
-123.224	800.000	0.041	0.170
-122.210	-42.054	-0.046	0.023
-121.195	-19.531	-0.036	-0.022
