DTS Sentinel unit serial number:	SN413079Multiplexer serial number:	ORYXHardware model number:	OX4-SRSoftware version number:	ORYX F/W v4.00 Oryx Data Collector v3.7.2.0data status	okinstallation	princeton_trtdifferential loss correction	single-endedforward channel	channel 2reverse channel	N/Adate	2019/09/14time	23:47:35forward acquisition time	60.00reverse acquisition time	0.00gamma	496.2192k internal	0.2324k external	0.2324temperature offset calibration	1.0052default loss term (dB/km)	0.3790temperature slope calibration	1.0000multiplexer offset coefficient	1.0000multiplexer slope coefficient	1.0000fibre end	0.00T internal ref (°C)	32.28T ext. ref 1 (°C)	4.63T ext. ref 2 (°C)	27.21length (m)	temperature (°C)	Stokes	anti-Stokes-747.200	-122.984	-0.181	-0.029
-746.185	-200.000	0.011	0.221
-745.171	182.531	0.050	0.075
-744.156	-66.524	-0.229	-0.092
-743.142	-147.565	-0.190	0.016
-742.127	701.093	-0.052	-0.139
-741.112	398.820	-0.051	0.108
-740.098	-191.027	-0.279	0.003
-739.083	134.313	0.146	0.191
-738.069	368.991	0.042	0.085
-737.054	-200.000	0.011	-0.242
-736.039	40.479	-0.131	-0.119
-735.025	464.073	0.057	-0.130
-734.010	800.000	0.013	-0.044
-732.996	-200.000	-0.037	-0.271
-731.981	-20.468	0.370	0.229
-730.966	63.939	0.012	0.012
-729.952	-20.680	-0.130	-0.080
-728.937	10.652	-0.259	-0.199
-727.923	800.000	-0.024	0.084
-726.908	18.514	0.165	0.133
-725.894	166.769	-0.146	0.209
-724.879	-200.000	-0.027	-0.380
-723.864	-127.821	-0.258	0.038
-722.850	-200.000	-0.021	0.121
-721.835	152.583	0.083	-0.115
-720.821	44.012	0.039	-0.036
-719.806	-51.598	0.353	0.166
-718.791	-172.853	-0.373	-0.012
-717.777	72.635	0.248	0.261
-716.762	20.688	0.112	-0.091
-715.748	-200.000	-0.018	-0.250
-714.733	-14.808	0.175	0.113
-713.718	-200.000	0.017	-0.241
-712.704	178.483	-0.039	-0.057
-711.689	44.369	0.364	-0.337
-710.675	-101.121	0.373	-0.092
-709.660	503.403	0.079	-0.184
-708.645	800.000	0.115	-0.440
-707.631	-159.786	-0.132	-0.007
-706.616	540.627	0.110	-0.265
-705.602	-152.061	-0.110	-0.008
-704.587	-62.582	-0.126	-0.053
-703.572	-60.204	0.275	-0.118
-702.558	-51.074	0.329	0.155
-701.543	-200.000	0.003	-0.114
-700.529	-200.000	0.004	-0.266
-699.514	108.961	0.136	-0.164
-698.499	-200.000	0.000	-0.150
-697.485	220.339	0.101	-0.163
-696.470	627.722	-0.049	0.125
-695.456	-176.409	0.322	0.008
-694.441	800.000	0.017	-0.066
-693.426	-44.438	-0.175	0.088
-692.412	800.000	-0.018	0.069
-691.397	169.631	0.213	-0.306
-690.383	800.000	-0.018	0.070
-689.368	421.401	0.144	-0.310
-688.354	470.282	-0.065	-0.147
-687.339	-61.389	0.303	-0.128
-686.324	-85.199	0.168	0.053
-685.310	-200.000	0.024	0.189
-684.295	-32.291	0.112	-0.063
-683.281	-23.824	0.071	0.043
-682.266	12.213	0.336	-0.260
-681.251	800.000	0.029	-0.106
-680.237	-69.481	0.453	0.175
-679.222	395.988	-0.072	-0.151
-678.208	5.936	-0.212	0.158
-677.193	149.607	0.159	0.218
-676.178	-101.157	0.066	0.016
-675.164	800.000	0.133	0.518
-674.149	-14.125	0.379	-0.246
-673.135	-200.000	-0.044	0.195
-672.120	-132.163	-0.182	0.024
-671.105	-200.000	0.042	0.305
-670.091	78.786	-0.147	0.158
-669.076	205.238	-0.059	-0.092
-668.062	-9.986	0.165	0.110
-667.047	-164.871	-0.099	-0.004
-666.032	-115.722	0.220	-0.042
-665.018	-37.935	0.230	-0.123
-664.003	145.898	-0.273	-0.368
-662.989	-200.000	0.019	-0.258
-661.974	33.649	-0.051	-0.045
-660.959	-39.191	0.155	-0.082
-659.945	-87.143	-0.166	0.051
-658.930	-25.467	0.163	0.097
-657.916	-36.981	-0.230	-0.124
-656.901	105.125	0.286	0.340
-655.886	-167.408	-0.206	0.008
-654.872	-73.371	-0.045	-0.017
-653.857	-135.829	-0.354	0.042
-652.843	-200.000	0.040	0.229
-651.828	-33.646	0.272	-0.151
-650.814	21.365	0.155	-0.127
-649.799	0.216	-0.038	-0.028
-648.784	800.000	-0.072	-0.211
-647.770	-110.256	-0.185	-0.039
-646.755	285.069	0.205	-0.372
-645.741	325.471	-0.179	-0.344
-644.726	341.661	-0.162	0.318
-643.711	473.482	0.106	0.240
-642.697	73.641	-0.169	-0.178
-641.682	34.114	0.089	-0.078
-640.668	-62.676	-0.150	0.063
-639.653	-200.000	-0.009	-0.180
-638.638	169.854	0.066	-0.095
-637.624	107.496	-0.105	0.126
-636.609	-192.669	-0.076	0.001
-635.595	324.852	0.128	-0.246
-634.580	66.441	-0.118	0.121
-633.565	-34.537	0.167	0.092
-632.551	416.988	-0.036	-0.077
-631.536	51.329	-0.195	-0.187
-630.522	104.072	-0.070	0.083
-629.507	-66.116	0.223	0.089
-628.492	-200.000	-0.029	-0.215
-627.478	-117.321	0.318	0.058
-626.463	-57.059	-0.146	0.065
-625.449	800.000	-0.110	-0.398
-624.434	69.253	0.043	-0.045
-623.419	48.841	-0.246	0.232
-622.405	-44.596	0.106	-0.053
-621.390	-90.119	0.173	0.051
-620.376	-73.177	0.076	0.028
-619.361	55.754	0.112	0.109
-618.346	40.212	-0.095	0.086
-617.332	27.616	0.172	0.145
-616.317	-80.217	-0.082	0.028
-615.303	627.208	-0.053	0.135
-614.288	60.990	0.196	-0.195
-613.273	-103.752	0.134	-0.031
-612.259	-148.650	-0.273	-0.022
-611.244	-71.719	0.159	-0.059
-610.230	8.517	-0.068	0.051
-609.215	432.305	0.101	-0.220
-608.201	-200.000	-0.039	-0.250
-607.186	-128.374	-0.077	-0.011
-606.171	-98.503	-0.306	-0.079
-605.157	-47.114	-0.223	0.109
-604.142	800.000	-0.020	0.059
-603.128	-200.000	-0.012	-0.219
-602.113	-82.999	0.106	-0.034
-601.098	-115.027	-0.460	-0.088
-600.084	-200.000	-0.005	-0.191
-599.069	10.249	-0.151	0.115
-598.055	-39.842	0.037	0.019
-597.040	377.296	-0.113	-0.232
-596.025	-200.000	-0.002	0.095
-595.011	800.000	0.063	0.243
-593.996	37.794	0.136	0.122
-592.982	587.004	-0.086	0.211
-591.967	-200.000	0.065	-0.432
-590.952	-139.257	-0.139	0.015
-589.938	800.000	0.070	0.231
-588.923	197.413	0.034	0.052
-587.909	-69.219	0.104	-0.040
-586.894	-87.632	-0.170	-0.052
-585.879	-169.358	-0.273	0.010
-584.865	-200.000	0.024	0.108
-583.850	-99.054	-0.216	0.055
-582.836	-200.000	0.004	0.125
-581.821	-200.000	0.050	-0.240
-580.806	-99.808	0.235	0.059
-579.792	-106.835	0.067	0.015
-578.777	211.240	0.122	0.192
-577.763	785.884	0.144	0.397
-576.748	-200.000	0.038	-0.355
-575.733	525.254	0.100	0.237
-574.719	94.870	0.124	0.142
-573.704	103.872	-0.074	0.088
-572.690	-200.000	-0.053	-0.255
-571.675	0.924	-0.178	0.128
-570.661	-139.532	-0.068	-0.007
-569.646	-58.334	-0.051	-0.022
-568.631	266.499	-0.073	-0.128
-567.617	-126.579	0.170	-0.025
-566.602	-47.539	-0.552	0.269
-565.588	246.243	0.139	0.235
-564.573	103.631	0.091	-0.107
-563.558	710.464	-0.069	-0.184
-562.544	413.993	-0.094	-0.201
-561.529	439.621	0.203	-0.445
-560.515	-79.499	0.532	0.180
-559.500	-102.467	-0.112	-0.027
-558.485	800.000	0.053	0.159
-557.471	-138.998	-0.133	0.015
-556.456	119.848	0.116	0.144
-555.442	-88.458	-0.351	0.105
-554.427	-169.480	0.203	0.007
-553.412	496.736	-0.038	-0.087
-552.398	299.214	-0.050	0.092
-551.383	-107.082	-0.068	0.015
-550.369	-40.769	-0.179	-0.093
-549.354	-115.570	0.448	0.084
-548.339	-130.658	-0.245	0.033
-547.325	-119.026	-0.124	-0.022
-546.310	306.540	0.170	0.317
-545.296	300.824	-0.124	-0.228
-544.281	-200.000	0.007	-0.132
-543.266	800.000	0.068	0.221
-542.252	92.105	-0.250	0.283
-541.237	9.778	0.175	-0.133
-540.223	358.395	-0.056	0.112
-539.208	800.000	0.074	0.227
-538.193	-73.525	-0.081	-0.030
-537.179	66.909	0.231	-0.235
-536.164	403.439	-0.104	0.219
-535.150	-200.000	0.011	0.254
-534.135	-163.795	-0.146	0.007
-533.121	-46.023	0.369	-0.182
-532.106	-141.155	0.119	-0.012
-531.091	-120.163	0.170	0.029
-530.077	110.526	0.042	0.051
-529.062	20.745	0.231	0.187
-528.048	69.786	-0.171	-0.176
-527.033	45.490	0.043	0.039
-526.018	-15.237	-0.133	-0.085
-525.004	800.000	-0.066	-0.193
-523.989	301.045	0.061	0.113
-522.975	800.000	-0.039	-0.149
-521.960	207.771	0.016	0.025
-520.945	-200.000	-0.013	-0.371
-519.931	51.926	0.274	-0.261
-518.916	168.952	0.246	-0.350
-517.902	-141.640	-0.407	0.041
-516.887	-116.764	0.066	-0.012
-515.872	-45.527	0.172	-0.085
-514.858	-50.983	0.458	0.215
-513.843	-200.000	0.026	-0.288
-512.829	498.952	-0.093	-0.214
-511.814	-3.904	-0.057	-0.039
-510.799	440.973	-0.055	-0.120
-509.785	-153.738	0.121	-0.008
-508.770	-130.160	-0.524	0.071
-507.756	-101.184	-0.344	-0.084
-506.741	-173.834	0.259	0.008
-505.726	142.517	0.166	0.221
-504.712	96.629	-0.198	0.227
-503.697	-200.000	0.015	-0.161
-502.683	347.623	-0.029	-0.057
-501.668	-200.000	0.000	-0.139
-500.653	800.000	0.068	-0.193
-499.639	138.052	-0.017	-0.022
-498.624	-6.255	-0.371	0.254
-497.610	-151.402	-0.251	-0.019
-496.595	301.684	-0.180	0.332
-495.581	800.000	-0.056	0.197
-494.566	281.228	-0.041	-0.074
-493.551	381.949	-0.014	0.029
-492.537	-108.434	-0.171	0.037
-491.522	-26.635	0.135	-0.079
-490.508	-200.000	-0.021	0.301
-489.493	-71.082	-0.233	-0.087
-488.478	-31.681	0.056	0.031
-487.464	-13.135	0.336	0.218
-486.449	28.454	0.374	-0.316
-485.435	-61.444	-0.131	-0.055
-484.420	-200.000	-0.017	-0.216
-483.405	3.166	0.197	-0.143
-482.391	-200.000	0.001	0.201
-481.376	-6.083	-0.089	0.061
-480.362	-200.000	0.044	0.216
-479.347	-101.897	-0.402	-0.097
-478.332	-200.000	0.002	-0.110
-477.318	-200.000	-0.003	-0.303
-476.303	81.845	0.162	0.175
-475.289	56.372	-0.277	-0.269
-474.274	-165.883	-0.158	0.007
-473.259	-5.986	0.272	-0.186
-472.245	210.740	0.092	0.144
-471.230	-132.823	-0.189	0.024
-470.216	-70.010	0.088	0.034
-469.201	135.494	-0.110	-0.143
-468.186	180.039	-0.099	0.145
-467.172	-166.960	0.443	0.018
-466.157	205.391	0.182	0.283
-465.143	359.673	0.061	-0.121
-464.128	-200.000	0.009	0.153
-463.113	446.574	0.062	-0.136
-462.099	232.198	0.111	-0.182
-461.084	-126.335	0.212	-0.032
-460.070	-127.001	-0.212	-0.031
-459.055	96.632	0.081	0.093
-458.040	-34.029	-0.119	0.066
-457.026	112.248	0.144	0.174
-456.011	-24.326	0.161	-0.096
-454.997	-150.919	0.181	0.014
-453.982	-144.300	0.093	-0.009
-452.968	-37.280	0.387	-0.206
-451.953	90.963	-0.105	-0.118
-450.938	-200.000	-0.006	0.442
-449.924	218.767	0.060	-0.095
-448.909	-73.425	0.312	-0.114
-447.895	-25.195	-0.075	0.044
-446.880	-60.151	0.125	0.053
-445.865	12.782	0.212	0.164
-444.851	85.610	0.220	0.242
-443.836	388.980	0.114	0.235
-442.822	136.138	-0.064	-0.083
-441.807	339.447	-0.184	-0.358
-440.792	-98.867	-0.307	-0.078
-439.778	-120.092	0.190	0.032
-438.763	-47.786	0.265	-0.128
-437.749	-56.800	0.126	0.055
-436.734	-200.000	-0.012	0.199
-435.719	800.000	0.049	-0.209
-434.705	-58.921	-0.160	0.069
-433.690	-59.943	-0.259	-0.110
-432.676	-200.000	0.023	-0.230
-431.661	800.000	0.093	0.297
-430.646	25.838	0.308	0.256
-429.632	-105.444	0.227	-0.051
-428.617	23.014	-0.059	0.048
-427.603	-121.992	-0.217	0.036
-426.588	-51.492	0.120	0.056
-425.573	-44.491	0.292	0.146
-424.559	-110.781	-0.286	-0.059
-423.544	-84.365	0.109	-0.034
-422.530	80.451	-0.189	-0.203
-421.515	800.000	0.128	0.458
-420.500	800.000	-0.011	0.032
-419.486	800.000	-0.060	-0.176
-418.471	-102.665	0.275	-0.065
-417.457	-91.716	0.163	0.046
-416.442	40.065	-0.192	0.172
-415.428	-13.966	-0.247	0.159
-414.413	-94.670	0.188	0.051
-413.398	-74.696	-0.253	0.091
-412.384	368.458	0.102	0.206
-411.369	-126.865	-0.195	0.029
-410.355	-5.231	-0.214	-0.147
-409.340	-15.640	0.352	-0.224
-408.325	97.027	-0.252	0.288
-407.311	-96.413	-0.280	-0.074
-406.296	297.954	-0.106	-0.193
-405.282	800.000	0.043	-0.148
-404.267	134.109	0.027	0.035
-403.252	109.809	-0.255	0.304
-402.238	-200.000	0.014	-0.143
-401.223	374.610	0.048	-0.097
-400.209	6.254	0.407	0.301
-399.194	-45.516	-0.325	-0.160
-398.179	800.000	-0.071	0.231
-397.165	-111.097	0.055	-0.011
-396.150	-109.455	-0.091	-0.019
-395.136	-200.000	-0.044	-0.321
-394.121	28.863	0.279	-0.236
-393.106	-13.553	0.029	0.019
-392.092	-51.351	-0.230	-0.107
-391.077	-42.432	0.067	0.034
-390.063	-32.979	-0.136	0.075
-389.048	-124.383	0.606	-0.094
-388.033	-14.259	-0.290	-0.186
-387.019	3.210	0.341	-0.247
-386.004	47.277	-0.053	-0.049
-384.990	207.009	-0.233	0.362
-383.975	-126.842	-0.232	0.034
-382.960	-151.195	0.197	0.015
-381.946	348.452	0.164	-0.323
-380.931	-46.453	-0.045	0.022
-379.917	-68.494	-0.299	0.115
-378.902	-132.251	-0.089	-0.011
-377.888	-6.053	-0.016	-0.011
-376.873	-132.151	0.140	-0.018
-375.858	-128.116	-0.153	0.022
-374.844	-101.414	0.228	0.055
-373.829	-82.059	-0.225	-0.073
-372.815	-200.000	-0.053	-0.376
-371.800	-47.861	0.113	0.054
-370.785	251.469	0.158	0.268
-369.771	-51.082	0.259	0.121
-368.756	-5.134	-0.086	-0.059
-367.742	-96.956	-0.212	-0.055
-366.727	329.674	-0.152	-0.292
-365.712	800.000	-0.056	-0.173
-364.698	116.766	-0.146	-0.179
-363.683	-200.000	0.061	-0.294
-362.669	-27.664	0.171	0.099
-361.654	-200.000	-0.067	0.455
-360.639	35.696	-0.093	0.081
-359.625	-65.374	-0.362	0.145
-358.610	51.361	-0.139	-0.132
-357.596	-97.841	-0.268	-0.069
-356.581	471.310	-0.088	0.197
-355.566	-81.466	-0.135	0.044
-354.552	-101.821	-0.286	-0.069
-353.537	-200.000	-0.039	0.233
-352.523	-122.860	0.244	-0.039
-351.508	-112.856	0.135	0.027
-350.493	-80.465	-0.294	0.098
-349.479	-200.000	-0.023	-0.169
-348.464	-200.000	0.082	0.481
-347.450	-108.726	0.332	-0.071
-346.435	-200.000	-0.009	-0.433
-345.420	7.779	-0.125	0.093
-344.406	142.468	0.141	-0.187
-343.391	-83.847	0.283	0.090
-342.377	800.000	-0.051	-0.170
-341.362	446.574	0.034	-0.075
-340.348	800.000	-0.085	-0.253
-339.333	171.391	-0.060	0.085
-338.318	-19.611	0.206	0.127
-337.304	148.473	-0.026	-0.034
-336.289	-68.094	-0.264	0.102
-335.275	229.035	-0.166	0.269
-334.260	194.036	0.288	-0.433
-333.245	52.529	0.331	0.314
-332.231	-200.000	-0.003	0.291
-331.216	-195.164	-0.116	-0.001
-330.202	-106.555	0.075	-0.017
-329.187	-129.863	-0.229	0.031
-328.172	187.059	-0.107	0.158
-327.158	172.105	-0.094	-0.134
-326.143	759.689	0.094	0.253
-325.129	-78.709	0.298	-0.101
-324.114	191.135	-0.079	-0.119
-323.099	307.771	-0.055	-0.103
-322.085	45.916	0.091	0.083
-321.070	-133.310	-0.342	0.043
-320.056	-87.032	-0.326	-0.099
-319.041	-89.653	0.262	0.076
-318.026	214.415	0.213	0.334
-317.012	171.394	0.167	-0.237
-315.997	800.000	0.020	0.083
-314.983	197.170	0.187	0.283
-313.968	-135.908	0.298	0.035
-312.953	-200.000	-0.028	-0.384
-311.939	22.641	-0.074	-0.060
-310.924	-200.000	0.000	0.170
-309.910	763.034	0.031	0.085
-308.895	124.873	-0.259	-0.324
-307.880	182.760	-0.154	0.226
-306.866	37.367	0.174	0.153
-305.851	-200.000	-0.009	0.060
-304.837	-149.536	-0.070	0.006
-303.822	-200.000	-0.002	-0.070
-302.807	-97.050	0.159	0.041
-301.793	236.264	0.138	-0.227
-300.778	130.415	0.043	0.055
-299.764	-200.000	0.013	-0.333
-298.749	-167.011	0.118	0.005
-297.735	-200.000	0.014	0.185
-296.720	-35.712	-0.031	-0.017
-295.705	-132.855	-0.182	0.023
-294.691	-112.956	-0.368	0.072
-293.676	-200.000	0.033	0.213
-292.662	265.089	0.075	0.129
-291.647	16.545	0.368	-0.288
-290.632	-145.376	0.068	-0.006
-289.618	19.309	-0.107	-0.086
-288.603	-200.000	-0.012	0.056
-287.589	-52.120	0.353	-0.162
-286.574	-200.000	-0.242	0.001
-285.559	107.546	0.030	0.035
-284.545	-42.950	0.373	0.188
-283.530	200.604	0.132	0.201
-282.516	800.000	0.062	-0.190
-281.501	603.394	-0.147	-0.364
-280.486	126.462	0.059	0.075
-279.472	438.776	0.100	0.216
-278.457	800.000	0.022	0.085
-277.443	-98.934	0.055	-0.014
-276.428	89.986	-0.178	-0.197
-275.413	-54.434	0.132	-0.059
-274.399	800.000	-0.070	0.250
-273.384	800.000	0.043	-0.140
-272.370	-37.657	0.099	0.052
-271.355	213.001	-0.010	0.016
-270.340	484.326	-0.106	-0.238
-269.326	26.458	-0.128	0.106
-268.311	-118.736	-0.100	-0.017
-267.297	10.350	-0.189	0.143
-266.282	-200.000	-0.049	0.295
-265.267	-53.746	-0.426	0.193
-264.253	-161.658	0.272	-0.014
-263.238	-200.000	0.049	-0.257
-262.224	150.259	-0.235	-0.315
-261.209	-99.395	-0.045	0.011
-260.195	-200.000	0.044	-0.197
-259.180	-107.504	-0.053	-0.012
-258.165	-200.000	0.009	-0.132
-257.151	-200.000	-0.031	0.227
-256.136	-200.000	0.037	-0.164
-255.122	800.000	0.123	0.511
-254.107	800.000	-0.055	0.217
-253.092	-136.114	0.112	-0.013
-252.078	154.236	0.108	-0.147
-251.063	-111.799	-0.116	0.023
-250.049	-67.054	-0.285	0.111
-249.034	-200.000	-0.095	-0.000
-248.019	288.202	0.187	-0.336
-247.005	-200.000	-0.000	-0.035
-245.990	-200.000	0.253	-0.001
-244.976	-26.144	-0.213	-0.124
-243.961	-200.000	0.023	0.169
-242.946	470.560	0.129	-0.287
-241.932	-172.377	0.175	0.006
-240.917	-200.000	0.518	-0.000
-239.903	597.214	-0.072	-0.178
-238.888	-200.000	-0.002	-0.183
-237.873	-200.000	-0.047	-0.303
-236.859	64.479	-0.154	0.153
-235.844	-52.885	-0.283	0.129
-234.830	61.807	0.034	-0.033
-233.815	75.076	0.194	-0.202
-232.800	-200.000	-0.009	-0.058
-231.786	800.000	0.045	0.189
-230.771	-32.985	0.092	0.051
-229.757	-200.000	0.057	0.374
-228.742	-123.350	0.121	-0.019
-227.727	-72.184	0.266	-0.097
-226.713	-64.966	-0.221	-0.088
-225.698	-82.588	0.337	-0.108
-224.684	122.135	0.127	-0.156
-223.669	-120.207	0.127	0.021
-222.655	25.076	0.202	-0.166
-221.640	8.331	-0.089	-0.066
-220.625	289.753	-0.090	0.161
-219.611	-200.000	-0.001	-0.136
-218.596	-109.843	-0.201	0.042
-217.582	-81.900	-0.322	-0.104
-216.567	-56.592	-0.308	0.135
-215.552	-122.290	-0.334	0.054
-214.538	9.106	-0.149	-0.111
-213.523	-51.337	0.094	-0.043
-212.509	372.587	-0.062	0.124
-211.494	-144.802	0.162	0.015
-210.479	89.343	0.203	0.223
-209.465	-91.240	0.197	0.056
-208.450	-200.000	0.048	0.335
-207.436	-54.915	0.096	-0.043
-206.421	84.502	-0.083	-0.090
-205.406	800.000	0.062	0.229
-204.392	-0.321	-0.254	0.178
-203.377	-176.120	-0.199	-0.005
-202.363	-200.000	0.043	-0.228
-201.348	240.991	-0.159	0.262
-200.333	232.885	0.055	0.089
-199.319	800.000	0.049	-0.145
-198.304	240.031	0.066	0.109
-197.290	-19.003	0.137	0.084
-196.275	-200.000	-0.051	-0.257
-195.260	-130.784	-0.444	0.059
-194.246	187.238	0.061	0.090
-193.231	-200.000	0.111	-0.000
-192.217	28.459	0.111	-0.093
-191.202	58.600	-0.115	-0.111
-190.187	800.000	-0.065	0.236
-189.173	-31.729	0.098	-0.054
-188.158	373.571	-0.059	0.118
-187.144	-91.974	-0.075	0.021
-186.129	-50.925	-0.204	0.095
-185.114	-16.994	0.110	-0.068
-184.100	-200.000	-0.038	-0.169
-183.085	352.769	-0.050	0.098
-182.071	-83.682	0.076	-0.024
-181.056	569.089	0.115	0.275
-180.042	-116.444	-0.359	-0.065
-179.027	95.451	-0.035	0.040
-178.012	85.699	-0.105	0.114
-176.998	-176.197	0.228	-0.006
-175.983	-1.149	-0.271	0.189
-174.969	74.148	0.235	-0.244
-173.954	-54.088	-0.022	-0.010
-172.939	800.000	0.085	0.239
-171.925	-14.116	0.147	0.094
-170.910	-113.708	0.191	0.037
-169.896	-95.157	-0.170	0.045
-168.881	29.078	-0.049	-0.041
-167.866	-7.490	0.163	0.109
-166.852	-105.216	-0.208	0.047
-165.837	-154.309	-0.280	-0.019
-164.823	113.813	-0.150	0.180
-163.808	800.000	-0.033	-0.121
-162.793	119.698	0.103	0.126
-161.779	-160.430	-0.188	-0.010
-160.764	-200.000	0.093	0.480
-159.750	800.000	0.056	0.189
-158.735	-141.567	0.084	0.008
-157.720	563.248	0.067	-0.159
-156.706	800.000	-0.115	-0.451
-155.691	66.186	0.121	0.121
-154.677	259.568	-0.135	-0.231
-153.662	-132.170	0.141	0.018
-152.647	-123.015	0.242	0.038
-151.633	-200.000	-0.005	-0.379
-150.618	-144.781	-0.280	0.025
-149.604	-200.000	-0.010	0.330
-148.589	-200.000	-0.019	-0.141
-147.574	-73.764	-0.298	-0.107
-146.560	-200.000	-0.004	0.030
-145.545	34.389	-0.062	0.053
-144.531	-65.659	-0.068	-0.027
-143.516	-33.567	0.216	-0.118
-142.502	152.759	-0.074	0.100
-141.487	-200.000	-0.033	-0.293
-140.472	102.796	0.070	-0.081
-139.458	-105.840	-0.109	-0.024
-138.443	-200.000	0.011	0.196
-137.429	-59.715	-0.042	0.018
-136.414	800.000	-0.153	0.421
-135.399	211.862	0.176	-0.273
-134.385	283.773	0.091	-0.161
-133.370	-161.675	-0.014	0.001
-132.356	-200.000	-0.006	-0.224
-131.341	-200.000	0.004	0.328
-130.326	-1.043	-0.057	0.040
-129.312	135.700	-0.010	0.012
-128.297	-200.000	-0.037	-0.403
-127.283	800.000	0.080	0.218
-126.268	49.442	-0.079	0.074
-125.253	-1.202	-0.065	-0.045
-124.239	589.728	0.150	0.366
-123.224	-136.230	-0.223	-0.026
-122.210	-60.948	0.388	0.162
