DTS Sentinel unit serial number:	SN413079Multiplexer serial number:	ORYXHardware model number:	OX4-SRSoftware version number:	ORYX F/W v4.00 Oryx Data Collector v3.7.2.0data status	okinstallation	princeton_trtdifferential loss correction	single-endedforward channel	channel 2reverse channel	N/Adate	2019/09/18time	15:47:35forward acquisition time	60.00reverse acquisition time	0.00gamma	496.2192k internal	0.2312k external	0.2312temperature offset calibration	1.0005default loss term (dB/km)	0.3790temperature slope calibration	1.0000multiplexer offset coefficient	1.0000multiplexer slope coefficient	1.0000fibre end	0.00T internal ref (°C)	36.55T ext. ref 1 (°C)	0.78T ext. ref 2 (°C)	33.98length (m)	temperature (°C)	Stokes	anti-Stokes-747.200	-56.378	-0.030	0.014
-746.185	94.713	-0.031	-0.035
-745.171	104.627	0.241	-0.288
-744.156	-58.909	-0.038	0.017
-743.142	422.271	0.144	-0.314
-742.127	-36.273	-0.247	0.135
-741.112	800.000	-0.067	0.274
-740.098	-86.664	-0.137	0.042
-739.083	-98.195	-0.106	0.028
-738.069	240.364	0.013	-0.021
-737.054	93.579	-0.179	-0.206
-736.039	-200.000	-0.010	-0.135
-735.025	134.641	-0.204	-0.268
-734.010	-11.194	-0.369	-0.247
-732.996	-41.563	0.232	-0.121
-731.981	-200.000	-0.003	0.054
-730.966	800.000	0.040	-0.114
-729.952	-164.528	0.312	0.014
-728.937	176.430	0.070	-0.104
-727.923	-36.108	-0.162	0.088
-726.908	-152.635	0.186	-0.013
-725.894	503.718	-0.091	-0.213
-724.879	301.333	-0.206	-0.385
-723.864	53.866	0.078	0.076
-722.850	-87.058	0.317	0.098
-721.835	65.780	0.315	-0.323
-720.821	-16.847	0.224	-0.143
-719.806	-51.985	0.218	0.103
-718.791	-185.829	0.489	-0.007
-717.777	-8.821	-0.233	-0.159
-716.762	800.000	0.015	-0.065
-715.748	443.877	0.148	0.329
-714.733	-145.030	-0.312	-0.029
-713.718	-200.000	0.002	-0.348
-712.704	-84.467	-0.171	0.055
-711.689	112.294	-0.196	0.240
-710.675	26.842	-0.192	0.163
-709.660	-200.000	0.023	-0.183
-708.645	81.278	0.134	-0.146
-707.631	800.000	0.025	-0.085
-706.616	-154.326	-0.223	0.015
-705.602	-103.401	-0.132	-0.032
-704.587	436.480	0.079	-0.174
-703.572	800.000	-0.099	0.303
-702.558	-123.718	0.321	-0.052
-701.543	13.189	0.276	-0.216
-700.529	-38.890	0.152	0.081
-699.514	8.285	-0.206	0.157
-698.499	125.431	-0.255	0.326
-697.485	17.604	0.057	-0.046
-696.470	-163.536	0.262	-0.013
-695.456	-200.000	0.040	-0.344
-694.441	800.000	0.024	-0.078
-693.426	-25.770	0.111	-0.066
-692.412	-153.762	-0.339	-0.024
-691.397	-92.006	0.259	-0.074
-690.383	-200.000	0.029	-0.297
-689.368	800.000	0.038	-0.149
-688.354	-105.425	0.136	0.031
-687.339	80.158	-0.095	-0.103
-686.324	22.028	-0.160	0.133
-685.310	20.158	-0.105	0.086
-684.295	383.434	-0.091	-0.189
-683.281	-100.837	0.042	-0.010
-682.266	17.805	-0.105	0.085
-681.251	-200.000	-0.031	0.320
-680.237	-145.413	-0.057	-0.005
-679.222	-110.057	0.026	-0.006
-678.208	70.750	-0.154	-0.161
-677.193	155.156	0.223	0.311
-676.178	-200.000	0.011	-0.130
-675.164	-200.000	-0.011	-0.289
-674.149	-129.256	0.091	-0.013
-673.135	-96.338	0.184	0.049
-672.120	-160.459	-0.014	0.001
-671.105	-43.029	0.119	0.061
-670.091	127.174	0.271	-0.347
-669.076	149.644	-0.056	-0.077
-668.062	12.136	0.210	-0.164
-667.047	800.000	0.067	0.251
-666.032	-56.934	-0.186	-0.083
-665.018	20.431	-0.177	-0.145
-664.003	-16.902	0.189	0.121
-662.989	-200.000	-0.004	-0.303
-661.974	226.213	-0.153	-0.252
-660.959	-167.754	0.153	-0.006
-659.945	30.273	0.297	-0.256
-658.930	-92.089	0.313	0.089
-657.916	-21.995	0.239	0.147
-656.901	-170.362	-0.137	0.005
-655.886	-89.929	0.129	-0.038
-654.872	37.187	0.125	-0.112
-653.857	-170.939	-0.313	-0.011
-652.843	800.000	-0.090	-0.313
-651.828	241.286	0.047	-0.079
-650.814	800.000	0.024	0.080
-649.799	-7.110	-0.129	-0.089
-648.784	-200.000	0.010	-0.234
-647.770	35.356	0.242	-0.215
-646.755	372.647	0.121	0.249
-645.741	-200.000	0.051	-0.290
-644.726	-78.493	0.302	-0.104
-643.711	-116.933	-0.310	-0.057
-642.697	-200.000	-0.021	0.190
-641.682	-200.000	0.004	-0.332
-640.668	-66.336	-0.369	0.148
-639.653	-46.075	-0.171	-0.085
-638.638	-200.000	-0.005	0.404
-637.624	252.482	0.075	0.130
-636.609	169.339	0.114	0.165
-635.595	-18.822	-0.196	0.123
-634.580	240.251	-0.068	-0.114
-633.565	105.457	-0.067	0.080
-632.551	-136.482	-0.282	-0.033
-631.536	15.733	-0.270	-0.214
-630.522	-138.717	0.209	0.023
-629.507	-99.754	0.117	-0.030
-628.492	-133.309	-0.127	0.016
-627.478	-45.276	-0.460	-0.231
-626.463	130.311	0.198	0.257
-625.449	-161.921	-0.398	-0.020
-624.434	-45.968	-0.245	0.122
-623.419	22.688	-0.248	0.205
-622.405	-200.000	-0.072	0.513
-621.390	-200.000	0.013	0.167
-620.376	800.000	0.083	0.236
-619.361	-200.000	-0.048	0.239
-618.346	-134.284	-0.264	-0.033
-617.332	-85.312	0.403	-0.127
-616.317	-185.837	-0.141	-0.002
-615.303	-200.000	-0.022	0.366
-614.288	-114.123	-0.263	-0.051
-613.273	199.672	-0.095	0.147
-612.259	800.000	-0.038	0.125
-611.244	-77.858	0.130	-0.045
-610.230	-200.000	-0.043	-0.364
-609.215	-149.266	0.055	-0.004
-608.201	305.381	-0.082	-0.155
-607.186	57.380	0.110	-0.108
-606.171	167.656	-0.023	-0.033
-605.157	-200.000	-0.016	-0.121
-604.142	74.117	-0.092	-0.097
-603.128	281.969	-0.132	0.239
-602.113	20.440	-0.214	0.175
-601.098	-90.927	0.610	-0.177
-600.084	-42.162	-0.074	0.038
-599.069	-45.002	0.033	-0.016
-598.055	-67.987	0.298	0.117
-597.040	-149.691	-0.375	0.030
-596.025	800.000	0.025	-0.095
-595.011	126.405	0.080	0.102
-593.996	204.306	0.033	0.052
-592.982	475.118	-0.126	-0.288
-591.967	176.101	-0.061	-0.090
-590.952	163.722	0.152	0.216
-589.938	175.073	0.099	0.145
-588.923	800.000	-0.043	0.138
-587.909	-31.600	0.148	-0.084
-586.894	83.999	0.179	-0.198
-585.879	-23.158	0.196	0.119
-584.865	-7.639	0.338	0.231
-583.850	-13.679	-0.231	-0.151
-582.836	-100.930	-0.308	-0.076
-581.821	-26.370	0.470	-0.278
-580.806	556.317	-0.057	0.138
-579.792	257.727	-0.086	-0.149
-578.777	-200.000	-0.005	0.070
-577.763	800.000	-0.067	-0.217
-576.748	-109.823	0.044	-0.009
-575.733	79.144	0.029	0.031
-574.719	68.282	0.113	0.116
-573.704	7.829	0.337	-0.254
-572.690	8.536	0.092	0.070
-571.675	-200.000	-0.011	0.093
-570.661	-200.000	0.006	-0.035
-569.646	800.000	-0.114	-0.329
-568.631	-12.645	-0.254	-0.167
-567.617	258.017	-0.124	0.214
-566.602	800.000	-0.064	0.245
-565.588	-81.786	-0.200	-0.066
-564.573	163.981	0.099	0.140
-563.558	108.505	0.181	0.218
-562.544	-200.000	0.025	-0.186
-561.529	191.757	0.105	-0.160
-560.515	800.000	0.014	0.051
-559.500	573.749	0.055	0.136
-558.485	-72.422	0.472	-0.176
-557.471	800.000	0.039	0.159
-556.456	-50.778	0.227	-0.108
-555.442	-42.325	0.117	-0.060
-554.427	178.147	0.069	-0.101
-553.412	13.270	0.163	-0.127
-552.398	-200.000	-0.014	0.076
-551.383	-125.775	0.197	-0.030
-550.369	-96.081	-0.128	-0.034
-549.354	-199.335	-0.411	0.002
-548.339	-150.075	-0.157	-0.012
-547.325	-200.000	-0.049	0.547
-546.310	95.075	0.126	-0.144
-545.296	-87.617	0.058	-0.018
-544.281	25.787	-0.025	-0.021
-543.266	800.000	0.022	-0.070
-542.252	-200.000	0.034	-0.513
-541.237	-200.000	-0.002	-0.139
-540.223	-200.000	-0.006	0.075
-539.208	800.000	0.052	0.176
-538.193	-140.911	0.254	-0.026
-537.179	5.684	-0.373	-0.278
-536.164	-142.866	-0.059	-0.006
-535.150	-56.619	-0.234	-0.104
-534.135	800.000	0.010	0.030
-533.121	103.097	0.168	0.198
-532.106	255.160	0.164	-0.283
-531.091	140.779	-0.176	0.234
-530.077	92.398	-0.213	0.242
-529.062	-173.154	-0.143	0.004
-528.048	800.000	-0.055	-0.179
-527.033	-200.000	0.033	0.153
-526.018	-72.730	0.072	0.027
-525.004	-172.660	0.050	0.002
-523.989	800.000	-0.104	0.444
-522.975	-92.798	-0.412	0.116
-521.960	-76.778	-0.218	-0.077
-520.945	-148.090	0.216	-0.018
-519.931	369.128	0.081	0.164
-518.916	237.464	0.143	0.239
-517.902	112.885	0.032	0.039
-516.887	-128.884	-0.376	0.053
-515.872	800.000	0.105	0.298
-514.858	-89.523	-0.314	-0.093
-513.843	-112.018	0.245	-0.050
-512.829	800.000	0.107	0.346
-511.814	117.427	-0.242	0.299
-510.799	-200.000	-0.052	-0.258
-509.785	-200.000	-0.029	0.191
-508.770	-200.000	-0.032	-0.171
-507.756	262.523	0.136	0.238
-506.741	401.346	0.049	-0.104
-505.726	359.001	0.011	-0.022
-504.712	-173.229	-0.274	0.008
-503.697	-53.343	-0.410	-0.189
-502.683	-48.601	-0.354	-0.171
-501.668	-26.478	0.233	0.137
-500.653	32.983	-0.086	0.075
-499.639	-200.000	-0.015	-0.440
-498.624	800.000	-0.069	-0.266
-497.610	-83.392	0.221	0.071
-496.595	-200.000	-0.043	0.193
-495.581	114.362	0.131	0.161
-494.566	50.490	0.063	-0.060
-493.551	174.559	0.097	-0.141
-492.537	-161.231	-0.513	-0.027
-491.522	-200.000	0.001	0.289
-490.508	19.840	-0.166	0.134
-489.493	116.685	-0.185	-0.229
-488.478	22.917	-0.072	0.059
-487.464	206.926	-0.056	0.087
-486.449	1.050	0.151	0.109
-485.435	40.758	0.127	0.115
-484.420	11.140	0.285	0.219
-483.405	800.000	0.055	-0.211
-482.391	-192.144	0.211	0.002
-481.376	222.965	-0.093	0.150
-480.362	-198.747	0.258	0.001
-479.347	-7.295	-0.291	-0.198
-478.332	-157.345	-0.209	-0.013
-477.318	424.161	-0.021	-0.046
-476.303	-200.000	0.045	-0.359
-475.289	10.193	-0.162	0.123
-474.274	-200.000	0.449	0.001
-473.259	-89.779	-0.310	-0.091
-472.245	800.000	-0.108	-0.407
-471.230	-200.000	-0.019	0.087
-470.216	-84.232	0.115	-0.037
-469.201	-48.975	0.282	0.136
-468.186	-9.809	-0.117	-0.078
-467.172	-107.131	-0.433	0.096
-466.157	96.430	-0.203	0.233
-465.143	-200.000	-0.041	-0.182
-464.128	35.257	-0.041	-0.036
-463.113	459.598	-0.055	0.124
-462.099	595.682	-0.041	0.102
-461.084	98.694	0.182	0.211
-460.070	-200.000	-0.027	-0.149
-459.055	-88.079	-0.089	-0.027
-458.040	-37.096	-0.087	0.047
-457.026	-34.386	-0.285	-0.157
-456.011	206.555	0.055	-0.087
-454.997	-119.848	-0.075	-0.013
-453.982	-145.805	-0.373	-0.033
-452.968	112.982	0.198	-0.240
-451.953	51.113	-0.193	0.183
-450.938	-200.000	0.051	0.279
-449.924	-200.000	-0.040	-0.192
-448.909	800.000	0.034	-0.120
-447.895	9.082	0.375	0.284
-446.880	233.447	0.247	0.408
-445.865	-200.000	-0.036	0.202
-444.851	46.907	0.065	-0.061
-443.836	55.033	0.141	0.136
-442.822	-131.524	0.195	0.026
-441.807	233.151	-0.031	0.051
-440.792	145.178	0.182	0.244
-439.778	-123.739	0.199	-0.032
-438.763	-75.777	0.096	0.034
-437.749	-1.603	0.010	0.007
-436.734	83.266	0.146	-0.160
-435.719	65.089	-0.146	-0.148
-434.705	-200.000	0.026	0.156
-433.690	-62.034	-0.416	-0.174
-432.676	-128.289	-0.154	0.022
-431.661	99.696	-0.166	0.192
-430.646	-200.000	-0.020	-0.207
-429.632	8.472	0.299	-0.226
-428.617	713.032	0.096	0.255
-427.603	-200.000	0.051	-0.265
-426.588	393.823	0.054	-0.113
-425.573	-65.534	-0.132	0.053
-424.559	43.407	-0.148	0.136
-423.544	277.094	0.050	0.088
-422.530	224.374	0.036	-0.058
-421.515	-200.000	0.038	-0.217
-420.500	294.117	-0.153	-0.281
-419.486	237.364	-0.161	-0.268
-418.471	167.251	0.029	-0.041
-417.457	-200.000	-0.015	0.092
-416.442	61.430	0.236	0.235
-415.428	-27.275	0.139	-0.081
-414.413	359.586	0.140	0.281
-413.398	-188.332	0.145	-0.002
-412.384	197.871	0.073	0.112
-411.369	373.642	0.063	0.129
-410.355	-34.447	-0.027	0.015
-409.340	14.844	0.114	-0.089
-408.325	1.164	0.251	-0.180
-407.311	-200.000	0.004	0.025
-406.296	190.809	0.118	-0.177
-405.282	13.004	0.255	0.197
-404.267	800.000	0.069	-0.205
-403.252	248.458	0.135	-0.228
-402.238	-96.399	-0.205	-0.054
-401.223	-28.324	0.181	0.105
-400.209	397.210	-0.149	-0.313
-399.194	-55.642	0.104	-0.047
-398.179	315.723	0.231	0.437
-397.165	-68.881	0.162	-0.063
-396.150	-3.644	-0.140	0.097
-395.136	192.555	0.124	0.188
-394.121	-167.181	0.360	0.015
-393.106	-200.000	0.021	0.257
-392.092	91.369	-0.219	0.246
-391.077	800.000	-0.028	-0.096
-390.063	-111.188	-0.275	-0.056
-389.048	-200.000	0.024	0.136
-388.033	800.000	-0.068	0.230
-387.019	710.090	-0.100	-0.264
-386.004	21.098	-0.167	0.135
-384.990	-200.000	0.003	-0.203
-383.975	4.234	-0.108	-0.079
-382.960	375.584	-0.156	-0.319
-381.946	-36.891	-0.116	-0.062
-380.931	377.652	-0.129	-0.265
-379.917	-28.802	0.099	0.057
-378.902	-200.000	0.020	0.112
-377.888	72.147	-0.236	0.246
-376.873	-200.000	0.013	-0.165
-375.858	-200.000	-0.006	-0.220
-374.844	-12.977	0.494	-0.321
-373.829	-200.000	0.066	0.302
-372.815	-148.760	0.151	0.012
-371.800	403.107	-0.027	-0.057
-370.785	53.852	0.214	0.205
-369.771	40.737	-0.012	0.011
-368.756	-86.153	0.124	0.038
-367.742	-151.658	0.081	0.006
-366.727	-113.775	0.575	-0.112
-365.712	-4.670	0.102	-0.071
-364.698	800.000	-0.088	0.386
-363.683	-59.537	0.287	0.123
-362.669	6.041	0.300	0.222
-361.654	800.000	-0.067	-0.295
-360.639	-114.517	0.210	0.040
-359.625	-90.726	0.252	0.073
-358.610	800.000	0.031	0.129
-357.596	514.248	0.081	-0.189
-356.581	72.167	0.154	-0.160
-355.566	192.949	-0.143	-0.215
-354.552	146.243	0.208	0.279
-353.537	8.627	0.350	-0.263
-352.523	-63.099	-0.221	0.091
-351.508	800.000	-0.048	-0.158
-350.493	-107.111	0.384	-0.085
-349.479	-112.365	0.208	0.042
-348.464	295.130	-0.236	0.432
-347.450	-92.016	-0.184	-0.052
-346.435	-19.502	-0.219	-0.135
-345.420	-103.933	-0.417	-0.097
-344.406	-20.366	-0.251	-0.154
-343.391	-200.000	0.010	0.067
-342.377	-54.211	-0.328	0.149
-341.362	800.000	0.016	0.053
-340.348	-30.312	0.166	-0.094
-339.333	531.218	-0.080	-0.189
-338.318	-200.000	-0.048	0.241
-337.304	-200.000	-0.036	0.263
-336.289	323.474	0.079	0.151
-335.275	-102.195	0.167	-0.040
-334.260	-200.000	-0.006	-0.031
-333.245	-32.829	-0.161	-0.089
-332.231	-200.000	0.001	-0.047
-331.216	48.249	0.311	-0.290
-330.202	-60.486	0.173	-0.073
-329.187	-200.000	-0.037	-0.197
-328.172	-200.000	0.014	0.124
-327.158	782.002	-0.035	0.094
-326.143	88.138	0.135	-0.150
-325.129	-200.000	0.049	0.275
-324.114	16.943	0.065	-0.052
-323.099	-36.805	-0.135	-0.072
-322.085	-200.000	0.007	-0.114
-321.070	-81.562	-0.347	-0.114
-320.056	-200.000	-0.030	-0.294
-319.041	-145.516	0.185	-0.017
-318.026	-62.497	0.067	-0.028
-317.012	223.240	-0.052	0.084
-315.997	-88.742	0.225	-0.067
-314.983	800.000	0.051	0.172
-313.968	-189.431	0.080	-0.001
-312.953	-200.000	-0.003	0.241
-311.939	64.804	0.132	-0.132
-310.924	156.365	0.095	0.131
-309.910	345.494	0.138	-0.271
-308.895	80.300	-0.028	0.030
-307.880	-100.944	-0.158	-0.039
-306.866	-200.000	-0.034	-0.223
-305.851	-5.852	0.177	0.121
-304.837	-128.860	-0.227	0.032
-303.822	-154.355	0.218	-0.015
-302.807	-16.073	-0.271	-0.172
-301.793	90.503	0.111	-0.124
-300.778	-200.000	0.038	0.203
-299.764	164.480	0.253	-0.355
-298.749	13.541	-0.254	0.197
-297.735	31.679	0.124	0.106
-296.720	155.400	-0.049	0.068
-295.705	-75.210	0.358	0.128
-294.691	-91.222	-0.423	-0.121
-293.676	-27.791	0.117	0.068
-292.662	-82.975	0.408	-0.131
-291.647	121.942	-0.209	-0.260
-290.632	-52.318	0.192	0.089
-289.618	800.000	-0.040	0.161
-288.603	-99.773	-0.224	0.056
-287.589	441.252	-0.024	-0.052
-286.574	-33.074	-0.358	-0.198
-285.559	-34.161	-0.393	0.215
-284.545	-200.000	0.034	-0.398
-283.530	84.628	-0.124	0.136
-282.516	-83.766	-0.385	0.122
-281.501	26.723	-0.166	0.139
-280.486	286.422	0.061	0.110
-279.472	21.601	-0.187	-0.152
-278.457	-196.674	0.274	0.002
-277.443	351.464	0.086	0.169
-276.428	-37.827	-0.189	0.100
-275.413	-200.000	0.055	0.242
-274.399	-76.172	0.164	0.058
-273.384	352.219	-0.183	-0.361
-272.370	57.225	-0.218	0.212
-271.355	27.917	-0.127	-0.107
-270.340	-89.115	0.323	0.095
-269.326	-102.384	0.237	-0.057
-268.311	-31.282	0.134	-0.075
-267.297	1.852	0.042	-0.030
-266.282	124.632	-0.269	-0.337
-265.267	38.352	-0.228	-0.202
-264.253	0.420	-0.208	0.148
-263.238	6.846	-0.167	0.124
-262.224	101.938	0.187	-0.218
-261.209	191.861	-0.065	-0.098
-260.195	-92.684	-0.149	-0.042
-259.180	299.854	0.100	-0.184
-258.165	-99.305	-0.173	-0.043
-257.151	242.752	-0.083	-0.138
-256.136	800.000	0.119	-0.464
-255.122	-200.000	-0.018	-0.126
-254.107	532.823	0.020	-0.048
-253.092	-115.526	-0.208	0.039
-252.078	800.000	-0.063	-0.203
-251.063	531.286	-0.205	0.482
-250.049	-42.941	-0.045	-0.023
-249.034	726.344	-0.025	-0.067
-248.019	328.005	-0.065	0.125
-247.005	34.771	-0.066	0.058
-245.990	800.000	0.074	0.298
-244.976	386.122	0.068	-0.140
-243.961	9.944	0.140	-0.105
-242.946	46.971	0.027	0.025
-241.932	-16.216	0.162	0.102
-240.917	-200.000	-0.007	-0.257
-239.903	-107.616	0.179	0.039
-238.888	-81.825	-0.058	-0.019
-237.873	-25.513	0.248	0.146
-236.859	-116.758	-0.417	-0.076
-235.844	60.209	0.175	0.173
-234.830	-54.685	0.156	0.070
-233.815	-115.563	0.135	0.025
-232.800	-108.540	0.155	-0.033
-231.786	-200.000	-0.008	-0.043
-230.771	-10.380	0.045	-0.030
-229.757	309.169	-0.120	-0.222
-228.742	77.135	0.158	0.167
-227.727	-117.478	0.273	0.049
-226.713	-141.900	-0.129	-0.013
-225.698	-200.000	-0.003	-0.026
-224.684	-200.000	-0.014	-0.160
-223.669	-91.404	0.147	-0.042
-222.655	800.000	0.064	0.249
-221.640	-38.994	-0.051	0.027
-220.625	-172.245	0.193	-0.006
-219.611	16.480	-0.373	0.293
-218.596	-65.561	-0.188	0.075
-217.582	-173.522	0.220	0.007
-216.567	42.308	0.162	0.147
-215.552	-200.000	-0.046	-0.361
-214.538	-200.000	-0.034	-0.204
-213.523	131.189	0.151	0.193
-212.509	-200.000	0.000	0.123
-211.494	113.283	0.084	0.101
-210.479	-180.896	-0.101	0.002
-209.465	-9.321	0.058	0.039
-208.450	43.766	-0.050	-0.045
-207.436	-19.230	0.265	-0.163
-206.421	-200.000	-0.017	-0.274
-205.406	-200.000	0.019	0.145
-204.392	800.000	-0.054	0.215
-203.377	-152.417	-0.142	0.010
-202.363	95.312	-0.144	0.163
-201.348	-200.000	0.001	-0.089
-200.333	-92.331	-0.317	-0.089
-199.319	3.760	0.083	-0.060
-198.304	235.262	0.108	-0.177
-197.290	-200.000	-0.011	0.158
-196.275	-108.193	0.148	-0.032
-195.260	46.227	-0.125	0.115
-194.246	-91.756	0.226	-0.064
-193.231	167.728	0.222	-0.313
-192.217	-59.156	-0.199	-0.085
-191.202	800.000	0.062	-0.182
-190.187	683.694	0.059	0.153
-189.173	-200.000	-0.009	-0.045
-188.158	800.000	-0.072	-0.251
-187.144	113.459	-0.081	-0.098
-186.129	-162.143	-0.271	0.013
-185.114	800.000	-0.021	0.088
-184.100	323.078	-0.032	-0.060
-183.085	-87.396	-0.095	0.029
-182.071	800.000	0.106	0.316
-181.056	232.529	0.138	0.225
-180.042	-110.287	-0.189	-0.039
-179.027	-35.108	-0.346	0.187
-178.012	-15.336	-0.139	-0.088
-176.998	-87.122	-0.236	0.071
-175.983	499.825	-0.071	0.162
-174.969	116.781	-0.237	0.289
-173.954	-200.000	0.028	0.190
-172.939	-63.617	0.286	-0.117
-171.925	15.242	-0.148	0.116
-170.910	-166.394	0.274	-0.011
-169.896	-105.203	0.125	-0.028
-168.881	-137.533	-0.301	0.034
-167.866	118.946	0.081	-0.100
-166.852	391.344	-0.126	-0.260
-165.837	4.376	-0.146	-0.106
-164.823	-49.205	0.014	-0.007
-163.808	-200.000	-0.001	0.306
-162.793	800.000	0.021	0.066
-161.779	-2.521	0.015	0.010
-160.764	800.000	0.070	-0.264
-159.750	-200.000	-0.004	0.146
-158.735	-87.827	0.152	-0.045
-157.720	-200.000	0.031	-0.151
-156.706	-90.804	0.227	-0.065
-155.691	-161.181	0.403	-0.021
-154.677	275.069	-0.103	-0.181
-153.662	800.000	0.143	-0.483
-152.647	41.088	0.098	-0.088
-151.633	800.000	0.086	0.374
-150.618	74.887	0.211	-0.220
-149.604	-57.519	0.381	-0.166
-148.589	800.000	-0.020	-0.072
-147.574	-156.176	0.197	0.012
-146.560	771.317	-0.019	-0.050
-145.545	-117.300	0.141	-0.025
-144.531	-135.504	0.041	-0.005
-143.516	502.337	0.063	-0.145
-142.502	-40.127	-0.433	-0.224
-141.487	-55.189	-0.156	-0.069
-140.472	123.108	-0.031	0.038
-139.458	-165.676	0.361	-0.015
-138.443	376.813	0.175	-0.355
-137.429	66.086	-0.262	-0.264
-136.414	-200.000	0.066	-0.435
-135.399	643.392	-0.145	-0.367
-134.385	207.668	0.072	-0.111
-133.370	800.000	0.007	0.027
-132.356	-36.645	-0.110	-0.058
-131.341	343.626	0.112	-0.218
-130.326	-129.287	0.175	0.024
-129.312	-130.834	-0.183	-0.024
-128.297	-49.727	-0.099	0.047
-127.283	370.792	-0.091	-0.182
-126.268	-41.837	0.094	-0.048
-125.253	-200.000	0.054	-0.296
-124.239	-58.307	0.242	0.104
-123.224	101.410	0.038	0.044
-122.210	-200.000	-0.050	-0.324
-121.195	-9.087	0.189	0.125
