DTS Sentinel unit serial number:	SN413079Multiplexer serial number:	ORYXHardware model number:	OX4-SRSoftware version number:	ORYX F/W v4.00 Oryx Data Collector v3.7.2.0data status	okinstallation	princeton_trtdifferential loss correction	single-endedforward channel	channel 2reverse channel	N/Adate	2019/09/17time	04:11:35forward acquisition time	60.00reverse acquisition time	0.00gamma	496.2192k internal	0.2327k external	0.2327temperature offset calibration	0.9979default loss term (dB/km)	0.3790temperature slope calibration	1.0000multiplexer offset coefficient	1.0000multiplexer slope coefficient	1.0000fibre end	0.00T internal ref (°C)	29.81T ext. ref 1 (°C)	0.14T ext. ref 2 (°C)	24.32length (m)	temperature (°C)	Stokes	anti-Stokes-747.200	4.258	-0.159	-0.118
-746.185	38.087	-0.118	-0.106
-745.171	-112.732	-0.426	-0.085
-744.156	80.094	0.152	-0.165
-743.142	-109.504	0.056	0.012
-742.127	199.201	0.069	0.107
-741.112	800.000	-0.048	-0.155
-740.098	-62.072	0.168	-0.071
-739.083	-28.347	-0.185	0.108
-738.069	-1.073	-0.230	0.164
-737.054	-41.167	-0.326	0.170
-736.039	-105.681	-0.195	0.044
-735.025	177.637	0.078	-0.115
-734.010	-26.101	-0.291	-0.172
-732.996	-94.515	-0.398	0.109
-731.981	-200.000	-0.027	0.383
-730.966	481.793	0.144	0.330
-729.952	745.826	-0.080	-0.218
-728.937	214.677	-0.183	0.293
-727.923	14.448	-0.127	-0.100
-726.908	-200.000	-0.012	-0.160
-725.894	70.429	-0.201	-0.209
-724.879	448.297	-0.146	-0.325
-723.864	271.220	-0.095	-0.169
-722.850	-200.000	0.004	0.173
-721.835	800.000	0.019	0.067
-720.821	-200.000	0.027	-0.291
-719.806	-37.172	-0.122	-0.066
-718.791	291.837	0.072	-0.132
-717.777	-96.579	-0.193	0.051
-716.762	245.305	-0.135	0.228
-715.748	-200.000	-0.020	-0.269
-714.733	-200.000	0.081	-0.370
-713.718	-2.071	0.117	-0.083
-712.704	-200.000	-0.008	0.224
-711.689	50.141	-0.044	-0.042
-710.675	-39.530	-0.125	-0.066
-709.660	800.000	-0.120	0.334
-708.645	-70.844	0.261	-0.099
-707.631	762.678	0.090	0.247
-706.616	166.629	-0.180	0.257
-705.602	-100.650	-0.189	0.047
-704.587	79.052	0.127	-0.137
-703.572	-200.000	-0.048	0.288
-702.558	-200.000	0.015	-0.134
-701.543	-33.547	-0.141	-0.078
-700.529	-200.000	0.021	0.445
-699.514	-200.000	0.052	-0.237
-698.499	178.777	-0.234	-0.344
-697.485	800.000	0.151	0.423
-696.470	27.185	-0.154	-0.130
-695.456	800.000	0.061	0.247
-694.441	800.000	0.042	0.169
-693.426	-44.063	-0.128	-0.065
-692.412	-200.000	-0.041	-0.442
-691.397	-79.270	0.325	0.111
-690.383	240.797	-0.052	-0.087
-689.368	-125.463	0.211	0.032
-688.354	-118.781	-0.220	-0.039
-687.339	-73.630	-0.417	-0.153
-686.324	391.860	0.137	0.287
-685.310	-79.292	0.188	0.064
-684.295	229.370	-0.231	0.380
-683.281	800.000	-0.114	-0.372
-682.266	98.377	0.031	-0.035
-681.251	-74.330	-0.167	-0.061
-680.237	215.375	-0.152	-0.242
-679.222	147.273	0.207	0.281
-678.208	-200.000	0.006	-0.055
-677.193	91.487	0.131	-0.148
-676.178	298.519	-0.221	-0.408
-675.164	-200.000	-0.015	-0.149
-674.149	161.767	-0.037	0.052
-673.135	-168.027	0.177	0.007
-672.120	-200.000	-0.034	-0.301
-671.105	-174.699	-0.192	0.005
-670.091	-89.923	0.127	-0.037
-669.076	92.517	-0.211	-0.239
-668.062	800.000	-0.080	-0.256
-667.047	39.337	0.170	0.153
-666.032	800.000	-0.111	-0.399
-665.018	189.708	-0.049	-0.074
-664.003	-150.794	0.028	-0.002
-662.989	48.607	-0.076	0.072
-661.974	49.538	-0.223	0.211
-660.959	436.652	-0.163	0.357
-659.945	800.000	-0.063	0.203
-658.930	640.764	0.084	-0.216
-657.916	502.175	-0.057	0.133
-656.901	-200.000	-0.034	0.180
-655.886	-24.003	0.335	0.201
-654.872	-86.315	0.263	-0.081
-653.857	-200.000	0.100	-0.510
-652.843	-200.000	-0.026	-0.268
-651.828	331.526	0.082	-0.160
-650.814	-83.811	0.182	0.058
-649.799	258.986	0.078	0.136
-648.784	-38.233	-0.118	-0.063
-647.770	-23.731	-0.237	0.143
-646.755	10.085	-0.153	0.117
-645.741	-77.110	-0.205	-0.072
-644.726	-200.000	-0.001	0.163
-643.711	28.621	0.214	0.182
-642.697	150.286	0.144	-0.196
-641.682	338.645	0.061	0.120
-640.668	197.941	-0.259	-0.397
-639.653	-200.000	-0.003	-0.248
-638.638	-122.563	-0.273	0.044
-637.624	117.556	0.067	-0.082
-636.609	-116.332	-0.110	-0.020
-635.595	70.582	-0.257	-0.267
-634.580	-88.191	-0.122	-0.037
-633.565	-3.821	0.198	-0.138
-632.551	800.000	-0.103	0.292
-631.536	-93.846	0.139	0.038
-630.522	327.081	0.044	0.085
-629.507	288.952	0.079	0.144
-628.492	17.759	-0.118	-0.095
-627.478	732.914	0.031	-0.084
-626.463	752.039	-0.036	-0.097
-625.449	7.487	-0.101	-0.076
-624.434	-119.177	-0.129	-0.023
-623.419	112.246	0.077	-0.093
-622.405	105.720	-0.137	0.162
-621.390	-200.000	0.019	-0.152
-620.376	800.000	-0.089	0.383
-619.361	-200.000	-0.086	-0.441
-618.346	-172.840	-0.332	-0.010
-617.332	-82.673	0.253	-0.082
-616.317	-19.628	-0.118	-0.073
-615.303	-79.420	-0.241	0.082
-614.288	-100.914	0.119	-0.029
-613.273	-17.620	-0.411	0.259
-612.259	-62.181	0.114	0.048
-611.244	418.791	-0.107	0.229
-610.230	98.027	0.182	0.210
-609.215	-108.104	-0.103	0.022
-608.201	514.380	0.076	0.177
-607.186	-148.808	-0.165	0.013
-606.171	-156.068	0.222	-0.014
-605.157	32.294	0.183	0.158
-604.142	-200.000	0.071	0.356
-603.128	-200.000	0.006	-0.089
-602.113	141.054	0.082	-0.108
-601.098	228.577	-0.265	0.433
-600.084	-138.059	0.343	0.038
-599.069	443.932	-0.068	0.149
-598.055	537.828	-0.101	-0.241
-597.040	-200.000	0.036	-0.422
-596.025	13.145	0.210	-0.163
-595.011	-88.629	-0.352	0.105
-593.996	287.324	0.040	-0.072
-592.982	690.900	0.038	0.101
-591.967	174.935	0.115	0.167
-590.952	17.854	-0.110	-0.088
-589.938	492.333	0.120	0.276
-588.923	-30.070	-0.090	-0.051
-587.909	684.332	0.072	0.187
-586.894	-200.000	0.004	0.440
-585.879	-23.876	0.125	-0.075
-584.865	-200.000	0.002	-0.043
-583.850	-200.000	0.049	0.282
-582.836	-26.569	-0.301	-0.177
-581.821	-135.599	-0.218	0.026
-580.806	-72.318	0.146	-0.054
-579.792	800.000	-0.076	-0.242
-578.777	-200.000	0.045	-0.236
-577.763	188.096	-0.023	-0.035
-576.748	199.364	0.183	-0.281
-575.733	236.046	0.075	0.124
-574.719	-92.527	-0.071	0.020
-573.704	-62.781	0.110	0.046
-572.690	25.696	0.037	0.030
-571.675	800.000	0.054	-0.161
-570.661	113.370	-0.077	-0.094
-569.646	487.288	0.078	-0.178
-568.631	110.270	-0.290	0.348
-567.617	40.120	0.259	-0.233
-566.602	-122.392	-0.308	-0.050
-565.588	-136.979	-0.124	0.014
-564.573	24.499	0.302	-0.250
-563.558	61.373	-0.115	-0.114
-562.544	112.997	0.205	-0.249
-561.529	1.145	-0.106	0.076
-560.515	-96.940	0.151	0.040
-559.500	-154.985	-0.363	-0.024
-558.485	78.052	0.098	-0.105
-557.471	-200.000	-0.013	-0.318
-556.456	-72.530	-0.247	0.091
-555.442	48.599	0.128	0.120
-554.427	55.208	0.123	0.119
-553.412	-118.804	-0.290	-0.051
-552.398	614.575	0.016	0.041
-551.383	689.168	-0.069	-0.180
-550.369	151.401	0.118	0.161
-549.354	211.635	0.066	0.104
-548.339	-40.115	0.254	-0.133
-547.325	-3.721	-0.146	-0.101
-546.310	-74.509	0.170	-0.061
-545.296	-200.000	-0.066	-0.360
-544.281	17.857	0.323	-0.257
-543.266	89.703	-0.178	-0.199
-542.252	-168.557	0.383	0.015
-541.237	403.911	0.094	0.198
-540.223	-99.294	-0.135	0.034
-539.208	34.009	0.111	0.097
-538.193	-62.925	0.196	-0.081
-537.179	66.257	-0.031	0.032
-536.164	366.562	0.039	0.078
-535.150	-66.313	-0.458	0.182
-534.135	25.483	0.210	0.174
-533.121	97.129	0.211	0.242
-532.106	149.220	0.129	-0.174
-531.091	-75.237	-0.216	-0.077
-530.077	-51.133	-0.198	-0.093
-529.062	-142.209	0.138	-0.014
-528.048	-147.477	-0.110	-0.009
-527.033	148.347	-0.028	0.037
-526.018	14.979	0.077	0.060
-525.004	-101.722	0.190	0.046
-523.989	800.000	0.090	0.305
-522.975	-200.000	0.073	-0.495
-521.960	-103.375	-0.285	-0.067
-520.945	41.921	0.031	0.028
-519.931	-13.387	0.067	-0.044
-518.916	621.194	0.022	0.056
-517.902	451.347	-0.100	-0.220
-516.887	230.666	-0.222	-0.363
-515.872	-200.000	0.055	-0.591
-514.858	-18.854	-0.613	-0.381
-513.843	-92.787	0.395	0.110
-512.829	795.934	0.096	0.264
-511.814	-200.000	-0.003	0.043
-510.799	-0.587	-0.133	0.094
-509.785	-200.000	-0.041	0.273
-508.770	311.104	0.048	0.091
-507.756	130.356	0.132	-0.169
-506.741	-200.000	0.002	-0.118
-505.726	-200.000	-0.037	-0.428
-504.712	-57.072	-0.232	-0.102
-503.697	-63.559	0.199	0.082
-502.683	-42.215	-0.123	-0.063
-501.668	109.670	0.171	0.204
-500.653	-200.000	0.052	0.323
-499.639	253.679	-0.195	-0.333
-498.624	81.645	0.038	0.041
-497.610	-13.848	0.370	-0.239
-496.595	-200.000	-0.005	-0.111
-495.581	185.528	0.159	0.236
-494.566	280.707	0.144	-0.257
-493.551	-131.362	-0.323	0.043
-492.537	206.004	-0.088	-0.137
-491.522	66.828	-0.264	0.268
-490.508	167.273	0.088	-0.125
-489.493	800.000	0.060	0.184
-488.478	-52.466	-0.406	0.187
-487.464	62.252	0.083	-0.083
-486.449	-200.000	0.060	0.321
-485.435	594.567	0.035	-0.087
-484.420	90.239	-0.118	0.131
-483.405	40.178	-0.186	0.167
-482.391	-200.000	-0.032	0.434
-481.376	244.962	0.115	-0.192
-480.362	-54.255	0.124	0.056
-479.347	800.000	0.051	0.183
-478.332	-145.800	0.090	-0.008
-477.318	800.000	-0.111	-0.478
-476.303	800.000	-0.084	-0.341
-475.289	298.714	0.159	-0.291
-474.274	-112.974	0.351	0.069
-473.259	-95.515	0.023	0.006
-472.245	-200.000	-0.009	0.239
-471.230	19.064	-0.036	-0.029
-470.216	79.270	0.166	-0.178
-469.201	-122.576	-0.184	-0.030
-468.186	-102.184	-0.164	0.039
-467.172	-37.809	0.182	-0.097
-466.157	535.935	-0.046	-0.110
-465.143	-200.000	0.006	-0.083
-464.128	281.100	0.136	-0.243
-463.113	-200.000	0.017	0.160
-462.099	800.000	-0.047	0.153
-461.084	-168.861	0.334	-0.013
-460.070	-43.738	-0.168	-0.085
-459.055	-61.381	-0.421	0.177
-458.040	-177.985	0.287	-0.007
-457.026	202.400	0.051	0.078
-456.011	-200.000	0.014	0.308
-454.997	-98.742	-0.171	-0.044
-453.982	-115.247	-0.098	0.019
-452.968	-63.709	0.279	0.114
-451.953	-13.797	-0.138	0.089
-450.938	174.619	-0.112	-0.162
-449.924	-20.763	0.023	0.014
-448.909	-6.592	0.052	0.035
-447.895	195.309	-0.057	0.087
-446.880	211.689	0.218	0.342
-445.865	-200.000	-0.018	0.327
-444.851	-200.000	-0.006	-0.280
-443.836	-168.581	-0.145	-0.005
-442.822	-32.805	-0.192	0.106
-441.807	46.817	0.091	-0.084
-440.792	319.789	-0.067	-0.127
-439.778	-50.573	0.030	0.014
-438.763	800.000	0.091	-0.262
-437.749	-200.000	-0.008	-0.268
-436.734	-21.254	-0.204	-0.124
-435.719	-92.019	-0.375	-0.106
-434.705	-200.000	0.022	0.240
-433.690	-200.000	-0.008	0.315
-432.676	-37.964	-0.191	-0.101
-431.661	800.000	-0.052	0.174
-430.646	800.000	-0.102	-0.300
-429.632	-60.283	0.361	-0.153
-428.617	800.000	-0.042	0.171
-427.603	-123.795	-0.175	0.028
-426.588	-77.967	0.171	-0.059
-425.573	205.992	-0.127	0.197
-424.559	566.875	-0.096	0.231
-423.544	67.142	-0.102	-0.104
-422.530	426.751	-0.097	-0.209
-421.515	262.235	-0.079	0.137
-420.500	-153.198	0.133	0.009
-419.486	-114.765	0.290	0.055
-418.471	800.000	0.080	-0.275
-417.457	-65.648	-0.390	0.156
-416.442	82.280	0.190	0.205
-415.428	28.192	-0.173	0.145
-414.413	30.167	0.022	0.018
-413.398	94.842	-0.184	-0.209
-412.384	4.897	-0.068	0.050
-411.369	-145.071	-0.411	-0.037
-410.355	-200.000	-0.012	0.236
-409.340	-200.000	-0.005	0.025
-408.325	-200.000	-0.002	-0.076
-407.311	-116.879	-0.234	-0.043
-406.296	150.286	0.063	-0.085
-405.282	-4.106	0.220	0.152
-404.267	171.179	0.106	-0.151
-403.252	-47.653	-0.184	0.089
-402.238	-56.066	0.066	-0.029
-401.223	703.360	-0.144	0.377
-400.209	435.096	-0.047	0.102
-399.194	127.623	0.112	0.141
-398.179	359.526	0.290	-0.576
-397.165	-200.000	0.007	0.066
-396.150	651.132	0.018	0.046
-395.136	227.119	0.199	0.321
-394.121	-27.555	-0.332	0.192
-393.106	-200.000	0.028	0.304
-392.092	27.659	0.147	0.123
-391.077	-69.917	0.208	0.079
-390.063	269.102	-0.087	0.153
-389.048	6.170	0.547	0.404
-388.033	800.000	0.175	-0.526
-387.019	5.451	0.156	-0.115
-386.004	-200.000	0.017	-0.100
-384.990	208.329	-0.056	-0.087
-383.975	-150.317	-0.341	-0.026
-382.960	-200.000	-0.021	-0.576
-381.946	-84.745	0.242	0.076
-380.931	800.000	-0.022	0.077
-379.917	800.000	0.025	0.080
-378.902	9.549	-0.118	-0.089
-377.888	-200.000	-0.025	0.224
-376.873	175.655	-0.230	0.331
-375.858	24.557	-0.228	0.187
-374.844	347.026	-0.083	0.162
-373.829	-127.282	-0.214	-0.031
-372.815	-95.375	0.142	0.038
-371.800	-106.815	-0.050	0.011
-370.785	-122.160	0.156	0.025
-369.771	-59.877	0.196	-0.083
-368.756	-147.640	0.259	-0.022
-367.742	-200.000	0.001	0.070
-366.727	-113.698	0.087	-0.017
-365.712	796.333	0.093	0.255
-364.698	-156.893	0.054	-0.003
-363.683	78.966	0.114	-0.121
-362.669	-200.000	0.017	-0.287
-361.654	93.977	0.192	-0.216
-360.639	-83.578	-0.232	-0.074
-359.625	-154.137	-0.220	0.015
-358.610	-130.172	-0.129	0.017
-357.596	594.752	0.115	0.284
-356.581	-200.000	-0.004	-0.062
-355.566	269.961	0.085	-0.148
-354.552	278.239	-0.225	-0.398
-353.537	-196.821	-0.258	-0.002
-352.523	379.427	-0.055	0.112
-351.508	-148.093	0.061	0.005
-350.493	76.077	0.116	-0.122
-349.479	-200.000	0.006	-0.460
-348.464	0.106	0.037	-0.026
-347.450	112.760	-0.027	0.033
-346.435	107.480	0.169	-0.200
-345.420	134.754	-0.068	-0.088
-344.406	-71.231	-0.141	-0.052
-343.391	378.862	0.137	-0.277
-342.377	-148.374	-0.136	0.011
-341.362	-36.275	0.103	-0.055
-340.348	338.007	-0.232	-0.449
-339.333	-18.869	-0.148	0.091
-338.318	-60.085	0.142	-0.060
-337.304	-163.558	0.049	-0.002
-336.289	142.231	0.030	-0.040
-335.275	-200.000	-0.017	0.185
-334.260	-187.156	-0.054	0.001
-333.245	629.656	0.045	0.113
-332.231	324.024	0.047	0.089
-331.216	-200.000	-0.007	0.204
-330.202	-200.000	0.039	-0.335
-329.187	401.923	-0.089	0.186
-328.172	238.716	0.178	0.293
-327.158	667.263	0.208	0.533
-326.143	-16.834	-0.345	0.217
-325.129	800.000	0.117	-0.332
-324.114	564.225	-0.103	-0.246
-323.099	-200.000	-0.006	-0.180
-322.085	96.677	0.092	-0.105
-321.070	284.867	-0.061	0.109
-320.056	81.598	0.087	-0.093
-319.041	180.945	-0.012	0.018
-318.026	490.252	0.110	0.249
-317.012	-200.000	-0.012	0.189
-315.997	-64.700	-0.227	0.091
-314.983	-200.000	0.022	0.112
-313.968	-72.822	0.043	-0.016
-312.953	639.381	-0.070	0.177
-311.939	-177.816	-0.367	-0.009
-310.924	630.748	0.120	-0.302
-309.910	79.420	-0.067	-0.071
-308.895	140.295	0.092	0.120
-307.880	-91.180	0.333	0.095
-306.866	106.698	-0.202	0.238
-305.851	104.013	0.269	-0.313
-304.837	-55.201	-0.092	0.041
-303.822	800.000	0.055	0.227
-302.807	-187.869	0.076	0.001
-301.793	-56.140	0.270	-0.119
-300.778	800.000	-0.076	-0.292
-299.764	800.000	-0.066	-0.188
-298.749	361.124	0.100	-0.198
-297.735	211.422	-0.086	0.134
-296.720	-7.962	0.154	-0.103
-295.705	-77.166	-0.194	-0.067
-294.691	-28.126	-0.128	-0.074
-293.676	-100.713	0.061	0.015
-292.662	-43.733	-0.188	0.094
-291.647	-200.000	0.011	0.189
-290.632	23.613	-0.317	-0.259
-289.618	6.499	-0.167	0.123
-288.603	-200.000	0.036	0.293
-287.589	-49.869	0.210	0.099
-286.574	24.138	-0.251	0.205
-285.559	227.851	0.085	-0.137
-284.545	78.868	0.253	0.268
-283.530	-200.000	0.015	-0.064
-282.516	-143.757	-0.486	-0.046
-281.501	43.300	-0.179	-0.162
-280.486	74.405	0.193	-0.201
-279.472	336.736	0.061	0.117
-278.457	800.000	-0.016	-0.064
-277.443	-63.534	0.275	-0.112
-276.428	45.458	-0.172	0.157
-275.413	-106.636	0.103	0.023
-274.399	231.771	-0.156	-0.253
-273.384	800.000	0.114	-0.495
-272.370	800.000	0.096	0.312
-271.355	-115.059	0.305	-0.057
-270.340	800.000	-0.053	0.203
-269.326	79.493	-0.188	0.199
-268.311	-200.000	-0.015	-0.079
-267.297	-3.793	0.160	0.110
-266.282	800.000	0.063	-0.193
-265.267	91.232	0.240	0.267
-264.253	-9.483	-0.239	-0.158
-263.238	364.549	-0.108	0.214
-262.224	-7.908	-0.160	-0.107
-261.209	-200.000	0.062	-0.279
-260.195	20.733	-0.215	0.172
-259.180	-115.801	-0.010	0.002
-258.165	-200.000	0.066	0.418
-257.151	189.133	0.167	0.247
-256.136	-51.811	-0.093	0.043
-255.122	291.334	0.098	-0.176
-254.107	-179.456	-0.105	-0.002
-253.092	-136.565	0.159	0.018
-252.078	-200.000	-0.009	0.133
-251.063	800.000	0.137	0.383
-250.049	800.000	0.111	0.395
-249.034	-93.109	-0.097	0.027
-248.019	-46.744	0.381	-0.185
-247.005	800.000	0.033	-0.102
-245.990	2.128	0.315	0.225
-244.976	-160.281	0.458	-0.024
-243.961	767.092	-0.097	-0.260
-242.946	-59.030	0.244	0.104
-241.932	-64.654	-0.063	-0.025
-240.917	361.555	-0.178	0.353
-239.903	192.708	0.301	0.449
-238.888	-26.373	0.161	0.093
-237.873	187.823	0.163	0.240
-236.859	107.161	0.113	-0.132
-235.844	213.396	0.130	-0.202
-234.830	215.768	0.091	0.142
-233.815	101.845	0.306	0.353
-232.800	-89.114	0.196	0.057
-231.786	-80.199	-0.172	0.057
-230.771	-22.159	-0.072	-0.043
-229.757	-200.000	-0.009	0.394
-228.742	225.734	0.049	0.078
-227.727	800.000	-0.089	0.262
-226.713	-200.000	0.019	-0.132
-225.698	4.247	-0.308	-0.223
-224.684	-67.357	-0.227	-0.088
-223.669	269.704	0.209	0.362
-222.655	-55.337	0.217	0.096
-221.640	800.000	0.109	-0.330
-220.625	11.124	0.297	-0.224
-219.611	-47.939	-0.233	0.111
-218.596	365.486	-0.094	-0.187
-217.582	-200.000	-0.004	-0.401
-216.567	203.102	0.175	0.267
-215.552	62.052	0.272	0.268
-214.538	326.431	0.151	-0.286
-213.523	67.380	-0.170	-0.171
-212.509	-200.000	0.000	-0.233
-211.494	-40.696	-0.363	0.186
-210.479	-91.579	0.202	-0.057
-209.465	258.921	-0.160	0.273
-208.450	-147.449	0.220	-0.018
-207.436	-155.851	0.327	0.021
-206.421	160.253	-0.307	-0.422
-205.406	-200.000	-0.023	0.110
-204.392	149.656	0.248	-0.331
-203.377	800.000	0.068	-0.187
-202.363	337.461	0.089	0.171
-201.348	271.395	-0.159	0.276
-200.333	-200.000	0.048	-0.282
-199.319	-123.542	-0.314	0.049
-198.304	-189.908	0.252	0.003
-197.290	82.839	0.126	0.135
-196.275	310.628	0.070	0.129
-195.260	126.574	0.275	-0.344
-194.246	-100.414	0.379	-0.093
-193.231	-200.000	0.017	0.092
-192.217	800.000	-0.080	0.309
-191.202	34.800	0.206	0.177
-190.187	-42.754	-0.447	0.224
-189.173	800.000	0.103	-0.401
-188.158	-99.566	0.180	-0.045
-187.144	53.167	0.068	-0.064
-186.129	6.160	-0.288	0.211
-185.114	70.413	-0.107	0.109
-184.100	77.766	-0.094	-0.099
-183.085	-153.240	-0.225	0.016
-182.071	-177.681	-0.366	0.009
-181.056	-200.000	0.004	0.122
-180.042	-1.268	-0.204	-0.142
-179.027	-62.383	0.069	0.028
-178.012	-200.000	0.021	-0.249
-176.998	800.000	-0.100	-0.355
-175.983	-105.725	-0.367	0.082
-174.969	96.615	0.200	-0.225
-173.954	-70.435	0.138	0.052
-172.939	81.559	0.210	0.224
-171.925	525.982	0.078	-0.181
-170.910	232.457	-0.034	-0.056
-169.896	188.725	0.219	-0.323
-168.881	-43.961	0.081	-0.040
-167.866	-169.040	-0.274	0.010
-166.852	166.729	-0.196	-0.274
-165.837	-18.564	-0.103	-0.063
-164.823	209.973	-0.264	-0.409
-163.808	-103.447	0.203	0.047
-162.793	-200.000	-0.014	0.090
-161.779	-63.895	0.143	0.058
-160.764	-74.639	-0.095	-0.034
-159.750	-108.782	0.131	0.028
-158.735	-44.600	-0.262	-0.129
-157.720	143.774	0.065	-0.085
-156.706	-200.000	0.028	0.273
-155.691	-150.062	0.184	0.014
-154.677	-200.000	-0.042	0.325
-153.662	177.369	-0.162	0.233
-152.647	-120.662	0.158	0.026
-151.633	-31.910	-0.282	-0.156
-150.618	-165.377	-0.126	0.005
-149.604	578.244	-0.125	-0.302
-148.589	-40.228	0.217	-0.111
-147.574	-160.937	-0.206	-0.011
-146.560	-200.000	-0.003	0.067
-145.545	-200.000	0.015	-0.081
-144.531	-200.000	0.001	0.084
-143.516	-200.000	0.004	0.071
-142.502	-132.479	0.140	0.018
-141.487	39.693	0.183	0.162
-140.472	147.273	-0.219	-0.290
-139.458	-73.556	0.118	0.042
-138.443	476.019	0.125	-0.278
-137.429	-200.000	0.029	-0.167
-136.414	-139.252	-0.058	0.006
-135.399	-200.000	0.073	0.436
-134.385	-200.000	0.007	0.155
-133.370	-52.125	0.090	-0.041
-132.356	-153.722	0.310	-0.021
-131.341	603.823	-0.070	-0.170
-130.326	17.480	-0.227	0.178
-129.312	78.851	0.119	-0.125
-128.297	-85.761	0.158	-0.048
-127.283	800.000	0.019	0.058
-126.268	-7.203	0.336	-0.224
-125.253	-142.168	0.194	0.019
-124.239	-142.996	0.018	-0.002
-123.224	20.724	0.134	0.107
-122.210	800.000	0.016	-0.062
-121.195	-103.709	-0.295	0.068
-120.180	0.340	0.084	-0.059
