DTS Sentinel unit serial number:	SN413079Multiplexer serial number:	ORYXHardware model number:	OX4-SRSoftware version number:	ORYX F/W v4.00 Oryx Data Collector v3.7.2.0data status	okinstallation	princeton_trtdifferential loss correction	single-endedforward channel	channel 2reverse channel	N/Adate	2019/09/18time	22:19:34forward acquisition time	60.00reverse acquisition time	0.00gamma	496.2192k internal	0.2348k external	0.2348temperature offset calibration	1.0022default loss term (dB/km)	0.3790temperature slope calibration	1.0000multiplexer offset coefficient	1.0000multiplexer slope coefficient	1.0000fibre end	0.00T internal ref (°C)	24.33T ext. ref 1 (°C)	0.80T ext. ref 2 (°C)	18.09length (m)	temperature (°C)	Stokes	anti-Stokes-747.200	-120.928	0.147	0.025
-746.185	362.269	-0.069	0.139
-745.171	-200.000	-0.017	-0.318
-744.156	113.082	0.126	-0.153
-743.142	199.397	-0.060	0.091
-742.127	-59.124	-0.111	0.048
-741.112	-143.890	0.645	0.061
-740.098	215.743	-0.040	0.064
-739.083	381.856	0.127	0.260
-738.069	274.192	-0.118	0.209
-737.054	-200.000	0.041	0.279
-736.039	193.407	-0.101	0.153
-735.025	800.000	0.021	0.076
-734.010	-187.074	0.132	0.002
-732.996	-200.000	-0.018	0.158
-731.981	-93.627	0.364	0.100
-730.966	-92.542	-0.013	-0.004
-729.952	-37.595	-0.296	-0.158
-728.937	-149.821	0.087	-0.007
-727.923	-19.846	-0.306	0.189
-726.908	-43.845	0.063	0.032
-725.894	71.404	-0.307	-0.318
-724.879	-114.768	-0.231	0.044
-723.864	87.500	0.219	0.242
-722.850	637.764	-0.063	-0.160
-721.835	454.814	-0.048	0.106
-720.821	-105.858	-0.018	-0.004
-719.806	-126.840	-0.154	0.023
-718.791	169.465	-0.094	0.134
-717.777	-171.607	-0.341	-0.011
-716.762	21.808	0.075	-0.061
-715.748	800.000	0.058	-0.172
-714.733	-143.221	0.225	0.022
-713.718	165.297	0.175	-0.246
-712.704	-76.621	0.312	-0.109
-711.689	38.486	-0.097	-0.086
-710.675	-11.853	-0.117	0.076
-709.660	-57.348	0.248	0.109
-708.645	-80.896	0.212	0.070
-707.631	390.836	0.127	0.263
-706.616	800.000	0.044	-0.172
-705.602	-200.000	0.036	0.185
-704.587	-200.000	0.031	0.269
-703.572	-200.000	0.034	-0.283
-702.558	23.735	-0.255	-0.209
-701.543	382.604	-0.088	-0.180
-700.529	-115.484	-0.087	-0.016
-699.514	107.284	-0.066	-0.078
-698.499	800.000	0.123	-0.444
-697.485	-102.297	0.342	0.082
-696.470	-91.789	-0.129	-0.036
-695.456	-27.977	-0.096	0.056
-694.441	16.855	-0.256	-0.202
-693.426	-67.241	-0.102	-0.040
-692.412	-117.016	0.323	-0.059
-691.397	-89.883	0.153	-0.044
-690.383	-5.757	-0.190	-0.130
-689.368	380.813	0.085	-0.173
-688.354	-12.643	-0.236	-0.153
-687.339	800.000	0.060	-0.199
-686.324	-54.854	-0.143	0.064
-685.310	-200.000	-0.011	-0.363
-684.295	-200.000	-0.041	0.311
-683.281	-200.000	-0.027	-0.125
-682.266	-116.451	0.052	0.010
-681.251	-200.000	0.048	0.230
-680.237	25.276	-0.309	0.256
-679.222	138.669	0.111	0.145
-678.208	-200.000	0.016	-0.413
-677.193	-109.384	0.195	-0.041
-676.178	-200.000	-0.012	-0.063
-675.164	72.649	0.162	0.169
-674.149	-65.455	-0.169	0.068
-673.135	315.170	-0.004	-0.007
-672.120	-24.938	-0.218	0.129
-671.105	800.000	0.031	0.125
-670.091	760.160	0.017	-0.045
-669.076	-83.318	0.204	0.065
-668.062	-65.586	-0.248	0.099
-667.047	72.222	-0.148	0.154
-666.032	367.368	-0.101	0.203
-665.018	-200.000	-0.079	-0.354
-664.003	327.294	-0.077	-0.148
-662.989	800.000	-0.058	-0.233
-661.974	376.656	-0.053	-0.108
-660.959	-29.163	-0.233	-0.133
-659.945	311.264	-0.244	-0.456
-658.930	286.406	0.176	-0.317
-657.916	-21.393	0.339	-0.206
-656.901	-48.568	0.058	0.028
-655.886	119.302	0.076	-0.094
-654.872	253.550	-0.012	-0.021
-653.857	-126.989	-0.150	-0.022
-652.843	-158.881	0.193	-0.011
-651.828	-36.831	-0.109	0.058
-650.814	34.812	-0.238	0.207
-649.799	66.546	-0.213	-0.215
-648.784	8.788	-0.180	-0.135
-647.770	-174.874	0.177	0.005
-646.755	769.750	-0.090	-0.245
-645.741	-145.061	0.299	-0.027
-644.726	373.803	-0.091	0.184
-643.711	43.234	0.298	-0.271
-642.697	39.791	0.194	-0.173
-641.682	-96.788	-0.357	0.093
-640.668	800.000	0.085	0.319
-639.653	-75.521	-0.236	-0.084
-638.638	55.920	-0.105	0.101
-637.624	-200.000	0.025	-0.154
-636.609	-97.743	0.065	-0.017
-635.595	9.404	-0.055	0.041
-634.580	-61.834	0.123	-0.051
-633.565	-62.346	-0.215	-0.089
-632.551	-137.693	0.195	0.022
-631.536	24.272	0.286	0.235
-630.522	-137.415	0.164	0.018
-629.507	800.000	-0.059	-0.173
-628.492	-2.009	-0.133	0.093
-627.478	72.619	0.055	0.057
-626.463	-119.130	0.251	0.044
-625.449	6.337	-0.369	-0.272
-624.434	65.560	0.127	-0.128
-623.419	-84.972	0.114	-0.036
-622.405	800.000	0.110	-0.366
-621.390	-73.357	-0.086	0.031
-620.376	43.086	-0.456	0.413
-619.361	800.000	0.110	-0.388
-618.346	-17.423	0.117	-0.073
-617.332	-173.700	-0.177	0.005
-616.317	23.119	0.222	0.181
-615.303	-96.645	0.138	-0.036
-614.288	48.716	-0.259	0.242
-613.273	-30.890	0.216	-0.122
-612.259	2.180	-0.106	0.076
-611.244	-159.807	-0.386	0.021
-610.230	800.000	0.108	0.385
-609.215	-6.964	-0.143	0.097
-608.201	800.000	0.044	0.165
-607.186	-156.493	0.117	-0.007
-606.171	656.220	0.139	0.354
-605.157	-70.287	-0.053	-0.020
-604.142	-7.108	-0.470	-0.317
-603.128	-200.000	0.036	-0.199
-602.113	84.820	-0.254	0.276
-601.098	-200.000	-0.062	-0.297
-600.084	-121.297	-0.376	-0.062
-599.069	-195.787	0.056	-0.000
-598.055	-101.134	0.413	0.100
-597.040	531.219	-0.059	-0.139
-596.025	-200.000	-0.005	0.225
-595.011	-200.000	-0.052	0.241
-593.996	417.715	0.150	0.318
-592.982	115.461	-0.043	-0.052
-591.967	-51.629	-0.422	-0.195
-590.952	-2.541	-0.076	0.053
-589.938	-20.119	-0.146	0.090
-588.923	3.939	-0.225	0.163
-587.909	-200.000	-0.010	-0.097
-586.894	-200.000	0.028	-0.353
-585.879	-93.707	-0.371	0.102
-584.865	80.565	0.217	0.232
-583.850	-37.693	-0.125	0.066
-582.836	321.359	-0.111	-0.210
-581.821	-200.000	0.004	-0.136
-580.806	-200.000	0.011	0.076
-579.792	-41.136	-0.070	-0.036
-578.777	-51.733	0.132	0.061
-577.763	-99.200	-0.300	-0.075
-576.748	800.000	-0.100	-0.291
-575.733	757.741	-0.062	-0.166
-574.719	-42.424	-0.087	0.044
-573.704	-200.000	0.072	0.368
-572.690	800.000	-0.115	-0.354
-571.675	-200.000	-0.034	0.271
-570.661	181.929	0.252	0.368
-569.646	97.229	0.289	-0.329
-568.631	-109.544	-0.206	0.043
-567.617	-41.145	0.231	-0.118
-566.602	-200.000	0.025	0.345
-565.588	-160.550	-0.107	0.006
-564.573	117.170	-0.247	-0.301
-563.558	-200.000	0.019	-0.362
-562.544	-86.953	0.379	0.115
-561.529	-200.000	0.022	-0.185
-560.515	-80.578	-0.173	0.057
-559.500	174.161	-0.218	0.312
-558.485	32.431	-0.098	0.084
-557.471	-144.823	-0.286	0.026
-556.456	-66.999	-0.219	-0.086
-555.442	-200.000	-0.034	-0.309
-554.427	67.129	0.107	0.108
-553.412	-200.000	-0.059	0.259
-552.398	77.633	0.132	0.140
-551.383	36.266	-0.137	-0.119
-550.369	108.567	-0.132	-0.156
-549.354	-144.405	0.233	-0.021
-548.339	-19.617	0.150	-0.092
-547.325	-107.699	-0.415	-0.090
-546.310	-200.000	0.049	-0.253
-545.296	332.849	-0.161	-0.308
-544.281	-200.000	-0.007	-0.169
-543.266	316.530	0.080	0.149
-542.252	800.000	-0.059	0.193
-541.237	641.548	0.114	0.287
-540.223	221.783	-0.080	-0.128
-539.208	800.000	0.110	-0.370
-538.193	-27.321	-0.049	0.029
-537.179	-94.133	-0.164	-0.044
-536.164	-11.162	0.207	-0.135
-535.150	294.160	-0.180	0.327
-534.135	-40.402	0.268	-0.138
-533.121	-53.950	0.135	-0.061
-532.106	382.254	0.112	0.228
-531.091	136.103	-0.072	-0.093
-530.077	28.687	0.061	0.051
-529.062	-122.946	0.333	-0.053
-528.048	149.954	-0.170	0.228
-527.033	-83.497	-0.364	-0.115
-526.018	-200.000	-0.048	-0.371
-525.004	-200.000	-0.014	0.115
-523.989	-200.000	0.029	-0.185
-522.975	772.102	-0.102	0.277
-521.960	800.000	0.078	0.243
-520.945	543.001	0.140	-0.330
-519.931	-35.880	-0.229	0.123
-518.916	220.748	0.097	-0.155
-517.902	398.247	0.128	0.266
-516.887	800.000	-0.056	-0.240
-515.872	261.247	0.037	-0.063
-514.858	-72.684	0.175	-0.064
-513.843	286.912	-0.071	-0.127
-512.829	-147.781	-0.141	-0.012
-511.814	-143.158	-0.281	-0.027
-510.799	-200.000	0.036	-0.185
-509.785	800.000	-0.035	-0.100
-508.770	800.000	0.106	-0.302
-507.756	389.330	0.022	-0.045
-506.741	270.494	0.054	0.093
-505.726	30.579	-0.342	0.290
-504.712	-14.366	0.175	-0.111
-503.697	800.000	-0.041	0.172
-502.683	-137.476	0.067	-0.008
-501.668	121.959	0.138	-0.171
-500.653	-107.677	-0.305	0.066
-499.639	-200.000	0.074	-0.373
-498.624	-105.005	0.189	0.043
-497.610	130.146	-0.021	0.026
-496.595	92.633	-0.144	-0.160
-495.581	99.271	-0.199	0.228
-494.566	-200.000	0.112	-0.491
-493.551	-79.838	0.224	0.075
-492.537	-200.000	-0.076	-0.500
-491.522	-156.413	0.203	-0.013
-490.508	-15.742	-0.120	-0.075
-489.493	-65.050	0.407	-0.163
-488.478	96.311	-0.013	-0.015
-487.464	5.933	0.093	0.068
-486.449	800.000	-0.082	-0.283
-485.435	-141.251	-0.238	0.024
-484.420	-42.003	-0.134	0.068
-483.405	-15.884	0.182	-0.114
-482.391	-151.431	-0.370	0.027
-481.376	-17.763	-0.184	0.114
-480.362	-171.978	-0.369	-0.012
-479.347	243.541	-0.076	0.126
-478.332	572.207	-0.098	0.237
-477.318	-200.000	0.018	-0.274
-476.303	800.000	0.066	-0.286
-475.289	-50.384	0.258	-0.121
-474.274	279.590	0.081	0.143
-473.259	-154.076	-0.350	0.023
-472.245	-31.093	0.291	0.162
-471.230	-87.471	-0.072	0.021
-470.216	-200.000	0.052	-0.255
-469.201	-47.080	0.238	0.115
-468.186	800.000	0.103	0.323
-467.172	-136.659	-0.169	0.019
-466.157	-14.856	-0.048	-0.030
-465.143	136.513	-0.134	0.172
-464.128	-68.692	0.473	-0.181
-463.113	429.693	0.050	-0.108
-462.099	800.000	-0.038	-0.118
-461.084	104.847	-0.201	-0.234
-460.070	43.620	-0.148	0.133
-459.055	11.348	-0.180	0.136
-458.040	800.000	0.069	0.233
-457.026	729.752	-0.033	0.087
-456.011	-88.986	0.192	-0.056
-454.997	173.772	0.079	-0.113
-453.982	-12.740	0.047	-0.030
-452.968	800.000	0.084	-0.235
-451.953	171.423	0.281	-0.399
-450.938	-122.351	0.083	-0.013
-449.924	514.216	-0.126	-0.290
-448.909	108.467	-0.168	0.198
-447.895	32.300	-0.055	0.047
-446.880	-200.000	-0.003	-0.180
-445.865	-200.000	0.039	-0.251
-444.851	621.899	0.062	-0.155
-443.836	527.331	-0.044	0.101
-442.822	111.260	0.093	-0.111
-441.807	379.192	0.125	0.252
-440.792	0.641	0.069	-0.048
-439.778	800.000	-0.047	0.131
-438.763	146.502	0.055	0.072
-437.749	-200.000	0.020	-0.201
-436.734	-200.000	-0.024	0.513
-435.719	-136.370	0.142	0.016
-434.705	-200.000	0.072	0.478
-433.690	233.781	-0.102	0.166
-432.676	-200.000	0.012	-0.181
-431.661	-1.121	-0.211	0.147
-430.646	-32.373	0.229	0.126
-429.632	362.404	-0.191	-0.379
-428.617	28.479	0.049	0.041
-427.603	-16.882	-0.106	0.066
-426.588	646.313	-0.094	0.237
-425.573	202.218	0.209	0.319
-424.559	-101.851	-0.351	-0.084
-423.544	-114.693	-0.068	-0.013
-422.530	184.389	-0.066	0.097
-421.515	302.040	-0.191	0.349
-420.500	194.193	-0.140	-0.209
-419.486	-200.000	0.053	-0.250
-418.471	800.000	0.042	-0.179
-417.457	-131.067	0.312	-0.041
-416.442	70.132	0.136	0.139
-415.428	-158.869	-0.290	-0.016
-414.413	-200.000	0.039	0.228
-413.398	-200.000	-0.003	0.082
-412.384	-151.637	0.180	0.013
-411.369	46.225	-0.103	0.094
-410.355	-7.703	-0.114	0.076
-409.340	-82.671	0.262	-0.084
-408.325	-59.680	0.048	0.020
-407.311	87.726	0.053	0.058
-406.296	31.296	-0.124	-0.105
-405.282	339.381	0.232	0.445
-404.267	208.206	0.078	-0.120
-403.252	-10.034	0.225	0.148
-402.238	-200.000	0.013	0.120
-401.223	78.599	-0.147	0.155
-400.209	84.183	-0.213	0.230
-399.194	-90.947	0.120	0.034
-398.179	146.460	0.112	-0.149
-397.165	-166.228	-0.159	-0.007
-396.150	79.175	-0.176	-0.186
-395.136	-71.035	0.230	0.085
-394.121	373.955	-0.158	-0.316
-393.106	-44.604	-0.179	-0.088
-392.092	340.841	-0.054	0.103
-391.077	247.910	-0.187	-0.312
-390.063	248.727	0.104	-0.173
-389.048	-151.319	0.337	0.025
-388.033	193.811	0.062	0.093
-387.019	-200.000	0.011	-0.177
-386.004	209.061	-0.238	-0.367
-384.990	-200.000	-0.008	0.116
-383.975	800.000	-0.108	0.350
-382.960	-200.000	-0.029	0.197
-381.946	-64.389	0.105	-0.042
-380.931	-200.000	-0.035	0.265
-379.917	-18.357	0.245	0.151
-378.902	85.383	0.127	-0.138
-377.888	96.471	-0.189	-0.213
-376.873	-101.912	0.111	0.026
-375.858	162.664	0.251	-0.346
-374.844	800.000	-0.121	-0.367
-373.829	-200.000	0.033	0.232
-372.815	-17.459	0.020	-0.012
-371.800	160.906	-0.137	-0.189
-370.785	-200.000	0.008	-0.104
-369.771	-185.827	-0.337	0.005
-368.756	-196.000	-0.188	-0.001
-367.742	-90.939	0.292	0.083
-366.727	372.836	0.038	0.076
-365.712	33.262	0.219	-0.187
-364.698	86.446	-0.366	-0.397
-363.683	-200.000	0.010	-0.125
-362.669	-110.960	-0.116	-0.023
-361.654	26.885	0.094	-0.078
-360.639	-200.000	0.000	-0.141
-359.625	767.872	0.035	-0.095
-358.610	55.267	-0.322	-0.307
-357.596	-164.934	-0.392	0.017
-356.581	469.038	0.066	-0.147
-355.566	318.898	0.136	-0.254
-354.552	94.729	-0.122	-0.137
-353.537	301.753	-0.058	0.105
-352.523	800.000	-0.098	0.420
-351.508	-200.000	0.028	0.219
-350.493	123.971	0.138	-0.170
-349.479	-200.000	0.030	0.158
-348.464	-127.182	0.292	-0.042
-347.450	177.584	0.188	-0.270
-346.435	30.045	0.107	-0.090
-345.420	-100.644	-0.121	-0.029
-344.406	46.822	-0.112	-0.103
-343.391	-68.902	0.497	0.189
-342.377	-32.326	0.102	0.056
-341.362	-45.400	-0.121	-0.059
-340.348	-186.286	-0.179	0.003
-339.333	-27.008	-0.129	0.074
-338.318	45.034	-0.101	-0.091
-337.304	692.976	0.048	0.123
-336.289	174.497	0.166	-0.235
-335.275	-100.808	-0.139	0.034
-334.260	60.729	0.115	0.112
-333.245	-132.551	-0.225	-0.028
-332.231	-200.000	-0.005	0.244
-331.216	-78.432	0.345	-0.116
-330.202	24.074	-0.303	-0.246
-329.187	282.666	0.107	0.188
-328.172	-200.000	0.007	-0.156
-327.158	52.273	0.157	0.147
-326.143	-93.744	-0.289	-0.078
-325.129	103.862	0.221	-0.255
-324.114	417.276	0.200	0.420
-323.099	-200.000	0.058	0.330
-322.085	-41.672	0.117	0.059
-321.070	-27.377	-0.082	-0.047
-320.056	112.220	-0.196	-0.232
-319.041	-158.459	0.220	0.013
-318.026	-200.000	0.005	-0.222
-317.012	-200.000	-0.014	-0.130
-315.997	-31.784	-0.243	-0.134
-314.983	-39.551	-0.232	0.119
-313.968	-71.284	-0.304	0.112
-312.953	800.000	0.090	-0.252
-311.939	-73.942	0.388	0.138
-310.924	800.000	-0.098	0.418
-309.910	-200.000	-0.003	-0.053
-308.895	-73.654	0.155	-0.055
-307.880	-22.519	0.118	0.070
-306.866	-76.297	0.190	-0.066
-305.851	-200.000	0.052	-0.493
-304.837	-200.000	-0.003	0.267
-303.822	97.606	0.052	0.059
-302.807	-50.373	0.190	0.088
-301.793	361.167	-0.164	0.322
-300.778	-72.906	0.085	-0.031
-299.764	-109.783	0.222	0.046
-298.749	-114.082	0.146	-0.028
-297.735	-125.322	0.134	0.020
-296.720	-82.764	0.313	0.099
-295.705	131.128	0.305	0.385
-294.691	-31.859	0.102	-0.056
-293.676	197.581	-0.141	-0.211
-292.662	-200.000	0.003	0.090
-291.647	-82.103	-0.228	0.073
-290.632	56.548	-0.151	0.144
-289.618	-100.568	0.125	0.030
-288.603	348.762	0.072	0.139
-287.589	-138.799	-0.108	-0.012
-286.574	-200.000	-0.015	0.133
-285.559	115.456	0.132	-0.159
-284.545	-74.963	0.064	-0.022
-283.530	800.000	-0.014	-0.053
-282.516	-79.662	0.303	-0.100
-281.501	677.009	0.136	0.346
-280.486	63.837	0.271	-0.268
-279.472	800.000	0.031	0.102
-278.457	-3.522	0.126	-0.086
-277.443	-200.000	0.042	0.203
-276.428	-200.000	0.020	-0.125
-275.413	379.804	-0.019	0.038
-274.399	800.000	0.009	0.032
-273.384	-152.883	0.203	-0.014
-272.370	-89.593	0.497	-0.143
-271.355	779.376	0.031	0.084
-270.340	-200.000	0.006	0.067
-269.326	800.000	0.054	0.179
-268.311	-105.732	-0.067	0.015
-267.297	-159.234	0.317	-0.017
-266.282	-200.000	0.010	-0.306
-265.267	97.881	0.120	-0.136
-264.253	800.000	0.067	0.283
-263.238	450.413	0.037	-0.080
-262.224	-169.166	-0.165	0.006
-261.209	-53.279	-0.303	0.136
-260.195	519.496	0.035	0.081
-259.180	151.170	0.158	-0.211
-258.165	-200.000	0.034	-0.178
-257.151	136.215	0.142	0.182
-256.136	-138.061	0.204	0.022
-255.122	-119.517	-0.152	-0.026
-254.107	800.000	-0.084	0.322
-253.092	-40.978	0.400	0.202
-252.078	-60.143	-0.263	0.110
-251.063	-166.955	0.077	-0.003
-250.049	-200.000	0.005	-0.191
-249.034	800.000	0.035	0.107
-248.019	800.000	0.074	0.238
-247.005	-125.210	0.376	0.056
-245.990	800.000	0.067	-0.182
-244.976	181.970	-0.058	0.083
-243.961	262.228	-0.167	-0.284
-242.946	654.208	-0.118	0.296
-241.932	-200.000	0.043	0.284
-240.917	434.863	-0.082	-0.175
-239.903	99.589	-0.103	0.117
-238.888	-200.000	0.025	0.199
-237.873	-43.779	-0.077	-0.038
-236.859	206.885	0.201	0.307
-235.844	45.121	-0.193	0.174
-234.830	29.531	-0.202	-0.168
-233.815	-200.000	-0.090	-0.431
-232.800	496.550	-0.064	0.145
-231.786	-200.000	0.041	0.557
-230.771	249.414	-0.164	-0.271
-229.757	-150.232	-0.168	-0.013
-228.742	32.191	-0.048	-0.040
-227.727	412.480	-0.104	0.217
-226.713	-200.000	-0.012	0.321
-225.698	-144.757	0.109	0.010
-224.684	-38.107	0.193	0.100
-223.669	-95.952	0.333	-0.087
-222.655	-169.929	0.204	0.007
-221.640	242.979	0.200	-0.328
-220.625	-200.000	0.031	0.134
-219.611	-182.664	-0.047	-0.001
-218.596	800.000	-0.094	-0.257
-217.582	-200.000	0.017	-0.228
-216.567	214.371	0.020	0.031
-215.552	-36.219	-0.090	-0.047
-214.538	-157.541	-0.241	0.014
-213.523	338.235	0.055	0.105
-212.509	-20.562	0.131	0.079
-211.494	41.772	0.053	0.047
-210.479	122.612	0.091	-0.111
-209.465	800.000	-0.087	-0.303
-208.450	-86.882	-0.398	0.119
-207.436	-200.000	-0.010	0.262
-206.421	-200.000	0.049	0.294
-205.406	-131.358	-0.192	0.025
-204.392	3.373	0.451	-0.321
-203.377	-124.603	0.263	-0.040
-202.363	-44.966	0.295	0.144
-201.348	-67.669	0.025	0.010
-200.333	-172.250	-0.368	-0.012
-199.319	445.623	0.222	-0.478
-198.304	-39.140	0.098	-0.050
-197.290	55.629	0.046	0.043
-196.275	0.022	0.153	0.107
-195.260	99.328	-0.022	-0.025
-194.246	-135.605	0.202	0.023
-193.231	800.000	0.070	0.206
-192.217	-200.000	0.002	0.171
-191.202	611.246	0.140	0.341
-190.187	800.000	-0.046	-0.141
-189.173	-200.000	0.084	0.444
-188.158	139.841	0.166	0.214
-187.144	-113.984	-0.424	-0.080
-186.129	-115.446	0.090	-0.017
-185.114	94.163	-0.128	0.142
-184.100	800.000	0.033	-0.124
-183.085	291.071	-0.208	-0.369
-182.071	800.000	0.126	-0.345
-181.056	464.100	-0.088	-0.191
-180.042	800.000	0.053	0.215
-179.027	3.229	-0.305	0.217
-178.012	475.662	-0.135	0.298
-176.998	-45.442	-0.122	0.059
-175.983	234.826	0.068	0.109
-174.969	381.743	0.117	0.235
-173.954	-200.000	-0.020	-0.285
-172.939	116.071	0.048	-0.057
-171.925	3.400	-0.173	-0.123
-170.910	382.360	-0.106	0.213
-169.896	-200.000	0.016	-0.227
-168.881	136.638	-0.207	-0.263
-167.866	-6.208	-0.249	-0.166
-166.852	-56.119	-0.107	0.046
-165.837	-133.137	0.216	-0.027
-164.823	-48.881	0.109	0.051
-163.808	130.049	-0.144	-0.180
-162.793	-200.000	0.052	0.276
-161.779	74.775	-0.327	0.336
-160.764	25.034	-0.310	0.251
-159.750	474.241	0.139	0.307
-158.735	533.542	-0.062	0.143
-157.720	-58.940	0.207	0.088
-156.706	-14.126	-0.409	0.258
-155.691	-200.000	0.064	0.298
-154.677	-160.511	0.183	0.010
-153.662	747.741	-0.068	-0.179
-152.647	34.472	-0.101	0.087
-151.633	-200.000	0.049	-0.222
-150.618	800.000	0.100	0.308
-149.604	800.000	-0.050	-0.177
-148.589	88.467	-0.062	-0.067
-147.574	800.000	-0.109	0.294
-146.560	800.000	0.149	-0.405
-145.545	73.199	-0.172	-0.176
-144.531	-200.000	0.007	0.106
-143.516	-59.238	0.224	0.094
-142.502	-30.695	0.372	-0.205
-141.487	0.698	0.329	-0.230
-140.472	58.939	-0.043	-0.041
-139.458	381.903	-0.030	-0.059
-138.443	-50.082	-0.237	-0.110
-137.429	-112.809	-0.133	0.026
-136.414	29.778	0.264	-0.220
-135.399	739.827	-0.010	-0.026
-134.385	683.995	0.047	-0.119
-133.370	-157.167	0.413	0.025
-132.356	115.987	-0.227	-0.271
-131.341	-200.000	0.020	-0.173
-130.326	4.430	0.194	-0.138
-129.312	-56.683	0.124	0.054
-128.297	-200.000	-0.012	0.230
-127.283	-26.116	-0.264	-0.151
-126.268	-3.946	0.071	0.048
-125.253	-41.887	-0.229	0.115
-124.239	-100.019	-0.033	0.008
-123.224	-131.548	-0.348	0.045
-122.210	-6.288	-0.148	-0.098
-121.195	-137.775	0.348	-0.038
