DTS Sentinel unit serial number:	SN413079Multiplexer serial number:	ORYXHardware model number:	OX4-SRSoftware version number:	ORYX F/W v4.00 Oryx Data Collector v3.7.2.0data status	okinstallation	princeton_trtdifferential loss correction	single-endedforward channel	channel 2reverse channel	N/Adate	2019/09/16time	07:03:35forward acquisition time	60.00reverse acquisition time	0.00gamma	496.2192k internal	0.2334k external	0.2334temperature offset calibration	0.9979default loss term (dB/km)	0.3790temperature slope calibration	1.0000multiplexer offset coefficient	1.0000multiplexer slope coefficient	1.0000fibre end	0.00T internal ref (°C)	27.37T ext. ref 1 (°C)	11.51T ext. ref 2 (°C)	21.87length (m)	temperature (°C)	Stokes	anti-Stokes-747.200	-144.920	-0.198	0.018
-746.185	199.490	-0.298	0.460
-745.171	-200.000	0.020	0.158
-744.156	-76.846	-0.121	0.042
-743.142	121.372	-0.145	0.181
-742.127	544.746	-0.031	0.074
-741.112	-18.044	-0.230	0.145
-740.098	-11.757	0.089	-0.059
-739.083	-126.435	-0.075	0.011
-738.069	-79.299	0.060	-0.020
-737.054	-200.000	-0.017	0.166
-736.039	39.552	-0.345	0.311
-735.025	-56.731	0.001	0.001
-734.010	131.219	-0.082	0.106
-732.996	-77.577	-0.161	-0.056
-731.981	64.661	-0.059	-0.059
-730.966	-33.252	-0.357	-0.199
-729.952	26.150	-0.141	-0.118
-728.937	47.985	-0.058	-0.055
-727.923	9.818	-0.178	-0.136
-726.908	116.774	-0.042	0.052
-725.894	-200.000	-0.034	-0.206
-724.879	-77.532	-0.210	-0.073
-723.864	136.344	-0.147	-0.193
-722.850	158.431	-0.106	-0.148
-721.835	-109.178	-0.432	0.092
-720.821	-200.000	-0.027	0.334
-719.806	800.000	0.014	-0.043
-718.791	467.624	-0.105	-0.237
-717.777	-119.153	0.217	0.038
-716.762	16.196	-0.158	-0.125
-715.748	9.294	0.264	-0.200
-714.733	-200.000	0.018	-0.232
-713.718	-85.739	-0.113	-0.035
-712.704	149.914	0.106	-0.144
-711.689	505.372	0.141	0.327
-710.675	34.811	0.312	0.274
-709.660	135.548	0.054	0.070
-708.645	-89.510	0.084	-0.025
-707.631	458.640	0.197	-0.439
-706.616	-200.000	0.034	-0.189
-705.602	-153.287	-0.269	-0.019
-704.587	425.828	-0.058	0.125
-703.572	-200.000	0.039	0.281
-702.558	-52.422	-0.193	-0.090
-701.543	-137.215	0.209	0.024
-700.529	-200.000	-0.014	0.133
-699.514	-48.951	-0.175	0.084
-698.499	-200.000	-0.007	-0.537
-697.485	-95.302	-0.046	0.012
-696.470	-200.000	-0.015	0.073
-695.456	800.000	-0.057	-0.195
-694.441	433.369	0.123	-0.269
-693.426	256.419	-0.128	0.220
-692.412	614.261	-0.150	-0.376
-691.397	-133.241	-0.168	0.021
-690.383	-84.276	-0.201	-0.064
-689.368	-200.000	-0.005	0.282
-688.354	171.422	-0.093	0.133
-687.339	-57.065	-0.271	-0.120
-686.324	-200.000	-0.010	-0.152
-685.310	-88.061	-0.207	-0.062
-684.295	193.571	-0.179	-0.271
-683.281	-103.145	0.411	0.098
-682.266	-200.000	0.008	0.090
-681.251	136.597	-0.153	0.200
-680.237	-134.120	0.269	0.033
-679.222	52.327	0.021	0.020
-678.208	-138.691	0.410	0.045
-677.193	800.000	-0.131	-0.404
-676.178	1.531	-0.129	-0.093
-675.164	800.000	-0.025	0.100
-674.149	800.000	0.221	-0.723
-673.135	800.000	0.091	0.283
-672.120	800.000	-0.040	-0.152
-671.105	-161.292	-0.188	0.010
-670.091	-200.000	-0.043	-0.272
-669.076	-200.000	-0.033	-0.305
-668.062	149.061	0.099	-0.135
-667.047	171.119	-0.072	0.103
-666.032	800.000	0.079	-0.247
-665.018	-14.812	0.186	-0.120
-664.003	104.652	-0.253	0.299
-662.989	-144.298	0.245	0.023
-661.974	366.968	-0.119	-0.241
-660.959	-200.000	0.037	0.229
-659.945	310.062	0.168	0.315
-658.930	800.000	-0.087	0.279
-657.916	370.362	-0.107	-0.218
-656.901	-164.421	-0.253	-0.012
-655.886	-12.599	-0.191	-0.125
-654.872	-56.571	-0.401	0.178
-653.857	-45.087	-0.257	0.128
-652.843	-55.306	0.181	-0.081
-651.828	54.262	-0.054	-0.052
-650.814	22.279	0.148	-0.121
-649.799	479.171	0.068	0.155
-648.784	546.239	-0.048	-0.116
-647.770	163.563	0.159	0.224
-646.755	-186.272	-0.030	-0.000
-645.741	-44.661	-0.106	-0.053
-644.726	-117.717	-0.199	0.036
-643.711	113.580	-0.130	-0.158
-642.697	53.043	0.298	-0.286
-641.682	-100.976	0.243	-0.060
-640.668	99.563	0.179	-0.207
-639.653	-22.876	-0.333	0.201
-638.638	48.250	0.283	-0.265
-637.624	4.639	0.175	-0.129
-636.609	457.113	-0.098	-0.217
-635.595	175.602	0.149	-0.216
-634.580	-200.000	-0.015	0.484
-633.565	8.595	0.200	0.151
-632.551	-42.504	0.198	-0.101
-631.536	-15.978	-0.201	-0.128
-630.522	-165.010	0.479	-0.021
-629.507	77.171	-0.160	0.171
-628.492	-48.268	0.196	0.094
-627.478	-200.000	0.005	-0.178
-626.463	-134.398	0.272	0.033
-625.449	-60.990	-0.049	0.021
-624.434	-90.963	0.163	-0.047
-623.419	-176.677	0.360	-0.009
-622.405	-200.000	0.005	0.330
-621.390	-100.345	0.354	-0.088
-620.376	-92.353	0.057	0.016
-619.361	-52.040	-0.182	-0.085
-618.346	-168.285	-0.303	-0.012
-617.332	85.473	0.062	0.068
-616.317	-77.450	-0.169	-0.059
-615.303	800.000	-0.115	-0.354
-614.288	-25.958	0.091	-0.054
-613.273	800.000	-0.048	0.169
-612.259	800.000	0.016	-0.070
-611.244	800.000	-0.055	-0.183
-610.230	800.000	-0.071	-0.259
-609.215	20.762	0.437	-0.354
-608.201	-79.662	-0.059	0.020
-607.186	-188.741	-0.216	0.003
-606.171	800.000	0.041	-0.149
-605.157	89.064	0.099	-0.110
-604.142	800.000	-0.083	0.257
-603.128	-200.000	-0.058	0.254
-602.113	-72.019	0.238	-0.088
-601.098	537.626	0.021	0.050
-600.084	-158.594	-0.314	0.018
-599.069	-50.729	0.171	-0.081
-598.055	-200.000	0.006	0.091
-597.040	-34.013	0.058	0.032
-596.025	-162.565	0.349	0.017
-595.011	52.631	-0.151	0.144
-593.996	-17.085	0.025	0.016
-592.982	-200.000	0.012	-0.106
-591.967	26.584	-0.126	-0.106
-590.952	-112.934	0.228	0.045
-589.938	390.967	-0.143	0.296
-588.923	-21.170	-0.082	-0.050
-587.909	-72.566	0.355	-0.131
-586.894	43.681	-0.146	0.133
-585.879	525.463	-0.088	-0.207
-584.865	-33.618	-0.290	0.160
-583.850	800.000	0.077	0.313
-582.836	-23.371	-0.307	-0.184
-581.821	496.922	-0.177	-0.406
-580.806	89.523	0.127	0.141
-579.792	-195.160	0.178	0.001
-578.777	99.144	-0.238	0.274
-577.763	-173.586	-0.118	-0.004
-576.748	441.554	-0.091	-0.199
-575.733	71.948	-0.090	0.093
-574.719	-29.175	0.204	0.117
-573.704	-116.337	0.134	0.025
-572.690	253.550	0.154	-0.263
-571.675	-200.000	0.000	0.049
-570.661	9.425	0.091	0.069
-569.646	73.633	0.185	0.193
-568.631	-200.000	-0.081	-0.559
-567.617	-42.665	-0.263	-0.134
-566.602	-116.882	-0.090	-0.016
-565.588	90.226	0.093	0.104
-564.573	-200.000	0.030	0.237
-563.558	-200.000	0.017	-0.224
-562.544	-200.000	-0.038	-0.184
-561.529	446.642	-0.050	-0.110
-560.515	-67.234	-0.028	-0.011
-559.500	142.935	-0.220	-0.292
-558.485	512.709	-0.039	-0.091
-557.471	555.293	0.177	0.425
-556.456	-163.762	0.110	0.005
-555.442	5.561	-0.104	0.077
-554.427	63.802	-0.294	0.295
-553.412	-98.354	0.042	-0.011
-552.398	-42.239	-0.427	0.218
-551.383	-6.708	0.142	0.097
-550.369	194.979	-0.123	-0.186
-549.354	173.512	-0.076	0.110
-548.339	168.664	-0.047	-0.066
-547.325	-84.306	0.164	-0.052
-546.310	800.000	-0.085	-0.252
-545.296	-43.803	-0.192	0.097
-544.281	-96.915	-0.302	0.079
-543.266	236.176	-0.073	-0.121
-542.252	520.117	-0.081	-0.190
-541.237	59.761	0.234	0.230
-540.223	-126.941	-0.164	-0.024
-539.208	-200.000	0.002	-0.151
-538.193	-26.209	0.324	-0.190
-537.179	-200.000	0.018	-0.292
-536.164	-37.138	0.020	0.011
-535.150	-186.931	-0.267	-0.004
-534.135	-15.375	0.373	-0.238
-533.121	101.415	-0.039	0.045
-532.106	19.153	0.223	-0.179
-531.091	-31.380	-0.218	-0.122
-530.077	800.000	-0.085	-0.297
-529.062	452.700	0.120	-0.265
-528.048	273.177	-0.093	-0.163
-527.033	351.791	-0.082	-0.162
-526.018	800.000	0.068	0.242
-525.004	-49.149	0.086	-0.041
-523.989	-200.000	0.043	0.402
-522.975	-34.853	0.053	-0.029
-521.960	168.504	0.129	-0.182
-520.945	-156.687	0.046	-0.003
-519.931	45.793	0.074	-0.069
-518.916	-94.167	0.049	-0.013
-517.902	49.230	-0.080	-0.075
-516.887	-59.586	-0.123	0.053
-515.872	632.037	-0.082	-0.206
-514.858	171.608	-0.156	0.223
-513.843	495.023	0.096	0.220
-512.829	418.568	0.087	-0.186
-511.814	800.000	-0.083	0.348
-510.799	-200.000	-0.028	0.228
-509.785	-176.486	0.053	-0.001
-508.770	55.630	-0.229	0.221
-507.756	-200.000	0.021	-0.335
-506.741	800.000	0.041	0.141
-505.726	231.872	0.072	0.118
-504.712	-200.000	0.022	0.147
-503.697	97.621	0.119	-0.136
-502.683	136.832	-0.140	0.183
-501.668	-200.000	-0.062	-0.340
-500.653	-107.319	-0.403	0.088
-499.639	-200.000	0.016	0.091
-498.624	-35.493	-0.196	-0.106
-497.610	38.967	0.192	0.171
-496.595	-95.814	0.109	0.029
-495.581	163.817	-0.233	-0.326
-494.566	-28.928	0.043	-0.025
-493.551	-114.807	-0.166	-0.032
-492.537	100.266	0.222	-0.257
-491.522	-184.147	0.091	-0.002
-490.508	362.109	-0.059	0.117
-489.493	-44.813	-0.196	-0.097
-488.478	90.810	-0.202	-0.226
-487.464	263.351	-0.139	-0.241
-486.449	80.581	0.179	-0.191
-485.435	-200.000	0.035	0.353
-484.420	505.434	-0.028	0.063
-483.405	-166.346	-0.202	-0.008
-482.391	-200.000	0.015	-0.084
-481.376	-34.590	0.286	-0.156
-480.362	-175.369	0.342	-0.009
-479.347	-200.000	-0.012	0.168
-478.332	-200.000	0.067	0.398
-477.318	-84.489	0.372	0.117
-476.303	-45.609	-0.215	0.106
-475.289	-86.333	0.352	0.108
-474.274	-90.326	0.028	-0.008
-473.259	-127.036	-0.194	-0.028
-472.245	-125.170	-0.379	-0.058
-471.230	316.114	0.051	0.096
-470.216	-140.272	-0.195	-0.020
-469.201	-200.000	-0.020	-0.132
-468.186	121.221	0.078	-0.096
-467.172	-58.141	-0.121	-0.053
-466.157	-200.000	-0.028	-0.133
-465.143	76.453	-0.116	-0.122
-464.128	122.931	-0.141	0.175
-463.113	-200.000	0.010	0.150
-462.099	-54.172	0.239	-0.108
-461.084	-6.510	0.062	0.042
-460.070	-200.000	0.013	0.120
-459.055	47.167	0.109	0.100
-458.040	-200.000	-0.017	0.101
-457.026	-92.387	-0.101	-0.028
-456.011	800.000	-0.082	0.232
-454.997	-146.982	-0.110	-0.009
-453.982	-60.408	-0.112	0.047
-452.968	101.621	-0.085	0.098
-451.953	-119.548	0.518	0.089
-450.938	-4.692	-0.350	-0.240
-449.924	-21.154	0.117	-0.071
-448.909	-200.000	-0.003	-0.014
-447.895	-160.728	0.124	0.007
-446.880	74.700	-0.173	-0.181
-445.865	800.000	-0.075	-0.222
-444.851	399.877	-0.079	-0.164
-443.836	17.351	0.288	0.227
-442.822	32.553	0.045	0.039
-441.807	-200.000	0.019	0.088
-440.792	-173.418	0.238	-0.007
-439.778	788.794	-0.130	-0.355
-438.763	172.742	-0.037	0.053
-437.749	-73.906	0.201	-0.072
-436.734	86.741	-0.074	0.081
-435.719	-105.102	-0.374	-0.085
-434.705	21.290	0.343	0.276
-433.690	104.018	-0.154	-0.180
-432.676	-134.495	0.298	0.036
-431.661	-168.295	-0.279	0.011
-430.646	405.549	0.102	0.213
-429.632	420.441	0.052	0.111
-428.617	-122.532	-0.325	-0.052
-427.603	112.538	-0.109	0.130
-426.588	-200.000	0.008	0.096
-425.573	724.982	0.085	0.225
-424.559	-135.090	0.236	0.028
-423.544	800.000	0.023	0.071
-422.530	154.261	0.135	0.184
-421.515	290.217	0.015	0.028
-420.500	96.712	0.074	0.084
-419.486	-169.548	-0.148	0.005
-418.471	204.762	-0.052	-0.080
-417.457	51.334	0.044	-0.042
-416.442	-184.085	0.304	0.005
-415.428	-116.558	0.118	-0.022
-414.413	538.931	-0.020	-0.046
-413.398	-79.711	-0.212	-0.071
-412.384	42.633	0.026	0.023
-411.369	-139.174	0.226	0.024
-410.355	-37.263	0.075	-0.040
-409.340	86.789	-0.192	-0.211
-408.325	93.966	-0.135	0.152
-407.311	179.330	0.017	-0.024
-406.296	-177.248	-0.067	-0.002
-405.282	229.501	-0.183	0.296
-404.267	-74.755	-0.311	-0.111
-403.252	-200.000	0.078	0.353
-402.238	-89.134	-0.246	0.072
-401.223	46.772	-0.109	-0.100
-400.209	-11.012	-0.213	0.140
-399.194	34.074	-0.144	-0.124
-398.179	-57.237	0.221	-0.096
-397.165	-200.000	-0.044	0.347
-396.150	351.034	-0.122	-0.239
-395.136	-17.281	-0.066	-0.041
-394.121	-200.000	0.007	0.080
-393.106	800.000	-0.026	-0.103
-392.092	800.000	0.103	-0.313
-391.077	-66.892	-0.126	0.049
-390.063	442.033	0.026	-0.056
-389.048	800.000	0.057	-0.219
-388.033	800.000	0.063	0.257
-387.019	16.905	0.145	-0.114
-386.004	555.249	0.063	-0.150
-384.990	-200.000	0.016	-0.172
-383.975	-200.000	-0.016	-0.410
-382.960	800.000	-0.022	-0.073
-381.946	630.154	-0.061	0.152
-380.931	-16.007	-0.051	-0.032
-379.917	-200.000	-0.015	0.647
-378.902	-119.959	-0.198	-0.034
-377.888	-50.541	-0.098	0.046
-376.873	422.079	0.125	0.266
-375.858	-35.705	0.225	0.121
-374.844	-200.000	0.002	-0.068
-373.829	-124.872	0.314	-0.048
-372.815	-15.259	-0.218	-0.138
-371.800	14.502	0.053	-0.041
-370.785	127.558	-0.214	0.269
-369.771	800.000	0.007	0.029
-368.756	-4.759	0.123	0.084
-367.742	148.568	0.175	0.234
-366.727	-200.000	0.020	-0.096
-365.712	54.653	-0.204	-0.195
-364.698	-200.000	-0.002	-0.371
-363.683	-22.809	-0.145	-0.087
-362.669	-48.995	0.196	-0.093
-361.654	191.684	0.124	-0.185
-360.639	95.353	-0.200	0.226
-359.625	-138.749	0.540	0.058
-358.610	52.959	0.101	0.096
-357.596	67.193	0.102	-0.103
-356.581	-101.522	-0.154	0.037
-355.566	-200.000	0.042	0.258
-354.552	-37.738	0.145	-0.076
-353.537	178.343	0.159	0.230
-352.523	-200.000	0.014	-0.066
-351.508	-200.000	-0.345	-0.000
-350.493	49.250	-0.083	-0.077
-349.479	515.240	-0.023	-0.054
-348.464	-55.969	0.185	-0.082
-347.450	800.000	-0.074	0.207
-346.435	149.815	0.138	0.185
-345.420	465.940	-0.090	-0.199
-344.406	-152.244	0.427	0.031
-343.391	-0.997	0.443	0.310
-342.377	37.389	0.230	0.202
-341.362	800.000	-0.043	-0.165
-340.348	-42.411	-0.328	0.166
-339.333	-7.255	-0.243	0.163
-338.318	187.687	-0.074	-0.109
-337.304	-78.658	0.053	0.018
-336.289	800.000	0.050	0.207
-335.275	-19.228	-0.246	-0.151
-334.260	-5.025	-0.227	-0.154
-333.245	77.899	-0.163	0.172
-332.231	-126.158	0.205	0.030
-331.216	11.577	0.055	0.041
-330.202	-158.751	-0.162	-0.009
-329.187	800.000	0.107	-0.371
-328.172	-62.518	-0.196	-0.081
-327.158	-200.000	0.010	-0.069
-326.143	-131.088	-0.195	0.026
-325.129	267.334	-0.166	-0.288
-324.114	224.468	-0.187	-0.298
-323.099	142.650	-0.073	-0.096
-322.085	79.706	0.060	0.064
-321.070	-107.557	0.173	0.038
-320.056	-200.000	0.006	0.612
-319.041	51.921	0.138	0.130
-318.026	118.558	-0.189	0.230
-317.012	47.335	0.224	0.206
-315.997	233.229	0.074	0.121
-314.983	7.857	-0.203	0.151
-313.968	800.000	0.043	-0.166
-312.953	-32.446	-0.349	-0.192
-311.939	7.819	-0.131	0.097
-310.924	147.466	0.098	0.131
-309.910	426.807	-0.099	0.212
-308.895	-33.377	-0.339	0.185
-307.880	177.731	-0.071	-0.102
-306.866	260.948	0.030	-0.051
-305.851	-200.000	-0.009	0.297
-304.837	130.225	-0.094	0.119
-303.822	-137.494	-0.162	0.018
-302.807	800.000	-0.078	0.258
-301.793	-30.082	0.039	-0.022
-300.778	-0.607	-0.357	-0.250
-299.764	800.000	-0.016	0.058
-298.749	-9.930	-0.234	-0.154
-297.735	50.959	0.158	-0.148
-296.720	353.874	-0.113	0.222
-295.705	-43.549	0.387	-0.193
-294.691	-98.483	0.142	0.036
-293.676	800.000	0.062	-0.187
-292.662	95.710	-0.142	-0.160
-291.647	285.987	0.046	-0.083
-290.632	-200.000	-0.003	0.081
-289.618	-104.757	0.197	-0.045
-288.603	285.764	0.063	0.112
-287.589	141.786	-0.077	-0.101
-286.574	-89.513	0.261	-0.076
-285.559	272.325	0.201	-0.350
-284.545	509.177	0.053	0.121
-283.530	-121.791	-0.216	-0.035
-282.516	-41.476	-0.316	0.160
-281.501	-1.424	-0.088	0.061
-280.486	-200.000	0.001	-0.056
-279.472	154.282	0.141	-0.191
-278.457	-157.271	0.062	-0.004
-277.443	51.538	0.270	0.253
-276.428	354.089	-0.102	-0.200
-275.413	-200.000	-0.007	-0.046
-274.399	800.000	-0.012	0.034
-273.384	19.696	-0.225	-0.178
-272.370	-200.000	0.074	-0.368
-271.355	-72.207	0.494	0.181
-270.340	-78.731	0.188	0.063
-269.326	-200.000	0.107	-0.473
-268.311	106.344	0.121	-0.142
-267.297	800.000	0.034	0.134
-266.282	800.000	0.054	0.196
-265.267	219.095	0.025	-0.040
-264.253	800.000	0.024	-0.069
-263.238	347.291	-0.032	0.062
-262.224	-200.000	0.024	-0.306
-261.209	121.954	0.173	0.213
-260.195	13.786	-0.118	-0.091
-259.180	-137.081	-0.368	-0.042
-258.165	-200.000	-0.026	0.438
-257.151	388.039	-0.028	-0.056
-256.136	-158.199	-0.304	-0.018
-255.122	235.207	-0.139	0.226
-254.107	200.058	-0.126	-0.191
-253.092	-34.291	-0.181	-0.098
-252.078	-0.358	-0.156	0.109
-251.063	131.949	-0.109	0.138
-250.049	-200.000	0.002	0.170
-249.034	-18.988	-0.261	-0.160
-248.019	270.567	0.068	0.117
-247.005	55.039	-0.188	-0.179
-245.990	-200.000	0.023	0.412
-244.976	-14.326	0.113	-0.072
-243.961	-2.745	0.384	-0.265
-242.946	-200.000	-0.026	-0.165
-241.932	800.000	-0.087	-0.262
-240.917	436.106	0.008	0.017
-239.903	323.196	0.142	0.268
-238.888	287.756	-0.174	0.310
-237.873	-69.129	-0.185	0.070
-236.859	-28.545	0.083	0.047
-235.844	-99.135	0.172	0.043
-234.830	18.231	-0.122	0.096
-233.815	596.203	0.024	-0.057
-232.800	-200.000	-0.001	0.065
-231.786	-48.204	0.096	0.046
-230.771	-200.000	-0.021	-0.101
-229.757	214.193	0.085	0.132
-228.742	800.000	0.040	-0.135
-227.727	-63.036	0.268	-0.109
-226.713	-46.244	-0.410	-0.198
-225.698	349.176	-0.042	0.081
-224.684	-132.866	-0.168	0.021
-223.669	-200.000	-0.047	-0.338
-222.655	117.589	0.084	-0.102
-221.640	-88.459	0.216	-0.063
-220.625	45.433	0.321	0.291
-219.611	-150.806	0.145	-0.011
-218.596	-186.967	0.315	-0.004
-217.582	368.587	-0.120	-0.240
-216.567	461.648	0.068	-0.149
-215.552	226.149	-0.130	0.208
-214.538	800.000	-0.068	-0.264
-213.523	17.450	-0.223	0.175
-212.509	-200.000	-0.000	-0.007
-211.494	-200.000	-0.022	-0.137
-210.479	800.000	-0.032	-0.123
-209.465	87.621	-0.051	-0.055
-208.450	197.391	-0.127	-0.191
-207.436	-200.000	0.004	0.307
-206.421	30.582	-0.198	-0.167
-205.406	88.037	-0.220	-0.241
-204.392	145.348	0.153	0.202
-203.377	684.941	0.041	0.106
-202.363	-51.417	0.313	0.144
-201.348	-68.731	-0.115	-0.044
-200.333	-132.365	0.159	-0.020
-199.319	-146.201	0.074	0.006
-198.304	800.000	0.035	0.125
-197.290	-200.000	-0.011	-0.171
-196.275	-61.668	0.175	0.072
-195.260	-110.093	0.187	0.038
-194.246	-183.909	-0.375	-0.006
-193.231	-149.328	0.112	-0.009
-192.217	-39.796	0.158	-0.081
-191.202	-140.691	-0.197	-0.020
-190.187	-69.701	-0.144	0.054
-189.173	74.497	0.119	0.123
-188.158	-200.000	0.014	0.214
-187.144	-1.194	0.151	0.105
-186.129	-72.855	0.205	0.074
-185.114	142.130	-0.084	0.110
-184.100	-148.018	0.047	0.004
-183.085	-200.000	0.023	0.136
-182.071	-34.071	0.208	-0.112
-181.056	-64.063	-0.061	0.025
-180.042	-96.028	0.137	-0.036
-179.027	-200.000	0.070	0.364
-178.012	600.210	0.059	-0.143
-176.998	800.000	-0.046	0.194
-175.983	133.159	-0.243	-0.309
-174.969	18.581	-0.263	-0.207
-173.954	652.401	0.123	0.310
-172.939	-135.267	0.277	-0.033
-171.925	0.573	-0.033	-0.023
-170.910	-187.312	-0.080	-0.001
-169.896	-81.389	0.170	0.055
-168.881	-84.691	-0.117	-0.036
-167.866	800.000	0.052	0.205
-166.852	-49.704	0.303	0.142
-165.837	-55.022	0.242	0.107
-164.823	8.684	-0.020	-0.015
-163.808	-40.425	-0.166	0.085
-162.793	-128.969	-0.289	0.040
-161.779	277.601	-0.054	-0.094
-160.764	-28.586	0.395	-0.223
-159.750	-19.451	-0.068	0.042
-158.735	82.318	-0.105	0.112
-157.720	35.354	0.111	0.095
-156.706	140.670	0.105	-0.136
-155.691	-116.933	-0.101	0.018
-154.677	-200.000	-0.007	0.242
-153.662	77.564	0.029	0.030
-152.647	800.000	0.048	0.146
-151.633	-98.072	-0.138	0.035
-150.618	-137.770	0.159	-0.018
-149.604	-200.000	0.025	-0.276
-148.589	-83.674	0.208	0.065
-147.574	-200.000	-0.001	0.306
-146.560	394.887	-0.147	0.301
-145.545	-200.000	-0.003	0.142
-144.531	-47.260	-0.206	0.098
-143.516	-87.902	-0.148	-0.044
-142.502	800.000	0.040	-0.148
-141.487	-200.000	-0.040	0.195
-140.472	-166.514	0.214	-0.009
-139.458	13.109	0.098	-0.075
-138.443	-26.052	0.368	-0.213
-137.429	-200.000	0.003	-0.299
-136.414	-200.000	0.005	-0.074
-135.399	25.002	0.161	0.131
-134.385	-181.648	0.194	0.004
-133.370	52.197	0.265	-0.248
-132.356	-200.000	-0.007	0.359
-131.341	-136.932	-0.191	-0.021
-130.326	191.930	0.333	-0.492
-129.312	-200.000	0.046	-0.279
-128.297	-90.727	0.177	-0.050
-127.283	-146.734	0.287	-0.024
-126.268	548.227	-0.076	-0.178
-125.253	-73.749	0.287	-0.102
-124.239	-139.204	0.327	0.035
-123.224	-200.000	0.026	-0.270
-122.210	-198.635	-0.589	0.003
