DTS Sentinel unit serial number:	SN413079Multiplexer serial number:	ORYXHardware model number:	OX4-SRSoftware version number:	ORYX F/W v4.00 Oryx Data Collector v3.7.2.0data status	okinstallation	princeton_trtdifferential loss correction	single-endedforward channel	channel 2reverse channel	N/Adate	2019/09/12time	19:07:49forward acquisition time	15.00reverse acquisition time	0.00gamma	496.2192k internal	0.2324k external	0.2324temperature offset calibration	1.0150default loss term (dB/km)	0.3790temperature slope calibration	1.0000multiplexer offset coefficient	1.0000multiplexer slope coefficient	1.0000fibre end	0.00T internal ref (°C)	32.62T ext. ref 1 (°C)	3.18T ext. ref 2 (°C)	27.27length (m)	temperature (°C)	Stokes	anti-Stokes-747.200	800.000	0.139	0.451
-746.185	-5.833	0.697	0.482
-745.171	149.625	0.385	-0.527
-744.156	800.000	-0.227	-0.956
-743.142	147.749	0.375	-0.510
-742.127	8.679	-0.638	0.485
-741.112	-130.514	0.745	-0.102
-740.098	128.222	-0.133	0.171
-739.083	59.628	-0.507	0.505
-738.069	53.452	-0.506	-0.490
-737.054	-200.000	0.005	0.196
-736.039	-1.506	-0.642	0.457
-735.025	0.338	0.194	-0.140
-734.010	184.599	-0.513	-0.766
-732.996	-200.000	-0.086	1.413
-731.981	240.052	-0.444	-0.746
-730.966	38.159	-0.695	-0.624
-729.952	-6.830	-0.572	-0.392
-728.937	-200.000	0.018	-0.930
-727.923	224.845	0.413	-0.675
-726.908	57.552	-0.625	-0.616
-725.894	800.000	0.157	-0.579
-724.879	-200.000	0.120	-0.534
-723.864	-101.961	0.331	-0.080
-722.850	-115.822	-0.214	0.040
-721.835	69.574	0.556	0.577
-720.821	-152.384	-0.161	0.012
-719.806	118.449	0.091	0.113
-718.791	800.000	0.076	0.317
-717.777	-86.782	-0.346	0.107
-716.762	-89.143	0.339	-0.101
-715.748	-200.000	-0.067	-0.701
-714.733	-200.000	0.041	-0.182
-713.718	269.716	-0.267	0.472
-712.704	-59.235	-0.309	0.134
-711.689	-121.618	0.115	-0.019
-710.675	176.055	-0.265	0.387
-709.660	38.513	-0.340	0.306
-708.645	-14.075	0.646	-0.420
-707.631	800.000	0.063	0.192
-706.616	-64.123	0.468	-0.192
-705.602	-114.682	-0.468	-0.090
-704.587	341.114	0.351	-0.691
-703.572	-200.000	0.045	0.547
-702.558	-62.454	1.109	0.464
-701.543	-112.054	0.432	0.088
-700.529	87.686	-0.220	0.245
-699.514	-121.809	-1.075	0.179
-698.499	575.626	0.186	0.457
-697.485	-48.864	-1.192	-0.576
-696.470	-158.988	-0.173	0.010
-695.456	310.140	-0.136	-0.256
-694.441	33.789	0.815	-0.714
-693.426	-200.000	0.014	0.212
-692.412	6.913	-0.805	-0.604
-691.397	-101.030	-0.747	-0.185
-690.383	-200.000	0.041	0.570
-689.368	-87.767	0.488	-0.148
-688.354	610.883	0.353	-0.890
-687.339	-168.327	-0.933	-0.036
-686.324	480.683	0.061	-0.139
-685.310	-28.989	-0.535	0.309
-684.295	110.419	0.229	-0.277
-683.281	57.424	0.267	-0.262
-682.266	-200.000	0.131	0.600
-681.251	7.543	0.416	-0.313
-680.237	-98.493	-0.301	-0.077
-679.222	386.476	0.225	-0.467
-678.208	-79.386	0.490	0.167
-677.193	-169.030	1.008	-0.038
-676.178	-103.843	-0.150	0.035
-675.164	-71.222	0.111	-0.042
-674.149	-170.349	0.847	-0.030
-673.135	-144.570	0.661	-0.061
-672.120	-8.055	-0.338	-0.230
-671.105	72.115	-0.225	0.236
-670.091	371.459	0.308	-0.629
-669.076	338.880	0.208	0.409
-668.062	800.000	-0.062	0.226
-667.047	56.102	0.664	-0.649
-666.032	5.558	0.509	-0.378
-665.018	-200.000	0.018	0.355
-664.003	800.000	0.158	-0.667
-662.989	118.277	-0.319	0.396
-661.974	279.683	-0.481	0.865
-660.959	-200.000	0.084	-0.902
-659.945	259.869	-0.630	-1.095
-658.930	-99.630	-0.865	-0.218
-657.916	-200.000	0.096	-0.916
-656.901	-130.690	-1.076	0.146
-655.886	-66.149	-0.638	0.256
-654.872	5.423	-0.351	0.261
-653.857	339.023	0.279	0.546
-652.843	129.155	-0.394	0.505
-651.828	249.532	0.261	0.445
-650.814	105.294	-0.305	0.362
-649.799	405.718	-0.118	0.251
-648.784	-40.469	0.580	0.303
-647.770	-150.112	0.997	-0.078
-646.755	-27.565	0.712	0.416
-645.741	217.728	-0.397	0.636
-644.726	-147.065	0.839	0.072
-643.711	69.883	0.325	0.337
-642.697	-73.118	-0.650	-0.239
-641.682	-134.854	-0.465	0.057
-640.668	18.656	-0.195	0.157
-639.653	-18.710	-0.344	-0.216
-638.638	-200.000	0.071	0.576
-637.624	-25.743	0.679	-0.402
-636.609	24.062	0.085	-0.071
-635.595	-105.208	-0.611	-0.140
-634.580	-200.000	0.148	0.689
-633.565	-200.000	-0.041	-0.462
-632.551	694.287	-0.196	-0.516
-631.536	-200.000	0.038	-0.371
-630.522	-7.539	-0.672	0.457
-629.507	547.828	0.132	-0.318
-628.492	522.252	-0.486	-1.146
-627.478	-99.850	0.786	0.197
-626.463	-67.790	-0.483	0.190
-625.449	622.468	-0.216	-0.546
-624.434	158.072	0.371	0.517
-623.419	-185.574	-0.512	-0.008
-622.405	800.000	-0.269	0.789
-621.390	240.854	0.035	0.058
-620.376	60.668	0.353	0.351
-619.361	119.420	0.592	-0.736
-618.346	-145.911	0.719	0.064
-617.332	-21.882	0.151	0.092
-616.317	-200.000	-0.378	-0.001
-615.303	77.532	-0.433	-0.463
-614.288	-37.453	0.593	-0.318
-613.273	192.989	0.272	-0.412
-612.259	564.416	0.120	0.291
-611.244	-119.473	0.594	0.103
-610.230	-200.000	0.029	-0.661
-609.215	32.135	0.330	-0.285
-608.201	-132.915	0.938	-0.120
-607.186	101.267	0.402	-0.470
-606.171	-20.818	0.203	0.125
-605.157	-109.679	-0.056	-0.012
-604.142	512.408	0.096	0.225
-603.128	-130.132	0.488	-0.067
-602.113	53.678	-0.810	-0.780
-601.098	-200.000	-0.047	-0.554
-600.084	-36.403	0.348	0.188
-599.069	3.733	0.800	0.586
-598.055	-136.208	-0.587	-0.069
-597.040	-92.307	0.059	-0.017
-596.025	-95.845	-0.403	0.108
-595.011	-37.362	0.257	0.138
-593.996	-55.116	-0.601	0.271
-592.982	-162.681	0.266	0.013
-591.967	-200.000	-0.088	0.473
-590.952	171.942	-0.167	0.241
-589.938	148.886	-0.771	-1.046
-588.923	256.065	-0.086	-0.148
-587.909	445.109	0.389	0.858
-586.894	-200.000	0.087	0.776
-585.879	-34.382	-0.048	-0.026
-584.865	-44.825	0.329	-0.165
-583.850	-200.000	-0.079	0.435
-582.836	-139.648	-0.411	0.044
-581.821	107.009	-0.571	-0.681
-580.806	628.560	-0.096	-0.243
-579.792	28.917	0.252	-0.214
-578.777	-200.000	-0.001	-0.878
-577.763	800.000	0.091	-0.383
-576.748	18.071	-0.377	-0.301
-575.733	-135.777	-0.907	-0.108
-574.719	36.889	-0.251	-0.222
-573.704	553.388	-0.119	0.288
-572.690	800.000	0.174	0.675
-571.675	-74.924	-0.482	-0.173
-570.661	-72.954	0.326	0.120
-569.646	113.833	0.144	0.176
-568.631	800.000	-0.256	0.710
-567.617	-200.000	0.120	0.939
-566.602	45.010	0.306	-0.283
-565.588	238.171	0.185	-0.308
-564.573	-81.685	-0.326	0.107
-563.558	-18.810	-0.810	0.505
-562.544	28.924	0.868	0.737
-561.529	203.536	-0.285	0.442
-560.515	-157.716	0.366	0.022
-559.500	-200.000	-0.145	-0.800
-558.485	63.080	0.413	-0.414
-557.471	-95.373	0.602	0.162
-556.456	-153.188	1.122	0.079
-555.442	800.000	0.145	-0.544
-554.427	-200.000	0.010	-0.158
-553.412	-87.755	0.422	-0.127
-552.398	631.675	0.198	0.502
-551.383	536.939	0.055	0.130
-550.369	-132.030	-0.319	0.042
-549.354	-175.340	0.196	0.005
-548.339	97.986	0.149	-0.172
-547.325	-162.804	0.275	-0.013
-546.310	-50.679	-0.805	0.380
-545.296	-200.000	-0.091	0.638
-544.281	-128.869	-0.471	0.066
-543.266	-200.000	-0.051	-0.250
-542.252	6.761	0.535	-0.399
-541.237	3.489	0.767	0.560
-540.223	-83.620	0.682	-0.218
-539.208	201.954	-0.491	-0.758
-538.193	-11.721	-0.525	-0.345
-537.179	-145.667	-0.459	-0.041
-536.164	-55.331	0.226	0.102
-535.150	-149.569	-0.388	0.031
-534.135	754.382	-0.185	0.499
-533.121	6.094	-0.733	0.544
-532.106	-44.065	0.383	-0.193
-531.091	-161.504	0.590	0.030
-530.077	485.875	0.089	0.202
-529.062	-99.140	-0.204	-0.052
-528.048	214.911	-0.161	-0.255
-527.033	-31.513	-0.407	0.229
-526.018	120.000	-0.273	0.339
-525.004	-34.566	-0.318	-0.174
-523.989	-86.243	-0.425	-0.131
-522.975	53.799	0.346	0.333
-521.960	-98.368	-0.711	-0.182
-520.945	-200.000	-0.036	0.167
-519.931	41.694	0.058	-0.052
-518.916	-66.160	0.065	0.026
-517.902	23.236	-0.233	0.191
-516.887	-200.000	-0.015	0.299
-515.872	-59.908	0.701	0.300
-514.858	-98.990	-0.810	0.206
-513.843	-166.517	-1.027	0.043
-512.829	-159.689	0.338	0.019
-511.814	-82.401	0.904	0.294
-510.799	800.000	0.125	-0.382
-509.785	554.991	0.214	-0.515
-508.770	-35.295	-0.297	-0.161
-507.756	64.995	-0.394	-0.398
-506.741	202.827	-0.207	-0.319
-505.726	-74.731	-0.607	-0.218
-504.712	-200.000	-0.020	0.780
-503.697	47.264	0.147	0.137
-502.683	-200.000	-0.113	-1.058
-501.668	6.128	-0.590	-0.437
-500.653	-200.000	-0.086	-1.014
-499.639	94.031	0.109	0.123
-498.624	-200.000	-0.131	0.668
-497.610	232.814	0.376	-0.617
-496.595	613.358	-0.135	0.338
-495.581	-200.000	0.044	-0.326
-494.566	-69.977	0.622	0.237
-493.551	272.052	-0.246	0.434
-492.537	226.341	-0.496	0.805
-491.522	-12.982	0.371	0.241
-490.508	-43.295	-0.509	-0.257
-489.493	27.461	0.186	-0.156
-488.478	275.396	0.029	0.052
-487.464	-98.620	0.571	0.146
-486.449	682.248	0.102	-0.267
-485.435	-65.832	0.148	-0.059
-484.420	-103.078	0.385	-0.091
-483.405	14.724	0.549	0.429
-482.391	-200.000	-0.040	-0.671
-481.376	717.823	0.352	0.933
-480.362	85.213	-0.429	-0.470
-479.347	52.476	0.047	0.045
-478.332	171.065	-0.120	-0.172
-477.318	800.000	0.188	-0.562
-476.303	800.000	0.019	-0.069
-475.289	-200.000	-0.104	0.485
-474.274	86.621	0.715	0.788
-473.259	116.001	0.082	0.101
-472.245	33.913	0.624	0.542
-471.230	73.493	0.281	0.293
-470.216	741.650	0.018	-0.049
-469.201	669.255	-0.241	0.623
-468.186	-46.934	-0.688	-0.336
-467.172	225.549	0.115	0.186
-466.157	-200.000	-0.030	-0.491
-465.143	-163.777	-0.228	0.011
-464.128	572.888	0.152	0.371
-463.113	-66.430	0.680	-0.270
-462.099	-200.000	0.035	-0.654
-461.084	2.616	0.749	0.542
-460.070	407.412	-0.070	-0.148
-459.055	-200.000	-0.002	0.348
-458.040	209.180	-0.361	-0.565
-457.026	-200.000	-0.026	0.424
-456.011	41.729	0.316	-0.286
-454.997	-16.029	1.071	-0.680
-453.982	-49.237	-0.601	-0.286
-452.968	-198.591	-0.599	-0.003
-451.953	88.206	-0.149	-0.165
-450.938	-47.352	-1.027	0.499
-449.924	6.076	-0.278	0.206
-448.909	800.000	-0.136	-0.462
-447.895	58.631	0.146	0.143
-446.880	192.550	-0.232	0.349
-445.865	-164.618	0.842	0.038
-444.851	800.000	0.277	0.915
-443.836	-200.000	-0.046	0.252
-442.822	-118.151	-0.475	0.084
-441.807	-4.383	0.636	-0.439
-440.792	-200.000	0.022	-0.639
-439.778	112.859	-0.394	-0.477
-438.763	800.000	-0.168	-0.483
-437.749	-84.584	-0.298	0.094
-436.734	3.600	0.264	-0.192
-435.719	183.126	-0.122	0.179
-434.705	216.378	-0.301	-0.477
-433.690	-12.970	-0.266	-0.172
-432.676	98.778	0.496	0.571
-431.661	-95.728	-1.180	0.315
-430.646	800.000	0.082	-0.274
-429.632	-76.367	-1.070	0.376
-428.617	-200.000	0.143	0.705
-427.603	188.009	-0.230	-0.343
-426.588	-200.000	-0.015	-0.691
-425.573	800.000	0.047	0.140
-424.559	146.888	-0.534	-0.716
-423.544	69.268	0.557	0.571
-422.530	800.000	0.171	-0.530
-421.515	320.651	-0.306	0.578
-420.500	262.704	-0.139	0.241
-419.486	28.031	-0.588	0.494
-418.471	-148.844	0.503	0.041
-417.457	-11.790	-0.174	0.114
-416.442	103.871	0.879	-1.029
-415.428	-83.723	-0.469	-0.149
-414.413	98.080	-0.321	-0.368
-413.398	-200.000	-0.008	0.043
-412.384	-43.054	-0.259	0.131
-411.369	-51.040	0.727	-0.340
-410.355	-42.903	0.321	-0.162
-409.340	-200.000	0.014	0.163
-408.325	333.423	-0.153	0.294
-407.311	800.000	0.331	-0.939
-406.296	-97.020	-0.386	0.101
-405.282	-95.168	-0.321	-0.086
-404.267	45.701	-0.199	0.183
-403.252	-137.661	-0.493	0.055
-402.238	65.244	-0.490	0.494
-401.223	0.594	-0.453	-0.323
-400.209	132.477	-0.317	0.408
-399.194	-86.659	0.347	0.106
-398.179	-200.000	-0.224	1.072
-397.165	81.896	-0.443	-0.478
-396.150	231.409	0.197	0.321
-395.136	-135.807	0.549	-0.065
-394.121	195.639	-0.112	-0.169
-393.106	279.493	0.326	-0.579
-392.092	182.004	-0.307	-0.450
-391.077	273.848	0.325	0.572
-390.063	170.472	0.127	0.180
-389.048	-47.587	-0.367	-0.177
-388.033	-200.000	-0.164	1.159
-387.019	13.832	0.269	0.209
-386.004	-154.657	-0.135	-0.009
-384.990	-6.320	0.226	0.154
-383.975	800.000	-0.060	-0.203
-382.960	-79.815	0.354	0.118
-381.946	-74.548	-0.320	-0.115
-380.931	-200.000	-0.009	-0.186
-379.917	376.849	-0.103	-0.209
-378.902	-102.130	1.227	-0.294
-377.888	105.933	0.156	0.184
-376.873	127.302	-0.283	-0.358
-375.858	-11.903	0.316	0.206
-374.844	190.921	0.246	-0.368
-373.829	103.193	0.062	-0.073
-372.815	-197.415	0.753	-0.005
-371.800	117.272	-0.767	-0.938
-370.785	-87.792	0.349	0.105
-369.771	283.397	0.185	0.331
-368.756	-30.215	0.261	0.148
-367.742	138.801	0.151	0.198
-366.727	-62.593	-0.249	0.103
-365.712	-163.373	0.640	0.030
-364.698	-50.840	-0.385	0.180
-363.683	111.164	0.088	0.105
-362.669	-62.265	0.605	0.250
-361.654	108.052	-0.407	-0.482
-360.639	-62.051	-0.116	-0.048
-359.625	235.869	0.281	0.461
-358.610	-39.584	0.035	0.018
-357.596	-19.865	-0.447	0.275
-356.581	-200.000	-0.021	0.604
-355.566	-168.992	-0.115	-0.004
-354.552	231.709	0.221	0.361
-353.537	236.608	-0.121	-0.199
-352.523	-152.712	-1.305	0.092
-351.508	395.669	0.314	-0.651
-350.493	23.281	-0.315	0.257
-349.479	82.977	0.242	0.262
-348.464	699.757	-0.046	0.121
-347.450	159.491	0.295	-0.407
-346.435	800.000	0.190	-0.572
-345.420	-200.000	-0.128	-0.883
-344.406	800.000	-0.202	-0.750
-343.391	71.079	-0.254	0.262
-342.377	343.980	-0.044	-0.086
-341.362	94.826	-0.591	0.668
-340.348	73.524	0.165	0.172
-339.333	-35.986	0.372	0.200
-338.318	159.790	-0.252	-0.349
-337.304	-11.982	-0.944	-0.615
-336.289	-66.810	-0.454	-0.178
-335.275	750.967	0.298	0.798
-334.260	-200.000	0.060	-0.740
-333.245	-35.248	-0.690	0.373
-332.231	713.243	-0.242	0.637
-331.216	46.050	-0.496	0.456
-330.202	66.410	0.107	-0.108
-329.187	-21.827	-0.413	-0.250
-328.172	-99.935	0.632	0.157
-327.158	-164.803	0.150	0.007
-326.143	-131.874	-0.223	0.029
-325.129	-42.184	-0.265	-0.134
-324.114	9.371	-0.391	0.293
-323.099	-200.000	0.134	-0.677
-322.085	55.393	0.466	-0.448
-321.070	269.073	0.374	-0.651
-320.056	96.066	0.157	0.179
-319.041	800.000	0.187	0.579
-318.026	4.772	-0.237	0.173
-317.012	-30.373	-0.260	0.146
-315.997	-47.980	-0.442	0.212
-314.983	23.316	-0.085	-0.070
-313.968	-9.124	0.254	-0.169
-312.953	800.000	-0.345	1.393
-311.939	-200.000	0.174	0.756
-310.924	-115.655	0.466	0.087
-309.910	638.731	0.187	-0.472
-308.895	242.585	-0.171	0.284
-307.880	-148.002	0.424	-0.035
-306.866	-127.123	-0.162	-0.024
-305.851	146.281	0.289	0.385
-304.837	-200.000	-0.024	0.713
-303.822	94.392	0.605	-0.681
-302.807	705.798	0.092	-0.240
-301.793	-200.000	0.071	-0.488
-300.778	-71.946	-0.500	0.184
-299.764	-149.727	0.760	0.059
-298.749	42.301	0.457	-0.412
-297.735	800.000	0.149	0.479
-296.720	-3.714	-0.575	-0.396
-295.705	-123.501	0.785	0.124
-294.691	-13.248	0.494	-0.318
-293.676	684.332	0.072	0.187
-292.662	77.008	-0.205	0.216
-291.647	116.592	0.364	0.443
-290.632	329.375	-0.265	-0.505
-289.618	552.568	0.243	-0.579
-288.603	697.329	-0.249	-0.650
-287.589	80.744	-0.509	-0.544
-286.574	-95.589	-0.663	0.176
-285.559	721.649	-0.113	-0.299
-284.545	-36.296	0.365	-0.195
-283.530	-59.048	0.231	0.099
-282.516	449.278	-0.143	-0.312
-281.501	130.809	0.017	-0.021
-280.486	266.028	0.444	0.768
-279.472	96.964	0.441	0.501
-278.457	800.000	0.060	-0.249
-277.443	-8.293	0.162	0.108
-276.428	-1.990	-0.228	-0.159
-275.413	635.900	0.198	-0.497
-274.399	-122.180	0.957	0.155
-273.384	800.000	-0.080	-0.295
-272.370	-67.188	0.169	0.066
-271.355	-21.407	0.165	-0.100
-270.340	104.886	0.247	0.289
-269.326	707.163	0.105	0.274
-268.311	-64.465	0.519	-0.209
-267.297	565.416	-0.159	-0.382
-266.282	-92.750	-1.193	0.331
-265.267	-200.000	0.021	0.404
-264.253	-61.162	-0.352	0.147
-263.238	-200.000	0.094	0.494
-262.224	161.564	0.444	-0.615
-261.209	-200.000	-0.154	-0.678
-260.195	-110.846	-0.280	0.057
-259.180	241.235	0.544	0.899
-258.165	-200.000	-0.107	-0.667
-257.151	-83.636	0.661	0.209
-256.136	527.083	0.226	-0.528
-255.122	60.396	0.189	-0.185
-254.107	-200.000	-0.051	0.292
-253.092	-115.366	-0.571	0.107
-252.078	539.502	-0.238	0.560
-251.063	-172.918	-0.359	0.011
-250.049	800.000	-0.229	-0.629
-249.034	-200.000	-0.001	-0.431
-248.019	239.708	0.236	0.389
-247.005	738.454	0.321	-0.852
-245.990	188.473	-0.268	0.397
-244.976	-93.840	0.746	-0.203
-243.961	-72.189	-0.765	0.281
-242.946	-51.789	-0.536	0.247
-241.932	20.344	0.431	0.345
-240.917	14.981	-0.370	-0.287
-239.903	-200.000	-0.081	-0.760
-238.888	147.919	-0.148	0.197
-237.873	-59.761	-0.474	-0.201
-236.859	263.725	0.136	-0.235
-235.844	288.924	0.143	-0.257
-234.830	-200.000	-0.005	0.081
-233.815	44.764	0.155	-0.141
-232.800	544.058	-0.361	-0.854
-231.786	-200.000	0.057	0.373
-230.771	-200.000	-0.036	0.220
-229.757	-129.765	-0.543	0.074
-228.742	41.568	0.381	-0.341
-227.727	90.312	0.357	-0.395
-226.713	12.196	0.846	-0.644
-225.698	190.786	0.207	0.307
-224.684	299.835	-0.051	0.094
-223.669	471.479	-0.287	0.638
-222.655	-41.595	-0.246	0.125
-221.640	148.372	0.208	0.278
-220.625	63.508	0.440	0.437
-219.611	-31.678	0.191	0.106
-218.596	-101.038	-0.519	0.126
-217.582	12.198	-0.662	0.504
-216.567	243.938	-0.282	-0.467
-215.552	800.000	0.184	-0.635
-214.538	-118.375	-0.051	-0.009
-213.523	-79.883	-1.041	-0.346
-212.509	331.085	0.216	0.412
-211.494	117.527	0.192	-0.233
-210.479	111.866	-0.473	-0.565
-209.465	658.854	0.052	0.132
-208.450	-200.000	-0.074	-0.368
-207.436	-200.000	0.038	0.198
-206.421	-37.172	-0.475	-0.251
-205.406	-59.975	-0.480	-0.203
-204.392	119.551	0.543	0.664
-203.377	-102.368	-0.406	-0.096
-202.363	-113.932	0.174	0.033
-201.348	164.479	-0.359	-0.500
-200.333	-96.583	0.116	0.030
-199.319	83.837	-0.270	0.291
-198.304	-21.037	-0.611	-0.370
-197.290	-70.732	-0.163	-0.061
-196.275	97.973	0.630	0.716
-195.260	-139.010	-0.545	0.058
-194.246	-107.383	0.452	-0.098
-193.231	-159.380	0.822	-0.045
-192.217	800.000	-0.068	0.195
-191.202	216.110	-0.333	-0.523
-190.187	241.026	-0.423	-0.697
-189.173	651.041	0.074	0.187
-188.158	-143.248	0.357	-0.034
-187.144	136.917	0.288	-0.372
-186.129	48.122	-0.834	0.770
-185.114	408.644	0.095	0.199
-184.100	800.000	-0.141	0.608
-183.085	-72.432	-0.345	0.126
-182.071	-78.664	0.516	-0.174
-181.056	-82.044	-0.568	-0.183
-180.042	800.000	0.161	0.564
-179.027	596.870	0.113	-0.277
-178.012	-200.000	0.060	-0.551
-176.998	99.768	0.109	-0.125
-175.983	310.268	-0.562	1.039
-174.969	9.359	-0.400	0.299
-173.954	174.317	0.403	0.574
-172.939	-200.000	-0.001	-0.185
-171.925	-74.365	0.945	0.337
-170.910	-7.801	0.716	0.477
-169.896	-34.565	0.289	-0.156
-168.881	10.232	-0.402	0.302
-167.866	214.532	-0.507	-0.792
-166.852	800.000	-0.160	0.513
-165.837	36.679	0.324	0.282
-164.823	83.508	-0.469	-0.504
-163.808	-96.923	-0.139	0.036
-162.793	1.052	-0.588	-0.416
-161.779	800.000	0.293	0.889
-160.764	-28.379	0.615	0.350
-159.750	19.598	0.282	-0.224
-158.735	-81.168	0.659	-0.215
-157.720	-148.670	-0.706	-0.057
-156.706	418.235	0.125	0.263
-155.691	-51.615	-0.224	-0.103
-154.677	-86.484	0.531	0.161
-153.662	800.000	-0.065	0.178
-152.647	-119.390	0.859	-0.147
-151.633	426.015	-0.234	-0.497
-150.618	6.238	0.717	0.524
-149.604	800.000	0.194	-0.542
-148.589	-33.252	0.294	-0.161
-147.574	67.503	0.329	-0.331
-146.560	800.000	0.073	-0.278
-145.545	144.623	-0.458	0.603
-144.531	105.100	-0.369	0.429
-143.516	-169.160	0.389	0.014
-142.502	-1.452	-0.678	0.472
-141.487	-128.868	0.479	-0.066
-140.472	125.641	0.481	0.598
-139.458	71.310	0.472	-0.483
-138.443	-200.000	-0.037	-0.550
-137.429	-42.089	0.948	-0.478
-136.414	343.696	0.340	0.657
-135.399	-88.800	-0.180	0.053
-134.385	79.176	0.656	0.693
-133.370	-58.986	0.581	-0.247
-132.356	-62.681	0.711	0.291
-131.341	-70.002	0.441	-0.166
-130.326	800.000	0.262	-0.714
-129.312	-200.000	0.098	0.517
-128.297	-136.148	-1.067	-0.123
-127.283	393.770	-0.359	-0.736
-126.268	-22.795	-0.322	-0.192
-125.253	-118.996	-0.927	0.160
-124.239	32.300	-0.451	-0.384
-123.224	800.000	0.114	0.321
-122.210	34.781	-0.059	-0.051
-121.195	393.283	-0.166	0.340
-120.180	-200.000	-0.042	-0.214
-119.166	-103.676	0.334	0.077
