DTS Sentinel unit serial number:	SN413079Multiplexer serial number:	ORYXHardware model number:	OX4-SRSoftware version number:	ORYX F/W v4.00 Oryx Data Collector v3.7.2.0data status	okinstallation	princeton_trtdifferential loss correction	single-endedforward channel	channel 2reverse channel	N/Adate	2019/09/15time	01:59:35forward acquisition time	60.00reverse acquisition time	0.00gamma	496.2192k internal	0.2325k external	0.2325temperature offset calibration	1.0031default loss term (dB/km)	0.3790temperature slope calibration	1.0000multiplexer offset coefficient	1.0000multiplexer slope coefficient	1.0000fibre end	0.00T internal ref (°C)	31.75T ext. ref 1 (°C)	4.51T ext. ref 2 (°C)	26.56length (m)	temperature (°C)	Stokes	anti-Stokes-747.200	800.000	0.039	-0.115
-746.185	-137.248	-0.217	-0.025
-745.171	511.276	-0.103	-0.241
-744.156	-133.552	-0.119	0.015
-743.142	-25.145	-0.134	0.080
-742.127	-200.000	0.021	0.110
-741.112	382.238	0.056	-0.116
-740.098	-200.000	-0.042	-0.219
-739.083	-9.206	-0.152	-0.102
-738.069	142.898	-0.213	0.285
-737.054	66.608	0.059	0.060
-736.039	-61.828	-0.307	-0.130
-735.025	47.871	0.173	0.163
-734.010	187.386	-0.189	-0.284
-732.996	659.034	-0.117	-0.303
-731.981	-200.000	0.017	-0.183
-730.966	-24.035	-0.208	0.125
-729.952	-3.289	-0.371	-0.261
-728.937	-45.545	0.063	-0.032
-727.923	-7.772	-0.315	-0.215
-726.908	-42.407	-0.378	-0.194
-725.894	267.505	-0.030	-0.053
-724.879	65.752	-0.313	-0.320
-723.864	-81.134	0.278	-0.092
-722.850	352.911	0.035	0.071
-721.835	147.902	0.129	0.176
-720.821	80.735	-0.290	0.315
-719.806	-155.274	0.222	0.015
-718.791	-168.838	-0.178	0.007
-717.777	-48.215	-0.042	-0.020
-716.762	-151.477	-0.166	0.012
-715.748	-200.000	0.020	0.192
-714.733	531.552	0.086	-0.206
-713.718	-93.169	-0.082	-0.023
-712.704	-20.827	-0.060	-0.037
-711.689	-57.589	0.100	0.044
-710.675	7.812	-0.153	0.115
-709.660	800.000	-0.043	0.133
-708.645	9.263	-0.341	0.260
-707.631	39.412	0.404	-0.365
-706.616	-100.862	-0.332	-0.082
-705.602	-200.000	0.013	0.139
-704.587	2.882	-0.299	-0.218
-703.572	211.022	0.256	-0.405
-702.558	121.932	-0.049	-0.062
-701.543	82.533	0.097	0.106
-700.529	243.832	-0.133	-0.224
-699.514	-37.901	0.320	-0.172
-698.499	800.000	0.070	0.285
-697.485	800.000	-0.065	0.228
-696.470	-200.000	0.046	0.460
-695.456	249.092	-0.136	-0.232
-694.441	-134.007	-0.273	-0.034
-693.426	97.702	-0.167	0.194
-692.412	-140.993	0.307	0.032
-691.397	800.000	-0.084	-0.369
-690.383	-127.703	-0.219	0.032
-689.368	-200.000	-0.001	-0.314
-688.354	-157.921	-0.190	-0.011
-687.339	-200.000	-0.034	0.336
-686.324	-24.815	0.032	0.019
-685.310	27.578	0.164	-0.139
-684.295	-162.526	-0.115	-0.006
-683.281	-47.103	0.190	-0.093
-682.266	-200.000	-0.047	0.237
-681.251	-26.294	0.141	-0.083
-680.237	-173.760	-0.052	-0.002
-679.222	58.508	-0.212	-0.209
-678.208	-131.510	-0.177	-0.023
-677.193	178.081	0.158	0.231
-676.178	-152.550	0.306	0.022
-675.164	226.951	-0.184	-0.301
-674.149	126.805	0.034	0.043
-673.135	48.549	-0.196	-0.185
-672.120	800.000	-0.102	-0.361
-671.105	-117.141	-0.304	0.056
-670.091	-83.803	-0.217	-0.070
-669.076	-200.000	-0.062	0.438
-668.062	-56.648	0.189	0.084
-667.047	-87.502	-0.423	-0.129
-666.032	657.797	0.132	0.343
-665.018	-69.416	-0.234	-0.090
-664.003	89.792	0.218	0.245
-662.989	11.405	-0.144	0.111
-661.974	-54.400	-0.049	-0.022
-660.959	-97.687	-0.207	-0.054
-659.945	-92.486	-0.320	-0.091
-658.930	101.173	-0.160	-0.187
-657.916	-79.600	0.403	-0.137
-656.901	-200.000	-0.006	-0.092
-655.886	-147.857	0.156	0.013
-654.872	-134.830	-0.249	-0.030
-653.857	128.012	-0.003	-0.004
-652.843	272.853	0.138	-0.244
-651.828	422.112	0.077	0.166
-650.814	-82.547	0.150	0.049
-649.799	40.232	-0.125	0.113
-648.784	-137.186	-0.155	-0.018
-647.770	-59.763	-0.354	-0.152
-646.755	399.764	-0.081	-0.170
-645.741	-111.333	-0.319	-0.065
-644.726	-102.972	0.184	0.044
-643.711	-90.218	-0.262	0.077
-642.697	90.909	-0.176	0.199
-641.682	166.196	0.030	-0.043
-640.668	-107.064	-0.350	-0.078
-639.653	-200.000	0.026	-0.387
-638.638	-60.395	-0.163	-0.070
-637.624	-78.412	0.185	0.064
-636.609	-185.329	-0.184	0.003
-635.595	60.414	-0.411	-0.409
-634.580	-90.095	-0.247	-0.072
-633.565	6.064	0.051	0.038
-632.551	181.101	-0.075	0.110
-631.536	-200.000	-0.002	-0.142
-630.522	-200.000	0.003	0.324
-629.507	-152.375	-0.307	0.022
-628.492	118.925	-0.117	0.145
-627.478	244.796	-0.076	0.129
-626.463	278.259	0.107	-0.192
-625.449	-159.102	0.111	-0.006
-624.434	-99.841	-0.289	0.073
-623.419	-200.000	-0.049	-0.270
-622.405	-43.516	-0.223	0.113
-621.390	548.808	-0.073	0.176
-620.376	91.294	-0.214	0.241
-619.361	-101.957	0.088	0.021
-618.346	-200.000	0.128	0.000
-617.332	-200.000	0.003	-0.084
-616.317	190.670	-0.084	0.126
-615.303	5.456	0.065	0.048
-614.288	-200.000	0.069	-0.374
-613.273	-4.235	-0.164	0.114
-612.259	-200.000	0.056	-0.265
-611.244	-200.000	0.001	0.080
-610.230	-128.265	-0.339	0.049
-609.215	800.000	-0.060	0.180
-608.201	-163.384	0.059	0.003
-607.186	-84.120	0.191	-0.061
-606.171	-171.890	-0.223	0.007
-605.157	-122.519	-0.238	-0.039
-604.142	220.825	-0.137	0.220
-603.128	25.989	-0.233	-0.195
-602.113	491.958	0.139	-0.319
-601.098	128.239	-0.109	0.139
-600.084	123.402	0.092	0.116
-599.069	-70.866	0.138	0.052
-598.055	-113.157	0.451	-0.089
-597.040	222.931	-0.019	0.031
-596.025	800.000	-0.066	-0.282
-595.011	-200.000	-0.022	-0.125
-593.996	244.635	0.022	0.037
-592.982	212.597	-0.124	0.197
-591.967	23.896	-0.149	-0.123
-590.952	6.173	-0.091	0.068
-589.938	800.000	0.049	-0.178
-588.923	800.000	-0.040	-0.129
-587.909	-158.625	0.313	-0.018
-586.894	-200.000	0.027	-0.368
-585.879	-130.000	0.414	0.057
-584.865	-45.993	0.233	-0.115
-583.850	198.230	-0.252	0.387
-582.836	108.001	0.048	-0.057
-581.821	-27.729	0.179	-0.104
-580.806	45.674	-0.177	0.164
-579.792	99.686	0.319	-0.371
-578.777	183.366	-0.031	0.046
-577.763	82.017	-0.125	0.136
-576.748	196.695	0.156	0.239
-575.733	800.000	-0.049	0.172
-574.719	-87.081	0.137	-0.042
-573.704	-20.022	-0.224	-0.139
-572.690	-39.708	0.297	0.156
-571.675	-119.951	0.381	-0.066
-570.661	614.390	0.074	0.185
-569.646	-108.316	0.285	0.062
-568.631	-118.079	0.277	-0.050
-567.617	-60.270	0.282	-0.121
-566.602	131.235	0.126	-0.162
-565.588	-58.087	-0.114	0.050
-564.573	91.119	-0.124	0.139
-563.558	-200.000	0.028	0.341
-562.544	-122.307	0.297	-0.049
-561.529	-94.956	0.174	-0.047
-560.515	-20.463	0.180	0.111
-559.500	-165.298	-0.598	-0.026
-558.485	-125.835	0.253	-0.038
-557.471	-135.474	0.117	0.014
-556.456	184.773	-0.147	0.218
-555.442	-160.054	-0.217	-0.012
-554.427	527.362	-0.097	0.229
-553.412	800.000	0.068	-0.203
-552.398	112.677	0.094	-0.114
-551.383	-78.675	-0.023	0.008
-550.369	295.805	-0.067	0.123
-549.354	-59.222	-0.221	0.096
-548.339	219.462	0.164	0.263
-547.325	113.933	0.138	0.168
-546.310	-23.775	-0.112	-0.067
-545.296	-200.000	0.021	0.212
-544.281	-75.362	0.366	0.131
-543.266	238.333	-0.088	-0.146
-542.252	-35.035	-0.138	0.076
-541.237	-104.283	0.307	-0.071
-540.223	800.000	-0.039	0.132
-539.208	-58.940	-0.081	0.035
-538.193	-31.240	-0.271	-0.153
-537.179	186.435	-0.118	-0.176
-536.164	770.585	-0.059	-0.162
-535.150	-200.000	0.205	-0.001
-534.135	19.295	-0.119	-0.095
-533.121	-141.637	0.307	-0.031
-532.106	800.000	-0.033	0.093
-531.091	-200.000	-0.062	-0.530
-530.077	257.534	0.171	-0.295
-529.062	-22.546	-0.225	0.136
-528.048	190.108	0.158	0.238
-527.033	27.555	-0.071	0.060
-526.018	77.406	-0.168	0.179
-525.004	156.250	-0.146	0.201
-523.989	5.042	-0.148	-0.109
-522.975	76.652	0.103	-0.109
-521.960	-93.873	-0.090	-0.025
-520.945	-6.546	0.259	0.177
-519.931	800.000	-0.035	-0.135
-518.916	85.355	0.137	0.151
-517.902	-200.000	-0.016	0.183
-516.887	800.000	-0.128	-0.376
-515.872	-82.249	0.222	0.072
-514.858	408.668	-0.084	0.177
-513.843	-96.133	-0.376	0.100
-512.829	-142.190	-0.092	0.009
-511.814	497.136	0.076	0.175
-510.799	183.499	-0.250	0.370
-509.785	-200.000	-0.055	0.242
-508.770	-7.409	0.222	-0.150
-507.756	800.000	-0.049	-0.180
-506.741	-21.465	-0.286	-0.174
-505.726	-200.000	0.008	-0.256
-504.712	-200.000	0.024	0.338
-503.697	-200.000	-0.088	0.406
-502.683	-152.738	0.089	-0.006
-501.668	127.407	0.237	-0.300
-500.653	-200.000	0.008	-0.096
-499.639	800.000	0.018	-0.068
-498.624	-27.677	0.102	-0.059
-497.610	-19.771	0.172	-0.106
-496.595	418.887	-0.066	-0.141
-495.581	103.174	0.245	0.287
-494.566	131.836	0.269	-0.346
-493.551	86.367	-0.173	-0.190
-492.537	-200.000	0.050	0.219
-491.522	800.000	-0.048	0.185
-490.508	800.000	0.080	-0.269
-489.493	-200.000	-0.008	-0.098
-488.478	279.844	0.084	-0.150
-487.464	162.708	-0.210	-0.295
-486.449	-159.945	-0.138	-0.008
-485.435	-99.560	0.309	-0.077
-484.420	800.000	0.070	-0.219
-483.405	-14.002	0.101	-0.065
-482.391	183.005	0.106	0.156
-481.376	37.000	-0.198	-0.175
-480.362	-200.000	0.046	-0.206
-479.347	-48.595	0.112	0.054
-478.332	533.218	0.128	-0.303
-477.318	20.931	0.172	0.139
-476.303	800.000	-0.098	-0.365
-475.289	279.337	-0.105	-0.186
-474.274	-200.000	-0.014	-0.286
-473.259	-200.000	0.034	0.182
-472.245	-200.000	-0.041	0.212
-471.230	209.722	0.269	0.422
-470.216	800.000	-0.041	-0.136
-469.201	453.555	-0.165	-0.365
-468.186	396.352	-0.055	0.115
-467.172	-180.784	-0.171	-0.003
-466.157	800.000	-0.067	-0.283
-465.143	800.000	-0.037	-0.116
-464.128	-99.832	0.253	-0.063
-463.113	633.513	0.040	-0.102
-462.099	-43.006	0.096	-0.048
-461.084	-48.830	-0.061	0.029
-460.070	-200.000	0.016	-0.151
-459.055	96.863	-0.114	-0.131
-458.040	33.080	-0.214	-0.185
-457.026	-200.000	0.017	-0.152
-456.011	-200.000	-0.055	-0.404
-454.997	-167.219	0.208	0.008
-453.982	-47.368	-0.417	0.202
-452.968	-119.588	-0.135	-0.023
-451.953	166.717	0.175	-0.247
-450.938	171.510	-0.022	-0.031
-449.924	-155.671	0.141	-0.009
-448.909	-131.078	-0.304	0.040
-447.895	145.247	0.169	-0.225
-446.880	62.076	-0.114	-0.114
-445.865	0.865	0.251	0.179
-444.851	-41.591	-0.160	-0.082
-443.836	-200.000	-0.074	0.423
-442.822	-110.416	-0.215	0.045
-441.807	-200.000	-0.034	0.279
-440.792	-25.916	0.381	0.224
-439.778	-30.509	0.172	-0.097
-438.763	39.392	-0.244	-0.218
-437.749	800.000	-0.161	0.450
-436.734	603.963	0.054	-0.134
-435.719	-200.000	-0.003	-0.123
-434.705	-179.807	-0.203	-0.004
-433.690	9.634	0.093	-0.070
-432.676	800.000	-0.181	0.548
-431.661	-63.412	-0.273	-0.112
-430.646	114.258	-0.120	0.145
-429.632	-82.846	0.065	0.021
-428.617	-131.743	0.150	-0.020
-427.603	-200.000	-0.008	-0.127
-426.588	-14.945	0.175	0.112
-425.573	800.000	0.033	0.106
-424.559	10.238	0.151	0.115
-423.544	168.569	0.128	-0.181
-422.530	-175.005	-0.226	-0.006
-421.515	788.483	0.114	-0.313
-420.500	-156.604	-0.145	0.009
-419.486	148.553	-0.275	-0.370
-418.471	800.000	-0.035	-0.128
-417.457	128.849	0.243	0.308
-416.442	-29.746	0.166	-0.094
-415.428	-200.000	-0.031	0.232
-414.413	-200.000	0.027	-0.243
-413.398	800.000	-0.078	0.278
-412.384	709.807	0.046	-0.122
-411.369	-200.000	-0.014	0.168
-410.355	125.754	-0.148	0.187
-409.340	-182.192	-0.304	0.006
-408.325	153.952	0.138	0.189
-407.311	-56.887	0.047	-0.021
-406.296	800.000	0.077	-0.311
-405.282	800.000	0.068	-0.297
-404.267	-94.177	-0.096	-0.026
-403.252	106.875	-0.179	-0.211
-402.238	-200.000	0.020	-0.382
-401.223	231.695	-0.173	-0.283
-400.209	22.124	-0.193	0.157
-399.194	-54.883	-0.093	-0.042
-398.179	-30.235	0.226	-0.128
-397.165	245.216	0.179	0.300
-396.150	235.325	0.130	0.214
-395.136	-200.000	-0.029	-0.139
-394.121	134.900	-0.088	0.114
-393.106	-163.645	0.282	0.013
-392.092	-200.000	0.026	0.224
-391.077	-185.780	-0.118	-0.002
-390.063	108.212	0.197	0.234
-389.048	330.743	0.013	-0.025
-388.033	603.552	0.101	0.251
-387.019	71.014	-0.128	0.132
-386.004	14.531	0.191	0.149
-384.990	-200.000	-0.017	0.152
-383.975	-86.951	0.061	-0.019
-382.960	105.942	-0.036	0.042
-381.946	-200.000	-0.022	-0.099
-380.931	132.252	0.117	0.149
-379.917	-64.837	0.190	0.077
-378.902	-200.000	-0.004	-0.112
-377.888	17.438	-0.083	0.065
-376.873	44.251	0.324	-0.296
-375.858	-94.937	-0.541	0.146
-374.844	-123.484	0.251	0.040
-373.829	-200.000	0.015	-0.069
-372.815	88.119	0.038	-0.041
-371.800	-80.824	0.140	-0.046
-370.785	-19.493	0.282	0.174
-369.771	-200.000	0.010	-0.246
-368.756	-134.539	0.360	-0.044
-367.742	800.000	-0.037	-0.162
-366.727	-200.000	-0.017	-0.273
-365.712	270.192	0.108	-0.189
-364.698	207.782	0.077	0.120
-363.683	-200.000	-0.026	-0.125
-362.669	-99.350	0.116	0.029
-361.654	-64.572	0.199	0.080
-360.639	506.282	-0.271	-0.625
-359.625	449.289	-0.085	-0.185
-358.610	-4.289	0.151	0.104
-357.596	-40.922	0.045	-0.023
-356.581	-68.884	-0.347	-0.133
-355.566	800.000	0.042	0.180
-354.552	146.887	0.089	0.119
-353.537	-200.000	0.022	0.170
-352.523	254.822	0.094	0.160
-351.508	295.432	-0.233	-0.424
-350.493	43.472	0.146	0.133
-349.479	-10.576	0.066	0.044
-348.464	-200.000	0.022	0.120
-347.450	-44.101	0.033	-0.016
-346.435	-52.864	0.097	0.044
-345.420	-200.000	0.011	0.161
-344.406	10.761	0.041	0.031
-343.391	-28.359	-0.317	-0.182
-342.377	-69.625	0.360	-0.137
-341.362	-200.000	0.004	-0.289
-340.348	-43.126	-0.258	-0.130
-339.333	800.000	-0.098	0.336
-338.318	-200.000	0.016	0.226
-337.304	-170.884	-0.277	-0.009
-336.289	-200.000	-0.012	-0.498
-335.275	414.776	0.116	-0.245
-334.260	180.227	0.104	0.152
-333.245	15.075	-0.109	0.085
-332.231	-85.986	0.225	0.069
-331.216	758.151	0.044	-0.117
-330.202	-14.817	-0.347	0.221
-329.187	-19.478	0.090	-0.056
-328.172	-105.916	-0.062	0.014
-327.158	619.385	-0.081	0.203
-326.143	104.393	-0.174	0.203
-325.129	182.716	0.050	-0.074
-324.114	78.893	-0.090	0.096
-323.099	-73.786	-0.159	-0.057
-322.085	268.649	-0.191	0.333
-321.070	-162.230	0.169	-0.008
-320.056	135.506	-0.177	0.228
-319.041	-15.411	0.130	0.083
-318.026	-42.388	-0.121	-0.062
-317.012	-200.000	0.029	-0.138
-315.997	10.640	-0.116	0.088
-314.983	155.141	-0.156	0.213
-313.968	-157.561	0.170	0.010
-312.953	800.000	0.039	0.167
-311.939	227.509	0.197	0.318
-310.924	-25.729	-0.138	0.081
-309.910	-200.000	-0.021	0.121
-308.895	62.166	-0.103	-0.101
-307.880	-113.072	-0.223	0.044
-306.866	-106.307	0.092	-0.021
-305.851	-173.394	0.280	-0.008
-304.837	-31.909	-0.232	0.129
-303.822	40.822	-0.213	-0.191
-302.807	-14.363	-0.094	-0.060
-301.793	-3.866	0.191	-0.131
-300.778	12.142	-0.168	0.128
-299.764	754.506	-0.170	-0.456
-298.749	-200.000	-0.040	-0.255
-297.735	800.000	0.073	-0.228
-296.720	800.000	0.110	-0.393
-295.705	-63.531	0.393	0.160
-294.691	-131.404	0.087	0.011
-293.676	143.616	0.062	0.082
-292.662	800.000	0.050	0.213
-291.647	-81.012	0.157	-0.052
-290.632	-93.853	-0.083	-0.023
-289.618	754.920	-0.031	-0.084
-288.603	-200.000	0.045	-0.210
-287.589	800.000	-0.019	-0.076
-286.574	-108.492	-0.300	0.064
-285.559	-63.719	0.257	0.104
-284.545	-200.000	-0.024	0.383
-283.530	-200.000	-0.005	-0.197
-282.516	-116.431	0.282	-0.052
-281.501	-200.000	0.045	-0.247
-280.486	-25.220	-0.156	0.092
-279.472	-64.774	-0.098	0.039
-278.457	-71.173	0.315	-0.117
-277.443	-32.089	-0.142	-0.078
-276.428	-141.312	-0.267	0.027
-275.413	120.092	-0.247	0.303
-274.399	363.705	0.142	-0.283
-273.384	125.211	-0.247	0.309
-272.370	795.621	0.129	0.353
-271.355	265.603	-0.086	0.149
-270.340	5.697	0.265	-0.194
-269.326	171.946	-0.162	-0.230
-268.311	103.271	-0.086	0.100
-267.297	71.691	-0.208	0.214
-266.282	-81.150	-0.201	-0.066
-265.267	196.406	0.206	0.311
-264.253	800.000	-0.015	-0.045
-263.238	-62.325	-0.159	-0.065
-262.224	178.444	-0.046	0.067
-261.209	246.573	0.133	0.222
-260.195	-81.692	0.240	-0.078
-259.180	-200.000	-0.004	-0.560
-258.165	-200.000	0.042	0.180
-257.151	-200.000	-0.023	-0.164
-256.136	-87.046	0.101	-0.030
-255.122	205.763	0.062	0.095
-254.107	-200.000	0.004	-0.479
-253.092	-200.000	0.028	0.212
-252.078	520.597	0.013	-0.030
-251.063	350.592	-0.159	-0.311
-250.049	800.000	-0.105	0.287
-249.034	-200.000	-0.011	0.403
-248.019	-37.495	-0.267	0.141
-247.005	15.967	-0.078	0.061
-245.990	42.745	0.129	-0.116
-244.976	800.000	-0.060	0.260
-243.961	321.226	0.079	0.148
-242.946	-115.226	0.022	-0.004
-241.932	141.671	-0.103	-0.135
-240.917	-200.000	0.006	-0.031
-239.903	-89.268	-0.235	-0.068
-238.888	512.929	-0.109	-0.251
-237.873	800.000	0.108	-0.383
-236.859	48.225	-0.261	0.241
-235.844	-142.885	-0.089	-0.009
-234.830	491.050	-0.072	-0.163
-233.815	-121.981	0.097	0.016
-232.800	8.021	0.081	-0.060
-231.786	-93.502	-0.095	0.026
-230.771	45.075	0.089	0.081
-229.757	480.552	-0.131	0.295
-228.742	800.000	-0.052	-0.188
-227.727	-200.000	0.070	-0.345
-226.713	-59.853	0.068	0.029
-225.698	-103.140	0.177	-0.041
-224.684	-133.328	0.268	0.033
-223.669	203.242	0.147	-0.225
-222.655	-40.158	0.103	0.053
-221.640	299.808	-0.031	0.057
-220.625	800.000	0.033	0.136
-219.611	-65.855	0.119	-0.047
-218.596	176.763	-0.307	0.441
-217.582	61.277	0.172	0.169
-216.567	-70.697	0.127	0.047
-215.552	239.684	-0.139	0.229
-214.538	781.395	-0.092	0.250
-213.523	365.613	0.022	-0.044
-212.509	800.000	0.096	-0.400
-211.494	122.773	-0.051	0.064
-210.479	38.219	-0.146	0.128
-209.465	73.039	0.555	-0.574
-208.450	-200.000	-0.010	-0.066
-207.436	19.475	0.202	0.161
-206.421	-70.753	0.210	0.078
-205.406	291.610	0.089	0.160
-204.392	266.734	0.094	0.163
-203.377	-200.000	0.018	-0.280
-202.363	79.643	-0.189	0.200
-201.348	-123.914	0.315	-0.049
-200.333	397.719	-0.136	-0.281
-199.319	-200.000	0.034	0.205
-198.304	143.417	-0.072	0.095
-197.290	-200.000	-0.018	-0.092
-196.275	-47.279	-0.269	0.129
-195.260	800.000	-0.006	-0.020
-194.246	470.080	-0.005	-0.011
-193.231	800.000	0.063	0.233
-192.217	800.000	0.044	0.183
-191.202	-200.000	0.002	-0.166
-190.187	-87.836	-0.339	-0.101
-189.173	192.139	0.063	-0.093
-188.158	-2.692	0.359	0.248
-187.144	-70.360	0.309	-0.116
-186.129	800.000	0.065	0.277
-185.114	144.760	-0.158	0.208
-184.100	530.262	0.083	0.192
-183.085	-200.000	-0.068	0.318
-182.071	800.000	0.055	-0.154
-181.056	-54.726	0.290	0.129
-180.042	-86.885	-0.260	-0.078
-179.027	-200.000	0.011	0.197
-178.012	-200.000	-0.014	0.171
-176.998	-48.161	-0.231	0.110
-175.983	-120.981	0.341	-0.056
-174.969	-133.006	0.075	0.009
-173.954	0.937	0.222	0.157
-172.939	58.044	-0.234	-0.226
-171.925	-63.984	0.018	-0.007
-170.910	-63.948	0.288	0.116
-169.896	-200.000	0.110	0.478
-168.881	-68.286	-0.110	0.042
-167.866	72.973	-0.114	-0.117
-166.852	-200.000	-0.022	0.204
-165.837	800.000	-0.093	-0.343
-164.823	-200.000	-0.030	0.252
-163.808	-200.000	-0.006	0.113
-162.793	224.558	0.075	-0.120
-161.779	-79.076	0.329	-0.110
-160.764	-73.161	0.067	-0.024
-159.750	-200.000	0.015	0.201
-158.735	-200.000	-0.009	0.052
-157.720	-21.095	0.002	-0.001
-156.706	4.184	-0.094	0.068
-155.691	-32.712	-0.121	0.066
-154.677	-39.085	0.170	-0.088
-153.662	348.278	-0.140	-0.272
-152.647	56.910	0.116	0.111
-151.633	487.439	0.098	0.220
-150.618	5.340	0.101	0.074
-149.604	800.000	-0.089	-0.360
-148.589	184.430	0.021	-0.031
-147.574	451.909	0.054	0.117
-146.560	-200.000	-0.009	0.140
-145.545	800.000	-0.066	0.280
-144.531	-200.000	-0.020	0.149
-143.516	23.220	0.231	0.187
-142.502	180.115	-0.137	0.198
-141.487	-81.591	0.213	0.069
-140.472	166.885	0.142	0.198
-139.458	-129.477	-0.381	-0.052
-138.443	-81.736	0.160	-0.052
-137.429	423.840	0.193	0.408
-136.414	-200.000	-0.027	-0.189
-135.399	800.000	0.093	-0.277
-134.385	58.602	0.235	0.227
-133.370	-24.752	0.120	-0.071
-132.356	-127.207	0.212	0.030
-131.341	175.189	0.165	0.236
-130.326	114.208	0.173	0.208
-129.312	-200.000	-0.027	0.215
-128.297	-200.000	-0.020	0.114
-127.283	-50.771	0.253	-0.117
-126.268	-101.965	-0.197	0.047
-125.253	-79.569	-0.276	0.092
-124.239	-200.000	-0.047	0.239
-123.224	-82.727	0.118	0.038
-122.210	-200.000	-0.059	-0.406
