DTS Sentinel unit serial number:	SN413079Multiplexer serial number:	ORYXHardware model number:	OX4-SRSoftware version number:	ORYX F/W v4.00 Oryx Data Collector v3.7.2.0data status	okinstallation	princeton_trtdifferential loss correction	single-endedforward channel	channel 2reverse channel	N/Adate	2019/09/12time	13:49:11forward acquisition time	60.00reverse acquisition time	0.00gamma	496.2192k internal	0.2299k external	0.2299temperature offset calibration	1.0083default loss term (dB/km)	0.3790temperature slope calibration	1.0000multiplexer offset coefficient	1.0000multiplexer slope coefficient	1.0000fibre end	0.00T internal ref (°C)	40.94T ext. ref 1 (°C)	2.18T ext. ref 2 (°C)	35.39length (m)	temperature (°C)	Stokes	anti-Stokes-747.200	332.565	-0.087	0.172
-746.185	-78.520	-0.061	-0.021
-745.171	-200.000	0.054	-0.270
-744.156	48.952	0.200	0.192
-743.142	0.644	0.079	0.058
-742.127	270.943	-0.038	-0.068
-741.112	-165.213	-0.085	0.004
-740.098	730.768	-0.083	0.226
-739.083	800.000	0.091	-0.301
-738.069	240.997	-0.407	0.694
-737.054	-75.587	-0.135	-0.049
-736.039	41.321	-0.151	0.140
-735.025	59.034	-0.162	0.162
-734.010	-29.453	-0.282	0.165
-732.996	94.729	-0.196	0.228
-731.981	-7.521	-0.290	-0.200
-730.966	218.446	0.178	-0.289
-729.952	-59.851	0.107	0.047
-728.937	-62.052	0.260	-0.111
-727.923	325.932	-0.089	-0.174
-726.908	800.000	0.059	0.229
-725.894	546.505	0.047	0.114
-724.879	-120.234	-0.474	-0.083
-723.864	-153.721	0.266	-0.019
-722.850	800.000	-0.063	-0.273
-721.835	-200.000	-0.026	0.197
-720.821	3.757	-0.111	-0.083
-719.806	94.132	-0.127	-0.147
-718.791	630.788	0.102	0.263
-717.777	-50.356	-0.154	-0.074
-716.762	206.348	-0.187	-0.296
-715.748	-109.893	0.275	0.059
-714.733	-5.097	-0.214	0.150
-713.718	429.393	-0.023	0.051
-712.704	235.191	-0.050	0.084
-711.689	-107.079	0.258	0.058
-710.675	-45.514	-0.075	0.038
-709.660	7.156	-0.059	0.045
-708.645	-127.618	-0.120	0.018
-707.631	-154.103	-0.132	0.009
-706.616	-23.520	0.149	-0.091
-705.602	800.000	0.014	-0.054
-704.587	-105.346	-0.088	-0.020
-703.572	-155.699	0.399	-0.026
-702.558	103.084	-0.190	-0.226
-701.543	470.194	0.027	0.062
-700.529	335.926	-0.114	0.225
-699.514	313.189	-0.144	0.275
-698.499	800.000	0.104	0.392
-697.485	40.970	-0.208	-0.191
-696.470	227.089	-0.067	-0.112
-695.456	107.193	0.266	0.322
-694.441	-147.645	-0.100	0.009
-693.426	800.000	-0.057	0.187
-692.412	366.290	0.180	0.370
-691.397	-200.000	-0.011	-0.139
-690.383	-40.285	0.365	0.193
-689.368	526.484	0.044	-0.105
-688.354	249.800	-0.220	-0.380
-687.339	-200.000	0.013	0.059
-686.324	-200.000	0.000	0.141
-685.310	-124.222	0.343	0.055
-684.295	-200.000	0.027	-0.284
-683.281	45.256	0.103	0.097
-682.266	-133.172	0.056	0.007
-681.251	-54.277	-0.400	-0.185
-680.237	93.276	0.285	-0.328
-679.222	-78.595	0.094	0.033
-678.208	45.508	0.052	0.049
-677.193	-82.664	-0.177	0.058
-676.178	-200.000	0.045	0.490
-675.164	-148.757	0.080	0.007
-674.149	-74.880	0.159	-0.058
-673.135	-61.187	0.185	0.080
-672.120	-23.641	-0.087	-0.053
-671.105	215.252	-0.110	-0.177
-670.091	25.822	0.370	-0.314
-669.076	598.207	-0.101	-0.254
-668.062	182.871	-0.169	-0.254
-667.047	34.290	0.150	0.133
-666.032	-200.000	-0.053	0.250
-665.018	524.547	0.072	-0.172
-664.003	-90.401	0.053	0.016
-662.989	-4.959	0.072	0.050
-661.974	593.277	0.133	0.335
-660.959	-200.000	0.059	0.271
-659.945	-132.911	-0.456	-0.059
-658.930	330.846	0.175	0.344
-657.916	-101.135	0.110	-0.027
-656.901	110.491	0.095	-0.116
-655.886	-5.928	-0.090	-0.063
-654.872	800.000	-0.095	0.282
-653.857	-157.235	0.036	-0.002
-652.843	-200.000	0.024	0.151
-651.828	644.353	-0.172	-0.447
-650.814	-200.000	0.014	-0.068
-649.799	74.069	-0.166	-0.177
-648.784	-107.983	-0.515	-0.114
-647.770	-129.537	-0.228	0.032
-646.755	35.730	-0.199	-0.178
-645.741	423.143	0.037	0.080
-644.726	-87.591	-0.218	-0.067
-643.711	-51.357	0.228	0.108
-642.697	-81.603	-0.291	0.097
-641.682	800.000	-0.132	-0.491
-640.668	-140.969	0.123	-0.013
-639.653	96.336	-0.155	0.180
-638.638	-138.195	-0.249	0.028
-637.624	452.636	-0.195	-0.437
-636.609	-10.497	0.123	0.083
-635.595	-200.000	-0.039	0.333
-634.580	800.000	0.042	0.177
-633.565	-25.684	-0.088	-0.053
-632.551	468.156	0.113	0.258
-631.536	102.052	0.271	-0.322
-630.522	-7.357	-0.136	0.094
-629.507	-167.855	-0.308	-0.012
-628.492	14.993	0.155	0.123
-627.478	-73.913	-0.306	0.113
-626.463	-200.000	-0.003	-0.156
-625.449	314.195	0.119	0.227
-624.434	37.189	-0.089	-0.080
-623.419	-13.309	0.170	0.112
-622.405	12.376	-0.144	-0.113
-621.390	-19.890	-0.199	0.125
-620.376	-142.595	0.299	0.030
-619.361	84.797	-0.117	0.130
-618.346	-8.324	-0.156	-0.107
-617.332	322.959	0.160	0.309
-616.317	-200.000	0.007	-0.030
-615.303	-60.184	-0.107	0.046
-614.288	-120.267	-0.153	-0.026
-613.273	-200.000	-0.005	-0.029
-612.259	-70.930	-0.147	0.056
-611.244	-78.292	0.217	-0.076
-610.230	-39.408	0.122	-0.065
-609.215	-77.147	0.258	0.091
-608.201	-200.000	0.023	-0.236
-607.186	-199.785	-0.232	-0.001
-606.171	188.141	-0.073	-0.110
-605.157	235.874	-0.081	-0.137
-604.142	-95.175	0.195	-0.053
-603.128	23.510	-0.220	-0.184
-602.113	57.296	0.039	0.039
-601.098	800.000	0.082	-0.309
-600.084	86.634	0.089	-0.100
-599.069	-137.511	0.171	-0.020
-598.055	62.127	-0.042	-0.043
-597.040	-132.984	0.156	0.020
-596.025	341.494	-0.131	-0.259
-595.011	-169.587	0.326	-0.012
-593.996	724.524	0.078	-0.212
-592.982	88.263	0.067	0.075
-591.967	800.000	-0.086	-0.271
-590.952	311.687	0.023	-0.044
-589.938	-126.181	-0.277	0.042
-588.923	142.794	-0.141	-0.190
-587.909	221.469	-0.049	0.079
-586.894	-119.689	0.083	0.015
-585.879	57.042	0.189	-0.187
-584.865	-20.493	-0.250	0.156
-583.850	255.885	0.064	0.112
-582.836	-36.372	0.174	-0.095
-581.821	-8.252	-0.008	0.005
-580.806	152.754	-0.105	0.145
-579.792	-3.693	-0.358	-0.252
-578.777	399.670	0.081	0.173
-577.763	55.439	-0.251	-0.247
-576.748	112.435	-0.143	-0.175
-575.733	-34.532	0.241	0.134
-574.719	-28.087	-0.217	0.127
-573.704	-103.129	0.046	0.011
-572.690	-48.942	0.312	-0.152
-571.675	48.128	-0.139	0.132
-570.661	-128.643	0.247	-0.035
-569.646	800.000	0.002	-0.009
-568.631	-55.641	0.216	0.098
-567.617	36.005	-0.057	-0.051
-566.602	-200.000	-0.052	0.263
-565.588	-200.000	0.037	-0.172
-564.573	141.661	-0.163	-0.219
-563.558	124.794	-0.151	-0.193
-562.544	330.694	0.140	-0.274
-561.529	-5.094	0.113	0.079
-560.515	-15.511	-0.100	-0.065
-559.500	-93.060	-0.287	0.081
-558.485	-61.259	0.145	0.062
-557.471	401.839	-0.110	-0.234
-556.456	-137.119	-0.094	0.011
-555.442	10.956	-0.206	0.159
-554.427	-57.165	-0.216	-0.096
-553.412	725.587	-0.133	0.361
-552.398	-131.194	0.199	0.027
-551.383	-115.669	-0.089	-0.017
-550.369	127.316	-0.302	0.388
-549.354	-200.000	0.023	0.108
-548.339	-200.000	0.025	-0.116
-547.325	62.413	0.270	-0.273
-546.310	-22.333	0.108	-0.066
-545.296	-151.606	-0.207	0.015
-544.281	457.024	-0.033	-0.074
-543.266	84.337	0.060	0.067
-542.252	-158.671	0.253	-0.015
-541.237	-200.000	0.069	0.345
-540.223	-147.866	-0.279	-0.024
-539.208	-68.017	0.255	0.101
-538.193	-65.718	0.226	0.091
-537.179	83.769	-0.109	0.121
-536.164	-40.127	-0.133	-0.070
-535.150	519.165	0.091	-0.215
-534.135	-15.797	0.158	-0.102
-533.121	800.000	0.036	-0.115
-532.106	374.627	0.129	0.266
-531.091	342.386	-0.092	0.183
-530.077	-200.000	0.005	-0.104
-529.062	-200.000	0.023	-0.117
-528.048	-162.292	-0.135	0.007
-527.033	24.223	0.148	-0.124
-526.018	276.736	-0.190	-0.342
-525.004	-200.000	0.036	-0.291
-523.989	741.186	0.081	0.221
-522.975	800.000	0.071	-0.252
-521.960	-200.000	0.001	0.015
-520.945	287.284	0.132	-0.241
-519.931	-200.000	-0.007	-0.130
-518.916	2.968	0.105	0.077
-517.902	-165.691	-0.176	0.008
-516.887	-152.396	-0.176	0.013
-515.872	-78.400	-0.063	-0.022
-514.858	32.349	0.090	0.078
-513.843	-4.169	-0.269	-0.189
-512.829	-200.000	-0.040	0.327
-511.814	-136.599	-0.488	0.057
-510.799	-20.112	-0.212	0.132
-509.785	-62.789	-0.050	0.021
-508.770	-200.000	-0.034	-0.170
-507.756	401.109	0.113	-0.241
-506.741	320.739	-0.134	0.258
-505.726	37.843	0.082	-0.074
-504.712	246.923	-0.151	0.257
-503.697	-200.000	-0.045	-0.303
-502.683	-200.000	-0.002	-0.184
-501.668	309.860	-0.050	0.095
-500.653	800.000	0.006	0.025
-499.639	-149.242	0.228	0.018
-498.624	800.000	0.049	0.146
-497.610	-200.000	-0.008	0.322
-496.595	-200.000	0.001	-0.034
-495.581	254.560	-0.033	-0.057
-494.566	-2.391	0.266	0.189
-493.551	-200.000	-0.025	0.137
-492.537	-0.446	-0.220	0.158
-491.522	-108.469	0.162	0.035
-490.508	-7.345	0.257	0.176
-489.493	-200.000	0.003	-0.121
-488.478	341.071	0.016	-0.032
-487.464	-200.000	-0.010	0.267
-486.449	209.838	-0.072	-0.115
-485.435	385.669	-0.070	0.147
-484.420	147.460	0.181	-0.246
-483.405	-200.000	0.046	0.227
-482.391	142.222	0.062	0.083
-481.376	-200.000	0.000	0.153
-480.362	-200.000	-0.014	0.075
-479.347	-138.169	-0.168	0.019
-478.332	-35.109	-0.249	-0.137
-477.318	-91.215	0.032	0.009
-476.303	162.891	-0.248	-0.351
-475.289	-29.439	-0.386	-0.223
-474.274	306.494	0.089	-0.167
-473.259	-87.259	0.041	-0.012
-472.245	-200.000	0.040	-0.511
-471.230	-37.552	-0.143	0.077
-470.216	772.787	-0.160	-0.440
-469.201	465.003	0.129	0.292
-468.186	-29.773	0.258	-0.149
-467.172	183.069	-0.240	-0.358
-466.157	242.915	-0.036	0.061
-465.143	231.317	-0.077	-0.127
-464.128	-149.886	-0.190	0.015
-463.113	416.013	0.055	0.118
-462.099	-200.000	-0.014	-0.204
-461.084	-154.785	-0.197	0.013
-460.070	-148.643	-0.197	0.016
-459.055	800.000	0.093	0.326
-458.040	81.076	0.299	0.326
-457.026	-75.765	-0.219	0.078
-456.011	-148.695	0.371	0.030
-454.997	-89.657	0.165	0.049
-453.982	800.000	-0.092	-0.347
-452.968	124.525	0.153	-0.194
-451.953	474.682	-0.102	-0.233
-450.938	36.667	0.247	-0.220
-449.924	519.959	-0.090	-0.214
-448.909	331.092	-0.157	-0.306
-447.895	-200.000	0.069	-0.347
-446.880	-120.831	0.244	0.042
-445.865	1.310	0.250	-0.181
-444.851	-134.991	0.072	0.009
-443.836	-200.000	-0.088	0.456
-442.822	78.949	0.097	-0.104
-441.807	-200.000	-0.025	-0.207
-440.792	-86.507	0.118	-0.037
-439.778	-128.890	0.077	-0.011
-438.763	-26.291	0.023	-0.013
-437.749	-56.382	0.299	-0.134
-436.734	50.008	-0.312	0.297
-435.719	99.977	0.187	0.218
-434.705	-47.802	0.034	0.016
-433.690	-163.031	0.081	-0.004
-432.676	-117.937	-0.139	-0.025
-431.661	0.166	-0.109	0.078
-430.646	167.543	-0.133	-0.191
-429.632	-200.000	0.160	0.000
-428.617	207.081	-0.097	0.153
-427.603	-37.000	-0.156	0.084
-426.588	-145.126	-0.355	0.032
-425.573	-200.000	-0.020	0.337
-424.559	-80.799	0.247	-0.083
-423.544	25.789	-0.184	-0.154
-422.530	-200.000	-0.040	0.211
-421.515	-144.094	-0.279	-0.026
-420.500	543.899	-0.069	-0.166
-419.486	-68.501	0.059	-0.023
-418.471	19.659	-0.009	0.007
-417.457	241.159	0.144	-0.243
-416.442	-28.253	0.292	0.170
-415.428	-17.462	0.352	0.223
-414.413	-200.000	-0.004	0.059
-413.398	156.602	0.076	-0.105
-412.384	630.292	-0.045	-0.114
-411.369	45.739	0.161	0.150
-410.355	800.000	-0.094	0.320
-409.340	352.338	-0.264	0.528
-408.325	-4.081	0.047	-0.033
-407.311	-200.000	-0.034	-0.165
-406.296	88.373	0.082	-0.092
-405.282	-141.712	0.197	-0.020
-404.267	-200.000	-0.008	0.229
-403.252	800.000	0.043	-0.146
-402.238	-105.832	0.280	-0.064
-401.223	-200.000	-0.015	-0.072
-400.209	103.450	0.032	0.038
-399.194	800.000	0.096	-0.274
-398.179	-200.000	-0.022	-0.137
-397.165	-168.806	0.646	0.025
-396.150	150.582	-0.091	-0.125
-395.136	146.301	-0.049	0.067
-394.121	-104.607	0.065	-0.015
-393.106	-166.747	-0.033	0.001
-392.092	-72.430	-0.302	-0.113
-391.077	29.794	0.349	-0.300
-390.063	-200.000	0.047	0.385
-389.048	-200.000	-0.029	0.218
-388.033	30.819	0.145	0.125
-387.019	146.899	0.126	-0.170
-386.004	-107.821	-0.068	0.015
-384.990	-200.000	-0.022	-0.143
-383.975	-118.272	0.270	-0.048
-382.960	-200.000	-0.009	0.106
-381.946	-44.923	0.217	0.109
-380.931	662.082	0.082	0.213
-379.917	226.204	0.071	0.116
-378.902	-110.788	-0.192	0.040
-377.888	-7.953	0.134	0.091
-376.873	6.378	0.316	-0.236
-375.858	-44.870	-0.258	0.130
-374.844	466.880	0.053	0.119
-373.829	-200.000	0.002	-0.052
-372.815	597.819	-0.097	-0.241
-371.800	-166.866	-0.176	-0.007
-370.785	-101.277	0.111	-0.027
-369.771	132.234	0.123	0.160
-368.756	-200.000	0.021	0.231
-367.742	614.916	-0.148	-0.374
-366.727	-200.000	-0.002	0.031
-365.712	338.421	-0.139	0.272
-364.698	27.143	0.414	-0.349
-363.683	800.000	0.077	0.288
-362.669	-200.000	-0.031	-0.152
-361.654	208.316	-0.087	0.137
-360.639	-149.661	-0.461	0.037
-359.625	371.791	0.075	-0.154
-358.610	101.143	0.253	0.296
-357.596	33.448	-0.077	-0.067
-356.581	-112.473	-0.237	-0.048
-355.566	106.506	0.168	-0.201
-354.552	-43.432	-0.029	-0.015
-353.537	-200.000	-0.153	-0.000
-352.523	235.456	-0.129	-0.214
-351.508	-31.194	0.343	0.195
-350.493	68.630	-0.193	-0.199
-349.479	5.812	-0.125	0.093
-348.464	-80.623	-0.279	0.093
-347.450	-43.586	0.085	-0.043
-346.435	323.213	-0.125	0.240
-345.420	800.000	-0.090	-0.292
-344.406	-136.235	-0.329	0.039
-343.391	800.000	0.035	-0.105
-342.377	-37.907	-0.166	0.089
-341.362	-148.301	0.170	0.014
-340.348	-200.000	0.016	0.127
-339.333	301.417	0.104	-0.193
-338.318	-39.162	-0.081	0.043
-337.304	619.610	0.062	-0.156
-336.289	768.595	-0.150	0.411
-335.275	50.766	-0.197	0.188
-334.260	95.843	0.087	-0.099
-333.245	800.000	0.179	-0.504
-332.231	-200.000	-0.069	-0.427
-331.216	92.837	-0.410	-0.465
-330.202	38.591	0.069	0.062
-329.187	157.488	0.144	-0.201
-328.172	27.482	-0.102	-0.086
-327.158	-144.518	-0.078	0.007
-326.143	-38.322	-0.228	0.121
-325.129	800.000	-0.038	0.152
-324.114	800.000	0.125	-0.473
-323.099	120.339	-0.056	-0.070
-322.085	-97.879	0.234	0.061
-321.070	-33.219	0.382	-0.213
-320.056	659.153	-0.050	-0.130
-319.041	-31.922	0.150	-0.084
-318.026	-73.477	0.157	0.058
-317.012	351.648	-0.178	0.354
-315.997	-20.773	-0.152	0.093
-314.983	-78.817	-0.213	-0.073
-313.968	-110.131	-0.259	-0.054
-312.953	-200.000	-0.001	-0.382
-311.939	-200.000	0.032	-0.361
-310.924	-52.851	0.244	-0.113
-309.910	-142.696	0.173	0.017
-308.895	-200.000	-0.021	0.165
-307.880	-200.000	-0.353	0.001
-306.866	350.836	-0.164	0.326
-305.851	800.000	0.104	-0.433
-304.837	549.384	-0.086	-0.206
-303.822	-144.353	-0.371	0.035
-302.807	-117.733	0.226	-0.041
-301.793	88.979	0.175	0.195
-300.778	800.000	0.095	0.384
-299.764	361.333	0.109	0.220
-298.749	-110.438	0.398	-0.083
-297.735	170.605	0.064	-0.092
-296.720	-45.537	-0.334	-0.166
-295.705	34.282	0.079	0.069
-294.691	-200.000	-0.012	-0.314
-293.676	85.672	0.198	0.218
-292.662	-133.799	-0.179	-0.022
-291.647	-96.738	0.304	-0.080
-290.632	-82.733	0.222	0.072
-289.618	-41.841	0.144	-0.074
-288.603	115.516	0.237	0.290
-287.589	798.573	0.030	-0.083
-286.574	-91.701	-0.309	-0.088
-285.559	-73.575	-0.335	-0.122
-284.545	-200.000	-0.015	0.086
-283.530	-200.000	0.041	0.269
-282.516	-60.204	0.187	-0.080
-281.501	27.752	0.161	0.136
-280.486	800.000	-0.071	-0.207
-279.472	-86.650	-0.182	0.056
-278.457	-6.957	0.122	-0.083
-277.443	314.419	0.023	0.043
-276.428	-200.000	-0.025	0.343
-275.413	-200.000	0.063	0.509
-274.399	-182.432	0.361	0.007
-273.384	-200.000	0.067	0.362
-272.370	-85.340	0.268	0.084
-271.355	200.941	-0.093	0.144
-270.340	54.987	0.056	0.054
-269.326	-48.855	0.258	0.124
-268.311	58.158	0.114	-0.112
-267.297	31.748	0.038	-0.033
-266.282	-156.666	0.043	-0.003
-265.267	83.650	0.092	0.101
-264.253	800.000	-0.082	0.241
-263.238	-6.220	0.139	-0.095
-262.224	-164.788	0.082	0.004
-261.209	-140.646	0.185	0.019
-260.195	746.041	-0.128	-0.345
-259.180	25.189	0.157	-0.130
-258.165	275.663	0.122	0.216
-257.151	-124.790	-0.073	0.011
-256.136	-11.960	0.221	-0.145
-255.122	-200.000	0.022	0.138
-254.107	-22.895	0.133	-0.080
-253.092	-147.247	0.251	0.021
-252.078	-16.658	-0.183	-0.116
-251.063	126.062	0.085	-0.107
-250.049	-114.099	-0.034	0.007
-249.034	121.243	0.059	0.073
-248.019	-131.882	0.373	0.049
-247.005	27.572	0.039	0.033
-245.990	-200.000	0.015	0.241
-244.976	231.464	-0.125	0.204
-243.961	140.788	0.188	-0.249
-242.946	337.581	-0.145	-0.282
-241.932	293.962	-0.186	0.340
-240.917	-141.179	-0.223	-0.023
-239.903	150.390	0.107	-0.145
-238.888	63.282	-0.146	0.147
-237.873	-145.838	-0.217	0.019
-236.859	-200.000	0.023	-0.148
-235.844	-73.830	0.218	0.079
-234.830	-35.322	-0.276	0.150
-233.815	153.621	-0.085	-0.116
-232.800	-102.540	-0.352	0.084
-231.786	800.000	0.113	0.324
-230.771	32.680	0.263	0.228
-229.757	-134.417	0.212	-0.026
-228.742	195.432	0.246	0.373
-227.727	-55.153	-0.173	0.078
-226.713	-5.051	-0.244	0.168
-225.698	-161.717	-0.110	0.006
-224.684	95.231	0.213	-0.242
-223.669	-131.762	-0.148	-0.019
-222.655	-50.237	0.270	0.128
-221.640	-79.582	-0.177	0.060
-220.625	-200.000	-0.008	-0.037
-219.611	291.807	-0.016	0.028
-218.596	79.506	-0.180	-0.193
-217.582	38.432	-0.129	-0.115
-216.567	-200.000	-0.010	0.124
-215.552	-200.000	-0.046	0.324
-214.538	-49.894	-0.109	0.052
-213.523	-117.494	0.254	-0.046
-212.509	-101.362	-0.250	0.061
-211.494	800.000	0.025	-0.100
-210.479	147.122	-0.086	0.116
-209.465	-160.709	-0.310	0.016
-208.450	572.206	-0.233	0.567
-207.436	-200.000	-0.005	-0.346
-206.421	137.607	-0.158	-0.207
-205.406	-167.317	-0.217	-0.009
-204.392	-161.750	0.427	-0.022
-203.377	-141.437	0.290	-0.029
-202.363	-58.363	-0.074	0.032
-201.348	-40.699	-0.188	-0.097
-200.333	800.000	0.091	0.312
-199.319	420.148	-0.140	0.300
-198.304	-128.337	0.229	0.033
-197.290	-104.344	-0.211	0.049
-196.275	-113.714	0.154	0.030
-195.260	-66.445	-0.122	0.048
-194.246	-200.000	-0.015	0.102
-193.231	-93.186	0.464	0.129
-192.217	-200.000	0.002	0.156
-191.202	-200.000	0.010	-0.061
-190.187	-76.134	-0.236	-0.083
-189.173	800.000	-0.049	0.153
-188.158	232.553	-0.129	-0.212
-187.144	800.000	-0.071	0.302
-186.129	-26.168	0.099	-0.058
-185.114	-52.630	-0.329	-0.152
-184.100	-26.370	0.266	0.156
-183.085	125.316	-0.177	-0.223
-182.071	-83.158	-0.126	-0.041
-181.056	-132.373	-0.199	-0.026
-180.042	62.293	-0.080	0.080
-179.027	-200.000	0.001	-0.022
-178.012	30.118	-0.135	-0.115
-176.998	603.911	0.273	0.677
-175.983	-131.418	0.173	0.023
-174.969	7.079	0.186	-0.139
-173.954	800.000	0.062	-0.257
-172.939	-141.851	0.188	0.019
-171.925	-109.843	0.262	0.055
-170.910	800.000	-0.063	-0.212
-169.896	-76.576	0.269	0.094
-168.881	800.000	-0.080	-0.280
-167.866	181.072	0.163	0.239
-166.852	-16.436	0.328	0.208
-165.837	-37.762	-0.082	0.044
-164.823	-55.464	0.113	0.051
-163.808	800.000	-0.057	0.222
-162.793	-20.662	-0.165	-0.101
-161.779	-200.000	0.033	0.171
-160.764	-54.458	0.215	-0.097
-159.750	-100.034	-0.113	0.028
-158.735	415.650	-0.026	0.055
-157.720	-200.000	-0.028	0.217
-156.706	228.958	-0.145	0.235
-155.691	-124.651	0.141	0.022
-154.677	163.221	-0.215	-0.301
-153.662	238.699	-0.103	0.170
-152.647	214.557	0.129	0.204
-151.633	-68.544	0.196	-0.076
-150.618	92.405	-0.240	0.270
-149.604	800.000	0.024	0.076
-148.589	-107.661	0.217	0.047
-147.574	-71.513	0.139	0.052
-146.560	-82.288	0.235	-0.076
-145.545	382.735	-0.074	0.151
-144.531	58.057	-0.100	-0.098
-143.516	-200.000	0.062	-0.302
-142.502	-37.599	-0.289	-0.153
-141.487	13.216	-0.178	0.138
-140.472	-89.027	0.112	-0.033
-139.458	291.406	0.080	0.146
-138.443	-65.860	-0.330	0.132
-137.429	-145.329	0.223	0.020
-136.414	800.000	-0.079	0.311
-135.399	-148.810	-0.238	0.019
-134.385	-23.201	0.384	0.230
-133.370	359.959	-0.069	-0.138
-132.356	140.904	-0.234	-0.308
-131.341	22.717	0.124	-0.101
-130.326	34.118	-0.123	0.107
-129.312	-109.006	0.212	0.045
-128.297	-111.520	-0.122	0.025
-127.283	93.225	-0.232	0.261
-126.268	-10.694	-0.323	0.213
-125.253	-169.557	-0.177	0.006
-124.239	-100.684	0.218	0.054
-123.224	158.902	0.097	-0.135
-122.210	2.594	-0.073	-0.053
-121.195	165.967	0.227	0.321
