DTS Sentinel unit serial number:	SN413079Multiplexer serial number:	ORYXHardware model number:	OX4-SRSoftware version number:	ORYX F/W v4.00 Oryx Data Collector v3.7.2.0data status	okinstallation	princeton_trtdifferential loss correction	single-endedforward channel	channel 2reverse channel	N/Adate	2019/09/11time	21:41:10forward acquisition time	60.00reverse acquisition time	0.00gamma	496.2192k internal	0.2325k external	0.2325temperature offset calibration	1.0069default loss term (dB/km)	0.3790temperature slope calibration	1.0000multiplexer offset coefficient	1.0000multiplexer slope coefficient	1.0000fibre end	0.00T internal ref (°C)	35.81T ext. ref 1 (°C)	1.71T ext. ref 2 (°C)	30.35length (m)	temperature (°C)	Stokes	anti-Stokes-747.200	-64.125	0.239	0.098
-746.185	-200.000	-0.084	0.410
-745.171	-200.000	-0.046	0.218
-744.156	-10.137	0.400	0.268
-743.142	230.941	-0.292	0.482
-742.127	433.844	-0.131	0.288
-741.112	800.000	0.119	0.356
-740.098	-200.000	0.013	0.217
-739.083	-24.202	-0.313	0.188
-738.069	-21.633	-0.097	-0.060
-737.054	-200.000	-0.070	0.369
-736.039	-141.123	0.048	0.005
-735.025	-68.315	0.248	0.097
-734.010	800.000	-0.028	0.096
-732.996	-61.115	0.195	-0.083
-731.981	-32.204	0.156	-0.088
-730.966	-200.000	0.031	0.260
-729.952	-51.481	-0.460	0.217
-728.937	317.350	-0.002	-0.004
-727.923	-200.000	0.006	-0.249
-726.908	-164.639	0.220	-0.010
-725.894	800.000	0.093	0.281
-724.879	-80.607	-0.412	-0.138
-723.864	78.010	0.148	0.160
-722.850	-156.054	-0.077	0.005
-721.835	32.044	0.198	-0.172
-720.821	800.000	-0.098	-0.306
-719.806	44.333	-0.125	0.116
-718.791	-110.398	-0.151	0.032
-717.777	-200.000	0.073	-0.376
-716.762	-200.000	0.012	0.108
-715.748	205.101	0.145	-0.227
-714.733	-109.750	0.212	-0.045
-713.718	7.660	0.240	-0.181
-712.704	-74.694	-0.131	-0.047
-711.689	-127.223	0.211	-0.031
-710.675	91.892	-0.122	0.138
-709.660	-50.340	0.386	0.184
-708.645	11.443	-0.262	-0.202
-707.631	-89.212	-0.233	-0.069
-706.616	525.865	0.061	0.144
-705.602	-65.386	-0.080	0.032
-704.587	-200.000	0.012	-0.303
-703.572	800.000	0.051	-0.197
-702.558	-62.844	0.478	-0.199
-701.543	-38.798	0.126	0.067
-700.529	322.473	0.108	-0.208
-699.514	-1.935	0.237	-0.168
-698.499	-200.000	-0.011	-0.263
-697.485	-124.662	-0.179	-0.028
-696.470	800.000	0.050	0.175
-695.456	425.976	0.125	0.270
-694.441	81.942	0.128	0.140
-693.426	-200.000	0.002	-0.166
-692.412	-32.001	-0.200	-0.113
-691.397	-145.965	-0.207	-0.018
-690.383	-200.000	0.068	0.403
-689.368	23.740	-0.105	-0.087
-688.354	-89.538	-0.153	-0.045
-687.339	-20.434	-0.173	-0.107
-686.324	-33.233	0.185	-0.103
-685.310	-200.000	-0.031	0.373
-684.295	-200.000	0.110	0.000
-683.281	-200.000	-0.051	-0.372
-682.266	-167.199	-0.166	-0.007
-681.251	-27.415	0.257	0.150
-680.237	376.264	-0.134	-0.275
-679.222	98.507	0.205	-0.238
-678.208	-17.141	-0.207	-0.132
-677.193	-13.771	-0.193	-0.125
-676.178	7.532	-0.106	-0.080
-675.164	800.000	-0.079	-0.309
-674.149	0.550	-0.176	0.127
-673.135	150.032	0.071	0.097
-672.120	800.000	-0.042	-0.158
-671.105	-34.351	0.207	0.114
-670.091	-200.000	-0.009	0.102
-669.076	72.235	-0.154	-0.161
-668.062	97.777	0.109	-0.126
-667.047	-200.000	-0.035	-0.161
-666.032	800.000	0.030	0.085
-665.018	247.735	-0.114	0.193
-664.003	145.085	-0.135	-0.181
-662.989	-200.000	0.001	0.206
-661.974	-200.000	-0.361	0.000
-660.959	-51.775	-0.275	-0.129
-659.945	-112.131	-0.176	0.035
-658.930	-70.911	-0.278	0.105
-657.916	71.652	0.105	0.109
-656.901	37.494	-0.083	-0.074
-655.886	-33.234	-0.356	-0.198
-654.872	-200.000	-0.026	0.370
-653.857	-156.036	0.117	0.007
-652.843	227.224	-0.376	-0.615
-651.828	231.416	0.044	0.073
-650.814	359.584	-0.043	-0.086
-649.799	64.580	-0.058	-0.059
-648.784	725.108	0.039	-0.105
-647.770	-2.499	-0.159	0.112
-646.755	-200.000	0.028	0.146
-645.741	-200.000	-0.024	0.205
-644.726	-28.253	0.042	-0.024
-643.711	-50.813	0.163	-0.077
-642.697	196.359	-0.124	-0.189
-641.682	-200.000	0.001	-0.170
-640.668	800.000	0.048	0.164
-639.653	-200.000	0.040	-0.370
-638.638	-75.603	0.225	0.080
-637.624	203.904	-0.101	-0.157
-636.609	-166.815	-0.386	0.016
-635.595	-105.502	0.201	-0.046
-634.580	728.589	0.046	0.125
-633.565	-200.000	-0.030	-0.526
-632.551	-115.459	-0.303	-0.057
-631.536	800.000	-0.032	-0.114
-630.522	187.783	-0.189	-0.284
-629.507	800.000	0.100	0.337
-628.492	-47.789	0.144	-0.070
-627.478	16.941	0.097	-0.077
-626.463	319.984	-0.071	-0.136
-625.449	694.712	-0.033	0.087
-624.434	-171.120	0.330	0.011
-623.419	-200.000	-0.009	0.199
-622.405	-200.000	0.051	-0.284
-621.390	41.331	0.117	0.106
-620.376	-200.000	0.005	0.069
-619.361	-67.432	-0.408	-0.161
-618.346	-200.000	0.057	-0.333
-617.332	-18.543	0.155	-0.097
-616.317	-117.458	0.350	-0.064
-615.303	800.000	-0.063	0.243
-614.288	418.488	0.102	-0.218
-613.273	329.194	0.053	0.101
-612.259	-45.711	-0.169	0.084
-611.244	14.078	-0.182	-0.143
-610.230	416.238	0.040	-0.085
-609.215	139.975	0.087	-0.115
-608.201	-200.000	-0.016	-0.204
-607.186	-73.341	0.043	0.016
-606.171	800.000	-0.062	-0.222
-605.157	-149.967	0.200	-0.016
-604.142	-200.000	-0.034	-0.235
-603.128	-200.000	0.035	0.347
-602.113	-50.999	-0.096	0.045
-601.098	-200.000	-0.020	0.143
-600.084	410.277	0.061	-0.131
-599.069	580.356	-0.151	-0.372
-598.055	34.892	-0.028	-0.025
-597.040	343.068	-0.060	-0.117
-596.025	-59.771	-0.177	0.076
-595.011	149.576	0.105	0.143
-593.996	245.153	-0.105	0.177
-592.982	-25.648	-0.040	0.024
-591.967	118.808	-0.205	0.254
-590.952	-152.428	0.240	-0.017
-589.938	570.290	-0.064	-0.155
-588.923	-34.694	-0.122	-0.067
-587.909	800.000	0.081	-0.288
-586.894	-53.067	0.135	-0.062
-585.879	-200.000	-0.033	0.357
-584.865	-1.650	0.229	0.162
-583.850	213.325	-0.009	0.014
-582.836	61.896	0.129	-0.129
-581.821	-156.226	-0.189	-0.012
-580.806	22.520	-0.054	0.044
-579.792	800.000	-0.028	-0.093
-578.777	-200.000	-0.025	-0.319
-577.763	-200.000	0.002	-0.142
-576.748	-141.716	-0.109	0.011
-575.733	-133.775	0.067	-0.008
-574.719	200.836	0.041	-0.063
-573.704	800.000	0.037	-0.125
-572.690	-200.000	-0.097	-0.455
-571.675	264.029	0.093	-0.162
-570.661	-178.079	-0.233	0.006
-569.646	217.673	0.068	-0.109
-568.631	145.143	-0.106	0.142
-567.617	-200.000	0.019	-0.128
-566.602	-70.188	-0.119	-0.045
-565.588	507.320	0.056	0.130
-564.573	-44.936	-0.162	-0.081
-563.558	-195.574	0.378	0.003
-562.544	-105.904	0.159	-0.036
-561.529	-112.833	-0.147	0.029
-560.515	-200.000	0.011	-0.145
-559.500	-76.431	0.127	0.045
-558.485	-15.056	0.087	-0.056
-557.471	271.800	0.089	-0.158
-556.456	22.744	-0.041	0.034
-555.442	-13.285	0.116	0.076
-554.427	800.000	0.081	0.349
-553.412	-48.321	-0.069	-0.033
-552.398	-200.000	-0.282	0.000
-551.383	-105.648	0.161	0.037
-550.369	-200.000	0.109	-0.699
-549.354	-106.372	-0.147	-0.033
-548.339	17.081	-0.121	0.096
-547.325	-200.000	0.036	0.181
-546.310	-200.000	0.005	0.098
-545.296	-45.998	-0.262	0.129
-544.281	-44.666	0.083	0.041
-543.266	800.000	0.053	0.225
-542.252	-139.753	0.244	-0.026
-541.237	-200.000	-0.043	-0.233
-540.223	-49.387	0.043	0.021
-539.208	800.000	0.159	-0.443
-538.193	-2.661	-0.093	-0.065
-537.179	-89.887	-0.182	0.053
-536.164	-151.305	-0.297	-0.022
-535.150	54.621	0.152	-0.147
-534.135	-27.532	-0.178	0.104
-533.121	53.575	-0.138	0.132
-532.106	-104.496	-0.157	0.036
-531.091	44.262	-0.171	-0.157
-530.077	-120.447	-0.117	0.020
-529.062	-68.258	-0.211	-0.082
-528.048	-200.000	-0.004	0.020
-527.033	-3.833	-0.026	-0.018
-526.018	-98.187	-0.217	0.056
-525.004	-135.301	0.219	0.026
-523.989	195.486	0.142	0.215
-522.975	53.710	-0.274	0.263
-521.960	754.986	-0.067	-0.180
-520.945	-200.000	0.023	-0.152
-519.931	-68.668	0.109	-0.042
-518.916	-200.000	-0.048	0.299
-517.902	251.328	-0.139	0.236
-516.887	630.297	0.095	0.239
-515.872	-11.316	0.024	-0.016
-514.858	17.628	0.092	-0.073
-513.843	-61.369	0.176	0.074
-512.829	800.000	-0.034	0.121
-511.814	126.610	-0.143	-0.181
-510.799	-77.420	0.292	-0.101
-509.785	-144.564	-0.152	-0.014
-508.770	-25.443	-0.182	0.108
-507.756	-74.598	0.115	-0.041
-506.741	800.000	0.085	-0.366
-505.726	-14.113	-0.106	-0.069
-504.712	-81.947	-0.096	-0.031
-503.697	235.017	-0.090	-0.148
-502.683	208.915	0.119	-0.186
-501.668	-110.100	-0.332	-0.069
-500.653	107.938	0.142	0.169
-499.639	-18.196	-0.362	-0.226
-498.624	-200.000	-0.047	-0.217
-497.610	-200.000	-0.006	0.147
-496.595	4.718	-0.106	-0.078
-495.581	101.491	0.260	0.303
-494.566	800.000	-0.047	0.176
-493.551	800.000	-0.035	-0.112
-492.537	800.000	0.054	-0.169
-491.522	-2.883	-0.176	0.123
-490.508	-130.067	0.106	-0.014
-489.493	-199.908	0.200	-0.001
-488.478	800.000	-0.100	0.298
-487.464	-138.307	-0.351	0.039
-486.449	800.000	-0.078	0.236
-485.435	310.427	0.076	0.143
-484.420	800.000	-0.091	0.301
-483.405	-93.883	0.346	-0.095
-482.391	136.736	-0.072	0.094
-481.376	175.519	-0.181	0.262
-480.362	250.886	-0.037	-0.062
-479.347	427.441	0.196	-0.422
-478.332	-90.827	0.225	0.065
-477.318	91.509	0.108	0.121
-476.303	-100.314	0.234	0.058
-475.289	-33.157	-0.110	-0.061
-474.274	-200.000	0.036	-0.305
-473.259	6.393	0.299	-0.221
-472.245	-200.000	0.011	-0.208
-471.230	-89.616	0.493	-0.144
-470.216	-0.231	0.135	-0.096
-469.201	-167.174	0.243	0.010
-468.186	800.000	-0.080	-0.264
-467.172	-69.902	-0.212	0.081
-466.157	-175.995	-0.043	0.001
-465.143	-99.046	-0.210	0.053
-464.128	-200.000	-0.066	0.305
-463.113	430.327	0.093	0.201
-462.099	16.962	0.242	0.191
-461.084	-177.029	0.324	-0.008
-460.070	80.423	0.153	-0.165
-459.055	152.540	0.055	-0.075
-458.040	-56.541	0.148	0.065
-457.026	-82.132	-0.283	-0.092
-456.011	-173.128	0.287	-0.009
-454.997	-141.292	-0.462	0.047
-453.982	-200.000	-0.049	-0.367
-452.968	232.505	-0.067	0.110
-451.953	-29.300	0.221	0.126
-450.938	-156.313	-0.113	-0.007
-449.924	358.306	0.075	0.149
-448.909	-46.426	0.160	0.078
-447.895	216.968	0.176	-0.280
-446.880	-54.038	-0.437	-0.199
-445.865	-19.709	-0.209	0.129
-444.851	800.000	0.029	-0.120
-443.836	-200.000	-0.047	-0.338
-442.822	-118.032	-0.106	-0.019
-441.807	-200.000	0.054	0.323
-440.792	25.573	-0.158	0.131
-439.778	-63.383	-0.122	0.050
-438.763	-36.967	-0.146	-0.078
-437.749	357.831	0.045	0.089
-436.734	18.967	-0.015	0.012
-435.719	-172.931	-0.281	0.009
-434.705	800.000	0.090	0.385
-433.690	-200.000	-0.003	0.075
-432.676	393.037	-0.128	-0.266
-431.661	78.739	-0.049	-0.052
-430.646	-200.000	-0.093	0.000
-429.632	800.000	-0.121	0.443
-428.617	-82.706	0.168	0.054
-427.603	-200.000	0.023	0.151
-426.588	-56.261	-0.318	0.141
-425.573	-129.650	0.111	0.015
-424.559	800.000	-0.071	-0.265
-423.544	201.669	0.090	0.139
-422.530	-104.012	-0.258	-0.060
-421.515	-200.000	-0.040	0.185
-420.500	-200.000	-0.009	0.312
-419.486	217.378	-0.023	0.037
-418.471	306.375	-0.169	0.314
-417.457	-80.884	-0.064	0.021
-416.442	800.000	0.055	-0.178
-415.428	49.995	0.182	-0.171
-414.413	-55.333	0.183	0.082
-413.398	-54.564	0.413	0.186
-412.384	-200.000	0.027	0.184
-411.369	-153.464	0.473	-0.033
-410.355	-200.000	-0.026	-0.268
-409.340	5.376	-0.091	0.067
-408.325	-200.000	0.013	-0.079
-407.311	-106.765	0.295	0.065
-406.296	-94.689	-0.297	-0.080
-405.282	-44.595	-0.289	0.144
-404.267	-200.000	-0.038	-0.215
-403.252	-200.000	0.038	0.192
-402.238	53.049	-0.152	0.145
-401.223	800.000	0.079	-0.257
-400.209	-59.626	-0.033	0.014
-399.194	-50.911	0.197	-0.092
-398.179	-87.863	-0.038	-0.012
-397.165	800.000	0.122	-0.365
-396.150	-156.793	0.123	-0.008
-395.136	-76.522	0.248	-0.087
-394.121	800.000	-0.018	0.053
-393.106	509.352	0.106	0.245
-392.092	-159.234	-0.154	0.009
-391.077	-134.939	0.172	-0.021
-390.063	-127.523	-0.220	0.032
-389.048	-200.000	-0.001	0.072
-388.033	9.079	-0.167	-0.125
-387.019	-102.006	0.342	-0.082
-386.004	-200.000	-0.029	0.265
-384.990	-200.000	0.023	0.177
-383.975	113.110	0.102	0.123
-382.960	44.000	-0.357	-0.325
-381.946	-200.000	0.006	0.133
-380.931	130.205	-0.068	0.086
-379.917	-68.838	0.260	-0.100
-378.902	-64.191	-0.180	-0.073
-377.888	-162.725	0.077	0.004
-376.873	27.664	-0.202	0.169
-375.858	-200.000	0.029	-0.138
-374.844	9.505	0.199	0.150
-373.829	-126.250	0.041	0.006
-372.815	-68.735	-0.380	-0.146
-371.800	-58.717	-0.171	0.074
-370.785	215.975	-0.219	0.345
-369.771	738.244	0.047	-0.125
-368.756	308.626	-0.079	0.147
-367.742	-123.627	0.282	-0.044
-366.727	800.000	0.061	0.178
-365.712	95.300	0.195	-0.221
-364.698	-47.346	-0.112	0.054
-363.683	-67.821	0.228	-0.088
-362.669	-9.213	0.139	0.092
-361.654	-200.000	-0.022	0.117
-360.639	12.845	0.281	0.216
-359.625	-200.000	-0.017	-0.076
-358.610	-200.000	0.045	0.240
-357.596	-40.869	-0.135	-0.070
-356.581	-9.333	-0.074	-0.049
-355.566	151.195	0.061	0.083
-354.552	-25.412	-0.154	0.090
-353.537	-103.574	0.140	-0.033
-352.523	-106.566	-0.205	-0.045
-351.508	800.000	0.068	0.281
-350.493	224.326	-0.109	-0.174
-349.479	232.808	0.077	0.126
-348.464	196.700	-0.192	0.290
-347.450	426.661	0.075	0.161
-346.435	-78.853	-0.182	0.062
-345.420	-200.000	-0.011	0.133
-344.406	527.034	0.161	-0.377
-343.391	-108.307	-0.105	-0.023
-342.377	49.468	0.043	0.040
-341.362	-35.068	-0.156	0.084
-340.348	55.750	0.246	-0.237
-339.333	-200.000	0.017	-0.520
-338.318	-115.933	-0.204	-0.038
-337.304	-105.071	0.248	-0.056
-336.289	-79.467	-0.153	0.051
-335.275	65.694	-0.205	-0.206
-334.260	187.185	0.066	-0.098
-333.245	-200.000	0.021	0.286
-332.231	-124.735	-0.416	-0.064
-331.216	-14.553	0.448	0.286
-330.202	800.000	0.081	-0.236
-329.187	-29.920	-0.364	0.206
-328.172	-163.743	-0.145	0.007
-327.158	189.807	0.070	-0.104
-326.143	-40.733	-0.024	0.012
-325.129	-146.787	-0.159	-0.014
-324.114	-200.000	-0.068	0.297
-323.099	173.516	0.155	0.222
-322.085	356.233	0.058	0.115
-321.070	-99.121	0.258	-0.065
-320.056	-95.322	-0.356	-0.095
-319.041	800.000	-0.125	-0.357
-318.026	195.701	-0.057	-0.086
-317.012	-136.031	0.103	-0.012
-315.997	-113.079	-0.271	-0.053
-314.983	-200.000	-0.009	-0.099
-313.968	-77.981	-0.429	0.147
-312.953	131.275	-0.095	0.121
-311.939	-94.668	-0.130	-0.035
-310.924	-109.930	0.104	0.022
-309.910	15.330	-0.062	-0.049
-308.895	218.420	0.191	0.302
-307.880	-15.642	-0.061	-0.039
-306.866	-200.000	0.048	0.236
-305.851	-124.283	0.329	0.051
-304.837	-86.585	0.062	0.019
-303.822	-200.000	-0.014	-0.090
-302.807	-176.807	-0.216	-0.005
-301.793	-77.762	-0.465	0.160
-300.778	-70.845	0.195	0.073
-299.764	0.108	-0.073	0.052
-298.749	274.298	0.022	-0.039
-297.735	66.509	-0.129	0.130
-296.720	-112.129	0.172	-0.034
-295.705	-74.890	-0.157	-0.056
-294.691	621.584	0.091	-0.226
-293.676	129.128	-0.093	0.118
-292.662	140.141	0.207	0.271
-291.647	22.148	0.130	-0.105
-290.632	162.535	0.241	0.336
-289.618	-71.886	0.366	0.135
-288.603	-53.693	-0.329	-0.149
-287.589	800.000	0.059	0.203
-286.574	800.000	0.078	0.316
-285.559	-46.244	-0.225	-0.110
-284.545	173.877	-0.167	0.240
-283.530	521.888	0.024	-0.057
-282.516	800.000	0.027	-0.080
-281.501	351.739	-0.038	0.075
-280.486	95.029	0.018	-0.020
-279.472	746.397	-0.107	-0.286
-278.457	-40.441	0.242	-0.124
-277.443	800.000	0.079	0.285
-276.428	-200.000	-0.036	0.225
-275.413	-98.252	0.343	-0.087
-274.399	172.442	-0.147	-0.209
-273.384	24.114	0.142	-0.116
-272.370	497.512	0.027	-0.062
-271.355	211.853	0.091	0.143
-270.340	682.207	0.086	0.222
-269.326	-200.000	-0.007	-0.104
-268.311	-49.166	-0.201	0.095
-267.297	747.920	0.081	-0.215
-266.282	133.128	0.172	-0.220
-265.267	-103.030	0.189	0.044
-264.253	351.854	0.188	0.369
-263.238	-102.272	0.100	-0.024
-262.224	521.830	-0.091	-0.212
-261.209	223.966	-0.197	-0.315
-260.195	95.294	-0.062	-0.070
-259.180	-200.000	0.035	-0.498
-258.165	-200.000	0.023	0.188
-257.151	-200.000	-0.010	-0.474
-256.136	4.171	0.164	-0.119
-255.122	120.433	0.333	0.410
-254.107	71.462	0.213	0.219
-253.092	-70.887	-0.215	-0.080
-252.078	-108.323	0.241	-0.052
-251.063	424.553	-0.116	0.247
-250.049	201.019	0.097	-0.147
-249.034	5.585	0.289	0.212
-248.019	-185.193	-0.195	0.003
-247.005	90.388	0.238	0.263
-245.990	32.014	-0.307	0.261
-244.976	-200.000	0.002	0.274
-243.961	-93.493	0.268	0.073
-242.946	323.888	-0.108	0.205
-241.932	-116.537	0.212	0.039
-240.917	800.000	0.081	0.224
-239.903	-84.700	0.286	-0.089
-238.888	-72.511	-0.025	-0.009
-237.873	225.189	0.049	-0.078
-236.859	28.744	0.053	-0.044
-235.844	189.004	0.119	-0.176
-234.830	47.041	0.091	-0.084
-233.815	-105.533	-0.203	-0.045
-232.800	-128.877	-0.311	-0.043
-231.786	-16.629	-0.238	-0.149
-230.771	-200.000	0.037	0.295
-229.757	-91.660	-0.266	-0.075
-228.742	283.684	0.060	-0.106
-227.727	98.493	0.083	-0.094
-226.713	424.826	-0.115	-0.244
-225.698	-12.203	-0.201	0.130
-224.684	-67.768	0.415	0.161
-223.669	124.361	0.114	0.142
-222.655	-22.494	-0.151	0.091
-221.640	59.929	-0.077	0.075
-220.625	-200.000	0.070	0.421
-219.611	137.204	-0.093	-0.120
-218.596	768.224	0.126	-0.339
-217.582	57.606	-0.075	0.073
-216.567	17.011	0.029	-0.023
-215.552	-200.000	0.014	-0.135
-214.538	-71.462	0.155	0.057
-213.523	229.988	-0.077	-0.124
-212.509	-200.000	0.049	0.282
-211.494	39.502	0.378	-0.335
-210.479	431.458	-0.068	-0.147
-209.465	55.946	0.158	0.152
-208.450	800.000	-0.109	-0.399
-207.436	-200.000	0.057	0.252
-206.421	-200.000	-0.038	0.225
-205.406	180.931	-0.151	-0.219
-204.392	-161.865	0.029	0.001
-203.377	-5.981	0.160	-0.108
-202.363	-94.890	-0.260	0.069
-201.348	-169.091	0.243	0.009
-200.333	800.000	0.039	0.140
-199.319	-120.873	-0.248	-0.041
-198.304	-200.000	0.010	0.126
-197.290	-117.042	-0.099	-0.018
-196.275	800.000	0.074	0.234
-195.260	99.791	-0.144	-0.164
-194.246	569.469	-0.061	0.148
-193.231	257.254	0.124	0.211
-192.217	-33.570	-0.080	-0.044
-191.202	165.075	0.087	0.121
-190.187	188.182	-0.029	0.043
-189.173	-21.250	-0.123	0.074
-188.158	-167.610	0.127	0.005
-187.144	-200.000	0.028	0.252
-186.129	14.451	-0.164	-0.127
-185.114	428.819	0.083	0.176
-184.100	-188.550	0.358	0.004
-183.085	800.000	-0.103	0.325
-182.071	800.000	0.012	-0.042
-181.056	233.066	-0.105	0.171
-180.042	260.465	-0.073	-0.125
-179.027	356.148	0.021	0.041
-178.012	-87.348	-0.207	-0.062
-176.998	-19.529	0.270	-0.165
-175.983	49.586	-0.074	-0.069
-174.969	3.882	0.293	-0.211
-173.954	-131.873	-0.232	0.030
-172.939	-6.428	-0.165	-0.111
-171.925	-43.621	-0.186	-0.092
-170.910	-132.600	0.373	0.047
-169.896	-76.264	-0.073	0.025
-168.881	-103.501	0.224	-0.052
-167.866	-192.158	-0.277	0.003
-166.852	-108.841	-0.407	0.086
-165.837	330.165	0.079	0.151
-164.823	28.410	-0.335	0.279
-163.808	60.258	0.169	0.165
-162.793	800.000	-0.103	-0.411
-161.779	800.000	-0.078	-0.279
-160.764	-200.000	0.005	0.060
-159.750	-28.101	0.448	-0.256
-158.735	-146.984	0.501	-0.042
-157.720	-200.000	-0.010	-0.057
-156.706	-200.000	-0.098	-0.470
-155.691	-200.000	0.044	-0.224
-154.677	800.000	0.101	0.294
-153.662	528.770	-0.050	0.115
-152.647	128.609	-0.046	0.058
-151.633	-59.909	-0.215	-0.091
-150.618	569.318	0.048	-0.114
-149.604	-200.000	0.022	0.210
-148.589	-46.881	-0.217	-0.105
-147.574	-144.889	0.290	0.026
-146.560	99.313	-0.077	-0.087
-145.545	-47.099	0.299	0.144
-144.531	161.729	-0.126	0.173
-143.516	-200.000	0.021	-0.366
-142.502	287.503	0.113	-0.202
-141.487	96.548	0.209	0.235
-140.472	40.311	0.135	-0.119
-139.458	-133.600	-0.085	-0.010
-138.443	-171.171	0.262	-0.009
-137.429	-44.962	-0.290	0.142
-136.414	800.000	-0.027	0.080
-135.399	-86.840	-0.055	0.016
-134.385	800.000	0.024	0.080
-133.370	-42.747	0.330	-0.165
-132.356	800.000	0.054	0.219
-131.341	-87.858	-0.087	-0.026
-130.326	378.802	0.111	0.223
-129.312	-185.162	-0.371	-0.006
-128.297	800.000	-0.093	-0.328
-127.283	-200.000	0.038	-0.245
-126.268	-94.894	0.110	0.029
-125.253	64.084	-0.327	-0.324
-124.239	-131.935	-0.379	0.049
-123.224	-52.307	-0.129	-0.059
-122.210	-200.000	-0.007	-0.090
