DTS Sentinel unit serial number:	SN413079Multiplexer serial number:	ORYXHardware model number:	OX4-SRSoftware version number:	ORYX F/W v4.00 Oryx Data Collector v3.7.2.0data status	okinstallation	princeton_trtdifferential loss correction	single-endedforward channel	channel 2reverse channel	N/Adate	2019/09/13time	07:39:35forward acquisition time	60.00reverse acquisition time	0.00gamma	496.2192k internal	0.2336k external	0.2336temperature offset calibration	1.0192default loss term (dB/km)	0.3790temperature slope calibration	1.0000multiplexer offset coefficient	1.0000multiplexer slope coefficient	1.0000fibre end	0.00T internal ref (°C)	26.37T ext. ref 1 (°C)	4.21T ext. ref 2 (°C)	22.34length (m)	temperature (°C)	Stokes	anti-Stokes-747.200	-124.921	-0.314	-0.049
-746.185	562.624	-0.036	0.086
-745.171	-73.715	-0.243	0.089
-744.156	-113.418	-0.479	0.094
-743.142	489.430	-0.059	0.135
-742.127	-145.576	-0.136	-0.012
-741.112	-200.000	0.035	-0.237
-740.098	104.140	0.153	0.181
-739.083	139.185	0.106	-0.140
-738.069	-83.897	0.013	-0.004
-737.054	658.390	-0.094	0.242
-736.039	-111.114	-0.239	-0.049
-735.025	-5.397	-0.227	0.156
-734.010	-68.465	0.060	0.023
-732.996	-94.001	0.266	0.073
-731.981	-168.914	-0.218	-0.008
-730.966	318.769	0.098	0.187
-729.952	-200.000	0.014	-0.084
-728.937	-57.781	-0.447	-0.196
-727.923	19.719	-0.181	0.146
-726.908	-6.588	0.251	-0.172
-725.894	-67.777	0.166	-0.065
-724.879	800.000	-0.050	0.189
-723.864	-200.000	-0.001	0.368
-722.850	275.994	0.082	-0.145
-721.835	-200.000	0.017	-0.216
-720.821	-200.000	-0.022	-0.129
-719.806	800.000	0.042	0.129
-718.791	-57.496	0.087	0.039
-717.777	58.128	-0.022	-0.022
-716.762	-14.886	-0.109	-0.070
-715.748	-149.509	0.441	-0.035
-714.733	-200.000	-0.074	-0.334
-713.718	-102.124	-0.181	0.044
-712.704	-44.488	0.295	-0.148
-711.689	283.619	0.125	-0.226
-710.675	-200.000	-0.008	0.043
-709.660	285.411	0.035	-0.063
-708.645	-200.000	-0.025	0.359
-707.631	1.004	-0.230	0.165
-706.616	109.520	-0.046	-0.055
-705.602	-129.711	0.111	0.015
-704.587	-22.808	0.220	0.133
-703.572	-200.000	0.007	0.057
-702.558	24.681	0.490	-0.407
-701.543	-200.000	-0.066	-0.415
-700.529	-80.795	-0.142	-0.047
-699.514	-155.744	-0.123	-0.008
-698.499	772.242	0.089	-0.243
-697.485	332.834	-0.106	-0.205
-696.470	-110.069	0.017	0.004
-695.456	-200.000	0.025	-0.258
-694.441	173.362	0.244	-0.353
-693.426	150.240	0.096	-0.131
-692.412	-90.037	0.119	-0.035
-691.397	800.000	0.018	-0.058
-690.383	-29.190	0.075	0.043
-689.368	800.000	-0.118	-0.346
-688.354	800.000	-0.129	-0.509
-687.339	-76.505	-0.128	0.045
-686.324	-200.000	-0.021	-0.107
-685.310	-200.000	0.001	-0.498
-684.295	213.637	0.135	0.214
-683.281	20.531	0.176	-0.142
-682.266	30.739	-0.084	0.072
-681.251	335.661	-0.062	0.120
-680.237	345.129	-0.062	-0.123
-679.222	-42.202	0.020	-0.010
-678.208	30.469	0.373	0.320
-677.193	94.875	0.024	-0.028
-676.178	6.439	0.120	0.089
-675.164	-200.000	-0.049	-0.322
-674.149	-70.286	0.187	-0.071
-673.135	-47.670	-0.430	0.209
-672.120	133.081	-0.187	-0.242
-671.105	-16.274	0.252	0.160
-670.091	-200.000	-0.072	-0.330
-669.076	129.210	-0.207	-0.265
-668.062	800.000	-0.070	0.233
-667.047	-118.452	0.111	-0.020
-666.032	-1.050	0.173	0.123
-665.018	-129.844	-0.218	-0.030
-664.003	77.226	-0.020	0.021
-662.989	-200.000	-0.045	-0.224
-661.974	-104.986	0.120	-0.027
-660.959	529.990	0.065	-0.153
-659.945	-200.000	-0.014	-0.196
-658.930	-200.000	-0.015	0.186
-657.916	-200.000	0.010	-0.421
-656.901	-200.000	-0.031	-0.232
-655.886	-162.692	-0.146	-0.007
-654.872	17.250	-0.124	-0.099
-653.857	245.598	-0.048	-0.081
-652.843	32.178	0.133	-0.115
-651.828	-45.050	-0.092	0.046
-650.814	72.606	-0.258	0.269
-649.799	-80.488	-0.135	-0.045
-648.784	386.483	0.174	0.360
-647.770	-200.000	0.025	0.194
-646.755	800.000	-0.062	-0.219
-645.741	198.387	-0.064	0.098
-644.726	800.000	-0.066	0.211
-643.711	-200.000	0.001	0.009
-642.697	34.484	0.045	0.039
-641.682	800.000	0.020	-0.060
-640.668	51.047	0.077	-0.073
-639.653	151.488	0.151	-0.206
-638.638	-47.242	0.096	0.047
-637.624	-200.000	-0.029	-0.378
-636.609	-160.736	-0.378	-0.020
-635.595	-140.832	0.158	0.016
-634.580	-171.816	0.459	-0.015
-633.565	-96.150	-0.180	-0.048
-632.551	-133.966	-0.149	0.019
-631.536	335.001	0.124	-0.240
-630.522	-200.000	0.018	-0.264
-629.507	3.558	0.092	-0.067
-628.492	61.900	0.184	-0.183
-627.478	-40.252	-0.248	-0.129
-626.463	-113.719	-0.373	-0.073
-625.449	-102.794	-0.273	0.065
-624.434	-44.782	0.290	0.145
-623.419	-58.147	-0.100	-0.043
-622.405	135.907	-0.098	-0.128
-621.390	93.460	-0.135	0.153
-620.376	-53.475	0.031	-0.014
-619.361	-200.000	-0.036	0.203
-618.346	-117.160	-0.217	-0.039
-617.332	87.349	0.079	0.087
-616.317	337.996	-0.031	0.061
-615.303	-26.504	-0.091	0.053
-614.288	-122.459	-0.201	0.033
-613.273	-85.134	0.289	-0.090
-612.259	-82.938	0.226	-0.073
-611.244	-200.000	0.004	-0.164
-610.230	-200.000	0.003	0.029
-609.215	-44.466	0.160	0.080
-608.201	800.000	-0.012	-0.043
-607.186	800.000	0.009	0.028
-606.171	-170.223	0.087	0.003
-605.157	800.000	-0.057	-0.194
-604.142	424.576	-0.116	-0.250
-603.128	-38.840	-0.114	-0.060
-602.113	664.245	0.069	0.178
-601.098	113.567	0.129	-0.157
-600.084	234.348	-0.107	-0.176
-599.069	800.000	0.050	-0.164
-598.055	800.000	0.051	-0.162
-597.040	92.681	-0.263	-0.297
-596.025	202.694	0.163	0.252
-595.011	-154.821	-0.313	-0.021
-593.996	-169.024	0.120	-0.004
-592.982	35.408	0.114	0.100
-591.967	460.780	0.049	-0.109
-590.952	312.462	-0.051	-0.095
-589.938	268.795	-0.181	0.316
-588.923	-82.431	-0.119	0.039
-587.909	312.878	0.137	-0.256
-586.894	-92.871	0.148	0.041
-585.879	120.481	0.064	-0.079
-584.865	-200.000	0.006	0.215
-583.850	231.763	0.122	0.199
-582.836	41.638	0.282	0.255
-581.821	109.535	0.177	0.212
-580.806	-9.665	-0.454	-0.302
-579.792	800.000	0.080	-0.270
-578.777	199.237	-0.167	-0.255
-577.763	291.937	0.089	0.161
-576.748	-65.516	-0.121	0.048
-575.733	281.659	-0.161	0.289
-574.719	-200.000	-0.022	-0.128
-573.704	-151.738	-0.389	-0.029
-572.690	-66.142	-0.283	0.113
-571.675	-2.747	-0.132	-0.092
-570.661	-2.749	-0.223	-0.155
-569.646	259.243	-0.053	-0.091
-568.631	800.000	0.036	0.147
-567.617	-119.129	0.216	0.038
-566.602	800.000	0.090	-0.348
-565.588	-200.000	0.034	0.250
-564.573	-66.537	0.386	-0.153
-563.558	82.932	-0.103	-0.111
-562.544	15.242	-0.091	-0.071
-561.529	272.476	0.125	-0.220
-560.515	-200.000	-0.080	-0.358
-559.500	121.282	0.004	-0.005
-558.485	-55.722	-0.177	-0.079
-557.471	-200.000	0.015	-0.197
-556.456	9.356	0.269	-0.203
-555.442	-200.000	-0.029	-0.317
-554.427	-126.142	0.303	-0.045
-553.412	59.284	0.132	0.130
-552.398	800.000	0.031	0.118
-551.383	-60.717	0.242	-0.102
-550.369	800.000	-0.068	0.225
-549.354	-200.000	0.030	-0.307
-548.339	-40.713	0.429	-0.222
-547.325	61.643	-0.037	0.036
-546.310	4.871	-0.150	-0.110
-545.296	800.000	-0.027	-0.110
-544.281	800.000	0.052	-0.146
-543.266	-69.702	0.115	-0.044
-542.252	453.000	-0.113	0.249
-541.237	-153.712	-0.327	-0.022
-540.223	-17.564	-0.255	-0.160
-539.208	27.170	0.212	-0.177
-538.193	98.087	0.061	-0.070
-537.179	91.634	-0.184	-0.206
-536.164	-200.000	0.040	0.235
-535.150	102.200	0.098	-0.114
-534.135	95.098	-0.038	-0.043
-533.121	-139.310	0.237	-0.025
-532.106	289.190	0.105	0.189
-531.091	-200.000	0.016	0.196
-530.077	153.242	-0.330	0.450
-529.062	-200.000	0.050	0.356
-528.048	-74.220	-0.087	0.031
-527.033	-88.583	-0.156	-0.046
-526.018	376.451	-0.076	0.154
-525.004	-19.798	-0.067	0.041
-523.989	-194.050	0.139	0.001
-522.975	-184.889	-0.284	-0.004
-521.960	-69.386	0.252	0.096
-520.945	800.000	-0.041	-0.174
-519.931	-154.195	0.278	-0.019
-518.916	585.074	0.103	-0.251
-517.902	119.485	-0.122	-0.150
-516.887	800.000	0.144	0.413
-515.872	800.000	-0.042	-0.143
-514.858	-35.275	0.124	-0.067
-513.843	6.861	-0.102	0.076
-512.829	-158.044	0.197	0.012
-511.814	-2.868	-0.224	-0.156
-510.799	111.301	0.087	0.104
-509.785	206.985	-0.069	0.106
-508.770	-43.776	-0.191	0.095
-507.756	-85.306	-0.248	-0.077
-506.741	189.570	0.116	-0.173
-505.726	60.508	0.116	-0.114
-504.712	307.024	0.110	-0.204
-503.697	267.828	-0.092	-0.160
-502.683	238.210	-0.093	-0.154
-501.668	278.711	-0.183	-0.325
-500.653	-169.093	-0.324	0.012
-499.639	800.000	-0.083	-0.258
-498.624	-17.496	-0.095	0.060
-497.610	-200.000	0.001	-0.301
-496.595	800.000	-0.137	-0.447
-495.581	330.231	0.108	0.206
-494.566	-200.000	0.008	0.154
-493.551	198.942	0.013	-0.019
-492.537	279.086	0.129	0.229
-491.522	-39.559	0.114	-0.059
-490.508	147.024	0.062	-0.083
-489.493	-73.620	-0.169	-0.061
-488.478	-200.000	-0.059	0.350
-487.464	-98.497	0.100	-0.025
-486.449	-66.303	0.494	-0.195
-485.435	-127.835	0.116	0.017
-484.420	-45.978	0.164	0.080
-483.405	800.000	0.042	-0.169
-482.391	247.732	0.183	0.307
-481.376	-200.000	-0.053	0.275
-480.362	800.000	0.035	-0.118
-479.347	138.849	-0.079	0.104
-478.332	24.218	-0.138	0.113
-477.318	-77.992	0.071	0.024
-476.303	19.153	0.105	-0.083
-475.289	-31.208	0.173	0.097
-474.274	-115.918	-0.352	-0.065
-473.259	-89.855	-0.245	-0.071
-472.245	145.459	-0.102	0.136
-471.230	199.409	0.176	-0.267
-470.216	-72.371	0.403	-0.148
-469.201	21.919	-0.067	0.054
-468.186	800.000	0.095	0.274
-467.172	57.065	0.158	-0.153
-466.157	222.113	0.034	-0.054
-465.143	216.606	0.129	-0.203
-464.128	212.938	-0.075	-0.118
-463.113	-149.843	0.383	0.030
-462.099	800.000	-0.012	-0.049
-461.084	-22.953	-0.044	-0.026
-460.070	800.000	0.048	0.139
-459.055	422.114	0.057	-0.122
-458.040	23.407	-0.028	0.023
-457.026	245.241	0.110	-0.184
-456.011	-200.000	-0.048	0.267
-454.997	-72.600	0.248	-0.091
-453.982	-150.388	-0.122	0.009
-452.968	-200.000	0.055	0.333
-451.953	-57.410	-0.176	-0.077
-450.938	138.439	0.143	0.186
-449.924	-90.150	0.113	-0.033
-448.909	91.057	-0.248	0.276
-447.895	-1.568	0.042	-0.030
-446.880	-200.000	-0.040	0.179
-445.865	716.797	-0.094	0.246
-444.851	5.341	-0.108	0.079
-443.836	-131.852	0.245	0.032
-442.822	-7.490	0.292	-0.196
-441.807	-146.114	-0.131	-0.011
-440.792	146.915	0.183	0.244
-439.778	-63.754	-0.210	0.086
-438.763	515.095	0.130	0.302
-437.749	-115.527	0.420	0.078
-436.734	-200.000	0.014	0.187
-435.719	-12.006	-0.105	0.068
-434.705	-200.000	0.008	-0.141
-433.690	-200.000	0.016	-0.166
-432.676	29.909	-0.156	0.132
-431.661	524.173	-0.091	0.211
-430.646	800.000	0.023	0.092
-429.632	-120.466	0.100	0.017
-428.617	800.000	0.052	0.158
-427.603	-27.156	0.070	-0.040
-426.588	-47.995	-0.210	0.101
-425.573	129.543	-0.083	-0.106
-424.559	-110.049	-0.058	-0.012
-423.544	182.708	-0.068	0.099
-422.530	-200.000	-0.064	-0.392
-421.515	-200.000	0.073	-0.459
-420.500	-200.000	0.001	-0.043
-419.486	-61.559	-0.095	0.040
-418.471	248.296	0.049	0.083
-417.457	-59.459	0.155	-0.066
-416.442	-84.647	-0.341	0.107
-415.428	-162.998	0.339	0.016
-414.413	217.176	-0.139	0.219
-413.398	-23.464	0.210	0.125
-412.384	-1.094	0.308	-0.216
-411.369	29.166	-0.182	-0.153
-410.355	-159.061	-0.211	0.012
-409.340	746.479	-0.099	-0.265
-408.325	-200.000	0.056	0.326
-407.311	217.741	-0.164	0.259
-406.296	-200.000	0.020	0.290
-405.282	-129.197	-0.171	-0.024
-404.267	-200.000	0.033	0.252
-403.252	22.648	0.078	-0.064
-402.238	55.445	-0.229	0.219
-401.223	-200.000	-0.019	-0.125
-400.209	-2.091	-0.100	0.069
-399.194	-138.406	-0.334	0.036
-398.179	-200.000	-0.084	-0.450
-397.165	-89.187	0.296	-0.086
-396.150	-200.000	-0.054	0.303
-395.136	82.895	-0.073	0.079
-394.121	-61.505	-0.307	0.128
-393.106	62.166	0.111	-0.110
-392.092	420.885	0.169	-0.360
-391.077	173.127	0.179	-0.255
-390.063	-72.825	-0.138	0.050
-389.048	110.859	0.169	-0.202
-388.033	-200.000	0.039	-0.601
-387.019	-62.175	0.327	0.135
-386.004	270.472	0.220	0.383
-384.990	-148.910	0.071	-0.006
-383.975	281.516	-0.084	-0.148
-382.960	611.068	-0.093	0.231
-381.946	-32.145	0.093	-0.051
-380.931	-200.000	0.000	0.030
-379.917	-165.557	-0.226	0.010
-378.902	-54.196	-0.263	0.118
-377.888	61.893	0.164	0.162
-376.873	422.480	-0.106	-0.226
-375.858	-200.000	-0.027	0.376
-374.844	19.328	-0.019	-0.015
-373.829	161.724	0.024	-0.033
-372.815	-112.224	-0.226	-0.045
-371.800	-43.821	0.093	-0.046
-370.785	160.455	-0.045	-0.063
-369.771	522.530	0.065	-0.152
-368.756	-6.251	-0.172	0.116
-367.742	100.726	-0.123	-0.141
-366.727	680.649	0.025	0.064
-365.712	17.991	0.065	0.051
-364.698	-200.000	0.008	-0.084
-363.683	800.000	-0.120	-0.366
-362.669	-18.437	0.267	-0.165
-361.654	-124.528	0.159	-0.025
-360.639	-53.763	0.128	0.058
-359.625	22.166	-0.198	-0.160
-358.610	20.965	0.279	-0.223
-357.596	-195.487	-0.116	0.001
-356.581	216.542	-0.068	0.107
-355.566	138.581	0.100	-0.130
-354.552	-60.563	0.216	0.091
-353.537	312.589	0.074	-0.138
-352.523	92.059	0.224	-0.249
-351.508	133.822	0.094	0.121
-350.493	104.388	0.167	0.194
-349.479	225.375	0.287	-0.460
-348.464	-10.691	-0.172	-0.113
-347.450	800.000	0.093	-0.391
-346.435	8.517	-0.150	0.112
-345.420	-65.299	-0.154	-0.061
-344.406	-200.000	-0.007	-0.100
-343.391	139.891	-0.154	0.201
-342.377	379.380	0.051	0.103
-341.362	-165.132	0.222	0.010
-340.348	261.406	0.103	0.176
-339.333	-59.380	-0.398	0.169
-338.318	93.571	-0.185	-0.207
-337.304	213.646	-0.090	0.141
-336.289	800.000	-0.090	0.280
-335.275	187.055	-0.140	0.206
-334.260	-13.009	0.287	0.185
-333.245	29.641	0.277	-0.233
-332.231	-117.066	-0.233	-0.042
-331.216	513.174	0.101	-0.233
-330.202	-2.355	0.141	-0.098
-329.187	38.850	0.201	-0.178
-328.172	525.197	-0.101	-0.235
-327.158	-200.000	0.011	-0.054
-326.143	155.012	0.016	-0.021
-325.129	-141.330	0.225	-0.023
-324.114	314.575	0.181	0.337
-323.099	-200.000	-0.030	-0.249
-322.085	-200.000	-0.002	-0.061
-321.070	133.419	0.136	-0.173
-320.056	-76.165	-0.149	-0.052
-319.041	-64.850	0.095	0.038
-318.026	-79.069	0.231	-0.077
-317.012	-83.744	-0.214	0.067
-315.997	694.844	0.028	-0.073
-314.983	169.944	-0.186	0.262
-313.968	-28.487	-0.094	-0.053
-312.953	800.000	-0.097	-0.301
-311.939	-30.808	0.148	-0.083
-310.924	178.753	0.205	0.296
-309.910	-200.000	0.005	-0.136
-308.895	-200.000	0.009	0.235
-307.880	215.346	0.246	0.386
-306.866	-200.000	-0.023	0.158
-305.851	-95.415	0.350	0.093
-304.837	-200.000	0.003	0.219
-303.822	225.126	-0.175	0.280
-302.807	76.256	-0.272	0.284
-301.793	-200.000	-0.071	0.314
-300.778	289.929	0.067	0.120
-299.764	-7.439	-0.317	-0.212
-298.749	800.000	0.028	-0.087
-297.735	-28.057	-0.195	0.111
-296.720	22.391	-0.086	-0.070
-295.705	71.044	-0.128	-0.130
-294.691	-200.000	-0.010	0.080
-293.676	800.000	-0.031	0.088
-292.662	234.739	-0.062	0.101
-291.647	-200.000	-0.010	0.099
-290.632	-85.955	-0.300	0.091
-289.618	27.567	-0.092	0.076
-288.603	-6.166	-0.202	0.136
-287.589	800.000	0.046	0.190
-286.574	145.499	0.166	0.219
-285.559	-109.472	-0.124	-0.026
-284.545	-29.295	-0.307	0.173
-283.530	-143.252	0.226	-0.021
-282.516	44.133	-0.189	-0.171
-281.501	81.734	-0.089	-0.095
-280.486	800.000	0.031	-0.117
-279.472	-47.154	0.161	0.077
-278.457	800.000	0.030	-0.128
-277.443	-101.384	-0.391	0.094
-276.428	-4.168	-0.193	0.132
-275.413	456.117	0.114	-0.249
-274.399	-135.602	-0.086	-0.010
-273.384	-200.000	-0.004	-0.173
-272.370	78.618	-0.189	0.199
-271.355	-3.174	0.177	0.122
-270.340	-200.000	-0.008	0.366
-269.326	-73.302	0.058	0.021
-268.311	4.152	0.230	-0.166
-267.297	237.383	-0.055	-0.090
-266.282	-36.631	0.175	0.093
-265.267	613.537	0.169	0.418
-264.253	501.046	-0.030	0.068
-263.238	45.793	0.158	-0.144
-262.224	87.933	0.108	-0.118
-261.209	-71.535	0.229	0.084
-260.195	113.434	-0.210	0.251
-259.180	-200.000	0.002	0.019
-258.165	-200.000	-0.011	0.241
-257.151	717.181	-0.047	0.122
-256.136	-125.105	-0.227	-0.034
-255.122	122.677	-0.129	0.159
-254.107	411.532	0.121	-0.254
-253.092	-72.779	-0.185	-0.067
-252.078	711.183	-0.039	0.103
-251.063	111.437	-0.168	-0.199
-250.049	221.191	0.159	0.251
-249.034	32.404	0.031	0.027
-248.019	-117.616	-0.108	-0.019
-247.005	655.629	0.053	0.134
-245.990	-160.445	-0.249	0.013
-244.976	-145.252	-0.153	0.014
-243.961	52.544	0.145	-0.137
-242.946	-57.178	-0.220	-0.096
-241.932	791.161	0.061	0.164
-240.917	-94.391	0.152	-0.041
-239.903	-200.000	0.051	-0.335
-238.888	190.232	0.171	0.253
-237.873	-60.589	0.216	0.090
-236.859	-133.636	-0.430	-0.053
-235.844	31.447	-0.172	0.145
-234.830	-113.128	-0.121	0.023
-233.815	-33.266	0.174	-0.095
-232.800	-200.000	0.004	-0.159
-231.786	-140.850	0.254	0.026
-230.771	-164.651	0.029	0.001
-229.757	-1.408	0.342	0.238
-228.742	67.004	-0.228	0.228
-227.727	-153.196	-0.172	0.012
-226.713	23.233	0.163	0.132
-225.698	167.018	0.264	-0.369
-224.684	-133.654	0.139	-0.017
-223.669	800.000	0.043	0.135
-222.655	250.735	-0.167	-0.278
-221.640	800.000	0.041	-0.173
-220.625	-76.400	0.163	0.056
-219.611	91.194	0.330	-0.364
-218.596	-6.833	0.124	-0.083
-217.582	-37.728	-0.458	0.240
-216.567	5.166	0.217	0.157
-215.552	787.216	0.067	0.181
-214.538	95.425	0.075	-0.084
-213.523	140.023	-0.192	0.249
-212.509	53.281	0.180	-0.170
-211.494	254.402	0.126	0.212
-210.479	-200.000	-0.016	0.122
-209.465	-200.000	-0.022	-0.174
-208.450	-200.000	-0.036	-0.248
-207.436	46.778	0.262	-0.239
-206.421	-24.387	-0.243	0.142
-205.406	-18.154	0.372	-0.229
-204.392	-200.000	-0.014	-0.290
-203.377	-15.547	-0.057	-0.036
-202.363	105.212	0.014	0.017
-201.348	21.252	0.146	0.116
-200.333	340.691	-0.042	0.080
-199.319	653.365	0.064	-0.161
-198.304	130.094	0.169	-0.213
-197.290	800.000	-0.010	-0.032
-196.275	-110.984	-0.235	-0.047
-195.260	-200.000	-0.003	0.036
-194.246	-68.482	-0.206	0.079
-193.231	800.000	-0.030	-0.109
-192.217	-61.717	0.234	-0.096
-191.202	186.782	-0.118	-0.173
-190.187	-58.528	-0.283	-0.121
-189.173	800.000	-0.091	0.294
-188.158	-156.529	-0.214	-0.013
-187.144	539.289	0.159	-0.372
-186.129	-38.715	0.029	-0.015
-185.114	193.729	0.127	-0.189
-184.100	-124.124	-0.188	-0.029
-183.085	129.044	0.270	0.338
-182.071	749.242	-0.062	0.165
-181.056	380.396	-0.036	0.074
-180.042	0.162	0.168	0.118
-179.027	-36.156	-0.153	0.081
-178.012	198.049	0.061	0.091
-176.998	52.258	0.187	0.176
-175.983	98.057	0.075	0.084
-174.969	-155.113	0.295	0.019
-173.954	1.889	-0.115	0.081
-172.939	-200.000	-0.069	0.377
-171.925	-109.647	-0.152	0.031
-170.910	800.000	0.057	0.228
-169.896	-200.000	0.082	-0.000
-168.881	95.307	-0.164	-0.183
-167.866	-103.921	0.061	0.014
-166.852	-200.000	-0.029	0.206
-165.837	82.392	-0.284	0.302
-164.823	-35.241	0.142	0.076
-163.808	36.152	-0.254	0.220
-162.793	-41.154	-0.116	0.059
-161.779	355.245	-0.050	0.097
-160.764	-200.000	-0.051	0.353
-159.750	-2.572	-0.161	0.111
-158.735	-200.000	0.003	-0.023
-157.720	-135.306	-0.397	0.047
-156.706	416.163	-0.050	0.105
-155.691	-56.565	-0.123	0.054
-154.677	29.652	0.091	-0.076
-153.662	-200.000	-0.067	-0.377
-152.647	-92.463	-0.026	-0.007
-151.633	113.190	-0.130	-0.155
-150.618	-200.000	0.055	0.289
-149.604	395.468	0.052	0.107
-148.589	165.562	0.141	0.196
-147.574	-89.668	0.387	0.111
-146.560	-200.000	0.060	-0.278
-145.545	8.763	0.195	0.144
-144.531	99.943	0.198	0.226
-143.516	152.337	0.125	-0.168
-142.502	-200.000	0.069	0.320
-141.487	-58.204	-0.269	0.115
-140.472	-146.979	-0.183	0.015
-139.458	110.368	0.131	0.154
-138.443	800.000	-0.055	-0.181
-137.429	3.216	0.275	0.196
-136.414	-113.043	-0.144	0.028
-135.399	265.858	0.214	-0.365
-134.385	-87.902	0.357	-0.105
-133.370	648.436	0.068	0.170
-132.356	-34.682	0.208	-0.112
-131.341	-200.000	0.016	-0.400
-130.326	659.593	0.140	0.354
-129.312	-132.885	0.178	0.022
-128.297	-40.705	0.163	0.083
-127.283	800.000	0.171	-0.532
-126.268	-166.866	-0.108	-0.004
-125.253	69.397	0.180	0.181
-124.239	183.679	-0.172	-0.249
-123.224	214.500	0.101	0.157
-122.210	414.800	0.040	-0.083
-121.195	75.307	-0.128	0.132
-120.180	-9.441	0.309	-0.202
