DTS Sentinel unit serial number:	SN413079Multiplexer serial number:	ORYXHardware model number:	OX4-SRSoftware version number:	ORYX F/W v4.00 Oryx Data Collector v3.7.2.0data status	okinstallation	princeton_trtdifferential loss correction	single-endedforward channel	channel 2reverse channel	N/Adate	2019/09/18time	17:59:34forward acquisition time	60.00reverse acquisition time	0.00gamma	496.2192k internal	0.2303k external	0.2303temperature offset calibration	1.0024default loss term (dB/km)	0.3790temperature slope calibration	1.0000multiplexer offset coefficient	1.0000multiplexer slope coefficient	1.0000fibre end	0.00T internal ref (°C)	39.67T ext. ref 1 (°C)	0.93T ext. ref 2 (°C)	31.12length (m)	temperature (°C)	Stokes	anti-Stokes-747.200	-200.000	0.057	-0.398
-746.185	-200.000	-0.060	0.316
-745.171	10.899	0.145	0.113
-744.156	-200.000	-0.043	0.278
-743.142	-132.744	0.451	-0.059
-742.127	39.684	-0.087	-0.080
-741.112	-10.266	0.173	0.117
-740.098	-49.733	-0.139	0.067
-739.083	159.640	0.025	0.036
-738.069	8.928	-0.332	-0.255
-737.054	-120.624	0.209	-0.036
-736.039	-200.000	0.037	0.262
-735.025	7.855	0.239	-0.183
-734.010	-200.000	0.011	0.324
-732.996	-20.551	0.209	-0.131
-731.981	190.648	0.170	-0.260
-730.966	-200.000	0.053	0.279
-729.952	-114.605	0.173	-0.034
-728.937	-200.000	-0.050	0.232
-727.923	35.385	0.025	-0.022
-726.908	-200.000	0.002	-0.050
-725.894	-104.783	0.367	0.086
-724.879	-69.972	-0.338	0.131
-723.864	-75.389	0.131	-0.048
-722.850	9.132	-0.115	-0.088
-721.835	573.563	0.106	-0.262
-720.821	-200.000	-0.011	0.050
-719.806	0.513	-0.212	-0.154
-718.791	-59.509	0.178	-0.078
-717.777	44.264	-0.125	-0.117
-716.762	-147.442	0.352	-0.030
-715.748	800.000	0.050	0.144
-714.733	-105.890	-0.134	0.031
-713.718	-140.082	-0.236	-0.025
-712.704	12.131	-0.135	-0.105
-711.689	800.000	-0.053	-0.210
-710.675	-200.000	0.015	-0.196
-709.660	-154.254	0.126	0.009
-708.645	-133.439	0.204	-0.026
-707.631	-107.054	0.251	-0.056
-706.616	28.325	0.197	-0.169
-705.602	-200.000	0.030	-0.374
-704.587	-19.233	0.156	-0.099
-703.572	800.000	-0.008	0.029
-702.558	800.000	0.124	0.364
-701.543	16.845	-0.126	0.102
-700.529	565.672	-0.029	0.071
-699.514	135.068	0.042	-0.055
-698.499	-200.000	-0.073	-0.365
-697.485	-56.504	-0.309	-0.139
-696.470	-97.058	-0.268	-0.071
-695.456	530.875	-0.014	0.033
-694.441	142.570	-0.055	-0.074
-693.426	-145.669	0.298	-0.027
-692.412	-29.561	-0.182	0.105
-691.397	800.000	-0.038	-0.157
-690.383	232.411	-0.022	-0.037
-689.368	22.453	0.061	-0.051
-688.354	550.712	-0.044	0.107
-687.339	2.258	-0.205	0.151
-686.324	330.973	-0.053	0.103
-685.310	800.000	-0.046	-0.171
-684.295	-200.000	-0.022	-0.259
-683.281	-47.979	-0.301	-0.148
-682.266	348.291	-0.052	0.104
-681.251	175.383	-0.046	-0.067
-680.237	-100.092	-0.308	0.078
-679.222	-93.811	-0.317	-0.089
-678.208	-113.553	-0.179	-0.036
-677.193	-200.000	-0.001	0.324
-676.178	-183.481	-0.321	-0.006
-675.164	-114.396	0.063	-0.012
-674.149	800.000	-0.084	-0.284
-673.135	630.958	0.057	0.148
-672.120	304.843	-0.148	0.280
-671.105	-57.037	-0.103	0.046
-670.091	195.120	-0.292	-0.451
-669.076	-81.988	0.348	0.116
-668.062	377.307	-0.140	-0.292
-667.047	800.000	0.104	-0.422
-666.032	800.000	-0.019	-0.060
-665.018	-31.638	-0.330	0.188
-664.003	211.987	-0.140	0.225
-662.989	343.141	-0.071	0.140
-661.974	-48.462	0.241	-0.118
-660.959	-142.696	-0.396	0.039
-659.945	800.000	-0.021	0.065
-658.930	41.544	-0.257	-0.236
-657.916	-129.688	-0.340	0.048
-656.901	239.435	-0.076	-0.128
-655.886	264.002	-0.180	0.318
-654.872	90.656	0.083	0.094
-653.857	800.000	-0.044	-0.178
-652.843	-39.996	-0.261	-0.138
-651.828	800.000	0.027	0.099
-650.814	-200.000	-0.002	0.042
-649.799	-0.345	-0.185	0.133
-648.784	-25.554	0.253	-0.151
-647.770	180.059	-0.144	0.214
-646.755	-104.273	-0.073	0.017
-645.741	7.903	0.256	-0.195
-644.726	419.146	-0.151	-0.327
-643.711	-33.944	-0.182	0.102
-642.697	-63.346	0.088	0.037
-641.682	-125.571	0.105	0.016
-640.668	301.278	-0.028	-0.053
-639.653	408.368	-0.107	-0.229
-638.638	-131.439	0.066	-0.009
-637.624	-99.633	-0.115	-0.029
-636.609	-15.293	0.287	0.186
-635.595	101.765	0.093	0.110
-634.580	-121.239	0.075	0.013
-633.565	-60.522	-0.149	-0.064
-632.551	478.714	-0.098	0.226
-631.536	800.000	0.016	0.066
-630.522	549.945	-0.015	-0.038
-629.507	324.073	-0.020	0.039
-628.492	30.604	-0.129	0.112
-627.478	18.704	0.208	-0.169
-626.463	-53.915	0.071	-0.033
-625.449	-120.489	0.056	0.010
-624.434	-23.238	0.303	0.185
-623.419	22.862	-0.123	0.102
-622.405	-200.000	-0.025	-0.177
-621.390	60.831	0.155	0.156
-620.376	403.544	-0.230	0.492
-619.361	-86.417	0.082	-0.026
-618.346	-200.000	-0.013	-0.155
-617.332	733.602	-0.015	-0.040
-616.317	278.469	0.167	-0.302
-615.303	-156.542	0.129	0.008
-614.288	-99.578	0.389	-0.099
-613.273	-200.000	-0.173	0.000
-612.259	307.159	-0.101	-0.191
-611.244	143.873	0.186	0.252
-610.230	-26.524	0.288	0.171
-609.215	-142.387	-0.122	0.012
-608.201	-7.069	0.178	-0.123
-607.186	78.880	0.105	0.114
-606.171	292.603	0.130	-0.240
-605.157	792.232	0.167	0.466
-604.142	-200.000	0.071	0.375
-603.128	192.281	-0.168	-0.256
-602.113	-200.000	-0.070	0.324
-601.098	-68.185	-0.151	0.059
-600.084	-18.947	0.066	0.041
-599.069	418.610	-0.114	0.246
-598.055	-195.633	0.153	-0.001
-597.040	28.790	0.146	-0.126
-596.025	88.515	0.318	-0.358
-595.011	16.041	0.118	0.095
-593.996	332.279	0.160	0.312
-592.982	63.644	-0.134	-0.136
-591.967	-43.167	0.157	-0.081
-590.952	1.372	0.175	0.127
-589.938	-193.041	-0.154	0.001
-588.923	-200.000	-0.006	0.043
-587.909	-91.089	-0.258	0.075
-586.894	22.126	-0.076	0.063
-585.879	17.528	0.264	-0.213
-584.865	179.845	0.053	0.078
-583.850	16.580	-0.150	-0.120
-582.836	-0.334	-0.144	0.104
-581.821	432.958	-0.232	-0.510
-580.806	101.048	0.106	0.125
-579.792	64.226	-0.103	0.105
-578.777	691.788	-0.039	0.102
-577.763	109.958	-0.050	-0.061
-576.748	56.265	-0.123	0.121
-575.733	40.471	-0.133	-0.122
-574.719	800.000	-0.108	0.445
-573.704	-145.012	-0.424	-0.039
-572.690	187.990	-0.131	-0.198
-571.675	7.962	-0.295	-0.224
-570.661	800.000	-0.068	-0.255
-569.646	-145.153	0.238	0.022
-568.631	-4.274	0.203	0.142
-567.617	-183.725	0.108	-0.002
-566.602	-79.016	-0.163	-0.056
-565.588	-200.000	-0.006	0.058
-564.573	252.448	-0.040	0.069
-563.558	-86.954	-0.224	-0.069
-562.544	0.726	-0.133	-0.096
-561.529	800.000	-0.042	-0.123
-560.515	-73.897	-0.200	0.073
-559.500	-200.000	0.033	-0.172
-558.485	-123.904	0.127	-0.020
-557.471	800.000	0.054	0.166
-556.456	-200.000	0.003	-0.084
-555.442	340.076	0.185	-0.365
-554.427	93.417	-0.093	-0.106
-553.412	366.591	-0.145	-0.296
-552.398	-117.612	0.050	-0.009
-551.383	-200.000	-0.041	0.212
-550.369	47.128	-0.145	-0.137
-549.354	187.833	0.073	0.110
-548.339	45.788	-0.300	0.280
-547.325	397.254	0.243	-0.513
-546.310	70.351	-0.290	-0.303
-545.296	-49.925	0.237	0.114
-544.281	800.000	0.081	-0.245
-543.266	-66.536	-0.224	-0.090
-542.252	47.639	0.162	-0.153
-541.237	-90.331	0.174	0.051
-540.223	224.536	0.059	-0.096
-539.208	-193.651	-0.010	0.000
-538.193	650.587	-0.095	-0.245
-537.179	107.670	0.187	-0.225
-536.164	-200.000	0.011	0.084
-535.150	6.026	0.125	-0.093
-534.135	22.644	0.222	0.183
-533.121	94.565	-0.303	0.348
-532.106	-200.000	0.002	-0.039
-531.091	-74.178	0.243	0.089
-530.077	-200.000	-0.000	-0.138
-529.062	189.384	-0.200	0.303
-528.048	6.056	-0.239	0.179
-527.033	-172.688	0.176	-0.006
-526.018	-112.151	-0.094	-0.019
-525.004	-200.000	0.054	-0.405
-523.989	71.920	-0.065	0.068
-522.975	85.298	-0.188	-0.208
-521.960	-200.000	-0.017	-0.146
-520.945	196.297	0.080	0.123
-519.931	55.270	0.198	0.194
-518.916	428.864	0.054	0.117
-517.902	-24.375	0.169	-0.102
-516.887	-200.000	-0.030	-0.266
-515.872	-100.787	0.551	0.137
-514.858	178.795	0.111	0.164
-513.843	255.890	-0.134	-0.232
-512.829	-76.545	-0.459	0.163
-511.814	89.630	-0.093	0.105
-510.799	-28.852	-0.212	-0.123
-509.785	54.820	0.128	0.125
-508.770	-200.000	0.029	0.204
-507.756	-67.124	0.214	0.085
-506.741	542.439	-0.102	0.245
-505.726	270.045	-0.147	-0.260
-504.712	61.331	-0.195	0.196
-503.697	-21.056	-0.163	0.101
-502.683	-52.151	-0.082	-0.038
-501.668	83.313	-0.120	-0.132
-500.653	4.459	0.175	-0.130
-499.639	-139.999	0.065	0.007
-498.624	75.927	0.152	0.162
-497.610	42.984	-0.139	0.128
-496.595	-200.000	0.012	-0.087
-495.581	-131.762	0.602	-0.080
-494.566	454.508	-0.156	-0.348
-493.551	14.654	-0.140	0.110
-492.537	705.071	0.065	0.172
-491.522	-38.693	-0.216	-0.115
-490.508	-106.806	-0.165	-0.037
-489.493	-138.807	-0.117	0.013
-488.478	-56.994	-0.125	0.056
-487.464	-26.435	-0.111	-0.065
-486.449	-161.735	-0.204	-0.010
-485.435	-138.956	0.282	0.031
-484.420	-46.760	-0.140	-0.069
-483.405	224.688	-0.278	0.453
-482.391	-200.000	0.035	0.241
-481.376	-200.000	-0.046	-0.220
-480.362	66.937	0.097	0.100
-479.347	-200.000	-0.059	0.308
-478.332	-143.500	-0.453	-0.044
-477.318	-43.555	-0.221	-0.113
-476.303	96.885	0.196	-0.227
-475.289	800.000	-0.006	0.019
-474.274	-200.000	0.027	-0.188
-473.259	-131.865	0.157	-0.021
-472.245	-149.767	0.016	-0.001
-471.230	43.624	0.199	0.183
-470.216	-85.411	-0.204	0.064
-469.201	-200.000	-0.020	-0.305
-468.186	-200.000	0.052	0.407
-467.172	-121.848	-0.140	-0.023
-466.157	-95.963	0.082	-0.022
-465.143	-200.000	0.007	0.099
-464.128	-51.106	0.281	0.133
-463.113	-26.110	-0.090	-0.053
-462.099	575.032	-0.073	0.179
-461.084	-154.185	-0.475	-0.032
-460.070	8.101	0.340	-0.257
-459.055	-37.225	-0.065	0.035
-458.040	390.775	-0.088	0.184
-457.026	-200.000	-0.017	0.410
-456.011	-4.003	0.211	0.148
-454.997	-157.521	-0.196	0.012
-453.982	-200.000	0.023	-0.184
-452.968	170.977	0.203	-0.293
-451.953	-141.636	-0.217	-0.022
-450.938	-46.286	-0.400	-0.198
-449.924	800.000	-0.038	0.113
-448.909	124.770	0.076	-0.097
-447.895	-63.221	-0.164	-0.068
-446.880	-2.731	0.211	-0.149
-445.865	-200.000	0.007	0.188
-444.851	-200.000	0.004	-0.077
-443.836	-44.804	-0.154	0.077
-442.822	719.459	0.044	-0.118
-441.807	-0.657	-0.445	-0.318
-440.792	800.000	-0.100	0.380
-439.778	-31.967	-0.073	-0.041
-438.763	531.547	0.034	0.080
-437.749	800.000	0.038	-0.125
-436.734	-99.139	0.252	-0.064
-435.719	74.291	-0.174	0.184
-434.705	-85.570	-0.167	-0.052
-433.690	386.943	0.075	-0.156
-432.676	-200.000	0.003	-0.561
-431.661	-127.171	-0.182	-0.027
-430.646	456.693	0.071	0.158
-429.632	-200.000	0.015	0.205
-428.617	800.000	0.105	-0.300
-427.603	-153.492	-0.191	-0.013
-426.588	-19.285	0.137	-0.086
-425.573	-57.015	-0.127	-0.056
-424.559	-11.577	-0.108	0.072
-423.544	22.336	-0.254	0.209
-422.530	-200.000	-0.011	-0.263
-421.515	-200.000	-0.051	-0.305
-420.500	121.112	-0.095	-0.119
-419.486	-200.000	0.005	0.111
-418.471	800.000	0.026	0.109
-417.457	-39.698	0.383	-0.201
-416.442	88.427	0.058	0.065
-415.428	-49.163	-0.130	0.062
-414.413	-88.782	-0.225	0.067
-413.398	39.675	-0.197	0.177
-412.384	14.170	0.038	0.030
-411.369	-200.000	0.042	-0.372
-410.355	266.459	-0.047	0.082
-409.340	-200.000	-0.023	-0.139
-408.325	-125.232	0.469	-0.072
-407.311	800.000	-0.082	-0.241
-406.296	-200.000	-0.002	-0.282
-405.282	294.057	0.063	0.115
-404.267	39.014	0.138	-0.124
-403.252	40.301	0.120	0.109
-402.238	130.081	-0.191	0.246
-401.223	183.743	0.091	0.136
-400.209	-200.000	0.006	-0.428
-399.194	523.723	-0.040	-0.095
-398.179	-93.821	-0.071	0.020
-397.165	222.184	0.050	0.082
-396.150	-200.000	0.022	0.102
-395.136	-79.099	0.126	0.043
-394.121	-35.446	-0.125	-0.068
-393.106	134.277	0.089	-0.116
-392.092	-200.000	-0.005	0.088
-391.077	667.603	0.112	-0.292
-390.063	-10.401	0.452	0.301
-389.048	-119.841	-0.181	-0.031
-388.033	-19.789	0.266	0.165
-387.019	-1.402	0.101	-0.072
-386.004	-7.409	-0.082	-0.056
-384.990	237.698	-0.086	-0.143
-383.975	137.050	-0.085	0.112
-382.960	247.017	-0.028	-0.048
-381.946	-29.879	-0.121	0.069
-380.931	-88.147	-0.223	-0.067
-379.917	97.166	-0.063	0.073
-378.902	15.849	-0.216	-0.170
-377.888	800.000	-0.189	0.577
-376.873	177.312	-0.124	-0.181
-375.858	-44.164	-0.060	0.030
-374.844	-26.411	0.086	0.051
-373.829	-37.158	0.252	-0.135
-372.815	-63.950	-0.109	0.045
-371.800	-117.299	-0.097	0.018
-370.785	151.143	-0.242	0.331
-369.771	-36.594	-0.177	-0.096
-368.756	-62.312	-0.072	-0.030
-367.742	-164.087	-0.131	-0.006
-366.727	-44.316	0.101	0.051
-365.712	111.441	0.213	-0.258
-364.698	-200.000	-0.009	0.243
-363.683	270.347	-0.125	-0.221
-362.669	128.086	-0.252	-0.321
-361.654	-100.794	0.244	-0.060
-360.639	-179.296	-0.123	0.003
-359.625	-200.000	-0.000	-0.165
-358.610	-200.000	-0.026	0.469
-357.596	-69.113	-0.164	0.063
-356.581	-141.178	-0.168	-0.017
-355.566	14.710	-0.254	0.199
-354.552	-28.825	-0.341	-0.197
-353.537	800.000	-0.033	0.100
-352.523	9.320	0.321	0.244
-351.508	142.664	0.200	0.267
-350.493	136.831	-0.048	-0.063
-349.479	-46.139	0.065	0.032
-348.464	-200.000	-0.005	-0.046
-347.450	224.489	-0.078	0.126
-346.435	-46.438	0.069	0.034
-345.420	108.050	0.031	0.037
-344.406	105.167	0.201	0.238
-343.391	-140.913	0.150	-0.015
-342.377	365.573	-0.015	-0.030
-341.362	215.864	0.107	-0.170
-340.348	-167.660	-0.136	0.005
-339.333	46.445	0.115	-0.107
-338.318	-200.000	-0.011	-0.109
-337.304	205.062	-0.106	-0.165
-336.289	-102.603	-0.227	0.054
-335.275	-123.874	0.219	0.035
-334.260	-68.361	-0.246	0.096
-333.245	-200.000	0.027	0.167
-332.231	-69.153	-0.389	0.150
-331.216	105.629	-0.152	-0.181
-330.202	-42.211	0.284	0.145
-329.187	-126.960	-0.158	0.023
-328.172	-3.813	-0.046	-0.032
-327.158	-94.023	0.190	0.052
-326.143	-200.000	0.059	0.515
-325.129	-200.000	0.034	0.154
-324.114	436.731	0.127	0.278
-323.099	-200.000	0.006	-0.107
-322.085	146.297	0.068	0.092
-321.070	-200.000	-0.026	0.333
-320.056	-200.000	0.001	0.025
-319.041	-200.000	-0.007	-0.245
-318.026	300.281	0.093	0.171
-317.012	466.686	0.022	0.050
-315.997	19.605	0.159	0.128
-314.983	-86.337	-0.253	-0.078
-313.968	157.373	0.054	-0.075
-312.953	84.858	0.073	0.080
-311.939	800.000	0.023	-0.077
-310.924	-2.802	-0.449	0.314
-309.910	85.860	-0.172	0.190
-308.895	38.422	-0.077	0.069
-307.880	207.633	-0.096	0.150
-306.866	800.000	-0.030	0.115
-305.851	617.922	0.091	-0.229
-304.837	-134.631	-0.122	-0.015
-303.822	800.000	0.085	-0.332
-302.807	-200.000	-0.011	-0.177
-301.793	20.800	-0.075	0.060
-300.778	-39.488	-0.175	0.092
-299.764	95.851	-0.206	-0.236
-298.749	-200.000	-0.057	-0.362
-297.735	-200.000	0.034	0.425
-296.720	-103.898	-0.061	-0.014
-295.705	121.222	-0.142	0.176
-294.691	-1.534	0.270	0.190
-293.676	67.893	-0.245	0.251
-292.662	23.155	0.063	0.051
-291.647	-106.829	-0.275	0.061
-290.632	43.823	0.215	-0.197
-289.618	253.842	0.063	0.108
-288.603	-68.976	0.339	-0.131
-287.589	238.454	0.074	0.124
-286.574	-200.000	-0.006	0.267
-285.559	-103.761	-0.233	-0.055
-284.545	-200.000	-0.023	-0.178
-283.530	-82.623	-0.235	-0.076
-282.516	394.783	-0.037	-0.078
-281.501	421.496	-0.035	-0.074
-280.486	87.763	0.194	-0.215
-279.472	-200.000	0.028	-0.306
-278.457	46.798	0.364	-0.339
-277.443	-200.000	0.018	-0.397
-276.428	-37.339	-0.201	0.107
-275.413	463.950	-0.178	-0.397
-274.399	406.441	-0.098	-0.206
-273.384	18.565	0.525	-0.420
-272.370	-117.504	0.294	0.053
-271.355	-2.427	0.016	-0.012
-270.340	461.704	0.085	-0.190
-269.326	337.169	0.047	0.092
-268.311	-128.475	0.079	0.011
-267.297	-6.710	-0.354	0.241
-266.282	800.000	-0.066	-0.270
-265.267	110.705	-0.037	-0.044
-264.253	800.000	0.027	-0.078
-263.238	145.442	-0.109	0.146
-262.224	729.748	0.167	0.445
-261.209	532.985	0.126	-0.299
-260.195	160.798	0.180	-0.251
-259.180	-53.723	0.345	0.158
-258.165	-65.295	0.326	0.131
-257.151	-200.000	0.006	0.184
-256.136	-67.313	0.176	-0.069
-255.122	-146.815	-0.180	-0.016
-254.107	-104.354	-0.160	-0.037
-253.092	-150.102	0.251	0.019
-252.078	189.089	-0.051	-0.077
-251.063	800.000	0.048	-0.162
-250.049	338.592	0.064	0.124
-249.034	-200.000	-0.006	0.036
-248.019	-112.197	-0.146	0.029
-247.005	-24.526	0.131	0.078
-245.990	183.909	-0.151	-0.223
-244.976	68.174	0.082	0.084
-243.961	-200.000	-0.004	0.370
-242.946	3.787	-0.165	-0.121
-241.932	-200.000	-0.016	0.179
-240.917	694.995	-0.061	-0.160
-239.903	356.004	-0.034	-0.068
-238.888	195.031	0.122	-0.185
-237.873	-95.989	0.357	0.095
-236.859	211.922	-0.063	0.099
-235.844	800.000	0.060	0.196
-234.830	-185.219	0.243	0.004
-233.815	57.786	-0.275	-0.268
-232.800	-200.000	-0.019	-0.097
-231.786	143.895	0.097	0.129
-230.771	800.000	0.057	0.195
-229.757	383.277	0.061	0.126
-228.742	-32.332	0.304	-0.169
-227.727	-6.349	0.104	0.071
-226.713	-118.538	0.185	0.033
-225.698	-20.756	-0.368	0.226
-224.684	13.381	0.042	0.033
-223.669	156.121	-0.043	0.059
-222.655	-153.183	0.175	-0.012
-221.640	-157.867	-0.296	-0.018
-220.625	77.162	-0.145	-0.154
-219.611	800.000	0.027	-0.109
-218.596	-85.299	0.358	0.112
-217.582	-75.968	0.217	0.077
-216.567	-18.939	0.187	0.116
-215.552	-100.182	-0.365	-0.091
-214.538	8.341	0.114	0.085
-213.523	-120.765	0.235	-0.040
-212.509	-200.000	-0.048	0.233
-211.494	392.333	-0.089	-0.185
-210.479	-159.054	0.461	0.026
-209.465	-182.597	0.089	0.002
-208.450	390.473	0.043	0.088
-207.436	-86.415	0.126	0.039
-206.421	-183.528	-0.341	-0.006
-205.406	212.330	0.115	0.182
-204.392	-16.681	-0.099	0.062
-203.377	-159.250	-0.077	0.004
-202.363	38.044	-0.141	0.125
-201.348	-29.379	0.258	0.147
-200.333	90.435	0.171	-0.191
-199.319	800.000	0.046	-0.180
-198.304	28.995	-0.097	-0.082
-197.290	327.425	-0.147	-0.281
-196.275	4.978	0.306	-0.225
-195.260	-141.655	-0.247	0.025
-194.246	428.467	-0.095	0.205
-193.231	117.899	-0.137	-0.169
-192.217	159.796	0.211	-0.293
-191.202	800.000	0.089	0.251
-190.187	464.959	-0.095	0.213
-189.173	-200.000	0.008	-0.099
-188.158	277.086	-0.093	-0.164
-187.144	800.000	0.083	-0.273
-186.129	63.557	0.212	0.212
-185.114	148.848	-0.100	0.135
-184.100	-132.555	0.233	0.030
-183.085	-142.264	0.191	0.019
-182.071	707.759	-0.074	0.194
-181.056	147.468	-0.223	0.299
-180.042	135.719	-0.082	0.107
-179.027	433.252	0.027	0.058
-178.012	-22.012	0.150	-0.091
-176.998	132.069	0.184	-0.236
-175.983	224.105	0.139	0.223
-174.969	-200.000	0.012	0.091
-173.954	169.261	0.208	-0.296
-172.939	-126.770	0.321	-0.047
-171.925	-81.204	-0.155	-0.051
-170.910	609.860	-0.050	-0.125
-169.896	29.495	0.105	-0.089
-168.881	67.239	0.036	-0.036
-167.866	70.827	0.155	-0.160
-166.852	-71.200	-0.185	0.069
-165.837	-5.724	0.191	0.130
-164.823	-95.012	0.382	-0.103
-163.808	45.010	0.122	-0.112
-162.793	-104.580	-0.072	0.016
-161.779	-117.866	0.084	-0.015
-160.764	-200.000	-0.005	-0.222
-159.750	-200.000	0.006	-0.220
-158.735	-200.000	-0.004	-0.366
-157.720	-121.686	0.203	0.033
-156.706	-200.000	-0.030	0.373
-155.691	27.281	-0.300	0.251
-154.677	599.752	0.087	0.214
-153.662	678.028	-0.155	0.400
-152.647	106.614	-0.209	-0.246
-151.633	800.000	0.098	0.294
-150.618	380.379	0.070	0.144
-149.604	-83.987	0.345	0.109
-148.589	381.909	-0.061	-0.126
-147.574	-49.156	-0.218	-0.104
-146.560	-2.757	0.087	0.061
-145.545	163.391	-0.187	-0.261
-144.531	24.094	0.224	-0.184
-143.516	800.000	-0.055	0.171
-142.502	-33.484	0.248	0.136
-141.487	35.021	0.131	0.114
-140.472	-176.830	-0.164	0.004
-139.458	-56.733	0.259	-0.114
-138.443	-81.585	0.132	-0.043
-137.429	-50.846	0.335	-0.156
-136.414	-137.963	0.243	-0.027
-135.399	228.605	0.262	-0.424
-134.385	800.000	-0.071	-0.229
-133.370	-164.566	0.156	0.007
-132.356	333.991	0.137	-0.263
-131.341	68.371	-0.110	-0.112
-130.326	-131.015	0.485	-0.064
-129.312	91.357	-0.187	-0.209
-128.297	175.624	0.131	0.189
-127.283	417.368	0.080	-0.171
-126.268	46.636	-0.135	0.125
-125.253	-200.000	-0.029	0.180
-124.239	800.000	0.063	0.214
-123.224	466.193	0.018	-0.040
-122.210	-112.067	0.234	-0.047
-121.195	-200.000	-0.019	0.098
