DTS Sentinel unit serial number:	SN413079Multiplexer serial number:	ORYXHardware model number:	OX4-SRSoftware version number:	ORYX F/W v4.00 Oryx Data Collector v3.7.2.0data status	okinstallation	princeton_trtdifferential loss correction	single-endedforward channel	channel 2reverse channel	N/Adate	2019/09/15time	22:55:34forward acquisition time	60.00reverse acquisition time	0.00gamma	496.2192k internal	0.2336k external	0.2336temperature offset calibration	0.9948default loss term (dB/km)	0.3790temperature slope calibration	1.0000multiplexer offset coefficient	1.0000multiplexer slope coefficient	1.0000fibre end	0.00T internal ref (°C)	28.69T ext. ref 1 (°C)	8.93T ext. ref 2 (°C)	22.22length (m)	temperature (°C)	Stokes	anti-Stokes-747.200	-200.000	0.047	-0.282
-746.185	-160.388	-0.491	0.027
-745.171	-13.939	-0.068	-0.044
-744.156	800.000	-0.092	0.305
-743.142	185.290	0.143	-0.214
-742.127	11.821	0.250	0.192
-741.112	-200.000	-0.087	0.534
-740.098	76.805	-0.380	0.405
-739.083	-200.000	0.066	0.322
-738.069	799.946	0.098	0.270
-737.054	-200.000	-0.000	-0.092
-736.039	-166.730	-0.325	0.013
-735.025	-61.806	0.146	-0.061
-734.010	362.353	-0.100	-0.202
-732.996	-28.591	-0.225	-0.130
-731.981	800.000	0.069	-0.205
-730.966	18.495	0.211	-0.170
-729.952	16.059	0.274	0.217
-728.937	95.435	0.073	0.083
-727.923	-200.000	-0.007	-0.250
-726.908	-67.262	-0.311	-0.123
-725.894	-90.732	0.077	0.022
-724.879	-79.473	0.165	-0.056
-723.864	290.691	0.134	0.244
-722.850	-126.116	0.301	-0.045
-721.835	-129.408	-0.159	-0.022
-720.821	-134.570	0.212	-0.026
-719.806	-200.000	-0.021	0.101
-718.791	-50.908	-0.029	0.014
-717.777	-161.845	-0.195	0.010
-716.762	522.094	0.055	0.129
-715.748	188.181	-0.034	-0.051
-714.733	-11.269	-0.260	-0.172
-713.718	-47.459	-0.213	-0.104
-712.704	-113.203	0.154	0.030
-711.689	64.473	-0.145	-0.146
-710.675	58.885	-0.079	0.078
-709.660	-101.874	-0.292	-0.071
-708.645	-0.617	-0.079	0.056
-707.631	321.655	-0.066	0.127
-706.616	207.396	0.154	0.241
-705.602	-54.144	-0.175	-0.080
-704.587	-200.000	-0.027	-0.213
-703.572	124.938	-0.117	-0.148
-702.558	-155.435	0.116	-0.008
-701.543	-26.875	0.113	-0.066
-700.529	68.623	0.098	0.101
-699.514	-155.671	0.085	0.005
-698.499	-74.501	-0.466	0.169
-697.485	-200.000	0.018	-0.191
-696.470	-200.000	-0.007	0.072
-695.456	179.772	-0.210	0.308
-694.441	437.393	0.031	-0.068
-693.426	-22.132	-0.220	0.134
-692.412	-110.224	-0.142	-0.030
-691.397	-143.696	-0.301	0.029
-690.383	-196.024	0.049	0.000
-689.368	800.000	-0.052	-0.211
-688.354	-200.000	-0.019	-0.321
-687.339	35.467	-0.154	-0.136
-686.324	-200.000	-0.052	-0.422
-685.310	469.851	-0.090	-0.202
-684.295	-139.784	-0.160	-0.017
-683.281	736.670	-0.114	-0.305
-682.266	57.527	-0.035	-0.035
-681.251	-61.878	0.218	0.091
-680.237	-109.492	-0.139	-0.029
-679.222	-91.979	-0.504	0.143
-678.208	78.431	-0.094	0.101
-677.193	1.331	0.180	0.129
-676.178	-200.000	-0.097	-0.000
-675.164	324.473	-0.086	0.164
-674.149	-78.859	-0.058	-0.020
-673.135	-11.290	0.112	-0.074
-672.120	-89.352	-0.178	0.052
-671.105	-72.076	-0.298	0.111
-670.091	800.000	0.050	0.202
-669.076	19.868	0.123	0.099
-668.062	-200.000	-0.017	-0.361
-667.047	-102.218	-0.334	0.081
-666.032	-89.529	0.348	0.102
-665.018	-94.791	-0.147	-0.040
-664.003	18.353	-0.190	-0.152
-662.989	-153.427	-0.167	-0.012
-661.974	-80.260	-0.329	-0.110
-660.959	-46.163	-0.246	0.121
-659.945	7.420	-0.079	0.059
-658.930	1.360	-0.120	0.087
-657.916	800.000	-0.105	0.314
-656.901	34.304	-0.353	-0.308
-655.886	-130.924	0.017	0.002
-654.872	800.000	-0.131	-0.400
-653.857	-122.502	0.261	0.042
-652.843	-200.000	0.019	-0.152
-651.828	237.003	0.216	-0.359
-650.814	-200.000	-0.033	-0.330
-649.799	-139.196	-0.279	0.030
-648.784	37.213	-0.012	-0.011
-647.770	13.346	-0.403	-0.313
-646.755	-200.000	0.022	0.226
-645.741	13.720	0.222	-0.172
-644.726	-76.463	-0.119	0.042
-643.711	25.320	0.086	0.072
-642.697	800.000	-0.044	-0.143
-641.682	-137.562	-0.492	0.056
-640.668	-141.085	-0.162	0.017
-639.653	643.315	-0.151	-0.386
-638.638	800.000	-0.073	0.237
-637.624	10.256	0.173	-0.131
-636.609	-30.191	-0.221	0.126
-635.595	800.000	-0.050	-0.169
-634.580	84.377	-0.160	0.175
-633.565	-92.448	-0.277	-0.078
-632.551	-200.000	0.016	0.140
-631.536	800.000	-0.017	0.048
-630.522	-200.000	0.000	0.156
-629.507	60.146	0.164	-0.162
-628.492	800.000	-0.043	0.180
-627.478	-130.461	0.267	-0.036
-626.463	25.252	0.280	-0.233
-625.449	91.143	-0.166	0.186
-624.434	149.945	-0.050	0.068
-623.419	-200.000	-0.083	0.508
-622.405	681.561	-0.141	-0.367
-621.390	167.067	-0.115	-0.163
-620.376	39.546	-0.158	0.141
-619.361	221.419	-0.113	-0.182
-618.346	-85.616	0.091	0.028
-617.332	371.562	0.087	0.177
-616.317	103.024	0.046	0.054
-615.303	20.171	0.303	0.244
-614.288	25.527	0.101	-0.084
-613.273	-128.475	0.269	0.038
-612.259	667.505	0.124	-0.320
-611.244	-86.889	-0.104	0.032
-610.230	386.184	-0.038	-0.079
-609.215	143.177	-0.240	-0.320
-608.201	1.003	-0.073	-0.052
-607.186	24.375	0.181	0.149
-606.171	800.000	-0.065	0.241
-605.157	-200.000	0.000	-0.386
-604.142	-78.835	-0.054	-0.018
-603.128	-106.062	0.262	-0.059
-602.113	800.000	0.030	0.121
-601.098	202.186	-0.046	-0.071
-600.084	-100.932	-0.151	-0.037
-599.069	299.696	-0.109	-0.201
-598.055	-200.000	-0.068	-0.341
-597.040	800.000	-0.014	0.045
-596.025	-142.213	-0.273	-0.027
-595.011	800.000	-0.048	-0.154
-593.996	-53.815	-0.099	-0.045
-592.982	148.236	0.086	-0.116
-591.967	140.134	-0.129	0.170
-590.952	-84.566	-0.367	0.116
-589.938	91.188	-0.114	0.127
-588.923	39.640	0.090	-0.081
-587.909	47.565	-0.242	0.225
-586.894	34.810	0.260	0.227
-585.879	-200.000	0.081	-0.410
-584.865	488.520	-0.126	-0.288
-583.850	800.000	0.130	-0.360
-582.836	127.972	0.246	0.312
-581.821	3.880	-0.404	-0.295
-580.806	-200.000	0.039	0.355
-579.792	85.619	0.212	0.233
-578.777	-200.000	0.027	0.221
-577.763	202.424	-0.182	-0.281
-576.748	590.471	-0.088	0.216
-575.733	-176.657	0.326	-0.008
-574.719	366.167	-0.042	-0.084
-573.704	-2.019	-0.111	-0.078
-572.690	-117.747	0.075	0.013
-571.675	-60.829	-0.031	0.013
-570.661	-116.392	-0.227	0.042
-569.646	-97.397	0.268	-0.070
-568.631	-200.000	-0.026	0.158
-567.617	139.671	0.092	0.121
-566.602	-200.000	0.037	-0.302
-565.588	-200.000	0.022	-0.308
-564.573	-200.000	0.030	0.262
-563.558	-200.000	-0.014	0.066
-562.544	8.693	-0.131	-0.099
-561.529	-127.991	0.466	0.067
-560.515	-200.000	0.005	0.223
-559.500	-63.219	0.101	-0.042
-558.485	-1.996	-0.160	-0.112
-557.471	-200.000	-0.006	0.383
-556.456	-200.000	-0.158	-0.001
-555.442	-100.986	0.076	0.019
-554.427	-200.000	-0.017	0.344
-553.412	45.950	-0.066	-0.061
-552.398	-122.022	-0.162	0.027
-551.383	-200.000	0.009	0.194
-550.369	421.084	-0.059	0.127
-549.354	-118.974	0.208	-0.036
-548.339	-88.247	-0.161	0.048
-547.325	-116.311	-0.048	0.009
-546.310	20.487	0.354	0.286
-545.296	5.089	0.136	0.100
-544.281	800.000	-0.058	0.170
-543.266	5.428	-0.122	0.090
-542.252	-119.541	0.334	-0.058
-541.237	3.845	-0.292	-0.213
-540.223	-173.462	0.132	-0.004
-539.208	38.060	0.077	-0.069
-538.193	486.541	-0.154	-0.350
-537.179	188.179	0.164	-0.244
-536.164	-105.321	-0.287	0.065
-535.150	800.000	-0.045	0.171
-534.135	-68.975	-0.129	-0.049
-533.121	-200.000	0.088	-0.392
-532.106	800.000	0.076	0.219
-531.091	291.245	0.157	-0.284
-530.077	531.177	-0.095	-0.223
-529.062	-83.221	0.122	0.039
-528.048	17.825	-0.119	-0.094
-527.033	-167.693	-0.229	0.009
-526.018	-110.478	0.353	-0.073
-525.004	15.814	0.096	0.075
-523.989	-155.666	0.124	0.008
-522.975	306.343	-0.114	-0.211
-521.960	-133.240	0.257	-0.032
-520.945	20.506	-0.204	0.164
-519.931	-59.978	0.161	-0.068
-518.916	-55.195	0.316	-0.142
-517.902	800.000	-0.049	0.178
-516.887	-37.015	-0.113	-0.060
-515.872	4.602	0.290	-0.212
-514.858	101.334	0.080	-0.092
-513.843	-200.000	0.032	0.151
-512.829	-23.714	-0.267	0.159
-511.814	800.000	0.010	-0.035
-510.799	-200.000	-0.153	0.000
-509.785	-168.822	-0.250	0.009
-508.770	-200.000	0.001	0.107
-507.756	284.004	0.185	0.331
-506.741	16.770	-0.020	-0.016
-505.726	-53.450	0.150	0.068
-504.712	-114.374	-0.217	0.042
-503.697	-23.924	0.105	-0.063
-502.683	-200.000	0.010	-0.201
-501.668	151.774	-0.219	-0.297
-500.653	374.714	-0.056	-0.114
-499.639	800.000	0.049	-0.177
-498.624	77.257	-0.122	0.129
-497.610	-24.684	-0.284	-0.168
-496.595	105.691	-0.102	-0.119
-495.581	-200.000	-0.015	-0.256
-494.566	-7.699	0.211	-0.141
-493.551	-107.297	0.094	0.021
-492.537	224.113	0.052	0.083
-491.522	-84.358	0.112	0.035
-490.508	-46.418	0.161	-0.079
-489.493	-200.000	0.026	-0.297
-488.478	-21.292	-0.324	0.197
-487.464	800.000	0.068	0.269
-486.449	-148.994	0.331	0.027
-485.435	-200.000	-0.032	0.264
-484.420	-11.575	0.167	0.109
-483.405	-200.000	0.001	0.045
-482.391	800.000	0.069	-0.216
-481.376	800.000	-0.062	0.207
-480.362	305.885	-0.024	-0.045
-479.347	-53.551	0.229	-0.104
-478.332	403.861	0.093	-0.194
-477.318	-79.270	0.204	0.069
-476.303	441.285	-0.093	-0.202
-475.289	150.697	-0.084	0.113
-474.274	70.974	-0.163	-0.168
-473.259	-80.757	-0.312	-0.103
-472.245	-61.955	0.222	0.092
-471.230	800.000	0.080	0.229
-470.216	25.345	-0.222	-0.183
-469.201	129.916	-0.133	0.169
-468.186	-67.038	0.380	-0.149
-467.172	241.449	0.207	0.343
-466.157	248.482	-0.167	-0.280
-465.143	-147.336	-0.352	0.030
-464.128	-137.114	-0.090	0.010
-463.113	-35.678	-0.172	-0.093
-462.099	127.912	0.145	-0.183
-461.084	-111.145	-0.391	-0.080
-460.070	-152.956	0.304	0.021
-459.055	183.024	-0.099	-0.145
-458.040	-17.748	-0.018	0.011
-457.026	-200.000	0.011	-0.130
-456.011	88.350	0.195	0.215
-454.997	245.083	-0.009	-0.016
-453.982	-200.000	0.005	0.093
-452.968	-200.000	-0.037	-0.181
-451.953	-37.799	-0.504	-0.267
-450.938	297.729	0.144	-0.263
-449.924	147.241	-0.340	0.455
-448.909	455.678	-0.140	0.309
-447.895	145.007	-0.111	0.147
-446.880	-200.000	0.054	0.244
-445.865	800.000	0.034	-0.130
-444.851	611.592	0.123	0.304
-443.836	215.204	0.144	-0.227
-442.822	800.000	0.092	-0.284
-441.807	203.649	0.169	0.259
-440.792	-61.300	-0.156	0.065
-439.778	-200.000	-0.033	0.256
-438.763	-181.973	0.313	-0.006
-437.749	-5.941	-0.122	-0.083
-436.734	-1.622	0.355	-0.248
-435.719	47.091	0.103	-0.095
-434.705	223.877	0.180	0.288
-433.690	-79.105	-0.336	0.113
-432.676	33.201	-0.183	-0.157
-431.661	-200.000	0.013	0.161
-430.646	-189.071	0.341	0.004
-429.632	115.533	0.088	-0.106
-428.617	-29.373	-0.397	-0.225
-427.603	-112.585	-0.167	-0.033
-426.588	80.550	-0.105	0.112
-425.573	800.000	-0.046	0.141
-424.559	-97.527	-0.298	0.077
-423.544	92.745	0.069	0.077
-422.530	-200.000	0.007	-0.029
-421.515	-200.000	0.008	0.059
-420.500	-62.683	-0.340	-0.140
-419.486	-127.858	0.381	-0.054
-418.471	-200.000	0.025	0.207
-417.457	-200.000	-0.015	-0.093
-416.442	483.484	0.190	-0.427
-415.428	14.602	-0.255	-0.198
-414.413	5.659	-0.270	-0.198
-413.398	209.265	0.102	0.159
-412.384	-63.551	-0.417	0.170
-411.369	-134.657	-0.246	-0.030
-410.355	-156.533	0.102	0.006
-409.340	-200.000	0.066	-0.291
-408.325	656.268	0.027	0.069
-407.311	215.632	-0.255	-0.402
-406.296	-56.022	-0.162	-0.072
-405.282	62.535	-0.056	0.055
-404.267	327.779	0.160	-0.304
-403.252	-200.000	0.034	-0.152
-402.238	642.671	0.011	0.029
-401.223	-107.461	-0.281	0.061
-400.209	34.972	0.198	0.172
-399.194	-95.920	0.337	-0.089
-398.179	-100.256	-0.259	-0.064
-397.165	-89.560	0.130	0.038
-396.150	-183.558	0.498	0.008
-395.136	93.271	0.145	-0.162
-394.121	-33.389	-0.365	0.200
-393.106	-178.487	-0.238	0.005
-392.092	-200.000	-0.008	0.095
-391.077	597.440	0.132	0.325
-390.063	-152.166	0.171	-0.012
-389.048	201.538	-0.095	0.146
-388.033	380.128	0.170	-0.345
-387.019	-200.000	-0.003	0.045
-386.004	98.464	0.193	-0.220
-384.990	181.773	-0.338	0.492
-383.975	-54.264	-0.154	-0.069
-382.960	-200.000	-0.011	-0.355
-381.946	117.837	-0.092	0.112
-380.931	7.703	-0.293	-0.217
-379.917	-74.293	0.212	-0.076
-378.902	135.548	0.081	-0.104
-377.888	-200.000	-0.027	0.186
-376.873	-117.731	-0.108	-0.019
-375.858	-200.000	-0.009	0.272
-374.844	-75.948	-0.056	0.020
-373.829	503.583	0.041	0.095
-372.815	-21.438	0.029	0.017
-371.800	42.438	-0.183	-0.165
-370.785	-175.380	-0.247	-0.007
-369.771	-49.843	-0.158	0.074
-368.756	8.244	-0.167	-0.124
-367.742	213.912	-0.160	-0.250
-366.727	-3.454	0.148	-0.102
-365.712	-115.866	0.357	0.066
-364.698	-45.607	0.107	0.052
-363.683	-93.279	-0.246	0.068
-362.669	-41.861	0.326	0.165
-361.654	-200.000	-0.017	0.404
-360.639	184.860	0.138	0.202
-359.625	113.361	-0.099	0.119
-358.610	261.709	-0.104	-0.178
-357.596	281.968	0.099	0.175
-356.581	-88.837	-0.220	-0.065
-355.566	-200.000	0.012	0.124
-354.552	-74.965	0.059	0.021
-353.537	800.000	0.062	0.225
-352.523	800.000	-0.043	0.125
-351.508	-200.000	-0.047	-0.293
-350.493	106.397	-0.053	-0.062
-349.479	-131.791	0.140	-0.018
-348.464	51.384	0.240	-0.226
-347.450	-200.000	0.036	-0.177
-346.435	193.129	0.098	0.146
-345.420	-200.000	-0.022	-0.121
-344.406	-200.000	-0.002	-0.240
-343.391	800.000	-0.106	-0.308
-342.377	-161.821	-0.203	0.010
-341.362	-153.987	0.243	0.016
-340.348	66.053	0.076	-0.076
-339.333	-38.686	0.161	0.084
-338.318	265.042	-0.148	0.255
-337.304	-122.061	-0.168	0.027
-336.289	-165.747	-0.087	-0.004
-335.275	-200.000	-0.024	0.298
-334.260	139.582	0.213	0.277
-333.245	-200.000	0.030	0.362
-332.231	-200.000	0.032	0.156
-331.216	-75.533	0.246	0.086
-330.202	800.000	-0.056	0.215
-329.187	393.640	-0.143	-0.295
-328.172	109.466	0.030	0.036
-327.158	388.661	0.094	-0.193
-326.143	-170.246	-0.107	-0.004
-325.129	-170.767	-0.424	0.014
-324.114	-16.113	-0.382	0.240
-323.099	-65.851	0.279	-0.110
-322.085	800.000	-0.038	0.151
-321.070	768.911	0.023	0.062
-320.056	377.642	0.314	0.635
-319.041	-78.190	0.204	-0.069
-318.026	800.000	-0.041	0.137
-317.012	627.589	0.114	0.284
-315.997	64.256	-0.095	0.095
-314.983	-113.329	-0.239	-0.046
-313.968	-127.735	-0.167	-0.024
-312.953	126.386	-0.102	-0.128
-311.939	-131.109	0.226	-0.030
-310.924	102.639	0.245	-0.283
-309.910	-122.144	0.261	0.042
-308.895	-155.371	-0.394	0.025
-307.880	227.045	-0.017	0.028
-306.866	-165.841	0.270	0.011
-305.851	-117.861	0.328	-0.058
-304.837	228.328	-0.069	-0.111
-303.822	132.005	0.074	0.094
-302.807	205.043	-0.132	0.202
-301.793	-55.587	0.416	0.184
-300.778	-200.000	0.030	-0.156
-299.764	-48.847	-0.302	-0.143
-298.749	590.206	-0.098	-0.239
-297.735	800.000	-0.066	0.219
-296.720	-123.797	-0.197	-0.031
-295.705	800.000	-0.078	-0.232
-294.691	-79.455	0.090	0.030
-293.676	97.366	0.275	0.311
-292.662	366.874	-0.098	-0.195
-291.647	-64.231	0.190	0.076
-290.632	-130.258	0.318	0.043
-289.618	103.042	-0.132	-0.152
-288.603	-91.148	-0.501	0.142
-287.589	-200.000	0.028	0.264
-286.574	476.301	-0.158	-0.353
-285.559	-200.000	-0.102	0.000
-284.545	-200.000	0.041	0.248
-283.530	-39.956	0.424	0.218
-282.516	280.871	-0.065	-0.114
-281.501	800.000	0.072	0.274
-280.486	19.256	-0.366	-0.290
-279.472	84.964	-0.157	-0.169
-278.457	0.503	0.233	0.164
-277.443	-35.097	0.280	0.150
-276.428	-200.000	0.061	-0.313
-275.413	-200.000	0.059	-0.275
-274.399	-109.353	0.021	0.004
-273.384	74.025	-0.156	0.161
-272.370	-200.000	-0.005	0.188
-271.355	-178.485	0.200	0.005
-270.340	-200.000	-0.014	0.123
-269.326	-115.784	0.356	-0.066
-268.311	-40.034	0.487	0.250
-267.297	-48.155	-0.293	0.139
-266.282	800.000	0.039	0.121
-265.267	125.101	-0.069	-0.086
-264.253	-200.000	-0.009	-0.181
-263.238	-200.000	-0.061	-0.496
-262.224	156.941	0.078	0.106
-261.209	658.226	-0.113	0.287
-260.195	130.498	-0.015	-0.019
-259.180	-124.655	0.450	0.069
-258.165	678.029	-0.060	-0.154
-257.151	426.139	-0.107	-0.227
-256.136	-11.565	0.059	0.038
-255.122	374.800	-0.038	0.076
-254.107	-91.307	0.221	-0.062
-253.092	451.338	0.123	0.269
-252.078	-200.000	0.046	0.210
-251.063	-200.000	0.003	0.025
-250.049	-55.860	0.342	-0.150
-249.034	-153.901	-0.236	0.016
-248.019	-176.491	0.159	0.004
-247.005	-118.599	0.150	0.026
-245.990	504.506	0.019	0.043
-244.976	740.868	0.100	0.264
-243.961	214.422	-0.127	0.199
-242.946	80.506	0.114	-0.120
-241.932	-126.066	0.555	0.082
-240.917	59.348	-0.162	0.157
-239.903	-120.746	-0.201	0.033
-238.888	85.194	-0.148	0.160
-237.873	344.605	-0.042	0.081
-236.859	155.700	0.018	0.025
-235.844	-200.000	-0.065	-0.556
-234.830	-200.000	0.032	-0.288
-233.815	-176.773	0.150	0.004
-232.800	134.118	-0.207	0.265
-231.786	800.000	0.085	0.251
-230.771	182.297	0.300	0.436
-229.757	270.828	0.120	0.208
-228.742	-50.041	-0.006	0.003
-227.727	-4.360	0.222	0.151
-226.713	-103.056	0.148	-0.035
-225.698	11.824	0.048	-0.037
-224.684	-50.365	-0.159	-0.074
-223.669	133.351	-0.182	0.231
-222.655	61.415	0.197	0.193
-221.640	196.316	0.154	0.230
-220.625	-48.924	-0.109	0.051
-219.611	257.637	-0.124	-0.210
-218.596	790.476	-0.063	-0.170
-217.582	124.226	0.275	0.340
-216.567	-138.224	-0.306	0.033
-215.552	-200.000	0.037	-0.272
-214.538	-200.000	-0.002	0.123
-213.523	-200.000	-0.027	0.121
-212.509	29.642	0.171	-0.143
-211.494	-190.719	0.350	-0.004
-210.479	-134.527	0.415	-0.050
-209.465	32.337	0.189	0.160
-208.450	44.254	-0.090	-0.082
-207.436	270.525	0.096	0.167
-206.421	-200.000	0.000	0.072
-205.406	-22.564	-0.312	0.186
-204.392	41.920	-0.105	-0.094
-203.377	72.869	-0.143	-0.147
-202.363	-64.877	0.297	-0.118
-201.348	-22.077	-0.234	-0.140
-200.333	184.227	0.067	0.097
-199.319	-38.112	0.066	0.034
-198.304	-127.484	-0.207	0.029
-197.290	-200.000	0.000	0.058
-196.275	-15.414	0.223	-0.140
-195.260	-200.000	-0.033	0.325
-194.246	103.630	-0.196	-0.226
-193.231	-45.315	0.249	0.121
-192.217	424.680	0.083	-0.175
-191.202	129.685	-0.019	-0.024
-190.187	-158.104	-0.088	-0.005
-189.173	-28.516	0.340	-0.193
-188.158	-200.000	-0.010	-0.247
-187.144	-18.132	-0.159	-0.098
-186.129	-65.184	-0.263	0.104
-185.114	-101.953	0.272	-0.065
-184.100	-200.000	0.048	0.220
-183.085	-35.090	-0.476	0.255
-182.071	176.126	0.159	-0.227
-181.056	-99.138	0.202	-0.050
-180.042	772.073	-0.019	-0.052
-179.027	347.427	-0.078	0.150
-178.012	-186.752	0.055	-0.001
-176.998	90.782	-0.122	-0.134
-175.983	218.767	-0.220	-0.346
-174.969	800.000	-0.020	0.069
-173.954	-200.000	0.030	-0.225
-172.939	12.982	-0.136	-0.103
-171.925	140.622	-0.153	-0.198
-170.910	52.679	-0.029	-0.027
-169.896	70.088	0.158	-0.160
-168.881	34.325	-0.204	-0.175
-167.866	800.000	-0.036	0.115
-166.852	-4.823	0.312	0.211
-165.837	485.748	0.200	0.448
-164.823	-200.000	0.023	-0.305
-163.808	4.792	-0.019	0.014
-162.793	800.000	-0.037	-0.116
-161.779	-118.581	0.168	0.029
-160.764	-200.000	0.049	-0.238
-159.750	800.000	-0.052	-0.212
-158.735	576.710	-0.130	0.311
-157.720	26.115	-0.143	0.117
-156.706	-200.000	-0.088	-0.384
-155.691	-99.399	-0.028	-0.007
-154.677	473.013	-0.196	-0.434
-153.662	-83.222	0.367	-0.116
-152.647	-83.179	-0.144	0.045
-151.633	-174.632	-0.096	-0.003
-150.618	-50.769	0.128	-0.059
-149.604	-113.185	0.168	-0.032
-148.589	-44.233	0.093	-0.046
-147.574	800.000	0.046	0.141
-146.560	800.000	0.074	0.263
-145.545	109.392	-0.333	0.392
-144.531	800.000	-0.067	0.199
-143.516	-200.000	0.012	0.344
-142.502	800.000	-0.039	0.112
-141.487	800.000	-0.109	0.305
-140.472	-137.235	-0.202	0.023
-139.458	166.632	-0.160	-0.222
-138.443	31.139	-0.059	0.050
-137.429	433.698	0.085	-0.180
-136.414	-93.311	-0.037	-0.010
-135.399	-92.561	0.143	-0.039
-134.385	-135.934	-0.350	-0.040
-133.370	-77.748	-0.438	-0.149
-132.356	373.067	0.117	-0.233
-131.341	51.696	0.217	0.203
-130.326	-200.000	-0.017	0.091
-129.312	230.123	-0.110	0.176
-128.297	62.458	0.209	0.204
-127.283	74.486	0.244	-0.252
-126.268	-200.000	0.027	0.121
-125.253	1.237	0.179	0.126
-124.239	641.922	-0.149	-0.371
-123.224	-143.370	0.360	-0.034
-122.210	-128.371	-0.418	-0.058
