DTS Sentinel unit serial number:	SN413079Multiplexer serial number:	ORYXHardware model number:	OX4-SRSoftware version number:	ORYX F/W v4.00 Oryx Data Collector v3.7.2.0data status	okinstallation	princeton_trtdifferential loss correction	single-endedforward channel	channel 2reverse channel	N/Adate	2019/09/19time	00:55:35forward acquisition time	60.00reverse acquisition time	0.00gamma	496.2192k internal	0.2353k external	0.2353temperature offset calibration	1.0019default loss term (dB/km)	0.3790temperature slope calibration	1.0000multiplexer offset coefficient	1.0000multiplexer slope coefficient	1.0000fibre end	0.00T internal ref (°C)	22.00T ext. ref 1 (°C)	0.73T ext. ref 2 (°C)	15.42length (m)	temperature (°C)	Stokes	anti-Stokes-747.200	800.000	0.059	0.167
-746.185	800.000	-0.041	0.132
-745.171	-183.300	0.293	0.005
-744.156	-140.319	-0.234	0.024
-743.142	451.763	-0.091	-0.201
-742.127	45.555	-0.369	0.340
-741.112	-85.767	-0.096	-0.030
-740.098	426.151	0.066	0.141
-739.083	-200.000	0.056	0.245
-738.069	-131.997	-0.219	0.028
-737.054	-200.000	0.015	-0.064
-736.039	379.314	-0.059	-0.121
-735.025	117.101	0.137	-0.168
-734.010	-164.061	-0.283	0.013
-732.996	27.588	-0.405	0.339
-731.981	283.332	-0.102	-0.182
-730.966	-97.201	-0.442	0.115
-729.952	32.283	-0.071	-0.061
-728.937	23.822	-0.394	0.324
-727.923	337.129	-0.104	-0.201
-726.908	426.900	0.071	0.152
-725.894	65.972	-0.086	0.087
-724.879	-200.000	0.033	-0.280
-723.864	142.804	-0.128	-0.169
-722.850	164.952	-0.070	0.098
-721.835	-99.515	0.175	0.044
-720.821	-200.000	-0.019	0.127
-719.806	-72.637	-0.238	0.087
-718.791	67.855	-0.210	-0.214
-717.777	-50.974	-0.388	0.181
-716.762	140.464	0.203	-0.267
-715.748	800.000	0.173	-0.597
-714.733	-179.116	-0.176	0.004
-713.718	-15.553	-0.108	0.069
-712.704	-101.503	-0.246	-0.060
-711.689	83.378	0.094	0.102
-710.675	-100.673	-0.115	0.028
-709.660	-2.076	-0.205	0.144
-708.645	-200.000	0.032	-0.360
-707.631	-200.000	0.025	-0.262
-706.616	158.227	-0.013	0.017
-705.602	267.728	0.130	0.226
-704.587	275.364	0.006	-0.011
-703.572	376.163	0.036	0.072
-702.558	715.413	-0.188	0.498
-701.543	-89.062	-0.392	0.115
-700.529	-163.348	0.148	0.007
-699.514	-53.325	0.321	-0.147
-698.499	-15.750	-0.315	0.200
-697.485	-92.317	0.482	0.135
-696.470	-175.964	-0.283	0.007
-695.456	468.561	0.138	0.307
-694.441	800.000	-0.085	-0.260
-693.426	-35.665	-0.190	0.102
-692.412	-200.000	-0.020	0.241
-691.397	96.376	-0.135	0.154
-690.383	800.000	-0.102	-0.317
-689.368	800.000	0.088	-0.368
-688.354	-159.325	-0.015	-0.001
-687.339	-13.996	-0.300	0.193
-686.324	-92.591	-0.174	-0.049
-685.310	-200.000	-0.046	0.283
-684.295	-126.150	0.134	-0.020
-683.281	166.272	-0.106	0.150
-682.266	306.547	-0.114	-0.212
-681.251	-77.281	-0.286	0.099
-680.237	-200.000	-0.081	0.000
-679.222	60.865	-0.095	-0.094
-678.208	-24.767	-0.211	0.125
-677.193	-200.000	0.022	0.345
-676.178	-76.341	-0.343	-0.120
-675.164	-188.706	0.098	-0.001
-674.149	12.536	0.114	-0.087
-673.135	257.872	0.057	-0.097
-672.120	-108.854	-0.052	0.011
-671.105	-142.566	0.393	-0.038
-670.091	90.982	-0.084	0.094
-669.076	-200.000	-0.002	-0.048
-668.062	-200.000	0.003	-0.014
-667.047	-71.772	0.187	0.069
-666.032	33.801	0.135	0.117
-665.018	16.151	-0.289	-0.227
-664.003	-200.000	0.010	0.073
-662.989	256.134	0.096	0.163
-661.974	-106.367	0.331	-0.074
-660.959	-200.000	-0.014	0.125
-659.945	-200.000	0.006	-0.073
-658.930	7.126	0.177	-0.131
-657.916	800.000	-0.044	-0.182
-656.901	170.073	0.091	-0.129
-655.886	-167.106	0.097	0.004
-654.872	45.975	-0.208	0.191
-653.857	127.066	-0.222	-0.279
-652.843	29.835	-0.155	0.132
-651.828	-25.144	-0.239	-0.140
-650.814	-200.000	0.000	0.085
-649.799	297.109	-0.123	0.224
-648.784	353.691	-0.132	0.259
-647.770	-46.093	0.185	-0.091
-646.755	133.968	-0.344	-0.443
-645.741	-45.438	-0.209	0.103
-644.726	-145.285	-0.154	0.014
-643.711	5.319	-0.171	-0.125
-642.697	-110.800	0.171	0.035
-641.682	-200.000	-0.013	0.204
-640.668	-75.931	0.224	-0.079
-639.653	-200.000	0.044	0.369
-638.638	104.967	-0.110	-0.128
-637.624	344.043	0.030	-0.059
-636.609	176.799	0.062	0.090
-635.595	26.044	-0.169	0.140
-634.580	-99.282	0.066	-0.016
-633.565	220.312	0.060	-0.096
-632.551	800.000	0.046	0.152
-631.536	106.625	0.047	-0.055
-630.522	-46.238	0.295	0.144
-629.507	-70.720	-0.177	-0.066
-628.492	24.673	-0.290	-0.238
-627.478	25.529	-0.267	0.221
-626.463	-108.516	-0.218	0.046
-625.449	-12.459	-0.121	0.078
-624.434	406.965	-0.179	0.376
-623.419	220.955	0.181	0.288
-622.405	-3.088	0.123	-0.085
-621.390	-200.000	0.000	-0.475
-620.376	462.773	0.138	-0.307
-619.361	-151.318	-0.021	-0.002
-618.346	-70.308	-0.280	0.105
-617.332	263.743	0.041	-0.071
-616.317	-77.360	-0.551	0.190
-615.303	-129.442	0.106	0.015
-614.288	333.299	0.068	0.130
-613.273	-158.683	-0.299	-0.017
-612.259	506.710	0.098	-0.225
-611.244	800.000	-0.013	0.053
-610.230	120.244	-0.144	-0.177
-609.215	430.804	-0.053	-0.114
-608.201	-78.778	-0.228	0.077
-607.186	-101.616	-0.091	0.022
-606.171	769.575	0.105	-0.284
-605.157	49.033	-0.073	-0.068
-604.142	-123.597	-0.153	-0.024
-603.128	-65.654	-0.156	-0.062
-602.113	-73.951	-0.167	-0.060
-601.098	-200.000	-0.040	0.206
-600.084	657.622	-0.105	-0.267
-599.069	-14.446	0.096	-0.062
-598.055	52.521	-0.055	0.052
-597.040	96.005	0.099	0.113
-596.025	256.780	0.039	0.067
-595.011	-153.312	-0.388	0.027
-593.996	110.974	-0.100	-0.119
-592.982	-200.000	0.040	0.227
-591.967	89.860	0.113	0.126
-590.952	-136.831	0.307	0.035
-589.938	-57.187	-0.199	-0.087
-588.923	123.285	0.186	-0.231
-587.909	-4.985	0.180	0.123
-586.894	3.444	0.199	-0.144
-585.879	-112.005	0.150	0.030
-584.865	161.720	-0.225	0.312
-583.850	-124.499	-0.455	-0.070
-582.836	-38.548	0.231	-0.121
-581.821	-200.000	-0.081	-0.517
-580.806	-22.265	-0.409	-0.246
-579.792	-116.747	0.351	-0.064
-578.777	-82.750	-0.321	0.103
-577.763	-49.820	0.361	0.170
-576.748	272.217	0.051	0.089
-575.733	-117.495	0.148	0.027
-574.719	497.253	-0.129	-0.295
-573.704	-118.542	0.302	-0.053
-572.690	60.353	-0.394	-0.386
-571.675	-178.975	-0.080	-0.002
-570.661	83.539	0.175	0.189
-569.646	-200.000	0.071	-0.308
-568.631	177.017	0.159	0.228
-567.617	19.207	-0.139	0.110
-566.602	14.749	-0.344	-0.266
-565.588	-26.453	-0.212	0.123
-564.573	-121.982	-0.194	-0.032
-563.558	-107.013	0.199	-0.044
-562.544	22.426	-0.228	-0.185
-561.529	-200.000	0.039	-0.289
-560.515	-103.077	-0.388	-0.091
-559.500	759.714	0.023	-0.062
-558.485	-200.000	0.026	0.376
-557.471	98.609	-0.142	-0.162
-556.456	122.292	0.124	-0.154
-555.442	187.902	0.122	0.180
-554.427	31.431	-0.266	-0.226
-553.412	-129.848	-0.288	0.039
-552.398	80.576	0.201	-0.215
-551.383	76.469	-0.147	0.154
-550.369	-200.000	0.001	0.134
-549.354	-8.604	-0.192	0.128
-548.339	-85.714	0.262	-0.081
-547.325	161.012	-0.152	-0.211
-546.310	3.403	-0.325	-0.234
-545.296	74.458	0.078	-0.081
-544.281	-200.000	0.052	-0.383
-543.266	-110.890	0.052	0.011
-542.252	800.000	0.090	0.325
-541.237	-17.996	-0.099	-0.061
-540.223	-26.035	0.117	0.068
-539.208	-200.000	-0.131	0.573
-538.193	-162.902	0.230	-0.011
-537.179	-82.729	0.152	-0.049
-536.164	173.798	-0.057	0.081
-535.150	79.575	-0.093	-0.098
-534.135	-200.000	0.079	-0.425
-533.121	69.175	-0.143	0.145
-532.106	162.788	-0.271	0.377
-531.091	-79.274	-0.111	0.037
-530.077	-63.469	-0.077	0.031
-529.062	-48.313	0.038	-0.018
-528.048	-200.000	-0.096	-0.425
-527.033	-21.666	0.091	-0.055
-526.018	405.410	-0.085	0.178
-525.004	-28.038	0.229	0.131
-523.989	258.012	0.095	-0.162
-522.975	62.610	0.226	0.224
-521.960	-27.438	-0.084	-0.048
-520.945	265.096	0.084	-0.145
-519.931	485.033	0.124	-0.279
-518.916	253.968	0.119	-0.200
-517.902	-24.061	-0.145	0.086
-516.887	124.348	-0.205	-0.254
-515.872	-107.617	-0.187	-0.040
-514.858	-35.061	-0.309	0.167
-513.843	-142.159	0.263	-0.026
-512.829	31.562	0.049	-0.042
-511.814	-200.000	0.011	0.132
-510.799	-37.027	-0.150	-0.080
-509.785	33.892	-0.179	0.154
-508.770	800.000	-0.026	0.092
-507.756	187.171	0.126	-0.185
-506.741	-70.379	0.466	-0.174
-505.726	-8.323	-0.150	0.099
-504.712	179.340	0.091	-0.131
-503.697	-4.384	-0.293	-0.200
-502.683	123.785	-0.172	-0.214
-501.668	268.959	-0.069	-0.119
-500.653	-33.237	-0.299	0.163
-499.639	800.000	-0.038	0.119
-498.624	-161.700	0.259	-0.013
-497.610	17.528	-0.088	0.069
-496.595	-200.000	0.048	-0.317
-495.581	-54.633	0.055	-0.025
-494.566	123.383	-0.038	-0.047
-493.551	118.368	0.139	0.169
-492.537	594.960	-0.022	-0.053
-491.522	-69.290	-0.038	0.014
-490.508	-70.858	0.294	-0.110
-489.493	-100.470	0.242	0.059
-488.478	-139.067	0.232	0.025
-487.464	-200.000	0.035	0.320
-486.449	149.775	-0.083	0.111
-485.435	-63.618	-0.277	0.112
-484.420	800.000	-0.040	-0.112
-483.405	-200.000	-0.002	0.124
-482.391	-200.000	-0.039	0.226
-481.376	800.000	0.048	-0.185
-480.362	800.000	0.040	0.121
-479.347	-46.509	-0.315	-0.153
-478.332	9.510	0.162	-0.121
-477.318	132.400	0.171	0.217
-476.303	-109.898	-0.179	-0.037
-475.289	-125.701	-0.223	-0.033
-474.274	-200.000	-0.000	-0.152
-473.259	158.607	-0.194	-0.265
-472.245	-200.000	0.037	0.345
-471.230	304.033	-0.115	-0.211
-470.216	154.055	0.153	-0.207
-469.201	34.980	0.145	-0.125
-468.186	319.426	0.218	0.407
-467.172	-6.159	0.112	0.076
-466.157	-200.000	0.007	-0.212
-465.143	524.626	-0.119	0.275
-464.128	-104.954	-0.141	-0.032
-463.113	78.092	-0.180	-0.190
-462.099	-37.865	-0.174	0.091
-461.084	-113.324	0.318	0.062
-460.070	-200.000	0.012	0.282
-459.055	270.858	0.065	0.113
-458.040	119.800	-0.243	0.297
-457.026	365.612	-0.101	-0.201
-456.011	-98.980	-0.297	0.074
-454.997	-82.193	0.293	0.094
-453.982	-23.319	-0.154	-0.091
-452.968	574.579	0.046	0.110
-451.953	-200.000	-0.013	0.095
-450.938	-107.080	0.237	0.052
-449.924	-159.174	0.256	0.014
-448.909	-52.430	-0.235	0.107
-447.895	-63.147	0.176	-0.072
-446.880	-42.157	0.141	-0.071
-445.865	61.510	-0.231	-0.226
-444.851	-81.241	-0.364	0.119
-443.836	-61.630	-0.103	-0.043
-442.822	-149.549	-0.155	-0.012
-441.807	-135.811	0.123	-0.014
-440.792	121.337	0.129	0.159
-439.778	800.000	0.055	0.178
-438.763	-95.770	-0.066	0.017
-437.749	164.552	-0.039	0.054
-436.734	377.820	0.065	0.130
-435.719	256.730	-0.096	-0.163
-434.705	-60.778	0.280	-0.117
-433.690	800.000	-0.053	-0.197
-432.676	254.685	-0.113	0.191
-431.661	-200.000	-0.031	0.452
-430.646	-23.644	-0.097	0.057
-429.632	-53.453	-0.126	-0.057
-428.617	518.040	-0.081	0.187
-427.603	-136.590	0.203	-0.023
-426.588	-47.907	0.352	-0.168
-425.573	-62.157	-0.202	0.083
-424.559	-75.598	0.160	0.056
-423.544	800.000	0.049	0.192
-422.530	-3.193	0.171	-0.117
-421.515	0.447	0.198	-0.139
-420.500	-55.530	-0.390	0.172
-419.486	-71.548	0.098	-0.036
-418.471	-146.498	-0.119	0.010
-417.457	-82.967	0.048	0.015
-416.442	800.000	0.033	0.123
-415.428	-94.002	0.192	-0.052
-414.413	-200.000	0.002	-0.036
-413.398	-9.445	-0.157	0.103
-412.384	-1.224	0.221	-0.154
-411.369	167.804	-0.056	0.078
-410.355	333.982	0.235	-0.448
-409.340	23.934	-0.133	-0.108
-408.325	-83.669	0.153	-0.048
-407.311	90.072	0.255	0.281
-406.296	800.000	-0.102	-0.365
-405.282	800.000	0.046	-0.148
-404.267	-197.691	0.407	0.002
-403.252	-49.514	0.138	-0.065
-402.238	-36.068	-0.161	0.086
-401.223	800.000	-0.093	-0.377
-400.209	-49.623	-0.381	-0.178
-399.194	-200.000	-0.055	-0.374
-398.179	-178.402	0.055	-0.001
-397.165	390.631	0.082	0.167
-396.150	-83.422	0.173	0.054
-395.136	-200.000	-0.032	-0.221
-394.121	238.944	0.033	0.054
-393.106	153.711	0.157	0.211
-392.092	-140.322	-0.097	0.010
-391.077	135.867	-0.114	-0.146
-390.063	-182.032	-0.267	0.005
-389.048	117.023	0.333	0.402
-388.033	-132.861	-0.226	0.028
-387.019	800.000	-0.057	-0.200
-386.004	166.969	0.045	0.062
-384.990	542.432	0.066	-0.155
-383.975	180.578	-0.169	-0.244
-382.960	45.139	0.258	-0.234
-381.946	453.557	0.092	-0.201
-380.931	-200.000	-0.002	-0.327
-379.917	-131.174	0.114	0.015
-378.902	-13.360	-0.097	0.062
-377.888	23.126	0.105	-0.085
-376.873	-200.000	0.019	-0.309
-375.858	19.939	0.106	-0.084
-374.844	8.295	0.071	0.053
-373.829	-86.512	0.126	-0.038
-372.815	170.235	-0.210	-0.296
-371.800	800.000	-0.051	0.200
-370.785	800.000	0.086	-0.314
-369.771	391.715	-0.115	0.234
-368.756	-83.046	0.213	0.067
-367.742	800.000	0.095	0.313
-366.727	-95.423	0.292	-0.077
-365.712	-72.713	-0.247	0.089
-364.698	-55.933	0.150	0.066
-363.683	-133.122	0.254	0.032
-362.669	-52.565	0.153	0.070
-361.654	-134.724	-0.115	0.014
-360.639	-151.874	0.078	0.006
-359.625	90.468	0.263	0.289
-358.610	-121.187	-0.202	0.033
-357.596	31.350	-0.151	-0.127
-356.581	87.372	0.108	0.117
-355.566	-19.458	0.034	-0.021
-354.552	-169.196	-0.209	-0.008
-353.537	492.812	-0.068	0.154
-352.523	800.000	0.141	0.400
-351.508	46.527	-0.011	0.010
-350.493	135.116	0.063	-0.081
-349.479	-180.343	0.148	0.003
-348.464	-147.593	-0.068	0.006
-347.450	-49.227	-0.049	-0.023
-346.435	-138.747	0.206	0.022
-345.420	-200.000	0.000	-0.007
-344.406	28.626	-0.304	0.253
-343.391	-80.092	-0.055	-0.018
-342.377	91.091	-0.039	-0.042
-341.362	-4.177	0.123	-0.084
-340.348	382.131	-0.139	-0.280
-339.333	213.833	-0.034	-0.053
-338.318	177.301	-0.080	-0.114
-337.304	418.884	0.071	0.148
-336.289	800.000	0.045	0.152
-335.275	206.269	0.033	0.050
-334.260	2.422	0.065	0.046
-333.245	282.946	0.139	-0.245
-332.231	-61.338	-0.217	0.090
-331.216	11.667	-0.290	-0.218
-330.202	70.052	-0.192	0.194
-329.187	-138.699	-0.264	-0.028
-328.172	-116.911	0.283	-0.051
-327.158	44.015	-0.044	-0.039
-326.143	117.834	0.135	0.163
-325.129	-200.000	-0.015	0.312
-324.114	64.617	0.139	0.137
-323.099	-200.000	-0.025	-0.157
-322.085	189.193	0.048	0.070
-321.070	-94.063	-0.219	0.059
-320.056	-120.714	0.125	-0.021
-319.041	-102.992	0.471	-0.110
-318.026	800.000	0.054	-0.214
-317.012	-200.000	-0.004	0.265
-315.997	-75.189	-0.140	0.049
-314.983	-200.000	0.015	-0.347
-313.968	-71.148	0.067	0.025
-312.953	800.000	-0.017	-0.058
-311.939	102.073	-0.084	0.096
-310.924	800.000	0.046	0.133
-309.910	800.000	0.026	-0.071
-308.895	800.000	0.103	0.409
-307.880	56.138	0.010	0.010
-306.866	276.528	0.046	0.080
-305.851	-9.681	0.079	0.052
-304.837	311.608	0.066	0.121
-303.822	-152.767	-0.158	0.011
-302.807	2.575	0.273	0.194
-301.793	238.882	0.353	-0.576
-300.778	185.431	0.218	0.318
-299.764	-83.029	-0.221	-0.070
-298.749	-190.841	-0.078	0.001
-297.735	436.224	-0.105	0.225
-296.720	800.000	0.029	0.096
-295.705	-81.068	-0.276	0.090
-294.691	121.535	-0.112	0.137
-293.676	206.520	-0.074	0.113
-292.662	-170.775	0.236	-0.008
-291.647	43.248	0.208	-0.186
-290.632	350.081	0.055	0.107
-289.618	403.305	0.097	-0.199
-288.603	-71.299	-0.118	0.043
-287.589	59.339	-0.046	0.044
-286.574	49.649	-0.082	-0.076
-285.559	-135.266	-0.276	-0.032
-284.545	73.581	0.144	-0.148
-283.530	112.595	0.065	-0.077
-282.516	800.000	0.085	-0.263
-281.501	800.000	-0.098	0.264
-280.486	289.096	-0.056	-0.100
-279.472	216.595	0.053	0.083
-278.457	-200.000	-0.302	-0.000
-277.443	-82.940	-0.178	0.056
-276.428	26.744	0.239	-0.196
-275.413	-81.877	-0.417	0.134
-274.399	96.253	-0.142	-0.159
-273.384	800.000	-0.118	0.426
-272.370	50.157	0.181	0.167
-271.355	-144.850	0.142	0.013
-270.340	113.918	0.105	-0.125
-269.326	131.595	-0.094	-0.118
-268.311	-200.000	0.012	0.179
-267.297	186.917	0.272	0.396
-266.282	-200.000	-0.019	0.165
-265.267	800.000	-0.015	0.050
-264.253	-74.597	0.062	0.022
-263.238	77.010	0.090	0.093
-262.224	-158.858	-0.217	-0.012
-261.209	204.133	0.133	0.201
-260.195	-200.000	-0.021	0.146
-259.180	78.084	-0.051	0.054
-258.165	-101.337	-0.234	0.056
-257.151	25.068	0.246	0.200
-256.136	-73.399	-0.281	0.101
-255.122	29.649	0.042	0.035
-254.107	-18.427	0.119	-0.073
-253.092	-200.000	-0.012	0.084
-252.078	-134.643	0.114	0.014
-251.063	57.473	0.170	-0.162
-250.049	-33.030	-0.259	0.141
-249.034	44.561	-0.086	-0.077
-248.019	-84.925	0.053	-0.016
-247.005	36.748	0.022	0.019
-245.990	-200.000	0.003	-0.023
-244.976	8.261	-0.505	-0.371
-243.961	88.743	-0.065	-0.071
-242.946	-127.562	0.091	-0.013
-241.932	99.947	-0.048	0.055
-240.917	-67.897	-0.180	0.069
-239.903	162.540	0.282	-0.387
-238.888	-16.710	0.129	0.080
-237.873	-106.017	0.132	0.029
-236.859	178.833	-0.128	-0.183
-235.844	-106.395	0.248	-0.054
-234.830	800.000	0.031	-0.099
-233.815	-98.685	0.252	0.063
-232.800	81.183	-0.105	0.110
-231.786	-38.680	-0.284	-0.147
-230.771	61.581	0.227	0.221
-229.757	215.357	0.137	0.212
-228.742	-200.000	-0.016	-0.179
-227.727	-145.198	0.323	-0.029
-226.713	127.971	0.078	-0.097
-225.698	-200.000	0.048	0.419
-224.684	-32.259	0.112	-0.061
-223.669	-141.461	0.095	-0.009
-222.655	-120.471	-0.255	-0.042
-221.640	25.733	0.248	-0.202
-220.625	-39.864	-0.355	-0.181
-219.611	-200.000	-0.024	0.273
-218.596	-26.679	0.089	0.051
-217.582	361.038	-0.115	-0.224
-216.567	83.366	0.030	-0.032
-215.552	-59.963	-0.086	-0.036
-214.538	-53.348	-0.216	-0.097
-213.523	584.218	-0.066	0.158
-212.509	-200.000	-0.067	0.359
-211.494	289.012	0.079	-0.140
-210.479	67.748	0.169	0.168
-209.465	13.756	-0.081	-0.061
-208.450	-200.000	0.015	0.082
-207.436	256.378	0.049	0.081
-206.421	87.164	0.153	-0.166
-205.406	800.000	0.091	-0.271
-204.392	686.954	-0.180	0.459
-203.377	800.000	0.042	-0.145
-202.363	25.494	0.352	0.286
-201.348	57.258	0.060	0.057
-200.333	261.589	-0.073	0.124
-199.319	190.909	0.090	-0.132
-198.304	-121.191	0.202	-0.033
-197.290	-105.746	0.372	0.082
-196.275	306.845	-0.100	-0.183
-195.260	-57.511	-0.219	0.094
-194.246	395.634	-0.055	0.112
-193.231	243.817	-0.096	-0.158
-192.217	-186.331	-0.170	-0.002
-191.202	-132.952	0.196	-0.024
-190.187	-135.128	0.403	0.047
-189.173	168.871	0.037	-0.051
-188.158	199.982	0.080	-0.120
-187.144	76.469	0.113	-0.117
-186.129	19.286	0.090	-0.070
-185.114	94.048	-0.110	-0.122
-184.100	-135.232	0.127	-0.015
-183.085	-140.097	-0.069	-0.007
-182.071	177.807	-0.056	-0.080
-181.056	-124.971	-0.143	0.021
-180.042	42.837	0.334	0.297
-179.027	-6.245	0.096	-0.064
-178.012	-200.000	0.040	-0.181
-176.998	-48.698	0.096	0.045
-175.983	800.000	0.059	0.242
-174.969	-102.471	0.276	0.065
-173.954	-17.782	-0.089	-0.055
-172.939	-138.642	0.216	-0.023
-171.925	-47.608	0.170	-0.080
-170.910	-18.671	-0.241	0.146
-169.896	-200.000	-0.019	-0.116
-168.881	-87.385	-0.119	0.035
-167.866	-39.823	0.085	0.043
-166.852	800.000	0.017	-0.062
-165.837	-153.962	-0.433	0.029
-164.823	-155.137	0.435	-0.028
-163.808	-55.716	-0.242	-0.105
-162.793	800.000	-0.040	-0.157
-161.779	-53.098	0.284	0.127
-160.764	-67.577	0.064	-0.024
-159.750	-76.005	-0.116	-0.040
-158.735	85.062	-0.176	0.188
-157.720	-140.765	0.127	0.013
-156.706	-70.333	0.260	-0.096
-155.691	800.000	-0.018	0.066
-154.677	105.270	0.093	0.107
-153.662	67.046	0.068	0.067
-152.647	-116.293	0.273	0.049
-151.633	-2.926	0.156	0.106
-150.618	-63.979	-0.209	0.083
-149.604	-106.512	0.210	0.046
-148.589	-165.602	0.226	0.010
-147.574	-16.292	0.219	0.135
-146.560	484.240	-0.144	-0.319
-145.545	-108.220	0.188	-0.040
-144.531	-200.000	-0.028	0.208
-143.516	-134.128	-0.095	0.011
-142.502	100.903	0.150	0.170
-141.487	193.084	0.052	-0.076
-140.472	161.679	-0.149	-0.203
-139.458	-200.000	-0.030	0.254
-138.443	-16.620	-0.175	-0.108
-137.429	-200.000	-0.043	-0.298
-136.414	317.213	-0.078	-0.144
-135.399	179.109	0.031	0.044
-134.385	800.000	0.073	-0.269
-133.370	-200.000	0.030	0.225
-132.356	4.123	-0.152	0.108
-131.341	-200.000	0.002	-0.109
-130.326	-156.059	0.071	-0.004
-129.312	-192.323	0.340	-0.003
-128.297	31.942	0.296	0.248
-127.283	-47.185	-0.217	-0.103
-126.268	287.879	0.137	0.241
-125.253	-200.000	-0.029	0.151
-124.239	-61.336	0.302	0.124
-123.224	-200.000	0.217	0.000
-122.210	800.000	-0.061	0.208
-121.195	123.876	-0.143	0.175
-120.180	154.100	0.068	0.091
