DTS Sentinel unit serial number:	SN413079Multiplexer serial number:	ORYXHardware model number:	OX4-SRSoftware version number:	ORYX F/W v4.00 Oryx Data Collector v3.7.2.0data status	okinstallation	princeton_trtdifferential loss correction	single-endedforward channel	channel 2reverse channel	N/Adate	2019/09/18time	20:35:35forward acquisition time	60.00reverse acquisition time	0.00gamma	496.2192k internal	0.2338k external	0.2338temperature offset calibration	1.0026default loss term (dB/km)	0.3790temperature slope calibration	1.0000multiplexer offset coefficient	1.0000multiplexer slope coefficient	1.0000fibre end	0.00T internal ref (°C)	27.94T ext. ref 1 (°C)	0.87T ext. ref 2 (°C)	18.92length (m)	temperature (°C)	Stokes	anti-Stokes-747.200	229.127	0.172	0.282
-746.185	-146.960	0.042	0.004
-745.171	212.045	-0.183	0.289
-744.156	-46.157	0.101	0.050
-743.142	-200.000	-0.002	-0.336
-742.127	-200.000	0.021	0.324
-741.112	-172.017	0.259	-0.008
-740.098	84.560	0.167	0.184
-739.083	302.620	-0.128	-0.237
-738.069	-200.000	-0.023	0.373
-737.054	-50.855	0.279	-0.132
-736.039	-19.268	-0.330	-0.205
-735.025	-104.376	0.212	0.049
-734.010	-96.173	-0.150	-0.040
-732.996	-30.089	-0.268	-0.153
-731.981	395.780	-0.162	-0.339
-730.966	-138.127	0.040	-0.004
-729.952	-200.000	0.020	-0.137
-728.937	-200.000	-0.021	-0.114
-727.923	-94.560	-0.421	0.115
-726.908	-4.907	-0.221	0.153
-725.894	65.828	-0.092	0.093
-724.879	800.000	0.045	0.147
-723.864	-106.954	-0.170	0.038
-722.850	508.844	-0.090	-0.211
-721.835	781.591	-0.127	-0.348
-720.821	-114.904	0.192	-0.037
-719.806	800.000	-0.062	-0.269
-718.791	-123.634	0.227	-0.036
-717.777	-200.000	0.024	0.153
-716.762	-124.665	-0.314	0.049
-715.748	800.000	0.048	0.172
-714.733	414.073	-0.092	-0.196
-713.718	111.972	-0.284	-0.344
-712.704	495.251	0.222	-0.510
-711.689	-200.000	-0.060	-0.397
-710.675	800.000	-0.063	0.242
-709.660	-200.000	-0.053	-0.237
-708.645	-23.059	-0.162	-0.098
-707.631	800.000	-0.033	-0.115
-706.616	639.604	-0.132	-0.337
-705.602	-200.000	-0.014	0.297
-704.587	-200.000	0.013	-0.173
-703.572	522.124	-0.076	-0.180
-702.558	800.000	0.036	-0.107
-701.543	-7.219	-0.185	-0.125
-700.529	134.803	-0.009	0.012
-699.514	-5.443	0.100	0.069
-698.499	3.014	-0.506	-0.368
-697.485	655.305	-0.091	-0.233
-696.470	-47.906	0.409	-0.198
-695.456	-200.000	-0.041	-0.192
-694.441	-200.000	0.018	0.152
-693.426	284.396	0.106	0.192
-692.412	-83.498	0.303	-0.097
-691.397	-167.959	0.211	-0.008
-690.383	348.526	0.276	-0.545
-689.368	-65.460	-0.158	-0.064
-688.354	182.507	-0.059	0.088
-687.339	-200.000	-0.015	-0.670
-686.324	-91.243	-0.233	-0.067
-685.310	-90.031	-0.184	-0.054
-684.295	66.366	0.191	-0.195
-683.281	800.000	-0.055	-0.237
-682.266	-5.095	0.180	0.124
-681.251	-200.000	0.011	0.071
-680.237	-35.320	-0.240	0.130
-679.222	-21.580	-0.213	0.130
-678.208	73.514	0.052	-0.055
-677.193	46.745	0.127	0.118
-676.178	-152.858	-0.427	0.030
-675.164	103.394	-0.119	0.139
-674.149	113.763	0.158	-0.192
-673.135	800.000	-0.032	0.102
-672.120	199.133	0.070	-0.107
-671.105	755.801	0.032	-0.087
-670.091	-200.000	-0.021	-0.142
-669.076	598.609	-0.025	0.063
-668.062	98.667	0.166	0.191
-667.047	425.254	0.091	0.197
-666.032	261.580	-0.126	-0.218
-665.018	-200.000	0.004	-0.220
-664.003	57.411	0.126	0.123
-662.989	123.304	0.158	-0.199
-661.974	171.545	-0.174	-0.250
-660.959	-45.514	-0.011	0.005
-659.945	800.000	-0.033	-0.134
-658.930	-200.000	-0.010	-0.263
-657.916	-200.000	0.054	-0.358
-656.901	-9.740	0.199	0.132
-655.886	-80.609	-0.413	0.138
-654.872	-200.000	0.038	-0.270
-653.857	13.882	-0.359	0.279
-652.843	-200.000	-0.007	-0.082
-651.828	-2.662	0.116	-0.081
-650.814	-104.752	0.177	0.041
-649.799	388.872	0.030	-0.062
-648.784	249.281	0.202	-0.342
-647.770	-95.530	-0.295	-0.079
-646.755	-200.000	0.005	-0.064
-645.741	59.808	-0.166	0.164
-644.726	800.000	-0.050	-0.143
-643.711	-129.385	0.197	0.027
-642.697	800.000	-0.095	-0.269
-641.682	30.638	0.287	-0.246
-640.668	-5.397	-0.165	0.113
-639.653	55.360	-0.188	-0.182
-638.638	-200.000	0.016	0.277
-637.624	19.491	0.124	-0.099
-636.609	-200.000	0.002	0.166
-635.595	212.969	0.072	-0.113
-634.580	396.565	0.178	0.371
-633.565	-200.000	0.072	-0.367
-632.551	-200.000	-0.001	0.082
-631.536	-28.072	0.255	0.147
-630.522	-58.438	-0.053	-0.023
-629.507	-26.448	-0.029	-0.017
-628.492	335.352	-0.046	-0.089
-627.478	130.039	0.180	0.230
-626.463	33.897	-0.108	-0.094
-625.449	800.000	-0.074	0.214
-624.434	-128.855	0.307	-0.043
-623.419	-85.997	0.141	0.044
-622.405	504.919	-0.107	0.248
-621.390	-112.500	-0.170	-0.034
-620.376	-2.561	-0.123	-0.086
-619.361	800.000	-0.012	-0.044
-618.346	-200.000	0.004	0.163
-617.332	-200.000	0.026	0.391
-616.317	-137.469	0.231	-0.026
-615.303	-160.706	-0.162	-0.009
-614.288	-142.698	-0.346	-0.034
-613.273	-83.516	0.429	0.137
-612.259	-176.682	-0.071	0.002
-611.244	800.000	0.095	-0.285
-610.230	83.900	-0.073	0.080
-609.215	591.739	0.148	0.365
-608.201	0.878	-0.137	-0.098
-607.186	-200.000	0.048	-0.285
-606.171	65.959	-0.190	-0.192
-605.157	69.923	-0.076	0.078
-604.142	274.955	-0.103	-0.182
-603.128	-200.000	-0.006	-0.176
-602.113	-42.596	-0.342	0.174
-601.098	448.257	0.106	0.233
-600.084	-200.000	0.079	0.374
-599.069	-74.989	-0.369	-0.132
-598.055	-128.034	-0.181	-0.026
-597.040	142.740	-0.191	0.253
-596.025	-200.000	0.041	0.244
-595.011	-58.016	-0.177	-0.077
-593.996	800.000	-0.039	0.130
-592.982	-3.747	-0.055	0.038
-591.967	260.614	-0.117	0.202
-590.952	176.194	0.058	0.084
-589.938	2.484	-0.157	-0.113
-588.923	-200.000	-0.000	-0.022
-587.909	799.277	0.090	-0.248
-586.894	-200.000	0.066	-0.412
-585.879	-30.890	-0.177	0.100
-584.865	-200.000	0.055	-0.315
-583.850	-200.000	0.383	0.000
-582.836	800.000	0.123	0.352
-581.821	187.824	-0.107	-0.159
-580.806	-200.000	-0.035	0.163
-579.792	800.000	0.075	0.272
-578.777	-101.847	-0.060	0.015
-577.763	373.453	-0.082	-0.167
-576.748	-128.855	-0.320	-0.045
-575.733	-84.740	-0.151	0.047
-574.719	58.982	-0.263	0.258
-573.704	-118.738	-0.261	0.046
-572.690	-37.849	0.298	-0.158
-571.675	-200.000	-0.022	0.319
-570.661	164.241	-0.038	-0.054
-569.646	800.000	-0.071	-0.229
-568.631	-7.787	-0.191	-0.129
-567.617	-200.000	0.032	-0.327
-566.602	-178.482	-0.136	0.003
-565.588	800.000	0.011	-0.033
-564.573	94.572	0.345	-0.391
-563.558	-143.030	-0.203	-0.020
-562.544	-65.861	0.152	0.060
-561.529	-200.000	0.023	0.322
-560.515	-183.250	-0.188	0.003
-559.500	232.916	-0.017	-0.027
-558.485	72.160	-0.076	0.079
-557.471	-38.635	0.316	0.166
-556.456	86.939	-0.051	-0.057
-555.442	-117.212	0.101	0.018
-554.427	29.773	0.095	-0.080
-553.412	-200.000	0.062	0.309
-552.398	-51.561	-0.172	0.080
-551.383	-200.000	0.004	0.087
-550.369	-66.313	0.121	-0.048
-549.354	-24.033	0.204	-0.122
-548.339	-70.621	-0.233	0.088
-547.325	411.941	0.084	-0.179
-546.310	800.000	0.061	-0.168
-545.296	-200.000	0.010	-0.065
-544.281	22.680	-0.121	-0.099
-543.266	21.004	0.148	-0.119
-542.252	-9.102	0.254	-0.169
-541.237	-96.633	0.200	0.053
-540.223	38.797	-0.045	0.040
-539.208	219.942	-0.161	0.257
-538.193	-200.000	-0.021	0.175
-537.179	-129.323	-0.125	-0.017
-536.164	164.966	-0.135	-0.189
-535.150	-200.000	-0.019	0.114
-534.135	-200.000	-0.014	0.210
-533.121	112.846	0.090	-0.109
-532.106	20.362	-0.139	-0.112
-531.091	2.140	-0.209	-0.150
-530.077	800.000	0.074	-0.244
-529.062	26.418	0.120	0.100
-528.048	95.334	0.114	-0.129
-527.033	67.640	0.136	-0.138
-526.018	185.648	-0.101	0.149
-525.004	-140.191	0.123	0.013
-523.989	80.553	0.279	-0.299
-522.975	-89.716	-0.088	0.026
-521.960	800.000	0.186	-0.548
-520.945	-200.000	-0.016	-0.095
-519.931	800.000	-0.108	0.380
-518.916	117.280	-0.219	0.268
-517.902	800.000	0.031	0.093
-516.887	-80.794	0.156	-0.051
-515.872	295.862	-0.024	-0.043
-514.858	51.070	0.215	0.202
-513.843	-131.105	0.102	-0.013
-512.829	140.322	-0.139	-0.182
-511.814	96.392	0.259	0.295
-510.799	800.000	-0.042	0.138
-509.785	87.162	-0.158	-0.174
-508.770	-14.868	0.335	-0.214
-507.756	-83.695	-0.194	-0.062
-506.741	29.798	0.189	-0.160
-505.726	-54.453	-0.212	0.096
-504.712	12.283	-0.165	0.126
-503.697	308.055	0.027	0.050
-502.683	-200.000	-0.034	-0.167
-501.668	320.424	0.207	0.390
-500.653	-200.000	0.043	0.232
-499.639	418.661	0.068	0.144
-498.624	-28.585	0.309	0.177
-497.610	800.000	0.039	0.167
-496.595	-65.039	-0.254	-0.102
-495.581	-10.930	-0.074	-0.048
-494.566	532.663	-0.135	-0.318
-493.551	-200.000	-0.030	0.181
-492.537	-200.000	-0.028	0.180
-491.522	146.736	-0.028	0.038
-490.508	143.701	-0.070	-0.093
-489.493	-11.364	-0.186	0.121
-488.478	417.707	0.140	-0.296
-487.464	-54.201	0.036	0.016
-486.449	41.849	-0.074	-0.067
-485.435	800.000	-0.056	-0.171
-484.420	800.000	0.074	0.228
-483.405	-144.106	-0.188	0.018
-482.391	279.701	0.135	-0.239
-481.376	800.000	-0.049	0.135
-480.362	-2.641	-0.325	-0.226
-479.347	667.859	-0.158	0.406
-478.332	-200.000	0.006	-0.118
-477.318	33.078	0.369	-0.318
-476.303	-200.000	-0.031	-0.182
-475.289	-126.158	-0.132	-0.020
-474.274	-200.000	-0.010	-0.136
-473.259	800.000	0.084	-0.232
-472.245	487.201	-0.142	-0.323
-471.230	-17.543	0.169	0.106
-470.216	800.000	0.036	0.124
-469.201	14.389	0.119	0.092
-468.186	139.400	0.219	-0.286
-467.172	-200.000	0.012	-0.099
-466.157	-200.000	0.008	0.166
-465.143	-149.360	0.223	-0.018
-464.128	380.870	0.228	0.465
-463.113	-84.458	0.160	-0.050
-462.099	800.000	-0.017	-0.053
-461.084	-140.583	-0.217	-0.022
-460.070	-2.369	0.200	0.139
-459.055	703.488	-0.111	0.290
-458.040	-8.648	-0.092	-0.061
-457.026	230.116	0.034	-0.055
-456.011	170.437	0.162	0.231
-454.997	23.292	0.294	-0.240
-453.982	-200.000	0.012	-0.119
-452.968	309.556	-0.023	-0.042
-451.953	-200.000	0.009	-0.109
-450.938	111.682	-0.204	-0.244
-449.924	455.067	0.048	0.105
-448.909	33.326	-0.467	-0.402
-447.895	-78.880	0.415	0.140
-446.880	314.784	-0.058	0.108
-445.865	-200.000	-0.064	-0.301
-444.851	-84.519	0.283	-0.089
-443.836	-200.000	-0.060	0.285
-442.822	-42.148	-0.328	0.167
-441.807	-109.489	-0.147	0.031
-440.792	223.078	-0.045	-0.072
-439.778	-200.000	-0.004	0.152
-438.763	70.446	0.190	-0.195
-437.749	21.459	-0.100	0.081
-436.734	-27.808	-0.171	0.098
-435.719	615.419	-0.106	0.263
-434.705	-194.517	0.429	-0.003
-433.690	-177.235	-0.261	0.006
-432.676	193.948	-0.089	-0.133
-431.661	265.097	0.376	0.650
-430.646	205.998	0.140	0.216
-429.632	-62.670	0.191	-0.079
-428.617	-114.252	0.177	-0.034
-427.603	36.923	0.064	0.056
-426.588	-96.583	0.028	-0.007
-425.573	93.197	0.117	-0.131
-424.559	-40.699	0.109	-0.056
-423.544	-200.000	-0.023	-0.175
-422.530	-148.685	0.576	0.046
-421.515	-200.000	-0.030	0.237
-420.500	800.000	-0.042	-0.172
-419.486	800.000	0.039	-0.133
-418.471	142.146	0.381	0.500
-417.457	-200.000	-0.050	0.243
-416.442	-151.185	0.164	0.012
-415.428	310.297	0.016	0.029
-414.413	800.000	0.078	0.242
-413.398	-200.000	-0.039	-0.305
-412.384	800.000	0.056	0.213
-411.369	-136.707	-0.038	0.004
-410.355	-200.000	0.035	0.252
-409.340	-132.800	0.313	0.040
-408.325	289.162	0.156	-0.280
-407.311	44.547	-0.337	-0.306
-406.296	264.871	-0.207	-0.357
-405.282	-34.026	-0.409	0.223
-404.267	-86.307	0.172	-0.052
-403.252	255.360	-0.155	-0.262
-402.238	-130.906	0.170	-0.023
-401.223	124.761	0.350	0.436
-400.209	382.897	-0.128	0.261
-399.194	447.954	0.083	-0.180
-398.179	133.591	-0.045	-0.057
-397.165	-93.964	0.426	-0.116
-396.150	111.799	0.243	0.290
-395.136	-117.081	0.279	-0.050
-394.121	-41.521	0.228	-0.116
-393.106	-200.000	-0.006	-0.076
-392.092	302.961	-0.117	0.214
-391.077	800.000	-0.043	0.160
-390.063	-41.625	-0.154	-0.078
-389.048	91.549	0.214	-0.238
-388.033	-200.000	0.000	0.194
-387.019	142.780	0.020	0.026
-386.004	3.628	-0.192	0.139
-384.990	-38.986	-0.205	0.107
-383.975	-200.000	0.049	0.253
-382.960	178.250	-0.126	-0.182
-381.946	-75.102	-0.151	0.053
-380.931	-200.000	0.048	-0.279
-379.917	800.000	0.076	-0.229
-378.902	27.166	0.164	-0.137
-377.888	591.157	0.036	0.089
-376.873	185.868	-0.139	0.205
-375.858	-94.204	-0.330	-0.089
-374.844	176.032	-0.105	0.151
-373.829	-136.675	-0.214	0.024
-372.815	-200.000	-0.044	0.306
-371.800	-31.380	0.039	0.022
-370.785	-58.900	0.231	-0.099
-369.771	-200.000	0.004	0.187
-368.756	-82.009	-0.146	0.047
-367.742	-135.355	0.231	-0.027
-366.727	800.000	0.087	-0.264
-365.712	-109.555	0.075	0.016
-364.698	-109.428	-0.451	0.094
-363.683	-0.003	0.180	-0.127
-362.669	-200.000	0.007	-0.531
-361.654	35.029	-0.044	0.038
-360.639	-96.024	-0.214	-0.056
-359.625	336.463	0.116	0.223
-358.610	-136.306	0.229	-0.026
-357.596	-200.000	0.044	0.320
-356.581	-115.410	-0.351	0.065
-355.566	-174.712	0.181	0.005
-354.552	566.333	-0.081	-0.195
-353.537	206.075	-0.048	0.073
-352.523	300.991	-0.122	-0.223
-351.508	340.970	-0.045	-0.087
-350.493	-121.177	-0.268	0.044
-349.479	-123.379	-0.180	-0.028
-348.464	-41.921	-0.145	-0.074
-347.450	800.000	-0.089	0.283
-346.435	-5.617	-0.110	-0.075
-345.420	228.057	0.272	-0.438
-344.406	800.000	0.091	-0.343
-343.391	96.077	-0.105	0.118
-342.377	40.285	0.256	-0.227
-341.362	-200.000	0.034	-0.239
-340.348	-30.401	0.105	0.059
-339.333	-86.252	0.119	-0.036
-338.318	129.733	-0.343	0.434
-337.304	-46.729	-0.204	-0.099
-336.289	-159.121	-0.074	-0.004
-335.275	-87.206	-0.195	0.059
-334.260	462.097	-0.072	-0.158
-333.245	800.000	0.059	0.214
-332.231	-200.000	0.008	0.062
-331.216	-200.000	-0.011	-0.123
-330.202	800.000	-0.072	-0.305
-329.187	310.536	0.070	-0.130
-328.172	762.537	0.055	0.148
-327.158	-91.750	-0.214	-0.060
-326.143	746.629	-0.053	-0.140
-325.129	258.739	0.013	-0.022
-324.114	-32.384	0.105	0.058
-323.099	-10.960	0.178	0.116
-322.085	479.153	0.050	-0.113
-321.070	-107.663	0.202	-0.044
-320.056	-130.910	0.174	0.023
-319.041	-19.593	0.146	-0.089
-318.026	-80.669	-0.244	-0.080
-317.012	-162.668	0.356	0.017
-315.997	44.714	-0.175	-0.159
-314.983	-11.727	-0.251	-0.162
-313.968	-200.000	0.008	0.243
-312.953	85.639	-0.209	-0.227
-311.939	539.424	0.049	-0.115
-310.924	-116.804	-0.202	0.037
-309.910	672.903	0.049	0.126
-308.895	-140.696	-0.291	0.030
-307.880	-56.452	-0.333	0.146
-306.866	-11.436	-0.231	-0.150
-305.851	-111.218	-0.293	0.059
-304.837	388.784	-0.078	0.158
-303.822	-200.000	-0.015	-0.222
-302.807	-47.652	-0.065	0.031
-301.793	451.162	-0.110	0.239
-300.778	-200.000	-0.047	-0.415
-299.764	800.000	0.064	0.177
-298.749	464.922	0.058	0.128
-297.735	-117.675	-0.170	-0.030
-296.720	95.792	0.213	0.240
-295.705	-125.067	0.248	0.038
-294.691	232.637	0.215	0.347
-293.676	800.000	0.073	-0.310
-292.662	195.910	-0.113	-0.170
-291.647	-200.000	-0.068	0.400
-290.632	119.421	-0.173	-0.211
-289.618	172.558	-0.077	0.109
-288.603	-200.000	0.014	-0.151
-287.589	328.252	-0.024	0.045
-286.574	-180.213	-0.037	0.001
-285.559	-170.163	0.101	-0.004
-284.545	-200.000	-0.005	0.099
-283.530	-138.169	0.434	0.047
-282.516	800.000	-0.086	-0.287
-281.501	85.136	-0.079	0.085
-280.486	-153.570	-0.213	-0.015
-279.472	42.441	-0.172	0.155
-278.457	541.890	-0.072	-0.169
-277.443	-141.594	-0.218	-0.022
-276.428	96.132	-0.273	0.307
-275.413	266.807	0.080	-0.138
-274.399	-174.940	0.171	-0.005
-273.384	239.808	-0.070	0.115
-272.370	800.000	-0.057	0.199
-271.355	-200.000	0.025	0.172
-270.340	-187.303	-0.076	-0.001
-269.326	13.303	-0.099	0.076
-268.311	-37.993	-0.152	0.079
-267.297	-200.000	-0.065	-0.467
-266.282	-200.000	-0.043	-0.393
-265.267	33.090	0.205	-0.175
-264.253	-200.000	0.013	-0.138
-263.238	-176.403	0.283	-0.007
-262.224	44.822	0.409	-0.370
-261.209	-200.000	0.010	0.265
-260.195	-13.741	-0.139	0.089
-259.180	-111.699	0.467	-0.093
-258.165	-102.060	-0.566	0.134
-257.151	-65.310	-0.337	0.134
-256.136	-200.000	-0.017	0.333
-255.122	-139.816	0.162	-0.017
-254.107	-19.225	-0.300	0.183
-253.092	758.345	-0.132	-0.352
-252.078	203.295	-0.182	0.278
-251.063	39.302	-0.113	0.100
-250.049	52.569	0.158	-0.148
-249.034	199.647	0.132	-0.199
-248.019	456.901	-0.024	-0.052
-247.005	-101.909	-0.298	-0.071
-245.990	-200.000	-0.059	-0.312
-244.976	800.000	-0.107	0.293
-243.961	-152.188	-0.206	0.015
-242.946	-7.049	-0.314	-0.209
-241.932	-167.882	-0.281	0.011
-240.917	-155.582	0.350	0.022
-239.903	-46.181	0.186	0.090
-238.888	800.000	0.109	-0.413
-237.873	-139.536	0.218	0.023
-236.859	485.386	0.055	0.123
-235.844	-118.362	0.427	0.075
-234.830	5.093	-0.169	0.123
-233.815	-200.000	-0.095	-0.572
-232.800	800.000	-0.011	-0.033
-231.786	-3.558	0.249	0.170
-230.771	-200.000	0.015	0.074
-229.757	-124.098	0.098	0.015
-228.742	-92.618	0.187	0.052
-227.727	-92.909	0.132	0.036
-226.713	-89.596	-0.011	0.003
-225.698	-200.000	-0.039	-0.242
-224.684	599.171	-0.070	-0.171
-223.669	-144.422	0.226	-0.021
-222.655	-200.000	0.013	0.168
-221.640	-80.018	-0.295	-0.097
-220.625	-121.730	0.416	-0.068
-219.611	-86.623	-0.308	0.093
-218.596	-152.606	0.249	-0.017
-217.582	-97.470	0.218	-0.056
-216.567	-140.682	-0.272	-0.028
-215.552	-120.919	0.131	-0.022
-214.538	-91.256	-0.178	0.050
-213.523	-108.955	0.378	-0.079
-212.509	-200.000	0.003	-0.115
-211.494	-8.250	-0.102	0.067
-210.479	125.899	0.201	0.250
-209.465	215.540	-0.131	0.204
-208.450	135.582	0.279	-0.357
-207.436	-73.998	0.132	0.047
-206.421	0.541	0.193	0.136
-205.406	-111.019	-0.482	0.097
-204.392	-200.000	0.006	0.079
-203.377	-200.000	-0.030	-0.229
-202.363	-41.658	0.383	-0.193
-201.348	20.328	0.172	0.137
-200.333	-200.000	-0.049	0.349
-199.319	-106.046	0.164	-0.036
-198.304	-151.872	-0.295	0.021
-197.290	144.850	0.165	0.216
-196.275	-158.002	0.138	-0.008
-195.260	-145.419	-0.233	-0.021
-194.246	27.963	0.169	0.140
-193.231	102.828	-0.140	0.161
-192.217	-141.077	-0.160	-0.016
-191.202	-200.000	-0.042	0.290
-190.187	800.000	-0.111	0.436
-189.173	45.381	-0.167	0.151
-188.158	-137.939	-0.355	-0.039
-187.144	7.569	-0.237	-0.174
-186.129	96.196	-0.081	0.091
-185.114	-98.143	-0.326	0.082
-184.100	-200.000	0.021	-0.384
-183.085	139.980	0.284	-0.367
-182.071	-200.000	-0.003	-0.114
-181.056	29.213	-0.153	-0.128
-180.042	-200.000	-0.004	0.561
-179.027	431.302	-0.111	-0.237
-178.012	-200.000	0.031	-0.192
-176.998	-127.346	-0.266	0.038
-175.983	-82.842	0.026	-0.008
-174.969	224.060	0.050	0.078
-173.954	-200.000	-0.028	0.246
-172.939	-200.000	0.027	-0.172
-171.925	-107.682	0.174	-0.037
-170.910	171.185	0.190	0.267
-169.896	143.805	-0.134	-0.175
-168.881	536.253	0.137	0.320
-167.866	-200.000	0.025	0.211
-166.852	-85.902	0.179	0.054
-165.837	406.003	0.045	-0.093
-164.823	19.611	-0.170	0.134
-163.808	104.074	0.222	-0.255
-162.793	-134.916	-0.089	-0.011
-161.779	225.669	0.185	0.294
-160.764	217.482	0.097	-0.151
-159.750	145.369	0.143	0.188
-158.735	-123.335	0.364	0.057
-157.720	52.537	0.205	-0.192
-156.706	-200.000	0.001	0.137
-155.691	-102.982	0.217	0.050
-154.677	189.509	-0.051	-0.075
-153.662	-6.998	-0.298	-0.199
-152.647	800.000	-0.041	-0.116
-151.633	800.000	-0.033	-0.121
-150.618	-35.722	0.071	-0.037
-149.604	-199.644	0.097	0.000
-148.589	-200.000	-0.007	-0.184
-147.574	792.968	0.111	-0.299
-146.560	243.371	-0.051	0.083
-145.545	433.887	-0.132	-0.280
-144.531	-200.000	-0.001	-0.233
-143.516	800.000	0.019	-0.068
-142.502	-200.000	0.028	-0.221
-141.487	-126.378	-0.296	0.043
-140.472	-200.000	0.004	0.188
-139.458	38.396	0.175	-0.153
-138.443	80.719	0.121	-0.128
-137.429	-129.566	-0.158	-0.021
-136.414	-61.184	-0.604	-0.250
-135.399	-200.000	0.033	-0.256
-134.385	127.285	0.202	-0.252
-133.370	49.375	-0.084	-0.078
-132.356	132.072	-0.116	-0.146
-131.341	-139.433	0.263	0.028
-130.326	800.000	0.015	-0.058
-129.312	175.135	-0.160	0.227
-128.297	-200.000	0.046	-0.213
-127.283	-112.033	0.121	-0.024
-126.268	-200.000	-0.047	-0.212
-125.253	115.041	-0.108	-0.129
-124.239	400.822	0.117	0.241
