DTS Sentinel unit serial number:	SN413079Multiplexer serial number:	ORYXHardware model number:	OX4-SRSoftware version number:	ORYX F/W v4.00 Oryx Data Collector v3.7.2.0data status	okinstallation	princeton_trtdifferential loss correction	single-endedforward channel	channel 2reverse channel	N/Adate	2019/09/12time	19:35:49forward acquisition time	15.00reverse acquisition time	0.00gamma	496.2192k internal	0.2327k external	0.2327temperature offset calibration	1.0160default loss term (dB/km)	0.3790temperature slope calibration	1.0000multiplexer offset coefficient	1.0000multiplexer slope coefficient	1.0000fibre end	0.00T internal ref (°C)	32.19T ext. ref 1 (°C)	3.32T ext. ref 2 (°C)	26.69length (m)	temperature (°C)	Stokes	anti-Stokes-747.200	-73.816	-0.574	-0.211
-746.185	-180.531	0.759	0.016
-745.171	-42.967	-0.303	-0.155
-744.156	412.638	-0.185	0.396
-743.142	210.396	-0.359	0.568
-742.127	486.322	0.331	0.760
-741.112	-200.000	0.026	-0.164
-740.098	800.000	0.064	-0.182
-739.083	675.907	-0.156	-0.409
-738.069	216.469	-0.064	0.102
-737.054	308.331	-0.317	-0.597
-736.039	604.202	0.152	-0.382
-735.025	-33.138	0.592	0.331
-734.010	-62.146	0.513	-0.216
-732.996	27.720	0.287	-0.244
-731.981	800.000	0.161	-0.601
-730.966	168.842	0.315	0.453
-729.952	-200.000	-0.010	-0.223
-728.937	-124.093	-0.582	0.092
-727.923	-88.766	0.525	-0.157
-726.908	328.185	-0.214	0.413
-725.894	-200.000	-0.090	0.482
-724.879	800.000	-0.176	-0.614
-723.864	-9.866	-0.208	-0.139
-722.850	417.974	-0.089	-0.192
-721.835	-200.000	-0.040	-1.007
-720.821	-200.000	0.080	0.448
-719.806	-46.334	0.243	0.121
-718.791	150.967	0.153	0.209
-717.777	119.727	0.099	0.124
-716.762	800.000	-0.057	-0.196
-715.748	20.302	-0.673	0.548
-714.733	-200.000	0.004	0.332
-713.718	-200.000	0.000	-0.235
-712.704	42.983	0.413	-0.379
-711.689	-155.971	0.573	0.037
-710.675	-79.179	0.366	-0.125
-709.660	104.366	-0.271	0.321
-708.645	659.645	0.223	-0.578
-707.631	-200.000	-0.020	0.546
-706.616	206.740	0.180	0.283
-705.602	-37.777	-0.342	-0.183
-704.587	-76.900	-0.285	-0.100
-703.572	-8.391	-0.188	-0.127
-702.558	-198.208	-0.433	-0.003
-701.543	34.249	0.352	0.309
-700.529	-14.969	-0.627	0.404
-699.514	800.000	-0.150	-0.436
-698.499	457.650	-0.174	-0.388
-697.485	93.042	0.635	0.723
-696.470	43.177	-0.246	0.226
-695.456	-113.749	-0.228	0.045
-694.441	-17.310	0.057	-0.036
-693.426	-97.789	0.675	-0.176
-692.412	228.080	0.166	0.271
-691.397	146.906	-0.467	-0.632
-690.383	-101.332	-0.442	-0.109
-689.368	-168.223	-0.672	-0.026
-688.354	-200.000	0.054	-0.372
-687.339	-5.009	-0.206	0.142
-686.324	-48.150	0.159	0.077
-685.310	90.423	-0.305	0.343
-684.295	-41.898	0.349	-0.180
-683.281	-63.678	-0.416	-0.172
-682.266	800.000	0.149	0.542
-681.251	77.140	0.039	-0.042
-680.237	51.282	0.168	-0.160
-679.222	-200.000	0.063	-0.417
-678.208	-102.963	-0.825	0.197
-677.193	0.887	-0.412	-0.297
-676.178	-130.037	-0.352	-0.048
-675.164	185.743	0.240	0.359
-674.149	-58.838	-0.357	-0.155
-673.135	-200.000	-0.057	0.391
-672.120	289.605	-0.129	-0.234
-671.105	-130.712	-0.841	-0.114
-670.091	-161.776	-0.496	0.025
-669.076	90.955	-0.115	0.130
-668.062	769.615	0.170	-0.465
-667.047	-200.000	0.104	-0.655
-666.032	800.000	-0.159	-0.548
-665.018	-125.212	0.898	0.138
-664.003	800.000	0.053	-0.165
-662.989	113.465	-0.317	0.387
-661.974	-162.261	-0.131	-0.007
-660.959	18.344	0.178	0.143
-659.945	-45.729	0.413	0.205
-658.930	-85.450	0.535	0.168
-657.916	-79.426	0.598	-0.203
-656.901	-126.328	0.641	0.096
-655.886	490.523	-0.025	-0.058
-654.872	-152.834	-0.505	0.036
-653.857	14.163	0.118	-0.093
-652.843	800.000	0.026	0.076
-651.828	32.767	0.580	-0.505
-650.814	95.100	-0.211	0.241
-649.799	154.114	-0.105	0.145
-648.784	-164.604	-0.577	-0.026
-647.770	-12.483	0.322	0.211
-646.755	28.544	0.552	0.469
-645.741	800.000	0.090	0.292
-644.726	-75.057	-0.336	-0.121
-643.711	-77.976	-0.474	-0.164
-642.697	-36.030	0.158	-0.086
-641.682	-103.069	0.786	0.187
-640.668	439.125	-0.188	-0.411
-639.653	43.425	-0.575	0.527
-638.638	698.994	-0.082	0.217
-637.624	-38.481	0.723	-0.384
-636.609	800.000	-0.033	-0.108
-635.595	107.802	-0.081	0.097
-634.580	145.911	0.155	0.209
-633.565	800.000	0.190	0.575
-632.551	-103.764	-0.179	-0.042
-631.536	203.585	-0.326	0.506
-630.522	-67.243	-0.423	0.167
-629.507	7.264	-0.292	-0.218
-628.492	-200.000	-0.036	0.352
-627.478	28.294	-0.209	-0.178
-626.463	203.547	0.233	0.362
-625.449	-42.929	0.433	-0.220
-624.434	-97.510	-0.409	0.107
-623.419	597.805	0.364	0.905
-622.405	-200.000	-0.104	0.520
-621.390	268.970	0.354	-0.622
-620.376	800.000	-0.163	-0.653
-619.361	-200.000	-0.058	-0.482
-618.346	337.206	0.251	-0.490
-617.332	-63.174	-1.336	-0.553
-616.317	-100.529	-0.724	-0.180
-615.303	154.133	-0.307	-0.423
-614.288	-60.657	-0.401	0.171
-613.273	-200.000	0.020	-0.427
-612.259	-200.000	-0.003	0.423
-611.244	183.237	-0.319	0.472
-610.230	66.510	-0.444	-0.452
-609.215	800.000	-0.060	0.261
-608.201	11.936	-0.633	-0.488
-607.186	-6.101	0.579	-0.397
-606.171	222.473	-0.408	-0.659
-605.157	-148.259	-0.747	-0.062
-604.142	-200.000	-0.074	-0.562
-603.128	24.733	0.234	-0.194
-602.113	20.673	-0.230	-0.187
-601.098	-100.082	-0.596	0.149
-600.084	52.689	-0.137	-0.131
-599.069	800.000	-0.116	0.376
-598.055	29.357	-0.449	-0.383
-597.040	27.729	0.166	0.140
-596.025	70.305	-0.282	0.293
-595.011	-14.466	0.202	0.130
-593.996	-200.000	-0.129	0.709
-592.982	-200.000	-0.101	0.751
-591.967	-43.375	0.402	-0.204
-590.952	-35.851	0.851	0.462
-589.938	-200.000	0.109	-0.632
-588.923	167.594	-0.014	0.021
-587.909	-200.000	0.050	0.313
-586.894	-98.460	0.320	0.082
-585.879	-140.806	-0.604	0.062
-584.865	-72.333	-0.397	-0.147
-583.850	-140.757	0.203	-0.021
-582.836	-200.000	-0.034	-0.812
-581.821	74.012	-0.433	-0.456
-580.806	-47.798	0.873	-0.424
-579.792	537.585	-0.336	-0.801
-578.777	800.000	0.072	-0.286
-577.763	77.140	0.121	-0.129
-576.748	-10.249	0.048	-0.032
-575.733	800.000	-0.121	0.432
-574.719	-200.000	0.119	-0.939
-573.704	5.362	0.187	-0.138
-572.690	-200.000	0.153	1.129
-571.675	270.947	0.248	-0.438
-570.661	281.359	0.390	-0.700
-569.646	-200.000	-0.010	0.338
-568.631	-200.000	-0.108	0.541
-567.617	-42.099	-0.995	-0.510
-566.602	-114.153	1.080	-0.209
-565.588	-200.000	-0.005	0.153
-564.573	140.942	-0.343	-0.454
-563.558	355.889	0.398	0.793
-562.544	84.405	-0.266	0.291
-561.529	-200.000	0.106	-0.550
-560.515	436.929	-0.096	0.210
-559.500	35.526	-0.347	0.305
-558.485	-129.631	-0.638	-0.088
-557.471	251.309	0.538	0.917
-556.456	-200.000	0.001	-0.084
-555.442	2.116	0.494	-0.357
-554.427	-53.340	-0.917	0.421
-553.412	-111.368	1.270	0.259
-552.398	66.570	0.075	-0.076
-551.383	-73.385	-0.276	0.101
-550.369	-200.000	-0.137	0.733
-549.354	630.755	0.211	-0.534
-548.339	-64.328	0.216	0.088
-547.325	113.083	0.158	-0.192
-546.310	-172.446	1.117	-0.035
-545.296	45.287	-0.532	0.491
-544.281	-163.221	0.737	-0.035
-543.266	800.000	0.301	0.840
-542.252	48.835	-0.711	0.667
-541.237	277.787	-0.185	-0.330
-540.223	-135.302	-0.411	-0.049
-539.208	-200.000	0.093	0.823
-538.193	-200.000	0.050	-0.220
-537.179	109.060	0.612	-0.733
-536.164	133.625	-0.471	0.609
-535.150	36.203	0.330	-0.291
-534.135	-62.388	-0.254	-0.106
-533.121	50.366	0.289	-0.274
-532.106	-109.260	0.403	-0.085
-531.091	-200.000	0.053	-0.277
-530.077	152.007	-0.379	-0.517
-529.062	129.439	0.299	-0.382
-528.048	800.000	-0.315	1.025
-527.033	97.530	-0.312	0.359
-526.018	-159.131	0.759	-0.043
-525.004	-24.429	0.451	0.269
-523.989	233.099	0.105	-0.173
-522.975	116.124	0.539	0.660
-521.960	-171.819	-0.333	-0.011
-520.945	299.718	0.100	0.184
-519.931	319.122	-0.214	0.406
-518.916	16.165	-0.232	0.183
-517.902	74.967	0.163	0.171
-516.887	-85.068	0.528	0.165
-515.872	-120.120	-0.709	0.121
-514.858	42.147	0.059	-0.053
-513.843	-200.000	-0.070	0.702
-512.829	174.226	-0.215	0.310
-511.814	800.000	0.061	0.191
-510.799	113.398	0.488	-0.592
-509.785	-45.912	-0.572	0.282
-508.770	-35.427	-0.147	-0.080
-507.756	-200.000	-0.064	0.440
-506.741	97.934	-0.537	-0.617
-505.726	-200.000	0.005	-0.893
-504.712	154.106	0.088	-0.121
-503.697	800.000	0.147	0.563
-502.683	-94.989	0.776	0.210
-501.668	160.004	-0.241	-0.335
-500.653	-46.902	1.032	0.504
-499.639	13.571	-0.293	0.227
-498.624	800.000	-0.088	0.274
-497.610	-71.147	-0.336	0.126
-496.595	-200.000	-0.024	-0.330
-495.581	52.287	0.460	0.438
-494.566	-68.680	0.518	0.200
-493.551	316.019	-0.146	0.276
-492.537	-97.477	0.859	0.223
-491.522	155.278	-0.485	0.666
-490.508	-200.000	-0.455	-0.001
-489.493	800.000	-0.142	0.454
-488.478	40.238	0.319	0.286
-487.464	-25.762	-0.988	-0.581
-486.449	-200.000	-0.005	-0.355
-485.435	-32.891	-0.316	0.175
-484.420	800.000	-0.096	-0.336
-483.405	-148.447	0.316	-0.026
-482.391	-75.307	0.618	-0.220
-481.376	150.705	0.085	-0.116
-480.362	-46.181	0.376	0.185
-479.347	-200.000	-0.042	0.194
-478.332	-200.000	0.023	0.644
-477.318	-200.000	-0.034	-0.425
-476.303	90.213	0.286	0.319
-475.289	-132.947	-0.337	-0.043
-474.274	-86.390	-0.434	0.133
-473.259	-61.559	0.563	-0.236
-472.245	748.905	-0.226	-0.607
-471.230	800.000	-0.120	-0.349
-470.216	-53.042	-0.420	0.193
-469.201	-95.176	0.744	-0.200
-468.186	-137.730	-0.710	0.079
-467.172	800.000	0.110	-0.431
-466.157	1.892	0.252	-0.181
-465.143	262.501	-0.086	0.148
-464.128	180.765	0.236	0.346
-463.113	94.157	-0.184	0.208
-462.099	152.648	-0.393	-0.536
-461.084	-161.976	-0.543	-0.027
-460.070	-121.982	-0.498	0.082
-459.055	297.363	-0.393	-0.719
-458.040	146.628	-0.515	-0.690
-457.026	-76.227	-0.360	-0.126
-456.011	-50.751	-0.192	-0.090
-454.997	-200.000	-0.000	-0.665
-453.982	-11.446	-0.418	0.274
-452.968	800.000	-0.233	0.660
-451.953	23.480	-0.287	-0.235
-450.938	138.459	-0.156	-0.204
-449.924	630.185	-0.368	-0.927
-448.909	-200.000	0.063	0.416
-447.895	578.220	0.292	0.713
-446.880	292.360	-0.133	0.241
-445.865	-200.000	-0.008	0.088
-444.851	122.112	-0.492	0.612
-443.836	31.724	-0.254	-0.218
-442.822	0.942	-0.931	-0.665
-441.807	11.867	-1.024	0.784
-440.792	-75.539	-0.314	0.111
-439.778	207.173	0.355	-0.552
-438.763	-74.875	-0.427	-0.152
-437.749	-86.139	-0.722	0.222
-436.734	-62.694	0.470	0.194
-435.719	-41.261	0.488	0.251
-434.705	226.093	-0.203	-0.328
-433.690	-200.000	-0.081	0.805
-432.676	-163.896	0.828	-0.038
-431.661	-58.143	-0.415	-0.180
-430.646	2.924	0.301	-0.218
-429.632	-171.795	0.478	0.016
-428.617	-73.118	0.103	0.038
-427.603	-200.000	-0.009	0.474
-426.588	-7.525	-0.316	0.213
-425.573	-67.863	0.613	0.239
-424.559	-96.419	-0.224	0.059
-423.544	6.574	-0.464	-0.344
-422.530	18.352	-0.530	-0.421
-421.515	99.735	0.770	0.888
-420.500	-47.944	0.276	0.133
-419.486	151.746	0.368	0.500
-418.471	-79.876	0.176	-0.059
-417.457	-200.000	0.012	-0.300
-416.442	-12.219	0.336	0.219
-415.428	-23.560	0.576	0.344
-414.413	19.932	-0.644	-0.517
-413.398	-142.353	-0.771	-0.076
-412.384	-37.075	0.746	0.398
-411.369	120.054	-0.106	0.130
-410.355	-200.000	0.071	0.503
-409.340	139.206	0.344	-0.451
-408.325	653.719	-0.102	-0.261
-407.311	212.541	0.159	0.250
-406.296	-91.734	0.436	-0.123
-405.282	-200.000	-0.130	0.957
-404.267	-154.967	-0.088	-0.006
-403.252	-105.888	0.081	0.018
-402.238	-200.000	0.095	0.928
-401.223	405.993	0.255	-0.536
-400.209	-99.566	-0.268	0.067
-399.194	1.706	0.538	0.386
-398.179	-56.567	0.654	0.288
-397.165	729.339	-0.095	-0.253
-396.150	-162.432	-0.190	0.009
-395.136	227.365	0.277	-0.448
-394.121	625.349	0.073	0.184
-393.106	-33.847	0.906	0.496
-392.092	-200.000	-0.023	0.195
-391.077	-146.434	-0.682	-0.059
-390.063	674.168	0.310	0.799
-389.048	-200.000	0.008	-0.428
-388.033	-111.257	0.623	0.127
-387.019	-200.000	0.021	-0.158
-386.004	-164.841	0.164	-0.007
-384.990	-100.282	-0.634	0.156
-383.975	-131.547	1.011	0.132
-382.960	-53.895	-0.832	-0.377
-381.946	-123.872	-0.471	-0.074
-380.931	2.203	-0.171	-0.123
-379.917	-130.819	-0.352	-0.047
-378.902	-38.933	-0.141	0.074
-377.888	-174.541	-0.113	-0.003
-376.873	0.010	-0.296	0.210
-375.858	194.843	0.018	-0.027
-374.844	800.000	-0.261	0.847
-373.829	-143.539	-0.697	-0.066
-372.815	-42.062	0.698	-0.355
-371.800	-162.120	-0.852	-0.043
-370.785	800.000	-0.150	-0.500
-369.771	10.641	0.237	-0.180
-368.756	115.774	-0.593	0.721
-367.742	-5.527	-0.521	-0.355
-366.727	800.000	-0.052	-0.215
-365.712	120.357	-0.596	-0.735
-364.698	281.272	-0.424	-0.754
-363.683	-45.657	-0.095	0.047
-362.669	204.260	0.054	-0.083
-361.654	-119.140	-0.676	0.117
-360.639	-200.000	0.266	-0.000
-359.625	248.749	-0.631	1.061
-358.610	-22.930	-0.282	0.169
-357.596	-18.035	0.236	0.147
-356.581	-200.000	-0.087	1.071
-355.566	512.640	-0.206	0.478
-354.552	-200.000	-0.003	-0.434
-353.537	607.971	0.271	0.671
-352.523	101.861	0.085	-0.099
-351.508	349.604	-0.284	-0.556
-350.493	318.927	0.285	0.537
-349.479	327.833	-0.224	-0.427
-348.464	-62.362	0.366	-0.151
-347.450	800.000	-0.092	0.295
-346.435	-107.361	0.704	0.154
-345.420	103.289	0.492	-0.573
-344.406	205.167	-0.093	-0.143
-343.391	-90.684	0.344	0.099
-342.377	-38.194	-0.476	-0.251
-341.362	574.587	0.070	0.169
-340.348	-87.477	-1.060	-0.319
-339.333	151.578	-0.403	-0.544
-338.318	-62.538	0.018	-0.007
-337.304	-83.838	1.029	-0.325
-336.289	134.502	-0.390	-0.503
-335.275	-130.656	0.413	0.055
-334.260	-200.000	0.050	0.535
-333.245	-141.642	-0.445	0.044
-332.231	75.501	0.149	0.156
-331.216	634.075	0.153	0.386
-330.202	-84.610	0.286	-0.089
-329.187	800.000	0.309	-0.901
-328.172	-200.000	0.065	0.647
-327.158	-148.817	0.992	0.080
-326.143	-200.000	0.064	-0.627
-325.129	800.000	0.181	-0.721
-324.114	70.666	-0.751	-0.771
-323.099	-4.754	-0.295	-0.202
-322.085	117.611	-0.154	0.188
-321.070	9.164	0.449	-0.337
-320.056	114.540	0.410	-0.495
-319.041	-200.000	0.084	0.649
-318.026	-75.487	-0.498	-0.176
-317.012	-42.611	0.484	0.244
-315.997	-200.000	-0.025	0.712
-314.983	-200.000	0.018	0.786
-313.968	-124.402	0.312	-0.048
-312.953	-89.329	0.194	-0.057
-311.939	-117.958	0.865	-0.154
-310.924	-200.000	0.021	0.696
-309.910	-119.089	0.094	-0.016
-308.895	385.877	-0.137	0.281
-307.880	-44.962	-0.160	0.079
-306.866	-200.000	0.054	-0.269
-305.851	800.000	-0.315	-1.268
-304.837	800.000	0.157	-0.460
-303.822	-200.000	0.059	1.501
-302.807	800.000	-0.130	-0.410
-301.793	-98.846	0.430	-0.108
-300.778	53.029	-0.716	-0.679
-299.764	-61.394	0.252	-0.105
-298.749	-32.223	0.731	0.404
-297.735	210.755	-0.120	-0.187
-296.720	-102.739	-0.553	0.131
-295.705	26.168	0.596	0.493
-294.691	-172.275	-0.421	-0.013
-293.676	407.266	0.431	-0.903
-292.662	6.705	-1.222	-0.901
-291.647	435.169	0.398	-0.858
-290.632	207.010	-0.174	0.269
-289.618	59.347	-0.742	-0.724
-288.603	236.887	-0.684	-1.123
-287.589	44.155	-0.447	-0.406
-286.574	-64.463	0.384	-0.154
-285.559	127.402	0.340	0.428
-284.545	77.900	-0.360	0.380
-283.530	281.868	0.280	0.497
-282.516	800.000	-0.208	-0.767
-281.501	-79.972	0.694	-0.231
-280.486	800.000	0.103	-0.299
-279.472	800.000	0.010	-0.029
-278.457	-39.237	-0.806	-0.419
-277.443	102.440	-0.289	-0.334
-276.428	29.449	0.554	0.466
-275.413	-35.541	-0.690	0.371
-274.399	-87.590	0.943	-0.282
-273.384	-70.867	0.342	-0.128
-272.370	242.203	0.084	-0.140
-271.355	-200.000	-0.079	0.444
-270.340	-200.000	0.003	1.069
-269.326	-140.857	0.405	-0.041
-268.311	6.696	0.525	-0.387
-267.297	-127.166	-0.941	-0.136
-266.282	336.430	-0.485	-0.931
-265.267	-200.000	0.154	-0.695
-264.253	98.312	0.560	0.638
-263.238	-200.000	-0.111	-0.496
-262.224	-99.045	-0.098	0.025
-261.209	284.445	0.172	0.306
-260.195	42.708	-0.326	-0.294
-259.180	126.353	0.169	0.212
-258.165	-100.243	0.348	0.085
-257.151	27.125	0.447	-0.371
-256.136	800.000	-0.373	-1.034
-255.122	117.340	0.251	0.306
-254.107	-200.000	0.037	-0.958
-253.092	118.381	0.465	-0.567
-252.078	-160.946	1.217	-0.063
-251.063	-3.847	-0.411	-0.282
-250.049	-172.862	0.113	0.003
-249.034	-200.000	-0.028	-0.433
-248.019	800.000	0.174	0.508
-247.005	-200.000	-0.015	0.297
-245.990	-102.632	-0.956	-0.226
-244.976	-154.960	0.363	-0.024
-243.961	-200.000	-0.212	1.057
-242.946	-77.257	0.445	-0.153
-241.932	-50.478	-0.744	-0.347
-240.917	362.761	0.255	0.506
-239.903	-200.000	0.005	-0.341
-238.888	400.064	-0.292	0.604
-237.873	173.816	0.158	-0.225
-236.859	505.973	-0.240	0.550
-235.844	-200.000	0.216	1.189
-234.830	440.165	0.040	0.087
-233.815	-200.000	-0.248	0.001
-232.800	85.787	0.172	0.187
-231.786	152.952	0.730	-0.986
-230.771	-144.231	-0.568	-0.052
-229.757	118.606	-0.402	0.490
-228.742	120.022	-0.162	0.198
-227.727	35.067	-0.585	-0.506
-226.713	-121.013	-0.515	-0.085
-225.698	800.000	0.098	0.286
-224.684	800.000	0.196	-0.566
-223.669	-200.000	-0.097	0.932
-222.655	-137.327	1.062	-0.119
-221.640	-77.619	0.415	0.142
-220.625	-200.000	0.005	0.753
-219.611	-26.030	-0.383	-0.223
-218.596	224.031	0.116	0.185
-217.582	251.692	0.483	-0.812
-216.567	-200.000	0.014	-0.132
-215.552	221.833	0.413	-0.655
-214.538	19.428	-0.371	0.295
-213.523	-128.154	-0.448	0.063
-212.509	241.993	0.046	-0.077
-211.494	15.383	0.094	0.073
-210.479	800.000	-0.053	-0.174
-209.465	307.216	-0.289	-0.531
-208.450	3.365	-0.285	0.205
-207.436	-75.616	0.469	-0.165
-206.421	58.619	-0.406	-0.393
-205.406	2.223	0.512	-0.366
-204.392	-200.000	-0.079	-0.735
-203.377	3.086	0.239	-0.172
-202.363	-69.070	-0.505	-0.192
-201.348	-84.000	0.242	-0.076
-200.333	156.855	-0.391	-0.534
-199.319	-17.635	0.349	0.216
-198.304	-200.000	0.015	0.536
-197.290	-54.854	1.549	-0.690
-196.275	243.894	-0.463	0.767
-195.260	554.625	0.245	0.582
-194.246	-49.102	-0.284	-0.134
-193.231	-3.320	-0.128	-0.088
-192.217	25.838	-0.378	0.311
-191.202	-200.000	-0.040	0.822
-190.187	-200.000	0.058	0.272
-189.173	149.159	-0.100	-0.134
-188.158	-105.536	-0.294	-0.066
-187.144	38.702	-0.319	-0.280
-186.129	54.990	0.470	0.448
-185.114	-66.792	0.069	0.027
-184.100	548.687	-0.054	-0.127
-183.085	-200.000	-0.060	0.450
-182.071	74.601	0.191	-0.199
-181.056	-171.846	0.518	0.017
-180.042	22.331	0.482	-0.389
-179.027	-200.000	-0.069	-0.427
-178.012	-96.880	0.550	0.142
-176.998	-38.926	-0.354	0.184
-175.983	-111.143	0.230	0.046
-174.969	51.831	0.783	-0.735
-173.954	-200.000	-0.156	-0.725
-172.939	-113.461	0.808	0.156
-171.925	52.806	-0.459	-0.433
-170.910	-133.972	0.480	0.059
-169.896	106.006	-0.229	0.267
-168.881	-200.000	0.025	0.589
-167.866	-6.463	-0.351	-0.236
-166.852	-198.288	0.627	0.004
-165.837	-3.315	0.607	0.417
-164.823	-200.000	-0.011	0.049
-163.808	-200.000	-0.102	0.459
-162.793	-200.000	0.049	0.315
-161.779	44.810	0.442	0.401
-160.764	800.000	0.138	-0.448
-159.750	72.466	0.680	0.698
-158.735	-54.748	-0.193	0.086
-157.720	-172.212	0.626	-0.020
-156.706	36.909	-0.447	-0.389
-155.691	800.000	-0.058	-0.188
-154.677	-81.321	0.302	-0.098
-153.662	631.376	-0.134	0.334
-152.647	-200.000	-0.018	0.308
-151.633	-24.629	0.524	-0.307
-150.618	800.000	-0.254	0.708
-149.604	-1.866	1.192	0.826
-148.589	-82.771	-0.567	-0.181
-147.574	-34.722	-0.176	0.095
-146.560	800.000	-0.119	0.421
-145.545	-45.751	0.492	-0.240
-144.531	-165.944	0.697	-0.029
-143.516	-140.686	0.636	0.065
-142.502	-200.000	0.050	-0.220
-141.487	-58.298	-0.284	-0.122
-140.472	-200.000	0.094	-0.816
-139.458	-2.119	0.486	-0.336
-138.443	-173.436	-0.777	-0.023
-137.429	-22.472	0.367	0.219
-136.414	-110.156	-0.413	-0.085
-135.399	800.000	-0.192	-0.597
-134.385	-52.794	-0.510	0.232
-133.370	346.049	-0.070	0.136
-132.356	800.000	0.048	-0.200
-131.341	-61.486	-0.383	0.158
-130.326	-200.000	-0.060	-0.629
-129.312	-200.000	-0.040	0.249
-128.297	-94.566	-0.794	0.213
-127.283	-73.747	0.807	-0.289
-126.268	-18.983	-0.366	-0.224
-125.253	-200.000	-0.047	0.377
-124.239	-32.975	-0.311	0.170
-123.224	800.000	0.182	-0.661
-122.210	-35.398	-0.201	-0.107
