DTS Sentinel unit serial number:	SN413079Multiplexer serial number:	ORYXHardware model number:	OX4-SRSoftware version number:	ORYX F/W v4.00 Oryx Data Collector v3.7.2.0data status	okinstallation	princeton_trtdifferential loss correction	single-endedforward channel	channel 2reverse channel	N/Adate	2019/09/12time	14:21:11forward acquisition time	60.00reverse acquisition time	0.00gamma	496.2192k internal	0.2302k external	0.2302temperature offset calibration	1.0087default loss term (dB/km)	0.3790temperature slope calibration	1.0000multiplexer offset coefficient	1.0000multiplexer slope coefficient	1.0000fibre end	0.00T internal ref (°C)	40.17T ext. ref 1 (°C)	2.24T ext. ref 2 (°C)	34.81length (m)	temperature (°C)	Stokes	anti-Stokes-747.200	-154.357	0.220	-0.015
-746.185	-153.459	0.237	-0.017
-745.171	86.626	0.202	0.228
-744.156	444.599	0.131	0.294
-743.142	-200.000	0.005	-0.168
-742.127	-104.997	-0.122	-0.028
-741.112	-200.000	0.036	-0.246
-740.098	96.722	-0.169	-0.198
-739.083	18.661	-0.184	-0.150
-738.069	701.826	0.137	0.369
-737.054	295.706	-0.111	-0.207
-736.039	92.407	-0.050	-0.057
-735.025	-200.000	-0.029	0.329
-734.010	321.936	0.123	-0.238
-732.996	-66.926	-0.198	-0.080
-731.981	800.000	0.032	-0.103
-730.966	9.892	0.096	0.074
-729.952	-94.963	0.050	0.014
-728.937	-141.689	-0.208	-0.021
-727.923	175.716	-0.056	-0.083
-726.908	45.302	0.138	-0.130
-725.894	-200.000	-0.032	-0.191
-724.879	800.000	0.060	0.257
-723.864	-200.000	0.051	-0.401
-722.850	201.191	0.265	-0.415
-721.835	-127.434	-0.135	-0.020
-720.821	800.000	-0.042	-0.185
-719.806	-200.000	-0.050	-0.393
-718.791	-16.342	-0.201	-0.130
-717.777	-200.000	-0.042	-0.213
-716.762	346.889	0.037	0.075
-715.748	800.000	-0.080	-0.300
-714.733	44.746	0.101	0.095
-713.718	131.530	-0.141	-0.185
-712.704	762.095	-0.064	0.178
-711.689	800.000	0.002	-0.009
-710.675	-112.991	-0.135	-0.027
-709.660	29.009	-0.052	-0.045
-708.645	-48.470	0.237	-0.116
-707.631	800.000	0.029	0.104
-706.616	800.000	0.029	0.102
-705.602	-77.309	-0.244	0.086
-704.587	-6.236	0.234	0.163
-703.572	-135.931	0.165	0.020
-702.558	-200.000	0.017	0.271
-701.543	136.955	-0.180	0.239
-700.529	75.661	-0.187	-0.201
-699.514	19.591	0.265	-0.217
-698.499	-129.131	0.461	-0.066
-697.485	-28.779	-0.051	0.030
-696.470	44.624	-0.119	0.111
-695.456	-119.313	-0.137	-0.024
-694.441	-200.000	0.026	0.122
-693.426	151.490	0.047	0.066
-692.412	71.561	-0.077	-0.081
-691.397	-131.458	0.200	-0.027
-690.383	-176.122	-0.325	0.009
-689.368	800.000	-0.085	-0.258
-688.354	-200.000	0.000	-0.363
-687.339	-200.000	-0.029	-0.171
-686.324	-200.000	0.005	0.267
-685.310	125.526	0.137	-0.175
-684.295	745.676	0.004	0.010
-683.281	161.363	0.196	-0.279
-682.266	-66.902	-0.307	-0.123
-681.251	135.867	-0.114	-0.152
-680.237	-113.104	-0.040	-0.008
-679.222	259.721	-0.066	0.116
-678.208	-200.000	-0.007	-0.131
-677.193	-200.000	-0.044	0.260
-676.178	-200.000	0.021	-0.273
-675.164	393.359	-0.020	0.041
-674.149	-51.783	-0.302	0.143
-673.135	-200.000	0.025	0.117
-672.120	-25.874	-0.105	-0.063
-671.105	44.035	-0.180	-0.168
-670.091	492.179	-0.113	0.263
-669.076	247.757	-0.071	-0.122
-668.062	-22.355	0.090	0.055
-667.047	-25.393	-0.029	-0.018
-666.032	32.409	0.321	0.281
-665.018	-13.697	0.323	0.212
-664.003	-34.859	0.312	0.173
-662.989	-200.000	-0.007	-0.155
-661.974	800.000	0.066	-0.221
-660.959	694.427	-0.025	-0.066
-659.945	270.749	-0.026	0.047
-658.930	412.541	0.061	-0.133
-657.916	-200.000	0.001	0.265
-656.901	-200.000	0.031	0.233
-655.886	-200.000	-0.052	-0.264
-654.872	439.138	-0.074	-0.164
-653.857	186.164	0.051	-0.077
-652.843	-200.000	0.076	0.380
-651.828	-200.000	0.010	0.058
-650.814	-25.727	0.433	0.259
-649.799	-141.513	-0.089	0.009
-648.784	111.146	0.139	-0.170
-647.770	-101.000	-0.168	0.042
-646.755	-200.000	-0.039	-0.267
-645.741	800.000	-0.076	-0.281
-644.726	-200.000	-0.027	-0.183
-643.711	800.000	0.117	0.348
-642.697	-107.698	0.251	0.056
-641.682	444.339	0.106	0.235
-640.668	42.596	-0.078	-0.072
-639.653	800.000	-0.038	-0.133
-638.638	369.357	0.070	-0.144
-637.624	-32.608	0.203	-0.115
-636.609	800.000	0.055	-0.216
-635.595	-200.000	0.051	-0.260
-634.580	-96.480	0.375	-0.101
-633.565	-200.000	0.009	-0.305
-632.551	88.049	-0.177	0.200
-631.536	-200.000	-0.017	-0.350
-630.522	-185.528	0.299	0.005
-629.507	145.421	0.045	-0.061
-628.492	-36.109	-0.071	-0.039
-627.478	185.980	-0.122	-0.184
-626.463	161.547	-0.197	-0.279
-625.449	-174.454	-0.253	0.007
-624.434	-74.843	0.200	0.073
-623.419	-87.000	0.213	0.066
-622.405	-128.569	0.223	0.032
-621.390	512.555	-0.041	0.098
-620.376	800.000	0.093	-0.285
-619.361	52.080	-0.300	0.290
-618.346	-200.000	0.022	-0.140
-617.332	111.441	-0.100	0.122
-616.317	-35.874	-0.137	0.075
-615.303	356.226	-0.215	-0.435
-614.288	-72.826	-0.097	-0.036
-613.273	9.537	-0.174	0.134
-612.259	-35.209	-0.167	-0.092
-611.244	-166.903	0.373	0.016
-610.230	800.000	0.034	-0.134
-609.215	225.684	-0.111	0.183
-608.201	32.936	0.288	-0.253
-607.186	-94.704	0.209	-0.058
-606.171	-137.018	0.115	-0.013
-605.157	-69.943	0.091	-0.035
-604.142	800.000	0.028	0.116
-603.128	-51.315	-0.276	-0.131
-602.113	-13.799	-0.171	0.112
-601.098	35.772	-0.151	-0.135
-600.084	41.733	-0.113	-0.104
-599.069	110.638	0.169	0.206
-598.055	331.079	-0.047	-0.093
-597.040	368.437	-0.100	0.206
-596.025	-95.128	-0.339	0.093
-595.011	-200.000	0.000	-0.129
-593.996	730.000	-0.021	-0.057
-592.982	-75.587	0.144	-0.052
-591.967	-123.394	-0.113	-0.018
-590.952	88.844	0.064	0.072
-589.938	379.752	-0.022	-0.045
-588.923	800.000	0.104	0.293
-587.909	79.529	0.107	-0.117
-586.894	-65.125	-0.071	-0.029
-585.879	220.117	-0.075	-0.121
-584.865	-113.809	0.382	0.075
-583.850	153.432	-0.192	0.266
-582.836	-102.555	-0.120	-0.029
-581.821	-200.000	0.084	0.381
-580.806	533.781	0.071	0.169
-579.792	-113.766	-0.111	-0.022
-578.777	-101.417	0.321	-0.079
-577.763	677.900	0.123	0.323
-576.748	-101.861	0.103	-0.025
-575.733	-171.432	-0.206	-0.007
-574.719	-61.359	-0.249	-0.106
-573.704	800.000	-0.058	-0.179
-572.690	-200.000	0.030	0.160
-571.675	73.635	-0.218	0.231
-570.661	10.466	0.217	0.168
-569.646	-200.000	0.012	0.149
-568.631	-116.797	0.163	-0.030
-567.617	-200.000	0.001	-0.122
-566.602	104.461	0.108	-0.129
-565.588	800.000	0.048	-0.186
-564.573	800.000	-0.077	-0.315
-563.558	-118.783	-0.047	-0.008
-562.544	405.902	0.160	0.342
-561.529	400.885	-0.048	-0.102
-560.515	23.154	-0.105	-0.087
-559.500	-65.850	0.195	-0.079
-558.485	112.387	-0.282	0.345
-557.471	-25.810	0.159	-0.095
-556.456	-200.000	0.022	-0.378
-555.442	-140.826	-0.165	-0.017
-554.427	-34.315	-0.254	-0.141
-553.412	-115.002	-0.199	0.038
-552.398	335.076	0.279	-0.547
-551.383	31.250	0.308	-0.268
-550.369	100.452	0.045	0.053
-549.354	263.001	0.095	-0.167
-548.339	-200.000	0.025	0.154
-547.325	-80.742	-0.242	-0.081
-546.310	389.868	-0.103	0.216
-545.296	62.703	-0.131	-0.133
-544.281	301.843	-0.145	-0.270
-543.266	-50.034	0.242	-0.116
-542.252	52.950	0.129	0.125
-541.237	16.475	-0.143	-0.114
-540.223	175.915	0.033	-0.049
-539.208	-101.807	0.232	0.057
-538.193	-92.650	-0.195	-0.055
-537.179	60.491	-0.148	0.148
-536.164	-88.232	0.351	-0.106
-535.150	-91.396	-0.355	0.102
-534.135	-86.946	0.154	0.048
-533.121	-79.745	-0.124	-0.042
-532.106	45.320	-0.226	-0.211
-531.091	-63.582	0.190	-0.079
-530.077	-200.000	0.001	-0.110
-529.062	32.273	0.233	-0.203
-528.048	-117.242	0.249	-0.046
-527.033	-156.831	0.220	0.014
-526.018	-182.124	-0.177	0.003
-525.004	211.272	-0.308	-0.490
-523.989	42.560	-0.158	-0.146
-522.975	-49.529	-0.043	0.021
-521.960	-200.000	-0.020	0.178
-520.945	-18.240	-0.235	0.149
-519.931	48.520	-0.336	-0.318
-518.916	-173.371	-0.329	-0.010
-517.902	-200.000	-0.063	0.303
-516.887	74.264	0.165	0.175
-515.872	98.131	-0.140	0.162
-514.858	-193.257	-0.051	0.000
-513.843	-2.284	0.149	0.106
-512.829	-47.010	0.244	-0.120
-511.814	800.000	-0.065	0.195
-510.799	63.191	-0.246	0.249
-509.785	-200.000	-0.014	0.103
-508.770	426.975	0.068	0.148
-507.756	-81.018	0.185	0.062
-506.741	-200.000	-0.075	0.397
-505.726	144.707	-0.092	0.124
-504.712	87.416	0.309	0.345
-503.697	-85.075	0.220	0.070
-502.683	-200.000	-0.038	-0.171
-501.668	-147.994	0.420	0.035
-500.653	-200.000	-0.056	0.476
-499.639	639.737	0.081	-0.208
-498.624	-200.000	0.030	-0.177
-497.610	-41.356	0.128	0.066
-496.595	-200.000	-0.010	-0.465
-495.581	-200.000	0.031	-0.263
-494.566	235.916	0.193	0.322
-493.551	-200.000	-0.023	0.130
-492.537	-103.814	0.233	-0.055
-491.522	-163.544	-0.086	0.004
-490.508	800.000	0.058	-0.191
-489.493	-200.000	-0.047	-0.276
-488.478	235.586	0.121	-0.203
-487.464	-2.907	0.156	0.110
-486.449	800.000	0.025	-0.094
-485.435	-154.850	-0.184	-0.012
-484.420	-6.192	0.070	-0.048
-483.405	-36.910	0.143	0.078
-482.391	0.007	0.149	-0.107
-481.376	328.759	0.043	0.084
-480.362	-16.211	-0.114	0.073
-479.347	-200.000	-0.006	0.135
-478.332	-78.078	0.205	-0.071
-477.318	-143.163	0.135	0.013
-476.303	23.648	0.127	0.105
-475.289	-137.859	-0.144	0.016
-474.274	-91.268	0.178	-0.051
-473.259	45.257	0.321	-0.299
-472.245	589.214	0.058	0.144
-471.230	151.068	0.102	-0.139
-470.216	70.034	0.087	0.091
-469.201	-200.000	-0.049	0.246
-468.186	800.000	0.036	-0.155
-467.172	21.922	0.093	0.076
-466.157	83.859	-0.384	-0.423
-465.143	-126.092	-0.287	0.043
-464.128	-136.043	0.173	0.021
-463.113	506.792	-0.091	-0.213
-462.099	619.171	-0.120	-0.303
-461.084	102.335	-0.104	0.122
-460.070	-105.996	0.261	-0.059
-459.055	-90.549	-0.158	-0.046
-458.040	-168.548	-0.274	-0.011
-457.026	800.000	-0.020	-0.061
-456.011	-35.583	-0.184	-0.100
-454.997	-116.515	0.090	-0.017
-453.982	-200.000	0.001	0.271
-452.968	150.309	0.117	-0.160
-451.953	45.396	-0.072	0.067
-450.938	-189.418	0.171	0.002
-449.924	-141.335	0.277	0.028
-448.909	346.270	-0.136	0.269
-447.895	-151.010	-0.092	-0.007
-446.880	214.564	0.061	-0.097
-445.865	-200.000	-0.010	-0.083
-444.851	479.042	-0.191	-0.436
-443.836	-19.211	0.040	-0.025
-442.822	28.831	0.205	0.175
-441.807	377.591	0.116	0.238
-440.792	800.000	-0.074	-0.309
-439.778	-46.189	0.248	-0.123
-438.763	-18.016	0.296	0.187
-437.749	-154.084	-0.234	-0.016
-436.734	-61.718	0.123	0.052
-435.719	-158.743	-0.131	-0.008
-434.705	202.755	-0.050	-0.077
-433.690	-31.951	-0.105	-0.059
-432.676	126.138	-0.252	0.321
-431.661	-171.274	0.087	-0.003
-430.646	-158.441	0.261	0.015
-429.632	-200.000	0.075	0.529
-428.617	233.134	-0.050	0.083
-427.603	-200.000	-0.026	0.228
-426.588	800.000	-0.053	0.191
-425.573	464.065	0.147	0.331
-424.559	-200.000	0.023	-0.341
-423.544	160.234	0.089	0.125
-422.530	-99.683	-0.404	-0.102
-421.515	77.979	0.073	-0.078
-420.500	-116.309	-0.317	-0.059
-419.486	207.414	0.066	-0.104
-418.471	-90.881	0.101	-0.029
-417.457	34.080	0.254	0.223
-416.442	203.601	-0.236	-0.368
-415.428	-25.780	-0.257	-0.152
-414.413	156.864	0.174	-0.242
-413.398	-62.552	-0.194	-0.081
-412.384	800.000	-0.031	-0.133
-411.369	-200.000	-0.014	0.200
-410.355	-71.721	0.205	0.077
-409.340	42.106	-0.231	-0.211
-408.325	24.978	0.084	0.070
-407.311	-105.746	0.159	0.036
-406.296	-24.254	-0.138	0.083
-405.282	-200.000	0.018	0.082
-404.267	70.558	-0.060	0.063
-403.252	-20.273	-0.016	0.010
-402.238	-26.502	-0.074	-0.044
-401.223	567.252	0.055	0.135
-400.209	-99.907	-0.128	-0.032
-399.194	-155.348	-0.169	0.011
-398.179	-68.367	-0.109	0.042
-397.165	288.878	-0.226	-0.412
-396.150	94.347	0.238	0.272
-395.136	385.508	0.110	0.228
-394.121	270.372	0.072	0.127
-393.106	-43.529	0.205	-0.104
-392.092	-56.065	0.331	-0.148
-391.077	-74.011	0.154	0.056
-390.063	178.464	0.084	0.123
-389.048	-119.608	-0.050	0.009
-388.033	-180.869	-0.165	0.003
-387.019	-15.447	-0.192	-0.123
-386.004	-159.849	0.311	0.017
-384.990	24.039	0.164	0.136
-383.975	136.645	-0.265	0.347
-382.960	21.171	0.143	0.116
-381.946	-3.803	0.271	0.189
-380.931	-51.303	0.212	0.100
-379.917	-52.470	0.172	0.080
-378.902	-31.159	-0.142	0.080
-377.888	-164.593	0.624	0.028
-376.873	-51.804	0.106	0.050
-375.858	-46.542	0.093	-0.046
-374.844	585.147	-0.145	-0.357
-373.829	413.024	0.042	0.089
-372.815	-200.000	-0.002	0.404
-371.800	800.000	0.053	-0.203
-370.785	702.662	0.148	-0.392
-369.771	39.017	0.142	-0.127
-368.756	-85.514	-0.227	-0.071
-367.742	-96.374	-0.106	0.028
-366.727	257.588	0.172	0.298
-365.712	261.704	-0.049	-0.085
-364.698	-174.309	-0.429	-0.012
-363.683	-134.944	-0.298	-0.036
-362.669	-93.023	-0.306	0.086
-361.654	-200.000	0.006	-0.304
-360.639	-148.410	-0.310	0.026
-359.625	2.972	-0.116	0.084
-358.610	-200.000	-0.028	0.162
-357.596	-82.171	0.312	0.102
-356.581	-46.055	-0.223	0.110
-355.566	-185.836	0.282	-0.004
-354.552	800.000	0.164	-0.454
-353.537	214.741	0.135	-0.215
-352.523	38.951	-0.225	0.201
-351.508	800.000	-0.055	0.197
-350.493	-200.000	-0.037	-0.219
-349.479	-86.876	-0.278	0.085
-348.464	-200.000	-0.053	0.233
-347.450	800.000	0.119	0.409
-346.435	-33.689	0.087	-0.048
-345.420	-51.375	0.063	-0.029
-344.406	-87.197	0.330	-0.101
-343.391	-83.677	-0.098	0.031
-342.377	314.854	0.067	0.126
-341.362	-177.128	0.152	0.004
-340.348	532.378	-0.050	0.120
-339.333	-200.000	0.017	-0.276
-338.318	-200.000	-0.031	0.198
-337.304	-134.675	-0.074	0.009
-336.289	-8.415	-0.148	0.100
-335.275	63.644	-0.210	-0.211
-334.260	-200.000	0.032	0.298
-333.245	-200.000	-0.019	-0.525
-332.231	-134.089	-0.217	0.027
-331.216	64.261	-0.170	-0.172
-330.202	-73.027	0.129	0.048
-329.187	53.863	-0.150	-0.145
-328.172	-154.692	-0.229	-0.015
-327.158	-32.798	-0.125	-0.070
-326.143	-6.648	0.084	0.057
-325.129	800.000	-0.021	0.081
-324.114	512.172	-0.076	-0.178
-323.099	677.430	0.089	0.231
-322.085	-17.051	-0.211	0.134
-321.070	-120.064	-0.330	0.057
-320.056	-200.000	0.050	-0.266
-319.041	-200.000	0.104	0.000
-318.026	-15.979	-0.295	0.188
-317.012	-115.082	0.298	0.057
-315.997	384.432	-0.117	-0.241
-314.983	-80.903	-0.106	-0.035
-313.968	-197.196	-0.188	0.001
-312.953	293.724	-0.199	0.364
-311.939	-36.816	0.145	0.078
-310.924	53.437	-0.129	-0.124
-309.910	-109.931	-0.341	-0.072
-308.895	-130.631	0.225	-0.030
-307.880	-26.958	0.499	0.292
-306.866	-98.734	-0.429	-0.109
-305.851	-43.455	0.094	-0.048
-304.837	719.448	-0.127	-0.338
-303.822	785.700	-0.084	0.230
-302.807	-200.000	-0.015	-0.106
-301.793	-35.384	-0.080	-0.043
-300.778	69.248	0.170	0.175
-299.764	-43.147	-0.307	-0.156
-298.749	40.187	-0.080	0.072
-297.735	508.781	-0.117	-0.273
-296.720	-149.121	0.081	0.006
-295.705	-85.613	0.119	0.037
-294.691	-200.000	0.108	0.580
-293.676	472.884	0.115	-0.260
-292.662	19.040	0.068	-0.055
-291.647	-84.005	0.260	0.083
-290.632	-119.653	0.265	-0.046
-289.618	182.692	0.105	0.155
-288.603	-10.751	-0.396	0.262
-287.589	-200.000	0.012	-0.243
-286.574	-30.000	-0.323	-0.184
-285.559	209.299	0.039	-0.061
-284.545	-22.649	0.143	-0.087
-283.530	-200.000	-0.023	-0.310
-282.516	-84.717	-0.306	-0.097
-281.501	38.741	0.014	0.012
-280.486	800.000	0.051	-0.143
-279.472	105.109	-0.298	0.352
-278.457	103.554	0.040	-0.047
-277.443	-7.454	0.099	-0.067
-276.428	800.000	0.056	-0.180
-275.413	70.620	0.054	-0.056
-274.399	-15.937	0.022	-0.014
-273.384	-112.907	-0.267	-0.053
-272.370	-102.899	-0.175	0.042
-271.355	800.000	-0.069	0.202
-270.340	-200.000	-0.017	-0.091
-269.326	255.235	0.047	-0.081
-268.311	-200.000	-0.067	0.299
-267.297	-200.000	-0.243	0.000
-266.282	428.887	0.209	0.452
-265.267	-76.556	0.220	-0.077
-264.253	32.511	0.292	0.252
-263.238	86.284	0.223	0.245
-262.224	-176.001	-0.384	0.010
-261.209	464.656	-0.096	0.215
-260.195	-200.000	0.002	0.244
-259.180	351.809	-0.093	-0.184
-258.165	-111.562	-0.163	0.033
-257.151	-129.049	-0.338	-0.047
-256.136	150.520	0.013	0.018
-255.122	76.412	-0.172	0.183
-254.107	-200.000	0.005	-0.158
-253.092	38.921	0.235	0.210
-252.078	800.000	0.000	0.001
-251.063	-32.213	0.199	-0.111
-250.049	-42.196	0.259	0.132
-249.034	800.000	0.149	0.430
-248.019	-66.754	-0.141	-0.056
-247.005	-200.000	0.004	0.026
-245.990	89.685	-0.093	-0.103
-244.976	-144.784	0.123	0.011
-243.961	-164.498	0.181	-0.008
-242.946	800.000	0.056	-0.210
-241.932	-42.120	-0.255	-0.131
-240.917	-89.859	0.057	-0.017
-239.903	206.954	0.092	0.144
-238.888	-32.311	-0.270	0.150
-237.873	-33.088	0.038	-0.021
-236.859	584.161	-0.082	0.201
-235.844	800.000	-0.032	0.125
-234.830	-21.030	-0.615	0.376
-233.815	122.505	0.093	-0.116
-232.800	137.724	-0.087	-0.114
-231.786	20.908	0.221	-0.179
-230.771	-200.000	0.006	-0.162
-229.757	58.865	-0.137	0.135
-228.742	-155.968	0.288	0.018
-227.727	-99.072	-0.112	0.028
-226.713	289.560	-0.173	0.313
-225.698	-200.000	0.014	-0.196
-224.684	-139.240	-0.073	-0.008
-223.669	-104.018	-0.072	-0.017
-222.655	-125.291	0.149	-0.023
-221.640	-60.028	0.113	0.048
-220.625	4.260	-0.191	0.140
-219.611	-200.000	-0.038	0.283
-218.596	-100.287	-0.075	-0.019
-217.582	77.951	0.023	0.024
-216.567	800.000	-0.106	0.342
-215.552	-102.322	0.104	-0.025
-214.538	-131.431	-0.230	-0.030
-213.523	9.850	0.207	-0.157
-212.509	-50.873	0.083	-0.039
-211.494	-111.891	-0.293	-0.059
-210.479	-48.149	0.248	0.119
-209.465	-18.944	-0.183	0.114
-208.450	-200.000	0.023	-0.147
-207.436	61.516	-0.137	0.136
-206.421	55.529	0.115	0.111
-205.406	313.470	-0.113	-0.213
-204.392	467.374	0.030	-0.067
-203.377	-50.834	-0.237	-0.111
-202.363	-131.680	0.118	-0.015
-201.348	786.299	-0.113	0.309
-200.333	481.474	0.035	0.080
-199.319	-78.564	0.065	-0.022
-198.304	254.369	0.171	0.291
-197.290	800.000	-0.060	0.190
-196.275	771.580	0.067	0.182
-195.260	-176.008	-0.144	0.004
-194.246	229.022	0.120	0.195
-193.231	-164.871	0.105	0.005
-192.217	358.401	-0.131	-0.261
-191.202	654.111	0.106	-0.272
-190.187	472.560	-0.149	-0.336
-189.173	-200.000	0.002	-0.242
-188.158	800.000	0.028	-0.104
-187.144	44.030	-0.202	-0.185
-186.129	252.595	-0.100	-0.170
-185.114	-88.002	0.246	-0.074
-184.100	20.327	0.181	0.146
-183.085	-200.000	0.012	0.138
-182.071	61.284	0.343	-0.340
-181.056	287.205	0.110	0.199
-180.042	-68.764	0.050	-0.019
-179.027	83.888	0.232	0.252
-178.012	-55.238	0.226	-0.101
-176.998	762.829	0.065	-0.175
-175.983	800.000	0.085	0.242
-174.969	1.742	-0.331	-0.238
-173.954	-25.901	-0.190	0.112
-172.939	740.073	-0.225	0.603
-171.925	-84.232	0.009	-0.003
-170.910	305.197	0.056	-0.104
-169.896	-200.000	0.016	-0.140
-168.881	41.417	-0.095	-0.086
-167.866	-200.000	-0.010	-0.148
-166.852	195.400	0.130	0.196
-165.837	566.313	-0.058	-0.141
-164.823	-137.299	-0.169	0.019
-163.808	-82.670	0.360	0.116
-162.793	-200.000	-0.004	0.142
-161.779	-187.538	0.079	0.001
-160.764	-200.000	0.036	0.218
-159.750	-137.501	0.061	-0.007
-158.735	86.706	-0.074	-0.081
-157.720	40.716	0.216	-0.194
-156.706	140.152	0.035	-0.046
-155.691	95.684	0.215	0.244
-154.677	145.166	0.165	-0.220
-153.662	-200.000	-0.026	-0.139
-152.647	-200.000	0.004	0.223
-151.633	186.544	0.066	-0.098
-150.618	23.858	-0.180	0.147
-149.604	80.619	-0.160	-0.172
-148.589	-51.630	-0.120	-0.056
-147.574	-200.000	-0.009	0.128
-146.560	800.000	-0.019	0.077
-145.545	215.186	0.088	-0.138
-144.531	-11.779	0.373	-0.244
-143.516	364.121	-0.075	0.151
-142.502	-9.638	-0.251	0.167
-141.487	151.634	0.184	-0.249
-140.472	352.759	-0.074	0.145
-139.458	-200.000	0.052	0.276
-138.443	800.000	-0.012	0.047
-137.429	77.742	-0.091	-0.096
-136.414	22.232	-0.088	-0.071
-135.399	441.385	-0.033	0.071
-134.385	-200.000	-0.031	0.208
-133.370	800.000	-0.111	-0.431
-132.356	-32.225	-0.168	0.094
-131.341	655.273	-0.083	0.212
-130.326	-200.000	0.023	0.168
-129.312	96.136	0.360	-0.409
-128.297	-68.507	-0.353	0.136
-127.283	225.902	0.109	0.176
-126.268	-149.535	0.082	0.006
-125.253	-200.000	0.016	0.151
-124.239	83.434	-0.211	-0.228
-123.224	800.000	0.068	0.235
-122.210	-101.079	0.346	-0.084
