DTS Sentinel unit serial number:	SN413079Multiplexer serial number:	ORYXHardware model number:	OX4-SRSoftware version number:	ORYX F/W v4.00 Oryx Data Collector v3.7.2.0data status	okinstallation	princeton_trtdifferential loss correction	single-endedforward channel	channel 2reverse channel	N/Adate	2019/09/12time	10:57:11forward acquisition time	60.00reverse acquisition time	0.00gamma	496.2192k internal	0.2306k external	0.2306temperature offset calibration	1.0067default loss term (dB/km)	0.3790temperature slope calibration	1.0000multiplexer offset coefficient	1.0000multiplexer slope coefficient	1.0000fibre end	0.00T internal ref (°C)	38.30T ext. ref 1 (°C)	1.95T ext. ref 2 (°C)	36.45length (m)	temperature (°C)	Stokes	anti-Stokes-747.200	94.130	0.294	-0.340
-746.185	-200.000	0.010	0.321
-745.171	32.303	0.198	0.174
-744.156	-4.140	0.099	0.069
-743.142	51.661	0.369	0.357
-742.127	-200.000	-0.061	0.341
-741.112	84.470	-0.104	0.116
-740.098	57.942	-0.237	0.236
-739.083	-200.000	-0.014	0.130
-738.069	629.997	-0.120	0.308
-737.054	-46.000	-0.222	-0.111
-736.039	224.650	-0.212	0.349
-735.025	-93.777	-0.417	0.117
-734.010	17.162	0.258	-0.208
-732.996	800.000	-0.016	-0.069
-731.981	-105.960	-0.419	0.096
-730.966	6.292	0.107	0.081
-729.952	-98.695	-0.345	-0.090
-728.937	385.057	-0.037	-0.077
-727.923	96.225	-0.213	-0.248
-726.908	-200.000	-0.004	0.121
-725.894	163.099	-0.118	0.168
-724.879	415.262	-0.072	0.156
-723.864	-77.491	0.234	0.083
-722.850	-120.790	0.192	-0.033
-721.835	-96.579	0.215	0.058
-720.821	-200.000	-0.010	-0.166
-719.806	-88.341	-0.091	-0.028
-718.791	136.561	-0.139	-0.184
-717.777	356.305	0.044	-0.089
-716.762	494.288	0.077	0.180
-715.748	-31.628	-0.238	0.136
-714.733	-200.000	0.043	-0.384
-713.718	405.302	-0.129	-0.277
-712.704	-62.946	-0.326	0.137
-711.689	-200.000	0.010	-0.149
-710.675	307.578	-0.181	-0.343
-709.660	636.336	0.013	0.034
-708.645	-37.573	-0.093	0.051
-707.631	-29.516	0.181	0.105
-706.616	-18.800	-0.121	0.077
-705.602	796.921	0.025	-0.071
-704.587	-68.291	-0.158	-0.062
-703.572	-132.686	-0.314	0.041
-702.558	227.820	-0.071	0.118
-701.543	-118.007	-0.439	-0.080
-700.529	-200.000	0.003	0.137
-699.514	-139.823	0.347	-0.037
-698.499	17.176	0.190	0.153
-697.485	-107.043	0.257	0.058
-696.470	353.517	-0.045	0.091
-695.456	129.313	-0.108	0.139
-694.441	800.000	-0.074	-0.213
-693.426	17.298	-0.121	0.097
-692.412	-86.049	-0.184	0.058
-691.397	-200.000	-0.017	-0.079
-690.383	-121.529	-0.315	0.053
-689.368	341.076	-0.088	0.175
-688.354	-83.933	-0.127	0.041
-687.339	800.000	0.066	0.219
-686.324	-200.000	0.000	-0.247
-685.310	800.000	0.055	-0.181
-684.295	-200.000	0.010	0.175
-683.281	25.052	-0.125	-0.105
-682.266	-85.248	-0.142	-0.045
-681.251	108.402	0.127	0.154
-680.237	800.000	-0.023	-0.066
-679.222	-29.502	0.316	0.183
-678.208	-200.000	-0.033	-0.148
-677.193	-200.000	0.001	0.007
-676.178	114.216	-0.207	0.256
-675.164	-148.831	0.216	-0.018
-674.149	332.875	0.170	0.333
-673.135	-149.006	-0.101	0.008
-672.120	-200.000	0.010	-0.227
-671.105	-62.953	0.124	-0.052
-670.091	800.000	-0.043	0.135
-669.076	25.511	0.114	-0.096
-668.062	-7.908	-0.192	-0.131
-667.047	-98.284	0.075	0.020
-666.032	-76.077	-0.373	0.134
-665.018	-200.000	0.019	0.223
-664.003	-200.000	0.009	0.076
-662.989	67.304	-0.148	-0.153
-661.974	104.346	-0.338	0.404
-660.959	800.000	0.071	-0.263
-659.945	18.241	-0.056	-0.045
-658.930	-61.586	0.091	-0.039
-657.916	3.595	-0.115	0.085
-656.901	-75.813	-0.205	0.074
-655.886	800.000	0.065	0.261
-654.872	800.000	-0.011	0.038
-653.857	75.513	0.154	0.164
-652.843	24.697	0.084	0.071
-651.828	129.129	-0.108	-0.139
-650.814	-200.000	-0.071	0.335
-649.799	1.379	-0.145	0.106
-648.784	107.801	0.099	0.119
-647.770	176.922	0.287	-0.423
-646.755	-0.254	-0.073	-0.052
-645.741	-200.000	0.039	0.188
-644.726	800.000	-0.081	0.262
-643.711	-86.437	0.245	-0.076
-642.697	280.634	-0.110	0.199
-641.682	66.331	-0.093	0.096
-640.668	466.733	-0.071	-0.162
-639.653	800.000	0.093	0.268
-638.638	-100.616	0.173	-0.043
-637.624	-46.231	-0.212	0.106
-636.609	-200.000	-0.061	-0.355
-635.595	331.645	0.108	0.212
-634.580	-34.622	-0.365	0.202
-633.565	658.817	0.046	-0.121
-632.551	-82.056	-0.022	0.007
-631.536	-69.445	-0.075	-0.029
-630.522	-9.650	-0.158	0.107
-629.507	800.000	0.027	-0.093
-628.492	270.838	0.124	0.221
-627.478	246.392	-0.074	0.126
-626.463	-200.000	0.000	0.136
-625.449	212.052	0.092	0.146
-624.434	4.538	-0.277	-0.206
-623.419	-200.000	0.061	-0.426
-622.405	59.422	0.071	-0.071
-621.390	408.315	0.009	-0.019
-620.376	411.979	0.116	-0.249
-619.361	611.571	0.031	-0.079
-618.346	-180.114	0.030	0.001
-617.332	38.577	-0.122	-0.110
-616.317	-6.954	-0.149	-0.103
-615.303	800.000	-0.047	-0.153
-614.288	800.000	-0.041	-0.138
-613.273	60.994	-0.045	-0.045
-612.259	327.650	-0.168	0.326
-611.244	-74.435	-0.574	-0.210
-610.230	536.852	-0.133	0.319
-609.215	-151.817	-0.042	-0.003
-608.201	80.948	-0.102	-0.112
-607.186	800.000	-0.049	0.150
-606.171	-119.520	-0.211	-0.037
-605.157	374.594	-0.080	-0.165
-604.142	-157.313	0.146	0.009
-603.128	-41.915	-0.299	0.155
-602.113	754.636	-0.039	0.108
-601.098	-200.000	0.001	-0.082
-600.084	-85.670	0.036	-0.011
-599.069	34.456	0.172	-0.152
-598.055	-89.239	-0.094	0.028
-597.040	184.187	-0.087	-0.130
-596.025	295.362	0.197	-0.365
-595.011	65.396	-0.162	-0.165
-593.996	484.924	-0.053	0.123
-592.982	249.161	-0.088	-0.151
-591.967	-22.149	0.076	0.046
-590.952	-67.366	0.236	0.094
-589.938	-6.731	0.247	-0.170
-588.923	800.000	0.087	-0.273
-587.909	-200.000	0.041	0.186
-586.894	-200.000	0.003	-0.118
-585.879	683.480	-0.050	0.133
-584.865	320.104	-0.223	-0.427
-583.850	14.270	-0.090	0.071
-582.836	201.434	-0.037	-0.057
-581.821	-77.937	-0.155	0.054
-580.806	800.000	0.060	-0.207
-579.792	800.000	-0.032	0.112
-578.777	-103.748	-0.071	-0.017
-577.763	160.935	-0.200	-0.282
-576.748	-200.000	-0.043	0.211
-575.733	-43.415	0.205	-0.105
-574.719	48.776	0.115	-0.109
-573.704	89.702	-0.188	-0.212
-572.690	548.520	0.167	-0.403
-571.675	94.173	0.081	-0.093
-570.661	-200.000	0.044	0.432
-569.646	-200.000	0.083	0.377
-568.631	182.689	0.126	-0.187
-567.617	49.159	-0.412	-0.391
-566.602	-15.130	0.302	0.195
-565.588	-147.742	-0.200	0.017
-564.573	-18.312	0.057	-0.036
-563.558	-79.775	0.421	0.143
-562.544	-92.831	0.203	-0.057
-561.529	-122.741	-0.109	-0.018
-560.515	210.934	0.111	0.176
-559.500	-200.000	-0.004	-0.201
-558.485	-77.016	0.017	0.006
-557.471	-100.500	0.308	-0.077
-556.456	800.000	0.069	0.298
-555.442	-200.000	0.023	-0.235
-554.427	-200.000	0.018	0.499
-553.412	104.355	0.036	-0.043
-552.398	-21.710	-0.184	-0.113
-551.383	82.605	-0.123	0.135
-550.369	-63.001	-0.126	0.052
-549.354	323.370	0.018	0.034
-548.339	-200.000	-0.086	-0.388
-547.325	-200.000	-0.057	-0.380
-546.310	118.718	-0.196	-0.245
-545.296	27.165	0.191	0.162
-544.281	6.410	0.097	-0.073
-543.266	800.000	0.061	-0.213
-542.252	-39.456	-0.172	0.091
-541.237	800.000	0.078	0.295
-540.223	-200.000	0.009	0.251
-539.208	720.905	0.036	0.095
-538.193	564.808	0.106	-0.260
-537.179	249.852	0.047	-0.081
-536.164	94.013	0.163	0.186
-535.150	-200.000	-0.018	0.154
-534.135	-13.286	0.218	0.143
-533.121	67.170	-0.095	-0.098
-532.106	-200.000	0.051	0.282
-531.091	183.285	-0.137	-0.204
-530.077	98.488	0.103	0.119
-529.062	326.470	0.093	-0.180
-528.048	166.177	-0.065	0.093
-527.033	-53.908	0.262	-0.120
-526.018	-99.106	-0.252	0.064
-525.004	-134.780	-0.204	0.025
-523.989	11.607	-0.050	-0.039
-522.975	-113.885	0.264	0.052
-521.960	-99.601	-0.129	-0.033
-520.945	800.000	-0.148	-0.414
-519.931	422.852	0.144	0.312
-518.916	8.505	0.221	-0.168
-517.902	563.627	-0.102	0.249
-516.887	506.292	0.101	0.235
-515.872	-12.122	-0.235	0.155
-514.858	-200.000	0.029	0.367
-513.843	800.000	-0.058	0.208
-512.829	-200.000	-0.002	0.076
-511.814	800.000	-0.036	0.125
-510.799	-130.350	0.257	0.035
-509.785	81.283	0.197	-0.215
-508.770	354.583	-0.034	0.068
-507.756	-83.387	0.575	-0.186
-506.741	-77.394	-0.232	-0.081
-505.726	-1.966	-0.199	-0.141
-504.712	38.206	-0.046	0.041
-503.697	-200.000	-0.002	-0.244
-502.683	239.418	-0.180	0.302
-501.668	56.622	0.132	-0.130
-500.653	-4.610	-0.091	0.063
-499.639	-200.000	0.020	-0.174
-498.624	-200.000	-0.055	0.307
-497.610	29.161	0.168	0.144
-496.595	485.029	-0.080	0.182
-495.581	-200.000	-0.003	-0.074
-494.566	-200.000	-0.002	0.368
-493.551	121.340	0.129	0.162
-492.537	-28.200	0.176	0.103
-491.522	108.460	-0.198	0.238
-490.508	-83.740	-0.244	0.079
-489.493	-200.000	-0.030	-0.318
-488.478	47.393	-0.194	-0.182
-487.464	-200.000	-0.022	0.140
-486.449	-172.617	-0.087	-0.003
-485.435	176.427	-0.176	0.257
-484.420	-66.040	0.213	-0.086
-483.405	97.213	-0.077	-0.089
-482.391	800.000	-0.016	-0.055
-481.376	105.397	-0.156	-0.186
-480.362	55.588	-0.087	-0.085
-479.347	20.253	0.198	-0.161
-478.332	208.444	0.060	0.094
-477.318	-155.375	0.125	-0.008
-476.303	-39.532	0.074	0.039
-475.289	-71.355	-0.219	-0.083
-474.274	-200.000	-0.020	-0.100
-473.259	800.000	-0.102	-0.425
-472.245	800.000	0.143	0.412
-471.230	759.560	-0.059	0.162
-470.216	-21.616	-0.322	-0.197
-469.201	96.678	0.080	-0.093
-468.186	-44.788	0.057	-0.029
-467.172	161.430	0.201	-0.282
-466.157	-200.000	-0.024	0.142
-465.143	-10.462	0.241	0.161
-464.128	-200.000	-0.057	-0.430
-463.113	-200.000	0.012	0.085
-462.099	-188.785	-0.282	0.003
-461.084	-200.000	-0.010	-0.129
-460.070	525.761	0.042	-0.099
-459.055	187.270	-0.278	-0.416
-458.040	549.489	0.075	-0.182
-457.026	800.000	0.068	0.224
-456.011	800.000	-0.058	-0.244
-454.997	280.984	0.083	0.149
-453.982	-92.120	0.263	-0.075
-452.968	503.515	0.122	-0.285
-451.953	-157.758	0.227	-0.014
-450.938	-59.269	0.158	0.068
-449.924	-3.093	0.134	-0.094
-448.909	-153.960	0.210	0.014
-447.895	-52.709	0.124	-0.058
-446.880	503.978	-0.040	0.093
-445.865	-89.729	0.408	0.120
-444.851	139.874	0.205	-0.271
-443.836	-138.945	-0.247	-0.027
-442.822	-30.947	-0.329	0.187
-441.807	-200.000	-0.058	-0.316
-440.792	-64.276	-0.137	-0.056
-439.778	54.506	0.129	0.125
-438.763	-200.000	-0.019	-0.162
-437.749	-123.167	-0.157	-0.025
-436.734	-200.000	0.012	0.225
-435.719	-200.000	0.024	0.162
-434.705	-200.000	0.046	-0.241
-433.690	-70.220	-0.039	0.015
-432.676	797.423	0.019	0.052
-431.661	-140.039	-0.310	-0.033
-430.646	-200.000	0.015	0.174
-429.632	203.741	0.118	-0.184
-428.617	-52.490	-0.221	0.103
-427.603	800.000	0.064	0.217
-426.588	-200.000	-0.006	0.053
-425.573	-149.039	0.277	-0.022
-424.559	73.518	0.185	0.194
-423.544	78.390	0.310	0.333
-422.530	254.584	-0.121	0.208
-421.515	-71.134	0.153	0.058
-420.500	800.000	-0.011	0.035
-419.486	437.993	0.091	-0.200
-418.471	-46.646	-0.233	0.114
-417.457	-77.996	-0.168	-0.058
-416.442	201.357	-0.188	0.291
-415.428	341.913	-0.029	-0.056
-414.413	-200.000	-0.041	-0.181
-413.398	189.286	-0.149	-0.224
-412.384	800.000	-0.078	-0.262
-411.369	441.058	0.117	0.257
-410.355	-200.000	-0.089	0.000
-409.340	149.709	-0.271	-0.368
-408.325	-171.515	-0.485	-0.016
-407.311	-58.422	-0.194	-0.085
-406.296	34.162	-0.084	0.073
-405.282	83.367	-0.224	-0.245
-404.267	-200.000	0.015	0.239
-403.252	-200.000	0.057	-0.290
-402.238	-99.431	-0.313	0.079
-401.223	800.000	-0.048	-0.209
-400.209	-200.000	0.027	0.196
-399.194	19.564	-0.122	0.099
-398.179	-90.648	0.245	0.071
-397.165	800.000	0.088	0.252
-396.150	572.959	-0.101	-0.246
-395.136	-97.358	-0.092	0.024
-394.121	-74.707	-0.351	0.127
-393.106	-200.000	-0.005	0.192
-392.092	27.245	0.187	-0.158
-391.077	800.000	0.040	-0.174
-390.063	-142.448	-0.313	-0.031
-389.048	800.000	-0.074	-0.290
-388.033	169.547	-0.075	-0.108
-387.019	-152.543	0.102	0.007
-386.004	397.769	0.061	-0.128
-384.990	-200.000	-0.013	-0.290
-383.975	-99.466	-0.050	-0.013
-382.960	257.980	0.050	-0.086
-381.946	362.166	0.087	-0.175
-380.931	90.980	0.108	0.121
-379.917	23.850	-0.085	-0.070
-378.902	-200.000	0.039	-0.195
-377.888	-133.888	0.302	0.038
-376.873	19.281	0.115	0.093
-375.858	-200.000	-0.001	0.042
-374.844	61.704	-0.242	0.242
-373.829	251.774	-0.089	0.152
-372.815	-51.966	-0.071	0.033
-371.800	-37.156	-0.106	0.057
-370.785	1.437	0.276	-0.199
-369.771	145.837	0.096	0.130
-368.756	-200.000	-0.056	-0.300
-367.742	208.109	0.096	-0.150
-366.727	-106.431	-0.355	-0.079
-365.712	113.381	-0.356	0.434
-364.698	-200.000	-0.013	0.115
-363.683	-155.130	-0.213	-0.014
-362.669	468.406	-0.006	0.014
-361.654	-20.265	0.131	0.081
-360.639	-36.654	-0.165	-0.089
-359.625	292.307	0.071	-0.130
-358.610	-200.000	-0.008	0.121
-357.596	-130.346	0.213	0.029
-356.581	36.037	-0.110	-0.097
-355.566	-200.000	-0.003	0.036
-354.552	800.000	0.059	-0.200
-353.537	-200.000	0.012	0.232
-352.523	152.204	-0.086	0.118
-351.508	-200.000	0.006	-0.310
-350.493	-141.992	0.047	-0.005
-349.479	-84.815	0.057	0.018
-348.464	284.069	0.057	0.102
-347.450	163.830	-0.134	-0.189
-346.435	49.844	-0.122	0.115
-345.420	113.749	-0.108	-0.132
-344.406	37.156	-0.183	0.162
-343.391	-200.000	0.007	-0.364
-342.377	800.000	0.053	0.193
-341.362	-113.250	0.330	0.065
-340.348	402.295	0.178	-0.374
-339.333	-200.000	-0.007	-0.250
-338.318	-147.019	-0.215	0.018
-337.304	-158.747	-0.160	0.009
-336.289	-173.574	-0.194	0.006
-335.275	800.000	-0.101	0.336
-334.260	-4.320	0.278	0.193
-333.245	-73.059	0.375	0.138
-332.231	-146.618	0.344	-0.030
-331.216	-82.002	-0.147	-0.048
-330.202	-69.062	-0.270	-0.104
-329.187	-14.731	-0.156	0.100
-328.172	-200.000	0.017	0.380
-327.158	800.000	-0.025	0.096
-326.143	248.315	0.047	-0.080
-325.129	800.000	-0.094	0.277
-324.114	-64.423	-0.333	0.136
-323.099	-34.348	-0.217	0.119
-322.085	800.000	0.026	0.099
-321.070	-1.112	0.102	-0.072
-320.056	-168.886	0.243	-0.009
-319.041	800.000	-0.049	-0.149
-318.026	30.946	-0.283	0.242
-317.012	5.721	-0.384	0.284
-315.997	-91.892	-0.188	0.053
-314.983	-58.894	0.468	0.202
-313.968	403.937	0.088	-0.186
-312.953	-200.000	-0.012	-0.255
-311.939	-121.807	-0.296	-0.049
-310.924	-149.662	0.184	-0.015
-309.910	107.905	0.153	-0.182
-308.895	-116.940	0.328	-0.060
-307.880	-76.551	0.423	0.148
-306.866	-99.994	-0.339	0.085
-305.851	-120.176	0.200	0.034
-304.837	-23.966	-0.153	0.091
-303.822	41.936	0.278	0.252
-302.807	-156.038	0.253	0.016
-301.793	53.953	0.092	-0.088
-300.778	-17.785	0.067	-0.042
-299.764	42.128	0.174	0.158
-298.749	323.441	-0.139	-0.265
-297.735	398.380	0.149	-0.311
-296.720	482.406	0.155	-0.353
-295.705	-104.244	-0.198	0.046
-294.691	7.269	-0.039	0.029
-293.676	187.369	-0.116	0.173
-292.662	243.647	-0.129	-0.217
-291.647	50.156	0.211	-0.199
-290.632	-24.958	-0.068	-0.040
-289.618	800.000	-0.064	-0.242
-288.603	108.221	-0.054	0.065
-287.589	-67.099	-0.316	-0.125
-286.574	436.923	0.084	-0.183
-285.559	226.506	0.074	-0.121
-284.545	-200.000	0.041	0.235
-283.530	800.000	0.092	-0.351
-282.516	-65.545	0.385	0.154
-281.501	11.545	0.325	0.249
-280.486	665.009	0.111	0.285
-279.472	-107.553	-0.381	-0.083
-278.457	145.975	-0.231	-0.309
-277.443	-131.211	0.444	0.059
-276.428	251.870	-0.107	-0.182
-275.413	-13.614	-0.256	-0.165
-274.399	77.874	0.139	-0.148
-273.384	23.060	0.089	-0.073
-272.370	-88.521	-0.097	0.029
-271.355	-200.000	-0.026	-0.118
-270.340	62.340	0.065	0.065
-269.326	274.850	0.176	0.311
-268.311	-111.016	0.133	-0.027
-267.297	-196.542	0.075	0.001
-266.282	-175.051	-0.112	-0.003
-265.267	43.440	-0.225	-0.205
-264.253	800.000	0.041	-0.142
-263.238	-200.000	-0.003	-0.131
-262.224	-78.960	0.299	0.102
-261.209	-103.543	-0.211	0.049
-260.195	800.000	-0.071	0.200
-259.180	-17.352	0.226	0.142
-258.165	180.965	0.044	-0.065
-257.151	-47.723	0.085	-0.041
-256.136	361.612	0.035	-0.070
-255.122	-17.439	0.107	0.067
-254.107	-200.000	-0.006	0.292
-253.092	-200.000	-0.004	0.171
-252.078	117.838	-0.201	0.247
-251.063	108.015	0.218	-0.259
-250.049	336.393	-0.085	0.165
-249.034	248.840	-0.252	0.427
-248.019	197.190	-0.094	0.143
-247.005	800.000	-0.137	0.427
-245.990	-97.980	0.218	-0.056
-244.976	24.281	0.342	0.282
-243.961	-200.000	0.042	0.270
-242.946	496.849	0.030	0.069
-241.932	-119.506	0.141	0.024
-240.917	-12.913	0.206	-0.134
-239.903	-200.000	-0.048	-0.300
-238.888	800.000	-0.023	0.064
-237.873	-160.808	0.205	0.011
-236.859	24.095	-0.253	-0.208
-235.844	800.000	0.079	0.276
-234.830	800.000	0.076	-0.257
-233.815	-31.868	-0.070	-0.039
-232.800	800.000	0.060	-0.178
-231.786	-157.563	0.440	0.026
-230.771	-200.000	0.002	0.062
-229.757	15.286	0.108	-0.084
-228.742	800.000	-0.063	0.185
-227.727	397.523	0.027	0.056
-226.713	-51.254	-0.193	0.090
-225.698	-181.064	0.201	-0.004
-224.684	-137.947	0.335	-0.037
-223.669	-117.893	-0.079	0.014
-222.655	-200.000	-0.134	0.668
-221.640	-112.818	0.307	-0.061
-220.625	480.806	0.093	0.210
-219.611	130.214	-0.190	-0.242
-218.596	-29.509	0.170	0.097
-217.582	217.584	0.023	0.036
-216.567	-58.944	0.257	-0.111
-215.552	-200.000	-0.032	0.230
-214.538	-200.000	-0.043	-0.323
-213.523	-200.000	0.072	-0.455
-212.509	-200.000	0.018	-0.131
-211.494	-37.493	-0.041	-0.022
-210.479	-1.337	0.263	-0.185
-209.465	-94.892	-0.211	0.057
-208.450	-23.394	-0.227	0.136
-207.436	-18.309	-0.395	0.246
-206.421	19.105	-0.278	0.222
-205.406	800.000	0.083	0.249
-204.392	38.872	-0.150	-0.134
-203.377	800.000	-0.032	0.117
-202.363	-36.214	0.087	0.047
-201.348	-111.293	0.136	0.028
-200.333	-176.115	-0.241	-0.006
-199.319	176.316	-0.014	0.020
-198.304	-133.824	0.263	-0.033
-197.290	-124.059	-0.265	0.041
-196.275	-200.000	-0.016	0.132
-195.260	333.166	0.188	0.362
-194.246	-6.910	-0.272	-0.184
-193.231	408.397	0.034	-0.071
-192.217	800.000	-0.025	0.092
-191.202	367.774	-0.169	-0.340
-190.187	-10.815	-0.129	-0.085
-189.173	146.498	0.132	0.177
-188.158	-200.000	-0.049	0.391
-187.144	-2.693	-0.215	-0.149
-186.129	10.496	0.199	-0.151
-185.114	-8.373	-0.179	0.120
-184.100	-200.000	0.003	0.258
-183.085	-107.760	-0.124	0.027
-182.071	771.671	0.040	0.108
-181.056	-31.670	-0.213	0.119
-180.042	698.790	-0.073	0.190
-179.027	-69.244	-0.124	-0.047
-178.012	127.969	0.247	-0.313
-176.998	-153.666	0.117	0.008
-175.983	62.991	0.126	0.126
-174.969	-11.829	0.144	-0.094
-173.954	-81.184	-0.334	-0.110
-172.939	48.197	0.263	-0.245
-171.925	77.121	0.218	-0.231
-170.910	-155.994	0.031	0.002
-169.896	-148.553	-0.309	0.025
-168.881	-138.461	0.215	-0.024
-167.866	-30.117	-0.145	0.082
-166.852	-200.000	0.030	0.189
-165.837	-200.000	0.022	0.322
-164.823	61.620	0.263	0.261
-163.808	-107.664	-0.077	0.017
-162.793	130.080	0.257	-0.328
-161.779	-168.817	0.141	-0.005
-160.764	-146.677	0.374	0.032
-159.750	458.613	0.051	0.112
-158.735	151.612	-0.127	0.172
-157.720	-30.772	0.265	0.149
-156.706	800.000	-0.092	-0.293
-155.691	-200.000	-0.003	0.330
-154.677	116.315	-0.082	0.100
-153.662	-0.740	0.282	-0.199
-152.647	-162.242	-0.155	0.008
-151.633	-200.000	0.013	-0.283
-150.618	-82.538	0.132	0.043
-149.604	-57.616	-0.233	-0.101
-148.589	-12.369	0.471	0.306
-147.574	-200.000	0.006	0.124
-146.560	117.830	0.255	0.312
-145.545	-200.000	0.029	0.174
-144.531	-129.482	0.222	0.031
-143.516	21.060	-0.349	0.282
-142.502	64.805	-0.020	0.020
-141.487	-105.670	0.110	-0.025
-140.472	-67.307	0.243	-0.095
-139.458	709.311	-0.094	0.246
-138.443	11.876	0.167	-0.127
-137.429	-200.000	0.033	-0.207
-136.414	121.570	0.137	-0.170
-135.399	70.424	0.066	-0.068
-134.385	-75.005	0.260	-0.092
-133.370	-200.000	-0.003	0.110
-132.356	-200.000	-0.007	-0.196
-131.341	800.000	0.130	0.382
-130.326	-15.674	0.258	0.163
-129.312	195.539	0.236	-0.356
-128.297	-49.129	0.101	0.048
-127.283	444.977	-0.096	-0.210
-126.268	194.957	0.100	-0.151
-125.253	-21.384	-0.155	-0.094
-124.239	-55.621	-0.166	-0.074
-123.224	-146.163	0.274	0.024
-122.210	304.830	0.214	0.394
-121.195	-101.937	0.323	0.077
