DTS Sentinel unit serial number:	SN413079Multiplexer serial number:	ORYXHardware model number:	OX4-SRSoftware version number:	ORYX F/W v4.00 Oryx Data Collector v3.7.2.0data status	okinstallation	princeton_trtdifferential loss correction	single-endedforward channel	channel 2reverse channel	N/Adate	2019/09/16time	04:47:34forward acquisition time	60.00reverse acquisition time	0.00gamma	496.2192k internal	0.2336k external	0.2336temperature offset calibration	0.9975default loss term (dB/km)	0.3790temperature slope calibration	1.0000multiplexer offset coefficient	1.0000multiplexer slope coefficient	1.0000fibre end	0.00T internal ref (°C)	27.19T ext. ref 1 (°C)	10.92T ext. ref 2 (°C)	21.51length (m)	temperature (°C)	Stokes	anti-Stokes-747.200	-88.668	0.199	0.059
-746.185	-200.000	0.011	0.140
-745.171	-58.718	-0.076	0.033
-744.156	-40.173	-0.272	-0.142
-743.142	88.190	-0.074	0.082
-742.127	-17.798	-0.252	-0.159
-741.112	-39.061	0.121	0.064
-740.098	115.252	-0.213	0.261
-739.083	-31.932	0.208	-0.117
-738.069	-75.253	-0.193	-0.069
-737.054	132.237	0.110	0.142
-736.039	-153.697	-0.443	-0.031
-735.025	270.210	0.086	0.152
-734.010	-156.423	-0.387	0.024
-732.996	-58.206	0.015	0.007
-731.981	800.000	0.068	0.292
-730.966	96.990	-0.278	0.320
-729.952	-200.000	-0.004	-0.295
-728.937	-63.019	0.048	-0.020
-727.923	190.411	-0.210	0.317
-726.908	145.701	-0.198	-0.266
-725.894	800.000	-0.080	-0.244
-724.879	-24.970	-0.051	0.030
-723.864	601.609	0.016	0.040
-722.850	-83.526	-0.317	-0.102
-721.835	800.000	-0.085	-0.281
-720.821	-200.000	-0.011	-0.122
-719.806	800.000	-0.054	-0.180
-718.791	-71.802	0.148	-0.055
-717.777	588.854	0.113	0.280
-716.762	718.501	-0.064	0.171
-715.748	228.046	-0.040	-0.066
-714.733	-75.870	0.426	-0.151
-713.718	-174.071	-0.270	0.008
-712.704	344.931	0.180	-0.355
-711.689	27.964	0.423	-0.358
-710.675	-119.479	-0.060	-0.010
-709.660	44.906	0.132	-0.122
-708.645	136.711	0.114	0.150
-707.631	-200.000	0.005	0.120
-706.616	307.841	-0.105	-0.197
-705.602	156.664	-0.108	0.150
-704.587	516.853	0.144	0.337
-703.572	800.000	0.033	-0.143
-702.558	157.813	0.123	-0.170
-701.543	12.565	0.092	-0.071
-700.529	-200.000	0.017	0.171
-699.514	-64.071	0.056	0.023
-698.499	-165.017	-0.143	-0.006
-697.485	-143.985	0.133	-0.013
-696.470	-160.700	0.128	-0.007
-695.456	800.000	0.058	-0.231
-694.441	335.598	0.148	-0.289
-693.426	800.000	0.043	0.177
-692.412	56.365	-0.196	-0.191
-691.397	800.000	-0.098	-0.402
-690.383	274.387	0.091	0.162
-689.368	0.289	0.086	-0.061
-688.354	336.596	-0.165	-0.321
-687.339	-200.000	-0.060	-0.278
-686.324	52.135	-0.115	0.110
-685.310	-200.000	-0.005	-0.139
-684.295	-200.000	-0.005	-0.434
-683.281	-191.160	0.108	0.001
-682.266	800.000	-0.058	-0.241
-681.251	114.213	0.212	0.259
-680.237	-182.158	-0.370	-0.007
-679.222	-150.319	0.308	0.024
-678.208	162.799	-0.192	-0.269
-677.193	487.305	0.133	-0.303
-676.178	169.768	0.086	-0.123
-675.164	25.413	-0.081	0.067
-674.149	102.723	-0.047	0.055
-673.135	-200.000	-0.026	0.134
-672.120	-200.000	-0.049	0.371
-671.105	-53.858	0.285	0.130
-670.091	-23.276	-0.125	-0.075
-669.076	-54.407	0.330	-0.150
-668.062	-48.828	-0.264	0.127
-667.047	-200.000	-0.063	-0.282
-666.032	77.556	0.189	-0.201
-665.018	-132.341	-0.412	-0.053
-664.003	-174.976	-0.254	-0.007
-662.989	703.821	0.034	0.089
-661.974	135.851	0.065	0.085
-660.959	800.000	-0.066	-0.289
-659.945	-200.000	0.044	0.480
-658.930	-200.000	-0.002	-0.021
-657.916	-130.261	-0.416	0.057
-656.901	360.628	0.275	-0.551
-655.886	316.753	-0.154	-0.291
-654.872	-164.989	0.281	-0.013
-653.857	147.205	-0.149	-0.201
-652.843	-30.329	-0.167	0.095
-651.828	-12.046	0.155	0.102
-650.814	769.565	0.119	-0.325
-649.799	-150.952	-0.292	-0.022
-648.784	98.974	-0.155	0.180
-647.770	-200.000	-0.023	0.170
-646.755	719.752	-0.098	0.261
-645.741	-86.425	-0.494	-0.152
-644.726	-200.000	0.027	0.219
-643.711	73.958	0.183	-0.192
-642.697	90.185	-0.154	-0.172
-641.682	286.531	0.205	-0.370
-640.668	46.129	0.238	0.220
-639.653	-120.638	0.114	0.019
-638.638	-154.567	0.514	0.034
-637.624	-123.088	0.519	-0.083
-636.609	-113.792	-0.191	-0.037
-635.595	143.433	-0.176	-0.234
-634.580	-89.638	-0.132	0.039
-633.565	36.464	-0.164	0.144
-632.551	800.000	-0.022	-0.071
-631.536	-85.683	-0.084	0.026
-630.522	494.080	0.028	-0.064
-629.507	639.178	-0.137	-0.349
-628.492	-200.000	0.022	-0.117
-627.478	-76.136	0.184	-0.065
-626.463	-137.405	-0.357	-0.040
-625.449	-200.000	0.014	0.413
-624.434	-200.000	-0.001	0.026
-623.419	-171.731	-0.109	0.004
-622.405	-200.000	-0.056	-0.382
-621.390	-58.702	0.115	0.050
-620.376	5.421	-0.241	-0.178
-619.361	-65.882	0.241	0.096
-618.346	68.371	-0.202	-0.207
-617.332	-10.221	0.123	-0.082
-616.317	-154.712	-0.122	0.008
-615.303	-49.960	-0.200	-0.095
-614.288	71.305	-0.149	-0.154
-613.273	123.750	0.027	0.034
-612.259	-188.651	0.355	-0.004
-611.244	255.369	-0.023	0.040
-610.230	406.972	0.116	-0.245
-609.215	26.034	0.121	0.101
-608.201	-76.045	0.278	0.098
-607.186	-50.562	0.264	-0.124
-606.171	-106.040	0.124	0.028
-605.157	800.000	0.044	0.132
-604.142	-121.667	0.399	-0.066
-603.128	800.000	0.016	-0.057
-602.113	121.140	0.255	0.318
-601.098	-200.000	0.030	0.152
-600.084	-200.000	0.029	0.201
-599.069	-82.360	0.333	0.108
-598.055	4.508	0.236	-0.173
-597.040	-108.603	-0.284	0.061
-596.025	-200.000	-0.029	0.137
-595.011	-47.967	-0.088	-0.042
-593.996	-14.648	-0.278	0.178
-592.982	-7.120	-0.155	-0.105
-591.967	-109.467	-0.279	-0.059
-590.952	409.508	0.150	0.317
-589.938	27.019	-0.223	0.186
-588.923	-116.785	0.110	0.020
-587.909	5.718	-0.126	-0.093
-586.894	177.718	-0.117	-0.171
-585.879	-3.143	-0.331	-0.230
-584.865	25.868	0.090	0.075
-583.850	562.587	-0.156	0.377
-582.836	23.398	-0.396	-0.325
-581.821	-200.000	0.029	0.287
-580.806	62.950	0.011	-0.011
-579.792	-27.252	-0.081	-0.047
-578.777	-127.925	0.113	0.016
-577.763	12.848	-0.142	-0.110
-576.748	7.655	-0.144	-0.107
-575.733	-67.663	-0.124	0.048
-574.719	64.233	0.135	0.136
-573.704	663.678	0.090	0.231
-572.690	-96.840	-0.396	0.104
-571.675	-99.302	-0.241	0.061
-570.661	59.396	-0.105	-0.103
-569.646	344.392	0.164	-0.321
-568.631	800.000	-0.070	-0.247
-567.617	110.852	-0.165	0.198
-566.602	800.000	-0.053	-0.187
-565.588	-54.690	0.179	-0.081
-564.573	-200.000	0.049	0.499
-563.558	331.712	-0.087	0.167
-562.544	-13.508	0.132	-0.085
-561.529	283.209	0.085	0.152
-560.515	-132.183	0.273	-0.035
-559.500	-200.000	0.013	-0.167
-558.485	-147.384	-0.079	-0.007
-557.471	147.772	-0.155	-0.209
-556.456	-132.356	0.271	-0.035
-555.442	-157.354	-0.223	0.013
-554.427	150.499	0.147	-0.200
-553.412	-92.358	0.172	0.048
-552.398	800.000	0.108	0.440
-551.383	800.000	-0.080	0.249
-550.369	-150.441	0.116	-0.009
-549.354	657.850	0.043	0.110
-548.339	-111.070	0.125	-0.025
-547.325	-200.000	0.025	-0.232
-546.310	663.955	-0.163	0.418
-545.296	432.460	-0.061	-0.132
-544.281	-137.342	0.165	-0.019
-543.266	89.451	0.108	-0.120
-542.252	27.085	-0.229	-0.192
-541.237	-27.278	0.341	-0.198
-540.223	-200.000	-0.023	-0.134
-539.208	-104.530	0.421	0.097
-538.193	-99.100	-0.232	0.059
-537.179	200.383	0.112	0.172
-536.164	-117.536	-0.176	0.032
-535.150	23.596	0.205	0.168
-534.135	-200.000	0.008	0.171
-533.121	53.821	-0.275	-0.263
-532.106	22.549	0.133	0.108
-531.091	64.937	-0.102	0.103
-530.077	216.292	0.122	-0.194
-529.062	-200.000	0.001	-0.053
-528.048	-32.394	0.208	-0.116
-527.033	-200.000	-0.026	0.278
-526.018	-3.989	-0.170	-0.117
-525.004	-126.621	0.103	0.015
-523.989	-168.309	-0.313	0.012
-522.975	-34.933	0.049	-0.026
-521.960	90.209	0.184	-0.205
-520.945	-199.677	0.248	-0.001
-519.931	-27.819	0.098	-0.056
-518.916	-200.000	0.007	0.370
-517.902	-200.000	0.009	0.145
-516.887	800.000	0.053	0.184
-515.872	800.000	-0.027	0.107
-514.858	-144.924	-0.175	0.016
-513.843	32.677	-0.178	-0.153
-512.829	-125.950	-0.234	0.035
-511.814	156.094	0.145	0.199
-510.799	800.000	-0.051	-0.203
-509.785	-174.994	-0.053	-0.001
-508.770	312.232	0.035	-0.066
-507.756	800.000	0.062	-0.226
-506.741	-40.728	0.045	-0.023
-505.726	-200.000	-0.091	0.399
-504.712	-131.896	0.177	-0.023
-503.697	50.325	0.142	-0.133
-502.683	-45.431	-0.259	0.128
-501.668	800.000	-0.079	0.271
-500.653	-200.000	0.042	-0.398
-499.639	-200.000	0.022	-0.284
-498.624	-145.422	-0.241	0.022
-497.610	-73.593	-0.307	-0.111
-496.595	519.094	-0.087	-0.202
-495.581	231.789	-0.058	0.095
-494.566	375.510	-0.198	-0.402
-493.551	-167.886	-0.186	0.007
-492.537	-200.000	0.014	-0.146
-491.522	-127.066	0.025	-0.004
-490.508	49.133	-0.199	0.186
-489.493	-73.637	0.247	-0.090
-488.478	156.573	0.119	0.163
-487.464	81.483	-0.270	-0.290
-486.449	-42.408	0.221	-0.112
-485.435	-200.000	0.015	0.199
-484.420	800.000	0.050	0.162
-483.405	607.128	0.093	-0.231
-482.391	-200.000	0.011	-0.147
-481.376	800.000	-0.046	0.147
-480.362	-18.169	0.319	-0.198
-479.347	-174.726	-0.164	0.005
-478.332	67.798	-0.092	0.093
-477.318	-55.516	-0.489	-0.218
-476.303	-121.252	-0.062	-0.010
-475.289	774.299	-0.082	0.222
-474.274	-87.102	-0.179	-0.054
-473.259	-200.000	0.008	0.238
-472.245	-200.000	-0.008	-0.217
-471.230	260.632	0.084	0.144
-470.216	-200.000	-0.063	0.282
-469.201	137.068	-0.074	0.096
-468.186	185.544	-0.109	-0.161
-467.172	29.282	0.092	0.078
-466.157	194.936	0.161	0.243
-465.143	-200.000	-0.003	-0.043
-464.128	175.778	-0.167	-0.241
-463.113	-16.116	0.320	0.202
-462.099	800.000	0.067	-0.248
-461.084	304.230	0.075	0.139
-460.070	57.436	0.422	0.409
-459.055	700.319	-0.131	-0.342
-458.040	33.285	0.211	0.182
-457.026	-71.929	-0.311	0.115
-456.011	-100.118	-0.184	0.045
-454.997	-200.000	0.035	0.324
-453.982	453.700	0.189	0.415
-452.968	-141.285	0.230	-0.023
-451.953	93.813	0.124	0.140
-450.938	222.839	-0.083	0.133
-449.924	-114.901	-0.134	-0.025
-448.909	-19.763	-0.111	-0.068
-447.895	-200.000	0.042	0.221
-446.880	-30.796	0.097	0.054
-445.865	71.989	0.135	-0.140
-444.851	-60.105	-0.066	0.028
-443.836	-200.000	0.005	-0.187
-442.822	72.360	0.219	-0.227
-441.807	-200.000	-0.009	-0.241
-440.792	15.615	0.195	0.152
-439.778	800.000	-0.015	0.055
-438.763	-78.440	-0.051	-0.017
-437.749	280.319	-0.145	-0.258
-436.734	421.113	-0.082	-0.175
-435.719	-200.000	0.009	0.122
-434.705	-181.558	0.162	0.003
-433.690	110.136	0.086	0.103
-432.676	-200.000	0.035	0.154
-431.661	69.304	-0.107	0.109
-430.646	58.237	0.125	-0.121
-429.632	-80.055	0.260	-0.087
-428.617	38.021	0.237	-0.209
-427.603	-125.124	-0.207	-0.032
-426.588	-200.000	-0.032	0.454
-425.573	-168.729	0.283	0.011
-424.559	15.641	-0.158	0.123
-423.544	-200.000	0.043	-0.256
-422.530	-94.791	-0.337	0.091
-421.515	-200.000	-0.049	-0.000
-420.500	195.390	0.022	0.033
-419.486	-114.828	0.109	0.021
-418.471	-68.466	-0.167	-0.064
-417.457	-91.637	-0.053	-0.015
-416.442	-200.000	0.002	-0.223
-415.428	522.201	-0.124	-0.290
-414.413	-158.004	0.267	0.016
-413.398	82.694	0.373	-0.401
-412.384	274.827	-0.127	-0.222
-411.369	-200.000	-0.024	0.307
-410.355	-200.000	-0.022	0.139
-409.340	-200.000	0.004	-0.308
-408.325	568.709	0.126	-0.303
-407.311	97.620	-0.164	0.187
-406.296	-135.229	-0.261	-0.031
-405.282	-97.063	-0.176	-0.046
-404.267	-123.480	-0.184	0.029
-403.252	114.131	-0.194	0.235
-402.238	110.132	-0.035	-0.042
-401.223	-67.547	-0.195	-0.076
-400.209	47.524	-0.351	-0.324
-399.194	-165.408	-0.173	-0.007
-398.179	64.242	-0.062	-0.061
-397.165	800.000	0.050	0.197
-396.150	-162.712	-0.113	-0.005
-395.136	67.866	0.113	-0.115
-394.121	-131.924	0.402	-0.052
-393.106	-10.107	0.239	0.158
-392.092	712.034	0.050	0.131
-391.077	-200.000	-0.009	0.298
-390.063	-66.817	-0.158	0.062
-389.048	16.452	-0.277	0.217
-388.033	184.107	-0.120	0.176
-387.019	-101.216	-0.243	0.059
-386.004	-81.695	0.149	-0.048
-384.990	61.842	-0.210	-0.207
-383.975	800.000	0.049	0.143
-382.960	-25.241	-0.210	-0.123
-381.946	361.799	0.021	0.042
-380.931	718.033	-0.086	-0.226
-379.917	154.932	0.151	0.205
-378.902	-85.878	-0.279	-0.086
-377.888	-86.889	0.224	-0.068
-376.873	251.942	-0.089	-0.149
-375.858	-200.000	0.009	0.069
-374.844	-182.671	0.235	-0.004
-373.829	800.000	0.108	-0.308
-372.815	-200.000	-0.056	-0.273
-371.800	-200.000	0.014	-0.200
-370.785	277.687	0.109	0.191
-369.771	141.356	-0.311	0.407
-368.756	-54.870	-0.128	0.057
-367.742	-84.973	-0.151	0.047
-366.727	-90.664	0.320	-0.091
-365.712	-200.000	0.040	0.221
-364.698	19.570	0.127	-0.101
-363.683	42.954	-0.058	-0.052
-362.669	-200.000	0.052	-0.248
-361.654	-72.836	0.130	-0.047
-360.639	35.577	0.120	0.104
-359.625	-174.784	-0.164	-0.005
-358.610	-200.000	-0.030	-0.206
-357.596	-200.000	0.019	0.100
-356.581	383.792	-0.103	-0.210
-355.566	27.399	0.166	0.138
-354.552	32.706	-0.099	-0.084
-353.537	-200.000	-0.012	-0.191
-352.523	189.281	0.237	-0.352
-351.508	-71.450	0.048	-0.018
-350.493	-3.238	0.080	-0.055
-349.479	-34.892	0.167	0.090
-348.464	-200.000	-0.002	-0.278
-347.450	-200.000	-0.003	0.193
-346.435	205.929	-0.095	0.145
-345.420	416.269	-0.142	-0.300
-344.406	606.597	-0.113	-0.279
-343.391	-128.256	-0.240	-0.034
-342.377	14.912	0.318	-0.246
-341.362	-200.000	-0.021	-0.242
-340.348	411.379	-0.127	0.267
-339.333	-39.641	-0.167	0.087
-338.318	-200.000	-0.012	0.306
-337.304	-200.000	0.002	-0.034
-336.289	-104.697	-0.177	-0.040
-335.275	-20.725	-0.226	-0.137
-334.260	-86.499	-0.269	-0.082
-333.245	239.465	-0.080	-0.131
-332.231	-78.670	-0.196	0.066
-331.216	-88.830	0.021	-0.006
-330.202	-200.000	-0.067	-0.444
-329.187	-115.012	0.302	-0.057
-328.172	-72.698	-0.189	-0.069
-327.158	800.000	-0.059	-0.194
-326.143	800.000	0.044	0.144
-325.129	-72.677	-0.305	0.111
-324.114	-13.495	0.326	0.209
-323.099	417.413	-0.156	-0.330
-322.085	-122.179	0.119	-0.019
-321.070	-200.000	0.051	0.366
-320.056	420.011	0.071	-0.151
-319.041	108.788	0.051	-0.060
-318.026	-133.539	-0.131	-0.016
-317.012	-200.000	-0.041	-0.288
-315.997	-60.955	-0.094	0.039
-314.983	800.000	-0.111	0.336
-313.968	-18.528	0.167	0.103
-312.953	-200.000	-0.003	0.027
-311.939	214.420	0.232	0.362
-310.924	-200.000	0.042	0.245
-309.910	7.536	-0.196	-0.145
-308.895	-45.974	-0.211	-0.103
-307.880	431.857	-0.098	0.209
-306.866	119.439	-0.144	0.176
-305.851	-32.058	-0.258	0.143
-304.837	314.123	0.133	-0.247
-303.822	-47.304	-0.152	-0.073
-302.807	134.140	0.229	0.293
-301.793	-124.190	-0.122	-0.019
-300.778	-200.000	-0.053	0.246
-299.764	-141.257	-0.266	0.027
-298.749	-200.000	-0.013	-0.144
-297.735	-89.482	0.314	0.091
-296.720	609.171	-0.089	0.219
-295.705	31.533	-0.024	-0.020
-294.691	-200.000	0.017	-0.137
-293.676	-2.581	-0.050	-0.034
-292.662	185.532	0.117	0.171
-291.647	-29.137	0.164	0.093
-290.632	169.035	-0.184	-0.259
-289.618	-126.090	0.135	-0.020
-288.603	-196.136	-0.236	-0.002
-287.589	47.339	-0.114	0.104
-286.574	668.101	-0.062	-0.158
-285.559	98.610	0.081	-0.092
-284.545	-2.877	0.197	-0.136
-283.530	41.889	0.239	0.214
-282.516	545.702	-0.095	0.225
-281.501	135.182	-0.338	0.433
-280.486	402.157	0.122	0.254
-279.472	371.534	-0.139	0.279
-278.457	341.658	-0.165	-0.318
-277.443	-200.000	0.036	0.398
-276.428	695.880	0.065	0.167
-275.413	-128.026	0.255	0.036
-274.399	-155.135	-0.396	0.026
-273.384	-78.560	0.347	0.117
-272.370	9.978	0.070	-0.053
-271.355	24.007	-0.152	-0.123
-270.340	-32.807	0.074	-0.040
-269.326	-32.300	0.237	0.131
-268.311	45.994	0.017	-0.016
-267.297	800.000	-0.088	-0.245
-266.282	268.172	-0.147	-0.254
-265.267	-135.110	0.296	0.035
-264.253	120.418	-0.207	0.254
-263.238	740.515	0.006	-0.015
-262.224	-32.763	0.150	0.082
-261.209	200.307	-0.118	-0.178
-260.195	-200.000	-0.060	-0.359
-259.180	800.000	-0.026	-0.074
-258.165	-200.000	0.036	-0.183
-257.151	-11.356	-0.374	0.243
-256.136	800.000	0.080	0.304
-255.122	-3.138	0.174	0.120
-254.107	-168.616	-0.316	-0.012
-253.092	-191.931	0.162	-0.002
-252.078	59.558	0.120	-0.117
-251.063	-50.032	-0.223	-0.104
-250.049	-200.000	0.001	0.067
-249.034	273.020	0.076	-0.131
-248.019	-200.000	0.011	0.058
-247.005	-7.143	0.265	-0.177
-245.990	-51.119	0.266	0.123
-244.976	-91.850	0.237	0.066
-243.961	477.195	0.080	-0.178
-242.946	-56.403	-0.236	-0.103
-241.932	470.918	-0.064	0.142
-240.917	-83.091	-0.140	-0.044
-239.903	228.266	-0.212	-0.340
-238.888	737.852	0.218	-0.575
-237.873	-200.000	-0.026	0.213
-236.859	-95.147	0.274	-0.073
-235.844	-22.293	-0.090	0.054
-234.830	-102.870	0.164	-0.038
-233.815	372.384	0.012	0.025
-232.800	87.585	-0.184	0.201
-231.786	281.721	0.057	0.100
-230.771	800.000	-0.043	-0.148
-229.757	-114.610	-0.037	-0.007
-228.742	-109.816	0.181	-0.037
-227.727	-117.142	-0.314	0.056
-226.713	800.000	-0.105	0.323
-225.698	800.000	0.080	0.219
-224.684	41.130	-0.224	0.199
-223.669	140.843	0.201	-0.262
-222.655	-99.586	-0.244	0.060
-221.640	159.158	0.077	0.105
-220.625	-122.146	-0.349	0.056
-219.611	-114.103	0.172	0.033
-218.596	-18.818	0.019	-0.011
-217.582	47.524	-0.082	0.076
-216.567	102.566	0.106	0.122
-215.552	800.000	0.063	-0.258
-214.538	-167.877	-0.063	-0.002
-213.523	58.813	0.129	0.125
-212.509	105.440	-0.169	0.197
-211.494	118.588	0.162	-0.196
-210.479	-200.000	-0.031	0.168
-209.465	190.265	0.159	-0.235
-208.450	76.293	0.082	-0.085
-207.436	-52.401	-0.208	0.095
-206.421	579.260	0.073	0.177
-205.406	-200.000	-0.002	-0.094
-204.392	329.518	0.140	-0.265
-203.377	-200.000	0.023	-0.472
-202.363	302.918	0.112	-0.204
-201.348	-150.879	-0.217	0.016
-200.333	-51.224	-0.161	0.074
-199.319	168.812	0.119	0.167
-198.304	-200.000	0.010	0.047
-197.290	101.875	0.215	0.246
-196.275	236.559	0.059	0.095
-195.260	-18.050	-0.281	0.173
-194.246	800.000	-0.072	0.227
-193.231	-52.317	0.131	0.060
-192.217	800.000	-0.082	-0.272
-191.202	-138.320	0.677	0.074
-190.187	-157.200	-0.257	0.015
-189.173	-94.301	0.147	-0.039
-188.158	422.997	0.099	-0.210
-187.144	-16.291	-0.264	0.165
-186.129	-47.179	0.341	0.163
-185.114	-149.280	0.189	-0.015
-184.100	-9.485	-0.277	-0.181
-183.085	-200.000	-0.035	-0.204
-182.071	-87.990	0.171	-0.050
-181.056	-151.208	-0.236	0.017
-180.042	-200.000	-0.016	-0.323
-179.027	66.506	0.127	-0.127
-178.012	-36.639	0.175	-0.093
-176.998	338.858	0.193	-0.370
-175.983	-153.185	0.122	0.008
-174.969	-122.754	0.257	-0.041
-173.954	421.362	0.094	0.198
-172.939	-121.360	0.165	0.027
-171.925	130.577	-0.228	-0.287
-170.910	-122.473	0.296	-0.047
-169.896	66.885	0.177	0.177
-168.881	800.000	0.063	0.244
-167.866	-53.351	-0.238	0.107
-166.852	-200.000	-0.024	0.378
-165.837	34.538	0.357	0.306
-164.823	30.371	-0.147	-0.124
-163.808	-24.169	0.156	-0.091
-162.793	-133.318	0.420	0.052
-161.779	90.964	-0.019	0.021
-160.764	72.118	-0.135	-0.137
-159.750	-200.000	0.010	0.203
-158.735	-38.266	0.417	0.217
-157.720	230.253	0.240	-0.386
-156.706	99.647	-0.181	-0.205
-155.691	84.539	0.276	0.297
-154.677	800.000	-0.054	-0.165
-153.662	413.163	-0.079	0.165
-152.647	17.739	0.274	0.214
-151.633	-40.799	0.123	-0.063
-150.618	800.000	-0.077	0.281
-149.604	693.850	-0.107	0.275
-148.589	222.898	-0.182	0.288
-147.574	-14.716	0.136	0.086
-146.560	800.000	-0.015	-0.062
-145.545	203.916	0.114	-0.173
-144.531	800.000	0.119	0.388
-143.516	157.968	0.085	0.116
-142.502	2.064	-0.182	0.129
-141.487	-200.000	-0.006	0.046
-140.472	177.226	-0.131	0.187
-139.458	584.595	-0.110	-0.265
-138.443	800.000	0.023	0.098
-137.429	-7.383	-0.177	0.117
-136.414	281.630	-0.112	-0.196
-135.399	-98.397	0.079	0.020
-134.385	47.998	0.126	0.116
-133.370	-200.000	-0.218	0.001
-132.356	-64.709	-0.163	-0.065
-131.341	800.000	0.111	0.338
-130.326	-127.273	-0.336	-0.048
-129.312	57.953	-0.229	-0.220
-128.297	764.016	-0.079	0.212
-127.283	-200.000	0.027	-0.121
-126.268	-80.432	-0.095	0.031
-125.253	669.086	0.023	0.059
-124.239	-41.529	-0.247	-0.125
-123.224	-139.792	0.303	0.032
-122.210	90.053	-0.061	-0.066
