DTS Sentinel unit serial number:	SN413079Multiplexer serial number:	ORYXHardware model number:	OX4-SRSoftware version number:	ORYX F/W v4.00 Oryx Data Collector v3.7.2.0data status	okinstallation	princeton_trtdifferential loss correction	single-endedforward channel	channel 2reverse channel	N/Adate	2019/09/14time	05:23:35forward acquisition time	60.00reverse acquisition time	0.00gamma	496.2192k internal	0.2335k external	0.2335temperature offset calibration	1.0130default loss term (dB/km)	0.3790temperature slope calibration	1.0000multiplexer offset coefficient	1.0000multiplexer slope coefficient	1.0000fibre end	0.00T internal ref (°C)	26.94T ext. ref 1 (°C)	3.39T ext. ref 2 (°C)	21.91length (m)	temperature (°C)	Stokes	anti-Stokes-747.200	16.393	0.136	0.108
-746.185	-63.905	-0.277	0.114
-745.171	232.019	-0.053	-0.088
-744.156	800.000	0.078	-0.257
-743.142	383.278	0.151	-0.311
-742.127	127.087	-0.167	0.213
-741.112	275.626	0.094	-0.167
-740.098	90.837	-0.204	-0.229
-739.083	172.962	-0.026	0.038
-738.069	37.857	-0.258	0.230
-737.054	-37.506	0.062	0.033
-736.039	-119.681	0.332	0.058
-735.025	-0.973	0.095	0.067
-734.010	-200.000	0.016	-0.313
-732.996	-91.394	-0.458	-0.131
-731.981	800.000	-0.089	-0.270
-730.966	99.600	-0.029	-0.033
-729.952	-200.000	0.014	0.530
-728.937	279.326	-0.229	-0.411
-727.923	-25.971	-0.164	-0.097
-726.908	-23.065	0.112	0.068
-725.894	271.698	0.156	-0.276
-724.879	-3.327	-0.165	-0.116
-723.864	-131.301	-0.529	-0.070
-722.850	-55.503	0.148	0.067
-721.835	-92.366	0.200	-0.057
-720.821	31.384	-0.173	0.149
-719.806	76.049	-0.292	-0.310
-718.791	319.926	0.060	0.115
-717.777	-122.446	-0.449	-0.073
-716.762	109.671	0.100	0.120
-715.748	-200.000	-0.008	-0.101
-714.733	568.334	-0.116	-0.282
-713.718	-41.259	-0.120	0.062
-712.704	800.000	-0.120	-0.373
-711.689	-96.156	-0.136	0.036
-710.675	-76.470	0.195	0.069
-709.660	-44.820	0.186	0.093
-708.645	100.924	0.297	0.347
-707.631	-95.299	-0.209	-0.056
-706.616	0.874	-0.145	0.104
-705.602	-148.231	0.075	0.006
-704.587	202.124	-0.163	0.252
-703.572	800.000	-0.042	-0.151
-702.558	-13.451	0.394	-0.256
-701.543	-109.305	0.389	0.083
-700.529	56.253	-0.136	-0.133
-699.514	415.693	-0.115	-0.246
-698.499	720.763	0.109	-0.291
-697.485	-1.476	-0.298	0.211
-696.470	26.598	0.231	-0.194
-695.456	800.000	-0.063	0.219
-694.441	92.316	-0.133	-0.150
-693.426	-52.429	0.484	-0.225
-692.412	33.920	0.130	0.114
-691.397	-35.558	-0.149	-0.081
-690.383	-60.952	0.109	0.046
-689.368	-82.805	0.197	0.064
-688.354	103.450	-0.031	-0.036
-687.339	-200.000	-0.126	-0.694
-686.324	533.650	0.104	-0.247
-685.310	-147.799	-0.559	-0.047
-684.295	800.000	0.050	-0.164
-683.281	142.510	0.124	0.164
-682.266	733.967	0.035	-0.095
-681.251	-179.725	-0.534	0.012
-680.237	-172.559	-0.068	0.002
-679.222	-119.475	0.060	-0.010
-678.208	549.337	0.098	-0.235
-677.193	-200.000	0.017	-0.090
-676.178	-53.395	-0.333	0.153
-675.164	800.000	-0.050	-0.166
-674.149	564.270	0.087	0.212
-673.135	-200.000	-0.017	-0.098
-672.120	-124.655	-0.025	0.004
-671.105	-200.000	0.072	-0.429
-670.091	-89.298	0.350	0.103
-669.076	-39.855	-0.090	-0.047
-668.062	-17.429	0.145	0.092
-667.047	-108.437	-0.285	0.061
-666.032	184.148	-0.099	0.147
-665.018	800.000	-0.018	0.064
-664.003	237.715	-0.207	-0.343
-662.989	-67.082	0.198	-0.078
-661.974	-200.000	-0.028	-0.130
-660.959	-49.419	-0.241	0.115
-659.945	56.331	0.047	0.046
-658.930	397.970	-0.085	0.178
-657.916	688.388	-0.072	-0.188
-656.901	-43.504	0.115	-0.058
-655.886	524.673	0.144	-0.340
-654.872	125.687	0.164	0.207
-653.857	-76.137	0.159	0.056
-652.843	484.256	-0.086	0.196
-651.828	715.870	-0.072	-0.191
-650.814	231.788	0.201	-0.331
-649.799	170.197	-0.053	0.076
-648.784	800.000	-0.031	0.132
-647.770	800.000	0.055	0.160
-646.755	30.511	-0.147	-0.126
-645.741	643.034	-0.135	-0.345
-644.726	-200.000	-0.009	-0.423
-643.711	-200.000	0.002	-0.139
-642.697	112.618	-0.081	-0.099
-641.682	-102.692	0.195	0.046
-640.668	354.637	0.100	0.199
-639.653	12.032	0.085	0.066
-638.638	-55.382	-0.061	-0.027
-637.624	576.069	-0.136	0.333
-636.609	-200.000	-0.004	-0.308
-635.595	-14.208	0.190	-0.122
-634.580	-62.440	0.226	0.094
-633.565	-113.305	0.344	0.068
-632.551	17.232	0.104	-0.083
-631.536	-39.290	0.377	-0.198
-630.522	-53.515	0.193	-0.089
-629.507	-200.000	-0.015	-0.204
-628.492	133.591	-0.106	-0.137
-627.478	314.157	-0.044	-0.082
-626.463	-200.000	0.006	-0.028
-625.449	800.000	0.012	0.043
-624.434	-161.609	-0.278	0.014
-623.419	800.000	-0.082	0.271
-622.405	-160.079	-0.142	0.008
-621.390	-119.693	0.031	-0.005
-620.376	-200.000	0.014	-0.230
-619.361	-55.120	-0.302	-0.136
-618.346	771.445	-0.105	-0.285
-617.332	-72.742	0.144	0.053
-616.317	-147.131	-0.281	0.024
-615.303	-62.250	-0.148	0.062
-614.288	221.625	0.041	-0.065
-613.273	-200.000	-0.001	-0.346
-612.259	-76.628	-0.483	0.170
-611.244	669.283	-0.099	0.257
-610.230	-177.525	0.164	0.004
-609.215	-104.180	-0.085	0.020
-608.201	471.011	-0.089	-0.199
-607.186	800.000	-0.109	0.401
-606.171	72.115	-0.184	-0.191
-605.157	63.382	-0.301	0.302
-604.142	59.158	0.245	0.241
-603.128	209.634	-0.196	-0.307
-602.113	-20.856	-0.181	-0.111
-601.098	-123.307	0.201	-0.032
-600.084	14.167	-0.175	-0.136
-599.069	-200.000	0.006	-0.276
-598.055	469.669	0.180	-0.405
-597.040	99.343	-0.244	-0.282
-596.025	-149.775	-0.200	-0.016
-595.011	-200.000	0.024	0.180
-593.996	-50.148	0.085	0.040
-592.982	689.493	0.105	0.276
-591.967	207.577	0.149	-0.232
-590.952	-200.000	0.005	-0.077
-589.938	61.622	-0.361	0.358
-588.923	-101.448	-0.197	-0.048
-587.909	-101.095	-0.104	-0.025
-586.894	-70.171	-0.252	0.096
-585.879	-8.174	0.188	-0.127
-584.865	-43.059	0.107	0.054
-583.850	-200.000	-0.028	0.180
-582.836	-86.498	-0.249	0.076
-581.821	-79.042	-0.198	0.067
-580.806	-74.023	0.092	-0.033
-579.792	-13.315	0.190	0.123
-578.777	-200.000	0.023	0.165
-577.763	-60.040	0.154	-0.066
-576.748	3.234	0.263	0.191
-575.733	286.264	0.097	0.174
-574.719	110.094	-0.137	-0.165
-573.704	255.344	-0.245	-0.419
-572.690	-200.000	0.009	-0.061
-571.675	-200.000	0.041	-0.183
-570.661	-174.382	0.301	-0.009
-569.646	117.470	-0.140	0.172
-568.631	472.101	-0.148	-0.331
-567.617	800.000	0.111	0.360
-566.602	-64.634	0.182	-0.074
-565.588	216.503	-0.203	0.322
-564.573	800.000	-0.023	0.067
-563.558	60.548	-0.285	0.282
-562.544	-39.640	0.110	-0.058
-561.529	-40.440	0.194	-0.100
-560.515	142.510	-0.164	-0.217
-559.500	96.620	-0.039	0.044
-558.485	203.152	-0.113	-0.174
-557.471	10.526	-0.156	-0.118
-556.456	-41.100	0.188	0.097
-555.442	-200.000	0.028	-0.153
-554.427	149.987	0.050	0.067
-553.412	-136.513	0.290	0.034
-552.398	42.893	-0.108	-0.099
-551.383	-59.186	-0.126	-0.054
-550.369	800.000	-0.106	0.302
-549.354	800.000	-0.013	-0.037
-548.339	-59.015	0.182	0.079
-547.325	-92.448	-0.029	0.008
-546.310	-66.850	0.258	0.102
-545.296	15.173	0.415	-0.325
-544.281	177.724	0.072	-0.104
-543.266	-193.643	0.210	0.002
-542.252	119.700	0.238	-0.294
-541.237	-77.714	-0.075	0.026
-540.223	800.000	-0.080	-0.230
-539.208	33.958	0.065	-0.057
-538.193	-200.000	-0.024	-0.495
-537.179	-109.541	0.156	-0.033
-536.164	-200.000	-0.040	-0.277
-535.150	800.000	-0.065	0.276
-534.135	2.503	0.148	0.107
-533.121	52.560	-0.202	-0.192
-532.106	348.164	-0.044	-0.086
-531.091	800.000	0.036	0.122
-530.077	91.011	-0.136	-0.151
-529.062	-199.458	0.284	-0.001
-528.048	249.535	0.159	-0.268
-527.033	125.930	-0.261	0.328
-526.018	227.381	0.202	-0.328
-525.004	132.457	-0.180	-0.231
-523.989	64.456	0.098	0.099
-522.975	800.000	0.016	-0.063
-521.960	167.501	-0.038	-0.053
-520.945	-20.342	0.422	-0.258
-519.931	108.054	-0.258	0.306
-518.916	-200.000	-0.032	0.190
-517.902	237.730	-0.153	0.253
-516.887	-200.000	-0.003	0.096
-515.872	800.000	-0.045	-0.175
-514.858	431.772	0.123	0.266
-513.843	-47.471	0.237	0.115
-512.829	-200.000	-0.018	0.224
-511.814	-31.542	0.053	-0.030
-510.799	369.390	0.074	0.150
-509.785	-200.000	-0.044	0.265
-508.770	-92.163	0.187	0.053
-507.756	93.999	-0.149	0.168
-506.741	142.899	0.043	0.056
-505.726	148.628	0.138	0.185
-504.712	-99.480	-0.390	-0.098
-503.697	-53.232	0.204	-0.093
-502.683	-129.457	-0.480	0.066
-501.668	200.581	-0.149	0.228
-500.653	151.941	0.119	-0.161
-499.639	-200.000	0.036	0.178
-498.624	-150.019	-0.216	0.017
-497.610	194.766	0.028	-0.042
-496.595	164.163	-0.109	-0.153
-495.581	-200.000	0.010	-0.044
-494.566	-200.000	-0.022	-0.150
-493.551	-82.224	-0.121	-0.039
-492.537	22.962	0.156	0.127
-491.522	-158.183	0.317	0.018
-490.508	-35.239	0.293	0.159
-489.493	-200.000	0.051	0.446
-488.478	166.103	0.147	0.207
-487.464	18.629	-0.174	0.138
-486.449	48.318	0.207	-0.193
-485.435	114.859	-0.173	-0.210
-484.420	-5.939	0.136	0.092
-483.405	508.050	-0.064	-0.147
-482.391	-10.783	0.148	-0.097
-481.376	-39.569	-0.257	-0.134
-480.362	144.472	-0.047	0.063
-479.347	-132.071	0.066	0.009
-478.332	-121.287	0.366	0.061
-477.318	-114.757	-0.279	-0.053
-476.303	-200.000	0.026	0.226
-475.289	-69.536	0.175	0.067
-474.274	278.955	0.068	0.121
-473.259	-50.772	0.095	-0.044
-472.245	-124.295	-0.303	0.047
-471.230	-184.999	-0.080	-0.001
-470.216	-193.434	0.225	0.002
-469.201	416.625	-0.120	-0.255
-468.186	66.908	0.107	0.109
-467.172	-74.670	-0.032	0.011
-466.157	42.537	0.354	-0.320
-465.143	-70.213	-0.239	0.090
-464.128	-101.054	0.136	-0.033
-463.113	-13.338	0.099	-0.064
-462.099	113.220	-0.116	0.140
-461.084	-200.000	-0.000	-0.022
-460.070	498.966	-0.151	0.346
-459.055	312.309	-0.152	0.284
-458.040	281.136	0.038	0.067
-457.026	85.677	0.178	-0.194
-456.011	-200.000	-0.055	0.439
-454.997	238.056	-0.107	0.177
-453.982	800.000	0.055	-0.212
-452.968	-156.237	0.141	-0.009
-451.953	-26.076	-0.175	-0.102
-450.938	118.088	0.074	0.090
-449.924	-76.601	0.336	-0.117
-448.909	-152.225	0.207	0.015
-447.895	199.432	-0.119	0.181
-446.880	-200.000	0.004	0.102
-445.865	-119.886	-0.189	-0.032
-444.851	-200.000	0.014	0.087
-443.836	27.948	-0.170	0.143
-442.822	800.000	0.071	-0.216
-441.807	519.481	0.032	-0.075
-440.792	52.339	-0.167	0.158
-439.778	-200.000	-0.040	0.176
-438.763	800.000	-0.013	0.039
-437.749	800.000	0.064	0.223
-436.734	287.510	0.050	-0.091
-435.719	-200.000	-0.046	0.213
-434.705	121.425	0.050	0.062
-433.690	109.334	0.032	-0.038
-432.676	662.772	0.137	-0.350
-431.661	-3.514	-0.139	-0.096
-430.646	112.479	0.087	-0.105
-429.632	-200.000	0.021	0.173
-428.617	-121.727	-0.122	0.020
-427.603	800.000	-0.041	-0.134
-426.588	498.802	-0.122	-0.280
-425.573	366.382	-0.033	-0.065
-424.559	361.598	-0.107	-0.212
-423.544	-200.000	-0.032	0.179
-422.530	-107.809	-0.246	-0.053
-421.515	215.845	0.169	-0.267
-420.500	-42.193	-0.155	-0.079
-419.486	-172.526	0.152	0.005
-418.471	203.300	-0.120	-0.183
-417.457	293.772	-0.060	-0.109
-416.442	75.606	0.114	0.119
-415.428	-33.821	0.237	-0.129
-414.413	800.000	0.039	-0.118
-413.398	732.330	-0.083	-0.221
-412.384	82.042	0.147	-0.158
-411.369	31.592	0.236	-0.201
-410.355	24.502	-0.306	-0.251
-409.340	685.642	-0.047	0.122
-408.325	-200.000	-0.012	0.153
-407.311	-46.326	0.084	-0.041
-406.296	-200.000	0.045	0.219
-405.282	800.000	-0.084	-0.341
-404.267	29.173	-0.262	0.220
-403.252	800.000	-0.039	0.110
-402.238	-42.348	0.148	0.075
-401.223	184.270	0.145	0.213
-400.209	119.312	-0.034	0.042
-399.194	35.650	-0.327	0.285
-398.179	742.241	-0.071	-0.190
-397.165	557.728	0.103	0.247
-396.150	4.187	0.215	0.156
-395.136	-50.064	-0.383	-0.180
-394.121	418.925	0.105	0.224
-393.106	12.508	-0.204	-0.156
-392.092	-200.000	0.034	0.208
-391.077	14.172	-0.140	-0.108
-390.063	-111.432	0.185	0.037
-389.048	125.598	0.116	-0.145
-388.033	800.000	0.014	-0.055
-387.019	15.124	-0.213	0.166
-386.004	-36.553	-0.141	-0.075
-384.990	-200.000	-0.036	-0.202
-383.975	317.471	0.198	0.371
-382.960	-150.317	-0.307	0.023
-381.946	-200.000	-0.045	0.197
-380.931	-200.000	0.313	-0.000
-379.917	-200.000	-0.020	-0.089
-378.902	-122.921	-0.511	0.082
-377.888	15.743	-0.281	0.219
-376.873	238.516	0.089	-0.146
-375.858	-185.066	0.119	-0.002
-374.844	-76.281	-0.273	0.095
-373.829	40.729	-0.228	0.203
-372.815	366.871	0.041	-0.081
-371.800	-32.637	0.143	-0.079
-370.785	468.585	0.076	0.168
-369.771	470.615	0.087	-0.194
-368.756	52.388	0.119	0.112
-367.742	19.180	-0.082	0.065
-366.727	-21.478	0.316	-0.191
-365.712	800.000	-0.106	-0.431
-364.698	-200.000	0.053	-0.329
-363.683	-94.406	-0.243	0.066
-362.669	-200.000	0.017	0.243
-361.654	-136.734	-0.419	-0.048
-360.639	154.867	-0.045	0.062
-359.625	-110.833	0.137	-0.028
-358.610	733.907	0.169	-0.448
-357.596	-27.357	0.155	-0.089
-356.581	-200.000	-0.047	0.406
-355.566	-77.505	0.317	0.109
-354.552	91.664	-0.066	-0.073
-353.537	-100.008	0.085	-0.021
-352.523	-200.000	-0.057	-0.403
-351.508	-21.900	-0.220	0.133
-350.493	-98.231	0.240	-0.061
-349.479	185.899	-0.116	0.171
-348.464	-79.834	-0.097	-0.032
-347.450	-71.530	-0.140	0.052
-346.435	2.675	-0.156	-0.112
-345.420	-200.000	-0.040	-0.256
-344.406	38.578	0.430	0.379
-343.391	385.199	-0.028	-0.057
-342.377	-200.000	-0.045	-0.211
-341.362	-64.173	0.379	-0.153
-340.348	272.978	-0.070	-0.121
-339.333	-64.833	-0.282	-0.113
-338.318	-55.846	-0.183	-0.081
-337.304	800.000	-0.020	0.077
-336.289	-46.182	0.220	-0.107
-335.275	-41.377	-0.169	0.086
-334.260	-50.409	-0.091	0.043
-333.245	294.359	0.211	-0.382
-332.231	46.817	-0.330	-0.303
-331.216	-34.951	-0.407	-0.220
-330.202	-70.797	0.128	0.048
-329.187	-150.790	-0.317	0.024
-328.172	-200.000	-0.022	0.099
-327.158	27.588	0.197	0.164
-326.143	800.000	-0.051	0.147
-325.129	-200.000	0.022	-0.111
-324.114	565.945	-0.140	-0.335
-323.099	-70.082	0.108	-0.041
-322.085	-200.000	0.044	0.303
-321.070	-84.023	0.517	0.162
-320.056	110.161	-0.015	0.017
-319.041	13.905	0.149	0.115
-318.026	-33.068	-0.120	-0.066
-317.012	565.934	0.080	0.191
-315.997	-86.877	0.351	0.106
-314.983	12.700	-0.101	0.077
-313.968	206.663	0.041	0.063
-312.953	-123.457	-0.255	0.040
-311.939	-64.688	-0.167	0.067
-310.924	503.897	-0.066	-0.150
-309.910	-200.000	0.018	0.210
-308.895	339.549	0.101	0.194
-307.880	-72.439	0.188	-0.069
-306.866	70.273	-0.070	0.071
-305.851	-200.000	-0.012	0.270
-304.837	185.807	0.116	0.170
-303.822	-110.639	0.379	0.077
-302.807	44.829	0.128	-0.116
-301.793	-62.234	-0.156	0.064
-300.778	86.666	0.145	-0.158
-299.764	101.301	-0.146	-0.167
-298.749	63.447	-0.181	-0.180
-297.735	-88.588	-0.283	-0.083
-296.720	800.000	0.095	0.264
-295.705	-180.417	0.180	-0.004
-294.691	42.719	0.149	-0.134
-293.676	800.000	0.029	0.121
-292.662	-200.000	0.030	0.276
-291.647	89.704	0.243	0.268
-290.632	41.949	0.195	-0.175
-289.618	-64.257	-0.306	0.123
-288.603	-91.863	0.287	-0.080
-287.589	16.851	0.246	-0.192
-286.574	-102.626	0.366	-0.086
-285.559	-96.198	-0.195	0.051
-284.545	139.965	0.082	0.106
-283.530	-200.000	0.003	0.029
-282.516	-114.133	0.287	-0.055
-281.501	-111.345	0.134	0.027
-280.486	296.776	0.129	-0.233
-279.472	-200.000	0.003	0.083
-278.457	158.065	-0.220	0.301
-277.443	45.703	-0.275	0.251
-276.428	-10.965	0.157	-0.102
-275.413	-200.000	-0.021	0.129
-274.399	-200.000	0.016	-0.249
-273.384	-75.262	-0.125	0.044
-272.370	-126.542	-0.304	0.045
-271.355	-111.659	-0.187	0.037
-270.340	147.965	-0.050	0.066
-269.326	-200.000	0.005	0.231
-268.311	-83.269	0.261	-0.083
-267.297	-30.467	0.087	-0.049
-266.282	441.210	0.143	-0.308
-265.267	349.669	-0.047	0.092
-264.253	-68.798	-0.054	-0.021
-263.238	4.684	-0.210	-0.152
-262.224	296.540	-0.066	0.119
-261.209	-63.671	0.143	0.058
-260.195	204.384	0.089	-0.135
-259.180	-73.084	0.092	-0.033
-258.165	171.446	0.164	0.232
-257.151	-200.000	0.042	0.370
-256.136	55.181	-0.083	-0.080
-255.122	-115.831	0.335	-0.062
-254.107	19.355	-0.044	0.035
-253.092	245.962	-0.174	0.289
-252.078	800.000	-0.087	0.368
-251.063	-133.115	0.330	0.041
-250.049	272.475	-0.163	0.283
-249.034	-52.504	0.408	-0.186
-248.019	-11.858	-0.121	-0.078
-247.005	117.292	0.215	0.261
-245.990	38.537	-0.256	-0.225
-244.976	14.033	0.050	-0.039
-243.961	138.041	-0.074	0.095
-242.946	800.000	0.072	0.248
-241.932	-12.672	0.144	0.092
-240.917	800.000	0.028	-0.089
-239.903	47.803	0.234	0.215
-238.888	135.491	0.238	-0.305
-237.873	42.922	-0.053	0.048
-236.859	14.318	0.242	-0.186
-235.844	84.975	-0.079	-0.085
-234.830	800.000	-0.048	-0.204
-233.815	93.754	0.099	-0.110
-232.800	-133.563	-0.094	-0.012
-231.786	-91.086	-0.146	-0.041
-230.771	800.000	0.021	-0.066
-229.757	-156.660	0.223	0.014
-228.742	-118.196	-0.325	-0.057
-227.727	510.147	0.011	0.025
-226.713	-200.000	0.000	-0.007
-225.698	-200.000	0.010	-0.180
-224.684	-38.422	0.149	0.077
-223.669	14.938	0.266	-0.205
-222.655	-9.727	0.300	0.197
-221.640	159.823	-0.230	0.315
-220.625	-93.289	0.217	0.059
-219.611	-66.516	-0.312	-0.122
-218.596	222.918	-0.137	-0.218
-217.582	800.000	-0.051	-0.180
-216.567	87.198	-0.032	-0.035
-215.552	-200.000	-0.009	0.091
-214.538	476.554	0.101	-0.224
-213.523	-50.831	-0.193	0.089
-212.509	476.041	-0.110	0.246
-211.494	155.289	-0.137	-0.185
-210.479	179.990	0.161	0.233
-209.465	-93.940	-0.171	0.046
-208.450	-17.472	0.204	-0.126
-207.436	-107.244	0.424	-0.092
-206.421	-110.441	-0.217	-0.044
-205.406	-50.659	-0.221	-0.102
-204.392	800.000	-0.122	-0.368
-203.377	-197.223	0.298	0.002
-202.363	-94.740	-0.124	-0.033
-201.348	4.368	0.236	-0.170
-200.333	91.981	0.247	-0.274
-199.319	206.244	-0.073	0.111
-198.304	189.806	0.184	-0.271
-197.290	-200.000	0.026	0.135
-196.275	469.128	0.112	-0.248
-195.260	800.000	0.120	0.337
-194.246	800.000	-0.029	0.120
-193.231	-81.817	-0.007	-0.002
-192.217	-200.000	-0.011	0.109
-191.202	-108.109	-0.155	-0.033
-190.187	-173.189	-0.251	-0.008
-189.173	800.000	0.037	0.141
-188.158	99.395	0.221	0.251
-187.144	-60.204	-0.242	0.101
-186.129	-100.975	0.079	-0.019
-185.114	-139.084	0.132	0.014
-184.100	354.584	0.156	-0.304
-183.085	31.534	0.189	-0.160
-182.071	-135.361	-0.127	-0.015
-181.056	497.344	0.025	0.056
-180.042	164.725	0.072	-0.100
-179.027	66.800	-0.179	-0.179
-178.012	-6.483	-0.365	-0.245
-176.998	570.482	-0.031	-0.075
-175.983	800.000	-0.065	0.249
-174.969	-16.471	0.305	0.190
-173.954	411.682	-0.121	0.253
-172.939	-200.000	0.031	0.390
-171.925	60.485	-0.201	0.195
-170.910	45.428	-0.039	-0.035
-169.896	-56.979	-0.477	0.207
-168.881	36.981	0.131	0.114
-167.866	-200.000	-0.029	-0.245
-166.852	-200.000	0.017	-0.084
-165.837	-200.000	-0.007	0.169
-164.823	43.654	-0.185	0.166
-163.808	534.517	-0.135	-0.314
-162.793	-200.000	0.020	-0.216
-161.779	-86.936	0.245	0.073
-160.764	-8.325	-0.138	-0.091
-159.750	-140.796	0.179	0.018
-158.735	-102.551	-0.096	0.023
-157.720	-56.545	-0.179	0.078
-156.706	31.184	-0.186	0.157
-155.691	-200.000	-0.016	0.288
-154.677	94.648	-0.229	0.256
-153.662	-164.650	-0.421	0.019
-152.647	60.467	-0.039	0.038
-151.633	103.850	0.239	-0.276
-150.618	-17.265	-0.199	0.123
-149.604	-114.969	0.272	-0.051
-148.589	715.854	-0.051	0.132
-147.574	-39.691	0.226	0.116
-146.560	-81.724	0.314	0.101
-145.545	-81.154	0.213	-0.069
-144.531	64.953	0.175	0.174
-143.516	-66.149	-0.297	-0.116
-142.502	74.511	-0.133	0.137
-141.487	-120.428	-0.219	-0.037
-140.472	300.651	0.075	0.136
-139.458	469.402	0.024	0.054
-138.443	-74.585	-0.368	-0.130
-137.429	-200.000	-0.018	0.107
-136.414	-4.849	0.136	0.092
-135.399	-200.000	-0.009	-0.136
-134.385	-18.642	-0.202	-0.124
-133.370	800.000	-0.048	0.140
-132.356	-118.027	-0.219	0.038
-131.341	-92.222	0.228	0.063
-130.326	-76.958	-0.055	-0.019
-129.312	800.000	-0.062	0.242
-128.297	-102.126	0.118	-0.028
-127.283	-200.000	-0.021	-0.250
-126.268	476.638	-0.049	0.108
-125.253	-48.349	0.231	0.109
-124.239	-107.351	0.261	-0.056
-123.224	-23.853	-0.375	0.220
-122.210	-88.162	0.135	-0.040
-121.195	59.177	0.112	0.108
