DTS Sentinel unit serial number:	SN413079Multiplexer serial number:	ORYXHardware model number:	OX4-SRSoftware version number:	ORYX F/W v4.00 Oryx Data Collector v3.7.2.0data status	okinstallation	princeton_trtdifferential loss correction	single-endedforward channel	channel 2reverse channel	N/Adate	2019/09/13time	10:23:35forward acquisition time	60.00reverse acquisition time	0.00gamma	496.2192k internal	0.2323k external	0.2323temperature offset calibration	1.0192default loss term (dB/km)	0.3790temperature slope calibration	1.0000multiplexer offset coefficient	1.0000multiplexer slope coefficient	1.0000fibre end	0.00T internal ref (°C)	30.94T ext. ref 1 (°C)	4.54T ext. ref 2 (°C)	28.23length (m)	temperature (°C)	Stokes	anti-Stokes-747.200	-51.560	0.393	0.185
-746.185	-200.000	-0.029	0.174
-745.171	294.310	-0.091	0.168
-744.156	33.378	-0.247	0.217
-743.142	-200.000	-0.014	0.215
-742.127	32.967	-0.011	-0.009
-741.112	-200.000	0.008	0.058
-740.098	-63.096	-0.107	0.045
-739.083	-157.210	0.303	-0.019
-738.069	-200.000	-0.037	0.238
-737.054	-200.000	-0.085	0.448
-736.039	-82.403	-0.380	-0.125
-735.025	-40.082	0.206	-0.108
-734.010	-76.817	-0.357	0.126
-732.996	-120.752	0.137	-0.023
-731.981	2.531	-0.109	0.080
-730.966	800.000	-0.079	-0.283
-729.952	7.485	-0.137	0.104
-728.937	56.750	0.149	-0.146
-727.923	-200.000	-0.068	-0.358
-726.908	-39.271	0.361	-0.191
-725.894	75.963	-0.184	-0.197
-724.879	800.000	0.015	-0.047
-723.864	800.000	-0.113	-0.349
-722.850	-38.379	-0.201	0.107
-721.835	-11.591	-0.290	-0.192
-720.821	62.183	-0.252	0.253
-719.806	-171.642	-0.174	-0.006
-718.791	-104.843	-0.430	-0.100
-717.777	-66.204	-0.072	0.029
-716.762	-0.684	0.166	0.119
-715.748	502.187	0.117	0.273
-714.733	800.000	-0.094	0.273
-713.718	-165.190	0.366	-0.016
-712.704	197.536	-0.115	-0.178
-711.689	145.060	0.213	-0.288
-710.675	-56.409	-0.300	-0.134
-709.660	-200.000	-0.008	-0.158
-708.645	-69.064	0.121	0.047
-707.631	-200.000	0.035	0.225
-706.616	4.205	0.212	-0.156
-705.602	-187.728	0.213	0.003
-704.587	-38.120	-0.103	0.055
-703.572	-40.784	0.235	-0.123
-702.558	87.136	0.177	0.198
-701.543	-6.855	-0.070	0.048
-700.529	-2.399	-0.127	0.090
-699.514	105.201	0.145	-0.172
-698.499	-43.243	-0.087	-0.044
-697.485	-45.182	0.164	-0.082
-696.470	152.289	-0.216	-0.297
-695.456	51.221	-0.021	0.020
-694.441	-200.000	0.015	-0.101
-693.426	102.993	-0.075	-0.089
-692.412	800.000	-0.107	0.452
-691.397	-52.279	-0.131	0.061
-690.383	298.113	0.132	0.245
-689.368	-200.000	-0.010	-0.063
-688.354	-200.000	0.034	0.154
-687.339	-173.909	0.170	0.005
-686.324	800.000	0.053	0.194
-685.310	151.686	0.163	0.223
-684.295	-119.591	0.186	-0.032
-683.281	-22.252	0.336	-0.205
-682.266	64.348	0.110	0.111
-681.251	-200.000	0.004	-0.119
-680.237	-4.255	0.173	0.120
-679.222	-114.246	0.548	0.107
-678.208	-131.883	-0.122	-0.016
-677.193	-200.000	-0.042	-0.256
-676.178	-3.059	0.146	0.103
-675.164	-2.895	-0.243	-0.171
-674.149	641.264	-0.147	-0.378
-673.135	800.000	0.071	-0.203
-672.120	-61.181	-0.307	0.130
-671.105	-194.824	-0.285	-0.002
-670.091	438.444	0.039	0.085
-669.076	-134.504	-0.297	-0.037
-668.062	-135.507	-0.084	0.010
-667.047	18.501	0.144	-0.116
-666.032	-32.756	-0.333	0.187
-665.018	749.820	-0.035	0.094
-664.003	74.715	-0.163	0.173
-662.989	-200.000	-0.037	0.210
-661.974	156.271	-0.253	0.352
-660.959	45.839	0.329	0.306
-659.945	-7.085	-0.240	-0.164
-658.930	-5.783	0.297	0.205
-657.916	800.000	0.054	0.209
-656.901	-200.000	0.001	-0.101
-655.886	-87.849	0.239	-0.072
-654.872	-200.000	0.016	0.171
-653.857	361.793	-0.148	-0.299
-652.843	432.067	0.015	-0.033
-651.828	800.000	-0.055	-0.212
-650.814	-200.000	0.011	0.223
-649.799	244.192	-0.196	-0.331
-648.784	54.914	0.202	-0.196
-647.770	-49.291	0.180	-0.086
-646.755	360.002	-0.196	-0.395
-645.741	-34.109	0.137	0.076
-644.726	107.072	0.132	0.158
-643.711	64.258	-0.129	-0.130
-642.697	800.000	-0.059	-0.172
-641.682	-62.008	-0.437	-0.184
-640.668	-85.720	-0.136	-0.042
-639.653	-94.054	0.146	-0.040
-638.638	173.780	-0.161	-0.234
-637.624	603.124	-0.043	-0.107
-636.609	-200.000	-0.047	0.298
-635.595	-49.763	-0.168	-0.080
-634.580	16.834	-0.117	-0.093
-633.565	138.184	0.178	0.234
-632.551	-188.758	-0.109	-0.001
-631.536	95.500	-0.140	0.160
-630.522	-7.022	0.072	-0.049
-629.507	139.984	-0.037	0.049
-628.492	23.411	0.089	-0.073
-627.478	29.633	-0.321	0.275
-626.463	8.548	-0.175	-0.132
-625.449	134.371	-0.207	0.270
-624.434	268.248	-0.130	0.228
-623.419	-200.000	0.005	-0.047
-622.405	-70.000	-0.117	-0.045
-621.390	-127.836	-0.280	0.041
-620.376	-200.000	-0.011	-0.271
-619.361	54.483	-0.244	-0.236
-618.346	-2.044	-0.328	-0.232
-617.332	-152.112	-0.349	-0.026
-616.317	43.971	-0.255	0.235
-615.303	-146.377	0.108	-0.009
-614.288	-113.705	0.072	-0.014
-613.273	194.286	-0.225	-0.342
-612.259	36.114	0.203	0.180
-611.244	593.938	0.023	0.056
-610.230	291.428	-0.237	0.434
-609.215	-58.263	-0.086	0.038
-608.201	565.070	0.088	0.215
-607.186	-200.000	0.044	0.297
-606.171	-73.966	-0.378	-0.138
-605.157	297.353	0.160	-0.295
-604.142	1.661	0.065	-0.047
-603.128	43.937	-0.448	-0.413
-602.113	-85.567	-0.373	0.117
-601.098	800.000	0.080	0.308
-600.084	-67.217	-0.111	0.044
-599.069	-200.000	0.021	-0.122
-598.055	800.000	0.133	-0.402
-597.040	54.516	0.065	0.063
-596.025	112.011	-0.081	0.099
-595.011	185.496	-0.098	-0.146
-593.996	-108.708	0.188	0.040
-592.982	111.275	-0.388	-0.470
-591.967	-200.000	-0.008	0.408
-590.952	-87.827	-0.234	0.071
-589.938	-58.223	-0.194	0.085
-588.923	592.071	0.057	-0.141
-587.909	-73.445	0.182	-0.067
-586.894	-129.894	0.154	0.021
-585.879	58.274	-0.160	0.157
-584.865	-55.352	0.181	-0.081
-583.850	175.043	0.053	0.078
-582.836	800.000	0.065	-0.195
-581.821	-174.753	-0.162	0.005
-580.806	-110.060	0.040	-0.008
-579.792	697.356	-0.102	-0.269
-578.777	96.204	0.022	-0.025
-577.763	-200.000	-0.068	0.359
-576.748	91.321	0.099	-0.112
-575.733	-142.061	-0.230	-0.023
-574.719	800.000	0.076	0.292
-573.704	-81.187	0.257	-0.085
-572.690	581.796	-0.078	-0.193
-571.675	-200.000	0.020	0.187
-570.661	256.824	0.061	0.106
-569.646	-123.391	0.047	0.008
-568.631	-51.630	0.315	-0.147
-567.617	-67.154	-0.057	0.023
-566.602	14.698	0.179	0.141
-565.588	127.972	-0.203	0.259
-564.573	-200.000	0.011	0.299
-563.558	-117.293	-0.465	0.085
-562.544	201.489	-0.152	-0.235
-561.529	800.000	-0.062	-0.248
-560.515	42.125	-0.230	-0.210
-559.500	-159.507	-0.359	0.020
-558.485	800.000	0.059	0.221
-557.471	37.094	-0.152	-0.135
-556.456	-200.000	0.065	-0.329
-555.442	168.631	0.138	0.197
-554.427	-8.607	-0.308	-0.207
-553.412	-200.000	-0.013	0.267
-552.398	-200.000	-0.008	-0.053
-551.383	77.264	0.073	0.077
-550.369	95.316	0.116	0.132
-549.354	694.277	-0.031	0.082
-548.339	-200.000	0.022	-0.122
-547.325	-150.756	-0.156	-0.012
-546.310	-77.838	0.250	-0.087
-545.296	-158.451	-0.189	-0.011
-544.281	-76.136	0.124	0.044
-543.266	128.052	0.009	0.011
-542.252	800.000	-0.041	-0.122
-541.237	-200.000	0.013	-0.112
-540.223	583.232	0.061	-0.150
-539.208	-101.845	-0.195	-0.047
-538.193	-60.776	0.087	-0.037
-537.179	60.314	0.115	-0.114
-536.164	52.503	-0.186	0.178
-535.150	59.460	0.198	0.195
-534.135	114.912	-0.092	0.112
-533.121	-200.000	-0.027	0.205
-532.106	9.535	0.251	-0.190
-531.091	737.355	0.063	0.169
-530.077	-200.000	-0.030	0.169
-529.062	-62.308	-0.306	0.128
-528.048	800.000	-0.024	-0.094
-527.033	-120.531	0.421	0.072
-526.018	18.880	0.130	0.104
-525.004	136.176	0.094	-0.123
-523.989	800.000	0.078	0.227
-522.975	800.000	-0.155	0.447
-521.960	800.000	-0.052	-0.222
-520.945	-68.939	-0.277	0.107
-519.931	27.494	0.132	-0.111
-518.916	-81.779	-0.209	-0.069
-517.902	50.729	-0.033	0.031
-516.887	27.145	0.102	0.086
-515.872	-126.322	0.375	0.056
-514.858	-200.000	-0.020	0.332
-513.843	410.187	-0.041	0.087
-512.829	800.000	0.098	0.290
-511.814	112.078	-0.078	0.095
-510.799	-200.000	0.015	0.203
-509.785	9.425	0.094	0.071
-508.770	-45.073	-0.243	-0.121
-507.756	-200.000	0.073	-0.420
-506.741	-75.217	0.083	-0.030
-505.726	31.567	-0.093	0.080
-504.712	-50.158	-0.107	0.051
-503.697	-200.000	0.036	-0.299
-502.683	-115.025	-0.216	0.041
-501.668	-119.038	0.342	0.060
-500.653	-93.754	0.172	-0.047
-499.639	-168.475	0.272	0.010
-498.624	-200.000	0.012	-0.184
-497.610	426.942	-0.082	-0.178
-496.595	-89.764	-0.214	0.063
-495.581	-29.672	0.164	-0.093
-494.566	-7.507	0.178	0.120
-493.551	-8.285	0.273	-0.184
-492.537	-51.252	-0.155	0.072
-491.522	72.349	0.208	0.216
-490.508	-13.434	0.260	0.168
-489.493	-144.146	0.132	0.012
-488.478	-25.940	0.273	-0.161
-487.464	39.567	0.088	-0.079
-486.449	-50.306	0.214	-0.101
-485.435	-1.789	-0.123	0.086
-484.420	-103.351	0.254	-0.060
-483.405	-92.249	-0.437	0.123
-482.391	541.347	0.090	-0.214
-481.376	240.951	-0.168	-0.280
-480.362	-117.683	0.162	0.029
-479.347	800.000	0.041	0.172
-478.332	-124.877	0.437	-0.067
-477.318	-77.326	-0.282	0.098
-476.303	53.932	0.180	0.173
-475.289	-200.000	-0.006	0.175
-474.274	800.000	0.048	-0.179
-473.259	15.189	0.341	-0.267
-472.245	49.172	-0.339	0.319
-471.230	-49.616	-0.090	0.043
-470.216	411.168	0.058	-0.124
-469.201	-200.000	-0.006	0.262
-468.186	-75.360	-0.255	-0.091
-467.172	800.000	0.052	-0.192
-466.157	39.147	0.234	-0.209
-465.143	-109.850	0.314	-0.066
-464.128	-59.079	-0.309	-0.133
-463.113	800.000	-0.032	0.104
-462.099	41.743	0.128	-0.116
-461.084	4.836	0.256	0.188
-460.070	800.000	0.010	0.035
-459.055	242.257	0.128	0.214
-458.040	800.000	-0.061	0.188
-457.026	-168.332	0.247	-0.009
-456.011	-77.627	0.076	-0.026
-454.997	140.724	0.181	0.239
-453.982	-12.835	0.399	-0.260
-452.968	251.568	0.113	-0.192
-451.953	-78.240	0.318	-0.109
-450.938	-58.716	0.109	0.047
-449.924	-200.000	-0.015	-0.207
-448.909	413.822	-0.015	0.032
-447.895	-123.922	-0.127	-0.020
-446.880	-50.374	0.113	-0.053
-445.865	800.000	0.088	-0.329
-444.851	4.918	-0.191	0.140
-443.836	712.566	-0.087	-0.230
-442.822	215.065	-0.024	-0.038
-441.807	2.481	0.073	0.053
-440.792	511.829	-0.058	-0.134
-439.778	-200.000	0.011	0.289
-438.763	-132.765	-0.161	0.020
-437.749	-200.000	-0.007	-0.133
-436.734	757.107	-0.024	-0.064
-435.719	-59.383	0.448	0.192
-434.705	41.517	0.204	0.184
-433.690	297.844	-0.137	0.252
-432.676	144.007	-0.106	0.141
-431.661	358.630	-0.072	0.143
-430.646	-8.670	-0.070	-0.047
-429.632	-52.791	-0.163	-0.075
-428.617	75.729	0.299	0.315
-427.603	-200.000	0.004	-0.240
-426.588	-60.678	-0.198	0.084
-425.573	-134.858	-0.090	-0.011
-424.559	201.041	0.127	0.195
-423.544	800.000	0.126	-0.373
-422.530	800.000	0.082	-0.339
-421.515	-36.934	-0.132	-0.071
-420.500	-40.650	-0.219	0.113
-419.486	-68.964	0.055	-0.021
-418.471	-200.000	-0.001	0.272
-417.457	301.610	0.092	0.170
-416.442	199.834	-0.043	-0.066
-415.428	-72.488	0.257	-0.095
-414.413	-70.378	-0.051	0.019
-413.398	-194.251	0.293	0.002
-412.384	771.515	0.086	-0.234
-411.369	-167.237	0.331	0.013
-410.355	-87.146	0.157	-0.047
-409.340	800.000	-0.080	-0.296
-408.325	-200.000	-0.006	-0.030
-407.311	800.000	-0.079	0.252
-406.296	-200.000	0.073	-0.326
-405.282	-42.593	0.287	0.146
-404.267	108.650	-0.185	-0.220
-403.252	-65.876	-0.206	-0.082
-402.238	50.052	0.302	0.284
-401.223	306.914	-0.143	-0.265
-400.209	-50.251	-0.331	-0.156
-399.194	-6.865	0.220	-0.149
-398.179	165.695	-0.035	0.050
-397.165	-64.657	-0.145	0.058
-396.150	-80.509	-0.214	-0.071
-395.136	-169.215	0.185	0.007
-394.121	-90.565	0.050	-0.014
-393.106	-200.000	-0.020	0.244
-392.092	-106.043	-0.229	0.051
-391.077	-141.959	-0.170	0.017
-390.063	764.547	-0.045	-0.122
-389.048	148.858	-0.005	-0.007
-388.033	-81.782	0.311	-0.101
-387.019	97.679	0.265	-0.303
-386.004	-196.091	0.300	0.002
-384.990	-12.405	-0.195	-0.127
-383.975	-20.789	-0.183	0.111
-382.960	-71.815	-0.401	0.149
-381.946	507.743	0.194	0.448
-380.931	-116.889	0.397	-0.072
-379.917	-156.184	-0.265	0.017
-378.902	-137.151	-0.414	-0.047
-377.888	25.769	0.192	0.160
-376.873	390.410	-0.216	-0.446
-375.858	-38.281	-0.183	0.096
-374.844	-79.032	0.031	-0.010
-373.829	-34.827	-0.242	0.131
-372.815	-200.000	0.273	0.000
-371.800	381.656	-0.146	0.299
-370.785	495.718	-0.075	-0.172
-369.771	167.649	0.121	0.171
-368.756	-200.000	0.032	-0.194
-367.742	150.752	0.153	0.207
-366.727	471.996	-0.048	-0.107
-365.712	317.322	0.105	0.197
-364.698	-38.864	-0.158	0.083
-363.683	65.992	-0.224	-0.226
-362.669	16.183	-0.119	0.093
-361.654	-67.301	-0.188	-0.074
-360.639	48.138	-0.258	0.240
-359.625	-158.441	0.198	-0.011
-358.610	-200.000	0.011	0.099
-357.596	-12.355	-0.150	-0.097
-356.581	528.305	-0.095	0.224
-355.566	581.735	-0.137	-0.334
-354.552	-200.000	-0.095	-0.549
-353.537	-73.787	0.283	0.102
-352.523	125.776	0.118	-0.148
-351.508	-200.000	0.045	0.315
-350.493	753.137	0.076	-0.205
-349.479	375.629	0.066	-0.134
-348.464	29.243	-0.103	-0.087
-347.450	-200.000	-0.040	0.249
-346.435	-63.744	-0.250	-0.102
-345.420	-52.846	-0.107	0.049
-344.406	85.491	0.331	0.361
-343.391	-83.217	0.064	0.020
-342.377	100.200	-0.248	-0.286
-341.362	-56.995	-0.140	0.061
-340.348	-44.694	-0.246	0.122
-339.333	800.000	0.057	0.202
-338.318	800.000	0.101	0.297
-337.304	-105.189	-0.258	0.059
-336.289	28.913	0.070	0.059
-335.275	-200.000	-0.064	-0.307
-334.260	-123.797	-0.173	0.027
-333.245	-200.000	0.053	-0.259
-332.231	159.687	0.053	-0.073
-331.216	800.000	-0.108	-0.300
-330.202	-36.299	-0.279	-0.150
-329.187	-156.968	-0.320	0.019
-328.172	476.540	0.071	0.159
-327.158	242.757	0.214	0.356
-326.143	-107.355	0.254	-0.055
-325.129	-47.488	0.087	0.042
-324.114	800.000	-0.140	0.520
-323.099	-45.810	-0.197	0.097
-322.085	-94.071	0.145	-0.040
-321.070	-56.435	0.339	0.149
-320.056	-36.039	-0.300	-0.161
-319.041	-84.226	-0.108	0.034
-318.026	-97.981	0.183	-0.047
-317.012	800.000	-0.072	0.268
-315.997	-200.000	-0.010	0.160
-314.983	800.000	-0.090	0.266
-313.968	-200.000	0.003	-0.172
-312.953	-200.000	0.010	0.190
-311.939	-87.526	-0.066	-0.020
-310.924	337.493	0.076	-0.146
-309.910	-47.546	-0.106	-0.051
-308.895	258.090	0.145	-0.248
-307.880	223.519	-0.059	-0.094
-306.866	-4.535	0.163	-0.112
-305.851	79.280	-0.106	0.113
-304.837	-1.424	-0.145	-0.102
-303.822	-26.894	0.243	-0.141
-302.807	-77.969	-0.086	0.030
-301.793	-112.675	0.292	-0.058
-300.778	337.523	0.058	-0.112
-299.764	59.656	0.063	-0.062
-298.749	119.210	0.091	-0.112
-297.735	-149.780	0.248	-0.019
-296.720	-135.584	-0.084	0.010
-295.705	-200.000	0.011	-0.128
-294.691	173.897	-0.170	-0.244
-293.676	182.663	0.321	-0.470
-292.662	-59.915	-0.221	-0.094
-291.647	-44.209	0.090	-0.045
-290.632	41.554	-0.109	0.098
-289.618	406.892	-0.162	0.340
-288.603	800.000	0.085	0.236
-287.589	800.000	0.072	-0.302
-286.574	-62.104	-0.222	-0.092
-285.559	-200.000	0.010	0.141
-284.545	-175.542	0.336	-0.009
-283.530	93.367	-0.067	-0.075
-282.516	800.000	-0.088	-0.256
-281.501	-169.195	0.299	-0.011
-280.486	-55.337	-0.282	0.125
-279.472	-200.000	-0.029	0.282
-278.457	539.098	-0.075	0.177
-277.443	-49.151	0.186	-0.088
-276.428	-91.854	-0.210	0.059
-275.413	-148.484	0.141	-0.011
-274.399	-106.538	-0.321	0.071
-273.384	800.000	0.078	-0.306
-272.370	119.025	0.239	0.292
-271.355	-34.678	-0.161	0.087
-270.340	-5.929	0.137	-0.093
-269.326	65.087	0.190	-0.190
-268.311	-196.566	-0.287	-0.002
-267.297	-78.668	0.327	0.111
-266.282	226.815	-0.127	-0.205
-265.267	-8.893	-0.086	-0.057
-264.253	-200.000	-0.018	0.260
-263.238	-165.063	0.239	-0.011
-262.224	60.767	0.154	0.152
-261.209	756.138	-0.043	-0.114
-260.195	-56.853	0.156	-0.068
-259.180	-135.102	0.198	0.024
-258.165	13.459	0.132	0.102
-257.151	110.508	-0.151	0.179
-256.136	800.000	-0.085	-0.261
-255.122	800.000	-0.077	-0.221
-254.107	800.000	-0.065	-0.219
-253.092	130.902	-0.208	0.264
-252.078	284.944	-0.055	-0.099
-251.063	-200.000	0.006	-0.107
-250.049	-97.090	0.070	0.018
-249.034	-90.629	-0.170	0.049
-248.019	-191.403	0.132	-0.001
-247.005	335.852	0.084	0.162
-245.990	-141.099	0.394	-0.040
-244.976	-200.000	-0.020	0.103
-243.961	800.000	0.069	0.207
-242.946	9.366	-0.269	0.201
-241.932	-174.506	-0.209	-0.006
-240.917	-50.032	0.198	0.093
-239.903	201.522	0.227	0.346
-238.888	-200.000	0.032	0.159
-237.873	-200.000	-0.003	-0.068
-236.859	-200.000	-0.017	0.226
-235.844	-200.000	0.141	-0.000
-234.830	-17.945	0.308	0.191
-233.815	-200.000	0.041	0.241
-232.800	4.408	0.127	0.092
-231.786	112.937	0.070	0.084
-230.771	-114.606	-0.006	0.001
-229.757	-31.337	-0.456	0.254
-228.742	-57.367	0.081	0.035
-227.727	-118.659	0.335	0.058
-226.713	262.920	-0.097	-0.166
-225.698	-42.951	0.161	0.081
-224.684	-85.859	0.572	-0.175
-223.669	469.548	0.057	0.127
-222.655	-42.831	0.374	0.188
-221.640	314.628	-0.198	-0.369
-220.625	800.000	-0.054	-0.175
-219.611	-124.993	0.176	0.027
-218.596	136.427	-0.187	0.241
-217.582	-200.000	-0.025	-0.112
-216.567	-200.000	-0.105	-0.563
-215.552	-46.168	-0.285	-0.139
-214.538	-42.342	0.077	0.039
-213.523	298.289	-0.048	0.087
-212.509	-104.551	-0.234	0.053
-211.494	73.806	-0.371	0.384
-210.479	-132.091	0.511	0.066
-209.465	-81.355	0.202	0.066
-208.450	-62.944	-0.429	-0.175
-207.436	144.783	0.101	0.134
-206.421	-103.482	-0.064	0.015
-205.406	-132.171	-0.161	-0.021
-204.392	-109.716	0.218	-0.045
-203.377	683.506	-0.075	0.194
-202.363	45.399	-0.317	0.290
-201.348	93.932	0.213	-0.239
-200.333	800.000	0.059	0.252
-199.319	-67.944	0.116	0.045
-198.304	-32.673	0.114	-0.063
-197.290	-128.742	0.176	0.025
-196.275	-123.603	-0.236	-0.037
-195.260	49.886	0.394	-0.368
-194.246	-22.472	0.286	-0.171
-193.231	321.326	0.103	0.193
-192.217	-5.603	0.389	0.264
-191.202	294.624	-0.194	-0.350
-190.187	-89.668	-0.151	0.044
-189.173	-3.083	0.158	0.109
-188.158	-13.561	-0.102	-0.065
-187.144	56.529	-0.187	-0.180
-186.129	-200.000	0.034	-0.315
-185.114	-163.430	0.060	0.003
-184.100	800.000	0.012	0.045
-183.085	46.518	-0.078	0.071
-182.071	-200.000	-0.045	-0.292
-181.056	260.963	-0.100	-0.171
-180.042	-153.585	-0.209	-0.014
-179.027	110.255	-0.286	-0.339
-178.012	-200.000	0.005	0.102
-176.998	800.000	-0.048	-0.150
-175.983	33.748	0.135	0.116
-174.969	-111.422	-0.324	0.065
-173.954	-36.798	-0.265	-0.140
-172.939	43.005	-0.060	-0.054
-171.925	191.495	-0.103	-0.153
-170.910	70.402	0.199	0.204
-169.896	-138.345	0.054	0.006
-168.881	204.441	-0.126	-0.193
-167.866	-1.939	-0.180	0.125
-166.852	238.085	0.110	-0.180
-165.837	-162.201	0.207	-0.010
-164.823	-67.073	0.111	0.043
-163.808	160.396	0.181	0.249
-162.793	-54.038	0.229	-0.103
-161.779	-119.096	-0.364	-0.063
-160.764	-56.379	0.114	0.050
-159.750	-65.740	-0.047	0.019
-158.735	-56.870	-0.210	0.091
-157.720	-200.000	-0.015	0.188
-156.706	482.321	-0.095	0.214
-155.691	-39.139	0.131	-0.068
-154.677	0.652	0.251	0.177
-153.662	-46.412	0.329	0.159
-152.647	-31.488	0.236	-0.131
-151.633	64.995	0.082	-0.082
-150.618	-52.164	0.338	0.155
-149.604	30.915	0.169	0.143
-148.589	-200.000	-0.022	0.294
-147.574	-9.685	-0.301	-0.198
-146.560	75.342	-0.233	-0.242
-145.545	-86.729	0.125	0.038
-144.531	-200.000	0.049	0.284
-143.516	1.618	0.312	0.222
-142.502	145.602	-0.213	0.282
-141.487	-200.000	-0.058	-0.331
-140.472	250.951	-0.031	0.052
-139.458	79.737	-0.140	0.148
-138.443	-118.356	0.257	-0.045
-137.429	536.164	0.021	-0.049
-136.414	-113.018	0.196	-0.038
-135.399	-97.135	-0.257	0.066
-134.385	-68.582	0.048	0.018
-133.370	37.157	0.117	-0.102
-132.356	-29.231	-0.124	-0.070
-131.341	118.261	0.187	-0.227
-130.326	-200.000	0.047	0.272
-129.312	-57.384	0.166	0.072
-128.297	253.773	0.154	-0.259
-127.283	-38.023	0.338	-0.177
-126.268	503.599	0.145	0.330
-125.253	-65.342	-0.162	0.064
-124.239	25.760	0.256	-0.210
-123.224	-20.354	0.249	0.151
-122.210	485.275	0.123	-0.275
-121.195	2.419	-0.043	0.031
-120.180	100.957	0.227	-0.260
