DTS Sentinel unit serial number:	SN413079Multiplexer serial number:	ORYXHardware model number:	OX4-SRSoftware version number:	ORYX F/W v4.00 Oryx Data Collector v3.7.2.0data status	okinstallation	princeton_trtdifferential loss correction	single-endedforward channel	channel 2reverse channel	N/Adate	2019/09/18time	14:31:34forward acquisition time	60.00reverse acquisition time	0.00gamma	496.2192k internal	0.2318k external	0.2318temperature offset calibration	0.9998default loss term (dB/km)	0.3790temperature slope calibration	1.0000multiplexer offset coefficient	1.0000multiplexer slope coefficient	1.0000fibre end	0.00T internal ref (°C)	34.42T ext. ref 1 (°C)	0.69T ext. ref 2 (°C)	31.64length (m)	temperature (°C)	Stokes	anti-Stokes-747.200	-65.501	0.163	0.066
-746.185	800.000	-0.108	0.352
-745.171	-141.965	0.370	0.037
-744.156	48.901	-0.067	0.064
-743.142	160.875	-0.136	-0.192
-742.127	22.725	-0.185	0.153
-741.112	199.256	0.220	0.340
-740.098	800.000	0.124	0.372
-739.083	-139.336	-0.293	0.032
-738.069	592.252	-0.101	0.253
-737.054	240.973	0.081	0.136
-736.039	-143.630	-0.295	-0.028
-735.025	-7.011	-0.215	0.148
-734.010	70.689	0.053	-0.055
-732.996	800.000	-0.067	-0.241
-731.981	-77.966	0.310	-0.108
-730.966	376.651	0.199	0.411
-729.952	-94.072	0.296	-0.082
-728.937	-200.000	0.016	-0.206
-727.923	358.833	0.122	0.247
-726.908	133.609	-0.060	-0.079
-725.894	284.517	-0.211	-0.384
-724.879	800.000	-0.022	-0.062
-723.864	34.815	0.113	-0.100
-722.850	14.827	-0.412	0.326
-721.835	800.000	0.068	0.255
-720.821	-123.559	-0.316	0.051
-719.806	-153.208	-0.120	-0.009
-718.791	800.000	-0.072	-0.305
-717.777	41.400	0.206	-0.188
-716.762	43.251	0.096	0.089
-715.748	-71.451	0.272	0.103
-714.733	109.292	-0.120	0.145
-713.718	73.781	-0.175	-0.185
-712.704	-96.935	0.274	-0.073
-711.689	-102.283	-0.307	0.075
-710.675	182.886	-0.101	-0.151
-709.660	800.000	0.073	-0.255
-708.645	56.286	-0.224	0.220
-707.631	-200.000	0.014	-0.147
-706.616	800.000	0.101	-0.380
-705.602	-200.000	0.026	-0.150
-704.587	62.911	0.138	-0.139
-703.572	-73.360	0.267	-0.099
-702.558	-158.153	-0.173	-0.010
-701.543	-2.629	0.291	0.206
-700.529	-74.656	-0.310	-0.113
-699.514	-200.000	0.002	-0.398
-698.499	800.000	-0.064	0.235
-697.485	247.672	-0.071	-0.121
-696.470	-200.000	-0.005	0.102
-695.456	-87.000	0.315	-0.097
-694.441	92.225	-0.186	-0.212
-693.426	-94.622	-0.197	-0.054
-692.412	-128.321	-0.192	-0.028
-691.397	390.201	-0.027	0.056
-690.383	-85.247	-0.133	0.042
-689.368	-38.118	0.214	-0.115
-688.354	-1.370	-0.142	0.101
-687.339	166.073	0.123	-0.175
-686.324	463.520	0.059	-0.133
-685.310	-200.000	-0.037	0.266
-684.295	-69.490	-0.368	0.143
-683.281	-200.000	-0.004	-0.244
-682.266	8.380	0.059	-0.045
-681.251	-77.042	0.132	-0.046
-680.237	-10.330	0.317	-0.212
-679.222	-35.943	0.247	-0.135
-678.208	-184.991	0.092	0.001
-677.193	77.536	0.045	-0.049
-676.178	232.150	-0.066	0.110
-675.164	-200.000	0.004	0.056
-674.149	732.200	0.005	-0.015
-673.135	-47.111	-0.244	-0.120
-672.120	134.737	-0.142	0.187
-671.105	-200.000	-0.038	0.505
-670.091	83.347	-0.092	0.101
-669.076	-200.000	0.031	-0.184
-668.062	27.549	-0.036	-0.031
-667.047	-124.178	-0.206	0.033
-666.032	-160.197	0.317	0.017
-665.018	-118.448	0.179	0.032
-664.003	82.282	-0.072	-0.079
-662.989	-70.441	0.079	0.030
-661.974	-200.000	0.012	-0.058
-660.959	800.000	-0.092	0.288
-659.945	223.516	0.056	0.090
-658.930	56.956	-0.268	-0.264
-657.916	501.290	-0.184	-0.428
-656.901	-120.581	-0.119	0.020
-655.886	-200.000	0.026	-0.216
-654.872	-78.150	-0.321	0.111
-653.857	-79.884	-0.447	0.152
-652.843	300.175	0.122	0.227
-651.828	71.277	0.107	0.112
-650.814	-62.739	0.325	0.136
-649.799	-148.388	-0.163	0.013
-648.784	518.186	0.047	-0.111
-647.770	36.858	-0.374	-0.333
-646.755	-200.000	-0.028	-0.262
-645.741	-200.000	0.057	0.369
-644.726	431.721	0.112	0.244
-643.711	-200.000	-0.012	0.154
-642.697	-200.000	-0.001	-0.105
-641.682	-13.649	-0.091	0.059
-640.668	-45.347	0.043	-0.021
-639.653	-112.395	0.044	0.009
-638.638	-200.000	-0.045	0.216
-637.624	2.736	-0.138	-0.101
-636.609	225.243	-0.030	0.049
-635.595	-200.000	-0.087	0.409
-634.580	63.936	-0.058	-0.059
-633.565	94.632	-0.130	0.149
-632.551	-155.943	-0.268	0.017
-631.536	547.349	-0.068	-0.165
-630.522	203.511	0.165	-0.257
-629.507	-94.174	0.254	0.070
-628.492	611.828	0.063	0.158
-627.478	49.473	-0.054	-0.052
-626.463	402.745	-0.069	0.147
-625.449	-200.000	0.029	0.150
-624.434	-200.000	0.040	0.222
-623.419	-7.495	-0.262	-0.179
-622.405	-95.178	-0.228	0.062
-621.390	-34.495	0.087	0.048
-620.376	-38.185	-0.182	-0.097
-619.361	63.344	-0.317	-0.320
-618.346	259.621	0.060	0.104
-617.332	-59.488	-0.085	0.037
-616.317	-110.938	-0.116	-0.024
-615.303	-143.701	-0.613	-0.058
-614.288	104.152	-0.219	0.259
-613.273	-200.000	0.026	0.000
-612.259	-88.373	-0.233	0.070
-611.244	58.460	-0.220	-0.217
-610.230	252.482	0.161	0.277
-609.215	-122.529	0.318	-0.052
-608.201	800.000	-0.110	0.375
-607.186	191.562	0.116	-0.175
-606.171	-99.702	-0.434	-0.109
-605.157	471.789	0.047	0.107
-604.142	-11.404	0.095	-0.063
-603.128	-33.405	0.357	0.198
-602.113	62.151	0.266	0.267
-601.098	-90.529	0.468	-0.136
-600.084	-200.000	-0.022	0.101
-599.069	-28.921	0.250	0.144
-598.055	13.927	-0.310	0.243
-597.040	-68.672	-0.144	-0.056
-596.025	800.000	0.083	-0.278
-595.011	435.418	0.062	-0.136
-593.996	30.013	-0.163	-0.140
-592.982	-200.000	0.001	-0.050
-591.967	228.025	-0.086	0.141
-590.952	-200.000	-0.006	-0.194
-589.938	-200.000	0.034	-0.197
-588.923	279.379	-0.297	-0.533
-587.909	-13.933	0.081	0.053
-586.894	-200.000	0.070	0.646
-585.879	-200.000	-0.001	0.289
-584.865	284.838	-0.139	0.252
-583.850	-48.865	-0.233	0.113
-582.836	-91.455	-0.170	-0.049
-581.821	-1.514	0.186	-0.132
-580.806	-61.162	-0.139	-0.059
-579.792	-124.815	0.153	-0.024
-578.777	-104.045	0.194	0.045
-577.763	125.810	0.087	0.110
-576.748	-70.127	0.102	0.039
-575.733	-17.126	-0.224	-0.142
-574.719	-200.000	0.018	-0.305
-573.704	-161.382	0.119	0.006
-572.690	-28.536	-0.088	0.051
-571.675	284.400	-0.164	0.297
-570.661	800.000	0.047	0.173
-569.646	52.345	0.130	0.125
-568.631	-22.587	0.133	-0.081
-567.617	800.000	0.012	0.036
-566.602	10.596	-0.150	-0.115
-565.588	-75.672	0.150	-0.054
-564.573	119.480	0.215	-0.268
-563.558	94.433	0.227	-0.259
-562.544	-141.989	0.432	0.043
-561.529	-200.000	-0.037	-0.237
-560.515	800.000	0.092	-0.357
-559.500	-111.299	-0.118	-0.024
-558.485	47.974	-0.165	-0.155
-557.471	-76.186	-0.173	-0.061
-556.456	89.144	0.079	-0.089
-555.442	140.063	0.163	0.216
-554.427	800.000	-0.023	0.069
-553.412	-200.000	0.003	-0.269
-552.398	271.188	-0.048	-0.084
-551.383	255.837	0.111	0.191
-550.369	-54.157	-0.192	-0.088
-549.354	-105.183	0.304	-0.070
-548.339	395.968	0.037	-0.077
-547.325	-200.000	-0.001	-0.181
-546.310	-33.400	-0.205	-0.114
-545.296	48.990	-0.065	-0.061
-544.281	60.181	-0.209	-0.207
-543.266	-8.106	-0.319	-0.216
-542.252	800.000	0.039	-0.158
-541.237	-149.673	0.198	-0.016
-540.223	800.000	-0.067	0.290
-539.208	-92.168	0.136	0.039
-538.193	147.449	-0.336	-0.454
-537.179	91.135	-0.167	-0.188
-536.164	-128.311	0.214	-0.031
-535.150	-38.777	-0.299	-0.159
-534.135	-88.925	0.207	-0.062
-533.121	-19.524	0.371	0.230
-532.106	-6.214	0.138	0.095
-531.091	-121.051	-0.318	-0.053
-530.077	-200.000	-0.013	0.107
-529.062	-2.151	-0.394	-0.277
-528.048	369.174	0.138	0.279
-527.033	231.225	-0.124	0.204
-526.018	557.792	0.100	-0.242
-525.004	-143.933	-0.218	0.021
-523.989	15.976	0.186	-0.147
-522.975	18.869	0.058	0.047
-521.960	776.876	0.085	-0.233
-520.945	-32.932	0.210	0.117
-519.931	-8.416	0.089	0.060
-518.916	484.552	0.043	-0.099
-517.902	-193.847	-0.191	0.002
-516.887	-200.000	-0.005	0.053
-515.872	-36.147	-0.140	-0.076
-514.858	-124.936	-0.045	-0.007
-513.843	302.145	-0.103	0.191
-512.829	-200.000	-0.053	-0.426
-511.814	24.381	-0.195	0.161
-510.799	-130.177	-0.202	-0.028
-509.785	-200.000	-0.005	0.397
-508.770	-200.000	-0.016	0.081
-507.756	-109.143	-0.218	0.046
-506.741	-88.741	-0.231	-0.069
-505.726	-137.482	0.402	0.046
-504.712	489.560	-0.098	0.224
-503.697	-200.000	0.033	0.213
-502.683	222.341	-0.248	-0.401
-501.668	-61.914	-0.331	-0.139
-500.653	425.691	0.052	0.113
-499.639	53.007	0.192	0.185
-498.624	62.679	0.186	-0.187
-497.610	161.906	-0.190	0.266
-496.595	-200.000	-0.006	-0.291
-495.581	76.197	0.393	-0.417
-494.566	-200.000	-0.002	0.246
-493.551	79.851	-0.263	0.283
-492.537	-40.553	0.193	-0.100
-491.522	-126.147	0.176	-0.026
-490.508	251.369	-0.111	0.190
-489.493	-200.000	-0.041	-0.196
-488.478	-61.916	-0.049	-0.021
-487.464	23.956	0.058	-0.048
-486.449	-93.680	-0.258	-0.071
-485.435	64.193	-0.280	0.282
-484.420	-98.161	-0.139	0.036
-483.405	27.853	-0.341	-0.288
-482.391	-200.000	0.006	-0.211
-481.376	-10.317	-0.173	0.115
-480.362	800.000	-0.028	0.080
-479.347	549.112	0.069	-0.166
-478.332	800.000	0.029	-0.083
-477.318	584.537	0.141	-0.347
-476.303	212.514	0.156	0.246
-475.289	-200.000	-0.013	0.094
-474.274	-97.249	-0.242	-0.063
-473.259	75.848	-0.043	-0.045
-472.245	-200.000	-0.077	-0.354
-471.230	-200.000	-0.039	0.375
-470.216	-51.385	-0.215	-0.101
-469.201	800.000	0.019	-0.076
-468.186	130.040	0.282	0.361
-467.172	-166.205	0.185	0.008
-466.157	226.973	0.131	0.212
-465.143	-109.310	-0.012	0.002
-464.128	457.470	0.086	-0.192
-463.113	545.434	-0.078	-0.187
-462.099	66.674	-0.123	-0.125
-461.084	99.360	0.157	-0.182
-460.070	450.093	0.137	0.303
-459.055	32.756	0.071	0.061
-458.040	-53.484	0.247	-0.113
-457.026	233.699	-0.187	-0.308
-456.011	80.334	0.059	-0.064
-454.997	-20.555	-0.197	0.121
-453.982	-160.210	0.259	0.014
-452.968	-153.062	0.082	0.006
-451.953	1.851	-0.125	0.090
-450.938	97.375	0.255	0.292
-449.924	19.941	0.136	0.110
-448.909	-94.471	0.099	0.027
-447.895	-5.451	0.221	0.152
-446.880	40.969	0.065	-0.059
-445.865	223.499	0.135	0.218
-444.851	-116.260	0.345	0.064
-443.836	707.321	0.097	-0.256
-442.822	-159.604	-0.227	0.013
-441.807	-88.983	-0.130	-0.039
-440.792	66.269	-0.300	0.305
-439.778	-69.328	0.227	-0.087
-438.763	325.045	-0.068	0.130
-437.749	-77.400	-0.233	0.081
-436.734	-135.440	-0.250	0.030
-435.719	-39.952	-0.279	-0.145
-434.705	36.621	0.103	-0.091
-433.690	-200.000	0.000	0.203
-432.676	-161.777	0.166	0.008
-431.661	-22.764	0.104	0.063
-430.646	211.446	-0.062	0.097
-429.632	11.779	0.307	-0.236
-428.617	-73.955	-0.160	0.058
-427.603	-159.780	-0.296	0.016
-426.588	-58.607	-0.116	-0.050
-425.573	-123.925	-0.133	0.021
-424.559	-93.723	-0.315	-0.087
-423.544	-86.955	0.209	-0.064
-422.530	-200.000	-0.000	-0.019
-421.515	249.371	-0.074	-0.126
-420.500	-43.067	-0.080	-0.041
-419.486	22.562	-0.088	-0.072
-418.471	-91.894	0.382	0.108
-417.457	800.000	0.042	0.156
-416.442	-78.415	-0.311	0.107
-415.428	-200.000	-0.032	0.187
-414.413	139.050	-0.249	-0.326
-413.398	-58.174	0.214	0.093
-412.384	324.369	0.107	0.204
-411.369	17.340	-0.064	0.050
-410.355	-200.000	-0.009	-0.123
-409.340	192.517	-0.091	0.137
-408.325	-172.930	-0.149	-0.005
-407.311	-46.915	-0.200	0.097
-406.296	137.826	0.042	0.055
-405.282	-105.847	-0.203	-0.046
-404.267	-200.000	-0.028	0.242
-403.252	-161.584	-0.086	0.004
-402.238	-92.402	0.140	-0.039
-401.223	-73.229	0.302	-0.111
-400.209	-32.472	0.246	0.137
-399.194	49.183	-0.226	-0.212
-398.179	-32.686	0.339	0.188
-397.165	-11.254	-0.263	0.173
-396.150	-175.306	-0.107	0.003
-395.136	-34.063	0.087	0.048
-394.121	-145.917	-0.188	-0.017
-393.106	-190.297	0.032	-0.000
-392.092	-189.845	-0.443	0.005
-391.077	524.422	0.062	0.145
-390.063	30.959	0.185	0.158
-389.048	800.000	-0.026	-0.096
-388.033	-75.682	-0.123	-0.044
-387.019	800.000	-0.015	-0.065
-386.004	-47.142	-0.020	0.010
-384.990	35.835	-0.121	0.106
-383.975	169.833	0.115	0.164
-382.960	169.012	0.117	-0.167
-381.946	314.735	0.127	0.238
-380.931	232.678	0.059	0.096
-379.917	-122.552	0.148	-0.024
-378.902	63.112	0.295	-0.295
-377.888	-96.332	0.229	-0.060
-376.873	623.611	-0.050	0.125
-375.858	21.781	0.066	-0.054
-374.844	-200.000	0.002	-0.082
-373.829	-3.856	0.041	-0.028
-372.815	-37.133	-0.145	0.077
-371.800	-200.000	-0.027	0.203
-370.785	-200.000	0.001	-0.007
-369.771	12.657	-0.147	0.113
-368.756	137.465	-0.228	0.298
-367.742	-173.399	-0.225	0.007
-366.727	6.577	0.198	-0.147
-365.712	-143.028	0.231	0.022
-364.698	-48.999	-0.188	0.090
-363.683	-60.400	0.167	-0.071
-362.669	-55.304	0.320	-0.143
-361.654	-42.367	0.183	-0.093
-360.639	-148.552	-0.165	-0.013
-359.625	674.800	-0.044	0.115
-358.610	800.000	-0.017	0.053
-357.596	800.000	-0.044	0.134
-356.581	-136.607	-0.161	-0.019
-355.566	-200.000	-0.054	0.382
-354.552	537.983	0.052	-0.123
-353.537	404.909	0.087	-0.182
-352.523	-84.913	0.165	-0.052
-351.508	160.453	0.148	-0.206
-350.493	-61.648	0.194	-0.081
-349.479	498.728	-0.078	-0.178
-348.464	128.926	-0.093	0.118
-347.450	800.000	0.056	0.191
-346.435	217.918	0.231	0.367
-345.420	-89.893	-0.123	0.036
-344.406	-40.527	-0.173	0.090
-343.391	-200.000	0.027	-0.208
-342.377	222.024	-0.035	-0.057
-341.362	217.206	0.213	-0.337
-340.348	-200.000	0.034	-0.164
-339.333	120.034	0.033	-0.041
-338.318	61.310	-0.246	-0.244
-337.304	504.033	0.048	-0.110
-336.289	-84.786	-0.062	0.020
-335.275	137.421	0.025	-0.033
-334.260	154.169	-0.025	0.035
-333.245	100.766	-0.162	0.187
-332.231	63.169	-0.109	0.109
-331.216	-200.000	0.049	-0.421
-330.202	-47.300	0.149	0.072
-329.187	123.185	0.233	0.291
-328.172	-200.000	0.003	0.048
-327.158	47.226	-0.096	0.089
-326.143	-51.091	-0.274	-0.128
-325.129	800.000	-0.099	0.312
-324.114	13.920	-0.147	0.114
-323.099	20.166	-0.131	-0.105
-322.085	219.075	0.157	-0.250
-321.070	124.791	0.264	0.331
-320.056	59.615	-0.070	0.069
-319.041	195.700	-0.022	0.033
-318.026	88.960	-0.222	0.246
-317.012	1.703	0.182	-0.131
-315.997	15.547	0.240	-0.188
-314.983	-67.546	0.200	-0.078
-313.968	800.000	-0.037	0.120
-312.953	-82.664	-0.314	-0.101
-311.939	-48.855	0.156	-0.074
-310.924	159.066	-0.187	0.258
-309.910	-36.706	0.093	0.050
-308.895	-17.183	0.087	-0.054
-307.880	-38.352	0.275	-0.145
-306.866	-24.406	0.068	-0.041
-305.851	-83.158	-0.133	-0.043
-304.837	42.790	0.244	-0.222
-303.822	-61.490	0.206	0.086
-302.807	-117.500	-0.043	-0.008
-301.793	-59.170	-0.249	0.107
-300.778	-200.000	0.009	0.045
-299.764	-138.234	0.139	-0.015
-298.749	659.349	0.138	-0.354
-297.735	-9.459	0.236	-0.156
-296.720	115.412	-0.092	0.112
-295.705	-131.192	-0.129	0.017
-294.691	-122.723	-0.096	0.015
-293.676	-200.000	0.004	-0.021
-292.662	800.000	0.068	-0.232
-291.647	-60.672	-0.296	-0.125
-290.632	-84.949	-0.110	0.034
-289.618	15.603	0.260	0.203
-288.603	451.683	-0.042	-0.092
-287.589	-33.714	0.129	-0.071
-286.574	177.931	0.027	0.040
-285.559	-92.864	-0.379	0.105
-284.545	-68.484	0.296	0.114
-283.530	-25.499	-0.201	0.118
-282.516	-200.000	-0.076	0.390
-281.501	-129.013	0.288	-0.040
-280.486	121.498	-0.110	-0.136
-279.472	-13.906	0.277	-0.178
-278.457	95.717	0.106	-0.120
-277.443	104.386	-0.057	0.067
-276.428	-26.211	0.283	-0.165
-275.413	386.091	-0.166	-0.340
-274.399	11.367	0.160	-0.122
-273.384	-200.000	0.038	0.287
-272.370	-83.213	0.338	-0.108
-271.355	190.846	-0.055	0.082
-270.340	800.000	-0.108	0.431
-269.326	800.000	-0.056	0.158
-268.311	-97.542	-0.065	0.017
-267.297	442.886	-0.080	0.174
-266.282	-200.000	0.038	0.168
-265.267	-26.906	0.087	0.050
-264.253	268.346	0.054	0.094
-263.238	-21.515	-0.243	-0.147
-262.224	340.432	-0.133	-0.257
-261.209	-200.000	-0.013	-0.156
-260.195	135.211	-0.084	-0.109
-259.180	-8.592	0.196	0.131
-258.165	-39.792	0.553	-0.287
-257.151	-33.988	-0.312	-0.170
-256.136	-144.734	0.273	-0.025
-255.122	-82.806	-0.121	0.039
-254.107	-125.340	-0.355	-0.054
-253.092	11.154	0.287	-0.218
-252.078	800.000	-0.072	0.260
-251.063	-119.508	0.159	0.027
-250.049	-189.506	-0.036	0.000
-249.034	-31.092	0.402	-0.225
-248.019	372.553	0.101	0.205
-247.005	33.059	-0.249	-0.214
-245.990	-60.500	0.333	0.140
-244.976	800.000	0.081	-0.251
-243.961	800.000	0.059	0.223
-242.946	125.632	0.186	-0.233
-241.932	800.000	0.075	-0.230
-240.917	-200.000	-0.045	-0.286
-239.903	278.757	0.045	0.079
-238.888	302.531	0.109	0.201
-237.873	-171.539	-0.172	-0.006
-236.859	130.710	-0.119	-0.151
-235.844	200.035	-0.188	-0.287
-234.830	-57.445	0.176	0.077
-233.815	-200.000	0.013	-0.355
-232.800	523.382	-0.080	-0.187
-231.786	363.966	0.117	-0.233
-230.771	36.484	0.132	-0.116
-229.757	255.029	-0.144	-0.244
-228.742	170.020	0.177	0.251
-227.727	71.159	0.048	0.049
-226.713	-200.000	-0.014	0.193
-225.698	213.924	0.143	0.224
-224.684	-69.577	0.336	0.127
-223.669	-200.000	0.012	-0.295
-222.655	213.980	0.135	-0.211
-221.640	46.826	-0.057	-0.052
-220.625	-125.320	-0.296	0.045
-219.611	-154.759	-0.262	-0.017
-218.596	-145.835	-0.395	-0.035
-217.582	-200.000	0.022	0.320
-216.567	83.614	-0.180	-0.195
-215.552	-55.429	-0.215	0.096
-214.538	42.339	0.114	0.103
-213.523	34.078	0.246	0.212
-212.509	-58.355	0.221	0.095
-211.494	-86.519	-0.152	-0.046
-210.479	800.000	0.047	0.144
-209.465	800.000	0.016	0.053
-208.450	90.970	0.242	0.269
-207.436	-22.974	-0.270	0.161
-206.421	-146.672	0.160	0.014
-205.406	-18.009	0.278	-0.173
-204.392	183.352	-0.129	0.189
-203.377	-83.950	0.273	-0.086
-202.363	84.847	0.227	-0.246
-201.348	-13.149	0.034	-0.022
-200.333	92.674	0.188	-0.210
-199.319	-200.000	-0.003	-0.320
-198.304	256.275	0.082	-0.140
-197.290	-27.212	0.036	0.021
-196.275	-122.004	0.432	-0.070
-195.260	-200.000	-0.008	0.242
-194.246	32.006	0.075	-0.064
-193.231	-200.000	0.031	0.396
-192.217	4.242	-0.232	-0.168
-191.202	376.818	0.045	-0.090
-190.187	-137.704	0.206	-0.023
-189.173	524.509	0.078	-0.182
-188.158	148.101	0.160	-0.214
-187.144	49.180	0.243	0.227
-186.129	245.322	0.193	0.322
-185.114	564.369	0.043	0.104
-184.100	-173.462	0.205	-0.006
-183.085	-4.225	-0.209	-0.144
-182.071	-46.949	0.345	-0.167
-181.056	47.586	-0.299	0.276
-180.042	77.394	0.221	0.232
-179.027	71.783	0.074	-0.076
-178.012	-200.000	-0.020	0.287
-176.998	-200.000	0.003	0.172
-175.983	-162.811	-0.232	0.011
-174.969	800.000	-0.057	-0.185
-173.954	800.000	-0.082	0.258
-172.939	-107.646	0.119	0.026
-171.925	-30.726	-0.202	0.113
-170.910	466.816	-0.172	0.382
-169.896	541.187	0.047	0.111
-168.881	34.230	-0.089	-0.077
-167.866	-200.000	0.053	0.317
-166.852	697.669	0.040	-0.105
-165.837	-174.619	-0.177	0.005
-164.823	-200.000	0.058	-0.374
-163.808	71.262	-0.165	-0.169
-162.793	91.143	0.044	-0.049
-161.779	8.024	-0.128	-0.095
-160.764	-1.649	-0.415	0.289
-159.750	-55.996	0.257	0.113
-158.735	-33.513	-0.128	0.070
-157.720	-138.137	-0.200	-0.022
-156.706	-200.000	-0.003	-0.081
-155.691	-200.000	0.056	-0.270
-154.677	384.151	-0.098	0.200
-153.662	-122.236	-0.175	-0.028
-152.647	10.130	-0.068	-0.051
-151.633	-6.804	0.125	0.084
-150.618	-200.000	-0.012	0.298
-149.604	-29.093	0.117	0.066
-148.589	800.000	0.055	0.175
-147.574	-181.174	0.275	-0.005
-146.560	-84.682	0.214	0.067
-145.545	-136.952	0.214	-0.024
-144.531	-43.322	0.159	0.079
-143.516	105.463	-0.182	0.213
-142.502	-63.251	-0.236	0.096
-141.487	-70.275	-0.089	0.033
-140.472	-30.653	0.321	-0.180
-139.458	-200.000	-0.031	-0.378
-138.443	800.000	-0.118	-0.335
-137.429	-118.743	-0.416	-0.072
-136.414	-79.893	0.387	-0.129
-135.399	-200.000	-0.017	-0.078
-134.385	-106.605	0.405	0.089
-133.370	-200.000	-0.058	-0.305
-132.356	38.113	-0.107	-0.094
-131.341	65.943	0.067	0.067
-130.326	519.690	0.091	0.211
-129.312	-114.501	0.355	0.067
-128.297	-24.508	0.085	-0.050
-127.283	-3.255	0.209	-0.144
-126.268	-12.766	0.329	0.212
-125.253	-16.000	0.106	-0.067
-124.239	-200.000	-0.015	0.146
-123.224	800.000	0.017	0.066
-122.210	63.962	0.254	0.252
-121.195	5.381	0.192	0.140
-120.180	-131.101	-0.154	-0.020
