DTS Sentinel unit serial number:	SN413079Multiplexer serial number:	ORYXHardware model number:	OX4-SRSoftware version number:	ORYX F/W v4.00 Oryx Data Collector v3.7.2.0data status	okinstallation	princeton_trtdifferential loss correction	single-endedforward channel	channel 2reverse channel	N/Adate	2019/09/17time	11:39:35forward acquisition time	60.00reverse acquisition time	0.00gamma	496.2192k internal	0.2324k external	0.2324temperature offset calibration	0.9990default loss term (dB/km)	0.3790temperature slope calibration	1.0000multiplexer offset coefficient	1.0000multiplexer slope coefficient	1.0000fibre end	0.00T internal ref (°C)	30.81T ext. ref 1 (°C)	0.38T ext. ref 2 (°C)	26.61length (m)	temperature (°C)	Stokes	anti-Stokes-747.200	23.442	-0.064	-0.053
-746.185	-95.740	0.195	0.053
-745.171	-139.615	0.385	0.041
-744.156	405.619	-0.073	0.156
-743.142	18.262	-0.273	-0.220
-742.127	800.000	0.088	-0.328
-741.112	410.446	0.163	0.348
-740.098	-200.000	-0.024	0.328
-739.083	78.754	-0.099	0.107
-738.069	800.000	0.089	-0.310
-737.054	-200.000	0.001	0.018
-736.039	-61.430	-0.480	-0.204
-735.025	-200.000	-0.036	0.222
-734.010	-19.128	-0.072	0.045
-732.996	-112.879	-0.055	0.011
-731.981	17.131	0.114	0.091
-730.966	116.387	-0.137	0.170
-729.952	-200.000	0.012	-0.229
-728.937	-57.718	-0.355	-0.157
-727.923	264.912	-0.037	0.065
-726.908	-2.615	0.187	-0.132
-725.894	-64.816	-0.237	-0.097
-724.879	-28.009	-0.250	0.146
-723.864	-29.822	0.168	0.097
-722.850	75.233	0.276	-0.293
-721.835	527.504	0.065	-0.155
-720.821	26.190	-0.382	0.322
-719.806	165.164	-0.166	-0.236
-718.791	-110.323	-0.174	-0.037
-717.777	-15.074	-0.065	0.042
-716.762	-176.417	0.042	-0.001
-715.748	291.577	-0.101	0.185
-714.733	-101.902	0.108	-0.026
-713.718	725.498	-0.094	0.254
-712.704	90.232	0.085	-0.096
-711.689	29.537	-0.019	-0.016
-710.675	-68.517	-0.142	-0.056
-709.660	294.595	-0.088	0.162
-708.645	478.082	0.090	0.206
-707.631	-103.115	-0.109	0.026
-706.616	-187.707	-0.063	0.001
-705.602	23.198	-0.198	-0.164
-704.587	-200.000	-0.042	-0.229
-703.572	-200.000	0.018	-0.130
-702.558	9.658	-0.204	-0.156
-701.543	236.563	-0.201	0.336
-700.529	256.091	0.045	-0.078
-699.514	-98.456	0.059	-0.015
-698.499	-172.058	-0.158	0.005
-697.485	292.626	0.074	-0.136
-696.470	-163.005	0.269	-0.013
-695.456	-200.000	0.004	-0.156
-694.441	-12.355	0.121	0.080
-693.426	-176.164	0.280	-0.007
-692.412	398.712	-0.081	-0.171
-691.397	-30.552	-0.078	0.044
-690.383	193.654	0.114	-0.174
-689.368	-94.144	-0.247	-0.068
-688.354	-200.000	0.013	0.068
-687.339	-174.760	-0.260	0.007
-686.324	-135.085	-0.278	-0.034
-685.310	800.000	-0.073	-0.297
-684.295	304.565	-0.031	-0.057
-683.281	53.653	0.203	-0.197
-682.266	28.763	-0.341	-0.291
-681.251	-200.000	-0.005	-0.188
-680.237	32.568	-0.056	-0.049
-679.222	-66.392	0.081	0.033
-678.208	800.000	-0.044	-0.167
-677.193	-61.050	0.125	0.053
-676.178	800.000	-0.101	-0.311
-675.164	47.968	-0.106	-0.100
-674.149	-200.000	-0.080	-0.504
-673.135	-97.477	0.036	-0.009
-672.120	28.900	0.206	-0.175
-671.105	-200.000	0.013	0.081
-670.091	-200.000	-0.038	0.167
-669.076	-130.513	0.259	-0.035
-668.062	252.982	0.090	-0.155
-667.047	-119.480	-0.403	-0.070
-666.032	347.359	0.161	-0.320
-665.018	187.951	-0.143	0.215
-664.003	50.323	-0.226	0.215
-662.989	569.707	0.062	-0.152
-661.974	-112.302	0.330	0.067
-660.959	-138.136	-0.199	-0.022
-659.945	69.639	-0.248	0.257
-658.930	-200.000	-0.038	-0.266
-657.916	-200.000	0.010	-0.059
-656.901	-136.132	0.283	-0.033
-655.886	758.887	0.030	0.081
-654.872	-135.033	-0.073	0.009
-653.857	154.786	0.278	-0.385
-652.843	-156.539	0.339	-0.021
-651.828	522.850	0.123	0.290
-650.814	17.010	-0.099	-0.079
-649.799	-200.000	-0.019	0.203
-648.784	374.936	-0.069	0.142
-647.770	800.000	-0.111	0.336
-646.755	800.000	-0.067	-0.235
-645.741	-166.481	-0.234	-0.010
-644.726	-0.735	-0.110	0.079
-643.711	97.891	0.210	-0.243
-642.697	-77.432	0.048	-0.017
-641.682	-25.964	0.326	0.193
-640.668	-187.803	0.056	0.001
-639.653	-18.708	0.207	-0.130
-638.638	-200.000	0.038	-0.325
-637.624	-15.518	0.201	-0.129
-636.609	-200.000	-0.001	0.080
-635.595	40.631	-0.017	-0.015
-634.580	488.227	0.133	-0.306
-633.565	55.805	0.055	-0.054
-632.551	-104.873	-0.167	0.039
-631.536	-39.476	-0.231	-0.122
-630.522	-145.456	-0.225	-0.020
-629.507	-98.599	-0.436	0.112
-628.492	-200.000	-0.025	-0.138
-627.478	-200.000	-0.012	0.106
-626.463	38.645	-0.186	-0.167
-625.449	96.377	-0.101	0.117
-624.434	18.195	0.045	0.036
-623.419	116.558	-0.222	0.274
-622.405	647.094	0.057	-0.147
-621.390	-160.641	-0.107	0.006
-620.376	153.966	-0.134	-0.185
-619.361	-94.939	0.087	-0.024
-618.346	-200.000	-0.044	-0.246
-617.332	800.000	-0.069	-0.197
-616.317	7.740	-0.185	0.139
-615.303	-200.000	0.011	-0.160
-614.288	-200.000	0.028	-0.353
-613.273	-29.305	0.120	0.069
-612.259	-128.989	0.194	0.027
-611.244	-200.000	0.026	0.165
-610.230	19.031	-0.024	-0.019
-609.215	303.737	-0.172	-0.320
-608.201	2.695	0.096	0.070
-607.186	-140.339	-0.119	-0.013
-606.171	-200.000	0.013	0.176
-605.157	-6.595	0.076	0.052
-604.142	-62.087	0.190	-0.080
-603.128	800.000	0.079	0.244
-602.113	-11.222	-0.343	0.227
-601.098	-9.619	0.118	0.079
-600.084	380.742	-0.072	0.149
-599.069	800.000	-0.053	0.197
-598.055	-144.815	-0.216	0.020
-597.040	30.440	0.124	0.107
-596.025	-115.189	-0.373	-0.071
-595.011	-32.030	0.071	0.040
-593.996	389.073	0.107	-0.222
-592.982	-29.870	0.411	0.235
-591.967	-3.912	0.384	0.267
-590.952	800.000	0.024	-0.102
-589.938	225.691	-0.083	-0.135
-588.923	-138.390	-0.238	0.026
-587.909	800.000	-0.050	0.204
-586.894	-98.361	-0.380	0.098
-585.879	65.940	-0.452	-0.460
-584.865	79.754	0.202	0.218
-583.850	112.130	-0.118	-0.143
-582.836	2.502	-0.285	-0.207
-581.821	-200.000	0.030	-0.157
-580.806	-99.245	-0.232	-0.059
-579.792	672.789	-0.076	-0.198
-578.777	800.000	-0.068	0.268
-577.763	-200.000	0.011	0.205
-576.748	109.920	0.047	0.057
-575.733	-72.241	0.102	0.038
-574.719	-21.064	-0.136	-0.083
-573.704	-109.223	0.338	0.072
-572.690	-200.000	-0.003	0.096
-571.675	59.749	-0.295	-0.292
-570.661	-127.120	-0.210	0.031
-569.646	-200.000	-0.013	-0.210
-568.631	800.000	0.061	-0.240
-567.617	16.274	-0.221	-0.175
-566.602	800.000	0.033	0.100
-565.588	-29.480	0.344	0.197
-564.573	16.242	0.253	-0.200
-563.558	317.654	0.098	0.185
-562.544	232.104	0.103	-0.169
-561.529	25.310	-0.302	-0.252
-560.515	172.615	-0.054	-0.078
-559.500	123.242	-0.079	0.099
-558.485	-117.423	0.021	-0.004
-557.471	800.000	0.061	0.232
-556.456	800.000	-0.051	0.164
-555.442	322.639	-0.101	-0.193
-554.427	340.001	0.102	0.199
-553.412	-63.643	0.192	0.079
-552.398	59.733	-0.221	0.219
-551.383	-200.000	0.002	-0.264
-550.369	511.185	-0.049	-0.115
-549.354	164.134	0.179	0.253
-548.339	16.411	0.144	-0.114
-547.325	298.858	-0.060	-0.110
-546.310	119.905	0.097	-0.120
-545.296	-36.624	0.404	-0.218
-544.281	-200.000	0.011	0.295
-543.266	-200.000	-0.012	-0.230
-542.252	-95.583	-0.098	0.026
-541.237	800.000	0.060	0.221
-540.223	-113.172	-0.205	-0.041
-539.208	79.419	0.249	0.267
-538.193	-132.441	0.115	-0.015
-537.179	-182.630	0.098	-0.002
-536.164	94.986	0.121	-0.138
-535.150	253.152	-0.195	0.334
-534.135	-200.000	-0.002	-0.355
-533.121	60.353	-0.170	-0.168
-532.106	800.000	0.127	-0.449
-531.091	5.922	0.172	0.128
-530.077	574.965	0.054	0.131
-529.062	557.059	-0.068	-0.163
-528.048	497.140	0.143	-0.329
-527.033	152.722	-0.095	-0.129
-526.018	-200.000	0.056	-0.267
-525.004	652.448	-0.062	-0.158
-523.989	271.620	0.064	-0.112
-522.975	743.451	-0.146	-0.393
-521.960	98.171	-0.208	-0.240
-520.945	-84.243	-0.251	-0.080
-519.931	176.455	0.199	-0.290
-518.916	4.460	-0.156	-0.114
-517.902	84.534	0.071	0.078
-516.887	363.574	0.077	0.155
-515.872	82.566	-0.232	0.252
-514.858	-200.000	0.006	-0.247
-513.843	-200.000	-0.040	-0.214
-512.829	92.416	-0.107	-0.121
-511.814	60.019	0.249	0.247
-510.799	157.200	0.040	-0.055
-509.785	-125.452	0.437	-0.066
-508.770	800.000	0.066	0.258
-507.756	34.508	0.076	-0.066
-506.741	-200.000	0.055	0.283
-505.726	-74.483	-0.047	-0.017
-504.712	737.223	0.034	-0.092
-503.697	-42.761	-0.092	-0.047
-502.683	9.490	-0.275	0.208
-501.668	96.521	-0.099	0.113
-500.653	-130.703	-0.192	0.026
-499.639	-32.063	0.086	-0.048
-498.624	261.483	-0.097	-0.168
-497.610	650.015	-0.057	-0.146
-496.595	-89.081	-0.117	-0.035
-495.581	-72.061	0.221	0.082
-494.566	5.736	0.013	0.009
-493.551	-36.260	-0.271	-0.146
-492.537	6.185	0.256	-0.190
-491.522	16.461	0.075	-0.059
-490.508	-200.000	0.026	-0.565
-489.493	740.258	-0.100	0.267
-488.478	-53.392	-0.345	0.158
-487.464	-99.127	0.208	-0.053
-486.449	800.000	-0.073	0.257
-485.435	-200.000	0.121	0.547
-484.420	-36.897	-0.275	-0.147
-483.405	800.000	0.035	-0.126
-482.391	-200.000	-0.033	-0.204
-481.376	800.000	0.042	-0.161
-480.362	350.295	-0.066	0.130
-479.347	64.784	-0.236	-0.238
-478.332	-121.062	0.143	-0.024
-477.318	109.890	-0.201	0.241
-476.303	305.868	0.063	0.117
-475.289	-160.621	0.055	0.003
-474.274	-200.000	0.065	-0.352
-473.259	-200.000	-0.033	0.251
-472.245	522.530	-0.116	0.273
-471.230	-64.953	-0.132	-0.053
-470.216	530.093	0.182	0.430
-469.201	800.000	0.044	0.191
-468.186	800.000	-0.034	0.117
-467.172	800.000	0.033	0.130
-466.157	732.689	-0.042	0.112
-465.143	-142.730	-0.383	-0.037
-464.128	22.393	0.223	-0.182
-463.113	-200.000	-0.074	-0.355
-462.099	50.641	-0.034	0.032
-461.084	-200.000	-0.024	0.162
-460.070	166.087	-0.276	0.390
-459.055	411.551	0.046	-0.097
-458.040	-200.000	-0.002	-0.101
-457.026	49.196	0.160	-0.150
-456.011	800.000	-0.105	0.381
-454.997	152.263	0.079	0.108
-453.982	334.803	0.076	-0.148
-452.968	-82.651	-0.241	-0.078
-451.953	-12.946	0.024	0.015
-450.938	800.000	-0.093	-0.306
-449.924	497.795	0.066	0.152
-448.909	-77.249	-0.063	0.022
-447.895	208.946	-0.034	-0.053
-446.880	22.863	-0.100	0.082
-445.865	800.000	-0.095	0.283
-444.851	495.354	0.096	0.221
-443.836	800.000	0.050	-0.215
-442.822	-70.881	-0.184	-0.069
-441.807	-200.000	0.041	0.191
-440.792	-88.021	-0.458	-0.137
-439.778	-19.427	-0.222	0.137
-438.763	344.128	0.032	-0.062
-437.749	33.445	-0.210	-0.182
-436.734	-16.168	0.212	0.134
-435.719	-20.026	-0.092	0.056
-434.705	800.000	-0.136	-0.462
-433.690	-6.486	0.214	0.146
-432.676	800.000	-0.077	0.278
-431.661	237.857	-0.101	-0.168
-430.646	309.106	0.220	0.409
-429.632	-55.283	-0.079	0.035
-428.617	72.283	-0.046	-0.048
-427.603	268.166	-0.027	0.047
-426.588	77.342	-0.059	-0.063
-425.573	694.206	-0.027	-0.070
-424.559	56.110	-0.308	0.298
-423.544	503.628	0.120	-0.278
-422.530	-42.335	-0.490	0.249
-421.515	-174.616	0.376	0.011
-420.500	43.840	-0.269	-0.245
-419.486	-63.634	-0.106	-0.043
-418.471	-69.608	0.361	0.138
-417.457	20.127	-0.400	-0.322
-416.442	42.035	-0.140	-0.126
-415.428	527.180	-0.132	0.311
-414.413	800.000	-0.127	-0.370
-413.398	365.051	0.020	-0.039
-412.384	800.000	-0.094	0.268
-411.369	-47.213	0.313	-0.152
-410.355	587.769	-0.062	0.152
-409.340	-90.381	0.340	0.098
-408.325	-105.942	0.027	-0.006
-407.311	138.809	-0.189	0.247
-406.296	-22.626	-0.337	0.203
-405.282	23.352	0.095	0.078
-404.267	34.126	-0.262	0.227
-403.252	157.331	-0.113	0.156
-402.238	13.356	-0.036	-0.028
-401.223	-70.154	-0.315	-0.119
-400.209	-200.000	0.028	-0.146
-399.194	21.838	-0.097	-0.079
-398.179	342.298	-0.072	0.140
-397.165	536.164	0.084	0.199
-396.150	-38.496	-0.159	0.084
-395.136	-165.760	0.425	0.018
-394.121	91.477	-0.079	0.088
-393.106	65.600	-0.202	0.204
-392.092	800.000	0.109	-0.327
-391.077	-94.109	-0.188	0.051
-390.063	160.619	-0.121	-0.168
-389.048	-130.352	0.192	-0.026
-388.033	800.000	0.128	0.462
-387.019	-138.168	-0.314	0.035
-386.004	16.687	0.111	-0.088
-384.990	41.400	-0.240	-0.216
-383.975	9.086	0.083	0.063
-382.960	80.608	-0.111	0.119
-381.946	-200.000	-0.027	0.147
-380.931	-104.567	-0.310	-0.071
-379.917	398.427	0.048	-0.099
-378.902	192.939	0.025	0.037
-377.888	114.565	-0.210	-0.255
-376.873	-154.720	-0.391	-0.026
-375.858	195.154	0.054	-0.082
-374.844	164.994	0.066	0.093
-373.829	-44.534	0.308	-0.153
-372.815	-93.181	-0.049	0.014
-371.800	342.232	-0.152	0.296
-370.785	177.638	-0.121	-0.175
-369.771	800.000	0.016	-0.049
-368.756	112.954	-0.079	-0.095
-367.742	-72.392	0.200	-0.073
-366.727	-93.267	-0.112	0.031
-365.712	-117.886	-0.273	0.049
-364.698	-200.000	-0.053	-0.284
-363.683	11.507	0.290	0.221
-362.669	26.631	-0.215	0.179
-361.654	-48.690	0.105	0.050
-360.639	-1.699	-0.129	-0.090
-359.625	-85.266	0.289	-0.090
-358.610	-36.056	-0.035	0.019
-357.596	545.452	-0.114	-0.270
-356.581	91.137	0.033	-0.036
-355.566	-39.774	-0.188	0.098
-354.552	240.768	0.101	-0.168
-353.537	-70.548	-0.051	0.019
-352.523	-48.696	-0.087	-0.042
-351.508	-200.000	-0.019	-0.196
-350.493	-77.302	-0.405	-0.140
-349.479	-200.000	-0.012	0.077
-348.464	-200.000	-0.019	-0.156
-347.450	107.005	-0.073	0.086
-346.435	-157.106	0.078	0.005
-345.420	15.144	-0.382	-0.297
-344.406	-36.556	0.180	-0.096
-343.391	354.904	-0.042	0.084
-342.377	331.690	-0.218	0.419
-341.362	-12.172	0.124	0.081
-340.348	-96.098	-0.165	0.043
-339.333	800.000	-0.108	-0.338
-338.318	98.043	0.086	-0.098
-337.304	-161.858	0.083	-0.004
-336.289	-50.061	-0.382	-0.180
-335.275	-34.363	0.314	0.171
-334.260	-143.602	0.407	-0.038
-333.245	-68.822	0.386	-0.148
-332.231	-153.901	-0.146	-0.010
-331.216	-68.618	0.219	-0.084
-330.202	-140.464	0.145	0.015
-329.187	800.000	-0.113	-0.357
-328.172	800.000	0.062	-0.256
-327.158	800.000	0.028	-0.104
-326.143	27.155	-0.188	0.157
-325.129	357.759	0.068	-0.135
-324.114	497.035	0.020	-0.046
-323.099	553.926	0.015	-0.035
-322.085	222.842	0.278	0.445
-321.070	176.504	0.067	0.096
-320.056	-116.581	-0.242	0.044
-319.041	-152.865	0.334	-0.023
-318.026	-75.203	0.013	0.004
-317.012	-89.860	-0.090	-0.026
-315.997	-117.682	-0.276	0.049
-314.983	684.878	-0.055	-0.142
-313.968	347.352	0.080	-0.156
-312.953	725.425	-0.128	-0.339
-311.939	-103.010	-0.181	-0.043
-310.924	-200.000	-0.013	0.126
-309.910	800.000	-0.077	-0.243
-308.895	-103.711	-0.129	-0.030
-307.880	26.311	-0.175	-0.145
-306.866	-142.636	-0.305	0.030
-305.851	143.254	0.146	-0.193
-304.837	-200.000	-0.024	0.153
-303.822	-56.979	0.286	0.125
-302.807	-200.000	0.005	0.180
-301.793	64.121	0.242	0.241
-300.778	-27.237	0.324	0.187
-299.764	85.740	0.175	-0.191
-298.749	-200.000	0.002	-0.017
-297.735	800.000	0.046	-0.136
-296.720	406.281	0.121	0.254
-295.705	123.430	-0.074	0.092
-294.691	-14.992	0.131	-0.083
-293.676	364.679	-0.122	-0.244
-292.662	310.900	-0.085	-0.158
-291.647	-15.354	0.065	0.042
-290.632	-60.025	0.148	-0.062
-289.618	-85.626	0.361	0.111
-288.603	-19.908	-0.151	-0.092
-287.589	-144.444	0.322	0.030
-286.574	-198.053	0.142	0.001
-285.559	124.428	-0.152	-0.190
-284.545	-200.000	0.072	-0.435
-283.530	325.616	0.091	0.172
-282.516	307.733	-0.127	0.234
-281.501	1.798	0.204	0.145
-280.486	-200.000	0.020	-0.241
-279.472	-128.751	0.300	-0.042
-278.457	-116.429	-0.188	0.034
-277.443	-86.526	-0.191	0.058
-276.428	-48.024	0.378	0.181
-275.413	-200.000	0.001	-0.144
-274.399	-120.085	0.226	-0.038
-273.384	48.095	-0.161	0.149
-272.370	-136.510	0.164	-0.019
-271.355	-95.206	0.224	-0.060
-270.340	-14.329	0.081	-0.052
-269.326	800.000	-0.132	0.499
-268.311	-109.025	0.509	-0.108
-267.297	1.121	0.269	0.191
-266.282	-112.894	-0.161	0.032
-265.267	-182.448	0.252	0.005
-264.253	55.550	-0.171	-0.164
-263.238	32.546	0.230	0.197
-262.224	-152.416	-0.284	0.020
-261.209	-144.779	0.157	-0.014
-260.195	-200.000	0.007	-0.067
-259.180	-103.188	0.553	-0.129
-258.165	557.003	0.042	-0.101
-257.151	304.307	-0.027	0.050
-256.136	-1.136	-0.242	0.170
-255.122	201.096	0.157	0.239
-254.107	-119.867	-0.208	0.035
-253.092	27.927	-0.043	-0.036
-252.078	-200.000	0.059	0.442
-251.063	-23.229	-0.102	-0.061
-250.049	39.393	-0.057	0.051
-249.034	93.011	-0.099	0.111
-248.019	274.964	0.126	-0.221
-247.005	-114.707	-0.226	0.043
-245.990	-200.000	-0.019	-0.095
-244.976	226.361	0.116	-0.187
-243.961	14.453	-0.034	0.026
-242.946	-200.000	-0.020	0.190
-241.932	-200.000	0.044	0.464
-240.917	800.000	0.123	0.403
-239.903	-87.323	-0.277	-0.083
-238.888	130.117	-0.099	0.126
-237.873	-64.498	0.186	-0.075
-236.859	43.611	0.181	0.164
-235.844	158.379	-0.152	0.209
-234.830	4.249	-0.285	0.207
-233.815	-99.201	0.372	-0.093
-232.800	-130.102	-0.137	-0.019
-231.786	5.476	0.164	0.119
-230.771	-200.000	0.016	0.344
-229.757	-51.084	0.024	0.011
-228.742	296.292	-0.092	0.167
-227.727	359.596	-0.035	-0.070
-226.713	110.908	0.063	0.075
-225.698	800.000	0.136	0.375
-224.684	738.280	0.049	0.129
-223.669	-94.782	0.209	0.056
-222.655	-200.000	0.042	-0.300
-221.640	258.586	0.121	-0.206
-220.625	22.480	0.201	0.162
-219.611	7.563	0.213	-0.158
-218.596	175.057	-0.154	0.220
-217.582	800.000	-0.143	0.481
-216.567	-71.927	0.341	0.126
-215.552	-51.358	0.202	-0.093
-214.538	45.005	0.134	0.122
-213.523	-5.001	0.518	-0.353
-212.509	220.558	0.183	0.291
-211.494	28.005	0.084	-0.070
-210.479	800.000	0.063	0.176
-209.465	1.077	-0.134	-0.095
-208.450	-84.970	-0.305	0.095
-207.436	-29.437	-0.097	-0.055
-206.421	36.714	0.066	0.058
-205.406	-200.000	0.067	0.381
-204.392	-200.000	0.002	-0.343
-203.377	-62.546	0.249	-0.102
-202.363	50.641	-0.097	-0.091
-201.348	800.000	-0.052	0.213
-200.333	-16.725	0.362	0.226
-199.319	-177.840	0.116	0.003
-198.304	800.000	0.080	0.236
-197.290	-106.946	-0.329	-0.072
-196.275	-175.606	0.377	0.010
-195.260	-200.000	0.062	0.322
-194.246	-111.682	0.034	0.007
-193.231	-39.104	-0.053	0.028
-192.217	-101.570	-0.268	0.064
-191.202	-29.583	0.247	-0.140
-190.187	800.000	-0.085	-0.293
-189.173	5.400	0.132	0.096
-188.158	-29.855	0.219	0.123
-187.144	501.318	-0.044	-0.101
-186.129	63.449	0.157	-0.156
-185.114	-200.000	0.041	0.389
-184.100	-200.000	0.008	-0.178
-183.085	604.396	0.121	-0.296
-182.071	-103.519	-0.063	-0.015
-181.056	38.171	-0.192	0.169
-180.042	-23.244	-0.133	0.079
-179.027	75.391	-0.118	0.123
-178.012	254.933	-0.192	-0.325
-176.998	-97.990	0.224	-0.057
-175.983	449.676	0.116	-0.252
-174.969	-139.230	-0.190	0.020
-173.954	-96.850	0.274	0.071
-172.939	-169.521	0.290	-0.010
-171.925	-192.161	0.220	0.002
-170.910	-88.459	-0.088	0.026
-169.896	-200.000	0.001	0.221
-168.881	-23.728	-0.209	0.124
-167.866	-102.439	0.257	-0.061
-166.852	-93.084	0.041	-0.011
-165.837	-85.182	0.067	0.021
-164.823	650.386	0.082	-0.206
-163.808	-8.755	0.212	-0.140
-162.793	45.081	0.159	0.145
-161.779	21.909	0.223	0.179
-160.764	-76.926	-0.249	-0.086
-159.750	-200.000	-0.041	-0.247
-158.735	-73.173	-0.117	0.042
-157.720	800.000	0.012	-0.039
-156.706	244.478	0.028	0.047
-155.691	313.010	0.022	-0.042
-154.677	800.000	-0.045	-0.146
-153.662	229.490	0.309	-0.498
-152.647	-200.000	-0.052	-0.310
-151.633	5.955	0.483	0.353
-150.618	233.198	-0.122	0.199
-149.604	-64.077	0.110	0.044
-148.589	280.424	0.139	-0.246
-147.574	-200.000	0.008	-0.114
-146.560	-200.000	0.012	-0.104
-145.545	-199.584	0.262	0.001
-144.531	215.402	0.109	0.171
-143.516	-200.000	-0.039	-0.197
-142.502	-108.036	0.268	0.057
-141.487	70.171	-0.273	-0.278
-140.472	-196.895	-0.216	-0.001
-139.458	60.682	0.367	-0.359
-138.443	-146.645	-0.327	0.028
-137.429	-200.000	0.043	0.269
-136.414	-161.951	0.222	0.011
-135.399	800.000	-0.078	0.261
-134.385	42.885	-0.045	0.040
-133.370	351.295	0.125	-0.244
-132.356	355.340	-0.088	-0.172
-131.341	262.405	0.053	0.090
-130.326	-200.000	-0.024	-0.141
-129.312	-200.000	-0.006	-0.201
-128.297	-97.308	-0.372	-0.096
-127.283	800.000	-0.026	-0.110
-126.268	-164.519	0.167	-0.007
-125.253	-200.000	-0.010	0.141
-124.239	-84.868	-0.266	0.082
-123.224	-126.138	0.291	0.043
-122.210	164.862	0.104	-0.145
-121.195	-200.000	-0.029	0.180
-120.180	-145.534	-0.271	0.024
