DTS Sentinel unit serial number:	SN413079Multiplexer serial number:	ORYXHardware model number:	OX4-SRSoftware version number:	ORYX F/W v4.00 Oryx Data Collector v3.7.2.0data status	okinstallation	princeton_trtdifferential loss correction	single-endedforward channel	channel 2reverse channel	N/Adate	2019/09/14time	07:27:35forward acquisition time	60.00reverse acquisition time	0.00gamma	496.2192k internal	0.2338k external	0.2338temperature offset calibration	1.0135default loss term (dB/km)	0.3790temperature slope calibration	1.0000multiplexer offset coefficient	1.0000multiplexer slope coefficient	1.0000fibre end	0.00T internal ref (°C)	26.19T ext. ref 1 (°C)	3.46T ext. ref 2 (°C)	21.09length (m)	temperature (°C)	Stokes	anti-Stokes-747.200	308.956	0.107	0.201
-746.185	-61.615	0.191	-0.081
-745.171	-191.201	-0.131	0.001
-744.156	-17.381	-0.082	-0.052
-743.142	75.056	-0.267	-0.282
-742.127	10.918	0.151	0.116
-741.112	-100.076	-0.243	-0.061
-740.098	-78.750	0.141	-0.048
-739.083	-69.810	0.326	0.125
-738.069	-200.000	0.020	0.293
-737.054	800.000	-0.040	0.149
-736.039	13.179	-0.254	-0.197
-735.025	-132.258	0.188	-0.024
-734.010	-17.016	-0.280	0.178
-732.996	4.588	-0.159	-0.117
-731.981	800.000	0.061	-0.257
-730.966	140.486	0.094	0.125
-729.952	-44.593	-0.048	-0.024
-728.937	-149.264	-0.233	-0.019
-727.923	-52.418	-0.492	-0.228
-726.908	-50.131	-0.169	0.080
-725.894	173.208	-0.038	0.054
-724.879	530.517	0.136	0.323
-723.864	-200.000	-0.018	-0.344
-722.850	-183.170	0.127	0.002
-721.835	-200.000	-0.048	-0.305
-720.821	-108.621	-0.187	-0.040
-719.806	-39.566	-0.361	-0.189
-718.791	-200.000	-0.061	0.282
-717.777	121.004	-0.057	0.071
-716.762	-200.000	0.012	0.162
-715.748	800.000	0.085	0.258
-714.733	800.000	-0.095	-0.299
-713.718	800.000	0.039	-0.155
-712.704	-200.000	-0.026	-0.368
-711.689	-200.000	-0.025	-0.160
-710.675	-200.000	0.003	0.036
-709.660	34.615	0.102	-0.090
-708.645	-95.896	-0.151	-0.040
-707.631	607.995	0.049	-0.122
-706.616	72.315	-0.190	-0.198
-705.602	-21.108	-0.116	-0.071
-704.587	170.510	-0.200	-0.288
-703.572	-129.762	-0.211	0.029
-702.558	31.359	-0.329	-0.283
-701.543	800.000	-0.101	-0.289
-700.529	800.000	0.008	-0.033
-699.514	-80.284	0.147	-0.049
-698.499	-56.057	-0.322	-0.144
-697.485	48.215	-0.133	-0.125
-696.470	-200.000	0.032	0.250
-695.456	800.000	-0.020	0.079
-694.441	-105.941	0.278	-0.063
-693.426	-72.133	-0.244	0.091
-692.412	699.833	-0.109	0.288
-691.397	-200.000	-0.009	-0.074
-690.383	-81.667	0.419	-0.138
-689.368	-102.879	0.014	0.003
-688.354	800.000	-0.086	-0.352
-687.339	-36.934	-0.149	0.080
-686.324	-158.431	-0.003	0.000
-685.310	196.098	-0.196	-0.298
-684.295	-107.736	0.278	-0.061
-683.281	-200.000	-0.053	-0.249
-682.266	-46.151	-0.331	-0.163
-681.251	24.604	-0.218	-0.180
-680.237	800.000	0.076	0.225
-679.222	-200.000	0.053	0.446
-678.208	-53.791	0.205	0.093
-677.193	800.000	0.035	-0.151
-676.178	150.568	0.211	0.287
-675.164	-31.961	0.160	0.090
-674.149	-200.000	-0.007	-0.368
-673.135	22.887	0.261	0.214
-672.120	559.262	0.049	0.120
-671.105	-101.829	-0.096	-0.023
-670.091	190.618	0.124	-0.186
-669.076	31.218	0.050	0.043
-668.062	-200.000	0.001	0.233
-667.047	-62.896	-0.099	0.041
-666.032	606.037	0.028	-0.070
-665.018	-109.789	-0.340	0.072
-664.003	-200.000	-0.005	0.113
-662.989	16.500	-0.177	-0.140
-661.974	-200.000	0.088	0.546
-660.959	157.025	-0.067	-0.093
-659.945	-52.524	0.240	-0.111
-658.930	-106.258	0.283	0.063
-657.916	107.032	0.150	-0.178
-656.901	16.850	0.206	0.163
-655.886	209.525	0.061	-0.096
-654.872	-136.448	-0.221	-0.026
-653.857	714.633	-0.115	-0.304
-652.843	415.352	-0.037	-0.078
-651.828	93.007	0.119	-0.134
-650.814	48.945	-0.049	0.046
-649.799	-124.185	0.208	-0.033
-648.784	636.308	-0.031	-0.079
-647.770	-0.696	-0.254	-0.180
-646.755	62.076	-0.075	-0.075
-645.741	-200.000	0.037	0.737
-644.726	-115.991	0.152	-0.028
-643.711	-163.915	0.073	-0.003
-642.697	5.702	-0.152	0.113
-641.682	75.656	-0.113	0.120
-640.668	-200.000	0.004	-0.121
-639.653	-96.259	-0.236	0.063
-638.638	154.738	-0.044	-0.060
-637.624	800.000	0.031	-0.108
-636.609	-98.132	-0.344	-0.088
-635.595	-200.000	-0.018	-0.374
-634.580	-132.985	0.331	-0.042
-633.565	-141.834	-0.285	0.028
-632.551	-121.813	0.075	0.012
-631.536	-21.708	-0.160	-0.097
-630.522	55.007	-0.181	-0.174
-629.507	125.088	0.113	0.142
-628.492	338.534	0.148	-0.288
-627.478	800.000	-0.068	-0.256
-626.463	-6.661	-0.219	-0.149
-625.449	229.326	0.104	0.169
-624.434	-49.948	-0.296	-0.140
-623.419	216.153	0.050	-0.079
-622.405	800.000	0.019	0.062
-621.390	-165.736	0.296	0.013
-620.376	-125.852	-0.153	0.023
-619.361	38.721	-0.119	-0.106
-618.346	180.268	0.156	0.228
-617.332	15.744	-0.333	-0.261
-616.317	89.297	-0.179	-0.200
-615.303	-159.896	-0.239	0.013
-614.288	27.043	-0.183	-0.154
-613.273	-66.181	-0.268	-0.106
-612.259	800.000	0.050	-0.193
-611.244	-200.000	-0.022	-0.190
-610.230	379.265	0.080	-0.164
-609.215	-16.150	-0.060	-0.038
-608.201	268.135	0.201	0.351
-607.186	800.000	-0.080	-0.260
-606.171	-186.301	0.148	-0.002
-605.157	-167.852	-0.151	0.006
-604.142	800.000	0.059	0.211
-603.128	-102.581	-0.272	-0.065
-602.113	-200.000	0.007	-0.131
-601.098	-89.134	0.191	0.056
-600.084	-2.824	-0.177	-0.123
-599.069	800.000	-0.080	0.334
-598.055	566.709	0.077	-0.188
-597.040	-200.000	0.013	-0.343
-596.025	68.478	-0.160	0.163
-595.011	-24.091	-0.183	0.109
-593.996	-200.000	-0.011	-0.112
-592.982	-45.532	-0.102	0.051
-591.967	-130.540	0.385	-0.052
-590.952	299.473	-0.090	-0.166
-589.938	303.104	-0.087	-0.161
-588.923	-200.000	-0.033	-0.163
-587.909	207.357	-0.071	-0.111
-586.894	384.621	0.055	-0.113
-585.879	84.719	-0.141	0.154
-584.865	646.132	0.103	0.264
-583.850	-194.535	0.456	-0.004
-582.836	-200.000	-0.006	-0.228
-581.821	-147.574	0.299	-0.025
-580.806	-200.000	0.037	0.463
-579.792	-59.677	-0.252	0.108
-578.777	73.493	0.365	0.382
-577.763	-83.534	0.366	-0.117
-576.748	69.847	0.160	0.165
-575.733	18.528	-0.099	-0.079
-574.719	-89.067	-0.142	-0.042
-573.704	-170.214	0.178	-0.006
-572.690	-133.778	0.306	-0.038
-571.675	-173.814	-0.127	-0.004
-570.661	-40.214	-0.196	0.102
-569.646	-163.531	-0.325	0.015
-568.631	24.125	-0.077	0.063
-567.617	-22.008	0.154	-0.093
-566.602	3.856	-0.216	0.157
-565.588	-200.000	-0.045	0.317
-564.573	-23.894	0.244	0.146
-563.558	-148.490	0.079	0.006
-562.544	-131.891	0.263	-0.034
-561.529	125.601	-0.187	-0.235
-560.515	-153.032	-0.252	0.018
-559.500	-200.000	-0.097	-0.612
-558.485	-19.729	-0.245	-0.151
-557.471	-44.599	-0.388	-0.193
-556.456	-99.009	0.209	0.053
-555.442	57.537	-0.260	-0.253
-554.427	-200.000	0.006	-0.243
-553.412	-157.654	-0.126	0.008
-552.398	614.396	-0.063	-0.156
-551.383	-60.497	-0.283	-0.120
-550.369	800.000	0.064	-0.243
-549.354	64.264	-0.039	0.039
-548.339	290.078	0.107	0.193
-547.325	340.917	-0.154	0.300
-546.310	-87.748	0.135	0.041
-545.296	-23.547	-0.224	-0.134
-544.281	-43.901	0.293	0.147
-543.266	-117.703	-0.208	0.037
-542.252	-168.997	-0.107	-0.004
-541.237	266.714	-0.048	-0.084
-540.223	-68.049	0.100	-0.039
-539.208	-200.000	0.025	0.265
-538.193	-130.530	-0.381	0.051
-537.179	800.000	-0.038	-0.142
-536.164	-149.809	-0.412	-0.032
-535.150	800.000	-0.084	0.308
-534.135	-200.000	-0.030	0.156
-533.121	800.000	0.082	0.235
-532.106	273.035	-0.079	-0.139
-531.091	418.880	0.085	-0.182
-530.077	149.856	0.089	0.120
-529.062	56.560	-0.006	0.006
-528.048	-53.498	-0.150	0.068
-527.033	305.639	-0.060	0.112
-526.018	-117.706	-0.156	0.028
-525.004	-198.703	0.230	0.001
-523.989	-200.000	-0.022	-0.189
-522.975	-55.483	-0.275	-0.123
-521.960	-70.978	-0.272	-0.102
-520.945	-184.705	-0.273	-0.004
-519.931	-56.596	-0.025	-0.011
-518.916	196.230	-0.244	0.370
-517.902	235.086	-0.161	-0.265
-516.887	-200.000	0.026	-0.151
-515.872	-136.328	0.094	0.011
-514.858	800.000	0.035	0.108
-513.843	49.748	-0.188	-0.176
-512.829	-147.216	0.129	0.011
-511.814	-4.126	-0.200	-0.137
-510.799	-200.000	0.077	-0.349
-509.785	-169.349	0.284	0.010
-508.770	-122.928	-0.328	0.053
-507.756	-188.173	0.422	0.005
-506.741	-67.786	-0.176	-0.068
-505.726	763.275	0.113	0.304
-504.712	-98.254	-0.394	0.100
-503.697	-200.000	0.066	0.311
-502.683	-200.000	-0.036	-0.387
-501.668	102.743	-0.013	0.015
-500.653	-11.544	-0.180	-0.118
-499.639	-96.946	0.150	-0.039
-498.624	-200.000	-0.085	0.432
-497.610	-200.000	-0.005	0.138
-496.595	-81.410	-0.116	0.038
-495.581	-90.821	0.348	-0.100
-494.566	535.671	-0.062	-0.146
-493.551	-200.000	0.015	0.230
-492.537	-73.954	0.552	0.199
-491.522	800.000	-0.016	-0.060
-490.508	-200.000	0.013	0.129
-489.493	-200.000	0.009	0.098
-488.478	-146.733	0.325	-0.028
-487.464	-35.687	0.165	-0.089
-486.449	290.447	0.049	-0.088
-485.435	503.981	0.177	-0.408
-484.420	420.941	-0.111	0.236
-483.405	174.320	-0.087	0.124
-482.391	687.693	0.196	0.510
-481.376	-119.893	0.048	0.008
-480.362	6.684	0.070	-0.052
-479.347	-54.474	0.331	-0.149
-478.332	-51.831	0.146	-0.068
-477.318	799.848	-0.039	-0.108
-476.303	-73.829	-0.376	0.136
-475.289	-147.338	-0.225	-0.019
-474.274	247.431	0.195	0.327
-473.259	90.975	0.337	-0.375
-472.245	-22.581	-0.202	0.121
-471.230	-155.806	0.222	-0.014
-470.216	474.878	0.022	-0.050
-469.201	159.032	0.150	0.207
-468.186	-131.873	0.355	0.046
-467.172	-78.686	0.023	0.008
-466.157	-18.213	-0.078	0.048
-465.143	-10.939	-0.151	-0.099
-464.128	-44.342	0.374	0.186
-463.113	175.819	0.057	0.082
-462.099	-62.090	0.477	-0.198
-461.084	-200.000	-0.062	0.377
-460.070	800.000	-0.050	-0.181
-459.055	-109.847	-0.332	-0.069
-458.040	-27.599	-0.176	-0.101
-457.026	29.270	-0.170	0.143
-456.011	399.283	0.010	0.021
-454.997	248.597	0.001	-0.002
-453.982	356.415	0.044	-0.086
-452.968	800.000	0.031	0.102
-451.953	-200.000	-0.005	-0.065
-450.938	-32.459	-0.061	-0.033
-449.924	51.140	0.090	-0.085
-448.909	68.649	0.226	-0.230
-447.895	-87.111	-0.386	-0.116
-446.880	174.171	0.028	-0.040
-445.865	-200.000	-0.022	-0.213
-444.851	800.000	0.120	-0.434
-443.836	-200.000	-0.038	-0.324
-442.822	-34.186	0.028	-0.015
-441.807	-88.064	-0.287	0.085
-440.792	80.485	0.153	-0.163
-439.778	6.343	0.016	-0.011
-438.763	-45.724	-0.252	0.124
-437.749	-73.883	-0.271	0.098
-436.734	17.500	-0.180	-0.142
-435.719	-83.969	-0.209	0.066
-434.705	-200.000	-0.002	0.555
-433.690	122.815	0.140	0.173
-432.676	226.133	0.067	-0.108
-431.661	800.000	-0.061	0.177
-430.646	-130.519	-0.146	0.020
-429.632	729.691	0.083	0.220
-428.617	201.627	0.131	0.200
-427.603	14.605	-0.145	0.112
-426.588	-6.893	-0.426	-0.287
-425.573	-200.000	0.037	0.240
-424.559	-173.148	-0.082	-0.003
-423.544	94.792	0.064	-0.073
-422.530	240.177	0.075	-0.123
-421.515	-108.752	-0.269	0.057
-420.500	-62.700	-0.204	-0.084
-419.486	-2.652	0.175	-0.122
-418.471	606.084	-0.187	0.461
-417.457	236.084	-0.172	0.281
-416.442	-93.231	0.227	-0.062
-415.428	89.139	0.137	0.151
-414.413	166.301	-0.045	0.063
-413.398	-63.607	-0.155	0.063
-412.384	-62.888	0.422	0.173
-411.369	800.000	-0.073	0.314
-410.355	-200.000	0.008	-0.073
-409.340	40.751	-0.055	0.049
-408.325	-200.000	0.021	0.250
-407.311	308.352	0.123	0.228
-406.296	-200.000	-0.001	-0.061
-405.282	-200.000	-0.040	0.233
-404.267	341.490	0.113	0.219
-403.252	800.000	0.050	-0.136
-402.238	171.146	0.092	-0.131
-401.223	80.043	-0.340	-0.362
-400.209	475.011	0.174	-0.388
-399.194	108.256	0.129	-0.152
-398.179	-17.321	0.184	0.115
-397.165	800.000	-0.050	0.194
-396.150	135.528	-0.245	-0.315
-395.136	476.401	0.134	-0.301
-394.121	-89.874	-0.317	0.092
-393.106	-102.095	-0.415	-0.099
-392.092	196.064	0.114	-0.171
-391.077	-75.035	0.032	0.012
-390.063	567.711	-0.138	0.332
-389.048	24.355	0.104	-0.085
-388.033	-70.648	0.217	0.081
-387.019	146.590	0.216	0.287
-386.004	-99.623	-0.374	0.093
-384.990	0.039	0.300	-0.211
-383.975	-200.000	0.022	-0.205
-382.960	-200.000	-0.102	-0.447
-381.946	187.987	-0.106	-0.157
-380.931	112.004	-0.098	0.117
-379.917	185.070	0.025	0.036
-378.902	68.276	0.102	-0.104
-377.888	-192.740	0.346	0.003
-376.873	25.342	0.181	0.149
-375.858	-62.531	-0.279	-0.115
-374.844	672.871	0.107	0.274
-373.829	-55.735	-0.277	-0.122
-372.815	-122.027	-0.268	0.044
-371.800	-57.332	-0.057	0.025
-370.785	-33.517	0.430	0.235
-369.771	-200.000	0.049	0.421
-368.756	-2.054	0.135	-0.094
-367.742	-51.036	-0.217	0.101
-366.727	-119.006	0.078	0.013
-365.712	-37.995	-0.231	-0.121
-364.698	81.941	0.282	-0.302
-363.683	102.735	0.274	0.317
-362.669	233.651	-0.149	0.243
-361.654	-147.601	0.223	-0.019
-360.639	-160.219	0.071	0.004
-359.625	800.000	0.060	0.205
-358.610	244.618	0.142	0.235
-357.596	338.319	-0.105	-0.202
-356.581	19.802	0.150	-0.119
-355.566	43.686	-0.083	0.075
-354.552	-200.000	-0.049	0.214
-353.537	18.831	0.092	-0.073
-352.523	-45.143	0.200	-0.098
-351.508	-69.278	0.137	-0.052
-350.493	-140.416	0.248	-0.026
-349.479	329.734	-0.082	0.156
-348.464	132.860	0.182	-0.232
-347.450	800.000	0.023	0.076
-346.435	119.347	0.057	-0.070
-345.420	-27.172	0.111	0.064
-344.406	18.621	-0.162	-0.128
-343.391	-68.779	0.302	-0.116
-342.377	69.711	0.092	-0.094
-341.362	-123.484	-0.329	-0.052
-340.348	-200.000	-0.005	0.048
-339.333	-56.000	0.312	-0.138
-338.318	800.000	-0.154	-0.496
-337.304	133.603	0.164	0.210
-336.289	-73.474	-0.161	0.058
-335.275	41.403	0.310	-0.277
-334.260	461.850	0.123	-0.271
-333.245	123.256	0.119	0.147
-332.231	-200.000	-0.052	-0.236
-331.216	-200.000	0.006	0.132
-330.202	8.806	-0.249	0.185
-329.187	-55.111	-0.154	-0.068
-328.172	-200.000	-0.063	0.368
-327.158	82.421	-0.163	0.175
-326.143	-200.000	0.035	0.241
-325.129	-157.322	-0.040	0.002
-324.114	46.347	0.190	0.174
-323.099	-163.150	-0.131	0.006
-322.085	-200.000	0.036	-0.178
-321.070	16.551	0.061	0.048
-320.056	-197.365	-0.081	-0.000
-319.041	-31.801	0.367	-0.203
-318.026	369.997	-0.039	0.078
-317.012	510.414	0.090	0.206
-315.997	-164.329	-0.155	-0.007
-314.983	-10.133	0.206	-0.135
-313.968	800.000	0.090	0.261
-312.953	-61.415	-0.173	-0.072
-311.939	-176.765	-0.244	-0.006
-310.924	-102.418	-0.119	0.028
-309.910	800.000	0.084	0.255
-308.895	-125.358	-0.200	0.030
-307.880	144.655	0.079	-0.105
-306.866	-200.000	0.004	-0.316
-305.851	-200.000	0.015	-0.136
-304.837	-16.489	0.228	-0.142
-303.822	51.309	-0.198	-0.185
-302.807	-200.000	-0.054	-0.262
-301.793	800.000	0.053	0.199
-300.778	-41.776	-0.096	0.049
-299.764	-54.487	0.077	-0.034
-298.749	-200.000	0.028	-0.196
-297.735	-200.000	0.019	-0.110
-296.720	-200.000	0.102	0.000
-295.705	724.525	0.084	0.219
-294.691	57.191	-0.044	0.042
-293.676	-80.925	0.317	0.104
-292.662	-79.900	0.059	0.020
-291.647	283.798	0.133	-0.237
-290.632	-56.421	-0.091	0.040
-289.618	800.000	-0.005	-0.017
-288.603	-35.511	-0.306	0.164
-287.589	800.000	-0.087	-0.280
-286.574	-82.903	0.186	-0.059
-285.559	160.630	-0.080	0.111
-284.545	800.000	-0.052	-0.184
-283.530	108.164	0.162	-0.190
-282.516	20.699	0.177	-0.141
-281.501	-16.042	0.096	-0.060
-280.486	-180.445	-0.050	-0.001
-279.472	-200.000	0.003	-0.177
-278.457	-200.000	0.003	-0.074
-277.443	-200.000	0.029	-0.171
-276.428	207.511	-0.263	0.405
-275.413	-74.062	0.297	0.106
-274.399	-29.708	0.248	0.140
-273.384	-149.820	-0.195	0.015
-272.370	22.261	0.178	-0.144
-271.355	800.000	-0.056	0.172
-270.340	645.919	0.117	0.295
-269.326	800.000	-0.064	0.266
-268.311	-63.383	-0.213	0.086
-267.297	-105.012	-0.174	0.039
-266.282	291.887	-0.133	-0.239
-265.267	91.697	0.093	-0.103
-264.253	382.743	0.087	0.176
-263.238	-63.140	0.150	0.061
-262.224	234.111	-0.046	-0.074
-261.209	-150.885	-0.334	0.025
-260.195	-200.000	-0.019	0.194
-259.180	-63.769	-0.170	0.069
-258.165	-153.668	0.131	0.009
-257.151	494.180	-0.054	-0.122
-256.136	109.643	-0.101	-0.119
-255.122	-37.079	0.069	0.036
-254.107	-200.000	-0.017	0.139
-253.092	-104.834	-0.230	-0.052
-252.078	-85.193	0.281	-0.086
-251.063	-131.200	-0.268	-0.035
-250.049	-74.702	-0.381	-0.135
-249.034	-189.561	0.217	0.002
-248.019	-200.000	0.032	-0.221
-247.005	-21.800	0.194	0.116
-245.990	174.422	0.100	0.142
-244.976	489.984	-0.070	0.157
-243.961	15.101	0.145	0.112
-242.946	-84.012	0.193	-0.060
-241.932	-200.000	-0.019	0.251
-240.917	452.967	-0.044	-0.096
-239.903	-12.650	0.243	-0.156
-238.888	171.307	0.135	-0.190
-237.873	-132.371	-0.210	0.027
-236.859	-200.000	-0.020	-0.294
-235.844	-113.165	0.278	-0.054
-234.830	5.561	0.339	-0.247
-233.815	110.824	-0.274	-0.324
-232.800	-80.418	0.270	0.089
-231.786	265.744	0.135	0.233
-230.771	-188.608	0.090	-0.001
-229.757	165.604	-0.286	-0.397
-228.742	-159.238	0.226	-0.013
-227.727	-96.025	0.286	-0.075
-226.713	791.285	-0.111	-0.299
-225.698	-163.200	-0.357	-0.017
-224.684	674.168	0.025	0.065
-223.669	-109.871	0.159	-0.033
-222.655	-103.493	0.185	0.043
-221.640	157.863	-0.153	-0.209
-220.625	-200.000	-0.044	0.517
-219.611	-200.000	0.023	0.239
-218.596	-189.167	0.223	0.003
-217.582	609.423	-0.100	0.245
-216.567	-6.122	0.164	0.110
-215.552	-200.000	-0.019	-0.194
-214.538	111.854	0.298	-0.354
-213.523	-43.509	-0.222	0.110
-212.509	93.293	-0.150	-0.167
-211.494	-200.000	-0.021	0.206
-210.479	-200.000	-0.038	0.312
-209.465	-147.034	-0.430	-0.036
-208.450	-128.679	0.286	0.040
-207.436	373.255	-0.075	-0.149
-206.421	-200.000	-0.009	-0.334
-205.406	-22.963	-0.143	0.085
-204.392	762.736	-0.253	0.675
-203.377	-200.000	0.017	-0.246
-202.363	110.671	0.207	0.244
-201.348	-57.608	-0.173	-0.074
-200.333	127.977	-0.069	-0.087
-199.319	64.740	-0.075	-0.074
-198.304	75.949	-0.242	0.252
-197.290	-108.572	0.051	0.011
-196.275	-118.526	-0.204	-0.035
-195.260	-96.223	0.363	0.094
-194.246	-59.289	-0.288	-0.122
-193.231	-200.000	0.013	-0.189
-192.217	-145.881	0.138	-0.012
-191.202	-33.083	0.106	-0.058
-190.187	221.718	-0.077	0.121
-189.173	112.063	-0.136	0.162
-188.158	-78.177	0.320	0.108
-187.144	39.123	-0.072	0.063
-186.129	-200.000	-0.002	0.288
-185.114	63.430	0.126	-0.124
-184.100	99.189	-0.057	0.065
-183.085	46.677	-0.090	-0.082
-182.071	800.000	0.055	0.193
-181.056	-132.869	0.173	0.022
-180.042	14.394	-0.254	-0.195
-179.027	81.659	0.306	-0.325
-178.012	128.833	0.182	-0.228
-176.998	74.433	0.217	0.224
-175.983	-200.000	-0.029	-0.158
-174.969	800.000	0.048	0.188
-173.954	5.527	-0.109	0.079
-172.939	-200.000	-0.015	0.146
-171.925	-200.000	-0.041	-0.330
-170.910	-74.803	0.343	0.121
-169.896	-16.989	-0.144	0.089
-168.881	-150.064	-0.258	-0.020
-167.866	-57.752	0.103	-0.044
-166.852	221.950	-0.116	0.183
-165.837	-93.230	0.192	-0.052
-164.823	-128.550	0.235	0.033
-163.808	765.266	-0.017	0.046
-162.793	192.085	0.183	0.271
-161.779	-68.194	0.155	0.059
-160.764	73.545	-0.155	-0.159
-159.750	203.377	0.156	0.236
-158.735	317.747	0.157	-0.291
-157.720	102.583	0.142	-0.163
-156.706	-200.000	0.039	0.426
-155.691	52.831	-0.246	0.231
-154.677	-151.666	0.365	-0.026
-153.662	135.380	0.058	0.075
-152.647	800.000	-0.048	0.179
-151.633	-75.941	0.162	0.056
-150.618	-200.000	0.002	0.288
-149.604	377.141	0.057	-0.114
-148.589	-73.488	-0.140	-0.050
-147.574	-104.698	0.191	0.043
-146.560	-200.000	-0.047	0.241
-145.545	-78.544	-0.256	0.086
-144.531	660.050	0.110	-0.277
-143.516	-200.000	0.044	-0.231
-142.502	774.504	-0.055	-0.148
-141.487	-141.128	0.270	-0.027
-140.472	296.142	-0.095	-0.170
-139.458	-173.223	0.413	-0.012
-138.443	-200.000	0.009	0.204
-137.429	-180.942	-0.093	-0.002
-136.414	-35.866	0.132	-0.070
-135.399	319.760	0.130	0.242
-134.385	24.365	0.325	-0.264
-133.370	110.692	0.056	0.066
-132.356	372.295	0.160	-0.318
-131.341	-44.271	-0.081	0.040
-130.326	374.865	-0.061	0.121
-129.312	436.226	-0.089	0.190
-128.297	-200.000	-0.003	-0.149
-127.283	-52.015	-0.375	0.171
-126.268	161.053	0.053	-0.072
-125.253	44.645	0.223	-0.201
-124.239	-71.673	-0.271	0.099
-123.224	-157.287	-0.204	0.012
