DTS Sentinel unit serial number:	SN413079Multiplexer serial number:	ORYXHardware model number:	OX4-SRSoftware version number:	ORYX F/W v4.00 Oryx Data Collector v3.7.2.0data status	okinstallation	princeton_trtdifferential loss correction	single-endedforward channel	channel 2reverse channel	N/Adate	2019/09/15time	19:43:35forward acquisition time	60.00reverse acquisition time	0.00gamma	496.2192k internal	0.2323k external	0.2323temperature offset calibration	0.9934default loss term (dB/km)	0.3790temperature slope calibration	1.0000multiplexer offset coefficient	1.0000multiplexer slope coefficient	1.0000fibre end	0.00T internal ref (°C)	37.31T ext. ref 1 (°C)	7.41T ext. ref 2 (°C)	27.23length (m)	temperature (°C)	Stokes	anti-Stokes-747.200	41.075	0.074	0.068
-746.185	-200.000	0.044	0.244
-745.171	495.398	-0.096	-0.224
-744.156	-82.745	0.077	0.025
-743.142	-118.838	-0.117	-0.021
-742.127	11.289	-0.073	-0.056
-741.112	-85.969	0.112	-0.035
-740.098	66.784	-0.257	-0.264
-739.083	-136.333	-0.209	-0.025
-738.069	743.647	-0.116	0.315
-737.054	-13.330	0.041	0.027
-736.039	101.068	-0.251	0.295
-735.025	-114.294	0.320	-0.062
-734.010	412.090	0.058	0.124
-732.996	123.990	0.178	-0.226
-731.981	-25.837	-0.195	0.116
-730.966	800.000	-0.026	0.080
-729.952	-23.867	0.412	0.249
-728.937	-104.188	-0.399	-0.094
-727.923	-79.173	0.122	0.042
-726.908	110.705	-0.093	0.113
-725.894	194.301	-0.211	-0.322
-724.879	-200.000	0.000	-0.188
-723.864	-17.810	0.139	-0.088
-722.850	-96.284	-0.212	-0.057
-721.835	-41.492	-0.493	-0.256
-720.821	-6.201	-0.243	-0.167
-719.806	-200.000	0.005	-0.080
-718.791	-62.070	-0.069	0.029
-717.777	-200.000	-0.012	-0.061
-716.762	-5.207	-0.152	0.106
-715.748	-34.649	-0.099	0.055
-714.733	-200.000	-0.000	-0.109
-713.718	131.737	0.265	-0.343
-712.704	7.752	0.212	0.160
-711.689	156.071	-0.122	0.170
-710.675	-68.985	0.079	-0.031
-709.660	-200.000	0.007	-0.155
-708.645	322.757	0.064	-0.122
-707.631	202.256	-0.181	-0.281
-706.616	-41.674	-0.102	0.053
-705.602	-122.101	-0.172	-0.028
-704.587	-200.000	0.048	-0.619
-703.572	-140.254	-0.241	-0.025
-702.558	-19.069	-0.061	0.038
-701.543	-144.303	0.105	-0.010
-700.529	-200.000	0.003	-0.369
-699.514	55.417	0.083	-0.081
-698.499	639.404	0.128	-0.329
-697.485	-81.894	-0.046	0.015
-696.470	-200.000	-0.012	-0.064
-695.456	-37.692	-0.329	-0.177
-694.441	-200.000	-0.019	0.213
-693.426	800.000	0.042	-0.162
-692.412	9.872	-0.183	-0.140
-691.397	67.510	0.185	-0.190
-690.383	9.229	0.130	0.099
-689.368	800.000	0.010	-0.029
-688.354	-200.000	0.009	0.351
-687.339	-151.816	-0.091	-0.007
-686.324	-95.356	0.207	0.056
-685.310	365.210	0.168	0.341
-684.295	-138.362	0.196	-0.022
-683.281	-68.759	0.083	-0.032
-682.266	-200.000	0.039	0.256
-681.251	-200.000	-0.065	-0.288
-680.237	-80.748	-0.320	-0.107
-679.222	-200.000	-0.002	-0.337
-678.208	-200.000	-0.051	-0.707
-677.193	95.817	-0.067	-0.077
-676.178	-94.725	-0.056	0.015
-675.164	800.000	-0.093	0.319
-674.149	-78.543	-0.317	-0.109
-673.135	107.645	-0.123	0.147
-672.120	-200.000	0.008	-0.435
-671.105	-119.595	0.274	0.048
-670.091	-86.679	-0.277	-0.086
-669.076	-163.334	-0.421	0.020
-668.062	-59.599	-0.431	-0.186
-667.047	-200.000	0.012	0.138
-666.032	575.500	-0.089	-0.218
-665.018	368.903	-0.082	-0.167
-664.003	800.000	0.069	-0.273
-662.989	-150.136	-0.069	-0.005
-661.974	-25.591	0.128	0.076
-660.959	40.130	0.221	0.200
-659.945	-112.353	-0.132	0.027
-658.930	-200.000	-0.002	-0.099
-657.916	-134.994	-0.235	0.029
-656.901	14.349	0.189	-0.149
-655.886	321.834	-0.141	-0.271
-654.872	14.424	0.136	0.107
-653.857	-101.316	0.083	0.020
-652.843	800.000	0.057	-0.166
-651.828	-169.386	-0.353	0.013
-650.814	235.257	-0.025	-0.042
-649.799	-200.000	-0.004	-0.167
-648.784	-66.135	0.097	0.039
-647.770	-83.202	0.099	-0.032
-646.755	-1.990	-0.202	-0.143
-645.741	40.329	0.076	-0.069
-644.726	-63.969	0.129	0.053
-643.711	13.416	0.271	-0.212
-642.697	-7.893	-0.209	0.142
-641.682	-37.211	-0.309	-0.166
-640.668	229.971	0.217	0.356
-639.653	105.149	-0.185	0.220
-638.638	410.058	-0.039	0.083
-637.624	-55.790	-0.043	0.019
-636.609	21.003	-0.242	-0.197
-635.595	-127.155	0.416	-0.061
-634.580	-200.000	-0.340	0.001
-633.565	-169.791	-0.229	-0.008
-632.551	-92.702	0.219	-0.062
-631.536	49.062	0.197	-0.187
-630.522	12.424	-0.157	0.121
-629.507	-78.445	-0.485	-0.167
-628.492	28.232	0.041	-0.035
-627.478	213.363	0.166	0.264
-626.463	558.444	0.042	0.102
-625.449	-114.866	-0.380	0.073
-624.434	293.449	-0.108	-0.199
-623.419	16.451	0.142	0.113
-622.405	-160.191	0.168	0.009
-621.390	-135.044	-0.318	-0.039
-620.376	224.629	0.150	0.244
-619.361	291.156	-0.218	-0.398
-618.346	-17.612	0.170	0.107
-617.332	800.000	0.072	0.275
-616.317	176.275	0.068	0.100
-615.303	181.266	-0.165	-0.243
-614.288	-200.000	0.023	0.162
-613.273	192.945	0.103	0.157
-612.259	-107.717	-0.264	0.058
-611.244	-143.195	-0.271	-0.026
-610.230	454.422	-0.124	0.276
-609.215	-200.000	-0.013	0.184
-608.201	-65.860	0.401	-0.161
-607.186	800.000	-0.020	-0.080
-606.171	-116.654	0.323	-0.060
-605.157	-39.203	0.054	-0.028
-604.142	-37.099	0.113	-0.061
-603.128	-6.010	-0.236	0.162
-602.113	-16.507	-0.268	0.171
-601.098	-200.000	-0.003	0.188
-600.084	800.000	0.037	-0.139
-599.069	-31.199	-0.365	-0.206
-598.055	74.991	0.083	0.088
-597.040	-112.548	-0.495	-0.099
-596.025	-200.000	-0.002	-0.101
-595.011	-92.517	-0.131	0.037
-593.996	-140.489	0.259	-0.027
-592.982	-200.000	-0.050	-0.274
-591.967	-5.820	-0.259	-0.178
-590.952	314.387	-0.104	-0.196
-589.938	-200.000	-0.001	0.133
-588.923	-90.936	0.287	-0.083
-587.909	-200.000	-0.017	-0.561
-586.894	-120.091	-0.248	0.043
-585.879	557.857	-0.077	0.187
-584.865	30.214	-0.327	-0.280
-583.850	-127.112	-0.099	-0.015
-582.836	-200.000	0.045	0.338
-581.821	-200.000	-0.002	0.244
-580.806	-27.752	-0.162	0.094
-579.792	288.414	0.172	0.312
-578.777	800.000	0.075	0.222
-577.763	479.517	0.080	-0.181
-576.748	800.000	-0.043	0.167
-575.733	-200.000	0.010	-0.114
-574.719	-101.256	-0.399	-0.098
-573.704	-200.000	0.011	0.238
-572.690	-200.000	0.038	-0.199
-571.675	-77.493	-0.252	0.088
-570.661	800.000	-0.063	-0.232
-569.646	131.714	0.060	-0.077
-568.631	69.016	-0.162	0.167
-567.617	-33.200	-0.250	-0.139
-566.602	-64.217	-0.277	-0.113
-565.588	-144.352	-0.357	0.033
-564.573	800.000	-0.023	-0.089
-563.558	150.291	-0.204	0.278
-562.544	-200.000	0.006	0.145
-561.529	53.587	0.104	0.100
-560.515	542.231	-0.042	0.101
-559.500	-116.194	-0.370	-0.069
-558.485	47.195	-0.203	-0.190
-557.471	-16.799	0.117	0.074
-556.456	800.000	-0.032	0.097
-555.442	143.327	-0.079	0.106
-554.427	-200.000	0.025	-0.189
-553.412	-27.417	-0.211	0.123
-552.398	-200.000	0.038	0.192
-551.383	-153.870	-0.263	0.018
-550.369	-200.000	-0.013	-0.117
-549.354	74.302	0.286	-0.301
-548.339	377.914	0.136	0.279
-547.325	-200.000	0.036	0.401
-546.310	-2.644	0.220	-0.154
-545.296	800.000	-0.018	-0.072
-544.281	8.620	-0.287	0.216
-543.266	58.057	0.180	0.177
-542.252	-144.477	0.275	0.026
-541.237	-23.111	-0.061	-0.037
-540.223	-87.463	-0.169	-0.051
-539.208	12.047	0.218	-0.168
-538.193	-200.000	-0.035	-0.157
-537.179	41.440	0.039	-0.035
-536.164	-1.354	-0.320	-0.226
-535.150	-69.593	0.112	-0.043
-534.135	-200.000	-0.033	0.591
-533.121	-163.993	-0.110	0.005
-532.106	170.533	-0.110	-0.158
-531.091	-68.434	-0.332	-0.129
-530.077	-66.249	0.061	0.024
-529.062	800.000	-0.154	-0.663
-528.048	-34.725	-0.369	-0.202
-527.033	-200.000	0.031	-0.156
-526.018	-33.498	-0.047	0.026
-525.004	-151.300	-0.211	0.016
-523.989	800.000	-0.046	-0.135
-522.975	-80.579	0.283	-0.094
-521.960	151.300	0.108	0.148
-520.945	72.180	0.095	-0.099
-519.931	293.050	0.145	0.264
-518.916	-200.000	-0.010	0.345
-517.902	74.849	0.360	-0.379
-516.887	581.551	-0.172	-0.421
-515.872	118.179	0.200	-0.247
-514.858	800.000	0.023	-0.075
-513.843	402.309	0.173	-0.365
-512.829	800.000	-0.052	0.173
-511.814	-178.053	0.094	0.002
-510.799	276.513	-0.155	-0.276
-509.785	-106.058	-0.103	0.023
-508.770	-86.075	0.275	0.085
-507.756	263.065	0.057	0.099
-506.741	-200.000	0.013	-0.236
-505.726	800.000	-0.116	-0.397
-504.712	800.000	-0.067	0.212
-503.697	-200.000	-0.011	-0.153
-502.683	20.569	0.031	-0.025
-501.668	-200.000	-0.027	-0.352
-500.653	-73.044	-0.117	0.043
-499.639	-119.983	-0.126	0.022
-498.624	-86.428	-0.290	0.089
-497.610	-47.086	0.148	-0.072
-496.595	-135.116	0.330	0.040
-495.581	-188.849	0.061	0.001
-494.566	-200.000	0.026	-0.311
-493.551	-109.436	-0.102	0.022
-492.537	98.744	-0.179	-0.207
-491.522	-66.675	0.329	-0.130
-490.508	-134.955	-0.133	-0.016
-489.493	84.063	0.294	0.321
-488.478	144.804	-0.182	-0.243
-487.464	643.384	-0.144	0.368
-486.449	52.326	0.073	-0.069
-485.435	216.347	0.044	0.069
-484.420	227.464	-0.148	0.241
-483.405	15.597	0.192	-0.151
-482.391	-58.894	0.029	0.013
-481.376	307.503	0.075	0.139
-480.362	-146.441	-0.336	0.029
-479.347	-33.972	0.352	-0.194
-478.332	-35.891	-0.226	-0.122
-477.318	-51.664	-0.331	0.154
-476.303	-114.180	-0.267	-0.052
-475.289	74.844	0.250	0.263
-474.274	282.174	-0.136	0.243
-473.259	-158.574	0.136	-0.008
-472.245	100.634	0.143	-0.166
-471.230	-105.507	-0.111	0.025
-470.216	78.142	-0.140	-0.149
-469.201	-168.071	-0.084	0.003
-468.186	800.000	0.060	0.183
-467.172	371.737	0.134	0.272
-466.157	-200.000	-0.013	-0.090
-465.143	96.423	0.161	-0.184
-464.128	56.010	0.284	0.275
-463.113	181.499	-0.200	-0.294
-462.099	204.107	0.017	-0.026
-461.084	-21.295	0.184	0.113
-460.070	-66.969	0.175	0.069
-459.055	-200.000	0.020	-0.230
-458.040	-84.756	0.272	0.085
-457.026	-23.620	0.263	-0.157
-456.011	248.143	-0.130	-0.220
-454.997	31.896	-0.286	0.246
-453.982	-115.999	0.117	-0.022
-452.968	-95.927	0.194	-0.052
-451.953	800.000	-0.175	-0.517
-450.938	6.531	-0.314	-0.233
-449.924	-200.000	-0.019	-0.287
-448.909	-124.903	0.261	0.040
-447.895	-143.932	-0.163	0.015
-446.880	126.759	0.063	0.079
-445.865	55.749	-0.108	-0.104
-444.851	-124.069	0.275	-0.043
-443.836	-145.557	-0.138	0.012
-442.822	283.525	-0.015	0.026
-441.807	-31.007	-0.152	-0.085
-440.792	800.000	0.005	-0.021
-439.778	209.907	0.142	-0.222
-438.763	210.054	0.128	0.200
-437.749	318.029	-0.027	-0.052
-436.734	-168.251	-0.292	0.011
-435.719	-54.954	-0.318	-0.143
-434.705	-200.000	0.034	0.158
-433.690	11.465	0.184	0.140
-432.676	223.791	0.107	-0.172
-431.661	800.000	-0.065	0.194
-430.646	159.612	-0.335	0.465
-429.632	-168.034	0.276	0.011
-428.617	-55.792	-0.047	-0.021
-427.603	385.683	0.235	0.484
-426.588	-200.000	0.003	-0.230
-425.573	-185.522	-0.346	-0.005
-424.559	454.448	0.137	0.302
-423.544	48.858	-0.182	0.170
-422.530	-34.193	-0.114	-0.063
-421.515	-200.000	0.093	0.456
-420.500	-121.454	-0.200	0.033
-419.486	-200.000	0.025	-0.128
-418.471	46.460	-0.058	0.054
-417.457	-200.000	-0.063	0.278
-416.442	-33.196	-0.145	0.080
-415.428	-200.000	0.011	0.259
-414.413	71.614	-0.049	-0.050
-413.398	-38.075	-0.330	-0.174
-412.384	-200.000	-0.031	-0.228
-411.369	148.457	-0.260	0.350
-410.355	12.326	0.208	0.160
-409.340	-7.444	0.085	-0.057
-408.325	-200.000	-0.041	0.278
-407.311	188.699	-0.174	0.259
-406.296	177.712	0.125	-0.182
-405.282	-200.000	0.013	-0.160
-404.267	-25.902	-0.063	0.037
-403.252	800.000	0.116	0.427
-402.238	-96.502	0.339	-0.089
-401.223	800.000	0.039	-0.155
-400.209	800.000	-0.070	-0.229
-399.194	-111.759	0.319	0.064
-398.179	-88.149	-0.237	-0.071
-397.165	28.090	0.165	-0.139
-396.150	-138.008	-0.410	0.046
-395.136	15.105	0.285	-0.222
-394.121	-7.440	0.261	0.176
-393.106	-145.790	0.143	0.013
-392.092	-200.000	-0.005	0.207
-391.077	-160.046	0.173	-0.009
-390.063	520.495	-0.085	-0.197
-389.048	800.000	0.089	0.284
-388.033	29.680	0.161	-0.136
-387.019	-143.954	0.189	0.018
-386.004	-2.332	0.206	0.144
-384.990	-143.105	0.190	-0.018
-383.975	-103.799	-0.088	-0.020
-382.960	205.657	-0.250	-0.387
-381.946	-200.000	-0.037	-0.324
-380.931	597.516	-0.041	-0.102
-379.917	-82.411	0.130	0.042
-378.902	-200.000	0.016	0.238
-377.888	800.000	0.062	0.232
-376.873	800.000	0.056	0.202
-375.858	359.207	0.085	0.169
-374.844	306.055	0.107	-0.198
-373.829	-53.036	-0.209	0.096
-372.815	800.000	-0.085	-0.237
-371.800	148.444	-0.108	-0.145
-370.785	-2.117	0.150	-0.105
-369.771	800.000	0.082	-0.350
-368.756	-200.000	-0.073	-0.362
-367.742	384.892	0.194	0.398
-366.727	67.245	0.102	-0.104
-365.712	-5.690	-0.076	0.052
-364.698	474.824	0.057	0.128
-363.683	175.011	0.066	0.095
-362.669	-8.607	-0.142	-0.095
-361.654	-200.000	-0.041	0.235
-360.639	-111.800	0.181	-0.037
-359.625	47.419	-0.245	-0.227
-358.610	163.389	-0.070	-0.099
-357.596	-39.764	0.115	-0.060
-356.581	-42.226	-0.268	0.136
-355.566	478.694	0.115	0.259
-354.552	-102.456	0.177	0.042
-353.537	179.499	-0.130	0.190
-352.523	800.000	0.100	0.296
-351.508	-200.000	0.036	-0.162
-350.493	-200.000	-0.075	-0.389
-349.479	-39.361	0.467	-0.244
-348.464	-99.248	0.225	0.057
-347.450	306.951	-0.106	-0.196
-346.435	3.359	-0.203	-0.147
-345.420	800.000	0.029	0.093
-344.406	-170.631	-0.183	-0.006
-343.391	111.456	0.219	-0.263
-342.377	685.202	-0.018	-0.046
-341.362	18.651	-0.136	0.109
-340.348	-38.237	0.220	-0.116
-339.333	-62.884	0.145	0.060
-338.318	-107.203	-0.468	-0.103
-337.304	-200.000	-0.010	-0.410
-336.289	185.645	0.258	-0.380
-335.275	-113.138	-0.106	-0.021
-334.260	-200.000	-0.009	0.183
-333.245	-200.000	-0.019	-0.098
-332.231	291.791	0.201	0.364
-331.216	739.538	0.039	0.104
-330.202	-99.367	-0.112	-0.028
-329.187	-17.316	-0.035	0.022
-328.172	-200.000	-0.018	-0.167
-327.158	84.059	0.217	-0.236
-326.143	-200.000	-0.028	-0.181
-325.129	-57.492	0.106	0.046
-324.114	375.070	-0.010	0.020
-323.099	-79.024	0.332	0.112
-322.085	174.637	-0.019	0.027
-321.070	800.000	-0.117	0.398
-320.056	221.421	-0.125	-0.199
-319.041	66.536	0.151	0.153
-318.026	89.007	0.225	-0.248
-317.012	43.733	-0.178	-0.162
-315.997	-150.609	-0.302	-0.023
-314.983	800.000	-0.062	-0.236
-313.968	-81.785	-0.276	-0.090
-312.953	-200.000	0.033	0.162
-311.939	4.619	0.161	0.118
-310.924	121.997	0.243	-0.302
-309.910	-93.075	0.228	0.063
-308.895	197.645	0.165	0.250
-307.880	143.557	0.094	0.124
-306.866	-136.133	-0.075	0.009
-305.851	-53.970	-0.025	-0.011
-304.837	137.696	-0.295	-0.383
-303.822	-149.694	0.343	0.027
-302.807	73.286	0.170	0.177
-301.793	140.490	-0.091	0.120
-300.778	-58.324	-0.179	0.077
-299.764	-200.000	0.064	-0.310
-298.749	217.072	0.115	-0.181
-297.735	339.395	-0.112	-0.217
-296.720	-200.000	0.008	0.039
-295.705	-54.200	0.093	-0.042
-294.691	207.724	-0.152	0.235
-293.676	800.000	0.098	0.314
-292.662	800.000	-0.073	0.206
-291.647	-200.000	-0.052	0.315
-290.632	-20.280	0.174	0.107
-289.618	47.646	0.097	-0.090
-288.603	800.000	-0.037	-0.148
-287.589	-200.000	0.017	0.083
-286.574	-200.000	-0.016	-0.172
-285.559	278.368	-0.136	0.241
-284.545	-200.000	-0.005	0.048
-283.530	-55.081	-0.097	-0.044
-282.516	149.471	-0.190	-0.256
-281.501	-200.000	0.047	0.363
-280.486	-34.945	0.300	0.163
-279.472	-200.000	0.022	-0.175
-278.457	-71.080	0.151	0.056
-277.443	88.134	-0.253	-0.279
-276.428	-200.000	-0.003	0.130
-275.413	197.627	-0.073	0.111
-274.399	-200.000	-0.024	0.184
-273.384	-11.412	0.194	0.127
-272.370	157.543	-0.132	0.181
-271.355	245.348	0.070	0.116
-270.340	8.612	-0.172	0.128
-269.326	41.355	0.216	-0.194
-268.311	-79.463	-0.183	0.061
-267.297	-55.237	-0.023	0.010
-266.282	-74.369	0.178	0.064
-265.267	800.000	-0.060	0.221
-264.253	-25.583	-0.144	0.084
-263.238	613.565	0.010	-0.025
-262.224	80.908	-0.087	-0.093
-261.209	-172.776	0.227	-0.007
-260.195	40.900	0.208	0.186
-259.180	-29.453	0.286	-0.162
-258.165	-200.000	-0.012	-0.124
-257.151	105.461	0.142	0.166
-256.136	-59.807	0.099	-0.042
-255.122	142.747	-0.200	0.264
-254.107	-150.721	-0.462	-0.035
-253.092	-30.973	0.304	-0.170
-252.078	-70.404	0.282	0.106
-251.063	-99.693	0.157	0.039
-250.049	-200.000	0.074	-0.369
-249.034	604.132	-0.052	-0.128
-248.019	-200.000	-0.023	0.235
-247.005	69.388	0.086	-0.088
-245.990	123.296	0.233	0.290
-244.976	-70.358	-0.145	-0.054
-243.961	393.783	-0.087	-0.179
-242.946	213.865	0.059	0.092
-241.932	54.232	0.094	0.090
-240.917	77.179	0.147	-0.155
-239.903	-200.000	-0.013	-0.213
-238.888	-67.258	0.345	0.135
-237.873	227.057	-0.076	-0.122
-236.859	43.761	0.370	0.335
-235.844	524.775	-0.088	-0.206
-234.830	-112.255	0.168	-0.033
-233.815	-27.014	-0.077	0.044
-232.800	125.953	-0.019	0.024
-231.786	-200.000	0.019	0.196
-230.771	800.000	0.116	0.371
-229.757	-37.908	0.374	0.197
-228.742	111.522	0.071	-0.084
-227.727	-146.932	0.272	0.023
-226.713	328.437	0.018	-0.033
-225.698	7.172	0.134	-0.099
-224.684	401.355	0.116	-0.242
-223.669	-58.436	0.248	-0.106
-222.655	800.000	-0.019	0.076
-221.640	-142.549	-0.267	0.026
-220.625	-35.972	-0.192	0.103
-219.611	72.650	-0.067	-0.070
-218.596	-87.125	-0.265	0.080
-217.582	146.739	0.214	-0.284
-216.567	60.850	0.091	0.089
-215.552	546.302	0.057	-0.135
-214.538	302.881	-0.113	-0.207
-213.523	-109.514	0.206	-0.043
-212.509	-37.300	-0.143	0.075
-211.494	-5.349	-0.090	0.061
-210.479	-2.467	0.163	-0.113
-209.465	237.727	-0.077	0.126
-208.450	65.768	0.160	0.160
-207.436	12.770	0.286	-0.218
-206.421	32.554	0.339	0.290
-205.406	286.250	-0.082	0.147
-204.392	-160.035	0.199	-0.011
-203.377	105.652	0.123	-0.144
-202.363	131.012	0.071	0.091
-201.348	137.924	-0.304	0.393
-200.333	163.431	0.247	0.344
-199.319	-200.000	-0.026	0.200
-198.304	-56.857	-0.253	0.111
-197.290	-200.000	-0.053	-0.385
-196.275	370.652	0.151	-0.303
-195.260	309.497	0.082	0.151
-194.246	125.163	0.105	-0.131
-193.231	114.743	0.140	-0.168
-192.217	51.785	0.056	-0.053
-191.202	800.000	0.048	-0.155
-190.187	332.996	-0.119	0.228
-189.173	61.232	-0.125	0.123
-188.158	-200.000	-0.405	0.000
-187.144	166.661	-0.167	0.233
-186.129	-91.363	-0.067	-0.019
-185.114	800.000	0.053	0.192
-184.100	-143.941	-0.170	0.016
-183.085	77.446	0.122	0.128
-182.071	59.717	-0.282	-0.275
-181.056	139.761	0.151	0.197
-180.042	-59.278	0.261	-0.111
-179.027	800.000	0.039	-0.152
-178.012	-200.000	-0.046	0.404
-176.998	-38.735	0.085	0.044
-175.983	-128.128	-0.265	0.037
-174.969	160.358	0.077	0.106
-173.954	71.197	-0.209	-0.214
-172.939	4.112	0.167	-0.121
-171.925	368.801	-0.105	-0.210
-170.910	-8.718	0.129	0.085
-169.896	-1.939	0.254	0.176
-168.881	-200.000	0.068	0.361
-167.866	51.712	0.024	-0.022
-166.852	-200.000	-0.019	0.303
-165.837	-64.318	-0.375	0.151
-164.823	10.316	-0.262	-0.197
-163.808	-115.165	-0.101	-0.019
-162.793	157.331	-0.119	-0.162
-161.779	-200.000	-0.016	-0.417
-160.764	40.520	0.088	0.078
-159.750	-128.110	-0.016	-0.002
-158.735	-200.000	0.021	0.149
-157.720	-12.111	-0.131	-0.084
-156.706	800.000	-0.059	-0.233
-155.691	-76.515	0.275	0.095
-154.677	-185.010	0.067	0.001
-153.662	335.553	0.122	-0.233
-152.647	94.154	0.133	0.148
-151.633	-200.000	-0.010	0.133
-150.618	-12.731	-0.372	-0.240
-149.604	-200.000	-0.029	0.197
-148.589	355.195	-0.166	0.325
-147.574	-114.999	-0.083	0.016
-146.560	-99.496	0.142	-0.035
-145.545	-125.901	0.199	-0.030
-144.531	-200.000	0.009	-0.110
-143.516	26.269	0.324	0.267
-142.502	423.486	-0.182	0.385
-141.487	-134.450	0.128	0.016
-140.472	-51.274	-0.076	0.035
-139.458	-200.000	-0.067	-0.446
-138.443	-22.704	0.332	0.198
-137.429	-135.881	-0.301	-0.035
-136.414	-200.000	0.079	0.360
-135.399	603.472	0.130	0.318
-134.385	-7.602	-0.087	-0.058
-133.370	-62.181	0.224	0.092
-132.356	309.243	0.039	-0.072
-131.341	-129.934	0.261	0.035
-130.326	67.567	-0.079	0.080
-129.312	-59.204	-0.184	-0.078
-128.297	29.065	0.199	-0.167
-127.283	800.000	-0.083	-0.251
-126.268	-123.536	0.292	-0.046
-125.253	-200.000	0.041	-0.300
-124.239	-43.050	-0.204	-0.102
-123.224	10.079	-0.360	0.269
-122.210	158.844	-0.144	0.197
-121.195	-133.383	0.093	-0.011
