DTS Sentinel unit serial number:	SN413079Multiplexer serial number:	ORYXHardware model number:	OX4-SRSoftware version number:	ORYX F/W v4.00 Oryx Data Collector v3.7.2.0data status	okinstallation	princeton_trtdifferential loss correction	single-endedforward channel	channel 2reverse channel	N/Adate	2019/09/13time	02:43:34forward acquisition time	60.00reverse acquisition time	0.00gamma	496.2192k internal	0.2334k external	0.2334temperature offset calibration	1.0187default loss term (dB/km)	0.3790temperature slope calibration	1.0000multiplexer offset coefficient	1.0000multiplexer slope coefficient	1.0000fibre end	0.00T internal ref (°C)	27.44T ext. ref 1 (°C)	4.00T ext. ref 2 (°C)	22.26length (m)	temperature (°C)	Stokes	anti-Stokes-747.200	69.019	0.151	0.155
-746.185	-68.188	-0.296	0.116
-745.171	151.078	0.108	0.148
-744.156	-168.709	-0.244	-0.009
-743.142	254.854	0.145	0.250
-742.127	63.938	-0.083	0.084
-741.112	286.761	0.198	0.359
-740.098	210.819	0.110	0.173
-739.083	-200.000	0.056	0.328
-738.069	284.365	-0.149	0.269
-737.054	-200.000	0.005	0.224
-736.039	46.632	0.101	-0.094
-735.025	-18.531	-0.164	0.103
-734.010	164.223	-0.143	-0.202
-732.996	312.640	-0.142	-0.267
-731.981	-52.884	0.126	0.058
-730.966	80.943	0.081	-0.087
-729.952	-200.000	-0.020	-0.154
-728.937	25.761	-0.117	-0.098
-727.923	-200.000	-0.016	0.097
-726.908	-123.545	-0.270	-0.043
-725.894	-158.484	-0.285	-0.017
-724.879	5.350	-0.141	-0.105
-723.864	529.119	-0.079	-0.188
-722.850	800.000	-0.060	-0.178
-721.835	-119.022	0.284	0.050
-720.821	-200.000	0.014	-0.165
-719.806	36.090	-0.347	-0.307
-718.791	213.241	0.153	-0.243
-717.777	38.675	-0.109	-0.097
-716.762	-200.000	-0.004	0.102
-715.748	800.000	-0.099	0.300
-714.733	-104.411	-0.238	-0.055
-713.718	16.577	-0.206	-0.163
-712.704	-26.480	-0.124	-0.073
-711.689	456.592	0.163	-0.364
-710.675	32.179	-0.034	-0.029
-709.660	45.571	0.375	-0.348
-708.645	-200.000	-0.019	-0.145
-707.631	173.389	0.159	0.230
-706.616	-113.348	-0.180	-0.036
-705.602	764.300	0.138	0.377
-704.587	298.494	0.013	0.024
-703.572	-52.238	0.190	-0.088
-702.558	69.514	0.011	-0.012
-701.543	273.893	-0.086	0.152
-700.529	-200.000	-0.256	-0.001
-699.514	800.000	0.042	-0.144
-698.499	76.523	-0.174	0.185
-697.485	288.693	0.019	-0.034
-696.470	800.000	-0.084	-0.276
-695.456	88.509	0.027	-0.031
-694.441	-147.739	-0.022	-0.002
-693.426	-108.668	0.151	-0.033
-692.412	-119.074	-0.260	-0.046
-691.397	448.392	-0.087	-0.191
-690.383	296.514	0.056	-0.103
-689.368	94.490	0.245	0.279
-688.354	-177.461	-0.124	-0.003
-687.339	-90.259	0.212	-0.062
-686.324	-200.000	0.032	-0.247
-685.310	-200.000	0.004	-0.066
-684.295	-51.081	-0.451	-0.212
-683.281	44.043	-0.259	-0.238
-682.266	-106.662	0.527	-0.118
-681.251	-112.501	0.072	-0.014
-680.237	-124.189	-0.119	0.019
-679.222	800.000	0.021	0.084
-678.208	31.240	-0.149	-0.128
-677.193	-109.205	-0.223	0.047
-676.178	144.455	-0.147	-0.197
-675.164	-17.223	-0.225	0.142
-674.149	-200.000	0.020	-0.331
-673.135	655.311	-0.102	0.262
-672.120	137.905	0.027	0.036
-671.105	227.908	-0.144	0.235
-670.091	-54.691	0.374	0.169
-669.076	800.000	0.044	-0.138
-668.062	-158.528	0.419	0.024
-667.047	-197.484	0.298	-0.002
-666.032	183.800	0.163	0.241
-665.018	-29.661	-0.221	-0.126
-664.003	-200.000	-0.009	0.272
-662.989	-46.612	-0.221	-0.108
-661.974	-200.000	-0.016	0.207
-660.959	153.417	0.120	-0.164
-659.945	800.000	-0.057	-0.182
-658.930	-123.213	0.318	0.051
-657.916	-200.000	0.018	0.107
-656.901	-43.492	-0.158	0.080
-655.886	800.000	-0.053	-0.211
-654.872	800.000	-0.104	0.306
-653.857	12.517	-0.321	-0.248
-652.843	-101.283	0.341	0.083
-651.828	-200.000	-0.049	-0.324
-650.814	484.239	0.039	0.090
-649.799	-109.596	0.184	0.039
-648.784	-80.401	-0.248	0.083
-647.770	493.204	-0.058	0.134
-646.755	190.918	-0.204	-0.308
-645.741	64.203	-0.071	-0.072
-644.726	-96.428	-0.226	0.060
-643.711	-200.000	-0.007	0.106
-642.697	-107.780	0.280	-0.061
-641.682	-45.289	0.175	0.087
-640.668	-190.563	0.378	0.004
-639.653	9.914	-0.287	0.218
-638.638	-200.000	-0.004	-0.196
-637.624	62.637	0.174	-0.174
-636.609	-61.534	-0.241	0.101
-635.595	379.180	0.068	-0.139
-634.580	30.492	0.066	0.057
-633.565	-200.000	-0.016	-0.346
-632.551	-149.105	-0.200	-0.016
-631.536	146.178	0.117	0.157
-630.522	-200.000	0.008	-0.248
-629.507	-102.329	0.118	-0.028
-628.492	-50.451	-0.117	0.055
-627.478	-200.000	0.000	0.160
-626.463	-190.855	0.077	-0.001
-625.449	800.000	0.060	0.220
-624.434	-115.523	-0.242	0.045
-623.419	-187.472	0.248	0.003
-622.405	800.000	0.098	-0.416
-621.390	-187.305	0.048	0.001
-620.376	-200.000	-0.054	0.338
-619.361	-165.266	-0.207	-0.009
-618.346	223.878	0.159	0.256
-617.332	205.941	-0.104	-0.161
-616.317	715.141	0.147	0.390
-615.303	632.449	-0.120	-0.305
-614.288	-200.000	-0.014	0.205
-613.273	-60.701	0.096	0.041
-612.259	800.000	-0.039	0.159
-611.244	-172.816	-0.146	-0.005
-610.230	-79.739	-0.360	0.121
-609.215	800.000	-0.075	-0.225
-608.201	306.415	0.129	-0.240
-607.186	6.619	-0.234	0.174
-606.171	-97.207	-0.129	0.034
-605.157	266.662	0.079	-0.139
-604.142	82.883	0.154	-0.168
-603.128	-200.000	0.023	-0.396
-602.113	-145.544	-0.290	-0.026
-601.098	-200.000	-0.003	0.267
-600.084	-70.937	0.042	0.016
-599.069	-200.000	0.032	0.149
-598.055	69.320	0.260	-0.267
-597.040	-200.000	0.009	-0.113
-596.025	46.272	0.232	-0.215
-595.011	-200.000	0.001	-0.140
-593.996	29.573	0.062	0.053
-592.982	79.815	0.191	0.205
-591.967	237.992	0.154	0.256
-590.952	-128.060	-0.190	0.027
-589.938	342.966	0.068	-0.133
-588.923	-200.000	-0.048	-0.219
-587.909	-200.000	-0.025	-0.213
-586.894	800.000	-0.041	-0.151
-585.879	-200.000	0.094	-0.670
-584.865	106.483	0.100	-0.119
-583.850	131.522	-0.266	0.342
-582.836	192.363	0.091	0.137
-581.821	-50.257	-0.365	-0.173
-580.806	-200.000	-0.001	-0.261
-579.792	-65.581	0.499	-0.200
-578.777	800.000	0.042	0.119
-577.763	324.418	-0.076	-0.146
-576.748	73.912	-0.115	-0.121
-575.733	33.889	-0.200	-0.173
-574.719	-6.347	0.363	-0.247
-573.704	45.782	0.229	0.211
-572.690	-142.551	-0.507	0.050
-571.675	74.611	-0.290	-0.305
-570.661	282.156	-0.112	0.201
-569.646	-136.553	-0.235	-0.027
-568.631	417.600	-0.022	0.047
-567.617	800.000	0.057	0.247
-566.602	-47.173	-0.213	-0.104
-565.588	-200.000	-0.029	-0.145
-564.573	-200.000	-0.015	-0.178
-563.558	-179.397	-0.449	0.010
-562.544	-56.362	-0.071	-0.032
-561.529	-82.835	0.202	0.065
-560.515	-136.099	-0.125	0.015
-559.500	-43.858	-0.045	0.023
-558.485	148.451	0.129	-0.173
-557.471	25.483	-0.039	0.033
-556.456	800.000	-0.123	0.383
-555.442	-84.366	-0.239	0.076
-554.427	-38.483	0.077	0.041
-553.412	-49.863	-0.227	-0.107
-552.398	-200.000	-0.348	-0.001
-551.383	654.908	-0.062	-0.159
-550.369	-20.003	-0.225	-0.138
-549.354	76.768	0.110	-0.116
-548.339	37.749	-0.167	-0.147
-547.325	-95.508	-0.274	-0.073
-546.310	414.502	-0.042	0.088
-545.296	192.572	-0.187	-0.282
-544.281	-113.205	-0.284	-0.056
-543.266	800.000	0.047	0.159
-542.252	-66.789	-0.301	-0.119
-541.237	-150.255	0.369	0.028
-540.223	70.775	-0.151	-0.156
-539.208	-200.000	0.007	0.184
-538.193	-200.000	0.021	0.132
-537.179	-200.000	0.015	0.091
-536.164	709.631	0.072	0.190
-535.150	159.715	-0.181	0.252
-534.135	121.784	-0.061	-0.076
-533.121	-135.060	0.149	-0.018
-532.106	23.070	-0.118	0.097
-531.091	568.253	0.077	-0.186
-530.077	-60.457	0.142	0.060
-529.062	800.000	0.080	0.293
-528.048	524.795	0.025	0.059
-527.033	405.345	0.070	-0.147
-526.018	-118.772	-0.267	-0.047
-525.004	62.371	0.138	-0.138
-523.989	185.634	0.180	-0.266
-522.975	461.012	-0.196	-0.434
-521.960	-49.820	-0.163	-0.077
-520.945	63.986	0.182	0.182
-519.931	-22.025	0.063	0.038
-518.916	13.618	-0.052	-0.040
-517.902	-115.937	-0.216	0.040
-516.887	-119.029	-0.312	0.054
-515.872	-15.386	0.172	0.110
-514.858	-148.447	0.154	0.013
-513.843	20.046	-0.085	-0.068
-512.829	-63.370	-0.179	-0.073
-511.814	7.283	-0.148	-0.110
-510.799	-13.484	0.070	-0.045
-509.785	239.329	0.094	-0.156
-508.770	-99.777	-0.260	-0.065
-507.756	-89.456	0.176	-0.052
-506.741	4.566	0.194	0.142
-505.726	42.791	0.034	-0.031
-504.712	-168.185	-0.183	-0.007
-503.697	800.000	-0.034	-0.099
-502.683	179.313	-0.168	0.245
-501.668	-200.000	-0.132	0.604
-500.653	800.000	-0.013	-0.038
-499.639	-200.000	-0.040	0.206
-498.624	105.101	-0.128	0.150
-497.610	-200.000	-0.012	-0.094
-496.595	466.907	-0.196	-0.437
-495.581	175.854	-0.127	0.184
-494.566	-200.000	-0.018	-0.278
-493.551	285.400	0.067	-0.121
-492.537	-131.120	0.341	-0.045
-491.522	-3.825	0.133	-0.092
-490.508	109.206	0.225	0.268
-489.493	179.240	0.187	0.272
-488.478	800.000	-0.045	0.166
-487.464	800.000	-0.053	-0.227
-486.449	-200.000	-0.002	-0.160
-485.435	-194.982	0.284	-0.002
-484.420	103.327	-0.086	-0.100
-483.405	-32.828	0.147	-0.082
-482.391	-200.000	-0.046	0.356
-481.376	-62.429	0.050	-0.021
-480.362	-63.549	-0.225	-0.092
-479.347	-140.102	0.138	-0.014
-478.332	-200.000	0.177	0.001
-477.318	-31.658	-0.227	-0.127
-476.303	99.280	0.069	-0.079
-475.289	330.741	0.024	-0.046
-474.274	-38.299	0.238	0.125
-473.259	-200.000	0.075	-0.351
-472.245	-200.000	0.010	0.057
-471.230	-200.000	-0.005	0.080
-470.216	4.481	0.227	-0.166
-469.201	218.111	0.065	-0.103
-468.186	-17.394	-0.200	0.125
-467.172	289.660	0.200	-0.361
-466.157	800.000	-0.098	-0.315
-465.143	145.917	-0.059	0.078
-464.128	-58.645	0.107	-0.046
-463.113	-90.071	-0.216	-0.063
-462.099	800.000	0.012	0.042
-461.084	-200.000	-0.038	0.411
-460.070	248.897	-0.122	0.205
-459.055	800.000	0.092	-0.255
-458.040	436.847	0.123	-0.267
-457.026	130.592	-0.042	-0.053
-456.011	-57.608	0.334	0.146
-454.997	-200.000	0.024	0.152
-453.982	205.860	-0.070	0.109
-452.968	800.000	0.050	-0.201
-451.953	800.000	0.037	0.128
-450.938	-40.467	-0.303	-0.156
-449.924	-73.457	0.192	-0.070
-448.909	-77.366	0.084	0.029
-447.895	-200.000	0.033	0.212
-446.880	-139.953	-0.206	-0.022
-445.865	68.364	-0.106	-0.108
-444.851	-63.466	0.294	0.120
-443.836	-10.902	0.061	-0.040
-442.822	-200.000	0.023	-0.151
-441.807	-200.000	-0.010	-0.259
-440.792	318.786	0.204	-0.384
-439.778	675.565	-0.044	-0.112
-438.763	69.082	0.203	0.207
-437.749	-200.000	-0.037	0.333
-436.734	72.535	-0.119	0.123
-435.719	-127.700	0.201	-0.029
-434.705	289.889	-0.122	-0.220
-433.690	-55.586	0.241	-0.107
-432.676	-108.365	-0.099	-0.021
-431.661	101.311	0.033	-0.038
-430.646	-111.963	-0.153	0.031
-429.632	149.167	0.121	-0.163
-428.617	-168.170	-0.187	-0.007
-427.603	73.998	0.226	-0.236
-426.588	40.471	-0.195	0.174
-425.573	94.856	0.226	-0.256
-424.559	84.917	0.043	-0.047
-423.544	-200.000	-0.004	-0.028
-422.530	-103.867	0.098	-0.023
-421.515	294.870	-0.039	0.071
-420.500	169.118	0.162	0.229
-419.486	-113.507	-0.331	-0.064
-418.471	-76.211	-0.160	-0.056
-417.457	-72.537	-0.310	0.114
-416.442	233.308	-0.142	0.231
-415.428	39.367	-0.341	0.303
-414.413	800.000	0.071	0.195
-413.398	-69.291	-0.367	-0.140
-412.384	614.808	0.133	0.331
-411.369	728.365	-0.076	0.201
-410.355	800.000	-0.082	-0.281
-409.340	800.000	0.114	0.318
-408.325	800.000	-0.050	0.157
-407.311	800.000	0.073	0.241
-406.296	-48.529	0.097	-0.046
-405.282	37.843	0.098	0.087
-404.267	4.862	0.242	0.176
-403.252	67.491	-0.057	-0.058
-402.238	-45.100	0.020	-0.010
-401.223	406.369	0.137	0.286
-400.209	800.000	0.031	0.091
-399.194	-70.406	-0.130	0.049
-398.179	-200.000	0.023	-0.129
-397.165	269.056	0.064	-0.111
-396.150	111.136	0.254	-0.303
-395.136	-26.060	-0.319	-0.186
-394.121	-200.000	0.004	-0.352
-393.106	40.863	-0.128	-0.115
-392.092	-104.185	-0.131	-0.030
-391.077	0.246	-0.146	-0.104
-390.063	-70.727	0.205	-0.077
-389.048	251.856	-0.047	0.079
-388.033	-200.000	0.010	-0.055
-387.019	9.882	0.227	-0.170
-386.004	-113.491	0.235	0.046
-384.990	-62.876	-0.157	-0.064
-383.975	-200.000	0.022	-0.157
-382.960	119.686	0.171	0.211
-381.946	-59.067	0.156	0.067
-380.931	508.248	-0.191	-0.438
-379.917	800.000	-0.078	0.333
-378.902	105.436	-0.124	0.145
-377.888	252.695	0.079	-0.134
-376.873	-200.000	-0.037	0.215
-375.858	67.168	0.094	0.095
-374.844	12.673	0.188	0.144
-373.829	-157.684	-0.076	0.005
-372.815	800.000	-0.025	0.095
-371.800	36.083	0.177	-0.154
-370.785	218.542	0.076	-0.121
-369.771	426.423	0.129	0.275
-368.756	9.368	-0.056	0.042
-367.742	-125.348	-0.120	0.018
-366.727	-130.938	-0.592	-0.078
-365.712	149.913	-0.214	0.288
-364.698	75.744	0.158	0.165
-363.683	514.145	0.059	-0.135
-362.669	317.438	-0.071	0.133
-361.654	-68.042	0.210	0.081
-360.639	168.165	-0.131	0.185
-359.625	312.058	-0.038	-0.070
-358.610	-163.872	-0.223	-0.010
-357.596	-84.097	0.236	0.074
-356.581	-31.788	0.099	0.055
-355.566	-99.385	-0.235	-0.059
-354.552	149.496	-0.155	0.208
-353.537	-3.995	0.113	-0.077
-352.523	22.253	0.196	-0.159
-351.508	-71.490	-0.018	0.007
-350.493	-115.214	0.144	-0.027
-349.479	319.177	0.201	0.377
-348.464	570.717	0.091	-0.219
-347.450	405.168	0.071	-0.149
-346.435	-113.562	0.195	0.038
-345.420	332.403	-0.151	-0.289
-344.406	737.511	0.062	0.164
-343.391	-200.000	0.029	0.150
-342.377	800.000	0.042	-0.138
-341.362	-43.858	0.248	0.124
-340.348	800.000	0.097	0.272
-339.333	-57.447	-0.123	-0.053
-338.318	-46.775	0.257	0.125
-337.304	-200.000	-0.039	0.322
-336.289	-200.000	0.045	-0.204
-335.275	512.367	-0.065	0.149
-334.260	281.124	0.059	-0.104
-333.245	255.429	-0.098	0.166
-332.231	-200.000	-0.050	0.329
-331.216	-200.000	-0.007	0.171
-330.202	11.383	0.056	-0.042
-329.187	800.000	0.050	-0.142
-328.172	800.000	0.063	0.232
-327.158	132.390	-0.208	-0.265
-326.143	-200.000	-0.010	0.169
-325.129	-200.000	0.110	0.556
-324.114	-107.862	0.197	0.042
-323.099	-200.000	0.358	0.001
-322.085	-39.196	-0.169	0.088
-321.070	26.576	0.176	0.146
-320.056	164.134	0.056	-0.079
-319.041	-90.264	0.150	0.043
-318.026	-45.858	-0.072	-0.035
-317.012	-14.046	0.141	0.090
-315.997	800.000	-0.064	-0.232
-314.983	-36.897	-0.149	-0.079
-313.968	169.918	-0.158	0.224
-312.953	76.926	-0.138	-0.144
-311.939	700.844	0.200	0.521
-310.924	-200.000	-0.054	-0.444
-309.910	-152.950	-0.212	-0.015
-308.895	658.973	0.011	0.029
-307.880	-159.720	0.230	-0.013
-306.866	78.556	0.115	0.121
-305.851	-200.000	-0.011	-0.068
-304.837	-140.845	0.179	-0.018
-303.822	197.775	-0.238	-0.359
-302.807	-107.789	-0.080	-0.017
-301.793	-131.822	-0.032	0.004
-300.778	322.168	-0.035	0.066
-299.764	66.540	0.113	0.113
-298.749	327.106	0.069	-0.130
-297.735	-110.683	-0.115	0.024
-296.720	-5.058	-0.242	-0.164
-295.705	109.227	-0.029	0.034
-294.691	-200.000	0.010	-0.067
-293.676	-85.065	0.030	0.009
-292.662	552.884	-0.065	0.154
-291.647	6.391	0.169	-0.124
-290.632	-175.026	0.363	0.010
-289.618	-200.000	-0.004	-0.088
-288.603	6.743	0.046	-0.033
-287.589	132.604	0.197	-0.251
-286.574	32.482	0.093	0.080
-285.559	108.135	0.131	0.154
-284.545	-69.989	0.161	0.061
-283.530	800.000	0.158	0.454
-282.516	30.014	-0.047	0.040
-281.501	68.798	0.137	0.139
-280.486	76.222	0.209	0.218
-279.472	106.271	0.076	-0.089
-278.457	-142.667	-0.192	-0.018
-277.443	-103.919	0.150	-0.034
-276.428	-44.397	-0.220	-0.109
-275.413	0.478	-0.079	0.055
-274.399	85.816	-0.179	-0.194
-273.384	30.220	-0.143	0.120
-272.370	582.583	0.085	0.205
-271.355	-50.871	0.278	0.129
-270.340	37.671	-0.229	0.200
-269.326	-164.865	-0.374	0.017
-268.311	637.152	0.080	0.201
-267.297	357.637	-0.116	-0.228
-266.282	-200.000	-0.015	0.073
-265.267	29.233	0.129	-0.108
-264.253	772.319	0.041	-0.111
-263.238	-50.349	0.081	0.038
-262.224	108.383	-0.077	0.090
-261.209	11.221	0.136	0.103
-260.195	-120.431	0.230	0.039
-259.180	96.699	-0.090	-0.102
-258.165	610.475	-0.136	0.334
-257.151	-52.645	0.108	-0.049
-256.136	4.524	-0.077	0.056
-255.122	-116.141	-0.256	-0.047
-254.107	800.000	0.041	0.124
-253.092	-107.063	0.444	0.097
-252.078	-200.000	0.016	-0.157
-251.063	-200.000	0.027	-0.199
-250.049	-0.760	-0.250	0.174
-249.034	-200.000	0.004	0.083
-248.019	-67.231	0.205	-0.080
-247.005	-200.000	0.017	0.075
-245.990	-200.000	-0.008	0.128
-244.976	334.397	0.049	0.093
-243.961	123.005	0.064	0.079
-242.946	498.181	0.072	-0.164
-241.932	-200.000	-0.013	-0.157
-240.917	-85.036	0.175	-0.054
-239.903	-138.058	-0.217	0.024
-238.888	-19.531	-0.164	-0.100
-237.873	-58.084	0.183	0.079
-236.859	-113.457	0.067	-0.013
-235.844	-8.109	0.267	-0.177
-234.830	-17.943	0.064	-0.039
-233.815	-114.732	-0.169	-0.032
-232.800	-200.000	0.001	-0.127
-231.786	278.756	0.111	0.195
-230.771	81.994	-0.088	0.094
-229.757	285.435	0.031	-0.055
-228.742	-200.000	-0.028	-0.205
-227.727	15.378	-0.171	-0.132
-226.713	-200.000	0.032	-0.428
-225.698	800.000	-0.053	0.158
-224.684	800.000	-0.029	-0.081
-223.669	-87.405	-0.366	-0.109
-222.655	-200.000	-0.087	0.448
-221.640	-200.000	0.010	-0.106
-220.625	-60.445	-0.149	-0.062
-219.611	-29.019	0.131	-0.074
-218.596	-32.575	-0.275	-0.151
-217.582	334.166	-0.080	-0.153
-216.567	-200.000	0.000	0.017
-215.552	38.185	-0.194	0.170
-214.538	-83.847	0.222	0.070
-213.523	65.774	-0.079	-0.079
-212.509	-200.000	-0.038	-0.254
-211.494	-55.256	-0.062	0.027
-210.479	-56.077	0.115	-0.050
-209.465	191.067	0.182	0.270
-208.450	-175.381	0.217	-0.006
-207.436	516.727	0.056	0.130
-206.421	800.000	0.054	0.149
-205.406	227.652	0.138	-0.221
-204.392	-106.495	0.301	0.066
-203.377	-200.000	-0.017	-0.184
-202.363	-32.973	-0.100	0.055
-201.348	87.251	0.157	0.171
-200.333	-43.964	0.278	0.138
-199.319	68.834	0.154	-0.156
-198.304	-100.049	-0.222	-0.054
-197.290	-200.000	0.011	-0.125
-196.275	3.765	-0.156	0.112
-195.260	-200.000	0.021	-0.128
-194.246	-146.363	0.077	-0.007
-193.231	800.000	0.012	-0.052
-192.217	34.106	0.071	-0.061
-191.202	-1.685	-0.228	-0.158
-190.187	241.264	-0.059	-0.097
-189.173	-72.854	-0.305	0.110
-188.158	800.000	-0.028	-0.078
-187.144	223.951	0.145	-0.231
-186.129	549.031	0.027	0.064
-185.114	276.575	0.023	0.041
-184.100	-106.927	0.192	-0.042
-183.085	800.000	-0.118	0.366
-182.071	-52.080	-0.224	-0.102
-181.056	76.826	-0.248	0.258
-180.042	74.856	-0.113	0.117
-179.027	-200.000	-0.058	-0.000
-178.012	-200.000	-0.044	-0.393
-176.998	-43.011	-0.374	0.186
-175.983	26.980	0.039	-0.033
-174.969	-140.181	0.288	0.030
-173.954	-200.000	-0.014	0.201
-172.939	-200.000	-0.049	-0.360
-171.925	126.287	-0.123	-0.153
-170.910	800.000	0.069	0.190
-169.896	-4.917	0.157	0.106
-168.881	17.002	0.108	0.084
-167.866	462.051	0.113	0.247
-166.852	-61.816	-0.198	0.082
-165.837	-200.000	0.006	0.146
-164.823	-138.873	-0.226	-0.024
-163.808	-55.006	0.212	-0.094
-162.793	-200.000	0.022	-0.301
-161.779	800.000	-0.038	0.112
-160.764	-3.839	0.247	-0.168
-159.750	166.318	0.166	0.231
-158.735	-200.000	-0.011	0.283
-157.720	-12.078	-0.215	0.138
-156.706	-46.143	0.218	0.105
-155.691	-87.395	0.092	0.028
-154.677	-40.410	0.462	-0.236
-153.662	-75.425	-0.419	-0.147
-152.647	-131.310	0.065	0.009
-151.633	-17.455	0.376	0.232
-150.618	684.603	0.062	0.159
-149.604	103.002	-0.179	0.205
-148.589	151.503	0.174	-0.233
-147.574	-200.000	-0.025	0.174
-146.560	-98.231	-0.201	-0.051
-145.545	-110.851	-0.173	-0.035
-144.531	800.000	-0.091	0.282
-143.516	-200.000	0.047	0.277
-142.502	-102.138	0.366	0.086
-141.487	614.039	-0.133	-0.326
-140.472	-20.007	0.262	0.158
-139.458	-79.454	0.126	0.042
-138.443	-81.360	-0.234	0.076
-137.429	-88.784	0.055	-0.016
-136.414	-115.726	-0.110	-0.020
-135.399	800.000	-0.049	-0.155
-134.385	-130.433	0.490	-0.065
-133.370	22.930	0.354	0.285
-132.356	-200.000	0.012	0.207
-131.341	43.709	-0.212	0.191
-130.326	-200.000	-0.035	0.328
-129.312	-200.000	-0.029	-0.171
-128.297	715.015	-0.093	-0.242
-127.283	413.360	-0.077	0.161
-126.268	800.000	0.047	0.136
-125.253	117.275	0.136	-0.163
-124.239	-200.000	-0.001	0.329
-123.224	422.767	0.072	0.152
-122.210	800.000	0.121	0.411
-121.195	96.220	-0.199	0.223
