DTS Sentinel unit serial number:	SN413079Multiplexer serial number:	ORYXHardware model number:	OX4-SRSoftware version number:	ORYX F/W v4.00 Oryx Data Collector v3.7.2.0data status	okinstallation	princeton_trtdifferential loss correction	single-endedforward channel	channel 2reverse channel	N/Adate	2019/09/12time	13:09:11forward acquisition time	60.00reverse acquisition time	0.00gamma	496.2192k internal	0.2296k external	0.2296temperature offset calibration	1.0076default loss term (dB/km)	0.3790temperature slope calibration	1.0000multiplexer offset coefficient	1.0000multiplexer slope coefficient	1.0000fibre end	0.00T internal ref (°C)	41.02T ext. ref 1 (°C)	2.08T ext. ref 2 (°C)	36.85length (m)	temperature (°C)	Stokes	anti-Stokes-747.200	169.180	-0.098	0.143
-746.185	-200.000	0.057	0.446
-745.171	-56.173	0.274	-0.124
-744.156	-200.000	-0.043	0.418
-743.142	650.336	0.082	-0.213
-742.127	800.000	0.053	0.183
-741.112	-47.078	-0.218	0.109
-740.098	87.678	0.042	-0.048
-739.083	668.147	-0.042	0.110
-738.069	-72.807	0.265	0.100
-737.054	-62.654	-0.247	-0.105
-736.039	-47.926	-0.141	-0.070
-735.025	112.101	0.247	0.305
-734.010	536.358	0.164	-0.397
-732.996	270.632	0.080	-0.143
-731.981	-99.945	-0.242	0.062
-730.966	-65.042	0.064	-0.026
-729.952	72.140	0.209	0.222
-728.937	-6.037	0.179	0.125
-727.923	-160.435	-0.215	-0.012
-726.908	471.410	-0.085	-0.196
-725.894	-40.184	-0.111	-0.059
-724.879	7.777	0.028	-0.022
-723.864	-97.387	0.175	0.046
-722.850	-72.774	0.267	0.100
-721.835	-19.765	-0.319	0.202
-720.821	800.000	-0.128	-0.411
-719.806	800.000	-0.086	-0.280
-718.791	-44.567	-0.200	0.102
-717.777	-162.282	-0.048	0.002
-716.762	-200.000	-0.007	-0.275
-715.748	165.928	0.156	-0.225
-714.733	63.749	-0.082	0.084
-713.718	800.000	-0.115	-0.358
-712.704	-148.162	0.160	0.013
-711.689	-200.000	0.006	-0.034
-710.675	-35.826	0.068	0.038
-709.660	127.629	0.015	0.020
-708.645	379.410	0.128	0.267
-707.631	-141.212	-0.185	-0.019
-706.616	-121.971	-0.343	-0.058
-705.602	-173.302	-0.136	0.004
-704.587	213.125	-0.126	-0.203
-703.572	-94.081	-0.178	-0.050
-702.558	37.648	0.158	-0.144
-701.543	-80.430	0.156	-0.053
-700.529	-12.620	-0.168	-0.112
-699.514	-33.100	-0.329	0.186
-698.499	42.137	-0.036	0.034
-697.485	-69.253	0.069	-0.027
-696.470	-26.348	0.159	0.095
-695.456	-19.640	-0.101	0.064
-694.441	-200.000	0.017	0.384
-693.426	-102.994	0.313	0.076
-692.412	-107.911	-0.245	0.054
-691.397	141.162	0.078	0.106
-690.383	7.552	-0.245	-0.187
-689.368	-33.655	-0.119	0.067
-688.354	-123.569	0.361	-0.058
-687.339	800.000	-0.035	-0.105
-686.324	-200.000	0.028	-0.147
-685.310	-110.216	-0.486	-0.103
-684.295	-51.798	0.201	0.095
-683.281	-200.000	-0.030	-0.157
-682.266	157.204	-0.234	-0.330
-681.251	337.660	-0.109	-0.216
-680.237	-140.326	-0.432	-0.046
-679.222	144.635	-0.099	0.135
-678.208	105.610	-0.219	0.264
-677.193	19.807	-0.283	0.232
-676.178	78.850	-0.161	-0.176
-675.164	-100.378	0.071	-0.018
-674.149	148.713	-0.100	-0.138
-673.135	-14.482	0.034	-0.022
-672.120	368.305	-0.130	-0.267
-671.105	-28.050	0.058	0.034
-670.091	14.128	-0.137	0.108
-669.076	-166.072	0.183	0.008
-668.062	-16.179	-0.309	0.200
-667.047	-40.798	0.156	0.082
-666.032	148.416	0.091	0.125
-665.018	32.325	-0.036	-0.032
-664.003	449.385	0.027	0.060
-662.989	-200.000	0.063	-0.417
-661.974	-200.000	0.007	-0.228
-660.959	-61.434	-0.103	0.044
-659.945	143.686	0.125	0.169
-658.930	-2.527	-0.315	0.224
-657.916	190.809	0.083	0.128
-656.901	-124.135	0.053	-0.008
-655.886	-68.524	0.485	-0.192
-654.872	-200.000	0.057	-0.284
-653.857	134.984	-0.139	-0.184
-652.843	-11.892	0.325	0.217
-651.828	800.000	-0.063	0.257
-650.814	-200.000	-0.004	-0.024
-649.799	31.310	-0.103	0.090
-648.784	393.797	-0.158	-0.336
-647.770	-54.887	-0.083	-0.038
-646.755	800.000	0.075	0.255
-645.741	-75.917	-0.166	0.060
-644.726	-67.656	-0.109	-0.043
-643.711	-13.808	0.139	0.091
-642.697	50.601	0.123	-0.118
-641.682	-73.055	-0.270	-0.101
-640.668	593.551	-0.104	0.261
-639.653	135.892	0.077	0.102
-638.638	-22.590	-0.134	0.083
-637.624	-56.519	-0.148	-0.067
-636.609	-200.000	0.058	0.427
-635.595	-200.000	-0.099	0.494
-634.580	-26.631	-0.215	-0.128
-633.565	-81.591	-0.080	0.027
-632.551	800.000	0.044	-0.158
-631.536	344.724	0.049	-0.099
-630.522	-200.000	0.055	-0.280
-629.507	282.545	0.147	-0.268
-628.492	-135.949	-0.093	0.011
-627.478	-8.545	-0.109	0.075
-626.463	-101.414	0.118	-0.029
-625.449	-141.855	0.107	-0.011
-624.434	-17.657	0.235	-0.150
-623.419	-101.691	-0.173	0.043
-622.405	149.462	-0.018	-0.025
-621.390	82.871	-0.022	0.025
-620.376	-54.398	-0.206	0.095
-619.361	-98.929	0.344	0.089
-618.346	800.000	-0.151	-0.465
-617.332	-200.000	0.048	0.533
-616.317	-6.129	0.182	-0.127
-615.303	356.812	0.128	-0.260
-614.288	800.000	0.080	0.248
-613.273	800.000	-0.073	-0.226
-612.259	-200.000	-0.040	0.407
-611.244	800.000	0.076	0.233
-610.230	-165.236	-0.650	-0.029
-609.215	84.223	0.265	0.295
-608.201	-200.000	-0.001	-0.418
-607.186	-191.826	-0.419	-0.004
-606.171	47.229	0.095	-0.090
-605.157	800.000	-0.090	-0.258
-604.142	345.147	-0.217	0.433
-603.128	-153.350	0.201	0.014
-602.113	17.959	0.219	0.177
-601.098	-139.620	0.358	0.039
-600.084	2.191	0.076	-0.056
-599.069	-110.639	-0.367	0.077
-598.055	170.641	-0.143	-0.208
-597.040	32.988	0.134	0.118
-596.025	16.086	-0.260	-0.208
-595.011	795.210	-0.100	-0.279
-593.996	-200.000	0.038	0.342
-592.982	-44.867	-0.217	-0.110
-591.967	-86.238	0.047	-0.015
-590.952	-5.893	0.195	-0.136
-589.938	153.691	0.058	-0.080
-588.923	261.104	0.106	-0.186
-587.909	-124.842	-0.201	-0.032
-586.894	-68.329	0.222	0.088
-585.879	133.339	-0.091	0.120
-584.865	-74.715	-0.312	-0.114
-583.850	-127.304	-0.117	-0.017
-582.836	-130.074	0.134	0.019
-581.821	617.012	-0.026	-0.067
-580.806	116.683	-0.010	0.012
-579.792	-65.361	-0.347	0.142
-578.777	-151.866	-0.099	0.007
-577.763	-200.000	0.010	0.142
-576.748	800.000	0.062	-0.183
-575.733	199.942	-0.147	0.229
-574.719	-28.055	0.202	-0.119
-573.704	-90.991	0.320	0.093
-572.690	-101.180	0.344	0.086
-571.675	-125.101	-0.182	-0.028
-570.661	224.952	0.124	0.203
-569.646	-99.444	-0.332	-0.085
-568.631	246.676	-0.148	0.253
-567.617	321.844	0.155	-0.299
-566.602	-200.000	-0.035	-0.217
-565.588	274.630	-0.241	0.434
-564.573	104.662	0.212	0.253
-563.558	464.695	-0.106	0.241
-562.544	-108.085	-0.186	0.041
-561.529	-200.000	-0.002	0.050
-560.515	331.852	0.108	-0.212
-559.500	-139.166	-0.162	-0.018
-558.485	126.600	0.086	0.111
-557.471	-200.000	-0.039	0.380
-556.456	74.534	0.054	-0.057
-555.442	134.888	-0.190	-0.250
-554.427	86.128	0.178	-0.199
-553.412	-70.442	0.144	0.055
-552.398	400.590	-0.040	0.084
-551.383	-200.000	-0.008	-0.236
-550.369	307.580	0.048	-0.090
-549.354	466.084	-0.089	0.202
-548.339	40.734	-0.126	-0.115
-547.325	91.872	0.015	-0.017
-546.310	800.000	-0.046	-0.131
-545.296	-200.000	-0.034	0.158
-544.281	6.463	-0.193	0.146
-543.266	800.000	0.036	-0.131
-542.252	-5.853	-0.551	-0.382
-541.237	-101.867	0.186	0.046
-540.223	386.782	-0.091	0.192
-539.208	800.000	-0.033	0.132
-538.193	-23.178	0.075	-0.046
-537.179	614.232	0.032	0.082
-536.164	800.000	-0.099	0.427
-535.150	93.150	-0.085	-0.097
-534.135	-200.000	-0.051	-0.257
-533.121	20.556	0.404	-0.331
-532.106	-200.000	0.054	0.306
-531.091	-176.150	-0.276	-0.007
-530.077	221.404	0.183	0.297
-529.062	-61.918	-0.210	0.089
-528.048	-11.925	-0.406	0.270
-527.033	800.000	0.021	-0.090
-526.018	-135.803	0.119	0.014
-525.004	1.926	0.263	-0.192
-523.989	-41.258	-0.089	0.046
-522.975	50.533	0.226	-0.216
-521.960	656.770	-0.015	-0.039
-520.945	95.242	-0.089	0.103
-519.931	-200.000	0.049	0.356
-518.916	-200.000	0.003	-0.300
-517.902	-66.559	0.078	0.031
-516.887	-200.000	0.047	-0.317
-515.872	120.494	-0.175	0.220
-514.858	-142.415	0.142	0.014
-513.843	61.038	-0.152	-0.152
-512.829	-171.012	-0.213	-0.007
-511.814	-134.192	-0.311	0.039
-510.799	206.296	-0.158	-0.250
-509.785	-56.066	0.165	-0.074
-508.770	-54.029	0.084	0.039
-507.756	800.000	0.046	-0.132
-506.741	231.930	0.085	-0.141
-505.726	-33.153	0.393	0.220
-504.712	-200.000	0.036	0.161
-503.697	76.160	-0.298	0.320
-502.683	112.076	-0.179	0.219
-501.668	-6.810	0.217	0.150
-500.653	316.766	-0.127	0.243
-499.639	-72.701	0.264	0.099
-498.624	800.000	0.052	0.154
-497.610	-25.426	-0.338	-0.202
-496.595	90.852	-0.065	-0.073
-495.581	-107.208	-0.254	0.057
-494.566	11.452	0.073	0.057
-493.551	-73.916	-0.197	0.072
-492.537	-41.348	0.216	-0.113
-491.522	-180.667	0.263	0.005
-490.508	-153.999	0.105	-0.007
-489.493	-163.996	-0.466	0.022
-488.478	218.326	-0.091	-0.146
-487.464	800.000	0.026	-0.098
-486.449	-200.000	0.023	0.128
-485.435	52.299	-0.344	-0.332
-484.420	-110.468	0.235	0.049
-483.405	52.834	-0.062	-0.060
-482.391	-78.700	-0.113	0.039
-481.376	-39.157	-0.197	0.104
-480.362	29.968	0.165	0.143
-479.347	449.970	0.028	-0.063
-478.332	70.404	0.148	0.155
-477.318	-9.092	0.155	-0.105
-476.303	-200.000	0.002	0.017
-475.289	66.037	-0.183	0.188
-474.274	201.262	-0.205	-0.319
-473.259	-200.000	0.042	-0.263
-472.245	-105.412	-0.179	0.041
-471.230	52.103	-0.199	0.192
-470.216	-139.274	0.037	0.004
-469.201	-21.454	0.375	0.232
-468.186	-109.642	-0.076	0.016
-467.172	-106.475	-0.369	-0.083
-466.157	544.606	-0.061	0.147
-465.143	-3.372	0.214	0.151
-464.128	0.302	0.203	0.147
-463.113	-32.031	0.075	0.043
-462.099	-200.000	0.002	-0.162
-461.084	134.221	-0.162	0.212
-460.070	133.719	0.091	-0.119
-459.055	13.008	0.094	-0.073
-458.040	28.736	-0.230	-0.197
-457.026	-200.000	0.001	0.171
-456.011	-200.000	-0.016	0.155
-454.997	234.016	0.080	-0.134
-453.982	-200.000	-0.030	-0.206
-452.968	800.000	0.076	-0.216
-451.953	-163.388	0.183	0.009
-450.938	64.473	0.099	-0.101
-449.924	234.912	-0.154	0.256
-448.909	-69.034	-0.013	0.005
-447.895	116.355	0.264	-0.327
-446.880	640.739	0.012	-0.031
-445.865	-109.726	-0.316	-0.067
-444.851	-200.000	0.008	0.156
-443.836	343.545	0.062	-0.123
-442.822	-81.172	-0.094	-0.031
-441.807	800.000	0.041	-0.149
-440.792	298.534	-0.081	-0.150
-439.778	-200.000	-0.036	0.246
-438.763	800.000	0.040	0.132
-437.749	-11.400	-0.205	-0.136
-436.734	-181.271	-0.103	0.002
-435.719	265.445	-0.050	-0.088
-434.705	50.269	-0.122	0.116
-433.690	-102.056	0.191	0.046
-432.676	103.848	-0.175	-0.207
-431.661	-93.742	-0.125	-0.035
-430.646	160.971	0.145	-0.205
-429.632	-167.893	-0.268	-0.011
-428.617	90.869	0.061	-0.069
-427.603	-74.263	0.352	0.128
-426.588	-117.773	-0.516	0.094
-425.573	78.083	-0.280	-0.302
-424.559	85.055	0.386	0.428
-423.544	-137.922	-0.166	0.019
-422.530	489.097	-0.105	-0.243
-421.515	-160.690	-0.186	0.010
-420.500	437.073	0.134	-0.294
-419.486	9.949	0.124	-0.095
-418.471	-31.463	-0.097	0.055
-417.457	-200.000	-0.041	-0.200
-416.442	-126.227	0.335	-0.051
-415.428	119.447	-0.064	-0.080
-414.413	3.620	-0.230	-0.169
-413.398	-79.719	0.224	-0.076
-412.384	-200.000	-0.024	-0.142
-411.369	-200.000	-0.020	0.229
-410.355	-39.442	0.290	0.153
-409.340	-165.389	0.273	0.012
-408.325	177.303	-0.086	-0.126
-407.311	-5.073	-0.264	0.183
-406.296	33.862	0.204	-0.179
-405.282	253.061	-0.241	-0.414
-404.267	-200.000	0.058	-0.383
-403.252	-50.052	-0.240	-0.115
-402.238	25.169	0.335	0.281
-401.223	-200.000	-0.008	0.257
-400.209	21.324	-0.201	0.165
-399.194	278.682	-0.140	0.251
-398.179	-9.085	0.063	0.043
-397.165	-104.710	0.481	-0.112
-396.150	-200.000	-0.025	0.492
-395.136	-200.000	0.040	-0.194
-394.121	91.742	-0.231	0.261
-393.106	-10.680	-0.228	0.152
-392.092	-77.820	0.148	-0.052
-391.077	-158.775	-0.369	0.021
-390.063	-52.457	-0.380	-0.177
-389.048	642.067	-0.056	0.143
-388.033	164.787	0.035	-0.050
-387.019	-200.000	-0.055	-0.374
-386.004	-102.739	0.285	-0.068
-384.990	271.656	-0.089	-0.157
-383.975	21.817	0.039	-0.032
-382.960	-200.000	-0.033	0.302
-381.946	800.000	-0.139	0.387
-380.931	-81.144	0.228	-0.076
-379.917	435.782	-0.170	0.372
-378.902	-200.000	-0.013	0.256
-377.888	-41.386	-0.069	-0.036
-376.873	800.000	-0.056	0.209
-375.858	-200.000	0.002	0.057
-374.844	-154.778	-0.152	-0.010
-373.829	113.346	0.213	0.260
-372.815	-20.480	0.109	-0.067
-371.800	-60.485	-0.124	0.053
-370.785	83.407	0.037	-0.041
-369.771	221.349	-0.174	-0.281
-368.756	-30.669	0.221	0.126
-367.742	-135.989	-0.128	-0.015
-366.727	-37.916	0.110	-0.059
-365.712	122.781	-0.089	-0.112
-364.698	-80.832	0.030	-0.010
-363.683	-4.138	0.260	-0.181
-362.669	-110.463	-0.151	0.032
-361.654	72.068	-0.220	0.231
-360.639	-32.835	-0.174	-0.097
-359.625	-48.542	0.181	0.087
-358.610	-105.199	0.289	0.066
-357.596	477.328	0.074	-0.169
-356.581	-90.038	0.330	-0.097
-355.566	-94.108	-0.273	-0.075
-354.552	32.510	-0.068	0.059
-353.537	-200.000	0.020	0.207
-352.523	-184.278	0.192	0.003
-351.508	250.417	-0.153	-0.262
-350.493	-115.430	-0.278	-0.053
-349.479	-75.853	0.191	-0.068
-348.464	29.942	-0.043	-0.037
-347.450	-46.188	0.104	-0.051
-346.435	-24.615	0.094	0.056
-345.420	-112.923	0.442	-0.088
-344.406	800.000	-0.061	-0.266
-343.391	23.413	-0.202	-0.167
-342.377	14.447	-0.062	0.048
-341.362	71.727	0.235	-0.246
-340.348	-106.463	0.153	0.034
-339.333	193.565	0.227	0.346
-338.318	26.048	0.117	-0.098
-337.304	-200.000	0.042	-0.309
-336.289	-153.382	-0.192	-0.013
-335.275	-174.574	-0.120	-0.003
-334.260	-10.573	0.313	-0.209
-333.245	-167.519	-0.158	0.006
-332.231	276.198	0.029	0.052
-331.216	-200.000	-0.041	-0.279
-330.202	-76.824	-0.028	0.010
-329.187	800.000	-0.046	-0.147
-328.172	-1.725	-0.187	-0.132
-327.158	-78.499	-0.253	-0.087
-326.143	276.980	0.015	0.026
-325.129	567.202	-0.064	0.157
-324.114	-194.136	0.295	0.002
-323.099	29.563	-0.156	-0.133
-322.085	468.390	-0.049	0.110
-321.070	153.230	0.060	0.082
-320.056	800.000	0.095	-0.411
-319.041	-104.379	0.495	-0.115
-318.026	800.000	0.084	-0.246
-317.012	-73.157	-0.175	0.064
-315.997	-200.000	0.031	-0.198
-314.983	-55.217	-0.111	-0.050
-313.968	-81.298	0.117	-0.039
-312.953	-103.367	0.151	0.036
-311.939	17.103	0.075	-0.060
-310.924	-62.305	0.284	0.119
-309.910	800.000	-0.021	0.075
-308.895	5.601	-0.033	-0.024
-307.880	113.895	-0.199	0.243
-306.866	-109.558	0.163	-0.035
-305.851	189.806	-0.187	0.281
-304.837	18.996	-0.208	-0.168
-303.822	-66.855	-0.091	-0.036
-302.807	-168.494	0.120	-0.005
-301.793	-38.742	0.164	-0.087
-300.778	147.176	-0.142	0.192
-299.764	4.932	-0.355	0.263
-298.749	800.000	-0.050	-0.210
-297.735	800.000	-0.036	0.105
-296.720	-32.485	-0.299	-0.167
-295.705	511.613	-0.173	0.405
-294.691	612.995	0.090	-0.225
-293.676	673.675	0.082	0.214
-292.662	-51.207	-0.051	-0.024
-291.647	-48.792	-0.134	0.064
-290.632	-174.425	-0.122	0.004
-289.618	-124.834	-0.540	0.084
-288.603	-62.234	0.237	0.099
-287.589	-65.392	0.282	-0.114
-286.574	292.883	0.241	0.440
-285.559	-200.000	0.023	-0.163
-284.545	-135.808	-0.074	0.009
-283.530	-83.882	0.239	-0.076
-282.516	86.547	0.140	0.155
-281.501	-200.000	-0.029	0.140
-280.486	-200.000	0.035	-0.179
-279.472	-63.137	-0.117	-0.048
-278.457	-27.304	-0.070	0.041
-277.443	-154.142	-0.143	0.010
-276.428	65.525	0.243	0.247
-275.413	-169.295	0.391	-0.014
-274.399	-200.000	-0.001	-0.524
-273.384	193.634	0.058	0.089
-272.370	11.074	-0.103	-0.079
-271.355	800.000	0.058	-0.181
-270.340	254.100	-0.077	0.132
-269.326	-200.000	-0.033	0.148
-268.311	-173.899	-0.264	0.008
-267.297	-200.000	0.014	0.545
-266.282	-200.000	0.008	-0.134
-265.267	213.351	-0.115	-0.183
-264.253	-140.190	0.096	-0.010
-263.238	-143.308	0.146	-0.014
-262.224	800.000	0.113	-0.457
-261.209	444.853	-0.130	-0.285
-260.195	-152.454	0.325	0.023
-259.180	-200.000	-0.016	0.264
-258.165	-40.931	-0.051	0.027
-257.151	13.228	0.135	0.105
-256.136	-200.000	-0.018	0.241
-255.122	-110.753	0.089	-0.018
-254.107	300.335	0.274	-0.506
-253.092	-175.349	0.207	0.006
-252.078	137.427	0.084	0.110
-251.063	-82.886	-0.168	-0.054
-250.049	91.084	-0.088	0.099
-249.034	-49.950	-0.228	-0.109
-248.019	-86.930	0.221	-0.068
-247.005	145.164	0.189	-0.254
-245.990	213.154	-0.048	-0.076
-244.976	2.177	-0.316	-0.229
-243.961	305.565	0.044	-0.083
-242.946	-33.981	0.327	0.180
-241.932	-200.000	-0.050	-0.264
-240.917	55.656	0.140	0.136
-239.903	-200.000	0.023	-0.223
-238.888	3.860	-0.203	0.148
-237.873	-50.061	0.110	0.052
-236.859	-200.000	0.012	-0.178
-235.844	628.305	0.042	-0.107
-234.830	-77.196	0.174	-0.061
-233.815	-123.835	0.157	0.025
-232.800	800.000	-0.049	0.194
-231.786	-200.000	0.047	0.236
-230.771	99.377	0.176	-0.203
-229.757	800.000	0.028	-0.109
-228.742	167.412	-0.041	0.058
-227.727	-180.352	0.048	0.001
-226.713	800.000	0.019	0.056
-225.698	-107.322	-0.391	-0.086
-224.684	269.081	0.105	0.184
-223.669	34.808	0.157	-0.138
-222.655	-43.915	0.020	-0.010
-221.640	800.000	-0.097	0.296
-220.625	-200.000	-0.069	0.378
-219.611	800.000	-0.008	-0.033
-218.596	218.457	0.193	-0.309
-217.582	31.069	-0.109	0.094
-216.567	-47.267	-0.053	0.026
-215.552	426.038	-0.107	0.230
-214.538	39.095	0.101	-0.091
-213.523	800.000	0.064	-0.199
-212.509	49.616	-0.285	-0.268
-211.494	-200.000	-0.028	-0.330
-210.479	309.919	-0.193	0.361
-209.465	-6.511	0.222	-0.151
-208.450	106.589	0.215	-0.256
-207.436	15.758	-0.248	-0.195
-206.421	59.592	-0.184	0.182
-205.406	-123.675	0.197	-0.031
-204.392	35.935	0.167	-0.147
-203.377	-142.482	0.107	-0.011
-202.363	800.000	-0.053	0.220
-201.348	-121.086	0.163	-0.027
-200.333	-61.076	0.183	0.077
-199.319	-158.109	-0.363	0.021
-198.304	5.919	0.262	-0.194
-197.290	-53.170	0.294	-0.135
-196.275	-172.509	0.171	0.005
-195.260	800.000	-0.012	-0.035
-194.246	-8.406	-0.022	0.015
-193.231	-49.993	-0.133	0.063
-192.217	-120.091	-0.132	-0.023
-191.202	418.307	-0.043	0.092
-190.187	-74.974	0.321	-0.115
-189.173	-101.513	0.235	0.057
-188.158	-79.529	0.311	-0.105
-187.144	-200.000	-0.016	0.150
-186.129	-200.000	-0.008	0.111
-185.114	-42.874	0.136	-0.069
-184.100	800.000	0.077	0.305
-183.085	79.396	0.113	0.121
-182.071	-8.316	-0.243	-0.163
-181.056	-12.942	0.067	0.043
-180.042	-200.000	-0.018	-0.395
-179.027	113.940	-0.067	0.082
-178.012	31.741	0.092	0.079
-176.998	473.780	0.074	0.167
-175.983	91.958	0.424	0.477
-174.969	22.816	-0.282	-0.231
-173.954	-77.403	-0.298	-0.104
-172.939	-131.326	0.189	-0.025
-171.925	-6.017	-0.113	-0.077
-170.910	-65.889	0.019	-0.008
-169.896	193.694	0.256	-0.388
-168.881	17.289	0.124	0.098
-167.866	800.000	0.093	0.276
-166.852	400.032	-0.141	0.296
-165.837	-200.000	0.023	0.292
-164.823	-80.194	-0.255	-0.085
-163.808	-87.110	0.298	-0.091
-162.793	92.946	-0.255	0.288
-161.779	-200.000	0.063	0.328
-160.764	119.403	0.164	0.202
-159.750	-145.841	-0.146	0.013
-158.735	-76.914	-0.146	0.051
-157.720	-64.447	0.332	-0.135
-156.706	-29.532	0.026	0.015
-155.691	-138.520	0.179	-0.020
-154.677	-120.829	0.294	-0.050
-153.662	-144.937	-0.123	0.011
-152.647	201.143	0.101	-0.155
-151.633	-158.673	0.585	0.034
-150.618	-61.275	-0.280	-0.118
-149.604	341.956	-0.178	-0.347
-148.589	-40.608	0.168	-0.087
-147.574	274.991	0.016	-0.028
-146.560	35.302	-0.067	0.058
-145.545	-114.856	0.148	-0.028
-144.531	271.399	-0.099	0.175
-143.516	-62.384	0.324	0.135
-142.502	389.854	-0.050	-0.104
-141.487	-97.713	-0.046	-0.012
-140.472	800.000	0.075	0.260
-139.458	-120.516	0.386	-0.065
-138.443	87.038	0.071	-0.078
-137.429	-2.543	0.333	-0.233
-136.414	7.648	0.271	0.202
-135.399	-146.081	0.199	0.018
-134.385	-143.050	0.466	-0.045
-133.370	800.000	0.116	-0.383
-132.356	138.598	-0.097	0.127
-131.341	78.498	-0.154	0.164
-130.326	-157.945	-0.204	-0.012
-129.312	-180.538	-0.075	0.002
-128.297	683.550	-0.145	-0.378
-127.283	14.124	0.114	-0.089
-126.268	-32.086	0.240	-0.134
-125.253	-89.343	-0.210	-0.062
-124.239	29.516	0.271	0.230
-123.224	-104.862	-0.078	0.018
-122.210	504.275	-0.129	0.297
-121.195	800.000	-0.058	-0.201
