DTS Sentinel unit serial number:	SN413079Multiplexer serial number:	ORYXHardware model number:	OX4-SRSoftware version number:	ORYX F/W v4.00 Oryx Data Collector v3.7.2.0data status	okinstallation	princeton_trtdifferential loss correction	single-endedforward channel	channel 2reverse channel	N/Adate	2019/09/18time	01:51:35forward acquisition time	60.00reverse acquisition time	0.00gamma	496.2192k internal	0.2350k external	0.2350temperature offset calibration	0.9983default loss term (dB/km)	0.3790temperature slope calibration	1.0000multiplexer offset coefficient	1.0000multiplexer slope coefficient	1.0000fibre end	0.00T internal ref (°C)	22.97T ext. ref 1 (°C)	0.16T ext. ref 2 (°C)	16.64length (m)	temperature (°C)	Stokes	anti-Stokes-747.200	404.403	0.130	0.273
-746.185	27.689	0.054	0.045
-745.171	-53.759	0.272	0.124
-744.156	-47.427	-0.101	-0.049
-743.142	35.448	0.088	-0.077
-742.127	800.000	-0.055	0.233
-741.112	-139.402	0.349	-0.037
-740.098	-51.732	-0.389	-0.181
-739.083	-38.000	0.501	0.265
-738.069	-114.284	-0.118	0.023
-737.054	800.000	0.078	-0.238
-736.039	26.162	-0.209	-0.174
-735.025	800.000	0.102	0.342
-734.010	800.000	-0.090	0.316
-732.996	-20.687	0.159	-0.098
-731.981	686.483	-0.044	0.116
-730.966	-200.000	-0.006	-0.259
-729.952	800.000	0.135	-0.425
-728.937	93.120	0.081	-0.091
-727.923	-105.707	-0.136	-0.031
-726.908	-123.808	-0.118	0.019
-725.894	93.985	-0.190	0.215
-724.879	84.225	0.100	-0.109
-723.864	218.804	-0.211	0.336
-722.850	27.418	-0.090	-0.075
-721.835	-81.138	-0.200	-0.066
-720.821	800.000	0.041	-0.129
-719.806	95.776	-0.131	-0.150
-718.791	-159.868	-0.162	0.009
-717.777	-200.000	-0.030	0.161
-716.762	755.494	0.056	0.151
-715.748	-83.411	0.237	-0.076
-714.733	115.892	0.111	0.135
-713.718	290.357	-0.166	0.301
-712.704	-200.000	0.079	0.385
-711.689	-101.632	-0.200	0.048
-710.675	-24.742	-0.045	-0.027
-709.660	385.367	0.170	0.349
-708.645	-9.089	-0.235	0.157
-707.631	-200.000	0.039	-0.253
-706.616	-159.912	-0.220	0.012
-705.602	27.359	-0.142	0.119
-704.587	112.798	-0.219	-0.264
-703.572	288.169	0.108	0.195
-702.558	-149.074	0.063	-0.005
-701.543	-91.615	0.305	-0.087
-700.529	45.333	0.196	0.180
-699.514	-180.147	0.179	-0.004
-698.499	142.866	-0.278	-0.369
-697.485	68.312	0.022	0.022
-696.470	-200.000	0.026	-0.230
-695.456	261.625	-0.191	-0.330
-694.441	716.158	0.048	0.128
-693.426	79.265	-0.277	0.296
-692.412	-200.000	-0.089	0.392
-691.397	-9.686	0.269	0.179
-690.383	-92.674	-0.345	0.096
-689.368	-30.006	0.232	-0.132
-688.354	-115.248	-0.179	-0.034
-687.339	-200.000	-0.055	-0.376
-686.324	-173.484	-0.143	-0.004
-685.310	-70.673	-0.319	-0.120
-684.295	800.000	-0.058	-0.190
-683.281	180.388	-0.157	-0.229
-682.266	5.030	0.246	-0.180
-681.251	-72.455	0.162	0.060
-680.237	178.270	-0.138	-0.201
-679.222	86.693	0.054	-0.059
-678.208	43.379	0.218	-0.198
-677.193	29.990	-0.136	-0.115
-676.178	800.000	0.087	-0.315
-675.164	182.995	-0.061	-0.089
-674.149	1.807	0.198	0.142
-673.135	-14.197	0.323	-0.207
-672.120	-8.014	-0.049	-0.033
-671.105	-200.000	0.011	-0.219
-670.091	-116.842	0.098	0.018
-669.076	6.639	0.235	0.174
-668.062	-109.695	0.176	0.037
-667.047	-29.546	0.177	0.101
-666.032	-7.580	0.247	-0.166
-665.018	-200.000	-0.023	0.214
-664.003	75.926	-0.032	-0.034
-662.989	9.164	-0.099	0.075
-661.974	-200.000	0.000	-0.123
-660.959	-200.000	0.030	0.291
-659.945	-200.000	-0.039	0.270
-658.930	-43.747	0.294	-0.148
-657.916	-20.520	0.231	0.141
-656.901	189.306	0.086	0.127
-655.886	395.820	-0.149	-0.308
-654.872	-71.087	-0.154	0.057
-653.857	-124.305	-0.157	-0.024
-652.843	-26.290	0.553	-0.323
-651.828	300.115	0.152	-0.278
-650.814	-66.138	-0.305	-0.121
-649.799	700.816	-0.092	0.241
-648.784	-200.000	0.055	0.398
-647.770	346.177	-0.096	0.188
-646.755	-200.000	0.001	0.296
-645.741	-70.789	-0.176	0.066
-644.726	114.717	0.130	-0.157
-643.711	-200.000	0.007	-0.168
-642.697	154.388	-0.164	0.224
-641.682	-94.429	0.250	0.068
-640.668	-155.736	-0.398	0.025
-639.653	-114.825	-0.477	0.090
-638.638	274.201	-0.117	0.207
-637.624	56.142	-0.286	0.276
-636.609	17.508	0.134	-0.106
-635.595	-200.000	0.002	0.111
-634.580	-82.561	-0.060	-0.019
-633.565	-19.407	0.266	0.164
-632.551	-200.000	0.047	-0.328
-631.536	-114.673	0.192	0.036
-630.522	80.599	0.085	-0.091
-629.507	-200.000	0.039	-0.233
-628.492	140.781	0.196	0.257
-627.478	246.279	0.023	-0.038
-626.463	634.331	-0.093	-0.234
-625.449	-101.719	-0.187	0.045
-624.434	-166.981	-0.446	-0.018
-623.419	-200.000	0.030	0.164
-622.405	800.000	-0.040	-0.148
-621.390	46.637	-0.070	-0.065
-620.376	20.392	-0.096	0.077
-619.361	36.065	-0.128	0.112
-618.346	-123.048	-0.331	0.053
-617.332	94.071	-0.224	0.253
-616.317	800.000	-0.024	0.065
-615.303	92.925	-0.169	-0.190
-614.288	-57.323	0.131	-0.057
-613.273	-26.594	-0.102	-0.059
-612.259	275.254	0.096	-0.169
-611.244	-119.343	0.274	-0.047
-610.230	-106.962	0.506	-0.111
-609.215	800.000	-0.028	-0.118
-608.201	-152.892	-0.140	-0.010
-607.186	-200.000	-0.031	-0.339
-606.171	465.012	-0.089	0.197
-605.157	800.000	-0.090	0.249
-604.142	41.492	-0.041	-0.037
-603.128	-81.880	-0.212	0.069
-602.113	-200.000	-0.017	-0.092
-601.098	118.082	-0.197	-0.241
-600.084	5.308	0.386	0.282
-599.069	-200.000	0.028	-0.165
-598.055	-74.616	0.207	0.074
-597.040	-24.724	0.108	0.064
-596.025	-48.121	-0.360	-0.173
-595.011	-200.000	0.047	-0.265
-593.996	583.827	-0.104	0.254
-592.982	43.784	0.065	-0.059
-591.967	-10.218	0.195	-0.129
-590.952	50.476	-0.139	-0.131
-589.938	167.888	-0.230	-0.325
-588.923	411.076	-0.082	-0.173
-587.909	-166.696	0.075	0.003
-586.894	251.482	0.093	-0.156
-585.879	800.000	0.052	-0.150
-584.865	800.000	0.077	-0.238
-583.850	145.863	0.052	-0.069
-582.836	-120.339	-0.236	-0.040
-581.821	283.071	-0.047	0.084
-580.806	-200.000	-0.005	0.100
-579.792	-159.625	-0.193	0.011
-578.777	-97.470	-0.127	0.033
-577.763	-200.000	-0.036	-0.453
-576.748	-64.783	0.139	-0.056
-575.733	-200.000	0.008	-0.164
-574.719	5.645	-0.108	0.079
-573.704	-64.606	-0.165	0.066
-572.690	800.000	-0.025	-0.093
-571.675	484.701	-0.153	-0.345
-570.661	-123.328	0.079	0.012
-569.646	-95.609	0.351	0.093
-568.631	-97.620	0.184	0.047
-567.617	800.000	0.059	0.234
-566.602	-158.671	0.380	0.022
-565.588	-200.000	-0.294	-0.000
-564.573	-200.000	0.014	-0.093
-563.558	36.263	-0.084	0.074
-562.544	-96.293	-0.200	0.052
-561.529	22.634	-0.158	-0.128
-560.515	160.729	0.164	-0.227
-559.500	193.388	-0.102	0.152
-558.485	309.047	0.076	0.140
-557.471	-2.036	0.136	0.095
-556.456	-200.000	-0.009	-0.200
-555.442	800.000	0.070	-0.197
-554.427	82.515	0.120	0.130
-553.412	137.441	0.112	0.146
-552.398	-200.000	-0.050	-0.347
-551.383	566.949	-0.123	-0.296
-550.369	273.944	0.032	-0.056
-549.354	800.000	-0.103	0.346
-548.339	63.355	0.213	-0.211
-547.325	-53.436	-0.385	-0.175
-546.310	-78.824	-0.049	-0.016
-545.296	-78.826	0.240	0.081
-544.281	800.000	0.007	-0.022
-543.266	-124.350	-0.261	-0.040
-542.252	-31.594	0.244	-0.136
-541.237	-178.111	-0.230	-0.005
-540.223	25.208	-0.198	0.163
-539.208	358.695	0.083	-0.163
-538.193	-105.574	-0.137	-0.031
-537.179	-86.543	-0.337	-0.102
-536.164	800.000	-0.085	0.320
-535.150	-81.665	0.147	-0.048
-534.135	67.777	0.107	-0.108
-533.121	30.446	-0.148	0.126
-532.106	-42.187	0.227	-0.115
-531.091	42.253	-0.135	-0.121
-530.077	27.515	0.143	-0.119
-529.062	-90.780	0.053	0.015
-528.048	-64.050	0.226	0.091
-527.033	187.750	-0.015	-0.023
-526.018	186.574	-0.214	-0.315
-525.004	227.305	-0.084	0.134
-523.989	-80.493	-0.116	-0.038
-522.975	115.373	-0.081	-0.098
-521.960	-77.803	0.303	-0.104
-520.945	-72.187	0.271	0.100
-519.931	-100.929	-0.614	0.149
-518.916	-200.000	0.017	0.176
-517.902	-200.000	0.011	-0.144
-516.887	15.949	-0.151	-0.118
-515.872	-145.754	-0.309	0.027
-514.858	-200.000	-0.087	-0.527
-513.843	191.978	0.214	-0.319
-512.829	-116.053	-0.094	0.017
-511.814	188.468	0.163	0.241
-510.799	-52.028	-0.119	-0.055
-509.785	-78.644	-0.327	-0.111
-508.770	-200.000	0.044	-0.413
-507.756	154.898	-0.112	-0.153
-506.741	37.098	0.215	-0.188
-505.726	480.331	0.041	0.091
-504.712	-200.000	0.001	-0.085
-503.697	156.715	0.153	-0.210
-502.683	264.431	0.070	0.121
-501.668	525.422	0.163	0.378
-500.653	-200.000	-0.035	0.210
-499.639	-71.581	0.116	0.043
-498.624	-99.623	-0.274	-0.068
-497.610	-104.300	0.105	0.024
-496.595	21.415	0.110	0.088
-495.581	-15.788	-0.219	-0.138
-494.566	-200.000	-0.034	0.266
-493.551	55.608	0.197	-0.188
-492.537	68.228	-0.189	-0.191
-491.522	-200.000	-0.019	-0.207
-490.508	-33.199	-0.378	-0.207
-489.493	-85.369	0.084	0.026
-488.478	800.000	0.079	0.314
-487.464	-27.777	-0.074	-0.043
-486.449	362.624	0.045	-0.090
-485.435	-6.457	0.080	0.054
-484.420	-104.474	0.340	-0.078
-483.405	18.322	-0.167	0.132
-482.391	-200.000	0.020	0.159
-481.376	104.386	0.151	0.175
-480.362	-170.194	-0.266	0.009
-479.347	-97.244	-0.048	0.012
-478.332	131.711	-0.160	0.203
-477.318	-32.086	-0.370	-0.204
-476.303	-32.864	0.279	-0.153
-475.289	-19.421	-0.166	0.102
-474.274	720.857	-0.176	-0.463
-473.259	584.643	-0.156	-0.378
-472.245	-71.718	-0.117	0.043
-471.230	169.666	-0.239	-0.338
-470.216	800.000	-0.056	-0.181
-469.201	8.616	0.116	-0.087
-468.186	-172.127	-0.183	-0.006
-467.172	-200.000	-0.045	-0.236
-466.157	-49.973	0.298	0.140
-465.143	-200.000	0.019	0.227
-464.128	17.626	0.462	-0.363
-463.113	222.999	-0.140	-0.223
-462.099	174.472	-0.089	0.128
-461.084	472.091	0.177	0.394
-460.070	296.672	-0.144	0.260
-459.055	-200.000	-0.043	0.226
-458.040	-37.341	0.134	0.071
-457.026	110.141	-0.099	-0.118
-456.011	11.928	0.317	0.241
-454.997	-27.442	-0.082	-0.047
-453.982	105.316	-0.131	-0.153
-452.968	-200.000	0.008	-0.044
-451.953	268.711	0.081	-0.140
-450.938	-79.621	0.295	-0.098
-449.924	-200.000	0.028	-0.129
-448.909	-53.317	0.222	0.101
-447.895	-19.488	0.066	0.041
-446.880	332.021	-0.111	0.212
-445.865	35.200	0.179	-0.155
-444.851	-200.000	0.038	0.275
-443.836	114.382	-0.116	-0.140
-442.822	112.591	0.091	-0.109
-441.807	-133.298	0.310	-0.039
-440.792	179.089	0.028	0.041
-439.778	-200.000	-0.008	-0.081
-438.763	-86.808	0.258	-0.078
-437.749	-179.718	-0.329	-0.007
-436.734	274.513	-0.013	-0.023
-435.719	-30.066	-0.092	-0.052
-434.705	485.568	0.031	0.071
-433.690	-200.000	-0.031	0.190
-432.676	-135.045	0.140	-0.017
-431.661	69.402	-0.107	-0.109
-430.646	-71.042	-0.260	0.097
-429.632	141.025	-0.055	-0.072
-428.617	-200.000	-0.005	-0.064
-427.603	25.222	0.183	-0.150
-426.588	800.000	-0.045	-0.157
-425.573	-56.703	-0.257	-0.112
-424.559	-62.903	0.028	0.011
-423.544	800.000	-0.071	-0.222
-422.530	-174.074	-0.128	0.004
-421.515	183.522	0.170	-0.248
-420.500	-200.000	-0.076	-0.341
-419.486	280.217	0.101	0.178
-418.471	-117.874	0.240	0.042
-417.457	113.579	0.085	0.102
-416.442	-101.103	-0.160	0.039
-415.428	-162.856	-0.444	0.021
-414.413	-200.000	-0.016	0.138
-413.398	138.848	0.170	0.221
-412.384	110.330	-0.223	-0.264
-411.369	-200.000	0.013	-0.183
-410.355	22.840	0.060	-0.048
-409.340	509.341	0.094	0.215
-408.325	-200.000	-0.048	-0.239
-407.311	-98.132	-0.161	-0.041
-406.296	-200.000	0.081	0.393
-405.282	-37.133	0.224	0.118
-404.267	2.398	-0.138	-0.099
-403.252	88.184	0.348	-0.380
-402.238	-28.077	-0.148	-0.084
-401.223	-9.618	-0.217	-0.143
-400.209	446.602	0.092	-0.198
-399.194	-2.023	-0.029	0.020
-398.179	-200.000	0.022	0.000
-397.165	-200.000	0.049	0.220
-396.150	800.000	0.098	0.266
-395.136	-48.216	-0.156	0.074
-394.121	723.330	0.097	0.253
-393.106	-40.081	-0.027	0.014
-392.092	48.245	-0.058	0.054
-391.077	800.000	-0.122	-0.509
-390.063	382.507	0.138	-0.280
-389.048	-200.000	-0.015	-0.095
-388.033	165.859	-0.115	0.161
-387.019	102.890	-0.143	-0.165
-386.004	146.750	0.136	-0.180
-384.990	-200.000	0.010	0.305
-383.975	111.286	-0.115	-0.136
-382.960	800.000	-0.080	-0.274
-381.946	-65.309	0.271	0.107
-380.931	355.261	0.041	0.080
-379.917	-182.102	0.304	-0.006
-378.902	-127.995	-0.065	0.009
-377.888	-102.478	-0.159	0.037
-376.873	-104.999	0.009	0.002
-375.858	800.000	0.051	0.221
-374.844	310.758	0.239	0.441
-373.829	71.014	0.148	0.151
-372.815	15.168	0.033	0.025
-371.800	-115.526	-0.534	0.099
-370.785	-154.380	-0.488	0.032
-369.771	-138.016	0.382	-0.042
-368.756	800.000	0.070	0.273
-367.742	-101.790	0.133	0.032
-366.727	-108.846	0.405	-0.085
-365.712	-23.967	-0.144	0.085
-364.698	471.593	0.056	0.124
-363.683	-109.805	-0.157	0.032
-362.669	-195.654	-0.055	0.000
-361.654	408.097	0.090	0.186
-360.639	-124.646	0.132	0.020
-359.625	76.319	-0.108	-0.112
-358.610	30.671	-0.132	-0.111
-357.596	124.526	0.169	-0.209
-356.581	-40.863	0.093	-0.047
-355.566	-112.000	0.365	0.072
-354.552	545.862	-0.105	0.247
-353.537	-161.705	0.278	0.014
-352.523	800.000	0.065	-0.233
-351.508	-169.461	0.396	-0.014
-350.493	800.000	-0.069	-0.241
-349.479	131.611	-0.097	0.122
-348.464	317.224	0.126	-0.234
-347.450	-56.904	-0.218	0.095
-346.435	89.036	-0.064	-0.070
-345.420	800.000	0.086	-0.286
-344.406	49.760	0.180	-0.166
-343.391	-42.652	-0.095	-0.048
-342.377	800.000	0.061	-0.217
-341.362	-146.135	0.161	0.014
-340.348	-71.121	-0.085	0.031
-339.333	21.933	-0.126	-0.101
-338.318	-200.000	0.013	0.165
-337.304	347.600	-0.029	0.056
-336.289	-153.651	0.167	-0.011
-335.275	-106.806	-0.551	-0.120
-334.260	-32.789	-0.197	0.108
-333.245	435.924	0.104	0.221
-332.231	-115.209	-0.237	0.044
-331.216	-200.000	0.040	0.191
-330.202	367.356	0.134	-0.266
-329.187	-163.663	0.061	-0.003
-328.172	665.948	-0.131	0.332
-327.158	173.017	-0.185	0.262
-326.143	220.990	-0.004	0.006
-325.129	-96.312	0.271	-0.070
-324.114	-162.398	0.264	0.013
-323.099	800.000	-0.150	0.412
-322.085	207.896	-0.102	-0.156
-321.070	-200.000	0.018	-0.113
-320.056	-84.768	0.266	0.082
-319.041	-71.806	-0.244	0.089
-318.026	63.988	0.226	-0.223
-317.012	-93.371	0.259	0.071
-315.997	530.907	-0.087	0.203
-314.983	-5.420	0.136	0.091
-313.968	264.300	-0.077	0.132
-312.953	-30.080	-0.165	-0.092
-311.939	800.000	0.059	-0.192
-310.924	21.216	0.018	-0.014
-309.910	100.354	0.236	0.268
-308.895	800.000	0.028	-0.096
-307.880	-85.191	-0.231	-0.071
-306.866	-79.451	0.212	0.070
-305.851	800.000	-0.049	-0.205
-304.837	-121.732	0.374	0.061
-303.822	-162.166	-0.113	-0.006
-302.807	65.127	0.166	0.165
-301.793	-200.000	0.008	-0.375
-300.778	178.769	-0.241	-0.345
-299.764	-132.967	0.181	0.023
-298.749	208.340	-0.137	-0.211
-297.735	-60.779	0.283	0.118
-296.720	129.175	0.174	0.218
-295.705	800.000	-0.072	-0.297
-294.691	-200.000	0.059	0.255
-293.676	208.198	0.114	-0.175
-292.662	-200.000	0.038	0.227
-291.647	7.247	-0.197	-0.144
-290.632	-144.644	-0.090	-0.008
-289.618	-200.000	-0.054	-0.249
-288.603	475.926	0.163	0.360
-287.589	-129.546	-0.076	0.010
-286.574	800.000	0.003	-0.008
-285.559	445.573	-0.061	-0.131
-284.545	-158.253	0.417	0.024
-283.530	34.311	0.014	-0.012
-282.516	81.666	0.245	-0.260
-281.501	-47.298	0.247	0.118
-280.486	130.275	-0.385	0.483
-279.472	-150.299	-0.287	0.022
-278.457	100.318	-0.188	0.214
-277.443	281.617	0.040	0.070
-276.428	-50.700	0.074	-0.034
-275.413	800.000	-0.070	-0.197
-274.399	510.748	-0.016	-0.037
-273.384	64.357	0.150	0.148
-272.370	96.717	-0.086	-0.097
-271.355	-97.351	-0.190	0.049
-270.340	-27.852	0.132	0.075
-269.326	-57.366	0.256	-0.110
-268.311	-200.000	0.024	0.111
-267.297	-79.650	-0.196	-0.065
-266.282	92.327	0.367	0.405
-265.267	-47.990	0.185	0.088
-264.253	-0.461	-0.067	-0.047
-263.238	-80.414	0.297	0.097
-262.224	221.205	0.051	-0.080
-261.209	-160.096	0.169	0.009
-260.195	385.134	-0.181	0.366
-259.180	509.783	-0.042	0.095
-258.165	789.223	-0.046	-0.123
-257.151	-47.754	0.182	-0.087
-256.136	-200.000	0.057	-0.248
-255.122	164.566	-0.230	0.318
-254.107	-200.000	0.027	-0.181
-253.092	-122.065	0.154	0.025
-252.078	-120.088	-0.265	-0.044
-251.063	-144.886	-0.117	0.010
-250.049	-200.000	0.029	0.131
-249.034	369.484	0.114	0.225
-248.019	-171.378	0.313	-0.010
-247.005	97.469	0.084	-0.095
-245.990	-159.511	0.384	0.021
-244.976	19.378	-0.263	0.207
-243.961	800.000	0.076	0.220
-242.946	-53.940	0.305	-0.136
-241.932	-63.976	-0.102	0.041
-240.917	135.781	0.115	-0.146
-239.903	94.079	-0.125	-0.139
-238.888	-25.960	0.064	0.037
-237.873	800.000	0.117	-0.369
-236.859	-200.000	-0.034	0.196
-235.844	207.223	-0.081	-0.123
-234.830	69.846	0.114	0.115
-233.815	-170.915	-0.195	-0.007
-232.800	3.004	0.170	0.121
-231.786	90.539	0.148	0.163
-230.771	-29.811	0.130	0.073
-229.757	-4.102	-0.199	-0.135
-228.742	-56.746	-0.185	0.080
-227.727	-200.000	-0.032	0.149
-226.713	-74.955	0.161	0.057
-225.698	-131.346	-0.347	0.045
-224.684	-52.696	0.158	0.071
-223.669	366.919	0.066	-0.130
-222.655	-14.793	-0.082	0.051
-221.640	800.000	0.103	0.328
-220.625	800.000	0.047	-0.141
-219.611	270.422	-0.139	0.238
-218.596	255.529	-0.091	-0.152
-217.582	-62.930	-0.355	0.144
-216.567	-107.414	0.231	0.049
-215.552	121.790	0.175	-0.213
-214.538	-118.583	-0.273	0.047
-213.523	-73.290	-0.251	-0.090
-212.509	64.364	-0.126	0.124
-211.494	-109.141	0.247	-0.051
-210.479	-47.838	0.147	0.070
-209.465	-109.951	-0.370	0.076
-208.450	-63.632	0.094	-0.038
-207.436	129.502	0.147	0.183
-206.421	-102.057	-0.425	0.100
-205.406	125.942	-0.117	0.144
-204.392	-72.632	-0.055	0.020
-203.377	-175.577	0.275	-0.007
-202.363	-200.000	0.009	-0.112
-201.348	-169.400	0.248	0.009
-200.333	-154.141	0.270	0.018
-199.319	-200.000	-0.065	0.000
-198.304	186.792	0.212	0.309
-197.290	800.000	-0.045	0.188
-196.275	-200.000	-0.009	-0.134
-195.260	-200.000	0.011	0.327
-194.246	139.347	-0.282	0.363
-193.231	-55.820	-0.111	0.048
-192.217	208.688	0.221	0.338
-191.202	-103.840	0.190	0.043
-190.187	-200.000	0.021	0.246
-189.173	143.263	-0.156	-0.203
-188.158	-88.848	-0.263	-0.076
-187.144	185.682	0.119	0.172
-186.129	-91.583	-0.122	-0.034
-185.114	-200.000	-0.013	-0.076
-184.100	37.895	-0.083	0.072
-183.085	800.000	-0.165	-0.471
-182.071	-109.047	-0.064	-0.013
-181.056	28.483	0.020	-0.016
-180.042	-130.731	0.154	-0.020
-179.027	-200.000	-0.049	-0.330
-178.012	-200.000	-0.020	0.265
-176.998	800.000	0.065	-0.189
-175.983	-102.443	0.168	-0.039
-174.969	-200.000	-0.091	-0.611
-173.954	27.587	0.259	0.213
-172.939	-85.543	-0.190	0.058
-171.925	289.294	0.161	0.285
-170.910	-71.381	-0.388	0.142
-169.896	800.000	0.079	0.298
-168.881	-200.000	0.041	0.302
-167.866	-200.000	0.004	0.333
-166.852	45.160	0.150	-0.135
-165.837	92.080	0.248	0.273
-164.823	-200.000	-0.018	-0.225
-163.808	800.000	-0.169	0.517
-162.793	-15.527	-0.092	-0.058
-161.779	143.736	-0.085	-0.111
-160.764	290.289	-0.029	0.051
-159.750	-200.000	-0.003	0.095
-158.735	-84.362	0.183	0.056
-157.720	-200.000	0.071	0.355
-156.706	228.348	0.180	0.286
-155.691	-116.199	-0.075	-0.014
-154.677	41.587	-0.054	-0.048
-153.662	213.745	0.177	-0.273
-152.647	-200.000	-0.004	0.195
-151.633	-200.000	0.061	-0.317
-150.618	-149.667	0.118	0.009
-149.604	-200.000	-0.062	0.500
-148.589	-35.144	-0.152	0.081
-147.574	-200.000	-0.020	-0.371
-146.560	-200.000	0.040	0.384
-145.545	-55.295	-0.181	-0.079
-144.531	23.204	0.262	0.210
-143.516	-142.154	0.165	-0.016
-142.502	41.077	-0.157	0.138
-141.487	65.160	0.092	0.091
-140.472	-171.023	0.040	0.001
-139.458	-61.160	-0.260	0.107
-138.443	-136.913	0.176	0.020
-137.429	-86.328	0.182	0.055
-136.414	-73.629	0.087	0.031
-135.399	-21.613	-0.163	-0.097
-134.385	800.000	0.038	0.155
-133.370	-66.387	0.235	0.091
-132.356	40.445	0.220	0.193
-131.341	-142.704	-0.190	0.018
-130.326	-101.222	0.251	0.060
-129.312	-107.356	-0.290	-0.062
-128.297	-7.143	0.257	-0.170
-127.283	-14.132	0.151	0.095
-126.268	-200.000	0.002	-0.048
-125.253	-37.064	0.068	-0.035
-124.239	-125.401	0.258	-0.038
-123.224	-132.209	-0.408	-0.052
-122.210	192.055	0.060	-0.088
-121.195	-138.973	0.186	0.020
