DTS Sentinel unit serial number:	SN413079Multiplexer serial number:	ORYXHardware model number:	OX4-SRSoftware version number:	ORYX F/W v4.00 Oryx Data Collector v3.7.2.0data status	okinstallation	princeton_trtdifferential loss correction	single-endedforward channel	channel 2reverse channel	N/Adate	2019/09/12time	10:29:11forward acquisition time	60.00reverse acquisition time	0.00gamma	496.2192k internal	0.2312k external	0.2312temperature offset calibration	1.0071default loss term (dB/km)	0.3790temperature slope calibration	1.0000multiplexer offset coefficient	1.0000multiplexer slope coefficient	1.0000fibre end	0.00T internal ref (°C)	37.05T ext. ref 1 (°C)	1.87T ext. ref 2 (°C)	34.74length (m)	temperature (°C)	Stokes	anti-Stokes-747.200	-63.150	-0.077	-0.032
-746.185	263.781	-0.077	0.135
-745.171	-20.743	-0.158	-0.098
-744.156	77.788	0.189	-0.204
-743.142	-137.729	0.280	0.032
-742.127	111.488	0.115	0.141
-741.112	-94.123	-0.131	0.036
-740.098	137.294	-0.202	0.268
-739.083	247.707	-0.186	0.319
-738.069	26.009	0.196	0.166
-737.054	800.000	0.151	-0.493
-736.039	-200.000	-0.004	0.427
-735.025	-73.249	0.408	0.151
-734.010	165.939	-0.171	-0.245
-732.996	149.173	-0.088	-0.121
-731.981	-3.677	-0.241	0.170
-730.966	-169.824	0.117	0.004
-729.952	239.635	0.146	0.247
-728.937	235.747	0.126	0.211
-727.923	-167.288	0.188	0.008
-726.908	21.433	0.050	-0.041
-725.894	28.927	-0.235	0.202
-724.879	-200.000	-0.009	-0.342
-723.864	143.102	0.194	-0.261
-722.850	754.322	-0.013	-0.035
-721.835	452.754	-0.057	-0.129
-720.821	-200.000	0.047	0.242
-719.806	800.000	-0.031	-0.098
-718.791	-200.000	0.032	-0.215
-717.777	131.849	-0.045	-0.059
-716.762	-156.905	0.282	-0.018
-715.748	-200.000	-0.043	-0.217
-714.733	800.000	0.042	-0.119
-713.718	8.541	0.266	-0.203
-712.704	-100.216	-0.295	-0.074
-711.689	344.355	0.110	0.219
-710.675	-55.269	-0.254	-0.116
-709.660	-84.489	-0.047	-0.015
-708.645	19.343	-0.145	-0.118
-707.631	-54.345	0.354	-0.163
-706.616	-147.447	0.216	0.019
-705.602	-200.000	0.042	0.405
-704.587	148.091	0.185	0.253
-703.572	292.363	-0.039	0.072
-702.558	-122.691	0.285	-0.047
-701.543	-156.878	-0.169	0.011
-700.529	0.474	-0.136	0.099
-699.514	-127.087	-0.449	0.067
-698.499	656.570	-0.063	-0.163
-697.485	145.568	-0.095	0.130
-696.470	179.377	0.144	0.214
-695.456	-94.927	-0.200	0.055
-694.441	-200.000	-0.014	0.190
-693.426	389.387	-0.163	0.343
-692.412	-95.544	-0.148	-0.040
-691.397	-171.690	0.471	0.016
-690.383	113.597	0.124	-0.153
-689.368	-200.000	0.025	-0.482
-688.354	800.000	0.032	-0.102
-687.339	800.000	0.030	-0.100
-686.324	-51.124	0.096	-0.045
-685.310	-95.048	0.183	-0.050
-684.295	28.128	0.053	-0.045
-683.281	-72.687	0.203	-0.076
-682.266	107.571	-0.160	0.193
-681.251	-24.121	0.199	0.120
-680.237	-16.590	0.237	-0.152
-679.222	142.304	-0.042	0.056
-678.208	-168.056	-0.154	0.006
-677.193	-200.000	0.031	0.316
-676.178	-200.000	-0.031	-0.387
-675.164	48.569	-0.155	-0.147
-674.149	-25.450	-0.174	0.104
-673.135	209.818	0.014	0.022
-672.120	40.476	0.019	0.017
-671.105	539.250	-0.108	0.261
-670.091	-200.000	0.024	-0.121
-669.076	104.046	-0.164	0.195
-668.062	-97.661	0.102	-0.027
-667.047	-76.357	0.418	0.149
-666.032	-71.660	-0.020	-0.008
-665.018	61.059	-0.103	-0.103
-664.003	-96.470	0.139	0.037
-662.989	109.122	-0.224	-0.271
-661.974	-200.000	-0.021	-0.437
-660.959	-200.000	0.003	-0.037
-659.945	-200.000	0.024	-0.144
-658.930	8.117	-0.227	0.172
-657.916	272.699	-0.090	0.161
-656.901	158.523	0.162	-0.227
-655.886	-200.000	0.012	-0.195
-654.872	800.000	-0.080	-0.313
-653.857	-200.000	-0.016	0.115
-652.843	800.000	0.039	0.137
-651.828	116.207	-0.238	-0.295
-650.814	366.707	-0.053	0.108
-649.799	800.000	-0.069	0.213
-648.784	47.465	0.118	0.112
-647.770	-9.456	-0.156	-0.105
-646.755	23.271	-0.056	0.046
-645.741	-200.000	0.042	-0.285
-644.726	594.797	-0.057	0.142
-643.711	-41.127	0.169	0.088
-642.697	-57.500	-0.117	-0.052
-641.682	37.433	-0.366	0.328
-640.668	-200.000	-0.033	0.193
-639.653	156.715	-0.103	-0.144
-638.638	800.000	-0.032	-0.139
-637.624	-125.142	0.419	0.065
-636.609	595.933	-0.009	-0.022
-635.595	631.137	0.136	0.348
-634.580	-132.074	0.150	0.020
-633.565	-54.944	0.467	-0.213
-632.551	800.000	0.004	-0.013
-631.536	-136.822	-0.170	0.020
-630.522	-126.305	0.209	-0.031
-629.507	-200.000	0.003	-0.092
-628.492	800.000	0.082	-0.320
-627.478	48.353	-0.224	-0.211
-626.463	-174.000	0.494	0.015
-625.449	-16.422	0.304	-0.195
-624.434	-107.081	-0.176	-0.039
-623.419	-33.335	-0.405	-0.226
-622.405	677.351	-0.052	-0.137
-621.390	693.003	-0.050	-0.132
-620.376	51.474	0.017	-0.016
-619.361	-63.894	0.346	0.143
-618.346	137.358	-0.131	0.173
-617.332	-9.590	-0.287	-0.193
-616.317	538.327	0.075	-0.181
-615.303	-74.257	-0.140	0.051
-614.288	-200.000	-0.018	-0.080
-613.273	179.961	0.280	-0.414
-612.259	67.412	0.078	0.081
-611.244	800.000	0.125	0.459
-610.230	89.321	0.263	0.296
-609.215	45.262	0.153	0.142
-608.201	34.339	-0.029	-0.025
-607.186	800.000	-0.073	-0.223
-606.171	-121.349	0.186	0.031
-605.157	-122.942	0.222	-0.036
-604.142	-200.000	-0.047	0.258
-603.128	-132.607	0.144	0.019
-602.113	-18.153	0.181	-0.114
-601.098	4.081	0.147	-0.108
-600.084	-200.000	0.050	-0.229
-599.069	153.748	-0.109	-0.151
-598.055	71.264	-0.094	0.098
-597.040	-110.148	-0.166	0.035
-596.025	64.143	-0.142	0.144
-595.011	66.049	-0.214	-0.219
-593.996	-6.893	-0.264	0.181
-592.982	-112.039	0.276	0.056
-591.967	20.273	0.176	0.143
-590.952	800.000	0.068	0.280
-589.938	-150.159	-0.361	-0.028
-588.923	-150.732	0.286	0.022
-587.909	86.678	-0.185	0.206
-586.894	177.228	0.076	-0.112
-585.879	499.508	-0.095	-0.221
-584.865	-61.845	0.016	-0.007
-583.850	29.395	-0.165	-0.141
-582.836	83.276	0.077	0.085
-581.821	95.012	0.040	0.046
-580.806	13.277	-0.184	-0.144
-579.792	-8.588	-0.090	0.061
-578.777	288.762	-0.112	-0.205
-577.763	66.460	0.258	0.264
-576.748	171.410	0.301	-0.435
-575.733	800.000	-0.025	0.083
-574.719	457.286	-0.114	-0.254
-573.704	192.933	-0.114	-0.174
-572.690	109.429	0.070	-0.084
-571.675	169.771	0.208	-0.300
-570.661	-11.779	0.072	-0.048
-569.646	269.370	0.083	-0.147
-568.631	227.574	-0.165	0.271
-567.617	-200.000	0.046	0.394
-566.602	121.895	-0.056	0.070
-565.588	-200.000	0.034	0.371
-564.573	-121.337	-0.109	0.018
-563.558	47.217	0.139	0.130
-562.544	358.746	-0.177	0.357
-561.529	64.473	0.184	0.187
-560.515	-200.000	-0.018	0.255
-559.500	-140.411	-0.096	-0.010
-558.485	-36.974	-0.155	0.084
-557.471	-200.000	0.040	-0.246
-556.456	44.147	0.119	0.110
-555.442	-138.451	-0.152	0.017
-554.427	800.000	0.074	0.251
-553.412	-141.073	-0.232	0.024
-552.398	306.652	0.045	0.085
-551.383	-200.000	0.014	0.083
-550.369	800.000	-0.041	-0.132
-549.354	3.209	-0.216	-0.158
-548.339	-200.000	-0.007	-0.057
-547.325	-200.000	-0.027	-0.120
-546.310	-110.003	-0.233	0.049
-545.296	-130.679	0.197	0.027
-544.281	-200.000	-0.024	0.279
-543.266	158.299	0.220	-0.308
-542.252	-200.000	-0.003	0.148
-541.237	-200.000	0.045	-0.357
-540.223	105.821	-0.176	-0.209
-539.208	-98.756	-0.135	0.035
-538.193	-68.228	-0.076	-0.030
-537.179	-97.245	0.402	-0.106
-536.164	-200.000	-0.000	0.021
-535.150	-80.287	0.194	0.065
-534.135	-32.596	-0.317	-0.177
-533.121	280.226	0.124	-0.223
-532.106	668.494	0.150	-0.389
-531.091	-66.600	0.427	-0.171
-530.077	-200.000	-0.000	0.050
-529.062	-175.263	-0.226	-0.006
-528.048	68.598	-0.248	0.256
-527.033	542.821	-0.145	0.348
-526.018	-140.000	-0.188	-0.020
-525.004	-84.362	-0.153	-0.049
-523.989	-200.000	0.010	-0.188
-522.975	665.403	-0.106	0.276
-521.960	800.000	0.082	-0.297
-520.945	-200.000	0.036	-0.315
-519.931	357.525	0.093	-0.187
-518.916	402.129	-0.101	-0.214
-517.902	800.000	-0.039	-0.119
-516.887	71.727	-0.023	-0.024
-515.872	176.124	-0.178	-0.259
-514.858	223.380	-0.109	-0.176
-513.843	-135.387	-0.050	-0.006
-512.829	-62.016	0.206	-0.086
-511.814	-200.000	-0.030	-0.168
-510.799	107.542	-0.039	0.047
-509.785	-89.291	-0.338	0.100
-508.770	-200.000	0.004	0.419
-507.756	66.812	-0.120	-0.123
-506.741	-110.887	0.116	-0.024
-505.726	-193.521	-0.203	0.002
-504.712	172.710	0.167	0.242
-503.697	46.638	0.037	-0.035
-502.683	800.000	-0.031	0.134
-501.668	144.788	-0.239	0.321
-500.653	234.468	0.084	0.140
-499.639	-77.414	0.049	0.017
-498.624	762.602	-0.043	-0.117
-497.610	108.981	0.229	0.275
-496.595	57.167	0.125	-0.123
-495.581	486.596	-0.044	0.100
-494.566	-109.219	0.236	0.050
-493.551	-200.000	0.081	-0.360
-492.537	30.451	0.173	-0.149
-491.522	-200.000	-0.024	0.137
-490.508	-118.215	0.145	0.026
-489.493	-119.290	-0.122	0.021
-488.478	-146.824	0.144	-0.012
-487.464	800.000	0.089	-0.251
-486.449	79.398	-0.138	-0.149
-485.435	-102.112	-0.172	0.042
-484.420	-99.174	-0.303	0.077
-483.405	315.115	0.174	0.330
-482.391	14.414	0.235	-0.184
-481.376	-23.849	0.413	0.248
-480.362	-200.000	0.002	0.111
-479.347	-152.854	0.246	-0.018
-478.332	-200.000	-0.049	-0.257
-477.318	370.151	0.128	0.261
-476.303	-47.706	-0.285	-0.139
-475.289	-96.921	-0.217	0.057
-474.274	-200.000	0.028	-0.219
-473.259	-200.000	0.008	-0.133
-472.245	226.217	0.068	0.111
-471.230	740.888	-0.047	-0.128
-470.216	-66.658	-0.529	-0.211
-469.201	-200.000	-0.009	-0.076
-468.186	-83.410	-0.166	0.053
-467.172	73.771	-0.068	-0.072
-466.157	-49.440	-0.134	0.064
-465.143	-200.000	-0.022	0.217
-464.128	-200.000	-0.058	-0.265
-463.113	-46.837	0.116	0.057
-462.099	92.353	-0.213	0.241
-461.084	151.243	-0.216	-0.295
-460.070	-112.896	0.242	-0.048
-459.055	-51.576	-0.139	0.065
-458.040	800.000	-0.023	0.082
-457.026	-200.000	-0.023	-0.362
-456.011	59.106	0.066	-0.065
-454.997	16.232	-0.169	0.134
-453.982	336.869	-0.060	0.117
-452.968	68.470	-0.056	0.058
-451.953	-58.541	0.213	0.093
-450.938	-136.655	0.231	-0.027
-449.924	-120.532	-0.298	0.051
-448.909	209.740	-0.047	-0.074
-447.895	-200.000	0.022	-0.252
-446.880	-200.000	0.097	0.445
-445.865	210.809	-0.085	-0.134
-444.851	-200.000	0.007	0.191
-443.836	39.736	0.133	0.120
-442.822	-200.000	0.024	0.297
-441.807	33.022	-0.047	0.041
-440.792	177.965	-0.232	-0.340
-439.778	306.508	0.107	0.199
-438.763	56.562	0.134	0.130
-437.749	-161.869	0.362	-0.018
-436.734	-200.000	-0.023	0.181
-435.719	-200.000	-0.006	-0.054
-434.705	-116.174	0.536	0.100
-433.690	49.195	-0.098	-0.092
-432.676	1.822	-0.155	-0.112
-431.661	-200.000	0.018	-0.158
-430.646	-17.089	0.070	-0.044
-429.632	-102.693	-0.428	0.102
-428.617	286.835	0.179	0.325
-427.603	-77.576	-0.157	-0.054
-426.588	52.848	-0.082	-0.078
-425.573	-22.705	-0.018	0.011
-424.559	371.733	0.156	0.317
-423.544	-200.000	0.019	0.160
-422.530	-146.048	0.515	-0.046
-421.515	205.918	0.112	0.175
-420.500	71.826	0.252	-0.263
-419.486	-200.000	-0.030	0.305
-418.471	-176.529	0.154	0.004
-417.457	-121.961	0.283	0.047
-416.442	21.023	-0.298	-0.242
-415.428	197.897	-0.192	-0.294
-414.413	-173.537	0.172	0.005
-413.398	93.943	-0.046	0.053
-412.384	-9.395	-0.214	-0.143
-411.369	800.000	0.013	-0.051
-410.355	-82.199	-0.233	-0.076
-409.340	-200.000	-0.022	-0.196
-408.325	21.209	0.181	0.147
-407.311	-46.212	0.269	0.133
-406.296	79.854	0.245	-0.263
-405.282	800.000	-0.071	0.249
-404.267	324.287	0.074	-0.141
-403.252	-139.369	-0.307	-0.033
-402.238	16.098	0.126	-0.099
-401.223	-200.000	0.010	0.229
-400.209	483.496	0.061	-0.138
-399.194	800.000	0.121	0.456
-398.179	-22.092	0.183	-0.111
-397.165	-91.870	0.098	0.028
-396.150	66.297	0.229	0.233
-395.136	-200.000	0.017	-0.206
-394.121	484.252	0.063	-0.143
-393.106	165.515	0.025	0.035
-392.092	-28.079	-0.193	-0.112
-391.077	357.025	-0.184	0.368
-390.063	-35.338	0.058	0.032
-389.048	635.392	-0.089	0.225
-388.033	225.473	-0.181	0.294
-387.019	59.518	0.453	0.447
-386.004	260.867	-0.172	-0.298
-384.990	163.235	0.122	0.171
-383.975	156.717	0.079	0.109
-382.960	-200.000	0.020	-0.280
-381.946	21.065	0.062	0.051
-380.931	66.554	0.120	0.123
-379.917	161.487	0.132	-0.185
-378.902	-200.000	-0.031	-0.335
-377.888	-1.085	-0.140	-0.099
-376.873	800.000	-0.066	0.195
-375.858	-21.163	-0.070	-0.043
-374.844	99.588	0.178	-0.206
-373.829	179.205	0.150	0.219
-372.815	-75.709	0.244	0.086
-371.800	-150.316	-0.260	-0.020
-370.785	800.000	-0.065	0.233
-369.771	-200.000	-0.046	-0.209
-368.756	15.861	-0.171	0.135
-367.742	536.566	-0.173	-0.411
-366.727	800.000	-0.121	-0.436
-365.712	45.344	-0.247	0.228
-364.698	-113.634	-0.182	0.036
-363.683	-200.000	0.026	-0.204
-362.669	-54.257	0.248	0.113
-361.654	35.152	-0.156	0.136
-360.639	10.549	-0.222	-0.169
-359.625	-151.082	0.176	-0.013
-358.610	-32.703	-0.153	-0.085
-357.596	-45.659	0.083	0.041
-356.581	282.088	-0.128	-0.229
-355.566	-150.972	0.159	0.012
-354.552	-73.450	0.103	-0.038
-353.537	-200.000	0.046	0.200
-352.523	329.816	-0.026	-0.049
-351.508	-129.772	0.197	0.027
-350.493	-200.000	0.000	-0.071
-349.479	800.000	-0.081	-0.259
-348.464	800.000	0.057	0.244
-347.450	28.134	-0.227	-0.192
-346.435	394.091	-0.045	0.093
-345.420	285.286	-0.151	-0.271
-344.406	-200.000	-0.005	-0.298
-343.391	117.116	0.055	0.067
-342.377	118.549	-0.047	-0.058
-341.362	-200.000	0.009	-0.356
-340.348	-57.667	-0.026	0.011
-339.333	-11.318	-0.170	0.112
-338.318	-193.166	0.305	-0.003
-337.304	-200.000	-0.027	-0.146
-336.289	-47.149	-0.244	-0.119
-335.275	-7.454	0.119	-0.080
-334.260	-41.639	0.385	0.197
-333.245	6.719	-0.345	0.256
-332.231	229.244	0.080	0.131
-331.216	-163.502	-0.438	0.021
-330.202	407.212	0.050	0.106
-329.187	800.000	0.124	-0.377
-328.172	14.737	-0.158	-0.123
-327.158	45.361	-0.194	-0.178
-326.143	800.000	0.023	0.075
-325.129	1.010	0.244	-0.175
-324.114	-143.071	-0.250	-0.024
-323.099	58.403	0.148	-0.145
-322.085	-200.000	0.022	-0.437
-321.070	158.685	0.073	0.101
-320.056	-133.078	0.475	-0.060
-319.041	-27.481	-0.270	-0.157
-318.026	-58.626	-0.106	-0.046
-317.012	-114.062	0.247	-0.048
-315.997	-200.000	-0.030	0.371
-314.983	190.130	0.044	0.066
-313.968	-12.756	0.111	-0.072
-312.953	-17.084	0.261	0.164
-311.939	0.808	0.148	0.105
-310.924	-67.837	-0.132	0.052
-309.910	-20.932	-0.226	-0.138
-308.895	-200.000	-0.038	0.222
-307.880	-58.585	0.399	0.173
-306.866	-33.530	0.203	0.112
-305.851	-41.985	-0.276	0.141
-304.837	800.000	0.055	-0.155
-303.822	-8.000	0.157	0.106
-302.807	-126.392	-0.221	0.033
-301.793	-200.000	-0.001	0.007
-300.778	-200.000	0.039	0.402
-299.764	-88.404	-0.415	0.124
-298.749	800.000	0.039	0.132
-297.735	323.755	-0.045	-0.085
-296.720	-49.553	0.341	0.162
-295.705	-135.715	-0.234	-0.028
-294.691	-200.000	0.002	-0.069
-293.676	-200.000	-0.001	0.393
-292.662	574.907	-0.022	0.053
-291.647	2.492	-0.128	-0.092
-290.632	-200.000	-0.036	-0.226
-289.618	-138.049	-0.212	0.024
-288.603	301.640	0.144	0.265
-287.589	-100.306	0.180	0.045
-286.574	62.118	0.299	-0.298
-285.559	40.388	-0.107	-0.096
-284.545	-72.756	-0.141	-0.052
-283.530	800.000	-0.054	0.163
-282.516	800.000	-0.083	0.257
-281.501	101.424	0.093	0.108
-280.486	230.264	0.081	0.132
-279.472	-200.000	-0.012	-0.077
-278.457	-55.464	0.143	-0.064
-277.443	-200.000	0.040	0.183
-276.428	-200.000	-0.034	0.213
-275.413	-40.245	-0.354	0.184
-274.399	593.874	-0.085	0.211
-273.384	234.818	-0.140	-0.230
-272.370	-141.928	0.207	0.021
-271.355	-144.793	-0.130	-0.012
-270.340	150.786	-0.192	0.260
-269.326	-37.572	0.157	0.084
-268.311	60.883	-0.110	-0.109
-267.297	302.617	-0.109	0.200
-266.282	-110.234	-0.509	0.106
-265.267	-40.229	-0.162	-0.084
-264.253	130.201	-0.037	-0.048
-263.238	800.000	-0.034	0.142
-262.224	800.000	0.040	-0.130
-261.209	800.000	-0.102	-0.291
-260.195	172.707	0.044	-0.063
-259.180	-200.000	-0.076	-0.416
-258.165	800.000	-0.060	0.209
-257.151	-200.000	-0.056	0.259
-256.136	370.704	0.113	0.227
-255.122	224.615	0.058	0.093
-254.107	315.783	-0.284	-0.533
-253.092	-200.000	0.004	0.463
-252.078	78.823	0.057	0.061
-251.063	-107.839	0.138	-0.030
-250.049	-200.000	0.022	0.110
-249.034	-73.012	0.143	-0.052
-248.019	-17.990	-0.133	-0.083
-247.005	113.228	-0.178	-0.214
-245.990	-179.204	0.019	0.000
-244.976	140.071	0.158	-0.207
-243.961	315.653	-0.102	0.191
-242.946	229.669	0.069	-0.113
-241.932	-200.000	0.046	-0.274
-240.917	55.550	0.128	-0.123
-239.903	56.057	-0.125	-0.121
-238.888	48.891	-0.215	-0.201
-237.873	26.697	0.192	-0.160
-236.859	-200.000	-0.012	0.230
-235.844	191.536	-0.199	0.298
-234.830	-79.316	0.160	0.054
-233.815	440.990	-0.084	-0.182
-232.800	800.000	-0.064	-0.190
-231.786	417.014	-0.060	-0.128
-230.771	-200.000	-0.019	0.304
-229.757	-200.000	0.071	0.410
-228.742	64.450	0.074	0.074
-227.727	-47.156	0.057	-0.028
-226.713	-53.971	-0.090	-0.041
-225.698	-200.000	-0.015	0.096
-224.684	510.979	-0.105	-0.242
-223.669	-73.294	-0.108	-0.039
-222.655	427.549	0.250	-0.536
-221.640	-200.000	-0.010	0.185
-220.625	-118.569	0.242	-0.043
-219.611	-200.000	-0.026	-0.456
-218.596	-162.044	-0.118	0.006
-217.582	-56.409	-0.146	0.064
-216.567	-78.073	-0.162	0.055
-215.552	193.158	0.215	0.323
-214.538	271.658	0.032	-0.057
-213.523	-200.000	-0.035	0.203
-212.509	44.314	-0.253	0.231
-211.494	701.123	-0.084	0.220
-210.479	72.966	-0.209	-0.217
-209.465	-172.486	0.071	-0.002
-208.450	106.537	0.096	-0.113
-207.436	-65.462	-0.297	-0.118
-206.421	-3.408	0.207	-0.143
-205.406	-200.000	-0.066	0.412
-204.392	-200.000	-0.014	0.073
-203.377	108.001	-0.244	0.289
-202.363	227.201	-0.079	0.127
-201.348	-62.925	0.133	0.054
-200.333	467.487	-0.235	-0.524
-199.319	-27.464	0.167	-0.096
-198.304	-133.589	-0.295	-0.037
-197.290	-176.402	0.126	0.003
-196.275	119.026	0.126	0.154
-195.260	-59.336	-0.348	-0.149
-194.246	-200.000	0.007	-0.099
-193.231	800.000	0.088	-0.258
-192.217	-108.425	0.425	-0.091
-191.202	149.131	0.162	0.218
-190.187	-89.818	-0.277	0.080
-189.173	-86.893	-0.272	0.082
-188.158	-4.375	-0.180	0.124
-187.144	-200.000	-0.015	-0.105
-186.129	321.920	-0.135	0.256
-185.114	34.583	-0.221	0.191
-184.100	-200.000	-0.023	-0.228
-183.085	-85.885	-0.003	0.001
-182.071	128.191	-0.063	-0.080
-181.056	-116.451	0.206	0.038
-180.042	-143.634	-0.170	0.016
-179.027	-24.664	0.378	0.223
-178.012	-70.957	0.360	-0.134
-176.998	-20.329	0.193	-0.118
-175.983	-200.000	0.008	0.128
-174.969	152.397	0.091	0.123
-173.954	-173.368	0.448	0.013
-172.939	530.254	0.127	-0.297
-171.925	-200.000	0.048	-0.386
-170.910	366.987	-0.151	0.302
-169.896	-56.634	0.061	-0.027
-168.881	800.000	-0.023	0.070
-167.866	109.754	-0.090	0.107
-166.852	-200.000	0.020	-0.291
-165.837	-3.279	0.133	-0.092
-164.823	-135.100	-0.306	-0.037
-163.808	291.327	-0.227	0.409
-162.793	-154.217	0.199	0.013
-161.779	800.000	0.044	0.157
-160.764	-200.000	0.038	0.202
-159.750	93.333	0.118	-0.133
-158.735	-163.211	0.084	0.004
-157.720	37.760	-0.060	-0.053
-156.706	293.324	-0.095	0.171
-155.691	-200.000	0.053	-0.257
-154.677	245.449	0.102	-0.170
-153.662	-200.000	0.038	0.243
-152.647	38.088	0.301	0.266
-151.633	-200.000	-0.062	-0.310
-150.618	-16.622	0.153	-0.096
-149.604	800.000	-0.044	0.163
-148.589	-44.176	-0.280	-0.139
-147.574	492.242	0.101	0.229
-146.560	-200.000	-0.002	0.434
-145.545	2.486	-0.239	0.172
-144.531	-173.310	0.276	-0.008
-143.516	-117.619	-0.381	-0.068
-142.502	117.166	0.054	0.065
-141.487	181.174	0.079	0.115
-140.472	800.000	-0.058	-0.196
-139.458	219.074	-0.138	0.219
-138.443	800.000	-0.082	0.287
-137.429	800.000	-0.033	-0.126
-136.414	-2.882	0.236	-0.164
-135.399	9.980	0.235	0.177
-134.385	312.877	0.282	0.525
-133.370	728.977	-0.020	-0.053
-132.356	-113.258	-0.089	-0.017
-131.341	74.855	-0.098	0.103
-130.326	751.938	0.076	0.203
-129.312	-200.000	-0.024	-0.141
-128.297	800.000	-0.062	0.248
-127.283	-109.565	0.228	0.048
-126.268	-45.623	-0.229	0.112
-125.253	248.474	-0.130	-0.218
-124.239	145.382	0.042	0.056
-123.224	-55.099	0.143	-0.064
-122.210	-53.832	-0.286	0.129
-121.195	-101.805	0.141	-0.034
