DTS Sentinel unit serial number:	SN413079Multiplexer serial number:	ORYXHardware model number:	OX4-SRSoftware version number:	ORYX F/W v4.00 Oryx Data Collector v3.7.2.0data status	okinstallation	princeton_trtdifferential loss correction	single-endedforward channel	channel 2reverse channel	N/Adate	2019/09/14time	06:19:35forward acquisition time	60.00reverse acquisition time	0.00gamma	496.2192k internal	0.2336k external	0.2336temperature offset calibration	1.0132default loss term (dB/km)	0.3790temperature slope calibration	1.0000multiplexer offset coefficient	1.0000multiplexer slope coefficient	1.0000fibre end	0.00T internal ref (°C)	26.62T ext. ref 1 (°C)	3.40T ext. ref 2 (°C)	20.60length (m)	temperature (°C)	Stokes	anti-Stokes-747.200	-173.570	0.403	-0.012
-746.185	-29.486	0.208	-0.119
-745.171	-6.816	0.056	-0.038
-744.156	-11.502	-0.071	0.047
-743.142	800.000	-0.071	0.215
-742.127	-200.000	-0.035	-0.169
-741.112	-200.000	-0.008	-0.238
-740.098	782.155	-0.133	0.365
-739.083	-62.874	0.254	0.106
-738.069	-200.000	0.008	0.127
-737.054	-73.788	-0.142	0.052
-736.039	-49.912	-0.229	-0.109
-735.025	-200.000	-0.047	0.411
-734.010	-79.393	-0.043	-0.015
-732.996	41.487	-0.055	0.050
-731.981	-23.623	-0.351	0.212
-730.966	-30.668	-0.322	-0.183
-729.952	-200.000	0.018	-0.389
-728.937	48.348	-0.245	0.230
-727.923	-200.000	0.021	0.183
-726.908	-133.249	-0.199	-0.025
-725.894	800.000	-0.036	0.138
-724.879	395.224	-0.061	-0.127
-723.864	235.118	0.140	0.233
-722.850	800.000	-0.114	0.317
-721.835	-200.000	0.009	-0.070
-720.821	176.939	0.157	0.230
-719.806	800.000	-0.062	0.193
-718.791	172.109	0.037	-0.053
-717.777	-200.000	-0.024	-0.394
-716.762	-0.506	0.114	0.081
-715.748	-200.000	-0.001	-0.052
-714.733	34.432	-0.120	0.105
-713.718	-48.158	0.132	0.064
-712.704	61.425	-0.056	0.056
-711.689	15.586	0.066	0.052
-710.675	800.000	0.051	-0.174
-709.660	-50.065	-0.119	-0.057
-708.645	744.981	0.056	0.151
-707.631	1.431	-0.306	0.221
-706.616	-83.493	0.268	0.086
-705.602	227.818	-0.093	-0.151
-704.587	-7.418	-0.114	-0.077
-703.572	-52.400	-0.121	-0.056
-702.558	-60.937	-0.314	-0.133
-701.543	-109.373	0.078	-0.017
-700.529	-142.542	-0.090	0.009
-699.514	-64.018	-0.060	0.024
-698.499	7.835	0.175	0.131
-697.485	126.977	0.264	-0.335
-696.470	-200.000	-0.041	0.230
-695.456	50.860	-0.021	0.020
-694.441	78.150	-0.430	-0.459
-693.426	-200.000	-0.008	-0.139
-692.412	800.000	-0.146	0.471
-691.397	-94.866	-0.247	0.067
-690.383	-28.254	0.110	-0.064
-689.368	800.000	-0.095	0.315
-688.354	-9.701	0.295	0.197
-687.339	138.703	0.113	0.149
-686.324	-70.971	-0.171	-0.065
-685.310	-119.213	-0.202	0.035
-684.295	73.101	0.343	-0.359
-683.281	-18.193	0.068	0.042
-682.266	63.767	-0.093	-0.094
-681.251	-70.687	0.062	-0.023
-680.237	800.000	-0.020	0.084
-679.222	169.180	0.235	-0.336
-678.208	38.885	-0.248	-0.222
-677.193	170.777	0.039	-0.056
-676.178	-39.490	0.377	0.198
-675.164	-42.822	0.150	0.076
-674.149	-36.083	-0.311	-0.168
-673.135	12.419	-0.130	0.100
-672.120	-200.000	-0.005	-0.137
-671.105	-19.996	-0.138	0.085
-670.091	6.206	-0.135	-0.100
-669.076	448.712	0.038	-0.084
-668.062	26.061	0.113	-0.094
-667.047	38.372	0.117	0.105
-666.032	-76.341	-0.258	0.091
-665.018	800.000	0.144	-0.526
-664.003	11.836	0.383	-0.295
-662.989	-200.000	0.024	-0.171
-661.974	-111.079	-0.185	0.038
-660.959	3.329	0.332	-0.242
-659.945	800.000	0.021	0.061
-658.930	-200.000	0.047	-0.554
-657.916	-52.770	0.288	-0.133
-656.901	-200.000	0.003	-0.206
-655.886	-200.000	0.005	-0.215
-654.872	-109.047	0.148	0.032
-653.857	800.000	-0.067	-0.291
-652.843	-200.000	0.050	-0.240
-651.828	-134.674	-0.230	-0.028
-650.814	-68.826	0.457	0.177
-649.799	-60.978	-0.077	-0.032
-648.784	-6.928	-0.189	-0.128
-647.770	98.239	-0.170	0.195
-646.755	-200.000	0.005	0.208
-645.741	-41.053	-0.218	-0.112
-644.726	800.000	0.068	-0.235
-643.711	67.434	0.150	-0.153
-642.697	800.000	0.120	0.419
-641.682	-200.000	-0.021	0.172
-640.668	-13.887	-0.367	-0.237
-639.653	312.817	-0.170	-0.320
-638.638	48.180	-0.253	0.237
-637.624	158.284	-0.203	0.282
-636.609	403.113	0.185	-0.390
-635.595	-86.390	0.343	-0.105
-634.580	709.955	-0.124	0.327
-633.565	-41.898	-0.101	-0.052
-632.551	-200.000	0.062	-0.285
-631.536	208.958	0.169	0.265
-630.522	98.311	-0.068	-0.078
-629.507	-200.000	0.031	-0.387
-628.492	-200.000	-0.049	-0.247
-627.478	-200.000	0.017	0.333
-626.463	-12.477	0.084	-0.055
-625.449	-46.178	-0.138	-0.068
-624.434	53.236	-0.221	0.211
-623.419	465.479	-0.059	-0.133
-622.405	198.915	0.159	-0.244
-621.390	-96.950	0.179	0.047
-620.376	87.865	0.174	-0.193
-619.361	448.357	-0.135	0.297
-618.346	-84.021	-0.550	-0.175
-617.332	-34.159	0.179	-0.098
-616.317	800.000	0.065	0.193
-615.303	220.520	0.185	0.297
-614.288	22.780	0.139	0.113
-613.273	800.000	0.021	-0.091
-612.259	141.509	0.094	-0.124
-611.244	-3.012	0.228	0.159
-610.230	-121.837	-0.218	0.036
-609.215	-200.000	-0.000	-0.362
-608.201	31.355	0.108	-0.093
-607.186	223.969	0.077	0.124
-606.171	541.212	0.095	-0.226
-605.157	-33.295	0.160	-0.089
-604.142	-168.000	0.146	-0.006
-603.128	-99.114	-0.212	0.054
-602.113	117.390	0.219	-0.269
-601.098	14.515	0.310	0.242
-600.084	-200.000	-0.007	0.368
-599.069	218.848	-0.084	-0.133
-598.055	-71.937	-0.010	-0.004
-597.040	322.774	-0.160	-0.304
-596.025	139.731	0.157	0.206
-595.011	-100.624	0.211	0.052
-593.996	-31.408	-0.222	-0.124
-592.982	-28.136	0.256	0.148
-591.967	-4.574	0.186	0.128
-590.952	-108.138	-0.480	-0.104
-589.938	348.793	0.124	0.244
-588.923	800.000	-0.065	0.275
-587.909	-200.000	0.001	-0.171
-586.894	-200.000	0.007	0.193
-585.879	-80.276	-0.094	0.031
-584.865	-97.734	0.250	-0.065
-583.850	218.374	0.093	0.148
-582.836	-4.415	-0.273	0.188
-581.821	213.937	-0.176	0.278
-580.806	-200.000	0.025	0.173
-579.792	-21.877	0.221	-0.134
-578.777	479.413	0.053	0.120
-577.763	-200.000	0.065	0.285
-576.748	-147.295	0.506	0.043
-575.733	800.000	-0.160	-0.490
-574.719	49.251	0.288	-0.270
-573.704	3.495	0.157	0.114
-572.690	260.400	-0.190	-0.328
-571.675	182.749	0.150	-0.221
-570.661	800.000	-0.085	-0.262
-569.646	800.000	0.051	-0.180
-568.631	-73.741	-0.211	0.077
-567.617	343.142	0.079	-0.154
-566.602	-135.783	-0.409	0.048
-565.588	-133.907	0.191	-0.024
-564.573	132.555	-0.268	0.344
-563.558	-93.182	0.432	0.120
-562.544	800.000	0.054	0.209
-561.529	-99.603	-0.346	0.087
-560.515	149.449	0.078	-0.105
-559.500	-200.000	0.027	0.177
-558.485	-196.500	-0.616	-0.004
-557.471	364.734	-0.064	-0.129
-556.456	50.878	-0.072	-0.068
-555.442	-24.451	-0.120	0.071
-554.427	-139.107	0.304	-0.033
-553.412	-200.000	0.009	0.295
-552.398	800.000	-0.024	0.076
-551.383	800.000	-0.072	-0.280
-550.369	-72.430	0.375	0.138
-549.354	149.044	-0.169	-0.228
-548.339	-171.040	-0.491	0.017
-547.325	800.000	0.045	-0.163
-546.310	-85.113	-0.147	-0.046
-545.296	11.405	-0.146	-0.111
-544.281	186.634	-0.010	0.015
-543.266	-41.183	-0.213	0.109
-542.252	144.080	0.108	-0.143
-541.237	-200.000	-0.118	-0.740
-540.223	-84.245	0.296	0.093
-539.208	-72.628	-0.133	-0.049
-538.193	56.586	0.129	0.125
-537.179	800.000	-0.016	-0.061
-536.164	149.684	0.010	-0.013
-535.150	-200.000	0.031	-0.210
-534.135	-98.421	-0.358	-0.091
-533.121	-71.822	-0.172	-0.064
-532.106	144.296	0.127	-0.169
-531.091	-148.463	0.199	0.016
-530.077	185.195	0.143	-0.211
-529.062	363.836	0.019	0.039
-528.048	278.021	-0.057	0.101
-527.033	295.633	0.221	0.403
-526.018	-0.455	0.154	0.109
-525.004	-79.677	-0.038	0.013
-523.989	30.669	0.286	-0.244
-522.975	-34.758	-0.091	0.050
-521.960	-29.920	-0.059	-0.033
-520.945	-200.000	-0.022	0.322
-519.931	434.551	-0.076	0.165
-518.916	-152.032	-0.126	0.009
-517.902	800.000	0.065	-0.187
-516.887	22.745	0.149	0.121
-515.872	-200.000	0.095	0.594
-514.858	800.000	-0.054	0.157
-513.843	193.569	-0.024	-0.037
-512.829	-137.796	0.368	-0.041
-511.814	-200.000	0.059	-0.398
-510.799	-110.198	-0.244	-0.051
-509.785	-37.596	0.152	0.080
-508.770	-156.633	0.170	-0.010
-507.756	-33.568	0.099	0.054
-506.741	-200.000	0.000	0.006
-505.726	-110.662	-0.221	-0.046
-504.712	183.867	-0.030	0.044
-503.697	714.412	0.049	-0.130
-502.683	120.621	-0.165	0.204
-501.668	262.609	-0.101	0.175
-500.653	-50.794	0.524	-0.245
-499.639	-43.964	-0.097	-0.048
-498.624	-130.741	-0.230	0.031
-497.610	61.818	-0.157	-0.156
-496.595	48.402	0.234	-0.218
-495.581	422.732	0.105	-0.225
-494.566	-160.867	0.092	0.005
-493.551	-200.000	-0.030	0.336
-492.537	-141.137	0.145	0.015
-491.522	-119.546	0.155	0.027
-490.508	-125.463	-0.189	-0.029
-489.493	-200.000	0.032	0.169
-488.478	-45.933	0.242	0.119
-487.464	-101.183	0.227	-0.055
-486.449	-87.263	0.432	-0.130
-485.435	-5.356	0.163	0.111
-484.420	37.647	-0.149	-0.132
-483.405	-200.000	-0.011	0.137
-482.391	-86.973	0.021	-0.006
-481.376	-63.704	0.145	-0.059
-480.362	-113.520	-0.690	0.134
-479.347	-78.457	-0.105	-0.036
-478.332	63.209	0.204	-0.203
-477.318	-200.000	0.008	-0.266
-476.303	-78.095	-0.101	0.035
-475.289	85.417	0.082	-0.089
-474.274	-7.509	-0.157	0.105
-473.259	25.919	0.074	0.062
-472.245	-200.000	0.001	0.135
-471.230	345.087	0.150	0.293
-470.216	43.321	0.156	0.142
-469.201	-104.452	0.304	-0.070
-468.186	-159.078	0.136	-0.008
-467.172	-200.000	0.047	0.211
-466.157	-143.148	0.095	-0.009
-465.143	-200.000	0.000	0.013
-464.128	276.500	-0.046	-0.081
-463.113	-200.000	0.063	-0.326
-462.099	-79.518	-0.271	0.091
-461.084	-200.000	0.045	0.224
-460.070	-200.000	0.013	-0.149
-459.055	-129.173	-0.315	0.044
-458.040	-62.350	-0.047	0.019
-457.026	-62.490	-0.087	0.036
-456.011	-153.216	-0.050	-0.003
-454.997	-138.124	0.194	-0.021
-453.982	800.000	-0.136	0.551
-452.968	-200.000	0.007	0.205
-451.953	96.479	0.303	0.345
-450.938	-1.750	0.089	0.062
-449.924	286.378	0.124	0.222
-448.909	164.430	-0.272	0.380
-447.895	-73.006	0.188	0.069
-446.880	23.150	0.143	0.116
-445.865	-15.408	-0.181	0.115
-444.851	147.398	-0.131	0.174
-443.836	-41.352	-0.074	0.038
-442.822	-137.231	-0.120	-0.013
-441.807	206.891	0.149	-0.231
-440.792	-49.043	-0.113	0.054
-439.778	581.917	0.102	0.248
-438.763	-200.000	-0.027	0.213
-437.749	-200.000	0.014	-0.070
-436.734	-200.000	0.009	-0.269
-435.719	800.000	-0.037	-0.113
-434.705	-140.188	0.459	-0.048
-433.690	374.575	0.059	-0.120
-432.676	-200.000	0.012	-0.323
-431.661	205.411	0.124	-0.191
-430.646	212.508	-0.116	-0.182
-429.632	9.318	-0.154	0.115
-428.617	-200.000	-0.004	-0.054
-427.603	-87.914	0.078	0.023
-426.588	93.152	-0.126	0.141
-425.573	12.881	-0.055	0.042
-424.559	-87.016	-0.360	0.109
-423.544	-200.000	-0.001	0.035
-422.530	-0.403	-0.338	0.238
-421.515	699.011	0.168	0.439
-420.500	-61.881	0.138	-0.057
-419.486	-200.000	0.072	0.376
-418.471	125.315	0.107	0.134
-417.457	800.000	0.046	-0.174
-416.442	46.036	0.133	-0.122
-415.428	1.278	0.253	0.180
-414.413	-170.646	-0.220	0.008
-413.398	523.084	-0.027	0.062
-412.384	183.362	0.146	-0.214
-411.369	281.109	-0.042	-0.074
-410.355	-42.421	-0.040	-0.020
-409.340	133.299	0.282	-0.361
-408.325	-13.292	-0.097	-0.063
-407.311	91.883	0.026	0.029
-406.296	56.049	0.116	-0.112
-405.282	239.773	0.111	-0.184
-404.267	119.372	-0.145	0.178
-403.252	-1.350	0.193	-0.135
-402.238	-51.445	0.282	0.131
-401.223	800.000	0.065	-0.217
-400.209	-200.000	0.035	-0.316
-399.194	57.807	-0.281	0.272
-398.179	494.867	0.084	0.192
-397.165	-39.206	-0.208	0.108
-396.150	271.149	0.048	-0.084
-395.136	-71.857	-0.303	-0.112
-394.121	-19.241	0.199	-0.122
-393.106	-200.000	-0.004	-0.259
-392.092	-144.399	-0.334	-0.031
-391.077	-140.828	0.440	-0.045
-390.063	-200.000	-0.087	0.406
-389.048	-65.312	0.185	-0.074
-388.033	4.701	-0.205	0.149
-387.019	800.000	0.117	0.416
-386.004	156.534	-0.142	0.194
-384.990	18.368	0.042	0.033
-383.975	575.645	0.076	-0.185
-382.960	-200.000	0.007	-0.068
-381.946	-42.840	0.351	-0.176
-380.931	-61.682	-0.133	0.055
-379.917	-146.793	-0.331	0.028
-378.902	-102.502	0.384	0.091
-377.888	0.783	-0.146	-0.103
-376.873	-200.000	-0.051	0.365
-375.858	61.840	-0.201	-0.198
-374.844	800.000	0.098	-0.273
-373.829	-85.984	0.448	-0.137
-372.815	-8.721	-0.223	-0.148
-371.800	4.466	0.041	-0.030
-370.785	29.447	-0.072	0.061
-369.771	-162.376	-0.244	-0.012
-368.756	-71.969	-0.404	-0.149
-367.742	141.706	-0.038	-0.049
-366.727	-200.000	-0.019	-0.129
-365.712	-200.000	0.021	-0.252
-364.698	-62.930	-0.055	0.023
-363.683	398.118	0.121	-0.251
-362.669	-200.000	-0.003	0.328
-361.654	55.336	-0.196	-0.188
-360.639	31.332	-0.141	0.120
-359.625	-47.924	0.320	-0.153
-358.610	-9.506	0.136	0.090
-357.596	-200.000	0.030	0.195
-356.581	-83.644	-0.164	-0.052
-355.566	-121.428	-0.193	0.032
-354.552	-105.091	-0.341	0.077
-353.537	25.500	0.243	-0.200
-352.523	91.326	-0.188	0.208
-351.508	1.969	0.078	-0.056
-350.493	-29.848	-0.315	-0.177
-349.479	-75.653	0.263	0.092
-348.464	13.346	0.055	-0.042
-347.450	-63.465	-0.074	-0.030
-346.435	-200.000	0.036	-0.404
-345.420	800.000	-0.026	0.109
-344.406	-191.151	0.124	0.001
-343.391	-200.000	-0.240	-0.001
-342.377	-200.000	-0.006	-0.276
-341.362	-86.807	0.321	-0.097
-340.348	-69.044	0.170	-0.065
-339.333	226.080	0.059	-0.094
-338.318	219.564	0.041	0.065
-337.304	21.101	-0.246	0.197
-336.289	-100.978	-0.154	-0.037
-335.275	-200.000	0.050	0.223
-334.260	-75.358	0.197	0.069
-333.245	38.451	0.053	-0.047
-332.231	60.162	0.094	0.092
-331.216	58.564	0.123	0.119
-330.202	800.000	0.046	-0.127
-329.187	-107.575	-0.200	0.043
-328.172	20.293	0.140	0.112
-327.158	237.302	-0.071	-0.117
-326.143	37.816	-0.154	-0.135
-325.129	47.888	-0.069	0.064
-324.114	800.000	0.053	-0.166
-323.099	436.320	0.067	-0.144
-322.085	227.639	-0.100	-0.161
-321.070	123.322	-0.108	0.133
-320.056	346.923	-0.090	0.176
-319.041	-194.715	-0.326	-0.003
-318.026	736.455	-0.063	-0.168
-317.012	-200.000	0.010	-0.061
-315.997	18.159	0.244	-0.192
-314.983	-30.956	-0.201	-0.112
-313.968	19.643	0.042	0.034
-312.953	-42.831	-0.044	-0.022
-311.939	-71.870	-0.256	-0.094
-310.924	-37.932	0.202	-0.106
-309.910	-200.000	0.024	0.300
-308.895	-200.000	0.004	0.136
-307.880	-78.372	-0.274	0.093
-306.866	769.476	0.066	0.177
-305.851	-152.693	0.444	0.031
-304.837	-113.410	0.124	-0.024
-303.822	-200.000	0.138	0.001
-302.807	-127.518	0.417	0.060
-301.793	-200.000	0.027	0.260
-300.778	-200.000	-0.024	-0.217
-299.764	-200.000	-0.035	-0.215
-298.749	499.279	-0.159	-0.363
-297.735	-181.415	0.073	-0.001
-296.720	-200.000	0.011	0.369
-295.705	89.047	-0.270	0.297
-294.691	594.415	0.078	0.189
-293.676	-115.511	-0.145	0.027
-292.662	-69.821	0.257	0.097
-291.647	-61.679	-0.077	-0.032
-290.632	-102.135	0.174	0.041
-289.618	-110.265	0.247	-0.051
-288.603	-107.209	-0.356	-0.077
-287.589	800.000	-0.064	0.267
-286.574	77.981	0.106	0.112
-285.559	478.115	0.034	0.076
-284.545	800.000	0.158	0.532
-283.530	781.978	-0.078	-0.211
-282.516	261.094	0.115	-0.196
-281.501	-154.277	-0.249	0.017
-280.486	-154.474	0.350	0.023
-279.472	-127.288	0.225	-0.032
-278.457	-21.477	0.085	-0.051
-277.443	-98.415	-0.095	0.024
-276.428	-90.878	-0.255	-0.072
-275.413	188.576	-0.322	-0.475
-274.399	-147.260	0.331	-0.028
-273.384	-154.887	-0.455	-0.030
-272.370	135.761	-0.031	-0.040
-271.355	-138.743	0.059	0.006
-270.340	-200.000	0.008	-0.347
-269.326	-53.071	-0.146	0.066
-268.311	146.930	-0.081	-0.108
-267.297	800.000	0.059	-0.170
-266.282	-200.000	0.032	-0.201
-265.267	-200.000	0.000	0.111
-264.253	602.110	0.027	-0.067
-263.238	800.000	-0.032	0.089
-262.224	113.649	0.174	0.208
-261.209	-80.474	0.259	0.085
-260.195	10.920	0.315	0.237
-259.180	-129.630	-0.185	-0.025
-258.165	168.974	0.105	-0.148
-257.151	-200.000	-0.018	0.219
-256.136	14.059	0.212	0.163
-255.122	-82.502	0.354	-0.113
-254.107	180.845	-0.060	-0.087
-253.092	47.313	-0.290	0.266
-252.078	-200.000	-0.024	-0.296
-251.063	364.067	0.153	-0.303
-250.049	441.412	-0.006	0.012
-249.034	-157.627	0.072	0.004
-248.019	328.758	-0.073	-0.138
-247.005	-16.921	-0.488	-0.304
-245.990	-5.428	-0.351	0.237
-244.976	-47.609	0.304	-0.145
-243.961	57.813	0.129	-0.124
-242.946	-112.121	-0.310	0.061
-241.932	-8.920	-0.112	-0.074
-240.917	102.669	0.316	-0.365
-239.903	-35.019	0.107	0.057
-238.888	101.939	0.086	0.099
-237.873	-55.302	0.220	-0.097
-236.859	100.607	-0.126	-0.144
-235.844	22.099	-0.378	-0.303
-234.830	-107.767	0.489	-0.105
-233.815	-77.149	-0.134	-0.046
-232.800	-200.000	0.002	-0.061
-231.786	91.607	-0.127	0.140
-230.771	-29.064	-0.278	0.157
-229.757	-200.000	0.037	0.180
-228.742	316.968	-0.100	0.185
-227.727	-74.877	0.516	-0.182
-226.713	-200.000	-0.001	0.208
-225.698	-47.198	0.283	0.136
-224.684	114.832	0.046	0.055
-223.669	-121.159	-0.329	0.054
-222.655	-157.299	-0.133	-0.008
-221.640	-200.000	-0.091	0.508
-220.625	800.000	-0.064	0.203
-219.611	-70.350	-0.257	-0.096
-218.596	210.573	-0.032	0.049
-217.582	800.000	-0.096	0.261
-216.567	438.095	0.135	0.290
-215.552	800.000	-0.063	-0.206
-214.538	428.958	-0.022	0.047
-213.523	-39.525	0.323	-0.166
-212.509	-94.424	-0.363	-0.097
-211.494	800.000	0.089	-0.277
-210.479	-62.145	0.323	0.133
-209.465	436.750	-0.010	-0.022
-208.450	116.228	0.067	-0.081
-207.436	-200.000	-0.009	-0.118
-206.421	324.463	-0.146	-0.274
-205.406	-108.253	-0.180	0.038
-204.392	459.684	-0.100	-0.218
-203.377	556.382	-0.169	0.400
-202.363	-19.799	0.170	0.103
-201.348	8.946	-0.261	-0.193
-200.333	-136.836	0.171	-0.019
-199.319	-128.383	-0.222	-0.031
-198.304	-200.000	-0.008	-0.130
-197.290	-200.000	-0.062	-0.374
-196.275	363.031	-0.064	-0.127
-195.260	800.000	-0.069	-0.239
-194.246	62.359	0.155	-0.152
-193.231	665.020	0.166	0.421
-192.217	-14.425	0.311	0.197
-191.202	207.178	-0.064	0.098
-190.187	-143.227	-0.092	-0.009
-189.173	-65.412	0.059	0.023
-188.158	-91.460	-0.229	0.064
-187.144	-45.339	-0.285	-0.139
-186.129	-43.229	0.251	0.125
-185.114	81.506	0.174	0.184
-184.100	77.926	-0.237	0.249
-183.085	3.210	0.081	-0.058
-182.071	-135.722	-0.265	0.031
-181.056	-49.378	0.255	-0.119
-180.042	133.189	-0.098	-0.125
-179.027	413.669	-0.008	-0.017
-178.012	-165.314	0.187	-0.008
-176.998	-81.357	-0.103	-0.033
-175.983	-200.000	0.008	-0.071
-174.969	-200.000	0.012	0.295
-173.954	-64.481	0.195	0.078
-172.939	-200.000	-0.003	-0.091
-171.925	-154.566	0.130	0.009
-170.910	-32.068	-0.464	0.255
-169.896	75.609	-0.067	0.069
-168.881	-200.000	-0.011	-0.441
-167.866	-200.000	-0.002	-0.278
-166.852	-200.000	0.001	-0.081
-165.837	-147.842	0.310	-0.025
-164.823	-4.791	-0.125	0.085
-163.808	24.034	-0.194	0.157
-162.793	800.000	-0.108	-0.336
-161.779	34.410	-0.140	-0.120
-160.764	18.605	-0.253	0.199
-159.750	-133.436	0.064	0.008
-158.735	1.355	-0.420	0.296
-157.720	30.072	-0.180	0.151
-156.706	-200.000	0.021	-0.113
-155.691	114.835	0.049	-0.059
-154.677	33.343	-0.047	-0.040
-153.662	-200.000	0.036	0.161
-152.647	-200.000	-0.033	-0.175
-151.633	24.902	-0.262	0.213
-150.618	-91.916	-0.098	-0.027
-149.604	-31.621	-0.300	-0.165
-148.589	451.678	-0.088	0.190
-147.574	800.000	0.008	-0.026
-146.560	-200.000	-0.018	0.121
-145.545	800.000	-0.038	-0.122
-144.531	-200.000	-0.054	-0.268
-143.516	-200.000	0.003	-0.182
-142.502	-46.745	0.324	-0.156
-141.487	51.878	0.129	-0.120
-140.472	-200.000	-0.021	-0.111
-139.458	-200.000	0.009	0.115
-138.443	-16.165	-0.087	-0.054
-137.429	89.291	-0.219	0.239
-136.414	259.510	0.116	-0.196
-135.399	800.000	0.093	0.256
-134.385	-10.862	-0.040	0.026
-133.370	-200.000	0.050	0.310
-132.356	-74.977	0.163	-0.057
-131.341	-33.499	-0.130	0.071
-130.326	800.000	0.081	0.298
-129.312	-67.930	-0.103	0.039
-128.297	-96.645	0.239	0.062
-127.283	-76.341	0.115	-0.040
-126.268	301.976	0.047	-0.086
-125.253	162.132	0.212	-0.291
-124.239	-200.000	-0.032	-0.273
-123.224	15.099	-0.122	0.094
-122.210	-80.916	-0.159	-0.052
-121.195	-159.577	0.149	0.008
