DTS Sentinel unit serial number:	SN413079Multiplexer serial number:	ORYXHardware model number:	OX4-SRSoftware version number:	ORYX F/W v4.00 Oryx Data Collector v3.7.2.0data status	okinstallation	princeton_trtdifferential loss correction	single-endedforward channel	channel 2reverse channel	N/Adate	2019/09/16time	00:27:34forward acquisition time	60.00reverse acquisition time	0.00gamma	496.2192k internal	0.2337k external	0.2337temperature offset calibration	0.9958default loss term (dB/km)	0.3790temperature slope calibration	1.0000multiplexer offset coefficient	1.0000multiplexer slope coefficient	1.0000fibre end	0.00T internal ref (°C)	27.59T ext. ref 1 (°C)	9.54T ext. ref 2 (°C)	21.59length (m)	temperature (°C)	Stokes	anti-Stokes-747.200	-105.300	0.280	-0.064
-746.185	-93.260	-0.399	0.111
-745.171	800.000	0.072	-0.278
-744.156	30.000	-0.087	0.074
-743.142	-152.697	-0.108	0.008
-742.127	-58.263	-0.256	0.112
-741.112	-81.787	0.027	-0.009
-740.098	-142.751	-0.143	-0.014
-739.083	738.958	0.038	-0.103
-738.069	-40.937	-0.287	-0.149
-737.054	-117.025	0.133	0.024
-736.039	-200.000	-0.007	0.136
-735.025	-56.401	-0.092	0.041
-734.010	800.000	-0.040	0.119
-732.996	-200.000	0.018	-0.102
-731.981	494.201	-0.086	-0.197
-730.966	-200.000	-0.006	-0.165
-729.952	432.678	-0.099	-0.216
-728.937	-101.603	-0.417	0.102
-727.923	-77.271	-0.123	-0.043
-726.908	-180.258	0.268	-0.006
-725.894	-2.755	-0.117	0.082
-724.879	-151.143	-0.073	0.005
-723.864	-119.951	-0.307	0.053
-722.850	59.393	-0.245	-0.242
-721.835	-200.000	0.022	-0.104
-720.821	154.144	-0.146	0.201
-719.806	-25.101	-0.156	0.092
-718.791	-0.201	-0.230	-0.164
-717.777	-200.000	0.024	-0.200
-716.762	11.452	-0.164	0.126
-715.748	-200.000	0.016	0.164
-714.733	-200.000	0.023	-0.149
-713.718	-200.000	0.014	-0.124
-712.704	416.641	0.066	0.141
-711.689	72.252	0.032	-0.033
-710.675	-39.844	0.055	-0.029
-709.660	-60.242	0.221	-0.095
-708.645	265.171	-0.075	0.130
-707.631	-200.000	-0.033	-0.284
-706.616	-42.399	0.253	-0.129
-705.602	-98.830	-0.232	-0.059
-704.587	82.790	-0.061	-0.066
-703.572	150.387	-0.014	0.019
-702.558	-20.771	0.137	-0.084
-701.543	66.066	0.128	-0.130
-700.529	-105.262	0.197	-0.045
-699.514	-115.079	-0.208	-0.040
-698.499	89.479	0.131	0.146
-697.485	-200.000	0.000	-0.172
-696.470	136.025	-0.218	-0.285
-695.456	-82.776	0.146	0.047
-694.441	132.780	-0.082	-0.106
-693.426	665.089	0.027	0.069
-692.412	75.286	-0.229	-0.242
-691.397	800.000	-0.024	-0.085
-690.383	-140.539	-0.225	-0.023
-689.368	48.544	-0.179	-0.168
-688.354	419.519	-0.090	-0.192
-687.339	800.000	-0.100	-0.333
-686.324	-200.000	0.005	0.054
-685.310	-200.000	-0.010	-0.047
-684.295	421.874	-0.073	-0.156
-683.281	-51.388	0.248	0.116
-682.266	120.002	-0.152	0.189
-681.251	-99.793	-0.320	-0.080
-680.237	-80.072	-0.194	0.065
-679.222	-53.512	0.148	-0.068
-678.208	-105.045	-0.247	-0.057
-677.193	401.452	-0.107	0.225
-676.178	-67.576	0.102	-0.040
-675.164	-17.314	-0.222	-0.140
-674.149	509.068	-0.064	0.148
-673.135	324.671	-0.175	0.334
-672.120	-95.308	0.072	-0.019
-671.105	800.000	0.017	-0.064
-670.091	82.054	-0.143	-0.155
-669.076	-200.000	0.021	0.284
-668.062	40.140	-0.252	-0.227
-667.047	800.000	0.076	-0.319
-666.032	-200.000	-0.024	0.194
-665.018	378.484	-0.030	0.062
-664.003	616.708	-0.082	0.206
-662.989	348.445	-0.067	-0.133
-661.974	548.246	-0.093	0.223
-660.959	55.293	-0.166	-0.161
-659.945	800.000	-0.048	0.142
-658.930	-28.016	-0.125	-0.072
-657.916	-200.000	0.056	-0.300
-656.901	579.063	-0.023	-0.057
-655.886	-92.747	-0.064	0.018
-654.872	73.403	0.157	-0.164
-653.857	159.864	0.132	-0.184
-652.843	-40.131	0.272	-0.142
-651.828	-102.451	-0.149	-0.036
-650.814	-150.016	0.119	0.009
-649.799	-42.673	0.130	0.066
-648.784	-12.802	-0.049	-0.032
-647.770	105.348	-0.128	-0.151
-646.755	-6.589	0.137	-0.093
-645.741	-1.689	0.158	-0.111
-644.726	670.605	-0.055	-0.143
-643.711	329.262	-0.115	-0.220
-642.697	-101.240	-0.042	-0.010
-641.682	418.234	0.082	0.176
-640.668	-82.254	0.236	-0.077
-639.653	174.505	-0.095	-0.137
-638.638	122.394	-0.137	-0.172
-637.624	-58.033	-0.395	0.172
-636.609	-13.907	0.129	-0.083
-635.595	259.685	-0.152	-0.262
-634.580	318.055	0.113	-0.214
-633.565	-159.340	0.342	0.019
-632.551	95.621	-0.175	0.200
-631.536	42.581	-0.135	0.123
-630.522	-200.000	0.014	0.384
-629.507	39.472	0.200	-0.179
-628.492	55.477	0.116	0.112
-627.478	190.976	0.169	-0.253
-626.463	-43.873	-0.118	-0.059
-625.449	-19.437	0.409	-0.253
-624.434	-110.727	-0.252	0.052
-623.419	800.000	-0.005	-0.019
-622.405	-51.414	0.248	0.116
-621.390	41.328	0.283	0.256
-620.376	23.498	-0.173	0.142
-619.361	800.000	0.019	0.067
-618.346	-200.000	0.006	-0.322
-617.332	800.000	0.062	-0.199
-616.317	47.636	0.320	-0.298
-615.303	-200.000	-0.079	0.444
-614.288	800.000	0.062	0.210
-613.273	189.735	0.079	0.119
-612.259	-137.879	-0.295	0.033
-611.244	207.103	0.170	0.265
-610.230	101.211	0.159	0.185
-609.215	-9.992	-0.156	-0.104
-608.201	-200.000	-0.033	-0.192
-607.186	-152.761	-0.376	0.027
-606.171	-45.928	0.093	0.046
-605.157	531.615	0.019	0.046
-604.142	-149.024	-0.165	-0.013
-603.128	-125.337	-0.132	0.020
-602.113	-117.102	-0.108	0.020
-601.098	-190.020	0.385	-0.004
-600.084	-14.657	0.321	-0.206
-599.069	573.323	-0.062	-0.151
-598.055	12.615	-0.190	-0.146
-597.040	92.351	-0.278	-0.313
-596.025	800.000	-0.129	0.385
-595.011	71.389	-0.127	0.131
-593.996	-76.858	-0.281	-0.098
-592.982	198.849	-0.094	-0.144
-591.967	-110.492	-0.151	-0.031
-590.952	234.812	0.112	0.185
-589.938	-200.000	-0.014	0.077
-588.923	578.553	-0.103	0.251
-587.909	414.333	0.136	0.288
-586.894	-21.805	-0.308	-0.187
-585.879	-137.536	0.296	-0.033
-584.865	55.773	-0.226	0.219
-583.850	719.344	-0.107	-0.285
-582.836	361.603	-0.091	0.181
-581.821	-113.185	0.236	0.046
-580.806	207.165	-0.135	-0.210
-579.792	48.857	-0.228	0.213
-578.777	-75.963	0.116	0.041
-577.763	800.000	0.074	-0.279
-576.748	438.571	0.055	-0.120
-575.733	-63.287	-0.328	-0.135
-574.719	-43.233	-0.054	-0.027
-573.704	39.892	-0.363	-0.325
-572.690	-125.891	-0.304	0.046
-571.675	667.900	0.055	-0.141
-570.661	768.579	0.053	0.143
-569.646	368.895	0.012	-0.025
-568.631	51.539	-0.250	0.237
-567.617	-35.243	0.169	-0.092
-566.602	27.608	0.142	-0.119
-565.588	150.186	-0.272	0.368
-564.573	-99.250	0.140	0.035
-563.558	800.000	-0.019	-0.073
-562.544	58.170	0.155	-0.151
-561.529	-200.000	0.061	-0.274
-560.515	800.000	-0.067	-0.256
-559.500	35.632	-0.149	0.131
-558.485	-200.000	0.004	0.218
-557.471	58.214	-0.130	0.127
-556.456	-77.177	0.088	0.031
-555.442	133.976	0.063	0.082
-554.427	-4.129	-0.090	0.062
-553.412	-88.612	-0.121	-0.036
-552.398	-133.789	0.302	0.038
-551.383	197.564	0.097	0.147
-550.369	-37.617	0.126	-0.067
-549.354	-69.237	-0.157	-0.060
-548.339	-172.828	-0.014	0.000
-547.325	161.042	-0.390	0.542
-546.310	-7.107	-0.059	-0.040
-545.296	248.017	0.039	0.065
-544.281	202.567	-0.090	-0.138
-543.266	-61.461	-0.244	0.102
-542.252	92.458	-0.119	0.133
-541.237	-115.664	-0.004	0.001
-540.223	364.913	0.164	0.328
-539.208	-65.463	-0.121	-0.048
-538.193	-185.061	-0.228	0.004
-537.179	27.020	-0.079	0.066
-536.164	-74.633	0.385	0.138
-535.150	148.939	-0.131	-0.176
-534.135	72.934	-0.284	-0.296
-533.121	512.735	0.156	-0.362
-532.106	14.089	-0.223	-0.173
-531.091	315.430	0.074	-0.139
-530.077	-65.846	-0.257	-0.102
-529.062	-149.642	-0.419	-0.033
-528.048	-200.000	-0.004	-0.086
-527.033	-200.000	0.022	-0.239
-526.018	800.000	0.036	-0.126
-525.004	-103.013	-0.136	-0.032
-523.989	800.000	-0.045	0.143
-522.975	21.100	0.322	-0.260
-521.960	-48.432	0.023	-0.011
-520.945	-200.000	0.059	-0.338
-519.931	97.461	0.106	-0.121
-518.916	22.512	-0.091	-0.074
-517.902	151.465	-0.244	-0.330
-516.887	111.477	0.181	0.218
-515.872	-126.686	0.226	0.033
-514.858	-7.410	-0.200	-0.135
-513.843	-200.000	-0.002	-0.127
-512.829	245.663	-0.107	-0.179
-511.814	-111.985	-0.495	0.099
-510.799	800.000	0.104	-0.292
-509.785	46.411	0.052	0.048
-508.770	175.035	0.099	-0.143
-507.756	-23.362	-0.277	-0.166
-506.741	-200.000	0.005	-0.056
-505.726	-200.000	-0.026	0.189
-504.712	-86.002	-0.222	0.068
-503.697	67.482	0.055	-0.055
-502.683	-200.000	0.001	-0.180
-501.668	79.458	-0.238	-0.253
-500.653	-48.126	0.121	0.058
-499.639	-200.000	0.021	0.289
-498.624	20.692	0.284	0.228
-497.610	-88.427	0.111	-0.033
-496.595	101.197	0.155	0.179
-495.581	213.021	-0.172	-0.270
-494.566	-200.000	-0.016	-0.331
-493.551	-83.425	0.085	-0.027
-492.537	-200.000	0.056	0.434
-491.522	34.155	0.192	-0.167
-490.508	-200.000	-0.004	-0.214
-489.493	50.648	0.041	-0.039
-488.478	638.578	0.049	-0.125
-487.464	-77.067	0.293	-0.101
-486.449	170.916	-0.317	-0.452
-485.435	-59.355	-0.360	0.154
-484.420	-200.000	-0.078	-0.501
-483.405	800.000	-0.065	0.218
-482.391	-200.000	0.057	-0.351
-481.376	23.609	0.108	-0.088
-480.362	-200.000	0.081	0.434
-479.347	207.376	-0.099	0.153
-478.332	800.000	0.095	-0.306
-477.318	-57.783	0.239	0.104
-476.303	160.615	-0.033	0.046
-475.289	-152.609	0.376	0.027
-474.274	-200.000	0.015	0.154
-473.259	-126.432	-0.095	0.014
-472.245	-90.163	-0.116	0.033
-471.230	-114.926	-0.020	-0.004
-470.216	-134.513	0.296	0.036
-469.201	567.371	-0.086	0.206
-468.186	108.395	0.092	0.110
-467.172	-109.974	-0.235	-0.049
-466.157	-93.621	0.108	0.030
-465.143	238.719	0.019	0.031
-464.128	-54.292	-0.107	0.048
-463.113	470.151	-0.083	-0.184
-462.099	63.082	0.169	-0.168
-461.084	-67.745	-0.422	-0.164
-460.070	-77.836	0.230	0.079
-459.055	45.284	-0.224	0.205
-458.040	117.271	-0.269	-0.329
-457.026	800.000	0.017	0.063
-456.011	13.319	0.108	0.083
-454.997	-96.088	-0.365	-0.096
-453.982	-108.169	-0.094	-0.020
-452.968	-200.000	-0.095	0.419
-451.953	195.763	0.242	0.366
-450.938	-200.000	0.015	0.185
-449.924	-200.000	0.001	-0.169
-448.909	-151.246	-0.342	0.025
-447.895	-200.000	0.042	-0.216
-446.880	800.000	-0.160	0.613
-445.865	-200.000	0.054	0.237
-444.851	800.000	0.108	-0.402
-443.836	295.459	0.159	0.288
-442.822	106.196	-0.128	0.151
-441.807	-21.321	0.228	0.138
-440.792	-200.000	-0.020	0.101
-439.778	342.067	-0.161	-0.312
-438.763	650.528	-0.077	0.197
-437.749	-47.694	0.177	0.085
-436.734	-42.876	-0.150	-0.076
-435.719	305.823	0.212	0.391
-434.705	800.000	-0.080	-0.322
-433.690	503.750	-0.121	-0.278
-432.676	215.136	-0.152	0.238
-431.661	161.758	0.024	0.034
-430.646	89.893	0.180	-0.200
-429.632	212.102	-0.176	0.275
-428.617	239.438	0.069	0.113
-427.603	-200.000	0.022	0.214
-426.588	46.717	0.307	-0.283
-425.573	-200.000	0.001	0.198
-424.559	800.000	0.072	0.250
-423.544	365.095	-0.051	0.101
-422.530	-200.000	0.026	-0.232
-421.515	597.294	0.044	-0.108
-420.500	-95.921	0.122	-0.032
-419.486	313.362	-0.104	-0.195
-418.471	336.768	0.059	0.113
-417.457	71.400	-0.221	0.227
-416.442	59.795	0.091	-0.089
-415.428	-70.503	0.351	0.132
-414.413	-18.106	-0.104	0.064
-413.398	230.235	0.067	0.109
-412.384	-152.464	0.213	-0.015
-411.369	227.824	-0.143	-0.231
-410.355	161.437	-0.162	-0.225
-409.340	481.189	0.030	0.067
-408.325	328.360	0.129	0.245
-407.311	152.481	0.182	-0.247
-406.296	75.116	-0.059	-0.061
-405.282	-117.395	0.396	-0.071
-404.267	-0.780	-0.250	-0.175
-403.252	-19.294	0.112	0.069
-402.238	20.114	-0.037	-0.030
-401.223	-200.000	-0.001	0.339
-400.209	-200.000	-0.003	-0.134
-399.194	72.346	-0.291	0.300
-398.179	673.733	0.125	0.322
-397.165	-66.319	-0.184	-0.073
-396.150	800.000	0.040	0.150
-395.136	585.651	-0.129	-0.314
-394.121	-200.000	-0.008	0.094
-393.106	303.276	0.179	0.327
-392.092	-200.000	-0.068	-0.398
-391.077	107.196	0.064	-0.076
-390.063	123.019	0.100	0.124
-389.048	315.246	0.056	-0.105
-388.033	134.539	0.065	-0.083
-387.019	-200.000	-0.019	-0.200
-386.004	336.204	-0.066	0.126
-384.990	612.189	0.035	-0.086
-383.975	68.217	0.017	0.017
-382.960	-0.895	0.148	0.104
-381.946	-24.395	0.024	-0.014
-380.931	190.337	-0.133	-0.197
-379.917	-66.496	0.049	0.019
-378.902	800.000	0.079	-0.322
-377.888	-200.000	-0.035	-0.216
-376.873	800.000	0.017	-0.069
-375.858	800.000	-0.074	0.306
-374.844	132.100	0.268	-0.342
-373.829	-10.022	-0.136	-0.090
-372.815	164.354	0.082	0.114
-371.800	197.249	-0.305	-0.460
-370.785	-109.825	-0.201	-0.042
-369.771	-2.060	-0.145	0.101
-368.756	103.424	0.157	-0.182
-367.742	57.512	0.279	0.270
-366.727	-72.595	0.409	-0.149
-365.712	411.488	-0.060	-0.125
-364.698	275.213	-0.074	-0.130
-363.683	-43.416	-0.141	0.071
-362.669	759.515	-0.019	0.051
-361.654	152.302	-0.151	-0.204
-360.639	341.645	0.119	0.230
-359.625	800.000	-0.038	0.115
-358.610	70.395	0.200	-0.204
-357.596	14.551	0.217	-0.167
-356.581	-56.830	-0.161	-0.070
-355.566	800.000	-0.101	-0.396
-354.552	19.566	0.110	-0.088
-353.537	540.927	-0.179	-0.421
-352.523	58.365	0.245	-0.238
-351.508	250.563	-0.192	0.322
-350.493	-200.000	0.018	0.145
-349.479	83.756	0.109	-0.118
-348.464	-119.537	-0.213	0.037
-347.450	23.753	0.249	0.203
-346.435	-173.286	-0.368	-0.011
-345.420	-169.934	0.126	-0.004
-344.406	-200.000	0.013	-0.090
-343.391	-42.873	-0.178	-0.089
-342.377	-135.764	-0.210	0.025
-341.362	19.601	0.107	-0.085
-340.348	-200.000	0.025	0.169
-339.333	-143.188	0.234	-0.022
-338.318	22.483	-0.121	0.098
-337.304	-89.849	-0.400	0.116
-336.289	19.290	0.050	-0.040
-335.275	-200.000	0.077	-0.475
-334.260	-200.000	0.018	-0.269
-333.245	18.251	0.109	0.086
-332.231	-64.977	-0.180	0.072
-331.216	20.980	-0.207	0.165
-330.202	-85.648	0.387	0.119
-329.187	-82.636	-0.193	-0.062
-328.172	-200.000	0.007	0.372
-327.158	800.000	0.085	0.309
-326.143	646.671	0.051	-0.130
-325.129	-88.691	0.222	-0.065
-324.114	800.000	-0.023	-0.073
-323.099	-200.000	-0.026	0.473
-322.085	-96.260	0.116	0.030
-321.070	-137.862	-0.259	0.029
-320.056	-144.224	0.112	0.010
-319.041	71.305	0.316	0.324
-318.026	-138.633	0.075	0.008
-317.012	9.232	0.128	0.096
-315.997	-104.779	-0.092	0.021
-314.983	50.678	0.172	-0.161
-313.968	-0.035	0.131	0.092
-312.953	800.000	-0.126	-0.405
-311.939	6.079	-0.241	-0.176
-310.924	-200.000	0.009	-0.335
-309.910	-200.000	-0.013	0.098
-308.895	-150.512	0.318	0.024
-307.880	800.000	0.062	-0.175
-306.866	-200.000	0.034	-0.419
-305.851	17.617	-0.097	-0.076
-304.837	-57.096	0.056	0.024
-303.822	403.408	0.057	0.118
-302.807	-72.015	-0.198	0.073
-301.793	74.795	0.164	-0.170
-300.778	123.078	0.039	-0.048
-299.764	523.658	0.099	0.230
-298.749	-200.000	0.018	-0.090
-297.735	-47.088	-0.054	-0.026
-296.720	21.660	0.292	-0.235
-295.705	-121.716	-0.213	0.035
-294.691	-158.543	0.112	0.006
-293.676	162.024	-0.260	-0.359
-292.662	800.000	-0.053	0.165
-291.647	-5.601	0.143	-0.097
-290.632	-9.668	-0.197	-0.129
-289.618	-126.351	0.165	0.024
-288.603	133.501	-0.132	-0.168
-287.589	180.012	-0.060	-0.087
-286.574	-184.597	-0.065	0.001
-285.559	686.662	0.158	0.406
-284.545	-163.308	0.443	0.021
-283.530	86.328	-0.064	0.070
-282.516	-101.078	-0.033	0.008
-281.501	11.908	-0.192	-0.145
-280.486	-24.225	-0.322	0.189
-279.472	-33.946	-0.193	0.105
-278.457	347.300	-0.086	0.166
-277.443	800.000	0.085	0.293
-276.428	437.298	0.063	-0.136
-275.413	67.911	0.156	0.157
-274.399	-129.324	-0.228	0.031
-273.384	140.514	-0.094	0.122
-272.370	157.266	0.180	0.245
-271.355	-200.000	-0.040	0.448
-270.340	384.227	-0.216	0.439
-269.326	-185.596	-0.491	0.007
-268.311	-89.627	0.233	-0.067
-267.297	-200.000	0.005	0.304
-266.282	17.514	0.393	0.308
-265.267	-37.971	-0.173	-0.090
-264.253	-200.000	-0.014	-0.080
-263.238	-11.521	0.347	-0.225
-262.224	-200.000	-0.006	0.102
-261.209	260.142	-0.029	0.049
-260.195	-200.000	0.071	0.415
-259.180	-104.861	-0.295	-0.067
-258.165	-57.798	0.140	-0.060
-257.151	-47.579	0.151	0.072
-256.136	-200.000	-0.059	0.452
-255.122	219.694	-0.166	0.262
-254.107	-200.000	0.022	-0.250
-253.092	15.625	0.120	0.093
-252.078	25.669	0.195	-0.160
-251.063	515.955	0.051	0.118
-250.049	800.000	-0.060	0.196
-249.034	12.085	-0.045	0.034
-248.019	-50.514	-0.084	-0.039
-247.005	-2.883	-0.031	-0.021
-245.990	296.916	-0.039	0.071
-244.976	-200.000	0.010	0.173
-243.961	-150.235	-0.177	0.013
-242.946	800.000	0.083	-0.273
-241.932	-149.395	0.243	-0.019
-240.917	-189.552	-0.356	0.004
-239.903	44.675	0.102	0.092
-238.888	-127.447	0.199	-0.028
-237.873	-86.738	0.202	-0.061
-236.859	-200.000	-0.125	-0.000
-235.844	111.552	-0.225	-0.267
-234.830	-200.000	0.024	-0.139
-233.815	-32.611	0.167	-0.091
-232.800	1.861	0.109	0.077
-231.786	254.526	-0.111	0.188
-230.771	47.045	-0.073	0.066
-229.757	-200.000	0.045	-0.201
-228.742	80.913	-0.266	-0.282
-227.727	2.885	-0.082	0.059
-226.713	-66.371	0.110	-0.043
-225.698	71.464	-0.066	-0.068
-224.684	596.050	-0.087	-0.212
-223.669	173.841	-0.048	-0.068
-222.655	-200.000	-0.023	0.170
-221.640	-103.334	0.046	0.011
-220.625	451.479	0.014	-0.031
-219.611	-200.000	-0.005	0.117
-218.596	800.000	0.107	0.335
-217.582	466.033	0.036	0.079
-216.567	70.935	0.020	-0.020
-215.552	31.651	0.153	-0.130
-214.538	800.000	-0.097	-0.404
-213.523	-200.000	0.003	-0.051
-212.509	-109.112	0.197	0.041
-211.494	-93.997	0.079	-0.021
-210.479	-200.000	0.022	0.165
-209.465	-156.113	0.198	-0.012
-208.450	-11.480	0.390	0.252
-207.436	-200.000	0.037	-0.179
-206.421	800.000	-0.051	0.182
-205.406	-13.535	0.443	0.282
-204.392	-49.374	0.301	0.141
-203.377	-85.586	-0.145	0.044
-202.363	-200.000	-0.021	0.215
-201.348	-2.040	0.140	-0.096
-200.333	210.678	-0.352	0.544
-199.319	-71.226	0.066	0.024
-198.304	699.927	-0.042	-0.107
-197.290	800.000	0.102	-0.394
-196.275	145.888	0.133	-0.176
-195.260	-96.763	0.083	0.021
-194.246	120.648	0.043	-0.053
-193.231	438.411	0.045	-0.096
-192.217	-121.535	-0.127	-0.021
-191.202	208.944	0.037	-0.057
-190.187	-141.137	-0.191	0.019
-189.173	220.285	0.016	-0.025
-188.158	157.621	0.208	0.283
-187.144	-167.231	0.052	-0.002
-186.129	-200.000	-0.013	-0.102
-185.114	-127.062	-0.166	-0.024
-184.100	56.619	0.058	-0.056
-183.085	457.949	-0.086	-0.188
-182.071	800.000	0.069	-0.236
-181.056	300.077	-0.172	0.311
-180.042	277.890	-0.092	0.161
-179.027	313.872	0.149	-0.276
-178.012	-61.234	-0.130	-0.054
-176.998	-34.308	-0.070	-0.038
-175.983	-200.000	0.001	0.171
-174.969	-200.000	0.003	-0.384
-173.954	138.417	0.062	0.080
-172.939	-2.950	0.161	0.110
-171.925	-100.674	0.294	0.071
-170.910	-200.000	0.076	0.352
-169.896	87.573	0.090	0.097
-168.881	-200.000	0.002	-0.027
-167.866	-39.697	-0.352	0.181
-166.852	198.888	-0.036	0.054
-165.837	-49.558	-0.123	0.057
-164.823	-13.772	0.232	0.147
-163.808	-114.439	-0.312	-0.059
-162.793	-200.000	0.050	0.501
-161.779	-200.000	-0.036	0.294
-160.764	171.869	0.112	0.157
-159.750	54.941	-0.116	-0.110
-158.735	2.899	0.167	0.119
-157.720	-109.945	0.290	0.060
-156.706	-101.874	0.362	0.086
-155.691	-70.957	0.372	0.138
-154.677	800.000	0.114	-0.396
-153.662	-200.000	-0.016	0.132
-152.647	712.831	-0.059	0.152
-151.633	-200.000	-0.048	-0.249
-150.618	-174.678	0.229	0.006
-149.604	-110.258	0.258	0.053
-148.589	535.437	0.108	0.252
-147.574	-150.989	0.069	0.005
-146.560	-96.746	-0.195	-0.050
-145.545	-0.151	-0.021	0.015
-144.531	-64.208	0.225	0.090
-143.516	-167.403	-0.344	0.014
-142.502	44.954	0.098	-0.089
-141.487	-38.879	-0.058	0.030
-140.472	-89.692	-0.298	-0.086
-139.458	-25.627	0.121	0.070
-138.443	800.000	0.030	0.114
-137.429	800.000	-0.091	0.389
-136.414	285.671	0.134	0.236
-135.399	-63.697	-0.053	0.021
-134.385	-97.435	0.169	0.043
-133.370	-200.000	-0.028	-0.133
-132.356	44.707	-0.083	-0.075
-131.341	-103.908	0.251	0.057
-130.326	-141.220	0.239	0.024
-129.312	207.548	0.073	-0.112
-128.297	800.000	-0.055	-0.170
-127.283	-157.508	-0.205	0.012
-126.268	-54.541	0.217	0.096
-125.253	-79.329	0.137	-0.045
-124.239	155.930	-0.136	0.183
-123.224	-52.210	0.185	0.084
-122.210	-200.000	0.006	0.120
-121.195	176.438	0.111	0.158
