DTS Sentinel unit serial number:	SN413079Multiplexer serial number:	ORYXHardware model number:	OX4-SRSoftware version number:	ORYX F/W v4.00 Oryx Data Collector v3.7.2.0data status	okinstallation	princeton_trtdifferential loss correction	single-endedforward channel	channel 2reverse channel	N/Adate	2019/09/17time	02:15:35forward acquisition time	60.00reverse acquisition time	0.00gamma	496.2192k internal	0.2328k external	0.2328temperature offset calibration	0.9972default loss term (dB/km)	0.3790temperature slope calibration	1.0000multiplexer offset coefficient	1.0000multiplexer slope coefficient	1.0000fibre end	0.00T internal ref (°C)	29.72T ext. ref 1 (°C)	0.12T ext. ref 2 (°C)	24.66length (m)	temperature (°C)	Stokes	anti-Stokes-747.200	82.235	0.065	-0.071
-746.185	-24.854	-0.107	0.064
-745.171	27.410	-0.139	0.118
-744.156	-71.485	-0.216	0.081
-743.142	-135.141	0.369	0.045
-742.127	4.661	-0.358	0.265
-741.112	-155.273	-0.174	-0.011
-740.098	245.231	-0.117	-0.199
-739.083	-200.000	-0.009	-0.405
-738.069	-200.000	0.018	0.200
-737.054	800.000	0.063	-0.183
-736.039	800.000	-0.037	-0.111
-735.025	115.367	0.183	0.226
-734.010	-87.634	-0.239	-0.073
-732.996	-37.319	0.337	-0.181
-731.981	414.890	0.066	-0.141
-730.966	-38.525	-0.192	0.102
-729.952	800.000	0.069	-0.281
-728.937	-54.966	-0.231	0.105
-727.923	-200.000	0.015	0.314
-726.908	16.250	-0.071	0.056
-725.894	70.477	-0.172	-0.180
-724.879	125.323	-0.093	0.118
-723.864	-200.000	0.019	-0.177
-722.850	300.843	0.117	-0.217
-721.835	-161.908	0.267	-0.014
-720.821	-200.000	-0.010	0.125
-719.806	389.099	0.115	0.240
-718.791	-37.073	-0.170	-0.092
-717.777	-133.636	0.074	0.009
-716.762	-200.000	-0.070	-0.391
-715.748	-200.000	-0.010	-0.062
-714.733	-200.000	0.024	-0.224
-713.718	226.925	0.062	-0.101
-712.704	-94.073	0.229	-0.063
-711.689	24.770	-0.309	-0.258
-710.675	-200.000	-0.060	-0.295
-709.660	-61.700	0.270	0.114
-708.645	-77.463	-0.387	-0.135
-707.631	93.650	0.098	-0.111
-706.616	85.313	0.202	0.223
-705.602	27.310	0.103	0.087
-704.587	-200.000	-0.001	0.007
-703.572	-15.114	0.145	-0.093
-702.558	-34.991	0.292	0.160
-701.543	43.133	-0.208	0.191
-700.529	-11.361	-0.121	-0.080
-699.514	720.186	-0.129	-0.346
-698.499	800.000	-0.046	-0.156
-697.485	-200.000	-0.005	-0.161
-696.470	50.807	-0.086	-0.082
-695.456	421.708	0.126	-0.271
-694.441	-80.443	-0.142	-0.048
-693.426	800.000	-0.030	-0.127
-692.412	-31.066	0.305	-0.173
-691.397	30.902	-0.101	-0.087
-690.383	-85.101	-0.123	0.039
-689.368	-65.889	0.074	-0.030
-688.354	-107.769	-0.393	0.086
-687.339	-125.998	-0.116	-0.018
-686.324	-78.053	0.205	-0.071
-685.310	202.852	-0.072	0.112
-684.295	-154.095	0.179	0.012
-683.281	-37.459	0.102	0.055
-682.266	17.446	-0.073	0.058
-681.251	26.948	0.304	0.256
-680.237	-73.893	0.324	-0.118
-679.222	85.718	-0.188	-0.208
-678.208	103.919	-0.284	0.335
-677.193	-200.000	-0.013	0.290
-676.178	-63.972	0.145	-0.060
-675.164	69.147	-0.102	-0.106
-674.149	-34.309	-0.102	0.056
-673.135	21.687	0.271	0.221
-672.120	228.971	-0.167	0.273
-671.105	170.069	0.043	0.062
-670.091	800.000	-0.025	-0.108
-669.076	-129.244	-0.445	0.062
-668.062	463.539	-0.199	-0.447
-667.047	800.000	0.064	0.207
-666.032	121.181	-0.233	0.291
-665.018	-153.075	-0.127	-0.009
-664.003	273.775	-0.177	0.315
-662.989	66.083	-0.167	-0.171
-661.974	-200.000	-0.043	-0.305
-660.959	800.000	-0.036	-0.140
-659.945	201.136	-0.022	0.034
-658.930	-200.000	-0.014	-0.138
-657.916	211.065	-0.137	-0.216
-656.901	-155.851	-0.555	0.036
-655.886	-99.091	-0.112	0.029
-654.872	-200.000	0.001	-0.091
-653.857	800.000	0.037	-0.152
-652.843	-68.267	0.217	0.085
-651.828	-99.661	-0.070	-0.018
-650.814	35.858	-0.106	0.093
-649.799	-120.742	-0.231	-0.039
-648.784	60.739	0.156	-0.155
-647.770	800.000	-0.133	-0.391
-646.755	-106.180	0.320	0.072
-645.741	105.567	0.101	0.120
-644.726	-64.799	0.160	0.065
-643.711	-200.000	-0.051	-0.256
-642.697	147.640	-0.150	-0.203
-641.682	13.031	-0.279	-0.217
-640.668	246.451	-0.029	-0.049
-639.653	31.482	-0.271	-0.233
-638.638	-200.000	-0.053	-0.372
-637.624	-175.768	0.232	0.006
-636.609	480.750	-0.048	0.110
-635.595	-132.467	-0.208	0.027
-634.580	185.063	-0.091	-0.135
-633.565	3.609	0.306	0.224
-632.551	147.996	0.138	-0.187
-631.536	-200.000	0.047	0.213
-630.522	-200.000	-0.005	-0.218
-629.507	-200.000	-0.079	-0.372
-628.492	80.503	0.180	0.195
-627.478	-200.000	-0.039	-0.307
-626.463	69.430	0.028	-0.029
-625.449	-19.213	0.244	0.152
-624.434	-37.840	-0.285	-0.152
-623.419	71.233	-0.153	-0.160
-622.405	128.655	0.203	0.260
-621.390	-1.369	0.413	0.293
-620.376	-38.573	-0.122	0.064
-619.361	46.540	-0.275	-0.256
-618.346	288.033	-0.166	0.301
-617.332	30.688	-0.201	0.173
-616.317	-200.000	-0.063	-0.397
-615.303	800.000	-0.053	0.188
-614.288	-60.636	-0.208	0.088
-613.273	-147.303	-0.317	0.027
-612.259	800.000	-0.123	0.519
-611.244	800.000	-0.077	0.248
-610.230	-200.000	0.003	0.199
-609.215	108.373	-0.249	0.298
-608.201	800.000	-0.093	0.309
-607.186	800.000	-0.051	-0.145
-606.171	-115.353	0.293	-0.055
-605.157	-54.411	0.272	0.124
-604.142	133.870	0.096	0.124
-603.128	-176.882	0.287	-0.007
-602.113	-82.575	-0.228	0.074
-601.098	-85.771	0.277	0.086
-600.084	79.323	-0.205	0.220
-599.069	-61.720	-0.092	0.039
-598.055	66.248	0.102	-0.104
-597.040	749.157	0.072	0.194
-596.025	47.288	-0.091	-0.085
-595.011	-142.692	-0.219	0.021
-593.996	-112.508	-0.624	-0.125
-592.982	-74.291	0.296	-0.107
-591.967	25.692	0.065	-0.054
-590.952	-68.226	0.370	-0.144
-589.938	-65.080	-0.193	-0.078
-588.923	-28.145	0.411	-0.238
-587.909	423.022	0.060	0.129
-586.894	-115.636	-0.136	0.026
-585.879	-105.836	0.078	0.018
-584.865	-105.572	-0.264	-0.060
-583.850	19.492	-0.371	0.299
-582.836	-200.000	-0.046	-0.223
-581.821	194.254	0.153	-0.233
-580.806	-125.211	0.149	0.023
-579.792	-33.264	0.148	-0.082
-578.777	-39.008	-0.110	0.058
-577.763	84.104	0.087	0.095
-576.748	-138.131	0.272	-0.030
-575.733	-40.130	0.164	-0.086
-574.719	673.358	-0.100	-0.261
-573.704	-200.000	0.023	-0.428
-572.690	-12.045	-0.132	0.087
-571.675	-107.506	0.193	0.042
-570.661	-121.016	0.306	-0.051
-569.646	84.757	-0.123	0.135
-568.631	800.000	-0.050	-0.195
-567.617	-135.779	-0.318	-0.038
-566.602	304.342	0.098	0.181
-565.588	-143.275	0.113	0.011
-564.573	160.503	0.179	-0.250
-563.558	184.157	0.075	0.111
-562.544	-166.575	-0.231	-0.010
-561.529	-185.171	-0.130	-0.002
-560.515	-200.000	-0.012	0.133
-559.500	82.478	-0.192	0.209
-558.485	-152.409	0.081	0.006
-557.471	-92.267	0.312	0.088
-556.456	-140.032	0.321	-0.034
-555.442	-50.259	-0.175	-0.083
-554.427	729.487	0.022	-0.058
-553.412	304.537	-0.064	0.119
-552.398	-200.000	0.025	-0.109
-551.383	67.800	-0.197	-0.202
-550.369	443.816	0.061	0.133
-549.354	-124.806	0.307	-0.047
-548.339	341.000	0.137	0.267
-547.325	-88.181	0.395	-0.118
-546.310	23.116	0.022	0.018
-545.296	800.000	-0.035	-0.100
-544.281	50.002	-0.295	0.278
-543.266	-200.000	0.032	0.160
-542.252	-111.353	-0.039	0.008
-541.237	424.253	-0.104	0.223
-540.223	-200.000	0.007	0.053
-539.208	37.572	-0.277	0.246
-538.193	-52.194	0.208	0.097
-537.179	520.326	-0.098	0.230
-536.164	-113.996	-0.404	0.078
-535.150	-180.446	0.162	-0.003
-534.135	66.126	0.012	0.012
-533.121	-45.278	-0.158	0.078
-532.106	430.964	0.018	0.040
-531.091	-6.525	0.282	-0.192
-530.077	800.000	0.071	-0.227
-529.062	-167.193	-0.028	-0.001
-528.048	351.242	-0.069	0.136
-527.033	-19.783	0.272	0.168
-526.018	-30.084	0.132	-0.075
-525.004	-141.403	-0.055	-0.006
-523.989	13.187	-0.181	-0.140
-522.975	800.000	-0.074	-0.246
-521.960	-192.223	-0.438	0.004
-520.945	152.363	0.093	0.126
-519.931	1.014	0.058	-0.041
-518.916	80.289	-0.065	-0.070
-517.902	-200.000	-0.055	-0.377
-516.887	-70.434	-0.519	0.197
-515.872	307.074	-0.355	-0.661
-514.858	90.845	0.183	-0.204
-513.843	163.139	0.242	-0.340
-512.829	340.855	0.062	0.120
-511.814	800.000	0.076	0.231
-510.799	13.729	0.099	-0.077
-509.785	-200.000	-0.071	-0.333
-508.770	-83.990	-0.375	-0.119
-507.756	57.894	0.084	0.082
-506.741	-43.653	-0.227	-0.114
-505.726	-200.000	-0.004	0.647
-504.712	-200.000	0.069	0.459
-503.697	-78.327	-0.153	-0.052
-502.683	174.875	0.160	-0.231
-501.668	-200.000	-0.012	0.112
-500.653	118.577	0.148	-0.182
-499.639	232.203	0.121	-0.199
-498.624	17.145	0.128	0.101
-497.610	-6.199	0.178	-0.121
-496.595	800.000	-0.030	-0.122
-495.581	178.140	-0.192	-0.279
-494.566	-12.827	0.176	0.114
-493.551	-69.826	0.105	-0.040
-492.537	-113.390	0.338	0.066
-491.522	701.311	-0.085	0.224
-490.508	800.000	0.064	-0.208
-489.493	167.082	-0.052	0.073
-488.478	-51.917	0.364	-0.169
-487.464	-144.510	-0.330	-0.030
-486.449	-22.151	-0.328	-0.198
-485.435	10.919	-0.089	0.068
-484.420	-100.159	-0.128	-0.032
-483.405	155.508	-0.064	-0.088
-482.391	15.657	0.174	-0.136
-481.376	-200.000	-0.015	-0.148
-480.362	-163.466	-0.168	-0.008
-479.347	-49.879	0.275	-0.130
-478.332	-72.347	0.241	0.089
-477.318	765.830	-0.077	0.208
-476.303	-54.228	-0.203	-0.092
-475.289	-194.798	0.286	-0.002
-474.274	-46.117	0.040	0.020
-473.259	-122.615	0.209	0.034
-472.245	270.796	0.132	-0.232
-471.230	-2.384	-0.339	-0.237
-470.216	45.743	-0.306	0.282
-469.201	297.694	0.214	-0.393
-468.186	-146.154	0.201	-0.018
-467.172	800.000	-0.040	-0.137
-466.157	73.728	-0.314	-0.329
-465.143	175.319	-0.069	-0.100
-464.128	-92.831	0.317	-0.088
-463.113	-200.000	-0.016	0.340
-462.099	-165.807	0.313	0.013
-461.084	28.474	0.302	0.255
-460.070	-33.154	0.182	-0.101
-459.055	-134.147	-0.162	0.020
-458.040	-44.605	-0.145	0.072
-457.026	800.000	0.054	-0.150
-456.011	-200.000	-0.025	0.173
-454.997	800.000	-0.139	0.417
-453.982	-200.000	0.037	-0.224
-452.968	66.572	-0.200	0.203
-451.953	-200.000	0.021	0.214
-450.938	102.884	-0.192	0.224
-449.924	-72.116	-0.308	-0.114
-448.909	-200.000	0.005	0.144
-447.895	482.058	-0.096	0.216
-446.880	800.000	-0.042	0.177
-445.865	800.000	0.106	-0.321
-444.851	-77.775	-0.059	0.020
-443.836	74.546	0.053	0.055
-442.822	-2.375	0.176	0.123
-441.807	-35.650	-0.257	0.139
-440.792	1.726	-0.134	-0.096
-439.778	20.007	0.205	-0.165
-438.763	459.722	-0.065	-0.144
-437.749	-200.000	0.021	0.166
-436.734	-85.954	-0.145	0.045
-435.719	275.419	-0.041	-0.072
-434.705	145.813	-0.080	-0.107
-433.690	-200.000	0.053	-0.267
-432.676	482.781	-0.204	0.461
-431.661	-200.000	-0.023	0.228
-430.646	-88.069	0.416	0.124
-429.632	-63.344	-0.105	0.043
-428.617	21.384	-0.163	-0.132
-427.603	-107.783	-0.164	0.036
-426.588	258.881	0.056	0.097
-425.573	-200.000	-0.014	-0.067
-424.559	-198.267	0.384	-0.002
-423.544	-73.488	-0.295	-0.107
-422.530	-200.000	-0.001	0.205
-421.515	47.174	-0.220	-0.204
-420.500	-23.249	0.024	-0.014
-419.486	676.692	0.129	0.333
-418.471	-47.120	-0.096	0.047
-417.457	-144.298	-0.110	0.010
-416.442	-200.000	0.027	-0.204
-415.428	156.512	-0.107	-0.147
-414.413	-48.256	-0.297	-0.143
-413.398	172.903	0.065	0.093
-412.384	21.130	-0.359	0.290
-411.369	-200.000	0.006	0.046
-410.355	800.000	-0.074	0.308
-409.340	10.131	-0.137	-0.104
-408.325	-43.311	-0.088	-0.044
-407.311	72.686	0.177	-0.183
-406.296	-99.212	0.383	0.096
-405.282	181.212	-0.113	-0.165
-404.267	-130.310	-0.261	0.035
-403.252	66.922	-0.228	0.231
-402.238	10.426	0.101	-0.076
-401.223	-66.752	0.216	0.085
-400.209	158.792	-0.019	-0.026
-399.194	-179.366	0.329	-0.007
-398.179	2.277	-0.197	-0.142
-397.165	-93.216	-0.450	0.124
-396.150	-97.074	-0.215	-0.056
-395.136	-20.261	-0.036	0.022
-394.121	-34.073	-0.234	-0.128
-393.106	201.001	0.249	0.381
-392.092	-17.803	0.086	-0.053
-391.077	69.180	-0.161	-0.164
-390.063	-200.000	0.041	-0.309
-389.048	553.387	0.130	-0.310
-388.033	-56.819	0.231	0.102
-387.019	-151.650	-0.236	-0.017
-386.004	81.823	0.209	0.225
-384.990	-88.904	-0.269	0.079
-383.975	-200.000	-0.009	-0.124
-382.960	-121.368	0.171	0.028
-381.946	15.791	-0.248	-0.194
-380.931	44.167	0.286	-0.261
-379.917	58.454	-0.095	0.093
-378.902	-152.220	-0.362	0.026
-377.888	508.887	0.131	-0.303
-376.873	-90.753	0.109	0.031
-375.858	98.018	0.170	-0.194
-374.844	-17.125	0.109	-0.068
-373.829	480.312	0.095	-0.213
-372.815	800.000	-0.118	0.338
-371.800	496.846	0.051	-0.116
-370.785	-17.317	-0.088	-0.055
-369.771	34.988	-0.359	-0.312
-368.756	-163.373	-0.233	0.011
-367.742	-167.627	0.064	-0.003
-366.727	106.942	-0.256	0.302
-365.712	800.000	-0.080	0.327
-364.698	-200.000	-0.018	-0.151
-363.683	-200.000	-0.051	0.345
-362.669	-29.868	-0.277	-0.157
-361.654	800.000	-0.069	-0.208
-360.639	385.330	0.121	-0.247
-359.625	-72.287	-0.240	0.088
-358.610	605.074	0.085	0.209
-357.596	800.000	0.020	-0.072
-356.581	800.000	0.045	-0.133
-355.566	-49.195	-0.213	-0.101
-354.552	64.524	0.249	0.249
-353.537	-102.463	-0.312	-0.074
-352.523	309.414	0.016	-0.029
-351.508	452.434	-0.072	0.157
-350.493	590.718	0.105	-0.258
-349.479	800.000	-0.028	-0.113
-348.464	-200.000	0.022	-0.186
-347.450	28.998	0.139	-0.117
-346.435	-200.000	-0.064	0.295
-345.420	-113.550	0.199	0.039
-344.406	-15.712	0.272	-0.172
-343.391	88.053	-0.093	0.102
-342.377	-24.709	-0.386	0.228
-341.362	269.872	-0.161	0.281
-340.348	800.000	-0.047	-0.142
-339.333	-1.350	0.220	-0.154
-338.318	-82.242	-0.414	-0.134
-337.304	189.732	0.157	0.234
-336.289	17.062	0.067	0.052
-335.275	-200.000	-0.021	-0.238
-334.260	98.101	-0.131	-0.149
-333.245	264.811	0.146	0.251
-332.231	-200.000	0.001	0.150
-331.216	-53.767	0.438	0.198
-330.202	-200.000	-0.012	-0.187
-329.187	15.214	-0.167	-0.130
-328.172	38.010	0.178	-0.157
-327.158	-99.778	0.134	-0.033
-326.143	-70.845	0.186	0.070
-325.129	-38.563	0.270	0.142
-324.114	-110.147	-0.142	0.029
-323.099	20.731	0.139	-0.111
-322.085	800.000	-0.072	-0.259
-321.070	164.833	-0.105	0.146
-320.056	-40.706	0.427	-0.219
-319.041	-142.548	-0.202	-0.020
-318.026	-29.260	0.236	-0.134
-317.012	800.000	0.070	0.255
-315.997	420.164	-0.055	0.116
-314.983	800.000	0.038	-0.129
-313.968	-41.496	0.134	-0.068
-312.953	-85.619	-0.410	0.126
-311.939	30.651	0.187	0.158
-310.924	-77.707	-0.330	0.113
-309.910	689.786	0.006	-0.017
-308.895	-79.597	0.182	-0.061
-307.880	-200.000	-0.005	-0.067
-306.866	-80.121	0.181	0.060
-305.851	135.368	0.247	-0.318
-304.837	37.245	0.086	0.075
-303.822	-200.000	0.048	-0.347
-302.807	372.042	-0.037	0.074
-301.793	800.000	-0.095	0.294
-300.778	169.626	-0.154	-0.219
-299.764	206.201	0.086	-0.132
-298.749	174.904	0.149	0.214
-297.735	-102.158	0.365	0.087
-296.720	24.378	0.149	-0.122
-295.705	149.727	-0.144	0.193
-294.691	45.189	0.266	0.243
-293.676	-166.827	-0.086	-0.004
-292.662	316.115	0.176	-0.329
-291.647	-119.999	-0.241	0.041
-290.632	-200.000	0.025	0.147
-289.618	216.804	0.160	-0.252
-288.603	-128.231	0.339	-0.048
-287.589	287.755	-0.064	0.114
-286.574	6.357	-0.163	0.120
-285.559	-71.474	0.537	0.199
-284.545	30.373	-0.052	-0.044
-283.530	-7.042	0.185	-0.124
-282.516	-50.606	0.255	-0.119
-281.501	-127.124	0.296	0.043
-280.486	-125.023	-0.261	0.040
-279.472	-22.959	-0.179	-0.107
-278.457	127.255	0.081	0.101
-277.443	800.000	0.031	0.087
-276.428	4.041	0.192	0.139
-275.413	-53.237	0.422	0.191
-274.399	-158.213	-0.316	-0.018
-273.384	-187.053	-0.222	0.003
-272.370	800.000	-0.039	0.118
-271.355	135.263	0.246	0.317
-270.340	-67.445	-0.238	-0.093
-269.326	-200.000	-0.043	0.199
-268.311	47.813	0.208	0.192
-267.297	-147.328	-0.212	-0.018
-266.282	-194.004	-0.306	-0.003
-265.267	-165.687	0.435	0.019
-264.253	-84.545	-0.147	-0.046
-263.238	800.000	-0.020	0.084
-262.224	52.974	-0.067	0.063
-261.209	61.179	-0.263	0.258
-260.195	-63.603	-0.364	0.148
-259.180	-60.269	0.172	0.073
-258.165	-200.000	0.012	0.264
-257.151	287.891	-0.227	-0.405
-256.136	114.680	-0.239	0.288
-255.122	-200.000	-0.004	-0.117
-254.107	379.827	0.142	-0.287
-253.092	45.342	-0.049	0.045
-252.078	-38.946	0.245	0.128
-251.063	600.499	0.075	0.183
-250.049	0.880	-0.125	0.088
-249.034	231.818	0.039	0.064
-248.019	-111.855	0.077	0.015
-247.005	-140.354	0.180	0.019
-245.990	264.453	0.054	0.092
-244.976	-143.886	0.393	0.037
-243.961	142.219	0.171	-0.225
-242.946	306.140	0.038	0.070
-241.932	31.557	0.031	0.027
-240.917	34.308	-0.292	-0.252
-239.903	-185.247	-0.271	-0.004
-238.888	-33.133	-0.341	0.187
-237.873	-109.898	-0.180	-0.037
-236.859	111.205	-0.200	0.238
-235.844	-200.000	-0.001	0.166
-234.830	-1.894	0.130	0.090
-233.815	-52.101	-0.270	-0.124
-232.800	-9.267	-0.087	-0.057
-231.786	108.545	0.208	0.245
-230.771	-86.888	-0.354	-0.107
-229.757	-149.049	0.486	-0.039
-228.742	-149.383	0.235	0.018
-227.727	36.764	0.160	0.139
-226.713	-61.649	-0.122	-0.051
-225.698	-132.436	0.201	0.026
-224.684	297.202	-0.092	-0.166
-223.669	-83.089	0.274	-0.087
-222.655	-19.684	0.048	0.029
-221.640	-120.700	0.151	-0.025
-220.625	274.921	0.056	-0.099
-219.611	-127.687	0.364	0.052
-218.596	800.000	0.003	-0.008
-217.582	24.226	-0.129	-0.105
-216.567	625.708	0.044	0.110
-215.552	-76.069	-0.213	-0.074
-214.538	-200.000	-0.027	0.324
-213.523	6.797	0.094	-0.069
-212.509	150.399	-0.152	-0.204
-211.494	-200.000	0.104	-0.453
-210.479	205.789	-0.229	0.351
-209.465	-53.319	-0.035	-0.016
-208.450	-10.689	0.349	0.228
-207.436	146.384	0.193	-0.255
-206.421	63.619	0.062	-0.061
-205.406	149.891	0.126	-0.169
-204.392	-93.634	-0.049	0.013
-203.377	81.900	-0.095	-0.101
-202.363	-35.748	-0.044	-0.024
-201.348	-133.366	0.173	-0.022
-200.333	11.315	-0.092	0.070
-199.319	116.278	0.165	0.199
-198.304	240.173	-0.006	-0.011
-197.290	-200.000	-0.019	-0.352
-196.275	-138.505	-0.132	0.014
-195.260	-200.000	-0.020	0.146
-194.246	-200.000	-0.012	-0.088
-193.231	800.000	0.150	0.493
-192.217	-200.000	-0.039	0.263
-191.202	-200.000	-0.018	0.292
-190.187	-98.455	0.205	-0.052
-189.173	-55.151	-0.364	0.161
-188.158	49.271	-0.212	-0.197
-187.144	-200.000	0.233	-0.001
-186.129	-153.426	-0.186	-0.013
-185.114	800.000	0.059	-0.200
-184.100	-200.000	-0.017	-0.372
-183.085	525.628	0.075	0.174
-182.071	-17.389	-0.026	0.016
-181.056	-141.150	-0.547	0.055
-180.042	-113.835	-0.301	-0.058
-179.027	-148.714	0.367	0.029
-178.012	-28.043	-0.168	0.096
-176.998	229.125	-0.163	0.262
-175.983	4.298	0.228	0.165
-174.969	32.617	-0.101	-0.086
-173.954	-50.668	0.145	0.067
-172.939	-98.310	0.555	-0.140
-171.925	290.269	0.118	-0.210
-170.910	-200.000	-0.028	-0.153
-169.896	-74.251	0.290	0.103
-168.881	-200.000	0.008	-0.430
-167.866	-67.382	-0.081	-0.031
-166.852	-1.713	0.259	0.179
-165.837	2.059	0.150	-0.107
-164.823	800.000	0.030	0.118
-163.808	-159.337	0.298	-0.016
-162.793	19.073	-0.129	-0.102
-161.779	800.000	0.133	0.405
-160.764	372.083	0.029	-0.058
-159.750	-200.000	-0.005	0.339
-158.735	2.053	-0.197	0.140
-157.720	32.020	-0.060	-0.051
-156.706	-39.370	-0.217	-0.112
-155.691	-66.139	-0.040	-0.016
-154.677	-102.425	0.247	0.058
-153.662	-200.000	0.005	0.154
-152.647	34.361	-0.306	-0.263
-151.633	-200.000	-0.067	-0.528
-150.618	-118.473	0.195	0.034
-149.604	89.536	-0.234	-0.257
-148.589	69.076	0.086	-0.087
-147.574	2.294	-0.207	-0.147
-146.560	-200.000	-0.016	-0.112
-145.545	800.000	0.063	0.193
-144.531	-200.000	-0.045	-0.258
-143.516	56.525	0.206	-0.197
-142.502	224.676	-0.135	0.216
-141.487	-34.624	-0.067	-0.036
-140.472	-37.391	-0.147	-0.077
-139.458	99.633	0.130	-0.148
-138.443	-116.373	-0.152	0.028
-137.429	-65.074	0.194	0.077
-136.414	-200.000	-0.058	0.318
-135.399	-34.648	-0.215	0.116
-134.385	-114.742	0.430	-0.081
-133.370	573.256	-0.079	0.189
-132.356	-68.313	0.057	0.022
-131.341	253.505	-0.044	0.073
-130.326	345.106	-0.079	0.153
-129.312	51.578	-0.383	-0.359
-128.297	-38.480	0.034	0.018
-127.283	-37.292	-0.084	0.044
-126.268	361.161	0.061	0.121
-125.253	141.020	0.073	0.094
-124.239	-109.833	0.144	-0.030
-123.224	-28.452	0.253	0.143
-122.210	-200.000	-0.007	-0.272
-121.195	-45.505	-0.151	0.074
