DTS Sentinel unit serial number:	SN413079Multiplexer serial number:	ORYXHardware model number:	OX4-SRSoftware version number:	ORYX F/W v4.00 Oryx Data Collector v3.7.2.0data status	okinstallation	princeton_trtdifferential loss correction	single-endedforward channel	channel 2reverse channel	N/Adate	2019/09/14time	07:43:34forward acquisition time	60.00reverse acquisition time	0.00gamma	496.2192k internal	0.2337k external	0.2337temperature offset calibration	1.0130default loss term (dB/km)	0.3790temperature slope calibration	1.0000multiplexer offset coefficient	1.0000multiplexer slope coefficient	1.0000fibre end	0.00T internal ref (°C)	26.37T ext. ref 1 (°C)	3.50T ext. ref 2 (°C)	22.33length (m)	temperature (°C)	Stokes	anti-Stokes-747.200	-32.403	0.152	0.085
-746.185	503.029	-0.022	-0.052
-745.171	800.000	0.086	0.240
-744.156	-91.952	0.173	-0.049
-743.142	-95.945	0.290	-0.078
-742.127	38.393	-0.209	0.187
-741.112	800.000	0.087	0.284
-740.098	200.063	-0.184	0.283
-739.083	-113.848	0.409	-0.080
-738.069	-126.465	-0.329	-0.049
-737.054	-200.000	0.006	0.124
-736.039	533.029	0.177	0.421
-735.025	-45.344	-0.258	0.128
-734.010	104.375	0.152	0.179
-732.996	-156.510	-0.275	0.017
-731.981	6.783	-0.251	-0.188
-730.966	98.393	0.186	0.215
-729.952	200.016	0.125	0.193
-728.937	18.023	-0.250	0.200
-727.923	-200.000	-0.651	-0.003
-726.908	-28.440	-0.187	-0.108
-725.894	-27.121	0.289	0.169
-724.879	-2.175	0.148	0.104
-723.864	-74.058	-0.116	0.042
-722.850	800.000	-0.065	-0.252
-721.835	-156.467	-0.194	-0.012
-720.821	800.000	0.034	-0.128
-719.806	226.937	-0.061	-0.099
-718.791	-200.000	-0.061	0.304
-717.777	474.369	-0.022	0.049
-716.762	-200.000	-0.024	0.133
-715.748	-200.000	-0.008	-0.352
-714.733	-59.128	-0.125	0.054
-713.718	-89.827	0.235	-0.069
-712.704	-149.012	-0.043	-0.003
-711.689	-27.525	-0.048	0.028
-710.675	251.829	-0.062	-0.106
-709.660	157.695	-0.193	0.268
-708.645	117.206	0.085	-0.104
-707.631	-200.000	-0.067	-0.297
-706.616	131.730	-0.186	0.240
-705.602	58.812	-0.111	-0.109
-704.587	93.601	0.210	0.238
-703.572	-141.549	-0.169	0.017
-702.558	239.570	-0.019	-0.031
-701.543	281.388	-0.051	0.092
-700.529	-200.000	-0.024	-0.230
-699.514	-71.582	0.112	-0.042
-698.499	194.972	0.067	-0.102
-697.485	-200.000	0.029	-0.279
-696.470	-200.000	-0.003	0.033
-695.456	425.549	-0.094	-0.202
-694.441	-53.955	0.153	-0.070
-693.426	-200.000	0.017	0.183
-692.412	-23.071	0.163	0.098
-691.397	-68.067	0.088	0.034
-690.383	-10.509	0.063	0.042
-689.368	262.816	0.209	-0.363
-688.354	-200.000	-0.010	-0.268
-687.339	800.000	-0.124	-0.385
-686.324	-200.000	0.020	-0.181
-685.310	-200.000	-0.030	-0.368
-684.295	6.005	0.166	0.123
-683.281	-41.816	-0.096	-0.050
-682.266	496.118	0.044	-0.101
-681.251	800.000	-0.031	-0.092
-680.237	-58.659	0.183	0.079
-679.222	800.000	-0.092	-0.261
-678.208	-39.810	0.080	0.042
-677.193	-6.598	-0.130	0.089
-676.178	-200.000	-0.106	-0.487
-675.164	-152.482	0.134	0.010
-674.149	-114.980	0.215	-0.041
-673.135	-51.535	-0.168	0.079
-672.120	-200.000	-0.041	-0.473
-671.105	800.000	0.042	-0.182
-670.091	119.656	0.060	-0.074
-669.076	1.720	-0.233	0.168
-668.062	8.516	0.300	0.226
-667.047	197.036	-0.100	-0.153
-666.032	164.905	-0.090	0.128
-665.018	63.570	-0.232	0.233
-664.003	-8.975	-0.104	0.069
-662.989	21.314	0.304	-0.247
-661.974	-200.000	-0.027	0.208
-660.959	-67.144	0.227	0.089
-659.945	-41.163	0.048	-0.025
-658.930	142.180	0.074	-0.098
-657.916	-159.586	0.195	0.011
-656.901	-90.104	0.111	0.032
-655.886	413.562	-0.054	-0.116
-654.872	84.634	-0.206	0.225
-653.857	-108.963	0.246	-0.053
-652.843	365.664	-0.034	-0.069
-651.828	-115.011	-0.529	0.101
-650.814	-200.000	0.006	-0.179
-649.799	-40.135	-0.365	-0.190
-648.784	-13.359	0.137	-0.089
-647.770	36.656	0.045	-0.040
-646.755	118.989	0.161	0.199
-645.741	272.312	0.085	-0.150
-644.726	-146.835	-0.165	0.014
-643.711	-200.000	-0.033	0.150
-642.697	800.000	-0.047	0.184
-641.682	126.415	0.246	-0.311
-640.668	791.775	-0.045	-0.124
-639.653	-200.000	-0.024	0.377
-638.638	8.892	0.228	-0.172
-637.624	-154.878	-0.405	-0.027
-636.609	-194.348	-0.220	-0.002
-635.595	-62.713	-0.120	0.050
-634.580	159.294	-0.164	-0.228
-633.565	-31.250	-0.253	0.142
-632.551	-67.847	-0.342	0.134
-631.536	-200.000	-0.001	-0.168
-630.522	621.861	0.050	-0.126
-629.507	174.103	-0.040	-0.057
-628.492	-65.559	-0.139	0.056
-627.478	91.669	0.113	0.127
-626.463	-70.211	-0.238	-0.090
-625.449	-200.000	0.031	-0.144
-624.434	43.645	-0.143	0.131
-623.419	38.626	-0.214	-0.191
-622.405	47.957	-0.199	-0.185
-621.390	-49.765	0.118	0.056
-620.376	-27.655	0.116	0.067
-619.361	-67.513	-0.260	0.102
-618.346	250.635	0.090	-0.152
-617.332	-89.348	-0.186	0.055
-616.317	-37.915	-0.213	-0.113
-615.303	148.213	0.070	0.094
-614.288	800.000	0.092	-0.276
-613.273	-7.114	-0.213	-0.145
-612.259	-74.843	-0.397	-0.142
-611.244	428.825	0.109	-0.234
-610.230	-29.371	0.394	-0.225
-609.215	-40.170	-0.238	-0.124
-608.201	800.000	-0.088	0.267
-607.186	521.677	0.106	0.248
-606.171	516.612	-0.056	-0.130
-605.157	-79.094	0.408	-0.138
-604.142	-101.139	0.242	-0.059
-603.128	-200.000	0.045	-0.199
-602.113	-200.000	0.003	0.125
-601.098	-114.349	-0.081	-0.016
-600.084	-200.000	-0.023	-0.215
-599.069	-11.407	-0.315	-0.207
-598.055	81.600	0.112	0.121
-597.040	800.000	0.033	-0.127
-596.025	358.573	-0.123	-0.245
-595.011	-188.738	0.208	-0.003
-593.996	551.991	0.063	0.150
-592.982	-200.000	-0.015	0.435
-591.967	-60.798	0.101	0.043
-590.952	-200.000	-0.031	0.285
-589.938	-200.000	0.001	0.065
-588.923	800.000	-0.093	0.269
-587.909	-200.000	-0.001	0.183
-586.894	-46.616	-0.144	0.071
-585.879	517.924	-0.148	0.346
-584.865	-151.707	0.186	-0.014
-583.850	109.881	0.140	-0.167
-582.836	234.067	-0.105	-0.173
-581.821	-77.942	-0.148	0.051
-580.806	406.632	0.086	0.180
-579.792	-46.181	-0.343	-0.168
-578.777	8.221	0.283	0.212
-577.763	-96.001	-0.307	-0.082
-576.748	800.000	-0.084	0.252
-575.733	-120.466	0.257	0.043
-574.719	669.185	0.013	0.032
-573.704	-200.000	0.231	0.001
-572.690	-94.253	0.161	0.044
-571.675	74.213	0.197	-0.206
-570.661	-200.000	-0.023	0.219
-569.646	274.095	0.164	-0.289
-568.631	142.452	-0.137	-0.181
-567.617	-200.000	-0.042	-0.237
-566.602	28.433	0.133	-0.112
-565.588	467.816	-0.095	-0.212
-564.573	-134.112	-0.121	0.015
-563.558	106.427	-0.131	-0.154
-562.544	-106.274	-0.477	-0.107
-561.529	-197.044	-0.139	0.001
-560.515	-173.835	0.326	0.010
-559.500	156.784	-0.140	-0.193
-558.485	326.590	-0.216	0.411
-557.471	501.053	0.026	-0.060
-556.456	-141.947	-0.074	0.007
-555.442	7.808	0.036	-0.027
-554.427	12.091	0.199	-0.152
-553.412	50.192	-0.281	-0.265
-552.398	257.183	-0.096	-0.164
-551.383	-153.202	0.496	-0.035
-550.369	-200.000	-0.023	-0.316
-549.354	800.000	-0.057	-0.199
-548.339	-200.000	-0.012	0.236
-547.325	258.047	-0.046	-0.079
-546.310	800.000	0.067	-0.274
-545.296	5.813	0.074	-0.055
-544.281	-130.179	-0.009	-0.001
-543.266	158.144	-0.149	-0.205
-542.252	-86.179	-0.122	0.037
-541.237	-154.470	-0.467	-0.031
-540.223	-141.602	-0.171	0.017
-539.208	-200.000	0.024	0.505
-538.193	43.452	-0.174	0.158
-537.179	-84.515	-0.283	0.089
-536.164	800.000	0.065	-0.188
-535.150	245.149	0.102	0.171
-534.135	284.654	-0.080	0.142
-533.121	-24.008	-0.142	-0.084
-532.106	-5.821	0.162	-0.111
-531.091	170.942	-0.123	-0.176
-530.077	-200.000	0.077	-0.343
-529.062	-102.485	0.300	-0.071
-528.048	121.918	-0.120	-0.149
-527.033	322.277	0.073	0.138
-526.018	-200.000	0.016	0.401
-525.004	31.767	-0.218	0.187
-523.989	-27.952	-0.168	0.097
-522.975	-200.000	-0.021	-0.393
-521.960	-200.000	-0.056	0.276
-520.945	527.842	-0.047	0.111
-519.931	59.532	0.031	0.030
-518.916	-200.000	-0.023	0.103
-517.902	800.000	-0.063	0.226
-516.887	-200.000	-0.026	-0.162
-515.872	226.225	0.098	-0.159
-514.858	430.466	-0.060	0.128
-513.843	22.596	-0.125	0.102
-512.829	-109.326	-0.443	0.093
-511.814	800.000	-0.030	0.107
-510.799	-97.490	-0.104	0.027
-509.785	-66.092	-0.275	-0.109
-508.770	800.000	-0.088	0.347
-507.756	-36.039	0.314	-0.169
-506.741	559.658	-0.120	-0.287
-505.726	-200.000	-0.018	0.086
-504.712	-133.894	-0.220	0.027
-503.697	35.974	0.025	0.022
-502.683	293.471	-0.155	-0.281
-501.668	-200.000	-0.020	-0.141
-500.653	139.874	-0.085	-0.112
-499.639	282.880	0.016	-0.029
-498.624	-158.040	-0.064	0.004
-497.610	314.703	-0.065	0.121
-496.595	-200.000	0.007	0.062
-495.581	-82.544	-0.148	-0.048
-494.566	-200.000	-0.012	0.060
-493.551	36.616	0.207	-0.181
-492.537	47.477	0.119	-0.110
-491.522	-104.454	0.155	-0.036
-490.508	-200.000	0.019	0.154
-489.493	697.038	-0.036	-0.095
-488.478	-200.000	-0.036	0.299
-487.464	-86.669	0.126	-0.038
-486.449	-200.000	0.013	0.146
-485.435	800.000	0.082	-0.272
-484.420	515.362	-0.153	-0.355
-483.405	122.403	0.123	0.152
-482.391	-200.000	-0.037	-0.254
-481.376	203.266	0.148	-0.227
-480.362	6.942	0.179	0.132
-479.347	179.627	0.146	-0.212
-478.332	-200.000	-0.000	-0.069
-477.318	-6.372	-0.197	0.133
-476.303	53.054	0.074	0.071
-475.289	-200.000	-0.015	-0.422
-474.274	55.187	-0.053	-0.051
-473.259	147.936	0.111	-0.149
-472.245	41.352	0.180	-0.162
-471.230	-176.933	0.427	-0.011
-470.216	-55.428	-0.047	-0.021
-469.201	-145.173	0.081	-0.007
-468.186	-48.665	-0.266	-0.127
-467.172	64.686	-0.200	-0.200
-466.157	145.810	-0.161	-0.215
-465.143	800.000	-0.041	-0.137
-464.128	-200.000	-0.031	0.212
-463.113	-191.893	-0.079	-0.001
-462.099	800.000	0.123	0.353
-461.084	776.639	-0.086	0.232
-460.070	-200.000	0.022	-0.435
-459.055	-1.409	0.138	0.096
-458.040	-67.805	0.280	-0.109
-457.026	244.738	-0.051	0.085
-456.011	23.208	-0.160	0.131
-454.997	-103.879	0.217	0.050
-453.982	191.426	-0.099	0.148
-452.968	159.472	0.097	0.134
-451.953	302.614	0.211	0.387
-450.938	86.591	0.129	-0.141
-449.924	172.029	-0.035	0.050
-448.909	-96.699	-0.198	-0.052
-447.895	-200.000	0.003	0.240
-446.880	249.197	-0.162	0.272
-445.865	-160.113	-0.143	0.008
-444.851	-71.264	0.167	0.062
-443.836	800.000	0.094	-0.288
-442.822	105.857	0.155	0.181
-441.807	-131.879	-0.199	-0.026
-440.792	800.000	-0.071	-0.302
-439.778	26.877	-0.341	-0.284
-438.763	229.945	-0.039	-0.063
-437.749	140.030	0.211	-0.276
-436.734	-200.000	-0.021	-0.218
-435.719	356.993	-0.081	-0.159
-434.705	-200.000	0.021	0.250
-433.690	-200.000	0.045	-0.369
-432.676	-55.320	0.344	0.153
-431.661	-200.000	0.019	0.304
-430.646	-200.000	-0.018	0.176
-429.632	387.337	-0.092	-0.188
-428.617	591.873	0.086	-0.210
-427.603	-140.565	0.059	0.006
-426.588	-15.843	0.300	0.189
-425.573	-200.000	0.013	-0.270
-424.559	80.873	0.014	-0.015
-423.544	777.610	0.039	-0.105
-422.530	16.287	0.264	-0.207
-421.515	-92.421	0.124	0.035
-420.500	-110.140	0.161	0.033
-419.486	800.000	-0.052	-0.207
-418.471	-37.784	-0.231	-0.122
-417.457	-200.000	0.013	-0.200
-416.442	-11.669	0.360	-0.235
-415.428	-200.000	-0.021	0.176
-414.413	236.465	0.120	0.197
-413.398	99.453	0.074	-0.085
-412.384	161.808	0.099	-0.138
-411.369	18.409	-0.073	-0.058
-410.355	-45.415	-0.193	-0.095
-409.340	-46.017	-0.224	0.109
-408.325	281.230	-0.073	-0.130
-407.311	222.441	0.268	0.427
-406.296	-36.302	-0.144	-0.077
-405.282	43.122	0.183	0.166
-404.267	-50.866	-0.104	0.049
-403.252	32.347	-0.053	0.046
-402.238	219.787	-0.148	-0.234
-401.223	188.896	0.091	-0.134
-400.209	-83.896	0.091	0.029
-399.194	81.835	-0.065	-0.070
-398.179	-109.750	-0.230	-0.048
-397.165	-131.871	-0.219	0.028
-396.150	800.000	-0.070	-0.261
-395.136	-200.000	0.006	0.268
-394.121	-39.777	0.208	0.107
-393.106	800.000	0.047	-0.130
-392.092	575.110	-0.097	-0.236
-391.077	666.734	0.029	-0.075
-390.063	-65.804	0.212	0.084
-389.048	-200.000	0.014	0.192
-388.033	-1.095	-0.138	-0.097
-387.019	150.357	0.151	-0.203
-386.004	102.740	-0.185	0.214
-384.990	735.549	-0.055	-0.146
-383.975	-148.408	0.339	0.028
-382.960	28.232	-0.143	-0.119
-381.946	504.438	0.109	0.249
-380.931	39.622	0.147	-0.130
-379.917	-88.237	0.275	0.081
-378.902	-200.000	-0.041	-0.339
-377.888	101.818	0.244	-0.281
-376.873	-200.000	-0.033	0.306
-375.858	-200.000	0.030	-0.239
-374.844	448.020	-0.158	0.345
-373.829	358.003	-0.107	-0.211
-372.815	-95.982	0.312	0.082
-371.800	-200.000	0.005	-0.064
-370.785	560.741	0.112	-0.268
-369.771	80.594	0.172	-0.183
-368.756	722.120	-0.113	0.298
-367.742	95.357	-0.185	0.208
-366.727	-13.084	0.311	0.200
-365.712	162.411	0.266	-0.369
-364.698	-51.078	0.059	0.027
-363.683	98.972	0.110	0.125
-362.669	-28.085	0.141	-0.081
-361.654	265.394	0.063	-0.109
-360.639	-126.961	0.270	0.039
-359.625	-200.000	-0.067	-0.320
-358.610	106.433	-0.239	-0.281
-357.596	511.133	0.029	0.067
-356.581	-32.222	-0.073	-0.040
-355.566	673.131	-0.083	0.213
-354.552	60.773	0.117	0.115
-353.537	-200.000	-0.027	0.176
-352.523	800.000	-0.131	-0.397
-351.508	43.706	-0.272	0.246
-350.493	13.410	0.084	-0.065
-349.479	228.483	0.028	0.045
-348.464	56.234	0.084	0.081
-347.450	-116.273	-0.280	-0.051
-346.435	110.754	-0.252	-0.299
-345.420	-200.000	-0.015	-0.156
-344.406	733.438	-0.069	0.182
-343.391	-200.000	0.027	0.157
-342.377	-116.266	0.227	-0.042
-341.362	-76.460	-0.266	-0.092
-340.348	-76.904	0.355	-0.122
-339.333	140.522	0.145	0.189
-338.318	-104.437	-0.161	0.037
-337.304	-48.422	0.181	0.086
-336.289	-200.000	0.015	-0.143
-335.275	-200.000	-0.001	-0.218
-334.260	-145.785	-0.100	0.009
-333.245	-200.000	0.020	0.090
-332.231	216.544	-0.055	0.086
-331.216	34.217	0.059	-0.051
-330.202	-200.000	-0.000	-0.023
-329.187	168.344	-0.085	0.119
-328.172	506.707	0.039	0.090
-327.158	24.682	-0.207	-0.169
-326.143	-115.588	0.182	-0.034
-325.129	455.837	-0.080	-0.175
-324.114	-65.227	-0.129	-0.051
-323.099	-20.293	0.220	-0.134
-322.085	115.491	-0.098	0.118
-321.070	106.743	0.152	-0.179
-320.056	134.435	-0.221	0.282
-319.041	-180.478	0.434	0.009
-318.026	800.000	0.101	0.420
-317.012	800.000	-0.023	-0.067
-315.997	-107.788	0.187	0.040
-314.983	-200.000	-0.062	0.312
-313.968	-123.478	0.273	-0.043
-312.953	-175.571	0.245	-0.007
-311.939	-138.575	0.223	0.024
-310.924	-128.565	-0.290	0.040
-309.910	294.296	0.025	-0.046
-308.895	-160.539	0.099	-0.005
-307.880	-6.504	0.100	0.067
-306.866	-200.000	-0.022	-0.127
-305.851	41.398	-0.060	0.053
-304.837	-77.651	0.089	0.030
-303.822	-61.153	-0.104	0.043
-302.807	-115.851	-0.139	-0.026
-301.793	85.346	-0.128	0.139
-300.778	-62.201	-0.265	-0.109
-299.764	-5.252	-0.297	-0.202
-298.749	-146.443	0.231	-0.020
-297.735	-104.017	0.213	0.049
-296.720	205.361	0.085	-0.131
-295.705	-148.062	0.221	0.018
-294.691	-171.129	-0.142	0.005
-293.676	41.441	0.341	-0.305
-292.662	30.014	-0.181	0.152
-291.647	323.150	0.055	0.103
-290.632	64.258	-0.129	0.129
-289.618	197.619	0.204	0.307
-288.603	115.244	-0.213	0.257
-287.589	-137.241	0.172	-0.019
-286.574	-55.284	0.231	0.102
-285.559	-26.407	-0.237	0.137
-284.545	98.436	-0.249	0.283
-283.530	-200.000	0.078	0.401
-282.516	41.513	0.226	0.202
-281.501	133.017	-0.167	0.212
-280.486	723.099	-0.123	0.323
-279.472	412.344	-0.045	0.094
-278.457	307.600	-0.145	0.266
-277.443	-148.214	-0.117	-0.009
-276.428	-152.629	0.247	-0.017
-275.413	-36.384	-0.220	-0.117
-274.399	119.589	-0.034	-0.042
-273.384	800.000	-0.096	0.289
-272.370	105.892	0.223	0.261
-271.355	79.043	-0.040	-0.042
-270.340	-200.000	0.070	0.315
-269.326	-40.789	-0.406	-0.207
-268.311	800.000	0.069	-0.246
-267.297	334.724	0.096	-0.184
-266.282	-16.346	-0.292	-0.183
-265.267	-61.268	0.083	0.034
-264.253	53.050	0.137	-0.129
-263.238	800.000	-0.118	-0.488
-262.224	-67.834	-0.288	0.111
-261.209	800.000	-0.030	-0.113
-260.195	291.814	0.131	0.235
-259.180	-34.824	0.227	-0.122
-258.165	-3.650	-0.159	-0.109
-257.151	-68.912	0.112	-0.043
-256.136	-200.000	-0.024	-0.105
-255.122	-51.192	0.163	-0.075
-254.107	-200.000	0.018	0.159
-253.092	220.917	0.063	-0.100
-252.078	-136.005	0.177	0.020
-251.063	-200.000	-0.016	-0.352
-250.049	-27.825	0.088	-0.050
-249.034	-23.928	0.421	0.248
-248.019	-200.000	0.084	0.451
-247.005	366.653	0.122	-0.242
-245.990	-200.000	0.095	0.472
-244.976	210.964	0.112	0.174
-243.961	-70.913	0.096	0.036
-242.946	-52.139	-0.158	0.072
-241.932	-132.773	-0.126	-0.016
-240.917	-74.053	-0.082	0.029
-239.903	1.847	0.222	0.158
-238.888	-19.994	0.122	0.074
-237.873	34.188	-0.325	0.279
-236.859	-143.722	0.138	-0.013
-235.844	-93.109	0.118	-0.032
-234.830	68.887	-0.167	0.169
-233.815	-25.702	-0.201	-0.117
-232.800	20.740	-0.236	0.188
-231.786	-46.079	-0.075	0.036
-230.771	-181.582	0.497	0.009
-229.757	-56.977	-0.152	-0.066
-228.742	-145.237	-0.158	-0.014
-227.727	800.000	-0.037	0.133
-226.713	800.000	-0.103	0.376
-225.698	68.175	-0.077	0.077
-224.684	-21.052	-0.356	0.214
-223.669	176.998	-0.199	-0.285
-222.655	180.769	0.097	0.140
-221.640	6.592	0.257	-0.188
-220.625	124.549	0.084	-0.105
-219.611	146.310	-0.152	-0.201
-218.596	-4.909	-0.189	-0.128
-217.582	-64.293	0.124	0.050
-216.567	-165.036	0.200	-0.009
-215.552	-23.895	0.238	0.140
-214.538	212.446	0.014	0.022
-213.523	540.742	-0.007	-0.017
-212.509	-200.000	-0.017	0.403
-211.494	-38.135	-0.336	-0.175
-210.479	-74.050	0.403	-0.144
-209.465	-200.000	0.008	0.069
-208.450	7.129	0.193	0.141
-207.436	20.455	-0.125	-0.099
-206.421	297.472	-0.025	0.046
-205.406	51.471	0.281	-0.263
-204.392	568.907	0.154	0.367
-203.377	-106.881	0.096	0.021
-202.363	66.166	-0.071	0.071
-201.348	-4.468	-0.148	0.100
-200.333	800.000	-0.049	0.205
-199.319	185.319	-0.034	0.049
-198.304	102.174	-0.173	0.198
-197.290	-110.623	0.138	-0.028
-196.275	120.136	-0.185	0.225
-195.260	800.000	0.083	-0.227
-194.246	800.000	0.051	-0.200
-193.231	159.183	0.131	-0.179
-192.217	-132.893	0.133	-0.017
-191.202	-58.298	-0.325	-0.139
-190.187	-121.991	0.298	0.048
-189.173	55.799	-0.227	0.216
-188.158	-100.827	0.430	0.104
-187.144	743.308	0.090	0.238
-186.129	15.346	-0.138	0.107
-185.114	-200.000	-0.016	-0.093
-184.100	800.000	-0.015	0.058
-183.085	-82.381	0.092	0.029
-182.071	800.000	0.020	0.067
-181.056	-121.886	0.283	-0.046
-180.042	23.189	0.298	0.240
-179.027	13.209	-0.230	0.175
-178.012	176.779	-0.201	0.287
-176.998	-107.880	-0.195	-0.042
-175.983	-22.501	0.115	0.068
-174.969	230.491	0.060	0.097
-173.954	-77.361	0.385	0.131
-172.939	-35.385	0.053	0.028
-171.925	800.000	0.040	0.125
-170.910	-14.525	0.228	-0.144
-169.896	-200.000	0.013	-0.074
-168.881	-200.000	0.017	0.162
-167.866	51.635	0.128	-0.120
-166.852	800.000	0.059	-0.182
-165.837	-148.622	-0.178	-0.014
-164.823	-62.350	-0.081	0.033
-163.808	94.024	-0.168	0.187
-162.793	-31.882	-0.196	0.108
-161.779	35.311	0.245	0.211
-160.764	800.000	0.077	-0.210
-159.750	-52.945	-0.123	0.055
-158.735	426.704	0.084	0.177
-157.720	-119.750	0.384	0.065
-156.706	800.000	0.120	0.348
-155.691	-200.000	-0.003	-0.034
-154.677	-200.000	-0.119	-0.586
-153.662	-20.183	0.054	0.032
-152.647	-16.349	-0.359	0.223
-151.633	34.554	-0.245	-0.210
-150.618	520.939	-0.065	0.150
-149.604	-128.159	-0.076	-0.011
-148.589	-117.833	0.285	0.050
-147.574	-51.226	-0.251	0.115
-146.560	333.097	0.115	-0.218
-145.545	-200.000	-0.007	0.090
-144.531	-73.723	-0.133	0.048
-143.516	-81.549	0.133	0.043
-142.502	30.503	0.206	0.173
-141.487	-157.449	-0.088	-0.005
-140.472	-58.562	0.173	0.074
-139.458	6.047	0.127	-0.092
-138.443	-49.800	0.208	-0.097
-137.429	800.000	0.071	0.201
-136.414	8.102	0.109	0.080
-135.399	-200.000	0.019	-0.235
-134.385	800.000	-0.076	-0.255
-133.370	-58.567	0.312	0.133
-132.356	-155.438	-0.202	-0.013
-131.341	171.081	-0.042	-0.059
-130.326	41.849	0.219	0.195
-129.312	-200.000	-0.043	-0.244
-128.297	252.465	-0.063	-0.106
-127.283	51.887	-0.227	0.212
-126.268	138.585	-0.080	0.103
-125.253	-163.331	0.219	0.010
-124.239	-66.532	0.467	-0.182
-123.224	89.677	0.269	0.294
-122.210	-42.371	-0.294	0.147
-121.195	-71.337	-0.017	0.006
