DTS Sentinel unit serial number:	SN413079Multiplexer serial number:	ORYXHardware model number:	OX4-SRSoftware version number:	ORYX F/W v4.00 Oryx Data Collector v3.7.2.0data status	okinstallation	princeton_trtdifferential loss correction	single-endedforward channel	channel 2reverse channel	N/Adate	2019/09/15time	20:59:34forward acquisition time	60.00reverse acquisition time	0.00gamma	496.2192k internal	0.2332k external	0.2332temperature offset calibration	0.9940default loss term (dB/km)	0.3790temperature slope calibration	1.0000multiplexer offset coefficient	1.0000multiplexer slope coefficient	1.0000fibre end	0.00T internal ref (°C)	31.84T ext. ref 1 (°C)	8.06T ext. ref 2 (°C)	24.38length (m)	temperature (°C)	Stokes	anti-Stokes-747.200	-112.779	0.087	-0.017
-746.185	378.839	0.114	0.236
-745.171	617.373	0.058	0.146
-744.156	488.276	0.131	0.300
-743.142	55.801	-0.069	-0.068
-742.127	-117.771	-0.081	-0.015
-741.112	800.000	0.148	0.434
-740.098	279.521	-0.043	0.078
-739.083	129.868	-0.070	0.090
-738.069	800.000	-0.136	0.409
-737.054	319.322	-0.109	0.208
-736.039	180.581	-0.079	-0.116
-735.025	800.000	-0.084	0.289
-734.010	-57.030	-0.235	0.104
-732.996	-55.788	-0.107	-0.048
-731.981	-200.000	0.041	0.360
-730.966	111.040	0.153	-0.185
-729.952	209.914	0.084	-0.132
-728.937	-139.772	-0.071	-0.008
-727.923	-95.306	-0.480	-0.130
-726.908	-95.076	-0.250	-0.068
-725.894	-200.000	0.021	0.110
-724.879	-200.000	-0.017	0.197
-723.864	-172.175	0.231	-0.007
-722.850	37.128	-0.048	0.042
-721.835	39.376	-0.247	-0.223
-720.821	-200.000	0.046	0.207
-719.806	23.053	-0.241	-0.198
-718.791	-79.812	-0.303	0.103
-717.777	-200.000	-0.014	0.205
-716.762	800.000	-0.109	0.315
-715.748	662.384	-0.024	0.061
-714.733	-41.481	0.228	0.118
-713.718	-91.239	0.205	-0.059
-712.704	-38.480	0.073	-0.039
-711.689	-65.244	-0.197	0.080
-710.675	-200.000	0.010	0.163
-709.660	455.367	0.028	0.062
-708.645	-200.000	0.045	-0.296
-707.631	59.859	-0.062	0.062
-706.616	-200.000	0.012	0.217
-705.602	43.182	0.219	-0.200
-704.587	-98.956	0.085	0.022
-703.572	31.599	-0.155	0.134
-702.558	-56.960	-0.341	-0.151
-701.543	11.498	-0.232	-0.179
-700.529	55.237	0.059	-0.057
-699.514	-89.041	-0.198	-0.059
-698.499	-19.919	-0.130	0.080
-697.485	-56.465	-0.160	0.071
-696.470	-71.597	0.234	0.088
-695.456	-100.997	0.157	0.039
-694.441	-14.588	-0.178	0.115
-693.426	156.680	0.161	0.224
-692.412	717.261	-0.132	0.351
-691.397	800.000	0.091	-0.273
-690.383	800.000	0.051	0.168
-689.368	800.000	0.079	0.249
-688.354	128.556	-0.099	-0.126
-687.339	286.889	0.250	-0.454
-686.324	-161.957	0.165	-0.008
-685.310	373.976	0.200	-0.408
-684.295	-81.900	0.232	0.076
-683.281	-200.000	0.000	0.044
-682.266	800.000	0.085	0.311
-681.251	-95.409	-0.116	0.031
-680.237	-108.263	0.232	0.050
-679.222	136.516	-0.314	-0.411
-678.208	12.719	-0.087	-0.068
-677.193	-11.780	0.277	-0.182
-676.178	-120.254	-0.262	0.045
-675.164	-138.783	0.161	0.018
-674.149	800.000	-0.050	-0.170
-673.135	37.611	-0.246	-0.219
-672.120	250.351	0.186	-0.317
-671.105	-158.395	-0.082	-0.005
-670.091	-79.433	0.065	0.022
-669.076	620.451	-0.092	-0.232
-668.062	346.647	0.270	0.532
-667.047	-88.843	-0.222	0.066
-666.032	75.524	0.261	-0.276
-665.018	458.253	-0.047	-0.105
-664.003	-55.093	-0.223	0.100
-662.989	-32.624	0.265	0.148
-661.974	800.000	-0.094	0.353
-660.959	515.541	-0.049	0.115
-659.945	39.038	0.248	-0.223
-658.930	-200.000	0.024	0.276
-657.916	-130.895	0.086	-0.011
-656.901	-25.937	-0.327	0.193
-655.886	-0.880	-0.160	-0.114
-654.872	-79.802	-0.148	-0.050
-653.857	82.154	-0.149	-0.162
-652.843	-104.397	0.179	0.041
-651.828	24.464	-0.043	-0.036
-650.814	800.000	-0.045	0.172
-649.799	311.816	-0.021	-0.039
-648.784	-63.013	-0.164	-0.068
-647.770	-70.417	0.083	-0.032
-646.755	175.545	0.156	-0.227
-645.741	377.723	0.133	0.273
-644.726	-16.624	-0.177	0.112
-643.711	-94.139	0.220	-0.060
-642.697	-23.956	0.089	-0.054
-641.682	-87.553	-0.118	-0.036
-640.668	-115.877	0.205	0.038
-639.653	429.080	-0.082	-0.177
-638.638	-9.382	0.092	-0.061
-637.624	-32.597	-0.205	-0.114
-636.609	800.000	0.063	0.249
-635.595	70.190	0.062	-0.065
-634.580	-200.000	-0.021	0.153
-633.565	-99.220	-0.110	0.028
-632.551	240.593	-0.151	0.252
-631.536	12.203	0.195	0.150
-630.522	-22.923	0.291	0.176
-629.507	334.619	-0.097	-0.188
-628.492	-101.685	0.257	0.063
-627.478	15.078	-0.370	0.290
-626.463	176.067	0.147	0.213
-625.449	75.714	0.214	-0.226
-624.434	-2.891	0.122	0.085
-623.419	-102.083	-0.254	-0.061
-622.405	246.629	-0.004	0.006
-621.390	-12.940	0.289	-0.188
-620.376	11.937	0.249	0.192
-619.361	-11.397	0.052	0.034
-618.346	-43.723	-0.367	-0.185
-617.332	603.221	-0.104	-0.258
-616.317	90.059	0.262	0.293
-615.303	532.761	-0.040	0.096
-614.288	-200.000	0.066	-0.391
-613.273	118.965	0.239	0.296
-612.259	-20.491	-0.372	-0.229
-611.244	-86.888	-0.115	-0.035
-610.230	-41.072	0.290	-0.150
-609.215	-34.885	0.180	0.098
-608.201	630.916	-0.143	-0.362
-607.186	300.019	0.033	0.060
-606.171	-200.000	-0.066	-0.311
-605.157	-123.211	-0.139	0.022
-604.142	-200.000	-0.015	0.219
-603.128	-87.482	-0.087	-0.026
-602.113	800.000	0.089	-0.260
-601.098	800.000	-0.035	-0.152
-600.084	-135.555	0.222	-0.026
-599.069	21.427	-0.076	0.062
-598.055	-124.103	-0.317	0.050
-597.040	-162.374	0.440	-0.022
-596.025	-67.182	0.365	-0.144
-595.011	-40.292	-0.418	0.217
-593.996	144.198	-0.075	0.100
-592.982	-200.000	0.001	-0.292
-591.967	22.297	-0.083	-0.068
-590.952	86.513	0.176	-0.194
-589.938	675.283	-0.073	-0.191
-588.923	-91.585	-0.280	0.080
-587.909	-172.407	-0.100	-0.003
-586.894	229.930	-0.104	0.170
-585.879	-166.866	-0.186	0.008
-584.865	29.151	0.233	0.198
-583.850	-42.090	0.332	0.170
-582.836	111.393	0.318	-0.383
-581.821	84.978	0.283	-0.310
-580.806	-200.000	0.078	-0.448
-579.792	80.535	-0.096	0.103
-578.777	-200.000	-0.019	-0.087
-577.763	-141.424	0.064	0.006
-576.748	59.196	-0.032	0.032
-575.733	194.274	-0.074	-0.112
-574.719	-159.226	0.416	0.023
-573.704	157.543	-0.153	-0.212
-572.690	-169.701	-0.154	0.006
-571.675	-121.010	0.399	-0.067
-570.661	-118.316	-0.291	-0.052
-569.646	203.524	0.133	-0.205
-568.631	32.051	0.245	-0.211
-567.617	-200.000	-0.009	-0.196
-566.602	-2.825	0.309	-0.216
-565.588	-36.342	-0.128	0.069
-564.573	-200.000	0.164	0.001
-563.558	-100.871	-0.451	0.111
-562.544	-200.000	0.006	-0.079
-561.529	733.319	0.098	0.261
-560.515	7.873	0.210	-0.157
-559.500	-174.437	-0.225	0.006
-558.485	54.643	0.210	0.202
-557.471	38.025	0.094	-0.083
-556.456	659.537	0.052	-0.133
-555.442	21.290	-0.074	-0.060
-554.427	-56.576	-0.129	0.057
-553.412	169.113	0.059	0.083
-552.398	-200.000	-0.044	0.297
-551.383	-200.000	-0.006	-0.198
-550.369	-59.292	0.199	0.086
-549.354	-33.286	-0.125	-0.069
-548.339	-200.000	0.008	0.201
-547.325	800.000	-0.017	0.059
-546.310	-73.164	-0.128	-0.047
-545.296	-200.000	0.017	0.259
-544.281	-200.000	0.004	0.226
-543.266	-138.457	-0.561	-0.062
-542.252	-37.902	0.211	-0.112
-541.237	64.519	0.093	0.094
-540.223	226.003	0.123	0.199
-539.208	209.686	0.266	0.416
-538.193	800.000	-0.047	0.145
-537.179	-97.375	0.301	0.078
-536.164	-80.135	0.087	0.029
-535.150	-20.781	0.166	-0.102
-534.135	-72.400	0.253	0.093
-533.121	-198.859	-0.179	0.001
-532.106	-59.803	0.067	-0.029
-531.091	420.140	-0.171	0.365
-530.077	27.972	-0.099	-0.083
-529.062	256.747	-0.077	-0.132
-528.048	547.121	-0.051	0.122
-527.033	-41.317	-0.216	-0.111
-526.018	158.990	-0.125	-0.173
-525.004	-117.961	-0.046	-0.008
-523.989	-58.307	-0.449	-0.195
-522.975	-39.757	-0.109	0.057
-521.960	-28.096	-0.347	-0.200
-520.945	-200.000	-0.077	0.344
-519.931	86.583	-0.109	-0.120
-518.916	128.566	-0.197	-0.250
-517.902	800.000	-0.041	0.139
-516.887	200.434	0.225	0.344
-515.872	-55.929	0.359	0.160
-514.858	-141.651	0.206	-0.021
-513.843	-162.100	0.206	0.010
-512.829	547.287	0.077	0.183
-511.814	-84.685	-0.078	-0.025
-510.799	-34.621	0.261	0.143
-509.785	23.517	-0.304	0.249
-508.770	350.451	-0.181	-0.357
-507.756	800.000	0.089	0.289
-506.741	-1.486	-0.112	0.078
-505.726	-200.000	-0.033	0.146
-504.712	-15.192	0.067	0.043
-503.697	209.324	-0.208	-0.325
-502.683	452.403	-0.010	-0.023
-501.668	-27.886	0.155	-0.090
-500.653	-90.166	0.227	0.066
-499.639	59.956	0.117	0.115
-498.624	-149.149	0.135	0.011
-497.610	800.000	-0.118	-0.377
-496.595	-102.606	0.066	-0.016
-495.581	97.209	-0.109	0.125
-494.566	-177.379	0.208	-0.005
-493.551	-129.276	-0.240	0.033
-492.537	-200.000	-0.035	0.253
-491.522	105.541	-0.257	0.302
-490.508	-200.000	0.023	0.169
-489.493	-29.434	-0.269	-0.153
-488.478	-200.000	0.016	0.118
-487.464	-104.659	-0.427	0.098
-486.449	178.229	-0.181	-0.263
-485.435	107.562	0.089	0.106
-484.420	-105.576	-0.304	0.069
-483.405	-200.000	0.049	-0.357
-482.391	-41.086	0.166	-0.085
-481.376	43.570	-0.197	0.179
-480.362	-200.000	0.015	-0.393
-479.347	-25.798	-0.137	-0.080
-478.332	325.254	0.048	0.091
-477.318	-17.166	-0.088	0.055
-476.303	-9.899	-0.225	-0.149
-475.289	105.483	0.293	0.344
-474.274	504.970	-0.203	-0.468
-473.259	-200.000	-0.059	-0.272
-472.245	-43.564	0.092	-0.046
-471.230	800.000	0.091	0.288
-470.216	800.000	-0.077	0.222
-469.201	-0.353	-0.129	-0.092
-468.186	276.320	-0.051	-0.091
-467.172	-2.709	-0.149	0.104
-466.157	-107.826	-0.269	0.058
-465.143	466.495	0.114	-0.255
-464.128	800.000	-0.047	0.168
-463.113	-86.171	-0.206	0.063
-462.099	-72.011	0.465	0.172
-461.084	-9.931	-0.433	0.287
-460.070	-151.855	0.255	-0.019
-459.055	-113.992	-0.176	0.034
-458.040	-100.117	0.087	0.021
-457.026	-41.196	0.136	0.070
-456.011	-41.444	-0.079	-0.040
-454.997	-39.142	-0.172	0.090
-453.982	7.990	-0.442	-0.330
-452.968	-200.000	0.017	0.238
-451.953	-28.819	0.163	0.093
-450.938	800.000	0.054	0.157
-449.924	-27.751	-0.112	-0.064
-448.909	110.691	-0.041	0.049
-447.895	74.225	-0.199	-0.208
-446.880	-200.000	-0.030	0.152
-445.865	-200.000	-0.006	-0.033
-444.851	9.398	0.126	-0.095
-443.836	193.886	-0.102	-0.154
-442.822	49.336	0.088	0.082
-441.807	59.281	-0.132	-0.130
-440.792	-21.192	0.147	-0.089
-439.778	51.490	-0.069	-0.065
-438.763	67.303	-0.025	-0.026
-437.749	454.247	-0.065	0.143
-436.734	-7.711	0.098	0.066
-435.719	55.571	-0.050	-0.048
-434.705	659.336	0.094	-0.240
-433.690	155.399	-0.120	-0.164
-432.676	34.932	0.089	-0.078
-431.661	-167.156	0.032	0.001
-430.646	-74.178	0.231	0.083
-429.632	73.685	-0.131	-0.136
-428.617	-115.019	0.256	-0.048
-427.603	497.706	-0.076	-0.174
-426.588	137.928	0.134	-0.175
-425.573	-200.000	0.068	-0.307
-424.559	-200.000	-0.019	-0.363
-423.544	-159.847	0.401	-0.022
-422.530	49.154	-0.193	-0.180
-421.515	-59.553	0.033	0.014
-420.500	18.886	-0.107	0.085
-419.486	114.013	-0.054	-0.065
-418.471	76.535	-0.094	-0.099
-417.457	208.028	-0.175	-0.271
-416.442	-49.031	0.287	-0.136
-415.428	-102.589	-0.288	-0.068
-414.413	-138.908	0.350	0.038
-413.398	-68.186	-0.156	0.060
-412.384	262.499	0.113	0.194
-411.369	800.000	-0.028	0.082
-410.355	-84.534	-0.339	0.106
-409.340	26.901	0.207	-0.173
-408.325	126.739	-0.093	-0.118
-407.311	539.799	0.099	-0.233
-406.296	-161.646	-0.261	-0.013
-405.282	398.130	0.100	0.207
-404.267	-50.172	0.118	0.055
-403.252	-70.160	-0.131	-0.050
-402.238	800.000	0.048	-0.149
-401.223	-200.000	0.056	0.305
-400.209	-200.000	0.003	0.389
-399.194	164.064	0.100	0.139
-398.179	-200.000	0.099	-0.000
-397.165	-93.470	-0.152	0.042
-396.150	-200.000	0.011	0.307
-395.136	353.926	0.082	0.162
-394.121	-76.857	0.293	-0.102
-393.106	800.000	-0.053	0.180
-392.092	271.375	0.214	0.374
-391.077	384.743	-0.229	-0.469
-390.063	-184.168	-0.086	0.001
-389.048	-100.189	-0.085	0.021
-388.033	-23.066	-0.286	-0.171
-387.019	-46.506	0.104	0.051
-386.004	14.040	-0.199	0.154
-384.990	-38.411	-0.309	-0.162
-383.975	-79.493	0.234	0.079
-382.960	298.050	0.123	0.225
-381.946	212.162	-0.096	0.150
-380.931	50.710	-0.142	0.133
-379.917	-0.112	0.123	-0.087
-378.902	-106.865	-0.253	0.056
-377.888	169.288	-0.053	0.075
-376.873	-149.310	0.254	-0.020
-375.858	85.352	0.132	-0.143
-374.844	128.568	-0.074	0.093
-373.829	81.211	-0.187	-0.200
-372.815	-1.143	-0.127	-0.089
-371.800	259.410	-0.179	0.307
-370.785	800.000	0.023	-0.072
-369.771	-151.804	-0.142	0.010
-368.756	-68.555	0.235	0.090
-367.742	339.284	-0.053	0.103
-366.727	194.371	-0.044	-0.067
-365.712	43.891	-0.223	-0.203
-364.698	75.018	-0.113	0.118
-363.683	-200.000	0.018	0.112
-362.669	459.431	0.059	-0.131
-361.654	800.000	-0.040	-0.142
-360.639	-200.000	-0.015	0.159
-359.625	-200.000	0.038	0.180
-358.610	-3.713	0.347	-0.239
-357.596	9.134	-0.023	0.017
-356.581	-103.054	-0.316	0.074
-355.566	800.000	-0.067	-0.287
-354.552	15.604	0.108	-0.084
-353.537	-41.761	-0.148	-0.075
-352.523	-126.208	0.392	0.058
-351.508	-77.672	-0.643	0.220
-350.493	3.013	-0.265	0.191
-349.479	-75.458	-0.168	0.059
-348.464	-165.415	-0.032	-0.001
-347.450	234.487	0.088	0.143
-346.435	800.000	0.070	-0.293
-345.420	-133.580	0.556	0.069
-344.406	13.341	0.159	0.122
-343.391	-200.000	-0.007	-0.147
-342.377	514.366	-0.046	-0.107
-341.362	800.000	0.015	-0.063
-340.348	619.309	-0.082	0.203
-339.333	-180.870	-0.329	-0.007
-338.318	-200.000	0.086	0.374
-337.304	-158.423	0.125	-0.007
-336.289	-148.241	0.290	0.024
-335.275	-50.510	-0.434	-0.203
-334.260	82.107	0.089	0.095
-333.245	239.812	0.069	0.113
-332.231	-121.924	0.183	0.030
-331.216	-135.052	0.093	0.011
-330.202	800.000	-0.029	0.086
-329.187	-200.000	0.058	-0.257
-328.172	-7.719	0.073	0.049
-327.158	91.573	-0.032	-0.036
-326.143	117.556	-0.159	0.194
-325.129	-200.000	0.042	-0.221
-324.114	66.449	0.218	-0.219
-323.099	310.033	0.099	0.184
-322.085	-200.000	0.010	0.068
-321.070	-98.293	-0.243	0.062
-320.056	-57.342	-0.231	0.100
-319.041	-189.734	0.137	-0.002
-318.026	-200.000	-0.011	-0.193
-317.012	-200.000	0.009	-0.071
-315.997	800.000	-0.095	-0.294
-314.983	536.346	0.061	0.143
-313.968	11.136	-0.120	-0.091
-312.953	-17.156	0.143	0.089
-311.939	800.000	0.114	0.379
-310.924	-200.000	-0.012	-0.213
-309.910	4.989	0.209	0.152
-308.895	-25.594	0.103	0.060
-307.880	-124.381	-0.174	0.027
-306.866	-140.734	-0.276	-0.028
-305.851	-200.000	-0.050	-0.277
-304.837	195.730	0.068	0.102
-303.822	384.062	-0.035	0.071
-302.807	-28.179	0.135	-0.077
-301.793	-193.990	0.192	0.002
-300.778	386.844	-0.096	0.196
-299.764	-70.236	0.268	0.101
-298.749	114.955	0.228	-0.275
-297.735	-88.605	-0.266	-0.078
-296.720	197.676	0.155	0.234
-295.705	-200.000	0.016	0.176
-294.691	-55.268	-0.108	-0.048
-293.676	-126.312	0.088	0.013
-292.662	-83.762	-0.084	-0.026
-291.647	800.000	0.096	-0.416
-290.632	-9.621	0.279	-0.184
-289.618	73.562	-0.049	0.051
-288.603	5.504	0.047	-0.035
-287.589	153.996	0.117	0.158
-286.574	-92.184	-0.107	-0.030
-285.559	72.331	-0.254	0.262
-284.545	231.963	0.144	0.233
-283.530	80.049	-0.228	0.242
-282.516	-136.674	0.353	0.040
-281.501	-36.240	0.511	0.273
-280.486	-200.000	0.033	-0.220
-279.472	-78.658	-0.238	-0.080
-278.457	532.512	-0.121	-0.284
-277.443	142.909	-0.069	0.091
-276.428	-19.734	-0.145	0.089
-275.413	800.000	0.070	-0.217
-274.399	-200.000	-0.004	-0.211
-273.384	-148.351	-0.323	0.026
-272.370	107.352	0.185	-0.217
-271.355	-53.869	-0.190	-0.085
-270.340	-137.167	-0.090	-0.010
-269.326	167.564	0.074	-0.104
-268.311	45.146	0.108	0.098
-267.297	-128.199	-0.017	-0.002
-266.282	-140.419	0.058	-0.006
-265.267	39.817	0.108	-0.095
-264.253	19.074	0.245	0.194
-263.238	-5.444	0.139	0.094
-262.224	106.580	-0.150	-0.175
-261.209	-127.099	-0.121	-0.018
-260.195	514.036	0.083	-0.190
-259.180	-36.291	0.120	0.064
-258.165	-140.360	0.149	0.015
-257.151	19.112	0.199	0.157
-256.136	92.768	-0.088	0.098
-255.122	118.292	0.216	-0.263
-254.107	79.995	0.138	-0.146
-253.092	-15.316	-0.270	-0.171
-252.078	341.074	0.115	0.222
-251.063	-125.527	0.097	-0.015
-250.049	6.656	-0.553	-0.406
-249.034	-4.905	0.266	0.181
-248.019	26.943	0.259	0.214
-247.005	-56.642	0.322	0.141
-245.990	-78.218	-0.241	0.082
-244.976	535.235	-0.106	0.249
-243.961	-17.041	0.200	0.125
-242.946	73.005	0.075	-0.077
-241.932	-155.185	0.049	-0.003
-240.917	-78.512	-0.297	0.100
-239.903	63.397	-0.310	0.306
-238.888	800.000	-0.066	0.273
-237.873	-200.000	0.042	0.208
-236.859	-200.000	0.038	0.363
-235.844	800.000	-0.012	-0.046
-234.830	800.000	-0.020	0.078
-233.815	-25.697	0.314	-0.183
-232.800	-64.766	0.137	-0.055
-231.786	-72.309	-0.376	-0.137
-230.771	-13.058	0.270	-0.173
-229.757	408.002	-0.079	-0.165
-228.742	-200.000	-0.033	-0.235
-227.727	719.364	-0.113	-0.297
-226.713	-76.526	0.172	0.060
-225.698	-130.761	0.354	-0.047
-224.684	-174.132	-0.318	0.009
-223.669	69.449	0.218	0.221
-222.655	87.003	0.121	0.132
-221.640	-95.929	-0.121	0.032
-220.625	-143.560	0.592	-0.056
-219.611	-83.194	0.100	0.032
-218.596	23.922	-0.025	-0.020
-217.582	-17.614	-0.133	0.082
-216.567	582.104	-0.030	-0.072
-215.552	178.362	-0.094	-0.136
-214.538	-128.001	0.228	0.032
-213.523	146.605	0.062	0.082
-212.509	40.170	-0.061	-0.054
-211.494	-200.000	-0.073	0.000
-210.479	-200.000	0.000	-0.201
-209.465	-200.000	-0.054	0.360
-208.450	800.000	0.058	0.247
-207.436	103.916	0.113	0.130
-206.421	-182.535	-0.514	0.009
-205.406	-96.199	0.132	0.034
-204.392	-77.775	-0.301	-0.102
-203.377	24.001	0.172	0.140
-202.363	-200.000	-0.028	0.258
-201.348	-68.507	0.172	0.066
-200.333	-17.009	-0.133	-0.083
-199.319	-20.622	-0.318	0.192
-198.304	-187.386	-0.239	-0.003
-197.290	69.802	0.104	0.105
-196.275	24.475	0.044	0.036
-195.260	-200.000	-0.006	-0.203
-194.246	-26.838	0.096	-0.055
-193.231	43.949	-0.391	0.353
-192.217	150.485	0.032	-0.043
-191.202	-138.737	0.464	-0.050
-190.187	-93.906	-0.121	-0.033
-189.173	322.182	0.076	0.142
-188.158	128.251	-0.135	-0.169
-187.144	-200.000	0.048	-0.261
-186.129	-200.000	0.050	-0.214
-185.114	286.690	-0.102	0.181
-184.100	41.065	0.182	-0.162
-183.085	-131.546	0.066	0.009
-182.071	-113.220	-0.119	-0.023
-181.056	800.000	-0.093	-0.361
-180.042	85.823	-0.159	-0.173
-179.027	-118.073	-0.256	0.045
-178.012	-200.000	-0.001	-0.325
-176.998	-200.000	0.019	0.226
-175.983	19.381	0.065	-0.051
-174.969	-76.625	0.186	-0.064
-173.954	40.540	0.175	0.155
-172.939	-200.000	-0.215	-0.001
-171.925	-47.027	0.079	-0.038
-170.910	257.623	0.110	-0.185
-169.896	-86.597	-0.422	0.127
-168.881	-19.580	-0.282	0.172
-167.866	-86.798	0.264	0.079
-166.852	-67.204	-0.067	-0.026
-165.837	-142.162	0.206	-0.020
-164.823	-82.002	0.159	-0.051
-163.808	189.666	0.081	0.119
-162.793	321.642	-0.122	-0.229
-161.779	-5.327	-0.232	0.157
-160.764	-5.180	0.165	0.111
-159.750	-93.386	-0.167	-0.045
-158.735	90.616	0.304	-0.335
-157.720	385.958	0.065	0.132
-156.706	36.682	0.189	-0.164
-155.691	-121.249	-0.227	0.037
-154.677	204.785	-0.035	0.054
-153.662	133.719	0.085	0.109
-152.647	87.076	-0.137	-0.148
-151.633	229.214	0.028	0.045
-150.618	4.315	0.145	0.104
-149.604	-200.000	0.025	-0.111
-148.589	-127.371	0.155	-0.022
-147.574	-43.654	-0.055	-0.027
-146.560	-200.000	0.017	-0.245
-145.545	-190.803	-0.223	0.002
-144.531	763.192	0.133	-0.355
-143.516	-174.582	-0.384	0.011
-142.502	-200.000	-0.029	0.272
-141.487	-200.000	0.023	-0.196
-140.472	387.351	-0.035	-0.072
-139.458	-200.000	0.049	-0.389
-138.443	125.205	-0.078	0.097
-137.429	-39.921	0.054	0.028
-136.414	-119.293	0.243	0.042
-135.399	-200.000	0.035	0.217
-134.385	800.000	-0.025	0.088
-133.370	800.000	-0.148	0.412
-132.356	-104.191	-0.449	0.102
-131.341	-200.000	0.003	-0.332
-130.326	-93.393	0.263	-0.072
-129.312	58.984	0.318	0.308
-128.297	285.907	0.046	-0.081
-127.283	-142.762	0.256	-0.025
-126.268	800.000	-0.030	0.106
-125.253	-119.997	0.167	-0.028
-124.239	67.706	0.388	0.389
-123.224	800.000	-0.066	0.210
-122.210	75.082	0.417	-0.432
-121.195	-200.000	0.032	0.000
-120.180	323.769	0.109	0.204
