DTS Sentinel unit serial number:	SN413079Multiplexer serial number:	ORYXHardware model number:	OX4-SRSoftware version number:	ORYX F/W v4.00 Oryx Data Collector v3.7.2.0data status	okinstallation	princeton_trtdifferential loss correction	single-endedforward channel	channel 2reverse channel	N/Adate	2019/09/16time	14:51:35forward acquisition time	60.00reverse acquisition time	0.00gamma	496.2192k internal	0.2299k external	0.2299temperature offset calibration	0.9939default loss term (dB/km)	0.3790temperature slope calibration	1.0000multiplexer offset coefficient	1.0000multiplexer slope coefficient	1.0000fibre end	0.00T internal ref (°C)	41.37T ext. ref 1 (°C)	14.39T ext. ref 2 (°C)	35.81length (m)	temperature (°C)	Stokes	anti-Stokes-747.200	147.542	0.051	-0.070
-746.185	-8.827	-0.246	0.169
-745.171	-200.000	0.015	0.224
-744.156	243.445	-0.028	0.048
-743.142	800.000	-0.046	0.165
-742.127	788.248	-0.149	0.419
-741.112	800.000	-0.075	0.256
-740.098	-200.000	-0.001	0.296
-739.083	35.422	0.125	-0.112
-738.069	-57.525	-0.315	-0.141
-737.054	-97.529	-0.350	0.093
-736.039	366.860	0.108	0.222
-735.025	-200.000	-0.000	0.035
-734.010	-13.468	-0.258	-0.171
-732.996	390.979	-0.145	-0.306
-731.981	419.485	-0.115	-0.251
-730.966	-44.638	0.102	-0.052
-729.952	669.565	0.110	-0.290
-728.937	0.595	-0.149	-0.109
-727.923	-34.280	-0.143	0.080
-726.908	-79.893	0.142	0.049
-725.894	696.905	0.154	-0.412
-724.879	-128.703	-0.300	-0.043
-723.864	146.468	-0.160	0.219
-722.850	206.430	0.164	-0.260
-721.835	-111.608	0.176	-0.036
-720.821	-121.117	-0.075	-0.013
-719.806	-156.486	-0.230	-0.015
-718.791	-134.450	-0.156	-0.019
-717.777	-63.915	0.214	-0.089
-716.762	-92.114	0.235	-0.068
-715.748	-55.950	0.040	0.018
-714.733	-139.078	-0.360	-0.040
-713.718	112.851	-0.199	-0.245
-712.704	162.075	0.089	-0.128
-711.689	232.095	0.102	-0.171
-710.675	-40.186	0.365	-0.194
-709.660	-52.320	0.152	-0.072
-708.645	-200.000	0.011	-0.115
-707.631	-23.692	0.190	0.116
-706.616	-80.121	0.260	-0.089
-705.602	514.598	0.053	-0.125
-704.587	-37.261	-0.094	-0.051
-703.572	800.000	0.121	-0.383
-702.558	11.512	-0.201	-0.157
-701.543	-172.298	0.248	0.008
-700.529	-200.000	0.066	0.349
-699.514	452.916	-0.115	0.259
-698.499	-169.119	0.133	0.005
-697.485	61.356	-0.090	0.091
-696.470	244.661	-0.136	-0.233
-695.456	46.325	-0.209	0.197
-694.441	-92.447	0.091	-0.026
-693.426	-29.542	-0.056	-0.033
-692.412	171.640	-0.096	0.141
-691.397	-200.000	-0.014	-0.126
-690.383	-200.000	0.002	-0.130
-689.368	640.965	-0.066	0.172
-688.354	79.899	-0.269	0.294
-687.339	181.022	0.124	0.186
-686.324	-200.000	-0.002	-0.512
-685.310	-143.302	0.073	0.007
-684.295	43.791	0.282	0.263
-683.281	159.235	-0.083	0.118
-682.266	77.264	0.220	-0.238
-681.251	-200.000	-0.036	-0.412
-680.237	-37.557	0.255	-0.138
-679.222	-200.000	0.012	-0.086
-678.208	34.671	-0.086	0.077
-677.193	-22.912	-0.195	-0.120
-676.178	-88.861	0.123	-0.037
-675.164	205.839	0.195	-0.308
-674.149	-96.059	0.311	0.084
-673.135	-15.958	-0.369	0.239
-672.120	304.714	-0.107	0.201
-671.105	-14.464	-0.393	0.257
-670.091	132.394	0.127	-0.166
-669.076	444.597	0.058	0.130
-668.062	-200.000	0.048	0.224
-667.047	-200.000	-0.008	-0.220
-666.032	286.560	-0.043	-0.079
-665.018	27.144	-0.158	0.135
-664.003	155.415	0.143	0.200
-662.989	-65.930	-0.241	0.098
-661.974	131.994	-0.197	-0.258
-660.959	-117.647	0.175	0.032
-659.945	80.063	0.049	0.054
-658.930	38.769	0.143	-0.130
-657.916	-200.000	-0.009	0.091
-656.901	-113.779	-0.040	-0.008
-655.886	220.524	0.112	0.183
-654.872	-64.381	0.442	0.183
-653.857	-160.347	-0.279	-0.015
-652.843	-200.000	-0.006	-0.155
-651.828	-148.538	-0.275	-0.023
-650.814	65.530	-0.090	-0.093
-649.799	-200.000	-0.018	-0.202
-648.784	533.901	0.142	0.341
-647.770	-15.435	-0.210	-0.136
-646.755	63.368	0.106	0.108
-645.741	-59.174	-0.131	0.057
-644.726	297.474	0.049	0.092
-643.711	-0.201	0.145	-0.105
-642.697	800.000	0.070	0.309
-641.682	-94.964	0.630	0.173
-640.668	-74.121	0.510	-0.188
-639.653	26.014	0.189	-0.160
-638.638	-151.143	0.268	-0.020
-637.624	-107.765	-0.131	-0.029
-636.609	-200.000	0.041	-0.249
-635.595	-145.879	0.492	0.044
-634.580	-99.201	0.120	0.031
-633.565	319.368	-0.192	0.370
-632.551	135.850	-0.138	0.183
-631.536	-3.333	-0.187	0.133
-630.522	-200.000	0.010	0.134
-629.507	-12.717	-0.222	-0.147
-628.492	-200.000	0.029	-0.208
-627.478	-66.682	-0.471	-0.190
-626.463	-8.126	-0.060	0.041
-625.449	67.904	0.149	-0.155
-624.434	-114.875	-0.180	0.035
-623.419	209.336	0.148	-0.236
-622.405	-163.352	0.176	0.009
-621.390	-200.000	0.028	0.253
-620.376	-25.177	-0.216	-0.130
-619.361	800.000	-0.089	-0.334
-618.346	-84.419	-0.236	-0.076
-617.332	-96.267	-0.305	-0.082
-616.317	216.371	-0.119	0.193
-615.303	-146.757	0.186	0.016
-614.288	227.002	0.060	-0.099
-613.273	125.562	-0.076	0.098
-612.259	-200.000	0.001	-0.110
-611.244	-200.000	-0.004	0.260
-610.230	585.344	0.108	-0.270
-609.215	-139.107	0.166	0.018
-608.201	14.452	-0.188	0.149
-607.186	-0.433	-0.301	-0.217
-606.171	-83.996	-0.208	0.067
-605.157	90.047	0.034	-0.039
-604.142	-25.075	-0.304	-0.183
-603.128	-114.399	-0.044	0.009
-602.113	127.184	-0.078	-0.100
-601.098	26.826	0.318	-0.271
-600.084	-200.000	-0.008	-0.310
-599.069	306.839	0.116	-0.218
-598.055	339.017	-0.058	0.115
-597.040	-46.993	-0.153	0.076
-596.025	-71.052	0.162	-0.062
-595.011	93.601	-0.109	-0.125
-593.996	-27.198	0.198	-0.117
-592.982	-34.543	-0.128	0.071
-591.967	-140.881	-0.559	0.058
-590.952	3.087	-0.179	0.132
-589.938	488.896	0.124	0.288
-588.923	1.023	-0.169	-0.123
-587.909	103.218	0.090	-0.107
-586.894	281.102	0.025	0.045
-585.879	-90.278	0.108	-0.032
-584.865	789.590	0.216	-0.602
-583.850	-70.321	0.226	0.087
-582.836	5.857	0.193	0.144
-581.821	-72.212	-0.190	-0.071
-580.806	-89.200	-0.158	-0.047
-579.792	-200.000	-0.002	0.086
-578.777	-112.042	-0.337	-0.069
-577.763	132.402	0.119	-0.156
-576.748	-200.000	-0.065	-0.381
-575.733	-18.980	-0.209	-0.132
-574.719	-145.552	-0.090	0.008
-573.704	-170.335	-0.406	0.014
-572.690	93.074	0.234	-0.268
-571.675	800.000	-0.085	-0.298
-570.661	-48.910	-0.111	0.054
-569.646	800.000	-0.047	-0.154
-568.631	687.716	0.016	0.042
-567.617	-36.895	-0.026	-0.014
-566.602	14.355	0.114	-0.090
-565.588	800.000	0.044	0.139
-564.573	31.035	0.127	0.110
-563.558	230.495	0.110	-0.182
-562.544	-124.832	-0.471	-0.074
-561.529	106.439	0.093	0.112
-560.515	185.662	0.171	0.257
-559.500	451.234	-0.158	0.353
-558.485	-151.701	-0.262	0.020
-557.471	-18.496	-0.275	0.174
-556.456	-200.000	0.025	0.346
-555.442	213.339	0.156	-0.250
-554.427	-200.000	-0.350	0.002
-553.412	-200.000	0.088	-0.405
-552.398	-83.545	-0.103	-0.033
-551.383	52.409	-0.129	-0.125
-550.369	188.575	0.228	0.345
-549.354	86.855	-0.199	-0.223
-548.339	4.652	-0.228	0.170
-547.325	129.331	0.077	-0.100
-546.310	-96.900	0.289	0.077
-545.296	180.763	-0.060	0.089
-544.281	-200.000	0.029	-0.173
-543.266	-66.771	0.300	-0.120
-542.252	464.525	-0.084	0.190
-541.237	-200.000	0.088	-0.000
-540.223	-153.028	0.102	0.007
-539.208	23.911	0.153	0.128
-538.193	430.616	-0.087	-0.191
-537.179	-55.703	-0.193	-0.087
-536.164	-78.253	0.228	0.079
-535.150	-200.000	0.054	0.245
-534.135	-6.281	0.189	-0.130
-533.121	-154.017	0.363	0.025
-532.106	663.219	-0.085	0.222
-531.091	-7.908	0.037	-0.025
-530.077	318.217	0.033	0.063
-529.062	-84.965	0.125	0.040
-528.048	-6.034	-0.125	0.086
-527.033	84.793	-0.235	0.260
-526.018	15.396	0.118	0.094
-525.004	-14.580	0.131	0.085
-523.989	-200.000	0.003	-0.230
-522.975	775.449	-0.088	0.244
-521.960	-200.000	0.006	0.174
-520.945	800.000	-0.122	0.459
-519.931	125.322	-0.285	-0.363
-518.916	-117.363	0.101	0.018
-517.902	74.205	-0.204	-0.217
-516.887	541.649	-0.068	-0.163
-515.872	-56.476	-0.038	-0.017
-514.858	800.000	0.035	0.144
-513.843	297.044	0.127	0.235
-512.829	-131.087	0.214	0.029
-511.814	47.328	-0.216	0.203
-510.799	182.084	0.026	-0.039
-509.785	-6.304	-0.193	-0.133
-508.770	-200.000	-0.043	0.365
-507.756	130.301	-0.092	-0.119
-506.741	149.712	-0.083	0.114
-505.726	-200.000	0.027	-0.171
-504.712	55.273	-0.196	0.192
-503.697	-96.622	0.029	-0.008
-502.683	121.530	-0.229	-0.289
-501.668	147.577	0.238	0.324
-500.653	141.101	0.107	0.144
-499.639	218.326	0.202	-0.327
-498.624	800.000	0.060	-0.216
-497.610	285.979	-0.110	-0.201
-496.595	217.648	-0.032	0.051
-495.581	-200.000	-0.048	-0.664
-494.566	800.000	-0.103	0.337
-493.551	42.106	-0.204	-0.187
-492.537	-200.000	0.025	0.117
-491.522	341.485	-0.098	-0.193
-490.508	-200.000	0.020	0.100
-489.493	415.571	-0.038	0.082
-488.478	-94.867	-0.092	0.025
-487.464	158.258	0.198	-0.278
-486.449	172.819	-0.177	-0.257
-485.435	80.335	-0.147	-0.160
-484.420	34.783	-0.419	-0.371
-483.405	-31.738	-0.190	-0.108
-482.391	59.213	-0.113	-0.112
-481.376	52.550	-0.173	-0.167
-480.362	33.693	-0.289	-0.254
-479.347	461.435	0.074	-0.166
-478.332	519.295	0.078	-0.185
-477.318	-120.718	0.181	0.031
-476.303	254.446	0.093	-0.160
-475.289	34.572	-0.192	-0.169
-474.274	215.411	-0.201	-0.322
-473.259	-187.751	0.168	0.002
-472.245	-21.909	0.167	-0.102
-471.230	30.977	0.117	-0.101
-470.216	681.927	0.125	0.330
-469.201	800.000	0.025	-0.078
-468.186	-117.903	0.022	0.004
-467.172	217.270	-0.041	0.067
-466.157	217.590	0.050	-0.081
-465.143	-94.965	0.337	-0.092
-464.128	242.616	-0.081	-0.137
-463.113	222.177	-0.215	-0.348
-462.099	800.000	-0.037	-0.115
-461.084	-185.289	0.181	-0.003
-460.070	499.528	-0.068	0.157
-459.055	-117.976	-0.148	-0.027
-458.040	-200.000	-0.126	0.605
-457.026	-135.762	-0.194	-0.023
-456.011	-24.393	0.306	0.184
-454.997	-117.491	0.276	0.050
-453.982	-200.000	0.056	-0.372
-452.968	-200.000	0.048	-0.393
-451.953	610.446	-0.120	-0.303
-450.938	-90.448	0.124	-0.036
-449.924	-200.000	0.058	0.396
-448.909	-118.680	0.401	0.071
-447.895	321.647	-0.125	-0.239
-446.880	800.000	-0.042	-0.121
-445.865	319.250	0.034	0.066
-444.851	800.000	0.043	-0.179
-443.836	-144.516	0.188	0.018
-442.822	-139.039	-0.373	0.041
-441.807	771.972	-0.116	0.320
-440.792	90.220	0.223	0.251
-439.778	212.042	0.055	-0.088
-438.763	800.000	-0.086	-0.249
-437.749	-200.000	-0.055	0.303
-436.734	-55.082	0.064	0.029
-435.719	394.612	-0.076	0.160
-434.705	92.702	0.082	0.093
-433.690	88.067	-0.064	-0.071
-432.676	22.060	0.249	0.205
-431.661	-36.265	0.032	-0.017
-430.646	6.651	0.120	-0.090
-429.632	-148.061	0.090	-0.008
-428.617	493.096	0.094	-0.218
-427.603	-200.000	-0.008	0.188
-426.588	-50.901	0.137	-0.065
-425.573	-112.300	-0.276	-0.056
-424.559	139.139	-0.344	0.455
-423.544	-31.237	0.079	0.045
-422.530	46.876	-0.122	0.115
-421.515	-106.996	-0.189	-0.042
-420.500	28.472	-0.208	0.177
-419.486	134.953	-0.099	0.129
-418.471	-88.118	-0.069	-0.021
-417.457	70.033	0.232	-0.241
-416.442	-144.606	0.239	-0.022
-415.428	52.274	-0.073	0.071
-414.413	800.000	-0.044	0.184
-413.398	73.248	0.146	0.154
-412.384	800.000	0.145	-0.408
-411.369	-98.614	-0.213	-0.055
-410.355	142.015	-0.086	0.114
-409.340	588.005	0.073	-0.182
-408.325	-200.000	0.025	-0.456
-407.311	-200.000	-0.024	-0.179
-406.296	-76.633	-0.430	-0.152
-405.282	-65.884	-0.213	0.086
-404.267	65.001	-0.076	-0.077
-403.252	-166.191	-0.154	0.007
-402.238	433.989	0.094	-0.207
-401.223	-7.760	0.216	-0.147
-400.209	571.155	-0.015	-0.038
-399.194	-70.717	-0.088	-0.033
-398.179	79.258	-0.030	-0.032
-397.165	2.335	0.088	0.064
-396.150	5.261	0.307	0.228
-395.136	800.000	0.041	-0.129
-394.121	782.840	-0.189	0.522
-393.106	-200.000	0.031	0.439
-392.092	-200.000	-0.004	0.198
-391.077	-26.319	-0.081	-0.048
-390.063	402.240	-0.046	-0.097
-389.048	-21.695	-0.201	-0.123
-388.033	524.562	-0.047	-0.111
-387.019	-36.070	0.389	-0.212
-386.004	76.483	0.236	-0.252
-384.990	-99.633	0.275	-0.069
-383.975	800.000	-0.068	0.207
-382.960	145.347	-0.051	0.069
-381.946	64.679	0.171	0.174
-380.931	-50.646	0.307	0.145
-379.917	314.302	-0.076	-0.145
-378.902	-68.798	-0.261	0.101
-377.888	89.772	-0.164	0.184
-376.873	-50.815	0.124	-0.059
-375.858	-151.411	-0.285	-0.021
-374.844	-85.499	0.212	-0.066
-373.829	39.979	0.181	0.164
-372.815	75.676	0.138	0.146
-371.800	-144.283	0.071	-0.007
-370.785	-108.971	0.112	-0.024
-369.771	10.560	-0.146	-0.112
-368.756	15.343	0.090	-0.071
-367.742	266.084	-0.057	0.100
-366.727	-200.000	0.058	-0.256
-365.712	-155.439	-0.281	0.018
-364.698	-27.345	-0.303	-0.178
-363.683	-40.200	0.335	0.175
-362.669	800.000	-0.048	-0.177
-361.654	281.179	0.210	0.378
-360.639	219.241	-0.364	-0.585
-359.625	-131.242	-0.083	0.011
-358.610	-92.032	0.121	0.034
-357.596	128.638	0.287	0.367
-356.581	-32.932	0.031	0.017
-355.566	-57.081	-0.179	0.079
-354.552	-56.954	-0.333	-0.148
-353.537	59.318	0.146	0.145
-352.523	-200.000	0.012	0.180
-351.508	-200.000	0.000	0.249
-350.493	-3.240	-0.125	0.088
-349.479	-200.000	0.026	0.134
-348.464	303.607	-0.013	0.024
-347.450	550.545	-0.050	0.120
-346.435	-190.308	0.183	-0.002
-345.420	-155.866	-0.100	0.006
-344.406	1.083	-0.119	0.086
-343.391	-135.335	0.146	0.018
-342.377	-118.545	0.260	-0.046
-341.362	-96.451	-0.338	0.090
-340.348	299.907	0.025	-0.046
-339.333	495.113	0.092	0.213
-338.318	-200.000	0.021	0.155
-337.304	-58.343	-0.142	0.062
-336.289	800.000	0.123	0.356
-335.275	-150.993	-0.417	0.032
-334.260	-88.105	0.087	-0.026
-333.245	-47.453	0.492	0.240
-332.231	157.576	-0.022	-0.030
-331.216	-110.651	0.285	0.059
-330.202	-200.000	-0.016	0.237
-329.187	89.525	-0.227	0.254
-328.172	86.846	-0.106	0.118
-327.158	156.857	0.170	0.236
-326.143	800.000	0.077	0.275
-325.129	-105.110	-0.307	0.070
-324.114	330.274	0.055	-0.107
-323.099	241.446	0.151	-0.253
-322.085	-38.321	-0.067	-0.036
-321.070	162.732	-0.147	-0.207
-320.056	-168.058	0.165	-0.006
-319.041	-101.980	0.195	0.047
-318.026	203.701	0.062	0.097
-317.012	349.481	0.047	-0.093
-315.997	-143.999	-0.111	-0.010
-314.983	195.607	-0.183	-0.279
-313.968	-108.616	-0.242	0.052
-312.953	-200.000	-0.023	0.347
-311.939	-72.293	-0.057	0.021
-310.924	-56.585	-0.220	-0.098
-309.910	-64.205	-0.229	0.094
-308.895	-179.629	0.122	-0.003
-307.880	800.000	0.066	0.215
-306.866	88.485	-0.089	0.099
-305.851	-200.000	-0.025	0.244
-304.837	800.000	-0.027	0.081
-303.822	9.901	0.189	-0.144
-302.807	800.000	0.029	0.087
-301.793	458.806	0.077	0.173
-300.778	164.641	0.057	0.081
-299.764	100.066	-0.047	-0.055
-298.749	-22.485	-0.170	-0.103
-297.735	-29.100	0.234	0.135
-296.720	-200.000	-0.055	0.322
-295.705	128.659	-0.077	0.098
-294.691	-86.926	0.296	-0.090
-293.676	-130.762	0.147	0.020
-292.662	800.000	0.013	-0.045
-291.647	176.151	0.094	-0.137
-290.632	223.391	0.095	-0.154
-289.618	102.389	-0.229	0.269
-288.603	24.471	0.083	0.069
-287.589	-16.525	0.073	0.046
-286.574	-200.000	-0.004	0.274
-285.559	-11.401	-0.281	0.185
-284.545	325.221	0.058	0.111
-283.530	-84.228	0.330	-0.105
-282.516	-91.851	0.394	-0.112
-281.501	-57.956	0.514	0.225
-280.486	148.163	0.204	0.276
-279.472	-124.556	0.083	-0.013
-278.457	-140.285	-0.248	0.026
-277.443	-171.419	-0.336	-0.011
-276.428	-151.014	-0.039	0.003
-275.413	-123.065	-0.086	-0.014
-274.399	476.722	-0.141	0.320
-273.384	-71.139	-0.101	0.038
-272.370	-86.192	-0.111	0.034
-271.355	108.081	0.111	-0.132
-270.340	-90.159	-0.160	-0.047
-269.326	263.666	-0.043	0.074
-268.311	-200.000	0.032	0.158
-267.297	800.000	0.050	0.192
-266.282	117.836	-0.084	0.103
-265.267	-200.000	-0.006	0.068
-264.253	2.627	0.200	-0.145
-263.238	200.445	-0.012	-0.018
-262.224	800.000	-0.037	0.158
-261.209	-98.966	0.415	0.105
-260.195	800.000	-0.060	-0.214
-259.180	800.000	-0.012	0.038
-258.165	800.000	-0.067	0.208
-257.151	-113.121	-0.353	0.070
-256.136	77.719	-0.251	-0.268
-255.122	-11.689	-0.198	0.130
-254.107	481.294	0.101	0.231
-253.092	-101.509	0.172	-0.042
-252.078	-19.960	-0.101	-0.062
-251.063	51.620	0.292	-0.277
-250.049	-129.718	-0.300	0.041
-249.034	-200.000	0.019	-0.253
-248.019	-200.000	0.010	-0.238
-247.005	-28.130	0.085	0.049
-245.990	-137.650	0.454	0.051
-244.976	-7.791	0.317	-0.214
-243.961	-27.900	0.169	0.098
-242.946	381.232	-0.118	-0.242
-241.932	-28.062	0.302	-0.175
-240.917	78.776	0.272	-0.291
-239.903	-200.000	0.017	-0.407
-238.888	800.000	0.010	-0.031
-237.873	800.000	-0.046	0.160
-236.859	-57.856	0.128	-0.056
-235.844	-80.064	0.181	-0.061
-234.830	-36.101	0.158	-0.085
-233.815	124.889	0.092	0.116
-232.800	80.725	0.287	0.310
-231.786	-200.000	0.001	-0.086
-230.771	-33.564	0.196	0.108
-229.757	204.442	0.092	0.142
-228.742	-91.382	-0.603	-0.172
-227.727	11.956	-0.134	-0.103
-226.713	-47.012	0.051	-0.025
-225.698	79.654	-0.080	-0.086
-224.684	199.548	0.100	-0.153
-223.669	800.000	-0.034	-0.096
-222.655	7.466	-0.211	-0.158
-221.640	-12.514	0.302	-0.197
-220.625	-56.457	-0.250	-0.111
-219.611	-24.013	-0.211	0.126
-218.596	61.351	0.238	0.237
-217.582	-200.000	0.013	0.165
-216.567	800.000	0.043	0.160
-215.552	-92.099	0.120	0.034
-214.538	-1.000	0.260	-0.184
-213.523	-105.784	0.190	-0.043
-212.509	-200.000	0.000	0.413
-211.494	-200.000	-0.021	0.100
-210.479	21.370	-0.066	-0.053
-209.465	800.000	-0.052	-0.164
-208.450	-200.000	0.046	0.212
-207.436	-122.644	0.217	-0.035
-206.421	800.000	-0.072	-0.233
-205.406	637.750	-0.010	0.024
-204.392	228.160	-0.122	-0.199
-203.377	-98.861	0.186	-0.047
-202.363	-25.401	-0.229	-0.135
-201.348	130.177	0.072	0.093
-200.333	321.169	-0.158	0.300
-199.319	-200.000	-0.024	-0.152
-198.304	172.266	-0.312	-0.448
-197.290	-26.871	0.301	-0.175
-196.275	-128.188	-0.194	0.028
-195.260	289.838	-0.101	-0.183
-194.246	195.403	0.102	-0.154
-193.231	-150.976	0.077	0.006
-192.217	152.741	-0.042	-0.058
-191.202	287.351	0.088	-0.159
-190.187	513.353	0.197	-0.460
-189.173	-200.000	-0.039	0.325
-188.158	-63.383	0.179	-0.074
-187.144	620.280	-0.143	-0.359
-186.129	-126.080	-0.150	-0.022
-185.114	11.735	0.232	0.178
-184.100	-75.099	-0.092	-0.033
-183.085	-80.125	0.321	-0.107
-182.071	-200.000	-0.009	-0.438
-181.056	130.347	0.022	0.028
-180.042	-1.143	-0.287	0.203
-179.027	-6.382	0.137	0.094
-178.012	800.000	0.033	-0.090
-176.998	-161.013	0.156	0.008
-175.983	35.708	0.270	0.237
-174.969	-200.000	-0.213	0.000
-173.954	-200.000	-0.011	0.052
-172.939	-22.117	-0.182	0.110
-171.925	-60.950	0.357	-0.151
-170.910	-96.506	-0.390	0.103
-169.896	-18.527	-0.074	-0.046
-168.881	-16.493	-0.154	0.097
-167.866	-51.774	-0.240	0.111
-166.852	-43.420	-0.139	0.070
-165.837	-110.897	0.288	-0.059
-164.823	800.000	-0.026	0.107
-163.808	311.810	0.207	0.388
-162.793	15.157	0.147	0.115
-161.779	712.923	0.086	-0.226
-160.764	63.084	-0.397	0.397
-159.750	-200.000	-0.006	0.219
-158.735	-79.865	-0.088	-0.030
-157.720	800.000	-0.013	0.048
-156.706	-170.614	0.112	0.004
-155.691	-200.000	0.031	-0.211
-154.677	69.090	0.048	0.050
-153.662	-80.463	-0.199	0.066
-152.647	800.000	0.125	0.375
-151.633	98.298	-0.081	0.094
-150.618	-7.754	0.095	-0.064
-149.604	78.698	-0.228	-0.243
-148.589	30.287	0.278	0.237
-147.574	-200.000	0.032	0.222
-146.560	-200.000	0.006	0.176
-145.545	66.095	0.153	0.154
-144.531	542.220	0.058	0.139
-143.516	-55.427	0.129	0.057
-142.502	-200.000	0.043	0.382
-141.487	120.103	0.156	-0.192
-140.472	-3.918	-0.274	-0.189
-139.458	800.000	0.048	0.179
-138.443	-148.895	0.177	0.014
-137.429	-200.000	-0.014	0.188
-136.414	108.951	0.214	0.255
-135.399	211.323	-0.046	-0.072
-134.385	-200.000	0.038	0.234
-133.370	800.000	-0.051	-0.180
-132.356	-29.356	0.087	-0.049
-131.341	-200.000	-0.046	0.244
-130.326	-200.000	0.010	0.200
-129.312	231.802	-0.145	0.237
-128.297	243.847	-0.114	-0.191
-127.283	-112.286	-0.169	0.034
-126.268	187.516	-0.097	0.144
-125.253	800.000	0.044	0.153
-124.239	81.964	-0.254	-0.274
-123.224	291.453	-0.186	-0.337
-122.210	27.329	0.255	-0.213
-121.195	1.166	-0.151	0.108
-120.180	442.933	-0.083	-0.182
