DTS Sentinel unit serial number:	SN413079Multiplexer serial number:	ORYXHardware model number:	OX4-SRSoftware version number:	ORYX F/W v4.00 Oryx Data Collector v3.7.2.0data status	okinstallation	princeton_trtdifferential loss correction	single-endedforward channel	channel 2reverse channel	N/Adate	2019/09/16time	07:43:34forward acquisition time	60.00reverse acquisition time	0.00gamma	496.2192k internal	0.2332k external	0.2332temperature offset calibration	0.9976default loss term (dB/km)	0.3790temperature slope calibration	1.0000multiplexer offset coefficient	1.0000multiplexer slope coefficient	1.0000fibre end	0.00T internal ref (°C)	27.95T ext. ref 1 (°C)	11.69T ext. ref 2 (°C)	24.72length (m)	temperature (°C)	Stokes	anti-Stokes-747.200	369.498	0.165	-0.336
-746.185	703.639	0.077	0.204
-745.171	565.545	0.004	0.009
-744.156	64.692	0.100	0.101
-743.142	69.834	0.194	-0.202
-742.127	-200.000	0.025	0.301
-741.112	-200.000	0.038	0.253
-740.098	-78.254	-0.306	0.106
-739.083	122.394	-0.023	-0.029
-738.069	-200.000	0.012	0.112
-737.054	-23.064	0.168	0.102
-736.039	-200.000	0.007	-0.105
-735.025	30.168	0.264	-0.226
-734.010	774.880	-0.147	-0.403
-732.996	33.929	-0.298	-0.261
-731.981	35.391	0.257	0.227
-730.966	-169.465	-0.322	-0.012
-729.952	-16.462	-0.210	0.134
-728.937	82.421	-0.196	0.214
-727.923	800.000	0.100	0.357
-726.908	70.657	0.196	0.204
-725.894	356.671	0.089	-0.178
-724.879	-200.000	-0.002	-0.216
-723.864	-115.662	0.182	-0.034
-722.850	-86.399	-0.486	-0.150
-721.835	-162.298	0.352	-0.018
-720.821	-200.000	0.043	-0.343
-719.806	-160.438	-0.203	0.011
-718.791	-170.967	0.064	-0.002
-717.777	-51.766	-0.217	-0.102
-716.762	800.000	-0.109	-0.391
-715.748	-41.260	-0.296	0.154
-714.733	-133.139	-0.058	-0.007
-713.718	-118.937	-0.115	-0.020
-712.704	422.003	-0.053	-0.115
-711.689	-49.224	0.235	0.113
-710.675	367.955	-0.112	-0.228
-709.660	184.563	0.173	-0.258
-708.645	800.000	-0.016	0.062
-707.631	-144.367	-0.599	-0.056
-706.616	-96.090	0.223	-0.060
-705.602	-110.680	0.157	-0.033
-704.587	474.968	-0.099	-0.224
-703.572	-129.045	0.242	0.034
-702.558	783.249	0.048	0.133
-701.543	-61.262	0.315	0.133
-700.529	28.937	-0.255	0.217
-699.514	-90.529	0.215	0.062
-698.499	-200.000	-0.057	-0.364
-697.485	-3.033	-0.128	-0.090
-696.470	800.000	-0.057	0.166
-695.456	-123.490	0.236	-0.038
-694.441	-200.000	0.059	-0.374
-693.426	-160.385	-0.264	0.014
-692.412	25.677	-0.155	0.129
-691.397	266.129	-0.004	-0.008
-690.383	367.364	-0.122	0.247
-689.368	258.249	0.135	0.233
-688.354	-81.430	0.110	0.036
-687.339	-200.000	0.000	0.145
-686.324	-60.572	-0.004	-0.002
-685.310	87.680	-0.188	0.209
-684.295	-162.276	0.347	0.017
-683.281	538.568	0.162	-0.386
-682.266	124.968	-0.153	-0.194
-681.251	-77.980	0.144	0.050
-680.237	-70.748	0.126	-0.048
-679.222	-180.856	0.328	-0.007
-678.208	-200.000	0.015	-0.085
-677.193	-118.990	-0.486	0.086
-676.178	119.338	-0.057	-0.071
-675.164	388.744	0.153	-0.319
-674.149	-200.000	-0.084	-0.388
-673.135	-116.187	-0.088	-0.016
-672.120	-1.598	0.296	-0.209
-671.105	-82.164	0.334	0.109
-670.091	800.000	0.040	-0.132
-669.076	-200.000	0.033	-0.314
-668.062	347.024	-0.117	-0.232
-667.047	200.425	-0.126	-0.195
-666.032	63.067	0.175	0.176
-665.018	481.931	0.161	0.366
-664.003	15.725	-0.244	-0.192
-662.989	800.000	-0.042	-0.129
-661.974	-117.939	-0.307	-0.055
-660.959	-200.000	-0.019	0.245
-659.945	27.699	-0.096	-0.081
-658.930	-44.178	0.118	0.060
-657.916	-174.284	0.210	0.006
-656.901	-13.760	-0.086	0.056
-655.886	-48.690	0.089	-0.043
-654.872	-200.000	0.011	-0.097
-653.857	-200.000	0.002	0.196
-652.843	-111.614	0.103	-0.021
-651.828	800.000	0.161	-0.457
-650.814	154.334	0.158	-0.218
-649.799	-59.652	-0.107	0.046
-648.784	800.000	0.110	-0.382
-647.770	-94.303	0.132	0.036
-646.755	800.000	-0.098	-0.282
-645.741	-11.320	-0.352	0.232
-644.726	800.000	0.042	-0.175
-643.711	-48.543	-0.185	-0.089
-642.697	-29.497	0.299	-0.171
-641.682	-125.343	0.065	-0.010
-640.668	800.000	-0.181	0.543
-639.653	10.290	-0.255	0.194
-638.638	-200.000	-0.007	-0.230
-637.624	800.000	0.008	-0.024
-636.609	-36.805	-0.141	-0.076
-635.595	203.370	0.105	0.163
-634.580	-155.570	-0.393	0.025
-633.565	78.204	0.160	0.171
-632.551	-122.283	0.117	0.019
-631.536	-200.000	-0.063	-0.345
-630.522	49.591	0.065	0.062
-629.507	-90.117	-0.186	0.054
-628.492	738.130	0.061	-0.164
-627.478	-200.000	0.020	-0.113
-626.463	59.251	0.183	0.180
-625.449	-97.227	0.261	0.068
-624.434	800.000	-0.069	-0.193
-623.419	-129.764	-0.281	0.039
-622.405	-27.109	-0.339	0.198
-621.390	-200.000	0.018	0.167
-620.376	53.500	0.123	-0.118
-619.361	-25.787	-0.206	0.121
-618.346	-75.770	0.490	0.174
-617.332	95.266	0.156	-0.178
-616.317	-51.381	-0.175	0.082
-615.303	134.398	-0.153	0.199
-614.288	-200.000	0.047	-0.335
-613.273	-200.000	0.074	-0.530
-612.259	-96.907	-0.120	0.031
-611.244	188.499	-0.113	-0.169
-610.230	-100.870	-0.117	0.029
-609.215	161.827	0.103	-0.144
-608.201	-140.888	0.215	0.022
-607.186	-200.000	0.003	0.042
-606.171	-110.928	-0.138	-0.028
-605.157	-200.000	0.064	0.364
-604.142	-200.000	-0.018	0.140
-603.128	-200.000	-0.021	-0.265
-602.113	-44.542	-0.198	0.099
-601.098	-88.800	0.123	-0.037
-600.084	-100.605	-0.089	-0.022
-599.069	800.000	0.016	0.053
-598.055	-93.632	-0.189	-0.052
-597.040	474.535	0.126	-0.285
-596.025	162.622	0.176	-0.247
-595.011	665.094	-0.044	-0.113
-593.996	-49.167	-0.395	-0.189
-592.982	564.351	0.083	-0.202
-591.967	-123.534	-0.125	-0.020
-590.952	-51.778	0.185	0.086
-589.938	-200.000	0.082	0.379
-588.923	56.575	0.235	-0.229
-587.909	-79.066	0.130	-0.044
-586.894	-150.478	0.335	0.026
-585.879	-160.201	-0.205	0.011
-584.865	36.051	-0.088	0.078
-583.850	148.887	-0.104	0.141
-582.836	-20.624	-0.129	-0.079
-581.821	574.413	0.090	0.220
-580.806	405.046	0.060	-0.126
-579.792	527.468	-0.115	0.271
-578.777	73.352	0.103	-0.108
-577.763	55.839	-0.295	-0.286
-576.748	425.800	0.090	0.193
-575.733	800.000	0.072	0.231
-574.719	323.574	-0.124	-0.236
-573.704	90.479	-0.238	-0.266
-572.690	800.000	-0.081	-0.335
-571.675	131.182	0.259	-0.333
-570.661	313.252	-0.066	-0.124
-569.646	128.646	-0.301	0.384
-568.631	191.767	0.167	0.251
-567.617	-126.386	-0.553	-0.082
-566.602	-184.414	-0.120	0.002
-565.588	104.879	-0.037	-0.044
-564.573	800.000	-0.052	0.160
-563.558	444.359	-0.068	0.148
-562.544	534.960	-0.046	-0.109
-561.529	92.502	0.177	-0.199
-560.515	-52.889	0.319	-0.147
-559.500	800.000	-0.060	-0.166
-558.485	49.188	0.258	0.242
-557.471	18.645	-0.142	-0.113
-556.456	-15.705	0.161	-0.102
-555.442	-114.812	0.180	0.034
-554.427	-35.215	0.329	-0.179
-553.412	365.870	0.071	-0.144
-552.398	800.000	0.036	0.116
-551.383	338.555	0.031	0.061
-550.369	-62.091	-0.277	-0.115
-549.354	380.218	0.201	0.412
-548.339	-60.795	0.441	0.187
-547.325	-70.007	-0.077	-0.029
-546.310	248.607	0.158	-0.267
-545.296	7.664	-0.174	0.130
-544.281	-200.000	0.006	-0.137
-543.266	-13.686	0.159	0.103
-542.252	-25.178	-0.150	0.089
-541.237	415.989	-0.129	-0.274
-540.223	15.727	0.064	0.051
-539.208	-148.589	0.364	-0.030
-538.193	129.937	0.201	0.257
-537.179	-200.000	0.035	-0.194
-536.164	133.781	-0.033	-0.043
-535.150	256.522	-0.052	0.089
-534.135	55.690	0.110	0.106
-533.121	-200.000	-0.019	0.281
-532.106	54.821	0.072	-0.069
-531.091	-100.181	-0.272	0.068
-530.077	66.092	-0.076	-0.077
-529.062	-200.000	0.008	0.114
-528.048	629.545	0.103	0.260
-527.033	-115.921	0.143	-0.027
-526.018	-200.000	-0.004	-0.058
-525.004	800.000	-0.035	-0.101
-523.989	-200.000	0.009	0.164
-522.975	60.295	0.124	0.122
-521.960	4.854	0.061	0.045
-520.945	800.000	0.020	-0.088
-519.931	110.562	-0.109	-0.131
-518.916	-85.258	-0.216	-0.067
-517.902	800.000	0.106	0.360
-516.887	11.021	-0.086	0.066
-515.872	-72.991	0.319	-0.117
-514.858	-74.638	-0.219	-0.079
-513.843	86.811	0.082	0.090
-512.829	-76.052	0.149	-0.052
-511.814	-60.177	0.229	-0.097
-510.799	398.508	-0.109	0.227
-509.785	204.793	-0.167	-0.259
-508.770	-98.333	0.240	-0.061
-507.756	800.000	0.104	0.358
-506.741	-76.312	0.262	-0.092
-505.726	800.000	0.037	-0.136
-504.712	-130.297	-0.337	0.046
-503.697	800.000	0.055	0.182
-502.683	-200.000	-0.004	-0.275
-501.668	-145.081	0.170	-0.015
-500.653	-20.479	0.301	-0.185
-499.639	149.681	0.108	-0.146
-498.624	-200.000	-0.009	-0.074
-497.610	-101.400	-0.146	-0.036
-496.595	800.000	0.014	-0.047
-495.581	259.540	-0.108	0.186
-494.566	232.627	0.047	0.077
-493.551	800.000	-0.032	0.104
-492.537	-200.000	0.040	-0.282
-491.522	-135.284	0.224	0.027
-490.508	-111.841	0.049	-0.010
-489.493	-33.849	0.194	-0.107
-488.478	-132.189	-0.312	-0.040
-487.464	120.945	0.079	-0.098
-486.449	-200.000	-0.042	-0.210
-485.435	-7.144	-0.189	-0.128
-484.420	-6.716	0.113	-0.077
-483.405	-39.812	-0.165	-0.086
-482.391	800.000	-0.002	0.007
-481.376	18.810	0.068	-0.054
-480.362	-33.787	0.094	0.052
-479.347	-96.849	-0.251	-0.066
-478.332	28.855	0.208	-0.175
-477.318	81.127	-0.029	-0.031
-476.303	21.171	-0.303	-0.245
-475.289	-200.000	0.029	0.167
-474.274	119.944	0.160	0.198
-473.259	173.276	-0.081	-0.116
-472.245	229.117	-0.231	0.376
-471.230	368.748	-0.138	0.277
-470.216	276.674	0.040	0.071
-469.201	-114.181	0.227	-0.044
-468.186	-76.004	0.199	0.070
-467.172	-200.000	-0.023	0.106
-466.157	-23.562	-0.337	-0.201
-465.143	-54.315	0.252	0.114
-464.128	800.000	0.058	0.205
-463.113	454.810	-0.029	0.065
-462.099	-98.932	-0.274	0.069
-461.084	-49.152	-0.048	-0.023
-460.070	-200.000	0.007	-0.060
-459.055	-170.276	-0.215	-0.008
-458.040	139.104	-0.028	-0.037
-457.026	12.692	-0.174	0.134
-456.011	-200.000	-0.007	-0.280
-454.997	-70.207	0.121	0.046
-453.982	39.729	0.078	-0.070
-452.968	-112.307	-0.358	0.071
-451.953	-11.312	0.140	-0.092
-450.938	789.596	-0.079	-0.217
-449.924	-96.452	0.243	-0.064
-448.909	523.913	-0.116	-0.271
-447.895	-200.000	-0.005	0.231
-446.880	-200.000	-0.042	0.334
-445.865	-59.228	0.124	0.053
-444.851	-77.073	-0.263	-0.091
-443.836	435.532	-0.024	-0.053
-442.822	143.290	0.107	-0.141
-441.807	-15.120	-0.305	-0.194
-440.792	800.000	0.133	0.390
-439.778	68.932	-0.318	0.325
-438.763	74.865	0.146	-0.153
-437.749	75.550	-0.086	-0.090
-436.734	-200.000	0.022	0.187
-435.719	-85.664	-0.232	0.072
-434.705	-200.000	0.021	0.151
-433.690	800.000	0.031	-0.109
-432.676	-121.723	-0.109	0.018
-431.661	214.890	-0.102	-0.160
-430.646	740.319	-0.021	0.056
-429.632	10.577	-0.330	0.250
-428.617	-1.821	0.160	-0.112
-427.603	800.000	-0.034	0.104
-426.588	-158.220	-0.236	0.014
-425.573	-95.828	0.135	-0.036
-424.559	333.715	-0.054	0.104
-423.544	170.195	-0.049	-0.069
-422.530	800.000	-0.055	-0.170
-421.515	800.000	0.046	-0.183
-420.500	-112.481	-0.136	-0.027
-419.486	-99.252	0.358	0.090
-418.471	18.952	-0.103	0.082
-417.457	-200.000	-0.075	0.373
-416.442	686.007	-0.085	-0.219
-415.428	-200.000	0.005	-0.190
-414.413	123.171	0.167	-0.208
-413.398	316.788	-0.070	-0.131
-412.384	-200.000	-0.056	0.248
-411.369	-144.829	-0.145	0.013
-410.355	103.991	0.096	-0.112
-409.340	-200.000	0.001	0.055
-408.325	-133.895	-0.107	0.013
-407.311	60.015	-0.349	0.342
-406.296	-77.224	0.276	0.096
-405.282	96.994	0.166	-0.189
-404.267	-55.998	-0.251	-0.111
-403.252	-147.915	0.323	-0.027
-402.238	29.809	0.082	0.069
-401.223	613.813	-0.115	-0.287
-400.209	401.606	0.035	0.072
-399.194	-200.000	-0.006	0.231
-398.179	-69.852	-0.095	-0.036
-397.165	33.618	-0.119	0.103
-396.150	169.393	-0.106	0.151
-395.136	-119.072	0.303	0.053
-394.121	765.893	0.075	-0.203
-393.106	-200.000	0.052	0.293
-392.092	-26.544	-0.049	0.029
-391.077	333.584	0.104	-0.200
-390.063	-39.548	-0.045	0.024
-389.048	-20.803	0.189	-0.115
-388.033	0.109	0.152	-0.107
-387.019	179.690	-0.104	-0.151
-386.004	155.943	0.228	-0.312
-384.990	333.887	-0.083	-0.160
-383.975	-55.671	0.138	-0.061
-382.960	-119.945	-0.306	0.052
-381.946	107.464	-0.153	0.181
-380.931	423.594	0.019	0.041
-379.917	-37.316	0.098	0.052
-378.902	-200.000	0.001	-0.141
-377.888	-200.000	-0.003	0.028
-376.873	-200.000	-0.033	-0.187
-375.858	79.340	-0.127	-0.136
-374.844	-49.191	-0.268	-0.127
-373.829	151.870	-0.096	0.130
-372.815	-80.381	0.340	-0.113
-371.800	-80.513	-0.229	0.076
-370.785	-200.000	-0.027	0.386
-369.771	627.608	0.037	-0.092
-368.756	-7.399	-0.265	0.178
-367.742	127.562	-0.226	-0.284
-366.727	-52.472	-0.125	0.058
-365.712	18.573	0.094	-0.074
-364.698	-13.072	-0.277	-0.179
-363.683	-200.000	-0.079	-0.382
-362.669	-200.000	0.002	-0.354
-361.654	474.662	0.032	0.071
-360.639	10.397	0.159	0.120
-359.625	-109.170	0.435	-0.092
-358.610	800.000	0.009	0.026
-357.596	145.525	-0.050	-0.066
-356.581	-200.000	0.006	-0.095
-355.566	-200.000	0.056	-0.266
-354.552	102.264	0.100	0.115
-353.537	359.888	0.039	-0.078
-352.523	259.865	-0.116	0.199
-351.508	174.919	0.218	0.313
-350.493	247.037	-0.141	-0.236
-349.479	-176.105	0.194	0.005
-348.464	43.218	0.169	0.153
-347.450	-102.920	-0.309	0.073
-346.435	-162.116	0.367	-0.018
-345.420	-109.405	0.294	0.062
-344.406	-200.000	-0.015	0.118
-343.391	-77.418	-0.095	0.033
-342.377	40.605	-0.258	0.231
-341.362	12.669	0.406	-0.311
-340.348	-200.000	-0.075	-0.353
-339.333	8.439	0.190	-0.142
-338.318	-58.554	-0.482	0.207
-337.304	-137.814	-0.494	0.055
-336.289	-103.336	-0.232	0.054
-335.275	-102.465	-0.329	-0.078
-334.260	635.105	-0.098	0.246
-333.245	643.283	0.079	0.198
-332.231	-5.035	0.043	0.030
-331.216	-149.754	-0.320	-0.025
-330.202	-200.000	-0.043	0.260
-329.187	-200.000	-0.022	0.129
-328.172	-200.000	0.001	0.279
-327.158	800.000	0.089	0.292
-326.143	57.169	0.047	0.046
-325.129	59.330	0.023	-0.023
-324.114	221.737	-0.043	-0.068
-323.099	-200.000	0.010	-0.326
-322.085	8.977	-0.112	-0.084
-321.070	144.928	-0.108	-0.144
-320.056	34.517	0.159	-0.138
-319.041	-66.572	-0.277	-0.109
-318.026	85.179	-0.109	-0.118
-317.012	800.000	-0.062	-0.227
-315.997	409.211	-0.065	-0.136
-314.983	55.156	0.042	0.041
-313.968	-91.321	0.216	-0.061
-312.953	54.752	-0.210	-0.201
-311.939	174.237	0.198	0.284
-310.924	159.692	-0.133	-0.184
-309.910	-4.905	0.086	0.059
-308.895	-71.639	-0.239	0.088
-307.880	-25.340	0.192	0.112
-306.866	-200.000	-0.036	-0.158
-305.851	-6.586	-0.226	-0.152
-304.837	800.000	-0.053	-0.212
-303.822	-64.047	0.157	-0.063
-302.807	-148.701	-0.485	-0.039
-301.793	800.000	-0.091	0.367
-300.778	-108.816	0.353	0.075
-299.764	-74.927	0.227	0.080
-298.749	-200.000	-0.068	0.378
-297.735	508.638	0.126	0.288
-296.720	-200.000	-0.018	-0.104
-295.705	24.100	0.079	-0.064
-294.691	-200.000	0.016	0.078
-293.676	311.104	-0.129	0.239
-292.662	131.751	-0.098	-0.125
-291.647	800.000	0.063	-0.273
-290.632	120.573	0.162	-0.199
-289.618	669.731	0.106	0.272
-288.603	-200.000	0.110	0.490
-287.589	-75.957	0.432	0.151
-286.574	52.414	0.102	-0.096
-285.559	-200.000	0.015	-0.118
-284.545	251.352	-0.159	0.267
-283.530	184.061	0.164	0.241
-282.516	-200.000	-0.004	0.327
-281.501	1.533	-0.120	-0.085
-280.486	242.141	-0.161	0.266
-279.472	-116.592	0.212	0.039
-278.457	800.000	-0.069	0.225
-277.443	769.611	-0.058	-0.156
-276.428	-200.000	-0.008	-0.152
-275.413	194.535	-0.265	0.398
-274.399	-200.000	-0.020	-0.196
-273.384	800.000	0.070	0.228
-272.370	800.000	0.097	0.313
-271.355	22.378	-0.166	0.134
-270.340	-200.000	-0.052	0.273
-269.326	-75.831	0.211	-0.074
-268.311	800.000	-0.028	-0.078
-267.297	29.312	-0.315	0.264
-266.282	-69.536	0.121	-0.046
-265.267	-111.566	-0.048	-0.010
-264.253	-19.377	-0.222	0.136
-263.238	-200.000	0.044	-0.208
-262.224	221.656	0.143	0.228
-261.209	105.725	-0.148	0.172
-260.195	93.305	-0.152	0.170
-259.180	263.684	0.029	0.050
-258.165	-78.270	-0.191	-0.065
-257.151	-94.877	0.181	0.048
-256.136	-200.000	0.007	0.105
-255.122	-135.339	0.146	0.017
-254.107	11.904	-0.160	0.121
-253.092	315.651	0.104	-0.194
-252.078	800.000	-0.083	-0.246
-251.063	593.480	-0.113	0.276
-250.049	-200.000	0.012	0.236
-249.034	-200.000	-0.029	0.203
-248.019	-58.547	-0.163	0.070
-247.005	-2.900	0.099	-0.068
-245.990	100.781	0.048	-0.055
-244.976	-70.501	0.242	-0.090
-243.961	-124.078	0.283	0.044
-242.946	-81.821	0.208	-0.067
-241.932	24.196	0.228	0.186
-240.917	-117.932	-0.226	-0.040
-239.903	469.575	-0.195	0.433
-238.888	-10.130	0.090	0.059
-237.873	-144.688	0.196	0.018
-236.859	-200.000	-0.020	-0.148
-235.844	8.372	0.112	0.083
-234.830	387.649	-0.070	-0.144
-233.815	490.264	-0.048	0.108
-232.800	-119.632	0.314	-0.054
-231.786	546.969	0.045	0.106
-230.771	-43.345	0.159	-0.079
-229.757	-200.000	-0.027	0.285
-228.742	17.933	-0.092	0.072
-227.727	800.000	-0.089	-0.339
-226.713	31.551	-0.109	-0.093
-225.698	239.385	0.109	-0.179
-224.684	800.000	0.070	-0.197
-223.669	-200.000	-0.001	-0.064
-222.655	-200.000	0.027	-0.290
-221.640	385.063	0.171	-0.347
-220.625	800.000	0.042	0.124
-219.611	-12.207	-0.101	-0.065
-218.596	-13.379	0.404	-0.258
-217.582	5.959	-0.108	-0.079
-216.567	-75.771	-0.130	0.046
-215.552	-29.439	0.348	-0.196
-214.538	730.744	0.052	0.137
-213.523	204.612	-0.129	0.197
-212.509	-200.000	0.016	-0.196
-211.494	649.148	0.070	0.176
-210.479	94.596	0.205	-0.230
-209.465	-71.685	-0.259	0.095
-208.450	-152.611	0.364	0.026
-207.436	8.652	0.112	-0.083
-206.421	800.000	0.058	-0.210
-205.406	-200.000	-0.020	0.091
-204.392	-143.489	0.549	-0.052
-203.377	-200.000	-0.058	-0.372
-202.363	535.371	0.090	-0.211
-201.348	-200.000	-0.107	-0.000
-200.333	800.000	0.037	0.123
-199.319	800.000	-0.059	0.252
-198.304	-200.000	0.044	0.202
-197.290	204.718	-0.279	0.426
-196.275	3.156	-0.277	-0.198
-195.260	118.568	0.235	-0.286
-194.246	-30.184	-0.216	0.121
-193.231	-200.000	0.045	-0.270
-192.217	800.000	0.065	-0.211
-191.202	-42.699	-0.165	0.082
-190.187	580.669	0.124	0.298
-189.173	-43.766	0.077	0.038
-188.158	-169.526	0.136	0.005
-187.144	-200.000	0.028	-0.153
-186.129	-114.429	0.213	0.040
-185.114	82.452	0.137	0.147
-184.100	800.000	-0.045	0.143
-183.085	-98.948	-0.302	-0.075
-182.071	-75.543	0.110	-0.038
-181.056	107.809	0.126	-0.147
-180.042	-200.000	-0.037	0.232
-179.027	-81.910	-0.078	-0.025
-178.012	125.651	0.116	-0.144
-176.998	-200.000	-0.015	-0.213
-175.983	7.136	0.034	-0.025
-174.969	-158.335	0.265	0.015
-173.954	102.664	0.126	0.146
-172.939	-200.000	0.029	0.138
-171.925	-200.000	-0.040	-0.193
-170.910	800.000	0.084	0.363
-169.896	-200.000	-0.011	0.075
-168.881	800.000	0.055	0.151
-167.866	20.930	0.410	0.327
-166.852	-29.053	-0.088	-0.049
-165.837	800.000	-0.055	0.198
-164.823	87.448	-0.055	0.060
-163.808	-146.779	0.297	0.025
-162.793	414.801	0.141	-0.296
-161.779	-52.031	-0.418	-0.191
-160.764	481.931	-0.072	-0.160
-159.750	-151.167	-0.268	-0.020
-158.735	129.159	-0.152	0.190
-157.720	-200.000	-0.030	-0.292
-156.706	69.800	-0.316	-0.321
-155.691	800.000	0.155	-0.444
-154.677	-138.984	0.430	0.046
-153.662	358.837	-0.186	0.365
-152.647	153.572	-0.094	0.127
-151.633	262.560	0.075	-0.128
-150.618	12.321	0.134	0.102
-149.604	-68.288	0.075	0.029
-148.589	160.505	-0.190	0.260
-147.574	-89.174	0.125	0.036
-146.560	44.547	-0.372	-0.336
-145.545	-200.000	-0.028	0.306
-144.531	27.872	0.200	0.166
-143.516	800.000	-0.095	-0.271
-142.502	-190.842	-0.383	-0.004
-141.487	-200.000	-0.065	0.284
-140.472	12.850	-0.109	-0.083
-139.458	-9.566	0.235	0.154
-138.443	-200.000	0.009	0.107
-137.429	85.169	-0.057	-0.061
-136.414	369.127	-0.119	0.237
-135.399	-56.983	-0.274	0.119
-134.385	70.088	-0.141	-0.143
-133.370	-133.299	0.069	0.009
-132.356	-200.000	-0.069	0.360
-131.341	35.294	-0.074	0.064
-130.326	108.572	0.127	-0.149
-129.312	-62.436	-0.325	0.133
-128.297	725.176	-0.120	-0.315
-127.283	189.078	-0.157	0.231
-126.268	-200.000	-0.015	0.300
-125.253	86.281	0.226	0.245
-124.239	-172.893	-0.135	-0.004
-123.224	-42.446	-0.185	-0.093
-122.210	-32.583	-0.053	-0.029
-121.195	216.272	0.156	-0.244
