DTS Sentinel unit serial number:	SN413079Multiplexer serial number:	ORYXHardware model number:	OX4-SRSoftware version number:	ORYX F/W v4.00 Oryx Data Collector v3.7.2.0data status	okinstallation	princeton_trtdifferential loss correction	single-endedforward channel	channel 2reverse channel	N/Adate	2019/09/10time	19:05:11forward acquisition time	60.00reverse acquisition time	0.00gamma	496.2192k internal	0.2323k external	0.2323temperature offset calibration	0.9939default loss term (dB/km)	0.3790temperature slope calibration	1.0000multiplexer offset coefficient	1.0000multiplexer slope coefficient	1.0000fibre end	0.00T internal ref (°C)	34.37T ext. ref 1 (°C)	-0.34T ext. ref 2 (°C)	26.60length (m)	temperature (°C)	Stokes	anti-Stokes-747.200	-76.400	-0.215	0.076
-746.185	17.583	-0.131	0.105
-745.171	-81.403	-0.193	-0.064
-744.156	82.928	-0.187	0.206
-743.142	-148.765	-0.325	-0.027
-742.127	-43.549	0.348	0.177
-741.112	-40.507	-0.138	0.072
-740.098	-5.387	-0.333	0.231
-739.083	-100.837	0.063	0.016
-738.069	232.286	-0.127	0.211
-737.054	242.846	-0.058	0.099
-736.039	-139.093	-0.186	0.020
-735.025	-174.631	0.287	0.008
-734.010	-142.308	0.030	0.003
-732.996	-147.816	-0.208	0.018
-731.981	263.605	0.162	-0.285
-730.966	-200.000	-0.044	-0.246
-729.952	-88.114	-0.227	0.069
-728.937	-73.718	0.071	0.026
-727.923	175.167	-0.124	-0.181
-726.908	279.072	-0.132	-0.237
-725.894	665.754	0.095	-0.246
-724.879	-166.064	-0.454	0.020
-723.864	436.399	-0.021	0.047
-722.850	-98.768	-0.156	-0.040
-721.835	-59.196	-0.270	0.117
-720.821	-74.334	0.095	-0.034
-719.806	-159.755	-0.349	-0.019
-718.791	-54.577	-0.297	-0.136
-717.777	-200.000	-0.031	0.271
-716.762	-200.000	0.043	0.543
-715.748	-71.534	0.173	-0.065
-714.733	213.416	0.092	0.146
-713.718	11.609	0.157	0.122
-712.704	-106.485	-0.261	0.059
-711.689	-39.575	-0.185	0.098
-710.675	109.877	0.051	-0.061
-709.660	121.572	0.221	0.278
-708.645	79.668	0.046	0.050
-707.631	180.864	-0.097	-0.144
-706.616	327.633	0.215	-0.417
-705.602	-167.939	0.091	0.004
-704.587	-200.000	0.079	0.416
-703.572	-115.127	0.087	-0.017
-702.558	170.867	0.214	-0.309
-701.543	-200.000	-0.005	-0.170
-700.529	-200.000	0.047	-0.264
-699.514	800.000	0.120	-0.362
-698.499	800.000	0.037	-0.156
-697.485	145.440	-0.086	-0.116
-696.470	-54.108	0.496	0.228
-695.456	-200.000	0.013	-0.082
-694.441	-200.000	-0.021	-0.313
-693.426	740.246	0.067	-0.182
-692.412	-164.689	-0.289	0.013
-691.397	-200.000	-0.023	0.116
-690.383	-42.186	0.389	0.200
-689.368	800.000	-0.015	-0.052
-688.354	524.475	0.068	-0.162
-687.339	387.959	-0.042	-0.088
-686.324	310.470	-0.116	0.218
-685.310	316.075	-0.082	-0.155
-684.295	-65.495	-0.448	0.181
-683.281	45.428	0.236	-0.220
-682.266	115.276	0.050	0.061
-681.251	615.582	-0.054	0.136
-680.237	-84.056	-0.090	0.029
-679.222	-75.701	-0.189	0.068
-678.208	-117.811	-0.160	0.029
-677.193	800.000	0.020	-0.082
-676.178	-85.963	-0.021	0.007
-675.164	173.893	-0.123	-0.179
-674.149	-43.412	-0.116	-0.059
-673.135	-154.454	-0.089	-0.006
-672.120	-29.480	-0.131	0.076
-671.105	-200.000	-0.022	-0.107
-670.091	-92.116	0.460	-0.131
-669.076	-141.225	0.089	-0.009
-668.062	-200.000	-0.063	-0.293
-667.047	796.450	-0.071	0.196
-666.032	468.316	0.040	0.090
-665.018	361.348	-0.107	-0.216
-664.003	800.000	-0.099	-0.344
-662.989	-200.000	0.020	-0.104
-661.974	-200.000	0.019	-0.149
-660.959	-98.992	-0.418	0.107
-659.945	-200.000	0.022	0.332
-658.930	-200.000	0.013	-0.271
-657.916	130.639	0.210	-0.271
-656.901	-181.919	-0.258	0.005
-655.886	-85.994	0.105	0.033
-654.872	-47.186	0.290	-0.142
-653.857	-78.865	-0.149	0.051
-652.843	-0.616	-0.220	-0.157
-651.828	259.794	-0.073	-0.126
-650.814	-200.000	0.059	-0.273
-649.799	187.006	-0.163	-0.244
-648.784	-200.000	0.019	0.145
-647.770	125.063	-0.291	-0.369
-646.755	-6.572	0.123	-0.084
-645.741	-131.158	-0.161	-0.022
-644.726	441.987	0.090	0.197
-643.711	-114.818	-0.177	0.034
-642.697	800.000	-0.068	0.249
-641.682	-25.225	-0.240	0.143
-640.668	88.147	-0.152	0.170
-639.653	155.446	0.074	0.103
-638.638	-40.991	0.353	0.183
-637.624	190.624	-0.077	-0.116
-636.609	-70.706	0.080	0.030
-635.595	-200.000	-0.009	-0.351
-634.580	233.460	-0.072	-0.119
-633.565	182.671	-0.244	-0.362
-632.551	-200.000	0.049	0.234
-631.536	800.000	0.083	-0.345
-630.522	-151.088	0.218	0.017
-629.507	-200.000	-0.034	0.212
-628.492	800.000	-0.122	0.408
-627.478	-22.703	-0.066	-0.040
-626.463	319.076	-0.163	-0.311
-625.449	-46.510	0.022	-0.011
-624.434	352.933	0.033	-0.065
-623.419	800.000	-0.107	0.296
-622.405	157.325	-0.236	0.328
-621.390	486.716	0.082	0.188
-620.376	22.426	-0.195	0.160
-619.361	11.526	0.328	-0.253
-618.346	65.210	0.176	0.178
-617.332	24.433	0.214	0.178
-616.317	201.367	0.052	0.080
-615.303	631.367	0.094	-0.239
-614.288	3.247	-0.229	0.168
-613.273	3.369	-0.204	0.149
-612.259	-100.276	-0.439	0.110
-611.244	-103.694	0.179	-0.042
-610.230	-110.902	-0.186	-0.039
-609.215	-143.980	0.477	0.045
-608.201	800.000	0.105	0.337
-607.186	13.739	0.258	0.202
-606.171	102.110	0.243	0.286
-605.157	-161.331	0.278	-0.014
-604.142	-52.459	-0.307	-0.143
-603.128	44.737	0.082	0.076
-602.113	-33.514	-0.352	-0.195
-601.098	-97.559	-0.160	0.042
-600.084	-76.008	-0.152	-0.054
-599.069	245.454	0.145	0.244
-598.055	41.564	-0.345	-0.314
-597.040	103.441	0.171	0.201
-596.025	20.192	-0.274	-0.222
-595.011	800.000	0.011	-0.042
-593.996	-149.194	-0.171	-0.014
-592.982	136.117	0.147	0.192
-591.967	-41.035	0.438	0.227
-590.952	-200.000	0.039	0.285
-589.938	-200.000	-0.008	0.045
-588.923	-137.221	-0.454	-0.052
-587.909	-56.074	0.149	0.066
-586.894	800.000	-0.042	-0.157
-585.879	-152.425	0.175	0.013
-584.865	-85.302	0.411	-0.129
-583.850	-20.713	0.319	-0.196
-582.836	-38.109	0.302	0.161
-581.821	352.115	0.185	0.369
-580.806	-200.000	-0.001	-0.354
-579.792	800.000	-0.032	0.119
-578.777	-200.000	0.024	0.116
-577.763	-44.795	0.192	0.096
-576.748	102.365	0.332	-0.389
-575.733	-108.503	-0.231	-0.050
-574.719	350.468	-0.085	0.169
-573.704	800.000	0.009	0.038
-572.690	-98.356	0.127	0.033
-571.675	-200.000	-0.019	0.127
-570.661	27.802	0.199	-0.169
-569.646	320.403	-0.100	0.191
-568.631	-200.000	-0.010	-0.198
-567.617	186.476	0.116	-0.173
-566.602	275.571	0.063	-0.113
-565.588	-200.000	-0.011	0.063
-564.573	139.864	0.216	0.285
-563.558	-57.503	0.180	0.079
-562.544	-200.000	-0.032	0.402
-561.529	108.267	-0.038	0.046
-560.515	-112.792	-0.112	-0.022
-559.500	-200.000	0.009	-0.070
-558.485	35.183	0.244	-0.214
-557.471	-47.710	-0.149	0.072
-556.456	-57.255	-0.209	-0.092
-555.442	-176.638	0.166	-0.004
-554.427	100.468	0.045	0.052
-553.412	-51.742	-0.112	0.052
-552.398	102.539	-0.192	-0.225
-551.383	127.126	0.138	-0.176
-550.369	-200.000	-0.031	0.278
-549.354	-20.091	-0.488	-0.301
-548.339	41.046	-0.280	0.254
-547.325	-101.134	0.345	-0.085
-546.310	-11.201	0.097	0.064
-545.296	18.818	-0.335	0.269
-544.281	-125.935	0.156	0.024
-543.266	73.151	0.085	-0.089
-542.252	-189.213	0.132	0.002
-541.237	800.000	-0.097	-0.294
-540.223	109.948	-0.157	-0.188
-539.208	-18.051	-0.214	-0.134
-538.193	331.245	0.108	0.209
-537.179	-200.000	-0.028	-0.516
-536.164	800.000	0.040	-0.175
-535.150	-124.400	0.340	0.053
-534.135	800.000	-0.072	0.284
-533.121	-200.000	0.041	0.200
-532.106	124.474	-0.263	0.331
-531.091	-58.941	-0.121	-0.052
-530.077	-32.227	-0.097	0.055
-529.062	113.708	-0.159	-0.193
-528.048	800.000	-0.081	-0.241
-527.033	642.987	0.147	0.375
-526.018	186.459	0.114	-0.171
-525.004	732.871	-0.097	-0.260
-523.989	-86.535	-0.526	-0.161
-522.975	-57.818	-0.247	0.108
-521.960	22.462	0.236	0.193
-520.945	-115.959	0.163	-0.030
-519.931	694.617	-0.046	0.122
-518.916	-37.931	-0.188	-0.100
-517.902	-200.000	-0.039	-0.252
-516.887	-56.293	0.168	0.075
-515.872	800.000	-0.054	-0.165
-514.858	-175.623	0.349	-0.009
-513.843	-200.000	-0.001	-0.013
-512.829	18.845	0.185	0.148
-511.814	49.969	0.380	-0.359
-510.799	321.991	0.053	0.100
-509.785	-200.000	-0.014	0.105
-508.770	1.457	-0.036	0.026
-507.756	-189.820	-0.123	-0.001
-506.741	800.000	-0.014	0.047
-505.726	-200.000	0.008	0.034
-504.712	-2.722	-0.363	0.254
-503.697	-200.000	-0.014	-0.070
-502.683	-200.000	-0.003	0.106
-501.668	178.997	-0.248	0.362
-500.653	193.675	-0.081	-0.122
-499.639	-32.805	-0.187	-0.104
-498.624	-33.077	-0.217	-0.120
-497.610	188.520	-0.071	0.106
-496.595	-133.652	0.129	0.016
-495.581	-21.843	-0.121	0.073
-494.566	8.088	0.157	-0.118
-493.551	-200.000	-0.049	-0.240
-492.537	14.983	0.234	-0.183
-491.522	-57.509	0.046	0.020
-490.508	800.000	0.087	0.246
-489.493	150.502	-0.113	-0.154
-488.478	-200.000	-0.234	0.000
-487.464	800.000	-0.121	-0.343
-486.449	-200.000	0.042	0.214
-485.435	-200.000	-0.051	0.334
-484.420	-26.109	-0.033	-0.019
-483.405	64.301	-0.058	0.058
-482.391	-128.096	-0.119	-0.017
-481.376	800.000	-0.124	0.345
-480.362	-39.387	-0.264	-0.138
-479.347	36.895	0.214	-0.189
-478.332	103.076	-0.169	-0.197
-477.318	-98.555	0.041	-0.010
-476.303	5.329	0.101	0.074
-475.289	-74.692	-0.179	0.064
-474.274	-200.000	-0.389	-0.001
-473.259	-186.667	0.132	0.002
-472.245	-80.740	0.250	-0.083
-471.230	-198.986	-0.067	-0.000
-470.216	-83.259	-0.132	-0.042
-469.201	86.126	0.194	0.213
-468.186	21.551	0.256	0.208
-467.172	-5.381	0.099	0.068
-466.157	-200.000	0.042	0.321
-465.143	540.597	-0.021	-0.050
-464.128	267.867	0.097	0.170
-463.113	141.149	0.158	0.208
-462.099	-50.500	0.162	0.076
-461.084	757.895	-0.083	-0.225
-460.070	257.052	-0.052	-0.089
-459.055	-200.000	0.007	0.150
-458.040	-83.771	-0.214	-0.068
-457.026	-200.000	0.007	-0.152
-456.011	800.000	-0.045	0.145
-454.997	-16.947	-0.077	-0.048
-453.982	800.000	-0.056	-0.224
-452.968	-147.873	-0.191	0.016
-451.953	800.000	-0.040	0.119
-450.938	-37.017	-0.198	-0.106
-449.924	64.391	-0.221	-0.222
-448.909	-129.332	0.307	-0.043
-447.895	-73.186	-0.316	-0.115
-446.880	-37.892	0.080	-0.042
-445.865	123.348	0.177	-0.221
-444.851	216.410	-0.061	0.096
-443.836	51.374	0.085	-0.080
-442.822	268.231	-0.129	0.225
-441.807	800.000	0.059	0.193
-440.792	155.508	-0.121	0.166
-439.778	-70.407	-0.250	-0.094
-438.763	102.403	0.211	0.246
-437.749	-200.000	-0.002	-0.280
-436.734	-85.095	0.142	0.044
-435.719	-29.994	0.315	0.179
-434.705	-148.122	0.161	-0.013
-433.690	-54.256	-0.222	0.101
-432.676	-30.477	0.277	0.157
-431.661	-8.373	-0.167	-0.112
-430.646	800.000	-0.010	0.035
-429.632	255.349	-0.118	0.201
-428.617	-83.443	0.235	-0.075
-427.603	-104.279	0.232	-0.054
-426.588	167.249	0.162	-0.229
-425.573	165.869	-0.188	0.265
-424.559	-52.027	0.226	0.105
-423.544	-100.303	0.336	0.083
-422.530	-19.461	0.171	0.105
-421.515	-135.156	-0.213	0.026
-420.500	-4.100	-0.281	0.194
-419.486	-82.858	0.095	0.030
-418.471	369.185	0.107	0.215
-417.457	322.182	0.070	0.132
-416.442	134.470	-0.168	-0.217
-415.428	-102.146	0.134	0.032
-414.413	-98.897	-0.261	-0.066
-413.398	800.000	-0.045	-0.182
-412.384	-200.000	0.006	-0.107
-411.369	-145.685	0.599	-0.053
-410.355	-115.347	-0.476	-0.089
-409.340	-104.414	0.180	-0.041
-408.325	122.805	-0.030	-0.038
-407.311	-70.848	0.194	0.073
-406.296	652.545	-0.081	-0.207
-405.282	-39.551	0.122	-0.063
-404.267	-117.584	0.461	-0.083
-403.252	-200.000	0.057	-0.422
-402.238	46.112	-0.062	0.057
-401.223	-150.208	-0.141	0.011
-400.209	-183.605	-0.100	0.002
-399.194	800.000	0.044	-0.168
-398.179	-91.686	0.110	0.031
-397.165	383.855	0.092	-0.188
-396.150	63.211	0.122	0.122
-395.136	91.161	0.087	-0.097
-394.121	49.593	0.094	-0.089
-393.106	119.191	-0.072	0.089
-392.092	-55.574	0.175	-0.078
-391.077	174.018	-0.059	0.085
-390.063	800.000	-0.110	-0.339
-389.048	-36.655	-0.101	0.054
-388.033	309.909	-0.111	0.207
-387.019	-193.382	0.234	-0.002
-386.004	-15.779	-0.133	0.084
-384.990	475.293	0.059	0.132
-383.975	-61.902	0.273	0.114
-382.960	71.413	0.182	-0.189
-381.946	-200.000	0.024	-0.189
-380.931	206.111	-0.091	-0.141
-379.917	5.894	0.130	-0.096
-378.902	259.636	0.080	0.138
-377.888	-90.665	-0.126	0.036
-376.873	148.330	0.069	0.093
-375.858	488.667	-0.089	-0.201
-374.844	-114.713	-0.345	0.066
-373.829	-200.000	-0.008	0.213
-372.815	-82.688	-0.352	0.113
-371.800	74.526	-0.203	-0.212
-370.785	117.643	-0.224	0.274
-369.771	177.277	0.064	-0.093
-368.756	-176.154	-0.219	-0.006
-367.742	-180.088	0.328	0.007
-366.727	-96.742	0.347	0.091
-365.712	15.032	0.267	-0.208
-364.698	53.828	-0.220	-0.210
-363.683	-110.719	-0.428	-0.088
-362.669	800.000	0.099	-0.368
-361.654	-49.729	-0.091	-0.043
-360.639	121.591	-0.090	-0.111
-359.625	188.461	-0.013	-0.020
-358.610	-31.119	0.085	0.048
-357.596	-200.000	-0.037	-0.200
-356.581	206.364	0.224	-0.346
-355.566	-152.061	-0.138	-0.010
-354.552	12.000	0.185	0.142
-353.537	-160.352	-0.184	0.010
-352.523	44.330	0.136	-0.124
-351.508	671.517	0.054	0.140
-350.493	441.666	0.057	-0.124
-349.479	800.000	0.023	0.087
-348.464	54.916	-0.197	0.189
-347.450	41.150	0.284	-0.255
-346.435	-106.643	0.029	-0.006
-345.420	-93.925	-0.272	-0.074
-344.406	-200.000	0.038	0.412
-343.391	-60.057	0.146	0.062
-342.377	-54.392	0.145	-0.065
-341.362	96.728	0.193	-0.220
-340.348	800.000	0.043	-0.125
-339.333	800.000	0.067	-0.219
-338.318	-200.000	0.243	0.001
-337.304	-83.325	-0.166	0.053
-336.289	114.551	0.170	-0.206
-335.275	-169.068	0.234	-0.009
-334.260	368.092	0.128	0.257
-333.245	51.428	0.112	0.106
-332.231	-200.000	-0.004	-0.219
-331.216	214.655	0.063	0.099
-330.202	375.527	-0.025	0.052
-329.187	800.000	-0.046	0.132
-328.172	800.000	0.149	-0.593
-327.158	-200.000	0.026	0.177
-326.143	-200.000	0.001	0.123
-325.129	352.928	0.132	-0.260
-324.114	-200.000	0.002	0.369
-323.099	-47.647	-0.090	0.044
-322.085	7.473	0.068	0.050
-321.070	73.533	-0.027	-0.029
-320.056	13.808	0.042	-0.033
-319.041	-51.378	0.308	0.143
-318.026	172.513	0.173	-0.247
-317.012	3.455	0.135	-0.098
-315.997	52.281	0.286	0.271
-314.983	18.042	0.067	0.053
-313.968	800.000	0.026	-0.111
-312.953	-106.652	0.098	-0.022
-311.939	-200.000	0.043	-0.208
-310.924	800.000	0.067	-0.265
-309.910	456.600	-0.092	-0.203
-308.895	-56.379	-0.461	0.203
-307.880	198.708	-0.103	-0.156
-306.866	168.742	-0.212	-0.300
-305.851	800.000	-0.050	-0.157
-304.837	-91.011	0.357	0.102
-303.822	800.000	0.057	-0.193
-302.807	224.628	0.034	-0.054
-301.793	-200.000	-0.028	-0.202
-300.778	-146.448	-0.066	-0.006
-299.764	51.516	0.139	0.131
-298.749	-188.102	-0.181	0.002
-297.735	273.282	-0.063	-0.110
-296.720	274.277	-0.213	0.373
-295.705	397.731	-0.144	-0.299
-294.691	-37.394	-0.201	-0.107
-293.676	800.000	-0.035	-0.097
-292.662	-40.993	0.331	-0.170
-291.647	114.881	-0.207	-0.251
-290.632	-200.000	-0.010	-0.104
-289.618	302.013	0.165	-0.303
-288.603	25.487	-0.305	0.251
-287.589	-200.000	0.034	0.174
-286.574	-141.821	0.280	0.028
-285.559	-200.000	-0.006	-0.035
-284.545	800.000	-0.047	0.139
-283.530	116.682	0.111	0.135
-282.516	-200.000	-0.029	0.248
-281.501	241.310	-0.071	-0.117
-280.486	-200.000	-0.040	0.179
-279.472	14.211	0.087	-0.067
-278.457	197.081	0.060	-0.091
-277.443	23.862	-0.256	0.209
-276.428	134.615	-0.229	0.294
-275.413	-136.882	0.144	0.016
-274.399	-193.937	0.116	-0.001
-273.384	-117.146	-0.179	0.032
-272.370	-36.048	0.198	0.106
-271.355	268.247	0.091	-0.158
-270.340	-137.234	-0.168	-0.019
-269.326	-53.442	-0.117	0.053
-268.311	-70.877	0.109	0.041
-267.297	-200.000	0.018	0.292
-266.282	-200.000	-0.013	0.176
-265.267	-200.000	0.035	0.353
-264.253	14.929	0.058	0.045
-263.238	800.000	-0.033	-0.113
-262.224	111.825	-0.343	0.411
-261.209	-23.665	-0.235	-0.140
-260.195	-0.603	-0.102	0.071
-259.180	33.665	-0.199	-0.171
-258.165	159.432	0.131	-0.180
-257.151	-2.183	0.369	0.256
-256.136	159.589	0.059	0.082
-255.122	-169.820	-0.234	0.008
-254.107	232.685	-0.192	0.313
-253.092	440.509	-0.088	-0.190
-252.078	-192.565	-0.443	-0.004
-251.063	-118.256	-0.097	-0.017
-250.049	266.863	-0.102	-0.177
-249.034	-200.000	-0.006	-0.049
-248.019	800.000	0.053	0.207
-247.005	-200.000	-0.009	-0.060
-245.990	17.408	-0.145	-0.114
-244.976	-174.441	0.372	0.011
-243.961	-200.000	0.186	0.001
-242.946	-147.590	-0.393	-0.033
-241.932	551.001	0.079	0.187
-240.917	-200.000	0.008	-0.300
-239.903	178.401	0.139	0.200
-238.888	-13.288	-0.148	-0.095
-237.873	-17.133	-0.189	-0.118
-236.859	-133.730	0.147	0.018
-235.844	533.605	0.116	0.273
-234.830	-200.000	0.013	-0.273
-233.815	45.820	0.020	-0.018
-232.800	-200.000	0.006	0.232
-231.786	-75.615	-0.133	0.047
-230.771	-34.819	0.106	-0.057
-229.757	-95.818	-0.552	-0.146
-228.742	-200.000	-0.268	-0.001
-227.727	39.641	0.161	0.143
-226.713	780.241	0.069	-0.188
-225.698	-155.647	-0.204	0.013
-224.684	-15.964	-0.144	0.091
-223.669	-200.000	0.031	0.331
-222.655	23.575	-0.309	0.252
-221.640	-30.845	0.302	-0.169
-220.625	-200.000	-0.005	0.112
-219.611	-13.024	-0.279	0.180
-218.596	-73.429	-0.324	0.117
-217.582	-103.271	-0.516	-0.120
-216.567	-156.878	0.427	-0.026
-215.552	-144.376	-0.214	-0.020
-214.538	-94.401	-0.070	-0.019
-213.523	-30.097	0.167	-0.094
-212.509	8.656	-0.272	-0.203
-211.494	-74.785	0.082	-0.029
-210.479	396.485	0.091	0.189
-209.465	102.372	0.059	-0.069
-208.450	-0.943	-0.281	0.197
-207.436	150.850	-0.064	-0.087
-206.421	-23.747	-0.141	0.083
-205.406	-102.531	-0.227	-0.054
-204.392	164.336	-0.084	0.117
-203.377	49.216	-0.068	-0.064
-202.363	328.970	-0.102	0.193
-201.348	-200.000	0.007	-0.049
-200.333	149.395	0.172	-0.231
-199.319	-200.000	0.011	-0.099
-198.304	-92.999	0.252	0.070
-197.290	-200.000	0.011	-0.250
-196.275	748.005	0.078	-0.208
-195.260	8.466	0.170	0.126
-194.246	-158.886	-0.226	-0.013
-193.231	-200.000	0.006	0.088
-192.217	170.543	0.102	-0.144
-191.202	-99.882	-0.176	-0.044
-190.187	184.498	0.244	-0.357
-189.173	-56.408	0.154	-0.067
-188.158	150.347	-0.056	0.076
-187.144	-105.899	0.148	0.033
-186.129	220.806	-0.118	-0.188
-185.114	-93.714	-0.114	0.031
-184.100	-127.640	-0.083	-0.012
-183.085	-200.000	0.041	-0.251
-182.071	0.163	0.040	0.028
-181.056	-200.000	-0.028	0.220
-180.042	-165.822	0.330	-0.014
-179.027	800.000	-0.024	-0.084
-178.012	-82.197	0.230	-0.074
-176.998	800.000	-0.065	-0.240
-175.983	68.628	0.042	0.043
-174.969	24.771	0.173	0.142
-173.954	-200.000	-0.023	0.158
-172.939	491.259	-0.158	-0.358
-171.925	27.647	0.184	0.153
-170.910	350.534	0.067	-0.131
-169.896	68.455	0.155	0.157
-168.881	800.000	0.113	-0.385
-167.866	62.504	0.107	-0.106
-166.852	-148.445	0.118	0.010
-165.837	493.432	0.023	-0.052
-164.823	-41.742	0.088	-0.045
-163.808	-108.023	0.162	0.035
-162.793	-106.051	-0.006	0.001
-161.779	-102.877	-0.071	-0.017
-160.764	-200.000	-0.035	0.279
-159.750	-200.000	0.004	0.202
-158.735	-200.000	-0.025	0.206
-157.720	278.153	0.118	0.208
-156.706	-119.140	0.110	-0.019
-155.691	-200.000	0.004	0.354
-154.677	234.692	0.140	-0.228
-153.662	-90.056	-0.091	0.026
-152.647	-200.000	0.012	-0.063
-151.633	414.406	-0.068	-0.142
-150.618	-8.526	-0.151	-0.100
-149.604	113.598	0.064	-0.077
-148.589	-6.177	-0.092	-0.062
-147.574	-53.652	0.302	0.136
-146.560	-200.000	-0.010	-0.120
-145.545	63.487	-0.175	0.174
-144.531	-40.244	0.117	-0.060
-143.516	-59.848	-0.188	0.079
-142.502	-200.000	0.067	-0.445
-141.487	-200.000	-0.008	-0.465
-140.472	17.286	0.272	-0.213
-139.458	92.687	0.204	0.227
-138.443	-5.005	0.086	-0.058
-137.429	800.000	-0.019	0.070
-136.414	-76.964	-0.302	0.104
-135.399	-185.834	-0.279	-0.004
-134.385	-112.920	0.321	-0.063
-133.370	481.950	-0.166	0.373
-132.356	111.351	0.044	0.052
-131.341	-164.698	0.352	-0.016
-130.326	-51.115	-0.061	-0.028
-129.312	235.863	0.058	0.095
-128.297	-61.817	-0.241	-0.099
-127.283	-102.419	0.421	-0.099
-126.268	-58.698	0.270	-0.115
-125.253	15.396	-0.061	-0.047
-124.239	800.000	0.068	-0.219
-123.224	-52.578	-0.184	0.084
-122.210	-200.000	-0.017	0.110
