DTS Sentinel unit serial number:	SN413079Multiplexer serial number:	ORYXHardware model number:	OX4-SRSoftware version number:	ORYX F/W v4.00 Oryx Data Collector v3.7.2.0data status	okinstallation	princeton_trtdifferential loss correction	single-endedforward channel	channel 2reverse channel	N/Adate	2019/09/15time	02:19:34forward acquisition time	60.00reverse acquisition time	0.00gamma	496.2192k internal	0.2326k external	0.2326temperature offset calibration	1.0031default loss term (dB/km)	0.3790temperature slope calibration	1.0000multiplexer offset coefficient	1.0000multiplexer slope coefficient	1.0000fibre end	0.00T internal ref (°C)	31.62T ext. ref 1 (°C)	4.56T ext. ref 2 (°C)	26.16length (m)	temperature (°C)	Stokes	anti-Stokes-747.200	-116.091	-0.462	0.087
-746.185	200.856	0.114	0.177
-745.171	-70.742	0.143	0.054
-744.156	-118.369	0.304	0.054
-743.142	303.046	-0.178	-0.333
-742.127	31.473	0.287	0.249
-741.112	146.350	0.297	0.401
-740.098	-16.266	-0.324	0.208
-739.083	-103.713	0.423	0.100
-738.069	-104.359	0.157	0.037
-737.054	-200.000	0.043	0.210
-736.039	135.332	-0.104	-0.136
-735.025	-81.378	0.401	0.133
-734.010	-131.227	-0.319	0.043
-732.996	-200.000	-0.028	-0.334
-731.981	-72.349	-0.057	-0.021
-730.966	62.486	0.142	0.143
-729.952	-200.000	0.024	-0.229
-728.937	-23.554	-0.220	-0.133
-727.923	-169.457	0.137	-0.005
-726.908	70.910	0.203	-0.212
-725.894	6.282	-0.280	-0.209
-724.879	-200.000	-0.079	0.365
-723.864	-10.034	0.241	-0.161
-722.850	98.226	-0.277	0.322
-721.835	-37.604	-0.166	-0.089
-720.821	-90.996	0.198	0.057
-719.806	-12.047	-0.376	0.248
-718.791	-66.115	0.168	0.068
-717.777	160.396	0.142	-0.199
-716.762	-36.780	-0.162	-0.088
-715.748	-37.828	-0.252	0.135
-714.733	-200.000	-0.001	-0.082
-713.718	800.000	-0.048	0.196
-712.704	-104.658	0.126	-0.029
-711.689	800.000	0.064	-0.230
-710.675	412.566	-0.085	0.183
-709.660	-78.796	0.145	-0.050
-708.645	300.442	0.069	-0.128
-707.631	777.109	-0.150	-0.412
-706.616	-200.000	0.184	-0.001
-705.602	-6.360	-0.183	-0.126
-704.587	132.432	0.101	-0.131
-703.572	17.268	-0.127	-0.101
-702.558	-200.000	-0.063	0.440
-701.543	-200.000	-0.026	-0.464
-700.529	-126.466	-0.100	-0.015
-699.514	-85.439	-0.101	0.032
-698.499	-200.000	-0.020	0.120
-697.485	693.247	0.102	-0.270
-696.470	29.329	-0.274	-0.234
-695.456	800.000	-0.028	0.094
-694.441	278.438	-0.045	-0.081
-693.426	-155.968	-0.327	-0.021
-692.412	-173.064	-0.159	0.005
-691.397	197.156	0.103	-0.159
-690.383	-200.000	0.029	-0.169
-689.368	-30.482	0.048	0.027
-688.354	800.000	0.110	0.327
-687.339	252.327	0.027	0.046
-686.324	49.338	-0.268	0.253
-685.310	-119.520	-0.480	0.084
-684.295	-200.000	-0.005	0.076
-683.281	105.609	-0.297	0.353
-682.266	-101.857	0.225	-0.055
-681.251	-62.184	-0.197	0.083
-680.237	-157.967	-0.603	0.036
-679.222	16.172	-0.153	0.121
-678.208	373.827	-0.091	0.186
-677.193	51.056	0.145	-0.139
-676.178	-200.000	0.043	-0.454
-675.164	-70.877	-0.364	-0.138
-674.149	165.549	0.183	-0.260
-673.135	-115.054	-0.141	-0.027
-672.120	800.000	0.007	-0.021
-671.105	800.000	0.063	-0.227
-670.091	800.000	-0.014	-0.054
-669.076	-27.100	-0.105	0.061
-668.062	212.386	-0.094	0.149
-667.047	162.197	0.143	0.202
-666.032	-8.479	-0.116	0.078
-665.018	-75.309	-0.103	0.037
-664.003	125.815	-0.245	-0.312
-662.989	55.038	-0.232	-0.225
-661.974	210.305	0.159	-0.251
-660.959	245.735	-0.093	0.158
-659.945	800.000	0.080	0.286
-658.930	-200.000	-0.018	0.174
-657.916	-200.000	0.017	-0.225
-656.901	-200.000	0.028	0.253
-655.886	-200.000	0.005	-0.026
-654.872	-200.000	0.047	0.346
-653.857	507.455	-0.108	-0.251
-652.843	455.925	-0.047	0.105
-651.828	800.000	-0.093	0.334
-650.814	-200.000	0.012	0.122
-649.799	800.000	-0.140	0.417
-648.784	-53.983	-0.052	-0.024
-647.770	436.596	-0.113	-0.247
-646.755	-38.204	-0.091	-0.048
-645.741	12.298	-0.190	0.147
-644.726	800.000	0.040	-0.161
-643.711	36.583	-0.202	-0.179
-642.697	-200.000	-0.023	0.339
-641.682	-118.457	-0.134	0.024
-640.668	9.385	0.160	-0.121
-639.653	-20.067	-0.426	0.264
-638.638	-141.456	-0.268	-0.027
-637.624	-84.939	-0.079	0.025
-636.609	-55.573	-0.154	-0.069
-635.595	800.000	-0.084	0.261
-634.580	-88.479	-0.369	-0.111
-633.565	157.774	-0.207	-0.288
-632.551	54.253	-0.222	-0.214
-631.536	-200.000	-0.055	-0.262
-630.522	-200.000	-0.079	0.614
-629.507	-200.000	0.033	0.215
-628.492	-76.782	-0.068	-0.024
-627.478	-71.432	-0.229	0.086
-626.463	-87.355	0.202	0.062
-625.449	38.172	0.154	0.137
-624.434	-52.437	-0.171	-0.079
-623.419	-29.822	-0.137	0.078
-622.405	310.466	0.067	0.126
-621.390	-57.543	0.220	-0.097
-620.376	-30.055	0.062	0.036
-619.361	572.932	-0.093	0.227
-618.346	793.229	0.033	-0.092
-617.332	-57.164	0.188	0.083
-616.317	-28.852	-0.184	0.106
-615.303	62.236	-0.110	-0.111
-614.288	-200.000	-0.009	0.081
-613.273	-49.451	0.065	0.031
-612.259	-61.420	0.070	0.029
-611.244	162.840	0.153	0.216
-610.230	-135.298	-0.126	-0.015
-609.215	800.000	0.048	-0.196
-608.201	47.783	0.188	0.176
-607.186	-200.000	0.067	0.335
-606.171	-149.512	-0.159	0.013
-605.157	175.794	0.046	-0.067
-604.142	-6.619	-0.185	-0.126
-603.128	23.289	-0.158	-0.131
-602.113	-55.836	-0.017	-0.008
-601.098	216.124	0.122	-0.194
-600.084	-30.609	-0.079	-0.045
-599.069	24.793	0.264	-0.219
-598.055	-184.227	-0.322	-0.005
-597.040	-42.424	-0.289	0.148
-596.025	356.891	-0.121	0.243
-595.011	-200.000	0.027	0.196
-593.996	409.336	0.091	0.193
-592.982	220.794	-0.109	-0.175
-591.967	-62.190	-0.155	-0.065
-590.952	-51.413	-0.285	-0.133
-589.938	-82.215	-0.065	-0.021
-588.923	-200.000	0.006	-0.428
-587.909	-50.235	-0.293	-0.139
-586.894	-90.972	0.195	-0.056
-585.879	-107.498	-0.018	0.004
-584.865	99.648	0.203	-0.235
-583.850	245.382	-0.097	-0.164
-582.836	359.060	-0.127	0.255
-581.821	-21.267	-0.101	0.062
-580.806	-24.985	0.145	-0.086
-579.792	144.526	0.061	-0.081
-578.777	800.000	-0.074	-0.236
-577.763	-134.698	-0.245	-0.030
-576.748	575.367	0.019	-0.045
-575.733	295.773	-0.052	0.096
-574.719	-46.440	0.054	0.027
-573.704	249.529	0.023	0.040
-572.690	800.000	0.195	-0.578
-571.675	-139.652	0.097	-0.010
-570.661	-81.884	-0.194	-0.064
-569.646	-64.965	0.103	-0.042
-568.631	-106.129	0.596	0.134
-567.617	228.741	0.144	0.235
-566.602	683.149	-0.106	0.276
-565.588	-115.527	-0.146	-0.027
-564.573	-132.719	-0.301	0.039
-563.558	213.922	-0.215	-0.341
-562.544	-20.558	0.312	-0.192
-561.529	-73.165	0.252	0.093
-560.515	293.678	-0.058	0.106
-559.500	-15.140	0.197	0.126
-558.485	-159.269	0.263	-0.015
-557.471	27.270	0.067	-0.057
-556.456	-13.021	0.106	0.069
-555.442	-200.000	0.011	0.052
-554.427	-7.415	-0.120	0.082
-553.412	-167.027	-0.098	-0.004
-552.398	-43.913	-0.185	-0.093
-551.383	-15.632	-0.204	0.130
-550.369	-200.000	0.043	-0.220
-549.354	-168.206	-0.226	-0.009
-548.339	-200.000	0.023	-0.253
-547.325	-200.000	0.008	0.167
-546.310	46.677	0.141	0.131
-545.296	-53.439	0.119	-0.055
-544.281	189.643	0.117	-0.176
-543.266	-200.000	0.008	-0.143
-542.252	-97.086	-0.231	0.060
-541.237	15.929	0.415	0.327
-540.223	150.008	-0.160	0.217
-539.208	-200.000	0.023	0.179
-538.193	-96.335	0.178	0.047
-537.179	-200.000	0.014	-0.288
-536.164	84.762	0.106	-0.116
-535.150	-200.000	-0.039	-0.181
-534.135	234.482	0.080	0.132
-533.121	-167.993	-0.299	0.012
-532.106	-54.579	0.270	-0.122
-531.091	252.440	-0.174	0.297
-530.077	-167.397	-0.209	-0.008
-529.062	800.000	-0.198	-0.571
-528.048	-90.688	0.160	-0.046
-527.033	-52.520	-0.322	-0.149
-526.018	-27.435	-0.162	-0.094
-525.004	108.303	-0.294	0.351
-523.989	-100.135	0.255	0.064
-522.975	57.455	-0.184	0.180
-521.960	52.868	-0.210	-0.201
-520.945	489.224	0.016	0.038
-519.931	7.495	0.065	0.049
-518.916	800.000	0.072	0.227
-517.902	77.926	-0.055	0.059
-516.887	201.662	0.094	0.145
-515.872	-141.319	0.170	0.017
-514.858	-200.000	-0.027	-0.269
-513.843	52.108	0.152	-0.145
-512.829	-92.215	0.353	-0.100
-511.814	-42.740	0.099	-0.050
-510.799	800.000	-0.097	0.295
-509.785	-24.941	0.121	0.072
-508.770	-200.000	0.032	-0.217
-507.756	-57.346	0.094	0.041
-506.741	488.109	0.034	-0.077
-505.726	16.360	0.227	-0.179
-504.712	51.695	0.102	0.097
-503.697	-200.000	0.010	-0.071
-502.683	267.392	0.152	-0.265
-501.668	800.000	0.130	-0.501
-500.653	-123.578	-0.105	0.017
-499.639	-84.875	0.197	-0.062
-498.624	-50.671	0.297	0.140
-497.610	-49.503	0.139	0.066
-496.595	-127.280	0.148	0.022
-495.581	72.014	0.206	0.214
-494.566	-99.971	0.174	0.043
-493.551	150.055	-0.176	-0.238
-492.537	-147.748	0.179	-0.015
-491.522	688.067	-0.082	0.214
-490.508	-164.932	0.259	0.012
-489.493	328.304	0.119	-0.228
-488.478	408.479	0.092	-0.193
-487.464	95.077	-0.140	0.159
-486.449	392.953	0.044	-0.091
-485.435	127.212	-0.167	-0.211
-484.420	-200.000	0.021	0.181
-483.405	169.922	0.171	-0.245
-482.391	-67.042	-0.124	-0.049
-481.376	-28.446	0.171	0.099
-480.362	392.583	0.068	0.141
-479.347	111.010	0.151	-0.182
-478.332	134.822	-0.092	-0.120
-477.318	-143.156	0.298	0.029
-476.303	-94.026	0.273	-0.075
-475.289	-52.981	-0.273	0.125
-474.274	113.814	-0.167	-0.203
-473.259	14.386	0.185	-0.144
-472.245	258.483	0.106	-0.182
-471.230	292.783	-0.134	-0.243
-470.216	487.562	-0.053	-0.121
-469.201	-200.000	-0.076	-0.403
-468.186	-200.000	0.050	-0.352
-467.172	319.370	-0.085	0.162
-466.157	2.385	-0.156	-0.112
-465.143	-112.707	-0.179	-0.036
-464.128	61.123	0.114	0.113
-463.113	51.074	-0.044	-0.041
-462.099	206.845	-0.054	-0.083
-461.084	-8.034	0.257	-0.173
-460.070	-46.623	-0.253	-0.124
-459.055	800.000	0.052	0.149
-458.040	-90.372	0.425	-0.123
-457.026	-95.605	-0.124	-0.033
-456.011	1.777	0.015	0.011
-454.997	134.345	0.156	0.201
-453.982	22.451	-0.129	-0.105
-452.968	-100.380	0.407	-0.101
-451.953	88.970	-0.095	-0.105
-450.938	297.742	0.162	-0.298
-449.924	-177.298	-0.192	0.005
-448.909	-133.958	0.222	-0.027
-447.895	-14.469	-0.141	-0.091
-446.880	-91.803	0.439	-0.124
-445.865	-124.480	0.222	0.034
-444.851	127.228	0.256	0.324
-443.836	99.639	-0.276	0.318
-442.822	-1.643	-0.229	0.161
-441.807	-24.220	0.169	-0.101
-440.792	180.058	-0.077	0.113
-439.778	63.940	0.131	-0.131
-438.763	297.715	-0.070	-0.128
-437.749	-200.000	-0.024	-0.219
-436.734	156.119	-0.072	-0.099
-435.719	800.000	-0.053	0.159
-434.705	800.000	-0.052	-0.146
-433.690	15.675	0.214	0.167
-432.676	-200.000	0.022	-0.172
-431.661	244.499	0.069	-0.115
-430.646	269.146	-0.087	-0.152
-429.632	800.000	0.041	0.129
-428.617	-41.868	0.289	-0.148
-427.603	394.567	0.190	-0.395
-426.588	440.803	-0.166	-0.361
-425.573	79.370	0.069	-0.074
-424.559	1.537	-0.196	0.140
-423.544	60.137	-0.096	-0.095
-422.530	65.725	-0.090	0.091
-421.515	112.130	0.063	-0.076
-420.500	617.210	0.060	0.150
-419.486	-60.459	0.304	0.129
-418.471	-51.621	-0.051	0.023
-417.457	-200.000	-0.001	0.219
-416.442	-200.000	0.006	-0.080
-415.428	-163.195	-0.304	0.015
-414.413	-17.786	0.229	0.143
-413.398	73.792	-0.116	0.121
-412.384	57.502	0.273	0.265
-411.369	-103.993	0.420	0.097
-410.355	48.451	-0.102	0.095
-409.340	-87.077	-0.220	-0.067
-408.325	47.097	-0.140	0.129
-407.311	-41.768	0.150	-0.076
-406.296	10.688	0.027	-0.021
-405.282	-97.653	0.249	-0.064
-404.267	-200.000	0.018	0.208
-403.252	7.779	0.255	-0.190
-402.238	127.643	0.088	-0.111
-401.223	-148.790	-0.143	0.012
-400.209	233.066	-0.139	0.227
-399.194	40.221	-0.110	0.098
-398.179	-50.355	0.025	-0.012
-397.165	-25.268	-0.207	0.122
-396.150	16.527	-0.140	0.110
-395.136	75.910	0.085	0.089
-394.121	47.059	-0.168	0.156
-393.106	322.205	-0.022	0.042
-392.092	258.136	-0.124	0.213
-391.077	-200.000	0.008	0.145
-390.063	260.256	-0.178	-0.307
-389.048	-27.510	-0.105	0.061
-388.033	-123.487	0.126	-0.020
-387.019	29.992	-0.068	0.058
-386.004	-40.288	0.256	0.132
-384.990	-200.000	-0.013	0.257
-383.975	-103.156	0.207	-0.049
-382.960	111.898	-0.078	-0.094
-381.946	800.000	-0.047	-0.147
-380.931	-2.700	-0.028	0.019
-379.917	800.000	-0.059	0.237
-378.902	106.808	0.201	-0.237
-377.888	-35.339	0.051	-0.028
-376.873	82.132	-0.162	-0.175
-375.858	142.229	-0.147	0.193
-374.844	219.920	-0.297	0.473
-373.829	601.465	-0.068	0.169
-372.815	-126.945	0.254	0.037
-371.800	35.391	-0.062	0.054
-370.785	14.977	-0.329	0.256
-369.771	440.739	0.017	0.036
-368.756	800.000	0.101	0.359
-367.742	-126.940	0.118	-0.017
-366.727	-200.000	-0.003	-0.061
-365.712	-200.000	-0.051	-0.293
-364.698	800.000	0.020	-0.084
-363.683	-58.296	0.045	-0.019
-362.669	-200.000	-0.014	0.221
-361.654	800.000	-0.063	-0.183
-360.639	-200.000	0.004	0.087
-359.625	-83.174	-0.325	0.104
-358.610	-73.688	0.068	-0.024
-357.596	444.034	-0.072	-0.158
-356.581	146.382	-0.132	-0.175
-355.566	171.730	-0.125	-0.179
-354.552	-200.000	0.001	0.105
-353.537	180.929	-0.161	0.235
-352.523	257.534	-0.114	-0.195
-351.508	134.278	-0.040	-0.052
-350.493	92.207	0.236	0.265
-349.479	209.567	0.050	0.078
-348.464	-200.000	0.020	-0.312
-347.450	-200.000	-0.004	0.188
-346.435	340.444	0.099	-0.192
-345.420	-86.840	0.344	0.104
-344.406	-10.027	-0.058	0.038
-343.391	-103.878	0.231	-0.054
-342.377	800.000	0.084	0.350
-341.362	-48.122	-0.244	-0.117
-340.348	68.080	-0.157	-0.159
-339.333	-200.000	-0.092	0.399
-338.318	35.707	0.109	-0.096
-337.304	-89.311	-0.147	0.043
-336.289	-51.331	0.224	0.104
-335.275	-72.010	0.161	0.060
-334.260	39.812	-0.374	0.333
-333.245	-104.045	-0.185	0.043
-332.231	666.714	0.076	-0.194
-331.216	50.106	-0.057	0.054
-330.202	-163.330	-0.169	-0.008
-329.187	111.934	-0.151	0.181
-328.172	-61.368	-0.105	-0.044
-327.158	-21.686	0.271	0.164
-326.143	364.178	-0.137	-0.274
-325.129	-47.514	0.398	-0.192
-324.114	99.627	-0.093	0.107
-323.099	511.039	0.080	-0.185
-322.085	722.826	-0.086	0.228
-321.070	-54.856	-0.234	-0.105
-320.056	800.000	-0.047	0.144
-319.041	800.000	-0.039	-0.112
-318.026	26.628	0.132	0.110
-317.012	153.451	-0.123	-0.167
-315.997	-51.887	0.121	-0.056
-314.983	397.693	0.111	0.230
-313.968	-6.011	-0.134	0.091
-312.953	800.000	0.026	0.093
-311.939	-200.000	0.003	-0.241
-310.924	-74.608	0.125	-0.045
-309.910	119.208	-0.266	0.326
-308.895	-200.000	0.010	0.076
-307.880	-55.352	-0.034	0.015
-306.866	196.712	-0.117	-0.177
-305.851	-116.786	0.223	0.040
-304.837	398.483	0.077	-0.160
-303.822	-113.791	0.056	0.011
-302.807	-101.450	-0.361	0.087
-301.793	99.721	-0.108	0.124
-300.778	-200.000	0.018	0.212
-299.764	-144.020	0.041	0.004
-298.749	728.904	0.097	0.256
-297.735	-84.003	0.122	-0.039
-296.720	225.232	-0.017	-0.028
-295.705	-80.066	-0.259	0.086
-294.691	-143.178	-0.111	0.011
-293.676	324.689	0.116	-0.220
-292.662	447.281	0.093	-0.202
-291.647	-200.000	0.012	-0.178
-290.632	593.237	-0.123	0.300
-289.618	800.000	0.020	0.063
-288.603	144.791	-0.065	0.086
-287.589	-146.611	0.383	-0.033
-286.574	23.206	-0.167	0.136
-285.559	800.000	-0.096	-0.331
-284.545	-166.312	-0.422	-0.018
-283.530	-1.062	0.215	-0.150
-282.516	-200.000	0.003	-0.064
-281.501	46.538	0.281	-0.258
-280.486	800.000	0.023	0.076
-279.472	280.671	0.084	-0.149
-278.457	90.984	0.227	0.252
-277.443	122.816	0.171	0.212
-276.428	-63.936	0.249	0.101
-275.413	175.627	-0.177	0.255
-274.399	-57.185	-0.131	-0.057
-273.384	-20.714	0.067	0.041
-272.370	-115.914	-0.397	-0.073
-271.355	132.260	0.153	-0.195
-270.340	-200.000	0.012	-0.141
-269.326	-17.692	0.100	-0.062
-268.311	124.573	-0.135	0.169
-267.297	56.894	0.231	0.223
-266.282	188.417	-0.145	0.215
-265.267	17.507	-0.249	-0.196
-264.253	502.378	-0.062	-0.141
-263.238	-24.087	0.239	-0.141
-262.224	33.309	0.249	-0.214
-261.209	45.278	-0.175	0.160
-260.195	495.450	-0.086	0.194
-259.180	-42.763	0.113	-0.057
-258.165	-131.052	-0.380	0.050
-257.151	-200.000	0.012	-0.085
-256.136	-44.016	-0.275	-0.137
-255.122	-164.934	-0.332	-0.015
-254.107	-85.106	0.180	0.056
-253.092	117.389	0.174	0.212
-252.078	800.000	0.035	-0.138
-251.063	-200.000	-0.042	0.299
-250.049	534.819	-0.121	0.284
-249.034	-113.674	-0.469	0.090
-248.019	560.301	0.076	-0.183
-247.005	-130.209	-0.165	-0.022
-245.990	40.964	-0.236	0.211
-244.976	161.946	0.033	-0.045
-243.961	-130.830	0.271	0.036
-242.946	36.399	-0.329	-0.287
-241.932	-105.360	-0.123	0.028
-240.917	-95.826	-0.152	0.040
-239.903	108.564	0.070	0.083
-238.888	-134.493	-0.250	-0.030
-237.873	82.379	-0.102	-0.109
-236.859	216.417	0.027	0.043
-235.844	800.000	0.122	0.434
-234.830	-34.654	0.047	-0.025
-233.815	800.000	-0.060	-0.214
-232.800	71.467	-0.079	-0.081
-231.786	-131.929	0.173	-0.022
-230.771	31.364	-0.067	0.057
-229.757	-78.284	-0.232	-0.079
-228.742	-43.880	0.314	-0.156
-227.727	-171.440	-0.192	-0.006
-226.713	-177.772	0.230	-0.005
-225.698	60.105	0.146	-0.143
-224.684	52.033	-0.134	0.126
-223.669	-84.926	0.359	-0.111
-222.655	-200.000	0.004	0.097
-221.640	81.605	-0.112	-0.119
-220.625	172.346	0.194	-0.276
-219.611	-200.000	-0.055	-0.266
-218.596	-56.453	-0.076	-0.033
-217.582	-1.088	-0.071	-0.049
-216.567	-68.635	0.188	0.072
-215.552	-157.577	-0.180	-0.011
-214.538	-100.160	0.100	0.024
-213.523	-200.000	-0.047	0.315
-212.509	58.837	-0.142	-0.138
-211.494	-76.650	-0.451	-0.156
-210.479	163.169	-0.289	-0.401
-209.465	-200.000	-0.008	-0.144
-208.450	-89.733	0.389	-0.112
-207.436	-38.685	-0.246	-0.128
-206.421	34.541	-0.261	0.225
-205.406	-12.473	0.051	-0.033
-204.392	-143.981	-0.444	-0.041
-203.377	-24.581	0.330	0.194
-202.363	112.157	0.051	0.061
-201.348	527.466	0.103	0.239
-200.333	227.822	0.146	-0.235
-199.319	140.623	-0.297	0.388
-198.304	26.363	0.138	0.114
-197.290	9.103	0.149	-0.111
-196.275	-113.171	0.152	-0.030
-195.260	90.267	0.210	-0.231
-194.246	-200.000	-0.035	0.170
-193.231	-200.000	0.072	0.328
-192.217	75.582	0.136	0.141
-191.202	93.479	-0.255	0.285
-190.187	-140.482	0.026	0.003
-189.173	-1.247	-0.183	-0.127
-188.158	-74.647	0.045	0.016
-187.144	29.050	0.249	0.208
-186.129	-200.000	0.035	-0.232
-185.114	-76.383	-0.219	-0.076
-184.100	-169.385	0.229	-0.008
-183.085	-200.000	-0.033	-0.165
-182.071	-52.048	0.276	0.126
-181.056	-200.000	0.007	0.045
-180.042	-142.998	0.199	0.019
-179.027	50.584	-0.059	0.055
-178.012	-200.000	0.039	0.299
-176.998	-194.222	0.355	0.003
-175.983	-193.432	0.156	0.001
-174.969	244.798	0.021	-0.035
-173.954	-41.503	0.407	-0.206
-172.939	-159.830	0.296	0.016
-171.925	470.328	-0.097	0.215
-170.910	-170.638	0.266	0.009
-169.896	569.674	-0.066	-0.158
-168.881	-194.963	-0.289	-0.002
-167.866	-124.650	0.145	-0.022
-166.852	44.844	0.202	-0.183
-165.837	-80.236	-0.350	-0.115
-164.823	111.739	0.037	0.043
-163.808	-171.370	-0.279	0.009
-162.793	-87.568	0.149	-0.044
-161.779	-174.267	0.156	0.004
-160.764	-91.204	-0.192	-0.054
-159.750	83.404	0.316	0.339
-158.735	800.000	-0.014	0.058
-157.720	434.715	0.129	-0.277
-156.706	-156.211	-0.225	0.014
-155.691	-200.000	0.012	0.090
-154.677	-200.000	0.058	0.327
-153.662	-116.543	0.398	0.072
-152.647	154.595	0.073	0.099
-151.633	-200.000	0.015	-0.089
-150.618	-200.000	0.035	-0.153
-149.604	178.876	-0.103	-0.148
-148.589	523.933	0.067	-0.156
-147.574	61.928	0.215	-0.211
-146.560	-55.861	0.294	0.129
-145.545	-200.000	0.047	0.332
-144.531	269.474	0.049	-0.086
-143.516	-148.788	-0.206	0.016
-142.502	-17.521	-0.080	-0.049
-141.487	13.681	-0.120	-0.092
-140.472	93.150	0.259	0.289
-139.458	-3.077	0.138	-0.095
-138.443	-200.000	-0.015	0.201
-137.429	800.000	0.045	0.123
-136.414	-38.418	-0.021	0.011
-135.399	-140.445	0.273	0.028
-134.385	-24.464	-0.121	-0.071
-133.370	-96.318	0.161	-0.042
-132.356	65.670	-0.209	0.209
-131.341	191.709	-0.062	-0.092
-130.326	-200.000	0.004	-0.039
-129.312	506.772	0.023	-0.052
-128.297	211.774	0.069	-0.107
-127.283	62.757	0.158	0.155
-126.268	-182.903	-0.262	0.005
-125.253	-82.803	-0.062	-0.020
-124.239	1.044	-0.221	-0.156
-123.224	70.681	0.157	-0.160
-122.210	-112.485	-0.098	0.019
-121.195	137.537	0.190	0.245
-120.180	-61.034	-0.467	0.194
