DTS Sentinel unit serial number:	SN413079Multiplexer serial number:	ORYXHardware model number:	OX4-SRSoftware version number:	ORYX F/W v4.00 Oryx Data Collector v3.7.2.0data status	okinstallation	princeton_trtdifferential loss correction	single-endedforward channel	channel 2reverse channel	N/Adate	2019/09/12time	13:53:11forward acquisition time	60.00reverse acquisition time	0.00gamma	496.2192k internal	0.2299k external	0.2299temperature offset calibration	1.0089default loss term (dB/km)	0.3790temperature slope calibration	1.0000multiplexer offset coefficient	1.0000multiplexer slope coefficient	1.0000fibre end	0.00T internal ref (°C)	40.81T ext. ref 1 (°C)	2.19T ext. ref 2 (°C)	35.03length (m)	temperature (°C)	Stokes	anti-Stokes-747.200	64.899	0.205	0.211
-746.185	-189.233	-0.200	0.002
-745.171	111.280	-0.045	-0.055
-744.156	29.831	-0.184	-0.160
-743.142	-200.000	-0.023	-0.222
-742.127	416.286	0.159	0.346
-741.112	-161.331	0.250	0.013
-740.098	40.228	-0.075	-0.068
-739.083	-69.336	0.338	0.132
-738.069	-88.086	-0.172	-0.053
-737.054	-96.145	-0.311	0.084
-736.039	0.946	0.123	-0.090
-735.025	-65.233	0.311	-0.128
-734.010	-41.177	-0.423	-0.223
-732.996	-3.515	-0.495	-0.351
-731.981	-200.000	-0.016	0.183
-730.966	-130.142	-0.338	-0.047
-729.952	27.667	-0.255	0.219
-728.937	14.263	-0.023	0.018
-727.923	116.704	-0.099	-0.124
-726.908	457.882	-0.047	0.107
-725.894	-200.000	0.004	-0.042
-724.879	-200.000	0.008	0.218
-723.864	157.662	-0.323	-0.456
-722.850	-124.004	-0.531	0.085
-721.835	230.168	-0.191	0.319
-720.821	116.658	0.122	-0.153
-719.806	161.668	-0.070	-0.100
-718.791	-50.532	-0.070	-0.034
-717.777	8.433	-0.229	-0.176
-716.762	-200.000	-0.026	-0.247
-715.748	-153.321	0.480	-0.034
-714.733	58.106	-0.107	-0.107
-713.718	-21.888	-0.305	0.189
-712.704	5.220	-0.214	-0.161
-711.689	37.812	-0.132	-0.120
-710.675	-1.326	-0.288	-0.207
-709.660	98.158	-0.195	0.229
-708.645	307.275	-0.012	0.022
-707.631	-200.000	-0.008	0.055
-706.616	-85.919	0.209	-0.066
-705.602	800.000	0.085	0.263
-704.587	11.788	-0.367	0.287
-703.572	-200.000	0.023	0.120
-702.558	-113.415	-0.322	-0.064
-701.543	-104.287	-0.263	0.062
-700.529	-200.000	0.017	-0.161
-699.514	304.203	0.111	0.211
-698.499	-103.936	-0.130	-0.031
-697.485	800.000	-0.012	0.042
-696.470	-42.955	-0.376	0.195
-695.456	-23.194	0.268	-0.164
-694.441	16.270	-0.125	-0.101
-693.426	-152.281	-0.146	0.011
-692.412	800.000	-0.027	-0.112
-691.397	-134.509	-0.275	-0.034
-690.383	295.592	-0.145	0.270
-689.368	800.000	0.065	0.189
-688.354	314.876	-0.097	0.186
-687.339	163.634	-0.060	0.086
-686.324	465.363	-0.080	-0.183
-685.310	-107.684	-0.155	-0.034
-684.295	-200.000	0.037	0.342
-683.281	312.565	-0.099	0.189
-682.266	454.555	0.045	-0.102
-681.251	-200.000	-0.000	0.171
-680.237	800.000	0.082	0.253
-679.222	149.429	0.274	0.378
-678.208	490.950	0.054	0.127
-677.193	136.772	0.194	0.257
-676.178	-200.000	-0.001	0.262
-675.164	248.135	-0.072	0.124
-674.149	-200.000	-0.007	0.081
-673.135	-76.845	0.234	-0.083
-672.120	-200.000	0.005	-0.053
-671.105	242.138	-0.138	-0.235
-670.091	-64.182	-0.243	-0.101
-669.076	124.658	0.111	-0.142
-668.062	6.489	-0.080	-0.061
-667.047	315.149	-0.066	0.127
-666.032	800.000	0.015	-0.052
-665.018	167.474	0.197	0.284
-664.003	-2.924	0.137	-0.098
-662.989	519.296	0.029	0.069
-661.974	-114.698	0.396	0.077
-660.959	-200.000	0.013	-0.115
-659.945	593.492	0.165	0.414
-658.930	-83.293	0.072	-0.024
-657.916	-124.652	-0.119	-0.019
-656.901	-148.317	0.438	-0.037
-655.886	-200.000	0.003	-0.088
-654.872	-200.000	-0.013	-0.065
-653.857	-200.000	0.040	-0.219
-652.843	187.936	-0.088	-0.134
-651.828	-137.833	-0.346	0.039
-650.814	-56.492	-0.093	-0.042
-649.799	-200.000	0.006	-0.032
-648.784	-200.000	0.019	0.156
-647.770	-10.345	-0.098	-0.066
-646.755	74.699	-0.226	0.242
-645.741	-200.000	-0.023	-0.284
-644.726	-71.186	-0.298	0.114
-643.711	-200.000	0.026	0.195
-642.697	-200.000	0.022	-0.348
-641.682	11.367	-0.115	0.089
-640.668	800.000	0.170	-0.572
-639.653	-82.060	-0.068	-0.022
-638.638	586.803	-0.246	-0.615
-637.624	800.000	0.016	-0.052
-636.609	800.000	0.012	0.045
-635.595	267.364	-0.164	0.291
-634.580	-32.433	0.204	0.116
-633.565	-200.000	-0.007	0.097
-632.551	-49.884	-0.124	-0.060
-631.536	-145.903	-0.031	0.003
-630.522	-200.000	-0.020	-0.155
-629.507	95.938	0.164	-0.190
-628.492	-173.832	-0.041	0.001
-627.478	32.921	-0.280	0.247
-626.463	-15.267	0.153	0.099
-625.449	-47.442	-0.244	-0.121
-624.434	52.211	-0.171	-0.165
-623.419	21.843	0.127	0.105
-622.405	692.903	-0.050	0.133
-621.390	-200.000	0.017	-0.392
-620.376	-97.907	-0.409	0.107
-619.361	226.033	0.077	0.127
-618.346	90.096	0.316	-0.359
-617.332	800.000	0.084	-0.266
-616.317	-123.723	0.113	0.018
-615.303	186.227	-0.021	-0.032
-614.288	-180.835	0.276	0.006
-613.273	-129.911	-0.199	-0.028
-612.259	176.883	0.134	-0.197
-611.244	17.881	0.174	0.140
-610.230	-48.361	0.161	0.079
-609.215	-114.770	0.083	-0.016
-608.201	654.146	-0.061	-0.158
-607.186	301.419	-0.148	-0.277
-606.171	26.825	-0.096	0.082
-605.157	287.333	0.083	0.152
-604.142	800.000	0.036	0.143
-603.128	-136.915	-0.113	-0.013
-602.113	-67.986	-0.136	-0.054
-601.098	-160.288	0.439	0.024
-600.084	-200.000	-0.019	0.132
-599.069	800.000	-0.057	-0.200
-598.055	65.378	0.071	-0.073
-597.040	176.829	0.055	0.081
-596.025	-200.000	0.057	-0.392
-595.011	184.708	0.073	-0.110
-593.996	-85.614	-0.167	-0.053
-592.982	-59.782	0.025	-0.011
-591.967	-200.000	0.028	0.338
-590.952	131.050	0.091	-0.118
-589.938	193.794	-0.105	-0.161
-588.923	-200.000	0.012	-0.288
-587.909	-200.000	0.016	0.143
-586.894	732.401	0.061	-0.164
-585.879	35.859	-0.182	-0.162
-584.865	76.532	-0.196	0.210
-583.850	180.109	-0.195	0.289
-582.836	86.401	-0.299	0.334
-581.821	800.000	-0.053	0.164
-580.806	800.000	0.018	-0.073
-579.792	272.639	0.151	-0.270
-578.777	-200.000	-0.038	-0.175
-577.763	-200.000	-0.009	0.208
-576.748	800.000	0.056	0.213
-575.733	76.496	-0.167	-0.179
-574.719	-44.654	0.081	-0.041
-573.704	-153.891	0.154	-0.011
-572.690	-137.177	-0.022	-0.003
-571.675	-200.000	0.007	0.115
-570.661	449.255	-0.101	0.225
-569.646	-45.356	-0.224	0.113
-568.631	-133.192	0.347	-0.045
-567.617	-30.375	-0.200	0.115
-566.602	-113.104	0.067	-0.013
-565.588	-127.761	-0.086	-0.013
-564.573	-200.000	0.004	-0.044
-563.558	13.119	-0.152	0.119
-562.544	113.457	0.155	0.190
-561.529	800.000	0.088	-0.309
-560.515	-87.559	0.233	-0.071
-559.500	-39.159	0.282	-0.150
-558.485	-102.282	-0.247	0.060
-557.471	-83.644	-0.281	-0.091
-556.456	-200.000	0.092	0.000
-555.442	-200.000	0.001	0.267
-554.427	30.910	0.084	-0.073
-553.412	390.394	-0.013	-0.027
-552.398	294.802	-0.110	-0.203
-551.383	514.809	0.009	0.022
-550.369	8.263	-0.419	-0.319
-549.354	86.744	-0.060	-0.067
-548.339	44.850	-0.159	0.149
-547.325	-90.380	0.234	-0.069
-546.310	407.306	-0.128	-0.275
-545.296	524.260	0.080	0.191
-544.281	297.507	0.078	0.145
-543.266	-68.748	0.100	-0.039
-542.252	-90.509	0.211	-0.062
-541.237	-17.057	-0.034	-0.022
-540.223	-108.801	0.319	-0.069
-539.208	174.846	0.181	-0.265
-538.193	-55.074	0.052	-0.024
-537.179	108.721	-0.136	0.165
-536.164	800.000	-0.040	0.142
-535.150	-200.000	0.032	0.299
-534.135	190.073	0.165	-0.250
-533.121	-102.331	0.228	-0.055
-532.106	-182.260	-0.087	0.002
-531.091	-200.000	0.005	-0.098
-530.077	212.487	-0.092	-0.147
-529.062	182.442	0.052	-0.078
-528.048	-0.680	0.259	-0.186
-527.033	-200.000	-0.007	0.076
-526.018	-200.000	-0.074	-0.329
-525.004	634.246	-0.011	0.028
-523.989	777.673	0.071	-0.195
-522.975	-200.000	0.008	0.111
-521.960	-166.456	-0.340	-0.014
-520.945	170.052	-0.181	-0.262
-519.931	-112.947	0.170	0.034
-518.916	-1.200	-0.252	0.180
-517.902	-101.377	0.284	0.070
-516.887	160.959	-0.078	-0.111
-515.872	62.496	-0.029	0.029
-514.858	33.824	0.104	0.091
-513.843	-200.000	0.010	0.145
-512.829	-200.000	-0.023	-0.384
-511.814	-167.300	0.229	-0.009
-510.799	-200.000	-0.045	0.199
-509.785	800.000	-0.084	0.277
-508.770	-178.518	-0.154	0.004
-507.756	-200.000	0.016	0.408
-506.741	266.502	0.072	-0.127
-505.726	253.078	-0.092	-0.159
-504.712	-200.000	-0.011	0.146
-503.697	221.517	0.106	0.171
-502.683	-14.674	-0.156	0.101
-501.668	-133.975	0.141	0.018
-500.653	125.728	-0.132	-0.169
-499.639	-81.152	0.133	0.045
-498.624	-15.584	0.211	0.136
-497.610	14.278	-0.436	-0.344
-496.595	81.064	0.148	-0.161
-495.581	-36.284	-0.193	-0.105
-494.566	800.000	0.037	-0.106
-493.551	375.898	-0.198	-0.408
-492.537	-132.938	-0.401	-0.052
-491.522	112.674	0.125	-0.153
-490.508	325.342	0.124	0.240
-489.493	3.810	-0.105	-0.077
-488.478	624.521	0.078	0.199
-487.464	104.452	-0.114	-0.135
-486.449	58.955	-0.267	0.266
-485.435	800.000	-0.081	-0.240
-484.420	678.657	-0.108	0.283
-483.405	-3.506	0.184	0.129
-482.391	432.654	-0.005	-0.011
-481.376	-7.355	-0.319	0.218
-480.362	245.201	-0.218	0.370
-479.347	206.641	0.048	0.075
-478.332	-200.000	-0.054	0.359
-477.318	193.932	-0.111	0.170
-476.303	-200.000	0.061	-0.502
-475.289	800.000	-0.032	0.102
-474.274	751.522	-0.020	0.054
-473.259	764.376	-0.108	0.295
-472.245	40.351	-0.187	-0.170
-471.230	-61.424	-0.100	0.043
-470.216	-128.780	-0.136	0.019
-469.201	-17.993	0.179	0.113
-468.186	-68.463	0.194	-0.076
-467.172	186.996	-0.260	-0.391
-466.157	800.000	0.090	-0.374
-465.143	263.255	0.139	-0.243
-464.128	800.000	-0.058	-0.217
-463.113	-158.021	-0.295	-0.018
-462.099	-97.977	-0.160	0.042
-461.084	157.271	0.174	0.243
-460.070	538.545	0.163	0.391
-459.055	-200.000	0.008	-0.322
-458.040	123.900	-0.093	0.118
-457.026	204.148	0.130	-0.203
-456.011	128.174	0.292	-0.375
-454.997	-97.198	0.201	0.053
-453.982	-35.908	0.148	0.081
-452.968	-200.000	0.019	-0.151
-451.953	-200.000	0.022	0.155
-450.938	33.849	-0.088	0.077
-449.924	20.142	0.209	-0.170
-448.909	-143.943	0.163	-0.015
-447.895	-94.761	0.218	-0.060
-446.880	5.438	0.148	-0.110
-445.865	-82.562	-0.349	0.114
-444.851	-69.374	0.342	0.133
-443.836	-108.882	0.081	0.018
-442.822	-175.458	-0.318	0.009
-441.807	-88.335	-0.232	0.070
-440.792	-135.221	-0.125	0.015
-439.778	-200.000	0.026	-0.189
-438.763	-49.310	0.172	-0.083
-437.749	60.642	-0.053	-0.053
-436.734	-61.404	-0.147	0.062
-435.719	178.965	-0.059	0.086
-434.705	129.480	-0.161	0.207
-433.690	-200.000	-0.050	-0.303
-432.676	-200.000	0.039	0.202
-431.661	-200.000	0.004	0.206
-430.646	344.195	-0.117	-0.232
-429.632	-36.566	0.408	0.221
-428.617	132.730	-0.074	-0.096
-427.603	-91.627	0.163	-0.047
-426.588	132.772	0.062	-0.081
-425.573	1.893	-0.112	0.082
-424.559	252.648	-0.140	0.241
-423.544	-200.000	0.003	-0.188
-422.530	17.135	-0.226	0.181
-421.515	-151.134	-0.383	0.029
-420.500	-66.966	-0.404	0.161
-419.486	80.780	-0.030	0.032
-418.471	125.312	0.059	-0.074
-417.457	215.784	-0.178	-0.285
-416.442	87.462	-0.173	-0.193
-415.428	-23.383	-0.145	-0.088
-414.413	-200.000	-0.030	0.203
-413.398	-84.984	-0.139	0.044
-412.384	-200.000	-0.007	0.035
-411.369	68.147	0.206	0.212
-410.355	800.000	0.064	0.182
-409.340	-200.000	0.014	0.141
-408.325	800.000	0.111	-0.382
-407.311	9.032	-0.191	0.145
-406.296	-154.232	0.076	0.005
-405.282	800.000	0.035	-0.137
-404.267	83.307	0.109	0.119
-403.252	136.973	-0.164	0.216
-402.238	-200.000	-0.000	0.169
-401.223	-200.000	-0.006	0.296
-400.209	-200.000	0.007	0.174
-399.194	50.163	0.267	0.254
-398.179	320.369	0.239	0.458
-397.165	607.284	0.053	0.133
-396.150	-167.787	0.034	0.001
-395.136	-70.767	0.092	0.035
-394.121	-200.000	0.067	0.345
-393.106	-181.358	-0.265	0.005
-392.092	-11.986	-0.168	0.111
-391.077	33.743	0.137	0.120
-390.063	81.144	-0.226	0.245
-389.048	-108.897	0.225	-0.048
-388.033	485.935	-0.089	-0.205
-387.019	45.401	0.028	0.026
-386.004	-17.449	-0.172	0.109
-384.990	-147.587	-0.307	0.026
-383.975	-43.764	0.229	0.116
-382.960	19.898	-0.133	0.108
-381.946	-133.387	-0.225	0.028
-380.931	2.047	0.217	0.158
-379.917	13.244	0.110	0.085
-378.902	220.580	0.078	0.126
-377.888	-184.809	-0.130	0.002
-376.873	800.000	0.057	0.230
-375.858	-20.748	0.298	-0.184
-374.844	-126.225	-0.175	-0.026
-373.829	-63.820	0.340	-0.140
-372.815	800.000	0.086	-0.269
-371.800	258.048	0.097	-0.168
-370.785	-118.565	0.321	0.057
-369.771	36.166	0.060	0.053
-368.756	-200.000	0.031	0.298
-367.742	409.765	-0.200	-0.426
-366.727	348.352	0.115	-0.229
-365.712	75.141	0.218	-0.231
-364.698	-200.000	0.013	-0.124
-363.683	-151.887	0.381	-0.028
-362.669	800.000	0.114	0.330
-361.654	-182.334	0.246	-0.005
-360.639	-53.716	0.191	-0.088
-359.625	580.724	0.055	0.135
-358.610	-200.000	-0.019	0.116
-357.596	-2.001	-0.098	-0.069
-356.581	800.000	0.122	-0.438
-355.566	26.708	-0.089	0.075
-354.552	170.787	0.149	0.215
-353.537	7.970	0.039	-0.029
-352.523	-200.000	0.001	-0.239
-351.508	109.169	0.059	0.070
-350.493	-98.530	0.213	0.055
-349.479	-155.381	-0.595	0.039
-348.464	-15.806	-0.069	-0.044
-347.450	-26.611	-0.532	0.313
-346.435	-200.000	-0.050	-0.248
-345.420	-76.780	0.282	-0.099
-344.406	552.406	0.070	-0.169
-343.391	-200.000	0.004	0.140
-342.377	-200.000	0.031	0.154
-341.362	182.185	-0.221	0.327
-340.348	441.896	-0.042	-0.093
-339.333	70.967	-0.135	0.141
-338.318	261.207	0.206	0.357
-337.304	631.521	0.095	0.242
-336.289	-200.000	-0.010	0.053
-335.275	25.084	0.127	-0.106
-334.260	-89.655	0.180	0.053
-333.245	-28.231	0.184	0.107
-332.231	-77.779	-0.202	-0.070
-331.216	-5.527	0.242	-0.167
-330.202	-67.639	-0.235	-0.092
-329.187	800.000	-0.099	0.303
-328.172	-43.393	-0.043	-0.022
-327.158	800.000	-0.106	0.410
-326.143	-91.728	-0.206	0.059
-325.129	-132.347	0.303	0.039
-324.114	200.926	0.031	0.048
-323.099	268.386	-0.056	-0.098
-322.085	444.176	-0.182	-0.400
-321.070	-25.324	0.275	0.163
-320.056	88.643	0.175	0.195
-319.041	734.246	-0.115	-0.310
-318.026	18.683	-0.178	0.143
-317.012	-10.644	0.118	-0.078
-315.997	0.997	-0.127	-0.092
-314.983	-139.832	-0.267	-0.028
-313.968	-35.754	0.105	0.057
-312.953	-27.490	0.323	-0.189
-311.939	83.025	-0.092	-0.100
-310.924	-11.642	0.277	0.183
-309.910	-200.000	-0.030	0.278
-308.895	-40.438	-0.396	0.206
-307.880	-131.338	0.138	-0.018
-306.866	-95.034	-0.306	-0.083
-305.851	-33.332	-0.106	-0.059
-304.837	160.529	-0.129	0.180
-303.822	800.000	0.121	-0.368
-302.807	148.885	-0.018	0.024
-301.793	358.124	-0.042	-0.084
-300.778	-139.463	-0.146	-0.016
-299.764	765.453	0.077	-0.210
-298.749	-85.915	0.168	-0.052
-297.735	1.665	-0.179	0.129
-296.720	-163.415	0.236	0.011
-295.705	800.000	-0.047	0.170
-294.691	34.823	0.111	-0.098
-293.676	161.541	0.146	-0.206
-292.662	81.585	0.214	0.232
-291.647	-46.208	-0.172	0.085
-290.632	-74.433	0.500	-0.181
-289.618	122.649	0.103	-0.130
-288.603	-163.032	-0.086	-0.004
-287.589	477.558	0.105	-0.238
-286.574	126.054	0.159	-0.202
-285.559	-1.648	0.053	-0.037
-284.545	-115.743	0.089	0.017
-283.530	-86.355	-0.039	-0.012
-282.516	-48.103	-0.329	-0.159
-281.501	6.472	0.203	0.151
-280.486	-74.426	-0.381	0.138
-279.472	91.604	-0.178	0.200
-278.457	-104.002	0.245	-0.057
-277.443	-76.349	0.112	-0.040
-276.428	185.664	-0.059	-0.088
-275.413	-0.732	-0.164	-0.116
-274.399	-200.000	0.021	-0.270
-273.384	-6.710	0.276	-0.188
-272.370	125.997	0.169	0.214
-271.355	-98.200	0.111	0.029
-270.340	737.794	0.073	-0.197
-269.326	-119.902	-0.470	0.081
-268.311	60.954	-0.097	0.096
-267.297	-200.000	0.022	0.176
-266.282	12.545	-0.159	0.123
-265.267	800.000	0.109	0.462
-264.253	-200.000	0.046	0.243
-263.238	-99.489	0.099	0.025
-262.224	79.043	-0.061	-0.066
-261.209	-78.393	-0.202	0.070
-260.195	-78.052	0.103	0.036
-259.180	176.227	-0.233	-0.339
-258.165	-4.924	0.147	0.102
-257.151	195.607	-0.217	0.330
-256.136	800.000	-0.049	-0.184
-255.122	800.000	0.153	0.481
-254.107	-200.000	-0.045	0.204
-253.092	317.249	0.035	-0.066
-252.078	-47.610	0.280	-0.136
-251.063	-116.093	-0.379	-0.071
-250.049	37.416	0.241	0.214
-249.034	-9.242	0.419	-0.280
-248.019	-36.513	0.173	0.093
-247.005	-179.752	-0.291	0.006
-245.990	-200.000	0.009	-0.252
-244.976	-6.704	-0.103	0.070
-243.961	-53.687	0.190	-0.087
-242.946	-85.503	0.188	-0.059
-241.932	-200.000	0.009	-0.300
-240.917	-200.000	0.021	-0.223
-239.903	-200.000	0.019	-0.178
-238.888	-200.000	0.008	-0.125
-237.873	318.100	0.045	-0.085
-236.859	-142.646	0.474	-0.046
-235.844	-14.286	0.254	-0.164
-234.830	116.319	-0.222	-0.273
-233.815	3.707	-0.140	0.102
-232.800	205.951	0.051	0.080
-231.786	800.000	-0.090	-0.321
-230.771	71.870	0.099	-0.103
-229.757	98.801	-0.192	-0.222
-228.742	-6.859	-0.109	-0.074
-227.727	112.502	0.127	-0.154
-226.713	-32.774	-0.443	0.246
-225.698	800.000	-0.017	0.056
-224.684	-200.000	-0.036	-0.184
-223.669	91.069	0.093	0.104
-222.655	-62.050	-0.188	0.079
-221.640	800.000	-0.052	-0.171
-220.625	-200.000	0.022	-0.114
-219.611	447.943	-0.161	0.355
-218.596	249.097	-0.096	0.163
-217.582	652.023	0.063	-0.162
-216.567	-71.416	-0.226	-0.085
-215.552	575.347	-0.117	0.286
-214.538	90.946	-0.197	0.221
-213.523	-200.000	0.006	0.151
-212.509	800.000	0.041	-0.131
-211.494	602.101	0.165	-0.409
-210.479	800.000	0.046	0.175
-209.465	-93.566	0.377	0.104
-208.450	-200.000	0.004	-0.148
-207.436	501.487	-0.122	0.282
-206.421	800.000	0.018	0.075
-205.406	-57.883	-0.313	0.137
-204.392	111.846	-0.126	-0.151
-203.377	-18.860	-0.143	-0.089
-202.363	-162.786	-0.227	-0.011
-201.348	271.687	-0.187	0.330
-200.333	800.000	0.172	0.505
-199.319	180.196	0.169	0.248
-198.304	114.779	0.164	-0.200
-197.290	-200.000	-0.005	-0.089
-196.275	-15.403	-0.272	0.174
-195.260	-40.999	-0.325	0.168
-194.246	800.000	0.075	-0.252
-193.231	-38.976	-0.170	-0.089
-192.217	-81.788	-0.008	-0.002
-191.202	368.776	-0.089	0.181
-190.187	-35.569	0.183	0.099
-189.173	-67.630	0.257	0.101
-188.158	5.604	0.201	-0.148
-187.144	271.717	-0.076	0.134
-186.129	-200.000	-0.042	0.207
-185.114	-200.000	0.005	-0.073
-184.100	165.855	0.079	0.111
-183.085	241.374	-0.062	0.103
-182.071	-122.320	0.295	0.048
-181.056	793.712	0.053	0.145
-180.042	-200.000	0.079	-0.456
-179.027	800.000	-0.047	0.202
-178.012	143.884	-0.017	-0.023
-176.998	-200.000	-0.008	-0.153
-175.983	-91.995	0.219	-0.062
-174.969	-200.000	-0.050	-0.293
-173.954	800.000	-0.016	0.065
-172.939	-112.684	0.239	-0.047
-171.925	-91.209	0.383	-0.109
-170.910	-200.000	-0.057	0.391
-169.896	-149.210	0.335	0.027
-168.881	-28.140	-0.123	-0.071
-167.866	439.317	0.104	-0.226
-166.852	-29.138	0.225	0.129
-165.837	567.016	0.161	0.389
-164.823	-62.396	-0.362	-0.150
-163.808	-200.000	-0.032	0.181
-162.793	366.359	0.050	-0.100
-161.779	136.743	0.163	0.212
-160.764	-104.169	0.186	-0.043
-159.750	172.251	0.182	0.260
-158.735	21.602	-0.158	0.129
-157.720	800.000	0.016	0.047
-156.706	-21.122	-0.235	-0.144
-155.691	-57.565	0.176	-0.077
-154.677	-200.000	-0.084	-0.396
-153.662	-200.000	-0.005	-0.382
-152.647	97.044	-0.117	-0.134
-151.633	179.438	0.203	-0.296
-150.618	308.664	0.043	-0.080
-149.604	-42.490	0.419	-0.213
-148.589	479.055	-0.139	0.314
-147.574	-55.693	-0.303	0.135
-146.560	226.736	-0.092	0.149
-145.545	-200.000	-0.020	0.183
-144.531	-39.667	0.186	-0.097
-143.516	29.128	-0.169	0.143
-142.502	-48.275	-0.111	0.054
-141.487	195.689	0.150	-0.228
-140.472	-191.420	-0.397	-0.004
-139.458	-122.461	0.278	0.045
-138.443	-200.000	0.005	-0.226
-137.429	411.552	0.094	0.199
-136.414	-200.000	0.005	0.060
-135.399	-200.000	0.009	0.090
-134.385	-63.510	0.203	0.083
-133.370	-70.932	0.284	0.107
-132.356	43.739	-0.187	0.171
-131.341	-90.109	0.198	-0.058
-130.326	-31.340	-0.138	-0.077
-129.312	-200.000	-0.001	-0.081
-128.297	-146.838	-0.062	-0.005
-127.283	152.644	0.088	-0.120
-126.268	-200.000	-0.015	0.231
-125.253	556.977	-0.108	-0.259
-124.239	-200.000	-0.066	-0.294
-123.224	450.328	-0.038	-0.084
-122.210	-200.000	0.034	-0.444
-121.195	-144.364	0.068	0.006
