DTS Sentinel unit serial number:	SN413079Multiplexer serial number:	ORYXHardware model number:	OX4-SRSoftware version number:	ORYX F/W v4.00 Oryx Data Collector v3.7.2.0data status	okinstallation	princeton_trtdifferential loss correction	single-endedforward channel	channel 2reverse channel	N/Adate	2019/09/15time	12:47:35forward acquisition time	60.00reverse acquisition time	0.00gamma	496.2192k internal	0.2311k external	0.2311temperature offset calibration	1.0011default loss term (dB/km)	0.3790temperature slope calibration	1.0000multiplexer offset coefficient	1.0000multiplexer slope coefficient	1.0000fibre end	0.00T internal ref (°C)	35.89T ext. ref 1 (°C)	5.04T ext. ref 2 (°C)	33.76length (m)	temperature (°C)	Stokes	anti-Stokes-747.200	224.399	-0.167	-0.275
-746.185	15.965	-0.185	0.148
-745.171	1.349	-0.227	-0.165
-744.156	107.541	-0.076	0.091
-743.142	-5.867	-0.046	-0.032
-742.127	-193.707	-0.130	-0.001
-741.112	-74.616	0.272	-0.099
-740.098	-200.000	0.206	-0.001
-739.083	-57.165	0.162	-0.073
-738.069	-200.000	0.016	0.159
-737.054	-22.270	-0.171	-0.105
-736.039	-52.789	-0.448	0.210
-735.025	-200.000	0.348	0.002
-734.010	298.735	-0.172	-0.322
-732.996	-180.126	-0.280	-0.006
-731.981	-88.794	-0.398	-0.120
-730.966	-200.000	-0.043	-0.417
-729.952	-200.000	0.059	-0.291
-728.937	55.252	-0.254	0.249
-727.923	185.157	0.147	0.222
-726.908	88.074	-0.341	-0.383
-725.894	302.967	0.032	0.061
-724.879	277.270	0.079	-0.142
-723.864	-15.282	-0.156	-0.101
-722.850	51.452	0.339	0.326
-721.835	616.612	-0.117	-0.298
-720.821	-124.647	-0.125	0.020
-719.806	-200.000	-0.040	0.277
-718.791	-155.032	0.104	0.007
-717.777	-153.251	0.362	0.026
-716.762	16.348	-0.352	-0.282
-715.748	-200.000	0.043	-0.196
-714.733	-105.248	-0.091	0.021
-713.718	-19.960	-0.131	-0.082
-712.704	4.123	-0.101	-0.075
-711.689	513.314	-0.055	0.131
-710.675	654.077	0.118	-0.306
-709.660	122.086	0.054	0.068
-708.645	174.185	-0.209	0.307
-707.631	-62.190	-0.212	0.089
-706.616	-12.446	-0.071	0.047
-705.602	-135.150	0.148	-0.018
-704.587	54.666	0.139	0.136
-703.572	-109.426	-0.267	-0.057
-702.558	-200.000	-0.019	-0.193
-701.543	159.984	-0.116	-0.164
-700.529	-95.777	-0.116	-0.031
-699.514	94.405	0.256	-0.295
-698.499	783.494	0.065	0.182
-697.485	752.983	0.024	0.066
-696.470	109.165	-0.084	-0.102
-695.456	195.444	0.197	-0.303
-694.441	1.838	-0.272	0.199
-693.426	210.621	0.216	0.344
-692.412	-69.097	-0.300	0.117
-691.397	-23.696	-0.419	-0.254
-690.383	-65.892	0.327	-0.132
-689.368	-97.263	-0.262	0.069
-688.354	-200.000	0.030	-0.241
-687.339	800.000	-0.047	-0.154
-686.324	24.314	0.242	-0.202
-685.310	60.128	-0.121	0.121
-684.295	-156.803	-0.151	-0.009
-683.281	800.000	0.022	-0.081
-682.266	-101.665	-0.085	0.021
-681.251	-92.651	-0.106	-0.030
-680.237	800.000	-0.094	-0.384
-679.222	-92.313	0.141	0.040
-678.208	191.058	-0.119	-0.182
-677.193	202.698	0.061	0.096
-676.178	670.003	0.072	-0.188
-675.164	183.914	-0.050	-0.075
-674.149	-134.447	0.283	0.035
-673.135	85.500	0.291	0.323
-672.120	58.205	0.137	-0.136
-671.105	107.889	-0.149	-0.180
-670.091	-78.121	0.126	0.044
-669.076	-63.999	0.132	-0.054
-668.062	-200.000	-0.013	0.165
-667.047	-99.102	-0.362	-0.093
-666.032	161.310	-0.085	-0.120
-665.018	800.000	-0.063	0.203
-664.003	-4.873	-0.359	0.250
-662.989	201.590	0.194	-0.302
-661.974	176.444	0.171	-0.251
-660.959	-88.587	-0.054	-0.016
-659.945	-116.354	-0.459	-0.086
-658.930	143.001	0.176	0.237
-657.916	370.961	0.058	0.118
-656.901	-127.094	-0.299	0.044
-655.886	-15.656	0.186	0.120
-654.872	-178.738	0.125	0.003
-653.857	19.121	0.140	-0.114
-652.843	-200.000	-0.042	0.323
-651.828	186.510	-0.189	-0.284
-650.814	547.462	-0.121	0.294
-649.799	25.704	-0.074	0.062
-648.784	-200.000	-0.009	-0.180
-647.770	275.171	-0.082	-0.146
-646.755	162.819	-0.093	-0.132
-645.741	-9.602	0.184	-0.124
-644.726	-159.908	-0.302	0.017
-643.711	129.221	0.247	0.318
-642.697	-27.919	-0.249	-0.146
-641.682	282.252	-0.095	0.172
-640.668	143.145	-0.114	-0.153
-639.653	536.253	0.066	-0.158
-638.638	-48.589	-0.199	-0.097
-637.624	164.452	-0.128	-0.182
-636.609	800.000	-0.054	-0.228
-635.595	92.630	0.177	-0.202
-634.580	-51.470	0.145	-0.069
-633.565	-88.547	-0.139	0.042
-632.551	-99.128	0.256	-0.065
-631.536	-200.000	0.003	0.302
-630.522	-139.869	-0.441	-0.047
-629.507	-12.821	0.107	-0.070
-628.492	800.000	-0.046	0.147
-627.478	-152.168	-0.161	-0.012
-626.463	267.236	0.107	-0.189
-625.449	-95.574	-0.276	0.075
-624.434	-19.216	0.151	-0.095
-623.419	-113.646	-0.108	-0.021
-622.405	19.346	0.115	0.093
-621.390	140.630	0.150	0.200
-620.376	705.222	-0.021	-0.057
-619.361	48.272	0.077	-0.073
-618.346	-54.901	0.115	0.052
-617.332	-12.593	-0.175	-0.115
-616.317	-200.000	0.034	-0.238
-615.303	-200.000	-0.040	-0.245
-614.288	-200.000	0.040	-0.230
-613.273	-24.446	0.310	-0.186
-612.259	-194.862	0.142	0.001
-611.244	237.616	-0.168	-0.282
-610.230	-200.000	0.050	-0.407
-609.215	17.886	0.185	-0.148
-608.201	34.178	0.087	0.076
-607.186	197.546	0.174	-0.269
-606.171	-23.795	-0.303	0.183
-605.157	800.000	-0.021	-0.090
-604.142	399.338	0.054	0.114
-603.128	192.421	0.075	0.114
-602.113	-74.505	0.410	-0.149
-601.098	-162.081	-0.163	0.008
-600.084	800.000	-0.039	0.111
-599.069	-117.300	0.116	0.021
-598.055	-65.175	-0.411	-0.167
-597.040	64.433	-0.198	0.201
-596.025	180.721	-0.177	-0.263
-595.011	800.000	0.026	-0.078
-593.996	54.478	0.134	0.130
-592.982	83.840	0.187	-0.206
-591.967	-200.000	0.024	0.277
-590.952	-2.547	-0.038	-0.027
-589.938	800.000	-0.091	-0.291
-588.923	-200.000	-0.033	-0.164
-587.909	-200.000	-0.010	-0.183
-586.894	-42.181	-0.203	0.105
-585.879	-42.618	-0.123	-0.063
-584.865	-191.505	-0.214	0.002
-583.850	42.110	0.157	-0.144
-582.836	26.158	-0.377	-0.317
-581.821	130.935	-0.048	0.062
-580.806	19.191	-0.348	-0.282
-579.792	20.151	-0.279	-0.227
-578.777	-13.863	0.100	0.065
-577.763	57.054	0.141	-0.138
-576.748	13.321	-0.045	-0.035
-575.733	113.970	-0.237	0.291
-574.719	-123.532	-0.142	0.023
-573.704	224.818	-0.089	0.145
-572.690	-200.000	0.108	-0.484
-571.675	495.194	-0.023	-0.053
-570.661	-200.000	0.007	0.161
-569.646	96.853	-0.138	0.159
-568.631	-200.000	0.041	-0.237
-567.617	-66.863	0.191	0.076
-566.602	-148.251	0.217	0.018
-565.588	-147.323	-0.110	-0.009
-564.573	-112.172	-0.226	0.046
-563.558	-149.996	0.116	-0.009
-562.544	-99.212	-0.158	0.040
-561.529	-48.197	0.204	-0.099
-560.515	800.000	0.023	-0.086
-559.500	9.003	0.386	-0.294
-558.485	800.000	-0.028	-0.101
-557.471	-46.052	0.334	-0.166
-556.456	207.721	0.089	0.140
-555.442	-73.236	-0.138	-0.051
-554.427	173.450	0.139	-0.202
-553.412	-36.141	0.269	0.146
-552.398	-200.000	-0.021	0.296
-551.383	-77.392	-0.140	0.049
-550.369	-91.099	0.265	0.077
-549.354	-131.428	-0.254	-0.034
-548.339	300.727	0.101	-0.188
-547.325	45.726	0.099	-0.092
-546.310	114.061	-0.050	0.062
-545.296	49.685	-0.194	-0.185
-544.281	-56.489	0.091	-0.040
-543.266	-152.311	-0.240	0.017
-542.252	-2.393	0.066	0.046
-541.237	303.990	0.088	0.164
-540.223	-200.000	0.002	0.514
-539.208	389.575	-0.220	-0.459
-538.193	-68.151	0.350	-0.137
-537.179	-11.063	-0.275	-0.183
-536.164	230.106	-0.141	-0.232
-535.150	-102.308	0.263	-0.063
-534.135	296.434	0.201	0.372
-533.121	11.154	0.061	-0.047
-532.106	-200.000	0.008	0.454
-531.091	-200.000	0.073	0.343
-530.077	42.525	0.083	0.076
-529.062	435.137	-0.119	-0.261
-528.048	113.812	0.161	0.197
-527.033	188.486	0.109	-0.165
-526.018	-200.000	0.009	0.083
-525.004	800.000	0.049	-0.165
-523.989	-160.841	0.228	0.012
-522.975	183.178	0.170	0.253
-521.960	322.730	0.034	-0.066
-520.945	774.787	-0.077	-0.212
-519.931	-50.097	-0.210	-0.100
-518.916	150.128	0.065	-0.089
-517.902	-161.889	0.051	-0.003
-516.887	-45.416	-0.039	0.020
-515.872	-200.000	-0.019	0.156
-514.858	-104.446	-0.145	-0.034
-513.843	44.802	-0.179	-0.166
-512.829	-29.637	0.150	-0.086
-511.814	173.177	0.197	0.286
-510.799	-200.000	0.046	0.289
-509.785	-200.000	0.040	-0.516
-508.770	458.313	-0.098	-0.219
-507.756	213.225	-0.116	-0.184
-506.741	-71.404	-0.206	-0.078
-505.726	134.137	-0.068	-0.088
-504.712	-17.272	-0.097	0.061
-503.697	-200.000	0.306	0.001
-502.683	-200.000	0.016	-0.300
-501.668	177.316	-0.090	0.132
-500.653	696.998	0.219	0.578
-499.639	-189.587	-0.376	-0.004
-498.624	13.840	-0.188	0.147
-497.610	800.000	-0.073	0.296
-496.595	403.245	0.116	-0.245
-495.581	-26.625	-0.161	-0.095
-494.566	800.000	0.042	0.173
-493.551	-200.000	0.034	0.253
-492.537	-25.783	-0.274	-0.163
-491.522	401.405	0.062	0.131
-490.508	1.403	0.114	-0.082
-489.493	-67.123	0.483	0.191
-488.478	127.519	-0.038	-0.048
-487.464	-152.162	0.266	-0.019
-486.449	-200.000	0.021	-0.420
-485.435	-200.000	-0.045	-0.421
-484.420	273.585	0.125	-0.222
-483.405	800.000	0.147	0.447
-482.391	203.847	-0.105	0.163
-481.376	800.000	0.069	-0.229
-480.362	-41.084	-0.026	-0.013
-479.347	-188.795	0.356	-0.004
-478.332	-177.680	0.357	-0.009
-477.318	603.625	-0.098	-0.245
-476.303	-29.514	0.174	0.100
-475.289	-200.000	-0.006	-0.127
-474.274	61.524	0.151	-0.151
-473.259	-153.243	-0.079	-0.006
-472.245	-118.720	0.247	0.044
-471.230	-47.447	0.137	0.067
-470.216	23.886	0.205	0.170
-469.201	-119.075	-0.020	0.004
-468.186	2.290	-0.182	0.132
-467.172	800.000	0.010	0.036
-466.157	800.000	-0.084	0.272
-465.143	-134.874	-0.101	0.012
-464.128	-74.223	-0.376	-0.137
-463.113	-200.000	0.010	-0.245
-462.099	-66.285	-0.114	0.045
-461.084	261.173	-0.075	-0.130
-460.070	-139.992	0.166	-0.018
-459.055	105.834	-0.048	-0.057
-458.040	-200.000	-0.000	0.110
-457.026	791.265	-0.063	-0.174
-456.011	272.687	0.259	0.458
-454.997	137.809	0.156	-0.205
-453.982	-200.000	-0.009	-0.123
-452.968	572.133	0.173	-0.424
-451.953	-124.939	0.369	-0.057
-450.938	-30.282	-0.038	0.022
-449.924	-126.461	-0.025	0.004
-448.909	-33.885	0.068	-0.037
-447.895	-22.422	-0.143	-0.087
-446.880	-200.000	0.029	-0.201
-445.865	355.424	-0.175	-0.350
-444.851	26.096	0.173	-0.145
-443.836	12.628	0.197	-0.152
-442.822	-29.271	-0.225	0.129
-441.807	-55.452	-0.082	-0.037
-440.792	-153.495	0.463	0.032
-439.778	1.204	0.226	0.163
-438.763	-111.197	0.342	-0.070
-437.749	-88.722	-0.239	-0.071
-436.734	800.000	-0.018	-0.056
-435.719	6.390	0.299	-0.223
-434.705	-145.707	0.159	0.014
-433.690	-22.648	-0.363	0.220
-432.676	582.023	-0.140	0.345
-431.661	29.133	0.065	-0.055
-430.646	594.346	0.148	0.367
-429.632	217.219	0.083	0.133
-428.617	-155.823	0.170	-0.011
-427.603	15.036	-0.097	0.077
-426.588	-200.000	-0.015	0.236
-425.573	-69.678	0.205	-0.079
-424.559	384.692	0.040	-0.083
-423.544	-12.532	-0.094	-0.061
-422.530	-48.133	-0.266	0.129
-421.515	-124.684	0.089	-0.014
-420.500	800.000	-0.036	0.155
-419.486	76.762	0.204	-0.217
-418.471	125.932	-0.046	0.058
-417.457	-31.354	0.143	-0.081
-416.442	126.676	-0.103	0.130
-415.428	599.637	0.046	-0.114
-414.413	-62.360	0.034	0.014
-413.398	-23.038	-0.235	0.142
-412.384	800.000	-0.058	0.221
-411.369	169.987	0.161	-0.231
-410.355	-12.724	0.172	-0.112
-409.340	-200.000	-0.003	-0.231
-408.325	32.914	-0.159	0.138
-407.311	-13.357	-0.202	-0.132
-406.296	-60.630	0.359	-0.153
-405.282	-21.831	-0.101	0.061
-404.267	25.958	-0.269	0.225
-403.252	12.395	0.271	0.209
-402.238	105.695	-0.312	-0.370
-401.223	217.004	-0.118	0.188
-400.209	141.333	0.090	0.119
-399.194	666.401	0.097	0.251
-398.179	800.000	0.091	-0.253
-397.165	-147.956	0.140	-0.012
-396.150	-96.156	-0.149	-0.040
-395.136	-166.977	-0.013	-0.001
-394.121	-200.000	-0.075	-0.353
-393.106	-3.914	-0.203	-0.141
-392.092	-48.897	-0.204	-0.098
-391.077	-200.000	0.055	0.366
-390.063	-118.008	0.073	-0.013
-389.048	725.188	-0.046	-0.122
-388.033	32.956	0.285	-0.247
-387.019	800.000	0.116	0.350
-386.004	173.773	0.091	-0.131
-384.990	-200.000	0.020	0.463
-383.975	125.096	-0.053	0.067
-382.960	19.159	-0.169	0.136
-381.946	-200.000	0.010	0.432
-380.931	23.215	0.369	0.303
-379.917	-82.480	-0.180	-0.059
-378.902	-124.574	-0.228	0.035
-377.888	0.712	0.209	-0.150
-376.873	-200.000	-0.022	-0.120
-375.858	-200.000	0.004	0.222
-374.844	170.655	0.026	0.037
-373.829	-43.346	0.131	0.066
-372.815	61.402	-0.002	0.002
-371.800	-77.582	-0.090	-0.031
-370.785	23.385	0.048	0.040
-369.771	260.186	-0.080	0.138
-368.756	-200.000	-0.058	-0.275
-367.742	183.570	0.176	-0.260
-366.727	-99.626	-0.234	-0.059
-365.712	800.000	-0.081	0.259
-364.698	-200.000	-0.368	0.002
-363.683	6.599	0.165	-0.122
-362.669	90.287	0.129	0.144
-361.654	227.687	-0.158	0.257
-360.639	-156.792	-0.192	-0.012
-359.625	-200.000	0.003	-0.089
-358.610	-166.213	0.191	0.008
-357.596	800.000	-0.068	-0.216
-356.581	800.000	0.024	-0.072
-355.566	-177.494	-0.022	0.001
-354.552	210.276	0.074	-0.115
-353.537	-58.299	0.028	-0.012
-352.523	-200.000	0.019	-0.110
-351.508	394.538	-0.067	0.139
-350.493	220.809	0.098	0.158
-349.479	-141.798	0.299	-0.030
-348.464	-84.989	0.137	0.043
-347.450	-18.000	0.168	-0.105
-346.435	-92.188	-0.186	-0.052
-345.420	-11.795	-0.151	-0.099
-344.406	757.032	-0.016	-0.044
-343.391	800.000	-0.096	-0.306
-342.377	-180.079	-0.312	0.007
-341.362	-161.588	0.172	-0.009
-340.348	-160.879	0.379	-0.020
-339.333	43.222	0.103	0.094
-338.318	-95.013	0.194	-0.052
-337.304	22.747	0.080	-0.065
-336.289	-26.609	-0.270	0.158
-335.275	-200.000	0.083	0.396
-334.260	-42.625	0.161	0.082
-333.245	-77.268	-0.184	0.064
-332.231	-43.912	0.139	0.070
-331.216	11.263	-0.163	0.125
-330.202	8.862	-0.274	-0.206
-329.187	-200.000	0.018	0.196
-328.172	396.848	0.035	-0.074
-327.158	800.000	0.101	0.338
-326.143	232.134	-0.128	0.210
-325.129	-102.740	-0.367	0.087
-324.114	-46.674	-0.126	-0.062
-323.099	-200.000	-0.037	-0.351
-322.085	233.785	0.166	0.273
-321.070	302.523	0.056	0.103
-320.056	-78.240	-0.189	0.065
-319.041	-64.193	-0.143	0.058
-318.026	800.000	0.008	-0.032
-317.012	800.000	0.123	0.438
-315.997	-106.222	0.243	-0.054
-314.983	524.824	0.053	0.125
-313.968	-141.897	-0.063	-0.006
-312.953	424.381	-0.092	-0.197
-311.939	427.194	-0.100	0.216
-310.924	110.821	0.104	0.125
-309.910	287.226	-0.088	-0.159
-308.895	377.836	-0.041	-0.083
-307.880	-200.000	0.086	0.519
-306.866	32.585	-0.066	0.057
-305.851	-200.000	-0.002	-0.054
-304.837	86.200	0.202	-0.222
-303.822	-88.538	-0.175	0.052
-302.807	224.284	0.204	-0.328
-301.793	298.443	0.027	0.050
-300.778	800.000	0.013	0.047
-299.764	672.390	0.076	-0.196
-298.749	62.832	-0.131	-0.131
-297.735	-73.644	-0.199	0.072
-296.720	171.563	0.076	-0.109
-295.705	-6.377	0.359	0.244
-294.691	335.259	-0.078	-0.150
-293.676	516.589	-0.094	-0.219
-292.662	-200.000	-0.012	0.205
-291.647	-140.299	0.156	0.016
-290.632	-17.839	0.128	-0.080
-289.618	-200.000	0.002	0.131
-288.603	12.440	-0.058	-0.044
-287.589	-35.278	-0.182	0.099
-286.574	177.433	0.146	-0.212
-285.559	62.210	-0.197	-0.196
-284.545	-27.374	0.051	-0.030
-283.530	-101.852	0.287	0.069
-282.516	58.665	-0.225	-0.220
-281.501	755.200	-0.116	-0.313
-280.486	-188.768	-0.261	-0.003
-279.472	48.509	-0.215	0.201
-278.457	-200.000	-0.046	0.235
-277.443	-178.296	-0.156	0.004
-276.428	734.269	-0.077	-0.206
-275.413	-190.210	0.156	-0.002
-274.399	97.996	-0.261	0.300
-273.384	55.875	0.062	0.060
-272.370	-200.000	-0.051	-0.372
-271.355	-13.550	-0.207	-0.134
-270.340	43.802	0.082	0.074
-269.326	476.187	-0.082	0.184
-268.311	-13.866	0.101	-0.065
-267.297	187.694	-0.113	-0.169
-266.282	429.010	-0.068	-0.146
-265.267	82.795	0.208	0.225
-264.253	-63.457	0.155	-0.063
-263.238	-64.564	-0.281	0.114
-262.224	427.022	0.173	0.372
-261.209	-58.496	0.095	-0.041
-260.195	-200.000	-0.032	0.513
-259.180	414.055	-0.054	0.114
-258.165	-64.703	0.249	-0.100
-257.151	-117.034	-0.309	0.056
-256.136	209.165	-0.215	0.335
-255.122	-200.000	-0.026	-0.133
-254.107	203.567	0.058	0.089
-253.092	61.680	0.101	0.100
-252.078	-101.562	0.205	-0.050
-251.063	292.355	-0.149	0.270
-250.049	800.000	-0.038	-0.141
-249.034	206.805	0.195	0.302
-248.019	-176.853	-0.197	-0.005
-247.005	602.953	-0.050	-0.125
-245.990	686.421	-0.029	-0.075
-244.976	4.481	0.317	0.231
-243.961	-158.991	-0.388	0.022
-242.946	79.729	-0.091	0.097
-241.932	-200.000	0.010	0.057
-240.917	419.167	-0.059	-0.126
-239.903	72.178	-0.067	0.069
-238.888	105.641	0.153	-0.180
-237.873	-200.000	0.011	0.047
-236.859	-184.885	0.382	-0.006
-235.844	-72.423	0.218	-0.080
-234.830	-17.178	-0.214	-0.134
-233.815	-14.584	0.047	0.030
-232.800	280.625	0.066	-0.117
-231.786	260.390	0.036	-0.061
-230.771	0.672	0.424	-0.302
-229.757	38.515	-0.127	-0.113
-228.742	205.969	-0.188	-0.291
-227.727	217.175	-0.056	0.089
-226.713	-72.815	-0.071	0.026
-225.698	-60.612	-0.099	-0.042
-224.684	-200.000	0.016	0.073
-223.669	169.285	0.076	0.108
-222.655	-109.212	-0.214	0.045
-221.640	800.000	0.106	-0.306
-220.625	-148.195	0.218	0.018
-219.611	60.723	0.210	0.207
-218.596	-83.866	0.358	0.113
-217.582	72.610	-0.097	-0.100
-216.567	-200.000	0.049	0.262
-215.552	-91.709	-0.316	0.089
-214.538	-200.000	0.086	0.429
-213.523	55.077	-0.081	0.078
-212.509	10.240	-0.188	0.142
-211.494	84.324	-0.125	-0.136
-210.479	108.010	-0.063	-0.075
-209.465	77.144	0.123	0.130
-208.450	244.946	-0.115	0.191
-207.436	-200.000	-0.007	0.069
-206.421	591.751	-0.181	0.443
-205.406	-65.808	-0.321	0.128
-204.392	-102.900	0.253	0.060
-203.377	-71.019	0.203	-0.076
-202.363	451.279	-0.089	-0.195
-201.348	487.556	0.078	0.176
-200.333	-74.252	-0.071	-0.025
-199.319	159.263	0.126	0.174
-198.304	80.061	0.128	-0.137
-197.290	-178.040	0.129	0.003
-196.275	-151.514	-0.029	-0.002
-195.260	69.610	0.086	-0.088
-194.246	-140.221	0.410	-0.043
-193.231	-57.250	-0.352	0.154
-192.217	-167.651	0.130	0.005
-191.202	-132.028	-0.263	-0.034
-190.187	-19.531	0.326	-0.201
-189.173	-140.203	-0.243	-0.025
-188.158	-71.813	-0.446	-0.165
-187.144	-200.000	0.029	-0.154
-186.129	289.232	-0.069	0.124
-185.114	9.986	-0.240	-0.181
-184.100	142.127	0.163	-0.215
-183.085	-169.426	0.230	-0.008
-182.071	-67.009	0.107	-0.042
-181.056	56.813	-0.179	-0.173
-180.042	-0.734	0.291	0.205
-179.027	371.389	0.091	-0.183
-178.012	675.707	-0.080	0.205
-176.998	-13.221	-0.249	-0.160
-175.983	-71.560	0.126	0.047
-174.969	191.698	0.090	0.135
-173.954	-200.000	0.036	0.277
-172.939	103.147	0.143	0.166
-171.925	-129.871	-0.246	-0.033
-170.910	-63.144	0.344	0.141
-169.896	-44.048	0.232	0.116
-168.881	-20.922	-0.123	0.075
-167.866	-72.165	-0.103	0.038
-166.852	-200.000	-0.043	0.195
-165.837	-20.785	0.093	0.056
-164.823	66.082	0.081	0.082
-163.808	-51.518	-0.252	0.117
-162.793	-108.686	0.066	-0.014
-161.779	393.873	-0.048	-0.100
-160.764	-110.233	-0.603	0.125
-159.750	191.636	-0.037	0.055
-158.735	-78.783	-0.172	0.058
-157.720	-108.811	-0.263	-0.056
-156.706	800.000	-0.073	0.211
-155.691	104.564	-0.135	0.158
-154.677	635.303	-0.066	0.167
-153.662	800.000	-0.063	0.188
-152.647	359.528	-0.152	0.301
-151.633	-28.943	-0.116	0.066
-150.618	-112.677	0.458	0.090
-149.604	-46.007	0.098	0.048
-148.589	-31.281	-0.356	-0.199
-147.574	712.455	0.075	0.197
-146.560	-200.000	0.054	0.302
-145.545	6.670	-0.339	0.250
-144.531	627.588	-0.109	0.272
-143.516	-108.664	0.245	0.052
-142.502	-155.966	0.247	0.016
-141.487	8.711	0.117	0.087
-140.472	100.388	0.234	-0.270
-139.458	-142.534	0.401	-0.039
-138.443	451.758	-0.094	-0.205
-137.429	221.002	0.138	0.220
-136.414	-200.000	-0.019	0.095
-135.399	-115.729	-0.184	-0.034
-134.385	-153.762	0.086	0.006
-133.370	-62.220	-0.198	0.082
-132.356	-19.282	-0.079	-0.048
-131.341	1.950	0.407	-0.291
-130.326	-14.435	0.121	-0.077
-129.312	-50.919	-0.261	-0.122
-128.297	-34.753	-0.143	0.077
-127.283	45.655	-0.371	-0.339
-126.268	168.501	-0.199	-0.281
-125.253	-118.021	0.241	0.043
-124.239	295.875	0.023	0.042
-123.224	-16.885	0.338	0.212
-122.210	196.405	0.038	-0.058
-121.195	-200.000	-0.005	-0.066
