DTS Sentinel unit serial number:	SN413079Multiplexer serial number:	ORYXHardware model number:	OX4-SRSoftware version number:	ORYX F/W v4.00 Oryx Data Collector v3.7.2.0data status	okinstallation	princeton_trtdifferential loss correction	single-endedforward channel	channel 2reverse channel	N/Adate	2019/09/18time	04:15:35forward acquisition time	60.00reverse acquisition time	0.00gamma	496.2192k internal	0.2348k external	0.2348temperature offset calibration	0.9983default loss term (dB/km)	0.3790temperature slope calibration	1.0000multiplexer offset coefficient	1.0000multiplexer slope coefficient	1.0000fibre end	0.00T internal ref (°C)	23.31T ext. ref 1 (°C)	0.18T ext. ref 2 (°C)	17.69length (m)	temperature (°C)	Stokes	anti-Stokes-747.200	-91.838	0.159	-0.045
-746.185	-200.000	-0.013	0.220
-745.171	-200.000	-0.073	0.411
-744.156	682.501	-0.108	0.281
-743.142	48.250	0.315	0.295
-742.127	0.443	-0.306	0.218
-741.112	104.969	0.159	-0.187
-740.098	2.781	-0.318	0.231
-739.083	184.413	0.079	0.117
-738.069	53.665	0.258	0.248
-737.054	800.000	-0.046	0.132
-736.039	-74.605	-0.205	-0.074
-735.025	800.000	0.085	0.323
-734.010	46.024	0.161	-0.149
-732.996	137.839	0.089	-0.117
-731.981	46.411	-0.155	0.143
-730.966	-100.937	-0.033	0.008
-729.952	451.529	-0.127	-0.281
-728.937	-200.000	0.043	0.199
-727.923	83.545	-0.169	0.184
-726.908	189.953	-0.163	-0.245
-725.894	401.462	-0.190	-0.399
-724.879	-200.000	0.008	-0.187
-723.864	278.328	0.182	-0.323
-722.850	-74.370	0.457	-0.165
-721.835	-61.718	-0.154	-0.064
-720.821	180.739	-0.140	-0.205
-719.806	-144.310	-0.331	0.031
-718.791	800.000	0.045	-0.173
-717.777	-9.243	0.265	-0.177
-716.762	-81.510	-0.148	0.049
-715.748	-133.694	-0.294	-0.037
-714.733	-19.657	0.199	-0.123
-713.718	-200.000	0.002	-0.233
-712.704	519.557	-0.064	0.150
-711.689	800.000	0.011	-0.030
-710.675	-97.775	-0.281	0.072
-709.660	-98.974	-0.244	-0.062
-708.645	342.771	0.021	-0.041
-707.631	800.000	-0.069	0.287
-706.616	-51.936	0.137	0.064
-705.602	-44.807	0.274	0.137
-704.587	539.241	0.120	0.285
-703.572	800.000	0.040	0.136
-702.558	230.612	-0.114	-0.186
-701.543	-200.000	0.044	-0.206
-700.529	-108.918	0.211	-0.045
-699.514	-200.000	0.014	-0.074
-698.499	518.737	0.040	-0.094
-697.485	800.000	0.055	-0.222
-696.470	-200.000	0.084	-0.369
-695.456	-200.000	0.005	-0.369
-694.441	-34.674	0.164	0.089
-693.426	252.264	-0.068	0.116
-692.412	-38.077	0.137	-0.072
-691.397	-62.101	0.221	0.092
-690.383	33.196	-0.127	-0.109
-689.368	78.658	-0.013	0.014
-688.354	431.853	-0.060	0.129
-687.339	313.479	-0.105	0.197
-686.324	434.223	-0.124	-0.269
-685.310	87.184	-0.200	-0.220
-684.295	184.819	0.096	0.142
-683.281	-200.000	-0.009	-0.121
-682.266	800.000	-0.072	-0.287
-681.251	42.492	-0.116	0.105
-680.237	-22.568	0.239	-0.144
-679.222	-85.921	-0.408	-0.126
-678.208	-104.163	0.237	0.055
-677.193	-40.330	0.088	-0.045
-676.178	-84.421	-0.108	0.034
-675.164	341.356	-0.084	-0.165
-674.149	33.992	0.162	-0.140
-673.135	-200.000	0.000	-0.045
-672.120	-200.000	0.101	0.535
-671.105	800.000	0.011	-0.033
-670.091	141.492	-0.212	-0.279
-669.076	113.225	-0.219	0.265
-668.062	-80.255	-0.080	-0.027
-667.047	-200.000	-0.004	0.136
-666.032	-200.000	0.015	-0.180
-665.018	30.580	-0.117	-0.099
-664.003	188.710	-0.094	0.140
-662.989	39.935	0.143	-0.128
-661.974	-12.870	-0.029	0.019
-660.959	738.211	0.111	-0.296
-659.945	154.790	-0.163	0.223
-658.930	6.303	0.146	0.108
-657.916	-60.338	0.236	-0.100
-656.901	-23.457	-0.347	-0.208
-655.886	497.904	-0.074	0.171
-654.872	147.419	0.226	0.302
-653.857	-200.000	0.031	-0.480
-652.843	-200.000	-0.024	0.141
-651.828	582.709	0.098	0.239
-650.814	-38.443	-0.330	0.174
-649.799	358.293	-0.065	0.130
-648.784	-125.633	-0.143	0.022
-647.770	800.000	-0.095	-0.278
-646.755	-200.000	-0.079	-0.401
-645.741	-72.804	-0.139	-0.051
-644.726	185.272	0.133	0.196
-643.711	249.525	0.155	0.262
-642.697	32.085	-0.041	0.035
-641.682	-200.000	0.038	-0.250
-640.668	-70.445	-0.198	0.075
-639.653	800.000	0.040	0.121
-638.638	-89.053	-0.182	-0.054
-637.624	165.790	-0.161	-0.227
-636.609	-200.000	0.021	0.105
-635.595	-200.000	-0.001	-0.221
-634.580	-135.085	-0.261	0.031
-633.565	158.781	-0.230	0.318
-632.551	232.856	-0.037	-0.060
-631.536	-200.000	-0.071	-0.611
-630.522	-200.000	0.003	-0.296
-629.507	-26.553	0.126	-0.073
-628.492	20.000	-0.312	0.251
-627.478	99.282	-0.155	-0.178
-626.463	-85.261	0.146	-0.045
-625.449	691.941	-0.045	-0.117
-624.434	36.645	-0.115	-0.101
-623.419	90.698	0.123	-0.137
-622.405	-5.844	0.090	-0.061
-621.390	-69.386	-0.161	0.061
-620.376	-200.000	0.007	0.160
-619.361	800.000	0.082	0.346
-618.346	-200.000	0.010	0.065
-617.332	-200.000	0.002	-0.062
-616.317	34.350	0.185	0.161
-615.303	127.892	-0.076	-0.096
-614.288	225.267	0.109	0.176
-613.273	-119.009	0.309	0.054
-612.259	-56.828	-0.128	0.056
-611.244	-200.000	0.008	-0.141
-610.230	-60.919	-0.395	0.166
-609.215	-133.779	0.357	-0.044
-608.201	-113.913	-0.024	0.005
-607.186	220.193	-0.273	0.434
-606.171	-113.724	0.261	0.051
-605.157	60.999	-0.116	0.114
-604.142	156.979	0.027	0.037
-603.128	800.000	-0.073	0.256
-602.113	413.755	0.147	-0.310
-601.098	-46.803	0.059	-0.029
-600.084	64.494	0.154	0.154
-599.069	800.000	0.066	0.198
-598.055	-59.482	-0.447	0.191
-597.040	-157.947	-0.055	0.003
-596.025	-200.000	-0.015	0.118
-595.011	800.000	-0.017	-0.057
-593.996	15.794	-0.246	-0.192
-592.982	-89.902	0.167	-0.049
-591.967	-107.913	-0.217	-0.047
-590.952	-102.200	0.368	0.088
-589.938	115.336	-0.125	-0.152
-588.923	-200.000	-0.037	0.336
-587.909	28.325	0.182	-0.153
-586.894	-200.000	0.006	0.093
-585.879	52.273	0.176	-0.167
-584.865	-200.000	0.032	-0.219
-583.850	-91.107	-0.047	-0.013
-582.836	146.266	0.080	-0.106
-581.821	-29.266	-0.249	-0.142
-580.806	800.000	0.048	0.182
-579.792	150.385	0.183	0.246
-578.777	-75.013	-0.189	-0.067
-577.763	-200.000	-0.009	-0.242
-576.748	-200.000	0.021	0.097
-575.733	800.000	0.033	-0.108
-574.719	463.202	-0.191	-0.423
-573.704	70.729	-0.069	-0.071
-572.690	-49.964	0.189	0.089
-571.675	-145.266	-0.252	0.023
-570.661	158.927	-0.184	-0.254
-569.646	628.271	-0.100	-0.251
-568.631	800.000	0.065	-0.187
-567.617	-146.360	0.019	-0.002
-566.602	328.724	0.040	0.075
-565.588	-59.575	0.435	-0.185
-564.573	-69.939	-0.130	-0.049
-563.558	53.523	0.190	-0.181
-562.544	685.929	-0.161	-0.416
-561.529	-200.000	0.039	-0.245
-560.515	-80.442	-0.172	0.057
-559.500	464.760	0.128	0.283
-558.485	-70.241	-0.245	0.092
-557.471	-41.646	0.198	-0.101
-556.456	-149.688	-0.338	0.026
-555.442	317.733	-0.156	0.293
-554.427	-40.855	-0.353	0.181
-553.412	55.474	0.136	0.130
-552.398	-200.000	0.009	-0.178
-551.383	-200.000	-0.019	0.169
-550.369	124.988	-0.038	0.048
-549.354	205.658	-0.200	-0.309
-548.339	710.746	0.051	0.135
-547.325	-109.100	-0.308	0.065
-546.310	-101.354	0.207	-0.050
-545.296	-88.819	-0.201	-0.059
-544.281	222.358	0.163	-0.260
-543.266	-123.683	-0.173	-0.027
-542.252	190.120	0.141	0.210
-541.237	107.349	-0.090	0.106
-540.223	14.193	0.219	0.169
-539.208	-200.000	-0.029	0.150
-538.193	369.820	-0.081	-0.162
-537.179	-17.300	0.093	-0.058
-536.164	175.900	-0.022	0.031
-535.150	41.045	-0.112	-0.100
-534.135	-178.862	0.104	0.002
-533.121	800.000	-0.088	-0.321
-532.106	657.768	-0.095	-0.242
-531.091	410.773	0.014	-0.030
-530.077	-198.326	0.211	-0.001
-529.062	83.556	-0.157	-0.169
-528.048	275.963	-0.127	0.224
-527.033	-200.000	0.010	0.148
-526.018	800.000	-0.032	0.111
-525.004	34.532	0.078	0.067
-523.989	-200.000	-0.043	0.275
-522.975	250.778	0.192	-0.323
-521.960	800.000	-0.018	-0.072
-520.945	445.923	-0.104	0.227
-519.931	163.974	-0.102	-0.142
-518.916	125.463	-0.145	-0.181
-517.902	687.784	-0.093	-0.242
-516.887	711.122	0.108	0.284
-515.872	-27.660	-0.065	0.038
-514.858	132.401	-0.084	-0.107
-513.843	-79.481	0.190	0.064
-512.829	-37.638	-0.277	-0.146
-511.814	266.114	0.158	0.274
-510.799	-200.000	0.078	-0.338
-509.785	-35.225	0.280	-0.151
-508.770	419.797	-0.087	0.184
-507.756	-4.582	0.226	-0.155
-506.741	-157.597	0.249	-0.015
-505.726	163.739	0.068	-0.094
-504.712	-156.018	-0.112	-0.007
-503.697	-66.396	0.149	-0.059
-502.683	-36.965	0.153	0.081
-501.668	153.621	-0.143	0.195
-500.653	800.000	0.042	-0.121
-499.639	52.035	-0.198	-0.187
-498.624	-200.000	0.087	0.400
-497.610	36.827	-0.027	0.024
-496.595	800.000	0.020	-0.073
-495.581	-200.000	-0.007	-0.241
-494.566	-200.000	0.040	-0.332
-493.551	-159.249	-0.310	-0.017
-492.537	800.000	-0.056	-0.195
-491.522	-117.101	0.663	-0.120
-490.508	450.565	0.132	-0.289
-489.493	66.169	0.121	0.121
-488.478	-200.000	-0.047	-0.261
-487.464	-200.000	-0.000	0.119
-486.449	116.672	0.086	-0.105
-485.435	264.873	-0.197	0.340
-484.420	-60.889	0.072	0.030
-483.405	508.266	0.082	0.188
-482.391	-75.446	-0.185	-0.065
-481.376	-21.182	0.165	0.100
-480.362	-38.144	-0.070	-0.037
-479.347	-200.000	-0.052	-0.379
-478.332	-60.109	0.437	-0.184
-477.318	-200.000	0.002	-0.195
-476.303	-18.098	-0.257	-0.159
-475.289	-54.369	-0.325	0.146
-474.274	-177.454	0.242	0.006
-473.259	-125.740	0.348	-0.052
-472.245	538.473	-0.154	-0.362
-471.230	-90.851	0.416	-0.119
-470.216	-75.849	0.327	-0.115
-469.201	-71.760	0.180	0.066
-468.186	-63.533	0.176	-0.072
-467.172	-126.783	0.176	-0.026
-466.157	-172.861	0.172	0.005
-465.143	70.173	-0.197	0.201
-464.128	800.000	-0.039	0.112
-463.113	-128.881	0.110	0.015
-462.099	87.879	0.153	0.168
-461.084	-200.000	-0.010	-0.091
-460.070	-2.258	-0.144	0.100
-459.055	-200.000	-0.081	-0.354
-458.040	-78.941	-0.206	-0.069
-457.026	-79.620	-0.116	0.039
-456.011	-200.000	0.001	0.219
-454.997	800.000	0.155	0.554
-453.982	429.473	0.049	0.105
-452.968	-94.502	-0.257	-0.069
-451.953	-11.651	-0.052	0.034
-450.938	-48.364	-0.245	-0.116
-449.924	-103.780	-0.233	0.054
-448.909	-28.961	0.333	0.189
-447.895	229.827	-0.121	-0.194
-446.880	8.942	-0.063	-0.047
-445.865	357.171	0.168	0.332
-444.851	-200.000	0.005	0.192
-443.836	800.000	0.032	-0.104
-442.822	312.134	-0.082	0.152
-441.807	223.096	0.065	-0.103
-440.792	-200.000	0.035	-0.160
-439.778	223.799	-0.087	-0.138
-438.763	-6.679	0.100	-0.067
-437.749	177.665	0.157	0.226
-436.734	147.743	0.180	-0.239
-435.719	-73.294	-0.117	0.042
-434.705	333.972	-0.063	0.121
-433.690	-200.000	-0.012	-0.084
-432.676	-161.350	0.240	0.012
-431.661	800.000	-0.091	0.383
-430.646	-200.000	0.025	0.229
-429.632	103.741	0.056	0.065
-428.617	-72.635	-0.209	-0.076
-427.603	-41.458	-0.475	0.241
-426.588	-120.266	-0.354	0.060
-425.573	196.095	0.127	-0.191
-424.559	-200.000	-0.014	0.123
-423.544	-200.000	0.055	0.254
-422.530	-60.079	-0.215	0.091
-421.515	-200.000	-0.040	0.318
-420.500	-82.498	-0.407	0.130
-419.486	-23.687	0.289	0.171
-418.471	-118.170	0.085	0.015
-417.457	-24.490	-0.132	0.077
-416.442	-71.714	-0.154	0.057
-415.428	-21.357	0.223	-0.134
-414.413	-11.321	0.281	-0.182
-413.398	106.729	-0.088	0.103
-412.384	-75.249	-0.192	0.068
-411.369	800.000	0.042	0.119
-410.355	-98.831	-0.186	-0.047
-409.340	358.724	0.245	-0.483
-408.325	167.160	0.100	-0.140
-407.311	-200.000	0.037	-0.167
-406.296	54.131	0.243	-0.230
-405.282	800.000	-0.086	0.318
-404.267	800.000	-0.034	0.109
-403.252	-19.143	-0.243	-0.149
-402.238	-71.251	0.352	-0.130
-401.223	800.000	0.036	0.125
-400.209	219.621	-0.173	0.273
-399.194	800.000	0.073	-0.248
-398.179	273.697	0.077	0.134
-397.165	107.561	0.224	0.263
-396.150	163.787	0.158	-0.219
-395.136	800.000	-0.109	0.330
-394.121	95.518	-0.155	-0.174
-393.106	-54.896	-0.486	-0.216
-392.092	-129.252	-0.193	0.027
-391.077	194.895	0.181	0.270
-390.063	-110.061	0.306	0.063
-389.048	288.073	0.136	-0.243
-388.033	96.825	0.145	0.164
-387.019	-40.924	0.082	-0.042
-386.004	-58.985	0.218	0.093
-384.990	59.350	0.176	-0.171
-383.975	225.609	0.015	0.024
-382.960	231.723	-0.083	0.134
-381.946	-200.000	0.247	0.001
-380.931	-177.707	0.029	0.001
-379.917	-8.159	-0.260	-0.172
-378.902	-200.000	0.002	-0.059
-377.888	-200.000	0.014	-0.238
-376.873	-17.568	-0.179	0.111
-375.858	-31.941	0.416	0.230
-374.844	-35.249	-0.188	-0.101
-373.829	7.707	0.228	0.168
-372.815	800.000	-0.074	-0.247
-371.800	128.530	-0.224	-0.281
-370.785	145.850	-0.053	0.070
-369.771	-200.000	0.034	0.163
-368.756	-200.000	0.007	0.059
-367.742	-59.991	-0.518	-0.218
-366.727	388.005	-0.206	-0.420
-365.712	123.541	-0.186	0.230
-364.698	-95.132	0.262	0.069
-363.683	-78.876	-0.239	-0.080
-362.669	-167.847	0.396	-0.015
-361.654	-200.000	-0.022	-0.447
-360.639	45.725	0.244	0.222
-359.625	-45.129	-0.104	0.051
-358.610	491.583	-0.036	0.082
-357.596	-2.192	-0.148	-0.102
-356.581	486.994	0.070	-0.156
-355.566	-200.000	-0.001	-0.123
-354.552	0.905	0.219	0.154
-353.537	800.000	0.047	0.188
-352.523	641.114	-0.121	-0.303
-351.508	337.824	-0.087	0.166
-350.493	196.856	-0.019	0.028
-349.479	-67.716	-0.249	-0.096
-348.464	2.172	-0.166	0.118
-347.450	-99.889	-0.215	-0.053
-346.435	-200.000	-0.063	-0.275
-345.420	46.369	0.098	-0.090
-344.406	800.000	-0.045	-0.145
-343.391	259.705	0.191	-0.324
-342.377	14.934	-0.167	0.129
-341.362	-200.000	-0.006	-0.138
-340.348	295.693	0.066	-0.118
-339.333	-200.000	0.002	-0.069
-338.318	453.051	0.062	-0.136
-337.304	76.414	0.182	0.189
-336.289	-59.103	-0.343	-0.146
-335.275	-89.389	0.104	-0.030
-334.260	779.991	0.017	0.045
-333.245	-200.000	-0.024	-0.325
-332.231	-31.544	0.543	0.300
-331.216	-187.876	-0.118	-0.002
-330.202	800.000	-0.065	0.244
-329.187	-150.192	-0.381	0.029
-328.172	364.531	0.169	0.334
-327.158	-200.000	0.039	0.411
-326.143	-30.432	-0.229	-0.128
-325.129	-86.847	-0.348	0.104
-324.114	-200.000	-0.017	0.130
-323.099	32.788	0.017	-0.015
-322.085	-138.120	0.236	-0.026
-321.070	-95.333	0.282	0.075
-320.056	-200.000	0.030	-0.156
-319.041	298.603	0.105	-0.189
-318.026	292.369	0.162	-0.290
-317.012	-103.732	-0.140	0.032
-315.997	-200.000	0.010	-0.058
-314.983	-140.568	0.187	0.019
-313.968	-200.000	-0.015	-0.206
-312.953	253.475	-0.140	-0.235
-311.939	-114.486	-0.044	0.008
-310.924	529.960	0.063	-0.145
-309.910	-200.000	-0.041	0.179
-308.895	145.403	-0.188	0.247
-307.880	372.345	-0.184	0.367
-306.866	800.000	0.066	-0.227
-305.851	211.986	0.235	0.364
-304.837	527.870	0.032	0.075
-303.822	77.061	0.267	-0.279
-302.807	713.402	0.105	-0.274
-301.793	-200.000	-0.010	0.090
-300.778	9.047	-0.208	-0.155
-299.764	-200.000	0.004	0.284
-298.749	-42.218	0.180	0.090
-297.735	182.313	0.097	-0.140
-296.720	3.667	0.069	0.050
-295.705	-200.000	0.043	-0.307
-294.691	53.688	-0.094	-0.089
-293.676	-88.684	0.330	0.096
-292.662	-126.420	0.016	0.002
-291.647	-200.000	-0.066	0.298
-290.632	-181.427	-0.400	0.008
-289.618	800.000	0.101	-0.312
-288.603	37.963	0.194	-0.169
-287.589	-33.800	-0.276	0.149
-286.574	-117.799	0.155	0.027
-285.559	186.076	0.228	0.333
-284.545	-200.000	-0.007	-0.037
-283.530	108.071	0.129	0.151
-282.516	-85.700	-0.243	0.074
-281.501	531.958	-0.080	0.185
-280.486	37.033	0.150	0.130
-279.472	43.362	-0.197	-0.176
-278.457	39.451	0.037	0.033
-277.443	275.523	0.150	-0.261
-276.428	166.770	-0.232	-0.323
-275.413	-181.091	0.147	-0.003
-274.399	198.697	-0.114	-0.171
-273.384	-77.102	-0.246	0.084
-272.370	581.170	-0.102	0.245
-271.355	-35.398	-0.473	-0.252
-270.340	151.971	0.165	0.221
-269.326	800.000	-0.026	0.080
-268.311	28.344	-0.341	0.282
-267.297	-7.891	-0.119	0.079
-266.282	489.021	-0.185	0.415
-265.267	236.046	-0.083	0.135
-264.253	-70.177	0.222	0.083
-263.238	-28.086	0.131	-0.074
-262.224	-200.000	-0.004	0.050
-261.209	-141.868	-0.228	0.022
-260.195	-200.000	0.042	-0.334
-259.180	-64.127	-0.405	-0.162
-258.165	800.000	0.082	0.222
-257.151	-200.000	-0.013	0.103
-256.136	800.000	0.049	0.135
-255.122	314.069	-0.161	0.298
-254.107	157.417	0.232	-0.315
-253.092	-103.333	0.284	-0.066
-252.078	141.716	0.088	0.114
-251.063	-138.910	0.122	0.013
-250.049	50.403	0.255	0.236
-249.034	-24.488	-0.263	0.153
-248.019	609.744	-0.068	0.168
-247.005	439.612	-0.049	0.104
-245.990	90.186	0.068	-0.074
-244.976	90.388	-0.201	0.221
-243.961	-113.530	0.289	-0.055
-242.946	800.000	-0.084	-0.260
-241.932	135.941	-0.100	-0.127
-240.917	-38.914	0.240	0.124
-239.903	14.213	0.235	0.180
-238.888	212.124	0.066	-0.102
-237.873	-107.702	0.196	-0.042
-236.859	196.968	0.076	0.114
-235.844	103.771	-0.034	-0.039
-234.830	107.655	0.089	-0.104
-233.815	800.000	0.029	-0.111
-232.800	275.957	-0.065	-0.113
-231.786	323.561	0.157	0.294
-230.771	261.095	-0.126	0.213
-229.757	589.965	-0.158	0.382
-228.742	26.664	0.201	0.164
-227.727	-46.192	0.048	0.023
-226.713	293.906	-0.189	0.338
-225.698	455.109	-0.114	0.247
-224.684	800.000	-0.029	-0.116
-223.669	-200.000	0.018	0.146
-222.655	126.414	-0.202	-0.250
-221.640	-178.312	-0.342	0.008
-220.625	-136.928	0.241	-0.027
-219.611	-200.000	-0.013	-0.211
-218.596	-107.075	0.160	0.034
-217.582	800.000	-0.021	-0.081
-216.567	130.794	-0.080	-0.101
-215.552	-40.183	0.069	-0.035
-214.538	-53.438	-0.082	0.037
-213.523	-33.481	0.140	-0.075
-212.509	-110.885	0.368	0.074
-211.494	-200.000	0.029	0.182
-210.479	27.314	0.172	-0.142
-209.465	-200.000	-0.031	-0.433
-208.450	445.294	0.136	0.291
-207.436	800.000	0.049	-0.195
-206.421	23.761	0.284	0.229
-205.406	-150.408	0.358	0.027
-204.392	800.000	0.051	0.165
-203.377	800.000	0.047	0.153
-202.363	70.903	0.013	-0.013
-201.348	-6.544	-0.283	0.189
-200.333	-68.394	0.117	0.044
-199.319	-52.319	0.190	-0.086
-198.304	92.570	-0.143	-0.158
-197.290	-40.842	0.027	0.014
-196.275	300.920	-0.196	0.353
-195.260	800.000	0.025	0.090
-194.246	-47.348	0.362	-0.172
-193.231	532.861	0.087	-0.201
-192.217	-69.027	0.072	0.027
-191.202	-78.569	0.050	0.017
-190.187	16.611	-0.080	-0.062
-189.173	-32.455	0.069	-0.038
-188.158	427.381	-0.103	0.217
-187.144	266.710	0.047	-0.080
-186.129	138.498	0.086	-0.111
-185.114	-2.829	-0.123	-0.084
-184.100	10.470	-0.052	-0.039
-183.085	142.303	0.073	-0.094
-182.071	315.585	0.018	-0.033
-181.056	-200.000	-0.033	0.197
-180.042	-152.712	0.372	-0.026
-179.027	-20.824	0.191	0.115
-178.012	-200.000	0.021	-0.181
-176.998	-2.283	0.159	-0.109
-175.983	191.090	-0.160	0.235
-174.969	-70.058	-0.146	0.054
-173.954	3.679	0.253	0.180
-172.939	333.225	-0.058	0.109
-171.925	-176.246	-0.217	-0.006
-170.910	-111.243	-0.576	-0.115
-169.896	-200.000	-0.010	-0.436
-168.881	-176.935	-0.284	-0.007
-167.866	-175.463	-0.337	0.009
-166.852	-128.681	-0.193	0.027
-165.837	-103.454	0.114	0.026
-164.823	75.331	0.140	-0.144
-163.808	-109.064	-0.112	-0.023
-162.793	-102.084	0.120	-0.028
-161.779	186.166	0.205	0.298
-160.764	-200.000	0.065	0.292
-159.750	-96.048	0.188	0.049
-158.735	-112.249	-0.218	0.043
-157.720	209.215	0.191	-0.293
-156.706	-153.540	-0.042	-0.003
-155.691	-61.371	-0.261	-0.107
-154.677	800.000	0.049	0.133
-153.662	-200.000	-0.026	-0.190
-152.647	153.235	0.186	0.249
-151.633	-200.000	0.038	0.325
-150.618	131.800	-0.229	0.288
-149.604	56.676	0.065	-0.062
-148.589	-110.517	-0.072	0.015
-147.574	-39.623	0.143	0.073
-146.560	148.904	-0.171	-0.226
-145.545	-200.000	0.047	-0.409
-144.531	102.295	-0.070	0.080
-143.516	160.198	-0.067	0.091
-142.502	-41.469	0.065	-0.032
-141.487	-121.710	0.066	-0.011
-140.472	-122.090	-0.085	-0.014
-139.458	-200.000	0.010	0.297
-138.443	55.651	-0.177	-0.168
-137.429	-86.914	0.121	0.036
-136.414	220.297	0.043	-0.067
-135.399	169.748	-0.187	0.261
-134.385	800.000	-0.018	0.076
-133.370	-200.000	-0.006	-0.086
-132.356	38.815	-0.210	-0.183
-131.341	800.000	-0.144	-0.433
-130.326	-200.000	0.020	-0.188
-129.312	800.000	-0.041	0.149
-128.297	-191.996	0.206	-0.002
-127.283	-67.668	0.182	0.069
-126.268	57.864	0.258	-0.246
-125.253	-0.445	0.064	-0.044
-124.239	424.319	0.026	0.054
-123.224	392.406	0.071	0.144
-122.210	99.608	0.145	-0.164
-121.195	-73.270	0.262	-0.094
