DTS Sentinel unit serial number:	SN413079Multiplexer serial number:	ORYXHardware model number:	OX4-SRSoftware version number:	ORYX F/W v4.00 Oryx Data Collector v3.7.2.0data status	okinstallation	princeton_trtdifferential loss correction	single-endedforward channel	channel 2reverse channel	N/Adate	2019/09/13time	20:03:34forward acquisition time	60.00reverse acquisition time	0.00gamma	496.2192k internal	0.2332k external	0.2332temperature offset calibration	1.0147default loss term (dB/km)	0.3790temperature slope calibration	1.0000multiplexer offset coefficient	1.0000multiplexer slope coefficient	1.0000fibre end	0.00T internal ref (°C)	29.69T ext. ref 1 (°C)	3.36T ext. ref 2 (°C)	24.17length (m)	temperature (°C)	Stokes	anti-Stokes-747.200	123.263	-0.133	-0.168
-746.185	234.960	0.109	0.180
-745.171	-30.391	0.196	-0.112
-744.156	11.750	-0.124	0.096
-743.142	-105.740	-0.239	-0.054
-742.127	-166.634	-0.201	-0.008
-741.112	-200.000	0.050	0.264
-740.098	-118.443	-0.370	-0.066
-739.083	44.947	-0.063	0.058
-738.069	-200.000	-0.049	0.286
-737.054	19.068	-0.118	-0.095
-736.039	276.846	-0.010	-0.019
-735.025	-55.660	-0.147	0.066
-734.010	-42.522	-0.138	-0.071
-732.996	485.627	-0.117	-0.269
-731.981	454.462	0.035	0.077
-730.966	-83.452	-0.178	0.057
-729.952	427.691	-0.050	-0.108
-728.937	-200.000	-0.048	0.544
-727.923	-117.863	0.158	-0.029
-726.908	155.320	-0.106	-0.147
-725.894	-52.160	-0.408	-0.190
-724.879	800.000	-0.076	-0.318
-723.864	10.078	0.081	0.062
-722.850	800.000	0.131	0.375
-721.835	-3.252	-0.135	-0.095
-720.821	-200.000	0.028	-0.143
-719.806	-200.000	0.009	0.087
-718.791	800.000	0.141	-0.429
-717.777	-106.573	-0.054	0.012
-716.762	-200.000	0.001	-0.004
-715.748	-200.000	-0.080	-0.367
-714.733	800.000	-0.035	-0.145
-713.718	-52.629	0.154	0.072
-712.704	291.299	-0.107	-0.196
-711.689	-164.593	-0.295	-0.013
-710.675	800.000	0.046	0.131
-709.660	-48.659	-0.248	0.120
-708.645	-200.000	0.078	0.456
-707.631	-100.193	-0.252	-0.063
-706.616	738.574	-0.090	-0.242
-705.602	-200.000	0.004	0.108
-704.587	115.711	-0.173	-0.212
-703.572	-80.277	0.176	0.059
-702.558	-2.118	-0.275	-0.194
-701.543	800.000	-0.092	0.267
-700.529	171.563	0.155	-0.223
-699.514	-88.671	0.063	-0.019
-698.499	-67.754	-0.076	-0.030
-697.485	53.362	-0.250	0.240
-696.470	-50.548	-0.028	0.013
-695.456	235.270	-0.105	0.175
-694.441	-200.000	-0.039	0.280
-693.426	58.382	0.145	-0.143
-692.412	558.942	-0.051	0.124
-691.397	31.019	-0.216	0.186
-690.383	-200.000	-0.013	0.280
-689.368	-58.236	-0.179	0.078
-688.354	164.673	-0.154	-0.217
-687.339	-131.178	0.036	0.005
-686.324	-147.345	-0.377	-0.032
-685.310	-69.247	0.406	0.157
-684.295	-17.397	-0.352	-0.223
-683.281	203.985	-0.065	-0.101
-682.266	-104.430	0.216	0.050
-681.251	-200.000	0.027	0.137
-680.237	-10.433	-0.262	-0.174
-679.222	-132.718	0.188	-0.024
-678.208	-54.480	-0.115	-0.052
-677.193	-50.877	-0.172	-0.081
-676.178	-115.108	0.218	0.042
-675.164	-80.842	-0.155	-0.052
-674.149	279.924	0.038	-0.068
-673.135	-22.285	-0.113	-0.068
-672.120	-200.000	-0.010	0.175
-671.105	622.305	0.100	-0.253
-670.091	-70.911	0.380	0.144
-669.076	-146.102	0.296	0.026
-668.062	-114.209	-0.088	0.017
-667.047	800.000	0.059	0.248
-666.032	-53.020	0.329	-0.152
-665.018	-200.000	0.054	-0.315
-664.003	381.798	0.182	-0.374
-662.989	-109.228	0.103	0.022
-661.974	-8.616	-0.215	0.145
-660.959	62.371	0.140	-0.140
-659.945	1.514	-0.269	-0.194
-658.930	800.000	-0.119	-0.406
-657.916	-78.588	0.092	-0.031
-656.901	-200.000	-0.018	-0.168
-655.886	-200.000	0.049	-0.354
-654.872	-172.950	0.149	0.005
-653.857	-99.606	-0.102	-0.026
-652.843	350.641	-0.092	-0.183
-651.828	17.448	0.324	-0.258
-650.814	-200.000	0.009	0.199
-649.799	282.843	-0.134	-0.241
-648.784	326.418	-0.036	0.069
-647.770	-124.349	0.047	-0.007
-646.755	104.310	0.103	-0.122
-645.741	609.892	0.025	-0.064
-644.726	-12.650	0.147	-0.096
-643.711	6.281	0.087	0.064
-642.697	800.000	0.018	0.066
-641.682	79.210	0.053	-0.057
-640.668	-151.697	-0.264	0.019
-639.653	165.023	-0.191	-0.270
-638.638	-36.518	-0.122	-0.066
-637.624	-200.000	-0.098	-0.432
-636.609	800.000	0.064	0.201
-635.595	9.680	0.135	-0.102
-634.580	-200.000	-0.018	-0.411
-633.565	-78.469	-0.153	-0.052
-632.551	206.091	-0.057	0.088
-631.536	176.767	0.199	-0.289
-630.522	-17.938	-0.234	-0.147
-629.507	-30.898	0.184	-0.104
-628.492	43.286	0.201	-0.184
-627.478	-33.429	0.129	0.072
-626.463	-21.179	-0.189	0.116
-625.449	-200.000	-0.040	0.215
-624.434	800.000	0.168	-0.570
-623.419	-200.000	0.006	-0.131
-622.405	-98.661	-0.499	0.127
-621.390	-126.712	-0.146	0.022
-620.376	64.025	0.078	0.078
-619.361	-200.000	-0.001	0.364
-618.346	-27.262	-0.150	-0.088
-617.332	-108.132	0.119	0.026
-616.317	58.608	0.103	-0.101
-615.303	-34.605	-0.272	-0.149
-614.288	-200.000	0.039	-0.219
-613.273	-37.939	0.073	0.039
-612.259	24.358	-0.194	-0.161
-611.244	-41.528	-0.199	-0.103
-610.230	-200.000	0.030	-0.238
-609.215	-27.253	-0.230	0.134
-608.201	357.622	-0.123	-0.246
-607.186	-47.017	-0.220	0.107
-606.171	104.131	-0.224	0.264
-605.157	716.695	0.141	-0.375
-604.142	-200.000	0.003	-0.112
-603.128	-200.000	-0.066	0.321
-602.113	-47.794	-0.082	-0.040
-601.098	228.152	0.138	0.224
-600.084	350.996	-0.057	-0.112
-599.069	131.304	0.055	-0.071
-598.055	366.735	0.184	-0.370
-597.040	1.299	-0.061	-0.044
-596.025	97.081	-0.315	0.362
-595.011	-200.000	0.019	-0.109
-593.996	-200.000	0.055	-0.449
-592.982	60.058	0.023	0.023
-591.967	89.272	-0.084	-0.093
-590.952	-86.994	-0.036	0.011
-589.938	-74.190	-0.189	-0.068
-588.923	-64.899	-0.379	-0.153
-587.909	487.178	0.109	-0.249
-586.894	-72.075	-0.266	0.099
-585.879	-80.428	0.163	0.054
-584.865	-19.420	0.112	0.069
-583.850	-107.607	0.165	0.036
-582.836	-65.890	0.119	-0.048
-581.821	800.000	0.038	0.127
-580.806	-3.417	0.111	-0.077
-579.792	-90.281	0.075	0.022
-578.777	-97.011	-0.343	-0.090
-577.763	141.396	-0.074	0.098
-576.748	-118.720	-0.272	0.048
-575.733	-125.618	-0.263	0.040
-574.719	800.000	-0.029	-0.079
-573.704	-200.000	0.004	0.350
-572.690	-90.655	-0.179	0.052
-571.675	-200.000	-0.007	0.150
-570.661	484.161	0.153	0.349
-569.646	-124.196	-0.026	-0.004
-568.631	-200.000	-0.000	0.009
-567.617	-104.225	-0.207	0.048
-566.602	-61.228	0.129	0.054
-565.588	172.091	0.343	-0.492
-564.573	-200.000	0.013	-0.228
-563.558	226.685	0.061	-0.098
-562.544	-200.000	0.054	0.322
-561.529	-86.023	0.133	-0.041
-560.515	-200.000	0.033	-0.184
-559.500	311.586	-0.204	0.381
-558.485	800.000	0.062	0.211
-557.471	132.369	-0.062	-0.080
-556.456	-200.000	0.008	0.301
-555.442	447.809	0.080	-0.175
-554.427	-144.877	0.135	0.012
-553.412	-87.347	0.340	0.103
-552.398	173.238	0.212	0.305
-551.383	-200.000	-0.002	-0.187
-550.369	151.408	-0.143	0.194
-549.354	-200.000	0.036	0.208
-548.339	358.711	0.109	0.218
-547.325	-200.000	-0.046	-0.475
-546.310	-200.000	0.066	-0.313
-545.296	178.461	-0.153	0.223
-544.281	-117.383	0.143	0.026
-543.266	-110.285	-0.164	0.034
-542.252	-82.884	0.200	0.065
-541.237	-200.000	-0.005	-0.202
-540.223	-142.114	-0.250	0.025
-539.208	792.574	0.102	-0.281
-538.193	-200.000	-0.012	-0.461
-537.179	68.962	0.071	-0.073
-536.164	686.464	-0.112	0.293
-535.150	37.169	-0.213	0.188
-534.135	18.460	0.421	0.335
-533.121	-63.284	0.465	-0.191
-532.106	-148.150	-0.035	-0.003
-531.091	-63.947	-0.019	-0.008
-530.077	-89.694	-0.218	0.064
-529.062	-200.000	0.041	0.245
-528.048	16.523	-0.337	-0.265
-527.033	-32.696	-0.103	0.057
-526.018	800.000	-0.070	-0.284
-525.004	-156.696	-0.298	-0.018
-523.989	391.185	0.011	-0.022
-522.975	412.088	0.109	0.231
-521.960	161.057	-0.130	-0.182
-520.945	-200.000	-0.030	0.316
-519.931	800.000	-0.068	0.195
-518.916	168.936	0.178	0.254
-517.902	-200.000	-0.001	0.070
-516.887	-5.042	-0.228	0.157
-515.872	-28.142	-0.163	0.094
-514.858	746.964	0.096	-0.258
-513.843	-200.000	0.049	-0.244
-512.829	-189.036	-0.046	-0.001
-511.814	-52.707	-0.348	0.160
-510.799	800.000	0.098	0.305
-509.785	-181.967	-0.366	-0.007
-508.770	-91.178	-0.119	0.034
-507.756	115.196	-0.275	0.335
-506.741	350.370	0.216	0.425
-505.726	-16.433	-0.069	-0.044
-504.712	-200.000	0.023	0.240
-503.697	-71.579	0.439	0.163
-502.683	-33.019	0.207	0.115
-501.668	-200.000	-0.015	-0.094
-500.653	-20.453	0.104	-0.064
-499.639	-200.000	0.039	0.293
-498.624	150.873	0.078	-0.106
-497.610	-57.542	-0.164	0.072
-496.595	373.118	-0.023	-0.048
-495.581	-20.862	-0.210	0.128
-494.566	-200.000	-0.019	-0.103
-493.551	73.534	-0.267	0.278
-492.537	-110.331	0.201	0.042
-491.522	-92.152	0.116	0.033
-490.508	800.000	-0.095	-0.264
-489.493	-158.680	0.413	0.024
-488.478	-200.000	-0.003	-0.023
-487.464	219.995	0.051	0.081
-486.449	-1.955	0.196	-0.137
-485.435	-200.000	0.030	0.238
-484.420	-60.017	-0.092	0.039
-483.405	170.375	0.012	-0.018
-482.391	500.480	-0.132	0.304
-481.376	507.131	0.201	-0.464
-480.362	-78.471	0.371	-0.127
-479.347	-71.295	0.174	0.065
-478.332	656.743	0.092	0.235
-477.318	240.779	0.063	-0.104
-476.303	-164.252	-0.166	0.008
-475.289	-200.000	-0.018	-0.354
-474.274	259.272	0.139	-0.239
-473.259	37.569	0.414	0.365
-472.245	265.550	-0.097	-0.168
-471.230	-151.712	0.129	-0.009
-470.216	-53.087	-0.252	0.115
-469.201	280.324	0.103	0.184
-468.186	213.337	0.083	0.130
-467.172	3.392	-0.232	-0.168
-466.157	234.016	-0.185	-0.303
-465.143	-200.000	-0.027	0.222
-464.128	123.703	-0.100	0.125
-463.113	391.888	0.038	-0.078
-462.099	59.111	-0.107	0.105
-461.084	215.599	-0.078	0.123
-460.070	-115.371	0.249	-0.047
-459.055	800.000	-0.072	-0.203
-458.040	-51.415	-0.343	0.159
-457.026	-148.542	0.165	0.013
-456.011	108.760	0.222	-0.264
-454.997	24.105	0.271	-0.222
-453.982	-160.108	0.348	-0.019
-452.968	-52.866	-0.202	0.092
-451.953	-9.509	-0.233	0.154
-450.938	-165.093	-0.193	0.009
-449.924	-177.066	0.225	-0.006
-448.909	428.211	-0.199	-0.428
-447.895	124.542	0.091	0.114
-446.880	-19.620	0.185	0.114
-445.865	216.759	0.070	0.111
-444.851	-191.013	0.191	0.002
-443.836	-200.000	0.056	-0.301
-442.822	-200.000	-0.379	0.002
-441.807	142.328	-0.173	0.228
-440.792	-60.373	-0.273	-0.115
-439.778	-105.375	0.458	-0.104
-438.763	-200.000	0.015	-0.212
-437.749	4.117	0.184	0.134
-436.734	213.263	-0.070	-0.109
-435.719	23.590	0.099	-0.081
-434.705	5.449	-0.083	-0.061
-433.690	-200.000	-0.006	0.313
-432.676	-8.968	0.147	0.098
-431.661	-80.207	-0.149	-0.050
-430.646	-104.964	-0.071	0.016
-429.632	800.000	0.048	0.167
-428.617	-65.824	0.080	0.032
-427.603	-23.954	0.130	0.077
-426.588	-119.577	0.306	0.053
-425.573	-126.279	-0.066	0.010
-424.559	7.232	0.235	-0.174
-423.544	247.840	-0.180	0.302
-422.530	-103.412	0.295	0.069
-421.515	88.976	0.166	-0.183
-420.500	241.782	-0.053	0.088
-419.486	800.000	-0.073	0.205
-418.471	-168.321	0.346	0.013
-417.457	-126.506	0.164	-0.024
-416.442	-43.201	0.284	-0.143
-415.428	-132.662	-0.253	-0.032
-414.413	14.005	-0.020	-0.015
-413.398	-60.328	-0.155	0.066
-412.384	113.000	-0.151	-0.181
-411.369	-200.000	-0.043	-0.196
-410.355	-200.000	-0.020	-0.252
-409.340	266.917	0.134	-0.233
-408.325	23.089	-0.301	0.245
-407.311	275.103	0.133	0.233
-406.296	-152.458	0.166	-0.012
-405.282	800.000	0.083	-0.233
-404.267	-129.149	-0.136	0.019
-403.252	-28.847	0.082	-0.047
-402.238	-146.574	-0.222	0.019
-401.223	-200.000	0.012	-0.163
-400.209	351.196	0.079	0.156
-399.194	-200.000	0.005	-0.039
-398.179	-103.073	-0.157	0.037
-397.165	-8.947	-0.152	0.101
-396.150	-7.204	-0.074	-0.049
-395.136	230.541	0.196	-0.317
-394.121	-36.498	-0.185	0.099
-393.106	-13.412	0.125	0.080
-392.092	299.312	0.118	0.215
-391.077	-79.803	0.182	0.061
-390.063	743.850	0.032	0.085
-389.048	-200.000	0.042	0.230
-388.033	373.605	0.146	0.295
-387.019	-88.752	-0.165	-0.049
-386.004	-117.550	0.111	0.020
-384.990	104.451	-0.227	0.265
-383.975	-200.000	0.007	-0.199
-382.960	800.000	-0.073	0.282
-381.946	359.239	-0.120	-0.238
-380.931	-64.708	0.091	0.037
-379.917	-200.000	-0.015	0.126
-378.902	800.000	0.034	-0.114
-377.888	402.171	0.145	0.302
-376.873	-17.407	-0.086	0.054
-375.858	313.478	0.205	0.382
-374.844	125.339	-0.127	0.159
-373.829	250.414	-0.087	0.146
-372.815	34.925	0.239	-0.207
-371.800	32.072	0.156	0.133
-370.785	181.947	-0.179	-0.261
-369.771	15.929	0.248	0.193
-368.756	-21.686	0.146	0.088
-367.742	800.000	-0.056	-0.169
-366.727	-57.174	-0.181	0.079
-365.712	-87.172	0.238	0.072
-364.698	-24.481	-0.387	-0.228
-363.683	694.756	-0.071	0.183
-362.669	65.175	0.220	0.221
-361.654	86.656	0.073	0.080
-360.639	-200.000	-0.002	-0.350
-359.625	-114.330	-0.207	-0.040
-358.610	118.466	0.161	0.197
-357.596	-200.000	0.061	0.342
-356.581	-200.000	-0.012	-0.216
-355.566	65.758	0.274	-0.275
-354.552	324.273	0.072	-0.136
-353.537	-163.982	-0.329	0.015
-352.523	-111.979	-0.230	0.046
-351.508	31.880	0.293	0.250
-350.493	-14.391	-0.297	-0.189
-349.479	-126.389	0.332	0.049
-348.464	395.771	0.041	-0.084
-347.450	164.321	-0.149	0.208
-346.435	-64.596	0.247	0.099
-345.420	-200.000	0.008	-0.258
-344.406	-200.000	-0.015	0.294
-343.391	800.000	-0.019	0.075
-342.377	220.735	0.059	-0.094
-341.362	-107.971	0.246	0.053
-340.348	558.091	-0.164	-0.392
-339.333	-200.000	0.088	-0.468
-338.318	277.416	-0.056	0.099
-337.304	129.328	0.138	0.175
-336.289	-83.038	0.175	0.056
-335.275	-146.733	0.359	0.031
-334.260	569.012	0.039	0.095
-333.245	-200.000	-0.019	0.173
-332.231	97.089	-0.114	0.129
-331.216	311.692	-0.104	-0.194
-330.202	-200.000	-0.001	0.320
-329.187	-101.731	0.182	-0.044
-328.172	38.884	0.286	0.253
-327.158	76.123	-0.002	0.002
-326.143	-200.000	-0.039	0.276
-325.129	79.942	-0.121	-0.129
-324.114	800.000	-0.049	0.179
-323.099	-16.008	-0.050	-0.032
-322.085	21.198	-0.185	0.148
-321.070	-91.189	-0.429	-0.122
-320.056	-200.000	0.029	0.325
-319.041	-200.000	0.039	0.186
-318.026	69.996	-0.078	0.079
-317.012	169.027	0.136	-0.193
-315.997	120.106	-0.128	0.158
-314.983	-200.000	-0.011	-0.098
-313.968	-72.237	0.245	0.090
-312.953	-200.000	0.002	-0.098
-311.939	39.552	0.031	-0.028
-310.924	8.121	0.168	0.125
-309.910	250.351	0.158	-0.265
-308.895	-115.837	-0.278	-0.051
-307.880	165.455	-0.079	-0.110
-306.866	800.000	-0.060	-0.183
-305.851	-102.387	-0.369	-0.087
-304.837	94.858	-0.140	-0.157
-303.822	59.750	-0.050	0.049
-302.807	-60.648	-0.356	-0.149
-301.793	28.285	-0.145	-0.121
-300.778	-14.886	-0.269	-0.171
-299.764	177.941	0.155	0.223
-298.749	-200.000	0.052	0.252
-297.735	-200.000	-0.015	0.208
-296.720	800.000	0.108	-0.357
-295.705	122.188	0.249	0.307
-294.691	-200.000	0.049	0.449
-293.676	125.565	-0.133	-0.166
-292.662	-72.265	0.289	-0.106
-291.647	-123.893	-0.043	0.007
-290.632	-64.696	-0.235	-0.094
-289.618	66.681	0.113	-0.113
-288.603	448.543	-0.043	0.095
-287.589	-84.085	0.312	-0.098
-286.574	-200.000	-0.041	-0.301
-285.559	34.778	0.484	-0.419
-284.545	10.505	0.131	-0.099
-283.530	-192.966	-0.305	0.003
-282.516	-120.564	0.268	0.045
-281.501	-43.667	0.043	-0.022
-280.486	106.821	-0.152	0.178
-279.472	-200.000	0.038	0.267
-278.457	-20.146	0.248	0.151
-277.443	-200.000	-0.010	0.355
-276.428	124.645	0.139	-0.172
-275.413	-1.351	-0.176	-0.122
-274.399	241.024	0.098	0.162
-273.384	52.189	0.105	0.099
-272.370	2.428	0.211	-0.151
-271.355	618.843	-0.066	0.165
-270.340	-200.000	-0.029	-0.169
-269.326	-132.933	-0.241	0.030
-268.311	524.739	-0.141	-0.326
-267.297	-200.000	-0.041	0.294
-266.282	-200.000	-0.035	-0.233
-265.267	-200.000	0.015	-0.199
-264.253	254.295	-0.152	-0.257
-263.238	800.000	0.111	-0.346
-262.224	132.157	-0.018	0.023
-261.209	46.375	0.091	-0.083
-260.195	532.482	0.063	0.146
-259.180	28.847	0.118	-0.098
-258.165	-56.175	0.122	-0.054
-257.151	4.338	0.193	-0.140
-256.136	43.769	-0.110	0.099
-255.122	-46.315	-0.333	0.162
-254.107	-137.147	0.048	0.005
-253.092	-29.363	-0.133	0.075
-252.078	204.951	-0.092	-0.141
-251.063	101.047	0.287	-0.329
-250.049	240.746	-0.182	0.300
-249.034	70.197	0.079	-0.081
-248.019	152.130	0.199	-0.267
-247.005	-117.045	0.189	0.034
-245.990	-64.565	-0.270	0.108
-244.976	-200.000	0.019	0.120
-243.961	52.004	0.100	0.094
-242.946	163.029	-0.107	0.149
-241.932	30.870	-0.348	0.294
-240.917	211.902	0.147	-0.228
-239.903	126.838	0.204	0.255
-238.888	-200.000	-0.014	0.086
-237.873	304.636	0.123	-0.224
-236.859	-200.000	-0.015	-0.380
-235.844	-112.056	-0.118	0.023
-234.830	-25.808	-0.059	-0.034
-233.815	800.000	0.082	0.237
-232.800	-79.598	-0.258	-0.086
-231.786	-81.752	0.094	0.030
-230.771	-83.221	0.070	-0.022
-229.757	800.000	-0.045	-0.166
-228.742	-200.000	-0.027	-0.270
-227.727	-136.597	-0.197	0.022
-226.713	25.986	0.189	0.155
-225.698	60.889	0.159	0.156
-224.684	65.529	-0.112	-0.112
-223.669	175.109	0.126	0.180
-222.655	293.104	0.095	0.172
-221.640	-97.050	-0.203	-0.052
-220.625	-15.326	-0.381	0.240
-219.611	-125.517	-0.112	0.017
-218.596	-200.000	-0.024	0.289
-217.582	78.536	-0.184	-0.193
-216.567	176.013	0.129	0.185
-215.552	57.230	0.052	-0.050
-214.538	-122.350	0.113	-0.018
-213.523	-95.659	-0.127	-0.033
-212.509	11.994	0.290	0.220
-211.494	457.846	-0.027	-0.058
-210.479	800.000	-0.036	0.109
-209.465	-91.744	-0.122	0.034
-208.450	-97.598	-0.018	0.004
-207.436	800.000	-0.013	-0.050
-206.421	-40.842	0.173	-0.088
-205.406	29.389	-0.039	-0.033
-204.392	-74.380	-0.209	-0.074
-203.377	800.000	0.027	0.116
-202.363	62.551	0.195	-0.192
-201.348	361.137	0.089	-0.175
-200.333	103.590	0.174	0.201
-199.319	104.472	-0.116	-0.135
-198.304	120.266	-0.179	0.218
-197.290	800.000	-0.117	-0.391
-196.275	-48.916	0.209	0.099
-195.260	800.000	-0.014	0.050
-194.246	-200.000	0.021	-0.167
-193.231	-46.001	0.203	-0.099
-192.217	-105.136	-0.208	-0.047
-191.202	391.370	0.100	0.205
-190.187	-33.120	0.188	0.103
-189.173	-200.000	0.020	-0.264
-188.158	-200.000	0.029	0.150
-187.144	-200.000	-0.028	-0.179
-186.129	-18.396	-0.223	0.137
-185.114	29.068	0.292	-0.243
-184.100	4.835	0.126	-0.091
-183.085	237.219	0.104	0.169
-182.071	-160.201	-0.200	-0.011
-181.056	-137.818	-0.135	0.015
-180.042	-159.954	-0.126	-0.007
-179.027	386.777	0.119	-0.242
-178.012	-200.000	-0.016	-0.238
-176.998	58.446	-0.130	0.126
-175.983	-74.164	-0.162	0.058
-174.969	16.110	-0.310	-0.240
-173.954	-135.578	-0.273	0.032
-172.939	441.497	-0.058	-0.126
-171.925	800.000	0.082	-0.290
-170.910	604.297	0.061	0.149
-169.896	149.571	0.190	-0.253
-168.881	549.413	-0.128	-0.301
-167.866	277.963	0.117	-0.204
-166.852	396.994	0.038	-0.078
-165.837	-143.060	-0.208	0.020
-164.823	5.108	0.092	0.067
-163.808	-71.346	-0.220	-0.081
-162.793	102.277	-0.299	0.344
-161.779	-165.666	-0.299	-0.013
-160.764	-11.108	0.226	0.147
-159.750	-133.691	0.096	0.012
-158.735	385.554	0.052	0.106
-157.720	294.516	0.072	0.130
-156.706	241.985	0.059	0.097
-155.691	-40.923	-0.239	-0.122
-154.677	272.826	0.026	-0.046
-153.662	107.032	0.046	0.053
-152.647	170.281	0.208	0.292
-151.633	-200.000	0.014	-0.104
-150.618	-200.000	-0.011	-0.293
-149.604	149.344	0.069	0.092
-148.589	800.000	-0.093	-0.304
-147.574	213.493	-0.108	-0.168
-146.560	-108.450	-0.195	-0.041
-145.545	-200.000	-0.019	0.150
-144.531	800.000	-0.062	0.175
-143.516	-67.833	-0.051	0.020
-142.502	-200.000	-0.009	-0.148
-141.487	172.020	-0.156	0.220
-140.472	161.908	0.275	0.378
-139.458	-16.467	-0.066	-0.041
-138.443	-35.507	0.183	0.098
-137.429	-183.760	0.277	0.005
-136.414	-12.337	0.053	0.034
-135.399	-102.893	0.285	-0.067
-134.385	73.311	0.029	-0.030
-133.370	-101.172	0.331	0.080
-132.356	-21.549	0.039	-0.023
-131.341	-100.961	0.370	0.089
-130.326	102.054	0.116	-0.133
-129.312	-66.649	-0.163	0.064
-128.297	-50.344	0.137	0.064
-127.283	-142.939	-0.136	0.013
-126.268	242.938	-0.188	0.309
-125.253	265.740	0.066	-0.113
-124.239	-122.090	0.221	0.036
-123.224	-8.712	-0.087	0.057
-122.210	217.444	-0.049	-0.077
-121.195	351.602	0.056	0.108
