DTS Sentinel unit serial number:	SN413079Multiplexer serial number:	ORYXHardware model number:	OX4-SRSoftware version number:	ORYX F/W v4.00 Oryx Data Collector v3.7.2.0data status	okinstallation	princeton_trtdifferential loss correction	single-endedforward channel	channel 2reverse channel	N/Adate	2019/09/11time	08:17:11forward acquisition time	60.00reverse acquisition time	0.00gamma	496.2192k internal	0.2323k external	0.2323temperature offset calibration	0.9969default loss term (dB/km)	0.3790temperature slope calibration	1.0000multiplexer offset coefficient	1.0000multiplexer slope coefficient	1.0000fibre end	0.00T internal ref (°C)	32.62T ext. ref 1 (°C)	0.12T ext. ref 2 (°C)	29.64length (m)	temperature (°C)	Stokes	anti-Stokes-747.200	435.774	0.113	0.249
-746.185	-74.424	-0.310	0.113
-745.171	-200.000	-0.019	-0.085
-744.156	115.013	-0.162	0.200
-743.142	-128.095	-0.251	-0.036
-742.127	297.156	0.048	-0.090
-741.112	-198.931	0.123	-0.001
-740.098	-200.000	-0.007	0.045
-739.083	-59.574	-0.215	0.093
-738.069	83.523	-0.142	0.156
-737.054	-126.481	0.093	0.014
-736.039	152.630	-0.131	-0.181
-735.025	800.000	0.042	0.181
-734.010	800.000	-0.065	-0.265
-732.996	233.098	-0.088	-0.145
-731.981	-49.394	-0.362	0.174
-730.966	20.559	-0.191	0.156
-729.952	-51.645	-0.417	0.196
-728.937	231.764	-0.139	-0.231
-727.923	158.229	-0.162	-0.227
-726.908	-84.308	-0.287	-0.092
-725.894	112.718	-0.029	-0.036
-724.879	107.033	-0.185	-0.222
-723.864	-200.000	0.006	-0.093
-722.850	181.786	-0.053	-0.079
-721.835	-130.341	0.139	-0.019
-720.821	62.015	-0.111	-0.111
-719.806	-173.350	0.192	0.006
-718.791	386.294	0.100	0.207
-717.777	800.000	-0.125	-0.373
-716.762	-72.707	-0.069	-0.026
-715.748	-29.201	0.007	0.004
-714.733	54.152	-0.170	0.165
-713.718	-115.821	0.093	-0.018
-712.704	800.000	0.059	-0.252
-711.689	229.881	-0.073	-0.120
-710.675	53.056	-0.239	-0.231
-709.660	-110.911	-0.184	0.038
-708.645	-66.043	-0.183	-0.074
-707.631	-124.346	0.393	0.062
-706.616	-20.928	0.061	-0.037
-705.602	547.129	0.141	-0.339
-704.587	-61.215	-0.376	0.160
-703.572	-200.000	0.102	0.530
-702.558	-142.094	-0.353	-0.035
-701.543	-95.633	-0.289	-0.078
-700.529	-2.611	0.044	-0.031
-699.514	-45.211	-0.317	0.159
-698.499	-147.553	-0.127	-0.011
-697.485	234.153	-0.140	-0.233
-696.470	27.199	-0.270	-0.229
-695.456	275.785	-0.093	-0.167
-694.441	259.594	-0.056	-0.097
-693.426	800.000	0.093	-0.289
-692.412	-45.477	0.091	-0.045
-691.397	-95.578	-0.017	-0.005
-690.383	-170.662	-0.270	0.009
-689.368	19.820	0.182	0.148
-688.354	-200.000	-0.007	0.302
-687.339	89.370	-0.095	0.107
-686.324	232.682	0.128	0.211
-685.310	184.516	-0.056	0.083
-684.295	31.909	-0.285	-0.247
-683.281	-68.622	-0.184	-0.072
-682.266	5.259	-0.173	0.128
-681.251	-80.474	-0.194	-0.065
-680.237	3.320	-0.110	0.080
-679.222	-124.674	0.162	-0.025
-678.208	-181.710	-0.134	-0.003
-677.193	79.637	-0.199	-0.215
-676.178	40.338	-0.180	-0.163
-675.164	14.220	0.032	-0.025
-674.149	-119.475	-0.362	-0.063
-673.135	-200.000	0.022	-0.278
-672.120	-51.350	-0.186	0.087
-671.105	126.796	0.150	0.191
-670.091	20.434	-0.214	-0.174
-669.076	-113.015	-0.352	-0.070
-668.062	299.375	0.201	-0.373
-667.047	800.000	-0.122	-0.370
-666.032	-200.000	-0.003	-0.190
-665.018	68.224	0.243	-0.250
-664.003	35.194	0.100	-0.088
-662.989	-142.216	0.303	0.030
-661.974	101.036	-0.167	-0.195
-660.959	800.000	-0.083	0.258
-659.945	-200.000	-0.026	0.158
-658.930	-63.974	-0.287	0.118
-657.916	291.812	-0.038	-0.069
-656.901	-200.000	-0.024	-0.377
-655.886	-40.368	0.065	-0.034
-654.872	175.092	-0.039	0.057
-653.857	8.328	0.378	-0.286
-652.843	-200.000	0.030	0.251
-651.828	800.000	0.046	-0.186
-650.814	-200.000	0.001	0.216
-649.799	800.000	-0.039	0.124
-648.784	-200.000	0.018	0.315
-647.770	800.000	0.036	0.106
-646.755	-130.651	0.135	-0.018
-645.741	-138.959	-0.130	-0.014
-644.726	5.203	-0.323	-0.239
-643.711	-45.916	0.200	-0.099
-642.697	-109.486	0.042	0.009
-641.682	104.677	-0.192	-0.227
-640.668	-200.000	0.010	0.205
-639.653	131.389	0.197	0.254
-638.638	163.710	0.162	-0.229
-637.624	-55.807	-0.170	-0.076
-636.609	273.562	0.040	0.071
-635.595	-151.675	-0.506	-0.037
-634.580	-13.594	-0.274	0.179
-633.565	17.276	0.050	0.040
-632.551	57.340	0.210	0.206
-631.536	259.254	0.078	0.136
-630.522	-81.879	-0.214	-0.070
-629.507	-75.259	-0.026	-0.009
-628.492	154.833	0.045	-0.062
-627.478	-200.000	-0.023	-0.165
-626.463	41.694	-0.047	-0.043
-625.449	-128.697	0.129	-0.018
-624.434	-12.675	-0.044	-0.029
-623.419	-10.720	-0.217	0.144
-622.405	-200.000	-0.010	0.100
-621.390	800.000	-0.026	-0.087
-620.376	-6.401	-0.219	0.150
-619.361	-12.789	-0.261	-0.171
-618.346	-169.324	0.042	-0.002
-617.332	101.990	-0.237	-0.278
-616.317	800.000	-0.098	0.357
-615.303	271.765	-0.252	-0.447
-614.288	-77.621	-0.244	0.085
-613.273	274.659	0.068	0.120
-612.259	81.366	0.347	0.377
-611.244	5.546	-0.335	0.248
-610.230	-200.000	0.059	-0.360
-609.215	-166.993	0.259	-0.011
-608.201	-70.795	-0.058	0.022
-607.186	326.422	-0.169	-0.326
-606.171	-176.697	0.401	-0.010
-605.157	188.023	-0.185	-0.278
-604.142	135.686	-0.157	-0.205
-603.128	-126.834	0.133	0.020
-602.113	-200.000	0.009	-0.216
-601.098	-128.966	-0.119	-0.017
-600.084	134.756	-0.104	0.135
-599.069	-142.167	0.454	0.045
-598.055	230.994	0.076	-0.125
-597.040	-32.019	0.315	0.177
-596.025	-200.000	-0.008	0.133
-595.011	-50.369	-0.107	-0.051
-593.996	-96.048	-0.231	0.062
-592.982	800.000	0.056	-0.158
-591.967	-103.207	0.169	-0.040
-590.952	-0.379	0.349	-0.249
-589.938	-200.000	-0.005	-0.212
-588.923	134.219	0.178	0.231
-587.909	800.000	-0.029	0.089
-586.894	-49.861	-0.182	0.087
-585.879	525.649	-0.038	-0.089
-584.865	-116.891	0.302	-0.055
-583.850	-59.360	-0.256	0.110
-582.836	-200.000	-0.002	-0.092
-581.821	361.427	-0.194	-0.390
-580.806	379.821	0.060	0.123
-579.792	-200.000	0.042	0.379
-578.777	274.269	-0.197	-0.349
-577.763	-156.282	-0.350	-0.022
-576.748	109.342	-0.085	-0.102
-575.733	-70.209	0.348	-0.133
-574.719	158.746	-0.286	-0.399
-573.704	-91.662	0.166	0.047
-572.690	-21.208	-0.220	-0.135
-571.675	-60.452	-0.135	-0.057
-570.661	-200.000	-0.004	0.083
-569.646	339.010	-0.147	0.286
-568.631	-115.109	-0.168	0.032
-567.617	132.681	0.201	-0.260
-566.602	682.012	-0.084	-0.220
-565.588	77.253	-0.208	-0.222
-564.573	-82.191	0.066	0.021
-563.558	-105.387	0.286	-0.065
-562.544	-141.884	0.062	-0.006
-561.529	-135.902	0.335	0.040
-560.515	-44.046	0.187	-0.094
-559.500	800.000	0.061	0.221
-558.485	800.000	0.064	0.235
-557.471	-99.183	-0.222	0.056
-556.456	-145.693	-0.212	-0.019
-555.442	99.533	0.179	0.208
-554.427	-200.000	-0.007	-0.192
-553.412	-196.107	0.199	-0.001
-552.398	104.280	0.148	-0.174
-551.383	-87.149	-0.374	-0.114
-550.369	-115.654	0.259	-0.049
-549.354	156.282	-0.186	0.258
-548.339	800.000	-0.071	0.205
-547.325	-11.674	-0.152	-0.100
-546.310	800.000	0.041	0.148
-545.296	-171.139	-0.226	0.008
-544.281	-200.000	0.021	-0.228
-543.266	139.729	0.067	0.089
-542.252	-200.000	-0.032	0.213
-541.237	-200.000	0.022	0.110
-540.223	-120.487	0.452	-0.077
-539.208	-0.721	-0.331	0.235
-538.193	349.133	-0.164	-0.324
-537.179	238.389	-0.115	-0.192
-536.164	-30.036	0.165	-0.094
-535.150	54.365	-0.142	0.137
-534.135	800.000	0.049	-0.150
-533.121	-107.786	0.087	0.019
-532.106	800.000	0.091	-0.271
-531.091	557.361	0.018	-0.044
-530.077	800.000	0.039	0.172
-529.062	787.798	0.036	-0.098
-528.048	-163.712	-0.502	0.024
-527.033	94.065	-0.095	0.108
-526.018	-200.000	0.017	-0.089
-525.004	275.237	0.047	0.084
-523.989	-106.266	-0.102	-0.023
-522.975	-200.000	-0.029	-0.131
-521.960	142.598	-0.099	-0.132
-520.945	-78.135	0.136	0.047
-519.931	800.000	-0.082	0.339
-518.916	216.299	0.066	0.105
-517.902	-104.101	-0.048	-0.011
-516.887	529.061	-0.120	-0.284
-515.872	284.797	-0.019	0.035
-514.858	-95.846	0.137	0.037
-513.843	-200.000	-0.002	0.219
-512.829	118.930	-0.191	-0.236
-511.814	-200.000	0.002	0.140
-510.799	800.000	0.040	0.113
-509.785	113.536	0.107	-0.131
-508.770	618.084	0.072	-0.180
-507.756	449.730	0.004	0.009
-506.741	106.629	-0.318	-0.378
-505.726	276.913	-0.218	-0.389
-504.712	88.397	0.045	-0.050
-503.697	309.977	0.022	-0.041
-502.683	53.512	-0.096	-0.092
-501.668	378.638	0.119	-0.244
-500.653	135.723	0.205	0.267
-499.639	800.000	-0.060	0.197
-498.624	-47.189	0.228	0.111
-497.610	-59.050	0.537	0.232
-496.595	99.190	0.115	0.133
-495.581	-26.815	-0.431	0.252
-494.566	-86.914	0.171	0.052
-493.551	75.857	0.149	0.158
-492.537	-116.701	0.147	0.027
-491.522	214.137	0.221	-0.349
-490.508	104.993	-0.316	-0.372
-489.493	46.351	-0.081	0.075
-488.478	-7.217	-0.082	0.056
-487.464	235.793	-0.095	-0.157
-486.449	131.790	-0.100	-0.129
-485.435	83.700	-0.163	-0.178
-484.420	-200.000	0.014	-0.224
-483.405	-113.968	-0.207	-0.040
-482.391	-38.318	0.186	0.098
-481.376	-200.000	0.005	-0.060
-480.362	800.000	0.018	-0.076
-479.347	34.043	0.121	0.105
-478.332	236.722	-0.220	0.365
-477.318	-40.762	-0.133	0.069
-476.303	338.360	0.128	0.250
-475.289	-72.783	-0.270	0.099
-474.274	280.852	-0.067	0.121
-473.259	-200.000	-0.014	0.088
-472.245	-200.000	-0.038	0.228
-471.230	-89.912	0.434	0.127
-470.216	207.985	-0.223	-0.349
-469.201	-192.124	0.210	-0.002
-468.186	-114.854	0.176	0.033
-467.172	309.029	-0.087	-0.162
-466.157	-112.816	0.325	-0.064
-465.143	178.808	-0.109	0.159
-464.128	-200.000	0.022	0.171
-463.113	731.840	-0.067	-0.180
-462.099	185.612	-0.109	-0.162
-461.084	225.438	-0.098	-0.159
-460.070	-120.723	-0.109	0.018
-459.055	-200.000	-0.025	-0.279
-458.040	800.000	0.082	0.300
-457.026	-171.143	0.353	0.012
-456.011	-200.000	0.025	0.111
-454.997	378.773	-0.064	0.132
-453.982	-200.000	0.017	0.141
-452.968	-71.727	-0.240	-0.089
-451.953	-200.000	-0.016	-0.210
-450.938	183.828	-0.027	-0.040
-449.924	58.830	0.269	0.264
-448.909	248.835	-0.075	0.127
-447.895	-109.937	0.076	0.016
-446.880	-47.071	0.081	0.039
-445.865	-108.508	-0.041	-0.009
-444.851	-169.881	-0.127	-0.005
-443.836	-168.405	-0.187	-0.007
-442.822	-126.712	0.015	-0.002
-441.807	238.727	0.235	-0.390
-440.792	800.000	0.024	-0.074
-439.778	-200.000	0.014	-0.196
-438.763	-59.359	-0.132	0.056
-437.749	262.551	-0.167	-0.290
-436.734	-146.208	0.179	-0.016
-435.719	-200.000	0.049	-0.384
-434.705	96.386	-0.240	0.274
-433.690	148.399	0.135	0.181
-432.676	-40.088	-0.119	-0.062
-431.661	-200.000	-0.058	-0.298
-430.646	-91.246	-0.197	-0.056
-429.632	800.000	0.153	0.481
-428.617	-200.000	-0.001	0.037
-427.603	-200.000	0.025	0.215
-426.588	306.190	0.085	0.157
-425.573	-81.219	-0.230	-0.076
-424.559	61.521	-0.238	-0.236
-423.544	-200.000	-0.014	-0.127
-422.530	-83.679	-0.229	0.073
-421.515	-200.000	0.003	0.025
-420.500	-85.315	-0.086	-0.027
-419.486	-69.807	-0.374	-0.143
-418.471	76.876	0.138	0.146
-417.457	-90.556	-0.132	0.038
-416.442	91.527	0.107	-0.120
-415.428	800.000	-0.040	-0.164
-414.413	-200.000	0.006	0.241
-413.398	5.199	-0.058	0.043
-412.384	450.127	-0.068	0.149
-411.369	-122.552	0.017	-0.003
-410.355	403.616	0.076	-0.158
-409.340	796.495	0.074	-0.204
-408.325	-200.000	0.007	-0.249
-407.311	225.830	-0.215	-0.348
-406.296	-79.824	0.271	-0.091
-405.282	-71.408	-0.255	0.095
-404.267	37.708	-0.225	-0.199
-403.252	108.018	-0.115	0.136
-402.238	-133.709	-0.252	0.031
-401.223	-166.695	0.121	0.005
-400.209	452.569	-0.034	0.074
-399.194	-47.346	0.068	-0.033
-398.179	-200.000	-0.036	-0.226
-397.165	721.772	-0.032	0.086
-396.150	-200.000	-0.027	0.234
-395.136	124.055	-0.071	0.089
-394.121	-200.000	-0.036	0.177
-393.106	-36.313	0.155	-0.083
-392.092	191.997	-0.178	-0.267
-391.077	0.320	0.119	0.085
-390.063	-200.000	0.013	0.132
-389.048	-200.000	-0.017	-0.143
-388.033	278.568	0.139	0.247
-387.019	-92.931	-0.126	0.035
-386.004	-109.558	-0.195	-0.041
-384.990	21.281	0.100	-0.080
-383.975	91.068	-0.179	0.200
-382.960	318.520	0.204	-0.385
-381.946	800.000	-0.059	0.176
-380.931	-200.000	-0.023	0.259
-379.917	-200.000	-0.027	-0.135
-378.902	188.333	-0.166	-0.247
-377.888	-167.689	-0.296	-0.012
-376.873	-99.668	0.135	-0.034
-375.858	13.503	0.134	0.104
-374.844	800.000	0.030	0.115
-373.829	-138.259	0.158	0.017
-372.815	-93.642	0.430	-0.118
-371.800	14.567	-0.232	0.181
-370.785	-200.000	-0.013	0.086
-369.771	-155.228	-0.107	-0.007
-368.756	681.147	-0.037	0.097
-367.742	-120.084	0.207	-0.035
-366.727	216.386	0.027	0.042
-365.712	800.000	0.121	-0.360
-364.698	-36.663	-0.247	0.132
-363.683	-43.453	-0.299	0.150
-362.669	-200.000	-0.007	-0.046
-361.654	-76.532	0.195	0.068
-360.639	-200.000	-0.033	-0.267
-359.625	50.065	-0.189	0.178
-358.610	103.593	0.070	0.082
-357.596	-125.626	-0.084	0.013
-356.581	77.883	0.113	0.120
-355.566	-80.690	-0.078	0.026
-354.552	150.652	0.049	0.066
-353.537	45.436	-0.144	0.133
-352.523	-200.000	0.296	0.001
-351.508	-42.132	0.072	-0.036
-350.493	276.029	0.017	-0.030
-349.479	-200.000	0.047	-0.243
-348.464	65.190	-0.230	0.231
-347.450	74.974	0.149	0.156
-346.435	98.546	-0.140	0.160
-345.420	-200.000	0.073	0.413
-344.406	-19.674	0.243	0.149
-343.391	-200.000	-0.009	-0.192
-342.377	-71.007	-0.095	0.036
-341.362	160.908	-0.126	0.176
-340.348	-200.000	0.001	0.251
-339.333	800.000	-0.065	-0.231
-338.318	695.520	-0.051	-0.133
-337.304	665.499	0.121	0.312
-336.289	193.100	0.068	-0.102
-335.275	-88.118	0.394	-0.117
-334.260	326.209	0.095	0.181
-333.245	-153.423	0.307	-0.021
-332.231	71.584	-0.047	0.048
-331.216	109.987	-0.181	0.216
-330.202	283.091	0.145	0.258
-329.187	-131.913	0.403	-0.052
-328.172	-46.326	0.229	-0.112
-327.158	28.715	-0.130	-0.109
-326.143	-45.547	-0.291	0.143
-325.129	237.025	0.138	0.227
-324.114	7.261	0.298	0.221
-323.099	800.000	-0.068	0.233
-322.085	-147.740	0.290	0.024
-321.070	-24.429	-0.043	-0.025
-320.056	152.985	0.216	-0.293
-319.041	-112.143	-0.180	-0.036
-318.026	-91.482	0.263	-0.075
-317.012	57.596	-0.140	-0.136
-315.997	670.463	-0.014	0.036
-314.983	-153.023	-0.130	0.009
-313.968	256.285	0.074	-0.126
-312.953	-104.061	-0.118	-0.027
-311.939	800.000	-0.012	-0.046
-310.924	149.782	-0.206	0.277
-309.910	-12.616	-0.262	0.169
-308.895	-192.855	0.320	0.003
-307.880	14.907	-0.157	0.122
-306.866	-86.206	0.162	0.050
-305.851	-163.796	0.180	-0.008
-304.837	477.909	0.135	-0.303
-303.822	-119.100	-0.276	0.048
-302.807	29.773	-0.214	0.181
-301.793	800.000	-0.071	0.217
-300.778	-200.000	-0.428	0.001
-299.764	-53.347	-0.200	-0.091
-298.749	-200.000	-0.031	0.385
-297.735	-200.000	-0.019	0.181
-296.720	307.152	-0.054	0.100
-295.705	-11.679	-0.223	-0.145
-294.691	800.000	0.031	0.134
-293.676	-200.000	0.003	-0.232
-292.662	-8.950	-0.184	-0.122
-291.647	-57.759	-0.089	0.039
-290.632	-135.656	-0.074	0.009
-289.618	151.364	0.039	0.053
-288.603	-81.527	0.287	-0.094
-287.589	-9.412	-0.169	-0.112
-286.574	-3.248	-0.253	-0.175
-285.559	3.399	0.204	0.148
-284.545	-17.548	0.094	-0.059
-283.530	-200.000	0.012	-0.091
-282.516	-168.416	0.314	0.012
-281.501	800.000	-0.082	0.243
-280.486	-39.287	0.237	0.123
-279.472	85.594	0.149	-0.162
-278.457	-52.825	-0.120	0.055
-277.443	-82.053	0.325	0.105
-276.428	800.000	0.052	-0.152
-275.413	65.846	0.366	-0.368
-274.399	-18.035	-0.183	0.114
-273.384	621.224	0.091	-0.228
-272.370	-28.844	0.090	0.051
-271.355	65.145	-0.065	-0.065
-270.340	533.999	0.094	-0.222
-269.326	-25.713	-0.055	-0.032
-268.311	-200.000	0.006	-0.128
-267.297	-156.247	0.063	-0.004
-266.282	-200.000	0.026	-0.329
-265.267	-63.213	-0.214	-0.087
-264.253	-105.014	0.161	-0.036
-263.238	-78.048	0.348	0.119
-262.224	-33.621	-0.304	0.166
-261.209	219.134	-0.035	-0.056
-260.195	570.380	0.014	0.033
-259.180	15.549	-0.146	-0.114
-258.165	43.824	0.126	0.114
-257.151	-200.000	-0.024	-0.209
-256.136	-33.702	0.300	0.164
-255.122	-181.657	-0.173	-0.003
-254.107	86.327	-0.072	-0.078
-253.092	-123.615	-0.225	-0.035
-252.078	114.573	0.112	-0.136
-251.063	-71.788	-0.050	0.018
-250.049	103.372	-0.051	-0.059
-249.034	-168.719	0.045	-0.002
-248.019	0.516	-0.090	-0.064
-247.005	-18.614	-0.024	0.015
-245.990	-200.000	-0.013	0.217
-244.976	210.677	0.100	-0.155
-243.961	-200.000	-0.016	0.342
-242.946	-47.824	0.287	0.138
-241.932	-3.191	0.150	-0.104
-240.917	-43.553	-0.079	0.040
-239.903	-16.128	0.124	0.078
-238.888	428.894	-0.268	-0.573
-237.873	800.000	-0.061	-0.194
-236.859	-49.848	-0.231	-0.108
-235.844	-200.000	-0.036	-0.262
-234.830	44.956	-0.143	0.130
-233.815	-131.807	0.115	0.015
-232.800	800.000	0.027	0.077
-231.786	55.557	-0.113	-0.108
-230.771	-77.236	-0.118	-0.041
-229.757	-46.686	0.157	0.076
-228.742	-35.289	-0.330	-0.178
-227.727	-51.087	0.618	0.287
-226.713	-20.150	-0.123	0.075
-225.698	735.920	-0.056	-0.148
-224.684	-41.730	0.160	-0.081
-223.669	159.386	0.165	-0.227
-222.655	-140.327	-0.075	-0.008
-221.640	-67.668	-0.310	0.120
-220.625	-107.839	-0.250	0.054
-219.611	645.572	-0.111	0.279
-218.596	-3.524	0.159	-0.109
-217.582	3.739	0.357	-0.258
-216.567	47.412	-0.251	-0.232
-215.552	-93.011	0.458	-0.126
-214.538	-104.021	-0.269	-0.062
-213.523	800.000	0.031	-0.114
-212.509	-96.895	0.089	-0.023
-211.494	99.293	0.038	0.043
-210.479	-152.035	0.242	-0.017
-209.465	-46.779	0.186	0.090
-208.450	135.984	0.090	-0.117
-207.436	254.787	0.245	-0.415
-206.421	-128.432	-0.259	-0.036
-205.406	-200.000	-0.026	0.143
-204.392	-44.221	0.123	-0.061
-203.377	-152.133	0.320	-0.023
-202.363	-200.000	0.053	0.257
-201.348	-75.290	-0.069	0.024
-200.333	-94.319	0.260	-0.070
-199.319	23.746	0.123	0.101
-198.304	194.369	-0.014	0.021
-197.290	-200.000	0.009	0.113
-196.275	-67.077	-0.190	-0.074
-195.260	691.970	0.068	0.176
-194.246	800.000	-0.027	0.091
-193.231	798.028	-0.030	0.083
-192.217	-200.000	0.024	0.216
-191.202	15.383	-0.190	-0.147
-190.187	167.905	-0.223	-0.314
-189.173	-137.116	-0.298	0.034
-188.158	800.000	0.067	0.199
-187.144	-59.152	0.263	0.112
-186.129	-93.708	0.293	-0.080
-185.114	-200.000	-0.030	0.211
-184.100	800.000	0.087	0.321
-183.085	58.889	-0.309	0.301
-182.071	-88.938	0.296	0.087
-181.056	-71.190	-0.214	-0.079
-180.042	800.000	-0.052	0.183
-179.027	-133.244	0.565	-0.070
-178.012	800.000	-0.026	0.097
-176.998	800.000	0.011	-0.042
-175.983	74.331	-0.154	0.160
-174.969	-0.114	0.095	0.067
-173.954	531.929	0.134	-0.313
-172.939	-200.000	-0.039	0.421
-171.925	800.000	0.038	0.128
-170.910	-125.915	0.191	-0.028
-169.896	-61.745	-0.151	0.062
-168.881	-140.982	0.194	-0.020
-167.866	-200.000	0.026	0.211
-166.852	-200.000	0.063	0.414
-165.837	-64.770	0.208	0.083
-164.823	506.386	0.019	-0.043
-163.808	115.903	0.111	-0.134
-162.793	-192.242	-0.339	0.003
-161.779	-200.000	0.005	-0.050
-160.764	167.719	-0.058	0.082
-159.750	-8.035	0.245	-0.163
-158.735	-75.395	0.263	-0.093
-157.720	13.390	0.297	0.227
-156.706	125.471	-0.223	0.277
-155.691	-134.606	0.393	0.047
-154.677	800.000	0.048	-0.137
-153.662	-200.000	0.027	0.233
-152.647	-175.791	0.232	0.006
-151.633	91.128	-0.181	-0.200
-150.618	-174.430	0.594	-0.017
-149.604	-200.000	-0.037	0.275
-148.589	-200.000	0.017	0.111
-147.574	54.744	0.169	0.161
-146.560	-88.797	0.211	0.062
-145.545	800.000	-0.080	0.342
-144.531	37.790	0.104	0.091
-143.516	800.000	0.068	-0.247
-142.502	491.746	-0.080	0.181
-141.487	-200.000	0.056	-0.267
-140.472	800.000	0.069	-0.291
-139.458	800.000	-0.085	-0.307
-138.443	800.000	0.050	-0.173
-137.429	2.772	-0.039	-0.028
-136.414	386.636	0.176	0.358
-135.399	-35.025	0.171	-0.092
-134.385	320.187	0.062	0.116
-133.370	-157.685	0.334	-0.020
-132.356	-200.000	0.026	0.138
-131.341	-46.474	-0.128	-0.062
-130.326	169.230	-0.048	-0.068
-129.312	52.511	0.241	-0.227
-128.297	574.275	0.046	0.110
-127.283	-43.600	0.076	-0.038
-126.268	-200.000	-0.059	0.276
-125.253	14.621	-0.211	-0.162
-124.239	-66.254	0.235	0.092
-123.224	-82.186	-0.175	0.056
-122.210	-200.000	0.044	-0.330
