DTS Sentinel unit serial number:	SN413079Multiplexer serial number:	ORYXHardware model number:	OX4-SRSoftware version number:	ORYX F/W v4.00 Oryx Data Collector v3.7.2.0data status	okinstallation	princeton_trtdifferential loss correction	single-endedforward channel	channel 2reverse channel	N/Adate	2019/09/10time	20:53:10forward acquisition time	60.00reverse acquisition time	0.00gamma	496.2192k internal	0.2331k external	0.2331temperature offset calibration	0.9945default loss term (dB/km)	0.3790temperature slope calibration	1.0000multiplexer offset coefficient	1.0000multiplexer slope coefficient	1.0000fibre end	0.00T internal ref (°C)	31.73T ext. ref 1 (°C)	-0.30T ext. ref 2 (°C)	25.25length (m)	temperature (°C)	Stokes	anti-Stokes-747.200	72.013	-0.221	-0.232
-746.185	193.694	0.161	-0.246
-745.171	16.085	0.374	-0.297
-744.156	138.723	0.185	0.245
-743.142	115.874	0.081	0.099
-742.127	119.323	0.127	0.159
-741.112	-8.115	0.244	-0.166
-740.098	248.728	-0.113	-0.193
-739.083	24.776	0.250	0.208
-738.069	61.864	0.246	-0.247
-737.054	19.838	-0.183	0.149
-736.039	-27.910	-0.440	-0.257
-735.025	-115.767	0.255	-0.048
-734.010	-89.044	-0.094	0.028
-732.996	219.564	-0.129	-0.208
-731.981	-58.496	-0.226	0.099
-730.966	-200.000	-0.012	0.162
-729.952	86.711	-0.078	0.086
-728.937	-200.000	-0.044	-0.218
-727.923	144.464	0.063	-0.084
-726.908	85.933	-0.151	0.168
-725.894	259.748	0.077	-0.133
-724.879	-119.485	-0.462	0.081
-723.864	131.343	0.159	0.206
-722.850	308.236	0.069	0.130
-721.835	299.659	-0.032	0.060
-720.821	104.963	0.146	-0.173
-719.806	800.000	-0.017	0.059
-718.791	-87.450	0.310	0.094
-717.777	41.609	0.164	-0.149
-716.762	-80.719	0.223	0.075
-715.748	800.000	0.116	0.404
-714.733	-86.915	0.169	-0.052
-713.718	-22.862	-0.196	-0.119
-712.704	41.327	-0.315	-0.287
-711.689	197.922	0.077	0.119
-710.675	-199.049	0.230	-0.001
-709.660	-200.000	0.032	-0.192
-708.645	-200.000	-0.016	-0.321
-707.631	-49.041	0.350	0.169
-706.616	-64.539	-0.214	0.087
-705.602	-69.375	-0.073	-0.028
-704.587	-200.000	-0.012	-0.114
-703.572	-122.171	0.369	-0.061
-702.558	-166.203	-0.326	0.014
-701.543	75.353	0.190	-0.202
-700.529	178.163	0.071	-0.104
-699.514	67.955	0.177	-0.182
-698.499	-168.397	-0.171	0.007
-697.485	-36.454	0.055	-0.030
-696.470	-54.788	0.202	0.092
-695.456	-103.445	0.223	-0.053
-694.441	-3.796	0.145	-0.101
-693.426	-31.439	-0.305	-0.172
-692.412	45.028	-0.139	-0.129
-691.397	48.205	-0.122	-0.115
-690.383	-37.455	-0.153	-0.082
-689.368	-15.589	0.247	-0.158
-688.354	-128.726	-0.195	0.028
-687.339	227.552	-0.124	0.203
-686.324	146.905	0.029	0.039
-685.310	736.458	-0.082	0.220
-684.295	-200.000	0.030	-0.174
-683.281	338.703	0.110	0.215
-682.266	-156.824	0.361	-0.022
-681.251	94.091	0.119	0.136
-680.237	800.000	0.106	-0.295
-679.222	106.884	0.071	-0.085
-678.208	-26.350	-0.226	-0.133
-677.193	-195.275	-0.056	0.000
-676.178	54.870	-0.163	0.158
-675.164	576.626	-0.042	-0.104
-674.149	-62.147	-0.135	-0.056
-673.135	29.751	0.085	0.072
-672.120	151.984	0.096	-0.131
-671.105	-39.863	0.290	-0.152
-670.091	-39.298	-0.136	-0.072
-669.076	119.576	0.306	-0.380
-668.062	134.018	-0.094	-0.123
-667.047	155.082	0.047	0.065
-666.032	45.047	0.186	0.172
-665.018	-109.497	-0.134	0.028
-664.003	-135.546	-0.206	0.025
-662.989	-101.159	0.187	0.046
-661.974	454.940	-0.049	0.110
-660.959	800.000	0.027	0.105
-659.945	-21.477	-0.378	0.232
-658.930	79.468	0.222	-0.239
-657.916	-47.521	-0.145	-0.071
-656.901	248.505	-0.279	-0.474
-655.886	46.647	-0.229	-0.213
-654.872	-77.246	0.272	-0.095
-653.857	205.708	-0.132	0.206
-652.843	-81.107	-0.439	0.146
-651.828	122.196	0.059	0.074
-650.814	-41.821	0.223	-0.115
-649.799	-80.923	-0.187	-0.062
-648.784	-200.000	-0.009	0.100
-647.770	-11.317	-0.209	-0.138
-646.755	232.608	-0.085	-0.140
-645.741	-116.664	-0.116	-0.021
-644.726	-170.198	0.066	0.002
-643.711	-85.393	0.324	-0.101
-642.697	497.600	0.131	0.301
-641.682	-90.538	0.251	-0.073
-640.668	242.131	0.067	0.112
-639.653	-200.000	0.001	-0.097
-638.638	-171.338	-0.149	0.005
-637.624	267.131	-0.171	-0.300
-636.609	-94.059	0.020	0.005
-635.595	-200.000	-0.065	-0.287
-634.580	-200.000	-0.030	-0.359
-633.565	-102.854	0.297	-0.071
-632.551	60.736	-0.161	0.160
-631.536	6.144	0.207	-0.154
-630.522	217.696	-0.013	0.020
-629.507	-83.794	0.335	-0.107
-628.492	-58.432	-0.322	0.140
-627.478	11.660	-0.125	0.096
-626.463	112.084	0.298	-0.361
-625.449	5.209	0.143	0.106
-624.434	-186.776	-0.329	-0.005
-623.419	-143.444	-0.249	-0.024
-622.405	-40.915	-0.312	-0.162
-621.390	186.919	-0.188	0.281
-620.376	30.926	0.023	-0.020
-619.361	-118.366	0.224	-0.040
-618.346	-11.870	-0.105	-0.069
-617.332	800.000	0.059	-0.207
-616.317	800.000	0.016	-0.047
-615.303	73.417	-0.083	0.087
-614.288	-58.582	0.399	0.173
-613.273	148.061	0.098	-0.132
-612.259	516.332	-0.110	-0.257
-611.244	-100.474	-0.168	-0.042
-610.230	147.729	0.168	0.226
-609.215	-152.306	-0.370	-0.027
-608.201	-200.000	-0.035	0.174
-607.186	-62.305	0.116	-0.049
-606.171	-116.757	0.236	0.043
-605.157	256.021	-0.245	-0.421
-604.142	-112.503	-0.123	0.025
-603.128	-68.656	0.237	0.092
-602.113	36.211	-0.298	0.263
-601.098	167.197	-0.005	0.007
-600.084	-6.377	-0.301	0.206
-599.069	354.826	0.063	0.126
-598.055	-54.266	0.296	0.135
-597.040	48.672	-0.286	-0.268
-596.025	39.262	-0.295	-0.265
-595.011	-200.000	-0.112	-0.495
-593.996	0.503	0.194	0.139
-592.982	-42.792	-0.132	-0.067
-591.967	21.897	0.122	0.100
-590.952	-169.695	-0.227	-0.008
-589.938	383.947	-0.195	-0.402
-588.923	-15.869	0.091	-0.058
-587.909	45.494	-0.079	-0.073
-586.894	-119.881	-0.076	0.013
-585.879	800.000	-0.047	-0.191
-584.865	91.308	-0.131	0.147
-583.850	740.102	0.064	0.172
-582.836	310.117	0.068	-0.126
-581.821	16.152	0.346	-0.272
-580.806	-35.202	0.151	0.082
-579.792	81.359	-0.077	0.083
-578.777	-119.064	-0.054	-0.009
-577.763	715.432	0.171	-0.455
-576.748	-40.804	0.069	-0.036
-575.733	290.789	0.070	-0.127
-574.719	167.925	-0.063	-0.089
-573.704	73.490	0.054	-0.057
-572.690	83.380	0.173	0.189
-571.675	-101.716	0.181	-0.044
-570.661	-200.000	-0.031	-0.233
-569.646	-83.561	0.347	0.111
-568.631	600.592	0.150	0.373
-567.617	101.168	0.152	-0.176
-566.602	-127.514	-0.372	-0.054
-565.588	731.520	0.047	-0.127
-564.573	184.814	0.083	0.123
-563.558	-66.968	0.122	-0.048
-562.544	200.837	0.111	-0.171
-561.529	-98.909	-0.245	0.062
-560.515	294.868	-0.081	0.149
-559.500	0.572	0.269	0.192
-558.485	-108.784	-0.293	0.063
-557.471	-32.318	-0.249	0.139
-556.456	156.960	0.172	0.237
-555.442	-103.193	0.232	-0.055
-554.427	800.000	0.037	0.148
-553.412	-64.328	-0.378	-0.154
-552.398	-15.251	-0.307	-0.196
-551.383	-36.838	0.249	-0.134
-550.369	-29.856	-0.128	0.073
-549.354	77.160	-0.308	0.327
-548.339	800.000	0.067	-0.189
-547.325	-200.000	0.039	0.280
-546.310	426.330	0.056	0.120
-545.296	-90.365	0.079	-0.023
-544.281	-200.000	-0.047	-0.250
-543.266	540.251	0.055	0.130
-542.252	-200.000	0.005	-0.152
-541.237	494.843	0.151	0.347
-540.223	-122.083	-0.324	-0.053
-539.208	104.073	-0.247	0.290
-538.193	-132.650	-0.299	-0.038
-537.179	25.591	-0.135	0.112
-536.164	265.629	-0.120	-0.209
-535.150	-35.458	-0.055	0.030
-534.135	-70.616	0.145	0.055
-533.121	-124.875	-0.170	-0.026
-532.106	21.062	0.029	-0.023
-531.091	231.985	0.065	-0.107
-530.077	50.647	-0.215	-0.203
-529.062	-200.000	0.033	0.246
-528.048	-141.640	0.278	0.028
-527.033	800.000	0.049	-0.144
-526.018	4.305	0.177	-0.129
-525.004	-88.836	-0.057	0.017
-523.989	-187.382	0.282	0.004
-522.975	-16.736	0.322	0.203
-521.960	800.000	-0.061	-0.170
-520.945	44.495	0.066	-0.060
-519.931	159.387	0.059	-0.082
-518.916	-68.836	0.170	0.065
-517.902	-200.000	0.025	-0.142
-516.887	-104.385	-0.136	-0.031
-515.872	541.768	-0.040	0.095
-514.858	-200.000	0.004	-0.167
-513.843	-141.332	-0.337	-0.034
-512.829	-200.000	0.014	-0.123
-511.814	800.000	0.048	0.177
-510.799	1.471	0.102	0.073
-509.785	95.363	-0.118	0.134
-508.770	-50.153	-0.122	-0.057
-507.756	-200.000	0.021	0.113
-506.741	-200.000	0.063	-0.397
-505.726	-78.272	-0.310	0.106
-504.712	62.904	-0.379	0.378
-503.697	314.304	-0.055	0.103
-502.683	-34.598	0.170	0.093
-501.668	96.334	0.068	0.077
-500.653	-109.650	-0.201	-0.042
-499.639	17.056	0.247	0.195
-498.624	-77.441	-0.177	-0.061
-497.610	65.163	-0.274	0.276
-496.595	790.597	-0.020	-0.054
-495.581	-131.352	-0.143	0.019
-494.566	2.962	0.133	0.097
-493.551	505.820	-0.017	0.040
-492.537	38.931	0.118	0.105
-491.522	69.342	0.367	0.376
-490.508	-124.500	0.117	-0.018
-489.493	460.642	-0.072	0.159
-488.478	230.923	0.196	0.320
-487.464	-88.881	-0.593	0.175
-486.449	191.792	0.105	-0.158
-485.435	-200.000	0.025	-0.165
-484.420	790.516	-0.067	-0.184
-483.405	-55.735	0.164	0.073
-482.391	181.797	0.046	-0.067
-481.376	56.017	-0.085	0.082
-480.362	162.191	0.170	0.238
-479.347	800.000	0.011	0.045
-478.332	800.000	0.025	-0.094
-477.318	-15.732	0.291	-0.185
-476.303	-125.979	0.295	-0.044
-475.289	-103.121	0.077	-0.018
-474.274	800.000	0.041	-0.176
-473.259	-125.739	0.312	0.047
-472.245	-76.302	-0.230	-0.081
-471.230	161.250	0.051	0.071
-470.216	81.537	-0.079	0.085
-469.201	-200.000	-0.051	0.252
-468.186	-200.000	-0.003	-0.179
-467.172	-112.637	0.237	-0.047
-466.157	-200.000	0.031	0.286
-465.143	709.020	-0.056	0.147
-464.128	-131.400	0.265	0.035
-463.113	-4.985	0.334	0.229
-462.099	-60.436	0.284	-0.120
-461.084	-94.990	0.085	0.023
-460.070	2.450	0.313	-0.226
-459.055	147.541	0.117	-0.157
-458.040	417.826	-0.024	0.052
-457.026	-50.747	0.177	-0.083
-456.011	-200.000	0.000	0.089
-454.997	10.361	-0.169	0.128
-453.982	-200.000	0.056	0.255
-452.968	-100.849	-0.074	0.018
-451.953	800.000	0.071	-0.199
-450.938	338.126	-0.199	-0.385
-449.924	585.522	0.009	-0.022
-448.909	-149.603	0.382	-0.030
-447.895	-186.826	0.340	0.005
-446.880	184.451	0.194	-0.286
-445.865	-87.909	0.221	-0.066
-444.851	579.254	0.052	0.126
-443.836	800.000	0.030	-0.090
-442.822	299.799	-0.114	-0.210
-441.807	-87.866	0.180	0.054
-440.792	262.781	0.128	0.221
-439.778	153.831	-0.039	0.053
-438.763	159.632	-0.081	0.113
-437.749	400.124	0.139	-0.291
-436.734	-63.337	0.152	0.062
-435.719	68.158	-0.137	0.140
-434.705	-87.334	-0.369	0.111
-433.690	-200.000	0.033	-0.306
-432.676	-77.682	-0.170	0.059
-431.661	-200.000	-0.012	0.244
-430.646	-200.000	0.010	-0.106
-429.632	-200.000	-0.007	-0.037
-428.617	800.000	0.002	-0.006
-427.603	-72.579	0.182	-0.067
-426.588	71.505	0.097	-0.100
-425.573	-112.069	0.346	-0.069
-424.559	-107.085	0.331	-0.073
-423.544	-200.000	-0.053	0.345
-422.530	-81.116	-0.233	0.077
-421.515	-25.534	-0.106	-0.062
-420.500	-88.802	-0.094	0.028
-419.486	56.020	0.099	-0.096
-418.471	52.883	0.186	-0.176
-417.457	-1.569	-0.261	-0.183
-416.442	-130.458	0.261	-0.035
-415.428	-21.092	-0.119	0.072
-414.413	-200.000	-0.018	-0.092
-413.398	-47.142	0.214	-0.104
-412.384	249.165	0.127	0.214
-411.369	354.258	-0.056	-0.111
-410.355	-200.000	0.014	-0.170
-409.340	-116.981	-0.390	0.071
-408.325	-52.943	-0.275	0.126
-407.311	-72.298	-0.301	0.111
-406.296	13.403	0.157	0.121
-405.282	-124.908	-0.213	-0.033
-404.267	-109.836	0.217	0.045
-403.252	-200.000	-0.000	-0.217
-402.238	28.233	0.047	0.039
-401.223	-200.000	0.003	-0.127
-400.209	198.998	0.044	-0.067
-399.194	-81.748	0.188	0.061
-398.179	119.156	-0.351	0.431
-397.165	114.308	-0.178	0.215
-396.150	-134.121	0.176	-0.022
-395.136	45.475	-0.196	0.180
-394.121	42.235	-0.188	-0.169
-393.106	135.306	0.233	0.301
-392.092	514.759	0.013	0.031
-391.077	-200.000	-0.010	-0.269
-390.063	-200.000	0.005	0.293
-389.048	14.984	0.186	0.145
-388.033	-200.000	-0.004	0.063
-387.019	-99.013	-0.273	0.069
-386.004	-200.000	-0.021	-0.158
-384.990	61.999	0.109	-0.108
-383.975	800.000	0.085	-0.264
-382.960	-99.197	-0.195	-0.049
-381.946	-129.357	-0.259	-0.036
-380.931	36.151	0.220	0.193
-379.917	-62.565	-0.221	0.091
-378.902	-181.062	-0.262	-0.005
-377.888	-200.000	-0.021	-0.286
-376.873	511.793	-0.049	-0.113
-375.858	-13.682	-0.119	-0.076
-374.844	418.842	-0.090	-0.191
-373.829	191.949	0.105	0.157
-372.815	800.000	0.141	-0.395
-371.800	81.346	0.037	0.040
-370.785	22.105	-0.077	-0.062
-369.771	800.000	-0.090	0.277
-368.756	-115.919	0.052	-0.010
-367.742	-127.067	0.052	0.007
-366.727	247.773	-0.207	0.347
-365.712	323.936	0.166	0.315
-364.698	-200.000	-0.011	0.075
-363.683	-110.633	0.098	-0.020
-362.669	-40.793	0.274	0.141
-361.654	-140.017	0.111	0.012
-360.639	460.206	0.132	0.290
-359.625	49.451	-0.151	-0.141
-358.610	-2.917	-0.194	0.134
-357.596	-49.682	-0.332	0.157
-356.581	588.074	-0.071	0.175
-355.566	13.777	0.202	0.156
-354.552	800.000	0.088	0.310
-353.537	-178.741	-0.173	-0.004
-352.523	56.216	0.307	0.296
-351.508	296.880	0.111	-0.201
-350.493	47.329	-0.336	-0.310
-349.479	-20.504	0.193	-0.118
-348.464	-113.052	-0.127	-0.025
-347.450	-13.275	-0.012	0.007
-346.435	155.141	0.127	-0.173
-345.420	-75.280	-0.197	0.070
-344.406	-14.162	-0.180	-0.115
-343.391	-82.036	0.290	-0.094
-342.377	-4.696	-0.100	0.068
-341.362	34.852	-0.233	0.202
-340.348	800.000	0.038	-0.110
-339.333	155.557	-0.138	0.188
-338.318	-200.000	0.018	-0.199
-337.304	-59.921	-0.300	-0.127
-336.289	51.868	0.140	-0.132
-335.275	-179.838	-0.372	-0.008
-334.260	173.477	0.011	0.015
-333.245	-200.000	0.037	0.287
-332.231	54.865	0.192	-0.183
-331.216	-200.000	-0.019	-0.254
-330.202	-140.006	0.179	0.019
-329.187	-2.462	0.161	-0.112
-328.172	294.230	0.129	0.233
-327.158	-200.000	-0.024	-0.353
-326.143	-9.678	0.162	-0.107
-325.129	178.172	0.116	-0.168
-324.114	83.193	0.089	0.096
-323.099	580.543	0.191	-0.464
-322.085	-31.164	0.242	-0.135
-321.070	-200.000	0.072	-0.388
-320.056	-97.952	0.381	0.097
-319.041	124.055	0.122	0.151
-318.026	-153.214	-0.193	-0.013
-317.012	-128.549	0.342	-0.048
-315.997	-0.438	-0.239	-0.168
-314.983	-3.462	-0.072	-0.050
-313.968	48.520	0.140	-0.130
-312.953	-63.360	-0.243	0.099
-311.939	-85.995	0.476	-0.146
-310.924	800.000	0.111	0.320
-309.910	473.073	-0.051	0.115
-308.895	-200.000	-0.053	-0.267
-307.880	-186.785	0.258	-0.004
-306.866	800.000	0.008	-0.029
-305.851	131.895	0.122	-0.155
-304.837	220.131	-0.048	0.076
-303.822	-46.926	-0.369	0.179
-302.807	433.570	0.130	0.279
-301.793	-200.000	-0.032	0.158
-300.778	3.158	-0.326	0.234
-299.764	-102.296	0.200	0.047
-298.749	279.901	0.090	0.159
-297.735	-77.679	0.268	-0.092
-296.720	-24.336	0.060	0.035
-295.705	-49.825	0.211	0.099
-294.691	-2.068	-0.092	0.064
-293.676	-163.220	-0.399	0.019
-292.662	-21.677	-0.142	0.085
-291.647	-78.171	-0.277	0.094
-290.632	-25.619	-0.142	-0.083
-289.618	599.906	-0.151	0.371
-288.603	257.572	0.161	0.274
-287.589	-12.892	-0.274	-0.176
-286.574	-200.000	-0.247	-0.001
-285.559	-200.000	-0.286	0.001
-284.545	-15.246	-0.084	-0.053
-283.530	172.610	-0.151	0.215
-282.516	-31.690	-0.166	0.092
-281.501	-81.420	0.358	-0.117
-280.486	-81.038	-0.201	0.066
-279.472	-74.479	-0.375	0.134
-278.457	-81.381	0.140	0.046
-277.443	-65.566	0.086	0.034
-276.428	-84.185	0.149	-0.047
-275.413	-124.589	-0.401	-0.062
-274.399	-200.000	-0.012	0.100
-273.384	79.568	0.009	0.010
-272.370	-109.838	0.063	-0.013
-271.355	-28.418	-0.484	0.276
-270.340	-74.641	-0.174	-0.062
-269.326	300.922	-0.119	-0.216
-268.311	224.819	0.161	-0.258
-267.297	-149.734	0.263	0.020
-266.282	-78.149	-0.497	-0.169
-265.267	209.673	0.068	0.105
-264.253	-200.000	0.002	-0.377
-263.238	-146.773	-0.304	-0.026
-262.224	405.337	0.103	-0.215
-261.209	-200.000	-0.019	-0.103
-260.195	229.399	0.111	-0.180
-259.180	-42.023	0.300	0.152
-258.165	-42.924	0.255	0.128
-257.151	-200.000	-0.012	0.113
-256.136	6.958	-0.157	-0.116
-255.122	78.137	0.099	0.105
-254.107	-169.050	0.135	0.005
-253.092	-134.826	0.415	0.050
-252.078	-117.145	0.360	0.065
-251.063	800.000	-0.119	-0.396
-250.049	150.138	0.063	0.085
-249.034	252.825	0.093	0.157
-248.019	-120.953	0.114	0.019
-247.005	-31.104	-0.222	-0.124
-245.990	-81.447	0.306	0.099
-244.976	-200.000	-0.038	-0.317
-243.961	-74.271	0.240	-0.086
-242.946	-200.000	0.065	-0.297
-241.932	101.319	0.127	-0.146
-240.917	-120.428	-0.260	0.044
-239.903	530.918	-0.152	-0.354
-238.888	-102.578	-0.222	-0.052
-237.873	-114.579	0.193	0.037
-236.859	223.880	-0.026	0.041
-235.844	22.160	0.146	0.117
-234.830	8.692	-0.171	0.127
-233.815	-200.000	-0.007	-0.062
-232.800	-40.796	-0.166	-0.085
-231.786	-131.899	-0.110	0.014
-230.771	-48.639	-0.310	0.147
-229.757	-126.850	-0.136	-0.020
-228.742	-96.450	-0.387	0.101
-227.727	757.097	0.073	-0.194
-226.713	-26.529	-0.193	0.111
-225.698	56.776	-0.192	-0.184
-224.684	-37.760	0.124	0.065
-223.669	-148.101	0.220	-0.018
-222.655	55.639	-0.303	0.289
-221.640	800.000	0.022	0.088
-220.625	98.308	0.162	0.184
-219.611	-79.054	0.025	-0.008
-218.596	-200.000	-0.005	-0.041
-217.582	-150.188	0.420	-0.032
-216.567	480.380	-0.053	0.119
-215.552	-54.664	-0.254	0.113
-214.538	27.983	0.152	0.127
-213.523	44.738	-0.294	0.267
-212.509	-200.000	-0.061	-0.324
-211.494	188.137	0.155	0.228
-210.479	-109.366	-0.254	-0.053
-209.465	-200.000	0.050	0.285
-208.450	76.097	0.196	0.204
-207.436	43.748	0.329	-0.297
-206.421	-0.096	0.098	0.069
-205.406	-200.000	-0.073	0.336
-204.392	-86.908	-0.192	0.058
-203.377	-79.880	0.117	0.039
-202.363	-46.230	0.125	-0.061
-201.348	49.792	-0.198	0.184
-200.333	658.131	0.031	-0.080
-199.319	-49.016	0.355	0.168
-198.304	116.916	-0.141	-0.171
-197.290	450.026	-0.209	-0.454
-196.275	-143.620	0.108	-0.010
-195.260	-200.000	0.013	0.327
-194.246	106.707	-0.118	-0.138
-193.231	-51.744	-0.200	-0.092
-192.217	-139.990	-0.232	0.024
-191.202	-99.773	-0.104	0.026
-190.187	375.290	0.094	0.188
-189.173	-1.558	0.139	0.097
-188.158	-200.000	-0.045	-0.240
-187.144	-49.078	-0.174	0.082
-186.129	401.620	0.089	0.184
-185.114	80.770	-0.096	0.102
-184.100	800.000	-0.115	-0.316
-183.085	800.000	0.152	0.431
-182.071	50.172	0.268	-0.249
-181.056	-200.000	-0.019	0.137
-180.042	130.001	0.082	-0.103
-179.027	-200.000	-0.013	0.171
-178.012	-53.141	-0.139	-0.063
-176.998	-101.801	0.148	-0.035
-175.983	267.941	-0.175	-0.301
-174.969	75.784	-0.275	-0.286
-173.954	800.000	-0.051	-0.146
-172.939	102.714	-0.239	-0.275
-171.925	-161.984	-0.119	0.006
-170.910	87.560	-0.240	-0.261
-169.896	800.000	-0.084	0.242
-168.881	-200.000	-0.037	0.182
-167.866	24.475	0.387	-0.315
-166.852	-200.000	0.015	-0.143
-165.837	-97.680	-0.229	-0.058
-164.823	-59.472	0.376	0.159
-163.808	-111.467	-0.393	0.079
-162.793	-30.940	0.216	-0.120
-161.779	-133.776	0.123	0.015
-160.764	800.000	-0.120	0.342
-159.750	-41.924	0.211	0.107
-158.735	141.203	-0.179	0.233
-157.720	-11.588	0.332	0.215
-156.706	800.000	0.039	0.143
-155.691	153.117	0.124	-0.166
-154.677	-105.939	0.189	-0.042
-153.662	-19.875	0.100	0.061
-152.647	40.341	0.106	0.094
-151.633	172.217	-0.093	-0.132
-150.618	-24.640	0.111	-0.065
-149.604	164.156	0.068	0.094
-148.589	-136.017	0.309	0.036
-147.574	9.463	-0.101	-0.076
-146.560	208.028	-0.161	0.247
-145.545	163.475	0.222	0.307
-144.531	-200.000	0.012	0.180
-143.516	-127.029	-0.285	-0.041
-142.502	-200.000	0.014	0.397
-141.487	-165.056	0.067	0.003
-140.472	372.093	0.052	0.104
-139.458	-200.000	-0.034	0.199
-138.443	-72.323	-0.296	-0.108
-137.429	-148.950	0.206	-0.016
-136.414	-33.545	0.214	0.116
-135.399	190.187	0.175	0.258
-134.385	47.115	-0.302	-0.276
-133.370	786.232	-0.045	0.121
-132.356	-200.000	-0.028	0.278
-131.341	-90.230	0.113	0.032
-130.326	126.287	0.066	-0.083
-129.312	-35.161	-0.105	0.056
-128.297	-200.000	-0.026	0.181
-127.283	-75.052	0.136	-0.048
-126.268	-200.000	0.005	0.035
-125.253	800.000	0.104	-0.332
-124.239	3.620	0.164	-0.117
-123.224	-117.501	-0.098	0.017
-122.210	-200.000	0.000	0.141
-121.195	-30.184	-0.144	0.081
-120.180	44.482	0.079	0.071
