DTS Sentinel unit serial number:	SN413079Multiplexer serial number:	ORYXHardware model number:	OX4-SRSoftware version number:	ORYX F/W v4.00 Oryx Data Collector v3.7.2.0data status	okinstallation	princeton_trtdifferential loss correction	single-endedforward channel	channel 2reverse channel	N/Adate	2019/09/17time	07:43:35forward acquisition time	60.00reverse acquisition time	0.00gamma	496.2192k internal	0.2335k external	0.2335temperature offset calibration	0.9975default loss term (dB/km)	0.3790temperature slope calibration	1.0000multiplexer offset coefficient	1.0000multiplexer slope coefficient	1.0000fibre end	0.00T internal ref (°C)	27.19T ext. ref 1 (°C)	0.13T ext. ref 2 (°C)	21.95length (m)	temperature (°C)	Stokes	anti-Stokes-747.200	471.724	-0.069	0.156
-746.185	64.055	-0.058	0.059
-745.171	-200.000	-0.018	0.101
-744.156	2.179	-0.102	-0.074
-743.142	-159.330	-0.246	0.014
-742.127	-200.000	0.079	0.432
-741.112	-200.000	0.043	-0.300
-740.098	-40.972	0.101	-0.052
-739.083	-200.000	0.014	0.335
-738.069	-128.879	-0.346	0.049
-737.054	-200.000	0.086	0.535
-736.039	89.159	-0.271	-0.304
-735.025	-113.830	0.136	-0.026
-734.010	-78.545	-0.309	0.106
-732.996	-21.252	-0.025	0.015
-731.981	-23.121	0.238	0.144
-730.966	-25.342	-0.056	-0.033
-729.952	25.236	0.195	-0.163
-728.937	81.306	-0.178	-0.193
-727.923	-27.073	-0.268	0.157
-726.908	-123.144	0.349	0.056
-725.894	-183.422	-0.099	-0.002
-724.879	144.241	-0.019	-0.026
-723.864	61.562	0.241	0.241
-722.850	189.728	0.258	-0.388
-721.835	-69.267	-0.050	-0.019
-720.821	-167.665	-0.166	-0.007
-719.806	800.000	-0.115	0.428
-718.791	-73.479	-0.237	0.087
-717.777	-200.000	0.051	0.275
-716.762	-16.899	-0.231	0.147
-715.748	-32.680	-0.162	0.090
-714.733	-112.575	-0.219	-0.044
-713.718	-200.000	0.015	0.082
-712.704	9.535	0.050	0.038
-711.689	-33.540	-0.062	-0.034
-710.675	501.195	-0.022	0.052
-709.660	-200.000	0.015	-0.136
-708.645	-83.242	0.164	0.053
-707.631	62.778	0.253	0.254
-706.616	-200.000	-0.008	0.120
-705.602	24.838	-0.259	0.215
-704.587	-67.490	0.127	-0.050
-703.572	611.844	-0.011	0.029
-702.558	-200.000	0.001	-0.016
-701.543	273.458	-0.146	0.260
-700.529	800.000	0.016	-0.056
-699.514	-200.000	-0.053	-0.269
-698.499	-200.000	0.002	-0.013
-697.485	30.300	-0.111	-0.095
-696.470	59.726	0.135	0.134
-695.456	-200.000	-0.034	0.237
-694.441	-200.000	0.027	-0.156
-693.426	96.811	0.290	0.333
-692.412	18.148	0.225	-0.180
-691.397	5.765	0.215	-0.159
-690.383	-39.077	0.050	-0.026
-689.368	29.200	-0.403	-0.343
-688.354	800.000	0.035	-0.121
-687.339	800.000	-0.033	0.116
-686.324	-54.405	0.301	-0.137
-685.310	-200.000	0.021	0.112
-684.295	-94.626	-0.495	0.135
-683.281	-127.901	-0.179	-0.026
-682.266	-37.731	-0.147	0.078
-681.251	-6.817	-0.139	0.095
-680.237	13.500	-0.076	0.059
-679.222	35.152	0.140	0.123
-678.208	737.752	-0.088	0.236
-677.193	800.000	-0.078	-0.279
-676.178	-101.448	-0.300	-0.073
-675.164	800.000	0.083	0.261
-674.149	19.218	0.241	-0.194
-673.135	35.056	-0.203	0.178
-672.120	800.000	0.067	-0.270
-671.105	-9.261	-0.226	-0.152
-670.091	55.610	-0.210	-0.204
-669.076	800.000	-0.015	0.064
-668.062	-174.331	-0.438	-0.013
-667.047	15.734	-0.050	0.039
-666.032	36.518	-0.076	-0.068
-665.018	800.000	-0.075	-0.307
-664.003	-200.000	-0.060	0.324
-662.989	-90.913	0.088	-0.025
-661.974	8.653	0.108	-0.082
-660.959	-86.234	-0.316	0.097
-659.945	-27.900	0.223	-0.129
-658.930	-200.000	-0.030	0.405
-657.916	148.958	-0.114	-0.154
-656.901	-51.074	-0.163	0.076
-655.886	570.145	0.029	-0.070
-654.872	-200.000	-0.007	0.063
-653.857	-200.000	-0.007	0.124
-652.843	104.902	-0.230	-0.272
-651.828	-137.333	-0.208	-0.024
-650.814	32.145	-0.044	-0.038
-649.799	307.001	-0.061	0.113
-648.784	-200.000	-0.035	-0.232
-647.770	800.000	0.053	-0.178
-646.755	-200.000	-0.279	0.000
-645.741	-200.000	-0.032	0.252
-644.726	72.422	-0.025	0.026
-643.711	-69.306	0.187	-0.072
-642.697	-134.659	0.138	0.017
-641.682	-46.892	-0.243	-0.119
-640.668	3.409	0.199	-0.145
-639.653	226.567	0.135	-0.219
-638.638	800.000	-0.106	-0.323
-637.624	-151.423	0.332	-0.025
-636.609	33.724	0.186	0.162
-635.595	612.448	-0.178	-0.445
-634.580	-57.307	0.062	0.027
-633.565	322.883	-0.284	0.541
-632.551	68.252	-0.127	0.131
-631.536	-200.000	0.058	0.276
-630.522	413.218	-0.197	0.419
-629.507	140.274	-0.138	-0.182
-628.492	196.175	-0.093	0.142
-627.478	-52.483	0.136	0.063
-626.463	800.000	0.012	0.042
-625.449	800.000	0.074	0.211
-624.434	195.751	-0.078	-0.119
-623.419	-29.883	-0.429	0.244
-622.405	-200.000	-0.033	0.179
-621.390	349.507	0.119	0.235
-620.376	245.393	0.116	-0.195
-619.361	-200.000	-0.026	-0.293
-618.346	92.196	0.043	-0.048
-617.332	-117.277	-0.129	-0.024
-616.317	800.000	-0.074	0.280
-615.303	-77.250	0.073	0.025
-614.288	-57.036	-0.100	-0.044
-613.273	800.000	-0.062	0.264
-612.259	-200.000	-0.038	-0.248
-611.244	-142.463	-0.275	0.027
-610.230	-200.000	-0.019	-0.191
-609.215	526.509	0.065	-0.154
-608.201	-200.000	-0.002	-0.031
-607.186	45.579	0.076	0.070
-606.171	310.508	0.156	0.293
-605.157	-200.000	-0.043	-0.332
-604.142	-99.236	-0.124	0.031
-603.128	-200.000	0.010	-0.201
-602.113	-200.000	-0.026	0.176
-601.098	203.269	0.042	0.065
-600.084	593.494	0.115	0.285
-599.069	107.101	-0.218	0.259
-598.055	45.245	-0.248	0.229
-597.040	50.409	0.367	-0.346
-596.025	550.630	0.030	-0.071
-595.011	800.000	0.052	-0.215
-593.996	401.457	-0.031	0.064
-592.982	-57.591	-0.041	-0.018
-591.967	50.577	0.144	-0.136
-590.952	-154.682	-0.102	-0.007
-589.938	148.392	0.026	-0.035
-588.923	-2.436	-0.119	0.083
-587.909	-116.826	0.225	-0.041
-586.894	-128.407	0.117	-0.017
-585.879	157.732	0.104	-0.144
-584.865	24.044	0.299	0.247
-583.850	-46.251	-0.348	0.171
-582.836	195.276	0.060	0.091
-581.821	-108.852	0.203	-0.043
-580.806	186.327	0.074	-0.110
-579.792	0.895	-0.201	0.143
-578.777	-147.507	0.286	-0.024
-577.763	75.199	-0.303	-0.319
-576.748	-174.465	-0.329	-0.009
-575.733	-200.000	-0.048	0.285
-574.719	-146.129	-0.185	0.016
-573.704	-124.387	0.159	0.025
-572.690	226.973	-0.054	-0.088
-571.675	-139.740	0.306	-0.032
-570.661	-200.000	0.002	0.135
-569.646	-135.359	-0.122	0.015
-568.631	-21.489	-0.049	0.030
-567.617	176.229	-0.195	-0.282
-566.602	765.687	-0.113	0.308
-565.588	262.448	-0.174	0.302
-564.573	-64.436	0.542	0.220
-563.558	123.920	-0.088	0.110
-562.544	-73.344	0.111	0.040
-561.529	-117.335	-0.391	-0.071
-560.515	20.488	-0.221	0.178
-559.500	-200.000	-0.010	0.104
-558.485	346.421	0.087	0.170
-557.471	-172.864	0.446	0.014
-556.456	-140.172	-0.057	0.006
-555.442	-172.967	-0.276	0.009
-554.427	76.735	0.099	-0.104
-553.412	-77.923	0.262	-0.090
-552.398	800.000	-0.007	0.025
-551.383	93.266	-0.023	-0.026
-550.369	-200.000	0.004	-0.368
-549.354	-142.876	-0.055	-0.005
-548.339	112.596	0.250	-0.301
-547.325	-145.197	0.259	-0.023
-546.310	80.073	-0.056	0.060
-545.296	69.558	0.136	-0.139
-544.281	-95.804	0.133	0.035
-543.266	42.727	-0.125	0.114
-542.252	800.000	-0.063	-0.179
-541.237	800.000	0.067	-0.189
-540.223	339.446	-0.105	0.203
-539.208	-200.000	0.009	0.188
-538.193	198.804	0.182	0.278
-537.179	-200.000	-0.006	-0.067
-536.164	-184.704	-0.274	-0.004
-535.150	800.000	-0.063	0.238
-534.135	8.772	-0.178	0.134
-533.121	-200.000	-0.028	0.444
-532.106	800.000	-0.016	0.064
-531.091	-141.602	0.284	0.029
-530.077	227.652	0.114	0.185
-529.062	236.583	-0.124	0.204
-528.048	528.401	0.167	-0.394
-527.033	109.775	-0.245	-0.293
-526.018	-8.833	-0.201	-0.134
-525.004	112.238	-0.090	-0.108
-523.989	110.178	-0.142	-0.169
-522.975	-200.000	-0.026	0.454
-521.960	-200.000	-0.011	-0.194
-520.945	331.947	0.079	-0.151
-519.931	-44.994	0.138	-0.069
-518.916	-22.217	-0.191	0.116
-517.902	-54.306	-0.390	0.176
-516.887	-103.981	-0.390	-0.091
-515.872	-97.899	0.293	-0.075
-514.858	-57.758	-0.123	-0.054
-513.843	379.634	0.103	0.209
-512.829	-18.821	0.158	-0.098
-511.814	19.628	-0.116	-0.093
-510.799	111.612	-0.288	-0.346
-509.785	-150.870	-0.146	0.011
-508.770	-200.000	0.009	0.227
-507.756	-67.456	0.230	-0.090
-506.741	297.535	0.167	0.306
-505.726	-113.670	-0.386	-0.075
-504.712	-70.379	0.074	0.028
-503.697	485.473	-0.180	0.408
-502.683	202.670	0.091	0.140
-501.668	300.563	0.019	0.035
-500.653	81.181	-0.268	-0.288
-499.639	347.259	0.056	0.109
-498.624	800.000	-0.027	0.113
-497.610	8.273	0.051	-0.038
-496.595	-200.000	-0.016	0.151
-495.581	37.405	0.202	-0.178
-494.566	300.110	0.041	-0.075
-493.551	-50.910	0.321	-0.150
-492.537	-29.672	-0.218	0.124
-491.522	-58.528	-0.155	-0.067
-490.508	-161.281	0.193	0.010
-489.493	51.575	-0.221	0.209
-488.478	-85.847	-0.203	0.062
-487.464	66.063	-0.112	0.114
-486.449	156.853	-0.119	0.164
-485.435	-71.489	-0.600	0.223
-484.420	-66.199	-0.111	-0.044
-483.405	-46.547	0.456	-0.223
-482.391	-12.894	0.279	0.181
-481.376	-72.201	-0.046	0.017
-480.362	151.993	-0.165	-0.223
-479.347	-200.000	0.001	-0.153
-478.332	88.115	0.026	0.029
-477.318	256.848	-0.060	-0.102
-476.303	-200.000	-0.044	0.208
-475.289	-200.000	0.009	0.162
-474.274	94.091	0.120	0.135
-473.259	-200.000	-0.033	0.237
-472.245	-200.000	-0.055	-0.435
-471.230	-106.701	0.129	-0.028
-470.216	-200.000	0.023	0.105
-469.201	-117.362	-0.321	-0.058
-468.186	800.000	0.113	-0.341
-467.172	-19.403	-0.273	-0.169
-466.157	-12.072	0.063	-0.041
-465.143	-89.382	-0.310	-0.091
-464.128	-11.074	0.288	0.189
-463.113	422.127	0.113	-0.240
-462.099	570.988	-0.076	0.183
-461.084	-96.281	-0.182	0.048
-460.070	-58.431	-0.286	-0.123
-459.055	112.025	0.238	-0.286
-458.040	800.000	0.142	-0.457
-457.026	107.878	0.147	0.174
-456.011	-200.000	-0.038	-0.195
-454.997	-200.000	-0.007	0.248
-453.982	-200.000	-0.022	-0.153
-452.968	88.312	-0.046	-0.051
-451.953	-107.154	-0.302	-0.066
-450.938	-200.000	0.011	-0.108
-449.924	192.343	-0.063	-0.094
-448.909	-200.000	-0.034	0.179
-447.895	186.423	0.126	-0.186
-446.880	-50.562	-0.351	-0.165
-445.865	800.000	0.033	-0.092
-444.851	-84.094	-0.155	-0.049
-443.836	177.889	0.109	0.158
-442.822	46.788	0.217	0.201
-441.807	-59.983	-0.280	0.119
-440.792	-77.898	-0.223	0.076
-439.778	800.000	-0.070	-0.221
-438.763	45.973	-0.076	-0.070
-437.749	-200.000	-0.040	-0.298
-436.734	293.883	-0.124	0.225
-435.719	-58.113	0.112	-0.049
-434.705	800.000	0.070	-0.201
-433.690	113.379	-0.097	-0.117
-432.676	-200.000	0.025	-0.197
-431.661	275.942	-0.051	-0.089
-430.646	320.255	-0.046	-0.087
-429.632	-200.000	0.010	-0.172
-428.617	-124.324	-0.193	-0.030
-427.603	-76.205	0.142	0.050
-426.588	-13.987	0.114	0.073
-425.573	664.218	0.047	0.121
-424.559	121.632	0.094	-0.117
-423.544	-34.119	-0.280	0.153
-422.530	188.317	-0.143	-0.212
-421.515	204.756	0.167	-0.256
-420.500	-89.142	-0.224	0.066
-419.486	86.514	-0.103	-0.113
-418.471	-163.616	0.568	0.027
-417.457	800.000	0.060	0.185
-416.442	-113.809	-0.218	0.042
-415.428	-43.924	-0.258	-0.129
-414.413	252.022	0.088	-0.149
-413.398	130.896	-0.229	0.291
-412.384	-36.670	0.106	0.056
-411.369	75.721	-0.230	-0.241
-410.355	-200.000	0.021	0.162
-409.340	31.562	0.112	-0.096
-408.325	-132.385	0.417	-0.053
-407.311	-2.702	-0.343	0.238
-406.296	152.699	0.083	-0.113
-405.282	172.309	0.172	0.246
-404.267	419.696	0.148	-0.315
-403.252	31.999	0.216	0.184
-402.238	-200.000	-0.057	0.306
-401.223	137.874	-0.173	-0.225
-400.209	101.554	-0.194	0.224
-399.194	67.671	-0.232	0.235
-398.179	-51.868	0.235	0.109
-397.165	-200.000	0.046	0.257
-396.150	-98.278	-0.152	-0.039
-395.136	-20.830	0.044	-0.026
-394.121	58.491	0.110	-0.107
-393.106	62.303	-0.220	0.217
-392.092	-200.000	0.008	0.058
-391.077	177.705	0.036	-0.051
-390.063	-200.000	-0.015	-0.119
-389.048	-23.856	-0.161	0.096
-388.033	-35.040	-0.104	0.056
-387.019	-200.000	0.008	-0.223
-386.004	800.000	0.019	-0.077
-384.990	588.486	-0.061	-0.150
-383.975	-123.467	-0.055	-0.009
-382.960	800.000	0.038	-0.116
-381.946	-200.000	-0.052	0.260
-380.931	-90.889	-0.205	0.058
-379.917	-109.691	0.271	-0.057
-378.902	-200.000	0.086	0.525
-377.888	-53.668	-0.555	0.251
-376.873	178.885	0.214	0.310
-375.858	-47.076	-0.011	0.005
-374.844	-106.547	0.297	-0.066
-373.829	124.678	0.315	0.393
-372.815	500.703	0.146	0.334
-371.800	-200.000	-0.040	-0.200
-370.785	800.000	-0.067	-0.281
-369.771	-30.563	0.090	0.050
-368.756	25.115	-0.083	0.068
-367.742	6.883	-0.182	0.134
-366.727	22.391	-0.174	-0.141
-365.712	-200.000	0.022	0.404
-364.698	-81.731	-0.081	-0.026
-363.683	-200.000	0.031	-0.376
-362.669	516.113	0.048	0.112
-361.654	-151.095	0.075	-0.006
-360.639	-38.923	-0.324	0.169
-359.625	692.458	-0.092	0.239
-358.610	-34.779	0.193	0.105
-357.596	646.919	0.131	-0.331
-356.581	-80.209	-0.074	0.024
-355.566	-119.468	0.241	-0.041
-354.552	166.301	-0.132	-0.185
-353.537	472.257	-0.156	0.348
-352.523	363.031	0.221	-0.439
-351.508	13.816	0.199	-0.153
-350.493	-200.000	-0.028	-0.174
-349.479	800.000	-0.120	-0.404
-348.464	124.490	0.200	0.249
-347.450	36.948	0.201	-0.176
-346.435	175.351	-0.172	0.247
-345.420	800.000	-0.138	0.493
-344.406	43.575	-0.133	-0.120
-343.391	42.479	-0.097	0.088
-342.377	-200.000	0.008	-0.079
-341.362	89.464	0.083	0.092
-340.348	355.793	-0.061	0.120
-339.333	177.714	0.203	0.293
-338.318	205.450	-0.196	-0.302
-337.304	-62.807	-0.013	-0.005
-336.289	67.278	-0.095	-0.096
-335.275	-26.111	-0.162	0.094
-334.260	-200.000	0.020	0.125
-333.245	-42.677	0.120	0.060
-332.231	390.013	-0.105	-0.215
-331.216	94.207	0.235	0.264
-330.202	65.126	0.057	-0.057
-329.187	-78.946	-0.279	0.094
-328.172	-143.140	0.276	0.026
-327.158	-53.866	0.084	0.038
-326.143	-152.131	0.123	0.009
-325.129	-200.000	0.036	-0.346
-324.114	99.917	-0.141	-0.162
-323.099	2.388	-0.138	-0.099
-322.085	-139.455	0.344	0.036
-321.070	-48.888	-0.227	-0.108
-320.056	-200.000	-0.056	0.304
-319.041	-200.000	0.003	-0.158
-318.026	-114.270	-0.258	-0.049
-317.012	-97.025	-0.370	0.096
-315.997	285.886	0.054	0.095
-314.983	800.000	-0.061	-0.177
-313.968	119.245	0.259	-0.317
-312.953	-200.000	0.079	0.349
-311.939	-200.000	0.023	-0.144
-310.924	-200.000	-0.012	-0.205
-309.910	556.963	0.107	-0.255
-308.895	-4.791	-0.353	-0.240
-307.880	-200.000	0.024	-0.244
-306.866	113.164	-0.160	0.191
-305.851	221.969	0.087	0.138
-304.837	57.578	-0.072	-0.069
-303.822	145.795	0.158	-0.209
-302.807	0.260	0.256	-0.180
-301.793	392.595	-0.068	-0.139
-300.778	19.963	-0.192	0.153
-299.764	-200.000	-0.017	-0.143
-298.749	-200.000	0.009	0.110
-297.735	-200.000	0.014	0.269
-296.720	-68.963	0.185	-0.071
-295.705	40.133	0.264	0.234
-294.691	-86.199	-0.148	0.045
-293.676	-200.000	0.003	0.180
-292.662	59.653	-0.233	0.227
-291.647	-144.077	0.202	0.019
-290.632	-127.647	0.434	0.062
-289.618	-200.000	-0.029	-0.222
-288.603	59.161	0.252	-0.245
-287.589	-77.103	-0.338	0.116
-286.574	361.946	0.111	-0.219
-285.559	169.854	0.084	0.119
-284.545	-200.000	0.007	0.403
-283.530	-133.508	0.148	-0.018
-282.516	-4.144	0.259	0.177
-281.501	-76.053	0.151	-0.053
-280.486	800.000	-0.053	-0.183
-279.472	87.343	0.408	-0.445
-278.457	40.309	-0.226	-0.200
-277.443	404.040	0.090	0.188
-276.428	510.582	-0.046	-0.105
-275.413	800.000	-0.070	-0.270
-274.399	-157.577	-0.340	0.020
-273.384	758.648	0.081	0.217
-272.370	-140.879	-0.457	-0.046
-271.355	800.000	-0.021	-0.076
-270.340	-200.000	-0.040	-0.240
-269.326	335.971	-0.075	-0.143
-268.311	800.000	0.037	0.158
-267.297	93.663	0.162	0.181
-266.282	-98.123	0.209	0.053
-265.267	516.777	-0.099	-0.229
-264.253	296.024	-0.238	0.429
-263.238	60.755	0.141	-0.138
-262.224	76.987	-0.126	-0.132
-261.209	-200.000	0.009	0.102
-260.195	-90.933	0.435	0.123
-259.180	-95.627	0.368	-0.097
-258.165	-172.484	-0.197	-0.006
-257.151	324.179	0.127	0.239
-256.136	-107.134	0.306	-0.067
-255.122	-39.893	-0.223	-0.115
-254.107	-148.785	0.287	0.023
-253.092	135.002	-0.008	-0.010
-252.078	-200.000	0.016	-0.080
-251.063	176.185	0.080	0.115
-250.049	260.192	-0.107	-0.182
-249.034	-123.034	-0.099	0.016
-248.019	80.759	0.115	-0.123
-247.005	-200.000	-0.003	0.211
-245.990	33.454	-0.198	-0.170
-244.976	-200.000	0.054	0.313
-243.961	-30.872	0.201	-0.112
-242.946	-50.192	-0.209	-0.097
-241.932	-200.000	0.007	-0.154
-240.917	9.279	-0.257	-0.192
-239.903	-120.580	0.121	-0.020
-238.888	-11.167	0.248	-0.161
-237.873	19.157	-0.140	0.111
-236.859	-6.235	-0.016	0.011
-235.844	302.749	0.158	0.288
-234.830	307.600	0.145	-0.266
-233.815	-200.000	-0.066	-0.386
-232.800	-2.772	-0.164	0.113
-231.786	134.338	-0.064	-0.082
-230.771	57.382	0.138	0.133
-229.757	139.828	-0.079	0.102
-228.742	-38.494	0.176	-0.092
-227.727	30.932	-0.076	0.064
-226.713	-147.652	0.171	-0.014
-225.698	51.193	-0.210	0.196
-224.684	-104.176	0.139	-0.032
-223.669	-152.586	-0.323	0.023
-222.655	322.628	-0.261	0.490
-221.640	375.469	0.079	0.159
-220.625	2.169	-0.130	-0.093
-219.611	-98.269	0.181	0.046
-218.596	800.000	0.107	0.302
-217.582	-36.797	0.159	0.084
-216.567	133.948	0.122	0.156
-215.552	419.733	-0.022	-0.047
-214.538	-92.666	0.100	-0.028
-213.523	-35.316	0.151	0.081
-212.509	-10.240	0.106	0.069
-211.494	-4.491	0.376	-0.256
-210.479	113.547	0.178	-0.212
-209.465	80.296	0.393	-0.416
-208.450	800.000	-0.063	-0.227
-207.436	-62.894	0.202	-0.082
-206.421	69.581	0.106	-0.108
-205.406	101.561	0.048	-0.055
-204.392	483.620	-0.174	0.388
-203.377	-144.194	-0.091	-0.008
-202.363	-200.000	-0.006	-0.166
-201.348	175.391	0.175	0.250
-200.333	308.515	0.056	-0.102
-199.319	-41.775	-0.351	0.177
-198.304	1.709	-0.262	0.186
-197.290	19.769	0.292	-0.231
-196.275	753.364	0.092	-0.246
-195.260	570.071	0.144	-0.344
-194.246	800.000	-0.056	-0.158
-193.231	-35.684	0.297	0.159
-192.217	131.330	0.259	0.327
-191.202	69.583	0.307	-0.311
-190.187	-200.000	-0.003	-0.287
-189.173	-20.052	0.265	-0.161
-188.158	280.652	0.086	-0.150
-187.144	350.205	0.102	0.199
-186.129	586.185	-0.021	0.052
-185.114	-66.300	0.067	-0.026
-184.100	179.226	0.017	-0.025
-183.085	229.293	-0.287	-0.461
-182.071	800.000	0.050	0.159
-181.056	-113.431	0.248	-0.048
-180.042	48.481	-0.177	-0.163
-179.027	565.251	-0.092	0.220
-178.012	237.538	0.100	0.164
-176.998	-200.000	0.009	-0.230
-175.983	800.000	0.103	-0.354
-174.969	-174.171	-0.235	0.007
-173.954	-177.483	0.035	-0.001
-172.939	800.000	0.074	0.315
-171.925	-121.427	-0.111	0.018
-170.910	-134.285	-0.140	0.017
-169.896	-200.000	-0.040	0.201
-168.881	-149.648	0.108	0.008
-167.866	-17.642	0.219	-0.135
-166.852	-96.090	0.332	-0.087
-165.837	800.000	0.022	0.086
-164.823	14.178	-0.116	0.088
-163.808	-165.977	-0.005	0.000
-162.793	-58.416	-0.531	0.227
-161.779	125.842	0.070	-0.087
-160.764	-200.000	0.021	-0.255
-159.750	-117.951	0.316	-0.056
-158.735	-33.514	0.169	-0.092
-157.720	5.346	-0.172	0.125
-156.706	159.938	0.115	0.157
-155.691	-160.355	0.253	0.013
-154.677	211.406	0.047	0.073
-153.662	-129.602	0.148	-0.020
-152.647	-140.256	-0.233	-0.024
-151.633	-81.151	0.044	0.014
-150.618	-106.819	0.218	0.047
-149.604	-73.071	0.132	-0.048
-148.589	-163.384	0.030	0.001
-147.574	-144.760	-0.274	-0.025
-146.560	-82.885	-0.131	-0.042
-145.545	34.343	0.289	0.248
-144.531	-138.661	-0.365	0.039
-143.516	379.082	-0.110	0.221
-142.502	-164.481	-0.280	-0.013
-141.487	224.228	-0.167	-0.265
-140.472	602.941	-0.145	-0.355
-139.458	-153.166	0.227	0.016
-138.443	-94.322	0.230	-0.062
-137.429	-72.719	0.124	-0.045
-136.414	351.054	0.127	-0.247
-135.399	-92.079	-0.058	0.016
-134.385	-200.000	0.053	0.273
-133.370	-94.732	0.202	0.054
-132.356	-200.000	-0.027	0.245
-131.341	800.000	0.072	0.271
-130.326	-200.000	-0.058	-0.288
-129.312	103.940	-0.095	-0.109
-128.297	-174.719	0.381	0.011
-127.283	495.371	-0.062	0.140
-126.268	-76.177	-0.223	-0.077
-125.253	-200.000	-0.038	0.184
-124.239	-200.000	-0.034	0.299
-123.224	-136.848	0.303	0.034
-122.210	570.627	0.044	0.104
-121.195	-139.071	0.033	0.003
