DTS Sentinel unit serial number:	SN413079Multiplexer serial number:	ORYXHardware model number:	OX4-SRSoftware version number:	ORYX F/W v4.00 Oryx Data Collector v3.7.2.0data status	okinstallation	princeton_trtdifferential loss correction	single-endedforward channel	channel 2reverse channel	N/Adate	2019/09/11time	16:25:10forward acquisition time	60.00reverse acquisition time	0.00gamma	496.2192k internal	0.2286k external	0.2286temperature offset calibration	1.0021default loss term (dB/km)	0.3790temperature slope calibration	1.0000multiplexer offset coefficient	1.0000multiplexer slope coefficient	1.0000fibre end	0.00T internal ref (°C)	43.55T ext. ref 1 (°C)	1.09T ext. ref 2 (°C)	38.93length (m)	temperature (°C)	Stokes	anti-Stokes-747.200	-200.000	-0.035	0.202
-746.185	-83.873	-0.409	0.134
-745.171	-200.000	0.007	0.222
-744.156	-87.141	0.161	0.050
-743.142	-96.193	-0.425	-0.116
-742.127	-142.547	-0.157	0.016
-741.112	195.666	0.134	0.209
-740.098	-200.000	-0.011	0.308
-739.083	-83.543	0.148	0.049
-738.069	-111.138	-0.119	-0.025
-737.054	-200.000	0.063	-0.429
-736.039	-55.125	-0.046	0.021
-735.025	431.431	0.023	0.050
-734.010	-200.000	-0.007	0.140
-732.996	-23.253	-0.298	0.184
-731.981	-144.500	-0.334	0.032
-730.966	-188.748	0.306	0.004
-729.952	700.662	0.136	-0.367
-728.937	-65.814	-0.118	0.048
-727.923	-5.954	-0.153	0.107
-726.908	28.535	0.105	0.091
-725.894	-120.911	0.217	-0.038
-724.879	144.668	-0.174	-0.239
-723.864	-103.196	-0.422	-0.102
-722.850	-94.849	0.089	-0.025
-721.835	-200.000	-0.038	-0.247
-720.821	-200.000	-0.030	-0.445
-719.806	-146.667	0.059	-0.005
-718.791	800.000	0.095	0.346
-717.777	800.000	0.144	0.492
-716.762	-200.000	-0.055	-0.322
-715.748	42.740	0.128	-0.120
-714.733	-200.000	0.047	-0.517
-713.718	-83.078	-0.109	-0.036
-712.704	-155.460	-0.186	0.012
-711.689	440.297	-0.073	-0.163
-710.675	57.659	0.204	0.204
-709.660	108.334	-0.064	0.078
-708.645	-200.000	0.022	0.179
-707.631	-24.431	-0.014	-0.008
-706.616	78.162	0.122	0.133
-705.602	-142.662	0.321	-0.032
-704.587	-18.139	0.371	-0.238
-703.572	-200.000	0.061	0.286
-702.558	-166.685	-0.126	0.005
-701.543	800.000	0.136	0.391
-700.529	-7.869	0.169	-0.117
-699.514	423.744	0.008	-0.018
-698.499	556.597	0.094	-0.232
-697.485	525.685	-0.057	0.139
-696.470	-92.547	-0.383	0.110
-695.456	-39.399	-0.157	-0.084
-694.441	381.951	-0.137	-0.289
-693.426	-5.420	-0.209	-0.147
-692.412	218.014	-0.063	0.103
-691.397	-42.453	0.166	-0.086
-690.383	-120.048	-0.067	-0.012
-689.368	26.650	0.342	-0.293
-688.354	12.390	-0.085	-0.067
-687.339	-200.000	0.035	-0.182
-686.324	-102.606	-0.170	-0.042
-685.310	-200.000	0.034	-0.263
-684.295	-72.468	0.378	0.143
-683.281	-78.557	0.067	0.024
-682.266	-200.000	-0.018	0.230
-681.251	50.583	0.115	-0.112
-680.237	174.595	-0.075	-0.111
-679.222	-200.000	-0.007	0.350
-678.208	215.280	-0.157	-0.256
-677.193	-11.935	0.050	-0.033
-676.178	-88.129	-0.015	-0.005
-675.164	-200.000	-0.019	0.394
-674.149	84.563	0.012	-0.014
-673.135	107.176	0.094	0.114
-672.120	277.352	-0.192	-0.350
-671.105	-108.095	-0.156	0.035
-670.091	54.307	-0.082	0.081
-669.076	120.536	0.094	0.119
-668.062	-151.136	-0.187	-0.014
-667.047	800.000	0.057	-0.190
-666.032	-200.000	0.005	-0.181
-665.018	431.928	-0.044	-0.097
-664.003	-200.000	-0.024	-0.198
-662.989	800.000	-0.047	0.150
-661.974	32.022	-0.028	0.024
-660.959	28.773	0.057	-0.049
-659.945	-46.527	-0.191	0.096
-658.930	-53.123	0.349	-0.164
-657.916	69.283	-0.201	-0.211
-656.901	-32.134	0.051	0.029
-655.886	-67.671	0.271	-0.108
-654.872	469.932	0.087	0.201
-653.857	46.653	-0.207	0.196
-652.843	-0.260	-0.064	-0.046
-651.828	800.000	-0.011	0.044
-650.814	-152.254	0.260	0.019
-649.799	-200.000	-0.009	-0.152
-648.784	-124.585	0.079	0.013
-647.770	-56.168	0.284	-0.129
-646.755	-200.000	-0.011	-0.310
-645.741	68.450	-0.172	-0.180
-644.726	-118.834	0.316	0.057
-643.711	-200.000	0.057	-0.454
-642.697	-154.810	0.177	0.012
-641.682	-100.390	-0.379	0.096
-640.668	-200.000	-0.046	-0.329
-639.653	635.922	-0.018	0.048
-638.638	121.729	0.107	-0.136
-637.624	-90.992	0.216	0.064
-636.609	122.391	-0.145	-0.185
-635.595	-80.285	-0.339	-0.116
-634.580	-200.000	-0.018	-0.093
-633.565	640.055	-0.076	-0.198
-632.551	737.795	-0.102	0.279
-631.536	800.000	-0.085	-0.308
-630.522	800.000	-0.032	-0.104
-629.507	-200.000	0.086	0.471
-628.492	-200.000	0.061	-0.286
-627.478	257.884	0.114	-0.201
-626.463	-56.972	-0.309	0.140
-625.449	115.474	-0.141	-0.176
-624.434	503.300	0.027	-0.065
-623.419	-200.000	0.022	-0.215
-622.405	-200.000	0.063	0.000
-621.390	-3.613	-0.329	-0.234
-620.376	90.066	-0.045	-0.051
-619.361	289.240	-0.108	-0.201
-618.346	59.475	-0.094	0.094
-617.332	-200.000	-0.003	0.172
-616.317	-152.158	0.283	-0.021
-615.303	-92.576	-0.251	-0.072
-614.288	-73.321	-0.350	0.131
-613.273	-41.670	-0.184	0.097
-612.259	2.495	0.108	-0.080
-611.244	368.988	-0.022	0.046
-610.230	334.840	-0.122	-0.241
-609.215	-52.091	-0.286	0.136
-608.201	409.127	-0.183	-0.396
-607.186	10.316	-0.402	0.313
-606.171	117.073	-0.086	-0.108
-605.157	-55.394	-0.267	0.122
-604.142	-179.079	0.299	-0.007
-603.128	599.690	0.114	0.290
-602.113	-0.388	-0.252	0.183
-601.098	-200.000	-0.007	0.312
-600.084	-43.002	0.251	0.130
-599.069	-32.155	-0.059	0.034
-598.055	-200.000	-0.029	0.189
-597.040	-60.033	0.162	0.070
-596.025	-200.000	-0.068	0.375
-595.011	14.558	0.180	0.144
-593.996	-26.010	-0.124	0.075
-592.982	-30.023	0.082	0.047
-591.967	50.553	0.228	-0.220
-590.952	115.527	0.088	0.109
-589.938	375.454	0.143	-0.297
-588.923	82.864	0.061	-0.068
-587.909	405.360	0.093	0.200
-586.894	204.278	0.104	0.164
-585.879	227.919	-0.150	0.250
-584.865	-141.316	-0.134	-0.014
-583.850	800.000	0.076	0.223
-582.836	-72.777	-0.330	0.124
-581.821	-200.000	0.028	-0.205
-580.806	236.933	-0.220	-0.371
-579.792	17.794	-0.150	0.122
-578.777	-9.903	0.194	-0.131
-577.763	219.769	-0.110	0.180
-576.748	642.741	-0.077	0.201
-575.733	39.640	0.157	0.144
-574.719	-200.000	-0.014	-0.163
-573.704	122.349	0.164	0.208
-572.690	-200.000	-0.024	0.326
-571.675	-75.829	-0.312	-0.113
-570.661	-200.000	-0.039	0.322
-569.646	800.000	0.076	-0.231
-568.631	-200.000	-0.025	0.204
-567.617	147.257	-0.125	-0.172
-566.602	-87.041	0.270	-0.084
-565.588	-81.198	-0.147	0.050
-564.573	87.617	0.188	0.212
-563.558	-54.881	0.170	-0.078
-562.544	127.002	0.266	-0.344
-561.529	-200.000	-0.024	0.141
-560.515	519.202	-0.083	0.198
-559.500	-106.394	-0.167	-0.038
-558.485	-77.506	0.089	0.031
-557.471	-129.595	-0.315	0.044
-556.456	606.624	0.015	0.039
-555.442	216.810	-0.054	-0.088
-554.427	233.559	0.085	0.143
-553.412	-200.000	0.004	-0.327
-552.398	44.307	-0.238	-0.222
-551.383	-139.051	0.140	0.015
-550.369	-105.080	-0.232	0.054
-549.354	-124.148	0.463	0.074
-548.339	70.267	-0.144	0.152
-547.325	-21.411	-0.329	0.205
-546.310	-31.536	-0.259	0.148
-545.296	-127.471	-0.080	0.012
-544.281	-102.093	-0.469	0.115
-543.266	-157.106	0.060	-0.004
-542.252	-74.742	0.068	-0.025
-541.237	-18.992	-0.156	0.099
-540.223	-200.000	-0.005	-0.125
-539.208	88.322	0.219	-0.247
-538.193	-79.829	0.060	-0.020
-537.179	-10.557	-0.239	-0.161
-536.164	-89.849	0.163	-0.049
-535.150	-38.749	-0.149	-0.080
-534.135	49.133	0.188	-0.179
-533.121	46.155	-0.189	0.178
-532.106	800.000	0.089	0.264
-531.091	254.791	0.170	-0.296
-530.077	782.950	-0.187	-0.521
-529.062	121.081	0.078	0.099
-528.048	-25.188	-0.249	-0.150
-527.033	-140.781	-0.074	-0.008
-526.018	-200.000	0.038	-0.210
-525.004	-19.870	-0.053	-0.033
-523.989	34.400	-0.020	0.018
-522.975	-200.000	0.006	0.316
-521.960	-57.389	-0.209	0.093
-520.945	86.836	-0.266	-0.299
-519.931	-200.000	-0.023	0.149
-518.916	136.622	-0.053	0.071
-517.902	250.287	-0.208	-0.360
-516.887	66.451	-0.177	-0.183
-515.872	603.116	-0.034	-0.085
-514.858	-200.000	-0.062	0.307
-513.843	-62.182	0.279	-0.118
-512.829	-54.917	0.043	0.020
-511.814	152.008	-0.091	-0.127
-510.799	-200.000	-0.034	0.321
-509.785	-96.707	-0.363	-0.097
-508.770	-200.000	0.059	-0.374
-507.756	324.111	-0.107	0.208
-506.741	180.436	0.139	0.208
-505.726	124.643	0.299	-0.383
-504.712	-200.000	0.039	0.243
-503.697	-188.431	0.233	-0.003
-502.683	-75.345	-0.160	-0.058
-501.668	3.918	-0.049	-0.036
-500.653	-200.000	0.033	-0.155
-499.639	-47.924	-0.168	0.083
-498.624	-14.921	0.362	0.236
-497.610	9.935	-0.348	0.268
-496.595	187.748	0.200	-0.304
-495.581	-200.000	-0.051	-0.259
-494.566	20.518	0.116	0.096
-493.551	-84.294	0.154	-0.050
-492.537	-200.000	-0.068	-0.326
-491.522	359.765	-0.133	0.270
-490.508	143.932	-0.148	-0.201
-489.493	-136.110	0.230	-0.027
-488.478	800.000	-0.014	-0.052
-487.464	-200.000	-0.025	0.144
-486.449	194.282	-0.028	0.043
-485.435	-200.000	0.015	0.073
-484.420	617.749	-0.048	0.123
-483.405	296.056	-0.051	-0.094
-482.391	-104.322	0.354	0.083
-481.376	195.991	0.098	-0.151
-480.362	-89.425	0.117	0.035
-479.347	62.572	-0.184	0.187
-478.332	-76.250	0.054	0.019
-477.318	8.670	0.272	-0.208
-476.303	183.538	0.113	0.170
-475.289	24.984	0.095	0.080
-474.274	-199.125	0.241	0.001
-473.259	-120.812	0.413	-0.071
-472.245	-200.000	-0.021	-0.144
-471.230	78.368	0.123	0.133
-470.216	12.344	0.118	0.092
-469.201	91.236	0.170	-0.193
-468.186	195.859	0.045	-0.069
-467.172	-118.259	0.295	-0.053
-466.157	-168.426	0.039	-0.002
-465.143	-77.389	0.271	-0.096
-464.128	-163.320	0.452	0.022
-463.113	134.946	0.023	0.030
-462.099	1.406	-0.216	-0.158
-461.084	-200.000	-0.013	0.113
-460.070	188.942	0.127	-0.193
-459.055	5.871	-0.111	0.083
-458.040	196.836	0.086	-0.133
-457.026	800.000	-0.066	0.262
-456.011	330.162	-0.071	0.140
-454.997	-68.244	0.158	0.063
-453.982	-200.000	-0.060	0.382
-452.968	481.043	-0.063	-0.144
-451.953	102.156	0.189	-0.224
-450.938	-6.187	-0.429	0.297
-449.924	800.000	-0.050	0.209
-448.909	-65.354	0.305	-0.125
-447.895	-108.245	-0.284	-0.062
-446.880	-200.000	-0.019	-0.124
-445.865	-200.000	0.013	0.297
-444.851	-57.660	0.243	0.108
-443.836	-200.000	-0.070	-0.322
-442.822	-187.928	0.068	-0.001
-441.807	-95.779	-0.090	-0.024
-440.792	800.000	0.012	0.043
-439.778	-30.863	-0.172	-0.098
-438.763	19.031	0.108	0.088
-437.749	86.513	0.073	0.082
-436.734	50.894	-0.293	0.281
-435.719	178.039	-0.086	0.128
-434.705	-22.935	-0.195	-0.119
-433.690	296.284	0.162	0.301
-432.676	-135.899	-0.125	-0.015
-431.661	800.000	0.031	0.120
-430.646	-117.768	-0.331	-0.060
-429.632	-200.000	-0.003	-0.411
-428.617	-200.000	0.040	-0.418
-427.603	23.844	-0.004	0.004
-426.588	34.201	-0.159	0.140
-425.573	44.825	0.197	-0.184
-424.559	800.000	0.046	0.165
-423.544	-31.445	0.059	-0.034
-422.530	-41.057	0.236	-0.124
-421.515	30.613	-0.145	0.125
-420.500	36.824	-0.450	-0.403
-419.486	61.365	0.173	-0.174
-418.471	-149.311	-0.119	-0.010
-417.457	-78.723	-0.148	-0.051
-416.442	26.838	-0.360	-0.306
-415.428	-38.733	-0.319	0.171
-414.413	11.290	-0.415	0.322
-413.398	489.829	0.110	0.255
-412.384	759.104	-0.036	-0.099
-411.369	22.960	0.044	-0.037
-410.355	-97.935	0.069	-0.018
-409.340	-200.000	-0.027	0.220
-408.325	53.741	0.256	0.249
-407.311	-144.801	-0.218	0.020
-406.296	425.442	0.040	-0.088
-405.282	-12.737	-0.073	0.048
-404.267	741.627	0.150	0.407
-403.252	-200.000	0.003	0.083
-402.238	-150.467	-0.307	0.024
-401.223	387.759	0.110	-0.231
-400.209	-101.921	0.042	0.010
-399.194	326.441	0.086	0.167
-398.179	-182.746	0.259	0.005
-397.165	241.901	-0.119	-0.202
-396.150	-63.421	0.308	-0.128
-395.136	-128.407	0.326	-0.047
-394.121	800.000	0.035	0.116
-393.106	129.344	-0.143	-0.185
-392.092	144.256	-0.185	-0.250
-391.077	-30.513	0.081	0.046
-390.063	577.957	-0.060	0.149
-389.048	-200.000	-0.005	-0.144
-388.033	-131.144	0.296	0.040
-387.019	46.313	-0.115	0.107
-386.004	800.000	-0.072	-0.314
-384.990	92.255	0.105	-0.120
-383.975	160.115	0.114	-0.161
-382.960	-145.393	-0.040	0.004
-381.946	-147.246	-0.169	-0.015
-380.931	800.000	-0.056	0.209
-379.917	-45.487	-0.046	0.023
-378.902	-35.811	-0.247	-0.135
-377.888	263.693	-0.091	-0.159
-376.873	-200.000	0.038	0.337
-375.858	440.418	-0.082	0.181
-374.844	604.731	0.072	0.182
-373.829	130.687	-0.147	-0.191
-372.815	-75.879	-0.224	-0.080
-371.800	145.039	0.336	0.455
-370.785	742.311	0.047	-0.128
-369.771	-48.542	-0.177	-0.086
-368.756	33.213	-0.231	-0.203
-367.742	800.000	0.013	0.043
-366.727	800.000	-0.032	-0.130
-365.712	-17.549	0.215	0.137
-364.698	-151.785	-0.344	-0.026
-363.683	-121.488	0.108	-0.018
-362.669	-200.000	-0.039	-0.234
-361.654	321.839	0.074	-0.143
-360.639	800.000	-0.010	-0.041
-359.625	339.732	-0.100	0.197
-358.610	-137.684	-0.089	-0.010
-357.596	-109.140	-0.255	-0.055
-356.581	-96.657	-0.184	-0.049
-355.566	-88.830	-0.186	0.056
-354.552	45.283	0.117	0.110
-353.537	-200.000	0.003	0.059
-352.523	-18.746	0.121	0.076
-351.508	-132.157	-0.118	-0.015
-350.493	3.784	0.292	-0.215
-349.479	13.064	0.211	-0.165
-348.464	-200.000	-0.018	0.081
-347.450	-200.000	0.033	0.159
-346.435	-166.031	-0.247	0.011
-345.420	85.316	-0.113	0.125
-344.406	-162.051	-0.125	0.006
-343.391	-40.969	-0.304	0.159
-342.377	-87.625	-0.065	-0.020
-341.362	-83.044	0.214	0.070
-340.348	107.646	0.242	0.291
-339.333	-16.138	0.356	0.228
-338.318	223.631	-0.252	0.411
-337.304	58.113	-0.045	0.044
-336.289	10.015	0.300	-0.230
-335.275	254.065	-0.099	0.171
-334.260	-19.064	-0.165	-0.104
-333.245	800.000	0.105	-0.322
-332.231	-132.571	-0.120	-0.016
-331.216	567.183	0.092	-0.225
-330.202	-66.845	-0.245	-0.098
-329.187	223.786	0.145	-0.236
-328.172	-200.000	-0.006	-0.317
-327.158	90.756	0.207	-0.235
-326.143	-43.229	0.330	-0.169
-325.129	-200.000	0.005	-0.164
-324.114	77.131	0.222	0.238
-323.099	659.441	0.020	-0.052
-322.085	725.975	0.079	0.213
-321.070	10.515	0.173	0.133
-320.056	-73.329	-0.351	-0.130
-319.041	5.476	-0.299	0.223
-318.026	201.019	0.141	0.219
-317.012	785.442	0.080	0.222
-315.997	-108.952	-0.223	0.048
-314.983	4.229	-0.038	-0.028
-313.968	23.944	0.376	-0.313
-312.953	209.158	-0.131	0.207
-311.939	340.711	-0.080	-0.158
-310.924	-61.558	-0.115	-0.049
-309.910	-200.000	0.028	0.153
-308.895	-115.815	0.119	0.022
-307.880	-117.122	-0.286	0.053
-306.866	321.096	0.043	0.083
-305.851	-63.824	-0.214	0.088
-304.837	-53.518	0.317	-0.146
-303.822	-200.000	-0.040	-0.269
-302.807	-153.805	0.197	-0.014
-301.793	-43.170	-0.255	-0.130
-300.778	-200.000	-0.020	-0.225
-299.764	305.801	0.188	-0.353
-298.749	102.168	-0.304	-0.358
-297.735	800.000	-0.118	-0.413
-296.720	-200.000	0.027	-0.210
-295.705	150.231	0.090	0.123
-294.691	191.460	0.052	-0.079
-293.676	27.826	-0.182	-0.155
-292.662	-75.629	0.097	-0.035
-291.647	-60.251	0.118	-0.051
-290.632	-101.496	0.111	-0.027
-289.618	-83.998	-0.186	-0.060
-288.603	-27.411	-0.278	0.163
-287.589	312.156	0.104	-0.198
-286.574	2.952	0.185	-0.136
-285.559	96.861	-0.189	0.219
-284.545	-200.000	0.012	0.182
-283.530	-95.295	0.216	-0.059
-282.516	23.879	-0.319	-0.265
-281.501	-200.000	0.039	-0.366
-280.486	58.653	0.087	-0.086
-279.472	-200.000	0.002	-0.269
-278.457	-107.130	-0.165	-0.037
-277.443	800.000	0.057	-0.226
-276.428	3.302	-0.212	0.155
-275.413	800.000	0.111	0.340
-274.399	137.928	0.239	0.315
-273.384	117.036	0.073	0.090
-272.370	-120.165	-0.312	-0.054
-271.355	-200.000	-0.037	-0.273
-270.340	-200.000	-0.004	0.163
-269.326	-200.000	0.003	0.026
-268.311	-200.000	-0.021	0.208
-267.297	310.688	0.092	0.173
-266.282	270.710	0.127	0.225
-265.267	800.000	-0.024	0.073
-264.253	-82.446	-0.121	0.040
-263.238	800.000	0.094	-0.284
-262.224	159.722	-0.197	0.276
-261.209	70.949	-0.080	-0.084
-260.195	-25.566	-0.209	-0.124
-259.180	-68.785	0.468	0.182
-258.165	800.000	0.083	0.237
-257.151	-200.000	-0.004	-0.301
-256.136	-55.524	0.182	-0.082
-255.122	-38.346	-0.362	-0.193
-254.107	292.785	0.152	-0.278
-253.092	479.485	0.124	0.282
-252.078	117.603	0.081	0.100
-251.063	143.829	-0.161	0.215
-250.049	-72.889	-0.087	0.032
-249.034	481.782	-0.159	-0.363
-248.019	-57.205	-0.158	-0.070
-247.005	-200.000	0.027	0.468
-245.990	-72.218	0.458	-0.171
-244.976	-200.000	0.076	0.382
-243.961	-19.673	0.273	0.170
-242.946	6.209	-0.268	0.200
-241.932	-200.000	0.019	0.120
-240.917	-51.818	0.026	-0.012
-239.903	40.223	-0.095	0.086
-238.888	800.000	0.061	0.195
-237.873	-200.000	0.022	-0.378
-236.859	28.710	-0.256	0.218
-235.844	57.744	0.121	0.119
-234.830	25.665	0.066	0.056
-233.815	-200.000	-0.007	-0.150
-232.800	39.732	0.042	-0.038
-231.786	800.000	0.080	0.273
-230.771	-126.256	-0.148	0.022
-229.757	-200.000	-0.049	-0.261
-228.742	-200.000	-0.044	0.337
-227.727	-123.279	0.239	-0.038
-226.713	262.349	-0.075	0.130
-225.698	-117.967	-0.184	-0.033
-224.684	-70.889	0.306	0.116
-223.669	-37.177	0.058	0.031
-222.655	185.942	-0.154	0.230
-221.640	-120.226	-0.160	0.027
-220.625	-23.438	-0.144	0.087
-219.611	-0.824	0.206	-0.146
-218.596	145.503	0.091	0.123
-217.582	-54.633	-0.128	0.058
-216.567	-200.000	0.030	-0.381
-215.552	237.999	-0.089	-0.148
-214.538	-200.000	0.001	0.189
-213.523	-47.074	0.071	0.035
-212.509	800.000	0.021	0.079
-211.494	-184.192	-0.214	0.004
-210.479	-200.000	-0.008	-0.200
-209.465	-200.000	0.015	-0.200
-208.450	-92.248	-0.117	-0.033
-207.436	410.356	0.110	0.234
-206.421	28.684	0.204	0.174
-205.406	-151.038	-0.400	0.030
-204.392	-200.000	0.043	0.311
-203.377	-99.812	0.397	0.100
-202.363	18.889	0.146	-0.117
-201.348	535.902	0.136	0.324
-200.333	122.093	-0.186	-0.233
-199.319	101.712	-0.114	0.133
-198.304	-114.251	0.285	0.055
-197.290	-28.882	0.101	0.058
-196.275	273.334	-0.015	0.027
-195.260	777.697	-0.059	-0.163
-194.246	399.552	-0.203	0.427
-193.231	-200.000	0.037	-0.265
-192.217	460.176	0.188	-0.421
-191.202	-81.601	0.416	0.137
-190.187	378.643	0.030	-0.062
-189.173	435.860	-0.126	-0.275
-188.158	-79.293	-0.383	0.130
-187.144	800.000	0.078	-0.322
-186.129	-140.825	0.357	-0.037
-185.114	-136.162	-0.415	0.049
-184.100	58.964	-0.140	0.138
-183.085	-200.000	-0.051	0.278
-182.071	-200.000	0.007	-0.082
-181.056	800.000	0.094	-0.406
-180.042	-15.602	0.126	0.081
-179.027	47.870	0.131	0.123
-178.012	-200.000	-0.059	0.490
-176.998	-90.518	0.245	0.071
-175.983	-48.619	0.075	0.036
-174.969	-131.138	0.444	0.059
-173.954	-200.000	0.057	-0.284
-172.939	-174.114	0.157	-0.005
-171.925	83.197	0.221	0.242
-170.910	-41.478	0.091	-0.047
-169.896	-112.288	-0.107	-0.022
-168.881	-82.822	-0.165	0.053
-167.866	48.342	0.177	-0.166
-166.852	94.978	0.124	0.142
-165.837	-12.785	-0.267	0.175
-164.823	-19.631	-0.035	0.022
-163.808	198.553	0.153	0.235
-162.793	-107.953	0.388	0.085
-161.779	-32.650	0.183	0.102
-160.764	800.000	0.068	0.236
-159.750	216.556	0.051	0.082
-158.735	-45.458	0.130	-0.065
-157.720	25.289	0.094	-0.078
-156.706	-62.499	0.210	-0.088
-155.691	-37.989	0.284	-0.152
-154.677	-111.144	0.325	0.067
-153.662	-200.000	-0.018	0.118
-152.647	-162.213	0.169	-0.008
-151.633	-148.152	0.461	0.038
-150.618	96.866	0.171	-0.196
-149.604	-70.857	0.385	0.145
-148.589	160.205	-0.206	0.287
-147.574	419.707	-0.200	-0.429
-146.560	189.685	-0.151	-0.227
-145.545	-170.703	-0.291	0.010
-144.531	800.000	0.071	0.306
-143.516	124.699	0.022	-0.028
-142.502	-136.370	-0.225	0.026
-141.487	-200.000	0.009	0.125
-140.472	364.663	-0.083	0.167
-139.458	-58.257	0.184	0.080
-138.443	244.722	0.170	0.286
-137.429	25.345	0.113	0.094
-136.414	-18.041	-0.079	0.050
-135.399	-105.420	-0.076	-0.017
-134.385	-74.957	-0.021	-0.008
-133.370	268.252	-0.095	-0.168
-132.356	-9.221	0.183	-0.122
-131.341	94.821	0.257	0.293
-130.326	-15.657	-0.018	-0.012
-129.312	800.000	-0.033	0.130
-128.297	-200.000	0.005	-0.037
-127.283	-23.902	-0.383	-0.230
-126.268	-200.000	0.069	-0.306
-125.253	282.962	-0.036	0.065
-124.239	335.077	0.126	0.245
-123.224	-5.668	-0.208	-0.143
-122.210	64.157	-0.181	0.182
-121.195	35.914	-0.151	0.133
