DTS Sentinel unit serial number:	SN413079Multiplexer serial number:	ORYXHardware model number:	OX4-SRSoftware version number:	ORYX F/W v4.00 Oryx Data Collector v3.7.2.0data status	okinstallation	princeton_trtdifferential loss correction	single-endedforward channel	channel 2reverse channel	N/Adate	2019/09/17time	02:55:35forward acquisition time	60.00reverse acquisition time	0.00gamma	496.2192k internal	0.2327k external	0.2327temperature offset calibration	0.9970default loss term (dB/km)	0.3790temperature slope calibration	1.0000multiplexer offset coefficient	1.0000multiplexer slope coefficient	1.0000fibre end	0.00T internal ref (°C)	29.94T ext. ref 1 (°C)	0.13T ext. ref 2 (°C)	24.91length (m)	temperature (°C)	Stokes	anti-Stokes-747.200	-77.087	0.007	-0.002
-746.185	-55.756	-0.144	0.065
-745.171	800.000	0.121	0.384
-744.156	-141.448	-0.206	-0.021
-743.142	-200.000	0.002	0.043
-742.127	800.000	0.106	0.341
-741.112	55.682	-0.181	-0.177
-740.098	-35.764	0.094	0.051
-739.083	105.966	0.053	0.063
-738.069	399.330	-0.068	-0.144
-737.054	-118.552	-0.111	-0.020
-736.039	-153.218	-0.207	0.015
-735.025	-16.730	-0.241	0.154
-734.010	266.638	-0.118	0.208
-732.996	-200.000	0.014	0.223
-731.981	-147.717	-0.231	-0.020
-730.966	-200.000	-0.022	0.256
-729.952	71.211	0.070	-0.073
-728.937	-113.030	-0.361	-0.072
-727.923	178.424	-0.001	0.001
-726.908	44.959	0.179	0.166
-725.894	190.770	0.101	0.152
-724.879	-186.102	-0.618	0.009
-723.864	569.894	-0.074	0.181
-722.850	13.524	0.170	0.133
-721.835	53.483	-0.145	0.140
-720.821	-200.000	-0.028	-0.289
-719.806	379.317	-0.126	-0.260
-718.791	453.360	0.081	0.180
-717.777	-200.000	-0.000	0.041
-716.762	-24.232	-0.326	-0.196
-715.748	186.222	-0.013	0.019
-714.733	71.207	0.096	-0.100
-713.718	-25.677	0.055	0.033
-712.704	-182.788	-0.330	0.006
-711.689	48.351	0.149	-0.140
-710.675	267.361	-0.006	0.010
-709.660	-33.801	-0.356	0.197
-708.645	-200.000	-0.002	-0.105
-707.631	744.098	0.101	0.273
-706.616	34.018	-0.192	-0.168
-705.602	16.718	-0.195	0.155
-704.587	81.940	-0.035	-0.038
-703.572	-135.811	-0.176	0.021
-702.558	43.951	0.100	0.092
-701.543	86.250	0.193	0.213
-700.529	-115.088	0.126	-0.024
-699.514	800.000	0.046	0.160
-698.499	-189.271	0.031	-0.000
-697.485	-166.813	0.259	0.011
-696.470	191.554	-0.147	0.223
-695.456	-79.626	0.200	-0.068
-694.441	161.621	-0.152	0.214
-693.426	323.957	-0.101	0.193
-692.412	128.632	0.236	-0.303
-691.397	-200.000	0.044	-0.240
-690.383	68.920	-0.149	-0.154
-689.368	-132.963	0.252	0.032
-688.354	50.223	-0.103	0.098
-687.339	50.385	-0.200	0.190
-686.324	163.405	0.091	0.128
-685.310	50.607	0.150	0.143
-684.295	-25.769	-0.049	0.029
-683.281	-59.299	-0.219	0.095
-682.266	-51.604	0.152	-0.071
-681.251	800.000	0.071	-0.242
-680.237	80.048	0.041	0.044
-679.222	-200.000	0.006	0.217
-678.208	42.225	0.109	0.099
-677.193	51.963	-0.067	0.065
-676.178	309.568	-0.100	-0.187
-675.164	-9.818	0.081	-0.054
-674.149	-35.091	-0.175	-0.096
-673.135	478.605	0.015	-0.034
-672.120	-200.000	0.012	0.148
-671.105	-9.022	-0.304	0.205
-670.091	245.557	0.127	0.216
-669.076	800.000	-0.094	-0.366
-668.062	-130.600	0.102	-0.014
-667.047	-175.314	0.244	0.007
-666.032	-200.000	0.028	0.170
-665.018	88.777	-0.021	-0.024
-664.003	-29.643	-0.014	-0.008
-662.989	-200.000	-0.043	-0.212
-661.974	-200.000	-0.032	-0.173
-660.959	84.505	0.254	-0.279
-659.945	-174.676	-0.309	0.009
-658.930	398.730	-0.097	0.205
-657.916	31.360	-0.448	0.387
-656.901	-53.493	0.057	-0.026
-655.886	-153.908	-0.126	-0.009
-654.872	43.085	0.097	-0.089
-653.857	237.233	-0.175	-0.291
-652.843	-200.000	-0.018	-0.179
-651.828	-200.000	-0.025	-0.162
-650.814	220.493	-0.141	-0.227
-649.799	-115.756	-0.268	0.050
-648.784	293.436	-0.030	0.055
-647.770	429.451	0.181	-0.393
-646.755	32.527	-0.356	-0.309
-645.741	-200.000	0.013	0.188
-644.726	-7.599	-0.162	0.110
-643.711	-4.558	0.271	-0.188
-642.697	-137.549	0.116	-0.013
-641.682	-143.652	-0.285	-0.027
-640.668	3.333	-0.195	-0.142
-639.653	-99.828	0.285	-0.072
-638.638	-117.472	0.244	0.044
-637.624	236.668	-0.154	0.256
-636.609	239.231	-0.098	0.164
-635.595	152.918	0.059	0.081
-634.580	800.000	0.065	0.209
-633.565	-81.362	-0.248	0.082
-632.551	196.607	-0.194	0.297
-631.536	800.000	-0.057	-0.181
-630.522	468.537	0.087	0.197
-629.507	-200.000	0.017	-0.223
-628.492	-200.000	-0.053	-0.351
-627.478	37.241	-0.140	0.124
-626.463	328.582	-0.094	-0.181
-625.449	528.387	-0.020	-0.046
-624.434	-198.840	-0.332	0.002
-623.419	-16.624	-0.339	0.215
-622.405	-184.690	-0.114	0.002
-621.390	29.164	-0.150	0.128
-620.376	800.000	0.080	0.310
-619.361	-158.253	-0.303	-0.018
-618.346	193.673	-0.096	0.145
-617.332	-60.583	0.065	0.028
-616.317	69.456	0.269	-0.278
-615.303	-117.000	-0.153	0.028
-614.288	611.556	0.061	-0.154
-613.273	-48.918	-0.169	0.081
-612.259	-200.000	-0.030	0.254
-611.244	215.260	-0.064	0.102
-610.230	9.169	0.218	-0.165
-609.215	-48.679	-0.182	-0.088
-608.201	800.000	-0.020	0.086
-607.186	134.802	0.217	0.283
-606.171	-67.604	0.107	-0.042
-605.157	-49.757	0.332	0.158
-604.142	800.000	-0.040	0.164
-603.128	-174.475	-0.096	-0.003
-602.113	67.328	-0.258	0.264
-601.098	137.948	0.082	-0.107
-600.084	-200.000	0.014	-0.092
-599.069	-30.096	0.027	0.016
-598.055	347.144	0.095	-0.188
-597.040	1.085	-0.103	-0.074
-596.025	-43.420	0.235	0.119
-595.011	90.559	-0.189	-0.212
-593.996	-142.410	0.023	-0.002
-592.982	-200.000	-0.032	-0.185
-591.967	800.000	0.068	0.211
-590.952	386.122	0.070	-0.146
-589.938	-95.954	0.319	-0.085
-588.923	-200.000	0.066	-0.539
-587.909	-107.672	-0.376	-0.082
-586.894	84.195	0.176	-0.192
-585.879	-10.975	-0.315	-0.208
-584.865	-150.033	0.180	-0.014
-583.850	-144.678	0.210	0.019
-582.836	429.838	0.024	-0.053
-581.821	-200.000	-0.058	-0.363
-580.806	-200.000	-0.036	-0.163
-579.792	113.894	0.069	-0.084
-578.777	-200.000	-0.014	0.241
-577.763	798.701	-0.057	0.158
-576.748	-118.217	-0.128	0.023
-575.733	-200.000	0.011	-0.066
-574.719	800.000	-0.039	0.132
-573.704	-200.000	0.019	-0.395
-572.690	69.490	-0.198	-0.204
-571.675	-200.000	0.040	-0.353
-570.661	-80.778	0.245	0.082
-569.646	374.406	-0.051	-0.103
-568.631	-166.780	-0.027	0.001
-567.617	-83.911	0.308	-0.098
-566.602	-0.183	-0.018	0.013
-565.588	800.000	-0.096	0.363
-564.573	-137.377	0.248	0.028
-563.558	-54.058	0.291	0.132
-562.544	397.856	0.075	-0.158
-561.529	-141.090	-0.389	0.040
-560.515	-52.039	0.199	-0.092
-559.500	-20.936	0.052	-0.032
-558.485	138.156	0.201	0.264
-557.471	524.428	0.023	-0.055
-556.456	-18.914	0.254	0.158
-555.442	800.000	0.057	-0.199
-554.427	-75.219	-0.231	-0.083
-553.412	-200.000	0.043	-0.233
-552.398	39.544	-0.157	-0.141
-551.383	46.474	-0.190	-0.176
-550.369	22.749	0.050	-0.041
-549.354	-200.000	-0.037	-0.223
-548.339	800.000	-0.030	0.093
-547.325	-171.249	0.063	0.002
-546.310	95.296	0.205	-0.234
-545.296	-58.874	-0.104	0.045
-544.281	-200.000	-0.034	-0.216
-543.266	-88.160	-0.178	-0.053
-542.252	230.261	0.015	-0.024
-541.237	-83.954	0.109	-0.035
-540.223	51.166	-0.315	0.298
-539.208	-20.411	-0.024	-0.014
-538.193	-200.000	-0.011	-0.344
-537.179	71.880	0.272	-0.283
-536.164	-169.777	-0.245	0.009
-535.150	-50.015	0.344	0.163
-534.135	800.000	-0.067	0.218
-533.121	114.244	-0.066	0.080
-532.106	-115.557	-0.269	-0.051
-531.091	506.264	-0.019	-0.044
-530.077	800.000	0.042	0.143
-529.062	-3.843	-0.146	-0.102
-528.048	-33.009	-0.169	0.094
-527.033	-200.000	0.000	-0.098
-526.018	-1.290	-0.382	0.270
-525.004	110.224	0.294	0.353
-523.989	-105.741	-0.119	0.027
-522.975	157.738	-0.110	0.152
-521.960	-173.979	-0.098	-0.003
-520.945	-200.000	-0.042	-0.213
-519.931	-7.545	0.325	0.220
-518.916	-102.629	0.177	-0.042
-517.902	-200.000	0.020	0.291
-516.887	800.000	0.122	-0.367
-515.872	497.778	-0.167	-0.384
-514.858	-138.382	-0.077	0.009
-513.843	-128.705	-0.192	0.027
-512.829	365.462	-0.156	-0.314
-511.814	-32.991	-0.291	0.162
-510.799	-106.272	-0.088	-0.020
-509.785	261.629	-0.051	-0.089
-508.770	239.251	0.027	-0.044
-507.756	-200.000	0.010	-0.245
-506.741	800.000	0.057	-0.192
-505.726	-154.434	-0.163	-0.011
-504.712	-111.419	0.098	0.020
-503.697	268.980	0.021	-0.037
-502.683	319.430	0.137	0.260
-501.668	-200.000	0.044	-0.212
-500.653	93.344	-0.178	0.201
-499.639	800.000	-0.017	0.058
-498.624	282.142	0.084	0.150
-497.610	-200.000	-0.050	-0.237
-496.595	319.518	-0.009	-0.018
-495.581	459.801	-0.101	-0.224
-494.566	-200.000	0.008	0.109
-493.551	-115.300	-0.257	0.049
-492.537	-60.778	0.451	0.191
-491.522	265.654	0.116	0.201
-490.508	245.763	0.026	-0.043
-489.493	-200.000	-0.048	-0.267
-488.478	-58.861	-0.209	-0.090
-487.464	-96.078	0.131	-0.035
-486.449	-55.307	0.210	0.094
-485.435	-200.000	0.013	-0.101
-484.420	-200.000	0.018	0.318
-483.405	48.233	0.300	-0.280
-482.391	25.038	0.282	-0.233
-481.376	20.214	0.122	-0.098
-480.362	-67.559	-0.147	0.058
-479.347	-103.807	-0.555	-0.130
-478.332	-103.774	-0.259	0.060
-477.318	-28.936	0.165	0.095
-476.303	-74.744	-0.318	0.114
-475.289	86.072	-0.214	-0.235
-474.274	617.501	0.210	-0.527
-473.259	-140.800	-0.201	0.021
-472.245	-200.000	0.023	-0.139
-471.230	-15.152	-0.209	0.133
-470.216	-76.205	0.195	0.069
-469.201	-156.881	-0.294	0.018
-468.186	259.930	-0.114	-0.197
-467.172	-113.971	0.201	-0.039
-466.157	81.401	-0.136	0.147
-465.143	-137.268	0.105	0.012
-464.128	-200.000	0.004	0.378
-463.113	221.473	-0.150	0.240
-462.099	157.356	-0.141	0.195
-461.084	-52.753	-0.335	-0.154
-460.070	-49.517	0.185	0.088
-459.055	314.614	0.133	0.250
-458.040	-200.000	0.012	0.269
-457.026	-142.870	-0.070	-0.007
-456.011	-51.387	0.281	0.131
-454.997	130.018	0.128	-0.163
-453.982	-101.383	-0.297	-0.072
-452.968	-19.648	0.278	0.171
-451.953	301.135	-0.155	0.286
-450.938	-200.000	0.026	0.373
-449.924	-157.191	0.431	-0.026
-448.909	-200.000	0.077	0.377
-447.895	181.769	0.236	-0.347
-446.880	800.000	0.018	-0.063
-445.865	-17.569	0.148	0.093
-444.851	-142.132	-0.254	-0.025
-443.836	521.743	-0.145	-0.338
-442.822	-15.725	0.134	-0.085
-441.807	109.643	0.144	0.173
-440.792	-200.000	-0.033	0.199
-439.778	-200.000	0.031	-0.155
-438.763	800.000	-0.053	0.162
-437.749	-163.394	0.114	0.005
-436.734	-132.306	-0.035	-0.005
-435.719	-94.202	-0.175	0.048
-434.705	-29.715	-0.273	0.155
-433.690	-26.827	-0.377	-0.220
-432.676	57.803	-0.141	0.138
-431.661	800.000	0.103	0.325
-430.646	94.242	0.185	0.209
-429.632	192.216	0.080	-0.121
-428.617	-154.036	0.089	0.006
-427.603	535.020	-0.059	-0.139
-426.588	-82.605	0.289	-0.093
-425.573	800.000	0.062	-0.186
-424.559	-156.080	-0.164	0.010
-423.544	-200.000	0.007	-0.098
-422.530	15.803	0.225	-0.176
-421.515	-6.876	-0.331	-0.224
-420.500	89.564	-0.160	-0.178
-419.486	-78.417	-0.134	-0.046
-418.471	-146.311	-0.178	0.015
-417.457	-146.145	0.163	-0.014
-416.442	112.608	0.120	0.144
-415.428	800.000	-0.090	0.314
-414.413	9.961	-0.162	0.123
-413.398	789.041	-0.033	-0.090
-412.384	800.000	0.054	-0.164
-411.369	338.796	-0.086	0.167
-410.355	-176.939	0.234	-0.006
-409.340	115.487	-0.005	-0.007
-408.325	800.000	0.086	0.305
-407.311	-14.751	-0.168	0.107
-406.296	-200.000	-0.105	0.461
-405.282	-200.000	0.022	-0.260
-404.267	-157.386	0.170	-0.010
-403.252	-5.670	-0.159	0.108
-402.238	800.000	0.080	-0.247
-401.223	-17.089	0.109	0.069
-400.209	482.067	-0.088	0.200
-399.194	-200.000	0.014	-0.248
-398.179	800.000	-0.067	-0.272
-397.165	-200.000	0.033	0.244
-396.150	172.295	0.054	0.078
-395.136	45.782	-0.103	-0.095
-394.121	800.000	0.024	0.073
-393.106	-151.566	0.042	-0.003
-392.092	394.800	0.171	-0.353
-391.077	61.052	-0.163	0.161
-390.063	-200.000	-0.010	0.222
-389.048	104.936	0.323	-0.379
-388.033	4.828	-0.080	0.058
-387.019	-200.000	-0.018	0.210
-386.004	452.948	-0.127	-0.279
-384.990	800.000	0.076	-0.209
-383.975	643.138	0.052	-0.133
-382.960	-200.000	0.007	-0.048
-381.946	-38.471	0.093	-0.049
-380.931	-200.000	-0.017	0.099
-379.917	-109.317	0.188	-0.040
-378.902	-29.153	0.187	0.107
-377.888	-101.675	0.150	0.036
-376.873	138.063	0.105	0.137
-375.858	-136.434	-0.117	0.014
-374.844	263.794	0.090	-0.155
-373.829	-200.000	0.009	0.162
-372.815	800.000	0.076	0.300
-371.800	-182.359	-0.238	-0.004
-370.785	5.518	0.198	0.145
-369.771	-200.000	-0.011	0.282
-368.756	-39.621	0.043	0.022
-367.742	-114.783	-0.136	0.026
-366.727	-56.625	-0.112	0.049
-365.712	-100.820	0.214	0.052
-364.698	-57.945	-0.377	-0.164
-363.683	-116.018	-0.065	0.012
-362.669	178.710	0.235	-0.341
-361.654	800.000	-0.118	0.472
-360.639	-200.000	-0.058	0.309
-359.625	145.514	0.158	0.210
-358.610	106.994	0.260	-0.306
-357.596	75.240	0.096	0.100
-356.581	-60.073	0.140	-0.059
-355.566	58.481	0.107	0.104
-354.552	459.925	0.057	-0.126
-353.537	718.539	-0.109	-0.289
-352.523	223.017	-0.150	-0.241
-351.508	-88.167	0.341	-0.102
-350.493	3.179	0.231	-0.167
-349.479	-75.520	0.046	0.016
-348.464	800.000	-0.166	0.497
-347.450	515.289	0.049	-0.113
-346.435	-200.000	0.048	-0.360
-345.420	133.498	0.133	0.170
-344.406	-53.774	-0.060	0.027
-343.391	-200.000	0.014	-0.201
-342.377	-200.000	0.027	0.162
-341.362	-30.037	0.234	0.132
-340.348	276.428	-0.022	0.040
-339.333	0.726	0.293	-0.208
-338.318	-46.756	0.238	-0.116
-337.304	184.548	0.286	-0.421
-336.289	-200.000	-0.029	-0.174
-335.275	-6.223	-0.242	0.164
-334.260	449.642	0.158	0.345
-333.245	59.612	-0.114	0.111
-332.231	800.000	-0.050	-0.164
-331.216	-60.237	0.268	-0.113
-330.202	-200.000	-0.003	0.061
-329.187	800.000	-0.016	-0.064
-328.172	56.305	0.138	-0.133
-327.158	-91.227	-0.336	0.095
-326.143	-200.000	0.039	0.178
-325.129	152.287	-0.094	-0.127
-324.114	-118.714	0.123	-0.021
-323.099	-200.000	0.034	0.187
-322.085	383.741	-0.129	0.264
-321.070	-52.044	0.218	0.100
-320.056	36.771	0.190	0.167
-319.041	-165.396	0.193	0.008
-318.026	83.469	-0.344	0.372
-317.012	800.000	-0.006	-0.023
-315.997	124.272	0.219	0.272
-314.983	-166.603	0.376	-0.016
-313.968	13.557	0.325	-0.250
-312.953	-81.811	0.094	-0.031
-311.939	-122.266	-0.201	-0.033
-310.924	800.000	-0.088	0.254
-309.910	253.684	-0.126	-0.213
-308.895	-88.249	0.224	-0.067
-307.880	-44.672	-0.043	0.021
-306.866	-68.984	0.309	-0.118
-305.851	800.000	0.057	-0.174
-304.837	23.789	-0.161	0.132
-303.822	115.709	-0.122	0.147
-302.807	-69.397	-0.180	-0.068
-301.793	800.000	-0.064	0.220
-300.778	618.429	0.151	-0.376
-299.764	474.530	-0.076	-0.169
-298.749	-169.316	-0.148	-0.005
-297.735	46.023	0.166	0.152
-296.720	-35.767	0.176	0.094
-295.705	800.000	0.022	0.096
-294.691	170.338	0.154	-0.218
-293.676	480.639	-0.058	0.130
-292.662	800.000	-0.171	0.471
-291.647	99.676	0.344	0.394
-290.632	142.516	-0.018	-0.023
-289.618	48.967	0.101	-0.094
-288.603	-200.000	0.053	0.250
-287.589	-12.713	0.163	-0.105
-286.574	401.901	0.032	0.067
-285.559	-200.000	-0.004	0.120
-284.545	790.052	-0.177	-0.481
-283.530	504.408	-0.111	0.255
-282.516	-200.000	-0.027	-0.151
-281.501	3.936	-0.192	-0.139
-280.486	-200.000	-0.011	-0.335
-279.472	681.771	-0.153	-0.395
-278.457	800.000	-0.042	-0.182
-277.443	-30.640	0.100	-0.056
-276.428	800.000	-0.027	-0.082
-275.413	43.253	0.209	-0.189
-274.399	800.000	-0.042	-0.156
-273.384	-200.000	0.037	0.364
-272.370	-200.000	-0.018	0.205
-271.355	-35.761	-0.272	-0.146
-270.340	-200.000	0.032	0.216
-269.326	800.000	-0.096	0.280
-268.311	800.000	-0.083	0.243
-267.297	-200.000	-0.001	-0.128
-266.282	205.023	0.050	0.076
-265.267	31.397	0.172	-0.146
-264.253	-63.257	-0.153	0.063
-263.238	-144.151	0.007	0.001
-262.224	125.810	0.193	-0.242
-261.209	139.461	0.151	-0.196
-260.195	234.529	-0.075	-0.123
-259.180	-115.805	-0.140	-0.026
-258.165	-156.984	0.281	-0.017
-257.151	-5.560	-0.355	-0.241
-256.136	-200.000	-0.022	0.103
-255.122	-82.834	-0.060	-0.019
-254.107	-121.282	0.384	0.063
-253.092	138.110	-0.231	-0.300
-252.078	-200.000	0.058	-0.368
-251.063	800.000	0.076	-0.233
-250.049	-72.065	0.111	0.041
-249.034	54.128	-0.156	0.148
-248.019	800.000	0.051	-0.151
-247.005	-169.329	0.238	0.009
-245.990	-200.000	-0.230	0.001
-244.976	-137.460	-0.352	0.039
-243.961	151.518	0.067	-0.090
-242.946	-39.538	-0.307	-0.159
-241.932	-61.135	-0.151	-0.063
-240.917	-141.675	-0.292	-0.029
-239.903	87.368	0.167	-0.183
-238.888	-45.880	-0.153	0.075
-237.873	-96.925	0.189	0.049
-236.859	-73.169	-0.460	0.167
-235.844	-68.292	0.447	-0.172
-234.830	-143.596	-0.255	-0.024
-233.815	-106.817	-0.067	-0.015
-232.800	-200.000	-0.040	-0.330
-231.786	-114.601	-0.184	-0.035
-230.771	-10.933	0.155	0.101
-229.757	-46.093	-0.268	0.131
-228.742	72.650	0.198	0.204
-227.727	72.187	0.332	-0.342
-226.713	-75.865	-0.054	-0.019
-225.698	562.265	0.042	-0.100
-224.684	-91.702	0.223	-0.063
-223.669	133.187	0.239	0.305
-222.655	303.428	-0.153	-0.279
-221.640	740.341	-0.133	0.354
-220.625	-41.965	-0.151	0.077
-219.611	-86.443	0.192	0.058
-218.596	449.201	0.160	0.348
-217.582	64.027	-0.055	-0.054
-216.567	-200.000	-0.057	0.323
-215.552	115.929	-0.105	0.127
-214.538	-87.663	-0.462	0.138
-213.523	-118.856	-0.140	0.024
-212.509	-33.611	0.091	0.050
-211.494	132.129	0.179	-0.227
-210.479	-200.000	-0.030	0.171
-209.465	-46.225	0.047	0.023
-208.450	48.128	0.086	-0.080
-207.436	-200.000	-0.043	0.407
-206.421	583.370	-0.074	-0.178
-205.406	-83.342	-0.043	-0.014
-204.392	-200.000	-0.020	0.103
-203.377	12.018	-0.090	0.068
-202.363	51.771	0.275	0.258
-201.348	38.342	0.226	0.199
-200.333	-83.462	-0.177	-0.056
-199.319	800.000	-0.043	0.118
-198.304	-200.000	-0.003	0.210
-197.290	59.053	0.211	0.205
-196.275	-70.192	-0.131	-0.049
-195.260	-200.000	0.018	-0.081
-194.246	91.542	-0.244	-0.270
-193.231	1.640	0.108	0.077
-192.217	-144.836	0.314	-0.028
-191.202	581.676	-0.072	-0.175
-190.187	-63.307	-0.328	-0.133
-189.173	112.418	0.230	-0.275
-188.158	-30.336	-0.206	-0.115
-187.144	-93.865	0.365	-0.099
-186.129	-198.553	-0.329	0.002
-185.114	4.757	0.094	0.068
-184.100	76.546	-0.262	0.274
-183.085	-200.000	0.025	-0.216
-182.071	338.285	0.146	0.279
-181.056	-200.000	0.049	0.245
-180.042	800.000	-0.042	0.123
-179.027	800.000	0.063	0.253
-178.012	-42.018	0.284	0.143
-176.998	78.172	-0.178	0.187
-175.983	-200.000	0.037	-0.354
-174.969	-146.212	-0.249	0.022
-173.954	-69.582	0.162	0.061
-172.939	-54.038	-0.237	0.106
-171.925	-39.907	0.444	0.229
-170.910	226.758	-0.147	-0.235
-169.896	-44.946	0.320	-0.157
-168.881	4.133	0.113	-0.081
-167.866	-165.451	0.225	0.010
-166.852	20.945	-0.172	0.137
-165.837	539.731	0.044	-0.104
-164.823	401.931	0.071	-0.146
-163.808	-196.381	0.168	-0.001
-162.793	-200.000	-0.003	0.067
-161.779	-55.492	-0.069	0.030
-160.764	115.594	0.105	0.126
-159.750	186.382	-0.089	0.130
-158.735	-24.304	0.064	0.038
-157.720	-200.000	-0.044	0.288
-156.706	-39.363	-0.462	-0.239
-155.691	-93.225	-0.087	-0.024
-154.677	-200.000	-0.049	-0.272
-153.662	104.633	0.072	0.084
-152.647	98.735	-0.296	0.336
-151.633	82.154	0.173	0.184
-150.618	312.270	0.066	0.123
-149.604	362.649	0.106	0.210
-148.589	313.858	-0.139	-0.257
-147.574	17.570	-0.043	0.034
-146.560	128.300	-0.072	-0.090
-145.545	182.201	0.112	0.163
-144.531	800.000	0.032	-0.110
-143.516	-200.000	0.014	-0.233
-142.502	-200.000	-0.032	0.377
-141.487	-26.189	-0.168	0.097
-140.472	-200.000	0.150	-0.001
-139.458	-200.000	-0.088	0.387
-138.443	-31.787	-0.149	0.083
-137.429	-90.982	0.165	0.047
-136.414	267.040	-0.115	-0.198
-135.399	49.604	-0.057	-0.053
-134.385	650.496	0.132	-0.332
-133.370	387.933	-0.149	-0.304
-132.356	52.283	0.105	0.099
-131.341	38.763	-0.179	-0.157
-130.326	-169.433	0.245	0.009
-129.312	800.000	0.035	0.138
-128.297	2.465	0.217	0.155
-127.283	-29.013	0.273	0.154
-126.268	-77.339	0.287	0.098
-125.253	-101.000	0.215	-0.052
-124.239	-200.000	-0.058	0.293
-123.224	17.218	-0.145	0.113
-122.210	-200.000	0.050	-0.239
-121.195	800.000	0.100	-0.374
