DTS Sentinel unit serial number:	SN413079Multiplexer serial number:	ORYXHardware model number:	OX4-SRSoftware version number:	ORYX F/W v4.00 Oryx Data Collector v3.7.2.0data status	okinstallation	princeton_trtdifferential loss correction	single-endedforward channel	channel 2reverse channel	N/Adate	2019/09/18time	20:11:35forward acquisition time	60.00reverse acquisition time	0.00gamma	496.2192k internal	0.2334k external	0.2334temperature offset calibration	1.0033default loss term (dB/km)	0.3790temperature slope calibration	1.0000multiplexer offset coefficient	1.0000multiplexer slope coefficient	1.0000fibre end	0.00T internal ref (°C)	29.55T ext. ref 1 (°C)	1.00T ext. ref 2 (°C)	20.14length (m)	temperature (°C)	Stokes	anti-Stokes-747.200	-129.486	-0.123	0.017
-746.185	-79.699	-0.114	-0.038
-745.171	-200.000	-0.009	0.118
-744.156	45.239	-0.309	0.286
-743.142	129.143	0.231	-0.296
-742.127	-185.985	-0.167	0.002
-741.112	-200.000	-0.050	-0.348
-740.098	-200.000	-0.037	0.193
-739.083	35.203	0.085	-0.075
-738.069	-200.000	-0.027	-0.278
-737.054	-116.953	-0.090	0.017
-736.039	-171.953	-0.264	-0.009
-735.025	321.200	0.040	0.076
-734.010	-19.625	-0.388	-0.241
-732.996	380.627	-0.135	0.278
-731.981	800.000	-0.124	0.450
-730.966	128.804	0.072	-0.093
-729.952	-73.452	-0.341	-0.125
-728.937	1.015	0.109	-0.079
-727.923	800.000	0.048	-0.178
-726.908	190.240	-0.162	-0.245
-725.894	66.110	-0.153	-0.156
-724.879	221.185	-0.080	0.130
-723.864	800.000	0.064	-0.281
-722.850	379.839	-0.162	0.332
-721.835	-17.470	-0.269	-0.170
-720.821	-33.959	-0.334	-0.185
-719.806	78.467	0.202	0.217
-718.791	800.000	0.033	0.134
-717.777	800.000	-0.089	-0.288
-716.762	-19.296	-0.506	-0.315
-715.748	-23.243	-0.053	-0.032
-714.733	800.000	0.024	0.089
-713.718	-124.363	-0.273	-0.043
-712.704	-200.000	0.080	-0.394
-711.689	-91.831	0.101	0.029
-710.675	-168.606	-0.275	-0.010
-709.660	-170.132	0.347	-0.012
-708.645	-58.248	-0.096	0.042
-707.631	-103.924	-0.196	-0.046
-706.616	800.000	0.030	0.128
-705.602	146.780	-0.194	0.261
-704.587	-173.986	0.154	-0.005
-703.572	214.454	-0.093	-0.147
-702.558	-165.476	0.131	-0.006
-701.543	661.244	0.032	0.083
-700.529	245.528	-0.072	-0.121
-699.514	-200.000	0.035	0.365
-698.499	-60.486	0.260	-0.111
-697.485	-90.336	0.332	-0.097
-696.470	-200.000	-0.040	0.185
-695.456	800.000	-0.049	0.178
-694.441	126.022	-0.042	0.053
-693.426	82.718	-0.226	-0.246
-692.412	-8.940	0.292	-0.196
-691.397	-98.665	0.236	-0.060
-690.383	-200.000	-0.025	-0.258
-689.368	226.392	-0.027	-0.044
-688.354	-147.105	0.224	-0.019
-687.339	26.091	-0.164	-0.137
-686.324	-134.371	-0.295	0.036
-685.310	457.146	0.122	-0.271
-684.295	-87.232	0.037	-0.011
-683.281	76.317	-0.149	0.158
-682.266	21.431	-0.185	-0.151
-681.251	800.000	0.041	-0.118
-680.237	-175.662	-0.185	-0.005
-679.222	-113.613	0.340	0.067
-678.208	-141.445	0.294	0.030
-677.193	164.881	-0.097	-0.138
-676.178	-101.270	-0.185	0.045
-675.164	-200.000	-0.000	0.026
-674.149	220.391	-0.185	0.297
-673.135	417.551	0.076	-0.163
-672.120	-164.412	0.254	0.012
-671.105	-33.156	0.396	-0.220
-670.091	-38.281	-0.241	-0.128
-669.076	37.203	0.075	0.066
-668.062	-200.000	0.031	0.389
-667.047	194.822	0.185	-0.281
-666.032	-200.000	0.027	-0.244
-665.018	-13.214	-0.047	-0.030
-664.003	167.474	0.104	-0.148
-662.989	2.466	-0.180	-0.131
-661.974	22.532	-0.293	-0.240
-660.959	-128.753	0.335	-0.047
-659.945	-40.001	-0.169	-0.088
-658.930	62.474	0.052	0.052
-657.916	-4.866	-0.051	-0.036
-656.901	437.728	0.167	-0.364
-655.886	-200.000	0.065	-0.431
-654.872	-120.072	-0.590	-0.101
-653.857	250.426	-0.139	-0.237
-652.843	406.583	0.071	0.150
-651.828	-56.797	0.166	0.073
-650.814	-200.000	0.034	-0.175
-649.799	147.293	-0.186	-0.250
-648.784	-7.573	0.252	-0.171
-647.770	117.522	0.165	-0.203
-646.755	-200.000	-0.001	0.052
-645.741	-200.000	-0.043	0.205
-644.726	-104.654	-0.193	0.045
-643.711	31.615	0.126	0.109
-642.697	651.248	0.044	-0.112
-641.682	-200.000	0.013	-0.061
-640.668	561.817	-0.085	-0.205
-639.653	-200.000	0.020	0.557
-638.638	800.000	-0.087	-0.246
-637.624	-4.692	0.253	0.175
-636.609	-109.427	-0.210	-0.045
-635.595	-200.000	0.002	0.100
-634.580	-200.000	0.006	-0.033
-633.565	-106.300	-0.253	-0.057
-632.551	209.617	-0.081	-0.128
-631.536	392.979	-0.147	0.307
-630.522	144.470	0.182	0.244
-629.507	-83.749	-0.210	-0.067
-628.492	89.757	0.120	-0.134
-627.478	800.000	0.069	0.279
-626.463	-93.227	0.231	-0.064
-625.449	-91.633	0.168	0.048
-624.434	-200.000	-0.005	0.140
-623.419	73.325	0.267	-0.280
-622.405	-117.926	-0.099	-0.018
-621.390	-100.133	0.054	0.013
-620.376	534.793	-0.102	0.242
-619.361	320.546	0.102	-0.193
-618.346	2.800	-0.134	-0.097
-617.332	405.877	-0.080	0.168
-616.317	-200.000	0.006	0.090
-615.303	-82.396	-0.539	0.175
-614.288	800.000	-0.046	-0.128
-613.273	64.241	0.088	-0.089
-612.259	55.554	-0.180	0.174
-611.244	167.668	0.141	-0.201
-610.230	103.794	-0.150	-0.176
-609.215	147.180	0.099	0.133
-608.201	21.107	-0.082	0.067
-607.186	-40.836	-0.300	0.155
-606.171	-95.883	-0.385	0.103
-605.157	-74.313	-0.222	0.080
-604.142	272.316	0.118	-0.208
-603.128	-42.459	-0.102	-0.052
-602.113	-187.818	-0.077	0.001
-601.098	176.223	-0.068	-0.098
-600.084	712.308	0.160	-0.423
-599.069	41.673	-0.045	-0.040
-598.055	800.000	-0.047	0.195
-597.040	515.081	-0.231	-0.539
-596.025	-3.391	-0.261	-0.181
-595.011	39.063	0.249	-0.222
-593.996	3.355	-0.034	0.024
-592.982	-200.000	0.000	-0.135
-591.967	-156.342	0.098	-0.006
-590.952	667.757	0.030	-0.077
-589.938	-50.293	-0.085	0.040
-588.923	15.997	-0.023	-0.018
-587.909	-93.971	0.077	0.021
-586.894	-22.163	0.031	0.019
-585.879	-200.000	-0.044	-0.287
-584.865	730.631	0.032	-0.086
-583.850	97.958	-0.206	0.237
-582.836	-51.047	-0.176	0.082
-581.821	-200.000	-0.005	0.592
-580.806	464.248	0.161	0.360
-579.792	79.056	0.259	0.277
-578.777	45.496	-0.210	-0.193
-577.763	91.777	0.185	0.207
-576.748	26.810	-0.391	0.327
-575.733	138.525	0.050	0.065
-574.719	314.924	0.316	0.595
-573.704	-141.875	-0.173	0.017
-572.690	-200.000	0.032	-0.342
-571.675	-113.300	-0.294	0.058
-570.661	-71.390	0.127	0.048
-569.646	-149.036	-0.174	-0.014
-568.631	-109.390	0.063	0.013
-567.617	-66.812	0.087	0.035
-566.602	-14.151	-0.266	-0.171
-565.588	800.000	0.034	-0.116
-564.573	13.588	-0.219	-0.170
-563.558	-200.000	-0.005	0.106
-562.544	-63.929	0.218	-0.089
-561.529	-106.274	0.197	-0.044
-560.515	-137.975	-0.295	-0.033
-559.500	378.365	0.127	-0.259
-558.485	-111.177	0.186	-0.038
-557.471	-200.000	-0.042	0.267
-556.456	-109.721	-0.115	0.024
-555.442	379.803	-0.026	0.054
-554.427	-200.000	-0.039	-0.187
-553.412	-144.626	-0.046	0.004
-552.398	-200.000	0.007	0.078
-551.383	-78.686	-0.097	-0.033
-550.369	694.546	0.145	-0.381
-549.354	-200.000	-0.023	-0.140
-548.339	-200.000	0.012	0.293
-547.325	-119.107	0.067	-0.012
-546.310	-38.901	0.224	-0.118
-545.296	-161.652	-0.094	-0.005
-544.281	-150.759	0.442	-0.033
-543.266	408.324	0.092	-0.195
-542.252	266.099	0.263	0.458
-541.237	8.431	0.223	0.168
-540.223	-200.000	-0.000	-0.109
-539.208	24.759	-0.069	0.057
-538.193	77.784	0.160	-0.169
-537.179	-155.843	0.354	0.023
-536.164	-81.710	-0.322	0.105
-535.150	27.017	-0.143	0.119
-534.135	-83.783	-0.307	0.097
-533.121	-86.179	0.209	-0.064
-532.106	394.621	-0.108	0.223
-531.091	13.587	0.196	0.152
-530.077	-85.694	0.107	0.033
-529.062	800.000	-0.036	-0.145
-528.048	-200.000	-0.016	0.075
-527.033	800.000	0.045	-0.172
-526.018	95.134	-0.043	0.049
-525.004	-74.768	-0.145	0.052
-523.989	168.103	-0.285	-0.404
-522.975	24.944	-0.096	0.079
-521.960	-100.854	0.083	-0.020
-520.945	175.706	-0.218	-0.315
-519.931	87.583	-0.257	-0.283
-518.916	151.629	-0.069	0.094
-517.902	498.511	0.049	-0.112
-516.887	3.145	0.102	0.074
-515.872	49.126	-0.158	-0.148
-514.858	-56.306	0.220	-0.097
-513.843	-32.033	-0.275	-0.153
-512.829	-146.780	0.345	-0.030
-511.814	-200.000	0.045	-0.389
-510.799	-118.675	0.178	0.031
-509.785	-200.000	-0.034	0.271
-508.770	-130.804	0.436	0.058
-507.756	271.765	0.126	-0.222
-506.741	-115.738	0.229	-0.043
-505.726	-199.077	0.036	0.000
-504.712	-135.218	-0.263	-0.031
-503.697	-200.000	0.028	0.264
-502.683	-24.126	-0.232	0.138
-501.668	15.242	-0.147	-0.115
-500.653	309.408	0.032	-0.059
-499.639	-80.131	0.295	0.098
-498.624	-29.905	-0.125	0.071
-497.610	112.906	-0.061	0.073
-496.595	72.159	0.301	-0.312
-495.581	-200.000	-0.026	-0.185
-494.566	-200.000	0.007	0.065
-493.551	-57.109	-0.256	0.112
-492.537	34.807	0.108	0.094
-491.522	-47.066	0.088	0.043
-490.508	-91.337	-0.239	-0.068
-489.493	-200.000	-0.020	-0.091
-488.478	-200.000	-0.020	-0.126
-487.464	128.461	-0.063	0.080
-486.449	135.741	-0.195	-0.252
-485.435	184.237	-0.121	0.178
-484.420	408.966	-0.192	0.404
-483.405	-32.147	-0.214	-0.119
-482.391	-26.238	0.165	0.096
-481.376	-29.034	0.071	0.041
-480.362	-167.003	0.172	-0.007
-479.347	109.694	0.266	0.317
-478.332	-200.000	0.010	-0.149
-477.318	185.049	0.190	-0.281
-476.303	358.980	-0.156	0.311
-475.289	-92.898	-0.169	-0.047
-474.274	-78.030	0.243	-0.083
-473.259	765.113	-0.044	0.120
-472.245	44.603	-0.200	0.182
-471.230	-117.723	0.162	-0.029
-470.216	-200.000	0.010	-0.207
-469.201	-61.623	0.079	-0.033
-468.186	49.800	-0.212	0.198
-467.172	-13.089	0.188	0.122
-466.157	2.916	-0.356	-0.257
-465.143	-93.190	-0.136	-0.037
-464.128	334.343	-0.032	0.061
-463.113	-19.221	0.360	0.222
-462.099	-14.150	-0.202	0.130
-461.084	299.507	0.155	-0.284
-460.070	-129.493	0.222	0.031
-459.055	-32.194	0.148	-0.082
-458.040	295.001	0.114	0.208
-457.026	-180.678	0.279	0.006
-456.011	-200.000	0.100	0.444
-454.997	-50.500	-0.293	0.138
-453.982	768.326	0.069	0.188
-452.968	17.421	-0.475	-0.375
-451.953	-200.000	-0.085	0.394
-450.938	-157.388	-0.212	-0.013
-449.924	72.492	0.162	0.168
-448.909	449.914	0.081	-0.177
-447.895	186.422	0.087	0.128
-446.880	762.738	-0.106	-0.285
-445.865	-23.133	0.237	-0.142
-444.851	49.055	-0.126	0.117
-443.836	196.081	0.051	-0.077
-442.822	-1.755	-0.344	-0.241
-441.807	-129.068	-0.145	-0.020
-440.792	38.463	0.136	-0.120
-439.778	-71.595	-0.164	-0.061
-438.763	-197.972	-0.243	-0.001
-437.749	800.000	0.072	-0.240
-436.734	-51.110	-0.404	0.188
-435.719	-200.000	-0.027	0.194
-434.705	132.083	0.047	0.060
-433.690	-59.985	0.343	0.146
-432.676	-200.000	0.018	0.167
-431.661	157.037	-0.030	0.041
-430.646	-96.493	0.154	0.040
-429.632	-45.468	0.166	-0.082
-428.617	800.000	-0.074	-0.240
-427.603	-22.816	0.187	-0.112
-426.588	-14.240	0.181	0.116
-425.573	800.000	-0.059	0.232
-424.559	800.000	0.050	0.159
-423.544	-170.500	0.190	-0.007
-422.530	-85.707	0.316	-0.097
-421.515	74.496	-0.061	-0.064
-420.500	190.774	-0.030	-0.045
-419.486	-14.611	-0.206	-0.131
-418.471	18.453	-0.119	-0.094
-417.457	-169.994	0.093	-0.003
-416.442	-86.673	0.282	0.086
-415.428	-81.859	0.320	0.104
-414.413	-73.679	-0.244	-0.088
-413.398	-48.085	-0.265	0.127
-412.384	-11.657	-0.130	0.085
-411.369	-138.577	-0.138	-0.015
-410.355	-200.000	-0.052	-0.233
-409.340	428.135	0.075	-0.162
-408.325	-200.000	0.046	0.471
-407.311	-80.694	0.096	-0.032
-406.296	-114.677	-0.274	-0.052
-405.282	-90.486	-0.236	-0.068
-404.267	-11.368	0.098	-0.064
-403.252	800.000	0.112	-0.310
-402.238	-45.249	0.073	-0.036
-401.223	800.000	0.042	-0.119
-400.209	-34.313	-0.036	-0.019
-399.194	18.984	-0.150	-0.119
-398.179	771.597	0.087	0.235
-397.165	-122.582	0.215	0.035
-396.150	-66.402	-0.045	-0.018
-395.136	107.397	-0.287	-0.339
-394.121	-48.384	-0.055	0.026
-393.106	733.983	0.090	-0.238
-392.092	800.000	-0.048	-0.162
-391.077	-103.104	0.243	0.057
-390.063	150.120	-0.084	-0.113
-389.048	-18.845	0.314	-0.194
-388.033	-11.321	0.080	0.052
-387.019	-58.651	0.247	0.106
-386.004	-200.000	0.021	0.109
-384.990	800.000	0.119	0.456
-383.975	128.229	0.008	0.010
-382.960	-150.839	0.207	0.016
-381.946	-9.655	-0.105	0.069
-380.931	571.045	0.013	0.031
-379.917	96.515	0.313	-0.355
-378.902	48.979	-0.083	-0.077
-377.888	-2.318	0.083	0.058
-376.873	39.097	-0.146	0.130
-375.858	-200.000	-0.023	-0.180
-374.844	-200.000	-0.004	-0.158
-373.829	800.000	0.052	0.221
-372.815	84.286	-0.112	-0.122
-371.800	575.084	0.064	-0.154
-370.785	-200.000	0.041	0.289
-369.771	-19.294	-0.511	0.314
-368.756	-169.353	-0.258	-0.009
-367.742	800.000	0.075	0.229
-366.727	-2.633	-0.105	-0.073
-365.712	75.110	-0.073	-0.076
-364.698	-23.389	-0.380	0.226
-363.683	547.184	0.141	0.334
-362.669	800.000	-0.059	-0.215
-361.654	-1.661	-0.228	-0.159
-360.639	-45.080	0.158	0.078
-359.625	800.000	-0.088	0.334
-358.610	-92.311	-0.378	0.106
-357.596	-94.148	0.219	0.060
-356.581	-200.000	-0.021	0.234
-355.566	-54.724	0.287	-0.129
-354.552	-90.381	0.268	-0.077
-353.537	230.715	-0.212	-0.343
-352.523	56.403	0.140	0.135
-351.508	-22.240	0.072	0.043
-350.493	70.786	-0.208	0.213
-349.479	-25.321	-0.103	-0.060
-348.464	74.168	0.087	-0.090
-347.450	-95.219	0.218	0.058
-346.435	-10.281	-0.144	0.094
-345.420	69.232	-0.195	0.198
-344.406	24.317	-0.040	0.033
-343.391	-200.000	-0.061	-0.516
-342.377	800.000	0.039	-0.148
-341.362	-200.000	-0.065	0.340
-340.348	-200.000	0.010	-0.206
-339.333	40.513	-0.157	-0.140
-338.318	800.000	0.013	-0.044
-337.304	-140.600	-0.300	0.031
-336.289	143.376	-0.219	-0.288
-335.275	203.057	-0.104	0.159
-334.260	800.000	-0.064	-0.262
-333.245	22.696	0.161	-0.131
-332.231	38.101	-0.429	0.378
-331.216	28.145	-0.111	0.093
-330.202	-133.697	0.265	0.033
-329.187	131.247	-0.245	-0.311
-328.172	800.000	0.024	-0.092
-327.158	-200.000	0.005	0.135
-326.143	40.511	-0.379	0.337
-325.129	341.314	0.121	-0.235
-324.114	424.348	-0.125	-0.265
-323.099	-200.000	0.013	0.083
-322.085	-126.225	-0.167	-0.025
-321.070	-31.247	0.210	-0.117
-320.056	800.000	-0.100	0.320
-319.041	50.191	-0.347	0.324
-318.026	-138.332	0.066	0.007
-317.012	800.000	0.041	0.114
-315.997	800.000	-0.026	-0.088
-314.983	5.220	0.260	0.189
-313.968	-53.527	-0.170	0.077
-312.953	-56.921	0.262	0.114
-311.939	263.182	-0.097	0.167
-310.924	404.289	0.157	-0.327
-309.910	67.379	0.031	-0.031
-308.895	743.511	-0.060	-0.160
-307.880	-200.000	-0.056	0.314
-306.866	-138.936	0.381	-0.041
-305.851	135.635	-0.229	0.294
-304.837	800.000	-0.027	-0.078
-303.822	-127.339	0.098	-0.014
-302.807	-89.563	-0.356	-0.103
-301.793	-188.126	0.067	0.001
-300.778	-87.888	0.145	-0.043
-299.764	125.825	-0.145	0.180
-298.749	39.491	0.110	0.097
-297.735	-22.528	0.122	-0.073
-296.720	-185.037	0.099	0.002
-295.705	46.812	0.042	-0.038
-294.691	800.000	0.026	0.091
-293.676	4.279	0.233	0.169
-292.662	-77.933	0.261	0.089
-291.647	46.200	0.143	-0.131
-290.632	7.588	0.254	-0.187
-289.618	258.165	0.208	-0.353
-288.603	-71.409	0.490	-0.181
-287.589	467.213	-0.110	-0.243
-286.574	3.424	-0.217	-0.156
-285.559	-141.423	-0.062	0.006
-284.545	-142.861	-0.189	0.018
-283.530	143.405	0.106	-0.139
-282.516	-96.474	0.099	0.026
-281.501	-96.677	-0.107	-0.028
-280.486	120.843	0.097	-0.118
-279.472	53.432	-0.118	0.111
-278.457	-200.000	-0.004	-0.131
-277.443	-200.000	-0.014	-0.156
-276.428	22.991	-0.168	0.136
-275.413	210.841	0.045	0.070
-274.399	-87.476	-0.188	0.056
-273.384	361.211	0.175	-0.346
-272.370	-77.972	0.176	0.060
-271.355	-54.318	0.038	0.017
-270.340	-64.403	0.219	-0.088
-269.326	-133.972	-0.430	-0.053
-268.311	515.288	0.024	-0.055
-267.297	246.284	0.043	0.072
-266.282	-105.593	-0.348	0.078
-265.267	800.000	-0.108	0.453
-264.253	-200.000	-0.024	0.153
-263.238	-83.492	0.478	0.151
-262.224	46.833	0.157	0.144
-261.209	418.432	0.131	-0.277
-260.195	-48.277	0.020	-0.009
-259.180	-85.600	-0.179	0.055
-258.165	-88.597	0.081	-0.024
-257.151	800.000	0.059	-0.168
-256.136	-200.000	0.011	-0.157
-255.122	-200.000	0.021	0.133
-254.107	750.146	0.039	-0.103
-253.092	33.176	0.125	0.106
-252.078	800.000	-0.131	-0.471
-251.063	150.100	-0.241	0.322
-250.049	-200.000	-0.002	0.087
-249.034	-120.880	0.186	0.031
-248.019	105.529	0.219	-0.256
-247.005	-200.000	0.021	0.103
-245.990	-30.048	-0.312	-0.175
-244.976	257.921	-0.121	-0.205
-243.961	-200.000	0.009	-0.214
-242.946	-114.430	0.302	-0.057
-241.932	-200.000	-0.010	-0.095
-240.917	85.472	0.055	-0.060
-239.903	-50.636	0.091	0.042
-238.888	-14.982	-0.134	-0.085
-237.873	-19.786	0.373	-0.227
-236.859	266.290	-0.079	-0.137
-235.844	800.000	0.081	-0.246
-234.830	105.165	0.109	-0.127
-233.815	350.242	0.116	0.226
-232.800	-200.000	0.034	-0.304
-231.786	662.340	0.021	-0.055
-230.771	-117.511	-0.074	-0.013
-229.757	23.871	0.193	0.157
-228.742	-200.000	0.052	-0.426
-227.727	-200.000	0.057	0.262
-226.713	-70.275	0.093	-0.035
-225.698	292.089	0.035	0.062
-224.684	-77.585	-0.247	-0.084
-223.669	-88.815	0.161	-0.047
-222.655	-31.434	-0.433	-0.240
-221.640	-73.872	0.254	0.091
-220.625	-200.000	-0.014	-0.162
-219.611	-80.558	0.194	0.064
-218.596	-88.971	0.155	0.045
-217.582	-150.846	-0.194	-0.014
-216.567	-175.924	-0.106	0.003
-215.552	-200.000	-0.012	0.392
-214.538	100.950	-0.206	0.236
-213.523	-200.000	-0.032	-0.208
-212.509	1.164	-0.284	0.201
-211.494	-200.000	-0.047	0.380
-210.479	800.000	0.050	0.181
-209.465	-137.462	-0.063	0.007
-208.450	-64.710	0.299	-0.119
-207.436	-155.559	-0.146	0.009
-206.421	130.564	-0.055	0.069
-205.406	158.385	0.012	-0.017
-204.392	-200.000	0.058	-0.267
-203.377	-78.621	0.118	0.040
-202.363	-1.336	-0.161	-0.112
-201.348	531.733	-0.130	0.303
-200.333	-67.020	0.318	0.123
-199.319	27.513	-0.105	-0.087
-198.304	269.422	0.097	0.167
-197.290	-83.046	-0.100	-0.032
-196.275	-94.050	-0.130	0.035
-195.260	316.179	0.079	0.147
-194.246	19.799	-0.209	-0.166
-193.231	137.616	-0.168	-0.217
-192.217	67.598	0.056	-0.056
-191.202	166.487	0.068	-0.094
-190.187	-17.325	-0.173	0.107
-189.173	-53.612	-0.164	-0.074
-188.158	-90.573	0.214	0.061
-187.144	200.494	0.227	0.343
-186.129	-173.171	0.218	-0.007
-185.114	46.858	0.223	0.204
-184.100	-18.260	0.356	-0.219
-183.085	182.077	-0.062	0.089
-182.071	-134.611	-0.167	-0.020
-181.056	35.015	0.410	0.353
-180.042	800.000	0.029	0.118
-179.027	-39.017	0.161	-0.083
-178.012	70.318	0.125	0.127
-176.998	-42.556	-0.228	-0.114
-175.983	670.182	-0.070	-0.178
-174.969	-57.345	-0.222	-0.096
-173.954	257.325	0.159	0.269
-172.939	120.613	0.140	0.171
-171.925	513.820	-0.046	-0.105
-170.910	-67.963	0.275	-0.106
-169.896	-200.000	-0.058	0.341
-168.881	-92.198	0.346	0.096
-167.866	73.634	0.317	-0.326
-166.852	-147.589	0.182	0.015
-165.837	-200.000	0.004	-0.075
-164.823	686.558	0.182	0.467
-163.808	254.170	0.129	-0.216
-162.793	-116.459	-0.413	0.075
-161.779	-5.133	0.131	0.088
-160.764	77.741	-0.101	-0.105
-159.750	264.957	0.059	-0.100
-158.735	48.077	0.048	0.044
-157.720	26.418	0.130	-0.107
-156.706	0.298	-0.105	0.073
-155.691	19.417	-0.270	-0.213
-154.677	-200.000	0.041	0.203
-153.662	-200.000	-0.016	0.142
-152.647	-105.305	-0.587	-0.131
-151.633	-200.000	-0.003	0.062
-150.618	59.051	0.227	-0.220
-149.604	22.643	0.176	-0.141
-148.589	36.331	0.116	0.101
-147.574	265.348	-0.094	0.161
-146.560	50.039	-0.259	-0.240
-145.545	33.151	-0.132	-0.112
-144.531	-23.490	0.178	0.105
-143.516	619.991	0.053	-0.132
-142.502	-76.979	0.179	-0.061
-141.487	301.864	0.018	0.032
-140.472	-123.976	0.227	0.035
-139.458	40.612	-0.141	-0.125
-138.443	2.361	0.201	-0.143
-137.429	-200.000	0.096	0.438
-136.414	344.447	0.076	0.146
-135.399	-64.954	0.246	0.098
-134.385	-200.000	-0.313	-0.001
-133.370	-85.412	-0.219	-0.067
-132.356	419.151	-0.163	-0.342
-131.341	-25.551	-0.117	-0.068
-130.326	-200.000	-0.034	-0.333
-129.312	-136.316	0.232	0.027
-128.297	191.891	0.105	-0.155
-127.283	211.119	0.092	-0.142
-126.268	-200.000	0.008	0.072
-125.253	-200.000	0.036	-0.168
-124.239	-200.000	0.001	-0.161
-123.224	12.901	-0.141	-0.107
-122.210	133.106	-0.158	0.201
-121.195	-200.000	-0.040	0.243
