DTS Sentinel unit serial number:	SN413079Multiplexer serial number:	ORYXHardware model number:	OX4-SRSoftware version number:	ORYX F/W v4.00 Oryx Data Collector v3.7.2.0data status	okinstallation	princeton_trtdifferential loss correction	single-endedforward channel	channel 2reverse channel	N/Adate	2019/09/14time	04:07:34forward acquisition time	60.00reverse acquisition time	0.00gamma	496.2192k internal	0.2336k external	0.2336temperature offset calibration	1.0128default loss term (dB/km)	0.3790temperature slope calibration	1.0000multiplexer offset coefficient	1.0000multiplexer slope coefficient	1.0000fibre end	0.00T internal ref (°C)	26.69T ext. ref 1 (°C)	3.31T ext. ref 2 (°C)	21.82length (m)	temperature (°C)	Stokes	anti-Stokes-747.200	-200.000	-0.023	-0.333
-746.185	-200.000	0.035	0.226
-745.171	800.000	0.124	-0.350
-744.156	-123.801	-0.156	0.025
-743.142	-55.145	-0.204	0.092
-742.127	-140.205	-0.085	0.009
-741.112	189.075	0.171	0.257
-740.098	-138.219	-0.280	-0.031
-739.083	-45.453	0.315	0.157
-738.069	216.313	-0.065	0.103
-737.054	-200.000	0.038	0.208
-736.039	-84.318	-0.482	0.153
-735.025	79.089	-0.125	0.134
-734.010	-200.000	0.011	-0.077
-732.996	800.000	-0.082	-0.319
-731.981	-200.000	-0.020	0.134
-730.966	209.593	-0.054	0.086
-729.952	127.261	-0.109	0.139
-728.937	-53.988	-0.312	-0.142
-727.923	-158.768	0.092	-0.005
-726.908	-146.015	0.461	0.041
-725.894	106.808	0.244	-0.291
-724.879	800.000	-0.026	0.098
-723.864	8.474	-0.061	0.046
-722.850	14.904	0.224	0.176
-721.835	489.376	-0.060	-0.137
-720.821	-35.807	0.118	0.064
-719.806	-77.278	-0.182	0.064
-718.791	-112.689	0.210	-0.042
-717.777	-200.000	-0.043	-0.260
-716.762	729.740	0.146	0.390
-715.748	181.264	-0.192	0.283
-714.733	-27.449	0.100	0.058
-713.718	130.920	-0.144	0.186
-712.704	59.363	0.227	-0.225
-711.689	-171.129	-0.178	-0.006
-710.675	-200.000	-0.001	0.130
-709.660	-200.000	-0.023	0.241
-708.645	338.357	0.201	0.392
-707.631	575.609	-0.055	-0.135
-706.616	-200.000	0.017	-0.125
-705.602	800.000	-0.058	-0.192
-704.587	-106.294	0.219	-0.049
-703.572	-200.000	-0.024	0.110
-702.558	-21.807	0.250	-0.152
-701.543	112.351	0.250	-0.304
-700.529	800.000	-0.080	0.240
-699.514	-72.544	0.289	0.107
-698.499	-82.159	-0.331	0.108
-697.485	-128.703	-0.408	0.058
-696.470	79.035	0.165	-0.178
-695.456	-19.840	-0.449	-0.278
-694.441	53.825	0.100	0.096
-693.426	74.562	-0.130	0.137
-692.412	-200.000	-0.035	0.181
-691.397	-107.314	-0.189	0.042
-690.383	-168.284	-0.065	0.003
-689.368	-164.507	0.246	-0.011
-688.354	-45.422	0.053	-0.026
-687.339	-28.948	-0.253	0.146
-686.324	14.411	-0.114	-0.089
-685.310	481.645	-0.119	0.271
-684.295	800.000	-0.063	0.263
-683.281	285.174	0.161	0.290
-682.266	-63.015	0.212	0.088
-681.251	-200.000	-0.007	-0.078
-680.237	-200.000	0.022	0.166
-679.222	-200.000	0.005	0.032
-678.208	-200.000	0.045	-0.262
-677.193	72.648	0.077	0.080
-676.178	-200.000	0.010	0.068
-675.164	-55.359	-0.305	0.137
-674.149	-22.375	0.097	0.059
-673.135	-190.279	0.051	-0.001
-672.120	-200.000	0.012	-0.174
-671.105	345.296	0.037	-0.073
-670.091	22.388	0.084	-0.068
-669.076	141.971	0.192	-0.255
-668.062	-149.722	-0.471	-0.037
-667.047	302.599	0.024	-0.045
-666.032	-31.192	0.189	0.107
-665.018	800.000	-0.032	-0.113
-664.003	53.290	-0.105	-0.101
-662.989	-1.474	-0.296	-0.209
-661.974	451.120	-0.034	-0.075
-660.959	-118.136	-0.047	-0.008
-659.945	498.696	0.023	-0.052
-658.930	-27.573	0.137	-0.080
-657.916	-159.181	-0.447	-0.025
-656.901	-94.629	-0.192	0.052
-655.886	18.128	-0.269	0.215
-654.872	229.564	-0.049	-0.080
-653.857	-200.000	-0.002	-0.160
-652.843	800.000	-0.019	0.061
-651.828	-176.642	0.086	-0.002
-650.814	-147.364	0.219	0.019
-649.799	-45.689	0.089	-0.044
-648.784	-107.302	0.185	-0.041
-647.770	800.000	0.105	-0.306
-646.755	800.000	0.120	0.342
-645.741	79.735	0.279	-0.300
-644.726	497.212	-0.102	0.236
-643.711	-61.890	0.399	-0.167
-642.697	800.000	0.080	-0.250
-641.682	-143.791	-0.238	-0.023
-640.668	149.279	0.027	-0.037
-639.653	-159.545	0.181	-0.010
-638.638	-27.588	0.432	0.251
-637.624	10.675	-0.232	-0.177
-636.609	63.306	0.011	0.011
-635.595	319.310	0.062	0.117
-634.580	25.010	-0.218	-0.180
-633.565	-115.567	-0.214	-0.040
-632.551	140.407	-0.091	0.120
-631.536	153.053	0.070	-0.095
-630.522	275.506	0.096	0.170
-629.507	-132.436	0.386	-0.050
-628.492	800.000	0.004	0.011
-627.478	-200.000	0.019	-0.102
-626.463	800.000	0.033	-0.112
-625.449	104.564	-0.094	-0.110
-624.434	-127.130	0.183	0.027
-623.419	-200.000	0.024	-0.175
-622.405	-112.846	-0.324	-0.064
-621.390	-147.179	-0.343	-0.029
-620.376	-113.648	0.411	-0.080
-619.361	-167.796	-0.027	0.001
-618.346	0.586	0.106	-0.075
-617.332	167.434	-0.151	0.215
-616.317	-62.723	-0.259	0.107
-615.303	-200.000	0.052	-0.320
-614.288	-172.449	-0.191	-0.006
-613.273	-130.448	0.180	0.024
-612.259	800.000	-0.011	0.038
-611.244	131.033	-0.067	0.086
-610.230	19.030	-0.293	-0.235
-609.215	-134.575	0.202	0.025
-608.201	71.650	-0.217	0.225
-607.186	-51.884	-0.403	-0.187
-606.171	610.769	0.091	-0.228
-605.157	-200.000	-0.010	-0.259
-604.142	342.414	0.067	0.132
-603.128	-200.000	-0.004	0.175
-602.113	-172.917	-0.130	0.004
-601.098	69.773	0.105	-0.108
-600.084	341.895	0.096	0.188
-599.069	86.558	0.215	-0.237
-598.055	588.845	0.111	0.273
-597.040	800.000	0.067	0.207
-596.025	800.000	0.080	-0.288
-595.011	-0.481	0.321	-0.227
-593.996	-90.917	-0.428	0.123
-592.982	150.761	-0.241	0.327
-591.967	-167.333	-0.222	0.009
-590.952	426.620	0.230	-0.494
-589.938	24.672	0.457	-0.378
-588.923	78.058	0.082	-0.087
-587.909	152.628	-0.070	0.096
-586.894	27.535	0.157	-0.132
-585.879	336.062	-0.021	-0.041
-584.865	94.007	0.119	-0.135
-583.850	52.370	-0.284	0.270
-582.836	-54.447	-0.037	-0.017
-581.821	38.069	-0.177	-0.157
-580.806	4.656	-0.130	-0.095
-579.792	241.192	-0.098	-0.163
-578.777	56.414	0.168	0.163
-577.763	8.620	-0.125	-0.094
-576.748	-93.063	-0.182	-0.051
-575.733	-57.017	0.217	-0.095
-574.719	189.311	0.109	-0.163
-573.704	64.692	-0.092	-0.093
-572.690	-36.658	-0.386	-0.207
-571.675	-200.000	0.009	-0.175
-570.661	-55.312	-0.410	0.183
-569.646	-72.978	-0.284	-0.104
-568.631	178.423	-0.072	-0.105
-567.617	-130.857	-0.056	-0.008
-566.602	75.640	-0.198	0.209
-565.588	-200.000	-0.065	0.308
-564.573	74.201	0.141	-0.148
-563.558	-76.783	0.378	-0.132
-562.544	-86.852	0.109	-0.033
-561.529	55.205	0.098	0.094
-560.515	-27.043	-0.221	-0.128
-559.500	-96.437	0.426	-0.112
-558.485	-200.000	-0.004	-0.114
-557.471	-111.171	-0.175	0.036
-556.456	18.011	-0.086	0.068
-555.442	301.333	0.152	-0.279
-554.427	266.756	-0.039	0.068
-553.412	773.630	0.161	-0.439
-552.398	28.605	-0.146	0.124
-551.383	-88.697	0.252	0.075
-550.369	-99.832	0.128	-0.032
-549.354	-200.000	-0.038	0.272
-548.339	188.435	0.034	0.051
-547.325	800.000	-0.069	-0.238
-546.310	-140.984	-0.286	0.029
-545.296	23.679	0.176	0.144
-544.281	800.000	-0.052	-0.177
-543.266	62.798	-0.273	-0.272
-542.252	-38.409	-0.148	-0.078
-541.237	95.666	0.083	0.094
-540.223	137.152	0.086	0.112
-539.208	21.949	-0.269	-0.219
-538.193	800.000	-0.041	-0.122
-537.179	10.793	0.272	-0.207
-536.164	145.869	0.106	0.141
-535.150	-55.469	0.170	-0.076
-534.135	-77.817	-0.111	-0.038
-533.121	-200.000	0.044	-0.354
-532.106	-27.777	0.333	0.192
-531.091	-75.021	-0.065	0.023
-530.077	-141.431	0.265	0.027
-529.062	-38.439	-0.223	0.117
-528.048	-81.863	-0.100	-0.033
-527.033	-92.716	-0.078	0.022
-526.018	204.521	-0.054	0.083
-525.004	134.469	0.088	-0.114
-523.989	-104.505	-0.271	-0.062
-522.975	159.258	-0.132	-0.183
-521.960	800.000	0.035	0.096
-520.945	800.000	0.046	-0.167
-519.931	7.084	-0.074	0.055
-518.916	-156.561	-0.201	-0.012
-517.902	800.000	-0.041	-0.118
-516.887	-144.235	-0.051	0.005
-515.872	800.000	0.083	0.242
-514.858	-186.658	0.171	0.002
-513.843	-200.000	0.037	0.288
-512.829	-114.432	0.030	0.006
-511.814	-200.000	-0.010	-0.179
-510.799	-200.000	0.007	0.092
-509.785	22.769	0.140	0.114
-508.770	-65.042	-0.175	-0.070
-507.756	800.000	-0.099	-0.362
-506.741	-112.996	0.161	0.032
-505.726	54.649	0.321	0.308
-504.712	332.149	0.031	0.060
-503.697	16.191	-0.137	0.107
-502.683	-74.214	0.076	0.027
-501.668	-200.000	-0.027	0.162
-500.653	346.433	-0.036	0.071
-499.639	-200.000	0.011	0.396
-498.624	5.264	-0.139	-0.102
-497.610	786.066	-0.028	-0.076
-496.595	51.388	-0.131	-0.124
-495.581	-63.462	-0.187	-0.076
-494.566	-158.257	-0.034	0.002
-493.551	30.174	-0.145	0.123
-492.537	-65.528	-0.113	-0.045
-491.522	-200.000	0.020	0.163
-490.508	-136.478	-0.115	0.013
-489.493	420.556	0.176	0.375
-488.478	-0.583	-0.311	0.219
-487.464	127.709	-0.045	-0.056
-486.449	-14.367	0.242	-0.155
-485.435	58.401	-0.237	-0.231
-484.420	196.144	-0.130	0.196
-483.405	23.304	0.040	0.032
-482.391	-101.703	-0.432	-0.104
-481.376	62.619	-0.019	-0.019
-480.362	-169.724	-0.269	0.010
-479.347	-69.287	-0.325	0.124
-478.332	-12.427	-0.221	0.143
-477.318	-13.593	-0.220	0.141
-476.303	800.000	0.063	-0.204
-475.289	439.652	0.127	-0.275
-474.274	-200.000	0.012	0.206
-473.259	-200.000	-0.015	0.206
-472.245	-161.304	0.348	-0.018
-471.230	-33.393	-0.123	-0.068
-470.216	-200.000	0.025	0.156
-469.201	107.903	0.095	-0.113
-468.186	-137.168	0.148	-0.017
-467.172	12.539	-0.207	0.158
-466.157	35.605	-0.036	0.031
-465.143	-96.414	-0.115	-0.030
-464.128	64.870	-0.046	-0.047
-463.113	-148.715	-0.248	0.020
-462.099	800.000	0.046	0.142
-461.084	800.000	0.079	-0.217
-460.070	-200.000	0.000	-0.116
-459.055	43.270	0.134	-0.122
-458.040	-200.000	-0.100	-0.000
-457.026	275.089	0.160	-0.281
-456.011	-89.852	-0.081	-0.024
-454.997	-34.448	0.089	0.048
-453.982	66.566	-0.128	0.129
-452.968	-63.811	-0.131	0.053
-451.953	24.826	-0.119	-0.098
-450.938	75.699	0.164	0.172
-449.924	-200.000	0.038	0.228
-448.909	-135.348	0.144	-0.017
-447.895	-151.319	-0.202	-0.015
-446.880	175.208	0.021	0.030
-445.865	-23.962	0.043	-0.026
-444.851	513.157	0.168	0.389
-443.836	-127.126	0.096	-0.014
-442.822	40.345	-0.194	-0.173
-441.807	-110.711	0.276	-0.056
-440.792	223.001	-0.086	0.138
-439.778	44.673	-0.084	0.077
-438.763	-15.964	0.215	0.136
-437.749	-26.747	0.296	0.172
-436.734	-200.000	0.003	0.033
-435.719	84.155	0.173	0.188
-434.705	-101.374	-0.265	-0.064
-433.690	93.388	0.050	0.056
-432.676	-117.630	-0.235	0.042
-431.661	-200.000	0.017	0.268
-430.646	78.586	0.068	-0.072
-429.632	203.833	-0.145	-0.223
-428.617	-50.207	-0.195	-0.092
-427.603	-183.646	-0.299	0.005
-426.588	104.970	0.110	0.129
-425.573	-200.000	-0.054	0.321
-424.559	179.625	0.234	-0.340
-423.544	800.000	0.055	-0.167
-422.530	800.000	0.017	-0.055
-421.515	373.662	-0.080	0.161
-420.500	-151.437	0.195	0.014
-419.486	800.000	0.063	-0.232
-418.471	273.557	0.168	-0.294
-417.457	346.381	-0.097	0.189
-416.442	-25.166	0.154	-0.090
-415.428	627.551	0.127	-0.317
-414.413	47.628	-0.096	-0.089
-413.398	59.395	-0.094	0.092
-412.384	800.000	-0.048	-0.157
-411.369	92.998	0.098	0.110
-410.355	1.364	0.262	-0.187
-409.340	320.356	-0.035	0.066
-408.325	-43.423	0.086	0.043
-407.311	2.201	-0.159	-0.114
-406.296	124.895	0.204	0.254
-405.282	-40.714	0.300	-0.154
-404.267	-116.822	-0.253	-0.046
-403.252	286.424	-0.069	0.124
-402.238	-102.084	-0.141	-0.034
-401.223	-200.000	-0.004	-0.180
-400.209	-178.429	-0.077	-0.002
-399.194	-200.000	0.063	0.282
-398.179	800.000	-0.029	-0.091
-397.165	-56.535	0.148	-0.065
-396.150	-82.184	0.158	-0.051
-395.136	-200.000	0.125	-0.000
-394.121	472.214	-0.124	0.276
-393.106	82.690	0.101	-0.109
-392.092	-200.000	0.019	-0.140
-391.077	800.000	0.055	0.216
-390.063	408.051	-0.106	0.222
-389.048	-200.000	-0.048	0.258
-388.033	530.562	-0.178	0.417
-387.019	-200.000	0.010	0.068
-386.004	652.844	-0.062	0.156
-384.990	-44.639	-0.156	-0.077
-383.975	301.648	0.166	0.303
-382.960	576.872	-0.194	-0.470
-381.946	209.488	0.174	-0.271
-380.931	75.162	-0.161	0.168
-379.917	-66.254	0.284	0.112
-378.902	-181.190	0.115	0.002
-377.888	670.936	-0.081	0.208
-376.873	-75.395	-0.345	-0.122
-375.858	87.203	0.408	-0.447
-374.844	800.000	-0.028	0.116
-373.829	-200.000	0.006	-0.121
-372.815	0.969	-0.222	0.158
-371.800	684.973	0.017	0.044
-370.785	-63.307	-0.104	0.042
-369.771	-46.004	-0.226	-0.110
-368.756	-30.330	-0.152	-0.085
-367.742	-146.694	0.138	-0.012
-366.727	-200.000	0.003	0.021
-365.712	-60.867	0.343	-0.144
-364.698	-160.529	-0.096	0.005
-363.683	474.768	0.115	0.257
-362.669	800.000	0.081	0.303
-361.654	800.000	-0.073	0.235
-360.639	-24.163	-0.175	0.104
-359.625	-200.000	0.003	0.179
-358.610	665.537	0.105	-0.269
-357.596	163.474	-0.133	-0.185
-356.581	-73.538	0.534	0.193
-355.566	-139.322	-0.275	0.029
-354.552	-59.804	-0.184	-0.078
-353.537	-200.000	-0.002	-0.051
-352.523	-30.958	0.056	0.031
-351.508	-200.000	-0.007	-0.451
-350.493	-37.005	0.217	-0.115
-349.479	-69.213	0.146	0.055
-348.464	-200.000	-0.007	0.279
-347.450	-200.000	0.014	0.063
-346.435	-148.403	-0.231	0.019
-345.420	260.580	-0.109	0.186
-344.406	280.696	-0.125	-0.221
-343.391	800.000	-0.038	0.140
-342.377	-39.622	0.045	-0.023
-341.362	-82.133	0.172	0.055
-340.348	-136.149	0.057	0.007
-339.333	0.629	0.227	-0.161
-338.318	-88.459	-0.349	0.103
-337.304	-200.000	-0.067	0.334
-336.289	-92.053	0.182	-0.051
-335.275	-33.773	-0.004	0.002
-334.260	-107.890	0.299	0.064
-333.245	108.100	-0.153	0.180
-332.231	-41.988	-0.241	-0.122
-331.216	421.473	-0.115	0.244
-330.202	-49.078	-0.075	-0.035
-329.187	60.113	0.210	0.206
-328.172	-126.581	0.112	0.016
-327.158	-16.093	-0.138	-0.087
-326.143	82.785	0.110	-0.118
-325.129	-124.538	-0.188	-0.029
-324.114	543.715	0.062	0.146
-323.099	229.674	-0.157	0.253
-322.085	-9.836	-0.044	0.029
-321.070	23.201	-0.150	0.122
-320.056	-30.542	0.207	0.116
-319.041	-194.895	0.293	0.002
-318.026	-6.096	0.148	0.100
-317.012	-200.000	-0.020	0.161
-315.997	363.423	0.155	-0.307
-314.983	-178.981	-0.153	-0.003
-313.968	6.662	0.227	0.166
-312.953	800.000	0.051	-0.146
-311.939	-7.918	0.168	-0.112
-310.924	74.288	0.087	0.091
-309.910	-200.000	0.022	-0.196
-308.895	-200.000	-0.042	0.201
-307.880	800.000	0.042	-0.138
-306.866	-150.821	-0.358	-0.027
-305.851	-145.392	-0.162	0.014
-304.837	800.000	-0.018	0.055
-303.822	632.767	0.038	-0.094
-302.807	-50.321	0.307	0.143
-301.793	-80.386	-0.306	0.101
-300.778	-26.628	0.040	-0.023
-299.764	-3.514	0.276	0.189
-298.749	269.139	-0.136	0.236
-297.735	-29.494	0.278	-0.157
-296.720	-80.910	-0.271	0.089
-295.705	192.065	-0.137	-0.204
-294.691	-129.953	-0.220	-0.030
-293.676	-200.000	0.032	0.162
-292.662	-200.000	0.053	0.242
-291.647	-37.098	0.122	-0.065
-290.632	288.363	-0.125	0.222
-289.618	800.000	0.099	0.291
-288.603	-95.430	0.143	-0.038
-287.589	-27.260	0.059	0.034
-286.574	17.013	-0.105	-0.082
-285.559	-200.000	0.053	-0.289
-284.545	-27.732	0.190	0.109
-283.530	-130.157	-0.303	-0.041
-282.516	-200.000	-0.032	-0.404
-281.501	-152.809	-0.371	0.026
-280.486	-99.641	0.132	0.033
-279.472	800.000	0.068	0.203
-278.457	267.055	-0.086	-0.148
-277.443	800.000	0.073	0.208
-276.428	-96.060	0.235	0.062
-275.413	-200.000	-0.008	0.179
-274.399	-129.332	0.208	-0.028
-273.384	-200.000	0.012	0.229
-272.370	92.101	0.102	0.113
-271.355	-81.145	-0.108	0.035
-270.340	102.531	0.115	-0.133
-269.326	159.788	-0.144	-0.197
-268.311	-200.000	-0.021	0.320
-267.297	800.000	0.097	0.275
-266.282	-9.020	0.096	0.063
-265.267	187.938	-0.041	0.060
-264.253	-36.006	-0.154	-0.082
-263.238	555.173	-0.027	0.064
-262.224	40.852	0.175	0.156
-261.209	-167.541	0.284	0.011
-260.195	-165.528	-0.318	-0.014
-259.180	713.647	-0.018	0.046
-258.165	800.000	0.093	-0.298
-257.151	-30.353	0.171	-0.096
-256.136	800.000	0.084	0.236
-255.122	-54.280	0.071	-0.032
-254.107	-33.708	-0.123	-0.067
-253.092	-141.333	0.368	0.037
-252.078	-4.503	-0.115	-0.078
-251.063	328.500	0.117	-0.221
-250.049	-200.000	-0.046	0.311
-249.034	37.723	0.132	-0.115
-248.019	9.315	-0.116	0.086
-247.005	-34.562	-0.196	-0.106
-245.990	-165.399	-0.323	0.014
-244.976	103.703	-0.056	0.065
-243.961	-47.616	0.166	-0.079
-242.946	-114.039	-0.061	-0.012
-241.932	-71.327	-0.209	0.077
-240.917	190.675	0.310	0.459
-239.903	-7.299	-0.123	-0.082
-238.888	30.061	0.236	-0.198
-237.873	159.818	0.231	-0.317
-236.859	-131.326	0.202	0.026
-235.844	-46.799	-0.314	-0.151
-234.830	-115.338	-0.002	0.000
-233.815	280.798	0.101	0.178
-232.800	-0.767	-0.123	0.086
-231.786	-36.893	0.097	-0.051
-230.771	294.560	0.192	-0.346
-229.757	16.209	-0.188	-0.146
-228.742	-100.156	-0.165	-0.040
-227.727	-200.000	0.045	-0.261
-226.713	-200.000	-0.051	0.236
-225.698	3.187	0.124	-0.089
-224.684	-200.000	-0.021	-0.106
-223.669	-134.496	-0.325	-0.039
-222.655	-103.737	0.165	0.038
-221.640	105.022	0.081	-0.094
-220.625	-40.857	-0.265	-0.135
-219.611	74.071	0.392	0.405
-218.596	434.573	0.039	0.083
-217.582	364.661	-0.048	-0.096
-216.567	-139.436	-0.083	0.009
-215.552	-32.072	0.307	-0.169
-214.538	-138.331	-0.425	0.046
-213.523	-95.938	0.268	0.070
-212.509	-102.400	0.158	0.037
-211.494	-200.000	-0.067	-0.419
-210.479	-25.397	-0.213	0.124
-209.465	800.000	-0.059	0.230
-208.450	22.561	0.317	-0.255
-207.436	134.730	0.085	0.108
-206.421	251.025	0.050	-0.084
-205.406	-200.000	0.037	-0.448
-204.392	410.865	0.095	-0.198
-203.377	-176.893	0.131	-0.003
-202.363	-130.940	-0.330	-0.043
-201.348	-12.842	0.287	-0.184
-200.333	-134.351	-0.142	0.017
-199.319	68.622	0.066	-0.067
-198.304	245.703	-0.030	0.050
-197.290	-200.000	-0.045	-0.192
-196.275	-174.758	-0.388	-0.011
-195.260	-200.000	0.006	0.238
-194.246	800.000	0.034	-0.119
-193.231	73.998	-0.187	-0.193
-192.217	-43.415	0.380	-0.189
-191.202	-143.133	-0.291	-0.028
-190.187	305.971	-0.096	-0.175
-189.173	5.396	0.030	0.022
-188.158	-115.105	0.264	-0.049
-187.144	-128.429	-0.204	0.028
-186.129	-200.000	-0.013	-0.090
-185.114	-149.720	0.048	0.004
-184.100	12.814	0.028	0.021
-183.085	-200.000	-0.019	-0.269
-182.071	-100.143	0.370	0.090
-181.056	36.874	-0.147	0.128
-180.042	-97.083	-0.145	-0.037
-179.027	800.000	0.061	-0.239
-178.012	34.104	-0.210	-0.180
-176.998	616.596	-0.081	0.201
-175.983	340.947	0.137	0.263
-174.969	-162.031	0.270	0.013
-173.954	60.339	0.104	0.101
-172.939	-102.280	0.235	0.055
-171.925	800.000	-0.056	-0.197
-170.910	531.947	0.063	0.146
-169.896	800.000	-0.070	-0.199
-168.881	493.534	0.042	0.095
-167.866	-200.000	0.027	0.296
-166.852	-141.213	0.365	-0.036
-165.837	-115.105	-0.329	0.061
-164.823	12.778	-0.083	0.063
-163.808	-108.556	-0.100	-0.021
-162.793	-200.000	0.059	0.372
-161.779	-200.000	0.009	0.425
-160.764	31.577	0.041	-0.035
-159.750	-155.376	-0.054	0.003
-158.735	-187.576	-0.216	-0.003
-157.720	-11.555	0.244	0.158
-156.706	-30.038	-0.194	0.109
-155.691	-86.411	-0.055	-0.017
-154.677	378.923	-0.161	0.323
-153.662	-84.867	0.109	0.034
-152.647	-200.000	-0.051	-0.315
-151.633	-54.414	0.095	0.042
-150.618	43.996	0.183	-0.164
-149.604	-68.503	-0.435	-0.165
-148.589	-200.000	-0.019	0.098
-147.574	190.914	-0.104	-0.153
-146.560	-200.000	-0.067	0.396
-145.545	800.000	0.121	0.497
-144.531	800.000	-0.125	0.371
-143.516	-19.170	0.156	0.095
-142.502	52.447	0.114	-0.107
-141.487	-122.036	0.105	0.017
-140.472	74.481	0.233	-0.241
-139.458	800.000	0.033	-0.120
-138.443	22.470	-0.085	-0.068
-137.429	472.671	0.116	0.256
-136.414	-200.000	-0.025	-0.141
-135.399	-200.000	-0.005	0.066
-134.385	-50.534	0.068	-0.031
-133.370	64.055	0.213	0.210
-132.356	-90.685	-0.352	0.100
-131.341	800.000	-0.084	-0.278
-130.326	-19.445	-0.417	0.253
-129.312	429.348	-0.025	0.053
-128.297	196.758	0.069	0.103
-127.283	-200.000	0.030	-0.175
-126.268	800.000	0.020	-0.069
-125.253	-121.750	-0.157	0.025
-124.239	162.278	-0.143	-0.197
-123.224	-79.464	0.350	0.116
-122.210	-200.000	-0.010	0.077
-121.195	168.571	0.075	-0.104
