DTS Sentinel unit serial number:	SN413079Multiplexer serial number:	ORYXHardware model number:	OX4-SRSoftware version number:	ORYX F/W v4.00 Oryx Data Collector v3.7.2.0data status	okinstallation	princeton_trtdifferential loss correction	single-endedforward channel	channel 2reverse channel	N/Adate	2019/09/12time	02:41:11forward acquisition time	60.00reverse acquisition time	0.00gamma	496.2192k internal	0.2326k external	0.2326temperature offset calibration	1.0091default loss term (dB/km)	0.3790temperature slope calibration	1.0000multiplexer offset coefficient	1.0000multiplexer slope coefficient	1.0000fibre end	0.00T internal ref (°C)	32.41T ext. ref 1 (°C)	2.08T ext. ref 2 (°C)	27.21length (m)	temperature (°C)	Stokes	anti-Stokes-747.200	-102.955	-0.175	-0.042
-746.185	183.886	0.083	-0.124
-745.171	-16.109	-0.425	0.272
-744.156	-50.617	-0.431	0.205
-743.142	-59.100	-0.151	0.066
-742.127	129.451	0.250	0.322
-741.112	-200.000	0.055	0.284
-740.098	149.889	-0.162	0.222
-739.083	-101.617	-0.154	0.038
-738.069	183.524	-0.296	0.442
-737.054	800.000	-0.177	-0.539
-736.039	-28.140	0.103	-0.060
-735.025	-200.000	0.003	0.394
-734.010	-127.560	-0.184	0.027
-732.996	-200.000	-0.018	0.287
-731.981	612.594	0.169	-0.427
-730.966	226.395	-0.081	-0.132
-729.952	502.341	-0.038	-0.089
-728.937	244.892	-0.136	0.230
-727.923	800.000	-0.043	-0.150
-726.908	41.155	-0.128	0.117
-725.894	8.926	-0.336	0.255
-724.879	-2.483	-0.165	-0.116
-723.864	-200.000	-0.066	-0.333
-722.850	331.284	-0.069	-0.134
-721.835	638.786	-0.204	-0.523
-720.821	315.709	-0.137	0.260
-719.806	78.515	-0.135	-0.146
-718.791	800.000	0.075	0.254
-717.777	-200.000	-0.100	0.000
-716.762	800.000	-0.150	-0.426
-715.748	-64.997	0.225	-0.092
-714.733	205.590	-0.085	0.133
-713.718	384.531	0.073	-0.152
-712.704	-21.981	-0.277	-0.169
-711.689	-200.000	-0.089	0.493
-710.675	-200.000	0.026	-0.254
-709.660	6.122	-0.063	0.047
-708.645	645.166	-0.098	-0.253
-707.631	-7.034	-0.180	0.123
-706.616	-200.000	-0.170	-0.000
-705.602	615.696	-0.181	-0.457
-704.587	194.276	0.124	-0.189
-703.572	75.205	0.142	-0.151
-702.558	-200.000	0.015	0.180
-701.543	477.500	-0.069	0.157
-700.529	-69.675	-0.326	0.126
-699.514	4.631	0.105	0.078
-698.499	-115.266	0.370	-0.071
-697.485	49.693	0.093	0.088
-696.470	126.787	-0.219	-0.279
-695.456	-200.000	0.016	-0.283
-694.441	22.729	-0.065	0.054
-693.426	800.000	0.057	-0.170
-692.412	41.400	-0.196	0.179
-691.397	-67.847	-0.203	-0.080
-690.383	-200.000	0.013	0.120
-689.368	-170.207	0.502	-0.018
-688.354	49.032	-0.136	-0.129
-687.339	267.182	-0.076	0.134
-686.324	800.000	0.056	-0.172
-685.310	-20.178	0.116	-0.072
-684.295	127.931	0.067	0.086
-683.281	-88.949	0.130	-0.039
-682.266	116.653	-0.322	-0.398
-681.251	-157.701	0.379	0.023
-680.237	800.000	0.072	-0.282
-679.222	-115.428	0.079	0.015
-678.208	1.214	-0.010	0.007
-677.193	259.852	-0.083	-0.143
-676.178	-26.813	-0.347	-0.204
-675.164	10.921	0.183	0.141
-674.149	81.754	-0.107	-0.116
-673.135	793.207	-0.038	0.105
-672.120	-200.000	0.011	-0.264
-671.105	800.000	0.027	0.076
-670.091	320.118	-0.151	-0.289
-669.076	167.320	-0.146	0.208
-668.062	-146.331	0.109	-0.010
-667.047	113.520	0.183	0.224
-666.032	241.676	-0.110	-0.185
-665.018	429.625	0.121	-0.263
-664.003	-33.023	-0.380	-0.212
-662.989	217.349	0.051	-0.081
-661.974	-0.846	0.060	0.043
-660.959	-200.000	-0.007	-0.080
-659.945	211.612	-0.203	0.322
-658.930	-98.232	0.030	-0.008
-657.916	184.595	-0.142	-0.212
-656.901	187.756	0.045	-0.067
-655.886	-28.388	-0.159	0.092
-654.872	41.228	0.172	0.157
-653.857	-109.255	0.204	-0.043
-652.843	-99.092	-0.111	-0.028
-651.828	-26.137	0.120	-0.071
-650.814	14.587	0.215	-0.168
-649.799	-105.636	0.195	0.044
-648.784	397.215	-0.071	0.149
-647.770	800.000	-0.046	-0.135
-646.755	-8.016	0.341	-0.231
-645.741	800.000	0.087	-0.377
-644.726	61.828	-0.203	-0.203
-643.711	-59.275	0.181	-0.078
-642.697	-110.647	-0.247	0.051
-641.682	-29.644	0.127	-0.073
-640.668	800.000	0.038	0.110
-639.653	203.331	-0.106	-0.165
-638.638	-82.437	-0.087	0.028
-637.624	764.466	-0.073	-0.199
-636.609	326.488	-0.061	0.117
-635.595	-175.814	0.183	0.005
-634.580	800.000	0.034	0.100
-633.565	31.439	0.196	-0.169
-632.551	-69.961	-0.284	-0.109
-631.536	-104.500	0.419	0.097
-630.522	212.013	-0.101	-0.160
-629.507	-167.191	0.282	0.011
-628.492	-118.307	-0.202	-0.036
-627.478	110.448	-0.086	0.104
-626.463	-200.000	-0.029	0.207
-625.449	-200.000	-0.006	-0.369
-624.434	-115.027	-0.229	-0.044
-623.419	-14.702	-0.215	0.139
-622.405	-61.219	0.061	-0.026
-621.390	302.990	-0.116	0.215
-620.376	178.511	0.120	0.176
-619.361	-145.305	-0.120	0.011
-618.346	248.722	0.141	0.239
-617.332	-110.887	-0.216	-0.045
-616.317	-107.533	-0.390	-0.086
-615.303	-26.588	0.192	-0.113
-614.288	-167.628	0.175	0.007
-613.273	235.952	0.200	-0.332
-612.259	-69.487	-0.186	-0.071
-611.244	-102.258	0.091	0.022
-610.230	-109.637	-0.206	0.044
-609.215	-88.015	0.375	0.113
-608.201	112.897	-0.129	0.156
-607.186	-49.888	-0.302	0.144
-606.171	-111.460	-0.315	0.064
-605.157	102.605	0.104	-0.121
-604.142	-56.668	-0.278	0.124
-603.128	-138.874	0.026	0.003
-602.113	-200.000	-0.007	-0.115
-601.098	-93.900	-0.505	0.139
-600.084	12.505	-0.240	-0.186
-599.069	280.971	-0.117	0.210
-598.055	741.117	0.069	0.186
-597.040	-200.000	0.035	0.296
-596.025	-64.433	-0.133	-0.054
-595.011	-91.718	-0.317	0.090
-593.996	-131.510	0.159	0.021
-592.982	-137.457	-0.476	-0.054
-591.967	10.828	0.221	-0.169
-590.952	-102.728	-0.291	-0.069
-589.938	-98.133	0.342	0.088
-588.923	25.122	-0.136	0.113
-587.909	-200.000	0.001	-0.080
-586.894	-45.246	0.183	-0.091
-585.879	-19.392	-0.049	-0.030
-584.865	82.187	-0.179	-0.195
-583.850	183.023	-0.223	0.330
-582.836	-19.536	-0.074	-0.046
-581.821	39.386	-0.370	-0.332
-580.806	124.949	0.150	-0.189
-579.792	-168.385	-0.039	-0.002
-578.777	-13.884	-0.182	-0.118
-577.763	-64.462	-0.275	0.112
-576.748	-124.759	0.169	-0.026
-575.733	21.749	0.044	0.036
-574.719	65.980	0.221	0.225
-573.704	-200.000	0.006	-0.195
-572.690	170.325	-0.126	0.180
-571.675	86.652	0.171	-0.189
-570.661	289.949	-0.032	-0.059
-569.646	-118.839	0.257	0.045
-568.631	-16.034	-0.358	-0.228
-567.617	-188.738	0.401	-0.005
-566.602	-200.000	0.004	0.360
-565.588	-137.719	-0.418	0.047
-564.573	-200.000	-0.013	0.253
-563.558	-48.189	0.281	-0.136
-562.544	-110.204	0.031	0.006
-561.529	-70.429	-0.115	-0.044
-560.515	-200.000	0.007	-0.063
-559.500	800.000	0.039	-0.108
-558.485	-50.963	-0.101	0.048
-557.471	-83.301	0.177	-0.057
-556.456	-200.000	-0.013	0.125
-555.442	-141.455	0.049	-0.005
-554.427	486.860	-0.066	-0.150
-553.412	47.810	-0.241	-0.225
-552.398	800.000	0.028	-0.114
-551.383	-200.000	0.010	0.095
-550.369	149.388	0.117	-0.158
-549.354	-40.298	-0.256	-0.133
-548.339	-200.000	0.025	0.304
-547.325	-64.011	0.227	-0.093
-546.310	286.093	0.062	-0.112
-545.296	800.000	-0.096	-0.361
-544.281	-26.908	0.245	-0.143
-543.266	405.112	-0.049	-0.103
-542.252	-66.050	0.127	0.051
-541.237	11.467	-0.135	0.103
-540.223	177.096	-0.166	-0.242
-539.208	-200.000	-0.046	-0.381
-538.193	-168.061	0.155	-0.006
-537.179	90.809	-0.206	-0.231
-536.164	-6.371	-0.152	0.104
-535.150	-21.182	0.121	0.074
-534.135	-200.000	-0.002	0.154
-533.121	-143.863	0.088	0.008
-532.106	-148.066	-0.258	0.021
-531.091	-119.051	0.221	0.039
-530.077	-115.394	0.154	-0.029
-529.062	800.000	0.064	-0.178
-528.048	0.222	-0.133	0.095
-527.033	-134.876	0.295	-0.036
-526.018	-11.724	-0.265	-0.174
-525.004	155.585	-0.198	0.273
-523.989	-123.049	0.223	-0.036
-522.975	445.908	0.165	-0.363
-521.960	-200.000	-0.015	0.234
-520.945	187.108	-0.125	-0.187
-519.931	63.917	-0.079	-0.079
-518.916	-99.658	-0.200	-0.050
-517.902	258.313	-0.166	-0.286
-516.887	-200.000	-0.046	0.288
-515.872	139.274	0.174	0.228
-514.858	-60.157	-0.085	-0.036
-513.843	228.453	-0.241	-0.392
-512.829	-160.520	0.109	-0.006
-511.814	760.389	-0.079	-0.214
-510.799	107.309	0.236	0.281
-509.785	-200.000	0.073	-0.344
-508.770	355.050	0.068	-0.136
-507.756	-79.373	-0.257	0.087
-506.741	-200.000	-0.006	0.041
-505.726	338.233	-0.041	-0.080
-504.712	-121.869	-0.266	0.044
-503.697	800.000	0.041	-0.167
-502.683	-49.176	-0.107	0.051
-501.668	-83.956	0.183	0.058
-500.653	6.021	0.237	-0.175
-499.639	-200.000	-0.004	0.335
-498.624	800.000	-0.073	0.222
-497.610	346.834	0.064	0.125
-496.595	-200.000	-0.034	-0.279
-495.581	412.461	0.039	0.083
-494.566	255.190	-0.164	-0.281
-493.551	-24.993	0.272	-0.161
-492.537	645.708	-0.072	0.183
-491.522	456.043	-0.062	-0.137
-490.508	0.713	0.245	-0.175
-489.493	-76.682	0.091	0.032
-488.478	367.199	0.030	-0.061
-487.464	-200.000	-0.007	0.104
-486.449	375.414	0.083	0.170
-485.435	-42.088	-0.187	0.095
-484.420	275.217	-0.156	0.277
-483.405	358.448	0.139	0.277
-482.391	-56.247	0.091	-0.040
-481.376	124.968	0.253	-0.318
-480.362	-200.000	0.011	-0.094
-479.347	-189.373	-0.345	0.004
-478.332	-200.000	-0.051	-0.313
-477.318	-200.000	-0.024	0.187
-476.303	534.958	-0.025	-0.059
-475.289	-14.059	-0.097	-0.062
-474.274	68.647	-0.093	-0.096
-473.259	-200.000	0.038	0.193
-472.245	-19.204	0.302	0.187
-471.230	-10.190	-0.281	0.186
-470.216	-68.631	0.203	-0.078
-469.201	110.422	0.178	0.213
-468.186	-64.998	0.369	-0.149
-467.172	509.048	0.032	-0.075
-466.157	705.020	-0.035	-0.092
-465.143	-0.714	0.254	-0.180
-464.128	477.361	-0.189	0.427
-463.113	80.547	0.073	-0.079
-462.099	-140.395	0.131	0.014
-461.084	37.302	0.080	0.071
-460.070	-54.273	-0.133	0.060
-459.055	42.051	-0.147	0.133
-458.040	-127.166	0.464	0.068
-457.026	-97.609	-0.213	-0.055
-456.011	624.207	-0.056	0.142
-454.997	55.066	0.141	0.136
-453.982	-39.048	-0.100	-0.052
-452.968	-200.000	0.002	-0.106
-451.953	-18.562	-0.377	-0.235
-450.938	800.000	0.075	-0.235
-449.924	239.960	0.072	-0.120
-448.909	-75.539	0.169	0.060
-447.895	800.000	0.030	0.110
-446.880	36.341	0.070	-0.062
-445.865	-200.000	0.024	0.179
-444.851	27.863	-0.170	0.143
-443.836	800.000	-0.146	0.415
-442.822	51.767	-0.161	0.153
-441.807	131.168	-0.204	-0.261
-440.792	-2.516	0.080	0.056
-439.778	16.128	0.133	0.105
-438.763	800.000	-0.048	0.201
-437.749	432.149	0.031	-0.066
-436.734	397.132	-0.124	0.258
-435.719	-58.391	-0.258	-0.112
-434.705	273.631	0.192	0.339
-433.690	367.974	-0.173	0.348
-432.676	18.027	0.251	0.199
-431.661	62.456	0.118	-0.117
-430.646	-200.000	0.027	-0.270
-429.632	-200.000	-0.027	0.194
-428.617	66.408	0.167	-0.169
-427.603	-200.000	-0.034	-0.302
-426.588	-156.209	0.151	-0.009
-425.573	-43.245	0.227	0.115
-424.559	184.579	0.193	-0.285
-423.544	800.000	0.028	-0.110
-422.530	-20.676	-0.411	0.251
-421.515	-151.990	0.159	0.012
-420.500	133.445	0.137	0.176
-419.486	-52.035	0.383	-0.177
-418.471	-127.902	0.184	0.026
-417.457	-93.154	-0.208	0.058
-416.442	-200.000	0.001	0.367
-415.428	-46.030	-0.168	-0.083
-414.413	240.521	-0.176	-0.292
-413.398	-101.149	0.267	0.065
-412.384	-83.932	0.187	0.059
-411.369	-115.838	0.200	-0.037
-410.355	-44.569	-0.328	-0.163
-409.340	180.200	-0.107	-0.157
-408.325	-200.000	0.020	-0.094
-407.311	-66.385	-0.061	0.024
-406.296	-200.000	-0.081	0.000
-405.282	-25.349	-0.219	0.129
-404.267	-200.000	0.021	0.177
-403.252	-64.125	0.156	-0.063
-402.238	-200.000	-0.056	-0.260
-401.223	-200.000	-0.038	-0.282
-400.209	-200.000	0.005	-0.142
-399.194	71.980	-0.445	0.460
-398.179	-21.338	-0.188	0.115
-397.165	124.830	0.289	-0.363
-396.150	-200.000	0.001	-0.251
-395.136	-200.000	0.047	-0.226
-394.121	-86.638	0.419	-0.128
-393.106	70.665	0.263	-0.271
-392.092	-8.940	0.034	0.022
-391.077	-2.911	0.289	0.201
-390.063	-96.557	-0.216	-0.057
-389.048	-200.000	-0.031	0.362
-388.033	-73.181	0.044	0.016
-387.019	176.527	0.085	-0.123
-386.004	-200.000	-0.018	-0.176
-384.990	-120.109	0.261	-0.044
-383.975	800.000	0.020	0.055
-382.960	74.630	-0.112	0.117
-381.946	94.126	0.036	0.041
-380.931	-116.080	0.092	-0.017
-379.917	-143.146	-0.378	-0.036
-378.902	-49.593	-0.278	-0.132
-377.888	-101.637	0.179	-0.043
-376.873	92.628	-0.118	0.132
-375.858	-15.851	-0.260	-0.165
-374.844	511.860	0.049	-0.114
-373.829	126.269	0.141	-0.178
-372.815	-153.930	0.044	0.003
-371.800	-200.000	0.027	-0.271
-370.785	54.493	0.123	0.118
-369.771	15.513	-0.119	-0.093
-368.756	147.458	-0.068	-0.091
-367.742	573.678	-0.071	-0.172
-366.727	-178.056	0.295	0.007
-365.712	-53.846	0.398	-0.181
-364.698	800.000	0.047	0.162
-363.683	225.595	0.059	-0.096
-362.669	-102.790	0.142	0.034
-361.654	800.000	0.048	-0.211
-360.639	304.478	-0.050	0.092
-359.625	44.698	0.158	0.144
-358.610	-77.322	-0.178	-0.061
-357.596	-28.528	-0.097	-0.055
-356.581	48.827	-0.265	-0.247
-355.566	186.029	-0.025	-0.037
-354.552	-26.779	0.132	-0.077
-353.537	617.131	0.051	0.128
-352.523	68.663	-0.076	0.078
-351.508	800.000	-0.031	0.113
-350.493	-200.000	-0.013	0.207
-349.479	397.435	0.179	-0.372
-348.464	800.000	0.046	0.158
-347.450	-46.364	0.034	0.017
-346.435	800.000	0.143	-0.409
-345.420	57.204	-0.154	-0.149
-344.406	-200.000	0.094	0.603
-343.391	-200.000	0.044	-0.219
-342.377	42.760	-0.154	-0.139
-341.362	-200.000	-0.046	0.308
-340.348	-200.000	0.046	0.412
-339.333	-200.000	-0.039	0.265
-338.318	-17.358	0.341	0.213
-337.304	-0.773	0.033	-0.023
-336.289	-50.120	0.236	0.111
-335.275	91.729	-0.084	0.094
-334.260	-200.000	0.062	0.365
-333.245	800.000	-0.031	0.115
-332.231	552.609	-0.031	-0.074
-331.216	186.755	0.186	0.275
-330.202	800.000	-0.031	0.114
-329.187	-167.980	0.106	-0.004
-328.172	-95.578	-0.303	0.080
-327.158	671.915	-0.181	-0.465
-326.143	-109.628	0.084	-0.018
-325.129	18.195	-0.195	0.154
-324.114	-200.000	-0.018	0.170
-323.099	-200.000	0.075	0.351
-322.085	100.838	0.234	-0.269
-321.070	-126.310	0.229	-0.034
-320.056	759.028	0.191	-0.513
-319.041	282.078	-0.176	-0.314
-318.026	-119.311	0.083	0.014
-317.012	236.621	-0.072	-0.119
-315.997	100.350	-0.236	-0.272
-314.983	-200.000	0.010	-0.239
-313.968	-26.702	0.369	-0.214
-312.953	800.000	-0.101	-0.295
-311.939	63.107	0.131	-0.130
-310.924	-200.000	-0.084	-0.399
-309.910	-200.000	0.064	-0.315
-308.895	-163.855	-0.039	0.002
-307.880	-200.000	0.005	0.064
-306.866	-200.000	0.061	0.389
-305.851	800.000	0.085	0.311
-304.837	103.128	-0.062	-0.072
-303.822	800.000	-0.058	0.204
-302.807	-200.000	-0.011	0.396
-301.793	-55.629	0.112	0.050
-300.778	800.000	-0.026	-0.101
-299.764	349.480	-0.157	-0.308
-298.749	65.215	0.094	0.094
-297.735	-200.000	-0.005	-0.168
-296.720	-7.671	0.289	0.194
-295.705	-3.152	-0.108	-0.074
-294.691	-200.000	0.022	0.159
-293.676	93.795	0.101	0.114
-292.662	-151.777	-0.171	-0.012
-291.647	-32.023	-0.236	0.131
-290.632	2.078	-0.348	-0.249
-289.618	-200.000	-0.011	-0.424
-288.603	303.447	0.068	0.126
-287.589	800.000	0.095	0.346
-286.574	-93.602	0.190	-0.052
-285.559	22.499	0.288	-0.233
-284.545	-129.708	-0.233	0.032
-283.530	-186.028	-0.276	-0.004
-282.516	-149.381	0.110	0.009
-281.501	28.372	0.135	0.113
-280.486	-200.000	0.015	0.204
-279.472	323.608	-0.213	0.402
-278.457	-159.781	-0.125	-0.007
-277.443	-200.000	-0.002	-0.174
-276.428	-200.000	0.017	0.388
-275.413	88.301	0.151	0.166
-274.399	800.000	-0.088	0.251
-273.384	771.857	-0.034	0.092
-272.370	-17.370	-0.038	-0.023
-271.355	2.385	0.160	0.114
-270.340	-200.000	0.090	0.512
-269.326	265.870	-0.030	-0.052
-268.311	135.854	0.159	0.205
-267.297	62.687	0.030	0.030
-266.282	-135.591	-0.201	0.024
-265.267	177.084	-0.195	0.281
-264.253	301.028	0.102	0.187
-263.238	104.252	0.116	-0.135
-262.224	279.501	-0.105	0.186
-261.209	716.713	-0.064	-0.167
-260.195	538.738	0.045	0.106
-259.180	-137.013	0.152	0.017
-258.165	65.180	0.141	0.141
-257.151	661.607	0.054	-0.139
-256.136	32.639	0.161	0.138
-255.122	-116.201	0.338	-0.062
-254.107	497.657	0.007	-0.016
-253.092	-200.000	-0.015	-0.097
-252.078	196.600	0.049	-0.074
-251.063	800.000	-0.026	-0.086
-250.049	-88.257	-0.179	-0.053
-249.034	-48.704	-0.198	0.094
-248.019	55.586	-0.074	0.071
-247.005	-115.903	0.013	0.002
-245.990	800.000	-0.092	0.352
-244.976	-26.682	-0.190	0.110
-243.961	800.000	0.088	-0.258
-242.946	184.595	-0.172	0.252
-241.932	-200.000	-0.021	0.342
-240.917	-115.070	-0.311	-0.058
-239.903	-15.520	-0.154	0.097
-238.888	-200.000	0.032	0.220
-237.873	118.278	-0.142	-0.173
-236.859	417.504	-0.048	-0.101
-235.844	333.817	-0.061	0.117
-234.830	-73.514	-0.219	0.079
-233.815	-39.387	-0.154	-0.080
-232.800	-57.399	-0.080	-0.035
-231.786	-60.826	0.103	-0.043
-230.771	800.000	0.030	-0.093
-229.757	145.763	-0.141	-0.187
-228.742	51.157	0.100	0.094
-227.727	-16.174	0.074	-0.046
-226.713	150.972	0.058	-0.078
-225.698	-200.000	-0.000	0.165
-224.684	-75.012	-0.266	0.094
-223.669	54.399	0.232	-0.221
-222.655	-129.351	0.200	0.027
-221.640	7.932	-0.066	-0.049
-220.625	800.000	0.041	-0.168
-219.611	-62.884	0.213	-0.087
-218.596	800.000	0.032	-0.090
-217.582	366.570	-0.161	-0.321
-216.567	-200.000	0.042	0.223
-215.552	76.831	0.269	-0.282
-214.538	-111.071	0.401	-0.081
-213.523	-20.631	0.131	0.080
-212.509	13.670	-0.202	-0.155
-211.494	48.883	-0.138	0.128
-210.479	304.246	-0.147	0.269
-209.465	-36.985	-0.117	0.062
-208.450	-200.000	-0.042	0.248
-207.436	63.859	-0.187	-0.186
-206.421	349.015	-0.100	0.195
-205.406	-200.000	0.065	-0.408
-204.392	-107.590	0.146	-0.032
-203.377	-30.824	0.213	0.119
-202.363	21.193	0.347	0.278
-201.348	16.546	-0.339	0.265
-200.333	-67.696	-0.215	-0.083
-199.319	56.510	0.059	0.056
-198.304	-158.282	-0.056	0.003
-197.290	-92.800	0.243	0.067
-196.275	-48.827	0.168	-0.079
-195.260	121.595	0.157	-0.193
-194.246	-51.096	0.174	-0.080
-193.231	83.390	0.231	0.249
-192.217	-65.294	-0.051	-0.020
-191.202	503.555	-0.118	-0.270
-190.187	-200.000	0.003	-0.283
-189.173	84.568	-0.042	-0.045
-188.158	471.196	-0.054	0.119
-187.144	382.437	0.037	-0.074
-186.129	-200.000	-0.000	0.042
-185.114	63.783	-0.161	-0.160
-184.100	295.843	0.172	0.311
-183.085	-35.346	0.064	-0.035
-182.071	-99.662	-0.234	0.058
-181.056	0.148	0.122	0.086
-180.042	3.915	-0.278	-0.200
-179.027	-3.150	-0.110	0.076
-178.012	-156.041	-0.028	0.002
-176.998	425.062	0.101	0.215
-175.983	314.870	0.080	0.149
-174.969	-164.250	0.101	-0.005
-173.954	402.319	0.128	-0.266
-172.939	351.298	0.149	-0.292
-171.925	598.549	-0.058	-0.141
-170.910	-32.554	-0.260	0.143
-169.896	-145.740	-0.170	0.015
-168.881	165.353	0.108	0.150
-167.866	-143.972	-0.320	0.030
-166.852	94.140	0.097	0.108
-165.837	-154.551	-0.203	-0.013
-164.823	-107.792	0.180	-0.039
-163.808	44.955	-0.149	0.135
-162.793	-105.123	0.057	0.013
-161.779	139.970	0.404	0.525
-160.764	47.166	-0.146	0.134
-159.750	236.143	0.107	-0.174
-158.735	159.011	0.202	-0.277
-157.720	141.066	0.202	-0.263
-156.706	-64.847	-0.083	-0.033
-155.691	-200.000	0.062	0.302
-154.677	142.756	0.141	0.184
-153.662	11.397	0.138	-0.104
-152.647	88.528	-0.211	0.231
-151.633	709.040	-0.128	0.333
-150.618	427.510	0.123	-0.262
-149.604	-172.579	-0.114	0.004
-148.589	141.491	-0.043	-0.056
-147.574	800.000	-0.032	0.100
-146.560	28.791	0.026	-0.022
-145.545	683.056	0.057	0.146
-144.531	-92.723	-0.168	-0.046
-143.516	-171.501	0.090	0.003
-142.502	454.491	-0.234	-0.511
-141.487	38.699	0.270	-0.238
-140.472	366.617	0.082	-0.162
-139.458	61.205	0.063	0.061
-138.443	800.000	-0.076	-0.298
-137.429	-63.514	0.223	-0.090
-136.414	-13.735	0.039	-0.025
-135.399	-117.973	-0.224	0.039
-134.385	800.000	0.069	0.190
-133.370	-65.842	-0.115	-0.045
-132.356	-10.506	-0.196	-0.128
-131.341	263.114	0.082	-0.141
-130.326	18.904	0.146	-0.116
-129.312	800.000	0.023	0.087
-128.297	1.379	-0.102	0.072
-127.283	-93.094	-0.437	0.120
-126.268	-200.000	0.011	-0.337
-125.253	800.000	0.036	-0.140
-124.239	-200.000	-0.032	0.273
-123.224	390.775	-0.103	0.211
-122.210	29.931	0.375	-0.314
-121.195	800.000	-0.196	-0.578
