DTS Sentinel unit serial number:	SN413079Multiplexer serial number:	ORYXHardware model number:	OX4-SRSoftware version number:	ORYX F/W v4.00 Oryx Data Collector v3.7.2.0data status	okinstallation	princeton_trtdifferential loss correction	single-endedforward channel	channel 2reverse channel	N/Adate	2019/09/12time	18:03:49forward acquisition time	15.00reverse acquisition time	0.00gamma	496.2192k internal	0.2324k external	0.2324temperature offset calibration	1.0129default loss term (dB/km)	0.3790temperature slope calibration	1.0000multiplexer offset coefficient	1.0000multiplexer slope coefficient	1.0000fibre end	0.00T internal ref (°C)	33.75T ext. ref 1 (°C)	2.96T ext. ref 2 (°C)	28.22length (m)	temperature (°C)	Stokes	anti-Stokes-747.200	-45.636	-0.224	0.112
-746.185	289.430	-0.135	0.247
-745.171	505.463	-0.227	-0.531
-744.156	-93.759	0.831	-0.231
-743.142	-200.000	-0.087	0.590
-742.127	261.992	-0.240	-0.420
-741.112	-200.000	0.144	-0.973
-740.098	-104.557	-0.138	-0.032
-739.083	521.565	0.086	0.204
-738.069	528.162	-0.335	0.798
-737.054	-130.263	-0.512	-0.070
-736.039	-138.997	-0.220	0.024
-735.025	-111.999	0.144	0.029
-734.010	800.000	-0.243	0.900
-732.996	224.341	0.239	0.389
-731.981	457.298	-0.181	-0.406
-730.966	391.615	0.255	-0.534
-729.952	-140.310	0.310	-0.033
-728.937	70.819	-0.358	0.374
-727.923	792.210	0.160	-0.444
-726.908	-127.146	0.059	-0.009
-725.894	800.000	-0.213	0.629
-724.879	-14.970	0.389	-0.252
-723.864	-64.286	0.476	0.196
-722.850	-52.466	0.823	-0.384
-721.835	-112.316	-0.768	-0.155
-720.821	22.464	0.583	-0.481
-719.806	-27.181	-0.470	-0.276
-718.791	800.000	0.062	0.211
-717.777	-112.330	-0.985	0.199
-716.762	-51.791	-0.592	-0.278
-715.748	102.579	-0.509	0.601
-714.733	28.614	-0.418	-0.357
-713.718	-104.908	-0.476	-0.110
-712.704	-124.824	-0.712	-0.111
-711.689	-200.000	0.073	0.679
-710.675	6.711	0.730	0.547
-709.660	-96.761	0.679	0.180
-708.645	-148.487	0.692	0.057
-707.631	-200.000	-0.212	1.106
-706.616	-116.292	-0.537	-0.100
-705.602	800.000	-0.162	-0.643
-704.587	-96.149	-0.642	0.172
-703.572	-76.154	-0.789	0.281
-702.558	78.600	-0.075	-0.080
-701.543	-200.000	0.052	0.891
-700.529	252.991	-0.082	0.141
-699.514	18.166	-0.501	0.403
-698.499	32.488	-0.392	0.341
-697.485	800.000	0.281	-0.840
-696.470	-186.987	-0.796	-0.011
-695.456	200.674	0.073	-0.113
-694.441	-13.702	-0.683	0.445
-693.426	-138.375	-0.718	0.080
-692.412	-42.655	0.194	-0.099
-691.397	-20.991	-0.241	0.149
-690.383	-130.660	1.070	-0.145
-689.368	-97.249	-0.749	0.197
-688.354	239.625	-0.240	-0.403
-687.339	-200.000	-0.113	-0.544
-686.324	462.761	-0.199	-0.448
-685.310	289.410	-0.499	0.912
-684.295	800.000	-0.147	-0.544
-683.281	-79.482	0.837	-0.285
-682.266	800.000	0.120	-0.472
-681.251	-200.000	0.043	-1.665
-680.237	-8.595	-0.482	-0.326
-679.222	385.435	0.263	-0.546
-678.208	-41.561	0.149	-0.077
-677.193	-48.431	-0.907	-0.440
-676.178	-15.346	-0.636	0.409
-675.164	-95.427	-0.658	-0.178
-674.149	150.020	0.298	-0.407
-673.135	196.058	-0.115	0.176
-672.120	-200.000	0.042	0.470
-671.105	208.883	-0.183	0.289
-670.091	-70.214	0.500	0.191
-669.076	21.762	-0.549	0.450
-668.062	-92.010	-0.501	0.143
-667.047	119.587	-0.362	0.451
-666.032	210.303	0.246	-0.389
-665.018	-200.000	0.015	-0.708
-664.003	330.764	0.227	0.441
-662.989	-171.459	0.582	-0.019
-661.974	-52.377	1.274	0.593
-660.959	93.610	-0.434	-0.495
-659.945	-200.000	0.040	-0.918
-658.930	35.735	0.464	-0.410
-657.916	-141.435	-0.277	0.028
-656.901	342.867	-0.049	0.097
-655.886	9.217	-0.847	-0.644
-654.872	85.251	0.457	-0.504
-653.857	-67.180	1.077	-0.427
-652.843	84.939	0.447	0.493
-651.828	-95.738	-0.230	-0.062
-650.814	-67.839	-0.899	-0.354
-649.799	-70.215	0.373	-0.142
-648.784	-68.796	-0.373	-0.145
-647.770	-148.919	-0.419	-0.034
-646.755	-22.020	-0.707	-0.432
-645.741	-148.799	0.868	0.071
-644.726	-81.530	-0.804	-0.266
-643.711	147.374	0.253	-0.342
-642.697	-108.783	-1.019	-0.219
-641.682	800.000	0.086	-0.339
-640.668	-94.492	-0.537	-0.147
-639.653	-52.137	-0.830	-0.387
-638.638	47.302	0.257	0.240
-637.624	-200.000	0.049	0.533
-636.609	-87.119	0.464	-0.142
-635.595	-78.454	0.597	0.206
-634.580	245.301	-0.521	0.881
-633.565	263.460	-0.275	0.480
-632.551	-200.000	-0.026	0.149
-631.536	-200.000	0.018	-0.514
-630.522	-200.000	-0.054	-0.317
-629.507	-168.410	0.518	-0.020
-628.492	-8.850	-0.518	0.349
-627.478	800.000	-0.181	0.612
-626.463	18.803	0.804	-0.647
-625.449	-191.126	-0.113	-0.001
-624.434	410.044	0.266	-0.566
-623.419	-200.000	0.032	0.737
-622.405	113.149	-0.412	-0.501
-621.390	678.926	-0.236	-0.617
-620.376	-119.620	-0.739	-0.128
-619.361	-37.695	-0.703	-0.376
-618.346	-108.634	-0.600	-0.129
-617.332	-200.000	-0.016	0.177
-616.317	-47.028	0.550	-0.270
-615.303	-138.599	-0.614	0.068
-614.288	-91.875	-0.497	0.142
-613.273	304.319	-0.194	0.362
-612.259	178.219	-0.882	1.293
-611.244	-200.000	-0.050	0.883
-610.230	800.000	-0.186	0.803
-609.215	85.753	-0.408	0.451
-608.201	264.443	-0.789	1.379
-607.186	765.376	-0.173	-0.471
-606.171	-114.875	0.669	0.128
-605.157	122.460	0.427	-0.536
-604.142	-46.898	0.372	-0.183
-603.128	32.464	-0.836	0.725
-602.113	-5.095	0.601	-0.415
-601.098	1.773	-0.287	-0.208
-600.084	-35.277	-0.546	-0.298
-599.069	800.000	0.076	-0.302
-598.055	220.137	-0.297	-0.477
-597.040	680.598	-0.128	-0.335
-596.025	-63.914	0.137	0.056
-595.011	-9.905	0.190	0.127
-593.996	-173.368	-0.377	-0.011
-592.982	37.453	-0.472	0.420
-591.967	-101.937	-0.664	0.161
-590.952	-120.351	0.857	-0.146
-589.938	-200.000	0.116	0.598
-588.923	498.325	-0.067	-0.155
-587.909	-200.000	-0.009	-0.433
-586.894	4.505	0.232	-0.171
-585.879	771.107	0.094	0.256
-584.865	216.521	-0.229	0.366
-583.850	19.832	-0.143	-0.115
-582.836	800.000	0.042	0.183
-581.821	-105.453	0.313	0.071
-580.806	356.538	-0.057	0.114
-579.792	-128.875	0.662	0.093
-578.777	-79.301	0.337	0.114
-577.763	-162.774	-0.682	0.033
-576.748	63.451	-0.444	-0.447
-575.733	-200.000	0.211	1.003
-574.719	774.404	0.140	-0.384
-573.704	-9.762	0.347	0.232
-572.690	72.816	-0.679	0.711
-571.675	-69.728	0.603	-0.231
-570.661	69.955	0.236	0.244
-569.646	-43.151	0.591	0.300
-568.631	-1.055	-0.227	-0.161
-567.617	283.781	-0.229	-0.413
-566.602	-65.005	-0.365	0.148
-565.588	-144.619	0.240	-0.022
-564.573	800.000	-0.217	-0.870
-563.558	259.637	0.060	0.104
-562.544	-200.000	-0.004	-0.068
-561.529	-200.000	0.101	1.000
-560.515	-159.973	-0.198	-0.011
-559.500	-110.973	0.114	-0.023
-558.485	78.695	0.498	-0.533
-557.471	-48.670	0.393	0.189
-556.456	-55.085	-0.589	-0.266
-555.442	336.840	0.524	-1.020
-554.427	21.424	-0.245	0.199
-553.412	26.752	0.453	-0.380
-552.398	530.631	0.111	0.263
-551.383	-94.737	-0.490	0.133
-550.369	-11.245	-0.296	0.195
-549.354	133.194	-0.628	0.813
-548.339	511.726	0.325	0.759
-547.325	-200.000	-0.002	0.678
-546.310	-200.000	-0.035	0.758
-545.296	-26.048	0.386	-0.227
-544.281	-60.802	0.267	0.113
-543.266	168.666	0.151	-0.216
-542.252	-55.206	0.144	-0.065
-541.237	38.970	-0.685	-0.613
-540.223	17.515	-0.149	0.118
-539.208	10.242	-0.184	0.140
-538.193	-192.385	-0.834	0.008
-537.179	-12.307	-0.807	-0.528
-536.164	-30.153	0.391	0.222
-535.150	-200.000	-0.087	0.865
-534.135	7.535	0.248	0.185
-533.121	-87.488	-0.352	0.107
-532.106	157.868	0.678	-0.941
-531.091	-162.534	-0.282	0.014
-530.077	-13.919	0.114	0.073
-529.062	-200.000	-0.038	0.183
-528.048	-95.317	0.909	-0.245
-527.033	-200.000	-0.005	-0.298
-526.018	409.582	0.050	0.105
-525.004	-75.093	-0.215	0.077
-523.989	-6.350	0.082	-0.056
-522.975	52.197	0.123	-0.117
-521.960	161.223	-0.126	0.177
-520.945	800.000	-0.113	-0.474
-519.931	800.000	0.063	0.207
-518.916	11.949	0.512	-0.394
-517.902	-200.000	-0.082	1.193
-516.887	20.196	0.382	-0.309
-515.872	29.858	-0.829	-0.707
-514.858	-32.587	0.649	-0.362
-513.843	244.831	-0.299	-0.504
-512.829	-143.218	-0.347	-0.033
-511.814	-200.000	-0.024	0.236
-510.799	-167.046	-0.298	0.012
-509.785	81.604	-0.437	0.473
-508.770	188.473	0.301	-0.450
-507.756	189.639	-0.320	-0.480
-506.741	-9.759	-0.232	-0.154
-505.726	-94.780	-0.781	0.212
-504.712	-93.044	-0.538	-0.150
-503.697	-61.285	0.444	-0.187
-502.683	-62.784	0.466	-0.193
-501.668	-52.436	0.233	-0.108
-500.653	-72.072	0.336	-0.125
-499.639	55.793	0.506	0.490
-498.624	142.127	-0.395	-0.524
-497.610	-78.668	-0.485	0.166
-496.595	54.047	0.348	0.335
-495.581	82.549	-0.390	-0.423
-494.566	562.365	0.161	-0.391
-493.551	800.000	0.108	-0.318
-492.537	-200.000	0.012	-0.564
-491.522	111.220	-0.416	0.501
-490.508	4.396	-0.411	0.301
-489.493	-196.784	-0.109	0.001
-488.478	-200.000	-0.040	-0.437
-487.464	56.897	-0.268	-0.261
-486.449	302.998	-0.399	0.739
-485.435	-21.547	0.644	-0.392
-484.420	-18.409	-0.228	-0.142
-483.405	-7.392	0.200	-0.136
-482.391	-101.081	0.473	0.116
-481.376	-49.086	-0.548	-0.262
-480.362	-200.000	-0.030	-0.417
-479.347	800.000	0.052	0.180
-478.332	-180.552	0.654	-0.013
-477.318	-74.314	0.530	0.191
-476.303	-200.000	0.001	-0.402
-475.289	5.389	0.664	0.489
-474.274	-200.000	0.107	-0.766
-473.259	70.606	-0.567	-0.586
-472.245	-82.765	0.801	0.259
-471.230	159.788	-0.210	-0.292
-470.216	800.000	0.069	0.237
-469.201	-200.000	0.061	0.442
-468.186	-64.812	0.261	0.106
-467.172	265.056	-0.336	-0.586
-466.157	800.000	0.142	-0.441
-465.143	-80.123	-0.362	0.121
-464.128	800.000	-0.084	0.300
-463.113	73.568	-0.515	0.539
-462.099	6.409	-0.108	0.080
-461.084	-200.000	-0.053	-0.523
-460.070	51.605	0.877	-0.832
-459.055	197.597	-0.225	-0.343
-458.040	-200.000	0.081	1.180
-457.026	-11.975	0.638	0.418
-456.011	99.001	-0.450	0.519
-454.997	-5.661	-0.326	-0.223
-453.982	-34.940	-0.382	0.208
-452.968	-200.000	0.125	0.662
-451.953	-14.348	0.473	-0.304
-450.938	-200.000	-0.069	-0.724
-449.924	800.000	0.250	0.824
-448.909	373.225	0.142	0.289
-447.895	-27.585	-0.212	0.123
-446.880	-153.983	-0.671	0.046
-445.865	51.693	-0.286	-0.271
-444.851	800.000	-0.032	0.111
-443.836	209.993	0.418	-0.654
-442.822	-200.000	-0.111	-0.802
-441.807	-200.000	-0.072	0.378
-440.792	306.080	-0.410	0.761
-439.778	800.000	-0.228	0.855
-438.763	-132.287	0.851	-0.110
-437.749	497.973	0.035	-0.081
-436.734	98.151	0.482	0.554
-435.719	-148.231	0.877	-0.072
-434.705	108.842	-0.247	0.295
-433.690	-185.776	-0.366	0.005
-432.676	-98.697	0.467	0.119
-431.661	587.011	-0.149	0.366
-430.646	-200.000	-0.038	-0.639
-429.632	-37.652	0.795	0.422
-428.617	-200.000	0.018	-0.685
-427.603	201.126	-0.373	0.572
-426.588	-174.018	-0.424	-0.012
-425.573	800.000	-0.174	0.621
-424.559	367.999	0.492	0.992
-423.544	-89.150	-0.054	0.016
-422.530	-65.578	-0.164	0.065
-421.515	-83.175	-0.191	-0.061
-420.500	-156.250	0.572	-0.036
-419.486	-7.190	-0.450	0.304
-418.471	315.915	-0.403	-0.757
-417.457	-123.433	0.361	0.057
-416.442	69.366	0.234	0.240
-415.428	134.142	0.337	-0.435
-414.413	800.000	0.217	-0.816
-413.398	-83.267	-0.455	0.146
-412.384	-113.192	0.156	0.031
-411.369	-200.000	0.055	-0.506
-410.355	49.106	0.306	-0.286
-409.340	-200.000	0.026	-1.091
-408.325	-107.907	0.384	-0.083
-407.311	800.000	0.307	0.844
-406.296	-43.295	-0.376	0.190
-405.282	-77.682	-0.316	-0.109
-404.267	-127.746	0.223	0.032
-403.252	800.000	-0.181	0.639
-402.238	-200.000	-0.046	0.941
-401.223	-101.119	-0.251	-0.061
-400.209	172.047	-0.390	-0.559
-399.194	-64.954	0.716	-0.288
-398.179	800.000	0.232	0.877
-397.165	-28.455	0.409	0.235
-396.150	222.553	0.071	-0.113
-395.136	-82.617	-0.523	-0.169
-394.121	-55.381	0.713	0.319
-393.106	5.878	0.340	-0.251
-392.092	-137.035	0.539	0.061
-391.077	444.555	0.259	0.566
-390.063	-115.519	0.788	-0.148
-389.048	427.767	0.333	-0.716
-388.033	-84.896	0.578	-0.181
-387.019	273.188	0.273	0.480
-386.004	-200.000	-0.169	-0.836
-384.990	-141.539	0.403	0.041
-383.975	-178.249	0.331	-0.008
-382.960	-200.000	-0.077	-0.879
-381.946	-81.764	-0.518	0.169
-380.931	-47.639	-0.212	0.103
-379.917	-200.000	-0.050	-0.974
-378.902	10.689	0.674	-0.511
-377.888	257.108	0.574	-0.982
-376.873	8.123	-0.429	0.320
-375.858	-200.000	0.175	1.102
-374.844	-144.697	-0.616	-0.056
-373.829	724.052	0.163	0.432
-372.815	800.000	-0.314	-0.925
-371.800	-34.441	-0.467	0.255
-370.785	-200.000	0.049	0.445
-369.771	-200.000	-0.005	0.520
-368.756	-20.821	-0.236	-0.144
-367.742	129.060	-0.347	0.440
-366.727	-116.773	-0.371	0.068
-365.712	738.026	0.350	0.934
-364.698	-158.523	1.150	0.066
-363.683	-126.700	0.684	-0.101
-362.669	-111.151	-0.937	-0.191
-361.654	87.047	-0.286	-0.314
-360.639	-163.032	-0.269	0.013
-359.625	-100.272	-0.987	-0.244
-358.610	-200.000	-0.013	0.365
-357.596	800.000	0.161	0.533
-356.581	-200.000	-0.065	0.303
-355.566	-123.218	0.605	0.096
-354.552	240.491	0.454	0.754
-353.537	-96.904	0.740	0.193
-352.523	0.008	-0.513	0.363
-351.508	-200.000	-0.001	-0.255
-350.493	-32.798	0.914	0.505
-349.479	12.916	0.436	-0.335
-348.464	-24.330	0.723	-0.429
-347.450	-101.678	-0.485	-0.117
-346.435	165.408	-0.741	-1.042
-345.420	-142.412	0.838	-0.082
-344.406	-200.000	-0.025	0.204
-343.391	-50.657	-0.080	-0.037
-342.377	-4.365	0.216	0.148
-341.362	234.091	-0.261	0.427
-340.348	-70.885	-0.778	-0.292
-339.333	-53.844	-0.328	-0.148
-338.318	-80.306	0.661	0.220
-337.304	-156.816	-1.012	0.062
-336.289	-200.000	0.022	0.811
-335.275	9.665	-0.923	0.695
-334.260	-123.294	-0.976	0.155
-333.245	-200.000	0.029	-0.597
-332.231	-76.549	-0.425	0.148
-331.216	-200.000	0.094	0.674
-330.202	356.755	0.369	0.732
-329.187	-35.593	1.021	-0.550
-328.172	269.074	-0.123	0.214
-327.158	233.875	-0.491	0.803
-326.143	201.181	-0.511	-0.781
-325.129	-135.826	0.597	-0.070
-324.114	-125.129	1.134	0.173
-323.099	443.364	0.173	-0.378
-322.085	-136.761	0.408	-0.047
-321.070	-52.269	-0.545	-0.251
-320.056	-200.000	0.003	0.540
-319.041	-200.000	0.020	0.389
-318.026	-130.893	-0.712	0.095
-317.012	-83.836	-0.234	0.074
-315.997	800.000	-0.203	0.711
-314.983	-108.803	0.726	-0.154
-313.968	-136.643	-0.627	0.072
-312.953	-138.303	0.323	0.035
-311.939	800.000	-0.344	-1.064
-310.924	74.280	0.773	0.806
-309.910	-103.476	-0.643	0.150
-308.895	167.858	-0.351	-0.496
-307.880	-174.002	-0.443	0.013
-306.866	-52.334	-0.515	-0.237
-305.851	86.230	-0.130	0.142
-304.837	-133.273	0.826	-0.103
-303.822	280.040	0.308	-0.547
-302.807	52.428	0.309	0.293
-301.793	-72.596	0.816	-0.299
-300.778	-160.839	0.679	0.036
-299.764	-165.395	0.169	-0.007
-298.749	-165.863	-0.323	-0.014
-297.735	800.000	0.066	-0.206
-296.720	800.000	0.196	-0.581
-295.705	800.000	0.021	-0.060
-294.691	474.346	0.123	-0.275
-293.676	-185.474	-0.839	0.013
-292.662	150.803	-0.375	0.505
-291.647	414.749	-0.083	-0.175
-290.632	78.250	0.324	-0.343
-289.618	-42.980	0.680	0.342
-288.603	197.176	0.310	0.469
-287.589	158.503	-0.152	0.209
-286.574	-54.068	-0.383	0.173
-285.559	7.997	-0.402	-0.299
-284.545	-200.000	0.068	0.770
-283.530	570.319	-0.074	0.180
-282.516	-4.202	0.433	0.297
-281.501	-90.003	0.264	0.076
-280.486	416.289	-0.082	-0.173
-279.472	483.979	-0.275	-0.621
-278.457	-42.147	-0.532	0.270
-277.443	800.000	0.051	0.199
-276.428	474.854	0.241	0.539
-275.413	667.582	-0.194	-0.498
-274.399	800.000	-0.129	0.472
-273.384	800.000	0.114	-0.462
-272.370	447.385	0.053	-0.115
-271.355	-200.000	0.194	0.851
-270.340	1.771	-0.070	-0.050
-269.326	800.000	-0.252	-1.013
-268.311	-46.542	0.390	0.190
-267.297	315.247	0.271	0.507
-266.282	320.603	-0.168	0.317
-265.267	264.035	0.631	-1.087
-264.253	-200.000	0.032	0.469
-263.238	-200.000	0.118	-0.625
-262.224	748.517	0.240	-0.641
-261.209	-200.000	-0.016	-0.301
-260.195	152.950	-0.340	-0.460
-259.180	329.398	0.345	0.656
-258.165	-147.016	0.365	0.031
-257.151	-200.000	-0.012	0.287
-256.136	-155.227	-0.976	0.063
-255.122	293.555	-0.223	-0.403
-254.107	-200.000	0.003	-0.321
-253.092	13.518	0.656	0.504
-252.078	308.743	-0.331	0.612
-251.063	245.971	0.269	-0.448
-250.049	-200.000	-0.023	-0.515
-249.034	612.045	0.324	0.803
-248.019	60.817	0.382	0.375
-247.005	-200.000	-0.031	-0.482
-245.990	800.000	-0.079	0.300
-244.976	-58.510	0.227	-0.097
-243.961	-200.000	-0.033	-0.221
-242.946	220.087	0.536	-0.851
-241.932	-84.205	-0.282	-0.088
-240.917	800.000	0.155	-0.668
-239.903	126.729	-0.545	-0.684
-238.888	48.593	-0.300	-0.278
-237.873	34.362	-0.152	0.131
-236.859	-79.382	0.584	-0.196
-235.844	-200.000	-0.018	-0.783
-234.830	191.260	0.563	0.839
-233.815	800.000	0.042	-0.168
-232.800	-11.951	0.148	0.096
-231.786	-136.248	-0.202	-0.023
-230.771	24.748	-0.294	0.241
-229.757	-39.953	0.835	0.431
-228.742	800.000	-0.207	-0.611
-227.727	-111.438	-0.810	-0.163
-226.713	800.000	0.035	0.104
-225.698	-132.972	-0.345	0.043
-224.684	115.841	0.289	0.350
-223.669	-200.000	0.036	0.491
-222.655	679.914	-0.375	0.965
-221.640	-200.000	0.272	-0.000
-220.625	800.000	-0.078	-0.218
-219.611	108.482	0.371	-0.438
-218.596	800.000	0.040	0.127
-217.582	800.000	-0.038	0.156
-216.567	27.613	-0.763	0.635
-215.552	-23.124	0.559	0.333
-214.538	683.789	-0.104	-0.268
-213.523	-84.987	-0.610	-0.189
-212.509	800.000	-0.171	0.479
-211.494	397.790	-0.189	-0.391
-210.479	574.298	-0.241	-0.581
-209.465	-200.000	-0.055	-0.517
-208.450	157.954	0.403	-0.552
-207.436	-200.000	-0.063	-0.396
-206.421	-79.558	0.539	-0.180
-205.406	-74.467	0.401	-0.143
-204.392	526.122	0.209	0.486
-203.377	399.214	0.093	-0.192
-202.363	183.226	0.371	0.542
-201.348	130.773	0.286	0.363
-200.333	690.992	-0.144	-0.373
-199.319	-197.220	-0.612	-0.004
-198.304	-68.354	0.281	-0.108
-197.290	-58.349	0.649	-0.279
-196.275	-135.496	0.684	-0.081
-195.260	-87.511	-0.617	0.184
-194.246	-101.540	-0.299	-0.072
-193.231	-200.000	-0.069	-0.444
-192.217	-88.655	0.384	0.113
-191.202	800.000	-0.263	0.726
-190.187	-162.750	0.528	0.026
-189.173	-200.000	-0.128	-0.898
-188.158	-200.000	0.045	0.412
-187.144	12.452	0.711	-0.542
-186.129	-148.908	0.381	0.030
-185.114	18.652	-0.166	-0.131
-184.100	-138.957	0.876	0.094
-183.085	-70.192	-0.731	-0.274
-182.071	52.402	0.076	0.072
-181.056	-4.177	-0.603	-0.413
-180.042	-74.032	-0.169	-0.060
-179.027	-87.546	0.497	0.148
-178.012	41.561	0.474	-0.424
-176.998	-12.231	0.241	-0.156
-175.983	253.766	-0.397	-0.671
-174.969	376.783	-0.312	0.628
-173.954	-55.878	-0.638	0.281
-172.939	-64.362	-0.332	-0.134
-171.925	289.757	-0.173	-0.309
-170.910	800.000	0.024	0.066
-169.896	32.316	0.332	0.283
-168.881	128.741	0.214	-0.269
-167.866	-132.735	-0.732	0.092
-166.852	646.800	0.106	0.267
-165.837	-69.041	0.734	-0.279
-164.823	-200.000	-0.130	-1.195
-163.808	-40.512	-1.151	-0.590
-162.793	130.144	0.066	0.083
-161.779	59.176	0.107	-0.104
-160.764	-41.547	-0.311	-0.158
-159.750	64.714	-0.357	0.355
-158.735	-2.072	0.532	-0.368
-157.720	-82.926	-0.369	-0.117
-156.706	-8.008	0.149	0.099
-155.691	-200.000	-0.136	0.779
-154.677	5.173	0.441	-0.320
-153.662	151.531	-0.095	-0.127
-152.647	800.000	-0.051	-0.159
-151.633	-94.469	0.226	0.061
-150.618	-67.537	-0.243	0.094
-149.604	146.438	-0.533	-0.705
-148.589	12.117	0.422	-0.320
-147.574	3.360	0.582	0.418
-146.560	-200.000	0.046	-1.022
-145.545	800.000	0.199	-0.608
-144.531	19.716	0.471	-0.374
-143.516	56.901	-0.684	-0.657
-142.502	473.530	-0.363	0.807
-141.487	-200.000	-0.087	0.613
-140.472	63.303	-0.362	0.357
-139.458	-59.525	0.596	0.252
-138.443	-124.502	0.486	-0.075
-137.429	-56.812	0.535	-0.233
-136.414	800.000	0.199	0.570
-135.399	800.000	-0.234	0.830
-134.385	-142.305	0.593	-0.058
-133.370	-63.539	0.744	-0.301
-132.356	-200.000	0.013	-0.492
-131.341	-200.000	0.021	-0.237
-130.326	-23.029	0.310	0.184
-129.312	79.024	-0.242	0.256
-128.297	-80.469	0.332	-0.109
-127.283	33.068	-0.337	-0.288
-126.268	-21.927	0.302	-0.181
-125.253	87.355	-0.904	0.985
-124.239	-200.000	0.023	0.390
-123.224	-104.426	0.691	-0.158
-122.210	21.287	-0.590	0.472
