DTS Sentinel unit serial number:	SN413079Multiplexer serial number:	ORYXHardware model number:	OX4-SRSoftware version number:	ORYX F/W v4.00 Oryx Data Collector v3.7.2.0data status	okinstallation	princeton_trtdifferential loss correction	single-endedforward channel	channel 2reverse channel	N/Adate	2019/09/19time	12:31:35forward acquisition time	60.00reverse acquisition time	0.00gamma	496.2192k internal	0.2335k external	0.2335temperature offset calibration	1.0018default loss term (dB/km)	0.3790temperature slope calibration	1.0000multiplexer offset coefficient	1.0000multiplexer slope coefficient	1.0000fibre end	0.00T internal ref (°C)	27.11T ext. ref 1 (°C)	0.88T ext. ref 2 (°C)	24.64length (m)	temperature (°C)	Stokes	anti-Stokes-747.200	800.000	-0.066	-0.189
-746.185	66.969	-0.077	-0.079
-745.171	429.676	-0.095	-0.205
-744.156	-104.074	-0.457	0.107
-743.142	-174.357	-0.247	-0.007
-742.127	97.746	-0.185	0.213
-741.112	-200.000	-0.031	0.245
-740.098	280.292	0.091	0.163
-739.083	273.551	-0.108	0.192
-738.069	208.062	0.132	0.208
-737.054	68.751	-0.171	-0.177
-736.039	-200.000	0.014	0.112
-735.025	296.370	0.245	0.451
-734.010	-4.524	-0.184	-0.128
-732.996	-200.000	-0.002	-0.249
-731.981	274.971	0.080	-0.143
-730.966	-200.000	0.028	0.140
-729.952	-200.000	0.035	-0.165
-728.937	800.000	-0.169	-0.521
-727.923	-87.356	-0.302	0.092
-726.908	-72.815	-0.301	-0.111
-725.894	30.846	-0.025	-0.022
-724.879	-154.960	0.124	-0.008
-723.864	-86.938	-0.296	-0.091
-722.850	-120.840	0.257	0.044
-721.835	-13.904	-0.282	-0.183
-720.821	94.653	-0.201	-0.230
-719.806	-74.862	0.174	0.063
-718.791	-57.758	-0.296	0.130
-717.777	-22.550	0.292	0.177
-716.762	75.313	0.082	0.086
-715.748	-200.000	-0.016	-0.226
-714.733	68.547	-0.075	-0.077
-713.718	-23.711	0.164	0.099
-712.704	-200.000	-0.039	0.295
-711.689	-71.922	-0.146	-0.055
-710.675	409.509	-0.031	0.065
-709.660	-90.189	-0.134	-0.039
-708.645	17.370	0.239	-0.191
-707.631	-21.651	0.188	-0.115
-706.616	167.811	-0.036	-0.052
-705.602	-29.044	0.153	-0.088
-704.587	29.292	0.250	-0.213
-703.572	-31.448	-0.210	-0.119
-702.558	800.000	-0.129	-0.453
-701.543	-2.941	-0.158	-0.111
-700.529	-42.018	-0.160	0.082
-699.514	527.009	0.104	0.247
-698.499	78.466	0.092	0.098
-697.485	-69.174	-0.078	0.030
-696.470	324.413	-0.175	0.335
-695.456	2.924	-0.231	0.168
-694.441	-104.966	-0.210	0.048
-693.426	-149.049	-0.030	0.002
-692.412	-65.319	-0.246	0.099
-691.397	-45.599	-0.534	-0.265
-690.383	390.464	-0.073	-0.152
-689.368	800.000	-0.051	0.148
-688.354	-23.641	-0.246	0.148
-687.339	800.000	0.085	0.237
-686.324	113.385	0.186	0.226
-685.310	-44.845	-0.270	-0.135
-684.295	-57.459	0.168	0.074
-683.281	376.007	-0.268	-0.547
-682.266	-66.045	0.054	0.022
-681.251	232.143	-0.124	-0.204
-680.237	800.000	-0.056	0.178
-679.222	-86.186	0.340	-0.105
-678.208	800.000	-0.049	-0.164
-677.193	154.702	0.069	0.095
-676.178	263.564	-0.139	0.242
-675.164	-47.810	-0.035	0.017
-674.149	146.443	0.169	0.227
-673.135	-68.091	-0.264	-0.103
-672.120	522.796	0.104	-0.244
-671.105	-71.274	0.242	0.091
-670.091	-14.327	0.121	-0.078
-669.076	324.122	-0.106	0.202
-668.062	-33.185	-0.093	0.052
-667.047	-55.512	-0.037	0.017
-666.032	276.108	0.122	0.217
-665.018	-184.768	-0.210	-0.003
-664.003	-200.000	-0.044	-0.226
-662.989	-200.000	-0.072	0.346
-661.974	590.211	0.064	0.157
-660.959	69.288	-0.345	-0.356
-659.945	393.626	0.160	-0.333
-658.930	438.696	-0.088	0.192
-657.916	10.657	0.151	-0.115
-656.901	-200.000	-0.002	-0.109
-655.886	110.837	0.153	-0.184
-654.872	-128.481	0.128	-0.018
-653.857	800.000	0.059	0.194
-652.843	-116.603	-0.255	0.047
-651.828	344.848	0.067	-0.132
-650.814	324.186	-0.024	-0.045
-649.799	-149.846	0.093	-0.007
-648.784	-200.000	-0.036	0.227
-647.770	-95.339	-0.135	0.036
-646.755	476.871	-0.208	0.470
-645.741	354.882	0.145	-0.289
-644.726	-76.405	0.080	0.028
-643.711	87.128	-0.214	0.237
-642.697	-200.000	-0.057	0.252
-641.682	-72.428	-0.139	0.051
-640.668	44.506	-0.238	-0.219
-639.653	120.739	0.218	0.272
-638.638	-200.000	-0.001	-0.025
-637.624	-14.006	-0.132	-0.086
-636.609	-103.157	0.061	-0.014
-635.595	800.000	-0.084	0.295
-634.580	-19.307	-0.121	-0.075
-633.565	-200.000	0.002	0.410
-632.551	33.013	0.267	-0.231
-631.536	-18.962	-0.211	0.131
-630.522	-4.413	0.149	-0.103
-629.507	-72.154	-0.167	0.062
-628.492	356.337	0.047	-0.094
-627.478	-169.128	-0.136	-0.005
-626.463	293.984	-0.204	0.373
-625.449	683.226	0.027	-0.069
-624.434	-98.225	0.216	0.055
-623.419	-200.000	0.039	-0.215
-622.405	338.905	-0.146	0.284
-621.390	-12.239	-0.213	0.140
-620.376	-37.067	0.106	-0.057
-619.361	-24.862	-0.082	-0.049
-618.346	82.948	-0.131	-0.143
-617.332	-112.086	-0.378	-0.076
-616.317	86.737	-0.112	0.123
-615.303	800.000	-0.068	-0.220
-614.288	-68.030	0.031	-0.012
-613.273	426.396	-0.109	-0.234
-612.259	-200.000	-0.057	0.271
-611.244	128.285	0.223	0.284
-610.230	800.000	-0.045	-0.174
-609.215	224.728	0.083	-0.135
-608.201	800.000	-0.038	-0.144
-607.186	-171.517	-0.184	-0.006
-606.171	800.000	0.105	-0.446
-605.157	-101.121	0.190	0.046
-604.142	-139.989	0.047	-0.005
-603.128	171.000	0.053	0.075
-602.113	118.612	-0.046	-0.057
-601.098	103.181	0.177	-0.208
-600.084	-200.000	-0.017	-0.104
-599.069	342.604	0.149	-0.291
-598.055	-200.000	0.019	0.130
-597.040	286.902	-0.182	-0.328
-596.025	-200.000	-0.075	-0.362
-595.011	63.300	0.181	-0.181
-593.996	12.517	-0.263	-0.202
-592.982	83.292	-0.119	0.129
-591.967	-200.000	0.024	0.205
-590.952	-169.013	-0.168	-0.006
-589.938	-139.418	-0.351	0.038
-588.923	800.000	0.029	-0.125
-587.909	144.809	0.243	-0.324
-586.894	-58.106	-0.248	0.108
-585.879	-91.708	-0.036	-0.010
-584.865	215.136	0.049	-0.077
-583.850	-200.000	0.003	-0.316
-582.836	454.427	0.036	0.080
-581.821	-145.112	-0.226	0.021
-580.806	-49.244	-0.170	-0.081
-579.792	-91.789	-0.045	0.013
-578.777	800.000	0.032	-0.130
-577.763	-83.342	-0.149	0.048
-576.748	415.572	-0.065	0.138
-575.733	322.525	-0.116	-0.220
-574.719	515.524	-0.097	-0.226
-573.704	-166.712	0.071	-0.003
-572.690	-119.176	0.151	0.026
-571.675	134.496	0.097	-0.125
-570.661	-200.000	-0.007	-0.077
-569.646	-47.309	0.209	0.101
-568.631	-62.182	0.164	0.068
-567.617	800.000	0.053	0.160
-566.602	-73.500	-0.345	0.126
-565.588	216.177	0.246	-0.391
-564.573	-43.995	0.100	-0.050
-563.558	-78.411	-0.158	0.054
-562.544	253.073	0.129	-0.219
-561.529	-67.601	0.078	-0.030
-560.515	-180.534	-0.217	-0.004
-559.500	-5.879	-0.173	0.118
-558.485	-24.371	-0.085	-0.051
-557.471	406.117	0.207	-0.436
-556.456	-44.246	0.182	0.091
-555.442	-86.441	0.054	-0.017
-554.427	-71.271	0.352	-0.132
-553.412	-154.648	-0.302	0.020
-552.398	298.613	-0.111	0.204
-551.383	-200.000	0.022	0.107
-550.369	-92.298	-0.286	0.080
-549.354	110.470	0.211	0.253
-548.339	-103.940	0.234	0.054
-547.325	-154.585	-0.060	-0.004
-546.310	-106.226	-0.277	0.062
-545.296	30.693	-0.167	-0.143
-544.281	-200.000	0.020	0.256
-543.266	224.113	-0.108	-0.175
-542.252	371.740	0.139	0.281
-541.237	180.210	0.087	0.128
-540.223	-200.000	-0.012	0.205
-539.208	-90.449	0.246	0.071
-538.193	-153.777	-0.201	0.014
-537.179	-41.796	0.198	0.101
-536.164	109.913	0.099	0.118
-535.150	-56.802	-0.431	0.190
-534.135	-92.397	0.254	0.071
-533.121	-200.000	-0.005	-0.440
-532.106	163.618	-0.155	0.217
-531.091	-175.457	0.107	-0.003
-530.077	800.000	-0.072	-0.244
-529.062	48.099	-0.173	-0.161
-528.048	-84.582	0.149	-0.047
-527.033	-132.689	0.304	-0.039
-526.018	-90.477	-0.235	-0.068
-525.004	-18.212	0.146	0.091
-523.989	800.000	-0.154	0.438
-522.975	800.000	0.016	0.050
-521.960	-65.116	0.404	0.162
-520.945	-47.405	-0.237	0.115
-519.931	88.956	-0.083	0.091
-518.916	-55.565	-0.114	0.051
-517.902	-15.760	0.123	-0.078
-516.887	-7.156	-0.102	-0.069
-515.872	-128.883	-0.261	0.037
-514.858	800.000	0.055	-0.154
-513.843	76.299	-0.151	0.159
-512.829	-200.000	-0.011	0.433
-511.814	148.760	-0.123	-0.166
-510.799	-200.000	-0.016	0.083
-509.785	-81.246	0.125	-0.041
-508.770	-143.859	0.307	-0.029
-507.756	-123.611	-0.132	0.021
-506.741	-151.481	0.315	-0.023
-505.726	-200.000	-0.011	0.145
-504.712	148.340	-0.192	0.258
-503.697	-49.709	-0.141	0.067
-502.683	-200.000	-0.056	0.309
-501.668	222.563	-0.061	-0.098
-500.653	-106.363	-0.201	0.045
-499.639	-200.000	0.033	0.448
-498.624	283.522	0.124	0.222
-497.610	-1.111	-0.163	0.115
-496.595	-200.000	-0.096	-0.537
-495.581	-112.846	-0.212	0.042
-494.566	131.588	0.129	-0.165
-493.551	-110.093	0.202	-0.042
-492.537	-18.170	-0.120	-0.075
-491.522	-105.609	-0.103	0.023
-490.508	-158.097	0.181	0.011
-489.493	13.588	-0.295	0.228
-488.478	-200.000	0.049	0.389
-487.464	-16.438	-0.252	-0.159
-486.449	15.677	0.154	-0.120
-485.435	326.549	0.153	0.292
-484.420	800.000	0.034	0.130
-483.405	131.490	0.204	-0.261
-482.391	-200.000	-0.070	0.411
-481.376	-85.755	-0.280	0.086
-480.362	-57.589	-0.155	0.068
-479.347	-200.000	0.034	0.257
-478.332	-200.000	-0.027	0.159
-477.318	42.613	0.183	-0.166
-476.303	-118.219	-0.242	-0.043
-475.289	257.248	0.078	-0.133
-474.274	29.868	-0.199	0.168
-473.259	14.707	-0.082	0.064
-472.245	800.000	0.069	0.206
-471.230	4.866	-0.042	-0.031
-470.216	-200.000	0.029	0.380
-469.201	795.821	0.122	0.334
-468.186	-200.000	-0.004	-0.037
-467.172	487.122	-0.054	0.122
-466.157	-117.213	0.079	-0.014
-465.143	-31.673	-0.250	0.140
-464.128	800.000	0.061	0.239
-463.113	-144.799	-0.139	-0.013
-462.099	-75.624	-0.009	-0.003
-461.084	14.630	0.159	-0.123
-460.070	-200.000	-0.027	-0.296
-459.055	800.000	-0.079	-0.246
-458.040	289.870	0.098	-0.176
-457.026	233.667	0.007	0.011
-456.011	-200.000	0.060	-0.316
-454.997	-106.211	0.302	-0.067
-453.982	30.637	-0.166	0.141
-452.968	33.894	0.170	-0.147
-451.953	-200.000	0.000	0.058
-450.938	184.961	-0.218	-0.322
-449.924	-165.886	-0.183	-0.008
-448.909	216.307	0.090	-0.142
-447.895	-154.117	-0.376	-0.025
-446.880	283.375	-0.065	-0.116
-445.865	128.341	-0.153	-0.193
-444.851	-27.031	0.047	0.027
-443.836	-200.000	-0.016	0.103
-442.822	110.323	0.111	0.132
-441.807	167.742	-0.177	-0.250
-440.792	-38.977	0.282	0.147
-439.778	-73.191	0.295	-0.107
-438.763	-200.000	-0.060	0.291
-437.749	-89.546	0.120	0.035
-436.734	320.476	0.069	0.130
-435.719	152.464	0.241	-0.327
-434.705	-77.794	-0.092	0.032
-433.690	0.011	0.246	-0.174
-432.676	-165.077	0.021	-0.001
-431.661	106.013	-0.054	0.064
-430.646	-21.469	0.150	-0.091
-429.632	353.098	0.078	-0.154
-428.617	89.042	-0.187	0.207
-427.603	35.856	-0.020	0.017
-426.588	116.396	0.089	-0.108
-425.573	169.658	0.167	0.237
-424.559	-13.913	-0.275	0.177
-423.544	-54.702	-0.283	0.127
-422.530	-118.243	-0.124	-0.022
-421.515	-30.975	0.174	-0.097
-420.500	-200.000	-0.009	-0.045
-419.486	-112.917	-0.083	-0.016
-418.471	684.104	0.047	0.122
-417.457	-200.000	-0.037	-0.291
-416.442	-50.284	0.380	-0.178
-415.428	191.214	0.065	-0.097
-414.413	800.000	-0.024	0.074
-413.398	13.351	0.078	0.060
-412.384	5.048	0.115	-0.084
-411.369	-56.954	0.042	-0.018
-410.355	80.894	0.194	0.208
-409.340	-63.203	-0.411	0.168
-408.325	-74.044	-0.044	-0.016
-407.311	-200.000	-0.039	-0.266
-406.296	-0.966	0.405	0.285
-405.282	23.337	0.133	0.108
-404.267	110.939	0.096	-0.114
-403.252	-200.000	0.051	-0.229
-402.238	-200.000	0.003	0.138
-401.223	-200.000	0.005	-0.066
-400.209	-200.000	0.056	-0.310
-399.194	161.299	-0.181	-0.250
-398.179	800.000	-0.060	-0.204
-397.165	-95.582	-0.220	-0.059
-396.150	-100.367	-0.450	-0.111
-395.136	245.361	0.209	0.348
-394.121	42.615	0.206	-0.186
-393.106	-200.000	0.009	-0.043
-392.092	207.467	0.157	-0.242
-391.077	800.000	0.054	-0.163
-390.063	1.212	-0.126	0.090
-389.048	-200.000	0.010	-0.085
-388.033	146.232	-0.033	0.044
-387.019	-176.446	0.268	0.007
-386.004	-95.036	-0.183	-0.049
-384.990	-200.000	-0.168	0.000
-383.975	-39.141	0.271	-0.141
-382.960	-108.776	0.330	0.070
-381.946	800.000	-0.042	0.146
-380.931	571.551	-0.088	-0.213
-379.917	126.659	0.077	-0.096
-378.902	23.586	0.085	-0.069
-377.888	-91.058	-0.215	0.061
-376.873	-8.268	0.032	-0.022
-375.858	-66.281	0.081	-0.032
-374.844	99.213	0.336	0.385
-373.829	-92.233	0.165	0.046
-372.815	379.014	-0.035	0.071
-371.800	-149.988	0.300	-0.023
-370.785	-200.000	0.046	-0.222
-369.771	-17.441	-0.293	0.183
-368.756	606.445	-0.038	-0.095
-367.742	-200.000	0.016	-0.152
-366.727	-11.323	-0.407	-0.265
-365.712	153.033	-0.014	-0.019
-364.698	412.125	0.128	0.268
-363.683	701.381	-0.095	-0.249
-362.669	800.000	-0.089	-0.249
-361.654	800.000	-0.127	0.546
-360.639	-200.000	0.008	0.357
-359.625	421.331	-0.128	-0.271
-358.610	-200.000	-0.027	-0.318
-357.596	75.177	-0.029	0.030
-356.581	-133.750	-0.368	0.045
-355.566	8.782	0.106	-0.079
-354.552	-200.000	0.024	-0.325
-353.537	800.000	-0.051	0.173
-352.523	-40.899	-0.201	-0.103
-351.508	404.115	-0.083	0.173
-350.493	178.299	0.162	-0.234
-349.479	-38.580	-0.305	0.159
-348.464	-140.103	0.065	0.007
-347.450	-25.413	0.148	-0.086
-346.435	-200.000	0.016	0.097
-345.420	128.879	-0.091	0.115
-344.406	-131.152	0.036	0.005
-343.391	145.615	-0.175	0.232
-342.377	449.787	-0.054	0.119
-341.362	25.327	-0.069	-0.057
-340.348	-142.670	0.073	0.007
-339.333	87.358	-0.174	0.191
-338.318	-4.643	0.040	-0.027
-337.304	8.388	-0.150	0.111
-336.289	800.000	-0.051	0.192
-335.275	-106.874	-0.299	0.066
-334.260	279.684	0.132	0.233
-333.245	-200.000	0.027	-0.412
-332.231	156.364	-0.122	0.166
-331.216	154.289	0.035	0.047
-330.202	-23.722	-0.038	-0.023
-329.187	800.000	0.036	-0.140
-328.172	47.592	-0.118	0.109
-327.158	721.408	0.161	-0.422
-326.143	-154.995	-0.330	-0.021
-325.129	35.319	0.210	0.182
-324.114	238.445	-0.107	0.176
-323.099	-73.436	0.281	0.101
-322.085	561.042	-0.082	-0.197
-321.070	-58.750	-0.414	0.177
-320.056	-105.774	-0.427	0.095
-319.041	57.023	-0.211	-0.203
-318.026	145.740	0.044	-0.059
-317.012	26.676	-0.132	0.109
-315.997	38.986	-0.017	-0.015
-314.983	-12.741	-0.183	-0.118
-313.968	167.624	0.224	0.315
-312.953	-200.000	0.008	-0.248
-311.939	-105.403	0.120	-0.027
-310.924	-76.064	0.056	0.020
-309.910	800.000	-0.080	-0.241
-308.895	-39.388	0.147	-0.076
-307.880	-59.492	-0.371	0.157
-306.866	-200.000	-0.019	-0.217
-305.851	-2.433	0.151	0.105
-304.837	800.000	-0.099	-0.273
-303.822	623.426	0.148	-0.369
-302.807	-80.098	0.024	0.008
-301.793	-194.145	-0.225	0.002
-300.778	800.000	-0.004	0.017
-299.764	-105.111	-0.328	-0.074
-298.749	-193.070	0.249	0.002
-297.735	-69.831	-0.104	-0.039
-296.720	-25.385	0.155	-0.090
-295.705	-161.767	0.403	-0.020
-294.691	-51.744	-0.037	-0.017
-293.676	-200.000	0.010	0.107
-292.662	800.000	0.080	0.274
-291.647	-2.506	-0.092	0.064
-290.632	490.871	-0.113	0.256
-289.618	-67.432	0.328	0.127
-288.603	-200.000	0.023	0.155
-287.589	55.346	0.199	-0.190
-286.574	-200.000	-0.009	0.155
-285.559	331.414	0.107	0.203
-284.545	7.871	0.141	-0.105
-283.530	-119.551	-0.062	-0.011
-282.516	-84.552	0.132	-0.041
-281.501	-91.687	0.336	0.094
-280.486	46.269	-0.094	-0.086
-279.472	-74.060	-0.118	0.042
-278.457	72.167	0.309	-0.317
-277.443	72.868	0.060	-0.061
-276.428	-98.615	0.269	0.068
-275.413	-109.768	0.088	-0.018
-274.399	-199.817	-0.334	-0.002
-273.384	-200.000	0.044	0.341
-272.370	-120.047	0.158	0.027
-271.355	-112.801	0.251	-0.049
-270.340	-132.337	0.108	-0.014
-269.326	-88.926	0.138	-0.040
-268.311	490.485	0.079	-0.179
-267.297	800.000	-0.030	0.113
-266.282	-123.980	0.209	-0.033
-265.267	-52.043	-0.303	0.139
-264.253	371.655	0.097	0.194
-263.238	73.033	-0.127	0.131
-262.224	-108.853	0.211	0.044
-261.209	-105.979	-0.182	-0.040
-260.195	-6.268	-0.283	-0.191
-259.180	346.276	0.098	-0.190
-258.165	8.031	0.179	0.132
-257.151	6.482	-0.029	0.022
-256.136	-160.788	0.148	-0.008
-255.122	-200.000	0.071	0.319
-254.107	88.187	0.071	-0.077
-253.092	-99.297	-0.063	0.016
-252.078	84.926	0.161	-0.173
-251.063	-139.466	0.263	0.028
-250.049	-200.000	0.007	-0.313
-249.034	98.600	0.114	-0.130
-248.019	-41.051	-0.197	-0.100
-247.005	-101.027	-0.158	-0.038
-245.990	56.345	-0.184	0.176
-244.976	267.066	0.077	0.133
-243.961	-7.284	0.219	-0.146
-242.946	-200.000	-0.052	-0.565
-241.932	-200.000	0.044	-0.470
-240.917	-200.000	0.009	0.137
-239.903	800.000	-0.037	-0.115
-238.888	800.000	-0.061	-0.221
-237.873	68.713	0.580	0.587
-236.859	134.030	-0.193	0.246
-235.844	-139.995	-0.361	0.037
-234.830	446.004	-0.123	-0.267
-233.815	324.994	0.093	-0.175
-232.800	1.273	-0.070	0.050
-231.786	-16.745	0.065	0.041
-230.771	-8.414	-0.331	0.219
-229.757	-200.000	0.044	0.194
-228.742	-112.094	0.092	0.018
-227.727	524.203	0.042	0.097
-226.713	133.617	0.218	0.278
-225.698	-133.935	0.284	-0.035
-224.684	-89.365	-0.276	0.080
-223.669	7.302	-0.284	-0.209
-222.655	-58.841	0.494	0.210
-221.640	-13.366	0.136	-0.087
-220.625	512.186	0.139	-0.318
-219.611	101.751	0.114	-0.131
-218.596	15.212	0.326	-0.252
-217.582	-176.444	-0.333	-0.008
-216.567	-200.000	-0.015	-0.069
-215.552	210.646	0.201	0.311
-214.538	33.076	0.197	0.168
-213.523	31.522	-0.030	0.026
-212.509	800.000	0.112	0.312
-211.494	506.115	-0.029	0.066
-210.479	-200.000	0.025	0.255
-209.465	-200.000	-0.022	-0.171
-208.450	-76.540	-0.335	0.116
-207.436	800.000	-0.097	0.290
-206.421	800.000	-0.030	-0.087
-205.406	-200.000	-0.053	-0.366
-204.392	-200.000	-0.020	-0.297
-203.377	800.000	0.060	0.204
-202.363	333.325	-0.161	-0.307
-201.348	800.000	-0.085	0.289
-200.333	86.533	-0.201	0.218
-199.319	-70.846	-0.115	0.043
-198.304	-41.197	-0.222	-0.113
-197.290	-200.000	0.051	-0.361
-196.275	294.440	-0.051	-0.092
-195.260	-129.554	0.266	-0.036
-194.246	-200.000	-0.009	0.160
-193.231	-163.284	0.176	0.008
-192.217	24.647	-0.097	0.079
-191.202	-193.178	-0.310	-0.003
-190.187	-79.808	0.050	-0.016
-189.173	289.552	-0.129	0.230
-188.158	164.096	-0.146	-0.202
-187.144	-104.378	-0.190	-0.043
-186.129	136.415	-0.174	-0.223
-185.114	-187.911	0.107	-0.001
-184.100	550.255	-0.118	-0.278
-183.085	-155.602	-0.018	0.001
-182.071	-42.859	0.189	0.095
-181.056	408.514	-0.026	0.054
-180.042	57.748	0.156	-0.150
-179.027	-200.000	-0.030	-0.250
-178.012	46.636	0.219	0.199
-176.998	-38.142	0.377	-0.197
-175.983	-200.000	0.037	0.269
-174.969	800.000	0.030	0.110
-173.954	7.048	0.175	0.128
-172.939	3.604	0.220	-0.158
-171.925	-78.632	0.211	0.071
-170.910	609.733	-0.074	-0.181
-169.896	-62.210	0.429	-0.176
-168.881	-166.369	0.161	0.007
-167.866	2.918	0.297	0.212
-166.852	113.667	0.119	-0.142
-165.837	9.297	0.229	-0.170
-164.823	-119.215	-0.423	-0.072
-163.808	800.000	0.031	-0.086
-162.793	14.918	0.144	-0.111
-161.779	-129.857	0.326	0.044
-160.764	-200.000	-0.038	0.167
-159.750	43.923	-0.073	-0.066
-158.735	-167.439	0.377	-0.015
-157.720	83.509	-0.127	0.135
-156.706	800.000	0.025	-0.077
-155.691	-200.000	0.010	0.333
-154.677	-200.000	-0.006	-0.085
-153.662	-13.095	-0.057	-0.036
-152.647	-48.331	0.280	-0.132
-151.633	800.000	0.063	0.244
-150.618	-19.879	0.535	0.324
-149.604	361.035	-0.112	-0.220
-148.589	-96.762	-0.056	-0.015
-147.574	28.514	0.076	0.063
-146.560	-104.166	-0.147	-0.034
-145.545	800.000	-0.027	-0.078
-144.531	-116.029	0.116	-0.021
-143.516	-200.000	-0.005	-0.127
-142.502	-200.000	-0.060	0.260
-141.487	-172.042	0.417	0.013
-140.472	-103.191	0.210	0.049
-139.458	732.026	-0.010	-0.025
-138.443	-200.000	0.034	0.320
-137.429	310.562	-0.126	-0.231
-136.414	-8.773	0.049	0.032
-135.399	-84.690	0.218	0.067
-134.385	-59.070	-0.127	0.054
-133.370	-116.173	0.138	-0.025
-132.356	-200.000	0.009	0.113
-131.341	-200.000	0.095	0.469
-130.326	-43.975	0.148	0.073
-129.312	156.854	-0.203	-0.276
-128.297	-200.000	0.002	-0.050
-127.283	399.506	0.095	0.195
-126.268	-21.788	0.133	0.080
-125.253	42.565	-0.241	-0.215
-124.239	-53.930	-0.099	-0.044
-123.224	60.396	-0.139	-0.135
-122.210	-200.000	-0.045	0.202
