DTS Sentinel unit serial number:	SN413079Multiplexer serial number:	ORYXHardware model number:	OX4-SRSoftware version number:	ORYX F/W v4.00 Oryx Data Collector v3.7.2.0data status	okinstallation	princeton_trtdifferential loss correction	single-endedforward channel	channel 2reverse channel	N/Adate	2019/09/12time	18:34:49forward acquisition time	15.00reverse acquisition time	0.00gamma	496.2192k internal	0.2324k external	0.2324temperature offset calibration	1.0136default loss term (dB/km)	0.3790temperature slope calibration	1.0000multiplexer offset coefficient	1.0000multiplexer slope coefficient	1.0000fibre end	0.00T internal ref (°C)	33.19T ext. ref 1 (°C)	2.98T ext. ref 2 (°C)	27.71length (m)	temperature (°C)	Stokes	anti-Stokes-747.200	-200.000	0.021	0.408
-746.185	182.319	-0.622	0.925
-745.171	-200.000	0.063	0.753
-744.156	800.000	0.122	-0.486
-743.142	294.505	-0.290	0.535
-742.127	594.479	-0.208	0.520
-741.112	-200.000	0.048	-0.342
-740.098	95.875	0.205	-0.237
-739.083	39.501	-0.284	0.256
-738.069	-200.000	-0.050	-0.507
-737.054	800.000	-0.190	-0.799
-736.039	7.623	-0.375	0.283
-735.025	-31.858	0.391	0.221
-734.010	-200.000	-0.084	-0.852
-732.996	-9.782	0.065	-0.044
-731.981	181.397	0.287	0.426
-730.966	248.650	0.243	-0.415
-729.952	-200.000	0.025	-0.172
-728.937	169.472	0.370	0.533
-727.923	-193.607	-1.263	0.011
-726.908	-200.000	0.071	0.714
-725.894	348.927	0.359	-0.714
-724.879	800.000	0.117	0.506
-723.864	170.226	-0.341	-0.492
-722.850	-19.603	-0.833	-0.520
-721.835	-33.864	0.349	0.194
-720.821	-200.000	0.093	0.713
-719.806	441.526	-0.398	-0.878
-718.791	132.302	0.042	-0.054
-717.777	-106.783	-0.381	0.085
-716.762	14.440	0.347	-0.273
-715.748	272.630	-0.400	0.712
-714.733	800.000	-0.133	-0.437
-713.718	541.713	-0.365	-0.877
-712.704	232.180	-0.234	0.387
-711.689	-3.064	-0.594	-0.418
-710.675	-200.000	0.277	-1.231
-709.660	-200.000	-0.109	-0.819
-708.645	-106.357	0.042	-0.009
-707.631	130.708	-0.089	0.115
-706.616	-34.495	-0.528	-0.291
-705.602	492.697	0.072	0.167
-704.587	49.220	0.257	-0.244
-703.572	-200.000	-0.001	0.316
-702.558	-135.976	0.268	0.032
-701.543	800.000	0.064	0.226
-700.529	-195.016	-0.666	-0.005
-699.514	-19.725	-0.376	0.235
-698.499	-200.000	-0.120	-0.541
-697.485	-162.979	0.701	-0.034
-696.470	-16.049	-0.715	0.458
-695.456	-76.380	0.377	0.134
-694.441	291.143	-0.087	-0.160
-693.426	315.147	-0.413	0.785
-692.412	79.955	0.313	-0.339
-691.397	-83.405	0.623	-0.201
-690.383	-122.235	-0.219	-0.036
-689.368	800.000	0.039	-0.128
-688.354	-114.526	0.885	-0.171
-687.339	-19.382	0.213	0.133
-686.324	-59.298	-0.659	-0.286
-685.310	-200.000	0.106	-0.587
-684.295	-70.900	0.498	0.189
-683.281	176.297	-0.220	0.322
-682.266	-22.830	-0.206	-0.125
-681.251	-200.000	0.012	-0.108
-680.237	25.144	0.249	0.208
-679.222	137.270	-0.697	0.918
-678.208	26.085	-0.095	-0.080
-677.193	-45.665	-0.728	-0.363
-676.178	-56.943	-0.226	-0.101
-675.164	18.230	-0.070	-0.056
-674.149	216.539	-0.379	0.607
-673.135	51.803	0.092	0.088
-672.120	20.511	0.345	0.281
-671.105	-200.000	0.019	-0.100
-670.091	-162.261	-0.171	-0.009
-669.076	-42.135	0.504	-0.260
-668.062	162.760	-0.324	-0.458
-667.047	-21.098	-0.550	-0.339
-666.032	66.540	0.541	-0.554
-665.018	20.381	-0.421	-0.342
-664.003	800.000	-0.183	-0.713
-662.989	30.616	-0.853	0.734
-661.974	96.273	0.210	0.241
-660.959	-200.000	-0.125	-0.648
-659.945	-83.771	-0.080	0.026
-658.930	-49.411	0.554	0.266
-657.916	45.461	0.834	-0.775
-656.901	194.312	0.070	-0.107
-655.886	-200.000	-0.034	-0.177
-654.872	302.347	-0.092	-0.172
-653.857	246.713	-0.311	-0.527
-652.843	29.923	-0.402	-0.344
-651.828	-200.000	0.064	-0.721
-650.814	179.403	-0.369	0.544
-649.799	-44.636	-0.475	-0.239
-648.784	-109.464	-0.452	0.096
-647.770	126.038	0.279	-0.355
-646.755	-6.361	0.857	0.588
-645.741	-32.941	-0.322	0.180
-644.726	-83.573	0.466	0.150
-643.711	174.284	-0.454	-0.660
-642.697	110.171	-0.580	-0.700
-641.682	-40.412	-0.347	0.181
-640.668	81.081	0.535	0.581
-639.653	149.506	-0.631	-0.859
-638.638	273.149	0.261	0.463
-637.624	-97.568	0.319	0.083
-636.609	-57.573	-0.995	0.439
-635.595	-155.154	0.691	-0.045
-634.580	-39.298	-0.379	-0.200
-633.565	-53.648	0.582	-0.267
-632.551	-200.000	0.233	-1.172
-631.536	-83.093	-0.307	-0.099
-630.522	-80.518	0.443	0.148
-629.507	105.786	0.104	0.123
-628.492	10.082	0.302	0.231
-627.478	592.368	-0.067	-0.166
-626.463	800.000	-0.155	0.467
-625.449	-76.343	0.348	-0.123
-624.434	-115.374	0.200	0.038
-623.419	751.190	0.190	-0.515
-622.405	81.581	0.149	-0.162
-621.390	-19.624	0.537	-0.334
-620.376	678.324	-0.111	-0.289
-619.361	800.000	0.227	-0.938
-618.346	409.462	-0.062	0.133
-617.332	49.372	-0.149	0.140
-616.317	-200.000	-0.064	-0.282
-615.303	146.274	-0.227	0.305
-614.288	-18.795	-0.575	-0.360
-613.273	11.663	0.401	-0.309
-612.259	115.208	-0.146	-0.179
-611.244	-6.033	-0.141	0.097
-610.230	-88.201	0.462	0.139
-609.215	-102.349	0.526	-0.127
-608.201	-71.024	-0.273	-0.103
-607.186	-172.862	-0.662	0.021
-606.171	36.708	0.262	0.232
-605.157	387.233	0.180	-0.374
-604.142	-200.000	-0.005	-0.043
-603.128	-5.145	0.158	-0.109
-602.113	302.729	0.378	-0.703
-601.098	-200.000	0.068	-0.339
-600.084	153.826	0.360	-0.495
-599.069	398.942	0.090	0.189
-598.055	17.881	0.628	-0.502
-597.040	24.019	0.373	0.309
-596.025	57.529	-0.399	0.391
-595.011	-200.000	0.042	-0.323
-593.996	35.402	0.811	-0.714
-592.982	-75.179	-0.346	-0.124
-591.967	252.232	0.716	1.225
-590.952	24.820	0.084	0.070
-589.938	-112.475	0.441	-0.088
-588.923	67.441	0.681	0.698
-587.909	-200.000	0.004	0.053
-586.894	-44.914	0.155	-0.077
-585.879	-25.830	-0.439	0.260
-584.865	-8.471	-0.451	-0.304
-583.850	-29.808	0.182	0.104
-582.836	-145.968	-0.092	-0.008
-581.821	-90.361	0.842	0.245
-580.806	3.656	-0.664	0.486
-579.792	800.000	0.241	-0.782
-578.777	-26.392	-0.903	-0.531
-577.763	-200.000	-0.039	-0.765
-576.748	88.476	-0.563	-0.628
-575.733	-200.000	0.120	0.922
-574.719	-200.000	0.164	1.007
-573.704	-70.465	0.286	0.109
-572.690	-87.853	-0.502	0.151
-571.675	-31.080	0.126	-0.071
-570.661	-0.313	0.157	0.112
-569.646	-97.649	0.330	-0.086
-568.631	800.000	-0.207	-0.761
-567.617	-99.089	-0.746	-0.189
-566.602	-200.000	0.392	-0.002
-565.588	-4.886	0.499	0.344
-564.573	-200.000	0.082	0.705
-563.558	-13.557	-0.323	0.210
-562.544	2.980	-0.357	-0.260
-561.529	17.109	0.537	0.426
-560.515	-64.790	-0.215	0.087
-559.500	-101.501	-0.036	0.009
-558.485	800.000	0.106	0.332
-557.471	800.000	0.089	0.369
-556.456	-147.647	0.537	0.045
-555.442	407.480	0.134	-0.284
-554.427	-21.420	0.120	0.073
-553.412	-200.000	0.110	-0.562
-552.398	-200.000	0.006	0.601
-551.383	800.000	-0.143	-0.482
-550.369	-63.520	0.757	-0.311
-549.354	-200.000	-0.097	0.986
-548.339	97.038	-0.336	0.386
-547.325	-169.853	0.751	0.027
-546.310	-200.000	-0.085	-0.638
-545.296	-132.272	-0.362	0.047
-544.281	88.753	0.167	-0.186
-543.266	53.459	-0.378	-0.364
-542.252	-200.000	0.077	0.924
-541.237	170.731	0.447	0.641
-540.223	-28.085	-1.158	0.671
-539.208	-44.005	-0.661	0.333
-538.193	29.912	-0.374	0.320
-537.179	-115.806	0.581	-0.109
-536.164	800.000	0.054	-0.150
-535.150	125.799	-0.608	-0.768
-534.135	-33.750	-0.764	-0.422
-533.121	2.977	-0.252	-0.183
-532.106	267.395	-0.357	-0.626
-531.091	-135.803	-0.533	0.063
-530.077	117.404	0.263	0.323
-529.062	68.460	0.200	0.205
-528.048	-24.738	0.527	-0.313
-527.033	800.000	0.115	-0.488
-526.018	99.439	0.308	-0.357
-525.004	-200.000	0.016	0.205
-523.989	102.395	-0.197	-0.230
-522.975	43.791	0.263	-0.241
-521.960	-38.328	1.223	0.648
-520.945	-200.000	-0.027	-0.248
-519.931	530.766	0.238	-0.563
-518.916	134.343	-0.158	0.206
-517.902	-109.914	-0.070	0.015
-516.887	-27.636	0.999	0.580
-515.872	-46.813	-0.334	-0.163
-514.858	-200.000	-0.025	1.140
-513.843	134.945	0.465	0.605
-512.829	-107.028	0.099	-0.022
-511.814	652.318	-0.289	-0.740
-510.799	338.170	-0.461	-0.897
-509.785	667.490	-0.123	0.318
-508.770	-109.395	0.840	0.178
-507.756	-200.000	-0.215	-0.970
-506.741	356.627	0.173	-0.345
-505.726	-151.546	0.711	-0.053
-504.712	-200.000	0.233	1.050
-503.697	-200.000	0.066	0.000
-502.683	-126.364	-0.484	-0.072
-501.668	127.910	0.239	-0.304
-500.653	-200.000	0.004	0.194
-499.639	410.656	0.317	-0.673
-498.624	90.129	0.462	-0.516
-497.610	99.783	0.582	0.673
-496.595	5.207	-0.545	-0.402
-495.581	129.041	0.258	-0.329
-494.566	-91.733	-0.930	-0.264
-493.551	90.039	-0.420	-0.469
-492.537	-61.431	-0.571	-0.240
-491.522	-200.000	-0.160	-0.000
-490.508	-37.340	0.640	0.342
-489.493	-184.387	-0.382	-0.006
-488.478	21.275	-0.220	-0.179
-487.464	-86.214	-0.754	-0.232
-486.449	-16.833	-0.509	-0.322
-485.435	-200.000	-0.043	-1.053
-484.420	40.295	-0.288	0.259
-483.405	120.968	0.226	0.281
-482.391	31.281	0.756	0.649
-481.376	-132.848	0.231	-0.029
-480.362	249.825	-0.461	-0.781
-479.347	-130.045	0.529	0.072
-478.332	-76.091	0.730	0.258
-477.318	-73.702	0.464	0.169
-476.303	-30.840	-0.528	-0.298
-475.289	379.325	0.183	0.374
-474.274	140.827	0.690	-0.910
-473.259	131.670	-0.493	-0.633
-472.245	161.222	0.287	0.401
-471.230	-200.000	-0.031	0.236
-470.216	214.254	-0.244	0.385
-469.201	268.709	-0.279	0.489
-468.186	-200.000	0.054	0.437
-467.172	-33.331	0.387	0.214
-466.157	32.222	-0.294	0.254
-465.143	1.062	0.419	0.300
-464.128	83.628	0.307	0.334
-463.113	-200.000	0.050	0.666
-462.099	105.409	-0.285	0.336
-461.084	213.156	-0.336	-0.529
-460.070	-145.967	0.697	-0.062
-459.055	389.614	0.365	0.756
-458.040	289.395	-0.073	0.132
-457.026	-66.335	0.239	-0.095
-456.011	-74.141	0.744	0.269
-454.997	-99.858	-0.561	0.140
-453.982	190.492	-0.338	0.507
-452.968	-55.788	0.496	0.221
-451.953	4.576	0.299	-0.219
-450.938	-200.000	0.043	0.198
-449.924	800.000	0.205	0.800
-448.909	-118.885	-0.625	0.110
-447.895	-99.370	-0.406	-0.102
-446.880	-28.706	-0.121	0.069
-445.865	-104.765	-0.245	-0.056
-444.851	89.044	0.227	-0.252
-443.836	800.000	-0.079	-0.263
-442.822	-200.000	0.112	-0.747
-441.807	-190.242	0.425	0.005
-440.792	-158.625	0.299	-0.017
-439.778	134.877	0.224	-0.290
-438.763	-200.000	-0.025	-0.891
-437.749	-118.531	0.724	-0.128
-436.734	-200.000	-0.140	0.745
-435.719	165.731	-0.134	-0.189
-434.705	-200.000	0.087	-0.716
-433.690	-45.358	-0.441	-0.218
-432.676	-71.867	0.839	-0.311
-431.661	307.981	-0.444	0.826
-430.646	37.180	0.005	0.004
-429.632	-114.119	0.144	-0.028
-428.617	270.275	-0.467	-0.819
-427.603	33.248	0.516	0.447
-426.588	86.400	0.143	0.157
-425.573	9.286	-0.945	-0.712
-424.559	39.131	0.344	0.307
-423.544	166.967	0.133	-0.189
-422.530	-200.000	-0.046	-0.220
-421.515	-116.494	0.703	0.129
-420.500	95.367	-0.574	-0.653
-419.486	32.761	-0.918	-0.792
-418.471	-120.146	-0.596	-0.102
-417.457	26.248	-1.010	-0.841
-416.442	-35.017	0.873	0.474
-415.428	34.654	-0.392	0.342
-414.413	171.519	-0.283	0.405
-413.398	340.441	-0.062	-0.120
-412.384	-133.082	-0.484	-0.061
-411.369	800.000	0.095	-0.368
-410.355	-200.000	0.067	0.448
-409.340	-200.000	-0.040	0.913
-408.325	-200.000	0.021	0.105
-407.311	-200.000	0.065	-0.287
-406.296	-172.427	0.463	0.015
-405.282	-160.158	-0.667	0.036
-404.267	-200.000	-0.197	1.106
-403.252	-97.186	0.733	-0.191
-402.238	-137.916	0.317	0.035
-401.223	239.680	-0.104	-0.173
-400.209	-32.417	-0.502	-0.279
-399.194	-200.000	0.025	-0.181
-398.179	402.176	-0.079	0.165
-397.165	67.793	-0.424	0.431
-396.150	476.295	-0.096	-0.216
-395.136	-117.816	-0.288	0.051
-394.121	-200.000	0.121	-0.608
-393.106	-62.921	0.419	0.173
-392.092	-18.986	0.167	-0.104
-391.077	-200.000	0.012	0.324
-390.063	197.069	0.380	0.577
-389.048	90.255	-0.549	0.612
-388.033	363.373	0.137	0.273
-387.019	-200.000	-0.026	-0.390
-386.004	-18.229	-0.318	0.198
-384.990	-125.130	0.560	-0.086
-383.975	800.000	-0.196	0.569
-382.960	-34.545	-0.664	-0.362
-381.946	800.000	-0.200	-0.822
-380.931	21.719	-0.395	-0.320
-379.917	90.662	-0.497	0.554
-378.902	-114.856	0.482	0.091
-377.888	-8.864	-0.666	-0.444
-376.873	70.974	0.251	-0.259
-375.858	-200.000	-0.248	-1.090
-374.844	-114.152	0.638	0.123
-373.829	-159.185	-0.475	-0.027
-372.815	-130.067	-0.480	-0.065
-371.800	-83.482	-0.688	-0.219
-370.785	517.654	-0.220	0.511
-369.771	118.426	0.609	-0.748
-368.756	-200.000	0.012	-0.098
-367.742	307.874	0.047	-0.087
-366.727	-200.000	-0.038	-0.427
-365.712	165.787	0.153	-0.215
-364.698	299.303	-0.458	-0.839
-363.683	216.454	0.475	-0.752
-362.669	431.930	-0.310	-0.668
-361.654	-46.874	0.766	-0.372
-360.639	562.772	0.234	0.563
-359.625	-200.000	0.019	-0.795
-358.610	800.000	0.112	-0.429
-357.596	120.647	0.275	-0.340
-356.581	-70.681	-0.167	0.063
-355.566	-122.701	-0.399	-0.064
-354.552	800.000	0.182	0.599
-353.537	-68.302	-0.735	0.284
-352.523	800.000	0.115	0.381
-351.508	646.834	-0.152	0.387
-350.493	-135.684	0.283	0.033
-349.479	-87.342	-0.453	0.137
-348.464	-112.671	-0.885	0.175
-347.450	-200.000	0.042	0.292
-346.435	-59.834	-0.787	-0.335
-345.420	79.006	0.623	-0.663
-344.406	-58.120	0.251	-0.109
-343.391	272.868	-0.368	0.647
-342.377	61.110	0.510	0.504
-341.362	-13.979	0.581	0.373
-340.348	93.645	-0.302	-0.340
-339.333	37.193	-0.746	-0.657
-338.318	-131.041	0.653	0.087
-337.304	112.133	0.399	-0.480
-336.289	-200.000	-0.054	-0.975
-335.275	-36.515	-0.207	-0.110
-334.260	82.891	-0.930	1.005
-333.245	-128.000	-0.549	0.078
-332.231	800.000	0.095	0.411
-331.216	99.661	-0.241	0.277
-330.202	800.000	-0.127	-0.549
-329.187	177.998	0.322	-0.467
-328.172	-86.742	-0.663	0.201
-327.158	800.000	-0.138	0.382
-326.143	382.411	-0.461	-0.941
-325.129	10.489	-0.893	-0.676
-324.114	159.994	-0.295	0.408
-323.099	-113.730	-0.859	0.166
-322.085	-101.898	-0.411	0.099
-321.070	338.970	0.225	0.436
-320.056	28.010	-0.375	-0.314
-319.041	-145.435	0.641	0.057
-318.026	-200.000	-0.030	-0.406
-317.012	139.086	0.567	-0.740
-315.997	-45.551	-0.055	-0.027
-314.983	-114.250	-0.238	-0.046
-313.968	227.423	-0.199	-0.321
-312.953	-110.922	-0.087	-0.018
-311.939	-164.125	0.441	0.020
-310.924	-1.882	-0.099	0.069
-309.910	-144.265	0.787	-0.073
-308.895	-73.090	-0.438	-0.159
-307.880	656.533	-0.220	-0.561
-306.866	800.000	0.041	-0.130
-305.851	800.000	-0.078	-0.288
-304.837	-93.140	0.433	-0.120
-303.822	428.567	0.316	0.677
-302.807	-97.073	0.202	-0.053
-301.793	-200.000	-0.027	0.173
-300.778	335.068	-0.379	-0.729
-299.764	-122.844	0.117	0.019
-298.749	-200.000	-0.041	-0.254
-297.735	-22.595	-0.695	-0.417
-296.720	-93.799	0.563	0.154
-295.705	-167.738	-0.638	0.025
-294.691	14.921	0.183	-0.142
-293.676	-137.267	0.358	-0.040
-292.662	115.653	0.030	-0.036
-291.647	-183.558	-0.671	0.011
-290.632	800.000	0.252	0.995
-289.618	-200.000	-0.044	0.279
-288.603	-13.446	0.253	-0.163
-287.589	-47.702	-0.327	0.157
-286.574	-86.158	0.279	0.085
-285.559	-200.000	0.019	-0.469
-284.545	690.123	-0.119	0.309
-283.530	-200.000	-0.192	-0.952
-282.516	-99.626	-0.070	-0.017
-281.501	-200.000	-0.008	0.343
-280.486	-87.571	0.338	-0.101
-279.472	-200.000	-0.069	0.610
-278.457	-200.000	0.046	1.310
-277.443	401.301	-0.171	-0.355
-276.428	10.705	0.831	0.629
-275.413	800.000	0.162	0.477
-274.399	800.000	0.257	1.028
-273.384	-128.702	0.676	0.095
-272.370	-54.728	-0.571	-0.256
-271.355	-200.000	0.138	0.675
-270.340	-76.636	-0.703	0.244
-269.326	-115.523	0.533	-0.099
-268.311	-49.964	0.398	0.187
-267.297	-200.000	-0.043	0.286
-266.282	88.719	0.202	0.223
-265.267	-200.000	-0.090	0.493
-264.253	422.119	-0.297	0.632
-263.238	-100.819	-0.757	-0.184
-262.224	135.349	0.280	0.360
-261.209	-95.657	0.400	-0.106
-260.195	380.148	-0.271	0.551
-259.180	-90.558	0.647	0.185
-258.165	-200.000	0.024	-0.187
-257.151	-165.488	-0.666	0.029
-256.136	354.697	-0.156	-0.307
-255.122	800.000	0.091	0.379
-254.107	742.650	-0.015	-0.040
-253.092	-105.770	-0.303	-0.068
-252.078	18.933	-0.733	0.582
-251.063	-176.697	0.695	0.018
-250.049	-154.544	-0.402	-0.027
-249.034	108.315	-0.383	0.452
-248.019	800.000	-0.154	0.524
-247.005	-106.912	0.596	-0.131
-245.990	8.889	0.255	0.190
-244.976	-200.000	-0.082	-0.450
-243.961	-189.697	-0.704	0.008
-242.946	-97.936	-0.572	0.146
-241.932	-51.764	-0.376	-0.173
-240.917	697.786	0.055	-0.142
-239.903	188.996	-0.273	-0.405
-238.888	800.000	0.158	-0.496
-237.873	-200.000	-0.043	-1.008
-236.859	800.000	0.216	-0.778
-235.844	-2.461	0.283	-0.196
-234.830	-200.000	-0.011	0.333
-233.815	623.312	-0.087	0.218
-232.800	-116.574	0.583	0.106
-231.786	800.000	0.068	-0.293
-230.771	800.000	-0.151	0.632
-229.757	800.000	-0.095	0.410
-228.742	-200.000	-0.180	-0.781
-227.727	800.000	0.221	0.676
-226.713	-89.672	0.909	0.264
-225.698	29.269	-0.243	0.204
-224.684	-167.657	0.674	-0.026
-223.669	11.195	0.258	0.195
-222.655	308.239	-0.467	0.861
-221.640	-200.000	0.128	0.580
-220.625	-170.998	0.608	0.020
-219.611	-133.074	-0.891	-0.112
-218.596	-47.254	-0.598	0.288
-217.582	-66.571	-0.398	-0.156
-216.567	-65.362	0.538	0.214
-215.552	-176.930	-0.280	0.007
-214.538	-125.825	-0.439	-0.066
-213.523	-200.000	0.048	0.527
-212.509	-66.542	0.863	0.339
-211.494	56.728	0.747	-0.719
-210.479	-59.505	-0.388	-0.165
-209.465	-32.901	-0.426	-0.234
-208.450	34.131	-0.100	0.086
-207.436	-88.493	0.376	-0.111
-206.421	800.000	0.208	0.620
-205.406	185.616	0.157	0.231
-204.392	800.000	0.345	1.175
-203.377	800.000	0.212	0.646
-202.363	800.000	-0.187	-0.800
-201.348	-200.000	0.009	0.383
-200.333	241.952	-0.438	-0.723
-199.319	-136.189	0.605	-0.070
-198.304	366.188	-0.439	-0.875
-197.290	-66.985	0.291	-0.113
-196.275	-141.655	-0.074	-0.007
-195.260	-72.280	0.517	0.189
-194.246	-200.000	-0.021	0.105
-193.231	-40.669	0.501	-0.257
-192.217	221.664	-0.435	-0.692
-191.202	-200.000	-0.168	1.162
-190.187	108.852	0.469	-0.553
-189.173	18.181	-0.801	-0.631
-188.158	304.933	-0.278	-0.511
-187.144	800.000	0.112	0.385
-186.129	321.728	-0.267	0.501
-185.114	-200.000	-0.080	-0.477
-184.100	180.384	0.259	0.375
-183.085	560.859	0.198	0.473
-182.071	800.000	0.219	0.780
-181.056	-200.000	-0.068	0.898
-180.042	-200.000	0.075	0.827
-179.027	800.000	0.108	0.323
-178.012	800.000	0.129	-0.374
-176.998	800.000	-0.136	-0.574
-175.983	-200.000	0.112	-0.493
-174.969	-200.000	0.067	-0.549
-173.954	80.783	-0.478	-0.509
-172.939	-57.326	0.538	0.233
-171.925	-138.613	-0.672	0.073
-170.910	-81.606	0.688	0.223
-169.896	49.962	-0.092	0.086
-168.881	800.000	0.161	0.632
-167.866	-159.959	-0.604	0.033
-166.852	74.574	-0.192	0.199
-165.837	-168.969	-0.560	0.021
-164.823	-200.000	0.033	0.337
-163.808	720.194	0.199	-0.523
-162.793	232.321	0.424	0.686
-161.779	-119.169	-0.303	0.052
-160.764	347.166	0.148	-0.287
-159.750	63.281	0.204	-0.202
-158.735	255.513	-0.359	0.607
-157.720	175.785	0.333	0.477
-156.706	31.240	0.110	0.093
-155.691	635.472	0.102	-0.256
-154.677	-200.000	-0.072	-0.400
-153.662	210.900	0.383	0.594
-152.647	-200.000	-0.133	0.841
-151.633	81.383	0.145	0.154
-150.618	70.212	0.211	-0.215
-149.604	-60.286	0.698	-0.293
-148.589	-102.050	0.744	-0.177
-147.574	-49.562	-1.096	0.515
-146.560	-49.808	0.203	0.095
-145.545	-184.233	0.689	-0.011
-144.531	0.967	-0.715	0.505
-143.516	-14.354	-0.260	-0.165
-142.502	25.595	0.606	-0.497
-141.487	-61.036	0.625	-0.260
-140.472	-56.148	-0.630	0.276
-139.458	-50.116	1.104	-0.516
-138.443	29.297	0.621	0.520
-137.429	167.167	0.343	0.480
-136.414	28.785	0.958	0.800
-135.399	223.373	-0.359	0.571
-134.385	-200.000	-0.126	0.832
-133.370	318.617	-0.276	0.515
-132.356	163.232	-0.266	-0.369
-131.341	8.778	1.145	0.851
-130.326	-68.327	-0.517	0.198
-129.312	56.495	0.433	0.415
-128.297	17.596	-0.116	-0.091
-127.283	-200.000	-0.083	-0.736
-126.268	71.117	0.291	-0.297
-125.253	-13.446	0.689	-0.440
-124.239	-27.474	0.322	-0.184
-123.224	-49.562	-0.554	0.260
-122.210	800.000	0.206	0.667
-121.195	-62.634	-0.432	-0.177
