DTS Sentinel unit serial number:	SN413079Multiplexer serial number:	ORYXHardware model number:	OX4-SRSoftware version number:	ORYX F/W v4.00 Oryx Data Collector v3.7.2.0data status	okinstallation	princeton_trtdifferential loss correction	single-endedforward channel	channel 2reverse channel	N/Adate	2019/09/12time	12:53:11forward acquisition time	60.00reverse acquisition time	0.00gamma	496.2192k internal	0.2297k external	0.2297temperature offset calibration	1.0076default loss term (dB/km)	0.3790temperature slope calibration	1.0000multiplexer offset coefficient	1.0000multiplexer slope coefficient	1.0000fibre end	0.00T internal ref (°C)	40.75T ext. ref 1 (°C)	2.00T ext. ref 2 (°C)	37.85length (m)	temperature (°C)	Stokes	anti-Stokes-747.200	800.000	-0.039	-0.156
-746.185	63.762	0.263	0.270
-745.171	491.854	0.166	-0.388
-744.156	-21.218	-0.049	-0.030
-743.142	105.142	0.116	0.139
-742.127	-89.174	0.071	-0.021
-741.112	-139.158	0.169	0.019
-740.098	-200.000	-0.030	0.266
-739.083	504.467	0.174	0.410
-738.069	-200.000	-0.031	0.278
-737.054	118.623	-0.021	-0.026
-736.039	-91.710	-0.068	0.020
-735.025	-7.353	0.164	0.113
-734.010	8.581	-0.357	-0.274
-732.996	-200.000	0.009	-0.388
-731.981	187.195	0.036	-0.054
-730.966	-200.000	0.037	-0.188
-729.952	191.719	0.143	0.220
-728.937	119.354	-0.040	0.051
-727.923	99.604	0.110	-0.130
-726.908	800.000	0.074	-0.302
-725.894	-126.675	-0.187	-0.028
-724.879	594.733	0.042	-0.105
-723.864	-126.173	-0.306	-0.047
-722.850	221.507	0.045	0.073
-721.835	60.624	0.114	0.115
-720.821	-200.000	0.038	-0.408
-719.806	100.491	-0.097	-0.115
-718.791	-200.000	-0.008	0.051
-717.777	-121.780	0.386	-0.065
-716.762	20.374	0.272	0.224
-715.748	-200.000	0.004	0.071
-714.733	56.421	-0.065	0.064
-713.718	-194.519	0.032	0.000
-712.704	18.954	0.170	-0.139
-711.689	91.867	-0.270	-0.310
-710.675	124.375	0.188	-0.241
-709.660	-90.694	0.452	-0.133
-708.645	-200.000	-0.038	0.276
-707.631	-44.422	0.375	0.191
-706.616	-116.242	-0.222	-0.042
-705.602	-200.000	0.013	-0.204
-704.587	-74.380	-0.170	-0.063
-703.572	-132.440	0.202	0.027
-702.558	-164.766	-0.092	0.004
-701.543	-110.109	0.187	-0.040
-700.529	-139.545	0.066	0.007
-699.514	109.069	0.142	0.173
-698.499	800.000	0.031	-0.116
-697.485	-132.140	-0.328	0.043
-696.470	158.938	-0.057	-0.081
-695.456	69.094	-0.162	-0.170
-694.441	-156.595	0.066	-0.004
-693.426	-104.668	0.183	0.043
-692.412	-11.481	0.276	0.185
-691.397	-84.770	0.187	-0.060
-690.383	265.430	0.070	0.124
-689.368	126.982	0.071	-0.091
-688.354	-106.600	0.362	0.082
-687.339	109.031	-0.146	0.178
-686.324	-150.105	0.238	0.019
-685.310	56.061	0.107	-0.106
-684.295	335.684	0.032	0.062
-683.281	450.454	-0.139	-0.312
-682.266	155.096	-0.142	-0.200
-681.251	3.072	-0.273	0.202
-680.237	203.631	-0.190	-0.300
-679.222	-102.972	0.179	0.043
-678.208	66.795	0.154	-0.160
-677.193	84.797	0.120	-0.134
-676.178	-44.675	0.291	-0.148
-675.164	-200.000	-0.039	-0.391
-674.149	-154.534	0.185	-0.013
-673.135	46.462	0.179	-0.169
-672.120	-36.424	-0.147	-0.081
-671.105	231.674	-0.136	0.227
-670.091	-118.038	-0.325	-0.059
-669.076	-3.736	-0.303	0.215
-668.062	12.718	0.111	-0.087
-667.047	-59.631	0.155	0.068
-666.032	-81.118	-0.061	-0.021
-665.018	-99.426	-0.265	-0.068
-664.003	800.000	0.056	-0.228
-662.989	-200.000	-0.034	-0.217
-661.974	-162.987	-0.169	-0.008
-660.959	800.000	-0.042	0.132
-659.945	-200.000	-0.050	-0.398
-658.930	-114.291	0.212	-0.042
-657.916	-107.938	-0.228	-0.050
-656.901	-111.143	0.045	-0.009
-655.886	-130.862	-0.296	-0.040
-654.872	-4.480	-0.116	-0.081
-653.857	-200.000	-0.076	0.408
-652.843	-195.705	-0.196	0.001
-651.828	-77.266	-0.286	0.101
-650.814	415.142	-0.094	0.204
-649.799	-87.926	0.150	-0.046
-648.784	-107.327	0.373	0.083
-647.770	26.636	-0.112	-0.096
-646.755	10.723	-0.055	0.042
-645.741	800.000	-0.035	-0.130
-644.726	-6.524	-0.414	-0.287
-643.711	177.694	-0.186	0.276
-642.697	-200.000	-0.020	-0.123
-641.682	-37.552	-0.257	-0.139
-640.668	-22.648	-0.137	0.084
-639.653	-67.603	-0.293	0.117
-638.638	105.469	-0.113	-0.136
-637.624	-42.493	-0.067	-0.035
-636.609	70.885	0.113	-0.119
-635.595	800.000	0.097	-0.360
-634.580	-200.000	0.012	0.127
-633.565	9.628	-0.542	-0.418
-632.551	164.806	-0.252	0.362
-631.536	69.236	-0.197	-0.206
-630.522	9.104	0.078	-0.060
-629.507	523.312	0.006	0.014
-628.492	800.000	-0.058	0.243
-627.478	96.013	0.155	-0.180
-626.463	63.470	-0.055	-0.056
-625.449	-200.000	0.033	-0.329
-624.434	168.253	-0.026	-0.038
-623.419	331.142	-0.148	0.290
-622.405	-75.365	0.371	0.135
-621.390	624.956	0.125	-0.320
-620.376	137.458	-0.112	0.149
-619.361	-140.146	-0.230	-0.025
-618.346	-50.735	0.088	0.042
-617.332	370.683	-0.035	-0.071
-616.317	-60.870	0.146	0.063
-615.303	-144.284	0.090	0.008
-614.288	-100.539	0.054	0.014
-613.273	800.000	-0.092	-0.292
-612.259	800.000	0.016	0.052
-611.244	-7.522	0.276	-0.190
-610.230	117.853	-0.149	-0.186
-609.215	-137.510	0.218	-0.025
-608.201	63.933	0.097	-0.099
-607.186	-43.832	0.046	-0.024
-606.171	28.874	-0.224	-0.193
-605.157	168.714	0.132	-0.192
-604.142	208.836	-0.194	0.308
-603.128	205.814	0.062	-0.098
-602.113	364.526	0.085	0.174
-601.098	-200.000	0.062	-0.321
-600.084	-69.080	-0.205	0.080
-599.069	167.738	-0.065	0.094
-598.055	-9.933	0.218	0.147
-597.040	48.501	-0.175	-0.166
-596.025	7.201	-0.450	-0.341
-595.011	26.893	-0.070	-0.060
-593.996	800.000	-0.029	0.098
-592.982	608.353	0.166	0.422
-591.967	461.536	-0.114	-0.258
-590.952	478.684	-0.149	0.342
-589.938	-64.179	-0.209	-0.087
-588.923	183.672	0.095	-0.143
-587.909	66.533	0.035	0.036
-586.894	350.946	-0.056	-0.112
-585.879	-200.000	0.020	-0.162
-584.865	-200.000	0.006	0.115
-583.850	-130.822	0.215	0.029
-582.836	-80.982	-0.071	-0.024
-581.821	-144.637	0.153	0.014
-580.806	174.215	0.129	-0.190
-579.792	24.783	-0.387	-0.325
-578.777	-99.756	-0.112	-0.028
-577.763	-182.292	0.150	-0.003
-576.748	-110.319	-0.248	-0.052
-575.733	194.277	-0.190	-0.292
-574.719	339.207	0.116	-0.230
-573.704	487.256	-0.196	-0.454
-572.690	278.974	0.049	-0.089
-571.675	-24.846	-0.102	0.061
-570.661	-169.143	-0.104	0.004
-569.646	-40.673	0.252	-0.133
-568.631	-22.411	-0.221	-0.136
-567.617	800.000	0.047	0.178
-566.602	88.430	0.162	0.182
-565.588	-200.000	0.040	0.294
-564.573	31.709	-0.131	-0.114
-563.558	-132.134	-0.112	0.015
-562.544	-108.284	-0.183	-0.040
-561.529	-200.000	-0.022	0.161
-560.515	283.738	0.059	0.108
-559.500	-77.808	-0.330	-0.116
-558.485	-50.213	0.254	-0.122
-557.471	76.651	0.218	0.235
-556.456	-37.373	0.101	-0.055
-555.442	-200.000	0.011	-0.063
-554.427	800.000	0.043	-0.151
-553.412	-109.409	0.303	0.065
-552.398	-130.950	0.308	0.042
-551.383	-68.340	-0.269	-0.106
-550.369	346.089	0.106	0.211
-549.354	-200.000	-0.017	0.278
-548.339	-137.025	-0.050	-0.006
-547.325	137.977	0.090	-0.119
-546.310	-117.561	-0.056	0.010
-545.296	39.377	-0.059	0.054
-544.281	82.759	-0.206	0.227
-543.266	370.622	0.095	-0.194
-542.252	-105.675	0.298	0.068
-541.237	232.818	0.029	0.049
-540.223	-48.452	0.108	-0.053
-539.208	81.871	0.186	0.204
-538.193	-200.000	-0.009	0.173
-537.179	503.681	0.140	-0.328
-536.164	462.664	0.090	0.203
-535.150	-75.987	-0.229	-0.082
-534.135	-162.391	0.257	0.013
-533.121	80.574	0.166	0.181
-532.106	-37.200	-0.393	-0.213
-531.091	55.860	-0.169	-0.166
-530.077	-93.715	0.399	-0.111
-529.062	-30.164	-0.314	0.181
-528.048	-200.000	0.011	-0.293
-527.033	-200.000	0.017	0.091
-526.018	-200.000	0.012	-0.090
-525.004	-35.813	-0.306	0.168
-523.989	-110.687	-0.493	0.103
-522.975	332.289	0.175	0.342
-521.960	-167.083	0.241	-0.010
-520.945	-52.466	-0.121	0.057
-519.931	800.000	0.017	0.068
-518.916	434.059	-0.137	0.300
-517.902	-98.293	-0.170	-0.044
-516.887	800.000	-0.014	-0.043
-515.872	-58.293	0.145	-0.064
-514.858	-200.000	-0.060	0.000
-513.843	-200.000	0.012	0.171
-512.829	800.000	0.087	0.373
-511.814	-133.671	0.128	-0.016
-510.799	-138.423	-0.522	0.058
-509.785	-186.705	-0.295	-0.004
-508.770	180.348	-0.079	0.118
-507.756	612.318	0.027	-0.069
-506.741	-157.111	0.283	-0.017
-505.726	-135.497	-0.185	0.022
-504.712	639.493	-0.088	-0.225
-503.697	86.343	0.197	0.220
-502.683	-67.729	0.279	0.110
-501.668	43.950	0.170	0.158
-500.653	800.000	0.119	0.431
-499.639	208.684	-0.172	-0.272
-498.624	31.996	0.062	-0.054
-497.610	-80.983	-0.145	-0.049
-496.595	-79.120	-0.216	0.074
-495.581	151.307	-0.112	0.154
-494.566	-46.141	0.177	-0.088
-493.551	-124.433	-0.298	-0.047
-492.537	744.676	0.160	-0.435
-491.522	-102.575	-0.066	0.016
-490.508	17.324	-0.322	0.259
-489.493	253.456	0.096	0.166
-488.478	800.000	-0.029	0.121
-487.464	109.845	-0.179	0.217
-486.449	-50.926	-0.213	-0.101
-485.435	480.203	-0.141	-0.324
-484.420	800.000	-0.058	-0.187
-483.405	69.576	-0.094	0.098
-482.391	117.714	0.056	-0.070
-481.376	258.499	0.125	-0.217
-480.362	-200.000	0.016	0.090
-479.347	32.690	0.216	-0.189
-478.332	-120.212	0.236	0.041
-477.318	84.582	-0.180	0.199
-476.303	-112.242	0.322	-0.065
-475.289	-30.415	0.128	0.073
-474.274	-200.000	-0.010	-0.090
-473.259	-83.065	-0.196	0.064
-472.245	-200.000	0.011	0.057
-471.230	205.724	0.142	-0.223
-470.216	0.485	-0.027	-0.019
-469.201	-200.000	0.002	0.132
-468.186	800.000	-0.038	0.109
-467.172	-200.000	0.047	-0.280
-466.157	529.955	0.026	-0.062
-465.143	-0.311	0.099	-0.071
-464.128	-160.894	0.153	-0.008
-463.113	1.095	-0.051	-0.037
-462.099	-94.849	0.129	0.035
-461.084	-95.092	0.162	0.044
-460.070	139.159	-0.216	-0.287
-459.055	800.000	-0.150	-0.444
-458.040	-200.000	0.043	-0.201
-457.026	-200.000	-0.016	0.176
-456.011	524.827	-0.035	-0.084
-454.997	175.638	0.066	-0.096
-453.982	64.172	0.236	-0.240
-452.968	323.334	0.143	-0.276
-451.953	-24.425	-0.378	-0.228
-450.938	48.760	-0.227	0.215
-449.924	107.758	0.171	-0.206
-448.909	144.100	-0.260	0.350
-447.895	-103.375	0.330	0.078
-446.880	800.000	0.117	0.435
-445.865	-200.000	-0.056	0.340
-444.851	73.917	-0.194	0.206
-443.836	800.000	0.070	0.280
-442.822	-29.129	0.034	-0.020
-441.807	-129.481	-0.015	-0.002
-440.792	343.078	-0.113	-0.223
-439.778	-200.000	-0.023	-0.180
-438.763	3.057	0.048	-0.035
-437.749	800.000	-0.051	-0.151
-436.734	99.230	0.224	0.261
-435.719	740.340	-0.071	0.193
-434.705	-200.000	0.023	0.337
-433.690	800.000	0.067	0.187
-432.676	800.000	-0.136	0.492
-431.661	498.719	-0.118	0.275
-430.646	-200.000	0.028	0.196
-429.632	251.013	-0.065	-0.111
-428.617	-200.000	0.013	0.138
-427.603	697.707	0.085	0.225
-426.588	342.841	0.136	-0.269
-425.573	-200.000	0.027	-0.227
-424.559	270.573	0.029	-0.051
-423.544	-60.323	-0.295	0.127
-422.530	-200.000	0.008	0.053
-421.515	26.276	-0.441	0.372
-420.500	-146.689	-0.263	0.023
-419.486	-42.413	0.175	-0.090
-418.471	31.261	0.032	0.028
-417.457	800.000	0.081	0.308
-416.442	-101.333	0.130	-0.032
-415.428	-200.000	-0.038	0.245
-414.413	-105.694	-0.060	-0.014
-413.398	-186.110	0.192	-0.003
-412.384	-8.411	0.454	0.307
-411.369	-70.239	0.101	-0.039
-410.355	-85.784	-0.148	0.046
-409.340	149.753	-0.179	-0.245
-408.325	-200.000	-0.003	-0.147
-407.311	-36.609	0.058	0.032
-406.296	7.462	-0.173	-0.130
-405.282	274.269	0.078	0.139
-404.267	-124.524	0.128	-0.020
-403.252	-79.628	-0.305	-0.104
-402.238	800.000	0.055	0.238
-401.223	75.712	0.114	-0.121
-400.209	-81.850	-0.152	0.050
-399.194	-141.710	0.326	0.033
-398.179	800.000	0.042	0.126
-397.165	126.705	-0.183	-0.233
-396.150	678.238	0.080	0.209
-395.136	49.849	0.243	0.231
-394.121	-62.291	0.132	-0.055
-393.106	800.000	-0.032	0.116
-392.092	-91.073	0.224	0.065
-391.077	800.000	-0.054	-0.168
-390.063	197.782	-0.075	0.116
-389.048	52.763	-0.067	0.065
-388.033	800.000	-0.042	-0.131
-387.019	800.000	0.031	0.125
-386.004	121.776	-0.153	0.193
-384.990	-92.512	0.144	0.041
-383.975	-33.702	0.224	-0.124
-382.960	-200.000	0.011	-0.223
-381.946	-23.237	-0.203	-0.123
-380.931	13.333	-0.293	-0.229
-379.917	22.961	-0.253	0.209
-378.902	2.862	0.161	0.118
-377.888	-108.192	-0.155	0.034
-376.873	40.517	-0.028	0.026
-375.858	-2.399	0.232	0.164
-374.844	800.000	0.054	-0.193
-373.829	91.302	0.224	-0.253
-372.815	152.462	-0.107	0.147
-371.800	-30.307	0.113	0.064
-370.785	-78.437	0.281	0.097
-369.771	-109.255	-0.201	0.043
-368.756	154.460	-0.045	-0.063
-367.742	-200.000	0.002	0.015
-366.727	-52.796	0.095	0.044
-365.712	271.563	-0.132	-0.234
-364.698	180.927	0.154	-0.227
-363.683	-200.000	0.028	0.188
-362.669	800.000	-0.093	0.337
-361.654	-6.822	0.161	0.110
-360.639	10.441	-0.217	-0.167
-359.625	-200.000	-0.026	-0.150
-358.610	394.593	0.020	0.042
-357.596	109.378	0.305	0.367
-356.581	222.431	-0.154	-0.249
-355.566	-200.000	-0.047	-0.270
-354.552	800.000	-0.098	-0.325
-353.537	81.049	0.208	-0.225
-352.523	210.880	-0.085	0.135
-351.508	-6.991	-0.148	0.101
-350.493	-34.246	-0.181	0.100
-349.479	-101.217	0.293	-0.072
-348.464	-77.261	-0.183	0.064
-347.450	-69.871	0.176	-0.067
-346.435	186.508	0.103	-0.155
-345.420	-200.000	-0.024	0.246
-344.406	105.240	0.149	-0.177
-343.391	-7.741	0.014	-0.010
-342.377	800.000	-0.060	-0.234
-341.362	-135.895	0.252	0.030
-340.348	42.908	-0.125	0.115
-339.333	-16.795	-0.440	-0.280
-338.318	-87.537	0.422	0.128
-337.304	-83.551	-0.182	0.058
-336.289	800.000	0.095	0.307
-335.275	20.221	0.140	0.114
-334.260	-119.603	-0.203	0.035
-333.245	215.013	-0.071	0.113
-332.231	800.000	-0.106	0.406
-331.216	-200.000	0.055	-0.290
-330.202	-102.087	0.201	0.049
-329.187	109.864	0.094	0.113
-328.172	800.000	0.060	0.246
-327.158	-126.194	0.342	-0.051
-326.143	56.623	0.165	-0.162
-325.129	-8.121	0.144	0.097
-324.114	81.705	0.311	-0.338
-323.099	-200.000	0.042	-0.343
-322.085	-200.000	0.013	-0.233
-321.070	539.035	0.142	-0.339
-320.056	-72.176	0.195	-0.072
-319.041	156.106	0.125	-0.173
-318.026	-181.448	-0.284	0.006
-317.012	153.211	-0.012	0.016
-315.997	800.000	-0.086	0.290
-314.983	-200.000	-0.020	0.188
-313.968	751.979	-0.047	-0.126
-312.953	122.437	0.033	-0.042
-311.939	316.874	0.050	0.095
-310.924	-133.176	0.274	-0.035
-309.910	-39.437	0.185	0.097
-308.895	-95.875	-0.177	0.047
-307.880	773.088	0.015	-0.041
-306.866	-200.000	0.010	0.050
-305.851	-96.429	-0.058	-0.015
-304.837	-200.000	0.026	-0.146
-303.822	-200.000	-0.048	0.400
-302.807	-90.372	-0.056	0.016
-301.793	-20.851	0.449	0.276
-300.778	-12.101	-0.078	-0.051
-299.764	12.774	0.240	-0.186
-298.749	800.000	-0.013	-0.038
-297.735	303.703	-0.114	-0.213
-296.720	788.582	0.136	-0.376
-295.705	39.743	0.215	0.194
-294.691	-127.965	0.050	0.007
-293.676	800.000	0.013	0.041
-292.662	800.000	0.013	0.055
-291.647	1.713	-0.096	-0.069
-290.632	-200.000	-0.044	0.246
-289.618	800.000	-0.029	-0.085
-288.603	172.976	0.021	-0.030
-287.589	-125.357	-0.282	0.043
-286.574	70.471	0.134	0.139
-285.559	800.000	0.077	-0.281
-284.545	-87.344	0.085	0.026
-283.530	-200.000	0.010	-0.289
-282.516	-54.730	0.160	0.073
-281.501	800.000	-0.091	-0.390
-280.486	800.000	0.075	-0.287
-279.472	98.152	0.162	-0.187
-278.457	-81.044	-0.232	0.077
-277.443	-200.000	-0.053	-0.272
-276.428	-81.780	-0.110	0.036
-275.413	-200.000	-0.031	0.184
-274.399	24.946	-0.178	-0.148
-273.384	800.000	-0.080	-0.315
-272.370	17.010	-0.167	-0.133
-271.355	-86.766	0.181	-0.056
-270.340	608.556	-0.169	-0.423
-269.326	-91.698	-0.105	-0.030
-268.311	-135.400	0.120	-0.014
-267.297	111.677	0.329	0.398
-266.282	212.398	-0.153	0.242
-265.267	-136.613	0.182	0.021
-264.253	-200.000	0.055	-0.394
-263.238	-77.633	0.245	-0.085
-262.224	-84.012	-0.223	-0.071
-261.209	-200.000	-0.022	-0.236
-260.195	-200.000	0.009	-0.089
-259.180	-29.312	0.238	-0.137
-258.165	800.000	0.018	0.069
-257.151	80.605	0.134	0.145
-256.136	-64.549	-0.277	-0.112
-255.122	697.477	-0.132	0.349
-254.107	151.628	0.054	-0.074
-253.092	-200.000	0.004	-0.246
-252.078	-107.082	0.151	-0.033
-251.063	-200.000	0.017	-0.090
-250.049	-57.836	0.157	0.069
-249.034	-200.000	0.051	-0.272
-248.019	24.536	-0.108	-0.090
-247.005	24.361	0.290	-0.240
-245.990	-23.242	-0.101	-0.061
-244.976	28.163	0.289	0.244
-243.961	34.489	0.174	0.152
-242.946	800.000	-0.070	-0.261
-241.932	423.027	0.024	-0.052
-240.917	-155.711	-0.098	0.006
-239.903	-200.000	-0.011	-0.222
-238.888	-200.000	-0.025	0.294
-237.873	-122.213	-0.337	0.055
-236.859	689.726	0.136	0.355
-235.844	-200.000	0.011	0.314
-234.830	154.923	0.106	0.145
-233.815	189.674	-0.032	0.048
-232.800	-75.967	-0.214	0.076
-231.786	-200.000	0.043	0.231
-230.771	-3.770	-0.195	0.136
-229.757	143.842	-0.104	0.139
-228.742	-200.000	0.057	0.382
-227.727	76.582	-0.037	0.039
-226.713	-78.427	0.367	0.126
-225.698	15.032	-0.225	0.176
-224.684	-21.157	-0.182	-0.111
-223.669	-80.482	-0.177	0.059
-222.655	800.000	0.111	-0.385
-221.640	-137.749	0.157	-0.018
-220.625	-9.524	-0.136	-0.090
-219.611	293.824	0.099	0.181
-218.596	85.924	0.251	0.276
-217.582	183.647	-0.076	0.113
-216.567	-200.000	0.013	-0.171
-215.552	-68.987	0.177	0.068
-214.538	-6.523	-0.154	0.105
-213.523	458.472	-0.072	-0.160
-212.509	-200.000	-0.027	-0.141
-211.494	-112.534	-0.182	-0.036
-210.479	-200.000	0.012	0.201
-209.465	800.000	-0.098	-0.323
-208.450	-120.260	-0.190	0.032
-207.436	-130.647	-0.422	0.057
-206.421	76.940	-0.030	-0.032
-205.406	124.881	0.035	0.044
-204.392	95.970	-0.244	-0.279
-203.377	-200.000	-0.030	0.379
-202.363	-36.181	0.147	0.079
-201.348	-200.000	0.051	0.277
-200.333	-25.401	0.186	-0.110
-199.319	-53.718	-0.105	0.048
-198.304	-64.047	-0.260	0.106
-197.290	-131.784	-0.209	0.027
-196.275	-200.000	-0.023	-0.157
-195.260	-88.914	0.207	0.061
-194.246	-150.584	0.118	-0.009
-193.231	65.272	-0.184	0.186
-192.217	474.958	-0.100	0.227
-191.202	-97.269	0.090	-0.023
-190.187	428.431	-0.194	-0.419
-189.173	-200.000	-0.020	0.132
-188.158	96.530	0.050	-0.057
-187.144	-91.878	0.315	0.089
-186.129	573.493	-0.098	0.238
-185.114	-200.000	-0.077	0.400
-184.100	130.385	0.223	-0.285
-183.085	-39.459	0.091	0.048
-182.071	-43.710	0.047	-0.023
-181.056	8.063	0.200	-0.150
-180.042	80.602	0.069	-0.075
-179.027	214.452	-0.206	0.327
-178.012	104.897	-0.042	-0.049
-176.998	243.584	0.116	0.195
-175.983	148.260	-0.071	0.095
-174.969	-64.746	0.263	0.106
-173.954	-150.670	-0.155	-0.012
-172.939	117.302	-0.041	0.050
-171.925	-50.939	0.145	-0.068
-170.910	-18.092	0.233	-0.145
-169.896	34.381	0.053	-0.046
-168.881	80.535	0.103	-0.110
-167.866	-21.404	0.285	-0.173
-166.852	-96.996	0.140	-0.037
-165.837	226.403	-0.221	0.357
-164.823	39.125	0.138	0.123
-163.808	-55.650	-0.035	0.016
-162.793	-121.437	0.007	-0.001
-161.779	-130.369	0.053	0.007
-160.764	137.840	-0.212	-0.277
-159.750	-200.000	-0.065	-0.329
-158.735	-94.589	0.508	0.138
-157.720	111.611	-0.039	-0.047
-156.706	748.217	-0.069	0.186
-155.691	-119.192	-0.274	0.048
-154.677	-113.395	-0.112	-0.022
-153.662	335.285	0.087	0.169
-152.647	186.777	0.068	0.101
-151.633	-176.766	-0.307	0.008
-150.618	-37.965	-0.071	0.038
-149.604	-89.499	-0.098	-0.029
-148.589	-200.000	-0.023	-0.121
-147.574	-121.615	-0.252	0.042
-146.560	3.960	0.098	-0.071
-145.545	-115.768	-0.298	-0.056
-144.531	126.437	0.127	-0.161
-143.516	-200.000	-0.017	0.215
-142.502	-156.946	0.269	0.016
-141.487	-66.111	0.223	0.089
-140.472	405.669	0.149	0.313
-139.458	800.000	0.067	0.238
-138.443	1.000	0.112	0.080
-137.429	-160.926	0.213	0.011
-136.414	-51.293	0.308	-0.144
-135.399	-53.346	0.175	0.080
-134.385	-145.728	-0.220	0.020
-133.370	-144.971	-0.093	-0.008
-132.356	800.000	0.042	0.118
-131.341	-24.669	-0.375	0.222
-130.326	-200.000	-0.042	0.216
-129.312	-102.873	0.267	0.063
-128.297	800.000	-0.018	-0.067
-127.283	143.911	0.044	0.059
-126.268	-200.000	0.016	-0.206
-125.253	800.000	-0.026	-0.104
-124.239	125.997	0.248	-0.312
-123.224	-200.000	0.017	-0.125
-122.210	55.734	-0.163	0.158
-121.195	325.704	0.031	0.060
-120.180	14.309	0.123	0.096
