DTS Sentinel unit serial number:	SN413079Multiplexer serial number:	ORYXHardware model number:	OX4-SRSoftware version number:	ORYX F/W v4.00 Oryx Data Collector v3.7.2.0data status	okinstallation	princeton_trtdifferential loss correction	single-endedforward channel	channel 2reverse channel	N/Adate	2019/09/14time	10:07:35forward acquisition time	60.00reverse acquisition time	0.00gamma	496.2192k internal	0.2318k external	0.2318temperature offset calibration	1.0134default loss term (dB/km)	0.3790temperature slope calibration	1.0000multiplexer offset coefficient	1.0000multiplexer slope coefficient	1.0000fibre end	0.00T internal ref (°C)	33.50T ext. ref 1 (°C)	4.05T ext. ref 2 (°C)	32.19length (m)	temperature (°C)	Stokes	anti-Stokes-747.200	155.906	-0.122	0.170
-746.185	-93.951	-0.321	-0.089
-745.171	-12.064	0.383	-0.254
-744.156	-32.270	0.137	0.077
-743.142	-200.000	-0.051	0.279
-742.127	800.000	-0.014	0.047
-741.112	-45.692	-0.111	-0.055
-740.098	-200.000	0.073	0.462
-739.083	-115.230	-0.335	-0.064
-738.069	-39.919	-0.429	0.227
-737.054	-90.294	-0.046	0.013
-736.039	-69.549	-0.306	0.118
-735.025	-200.000	-0.020	0.267
-734.010	197.613	0.134	-0.206
-732.996	-200.000	-0.010	0.089
-731.981	-200.000	0.030	0.266
-730.966	-132.032	0.110	-0.014
-729.952	-200.000	-0.252	0.001
-728.937	139.642	0.188	-0.251
-727.923	76.838	-0.112	0.121
-726.908	-116.019	-0.088	0.017
-725.894	-199.115	-0.235	-0.001
-724.879	-200.000	0.003	-0.188
-723.864	-71.939	0.215	0.081
-722.850	-31.669	0.338	0.192
-721.835	24.427	0.106	0.089
-720.821	-200.000	-0.018	0.154
-719.806	79.498	0.061	0.066
-718.791	98.858	-0.103	0.120
-717.777	108.797	-0.085	-0.103
-716.762	-200.000	-0.044	-0.293
-715.748	-85.376	-0.172	0.054
-714.733	-149.479	-0.381	0.031
-713.718	-141.133	-0.110	0.011
-712.704	101.379	-0.184	0.216
-711.689	-200.000	0.004	-0.044
-710.675	-200.000	0.032	0.149
-709.660	-120.339	-0.327	-0.056
-708.645	-40.657	-0.141	-0.074
-707.631	56.804	0.263	-0.259
-706.616	161.065	-0.187	0.264
-705.602	-200.000	0.044	0.418
-704.587	-156.977	-0.280	-0.017
-703.572	-200.000	-0.032	0.170
-702.558	800.000	0.066	-0.232
-701.543	95.588	-0.100	0.115
-700.529	37.175	-0.112	0.100
-699.514	-77.755	-0.186	-0.065
-698.499	410.253	0.086	-0.183
-697.485	17.487	0.227	-0.182
-696.470	-200.000	0.034	-0.459
-695.456	800.000	0.084	-0.343
-694.441	363.705	0.105	0.214
-693.426	3.448	0.151	0.111
-692.412	254.159	0.057	0.098
-691.397	800.000	-0.045	-0.186
-690.383	-90.535	0.170	0.050
-689.368	259.548	0.092	-0.161
-688.354	433.164	-0.110	0.241
-687.339	-39.073	0.121	-0.064
-686.324	-73.567	0.204	0.075
-685.310	-200.000	-0.253	0.001
-684.295	73.473	0.056	-0.059
-683.281	-68.942	-0.137	-0.053
-682.266	-31.023	-0.105	0.060
-681.251	178.403	-0.311	-0.458
-680.237	15.846	0.151	0.120
-679.222	-200.000	0.046	-0.236
-678.208	-123.554	-0.124	-0.020
-677.193	51.561	0.238	-0.228
-676.178	-200.000	-0.028	-0.291
-675.164	-122.155	0.098	0.016
-674.149	-200.000	0.023	0.403
-673.135	494.818	0.143	-0.331
-672.120	-15.785	-0.065	-0.042
-671.105	163.824	-0.071	0.101
-670.091	-70.107	-0.239	-0.092
-669.076	99.043	0.332	-0.387
-668.062	-121.863	0.134	0.022
-667.047	168.890	0.086	-0.124
-666.032	-33.963	-0.065	-0.036
-665.018	3.141	0.180	-0.132
-664.003	800.000	-0.022	-0.095
-662.989	-200.000	0.060	-0.399
-661.974	800.000	-0.076	-0.271
-660.959	-114.167	0.221	0.043
-659.945	800.000	0.093	0.273
-658.930	-200.000	-0.006	0.287
-657.916	-103.867	0.147	0.035
-656.901	-184.211	0.459	-0.008
-655.886	800.000	-0.056	0.181
-654.872	-176.074	-0.443	0.012
-653.857	755.507	0.069	-0.190
-652.843	76.177	0.184	0.197
-651.828	-96.840	0.171	0.045
-650.814	-114.139	-0.099	0.019
-649.799	-200.000	0.011	-0.132
-648.784	4.173	-0.118	-0.087
-647.770	-4.892	-0.094	0.065
-646.755	-96.733	0.450	0.119
-645.741	330.245	0.079	-0.154
-644.726	-200.000	-0.028	-0.410
-643.711	800.000	0.036	-0.143
-642.697	-200.000	0.060	-0.287
-641.682	-39.161	-0.104	-0.055
-640.668	39.920	-0.096	0.087
-639.653	-200.000	-0.011	0.457
-638.638	319.290	0.040	-0.077
-637.624	52.409	-0.260	0.250
-636.609	800.000	-0.035	-0.107
-635.595	541.341	0.117	-0.281
-634.580	-109.563	-0.229	-0.049
-633.565	53.086	-0.074	0.072
-632.551	116.831	0.289	0.357
-631.536	397.923	0.029	0.060
-630.522	-57.715	0.291	0.129
-629.507	-200.000	-0.036	0.249
-628.492	321.351	-0.129	0.247
-627.478	-200.000	0.027	0.407
-626.463	-46.444	-0.221	0.109
-625.449	-105.324	0.315	-0.072
-624.434	-128.637	0.136	0.019
-623.419	-200.000	-0.017	0.165
-622.405	765.327	-0.060	-0.163
-621.390	800.000	0.064	-0.227
-620.376	800.000	0.058	0.242
-619.361	474.045	0.015	-0.034
-618.346	124.514	0.137	-0.174
-617.332	49.577	0.130	0.124
-616.317	42.374	-0.270	0.247
-615.303	-55.695	0.357	0.161
-614.288	-200.000	-0.016	-0.138
-613.273	800.000	-0.074	0.264
-612.259	-11.080	0.095	0.063
-611.244	800.000	-0.089	-0.286
-610.230	-111.673	-0.138	-0.028
-609.215	-134.879	-0.130	0.016
-608.201	-35.257	0.104	0.057
-607.186	202.363	-0.062	-0.096
-606.171	-133.091	0.203	-0.026
-605.157	-200.000	0.040	0.309
-604.142	34.096	0.120	0.105
-603.128	-26.311	0.260	-0.154
-602.113	165.820	0.101	0.144
-601.098	58.418	-0.245	-0.242
-600.084	-200.000	0.007	-0.088
-599.069	53.709	0.046	-0.044
-598.055	-134.856	-0.245	0.030
-597.040	-18.874	-0.102	0.064
-596.025	-6.695	-0.158	0.108
-595.011	117.319	0.206	-0.254
-593.996	618.327	-0.098	0.247
-592.982	264.975	0.141	-0.247
-591.967	-162.401	-0.270	-0.013
-590.952	348.698	0.033	-0.065
-589.938	757.965	-0.053	-0.144
-588.923	-200.000	-0.014	0.000
-587.909	119.000	0.237	-0.294
-586.894	-103.713	-0.196	-0.046
-585.879	-75.563	0.347	0.124
-584.865	-81.308	-0.440	-0.146
-583.850	-200.000	-0.041	0.260
-582.836	800.000	0.036	-0.143
-581.821	4.186	0.269	-0.198
-580.806	-30.268	-0.338	-0.193
-579.792	471.649	0.020	-0.045
-578.777	17.809	-0.112	0.090
-577.763	197.896	-0.053	-0.082
-576.748	-11.894	0.110	0.073
-575.733	800.000	-0.027	-0.096
-574.719	-200.000	0.016	-0.402
-573.704	-62.521	-0.162	0.068
-572.690	800.000	0.051	-0.145
-571.675	-200.000	-0.204	0.000
-570.661	-137.946	0.363	0.041
-569.646	-129.653	0.277	-0.038
-568.631	247.461	-0.143	-0.242
-567.617	-72.363	-0.037	-0.014
-566.602	239.331	-0.175	-0.292
-565.588	-26.558	0.130	-0.076
-564.573	-55.191	-0.157	-0.071
-563.558	238.406	0.072	-0.120
-562.544	-171.285	-0.262	0.009
-561.529	-200.000	0.036	-0.244
-560.515	-200.000	0.026	0.156
-559.500	-200.000	-0.005	-0.031
-558.485	43.545	-0.038	-0.035
-557.471	-14.323	0.120	-0.078
-556.456	33.017	-0.282	-0.246
-555.442	182.371	0.141	-0.210
-554.427	-30.041	0.216	-0.124
-553.412	800.000	-0.078	-0.278
-552.398	-54.272	0.178	-0.081
-551.383	328.529	-0.048	0.093
-550.369	236.416	0.198	0.328
-549.354	141.906	0.182	0.242
-548.339	-94.647	0.448	0.122
-547.325	0.074	-0.296	0.212
-546.310	36.928	0.290	-0.258
-545.296	-75.836	0.116	0.041
-544.281	-57.677	-0.143	0.063
-543.266	-121.820	-0.115	0.019
-542.252	18.934	0.130	-0.104
-541.237	-13.607	0.103	-0.067
-540.223	-54.684	0.168	-0.076
-539.208	-200.000	0.009	-0.348
-538.193	191.625	-0.009	-0.013
-537.179	-50.767	0.166	0.078
-536.164	2.916	-0.075	-0.055
-535.150	-64.147	-0.219	-0.090
-534.135	62.270	-0.024	-0.024
-533.121	-200.000	-0.032	0.365
-532.106	-61.748	0.546	0.230
-531.091	-154.830	0.312	0.021
-530.077	-40.119	0.071	-0.037
-529.062	235.075	-0.152	0.252
-528.048	-128.281	-0.158	0.023
-527.033	-200.000	-0.008	-0.139
-526.018	-55.277	-0.206	-0.093
-525.004	-50.683	-0.392	0.185
-523.989	-71.809	0.126	-0.047
-522.975	28.622	-0.349	-0.296
-521.960	-22.325	0.153	-0.093
-520.945	-35.354	-0.284	0.155
-519.931	-89.274	0.302	-0.089
-518.916	3.326	0.155	-0.113
-517.902	-18.034	0.258	0.162
-516.887	41.232	-0.113	-0.103
-515.872	442.941	-0.123	-0.270
-514.858	269.096	0.115	0.203
-513.843	266.111	-0.097	0.169
-512.829	176.478	-0.213	0.310
-511.814	-130.362	-0.212	0.029
-510.799	-112.837	0.177	0.035
-509.785	161.752	-0.152	0.213
-508.770	-200.000	0.007	-0.123
-507.756	-200.000	-0.012	-0.132
-506.741	-71.771	-0.277	0.103
-505.726	-55.617	-0.227	0.102
-504.712	218.757	0.067	-0.107
-503.697	-6.196	-0.127	0.087
-502.683	388.965	-0.119	0.247
-501.668	-57.179	-0.116	-0.051
-500.653	800.000	0.102	0.323
-499.639	707.216	0.114	-0.301
-498.624	157.072	-0.190	-0.263
-497.610	196.058	-0.226	0.345
-496.595	-200.000	0.030	0.147
-495.581	507.153	-0.097	-0.226
-494.566	-113.493	-0.108	-0.021
-493.551	-90.358	-0.102	0.030
-492.537	172.383	-0.235	-0.338
-491.522	-200.000	-0.057	0.378
-490.508	109.763	0.100	0.120
-489.493	22.802	0.121	0.100
-488.478	-200.000	-0.097	0.468
-487.464	-37.031	-0.284	-0.152
-486.449	-187.562	-0.051	-0.001
-485.435	-38.529	0.066	0.035
-484.420	47.120	-0.112	-0.105
-483.405	-63.232	-0.158	0.065
-482.391	53.203	-0.093	0.089
-481.376	-10.196	0.140	-0.093
-480.362	-23.105	0.239	0.144
-479.347	-100.238	-0.256	-0.064
-478.332	-200.000	0.001	0.151
-477.318	-200.000	0.017	-0.271
-476.303	197.868	-0.144	0.220
-475.289	-153.982	-0.314	-0.021
-474.274	-94.969	-0.147	0.040
-473.259	-200.000	-0.042	0.267
-472.245	71.660	0.077	0.080
-471.230	84.263	0.101	0.111
-470.216	-55.079	-0.018	0.008
-469.201	9.781	-0.095	-0.072
-468.186	-108.636	-0.379	0.081
-467.172	338.036	0.052	0.101
-466.157	800.000	-0.051	-0.196
-465.143	122.808	0.272	0.341
-464.128	-156.231	-0.178	0.011
-463.113	-49.806	0.170	-0.081
-462.099	-112.961	0.114	0.023
-461.084	259.396	0.140	0.242
-460.070	-200.000	0.014	0.148
-459.055	-117.676	-0.491	0.089
-458.040	-200.000	0.002	-0.307
-457.026	-29.337	-0.309	0.177
-456.011	-200.000	-0.019	-0.140
-454.997	672.006	0.053	0.137
-453.982	497.107	-0.069	0.160
-452.968	109.350	0.305	-0.365
-451.953	-115.754	-0.084	-0.016
-450.938	-200.000	0.013	0.173
-449.924	196.068	0.058	0.088
-448.909	-200.000	-0.009	0.080
-447.895	-11.979	0.233	0.153
-446.880	201.929	0.116	-0.178
-445.865	423.196	-0.028	-0.061
-444.851	-133.264	-0.214	0.027
-443.836	800.000	-0.077	0.299
-442.822	-78.258	-0.216	0.074
-441.807	-47.363	0.247	-0.120
-440.792	-72.029	-0.351	0.131
-439.778	800.000	0.024	-0.075
-438.763	37.721	-0.242	0.215
-437.749	59.221	0.136	0.134
-436.734	55.797	0.182	0.176
-435.719	-61.980	-0.127	-0.053
-434.705	-200.000	-0.013	-0.340
-433.690	-200.000	0.088	-0.488
-432.676	-39.943	0.300	-0.156
-431.661	129.685	-0.397	-0.508
-430.646	41.652	0.366	-0.332
-429.632	77.475	0.170	0.180
-428.617	221.940	0.091	-0.146
-427.603	47.299	-0.201	-0.187
-426.588	135.001	-0.135	0.176
-425.573	-116.949	-0.029	0.005
-424.559	800.000	0.023	0.081
-423.544	781.140	0.035	-0.096
-422.530	800.000	-0.074	0.248
-421.515	550.017	0.186	-0.446
-420.500	-109.601	0.124	0.026
-419.486	-69.965	-0.410	0.156
-418.471	38.844	0.158	0.141
-417.457	345.340	-0.064	0.125
-416.442	-64.100	0.070	-0.029
-415.428	-90.040	-0.175	0.051
-414.413	184.724	-0.100	0.148
-413.398	275.974	-0.114	0.202
-412.384	161.112	0.101	0.142
-411.369	252.985	0.025	-0.042
-410.355	-200.000	-0.005	-0.232
-409.340	-20.181	0.200	-0.123
-408.325	-164.050	-0.049	-0.002
-407.311	-70.890	0.075	-0.028
-406.296	-101.974	0.340	0.082
-405.282	96.669	0.045	-0.051
-404.267	-57.299	0.231	0.101
-403.252	6.018	-0.390	-0.289
-402.238	-200.000	0.008	0.066
-401.223	-200.000	-0.041	-0.274
-400.209	-168.450	0.044	-0.002
-399.194	233.908	-0.065	0.106
-398.179	77.143	-0.045	0.047
-397.165	-200.000	-0.021	-0.206
-396.150	-20.796	0.161	0.099
-395.136	7.077	-0.155	-0.115
-394.121	-200.000	0.027	0.218
-393.106	800.000	-0.077	0.323
-392.092	-158.912	0.059	-0.003
-391.077	431.517	-0.156	-0.338
-390.063	14.115	-0.321	0.250
-389.048	800.000	0.071	-0.209
-388.033	-200.000	-0.029	-0.131
-387.019	94.826	-0.087	0.099
-386.004	-65.894	0.121	0.048
-384.990	-95.381	0.118	-0.032
-383.975	-183.645	-0.290	-0.005
-382.960	380.417	0.082	-0.169
-381.946	-200.000	0.016	0.298
-380.931	800.000	-0.029	-0.102
-379.917	47.183	0.162	-0.150
-378.902	-78.487	0.228	-0.078
-377.888	800.000	0.042	-0.161
-376.873	493.970	0.058	-0.134
-375.858	800.000	-0.091	-0.351
-374.844	-44.218	0.180	-0.090
-373.829	-68.851	-0.418	0.161
-372.815	-134.147	-0.307	0.038
-371.800	629.207	-0.102	-0.257
-370.785	-60.307	0.233	-0.099
-369.771	-200.000	-0.010	-0.066
-368.756	-71.414	-0.120	0.045
-367.742	641.555	0.079	0.200
-366.727	-122.015	0.140	-0.023
-365.712	-17.203	0.223	0.140
-364.698	170.857	0.156	-0.223
-363.683	-28.889	-0.289	-0.165
-362.669	-112.262	0.211	-0.042
-361.654	-199.803	-0.311	0.002
-360.639	45.781	-0.177	-0.163
-359.625	130.831	-0.152	-0.194
-358.610	-107.953	-0.207	-0.045
-357.596	98.979	0.239	-0.275
-356.581	-24.206	-0.178	0.106
-355.566	16.866	0.159	0.126
-354.552	-200.000	0.033	-0.283
-353.537	-200.000	-0.007	-0.048
-352.523	31.327	0.228	0.195
-351.508	-88.052	0.221	0.066
-350.493	-93.957	-0.034	-0.009
-349.479	169.816	-0.044	-0.062
-348.464	-16.429	0.167	-0.106
-347.450	-66.685	-0.103	-0.041
-346.435	-173.222	-0.149	-0.005
-345.420	-7.820	-0.265	-0.178
-344.406	-200.000	0.022	-0.485
-343.391	325.953	0.114	-0.218
-342.377	33.399	0.112	-0.097
-341.362	-33.572	-0.132	0.072
-340.348	50.201	0.057	-0.054
-339.333	142.946	0.138	-0.183
-338.318	-72.774	0.162	0.059
-337.304	570.206	0.071	-0.173
-336.289	-72.502	0.217	-0.080
-335.275	-200.000	0.010	0.160
-334.260	-113.732	0.356	-0.069
-333.245	52.242	-0.197	-0.187
-332.231	-29.217	0.336	0.192
-331.216	68.796	0.043	-0.044
-330.202	706.205	-0.083	-0.219
-329.187	-63.302	0.251	-0.103
-328.172	295.738	0.099	-0.180
-327.158	64.616	0.056	-0.057
-326.143	49.804	0.203	-0.190
-325.129	-21.348	0.237	0.144
-324.114	-200.000	0.002	0.089
-323.099	-46.720	0.159	0.078
-322.085	800.000	0.119	-0.332
-321.070	-118.075	0.081	-0.014
-320.056	43.284	0.201	0.183
-319.041	-42.980	-0.199	-0.101
-318.026	3.292	0.205	0.149
-317.012	47.850	-0.162	-0.150
-315.997	73.626	0.171	-0.178
-314.983	403.703	0.054	0.114
-313.968	184.003	-0.192	0.283
-312.953	-200.000	-0.049	0.215
-311.939	-93.975	-0.341	-0.093
-310.924	-30.607	0.217	0.122
-309.910	81.000	0.107	-0.115
-308.895	800.000	0.022	0.074
-307.880	694.735	0.088	-0.231
-306.866	185.850	0.065	0.097
-305.851	-0.850	0.590	0.415
-304.837	72.538	0.303	0.314
-303.822	-81.052	-0.263	0.086
-302.807	144.046	0.045	0.059
-301.793	237.756	0.085	-0.140
-300.778	-5.031	0.101	0.069
-299.764	-200.000	-0.032	-0.303
-298.749	-200.000	-0.033	-0.190
-297.735	-200.000	-0.425	-0.001
-296.720	122.757	-0.192	-0.239
-295.705	28.294	-0.145	0.122
-294.691	127.218	-0.329	0.415
-293.676	101.017	-0.100	-0.116
-292.662	-120.049	-0.068	-0.012
-291.647	-90.844	-0.222	-0.064
-290.632	-86.353	0.150	0.046
-289.618	-74.082	0.404	0.146
-288.603	684.598	0.076	0.196
-287.589	-104.755	-0.170	-0.039
-286.574	-75.172	-0.137	0.049
-285.559	-166.616	-0.178	-0.007
-284.545	553.511	-0.079	0.190
-283.530	192.943	-0.012	-0.019
-282.516	-130.935	0.216	-0.029
-281.501	157.006	0.119	-0.164
-280.486	800.000	0.088	-0.249
-279.472	102.002	0.148	0.172
-278.457	-129.065	0.287	-0.040
-277.443	23.624	0.112	-0.092
-276.428	252.053	0.068	-0.115
-275.413	-200.000	0.010	-0.102
-274.399	-200.000	0.011	-0.329
-273.384	33.283	0.241	-0.208
-272.370	-102.058	0.214	0.051
-271.355	800.000	0.062	0.192
-270.340	-36.801	0.289	-0.154
-269.326	771.476	0.027	-0.072
-268.311	-84.650	0.122	0.038
-267.297	-140.392	-0.365	0.038
-266.282	800.000	-0.101	-0.374
-265.267	202.339	0.137	0.209
-264.253	800.000	0.037	0.124
-263.238	17.775	-0.094	0.074
-262.224	800.000	-0.037	0.153
-261.209	-200.000	0.028	0.336
-260.195	800.000	0.035	-0.141
-259.180	91.063	0.133	-0.148
-258.165	21.797	-0.145	0.117
-257.151	-43.138	0.115	-0.058
-256.136	-78.948	0.206	-0.070
-255.122	-106.986	-0.340	0.075
-254.107	186.259	0.048	0.070
-253.092	800.000	-0.079	-0.265
-252.078	57.936	-0.130	0.126
-251.063	193.211	0.041	0.062
-250.049	-129.831	-0.198	-0.027
-249.034	197.194	-0.134	-0.203
-248.019	-64.060	0.215	-0.087
-247.005	-62.997	0.051	-0.021
-245.990	-88.866	-0.332	-0.098
-244.976	22.535	-0.216	-0.175
-243.961	27.680	0.130	-0.108
-242.946	800.000	-0.088	0.278
-241.932	-61.668	-0.199	0.083
-240.917	-159.432	0.154	0.009
-239.903	-200.000	0.016	0.085
-238.888	-97.837	0.173	0.044
-237.873	-125.488	0.249	-0.038
-236.859	55.625	0.099	-0.095
-235.844	-119.358	-0.336	0.058
-234.830	-200.000	-0.002	-0.082
-233.815	123.398	-0.184	0.229
-232.800	-118.257	-0.155	-0.027
-231.786	800.000	0.117	0.328
-230.771	-200.000	-0.034	0.296
-229.757	-200.000	0.022	0.278
-228.742	224.804	0.169	-0.271
-227.727	301.564	-0.063	0.115
-226.713	-5.964	-0.067	0.045
-225.698	229.808	0.011	0.019
-224.684	-90.199	-0.133	0.038
-223.669	100.940	-0.083	-0.095
-222.655	-123.568	-0.033	0.005
-221.640	-52.784	-0.330	-0.151
-220.625	-30.634	0.255	0.143
-219.611	-200.000	0.036	-0.212
-218.596	-200.000	-0.038	-0.297
-217.582	-199.086	-0.179	-0.001
-216.567	297.855	-0.032	0.058
-215.552	800.000	0.055	0.192
-214.538	800.000	0.116	0.472
-213.523	215.609	0.082	0.129
-212.509	-200.000	0.021	0.147
-211.494	-38.493	-0.294	-0.154
-210.479	471.886	-0.068	0.152
-209.465	20.843	-0.196	-0.157
-208.450	-123.868	-0.161	-0.025
-207.436	158.889	0.104	0.144
-206.421	160.198	0.049	0.067
-205.406	104.883	0.233	-0.272
-204.392	379.151	0.099	0.202
-203.377	34.185	0.170	0.147
-202.363	21.685	-0.115	0.093
-201.348	-101.425	0.419	-0.101
-200.333	-200.000	-0.027	0.147
-199.319	246.285	0.174	0.291
-198.304	84.688	0.245	0.266
-197.290	-200.000	0.065	-0.386
-196.275	268.664	-0.037	0.065
-195.260	-122.965	-0.390	-0.062
-194.246	222.018	0.046	0.073
-193.231	-101.246	-0.256	0.062
-192.217	-129.142	0.112	0.016
-191.202	-106.908	0.051	-0.011
-190.187	-14.937	-0.288	-0.183
-189.173	431.829	0.065	0.139
-188.158	52.656	-0.318	0.301
-187.144	800.000	-0.086	-0.263
-186.129	243.032	0.079	0.130
-185.114	-67.160	0.230	-0.090
-184.100	-36.158	-0.117	-0.063
-183.085	-200.000	-0.055	0.312
-182.071	42.117	0.150	0.135
-181.056	451.346	0.096	-0.209
-180.042	-94.343	0.265	0.072
-179.027	-53.032	-0.288	-0.131
-178.012	-68.956	-0.182	-0.069
-176.998	2.803	0.140	0.100
-175.983	-138.408	0.271	0.030
-174.969	129.433	-0.096	0.122
-173.954	-200.000	0.022	0.280
-172.939	-200.000	0.000	-0.063
-171.925	800.000	-0.121	0.371
-170.910	25.178	0.153	0.126
-169.896	-200.000	-0.018	0.182
-168.881	462.826	0.020	-0.045
-167.866	55.878	0.107	0.103
-166.852	-200.000	0.002	-0.051
-165.837	-113.468	0.277	-0.054
-164.823	-200.000	0.004	0.220
-163.808	53.732	0.208	0.198
-162.793	-67.023	0.209	-0.082
-161.779	-33.173	-0.210	0.115
-160.764	406.744	-0.117	-0.244
-159.750	231.762	-0.050	0.082
-158.735	228.346	-0.118	0.191
-157.720	8.976	-0.188	0.141
-156.706	451.634	-0.067	0.147
-155.691	411.622	-0.036	0.075
-154.677	138.072	-0.258	0.334
-153.662	123.386	-0.172	-0.213
-152.647	180.740	-0.139	-0.202
-151.633	-156.193	0.323	0.020
-150.618	70.752	0.217	-0.222
-149.604	-200.000	0.010	0.382
-148.589	20.331	0.192	-0.153
-147.574	266.717	0.124	0.215
-146.560	6.395	-0.354	0.260
-145.545	-200.000	-0.002	-0.128
-144.531	-31.133	0.048	0.027
-143.516	-78.949	-0.055	0.018
-142.502	312.534	-0.150	0.278
-141.487	-83.194	-0.140	-0.044
-140.472	7.386	0.350	-0.259
-139.458	-14.896	0.172	-0.109
-138.443	-200.000	-0.004	-0.338
-137.429	-23.710	0.110	-0.065
-136.414	114.114	-0.071	0.086
-135.399	320.173	-0.070	-0.132
-134.385	-166.240	-0.094	0.004
-133.370	-200.000	-0.032	-0.342
-132.356	-200.000	0.057	-0.581
-131.341	171.345	0.178	0.252
-130.326	-200.000	0.065	-0.316
-129.312	-45.839	0.155	-0.076
-128.297	28.553	0.090	-0.075
-127.283	561.420	0.113	-0.271
-126.268	384.463	0.049	0.100
-125.253	-200.000	0.019	-0.097
-124.239	-90.460	-0.265	0.076
-123.224	121.689	0.219	-0.270
-122.210	108.410	0.159	-0.187
-121.195	93.394	0.112	-0.126
-120.180	98.786	-0.102	0.117
