DTS Sentinel unit serial number:	SN413079Multiplexer serial number:	ORYXHardware model number:	OX4-SRSoftware version number:	ORYX F/W v4.00 Oryx Data Collector v3.7.2.0data status	okinstallation	princeton_trtdifferential loss correction	single-endedforward channel	channel 2reverse channel	N/Adate	2019/09/14time	22:11:35forward acquisition time	60.00reverse acquisition time	0.00gamma	496.2192k internal	0.2324k external	0.2324temperature offset calibration	1.0063default loss term (dB/km)	0.3790temperature slope calibration	1.0000multiplexer offset coefficient	1.0000multiplexer slope coefficient	1.0000fibre end	0.00T internal ref (°C)	32.64T ext. ref 1 (°C)	4.71T ext. ref 2 (°C)	27.61length (m)	temperature (°C)	Stokes	anti-Stokes-747.200	800.000	0.053	0.160
-746.185	93.997	0.264	0.303
-745.171	-200.000	0.371	0.000
-744.156	-148.622	-0.254	-0.021
-743.142	800.000	0.048	0.196
-742.127	800.000	-0.023	0.101
-741.112	-122.433	-0.282	0.046
-740.098	-82.830	0.410	-0.134
-739.083	281.116	-0.123	-0.222
-738.069	-86.088	0.070	0.022
-737.054	257.241	-0.127	0.220
-736.039	-164.278	-0.290	-0.013
-735.025	-200.000	-0.008	-0.454
-734.010	-29.940	0.213	-0.123
-732.996	549.944	-0.148	-0.358
-731.981	-88.979	0.147	0.044
-730.966	-28.105	-0.081	-0.048
-729.952	800.000	0.010	0.039
-728.937	-181.945	-0.358	-0.007
-727.923	-131.676	0.198	-0.026
-726.908	195.152	-0.268	-0.411
-725.894	41.758	-0.164	-0.150
-724.879	276.193	-0.078	-0.140
-723.864	306.502	0.109	-0.205
-722.850	-11.629	-0.332	-0.220
-721.835	258.946	-0.083	-0.145
-720.821	51.406	-0.038	0.037
-719.806	-137.656	0.116	-0.013
-718.791	-4.126	-0.124	0.086
-717.777	800.000	0.084	-0.266
-716.762	-115.706	-0.167	0.032
-715.748	-39.378	-0.041	-0.022
-714.733	-110.740	-0.263	-0.055
-713.718	138.298	0.094	0.124
-712.704	-200.000	-0.017	0.100
-711.689	-36.256	0.149	-0.081
-710.675	-200.000	-0.111	0.000
-709.660	-89.089	-0.071	0.021
-708.645	-91.385	0.129	-0.037
-707.631	40.417	0.152	0.138
-706.616	-137.662	-0.283	-0.032
-705.602	156.013	-0.205	0.285
-704.587	800.000	0.041	0.162
-703.572	58.353	0.138	0.137
-702.558	-200.000	-0.002	-0.248
-701.543	-200.000	-0.036	-0.172
-700.529	-195.437	-0.235	0.002
-699.514	157.802	0.014	-0.020
-698.499	-200.000	-0.055	-0.261
-697.485	356.596	-0.210	-0.421
-696.470	-143.746	-0.232	-0.022
-695.456	565.322	-0.076	0.185
-694.441	-200.000	0.053	-0.267
-693.426	-143.364	-0.406	-0.039
-692.412	92.105	-0.183	0.208
-691.397	214.493	0.049	0.079
-690.383	1.673	-0.070	0.051
-689.368	-200.000	0.035	0.214
-688.354	58.202	-0.111	-0.110
-687.339	124.714	0.210	-0.266
-686.324	229.147	0.012	0.019
-685.310	-200.000	0.057	-0.488
-684.295	-61.902	0.034	0.014
-683.281	39.307	0.342	0.309
-682.266	148.539	-0.215	-0.292
-681.251	10.955	0.310	-0.239
-680.237	-78.999	0.150	0.051
-679.222	-200.000	-0.012	-0.082
-678.208	-200.000	-0.018	-0.334
-677.193	85.983	0.268	-0.297
-676.178	12.024	0.168	0.130
-675.164	-107.489	0.253	0.056
-674.149	800.000	-0.042	-0.167
-673.135	-200.000	-0.003	-0.048
-672.120	-77.665	-0.300	0.105
-671.105	428.185	-0.055	-0.120
-670.091	173.540	0.176	0.255
-669.076	-200.000	0.003	-0.033
-668.062	77.620	0.160	0.171
-667.047	-58.903	-0.066	0.029
-666.032	-55.217	-0.179	-0.081
-665.018	-122.712	-0.066	0.011
-664.003	67.644	-0.232	0.239
-662.989	-169.122	0.216	0.008
-661.974	76.933	0.196	0.209
-660.959	-18.730	0.338	0.212
-659.945	-72.446	0.100	0.037
-658.930	-200.000	-0.033	-0.246
-657.916	-20.431	-0.123	-0.076
-656.901	-148.944	0.050	-0.004
-655.886	364.127	-0.010	0.019
-654.872	-200.000	-0.067	0.349
-653.857	-200.000	0.003	0.216
-652.843	39.871	0.214	0.193
-651.828	-27.156	0.170	0.100
-650.814	-97.418	-0.265	0.069
-649.799	359.189	-0.121	-0.243
-648.784	125.204	0.280	-0.356
-647.770	84.287	-0.304	0.335
-646.755	-139.210	0.565	-0.061
-645.741	-3.571	-0.335	-0.234
-644.726	134.665	0.098	-0.128
-643.711	268.868	-0.163	0.288
-642.697	-130.848	0.085	-0.012
-641.682	-3.034	0.180	0.126
-640.668	-75.301	0.234	-0.084
-639.653	-167.951	-0.293	0.012
-638.638	283.880	-0.095	0.172
-637.624	89.180	-0.065	0.072
-636.609	-100.510	-0.230	0.057
-635.595	181.890	-0.149	-0.221
-634.580	-152.693	0.113	0.008
-633.565	-60.121	-0.128	0.055
-632.551	22.771	-0.208	-0.171
-631.536	57.445	-0.134	-0.132
-630.522	-200.000	-0.055	-0.281
-629.507	-200.000	0.005	-0.056
-628.492	301.003	0.061	0.114
-627.478	218.599	-0.120	-0.193
-626.463	-200.000	-0.014	-0.332
-625.449	8.722	0.152	-0.115
-624.434	-72.803	-0.241	0.089
-623.419	50.742	-0.075	-0.071
-622.405	-126.408	-0.105	-0.016
-621.390	29.764	-0.172	0.147
-620.376	363.504	0.049	0.099
-619.361	435.481	-0.027	0.059
-618.346	-145.210	-0.169	-0.015
-617.332	263.117	-0.072	-0.125
-616.317	574.053	-0.015	0.036
-615.303	-200.000	0.040	-0.209
-614.288	545.204	0.082	0.197
-613.273	-200.000	0.003	-0.057
-612.259	-29.344	0.104	-0.060
-611.244	-78.489	0.337	-0.116
-610.230	120.506	-0.248	-0.309
-609.215	103.844	-0.267	-0.315
-608.201	103.620	-0.163	-0.192
-607.186	525.725	-0.115	-0.272
-606.171	-2.310	-0.173	-0.122
-605.157	800.000	-0.024	-0.077
-604.142	-129.225	-0.322	0.045
-603.128	40.546	-0.204	0.184
-602.113	-200.000	-0.038	0.383
-601.098	-30.031	-0.345	0.197
-600.084	209.873	0.076	0.120
-599.069	-200.000	0.033	-0.160
-598.055	800.000	-0.053	0.223
-597.040	-121.545	0.477	-0.079
-596.025	-200.000	-0.011	-0.109
-595.011	195.190	0.095	-0.145
-593.996	173.547	-0.186	0.269
-592.982	-200.000	0.049	-0.423
-591.967	-65.451	-0.175	0.071
-590.952	34.091	-0.161	-0.141
-589.938	-200.000	0.006	0.111
-588.923	-51.765	-0.299	0.140
-587.909	-28.398	-0.356	0.206
-586.894	-200.000	-0.037	-0.238
-585.879	-50.980	-0.318	-0.150
-584.865	-200.000	-0.143	0.001
-583.850	-1.433	0.338	0.239
-582.836	-100.253	0.176	-0.044
-581.821	800.000	-0.022	-0.092
-580.806	123.550	-0.112	0.140
-579.792	180.537	-0.158	-0.233
-578.777	17.512	-0.198	0.158
-577.763	-107.980	0.155	0.034
-576.748	-102.171	-0.377	0.091
-575.733	-100.563	0.300	-0.074
-574.719	-200.000	0.034	-0.221
-573.704	-147.711	0.389	0.033
-572.690	488.853	0.105	0.241
-571.675	800.000	-0.074	0.249
-570.661	150.334	-0.058	0.079
-569.646	800.000	0.029	-0.087
-568.631	493.416	0.043	-0.098
-567.617	55.953	-0.019	0.018
-566.602	-118.710	-0.407	0.072
-565.588	-200.000	0.013	-0.064
-564.573	-49.646	0.119	0.057
-563.558	-65.374	-0.015	-0.006
-562.544	-155.654	0.323	0.021
-561.529	107.448	-0.196	-0.234
-560.515	-200.000	0.046	-0.290
-559.500	-200.000	-0.019	-0.233
-558.485	800.000	-0.054	0.207
-557.471	84.732	-0.136	-0.149
-556.456	-17.768	-0.198	-0.124
-555.442	147.695	-0.154	-0.208
-554.427	29.508	-0.028	-0.023
-553.412	-30.067	0.099	0.057
-552.398	104.177	0.296	-0.349
-551.383	414.823	0.097	-0.206
-550.369	467.864	0.163	0.367
-549.354	25.031	-0.133	0.111
-548.339	-57.093	-0.173	-0.077
-547.325	-129.649	0.104	-0.014
-546.310	269.872	0.056	0.099
-545.296	-200.000	0.019	-0.172
-544.281	-46.464	-0.171	0.084
-543.266	259.953	-0.168	0.291
-542.252	-200.000	0.009	0.096
-541.237	-8.531	0.082	0.055
-540.223	-123.690	-0.153	-0.024
-539.208	9.654	0.232	-0.176
-538.193	123.993	0.121	-0.152
-537.179	405.864	0.104	0.220
-536.164	-157.044	-0.372	-0.023
-535.150	286.924	0.084	-0.153
-534.135	114.641	0.263	-0.320
-533.121	800.000	0.027	0.084
-532.106	-9.457	-0.127	0.085
-531.091	560.155	-0.100	0.242
-530.077	-200.000	-0.054	0.258
-529.062	-106.423	-0.122	-0.027
-528.048	-141.166	0.162	-0.017
-527.033	-200.000	0.004	0.197
-526.018	-59.212	0.175	0.075
-525.004	800.000	0.121	0.349
-523.989	72.714	-0.105	-0.110
-522.975	141.314	0.140	-0.186
-521.960	184.220	0.222	-0.329
-520.945	-200.000	0.037	-0.248
-519.931	40.574	0.109	-0.098
-518.916	-112.743	-0.469	-0.093
-517.902	800.000	-0.173	0.503
-516.887	103.582	0.129	0.151
-515.872	800.000	-0.007	0.022
-514.858	-85.974	0.121	-0.037
-513.843	-12.943	0.230	-0.150
-512.829	32.469	-0.226	-0.195
-511.814	289.243	0.127	-0.231
-510.799	-129.126	-0.093	-0.013
-509.785	194.694	-0.087	0.132
-508.770	-200.000	0.002	0.136
-507.756	28.357	-0.091	-0.077
-506.741	19.908	-0.196	0.158
-505.726	-18.157	-0.249	0.156
-504.712	-99.627	-0.172	0.043
-503.697	800.000	-0.038	-0.157
-502.683	-167.753	0.550	0.022
-501.668	-84.291	0.094	-0.030
-500.653	-68.889	-0.264	-0.102
-499.639	-200.000	-0.010	0.235
-498.624	-36.290	0.100	0.054
-497.610	800.000	0.083	-0.282
-496.595	-39.779	-0.059	0.031
-495.581	-200.000	-0.011	0.277
-494.566	-69.988	-0.130	-0.049
-493.551	53.786	0.143	-0.137
-492.537	114.335	-0.017	0.020
-491.522	172.220	0.202	0.290
-490.508	157.042	0.219	0.303
-489.493	27.028	0.319	0.267
-488.478	73.115	-0.170	-0.178
-487.464	-43.392	0.313	-0.158
-486.449	39.727	0.222	-0.199
-485.435	-200.000	0.012	0.252
-484.420	-122.288	-0.226	0.037
-483.405	800.000	-0.079	0.326
-482.391	145.323	-0.074	0.099
-481.376	-30.117	0.185	0.105
-480.362	800.000	-0.047	0.148
-479.347	-200.000	-0.021	-0.122
-478.332	116.545	-0.078	-0.096
-477.318	72.018	-0.084	-0.088
-476.303	577.282	0.114	0.279
-475.289	57.090	-0.083	-0.081
-474.274	-2.618	-0.089	-0.062
-473.259	-7.545	-0.229	-0.155
-472.245	27.528	-0.272	0.229
-471.230	-21.479	-0.191	-0.116
-470.216	-88.610	0.218	-0.065
-469.201	-200.000	-0.001	-0.127
-468.186	422.043	0.153	-0.327
-467.172	-23.952	0.060	0.036
-466.157	175.709	0.334	0.484
-465.143	-2.774	-0.318	0.222
-464.128	-148.066	0.200	0.017
-463.113	337.837	-0.080	-0.155
-462.099	800.000	-0.013	-0.040
-461.084	-162.217	0.140	-0.007
-460.070	-151.103	0.046	0.003
-459.055	-33.622	0.176	-0.097
-458.040	418.473	0.046	0.097
-457.026	225.702	-0.108	0.175
-456.011	-65.395	0.111	0.044
-454.997	63.975	-0.123	0.124
-453.982	136.329	-0.029	-0.037
-452.968	219.304	-0.093	0.149
-451.953	800.000	-0.150	0.426
-450.938	92.117	0.224	0.252
-449.924	368.316	0.096	-0.193
-448.909	360.300	0.068	0.135
-447.895	800.000	-0.132	0.468
-446.880	-44.929	-0.058	-0.029
-445.865	-138.127	-0.093	0.010
-444.851	11.407	-0.221	0.169
-443.836	-200.000	-0.046	0.337
-442.822	-154.080	-0.106	-0.007
-441.807	-32.098	0.156	-0.087
-440.792	-61.804	-0.208	-0.087
-439.778	88.483	-0.255	0.283
-438.763	-200.000	-0.050	0.229
-437.749	627.753	0.055	-0.138
-436.734	312.503	0.199	-0.372
-435.719	457.653	-0.022	-0.048
-434.705	-200.000	-0.010	-0.084
-433.690	536.528	0.016	0.038
-432.676	158.755	-0.143	0.198
-431.661	800.000	0.018	-0.067
-430.646	-110.850	0.206	0.042
-429.632	-22.215	-0.052	0.032
-428.617	359.682	-0.117	-0.234
-427.603	-129.850	0.059	-0.008
-426.588	-131.383	0.221	-0.029
-425.573	800.000	-0.040	-0.165
-424.559	-116.025	0.248	-0.046
-423.544	-122.717	-0.224	0.036
-422.530	470.457	-0.094	0.210
-421.515	447.760	-0.063	0.138
-420.500	-75.963	-0.610	0.215
-419.486	195.176	0.095	-0.143
-418.471	105.617	0.164	0.194
-417.457	800.000	-0.045	-0.142
-416.442	-153.593	-0.438	-0.030
-415.428	-33.693	0.460	0.253
-414.413	55.083	-0.144	0.139
-413.398	163.211	0.058	-0.081
-412.384	800.000	-0.124	0.390
-411.369	-88.568	0.213	0.063
-410.355	21.881	0.355	-0.289
-409.340	787.717	0.094	0.257
-408.325	-75.267	0.171	0.061
-407.311	-200.000	0.029	-0.163
-406.296	-14.946	-0.115	-0.074
-405.282	-185.604	-0.133	-0.002
-404.267	135.282	-0.190	-0.247
-403.252	-56.994	0.240	0.105
-402.238	90.530	0.127	-0.142
-401.223	-173.927	-0.210	-0.006
-400.209	239.255	-0.145	-0.241
-399.194	694.114	0.061	0.159
-398.179	-90.941	-0.207	-0.059
-397.165	-16.520	-0.340	-0.214
-396.150	184.514	-0.081	0.119
-395.136	-47.328	-0.225	0.109
-394.121	268.941	0.082	0.143
-393.106	55.645	0.204	0.197
-392.092	184.586	0.182	0.269
-391.077	-200.000	-0.036	0.164
-390.063	800.000	0.042	-0.133
-389.048	21.047	0.071	-0.057
-388.033	-63.370	0.221	-0.091
-387.019	202.776	-0.132	-0.202
-386.004	-30.296	-0.214	-0.121
-384.990	56.441	-0.192	-0.186
-383.975	-107.758	-0.179	-0.039
-382.960	222.514	0.053	0.084
-381.946	125.530	0.172	0.216
-380.931	-8.335	-0.177	-0.118
-379.917	-99.940	-0.115	0.028
-378.902	800.000	-0.048	-0.205
-377.888	5.952	0.125	0.092
-376.873	92.328	-0.142	-0.159
-375.858	642.665	0.069	0.174
-374.844	-15.478	-0.076	0.048
-373.829	40.379	0.105	0.094
-372.815	-106.847	-0.139	0.031
-371.800	39.454	0.315	-0.281
-370.785	-200.000	-0.008	-0.114
-369.771	122.786	0.086	0.107
-368.756	-116.436	-0.109	-0.020
-367.742	-107.389	0.190	0.041
-366.727	-182.566	0.290	-0.005
-365.712	664.036	-0.082	-0.211
-364.698	-200.000	0.026	-0.116
-363.683	-108.559	0.281	0.060
-362.669	-200.000	-0.028	-0.177
-361.654	146.945	-0.255	0.341
-360.639	-30.172	0.207	-0.117
-359.625	-200.000	0.024	0.146
-358.610	800.000	-0.114	0.395
-357.596	33.571	0.072	-0.063
-356.581	18.733	-0.216	-0.172
-355.566	-200.000	-0.030	0.347
-354.552	-80.701	-0.157	0.052
-353.537	-71.799	-0.240	-0.089
-352.523	-200.000	-0.019	-0.286
-351.508	-141.307	-0.454	0.046
-350.493	-55.013	-0.090	-0.040
-349.479	-200.000	-0.002	-0.291
-348.464	-102.763	-0.087	0.021
-347.450	-156.083	0.068	0.004
-346.435	-80.042	0.140	0.047
-345.420	-26.931	-0.251	-0.146
-344.406	350.155	-0.052	-0.102
-343.391	-136.746	0.313	0.036
-342.377	800.000	-0.062	-0.235
-341.362	800.000	0.049	-0.198
-340.348	733.565	0.103	-0.274
-339.333	-77.577	0.207	-0.071
-338.318	403.393	-0.100	0.210
-337.304	-200.000	-0.015	-0.383
-336.289	689.340	-0.094	0.246
-335.275	-35.951	-0.321	0.173
-334.260	800.000	-0.046	-0.129
-333.245	-200.000	0.059	-0.363
-332.231	-46.197	-0.073	-0.036
-331.216	290.205	0.151	0.272
-330.202	-63.866	0.263	-0.107
-329.187	800.000	0.041	0.150
-328.172	346.478	-0.092	0.180
-327.158	-24.239	-0.261	0.155
-326.143	-59.217	0.024	0.010
-325.129	-200.000	-0.050	0.315
-324.114	-84.826	-0.354	0.110
-323.099	-200.000	-0.013	-0.168
-322.085	-33.074	-0.116	0.064
-321.070	96.190	0.228	-0.259
-320.056	70.242	-0.049	0.051
-319.041	154.157	-0.051	-0.070
-318.026	-200.000	-0.014	-0.094
-317.012	-42.370	-0.166	0.084
-315.997	103.014	-0.180	-0.209
-314.983	150.813	-0.097	0.131
-313.968	32.740	0.279	0.239
-312.953	87.154	0.080	0.088
-311.939	323.711	-0.061	0.115
-310.924	45.093	-0.059	0.054
-309.910	21.641	-0.275	0.222
-308.895	800.000	0.116	-0.425
-307.880	-48.704	-0.175	-0.083
-306.866	153.863	0.182	-0.248
-305.851	-150.672	0.213	0.016
-304.837	-53.372	-0.063	-0.029
-303.822	-93.402	-0.265	0.073
-302.807	79.886	-0.137	0.146
-301.793	-106.941	-0.187	-0.041
-300.778	91.527	0.088	0.098
-299.764	103.517	0.184	0.214
-298.749	21.957	0.169	-0.137
-297.735	-121.434	0.336	0.055
-296.720	15.029	0.234	-0.182
-295.705	4.459	-0.200	-0.146
-294.691	-54.051	-0.185	-0.084
-293.676	-200.000	-0.029	0.360
-292.662	28.926	0.174	0.146
-291.647	-35.427	0.114	-0.062
-290.632	-200.000	-0.015	0.235
-289.618	150.637	-0.099	0.134
-288.603	-73.713	-0.109	-0.039
-287.589	-70.613	0.218	-0.082
-286.574	-36.811	0.218	-0.116
-285.559	-25.113	-0.141	0.083
-284.545	474.940	0.056	-0.125
-283.530	1.813	0.306	-0.219
-282.516	207.456	-0.078	-0.120
-281.501	-11.615	-0.218	0.142
-280.486	-150.592	-0.330	-0.025
-279.472	26.883	0.255	-0.212
-278.457	-68.661	-0.178	0.068
-277.443	-105.440	0.232	0.052
-276.428	-200.000	-0.005	-0.268
-275.413	12.927	0.186	-0.143
-274.399	86.731	-0.153	-0.167
-273.384	362.073	-0.188	0.374
-272.370	300.821	-0.053	0.096
-271.355	284.978	0.083	-0.149
-270.340	800.000	-0.111	0.341
-269.326	245.448	-0.219	-0.365
-268.311	-200.000	0.022	-0.185
-267.297	61.982	-0.091	0.090
-266.282	-113.136	0.299	0.058
-265.267	14.311	-0.090	-0.070
-264.253	-179.029	0.301	-0.007
-263.238	202.151	-0.173	0.264
-262.224	-200.000	-0.025	-0.392
-261.209	61.287	0.236	0.232
-260.195	800.000	-0.028	0.115
-259.180	-97.850	0.229	0.059
-258.165	155.360	-0.158	-0.215
-257.151	61.554	-0.107	0.106
-256.136	124.447	0.128	-0.160
-255.122	381.821	-0.110	-0.224
-254.107	-120.319	-0.418	0.071
-253.092	11.565	0.182	-0.139
-252.078	236.370	0.071	0.117
-251.063	131.869	-0.023	0.029
-250.049	-119.325	-0.133	-0.023
-249.034	142.082	0.121	0.159
-248.019	-183.041	0.361	0.006
-247.005	800.000	-0.028	-0.078
-245.990	128.390	0.125	0.158
-244.976	320.763	0.196	0.369
-243.961	-107.128	0.413	0.090
-242.946	125.093	-0.133	0.166
-241.932	800.000	0.018	0.068
-240.917	3.130	0.062	0.044
-239.903	-200.000	0.000	-0.362
-238.888	-200.000	0.008	0.225
-237.873	-0.753	0.309	-0.217
-236.859	44.091	0.427	0.387
-235.844	-23.656	0.283	-0.168
-234.830	-51.349	-0.150	0.070
-233.815	-114.162	0.083	0.016
-232.800	472.832	0.041	0.091
-231.786	-136.031	-0.143	0.017
-230.771	-42.674	-0.399	-0.201
-229.757	58.568	0.143	0.139
-228.742	313.549	0.072	-0.134
-227.727	197.016	0.085	-0.129
-226.713	-17.445	0.518	-0.322
-225.698	-200.000	0.030	0.216
-224.684	108.350	-0.106	-0.125
-223.669	-200.000	0.035	0.188
-222.655	79.232	-0.132	-0.140
-221.640	36.849	-0.109	0.095
-220.625	-200.000	-0.031	-0.328
-219.611	-200.000	-0.001	-0.267
-218.596	-54.513	-0.326	-0.146
-217.582	-200.000	-0.012	-0.089
-216.567	93.459	-0.116	0.130
-215.552	-71.312	-0.112	0.042
-214.538	-95.979	0.201	-0.053
-213.523	-200.000	0.011	0.145
-212.509	506.763	0.075	-0.172
-211.494	800.000	-0.027	0.105
-210.479	663.083	0.186	-0.475
-209.465	-200.000	0.024	-0.130
-208.450	170.208	0.084	0.118
-207.436	96.197	0.007	0.008
-206.421	-51.310	0.211	0.097
-205.406	-200.000	0.309	0.001
-204.392	799.231	-0.083	-0.226
-203.377	639.245	0.060	-0.151
-202.363	-147.526	-0.040	-0.003
-201.348	800.000	-0.008	-0.030
-200.333	-75.338	0.373	0.132
-199.319	-119.784	0.193	-0.033
-198.304	-37.370	-0.152	-0.080
-197.290	-158.865	0.369	-0.021
-196.275	-200.000	0.034	-0.183
-195.260	-100.760	0.363	0.088
-194.246	179.998	-0.221	-0.321
-193.231	112.979	-0.124	0.149
-192.217	-200.000	-0.273	-0.000
-191.202	800.000	0.018	0.058
-190.187	-21.813	0.219	0.132
-189.173	-200.000	0.029	0.216
-188.158	90.371	0.163	-0.180
-187.144	-200.000	0.002	0.161
-186.129	311.795	0.033	0.061
-185.114	52.961	0.053	0.050
-184.100	125.646	0.118	-0.147
-183.085	-200.000	0.006	0.274
-182.071	-121.760	0.236	-0.039
-181.056	-200.000	-0.024	0.128
-180.042	-15.141	0.077	0.049
-179.027	-4.277	-0.205	-0.140
-178.012	-91.846	0.372	0.104
-176.998	800.000	0.037	0.149
-175.983	26.222	0.064	0.053
-174.969	-200.000	-0.054	0.240
-173.954	-118.112	-0.248	0.044
-172.939	190.314	-0.132	0.195
-171.925	375.297	-0.113	0.228
-170.910	-4.522	0.169	0.115
-169.896	-200.000	-0.001	-0.056
-168.881	-200.000	0.036	-0.258
-167.866	491.593	0.079	-0.180
-166.852	132.819	0.225	0.287
-165.837	-200.000	-0.041	0.182
-164.823	-200.000	-0.005	-0.045
-163.808	-55.756	0.120	-0.053
-162.793	-124.778	0.323	-0.049
-161.779	284.797	-0.093	0.165
-160.764	-200.000	-0.009	0.122
-159.750	-81.609	0.338	0.110
-158.735	-111.901	0.289	-0.058
-157.720	81.918	-0.232	-0.248
-156.706	1.402	-0.020	0.014
-155.691	-8.116	0.226	-0.150
-154.677	-200.000	-0.018	0.215
-153.662	216.146	0.092	-0.144
-152.647	795.553	0.018	-0.050
-151.633	3.014	0.198	-0.142
-150.618	-126.806	-0.318	0.046
-149.604	-200.000	-0.077	-0.517
-148.589	-200.000	0.036	-0.425
-147.574	166.083	0.184	0.258
-146.560	800.000	0.030	0.113
-145.545	355.342	-0.112	0.219
-144.531	-61.106	0.090	-0.038
-143.516	352.968	-0.059	-0.115
-142.502	596.538	-0.061	-0.150
-141.487	-65.376	0.146	0.058
-140.472	-148.909	-0.204	-0.016
-139.458	-61.583	-0.215	-0.089
-138.443	-200.000	-0.026	-0.158
-137.429	-65.493	-0.218	-0.086
-136.414	800.000	0.048	-0.171
-135.399	-67.080	0.070	-0.027
-134.385	-200.000	0.021	-0.260
-133.370	117.308	0.147	-0.178
-132.356	331.796	0.008	-0.016
-131.341	-71.062	0.152	0.056
-130.326	-111.100	0.095	-0.019
-129.312	-188.723	0.289	-0.003
-128.297	150.840	0.190	-0.255
-127.283	71.844	0.146	-0.150
-126.268	-200.000	-0.016	-0.345
-125.253	58.766	0.129	-0.125
-124.239	-200.000	0.002	-0.266
-123.224	42.097	0.135	0.120
-122.210	-185.998	0.284	0.004
