DTS Sentinel unit serial number:	SN413079Multiplexer serial number:	ORYXHardware model number:	OX4-SRSoftware version number:	ORYX F/W v4.00 Oryx Data Collector v3.7.2.0data status	okinstallation	princeton_trtdifferential loss correction	single-endedforward channel	channel 2reverse channel	N/Adate	2019/09/13time	19:39:35forward acquisition time	60.00reverse acquisition time	0.00gamma	496.2192k internal	0.2330k external	0.2330temperature offset calibration	1.0146default loss term (dB/km)	0.3790temperature slope calibration	1.0000multiplexer offset coefficient	1.0000multiplexer slope coefficient	1.0000fibre end	0.00T internal ref (°C)	30.42T ext. ref 1 (°C)	3.40T ext. ref 2 (°C)	24.42length (m)	temperature (°C)	Stokes	anti-Stokes-747.200	800.000	-0.062	-0.256
-746.185	130.126	-0.117	0.151
-745.171	1.867	-0.139	0.101
-744.156	-29.319	0.183	0.105
-743.142	-63.287	-0.198	0.082
-742.127	182.485	0.229	0.340
-741.112	389.828	-0.174	-0.364
-740.098	265.368	-0.209	0.367
-739.083	-0.586	0.334	0.239
-738.069	-56.307	0.061	0.027
-737.054	-34.593	0.103	-0.057
-736.039	-81.887	-0.303	-0.100
-735.025	-115.559	0.348	0.066
-734.010	18.800	-0.287	-0.232
-732.996	-200.000	-0.389	0.001
-731.981	-0.069	-0.213	-0.152
-730.966	-24.316	-0.200	0.120
-729.952	104.221	-0.175	-0.207
-728.937	-78.873	-0.070	-0.024
-727.923	43.446	0.084	0.077
-726.908	-200.000	0.023	0.155
-725.894	800.000	0.060	0.251
-724.879	7.775	0.070	-0.053
-723.864	-200.000	-0.009	-0.100
-722.850	-38.312	-0.435	-0.232
-721.835	-13.105	0.133	-0.087
-720.821	-102.857	-0.195	0.047
-719.806	189.036	-0.150	-0.226
-718.791	248.050	-0.085	-0.144
-717.777	-146.630	-0.187	-0.016
-716.762	-200.000	-0.064	0.313
-715.748	-32.216	0.146	-0.082
-714.733	-147.223	-0.224	0.019
-713.718	167.634	-0.050	-0.071
-712.704	-120.430	-0.198	-0.034
-711.689	-46.619	0.140	0.069
-710.675	800.000	0.036	-0.132
-709.660	-15.574	0.251	0.161
-708.645	-16.172	-0.220	0.141
-707.631	-14.202	-0.350	-0.227
-706.616	-129.189	-0.124	0.017
-705.602	-68.339	-0.090	-0.035
-704.587	-200.000	0.017	-0.248
-703.572	-116.648	-0.133	0.025
-702.558	-24.871	-0.218	-0.130
-701.543	308.311	0.096	-0.181
-700.529	24.762	-0.048	-0.040
-699.514	-200.000	-0.002	0.057
-698.499	-134.828	0.395	-0.048
-697.485	201.214	-0.153	-0.236
-696.470	-103.876	0.296	0.069
-695.456	-133.470	-0.292	-0.037
-694.441	14.936	0.031	-0.025
-693.426	-51.961	-0.044	0.021
-692.412	-200.000	-0.036	-0.176
-691.397	590.260	-0.060	0.149
-690.383	-137.106	-0.223	-0.026
-689.368	248.399	0.083	0.141
-688.354	-200.000	0.042	-0.409
-687.339	-96.762	-0.036	-0.010
-686.324	361.336	0.079	0.159
-685.310	-6.183	0.072	0.049
-684.295	-46.283	-0.223	0.110
-683.281	75.054	-0.286	-0.303
-682.266	391.847	-0.163	-0.339
-681.251	27.601	-0.226	0.191
-680.237	-84.426	-0.188	0.060
-679.222	-157.010	-0.217	0.013
-678.208	800.000	-0.131	-0.379
-677.193	-25.310	0.342	-0.203
-676.178	-200.000	-0.052	-0.240
-675.164	-198.092	0.148	0.001
-674.149	57.693	-0.181	-0.178
-673.135	795.192	-0.179	0.496
-672.120	-109.393	-0.259	-0.055
-671.105	32.152	-0.312	0.270
-670.091	-170.360	-0.263	-0.009
-669.076	307.835	-0.099	-0.185
-668.062	672.334	-0.047	-0.123
-667.047	800.000	-0.070	-0.263
-666.032	0.956	0.275	-0.198
-665.018	-121.386	-0.189	0.032
-664.003	117.201	0.127	-0.157
-662.989	-24.781	-0.108	-0.065
-661.974	51.816	0.098	-0.094
-660.959	800.000	0.018	-0.051
-659.945	800.000	-0.052	0.164
-658.930	170.628	-0.119	-0.170
-657.916	62.226	-0.081	-0.081
-656.901	-200.000	0.018	-0.338
-655.886	2.364	0.068	0.049
-654.872	-35.003	0.250	-0.137
-653.857	-64.520	0.286	0.116
-652.843	161.842	-0.156	0.219
-651.828	-200.000	0.027	-0.149
-650.814	-200.000	0.068	-0.349
-649.799	-51.314	-0.338	-0.159
-648.784	-2.197	-0.153	0.108
-647.770	14.469	0.194	0.152
-646.755	764.518	-0.086	-0.234
-645.741	88.894	0.217	0.242
-644.726	-75.553	-0.061	-0.022
-643.711	-200.000	0.006	0.161
-642.697	400.514	0.127	-0.266
-641.682	243.595	-0.178	0.299
-640.668	-162.731	0.353	0.017
-639.653	-200.000	0.028	-0.396
-638.638	-62.733	0.225	-0.093
-637.624	-49.252	0.160	-0.077
-636.609	-9.801	-0.070	-0.047
-635.595	254.172	0.156	-0.268
-634.580	-117.383	0.211	-0.038
-633.565	394.176	-0.133	-0.278
-632.551	800.000	-0.061	-0.171
-631.536	11.825	-0.337	-0.259
-630.522	-72.013	0.088	-0.033
-629.507	-200.000	-0.005	0.345
-628.492	521.839	0.107	-0.253
-627.478	217.473	-0.211	-0.336
-626.463	-9.855	-0.236	-0.157
-625.449	-40.629	0.277	-0.144
-624.434	800.000	0.145	-0.474
-623.419	3.064	-0.248	-0.181
-622.405	-200.000	0.029	0.293
-621.390	-200.000	-0.087	0.466
-620.376	-200.000	0.004	-0.081
-619.361	-200.000	-0.029	-0.300
-618.346	-19.674	-0.111	0.069
-617.332	-200.000	-0.017	-0.263
-616.317	-0.060	-0.191	-0.136
-615.303	35.333	0.251	-0.221
-614.288	-26.466	0.239	0.140
-613.273	62.781	0.087	-0.087
-612.259	-200.000	0.013	-0.155
-611.244	62.397	0.152	-0.152
-610.230	5.058	0.093	-0.069
-609.215	-200.000	-0.008	-0.127
-608.201	-166.113	0.206	-0.009
-607.186	8.246	-0.169	0.127
-606.171	97.389	0.290	0.333
-605.157	-65.604	-0.223	-0.090
-604.142	241.784	-0.073	-0.122
-603.128	673.568	-0.094	-0.244
-602.113	-2.198	0.131	-0.092
-601.098	-200.000	0.036	-0.217
-600.084	93.673	0.138	-0.156
-599.069	-200.000	-0.004	0.102
-598.055	-35.657	0.110	-0.060
-597.040	-149.865	0.185	0.014
-596.025	274.188	0.047	0.083
-595.011	800.000	-0.021	-0.075
-593.996	-68.575	-0.305	-0.118
-592.982	-84.759	0.182	-0.057
-591.967	-200.000	-0.037	-0.254
-590.952	800.000	-0.046	-0.156
-589.938	-61.579	-0.275	-0.116
-588.923	-157.086	-0.176	-0.011
-587.909	80.725	-0.287	0.310
-586.894	800.000	-0.126	-0.399
-585.879	-167.845	-0.354	0.014
-584.865	-17.523	0.297	-0.187
-583.850	-200.000	-0.006	-0.165
-582.836	154.691	0.236	-0.324
-581.821	-129.974	-0.245	-0.034
-580.806	-200.000	-0.008	-0.063
-579.792	112.098	-0.087	-0.105
-578.777	209.314	-0.159	-0.249
-577.763	28.383	0.143	0.121
-576.748	-62.678	-0.341	0.142
-575.733	-49.338	0.299	0.143
-574.719	-200.000	0.025	-0.589
-573.704	-200.000	-0.041	0.222
-572.690	7.516	-0.164	0.122
-571.675	188.470	-0.075	-0.112
-570.661	-72.555	0.252	0.093
-569.646	-134.008	-0.031	-0.004
-568.631	-165.453	-0.372	0.016
-567.617	-145.480	0.221	0.020
-566.602	-124.530	-0.388	-0.060
-565.588	44.369	0.214	-0.196
-564.573	20.354	0.058	0.047
-563.558	29.282	-0.268	0.227
-562.544	800.000	-0.091	-0.291
-561.529	-121.962	-0.347	-0.057
-560.515	197.915	-0.118	-0.180
-559.500	-96.601	-0.209	0.055
-558.485	-82.200	0.221	-0.072
-557.471	24.576	0.105	-0.087
-556.456	136.750	0.072	-0.093
-555.442	-68.859	0.335	-0.129
-554.427	-116.749	0.113	-0.021
-553.412	311.588	0.063	-0.118
-552.398	-38.461	0.258	0.136
-551.383	-200.000	-0.030	-0.192
-550.369	-200.000	-0.092	0.484
-549.354	-200.000	0.051	0.307
-548.339	147.306	0.171	0.230
-547.325	800.000	-0.032	-0.125
-546.310	800.000	0.030	0.127
-545.296	-30.392	-0.068	0.039
-544.281	-58.704	-0.160	-0.069
-543.266	303.321	0.016	-0.029
-542.252	78.978	0.061	0.065
-541.237	-181.713	-0.177	0.003
-540.223	-103.033	0.421	0.100
-539.208	-104.954	-0.145	-0.033
-538.193	-104.342	-0.094	-0.022
-537.179	-27.387	-0.276	0.160
-536.164	-200.000	0.015	0.088
-535.150	-200.000	0.022	-0.353
-534.135	-200.000	-0.020	0.287
-533.121	-84.757	-0.397	0.125
-532.106	277.216	0.069	0.122
-531.091	-90.763	-0.153	0.044
-530.077	14.395	-0.206	-0.160
-529.062	-39.781	-0.128	-0.067
-528.048	-97.692	0.302	-0.078
-527.033	158.514	0.196	-0.271
-526.018	-127.443	0.261	0.038
-525.004	800.000	0.057	0.184
-523.989	34.204	-0.063	-0.055
-522.975	124.554	-0.047	-0.059
-521.960	54.200	0.153	-0.147
-520.945	-81.682	-0.054	-0.018
-519.931	-45.107	0.059	0.029
-518.916	84.273	0.337	0.368
-517.902	432.800	0.101	-0.220
-516.887	275.337	-0.149	-0.264
-515.872	-91.456	0.073	0.021
-514.858	676.269	0.026	0.066
-513.843	38.195	-0.248	0.220
-512.829	-35.797	-0.310	-0.167
-511.814	-145.205	0.227	-0.021
-510.799	-2.559	0.104	0.073
-509.785	-200.000	0.049	-0.426
-508.770	800.000	0.020	-0.057
-507.756	-61.220	0.071	0.030
-506.741	-200.000	-0.070	0.580
-505.726	259.375	-0.074	0.127
-504.712	-110.441	0.342	-0.071
-503.697	-102.285	-0.151	0.036
-502.683	-200.000	-0.080	-0.568
-501.668	189.496	0.293	-0.438
-500.653	800.000	0.105	0.407
-499.639	244.340	-0.162	-0.271
-498.624	-200.000	0.007	-0.132
-497.610	-200.000	-0.023	0.169
-496.595	-200.000	0.028	-0.155
-495.581	-67.620	-0.240	-0.094
-494.566	-6.076	-0.271	0.184
-493.551	-4.712	0.183	0.126
-492.537	-75.698	0.323	0.114
-491.522	800.000	0.088	-0.261
-490.508	-48.708	-0.290	-0.139
-489.493	-162.244	0.004	-0.000
-488.478	-18.288	0.446	-0.278
-487.464	-91.917	0.094	-0.026
-486.449	86.272	-0.188	0.207
-485.435	-153.961	-0.132	0.009
-484.420	800.000	-0.095	0.280
-483.405	-163.897	0.235	0.011
-482.391	-200.000	-0.022	-0.184
-481.376	-200.000	0.000	0.010
-480.362	-61.670	0.278	-0.116
-479.347	82.230	-0.160	-0.172
-478.332	-200.000	0.019	0.118
-477.318	120.055	-0.162	-0.200
-476.303	132.029	0.092	-0.118
-475.289	-114.694	0.230	-0.044
-474.274	800.000	0.055	0.162
-473.259	90.896	0.193	-0.216
-472.245	-8.714	0.090	0.060
-471.230	-5.527	-0.149	0.102
-470.216	-50.443	-0.193	0.091
-469.201	-32.063	-0.165	0.092
-468.186	39.564	0.086	0.077
-467.172	31.032	-0.298	0.255
-466.157	263.708	0.092	0.160
-465.143	3.945	-0.177	0.129
-464.128	-6.710	-0.170	0.115
-463.113	-98.325	0.176	0.045
-462.099	65.992	0.290	0.293
-461.084	49.664	0.147	0.138
-460.070	-57.940	0.190	0.082
-459.055	88.640	0.242	-0.268
-458.040	6.432	0.042	-0.031
-457.026	-200.000	-0.050	-0.353
-456.011	-200.000	0.003	0.205
-454.997	-137.953	0.230	0.026
-453.982	-200.000	-0.033	0.174
-452.968	-147.971	0.198	0.016
-451.953	-200.000	-0.014	-0.157
-450.938	800.000	-0.008	0.033
-449.924	-100.392	-0.121	0.030
-448.909	-38.621	0.181	-0.095
-447.895	224.357	0.092	0.147
-446.880	225.724	-0.124	0.200
-445.865	0.173	0.111	-0.079
-444.851	241.997	-0.276	-0.459
-443.836	-83.120	-0.005	-0.002
-442.822	-142.784	-0.174	0.017
-441.807	175.396	0.140	0.201
-440.792	-192.393	-0.164	-0.002
-439.778	-80.994	0.106	-0.035
-438.763	101.377	0.065	0.075
-437.749	192.786	-0.151	0.226
-436.734	6.233	0.263	0.194
-435.719	80.640	-0.026	-0.028
-434.705	749.593	0.021	-0.057
-433.690	-200.000	-0.003	-0.091
-432.676	41.307	-0.274	0.247
-431.661	14.389	0.019	-0.015
-430.646	304.733	0.179	0.331
-429.632	-110.762	0.172	-0.035
-428.617	-23.853	0.073	0.044
-427.603	-200.000	0.033	0.386
-426.588	-72.618	0.357	-0.131
-425.573	-139.877	-0.157	-0.016
-424.559	245.145	0.068	-0.113
-423.544	-3.196	-0.329	-0.228
-422.530	-200.000	0.015	-0.162
-421.515	-48.427	-0.144	-0.069
-420.500	-110.297	-0.463	0.096
-419.486	-86.828	0.319	0.097
-418.471	-200.000	0.025	-0.284
-417.457	-90.199	0.135	-0.039
-416.442	-200.000	-0.038	0.196
-415.428	-200.000	-0.027	-0.143
-414.413	-20.025	-0.415	0.255
-413.398	-5.688	-0.136	0.093
-412.384	31.654	0.139	0.118
-411.369	70.065	0.315	0.324
-410.355	-200.000	-0.022	0.206
-409.340	-114.642	-0.167	0.032
-408.325	73.573	0.184	0.191
-407.311	800.000	0.060	-0.244
-406.296	-76.512	-0.123	0.043
-405.282	-110.387	-0.036	-0.007
-404.267	-133.869	-0.130	-0.016
-403.252	-34.281	0.201	-0.110
-402.238	7.844	0.193	0.144
-401.223	-200.000	0.045	0.253
-400.209	48.599	0.070	0.065
-399.194	-27.898	-0.070	0.040
-398.179	-154.970	-0.092	-0.006
-397.165	-29.254	0.255	-0.145
-396.150	-148.558	-0.057	-0.005
-395.136	-79.958	-0.053	0.018
-394.121	800.000	-0.071	0.231
-393.106	-151.470	-0.063	-0.005
-392.092	46.527	0.156	-0.144
-391.077	16.929	-0.139	-0.109
-390.063	-108.852	-0.277	0.059
-389.048	-200.000	-0.017	0.345
-388.033	-173.624	-0.263	0.008
-387.019	-13.433	-0.298	0.192
-386.004	46.634	0.091	-0.084
-384.990	-154.132	-0.159	-0.011
-383.975	430.152	0.188	-0.405
-382.960	800.000	0.043	-0.127
-381.946	-26.063	0.376	0.220
-380.931	20.415	0.311	0.250
-379.917	454.030	-0.113	-0.249
-378.902	-200.000	-0.034	-0.246
-377.888	25.979	-0.165	-0.136
-376.873	-135.914	-0.012	-0.001
-375.858	-104.795	0.067	0.015
-374.844	-200.000	-0.009	-0.048
-373.829	-146.847	-0.458	-0.039
-372.815	151.900	-0.085	0.115
-371.800	167.238	-0.019	-0.027
-370.785	24.425	0.159	0.130
-369.771	-200.000	0.031	-0.178
-368.756	800.000	0.069	-0.292
-367.742	-200.000	-0.027	0.159
-366.727	-200.000	-0.001	0.060
-365.712	-200.000	-0.025	-0.213
-364.698	-200.000	0.035	0.220
-363.683	800.000	-0.044	0.148
-362.669	-66.986	-0.512	0.201
-361.654	41.900	0.247	0.223
-360.639	40.927	-0.248	0.222
-359.625	51.581	-0.111	0.105
-358.610	800.000	0.087	-0.247
-357.596	-18.014	0.178	-0.111
-356.581	203.014	-0.099	-0.152
-355.566	-98.725	0.274	-0.069
-354.552	-113.461	0.600	-0.117
-353.537	-2.786	-0.386	0.267
-352.523	193.421	-0.206	0.309
-351.508	-8.236	0.104	-0.070
-350.493	467.272	0.118	-0.263
-349.479	-145.800	-0.270	0.024
-348.464	-5.274	0.120	-0.082
-347.450	-35.442	0.137	-0.074
-346.435	56.119	-0.164	0.157
-345.420	-149.692	-0.163	0.013
-344.406	800.000	0.068	-0.246
-343.391	-90.374	0.316	0.091
-342.377	-122.028	-0.341	-0.055
-341.362	-72.882	-0.221	-0.081
-340.348	-200.000	-0.005	-0.162
-339.333	-175.700	0.674	-0.018
-338.318	-200.000	-0.003	-0.062
-337.304	127.263	0.211	0.265
-336.289	-12.571	-0.348	-0.225
-335.275	14.172	0.172	-0.133
-334.260	-54.812	-0.272	-0.122
-333.245	-22.912	0.253	-0.151
-332.231	-0.019	-0.175	-0.124
-331.216	800.000	-0.107	0.436
-330.202	428.035	-0.136	0.292
-329.187	13.384	-0.143	0.110
-328.172	-200.000	-0.009	0.074
-327.158	-98.774	0.339	0.085
-326.143	-148.562	-0.202	0.016
-325.129	-171.977	0.169	0.005
-324.114	-31.221	-0.161	-0.090
-323.099	-200.000	-0.041	0.204
-322.085	-76.964	-0.119	0.041
-321.070	-200.000	0.012	-0.177
-320.056	401.755	-0.139	0.289
-319.041	-113.598	-0.150	-0.029
-318.026	-0.844	-0.186	0.131
-317.012	-116.633	-0.104	-0.019
-315.997	-200.000	-0.099	-0.450
-314.983	69.663	-0.079	-0.080
-313.968	304.279	0.044	-0.081
-312.953	-61.862	0.207	0.086
-311.939	212.586	0.055	-0.086
-310.924	216.439	-0.144	-0.226
-309.910	-78.024	0.177	0.060
-308.895	140.602	-0.160	0.209
-307.880	-40.429	0.292	-0.150
-306.866	-200.000	-0.003	0.109
-305.851	800.000	0.145	-0.458
-304.837	10.327	-0.206	-0.155
-303.822	800.000	-0.053	0.191
-302.807	-200.000	0.056	0.414
-301.793	-109.766	-0.159	-0.033
-300.778	-63.923	-0.197	-0.080
-299.764	173.122	0.132	-0.188
-298.749	60.543	0.139	-0.136
-297.735	-30.520	-0.346	-0.194
-296.720	461.731	0.019	0.043
-295.705	14.100	0.050	0.039
-294.691	23.925	-0.175	0.143
-293.676	-200.000	-0.013	-0.097
-292.662	60.804	-0.064	-0.063
-291.647	-74.765	-0.254	-0.090
-290.632	500.840	0.129	0.295
-289.618	-64.749	0.218	-0.087
-288.603	-31.859	-0.212	-0.117
-287.589	-161.380	-0.249	0.013
-286.574	-122.044	0.222	0.036
-285.559	189.493	-0.104	0.155
-284.545	-73.614	0.421	-0.152
-283.530	800.000	-0.059	-0.200
-282.516	-134.809	0.071	-0.009
-281.501	91.898	-0.318	0.354
-280.486	194.284	0.143	-0.214
-279.472	126.945	-0.044	0.055
-278.457	800.000	0.088	-0.303
-277.443	800.000	-0.039	0.165
-276.428	-138.078	-0.334	0.037
-275.413	-54.539	-0.330	0.148
-274.399	-200.000	0.046	0.221
-273.384	45.621	-0.039	0.035
-272.370	263.219	-0.210	-0.361
-271.355	107.709	-0.112	0.132
-270.340	-24.495	-0.121	-0.071
-269.326	-122.255	-0.044	-0.007
-268.311	-85.794	-0.344	0.105
-267.297	296.044	0.122	-0.221
-266.282	-12.183	0.038	0.025
-265.267	169.301	-0.212	-0.299
-264.253	-46.247	-0.129	0.063
-263.238	721.937	-0.133	0.349
-262.224	-200.000	0.054	0.408
-261.209	-70.705	0.281	0.105
-260.195	-112.631	-0.523	0.103
-259.180	785.085	-0.104	0.282
-258.165	2.688	-0.247	0.177
-257.151	33.154	0.030	0.026
-256.136	-95.808	0.074	0.020
-255.122	5.687	-0.083	-0.060
-254.107	-112.511	-0.173	-0.034
-253.092	-149.939	-0.142	-0.011
-252.078	-200.000	0.015	-0.149
-251.063	-48.092	0.205	-0.098
-250.049	-55.227	0.080	-0.035
-249.034	-22.758	0.167	-0.100
-248.019	-83.559	-0.290	0.092
-247.005	-93.151	0.231	-0.063
-245.990	509.990	-0.062	0.142
-244.976	-194.132	0.310	0.003
-243.961	-48.724	0.345	0.164
-242.946	-22.752	-0.241	0.144
-241.932	311.921	-0.164	0.304
-240.917	-178.923	0.087	-0.002
-239.903	800.000	-0.045	0.195
-238.888	51.780	0.135	0.127
-237.873	-200.000	0.014	-0.296
-236.859	-42.512	0.211	0.106
-235.844	-81.288	-0.317	-0.103
-234.830	59.828	0.210	0.205
-233.815	-92.282	0.155	-0.043
-232.800	191.402	0.179	0.266
-231.786	-29.622	0.130	-0.073
-230.771	57.711	0.158	0.153
-229.757	-91.637	0.255	0.072
-228.742	-200.000	-0.014	0.111
-227.727	89.499	0.307	0.337
-226.713	-200.000	0.002	0.277
-225.698	800.000	-0.088	0.282
-224.684	-137.949	0.271	-0.030
-223.669	-200.000	-0.373	-0.000
-222.655	-200.000	-0.015	0.343
-221.640	-48.220	-0.054	0.026
-220.625	-200.000	0.018	-0.124
-219.611	-42.988	-0.105	0.053
-218.596	800.000	0.015	0.051
-217.582	230.390	0.057	0.093
-216.567	433.414	0.079	0.169
-215.552	751.278	-0.072	0.191
-214.538	-128.931	0.043	0.006
-213.523	178.236	-0.095	0.137
-212.509	66.833	-0.092	0.092
-211.494	26.211	0.188	0.155
-210.479	-25.102	-0.046	-0.027
-209.465	-144.824	-0.227	-0.021
-208.450	-29.133	-0.300	-0.170
-207.436	612.150	0.159	0.393
-206.421	-85.656	0.090	-0.027
-205.406	-200.000	-0.010	0.088
-204.392	70.010	-0.126	-0.128
-203.377	-200.000	0.041	-0.228
-202.363	-99.676	0.332	-0.082
-201.348	-94.604	0.215	0.058
-200.333	-11.023	0.181	-0.118
-199.319	-200.000	-0.004	0.068
-198.304	-91.002	-0.202	-0.057
-197.290	3.165	0.169	0.121
-196.275	-19.274	-0.113	-0.069
-195.260	-200.000	0.043	-0.387
-194.246	800.000	0.039	-0.159
-193.231	800.000	0.030	0.126
-192.217	800.000	0.049	-0.159
-191.202	-200.000	0.062	0.362
-190.187	578.747	0.109	0.263
-189.173	-200.000	0.054	-0.242
-188.158	-200.000	-0.026	-0.186
-187.144	-200.000	0.013	0.070
-186.129	138.170	0.244	-0.316
-185.114	800.000	0.020	-0.081
-184.100	-200.000	-0.030	0.287
-183.085	-34.245	0.325	-0.176
-182.071	470.404	0.081	0.180
-181.056	-200.000	-0.032	-0.144
-180.042	-200.000	0.075	-0.000
-179.027	-120.072	0.274	0.046
-178.012	-120.410	-0.059	0.010
-176.998	-200.000	0.077	0.384
-175.983	-116.658	0.315	-0.057
-174.969	9.723	-0.135	-0.101
-173.954	-102.440	-0.305	-0.072
-172.939	-200.000	0.071	0.504
-171.925	-175.729	-0.056	-0.001
-170.910	30.051	-0.229	-0.193
-169.896	42.313	0.109	0.098
-168.881	66.585	-0.135	0.136
-167.866	35.764	-0.073	0.063
-166.852	-109.338	-0.188	-0.039
-165.837	48.343	0.146	-0.134
-164.823	-170.157	-0.214	-0.007
-163.808	-80.216	0.377	-0.124
-162.793	-129.045	0.016	0.002
-161.779	-200.000	0.013	0.194
-160.764	-66.763	-0.183	0.071
-159.750	800.000	0.044	0.150
-158.735	-47.539	0.163	-0.078
-157.720	-158.474	0.143	-0.008
-156.706	9.522	-0.206	0.153
-155.691	800.000	0.044	-0.125
-154.677	-45.493	0.236	0.115
-153.662	-200.000	0.034	0.157
-152.647	216.169	0.096	0.151
-151.633	-200.000	0.045	-0.321
-150.618	88.255	-0.192	-0.209
-149.604	800.000	0.065	0.216
-148.589	-6.909	0.195	-0.130
-147.574	-34.543	-0.129	0.070
-146.560	133.195	-0.252	-0.321
-145.545	-200.000	0.045	0.236
-144.531	0.773	0.122	0.086
-143.516	-200.000	-0.008	0.079
-142.502	-45.934	-0.224	-0.109
-141.487	800.000	0.075	0.228
-140.472	283.423	0.260	0.458
-139.458	-200.000	-0.023	0.374
-138.443	152.715	0.275	-0.369
-137.429	-70.085	0.094	-0.035
-136.414	-57.589	-0.195	0.084
-135.399	138.530	0.085	0.110
-134.385	-200.000	-0.004	0.108
-133.370	-59.045	-0.246	0.105
-132.356	-76.220	0.301	0.104
-131.341	457.310	-0.030	0.065
-130.326	-141.429	-0.301	-0.030
-129.312	295.582	-0.045	0.082
-128.297	379.871	-0.118	0.238
-127.283	-46.014	-0.223	0.108
-126.268	-167.993	-0.365	0.014
-125.253	800.000	-0.129	-0.363
-124.239	111.677	0.185	-0.220
-123.224	-200.000	0.005	0.196
-122.210	-200.000	0.028	-0.135
