DTS Sentinel unit serial number:	SN413079Multiplexer serial number:	ORYXHardware model number:	OX4-SRSoftware version number:	ORYX F/W v4.00 Oryx Data Collector v3.7.2.0data status	okinstallation	princeton_trtdifferential loss correction	single-endedforward channel	channel 2reverse channel	N/Adate	2019/09/15time	07:03:35forward acquisition time	60.00reverse acquisition time	0.00gamma	496.2192k internal	0.2326k external	0.2326temperature offset calibration	1.0030default loss term (dB/km)	0.3790temperature slope calibration	1.0000multiplexer offset coefficient	1.0000multiplexer slope coefficient	1.0000fibre end	0.00T internal ref (°C)	30.50T ext. ref 1 (°C)	4.87T ext. ref 2 (°C)	25.62length (m)	temperature (°C)	Stokes	anti-Stokes-747.200	-95.786	-0.148	-0.040
-746.185	-200.000	0.046	0.240
-745.171	800.000	-0.069	-0.225
-744.156	800.000	0.084	0.280
-743.142	-66.401	0.062	0.025
-742.127	-200.000	0.005	-0.086
-741.112	269.062	0.129	-0.228
-740.098	-77.933	-0.269	-0.093
-739.083	-101.301	-0.328	-0.081
-738.069	-94.098	0.214	-0.059
-737.054	-200.000	-0.001	-0.064
-736.039	187.944	-0.335	-0.504
-735.025	-17.400	0.304	0.193
-734.010	20.003	-0.099	0.081
-732.996	2.767	-0.180	-0.131
-731.981	41.708	0.132	0.120
-730.966	-171.268	-0.353	-0.012
-729.952	-137.345	0.102	0.012
-728.937	-36.224	-0.147	-0.080
-727.923	709.232	0.060	-0.160
-726.908	380.649	-0.171	-0.354
-725.894	302.637	-0.152	-0.284
-724.879	9.380	0.119	-0.090
-723.864	-116.760	-0.357	0.066
-722.850	-19.096	-0.197	-0.123
-721.835	-64.455	-0.231	0.095
-720.821	-182.039	0.199	-0.004
-719.806	-66.948	-0.336	-0.134
-718.791	-107.771	-0.189	-0.042
-717.777	-14.038	-0.168	-0.109
-716.762	-177.234	0.335	0.008
-715.748	4.253	-0.062	0.046
-714.733	-200.000	-0.014	-0.337
-713.718	152.362	-0.221	-0.304
-712.704	-96.605	-0.046	-0.012
-711.689	-73.372	-0.132	-0.048
-710.675	88.634	-0.148	-0.166
-709.660	309.461	-0.155	0.292
-708.645	-66.664	0.175	0.070
-707.631	106.290	0.083	0.099
-706.616	257.256	-0.214	-0.370
-705.602	77.311	0.157	0.168
-704.587	259.495	-0.251	-0.436
-703.572	800.000	0.072	-0.307
-702.558	-116.267	0.157	-0.029
-701.543	800.000	-0.052	0.161
-700.529	603.030	-0.074	0.185
-699.514	-200.000	0.031	0.171
-698.499	-90.635	-0.113	-0.033
-697.485	-200.000	-0.004	-0.194
-696.470	-40.120	-0.209	-0.110
-695.456	800.000	-0.034	0.108
-694.441	-200.000	0.038	-0.263
-693.426	219.437	0.161	-0.259
-692.412	-200.000	0.010	-0.162
-691.397	283.059	-0.056	0.102
-690.383	800.000	-0.093	-0.291
-689.368	425.316	0.098	-0.211
-688.354	-69.348	-0.078	-0.030
-687.339	99.145	-0.162	0.188
-686.324	800.000	-0.072	-0.301
-685.310	-59.840	0.194	-0.083
-684.295	-8.048	-0.262	0.178
-683.281	533.597	0.151	-0.360
-682.266	199.048	-0.116	-0.179
-681.251	80.633	0.222	-0.241
-680.237	133.592	0.138	-0.179
-679.222	-200.000	0.013	-0.408
-678.208	-141.540	-0.258	-0.026
-677.193	96.038	0.179	-0.206
-676.178	800.000	-0.108	-0.309
-675.164	-33.943	0.218	0.121
-674.149	-200.000	0.050	0.248
-673.135	-5.657	0.221	0.152
-672.120	52.673	-0.092	-0.089
-671.105	-128.315	-0.141	-0.020
-670.091	63.006	0.047	0.047
-669.076	800.000	-0.069	-0.220
-668.062	800.000	0.021	-0.060
-667.047	209.615	0.171	-0.270
-666.032	-153.700	-0.190	-0.013
-665.018	-200.000	0.030	-0.239
-664.003	-119.161	-0.244	0.043
-662.989	-26.331	-0.186	-0.110
-661.974	-122.105	0.062	0.010
-660.959	-136.695	0.194	0.022
-659.945	-104.720	-0.359	-0.083
-658.930	399.409	-0.155	0.326
-657.916	532.170	-0.032	-0.076
-656.901	-5.007	-0.235	-0.163
-655.886	-200.000	0.005	0.137
-654.872	-2.034	-0.064	-0.045
-653.857	261.989	0.131	-0.228
-652.843	-200.000	0.055	0.722
-651.828	800.000	-0.011	0.031
-650.814	146.168	-0.070	0.095
-649.799	-76.053	0.277	0.098
-648.784	75.006	-0.101	-0.106
-647.770	-140.701	-0.118	0.012
-646.755	800.000	0.071	0.308
-645.741	302.636	0.074	0.138
-644.726	64.678	0.257	-0.260
-643.711	-33.024	0.147	0.082
-642.697	331.392	-0.087	-0.169
-641.682	282.252	-0.096	0.172
-640.668	-146.045	-0.140	0.012
-639.653	87.573	0.119	-0.133
-638.638	-115.160	0.279	0.053
-637.624	-82.573	-0.131	0.043
-636.609	-75.474	-0.283	-0.101
-635.595	123.226	0.111	0.140
-634.580	169.746	-0.061	-0.087
-633.565	-200.000	0.041	-0.222
-632.551	77.588	0.052	-0.056
-631.536	-200.000	-0.043	0.637
-630.522	274.865	0.071	0.127
-629.507	-200.000	-0.013	-0.176
-628.492	-200.000	-0.011	0.301
-627.478	-200.000	-0.009	0.153
-626.463	120.993	-0.159	-0.198
-625.449	329.426	0.084	0.162
-624.434	56.698	-0.080	-0.078
-623.419	800.000	-0.138	-0.470
-622.405	207.401	-0.182	-0.286
-621.390	218.758	-0.206	-0.330
-620.376	50.945	-0.071	0.067
-619.361	53.684	-0.111	0.107
-618.346	-117.379	-0.199	0.036
-617.332	780.269	0.068	-0.188
-616.317	-115.711	-0.223	0.042
-615.303	-139.115	-0.254	0.028
-614.288	753.424	0.065	-0.176
-613.273	180.788	-0.088	0.130
-612.259	4.930	-0.286	-0.211
-611.244	-3.472	0.074	-0.051
-610.230	19.133	0.175	-0.141
-609.215	-113.348	0.288	0.057
-608.201	521.380	-0.082	-0.192
-607.186	-0.030	-0.182	-0.130
-606.171	-166.523	-0.140	-0.006
-605.157	800.000	0.024	0.068
-604.142	-90.197	-0.212	0.062
-603.128	58.495	-0.126	-0.124
-602.113	-98.364	-0.201	0.052
-601.098	800.000	0.137	-0.580
-600.084	-178.335	0.193	0.005
-599.069	220.584	-0.119	0.192
-598.055	-151.027	-0.292	-0.022
-597.040	538.955	-0.109	0.260
-596.025	70.677	0.072	-0.074
-595.011	-14.635	-0.172	-0.111
-593.996	82.192	-0.085	0.092
-592.982	800.000	-0.008	0.029
-591.967	-104.612	-0.138	0.032
-590.952	54.779	-0.106	0.102
-589.938	-60.215	-0.236	-0.101
-588.923	-184.401	-0.185	0.003
-587.909	-52.708	0.105	-0.049
-586.894	-200.000	0.016	-0.152
-585.879	-108.717	0.326	0.070
-584.865	-163.951	0.176	-0.008
-583.850	-169.893	-0.531	-0.019
-582.836	16.589	-0.285	0.226
-581.821	250.298	0.143	0.244
-580.806	800.000	-0.048	0.148
-579.792	146.864	0.040	0.054
-578.777	-200.000	-0.007	-0.207
-577.763	800.000	-0.104	-0.353
-576.748	800.000	-0.039	-0.133
-575.733	-200.000	0.001	0.244
-574.719	197.477	-0.092	-0.141
-573.704	-49.663	-0.145	-0.069
-572.690	226.009	-0.102	-0.166
-571.675	140.711	-0.219	-0.290
-570.661	129.065	0.095	0.121
-569.646	-25.283	0.185	-0.110
-568.631	800.000	0.024	0.101
-567.617	-85.964	0.353	-0.109
-566.602	-33.296	0.087	-0.048
-565.588	114.769	0.203	0.248
-564.573	-111.423	-0.108	-0.022
-563.558	-94.333	-0.431	-0.118
-562.544	201.991	-0.135	0.209
-561.529	338.258	0.160	-0.312
-560.515	-78.159	0.117	0.040
-559.500	-200.000	-0.032	0.209
-558.485	-34.959	-0.140	-0.076
-557.471	-74.077	0.077	0.028
-556.456	260.583	-0.221	-0.383
-555.442	402.046	-0.039	-0.081
-554.427	479.084	0.056	-0.128
-553.412	24.101	0.076	0.063
-552.398	255.886	-0.185	-0.317
-551.383	719.991	0.074	0.196
-550.369	54.204	-0.090	0.087
-549.354	800.000	0.032	-0.111
-548.339	-78.556	0.277	0.095
-547.325	181.648	0.173	0.254
-546.310	-14.621	-0.284	0.183
-545.296	-155.106	0.212	-0.014
-544.281	-200.000	0.033	-0.335
-543.266	-200.000	-0.031	-0.394
-542.252	31.472	-0.221	0.190
-541.237	20.115	0.065	0.053
-540.223	-44.818	-0.051	-0.026
-539.208	-117.255	0.070	0.013
-538.193	-29.277	-0.134	0.077
-537.179	-200.000	0.010	0.135
-536.164	1.267	0.103	-0.074
-535.150	800.000	-0.052	-0.185
-534.135	800.000	-0.063	-0.201
-533.121	-99.201	-0.017	-0.004
-532.106	-54.051	0.323	-0.147
-531.091	318.795	0.146	-0.277
-530.077	318.213	0.105	-0.198
-529.062	-75.278	-0.108	0.039
-528.048	328.901	-0.185	-0.355
-527.033	-21.828	0.143	0.087
-526.018	-200.000	0.013	-0.065
-525.004	97.060	-0.077	-0.088
-523.989	157.054	0.105	-0.145
-522.975	800.000	0.127	0.398
-521.960	-32.776	-0.150	-0.083
-520.945	-39.785	-0.192	-0.100
-519.931	-93.393	-0.108	-0.030
-518.916	248.909	0.198	0.335
-517.902	122.070	0.289	0.361
-516.887	300.985	-0.046	-0.085
-515.872	-117.792	0.380	-0.068
-514.858	800.000	-0.073	-0.213
-513.843	-200.000	-0.015	0.123
-512.829	-79.282	-0.117	0.040
-511.814	641.567	-0.036	-0.092
-510.799	55.791	-0.259	0.251
-509.785	407.620	0.124	0.261
-508.770	-200.000	0.087	-0.390
-507.756	-200.000	0.034	-0.269
-506.741	166.589	0.031	0.044
-505.726	-61.763	-0.169	0.071
-504.712	300.881	0.057	-0.106
-503.697	-173.085	-0.461	-0.014
-502.683	182.989	-0.138	-0.203
-501.668	130.719	0.253	0.324
-500.653	-145.886	0.064	-0.006
-499.639	-200.000	-0.015	-0.067
-498.624	-151.817	-0.321	-0.024
-497.610	-136.199	-0.079	0.009
-496.595	-200.000	0.019	0.116
-495.581	335.841	0.176	0.342
-494.566	242.364	0.195	0.325
-493.551	-14.510	0.244	-0.157
-492.537	-78.296	-0.113	-0.039
-491.522	384.284	0.153	-0.314
-490.508	342.546	0.147	-0.288
-489.493	365.366	0.063	0.127
-488.478	116.486	-0.027	-0.033
-487.464	-16.879	0.218	-0.138
-486.449	800.000	0.083	0.342
-485.435	-114.158	0.258	0.050
-484.420	-115.398	-0.316	0.059
-483.405	453.952	0.080	0.177
-482.391	48.098	0.338	-0.316
-481.376	-200.000	0.012	0.183
-480.362	-5.381	0.376	-0.257
-479.347	800.000	-0.062	-0.264
-478.332	800.000	0.061	-0.258
-477.318	800.000	0.133	0.380
-476.303	198.886	0.172	0.262
-475.289	-26.588	-0.049	0.029
-474.274	800.000	0.060	0.207
-473.259	-200.000	-0.004	-0.249
-472.245	473.206	-0.066	-0.149
-471.230	-85.140	0.215	0.067
-470.216	-64.256	-0.136	0.055
-469.201	-190.472	-0.144	0.002
-468.186	-151.718	0.403	-0.030
-467.172	-3.410	0.133	0.092
-466.157	-124.971	0.135	0.021
-465.143	-200.000	0.026	0.177
-464.128	684.144	-0.083	0.216
-463.113	-93.426	0.307	0.085
-462.099	-101.873	0.304	-0.073
-461.084	589.414	0.156	0.383
-460.070	339.441	-0.112	0.217
-459.055	-200.000	-0.037	0.238
-458.040	800.000	0.086	0.259
-457.026	-40.596	0.131	0.068
-456.011	800.000	-0.062	0.199
-454.997	-102.990	0.302	-0.071
-453.982	118.571	0.026	0.033
-452.968	-71.334	0.357	-0.134
-451.953	58.376	0.175	-0.171
-450.938	-200.000	-0.034	-0.194
-449.924	-89.578	-0.197	-0.058
-448.909	41.664	-0.138	-0.125
-447.895	517.486	0.113	-0.264
-446.880	-148.616	-0.348	-0.028
-445.865	-34.503	0.154	0.084
-444.851	718.267	0.057	-0.152
-443.836	-35.976	0.100	0.054
-442.822	-144.606	-0.149	-0.014
-441.807	800.000	0.040	-0.154
-440.792	800.000	-0.127	0.423
-439.778	-58.400	-0.162	-0.070
-438.763	-48.889	0.208	-0.099
-437.749	-108.622	0.283	-0.061
-436.734	-82.249	0.072	-0.023
-435.719	-40.342	0.170	0.088
-434.705	230.032	0.143	-0.233
-433.690	214.654	-0.154	-0.244
-432.676	54.092	0.031	0.030
-431.661	800.000	0.072	-0.279
-430.646	-120.138	-0.120	-0.020
-429.632	744.977	-0.089	-0.239
-428.617	5.976	0.112	-0.083
-427.603	0.851	0.275	0.196
-426.588	-200.000	0.064	-0.346
-425.573	-200.000	0.002	-0.053
-424.559	-200.000	-0.014	0.080
-423.544	-76.534	-0.110	0.038
-422.530	109.593	-0.047	0.056
-421.515	432.086	0.084	0.181
-420.500	32.605	0.223	0.192
-419.486	-101.734	0.272	0.066
-418.471	56.018	0.078	-0.076
-417.457	-77.199	0.093	0.032
-416.442	-72.367	0.075	0.028
-415.428	460.992	0.134	0.298
-414.413	84.141	-0.150	0.163
-413.398	118.583	0.065	-0.080
-412.384	158.891	-0.069	-0.095
-411.369	75.198	0.132	-0.139
-410.355	800.000	0.145	0.633
-409.340	200.415	0.155	-0.237
-408.325	-38.083	-0.127	-0.067
-407.311	-200.000	0.002	0.088
-406.296	391.304	-0.102	-0.211
-405.282	-10.407	-0.058	0.038
-404.267	7.388	0.350	0.260
-403.252	195.491	-0.040	-0.061
-402.238	-200.000	0.024	0.111
-401.223	-17.280	-0.217	0.136
-400.209	-73.775	-0.093	0.034
-399.194	18.470	0.067	-0.053
-398.179	-200.000	-0.010	-0.057
-397.165	-200.000	0.030	0.359
-396.150	-26.805	-0.444	0.259
-395.136	34.969	-0.243	-0.212
-394.121	-200.000	-0.039	-0.331
-393.106	-85.703	0.393	-0.121
-392.092	-107.352	-0.100	0.022
-391.077	96.301	0.205	-0.233
-390.063	388.996	0.163	-0.335
-389.048	24.327	0.067	-0.055
-388.033	29.790	-0.226	-0.192
-387.019	-182.650	-0.463	-0.008
-386.004	-195.611	-0.276	0.002
-384.990	4.954	-0.220	0.161
-383.975	800.000	-0.109	0.310
-382.960	800.000	0.025	0.082
-381.946	-167.883	-0.089	0.003
-380.931	-67.740	0.218	0.085
-379.917	538.859	0.120	-0.285
-378.902	-7.695	-0.374	-0.251
-377.888	-200.000	0.021	0.091
-376.873	800.000	-0.037	0.109
-375.858	533.384	-0.038	-0.090
-374.844	-200.000	-0.019	-0.123
-373.829	-190.943	-0.364	-0.004
-372.815	-200.000	0.002	-0.167
-371.800	-100.699	0.224	0.055
-370.785	44.340	0.254	0.232
-369.771	-69.147	-0.214	0.082
-368.756	6.877	-0.058	0.043
-367.742	99.272	-0.033	0.037
-366.727	-200.000	0.014	-0.180
-365.712	-200.000	0.073	0.329
-364.698	-200.000	-0.038	0.195
-363.683	-140.487	0.331	0.034
-362.669	800.000	0.053	0.175
-361.654	218.602	0.129	-0.205
-360.639	59.267	0.040	-0.039
-359.625	584.493	0.133	-0.324
-358.610	800.000	-0.158	0.513
-357.596	-182.258	0.196	0.004
-356.581	-103.123	0.300	-0.071
-355.566	800.000	-0.041	-0.149
-354.552	-75.591	-0.114	-0.040
-353.537	-184.672	0.079	0.001
-352.523	358.636	0.086	0.171
-351.508	35.582	-0.232	0.202
-350.493	800.000	-0.074	0.248
-349.479	41.011	-0.203	-0.182
-348.464	14.913	0.136	0.106
-347.450	-3.071	-0.124	-0.086
-346.435	392.830	0.093	0.191
-345.420	441.878	-0.089	-0.193
-344.406	653.786	-0.041	0.105
-343.391	44.323	0.192	0.175
-342.377	800.000	-0.143	0.395
-341.362	-26.955	-0.061	-0.035
-340.348	-124.403	-0.076	-0.012
-339.333	214.139	0.047	-0.074
-338.318	39.825	0.145	-0.130
-337.304	-200.000	0.043	-0.270
-336.289	-200.000	0.013	0.112
-335.275	-77.875	-0.259	0.089
-334.260	99.797	-0.070	0.081
-333.245	61.416	0.190	0.188
-332.231	-78.091	-0.117	0.040
-331.216	-194.586	-0.048	-0.000
-330.202	-19.805	-0.192	-0.118
-329.187	-120.876	0.239	0.040
-328.172	-200.000	0.027	0.151
-327.158	498.359	0.077	0.176
-326.143	-55.730	-0.189	0.084
-325.129	40.275	-0.262	-0.233
-324.114	-200.000	-0.009	-0.267
-323.099	62.407	-0.263	0.261
-322.085	800.000	0.095	-0.379
-321.070	124.078	0.024	-0.029
-320.056	-139.920	0.231	-0.024
-319.041	328.242	0.053	0.101
-318.026	-54.507	0.252	-0.113
-317.012	1.934	0.061	0.044
-315.997	800.000	0.066	0.274
-314.983	-138.348	0.296	0.032
-313.968	296.164	0.064	-0.116
-312.953	-36.116	-0.138	0.074
-311.939	496.702	0.083	-0.190
-310.924	800.000	0.081	-0.330
-309.910	-100.406	-0.354	-0.087
-308.895	-23.024	-0.244	0.146
-307.880	78.240	0.094	0.100
-306.866	125.368	-0.157	-0.197
-305.851	-200.000	-0.004	0.087
-304.837	-50.724	-0.209	-0.097
-303.822	-38.501	-0.127	-0.066
-302.807	-200.000	-0.038	0.347
-301.793	-71.689	-0.247	-0.091
-300.778	68.540	-0.141	0.143
-299.764	115.720	-0.211	-0.256
-298.749	37.542	0.169	-0.149
-297.735	467.830	0.075	-0.167
-296.720	263.368	0.029	0.051
-295.705	-200.000	-0.086	-0.414
-294.691	-63.535	0.261	-0.106
-293.676	16.878	-0.163	0.128
-292.662	-78.431	-0.329	0.112
-291.647	63.538	-0.143	0.142
-290.632	519.443	0.077	-0.179
-289.618	-200.000	0.042	-0.327
-288.603	-39.072	0.223	-0.116
-287.589	-179.070	0.537	0.012
-286.574	42.595	0.092	-0.083
-285.559	-124.033	0.180	0.028
-284.545	167.854	-0.143	0.201
-283.530	-172.090	-0.123	-0.004
-282.516	-200.000	0.005	0.118
-281.501	-200.000	-0.003	0.265
-280.486	-117.711	-0.178	-0.032
-279.472	800.000	-0.019	0.057
-278.457	284.015	0.077	-0.136
-277.443	442.121	-0.126	0.273
-276.428	42.392	-0.069	0.062
-275.413	-47.481	0.069	-0.033
-274.399	-200.000	-0.029	-0.161
-273.384	-200.000	0.034	-0.237
-272.370	70.713	0.157	-0.161
-271.355	224.917	-0.129	-0.206
-270.340	230.000	0.066	-0.107
-269.326	-91.348	-0.088	-0.025
-268.311	-173.121	0.227	-0.007
-267.297	-13.276	-0.316	-0.203
-266.282	69.731	0.060	-0.061
-265.267	-151.779	-0.201	-0.015
-264.253	-200.000	-0.026	-0.183
-263.238	800.000	-0.142	-0.426
-262.224	149.218	0.154	-0.207
-261.209	-200.000	0.007	0.033
-260.195	-52.685	0.144	-0.066
-259.180	800.000	0.032	0.119
-258.165	-200.000	-0.009	0.087
-257.151	-200.000	-0.060	-0.401
-256.136	800.000	-0.031	0.101
-255.122	-160.932	-0.078	0.004
-254.107	25.209	-0.171	0.140
-253.092	-56.868	0.207	-0.090
-252.078	98.033	0.165	0.188
-251.063	-116.366	0.213	0.039
-250.049	-33.280	0.178	-0.098
-249.034	800.000	-0.109	0.313
-248.019	-99.650	0.196	0.049
-247.005	-200.000	0.026	0.122
-245.990	-51.039	-0.248	0.115
-244.976	66.141	-0.176	0.176
-243.961	-137.335	0.329	-0.037
-242.946	137.246	0.058	-0.075
-241.932	-72.774	-0.089	-0.033
-240.917	-200.000	0.002	-0.080
-239.903	-53.690	-0.245	-0.111
-238.888	-118.857	0.061	0.011
-237.873	-25.150	0.169	0.099
-236.859	19.995	-0.376	-0.300
-235.844	800.000	0.056	0.181
-234.830	-29.096	0.216	-0.123
-233.815	-188.276	-0.551	-0.007
-232.800	329.144	0.072	-0.136
-231.786	-152.677	0.157	0.011
-230.771	-47.747	-0.224	-0.107
-229.757	89.206	0.054	0.060
-228.742	335.936	-0.027	-0.052
-227.727	28.111	-0.150	0.125
-226.713	-1.911	-0.233	0.162
-225.698	-200.000	-0.012	-0.174
-224.684	-9.468	-0.160	0.106
-223.669	-200.000	0.029	0.324
-222.655	77.266	-0.122	0.128
-221.640	589.559	-0.232	-0.565
-220.625	-200.000	-0.021	0.255
-219.611	135.594	-0.138	0.178
-218.596	-150.784	-0.106	0.008
-217.582	-58.303	0.247	0.106
-216.567	800.000	-0.060	0.221
-215.552	190.481	-0.217	0.322
-214.538	144.596	-0.093	-0.122
-213.523	228.024	-0.034	0.055
-212.509	252.338	0.204	-0.344
-211.494	800.000	-0.136	-0.478
-210.479	61.915	0.329	-0.324
-209.465	-85.902	-0.262	-0.080
-208.450	21.331	-0.146	0.117
-207.436	-200.000	0.038	-0.229
-206.421	241.540	0.087	0.144
-205.406	123.188	-0.169	0.209
-204.392	721.461	0.017	-0.045
-203.377	-106.669	-0.193	0.042
-202.363	66.819	-0.050	0.050
-201.348	800.000	0.051	0.160
-200.333	-73.096	-0.094	-0.034
-199.319	215.212	-0.064	0.100
-198.304	-105.181	0.115	0.026
-197.290	-200.000	0.029	0.128
-196.275	398.652	-0.085	0.175
-195.260	416.517	0.142	0.299
-194.246	14.900	0.058	0.045
-193.231	800.000	-0.038	-0.116
-192.217	39.172	-0.197	0.174
-191.202	-51.420	0.139	-0.064
-190.187	649.390	0.036	0.092
-189.173	-200.000	-0.066	-0.494
-188.158	-200.000	-0.057	0.269
-187.144	64.943	-0.227	0.226
-186.129	-35.966	-0.247	0.132
-185.114	86.628	0.171	-0.186
-184.100	-115.785	-0.287	0.053
-183.085	-118.660	0.109	-0.019
-182.071	-200.000	0.009	-0.149
-181.056	113.167	0.100	0.119
-180.042	-200.000	-0.035	0.193
-179.027	109.680	-0.068	-0.080
-178.012	-200.000	0.098	0.494
-176.998	533.391	0.137	0.319
-175.983	123.610	-0.238	0.294
-174.969	-44.271	0.151	-0.075
-173.954	28.541	0.314	0.262
-172.939	553.467	-0.020	0.047
-171.925	-59.908	0.361	0.152
-170.910	-125.490	0.195	0.029
-169.896	-83.017	0.286	0.091
-168.881	-200.000	0.003	0.229
-167.866	800.000	0.088	0.379
-166.852	677.202	0.066	-0.170
-165.837	418.588	0.068	0.144
-164.823	-9.496	0.028	-0.018
-163.808	-200.000	0.003	0.051
-162.793	-127.677	-0.350	0.050
-161.779	-104.791	0.316	0.072
-160.764	-89.630	0.293	-0.085
-159.750	-32.008	0.379	-0.209
-158.735	-145.284	-0.171	0.015
-157.720	-200.000	0.000	-0.535
-156.706	800.000	0.055	0.208
-155.691	260.281	-0.067	0.113
-154.677	800.000	-0.074	0.267
-153.662	-200.000	0.010	0.298
-152.647	-52.244	0.233	0.106
-151.633	111.204	-0.179	-0.213
-150.618	-79.056	-0.417	0.140
-149.604	-200.000	-0.005	-0.202
-148.589	-200.000	0.040	0.176
-147.574	26.530	-0.021	0.018
-146.560	-200.000	-0.034	0.218
-145.545	12.923	0.116	0.088
-144.531	179.646	-0.031	-0.045
-143.516	426.687	-0.105	-0.223
-142.502	-64.869	0.166	0.066
-141.487	221.344	-0.051	-0.081
-140.472	254.612	-0.095	0.161
-139.458	50.273	-0.073	0.068
-138.443	-200.000	0.042	0.360
-137.429	553.209	0.047	-0.112
-136.414	800.000	-0.083	-0.255
-135.399	65.687	0.185	0.185
-134.385	-99.816	0.045	0.011
-133.370	345.256	0.059	-0.114
-132.356	-154.872	0.152	-0.010
-131.341	-12.480	-0.276	-0.178
-130.326	-200.000	0.014	0.093
-129.312	55.024	0.224	0.213
-128.297	102.198	-0.170	-0.195
-127.283	-125.271	0.277	-0.042
-126.268	29.323	0.295	0.247
-125.253	-200.000	-0.063	-0.451
-124.239	264.739	0.096	0.164
-123.224	9.179	-0.397	-0.295
-122.210	38.126	-0.109	0.096
-121.195	19.306	0.265	0.210
