DTS Sentinel unit serial number:	SN413079Multiplexer serial number:	ORYXHardware model number:	OX4-SRSoftware version number:	ORYX F/W v4.00 Oryx Data Collector v3.7.2.0data status	okinstallation	princeton_trtdifferential loss correction	single-endedforward channel	channel 2reverse channel	N/Adate	2019/09/13time	04:31:35forward acquisition time	60.00reverse acquisition time	0.00gamma	496.2192k internal	0.2336k external	0.2336temperature offset calibration	1.0189default loss term (dB/km)	0.3790temperature slope calibration	1.0000multiplexer offset coefficient	1.0000multiplexer slope coefficient	1.0000fibre end	0.00T internal ref (°C)	26.69T ext. ref 1 (°C)	4.06T ext. ref 2 (°C)	21.18length (m)	temperature (°C)	Stokes	anti-Stokes-747.200	-97.707	-0.332	-0.086
-746.185	-200.000	-0.059	0.351
-745.171	4.007	0.090	0.066
-744.156	369.689	0.080	0.163
-743.142	9.438	0.125	0.095
-742.127	-61.062	0.036	-0.015
-741.112	372.741	0.144	-0.293
-740.098	-200.000	-0.055	-0.301
-739.083	-174.633	0.080	0.002
-738.069	61.924	0.172	-0.172
-737.054	-62.340	-0.123	-0.052
-736.039	-0.902	-0.170	0.121
-735.025	-22.650	-0.263	0.160
-734.010	-47.236	0.306	-0.150
-732.996	-200.000	0.036	-0.324
-731.981	-142.861	-0.204	-0.020
-730.966	53.215	-0.006	0.006
-729.952	800.000	0.038	-0.108
-728.937	23.164	0.187	-0.154
-727.923	-179.677	-0.127	0.003
-726.908	800.000	0.049	-0.153
-725.894	-200.000	-0.336	0.001
-724.879	238.206	-0.133	0.221
-723.864	-200.000	0.048	0.234
-722.850	800.000	-0.043	0.177
-721.835	71.837	-0.084	0.087
-720.821	-200.000	-0.040	-0.316
-719.806	800.000	-0.107	-0.367
-718.791	-141.189	-0.171	-0.017
-717.777	-167.168	-0.333	-0.014
-716.762	-167.654	-0.292	0.012
-715.748	-92.345	0.313	0.088
-714.733	-91.977	-0.161	-0.046
-713.718	58.257	0.134	0.132
-712.704	-179.626	-0.596	-0.013
-711.689	187.957	-0.205	-0.308
-710.675	800.000	-0.038	0.108
-709.660	225.498	0.094	0.152
-708.645	-127.711	-0.396	0.057
-707.631	-1.264	-0.205	0.145
-706.616	15.926	0.317	-0.250
-705.602	-127.463	-0.186	0.027
-704.587	-88.866	0.386	-0.115
-703.572	-80.849	-0.189	-0.063
-702.558	-200.000	0.070	0.331
-701.543	123.472	-0.012	0.016
-700.529	235.423	-0.156	-0.258
-699.514	-138.325	0.162	-0.018
-698.499	38.575	-0.194	0.173
-697.485	-23.458	-0.074	-0.044
-696.470	-150.772	0.217	0.017
-695.456	652.122	-0.040	0.103
-694.441	-122.004	0.104	0.017
-693.426	147.532	-0.089	-0.120
-692.412	19.723	0.139	-0.112
-691.397	-80.300	0.092	0.031
-690.383	-37.769	-0.100	0.053
-689.368	-87.519	0.186	-0.056
-688.354	404.000	-0.071	-0.150
-687.339	-60.935	0.452	-0.191
-686.324	10.287	-0.182	0.139
-685.310	60.431	-0.253	-0.251
-684.295	266.237	0.119	0.208
-683.281	-136.302	0.204	0.024
-682.266	43.555	0.059	-0.054
-681.251	12.375	-0.203	-0.157
-680.237	83.763	0.192	-0.210
-679.222	344.470	0.044	-0.086
-678.208	-142.168	-0.338	0.034
-677.193	-59.542	-0.159	-0.069
-676.178	110.870	0.273	0.329
-675.164	0.947	-0.242	0.173
-674.149	800.000	-0.093	0.403
-673.135	-71.987	-0.099	-0.037
-672.120	-173.704	-0.324	0.010
-671.105	21.858	-0.244	0.199
-670.091	35.049	-0.119	0.104
-669.076	-111.389	0.221	-0.045
-668.062	132.038	0.111	0.144
-667.047	-200.000	-0.033	-0.196
-666.032	177.187	0.161	-0.234
-665.018	-44.833	-0.139	-0.069
-664.003	43.042	-0.074	-0.067
-662.989	-137.695	0.156	0.018
-661.974	-21.327	0.209	-0.127
-660.959	-52.530	0.133	-0.062
-659.945	-142.944	0.133	0.013
-658.930	129.322	-0.218	-0.278
-657.916	20.490	-0.205	0.166
-656.901	379.569	-0.121	0.248
-655.886	38.155	-0.093	0.083
-654.872	48.320	0.370	0.347
-653.857	800.000	0.054	0.184
-652.843	50.853	0.038	-0.036
-651.828	-23.392	0.412	0.248
-650.814	-90.203	0.208	0.060
-649.799	57.602	0.066	0.064
-648.784	-113.169	-0.172	-0.034
-647.770	129.134	0.097	-0.123
-646.755	331.430	0.119	0.230
-645.741	-133.171	0.211	0.027
-644.726	-28.896	-0.028	-0.016
-643.711	684.829	0.186	0.485
-642.697	-50.344	-0.154	0.073
-641.682	582.519	0.109	-0.266
-640.668	-18.415	-0.081	0.051
-639.653	-21.953	-0.138	-0.084
-638.638	-69.102	-0.235	0.090
-637.624	-84.701	-0.289	-0.091
-636.609	-5.961	-0.035	0.024
-635.595	-200.000	0.007	0.047
-634.580	0.782	-0.251	-0.180
-633.565	561.926	-0.197	-0.477
-632.551	-96.469	0.164	-0.043
-631.536	154.885	0.180	0.248
-630.522	-125.305	0.204	0.031
-629.507	-82.313	-0.061	-0.020
-628.492	-136.125	0.314	-0.037
-627.478	26.106	-0.250	-0.209
-626.463	-200.000	-0.040	-0.235
-625.449	681.480	-0.045	-0.118
-624.434	-74.618	0.315	0.113
-623.419	131.860	0.136	-0.175
-622.405	-200.000	0.025	-0.409
-621.390	95.852	-0.071	-0.081
-620.376	-174.203	0.044	0.001
-619.361	52.736	-0.293	0.280
-618.346	-200.000	0.021	-0.254
-617.332	109.557	0.139	-0.166
-616.317	-71.320	-0.067	0.025
-615.303	-200.000	0.012	-0.250
-614.288	-200.000	-0.038	0.405
-613.273	30.383	-0.078	0.066
-612.259	466.363	-0.106	-0.237
-611.244	332.090	0.130	0.251
-610.230	-17.674	0.238	-0.150
-609.215	-107.827	-0.495	-0.108
-608.201	-22.564	0.415	-0.251
-607.186	-48.969	-0.101	0.048
-606.171	160.010	-0.198	-0.276
-605.157	-200.000	0.026	0.318
-604.142	-189.831	0.506	0.006
-603.128	236.773	-0.085	0.141
-602.113	-9.052	0.403	0.269
-601.098	95.404	0.166	-0.188
-600.084	800.000	-0.075	0.293
-599.069	58.169	-0.066	0.064
-598.055	-200.000	-0.006	-0.253
-597.040	-36.068	0.228	-0.123
-596.025	800.000	-0.115	0.423
-595.011	524.049	-0.114	-0.267
-593.996	137.893	-0.067	0.087
-592.982	-126.316	0.077	-0.012
-591.967	-6.309	-0.178	0.122
-590.952	144.327	-0.093	-0.124
-589.938	-115.444	-0.406	0.076
-588.923	706.167	0.047	0.123
-587.909	129.550	-0.121	0.155
-586.894	-200.000	-0.035	-0.186
-585.879	-200.000	0.056	-0.382
-584.865	74.688	0.048	0.050
-583.850	295.255	-0.111	0.203
-582.836	-81.263	-0.086	-0.028
-581.821	-95.839	0.095	-0.025
-580.806	-200.000	0.012	0.187
-579.792	800.000	0.057	-0.238
-578.777	-42.335	0.291	0.148
-577.763	-49.577	0.221	0.105
-576.748	-43.583	-0.163	-0.082
-575.733	-150.746	0.110	-0.008
-574.719	-31.466	-0.360	0.202
-573.704	213.424	0.145	0.228
-572.690	395.438	0.053	0.111
-571.675	-95.624	-0.394	0.105
-570.661	-86.601	-0.127	-0.039
-569.646	-200.000	-0.051	0.234
-568.631	-80.058	-0.131	0.044
-567.617	-200.000	-0.037	0.199
-566.602	-90.023	-0.366	0.107
-565.588	239.246	0.109	-0.181
-564.573	-159.299	0.333	-0.019
-563.558	192.142	0.008	-0.012
-562.544	-45.901	0.102	-0.050
-561.529	-21.201	0.091	-0.056
-560.515	396.369	0.203	-0.423
-559.500	-56.806	0.297	0.131
-558.485	-191.456	0.256	0.003
-557.471	33.281	0.236	0.204
-556.456	263.359	0.057	-0.098
-555.442	-87.547	0.192	0.058
-554.427	-108.895	0.098	0.021
-553.412	109.213	0.111	0.132
-552.398	-126.396	0.264	-0.039
-551.383	51.064	0.311	0.294
-550.369	141.996	-0.082	-0.108
-549.354	-63.434	-0.225	-0.092
-548.339	19.340	0.197	0.158
-547.325	-123.039	-0.330	-0.053
-546.310	800.000	0.027	-0.076
-545.296	-79.659	-0.257	-0.086
-544.281	-200.000	0.012	0.118
-543.266	800.000	-0.103	0.324
-542.252	-153.006	0.356	0.025
-541.237	483.522	0.018	-0.040
-540.223	-93.305	0.055	0.015
-539.208	800.000	-0.052	-0.162
-538.193	-76.555	-0.343	0.120
-537.179	-200.000	0.005	0.112
-536.164	800.000	-0.075	-0.207
-535.150	-72.466	-0.178	0.066
-534.135	800.000	0.055	-0.174
-533.121	636.214	0.036	-0.091
-532.106	296.165	0.085	-0.154
-531.091	-14.967	0.189	0.121
-530.077	-200.000	-0.007	0.049
-529.062	-51.741	-0.132	0.061
-528.048	50.405	0.197	0.185
-527.033	441.932	0.168	0.365
-526.018	-56.654	-0.343	-0.151
-525.004	78.262	0.301	0.320
-523.989	-200.000	0.003	-0.178
-522.975	-200.000	-0.031	-0.279
-521.960	334.492	-0.121	-0.234
-520.945	-200.000	-0.044	0.370
-519.931	-91.085	0.094	0.027
-518.916	-33.163	0.152	0.084
-517.902	6.741	0.131	-0.097
-516.887	-4.068	-0.176	-0.122
-515.872	800.000	0.026	0.110
-514.858	89.049	-0.129	-0.143
-513.843	-7.237	-0.105	-0.071
-512.829	-131.083	-0.107	0.014
-511.814	-40.044	-0.175	-0.091
-510.799	155.865	-0.102	0.140
-509.785	19.455	0.121	0.097
-508.770	189.774	0.146	-0.219
-507.756	135.354	-0.063	-0.082
-506.741	69.124	0.257	-0.263
-505.726	-94.693	-0.334	-0.090
-504.712	-200.000	0.054	-0.340
-503.697	-115.962	-0.366	-0.068
-502.683	-79.486	0.212	-0.071
-501.668	32.693	0.325	-0.279
-500.653	20.436	0.140	0.113
-499.639	124.871	0.090	0.113
-498.624	800.000	-0.017	-0.053
-497.610	244.943	0.073	0.123
-496.595	800.000	-0.039	-0.139
-495.581	-106.619	-0.273	0.060
-494.566	184.578	0.152	0.225
-493.551	41.107	0.243	0.219
-492.537	264.779	0.054	-0.093
-491.522	-43.592	-0.171	0.086
-490.508	32.396	0.145	-0.125
-489.493	-200.000	-0.036	-0.240
-488.478	683.016	0.082	-0.211
-487.464	381.638	-0.060	-0.123
-486.449	-119.627	0.320	0.055
-485.435	-44.922	0.138	-0.068
-484.420	-45.482	-0.069	0.034
-483.405	364.952	0.158	-0.315
-482.391	800.000	0.043	0.149
-481.376	-153.599	0.148	0.010
-480.362	-42.580	-0.132	0.067
-479.347	-119.320	0.335	-0.058
-478.332	-92.273	-0.101	-0.028
-477.318	-18.602	0.269	0.167
-476.303	-144.814	-0.292	0.027
-475.289	-200.000	-0.069	-0.303
-474.274	-43.550	-0.120	-0.060
-473.259	228.682	0.045	0.073
-472.245	357.920	-0.081	-0.160
-471.230	744.034	0.072	-0.192
-470.216	800.000	-0.020	-0.085
-469.201	-200.000	-0.060	-0.291
-468.186	-37.686	0.287	0.152
-467.172	-200.000	-0.005	0.076
-466.157	-43.080	0.219	0.110
-465.143	800.000	0.055	0.227
-464.128	86.909	-0.050	0.054
-463.113	486.686	0.055	0.124
-462.099	-135.601	0.175	-0.021
-461.084	-36.118	0.151	-0.081
-460.070	-113.087	0.256	0.050
-459.055	144.256	-0.153	-0.202
-458.040	213.450	-0.045	-0.070
-457.026	-56.868	0.172	-0.075
-456.011	-43.275	-0.274	0.138
-454.997	13.056	0.093	0.071
-453.982	-102.772	0.055	0.013
-452.968	-200.000	-0.030	0.198
-451.953	-159.214	0.331	0.018
-450.938	76.085	0.086	0.090
-449.924	-134.852	-0.226	-0.027
-448.909	-100.686	-0.088	-0.022
-447.895	8.335	0.212	-0.158
-446.880	-121.985	0.231	-0.038
-445.865	-200.000	-0.002	-0.149
-444.851	800.000	0.054	0.189
-443.836	56.125	0.059	-0.057
-442.822	-200.000	-0.057	-0.325
-441.807	19.152	0.086	0.068
-440.792	655.968	-0.094	0.240
-439.778	-62.049	-0.204	-0.085
-438.763	17.775	0.151	0.119
-437.749	-13.509	-0.179	-0.115
-436.734	145.663	0.175	-0.232
-435.719	96.001	-0.202	-0.229
-434.705	800.000	-0.086	0.312
-433.690	-40.916	0.229	0.117
-432.676	-200.000	-0.010	0.188
-431.661	129.091	-0.117	0.149
-430.646	800.000	-0.094	-0.324
-429.632	31.533	-0.183	0.156
-428.617	125.741	-0.244	0.306
-427.603	-200.000	-0.032	-0.246
-426.588	-200.000	0.040	0.262
-425.573	106.126	0.216	0.253
-424.559	-51.327	0.354	-0.164
-423.544	351.369	-0.065	-0.128
-422.530	55.507	-0.112	-0.108
-421.515	212.863	-0.069	0.108
-420.500	186.714	-0.014	-0.021
-419.486	-109.278	-0.132	0.028
-418.471	800.000	0.048	-0.197
-417.457	6.113	0.053	0.039
-416.442	-51.329	0.304	0.141
-415.428	362.281	-0.087	-0.173
-414.413	800.000	-0.067	-0.204
-413.398	155.600	-0.234	0.319
-412.384	4.012	-0.241	-0.175
-411.369	-134.124	0.071	-0.009
-410.355	-70.543	0.164	-0.062
-409.340	-170.425	-0.272	0.009
-408.325	676.189	0.117	-0.302
-407.311	-200.000	-0.081	-0.432
-406.296	-85.963	-0.282	-0.086
-405.282	-12.614	0.129	-0.083
-404.267	191.907	0.129	0.192
-403.252	256.555	-0.147	0.250
-402.238	-200.000	-0.002	-0.039
-401.223	342.353	-0.170	-0.329
-400.209	-200.000	-0.066	-0.387
-399.194	123.035	-0.103	-0.128
-398.179	-54.915	0.243	0.109
-397.165	-200.000	0.037	-0.180
-396.150	44.543	0.074	-0.067
-395.136	-200.000	0.029	-0.291
-394.121	-130.429	0.142	-0.019
-393.106	172.110	0.043	-0.061
-392.092	-160.554	-0.217	0.011
-391.077	213.043	-0.097	-0.152
-390.063	-200.000	-0.059	-0.310
-389.048	22.822	0.288	0.234
-388.033	-109.832	0.107	0.022
-387.019	-200.000	-0.035	-0.437
-386.004	16.053	0.309	-0.241
-384.990	800.000	-0.089	-0.338
-383.975	-100.404	0.263	0.064
-382.960	800.000	0.034	-0.103
-381.946	-174.795	-0.094	-0.003
-380.931	281.725	0.072	-0.127
-379.917	-81.576	-0.130	-0.042
-378.902	-64.938	0.214	-0.086
-377.888	50.577	0.095	0.089
-376.873	-96.866	-0.151	-0.039
-375.858	800.000	-0.046	0.146
-374.844	-117.348	-0.073	-0.013
-373.829	285.315	-0.096	0.172
-372.815	209.439	0.125	0.194
-371.800	-77.700	-0.251	-0.086
-370.785	-200.000	0.006	-0.358
-369.771	-132.607	0.315	0.040
-368.756	-21.152	0.233	0.141
-367.742	800.000	-0.082	0.230
-366.727	158.390	-0.154	0.212
-365.712	-128.694	-0.224	-0.031
-364.698	-2.565	0.092	0.064
-363.683	-182.730	0.185	0.003
-362.669	-85.299	-0.140	-0.043
-361.654	800.000	0.015	0.053
-360.639	390.503	-0.241	-0.494
-359.625	-49.183	-0.155	-0.073
-358.610	-165.161	-0.314	0.014
-357.596	575.367	-0.105	0.252
-356.581	471.402	0.096	0.214
-355.566	800.000	-0.036	0.130
-354.552	-11.217	0.274	0.179
-353.537	222.399	-0.167	-0.266
-352.523	490.466	0.126	0.285
-351.508	3.349	-0.350	-0.252
-350.493	-129.371	-0.177	0.024
-349.479	800.000	-0.048	0.204
-348.464	-200.000	0.037	0.271
-347.450	46.198	0.280	-0.256
-346.435	-87.801	0.290	0.086
-345.420	4.100	-0.019	0.013
-344.406	-99.820	0.090	-0.022
-343.391	-127.545	-0.102	-0.015
-342.377	135.180	0.141	0.181
-341.362	-120.700	0.108	0.018
-340.348	9.746	-0.318	-0.238
-339.333	1.275	0.086	0.061
-338.318	-200.000	-0.000	0.245
-337.304	-200.000	0.000	-0.033
-336.289	-177.028	-0.249	0.006
-335.275	-48.126	-0.125	0.060
-334.260	16.943	0.019	0.014
-333.245	-200.000	0.011	-0.240
-332.231	-91.367	-0.190	-0.054
-331.216	26.359	-0.174	0.144
-330.202	-103.995	-0.035	0.008
-329.187	-200.000	-0.017	0.116
-328.172	800.000	-0.138	0.592
-327.158	155.895	0.062	-0.084
-326.143	37.202	0.206	-0.180
-325.129	217.906	0.079	-0.125
-324.114	-200.000	0.006	-0.030
-323.099	-200.000	-0.054	0.249
-322.085	-200.000	-0.028	-0.148
-321.070	-28.923	-0.285	0.162
-320.056	127.038	0.164	0.205
-319.041	-200.000	0.005	0.332
-318.026	212.458	-0.101	0.158
-317.012	-200.000	0.021	0.108
-315.997	800.000	-0.009	-0.033
-314.983	33.075	-0.137	0.118
-313.968	-106.826	-0.094	-0.021
-312.953	80.767	-0.061	0.065
-311.939	159.934	-0.066	0.091
-310.924	-109.192	0.142	0.030
-309.910	800.000	-0.111	0.315
-308.895	46.848	0.224	0.206
-307.880	-102.778	-0.242	0.057
-306.866	-98.366	0.331	-0.084
-305.851	-72.441	-0.266	0.097
-304.837	-75.359	-0.322	0.113
-303.822	-62.460	0.259	-0.106
-302.807	455.547	0.066	0.144
-301.793	-151.028	-0.558	0.041
-300.778	-47.646	-0.078	0.037
-299.764	571.429	0.045	-0.109
-298.749	-22.294	-0.104	-0.062
-297.735	-12.501	0.147	-0.095
-296.720	27.058	-0.164	-0.136
-295.705	608.794	0.090	0.221
-294.691	-200.000	0.022	0.358
-293.676	-100.637	0.168	0.041
-292.662	800.000	0.075	-0.207
-291.647	-200.000	-0.026	0.193
-290.632	-109.390	-0.216	-0.045
-289.618	800.000	0.064	-0.259
-288.603	-85.890	0.271	-0.083
-287.589	-145.139	-0.296	0.026
-286.574	54.547	-0.220	-0.210
-285.559	130.423	-0.213	0.269
-284.545	800.000	0.022	0.062
-283.530	764.654	0.055	-0.148
-282.516	91.623	-0.049	-0.054
-281.501	380.198	-0.019	-0.039
-280.486	800.000	0.095	0.259
-279.472	-173.331	-0.051	-0.002
-278.457	-200.000	-0.015	0.168
-277.443	800.000	-0.073	0.263
-276.428	-107.047	-0.217	-0.047
-275.413	-46.861	-0.085	-0.041
-274.399	205.998	0.106	0.163
-273.384	157.047	0.133	0.181
-272.370	-200.000	0.012	-0.185
-271.355	-158.249	0.194	-0.011
-270.340	-22.743	0.101	0.060
-269.326	-200.000	-0.014	-0.469
-268.311	-200.000	0.022	0.203
-267.297	176.503	0.069	-0.099
-266.282	-50.935	0.126	-0.058
-265.267	479.476	0.156	0.349
-264.253	521.837	-0.085	-0.196
-263.238	-200.000	0.031	-0.356
-262.224	-113.440	0.076	0.015
-261.209	284.824	-0.120	-0.212
-260.195	-26.199	0.088	0.051
-259.180	-200.000	-0.004	0.045
-258.165	-42.616	-0.287	-0.144
-257.151	518.267	0.156	0.359
-256.136	58.613	-0.074	-0.071
-255.122	-200.000	0.020	0.121
-254.107	418.002	0.030	-0.063
-253.092	800.000	-0.041	-0.138
-252.078	192.063	-0.165	-0.246
-251.063	354.038	0.154	-0.302
-250.049	-200.000	0.028	0.241
-249.034	10.605	0.136	0.102
-248.019	-200.000	0.027	0.163
-247.005	-113.722	0.196	-0.038
-245.990	-200.000	-0.014	-0.078
-244.976	-87.270	-0.176	-0.053
-243.961	221.945	-0.065	0.102
-242.946	124.956	0.041	-0.051
-241.932	-200.000	-0.028	-0.277
-240.917	279.749	-0.030	0.053
-239.903	800.000	-0.023	-0.074
-238.888	-49.168	-0.409	-0.192
-237.873	198.507	-0.145	-0.218
-236.859	-38.628	-0.153	0.079
-235.844	-200.000	0.038	0.272
-234.830	800.000	0.047	-0.134
-233.815	49.761	0.287	0.266
-232.800	-43.463	-0.316	0.157
-231.786	-82.597	-0.217	-0.069
-230.771	-115.311	-0.296	0.055
-229.757	-111.403	0.199	-0.040
-228.742	190.114	0.058	-0.086
-227.727	-189.737	-0.299	-0.003
-226.713	84.938	0.352	-0.380
-225.698	74.764	-0.031	0.032
-224.684	-76.426	0.222	-0.077
-223.669	800.000	0.074	0.245
-222.655	-46.291	-0.224	0.108
-221.640	-40.705	0.259	0.132
-220.625	-200.000	0.091	-0.469
-219.611	360.964	-0.026	-0.052
-218.596	-70.533	-0.446	-0.166
-217.582	-200.000	0.032	0.246
-216.567	226.236	-0.093	-0.148
-215.552	800.000	0.099	0.341
-214.538	299.497	-0.010	0.018
-213.523	-200.000	0.008	0.115
-212.509	259.669	0.083	0.142
-211.494	137.139	-0.155	-0.199
-210.479	399.583	0.080	-0.165
-209.465	245.460	-0.226	0.373
-208.450	-200.000	-0.005	0.316
-207.436	-200.000	-0.012	-0.208
-206.421	148.480	0.037	-0.050
-205.406	-8.825	-0.263	0.173
-204.392	800.000	0.108	-0.300
-203.377	107.902	0.104	0.122
-202.363	60.270	-0.081	-0.078
-201.348	14.123	-0.141	-0.108
-200.333	800.000	-0.023	-0.066
-199.319	-185.235	-0.269	-0.004
-198.304	-200.000	-0.018	-0.175
-197.290	-200.000	-0.030	-0.225
-196.275	-200.000	0.021	0.135
-195.260	-200.000	-0.006	-0.079
-194.246	800.000	0.108	0.346
-193.231	-170.513	0.227	0.008
-192.217	800.000	0.064	0.201
-191.202	32.783	-0.110	-0.094
-190.187	-148.275	-0.339	-0.027
-189.173	-200.000	0.070	0.499
-188.158	-200.000	-0.031	0.162
-187.144	13.296	0.214	-0.163
-186.129	-200.000	-0.039	-0.177
-185.114	-200.000	-0.014	0.133
-184.100	390.496	-0.067	0.136
-183.085	-200.000	0.018	-0.247
-182.071	-51.891	0.098	-0.045
-181.056	-200.000	-0.007	0.032
-180.042	66.913	-0.156	0.157
-179.027	291.030	-0.211	0.377
-178.012	20.605	-0.035	-0.028
-176.998	-200.000	0.047	-0.286
-175.983	-184.069	-0.211	-0.003
-174.969	73.669	0.073	0.075
-173.954	-200.000	-0.005	0.125
-172.939	-200.000	-0.030	-0.147
-171.925	106.984	0.181	-0.211
-170.910	141.935	0.065	-0.085
-169.896	10.720	0.153	0.115
-168.881	-151.566	0.183	-0.013
-167.866	-70.465	0.278	-0.104
-166.852	166.652	-0.241	0.336
-165.837	318.595	0.029	-0.053
-164.823	-200.000	-0.024	0.137
-163.808	-145.195	0.103	0.009
-162.793	14.058	-0.151	-0.115
-161.779	-174.577	0.067	0.002
-160.764	325.482	0.114	0.213
-159.750	92.369	-0.152	-0.168
-158.735	-200.000	-0.002	-0.018
-157.720	59.630	-0.240	0.232
-156.706	9.923	0.060	0.045
-155.691	230.699	0.222	0.356
-154.677	-200.000	-0.029	0.167
-153.662	725.331	-0.056	0.148
-152.647	64.731	0.174	0.172
-151.633	156.974	0.212	-0.288
-150.618	800.000	-0.074	-0.219
-149.604	-79.713	-0.112	-0.037
-148.589	-153.417	-0.093	-0.006
-147.574	-46.881	-0.279	-0.134
-146.560	-0.275	-0.178	-0.124
-145.545	328.027	0.121	0.229
-144.531	-15.997	0.332	-0.207
-143.516	32.756	-0.549	-0.466
-142.502	-200.000	0.075	0.329
-141.487	717.215	-0.061	0.158
-140.472	-61.065	0.203	0.084
-139.458	-200.000	-0.042	0.213
-138.443	-44.407	0.209	0.103
-137.429	195.685	0.071	-0.107
-136.414	273.690	-0.074	0.128
-135.399	-200.000	0.083	0.437
-134.385	-200.000	0.007	-0.321
-133.370	-82.860	-0.404	0.128
-132.356	800.000	-0.036	0.107
-131.341	61.806	0.135	-0.132
-130.326	-68.812	-0.321	-0.122
-129.312	357.538	0.121	-0.237
-128.297	502.390	-0.091	-0.206
-127.283	30.770	0.167	-0.140
-126.268	155.323	0.143	-0.193
-125.253	-200.000	0.035	0.289
-124.239	291.095	0.121	-0.216
-123.224	793.234	-0.059	-0.160
-122.210	-61.385	0.250	-0.103
-121.195	-52.273	-0.155	-0.070
