DTS Sentinel unit serial number:	SN413079Multiplexer serial number:	ORYXHardware model number:	OX4-SRSoftware version number:	ORYX F/W v4.00 Oryx Data Collector v3.7.2.0data status	okinstallation	princeton_trtdifferential loss correction	single-endedforward channel	channel 2reverse channel	N/Adate	2019/09/18time	15:19:35forward acquisition time	60.00reverse acquisition time	0.00gamma	496.2192k internal	0.2316k external	0.2316temperature offset calibration	0.9999default loss term (dB/km)	0.3790temperature slope calibration	1.0000multiplexer offset coefficient	1.0000multiplexer slope coefficient	1.0000fibre end	0.00T internal ref (°C)	35.69T ext. ref 1 (°C)	0.75T ext. ref 2 (°C)	33.17length (m)	temperature (°C)	Stokes	anti-Stokes-747.200	137.934	0.169	-0.225
-746.185	-104.520	0.084	0.020
-745.171	-200.000	-0.005	0.040
-744.156	-200.000	0.060	0.307
-743.142	-200.000	-0.104	0.575
-742.127	-200.000	0.024	0.369
-741.112	-76.123	-0.397	0.142
-740.098	300.772	0.093	0.174
-739.083	34.889	-0.146	0.129
-738.069	-200.000	0.026	0.530
-737.054	43.215	0.062	0.057
-736.039	-32.182	0.131	-0.074
-735.025	49.060	-0.139	0.132
-734.010	12.625	-0.104	0.081
-732.996	-150.437	-0.184	-0.014
-731.981	800.000	-0.027	0.091
-730.966	536.986	-0.019	-0.045
-729.952	237.856	0.088	0.148
-728.937	765.352	-0.005	0.013
-727.923	-200.000	0.012	-0.303
-726.908	-12.441	-0.253	-0.167
-725.894	-115.877	0.151	-0.029
-724.879	120.480	-0.102	0.129
-723.864	-200.000	-0.016	0.126
-722.850	-50.591	0.107	-0.051
-721.835	-200.000	-0.021	0.101
-720.821	201.144	-0.186	-0.290
-719.806	800.000	-0.008	-0.036
-718.791	-103.623	-0.163	-0.039
-717.777	-12.599	0.138	0.091
-716.762	-200.000	0.017	0.168
-715.748	-56.222	-0.220	0.099
-714.733	800.000	-0.076	-0.231
-713.718	-200.000	-0.029	-0.485
-712.704	-171.161	-0.332	0.011
-711.689	-150.247	-0.376	0.029
-710.675	57.165	0.210	-0.207
-709.660	800.000	-0.016	0.062
-708.645	-137.199	-0.035	-0.004
-707.631	-95.037	-0.132	0.036
-706.616	157.269	-0.220	-0.308
-705.602	-141.616	0.219	-0.022
-704.587	-137.610	-0.281	0.032
-703.572	60.337	0.187	0.187
-702.558	299.025	0.139	0.259
-701.543	-110.604	0.133	0.028
-700.529	170.430	0.105	-0.152
-699.514	-200.000	0.015	0.077
-698.499	38.278	-0.196	-0.177
-697.485	-200.000	0.009	0.158
-696.470	-109.440	-0.254	-0.054
-695.456	800.000	0.025	-0.088
-694.441	81.658	0.095	0.104
-693.426	-200.000	0.003	-0.308
-692.412	-200.000	0.014	-0.068
-691.397	-157.201	-0.038	0.002
-690.383	3.952	0.111	-0.082
-689.368	-200.000	-0.209	0.000
-688.354	-37.912	-0.135	0.073
-687.339	-72.236	-0.363	0.136
-686.324	-200.000	0.013	0.224
-685.310	739.566	-0.173	0.469
-684.295	772.483	0.107	0.295
-683.281	-124.607	-0.483	-0.076
-682.266	-9.453	-0.211	-0.142
-681.251	-200.000	-0.022	-0.272
-680.237	26.424	-0.255	-0.216
-679.222	-116.383	-0.047	0.009
-678.208	-131.230	-0.411	-0.055
-677.193	5.430	0.069	-0.051
-676.178	5.373	0.032	0.024
-675.164	-108.651	0.479	0.104
-674.149	608.019	-0.077	0.194
-673.135	44.267	0.148	-0.137
-672.120	-138.314	0.416	0.046
-671.105	-40.818	-0.216	-0.113
-670.091	208.288	0.059	-0.094
-669.076	-200.000	-0.009	-0.129
-668.062	-140.793	-0.105	0.011
-667.047	328.002	-0.084	0.162
-666.032	190.447	-0.109	0.166
-665.018	721.184	-0.074	0.198
-664.003	442.309	0.026	-0.058
-662.989	-200.000	0.010	-0.098
-661.974	486.494	-0.071	0.163
-660.959	-182.916	0.130	0.002
-659.945	800.000	0.045	0.183
-658.930	94.694	-0.096	-0.110
-657.916	-172.196	-0.149	-0.005
-656.901	218.128	0.115	-0.185
-655.886	-195.673	0.113	-0.001
-654.872	-86.919	-0.115	-0.035
-653.857	280.485	-0.128	-0.232
-652.843	-200.000	0.017	-0.225
-651.828	30.307	-0.322	-0.278
-650.814	595.750	-0.049	-0.122
-649.799	-133.792	-0.125	0.016
-648.784	-200.000	0.026	-0.248
-647.770	150.431	-0.274	0.376
-646.755	333.763	-0.089	0.174
-645.741	800.000	0.110	-0.367
-644.726	93.552	0.176	-0.201
-643.711	-200.000	0.079	-0.469
-642.697	508.198	0.056	-0.131
-641.682	-200.000	0.007	0.046
-640.668	-200.000	-0.031	0.198
-639.653	-200.000	-0.040	0.244
-638.638	-184.683	-0.129	-0.002
-637.624	-36.927	-0.062	-0.033
-636.609	-5.235	0.315	0.218
-635.595	-68.437	-0.129	0.050
-634.580	-200.000	0.006	-0.127
-633.565	-37.681	0.151	0.081
-632.551	88.131	-0.200	0.224
-631.536	663.399	-0.015	-0.039
-630.522	34.290	0.055	-0.049
-629.507	553.604	-0.053	-0.127
-628.492	64.428	0.176	0.179
-627.478	-194.155	-0.062	0.001
-626.463	539.504	-0.120	-0.287
-625.449	494.361	-0.051	0.117
-624.434	143.619	0.075	-0.101
-623.419	-107.382	-0.326	0.072
-622.405	-9.216	-0.102	0.069
-621.390	-200.000	-0.016	0.193
-620.376	569.942	-0.031	-0.076
-619.361	-200.000	0.009	-0.105
-618.346	-200.000	-0.013	0.106
-617.332	-200.000	0.050	-0.322
-616.317	-200.000	0.002	0.140
-615.303	-200.000	-0.036	-0.169
-614.288	-140.692	-0.051	-0.005
-613.273	-200.000	0.036	-0.313
-612.259	800.000	0.027	-0.113
-611.244	206.613	-0.182	-0.285
-610.230	-125.282	0.383	0.059
-609.215	92.972	-0.102	0.116
-608.201	61.851	0.043	0.043
-607.186	60.576	0.115	-0.114
-606.171	800.000	0.032	-0.094
-605.157	409.224	-0.064	0.136
-604.142	213.617	0.166	-0.265
-603.128	-55.349	-0.220	0.099
-602.113	43.669	-0.189	0.174
-601.098	800.000	-0.110	-0.352
-600.084	109.446	0.084	-0.102
-599.069	800.000	0.087	0.297
-598.055	-200.000	-0.012	-0.071
-597.040	636.860	0.188	-0.482
-596.025	51.499	-0.364	-0.348
-595.011	-35.941	0.099	0.054
-593.996	95.554	0.030	-0.035
-592.982	144.361	0.038	0.051
-591.967	-12.231	-0.244	0.161
-590.952	188.903	-0.038	-0.058
-589.938	800.000	-0.038	-0.155
-588.923	-34.590	0.203	-0.112
-587.909	227.222	0.207	-0.339
-586.894	-84.687	-0.086	-0.027
-585.879	268.054	0.136	-0.240
-584.865	-61.440	0.093	-0.039
-583.850	85.116	-0.206	-0.228
-582.836	800.000	-0.035	0.148
-581.821	-12.039	-0.212	0.140
-580.806	-130.175	-0.160	0.022
-579.792	66.854	0.175	-0.179
-578.777	22.440	0.227	-0.187
-577.763	800.000	0.074	0.234
-576.748	254.469	0.177	-0.305
-575.733	-75.360	0.263	-0.094
-574.719	800.000	-0.133	-0.382
-573.704	-200.000	0.035	-0.201
-572.690	19.410	-0.177	-0.143
-571.675	30.241	0.224	0.193
-570.661	112.305	0.050	0.061
-569.646	-73.109	-0.139	-0.051
-568.631	800.000	0.063	0.207
-567.617	-109.696	-0.400	0.085
-566.602	97.946	-0.101	-0.117
-565.588	-95.187	0.092	0.025
-564.573	419.028	-0.269	-0.580
-563.558	800.000	-0.059	-0.226
-562.544	98.631	-0.223	0.258
-561.529	-200.000	-0.018	-0.094
-560.515	623.039	0.054	-0.137
-559.500	-200.000	0.016	-0.352
-558.485	-38.480	-0.151	-0.081
-557.471	-29.775	-0.311	0.178
-556.456	-66.998	0.473	0.188
-555.442	800.000	-0.077	-0.223
-554.427	-200.000	-0.014	-0.067
-553.412	-39.457	-0.178	-0.094
-552.398	-200.000	0.057	-0.288
-551.383	800.000	0.015	-0.053
-550.369	-106.643	-0.327	0.073
-549.354	-8.363	-0.068	0.046
-548.339	-81.249	-0.125	0.041
-547.325	35.130	0.139	0.123
-546.310	-200.000	-0.023	0.310
-545.296	131.597	-0.066	-0.086
-544.281	-158.892	-0.229	0.013
-543.266	800.000	0.053	0.155
-542.252	103.189	0.166	-0.196
-541.237	-116.995	0.414	0.076
-540.223	-200.000	-0.041	-0.188
-539.208	-83.663	0.133	0.043
-538.193	61.728	-0.118	-0.119
-537.179	-73.679	-0.225	-0.082
-536.164	-52.024	0.085	-0.040
-535.150	-83.953	-0.320	0.102
-534.135	92.773	0.194	-0.220
-533.121	259.989	0.128	-0.222
-532.106	-200.000	-0.001	0.008
-531.091	725.299	0.162	0.433
-530.077	240.828	-0.129	-0.217
-529.062	800.000	0.027	-0.101
-528.048	323.485	0.049	0.093
-527.033	253.600	-0.080	-0.137
-526.018	-3.240	0.155	0.108
-525.004	473.601	0.078	0.177
-523.989	-105.316	0.187	-0.043
-522.975	-31.690	-0.177	0.100
-521.960	800.000	-0.089	0.259
-520.945	686.564	-0.114	0.298
-519.931	-200.000	-0.037	0.168
-518.916	-156.674	-0.115	-0.007
-517.902	-87.744	-0.061	0.018
-516.887	-200.000	-0.029	-0.214
-515.872	-78.561	-0.266	-0.091
-514.858	181.847	0.247	-0.365
-513.843	160.739	-0.101	-0.142
-512.829	-200.000	-0.040	0.425
-511.814	185.168	0.078	-0.117
-510.799	232.682	-0.075	0.124
-509.785	-102.846	0.378	-0.090
-508.770	-200.000	-0.033	-0.337
-507.756	-200.000	0.028	-0.133
-506.741	86.152	-0.148	0.163
-505.726	-131.255	0.283	0.038
-504.712	243.875	-0.128	0.216
-503.697	-123.595	0.164	-0.026
-502.683	111.467	0.049	0.059
-501.668	-200.000	-0.030	-0.203
-500.653	-160.125	0.284	-0.015
-499.639	-157.170	-0.062	-0.004
-498.624	17.281	0.241	-0.192
-497.610	323.912	0.154	-0.295
-496.595	483.749	-0.101	0.230
-495.581	-200.000	-0.001	0.263
-494.566	25.417	0.257	-0.214
-493.551	-200.000	0.002	0.070
-492.537	-200.000	0.006	0.107
-491.522	-200.000	-0.009	0.200
-490.508	151.628	-0.174	-0.238
-489.493	-44.331	0.240	-0.121
-488.478	-200.000	-0.013	-0.108
-487.464	-68.178	0.140	-0.055
-486.449	800.000	-0.027	0.095
-485.435	-188.768	0.332	0.004
-484.420	298.629	0.152	-0.280
-483.405	800.000	-0.032	-0.141
-482.391	-200.000	-0.005	0.191
-481.376	268.298	-0.028	0.049
-480.362	115.113	0.159	0.194
-479.347	234.963	-0.097	0.161
-478.332	243.294	0.102	0.171
-477.318	-25.758	-0.233	0.138
-476.303	156.944	0.116	-0.161
-475.289	-95.877	0.252	0.067
-474.274	497.571	-0.040	-0.093
-473.259	20.460	-0.020	0.016
-472.245	110.073	0.121	0.145
-471.230	-200.000	-0.043	0.241
-470.216	536.402	-0.063	-0.151
-469.201	-200.000	0.015	-0.220
-468.186	10.001	-0.078	-0.060
-467.172	800.000	0.095	0.279
-466.157	-200.000	-0.020	0.320
-465.143	-200.000	0.006	-0.231
-464.128	26.412	-0.151	0.127
-463.113	621.084	-0.135	0.339
-462.099	-200.000	0.001	-0.064
-461.084	-175.388	-0.089	0.002
-460.070	499.849	0.125	-0.289
-459.055	-95.330	-0.080	0.021
-458.040	-55.506	-0.310	-0.139
-457.026	-10.076	0.252	-0.167
-456.011	317.128	0.037	-0.070
-454.997	-68.984	-0.076	-0.029
-453.982	186.123	0.052	-0.077
-452.968	-75.522	-0.121	0.043
-451.953	-200.000	0.060	0.305
-450.938	-46.422	-0.201	0.099
-449.924	-20.623	0.180	0.111
-448.909	77.743	0.130	0.139
-447.895	-41.985	0.237	0.121
-446.880	-36.706	-0.300	0.162
-445.865	-94.961	0.158	0.043
-444.851	-200.000	-0.004	0.090
-443.836	497.585	0.135	0.312
-442.822	-0.989	-0.284	-0.202
-441.807	585.178	-0.139	0.342
-440.792	-56.501	-0.128	0.057
-439.778	800.000	0.021	-0.081
-438.763	506.618	-0.161	0.374
-437.749	-111.833	-0.302	0.061
-436.734	93.235	-0.062	-0.071
-435.719	140.406	-0.135	0.178
-434.705	-200.000	0.049	0.217
-433.690	120.791	0.148	0.185
-432.676	45.641	-0.208	-0.192
-431.661	-84.759	0.439	0.138
-430.646	-36.876	-0.233	0.125
-429.632	-200.000	-0.018	0.163
-428.617	14.260	0.046	-0.036
-427.603	800.000	0.076	-0.284
-426.588	800.000	-0.088	0.267
-425.573	-139.428	-0.201	-0.022
-424.559	208.861	0.089	0.139
-423.544	-9.854	-0.126	-0.084
-422.530	129.098	-0.131	-0.167
-421.515	-136.467	-0.171	-0.020
-420.500	-42.248	0.149	-0.076
-419.486	-176.195	-0.193	-0.005
-418.471	136.217	0.341	-0.445
-417.457	22.977	0.355	0.291
-416.442	29.496	-0.290	0.246
-415.428	-34.873	-0.115	0.063
-414.413	800.000	0.059	-0.175
-413.398	-131.793	0.092	0.012
-412.384	-29.810	0.133	0.076
-411.369	21.149	-0.305	0.247
-410.355	288.524	0.144	0.261
-409.340	-71.610	-0.074	-0.028
-408.325	158.648	-0.119	-0.165
-407.311	14.199	-0.019	0.015
-406.296	-200.000	-0.028	-0.175
-405.282	-200.000	-0.048	0.297
-404.267	-59.168	-0.378	0.163
-403.252	113.893	0.141	-0.171
-402.238	-53.020	0.382	0.175
-401.223	-81.790	-0.193	0.063
-400.209	620.792	0.092	-0.231
-399.194	800.000	-0.076	-0.216
-398.179	259.739	-0.127	-0.218
-397.165	-200.000	0.066	-0.365
-396.150	-104.145	-0.068	0.016
-395.136	614.003	0.049	0.124
-394.121	-99.231	-0.191	0.048
-393.106	-200.000	0.009	0.060
-392.092	-143.727	0.201	0.019
-391.077	109.919	0.049	0.059
-390.063	85.711	0.108	0.119
-389.048	-164.911	0.159	0.007
-388.033	418.511	0.027	-0.057
-387.019	19.634	0.212	-0.170
-386.004	424.487	0.102	0.219
-384.990	-10.265	0.289	-0.192
-383.975	-26.805	0.162	0.094
-382.960	9.140	0.226	0.171
-381.946	-7.359	-0.370	0.250
-380.931	82.731	0.195	0.212
-379.917	44.110	0.029	0.027
-378.902	86.122	-0.225	0.247
-377.888	-200.000	0.005	-0.063
-376.873	27.626	-0.184	-0.154
-375.858	-99.393	0.338	0.085
-374.844	-12.622	0.344	-0.224
-373.829	-20.579	-0.380	-0.233
-372.815	-69.243	-0.152	-0.058
-371.800	-37.719	0.280	-0.149
-370.785	-200.000	0.042	-0.236
-369.771	-200.000	0.033	0.208
-368.756	-200.000	0.030	0.218
-367.742	-97.485	0.103	-0.027
-366.727	-12.218	0.240	0.157
-365.712	-200.000	-0.014	0.105
-364.698	800.000	0.038	-0.144
-363.683	-95.354	-0.499	-0.134
-362.669	-200.000	-0.008	-0.267
-361.654	71.741	-0.046	-0.047
-360.639	-200.000	0.010	0.165
-359.625	229.633	0.074	-0.120
-358.610	-94.763	0.304	-0.082
-357.596	331.943	0.105	0.202
-356.581	-181.771	-0.208	0.004
-355.566	-104.603	-0.222	0.051
-354.552	181.431	0.104	0.153
-353.537	800.000	0.025	0.074
-352.523	121.187	-0.172	-0.213
-351.508	-200.000	-0.027	0.373
-350.493	128.985	0.128	0.162
-349.479	-137.395	-0.321	0.036
-348.464	138.695	0.134	-0.175
-347.450	-200.000	0.003	0.156
-346.435	142.751	-0.039	0.052
-345.420	-200.000	-0.029	-0.310
-344.406	28.714	0.128	0.108
-343.391	-177.599	-0.052	-0.001
-342.377	-200.000	-0.013	-0.188
-341.362	667.387	-0.025	0.065
-340.348	100.770	-0.098	0.113
-339.333	800.000	0.096	-0.319
-338.318	32.848	-0.172	-0.148
-337.304	310.636	-0.227	0.424
-336.289	-54.179	-0.067	0.030
-335.275	-159.936	-0.279	0.015
-334.260	103.841	-0.089	0.104
-333.245	42.447	0.251	0.227
-332.231	-200.000	-0.041	0.295
-331.216	-200.000	-0.038	-0.348
-330.202	-200.000	0.003	-0.141
-329.187	99.077	0.040	-0.046
-328.172	-93.350	0.136	0.038
-327.158	-200.000	0.167	-0.000
-326.143	-126.278	0.312	-0.046
-325.129	217.813	0.048	0.077
-324.114	-75.388	-0.252	-0.089
-323.099	-200.000	-0.053	-0.254
-322.085	-200.000	-0.048	0.260
-321.070	21.860	0.156	0.127
-320.056	-112.029	-0.097	0.019
-319.041	170.136	0.041	0.058
-318.026	-11.751	-0.197	-0.129
-317.012	-200.000	-0.004	0.241
-315.997	-52.225	-0.168	0.078
-314.983	-38.899	0.263	0.138
-313.968	800.000	-0.034	0.147
-312.953	-200.000	-0.009	0.169
-311.939	800.000	-0.056	-0.158
-310.924	116.924	0.086	-0.105
-309.910	12.697	-0.217	-0.167
-308.895	-108.551	-0.163	0.035
-307.880	131.489	-0.098	-0.126
-306.866	-55.727	-0.165	0.073
-305.851	-74.279	0.247	0.089
-304.837	170.093	0.150	-0.214
-303.822	-6.179	0.162	0.110
-302.807	-3.067	-0.043	0.030
-301.793	-200.000	0.018	-0.195
-300.778	139.579	0.202	-0.265
-299.764	373.381	-0.145	0.294
-298.749	-122.310	0.152	0.025
-297.735	161.798	-0.040	-0.055
-296.720	800.000	-0.067	-0.204
-295.705	-125.726	-0.040	-0.006
-294.691	187.437	0.239	0.355
-293.676	800.000	0.159	-0.442
-292.662	206.207	0.061	-0.095
-291.647	800.000	0.041	0.172
-290.632	-111.879	0.164	-0.033
-289.618	-200.000	0.002	-0.098
-288.603	-83.414	-0.022	-0.007
-287.589	202.135	0.099	0.151
-286.574	-166.998	-0.075	-0.003
-285.559	129.694	0.257	-0.327
-284.545	-123.818	0.238	0.037
-283.530	193.175	0.188	-0.283
-282.516	-54.733	-0.228	-0.103
-281.501	446.747	0.205	0.450
-280.486	800.000	0.088	0.346
-279.472	-68.357	0.171	-0.066
-278.457	123.799	0.105	-0.131
-277.443	800.000	-0.049	0.164
-276.428	460.312	-0.159	0.353
-275.413	-80.849	-0.337	-0.111
-274.399	221.494	0.063	-0.101
-273.384	30.246	0.308	-0.261
-272.370	43.093	0.275	-0.250
-271.355	-111.379	-0.161	-0.033
-270.340	144.359	-0.120	0.160
-269.326	-144.257	-0.182	0.017
-268.311	654.854	0.065	-0.167
-267.297	-200.000	-0.068	0.489
-266.282	-200.000	0.066	0.296
-265.267	-115.892	-0.072	-0.013
-264.253	-104.177	0.343	-0.079
-263.238	9.023	0.136	-0.102
-262.224	-71.794	-0.228	-0.085
-261.209	-48.517	0.133	0.064
-260.195	800.000	0.075	0.316
-259.180	-152.039	-0.215	0.016
-258.165	-200.000	-0.021	0.117
-257.151	78.230	0.181	-0.192
-256.136	-154.849	0.146	-0.010
-255.122	-200.000	0.001	-0.261
-254.107	-37.469	0.159	0.084
-253.092	-200.000	-0.022	-0.532
-252.078	81.084	-0.111	0.119
-251.063	-200.000	-0.000	0.059
-250.049	9.429	0.215	0.161
-249.034	800.000	0.085	0.232
-248.019	-95.005	-0.043	0.012
-247.005	45.262	-0.210	-0.192
-245.990	-200.000	-0.046	0.247
-244.976	117.298	0.133	0.162
-243.961	-200.000	0.015	-0.114
-242.946	-200.000	0.029	0.276
-241.932	30.372	-0.327	-0.278
-240.917	234.686	-0.098	0.161
-239.903	-41.349	-0.215	0.110
-238.888	-90.211	-0.204	-0.059
-237.873	800.000	0.083	-0.231
-236.859	-135.135	-0.474	-0.057
-235.844	231.612	0.210	0.342
-234.830	425.173	0.148	-0.316
-233.815	-47.457	0.232	-0.112
-232.800	61.990	0.171	-0.169
-231.786	-132.481	0.220	-0.028
-230.771	-200.000	-0.000	0.007
-229.757	-200.000	0.011	0.101
-228.742	94.366	0.174	0.196
-227.727	-200.000	0.026	0.130
-226.713	-200.000	0.021	-0.133
-225.698	-100.144	-0.524	0.129
-224.684	-67.372	-0.189	-0.074
-223.669	-155.236	0.345	0.022
-222.655	11.764	0.159	-0.121
-221.640	-57.926	0.260	-0.113
-220.625	800.000	-0.070	0.299
-219.611	32.454	0.112	0.096
-218.596	-190.269	-0.382	-0.004
-217.582	397.801	-0.166	-0.344
-216.567	-200.000	-0.028	-0.147
-215.552	-103.194	0.129	-0.030
-214.538	-90.137	0.138	0.040
-213.523	518.227	0.064	-0.148
-212.509	9.762	-0.279	0.210
-211.494	-200.000	0.015	0.133
-210.479	198.041	0.192	-0.291
-209.465	-176.976	-0.235	0.006
-208.450	-33.404	-0.301	0.165
-207.436	74.777	0.046	-0.048
-206.421	-200.000	0.013	0.242
-205.406	-79.678	0.207	0.069
-204.392	639.518	-0.141	0.357
-203.377	-47.715	-0.110	0.053
-202.363	105.325	-0.084	0.098
-201.348	8.322	0.178	-0.132
-200.333	-200.000	-0.031	0.200
-199.319	-116.911	-0.212	0.039
-198.304	800.000	-0.037	-0.102
-197.290	27.097	0.133	0.111
-196.275	54.216	-0.290	-0.276
-195.260	-200.000	0.075	0.393
-194.246	-105.386	-0.144	0.033
-193.231	483.859	-0.125	-0.281
-192.217	236.988	-0.148	-0.244
-191.202	800.000	0.047	0.150
-190.187	260.929	0.057	0.097
-189.173	-200.000	0.050	0.289
-188.158	-103.056	-0.056	0.013
-187.144	-89.251	0.330	-0.097
-186.129	143.800	-0.238	-0.314
-185.114	-36.420	0.201	0.108
-184.100	-200.000	0.016	0.152
-183.085	366.107	0.111	-0.221
-182.071	-42.030	0.091	0.046
-181.056	0.888	0.119	0.085
-180.042	800.000	-0.071	-0.239
-179.027	-85.703	-0.024	-0.007
-178.012	75.493	-0.157	0.164
-176.998	482.266	-0.023	-0.052
-175.983	-200.000	0.036	0.163
-174.969	800.000	0.053	-0.197
-173.954	-96.817	0.277	0.072
-172.939	21.503	-0.039	-0.031
-171.925	-84.203	-0.377	-0.118
-170.910	-159.344	-0.184	-0.010
-169.896	-43.592	0.289	0.144
-168.881	51.963	-0.140	-0.132
-167.866	800.000	0.080	-0.301
-166.852	-133.873	-0.393	-0.048
-165.837	-200.000	-0.026	-0.132
-164.823	29.829	-0.186	0.157
-163.808	-200.000	-0.034	0.190
-162.793	-53.021	-0.317	0.144
-161.779	-200.000	-0.033	0.266
-160.764	4.241	-0.156	-0.113
-159.750	328.120	-0.099	-0.189
-158.735	-137.056	-0.173	-0.020
-157.720	473.484	0.143	0.319
-156.706	-128.272	0.252	0.036
-155.691	-80.164	0.315	0.104
-154.677	-57.866	0.290	0.126
-153.662	1.922	0.036	-0.026
-152.647	-108.793	-0.108	0.023
-151.633	-200.000	-0.036	0.225
-150.618	-200.000	-0.008	0.069
-149.604	-68.279	0.247	0.095
-148.589	-151.188	-0.199	0.015
-147.574	-200.000	0.015	-0.346
-146.560	19.036	-0.219	-0.174
-145.545	219.343	-0.126	-0.200
-144.531	-40.808	-0.486	0.249
-143.516	-102.399	-0.023	-0.005
-142.502	20.596	-0.455	-0.364
-141.487	384.621	-0.166	-0.339
-140.472	-68.304	0.291	-0.112
-139.458	-200.000	-0.013	-0.077
-138.443	800.000	-0.124	-0.486
-137.429	-200.000	0.046	0.263
-136.414	-125.580	-0.206	0.031
-135.399	800.000	-0.024	0.094
-134.385	93.367	-0.166	0.186
-133.370	143.568	0.056	-0.074
-132.356	-45.066	0.017	-0.009
-131.341	111.966	0.189	0.226
-130.326	-6.317	-0.128	0.086
-129.312	312.185	-0.104	0.193
-128.297	525.087	0.082	-0.190
-127.283	-200.000	-0.020	0.159
-126.268	-60.083	-0.065	0.027
-125.253	85.716	-0.030	-0.033
-124.239	-90.329	-0.346	0.099
-123.224	-103.125	0.126	-0.030
-122.210	65.190	0.139	0.139
