DTS Sentinel unit serial number:	SN413079Multiplexer serial number:	ORYXHardware model number:	OX4-SRSoftware version number:	ORYX F/W v4.00 Oryx Data Collector v3.7.2.0data status	okinstallation	princeton_trtdifferential loss correction	single-endedforward channel	channel 2reverse channel	N/Adate	2019/09/11time	22:33:11forward acquisition time	60.00reverse acquisition time	0.00gamma	496.2192k internal	0.2325k external	0.2325temperature offset calibration	1.0073default loss term (dB/km)	0.3790temperature slope calibration	1.0000multiplexer offset coefficient	1.0000multiplexer slope coefficient	1.0000fibre end	0.00T internal ref (°C)	35.03T ext. ref 1 (°C)	1.79T ext. ref 2 (°C)	29.42length (m)	temperature (°C)	Stokes	anti-Stokes-747.200	114.519	0.255	0.313
-746.185	-200.000	-0.081	0.411
-745.171	800.000	0.091	-0.384
-744.156	-114.357	-0.253	0.049
-743.142	-30.745	0.079	-0.045
-742.127	102.947	0.161	0.190
-741.112	116.004	-0.146	-0.180
-740.098	-200.000	0.026	0.263
-739.083	-0.521	0.117	0.084
-738.069	-200.000	-0.011	-0.266
-737.054	-17.724	-0.199	-0.126
-736.039	-27.618	0.163	-0.096
-735.025	573.445	-0.050	-0.122
-734.010	502.118	-0.122	-0.283
-732.996	-200.000	-0.036	-0.335
-731.981	63.049	0.250	0.253
-730.966	-84.464	-0.207	0.066
-729.952	-68.879	-0.321	-0.125
-728.937	256.845	0.116	0.201
-727.923	17.130	0.142	0.114
-726.908	169.057	-0.147	-0.211
-725.894	168.250	-0.113	-0.162
-724.879	-111.622	0.213	-0.044
-723.864	352.085	-0.133	0.265
-722.850	-10.467	-0.297	-0.199
-721.835	800.000	0.038	0.143
-720.821	-11.197	0.228	-0.152
-719.806	44.823	-0.066	0.061
-718.791	800.000	-0.094	-0.304
-717.777	-74.464	-0.120	0.044
-716.762	244.436	0.066	-0.111
-715.748	-83.274	0.175	-0.057
-714.733	-73.791	-0.385	-0.141
-713.718	68.792	0.205	-0.212
-712.704	-163.965	-0.113	-0.005
-711.689	-200.000	0.021	-0.184
-710.675	174.938	-0.080	0.117
-709.660	71.540	0.156	0.163
-708.645	-200.000	-0.004	0.348
-707.631	800.000	-0.014	0.044
-706.616	15.609	0.221	0.175
-705.602	11.856	-0.091	0.071
-704.587	25.140	0.239	-0.200
-703.572	-116.105	0.124	0.023
-702.558	370.362	-0.024	0.049
-701.543	228.675	0.076	0.125
-700.529	-165.798	0.307	-0.013
-699.514	-200.000	-0.017	0.125
-698.499	-10.553	-0.287	0.191
-697.485	2.744	0.137	0.100
-696.470	157.485	-0.070	-0.097
-695.456	-67.429	0.517	0.204
-694.441	-76.415	0.117	0.041
-693.426	-158.858	0.044	0.003
-692.412	186.588	0.254	-0.380
-691.397	15.211	-0.157	0.124
-690.383	132.224	-0.182	-0.237
-689.368	-116.072	-0.130	-0.024
-688.354	30.277	-0.339	-0.291
-687.339	-132.705	-0.146	-0.019
-686.324	347.811	0.126	0.250
-685.310	-30.256	-0.230	0.132
-684.295	-48.289	-0.229	0.111
-683.281	-34.545	-0.059	0.033
-682.266	-200.000	0.049	-0.431
-681.251	-28.925	0.154	-0.089
-680.237	43.942	-0.161	-0.148
-679.222	105.009	0.161	-0.191
-678.208	311.729	0.096	-0.182
-677.193	-13.990	0.222	-0.145
-676.178	178.178	0.122	0.179
-675.164	147.838	0.240	-0.326
-674.149	75.688	0.099	0.105
-673.135	-24.329	-0.236	0.142
-672.120	-165.226	-0.064	0.003
-671.105	21.867	0.053	-0.043
-670.091	-200.000	0.051	0.304
-669.076	93.015	0.084	-0.096
-668.062	-38.115	0.331	-0.177
-667.047	-150.537	-0.133	-0.010
-666.032	178.518	0.055	-0.081
-665.018	256.098	0.035	0.061
-664.003	-116.250	0.133	-0.025
-662.989	280.604	0.095	-0.171
-661.974	-200.000	0.013	-0.124
-660.959	-78.348	0.220	0.076
-659.945	56.485	-0.239	-0.233
-658.930	-101.137	0.412	-0.101
-657.916	-74.773	0.068	0.025
-656.901	-56.889	-0.251	0.112
-655.886	47.829	0.218	0.205
-654.872	-170.206	0.159	0.006
-653.857	130.052	-0.161	0.207
-652.843	397.728	-0.007	-0.015
-651.828	122.008	0.188	-0.236
-650.814	-141.668	0.161	-0.016
-649.799	-152.854	-0.079	0.006
-648.784	77.358	0.085	-0.091
-647.770	-47.160	-0.195	0.096
-646.755	800.000	0.067	-0.224
-645.741	-143.017	0.043	-0.004
-644.726	409.325	-0.062	-0.132
-643.711	-130.862	-0.237	0.032
-642.697	-45.188	0.423	-0.211
-641.682	-114.017	-0.066	0.013
-640.668	-21.714	0.331	0.202
-639.653	-200.000	-0.004	0.117
-638.638	-135.760	-0.145	0.017
-637.624	45.758	0.064	0.060
-636.609	-43.799	-0.337	0.171
-635.595	-17.761	-0.418	0.264
-634.580	-200.000	0.053	0.244
-633.565	330.504	0.153	-0.295
-632.551	24.971	0.262	-0.219
-631.536	-200.000	-0.022	-0.197
-630.522	22.239	0.078	-0.064
-629.507	102.857	-0.135	-0.159
-628.492	-200.000	-0.037	-0.241
-627.478	-200.000	0.040	-0.178
-626.463	-125.960	0.114	-0.017
-625.449	358.128	-0.050	0.101
-624.434	-18.255	0.190	0.119
-623.419	-200.000	-0.086	0.503
-622.405	-200.000	-0.029	-0.414
-621.390	-8.946	0.213	-0.144
-620.376	-200.000	-0.030	0.286
-619.361	-71.669	0.083	0.031
-618.346	581.211	0.034	0.085
-617.332	-127.596	-0.226	-0.033
-616.317	754.109	0.049	0.134
-615.303	-21.174	-0.155	-0.095
-614.288	320.471	-0.078	0.149
-613.273	-147.283	-0.136	0.012
-612.259	-41.684	-0.158	0.081
-611.244	-155.675	-0.334	-0.021
-610.230	248.888	0.149	-0.253
-609.215	564.425	-0.137	0.334
-608.201	-141.187	-0.297	0.030
-607.186	-90.282	0.202	0.059
-606.171	199.414	0.067	-0.102
-605.157	-200.000	-0.006	-0.423
-604.142	-31.975	0.072	-0.040
-603.128	800.000	0.072	-0.269
-602.113	14.013	-0.142	-0.111
-601.098	800.000	0.042	0.155
-600.084	-63.383	0.220	0.091
-599.069	-200.000	-0.014	0.077
-598.055	-90.018	0.176	0.051
-597.040	349.101	-0.147	-0.290
-596.025	31.393	-0.232	0.200
-595.011	171.960	0.175	-0.253
-593.996	-200.000	0.001	0.243
-592.982	91.475	0.222	-0.250
-591.967	61.096	-0.145	0.144
-590.952	-200.000	-0.009	-0.153
-589.938	-200.000	-0.020	-0.107
-588.923	228.861	0.118	-0.193
-587.909	-200.000	-0.024	-0.216
-586.894	74.059	0.325	0.343
-585.879	185.204	-0.216	0.322
-584.865	514.818	-0.043	-0.101
-583.850	96.313	-0.141	-0.162
-582.836	-200.000	-0.008	-0.078
-581.821	70.458	0.137	-0.142
-580.806	259.485	0.104	-0.180
-579.792	432.227	-0.159	0.345
-578.777	800.000	-0.038	0.151
-577.763	675.111	0.094	-0.245
-576.748	244.521	0.204	0.344
-575.733	90.263	-0.122	0.137
-574.719	-139.964	-0.160	-0.017
-573.704	-200.000	-0.040	0.329
-572.690	-78.566	-0.301	0.103
-571.675	-200.000	-0.031	0.161
-570.661	-79.356	0.194	0.066
-569.646	21.481	-0.088	-0.072
-568.631	569.886	0.137	0.333
-567.617	-73.867	-0.209	0.076
-566.602	-200.000	-0.071	0.436
-565.588	719.487	-0.110	-0.292
-564.573	249.747	-0.164	0.278
-563.558	104.628	0.153	0.180
-562.544	75.966	0.084	-0.090
-561.529	178.281	-0.147	-0.214
-560.515	194.455	0.051	-0.078
-559.500	-127.259	0.145	-0.021
-558.485	395.721	-0.144	0.301
-557.471	-54.618	0.043	0.019
-556.456	58.095	-0.168	-0.165
-555.442	678.989	0.034	0.089
-554.427	-200.000	-0.054	-0.285
-553.412	-51.495	-0.189	-0.089
-552.398	-171.750	-0.321	0.011
-551.383	-68.063	-0.274	0.107
-550.369	463.507	-0.050	0.112
-549.354	-107.690	-0.188	-0.041
-548.339	-143.789	0.176	0.017
-547.325	113.703	-0.131	-0.160
-546.310	194.758	-0.053	0.080
-545.296	-171.976	-0.023	-0.001
-544.281	800.000	-0.032	-0.135
-543.266	800.000	-0.016	-0.067
-542.252	-137.573	0.133	-0.015
-541.237	5.647	-0.344	-0.255
-540.223	88.209	-0.191	0.212
-539.208	123.859	0.102	-0.128
-538.193	176.891	0.035	-0.051
-537.179	800.000	-0.045	0.148
-536.164	63.964	0.098	0.099
-535.150	66.455	0.171	-0.174
-534.135	-27.158	-0.396	0.231
-533.121	735.469	0.119	-0.318
-532.106	-110.119	0.326	-0.068
-531.091	-142.345	0.110	0.011
-530.077	800.000	0.123	0.348
-529.062	-98.358	0.378	-0.097
-528.048	800.000	0.042	-0.123
-527.033	680.379	0.149	0.389
-526.018	-200.000	0.018	-0.155
-525.004	424.250	-0.055	-0.117
-523.989	83.307	-0.122	-0.133
-522.975	0.813	-0.072	0.051
-521.960	-200.000	0.023	-0.204
-520.945	-137.485	-0.234	0.026
-519.931	-200.000	-0.017	0.145
-518.916	800.000	0.060	-0.184
-517.902	-163.347	-0.252	0.012
-516.887	800.000	0.070	-0.213
-515.872	409.265	0.144	-0.304
-514.858	63.315	-0.160	-0.160
-513.843	62.260	0.224	-0.224
-512.829	-164.345	0.249	0.011
-511.814	-139.634	0.299	-0.032
-510.799	-37.861	0.285	0.152
-509.785	-200.000	0.043	0.333
-508.770	122.354	-0.046	0.058
-507.756	-150.184	0.126	-0.010
-506.741	-110.112	0.154	-0.032
-505.726	-144.276	0.113	-0.011
-504.712	-63.070	0.179	-0.074
-503.697	-200.000	-0.006	-0.028
-502.683	-200.000	0.021	-0.132
-501.668	250.214	-0.158	-0.268
-500.653	-200.000	0.027	0.130
-499.639	141.883	-0.128	-0.170
-498.624	-160.514	0.047	0.003
-497.610	125.379	-0.133	0.168
-496.595	-172.798	0.185	-0.006
-495.581	-11.089	0.148	0.097
-494.566	45.275	-0.096	0.089
-493.551	782.462	-0.166	-0.453
-492.537	-200.000	0.014	0.247
-491.522	800.000	0.151	-0.461
-490.508	-86.939	-0.226	0.069
-489.493	5.553	0.132	-0.097
-488.478	-200.000	-0.013	0.219
-487.464	-121.460	0.315	-0.052
-486.449	-200.000	-0.063	0.340
-485.435	-200.000	0.045	-0.290
-484.420	74.136	-0.229	-0.240
-483.405	-55.593	-0.322	0.144
-482.391	257.155	0.028	0.048
-481.376	-40.718	0.376	-0.195
-480.362	-200.000	0.042	-0.206
-479.347	-114.831	-0.392	0.075
-478.332	300.283	0.130	-0.240
-477.318	313.711	-0.263	0.494
-476.303	-125.693	-0.397	0.060
-475.289	-181.160	-0.081	-0.002
-474.274	-63.958	0.161	0.066
-473.259	13.364	0.040	-0.031
-472.245	11.049	-0.402	-0.307
-471.230	800.000	-0.026	-0.107
-470.216	22.942	0.198	0.162
-469.201	-42.939	0.246	0.125
-468.186	178.155	0.046	-0.068
-467.172	592.357	-0.077	-0.190
-466.157	671.960	-0.112	-0.290
-465.143	250.758	0.069	-0.117
-464.128	-200.000	-0.103	-0.495
-463.113	-27.505	-0.268	-0.156
-462.099	800.000	-0.127	-0.383
-461.084	217.919	-0.116	-0.185
-460.070	-3.842	0.086	0.059
-459.055	-5.221	0.312	0.214
-458.040	113.772	-0.156	-0.189
-457.026	-78.961	-0.321	-0.109
-456.011	-200.000	-0.003	0.083
-454.997	45.181	-0.253	0.233
-453.982	610.122	0.049	0.122
-452.968	452.342	0.061	-0.135
-451.953	-121.492	-0.164	0.027
-450.938	513.129	0.067	0.155
-449.924	-103.424	0.362	0.085
-448.909	-52.171	-0.303	-0.140
-447.895	14.552	0.125	0.097
-446.880	-16.955	0.294	0.186
-445.865	-140.676	0.145	-0.015
-444.851	-70.353	0.317	0.120
-443.836	-77.950	0.304	0.105
-442.822	-200.000	-0.093	-0.452
-441.807	-200.000	0.012	-0.487
-440.792	308.262	0.050	-0.093
-439.778	256.564	0.111	0.190
-438.763	-93.217	0.170	0.047
-437.749	-200.000	0.024	-0.145
-436.734	800.000	0.115	-0.342
-435.719	56.046	0.087	-0.084
-434.705	-106.065	0.062	0.014
-433.690	207.253	-0.170	0.265
-432.676	800.000	0.018	-0.056
-431.661	-197.569	0.264	-0.002
-430.646	20.029	-0.275	0.221
-429.632	-200.000	0.011	0.167
-428.617	-37.505	0.209	0.111
-427.603	302.833	-0.053	0.097
-426.588	38.590	-0.183	-0.163
-425.573	-8.049	-0.133	-0.089
-424.559	-200.000	0.031	0.155
-423.544	720.089	-0.087	-0.230
-422.530	-43.850	-0.081	-0.040
-421.515	-8.602	-0.058	-0.039
-420.500	-19.857	0.198	-0.122
-419.486	-100.151	-0.275	-0.068
-418.471	-20.420	-0.430	0.264
-417.457	193.438	0.303	0.457
-416.442	800.000	0.088	0.308
-415.428	-14.880	-0.170	0.109
-414.413	-200.000	-0.007	0.186
-413.398	-200.000	0.020	0.147
-412.384	-98.094	-0.147	0.038
-411.369	8.336	0.123	-0.092
-410.355	800.000	-0.086	0.268
-409.340	-200.000	-0.009	-0.139
-408.325	-166.095	0.196	-0.008
-407.311	-82.963	0.028	0.009
-406.296	-4.639	-0.270	-0.185
-405.282	240.967	0.126	0.210
-404.267	11.553	0.300	-0.229
-403.252	28.656	-0.220	0.185
-402.238	-22.340	-0.126	-0.076
-401.223	-121.691	-0.283	0.047
-400.209	-200.000	-0.030	-0.518
-399.194	98.243	-0.113	-0.130
-398.179	-131.543	-0.122	0.016
-397.165	-34.519	0.212	0.115
-396.150	492.355	0.127	0.290
-395.136	33.281	-0.356	0.307
-394.121	-180.535	0.051	0.001
-393.106	-200.000	0.047	0.285
-392.092	-200.000	0.028	0.163
-391.077	79.718	0.084	-0.090
-390.063	11.041	-0.310	0.236
-389.048	118.362	0.193	-0.237
-388.033	-157.075	-0.176	-0.011
-387.019	144.540	-0.096	-0.128
-386.004	23.496	-0.276	-0.226
-384.990	36.133	0.144	-0.126
-383.975	47.363	0.179	-0.166
-382.960	-200.000	-0.005	0.238
-381.946	800.000	-0.047	0.172
-380.931	800.000	0.043	-0.143
-379.917	-9.284	0.104	-0.069
-378.902	-200.000	0.037	0.218
-377.888	-200.000	0.032	-0.184
-376.873	156.203	-0.219	-0.300
-375.858	39.071	-0.228	0.203
-374.844	299.991	0.078	-0.144
-373.829	-200.000	-0.016	0.084
-372.815	800.000	-0.109	-0.301
-371.800	800.000	0.098	0.304
-370.785	800.000	0.056	-0.165
-369.771	-55.929	0.236	-0.105
-368.756	-28.360	0.177	-0.102
-367.742	800.000	0.009	-0.029
-366.727	324.769	-0.108	0.205
-365.712	382.131	0.115	0.235
-364.698	-149.140	-0.065	0.005
-363.683	67.131	0.091	0.092
-362.669	800.000	0.043	0.128
-361.654	46.621	-0.235	-0.217
-360.639	506.797	-0.042	0.097
-359.625	-177.534	-0.153	0.004
-358.610	-128.934	0.234	0.033
-357.596	-98.947	-0.346	-0.087
-356.581	387.049	-0.077	0.159
-355.566	132.652	0.101	-0.129
-354.552	-100.846	0.062	-0.015
-353.537	46.808	-0.186	0.172
-352.523	-137.903	-0.387	-0.043
-351.508	74.903	0.164	0.171
-350.493	-19.835	0.107	0.066
-349.479	-133.130	0.007	-0.001
-348.464	-120.565	-0.354	-0.060
-347.450	70.260	-0.169	0.173
-346.435	-95.527	-0.385	0.102
-345.420	-72.678	-0.288	0.106
-344.406	271.583	-0.157	0.275
-343.391	147.126	0.081	-0.108
-342.377	271.382	-0.046	-0.080
-341.362	-107.076	0.101	0.022
-340.348	-4.887	0.319	0.218
-339.333	800.000	-0.011	-0.036
-338.318	210.784	-0.073	-0.114
-337.304	560.943	-0.107	-0.257
-336.289	-200.000	0.006	-0.260
-335.275	-200.000	-0.005	-0.445
-334.260	800.000	0.043	0.173
-333.245	-172.206	-0.241	-0.008
-332.231	-200.000	0.012	0.112
-331.216	800.000	0.084	0.272
-330.202	-200.000	0.027	0.151
-329.187	-25.764	0.129	-0.076
-328.172	-200.000	0.023	-0.123
-327.158	-200.000	-0.053	0.333
-326.143	800.000	0.021	0.085
-325.129	789.266	0.028	-0.076
-324.114	-120.745	-0.342	-0.057
-323.099	-11.041	0.338	-0.222
-322.085	223.708	-0.151	0.241
-321.070	-200.000	0.074	0.364
-320.056	-200.000	-0.015	0.231
-319.041	-31.736	0.025	-0.014
-318.026	-62.127	0.184	0.076
-317.012	-92.982	-0.365	0.101
-315.997	29.189	-0.116	0.097
-314.983	-60.555	0.353	-0.149
-313.968	-7.175	0.311	-0.209
-312.953	130.819	-0.071	-0.090
-311.939	-200.000	-0.002	-0.234
-310.924	-65.402	0.113	0.045
-309.910	-53.649	0.421	0.191
-308.895	133.447	-0.103	-0.132
-307.880	-200.000	-0.006	-0.198
-306.866	401.100	-0.144	-0.299
-305.851	124.858	-0.149	0.186
-304.837	61.855	-0.288	0.285
-303.822	-138.259	-0.227	-0.025
-302.807	800.000	0.062	0.236
-301.793	800.000	-0.070	-0.234
-300.778	316.840	-0.140	0.263
-299.764	-90.016	0.183	0.053
-298.749	-111.267	0.252	-0.051
-297.735	-68.171	-0.154	-0.059
-296.720	800.000	-0.093	0.280
-295.705	-200.000	-0.083	0.494
-294.691	393.762	0.153	0.316
-293.676	156.223	-0.230	0.314
-292.662	186.017	-0.168	0.247
-291.647	-193.469	-0.189	-0.002
-290.632	-200.000	-0.392	-0.001
-289.618	13.234	-0.080	-0.061
-288.603	119.157	0.072	-0.089
-287.589	-48.253	0.218	-0.104
-286.574	-200.000	-0.056	-0.271
-285.559	88.000	-0.242	-0.266
-284.545	-93.480	0.104	0.029
-283.530	-47.500	-0.137	0.066
-282.516	99.608	-0.118	0.135
-281.501	-200.000	0.069	-0.410
-280.486	-64.525	-0.147	-0.059
-279.472	-200.000	0.032	-0.173
-278.457	32.899	0.216	-0.185
-277.443	790.348	0.144	-0.393
-276.428	-57.334	-0.308	-0.134
-275.413	-103.956	0.263	0.061
-274.399	-28.403	0.203	0.116
-273.384	-200.000	0.083	0.454
-272.370	800.000	-0.021	0.068
-271.355	29.941	-0.118	-0.100
-270.340	-111.739	0.316	0.063
-269.326	-128.012	-0.041	-0.006
-268.311	-42.777	0.209	-0.105
-267.297	-57.689	-0.229	0.100
-266.282	111.168	0.259	-0.310
-265.267	-200.000	0.005	-0.350
-264.253	-26.927	0.245	-0.142
-263.238	114.204	0.259	0.313
-262.224	-112.256	-0.266	0.053
-261.209	-43.157	-0.236	0.118
-260.195	800.000	0.051	0.213
-259.180	54.846	-0.254	-0.243
-258.165	-65.578	0.122	0.048
-257.151	-71.815	0.452	0.167
-256.136	521.311	-0.044	-0.103
-255.122	-116.732	0.157	-0.028
-254.107	-156.434	-0.024	-0.001
-253.092	-98.186	0.221	0.056
-252.078	79.361	0.307	-0.326
-251.063	484.088	0.133	-0.299
-250.049	39.140	0.096	-0.085
-249.034	-121.918	0.318	-0.052
-248.019	-200.000	-0.018	-0.147
-247.005	23.240	-0.220	-0.179
-245.990	72.943	0.084	-0.086
-244.976	-17.357	-0.136	0.085
-243.961	227.741	0.079	-0.127
-242.946	150.906	0.159	-0.214
-241.932	74.178	0.153	0.159
-240.917	483.781	0.098	-0.220
-239.903	43.004	0.111	-0.100
-238.888	-104.907	0.293	0.067
-237.873	800.000	-0.140	0.463
-236.859	-9.659	0.226	0.149
-235.844	158.499	0.095	-0.130
-234.830	694.827	0.113	0.293
-233.815	-19.515	0.250	-0.153
-232.800	316.693	-0.139	0.259
-231.786	800.000	0.013	-0.055
-230.771	-65.736	-0.125	-0.050
-229.757	-143.128	0.086	0.008
-228.742	-200.000	-0.018	0.183
-227.727	-56.858	-0.217	-0.095
-226.713	190.830	0.086	-0.128
-225.698	212.809	0.069	-0.107
-224.684	-200.000	0.036	-0.251
-223.669	15.919	0.232	-0.181
-222.655	-200.000	-0.013	-0.068
-221.640	331.391	-0.032	-0.062
-220.625	571.109	-0.189	-0.455
-219.611	800.000	-0.065	-0.211
-218.596	284.213	0.090	0.159
-217.582	144.757	0.154	0.204
-216.567	245.981	-0.101	0.167
-215.552	89.778	0.270	0.297
-214.538	-39.081	-0.186	-0.097
-213.523	-165.649	-0.160	0.007
-212.509	-159.736	0.335	0.018
-211.494	52.823	-0.219	-0.207
-210.479	-167.840	0.195	0.008
-209.465	-74.650	-0.200	-0.071
-208.450	800.000	0.101	0.296
-207.436	800.000	-0.020	0.069
-206.421	-72.060	-0.214	0.079
-205.406	-53.195	0.503	0.228
-204.392	-121.563	-0.140	-0.023
-203.377	-5.105	0.160	0.109
-202.363	172.892	0.067	0.096
-201.348	-82.772	-0.389	-0.124
-200.333	-114.835	-0.173	0.033
-199.319	-61.088	0.288	-0.120
-198.304	14.142	0.289	-0.223
-197.290	29.473	0.339	-0.284
-196.275	-200.000	-0.032	0.257
-195.260	-200.000	-0.011	0.095
-194.246	800.000	-0.056	0.229
-193.231	-200.000	-0.028	-0.163
-192.217	65.627	-0.050	0.050
-191.202	-71.891	0.086	-0.032
-190.187	118.474	0.338	0.412
-189.173	-189.040	-0.452	0.005
-188.158	12.694	-0.077	-0.059
-187.144	-200.000	0.032	0.330
-186.129	45.631	-0.275	-0.251
-185.114	800.000	0.152	0.510
-184.100	608.973	0.186	0.459
-183.085	-200.000	0.024	0.418
-182.071	18.369	0.175	-0.138
-181.056	608.619	0.037	0.091
-180.042	-200.000	0.013	-0.262
-179.027	-74.187	-0.281	-0.101
-178.012	254.180	-0.111	0.187
-176.998	79.840	0.242	0.256
-175.983	277.299	0.079	-0.138
-174.969	-200.000	-0.044	0.199
-173.954	-115.377	0.198	-0.037
-172.939	-200.000	0.006	-0.124
-171.925	-68.839	-0.074	-0.028
-170.910	-200.000	-0.023	-0.108
-169.896	-200.000	-0.001	0.033
-168.881	-84.537	0.292	-0.091
-167.866	225.293	0.189	-0.301
-166.852	-200.000	0.049	0.000
-165.837	153.913	-0.258	-0.349
-164.823	58.804	0.086	0.083
-163.808	800.000	0.120	0.513
-162.793	-35.297	-0.219	0.117
-161.779	148.225	0.042	0.056
-160.764	4.494	0.111	0.080
-159.750	-115.325	-0.022	-0.004
-158.735	-22.860	0.323	-0.192
-157.720	-145.467	-0.268	0.024
-156.706	-43.426	-0.059	-0.030
-155.691	-128.941	-0.278	-0.039
-154.677	50.947	0.084	-0.078
-153.662	-200.000	-0.005	-0.051
-152.647	-155.937	-0.130	-0.008
-151.633	73.201	0.215	0.222
-150.618	-200.000	-0.014	0.085
-149.604	-200.000	-0.014	-0.072
-148.589	192.640	0.083	-0.124
-147.574	800.000	0.074	0.206
-146.560	108.730	0.140	-0.165
-145.545	71.512	-0.213	-0.218
-144.531	-15.060	-0.106	-0.067
-143.516	90.608	0.113	0.125
-142.502	-200.000	-0.035	0.221
-141.487	213.583	0.037	-0.058
-140.472	800.000	0.049	-0.209
-139.458	800.000	0.058	0.192
-138.443	-200.000	-0.002	0.109
-137.429	-85.103	0.238	0.074
-136.414	-64.335	-0.284	-0.114
-135.399	150.492	-0.183	0.245
-134.385	384.526	0.086	0.174
-133.370	-26.174	-0.038	-0.022
-132.356	288.497	-0.079	-0.142
-131.341	-65.675	-0.178	0.070
-130.326	-27.176	-0.154	-0.088
-129.312	449.576	-0.162	-0.351
-128.297	169.443	0.145	0.204
-127.283	55.474	-0.284	0.270
-126.268	-200.000	-0.011	0.104
-125.253	-200.000	0.012	-0.057
-124.239	-54.426	0.361	-0.161
-123.224	-133.767	0.263	0.032
-122.210	-125.281	0.221	0.033
-121.195	47.224	-0.141	0.129
