DTS Sentinel unit serial number:	SN413079Multiplexer serial number:	ORYXHardware model number:	OX4-SRSoftware version number:	ORYX F/W v4.00 Oryx Data Collector v3.7.2.0data status	okinstallation	princeton_trtdifferential loss correction	single-endedforward channel	channel 2reverse channel	N/Adate	2019/09/13time	23:19:34forward acquisition time	60.00reverse acquisition time	0.00gamma	496.2192k internal	0.2337k external	0.2337temperature offset calibration	1.0131default loss term (dB/km)	0.3790temperature slope calibration	1.0000multiplexer offset coefficient	1.0000multiplexer slope coefficient	1.0000fibre end	0.00T internal ref (°C)	27.00T ext. ref 1 (°C)	3.18T ext. ref 2 (°C)	20.94length (m)	temperature (°C)	Stokes	anti-Stokes-747.200	800.000	0.030	0.084
-746.185	-200.000	0.032	0.317
-745.171	-91.105	0.395	-0.114
-744.156	-200.000	0.003	0.356
-743.142	86.904	-0.210	0.233
-742.127	178.553	0.256	0.375
-741.112	-111.511	0.444	0.091
-740.098	270.651	-0.162	0.286
-739.083	193.212	0.174	0.263
-738.069	-75.187	-0.029	0.010
-737.054	118.303	-0.125	-0.154
-736.039	-164.960	-0.355	0.016
-735.025	-124.985	0.557	0.086
-734.010	29.121	-0.454	-0.386
-732.996	371.551	0.091	-0.186
-731.981	800.000	-0.031	0.104
-730.966	-200.000	-0.079	-0.420
-729.952	-200.000	-0.032	-0.424
-728.937	-96.536	-0.187	0.049
-727.923	-38.682	-0.140	-0.074
-726.908	-64.938	0.133	0.054
-725.894	25.456	-0.374	-0.312
-724.879	473.031	0.048	-0.109
-723.864	-200.000	0.042	0.260
-722.850	-67.535	-0.072	-0.028
-721.835	-61.136	-0.252	-0.107
-720.821	78.328	-0.173	-0.186
-719.806	8.609	0.170	-0.128
-718.791	-200.000	-0.023	-0.278
-717.777	64.128	0.190	0.192
-716.762	-195.307	0.021	0.000
-715.748	-134.543	-0.076	0.009
-714.733	-200.000	-0.050	0.227
-713.718	-164.303	0.084	0.004
-712.704	173.859	-0.244	0.353
-711.689	-118.860	-0.128	-0.023
-710.675	47.590	0.179	-0.168
-709.660	-64.767	0.305	-0.124
-708.645	800.000	0.026	-0.097
-707.631	-44.747	0.232	0.116
-706.616	-200.000	-0.016	0.118
-705.602	-82.891	0.447	0.145
-704.587	-185.000	0.386	0.006
-703.572	800.000	0.076	0.322
-702.558	-200.000	-0.010	-0.227
-701.543	-101.506	0.151	-0.037
-700.529	144.700	0.230	-0.308
-699.514	-125.450	-0.231	-0.035
-698.499	-39.419	-0.215	-0.113
-697.485	297.747	0.106	-0.196
-696.470	14.834	0.330	-0.258
-695.456	-200.000	-0.014	0.301
-694.441	-200.000	0.004	0.046
-693.426	-75.490	0.270	0.096
-692.412	695.120	0.035	-0.091
-691.397	138.268	0.163	0.214
-690.383	-74.397	-0.233	-0.084
-689.368	-200.000	-0.007	-0.104
-688.354	73.919	-0.094	0.099
-687.339	-113.914	0.368	0.072
-686.324	140.184	-0.133	-0.176
-685.310	85.310	-0.035	0.039
-684.295	421.755	0.070	-0.151
-683.281	-200.000	-0.026	-0.187
-682.266	-84.517	-0.191	0.061
-681.251	-60.601	0.232	0.099
-680.237	-112.846	-0.505	-0.100
-679.222	-200.000	-0.023	-0.271
-678.208	-200.000	-0.010	-0.321
-677.193	660.846	-0.090	-0.233
-676.178	-200.000	0.062	-0.277
-675.164	305.516	0.099	-0.185
-674.149	-194.201	0.235	-0.002
-673.135	-200.000	0.011	0.092
-672.120	242.246	-0.188	-0.315
-671.105	219.054	-0.168	0.269
-670.091	-68.141	0.204	-0.080
-669.076	371.967	0.075	0.152
-668.062	-200.000	0.001	0.023
-667.047	-200.000	0.010	-0.089
-666.032	13.606	-0.310	-0.241
-665.018	312.515	0.151	0.284
-664.003	-200.000	0.015	-0.331
-662.989	-200.000	-0.014	-0.233
-661.974	47.740	-0.101	-0.094
-660.959	-200.000	-0.016	0.125
-659.945	800.000	-0.034	-0.113
-658.930	-43.619	0.225	-0.114
-657.916	800.000	0.011	0.045
-656.901	120.390	0.313	-0.389
-655.886	132.805	0.143	-0.185
-654.872	-4.199	0.143	0.099
-653.857	628.958	-0.191	-0.484
-652.843	-99.277	0.446	-0.113
-651.828	-60.234	-0.181	0.077
-650.814	54.650	-0.117	-0.112
-649.799	159.332	-0.254	-0.353
-648.784	-45.819	-0.112	-0.055
-647.770	-141.632	-0.134	-0.013
-646.755	24.832	-0.140	-0.116
-645.741	-200.000	-0.022	-0.172
-644.726	154.760	0.135	-0.186
-643.711	-62.849	-0.240	0.099
-642.697	800.000	-0.083	-0.302
-641.682	-31.732	0.086	0.048
-640.668	71.333	0.089	-0.092
-639.653	64.460	-0.103	0.104
-638.638	-135.593	-0.431	0.051
-637.624	-200.000	0.009	0.252
-636.609	257.988	0.126	0.217
-635.595	6.250	0.111	-0.082
-634.580	709.050	-0.062	0.163
-633.565	-128.167	0.088	0.013
-632.551	121.609	0.188	-0.234
-631.536	-137.894	0.198	0.022
-630.522	-81.383	-0.213	0.070
-629.507	-162.136	-0.133	0.007
-628.492	300.619	-0.096	-0.176
-627.478	-200.000	-0.015	0.094
-626.463	118.549	0.098	0.121
-625.449	663.631	-0.088	0.228
-624.434	475.389	-0.112	-0.253
-623.419	800.000	-0.050	0.162
-622.405	29.710	-0.181	0.154
-621.390	-132.796	-0.198	0.025
-620.376	59.446	-0.121	0.119
-619.361	800.000	0.059	0.182
-618.346	-200.000	-0.024	-0.285
-617.332	675.476	0.043	-0.112
-616.317	51.321	-0.082	0.078
-615.303	-134.953	-0.248	0.030
-614.288	178.881	-0.192	-0.281
-613.273	800.000	0.064	-0.177
-612.259	741.688	0.090	0.241
-611.244	-142.993	-0.365	-0.035
-610.230	-136.165	0.318	-0.037
-609.215	-132.374	-0.151	0.019
-608.201	-200.000	0.035	-0.323
-607.186	50.739	0.300	-0.284
-606.171	-70.613	0.335	-0.127
-605.157	-44.194	-0.087	-0.044
-604.142	-8.675	-0.175	0.117
-603.128	-136.133	-0.195	-0.023
-602.113	-64.064	-0.060	0.025
-601.098	-137.395	0.135	0.015
-600.084	-55.163	-0.035	0.016
-599.069	82.207	-0.295	0.319
-598.055	-48.883	-0.301	-0.144
-597.040	217.902	0.070	0.112
-596.025	-200.000	0.014	0.219
-595.011	-200.000	-0.025	-0.192
-593.996	47.478	0.287	-0.267
-592.982	-161.988	-0.071	0.004
-591.967	119.769	-0.135	-0.167
-590.952	-83.182	-0.175	-0.056
-589.938	-81.131	0.217	-0.072
-588.923	-200.000	0.005	0.083
-587.909	-112.717	-0.261	-0.052
-586.894	-19.370	-0.394	-0.244
-585.879	-179.916	0.196	0.004
-584.865	-64.596	-0.138	0.056
-583.850	373.401	0.119	0.241
-582.836	119.443	0.117	0.144
-581.821	-200.000	0.035	-0.281
-580.806	-200.000	0.013	-0.141
-579.792	-200.000	-0.004	0.171
-578.777	-200.000	0.027	-0.211
-577.763	61.702	-0.010	0.010
-576.748	800.000	-0.061	0.179
-575.733	-200.000	0.011	0.155
-574.719	110.066	0.154	0.184
-573.704	689.663	0.077	-0.202
-572.690	81.759	0.255	-0.275
-571.675	121.229	-0.088	-0.109
-570.661	111.095	0.093	-0.111
-569.646	-169.592	-0.320	0.012
-568.631	276.694	0.096	0.170
-567.617	-162.657	-0.208	-0.010
-566.602	28.920	0.024	-0.020
-565.588	-146.583	-0.129	0.011
-564.573	-0.196	-0.217	0.154
-563.558	-114.366	-0.174	-0.033
-562.544	-7.974	0.293	0.197
-561.529	170.963	-0.148	0.211
-560.515	-42.919	-0.297	0.150
-559.500	114.023	0.116	0.141
-558.485	800.000	-0.072	0.299
-557.471	800.000	0.025	0.088
-556.456	-140.986	0.120	-0.012
-555.442	-200.000	0.020	0.277
-554.427	58.185	-0.158	-0.154
-553.412	-200.000	0.031	0.276
-552.398	46.592	-0.089	-0.082
-551.383	309.533	-0.073	-0.136
-550.369	107.866	-0.113	-0.134
-549.354	-200.000	0.045	-0.208
-548.339	103.393	-0.093	0.108
-547.325	209.250	-0.139	-0.217
-546.310	220.055	-0.054	0.086
-545.296	167.083	0.227	-0.320
-544.281	-13.527	-0.067	-0.043
-543.266	-200.000	-0.046	0.394
-542.252	-63.221	-0.156	0.064
-541.237	-188.119	0.432	0.006
-540.223	-86.328	0.326	0.100
-539.208	-200.000	-0.052	-0.340
-538.193	140.183	0.244	-0.321
-537.179	-200.000	-0.031	-0.331
-536.164	-200.000	-0.019	-0.504
-535.150	246.500	-0.025	0.042
-534.135	-200.000	0.005	0.134
-533.121	141.725	0.212	0.279
-532.106	-34.827	0.152	0.083
-531.091	225.644	-0.129	0.209
-530.077	-144.729	-0.169	0.015
-529.062	332.467	-0.100	0.192
-528.048	800.000	-0.042	0.149
-527.033	-109.362	0.219	-0.046
-526.018	-200.000	0.047	-0.281
-525.004	-200.000	0.073	-0.370
-523.989	83.133	0.092	0.100
-522.975	-175.164	0.209	-0.006
-521.960	82.608	-0.116	0.125
-520.945	-200.000	0.053	0.248
-519.931	-99.120	-0.164	0.041
-518.916	-77.210	-0.187	-0.065
-517.902	161.015	-0.228	0.318
-516.887	-9.491	0.097	0.065
-515.872	225.675	0.128	0.207
-514.858	94.368	-0.200	0.226
-513.843	800.000	-0.044	-0.154
-512.829	255.658	0.165	0.282
-511.814	-92.404	-0.299	-0.084
-510.799	184.380	-0.113	-0.167
-509.785	-200.000	-0.005	0.051
-508.770	-86.244	-0.041	0.012
-507.756	36.446	-0.036	0.032
-506.741	10.514	-0.177	0.134
-505.726	-200.000	0.044	-0.246
-504.712	-12.996	0.265	0.172
-503.697	-93.013	0.367	-0.102
-502.683	-155.630	-0.026	0.002
-501.668	-101.889	-0.423	0.102
-500.653	-22.033	-0.187	-0.113
-499.639	800.000	0.070	-0.202
-498.624	204.119	0.107	-0.165
-497.610	-200.000	-0.028	0.136
-496.595	-200.000	-0.031	0.322
-495.581	330.368	0.077	0.147
-494.566	74.655	-0.092	0.096
-493.551	800.000	-0.043	-0.183
-492.537	-176.451	0.116	0.003
-491.522	8.093	-0.295	-0.220
-490.508	-189.363	-0.074	-0.001
-489.493	284.440	0.082	-0.148
-488.478	159.421	0.122	0.169
-487.464	-80.962	-0.082	0.027
-486.449	54.021	0.262	0.250
-485.435	-30.043	-0.035	0.020
-484.420	0.825	-0.270	-0.192
-483.405	163.807	0.249	0.348
-482.391	-200.000	0.032	0.275
-481.376	-99.170	0.169	0.043
-480.362	128.544	0.130	0.164
-479.347	800.000	-0.052	0.158
-478.332	-61.360	-0.185	-0.077
-477.318	-102.576	0.202	0.048
-476.303	-27.346	0.291	-0.168
-475.289	135.484	-0.067	0.086
-474.274	252.099	0.082	-0.139
-473.259	302.576	-0.125	-0.229
-472.245	-51.056	0.146	0.068
-471.230	602.126	-0.070	-0.172
-470.216	-32.529	-0.211	-0.117
-469.201	240.607	0.021	-0.035
-468.186	-65.231	0.103	-0.041
-467.172	470.106	0.122	0.272
-466.157	-200.000	-0.058	0.293
-465.143	-200.000	-0.008	0.110
-464.128	-105.944	-0.457	-0.102
-463.113	424.160	0.079	-0.169
-462.099	-154.180	-0.292	0.020
-461.084	800.000	0.020	0.078
-460.070	125.217	-0.178	-0.223
-459.055	-73.985	-0.278	-0.100
-458.040	800.000	-0.092	-0.338
-457.026	-200.000	-0.013	-0.100
-456.011	304.752	-0.073	0.134
-454.997	-27.035	-0.148	-0.086
-453.982	-112.572	-0.215	-0.043
-452.968	-9.888	0.394	-0.260
-451.953	-42.774	0.165	-0.083
-450.938	800.000	-0.020	-0.057
-449.924	-200.000	-0.040	-0.286
-448.909	-40.768	-0.065	0.034
-447.895	-23.006	0.128	-0.076
-446.880	-25.931	-0.314	-0.184
-445.865	800.000	0.047	0.165
-444.851	-83.478	0.159	0.050
-443.836	7.235	-0.210	-0.156
-442.822	800.000	-0.051	-0.157
-441.807	800.000	-0.048	0.163
-440.792	179.361	0.063	0.091
-439.778	146.168	0.191	-0.254
-438.763	-103.312	-0.177	-0.041
-437.749	-200.000	-0.032	0.240
-436.734	524.045	0.077	0.179
-435.719	800.000	0.094	0.298
-434.705	-108.475	0.108	0.023
-433.690	33.946	-0.117	-0.101
-432.676	722.756	0.072	-0.189
-431.661	-48.569	-0.442	0.211
-430.646	800.000	0.061	-0.188
-429.632	-53.230	0.227	-0.103
-428.617	800.000	0.114	0.345
-427.603	317.428	-0.065	-0.121
-426.588	255.239	0.188	0.320
-425.573	14.700	0.308	0.239
-424.559	-153.842	-0.133	0.009
-423.544	800.000	-0.104	0.348
-422.530	89.750	0.010	0.011
-421.515	-200.000	-0.105	-0.467
-420.500	-93.215	-0.284	0.078
-419.486	-54.087	-0.122	-0.055
-418.471	-87.731	-0.136	0.041
-417.457	94.302	-0.101	0.114
-416.442	742.266	0.051	0.135
-415.428	-120.337	-0.251	0.042
-414.413	-200.000	-0.015	-0.207
-413.398	-120.935	0.380	-0.063
-412.384	-43.600	0.110	0.055
-411.369	583.006	0.101	0.246
-410.355	-200.000	0.007	0.083
-409.340	12.450	0.220	-0.168
-408.325	327.763	0.110	-0.210
-407.311	-200.000	-0.005	-0.106
-406.296	301.340	-0.025	-0.046
-405.282	219.051	0.077	0.122
-404.267	-75.878	-0.068	-0.024
-403.252	110.359	0.044	0.053
-402.238	-155.201	-0.257	-0.017
-401.223	-0.916	0.052	-0.037
-400.209	-61.463	-0.184	0.077
-399.194	83.641	0.107	0.115
-398.179	58.805	0.163	-0.159
-397.165	-200.000	0.018	-0.202
-396.150	6.211	0.243	-0.178
-395.136	51.575	0.287	0.270
-394.121	-19.034	0.151	0.093
-393.106	-19.449	0.253	-0.155
-392.092	72.239	-0.280	0.288
-391.077	483.553	0.071	-0.159
-390.063	123.101	0.104	-0.128
-389.048	800.000	-0.090	-0.316
-388.033	-176.919	-0.178	0.004
-387.019	192.386	0.120	-0.179
-386.004	-200.000	-0.038	-0.384
-384.990	453.647	-0.067	0.147
-383.975	-49.335	-0.113	-0.053
-382.960	-81.424	0.121	0.039
-381.946	113.237	0.088	-0.105
-380.931	-62.442	0.278	-0.114
-379.917	800.000	0.026	0.092
-378.902	800.000	0.108	0.363
-377.888	18.290	-0.221	-0.175
-376.873	-108.643	0.094	0.020
-375.858	-90.990	0.412	-0.117
-374.844	77.123	-0.262	-0.276
-373.829	-14.010	0.230	0.147
-372.815	-142.799	0.267	0.026
-371.800	61.362	0.174	-0.171
-370.785	-83.937	0.189	-0.060
-369.771	24.516	0.211	-0.173
-368.756	-200.000	0.009	-0.168
-367.742	321.465	0.092	-0.173
-366.727	331.100	-0.101	-0.192
-365.712	19.717	-0.137	0.109
-364.698	-110.401	-0.120	0.025
-363.683	45.255	-0.386	0.352
-362.669	299.602	0.144	-0.263
-361.654	178.353	0.127	-0.183
-360.639	-94.050	-0.314	0.085
-359.625	-200.000	-0.002	0.229
-358.610	146.608	-0.096	0.127
-357.596	200.813	-0.027	0.042
-356.581	-194.190	0.296	0.002
-355.566	-38.887	0.239	-0.124
-354.552	800.000	-0.089	0.357
-353.537	-153.946	0.411	-0.028
-352.523	-200.000	0.002	-0.356
-351.508	-200.000	0.049	0.283
-350.493	-138.006	0.139	0.015
-349.479	-81.518	-0.499	0.162
-348.464	748.333	0.100	0.265
-347.450	-178.552	-0.305	-0.007
-346.435	472.086	0.084	-0.186
-345.420	800.000	-0.090	-0.339
-344.406	-200.000	0.010	0.203
-343.391	-200.000	-0.041	0.215
-342.377	-200.000	0.021	0.261
-341.362	132.255	0.134	-0.171
-340.348	-10.055	-0.378	-0.248
-339.333	164.084	-0.126	0.175
-338.318	458.211	-0.132	-0.290
-337.304	-200.000	-0.034	0.165
-336.289	-107.502	0.220	0.048
-335.275	-21.033	0.163	0.099
-334.260	-27.693	-0.148	0.085
-333.245	-200.000	-0.000	0.299
-332.231	-200.000	-0.019	-0.166
-331.216	800.000	0.020	0.062
-330.202	65.861	-0.151	0.151
-329.187	-1.938	0.072	-0.050
-328.172	-200.000	-0.031	-0.373
-327.158	505.038	-0.094	-0.214
-326.143	-200.000	-0.006	0.094
-325.129	178.666	0.202	0.292
-324.114	-200.000	-0.022	0.397
-323.099	-50.595	0.196	0.091
-322.085	-51.158	-0.046	-0.021
-321.070	479.161	-0.080	-0.179
-320.056	512.693	-0.030	0.070
-319.041	-191.365	0.073	-0.001
-318.026	85.422	0.095	0.103
-317.012	-91.558	-0.317	0.089
-315.997	-200.000	0.012	-0.457
-314.983	-200.000	0.014	-0.203
-313.968	105.354	-0.089	-0.103
-312.953	-200.000	-0.026	-0.138
-311.939	-63.994	0.107	0.043
-310.924	-44.395	0.284	0.140
-309.910	30.892	-0.088	0.074
-308.895	-165.934	-0.256	0.011
-307.880	5.595	0.030	-0.022
-306.866	800.000	0.008	0.029
-305.851	-65.278	0.176	-0.070
-304.837	-200.000	-0.057	0.313
-303.822	-119.466	0.327	0.056
-302.807	292.932	-0.064	0.115
-301.793	-200.000	0.007	0.045
-300.778	647.842	-0.026	-0.065
-299.764	-119.523	-0.252	-0.043
-298.749	-195.234	0.141	0.001
-297.735	-197.073	0.214	0.001
-296.720	38.384	-0.214	0.188
-295.705	-172.800	-0.328	0.010
-294.691	86.012	-0.111	0.121
-293.676	84.296	-0.074	-0.080
-292.662	55.734	-0.255	0.244
-291.647	-121.516	0.611	0.100
-290.632	304.399	0.113	-0.207
-289.618	-60.096	-0.170	-0.072
-288.603	7.169	-0.122	0.090
-287.589	800.000	-0.023	-0.095
-286.574	-200.000	-0.001	0.120
-285.559	321.425	0.118	0.220
-284.545	89.436	0.095	-0.104
-283.530	-63.146	0.294	0.119
-282.516	-112.399	-0.143	0.028
-281.501	105.507	0.077	0.090
-280.486	-200.000	0.068	-0.302
-279.472	-95.299	0.228	0.061
-278.457	11.487	-0.152	-0.115
-277.443	742.675	0.041	-0.108
-276.428	327.910	0.011	0.022
-275.413	547.013	0.137	0.322
-274.399	-200.000	-0.005	-0.072
-273.384	-22.328	0.174	-0.104
-272.370	67.245	-0.089	-0.090
-271.355	-115.519	0.345	-0.064
-270.340	-200.000	0.009	-0.053
-269.326	800.000	0.070	-0.249
-268.311	-44.667	-0.252	0.124
-267.297	-10.692	-0.417	0.272
-266.282	-200.000	-0.019	0.305
-265.267	-81.345	-0.274	-0.089
-264.253	-131.733	0.159	-0.021
-263.238	-200.000	-0.030	0.355
-262.224	314.958	0.169	0.314
-261.209	-46.164	-0.163	-0.079
-260.195	-137.418	0.283	0.032
-259.180	-200.000	-0.030	-0.151
-258.165	-67.373	-0.109	0.042
-257.151	702.070	-0.054	0.140
-256.136	-79.359	0.249	-0.083
-255.122	359.460	-0.103	0.203
-254.107	43.080	0.066	0.059
-253.092	-128.446	-0.324	0.045
-252.078	-137.333	-0.016	-0.002
-251.063	156.665	-0.105	0.143
-250.049	-191.478	-0.463	-0.005
-249.034	108.706	0.119	-0.140
-248.019	2.415	0.139	-0.099
-247.005	21.500	0.299	0.240
-245.990	290.290	0.128	0.228
-244.976	-51.246	0.165	-0.076
-243.961	-122.626	0.231	-0.037
-242.946	-34.362	-0.157	0.085
-241.932	33.099	-0.075	-0.064
-240.917	298.820	-0.121	0.220
-239.903	37.048	-0.286	-0.249
-238.888	800.000	0.041	0.173
-237.873	800.000	0.102	0.324
-236.859	-3.292	0.051	0.035
-235.844	-22.581	-0.104	-0.062
-234.830	-181.485	-0.431	-0.008
-233.815	-200.000	0.003	-0.060
-232.800	-126.082	-0.349	0.051
-231.786	17.945	0.066	0.052
-230.771	-200.000	0.000	-0.088
-229.757	88.887	-0.169	0.185
-228.742	2.538	-0.057	-0.041
-227.727	231.171	0.137	-0.221
-226.713	457.093	0.095	-0.208
-225.698	-170.635	-0.008	-0.000
-224.684	-73.095	-0.347	0.125
-223.669	445.612	0.101	-0.218
-222.655	-62.467	-0.003	-0.001
-221.640	-146.396	0.318	0.027
-220.625	273.431	0.183	-0.319
-219.611	-51.525	0.328	-0.151
-218.596	-200.000	-0.032	-0.233
-217.582	-177.971	0.139	-0.003
-216.567	-32.688	-0.186	0.102
-215.552	24.249	-0.103	0.084
-214.538	-200.000	-0.007	-0.093
-213.523	95.820	0.094	0.106
-212.509	-49.420	-0.250	-0.117
-211.494	153.284	0.163	-0.220
-210.479	63.621	0.141	0.139
-209.465	-102.977	-0.192	0.045
-208.450	58.741	0.219	0.211
-207.436	-59.591	0.384	0.162
-206.421	100.541	0.093	-0.106
-205.406	-82.318	-0.183	-0.059
-204.392	-117.909	0.284	-0.050
-203.377	-90.765	-0.108	0.031
-202.363	-11.982	-0.257	-0.165
-201.348	55.231	0.016	-0.015
-200.333	-136.547	-0.099	0.011
-199.319	-200.000	0.039	-0.195
-198.304	-200.000	-0.018	-0.211
-197.290	800.000	-0.026	-0.106
-196.275	-32.910	0.499	0.272
-195.260	-200.000	0.002	-0.101
-194.246	-200.000	-0.017	0.183
-193.231	276.717	0.143	-0.250
-192.217	-121.911	-0.044	-0.007
-191.202	221.915	-0.220	0.348
-190.187	-74.278	0.216	-0.077
-189.173	-43.190	0.457	-0.227
-188.158	-200.000	0.016	0.077
-187.144	-26.025	0.061	0.035
-186.129	-52.181	-0.224	-0.102
-185.114	61.329	0.289	-0.282
-184.100	800.000	-0.013	-0.043
-183.085	-200.000	-0.042	-0.314
-182.071	-59.694	0.298	-0.125
-181.056	-130.778	0.319	0.042
-180.042	-103.673	-0.150	0.035
-179.027	-200.000	-0.051	0.263
-178.012	-3.171	-0.277	0.190
-176.998	64.084	0.077	-0.076
-175.983	-146.211	0.256	0.022
-174.969	212.781	0.056	0.087
-173.954	352.249	-0.055	0.107
-172.939	222.757	-0.035	-0.055
-171.925	-57.016	0.118	0.051
-170.910	374.391	-0.105	-0.210
-169.896	445.984	0.083	0.180
-168.881	800.000	-0.062	0.252
-167.866	7.620	0.338	0.248
-166.852	-103.128	-0.137	0.032
-165.837	-53.383	-0.125	-0.056
-164.823	-62.991	0.471	0.191
-163.808	-200.000	0.002	0.013
-162.793	-61.068	-0.137	-0.057
-161.779	174.490	-0.059	0.084
-160.764	-200.000	-0.008	0.073
-159.750	12.328	-0.156	-0.118
-158.735	-24.199	0.105	0.062
-157.720	-200.000	-0.036	-0.321
-156.706	11.218	-0.146	-0.110
-155.691	-162.214	-0.257	0.013
-154.677	-56.177	0.470	-0.205
-153.662	-79.037	0.024	0.008
-152.647	-39.080	0.351	-0.181
-151.633	6.898	0.126	0.092
-150.618	257.002	-0.166	0.280
-149.604	472.423	-0.144	-0.317
-148.589	800.000	0.082	-0.228
-147.574	-38.235	-0.040	0.021
-146.560	2.989	0.162	-0.116
-145.545	-116.242	-0.135	0.025
-144.531	-36.155	0.234	0.124
-143.516	-35.455	0.299	0.159
-142.502	-67.833	-0.318	-0.122
-141.487	-167.528	0.228	0.009
-140.472	800.000	0.008	0.033
-139.458	54.657	-0.294	-0.278
-138.443	-134.268	0.205	0.025
-137.429	217.778	-0.133	0.207
-136.414	-200.000	0.003	0.059
-135.399	-79.538	-0.223	-0.074
-134.385	89.723	-0.167	-0.183
-133.370	322.559	-0.057	-0.107
-132.356	70.355	0.147	0.149
-131.341	100.503	-0.022	0.025
-130.326	51.867	-0.250	-0.233
-129.312	287.032	-0.196	0.348
-128.297	-200.000	0.023	0.126
-127.283	-28.366	0.093	-0.053
-126.268	-119.085	-0.160	-0.027
-125.253	298.308	0.058	-0.104
-124.239	-100.192	-0.332	0.081
-123.224	-97.504	0.050	0.013
-122.210	167.801	-0.202	-0.282
