DTS Sentinel unit serial number:	SN413079Multiplexer serial number:	ORYXHardware model number:	OX4-SRSoftware version number:	ORYX F/W v4.00 Oryx Data Collector v3.7.2.0data status	okinstallation	princeton_trtdifferential loss correction	single-endedforward channel	channel 2reverse channel	N/Adate	2019/09/14time	18:35:35forward acquisition time	60.00reverse acquisition time	0.00gamma	496.2192k internal	0.2318k external	0.2318temperature offset calibration	1.0101default loss term (dB/km)	0.3790temperature slope calibration	1.0000multiplexer offset coefficient	1.0000multiplexer slope coefficient	1.0000fibre end	0.00T internal ref (°C)	36.44T ext. ref 1 (°C)	4.93T ext. ref 2 (°C)	30.18length (m)	temperature (°C)	Stokes	anti-Stokes-747.200	-16.511	-0.295	-0.189
-746.185	800.000	-0.054	0.241
-745.171	96.796	0.132	-0.153
-744.156	100.426	-0.088	0.103
-743.142	-39.620	0.088	0.046
-742.127	-5.330	0.414	-0.288
-741.112	-90.482	0.194	-0.057
-740.098	-200.000	0.006	0.040
-739.083	800.000	0.111	0.433
-738.069	-200.000	-0.031	0.403
-737.054	-152.770	-0.301	-0.022
-736.039	-120.134	-0.307	0.053
-735.025	118.341	0.084	0.105
-734.010	-11.895	-0.424	-0.281
-732.996	78.930	-0.199	-0.216
-731.981	-200.000	0.005	-0.026
-730.966	-10.194	-0.199	-0.133
-729.952	-50.054	-0.248	0.119
-728.937	48.782	-0.078	-0.074
-727.923	-200.000	0.105	-0.498
-726.908	-148.449	0.136	-0.011
-725.894	128.022	0.072	-0.092
-724.879	-200.000	-0.028	0.233
-723.864	85.199	-0.244	-0.270
-722.850	116.204	-0.104	-0.129
-721.835	316.481	-0.122	0.234
-720.821	337.404	-0.130	-0.256
-719.806	-147.188	-0.270	-0.023
-718.791	-62.538	-0.142	-0.059
-717.777	7.719	0.188	0.143
-716.762	90.094	-0.183	0.207
-715.748	145.671	0.119	0.161
-714.733	-200.000	-0.022	0.107
-713.718	-155.664	-0.160	0.010
-712.704	325.582	0.026	0.049
-711.689	-95.855	0.103	-0.028
-710.675	-41.791	0.290	-0.150
-709.660	-18.325	0.116	-0.073
-708.645	800.000	-0.089	-0.258
-707.631	678.313	0.005	0.013
-706.616	-136.633	0.286	0.033
-705.602	163.473	-0.046	-0.065
-704.587	-17.842	0.241	0.153
-703.572	248.801	-0.101	-0.173
-702.558	-200.000	-0.003	-0.331
-701.543	-200.000	-0.002	-0.064
-700.529	270.120	0.113	-0.200
-699.514	38.180	-0.106	-0.096
-698.499	2.891	-0.128	0.094
-697.485	-200.000	-0.026	0.116
-696.470	-62.062	0.189	0.080
-695.456	-28.680	0.238	-0.139
-694.441	659.370	-0.162	-0.420
-693.426	4.536	-0.063	-0.046
-692.412	-200.000	0.006	-0.129
-691.397	-89.896	-0.096	0.028
-690.383	-200.000	-0.024	0.296
-689.368	63.084	0.292	0.295
-688.354	-51.675	-0.244	0.115
-687.339	-200.000	-0.032	-0.161
-686.324	680.136	0.059	0.154
-685.310	39.486	-0.285	-0.258
-684.295	-163.840	0.035	0.002
-683.281	34.035	-0.207	-0.182
-682.266	79.162	0.117	-0.127
-681.251	-63.958	0.037	-0.015
-680.237	-200.000	-0.014	-0.117
-679.222	-48.516	-0.312	-0.151
-678.208	-126.832	-0.297	-0.044
-677.193	800.000	-0.017	-0.056
-676.178	-200.000	-0.088	-0.496
-675.164	20.515	0.148	0.121
-674.149	121.026	-0.125	-0.157
-673.135	183.795	0.019	0.028
-672.120	12.739	-0.287	-0.224
-671.105	-10.246	-0.390	-0.261
-670.091	228.480	0.129	-0.212
-669.076	233.312	-0.166	-0.275
-668.062	-200.000	-0.035	-0.265
-667.047	9.968	-0.177	0.136
-666.032	148.155	0.101	0.138
-665.018	-66.981	-0.334	-0.133
-664.003	-200.000	-0.036	0.183
-662.989	-39.445	0.243	-0.129
-661.974	114.621	0.068	-0.084
-660.959	-200.000	0.000	-0.064
-659.945	-121.400	0.261	0.044
-658.930	277.691	0.102	0.182
-657.916	41.524	0.146	-0.133
-656.901	-122.682	-0.343	0.056
-655.886	282.308	-0.180	-0.325
-654.872	800.000	0.048	-0.142
-653.857	-200.000	0.004	-0.095
-652.843	-36.513	0.037	0.020
-651.828	360.836	-0.162	-0.327
-650.814	10.451	-0.083	0.063
-649.799	-200.000	0.012	0.267
-648.784	36.272	-0.094	0.083
-647.770	133.378	0.220	-0.286
-646.755	-200.000	0.044	-0.476
-645.741	-200.000	-0.024	-0.226
-644.726	-200.000	0.001	-0.278
-643.711	800.000	0.072	-0.220
-642.697	-150.223	-0.137	-0.011
-641.682	253.249	-0.134	0.231
-640.668	151.092	0.134	-0.184
-639.653	-200.000	0.042	-0.250
-638.638	-1.407	-0.400	-0.284
-637.624	-200.000	0.006	0.171
-636.609	-25.007	0.037	0.022
-635.595	-200.000	-0.020	0.145
-634.580	655.844	0.144	0.373
-633.565	88.050	0.309	-0.345
-632.551	-200.000	0.014	-0.078
-631.536	-200.000	0.030	0.250
-630.522	481.900	-0.179	0.409
-629.507	800.000	0.066	0.265
-628.492	800.000	0.010	0.042
-627.478	-200.000	-0.008	-0.069
-626.463	-200.000	-0.012	-0.296
-625.449	313.513	0.190	-0.360
-624.434	361.997	-0.031	0.062
-623.419	-121.148	-0.041	0.007
-622.405	-121.573	0.256	0.043
-621.390	800.000	0.051	-0.216
-620.376	-37.201	-0.132	-0.071
-619.361	-200.000	-0.019	0.361
-618.346	159.359	0.137	0.192
-617.332	16.547	0.315	-0.250
-616.317	800.000	-0.040	-0.170
-615.303	-79.934	0.344	-0.116
-614.288	-200.000	0.022	-0.149
-613.273	-200.000	-0.022	0.170
-612.259	800.000	0.093	0.295
-611.244	-200.000	-0.085	0.481
-610.230	149.063	0.114	0.155
-609.215	-13.144	0.205	0.134
-608.201	39.900	-0.179	0.162
-607.186	-170.172	0.108	-0.004
-606.171	445.863	-0.089	0.197
-605.157	-200.000	-0.050	-0.515
-604.142	-1.784	0.108	-0.076
-603.128	40.223	0.186	0.168
-602.113	-39.243	-0.163	0.086
-601.098	-74.496	-0.259	-0.094
-600.084	800.000	0.050	-0.180
-599.069	800.000	0.132	-0.433
-598.055	-117.142	0.202	-0.037
-597.040	39.675	-0.186	0.168
-596.025	208.872	0.207	-0.326
-595.011	13.364	0.085	-0.066
-593.996	800.000	-0.015	0.044
-592.982	-148.760	-0.077	0.006
-591.967	-141.017	-0.214	0.022
-590.952	455.367	0.078	0.173
-589.938	-10.315	0.174	-0.116
-588.923	202.624	-0.039	-0.060
-587.909	-23.579	-0.233	0.141
-586.894	-109.147	-0.157	0.034
-585.879	-142.650	0.291	-0.029
-584.865	121.072	-0.161	0.202
-583.850	32.299	0.141	0.122
-582.836	-168.683	-0.141	0.005
-581.821	257.310	-0.076	0.132
-580.806	800.000	0.078	-0.216
-579.792	-10.514	-0.050	0.034
-578.777	141.694	0.064	0.085
-577.763	-200.000	0.008	-0.116
-576.748	53.866	-0.080	0.078
-575.733	392.343	-0.040	0.084
-574.719	-200.000	0.012	-0.095
-573.704	-200.000	-0.011	-0.124
-572.690	-200.000	0.001	-0.344
-571.675	47.676	-0.342	-0.321
-570.661	788.172	0.129	-0.355
-569.646	-92.298	-0.293	-0.083
-568.631	-66.655	0.161	-0.064
-567.617	24.728	0.055	-0.045
-566.602	-200.000	-0.015	-0.256
-565.588	-110.476	-0.245	-0.051
-564.573	-144.337	0.134	0.012
-563.558	464.781	0.036	0.082
-562.544	-171.298	-0.122	-0.004
-561.529	-24.020	0.137	0.082
-560.515	-120.279	0.161	0.028
-559.500	-176.370	-0.432	0.011
-558.485	-14.517	-0.048	0.031
-557.471	-75.871	0.287	0.102
-556.456	-61.376	-0.274	0.116
-555.442	-200.000	-0.019	-0.205
-554.427	-165.164	-0.203	-0.009
-553.412	63.864	0.210	-0.212
-552.398	-200.000	0.021	-0.096
-551.383	-56.943	-0.188	0.083
-550.369	-200.000	-0.017	0.118
-549.354	-143.101	-0.170	-0.016
-548.339	-95.700	-0.317	-0.085
-547.325	800.000	-0.128	-0.441
-546.310	249.595	-0.081	0.138
-545.296	190.995	0.108	0.163
-544.281	-71.866	0.318	-0.119
-543.266	-192.458	0.411	-0.004
-542.252	82.191	0.112	0.122
-541.237	-79.753	-0.153	0.052
-540.223	-54.991	-0.108	0.049
-539.208	-200.000	0.026	-0.157
-538.193	60.077	-0.272	0.270
-537.179	-22.931	-0.194	-0.117
-536.164	-200.000	-0.031	-0.169
-535.150	364.754	0.057	-0.115
-534.135	70.682	-0.283	0.293
-533.121	-200.000	-0.024	-0.111
-532.106	57.171	0.050	0.049
-531.091	-45.814	-0.263	0.130
-530.077	63.582	-0.228	-0.229
-529.062	-80.869	0.076	-0.025
-528.048	-196.434	0.177	0.001
-527.033	-117.221	-0.334	0.061
-526.018	-200.000	-0.022	0.206
-525.004	408.748	0.018	0.038
-523.989	273.480	0.162	-0.288
-522.975	-200.000	-0.004	-0.056
-521.960	259.959	-0.120	-0.207
-520.945	180.466	-0.162	0.238
-519.931	290.978	0.091	0.166
-518.916	424.989	-0.065	-0.139
-517.902	-118.694	-0.187	0.033
-516.887	396.468	0.073	-0.154
-515.872	36.008	0.091	0.081
-514.858	-200.000	-0.011	-0.493
-513.843	104.940	0.069	0.081
-512.829	585.899	-0.104	0.257
-511.814	198.507	0.169	0.260
-510.799	101.252	-0.326	0.380
-509.785	244.204	-0.123	0.207
-508.770	295.410	0.131	0.240
-507.756	-118.163	-0.276	0.049
-506.741	788.218	-0.111	0.305
-505.726	29.211	0.287	0.244
-504.712	142.247	0.118	0.157
-503.697	-200.000	0.057	0.427
-502.683	-200.000	0.021	-0.221
-501.668	131.686	-0.035	-0.045
-500.653	37.969	-0.051	0.045
-499.639	-96.897	0.152	0.040
-498.624	-200.000	-0.012	0.151
-497.610	-125.844	0.111	0.017
-496.595	-200.000	0.038	0.192
-495.581	-131.257	0.085	-0.011
-494.566	25.185	0.103	-0.086
-493.551	362.439	-0.170	0.341
-492.537	107.124	-0.214	0.254
-491.522	296.183	0.061	-0.111
-490.508	336.575	-0.073	-0.141
-489.493	315.277	-0.095	-0.180
-488.478	-200.000	-0.020	0.163
-487.464	-161.325	-0.559	-0.029
-486.449	4.174	0.140	0.103
-485.435	-200.000	0.060	-0.322
-484.420	-176.297	-0.233	-0.006
-483.405	-200.000	0.002	-0.082
-482.391	-87.508	0.399	-0.121
-481.376	-45.728	0.106	0.053
-480.362	10.991	-0.154	-0.118
-479.347	44.422	0.062	-0.057
-478.332	437.685	-0.041	0.089
-477.318	800.000	0.047	0.142
-476.303	-27.257	0.201	-0.117
-475.289	-102.409	0.121	-0.029
-474.274	-200.000	-0.020	0.217
-473.259	183.286	0.088	0.130
-472.245	-187.358	0.495	0.007
-471.230	106.842	-0.214	-0.254
-470.216	-200.000	0.031	-0.273
-469.201	-200.000	0.002	-0.490
-468.186	36.826	0.409	-0.362
-467.172	-116.720	0.403	0.074
-466.157	-82.113	-0.280	0.091
-465.143	155.605	-0.127	0.175
-464.128	-78.448	-0.251	0.086
-463.113	-82.064	0.209	0.068
-462.099	-141.588	-0.109	0.011
-461.084	-61.910	0.099	0.042
-460.070	87.395	0.144	0.160
-459.055	137.706	-0.104	0.136
-458.040	-200.000	0.045	-0.589
-457.026	-127.769	0.228	-0.033
-456.011	-92.382	-0.327	-0.092
-454.997	-1.166	0.040	0.028
-453.982	800.000	0.043	0.121
-452.968	800.000	-0.043	0.124
-451.953	-48.240	0.161	0.078
-450.938	800.000	-0.038	0.164
-449.924	90.456	-0.116	-0.130
-448.909	136.285	-0.002	-0.003
-447.895	65.201	0.072	0.072
-446.880	800.000	0.213	0.626
-445.865	-7.082	-0.131	-0.089
-444.851	-93.160	-0.032	-0.009
-443.836	438.842	0.108	0.235
-442.822	-85.657	-0.416	0.129
-441.807	44.968	0.174	-0.160
-440.792	47.710	0.291	0.272
-439.778	265.923	-0.104	0.182
-438.763	-94.919	-0.071	-0.019
-437.749	-15.751	-0.139	0.089
-436.734	346.704	-0.184	-0.362
-435.719	-53.754	0.166	-0.076
-434.705	614.156	-0.042	-0.106
-433.690	-200.000	0.045	0.215
-432.676	800.000	-0.099	0.436
-431.661	-97.502	-0.059	-0.015
-430.646	-200.000	0.036	-0.306
-429.632	306.479	0.056	-0.103
-428.617	-200.000	0.001	-0.169
-427.603	-200.000	0.031	-0.196
-426.588	410.832	-0.071	-0.151
-425.573	-200.000	0.013	0.226
-424.559	-60.221	-0.102	-0.043
-423.544	-71.230	0.137	-0.051
-422.530	-163.916	0.124	-0.006
-421.515	73.431	0.192	0.201
-420.500	309.996	0.121	-0.227
-419.486	31.844	0.247	0.213
-418.471	87.269	-0.101	0.112
-417.457	543.692	-0.062	-0.148
-416.442	-200.000	0.046	-0.226
-415.428	230.607	-0.138	-0.226
-414.413	-200.000	0.024	-0.239
-413.398	-162.423	-0.416	0.021
-412.384	-200.000	0.012	0.350
-411.369	122.640	0.096	0.120
-410.355	800.000	0.043	0.143
-409.340	-173.897	-0.287	0.008
-408.325	16.152	-0.164	0.129
-407.311	-200.000	-0.002	0.114
-406.296	-40.074	-0.156	-0.081
-405.282	-114.996	-0.106	-0.020
-404.267	86.821	-0.219	-0.241
-403.252	-200.000	-0.031	-0.313
-402.238	800.000	-0.082	-0.235
-401.223	223.007	0.094	-0.151
-400.209	36.014	0.197	0.173
-399.194	-200.000	-0.021	-0.115
-398.179	175.413	-0.083	-0.120
-397.165	-114.531	0.111	0.021
-396.150	-171.464	-0.075	-0.002
-395.136	-18.038	0.109	-0.068
-394.121	31.216	0.072	0.061
-393.106	169.356	0.130	-0.186
-392.092	-200.000	0.008	0.388
-391.077	-193.731	-0.210	-0.002
-390.063	-102.944	0.230	-0.054
-389.048	-153.707	-0.073	-0.005
-388.033	-115.199	-0.247	0.047
-387.019	406.041	0.157	0.330
-386.004	98.021	-0.164	0.189
-384.990	283.482	-0.128	-0.229
-383.975	420.588	-0.146	-0.311
-382.960	-11.251	-0.099	-0.065
-381.946	277.661	0.172	-0.305
-380.931	-39.434	0.214	0.112
-379.917	35.195	0.083	0.072
-378.902	-89.583	0.334	-0.098
-377.888	-20.515	-0.394	0.241
-376.873	103.272	-0.182	0.213
-375.858	-93.112	-0.106	0.029
-374.844	-178.916	0.039	-0.001
-373.829	-200.000	-0.006	0.295
-372.815	-138.523	-0.176	-0.019
-371.800	315.563	0.046	-0.086
-370.785	505.871	-0.121	-0.279
-369.771	-132.361	-0.191	0.025
-368.756	800.000	-0.068	-0.290
-367.742	173.339	0.137	0.197
-366.727	-62.788	-0.177	-0.073
-365.712	-146.293	0.181	-0.016
-364.698	-200.000	0.012	-0.342
-363.683	-140.358	0.192	-0.020
-362.669	-62.239	0.284	-0.118
-361.654	-200.000	-0.077	0.448
-360.639	258.864	-0.217	0.373
-359.625	800.000	0.026	0.113
-358.610	358.522	0.069	0.138
-357.596	103.390	-0.132	-0.154
-356.581	-37.329	-0.318	-0.170
-355.566	-25.426	0.156	0.092
-354.552	-117.840	-0.288	-0.052
-353.537	34.186	-0.172	0.150
-352.523	-125.049	0.234	0.036
-351.508	-102.110	0.140	-0.034
-350.493	-95.842	0.398	0.106
-349.479	-134.507	-0.171	0.021
-348.464	395.301	0.093	0.192
-347.450	-9.549	-0.110	-0.073
-346.435	199.205	0.047	0.072
-345.420	8.919	0.132	0.099
-344.406	-108.327	0.461	0.099
-343.391	149.210	0.061	0.082
-342.377	-76.864	-0.157	0.055
-341.362	800.000	-0.123	-0.429
-340.348	-200.000	-0.082	-0.366
-339.333	-10.237	-0.139	-0.092
-338.318	509.737	-0.120	0.277
-337.304	-136.519	-0.135	-0.016
-336.289	800.000	-0.102	-0.426
-335.275	-20.503	0.265	-0.162
-334.260	116.943	0.112	-0.137
-333.245	126.000	-0.190	-0.239
-332.231	-50.683	0.323	0.152
-331.216	-150.783	-0.453	-0.034
-330.202	142.346	0.111	-0.147
-329.187	157.650	0.153	0.210
-328.172	-200.000	0.004	-0.019
-327.158	140.698	0.124	-0.163
-326.143	-132.763	0.319	0.041
-325.129	-200.000	0.005	0.149
-324.114	207.817	0.274	0.426
-323.099	-11.751	0.228	0.149
-322.085	-19.751	-0.245	-0.151
-321.070	-163.003	-0.169	-0.008
-320.056	800.000	-0.045	0.140
-319.041	-200.000	-0.035	0.369
-318.026	-53.082	0.152	0.070
-317.012	180.778	0.020	-0.029
-315.997	-33.127	0.328	-0.181
-314.983	-200.000	0.024	-0.244
-313.968	320.579	-0.087	0.165
-312.953	37.422	0.076	-0.067
-311.939	-79.556	-0.335	-0.113
-310.924	-69.381	-0.087	-0.033
-309.910	108.348	0.129	-0.153
-308.895	-69.234	0.143	0.055
-307.880	-31.155	-0.466	-0.262
-306.866	-200.000	-0.034	0.182
-305.851	198.758	-0.126	-0.192
-304.837	36.656	0.127	-0.112
-303.822	135.419	-0.124	0.160
-302.807	-94.401	-0.106	0.029
-301.793	92.110	-0.107	0.120
-300.778	-13.085	0.329	-0.213
-299.764	65.737	-0.109	0.110
-298.749	249.553	0.141	-0.238
-297.735	-12.145	-0.074	-0.048
-296.720	-200.000	0.178	-0.001
-295.705	-200.000	-0.001	0.086
-294.691	-200.000	-0.029	0.187
-293.676	26.178	0.203	-0.169
-292.662	-46.367	-0.109	-0.053
-291.647	-95.274	0.262	0.070
-290.632	68.195	-0.125	-0.128
-289.618	741.093	-0.067	-0.178
-288.603	-200.000	0.051	-0.223
-287.589	-70.840	-0.193	-0.072
-286.574	-200.000	-0.001	0.189
-285.559	-144.317	0.087	-0.008
-284.545	-200.000	0.018	0.113
-283.530	298.953	-0.096	-0.176
-282.516	-200.000	0.008	-0.127
-281.501	-32.134	0.363	0.202
-280.486	-200.000	0.007	0.063
-279.472	-71.282	0.253	0.094
-278.457	99.185	-0.381	-0.438
-277.443	463.108	-0.037	-0.083
-276.428	5.942	0.300	0.221
-275.413	800.000	-0.082	0.323
-274.399	176.609	-0.092	-0.133
-273.384	-100.412	-0.273	-0.067
-272.370	-87.948	-0.299	-0.089
-271.355	-58.294	-0.318	0.137
-270.340	83.342	0.180	-0.195
-269.326	800.000	0.020	0.062
-268.311	96.271	0.078	-0.089
-267.297	-200.000	-0.129	0.712
-266.282	-200.000	0.248	-0.001
-265.267	-93.932	-0.041	-0.011
-264.253	-74.682	-0.326	-0.117
-263.238	-61.278	0.269	-0.113
-262.224	-186.411	0.206	-0.003
-261.209	-21.603	-0.300	0.182
-260.195	-200.000	-0.014	-0.080
-259.180	126.939	-0.173	0.218
-258.165	27.084	-0.055	0.046
-257.151	147.313	0.118	-0.158
-256.136	38.130	-0.228	0.202
-255.122	800.000	-0.039	-0.159
-254.107	-200.000	0.024	0.139
-253.092	-33.354	0.174	0.096
-252.078	-135.501	-0.129	-0.015
-251.063	-114.999	0.172	-0.032
-250.049	-189.903	0.249	-0.003
-249.034	800.000	0.015	0.057
-248.019	-32.158	0.105	-0.058
-247.005	158.414	0.116	0.159
-245.990	25.145	-0.035	0.029
-244.976	93.588	-0.109	-0.122
-243.961	460.717	0.079	-0.174
-242.946	8.726	-0.098	0.073
-241.932	800.000	0.119	0.460
-240.917	-200.000	0.006	0.360
-239.903	135.906	0.046	0.059
-238.888	-73.290	-0.201	0.073
-237.873	-200.000	0.030	0.136
-236.859	328.965	-0.146	0.277
-235.844	103.153	-0.158	0.184
-234.830	-42.962	-0.189	-0.095
-233.815	-142.212	0.132	0.013
-232.800	110.437	0.166	-0.197
-231.786	-26.843	-0.115	-0.066
-230.771	680.886	-0.074	-0.191
-229.757	-9.543	-0.151	-0.100
-228.742	239.893	0.144	-0.237
-227.727	-200.000	0.010	-0.146
-226.713	350.649	0.115	-0.226
-225.698	43.342	0.248	-0.225
-224.684	-114.280	0.234	0.045
-223.669	-135.999	-0.132	-0.015
-222.655	-200.000	-0.036	0.167
-221.640	-72.178	-0.070	-0.026
-220.625	21.350	0.274	0.220
-219.611	50.726	0.264	-0.248
-218.596	800.000	-0.168	0.487
-217.582	143.926	-0.056	-0.074
-216.567	252.761	-0.159	-0.270
-215.552	130.564	0.290	-0.369
-214.538	-85.145	0.197	0.061
-213.523	-129.604	-0.552	-0.076
-212.509	-104.588	0.175	-0.040
-211.494	223.237	-0.142	0.226
-210.479	-127.925	0.260	0.037
-209.465	-174.258	0.109	0.003
-208.450	-200.000	0.045	-0.341
-207.436	106.001	-0.045	-0.052
-206.421	-91.510	0.022	0.006
-205.406	192.319	-0.069	0.104
-204.392	-130.459	0.187	0.025
-203.377	-199.865	0.184	0.001
-202.363	-200.000	-0.007	-0.369
-201.348	-172.016	0.139	0.004
-200.333	1.244	-0.089	0.063
-199.319	-101.525	-0.177	-0.043
-198.304	-28.569	0.346	-0.197
-197.290	-69.277	-0.159	-0.060
-196.275	535.553	-0.071	0.168
-195.260	-102.646	0.388	-0.092
-194.246	72.013	0.230	0.237
-193.231	-200.000	-0.009	0.066
-192.217	-18.202	-0.301	-0.187
-191.202	800.000	0.075	-0.257
-190.187	187.095	0.046	-0.068
-189.173	800.000	0.024	-0.076
-188.158	-112.778	0.275	-0.054
-187.144	-149.490	0.236	-0.019
-186.129	-200.000	0.037	-0.163
-185.114	666.274	-0.014	0.036
-184.100	17.275	0.257	0.202
-183.085	30.729	0.253	-0.214
-182.071	81.179	-0.021	0.022
-181.056	-25.617	-0.153	0.089
-180.042	42.347	0.158	-0.142
-179.027	-46.470	0.308	0.150
-178.012	137.673	-0.167	0.217
-176.998	-22.509	0.159	0.095
-175.983	418.848	-0.106	0.224
-174.969	-200.000	0.048	0.291
-173.954	107.267	-0.288	0.339
-172.939	99.137	-0.185	0.211
-171.925	-19.150	-0.223	-0.137
-170.910	-31.629	-0.103	-0.057
-169.896	350.031	-0.155	0.303
-168.881	-153.597	0.092	0.006
-167.866	70.294	-0.179	0.183
-166.852	286.138	-0.063	-0.113
-165.837	19.641	0.115	0.091
-164.823	-140.133	-0.214	0.022
-163.808	41.955	-0.066	-0.059
-162.793	16.127	-0.241	0.188
-161.779	26.743	0.087	-0.072
-160.764	113.589	-0.173	-0.208
-159.750	-7.803	0.282	0.189
-158.735	-200.000	0.009	-0.151
-157.720	71.964	0.146	-0.150
-156.706	-200.000	-0.003	0.030
-155.691	-126.524	0.170	-0.025
-154.677	800.000	-0.078	0.293
-153.662	-107.029	-0.221	-0.048
-152.647	52.272	-0.152	0.143
-151.633	32.390	0.063	0.053
-150.618	-135.256	-0.077	-0.009
-149.604	629.167	0.138	0.344
-148.589	-22.432	-0.107	0.064
-147.574	14.327	-0.167	-0.128
-146.560	-18.116	-0.317	-0.196
-145.545	-200.000	-0.022	0.137
-144.531	-15.461	-0.075	0.048
-143.516	-200.000	-0.007	0.282
-142.502	-104.228	0.584	0.134
-141.487	267.268	0.129	-0.222
-140.472	203.829	0.192	-0.293
-139.458	181.511	0.054	0.079
-138.443	-141.240	-0.139	0.014
-137.429	-135.854	0.270	-0.031
-136.414	-100.933	0.375	0.091
-135.399	800.000	0.036	-0.103
-134.385	149.903	-0.092	-0.123
-133.370	200.431	-0.122	0.184
-132.356	751.345	-0.013	0.034
-131.341	60.032	0.141	0.138
-130.326	-137.213	0.100	-0.011
-129.312	369.759	-0.090	0.179
-128.297	207.692	-0.141	0.218
-127.283	36.971	0.227	-0.199
-126.268	58.364	0.315	-0.306
-125.253	30.917	0.105	0.089
-124.239	29.822	-0.008	-0.007
-123.224	-111.914	0.123	-0.024
-122.210	-86.442	0.161	0.049
