DTS Sentinel unit serial number:	SN413079Multiplexer serial number:	ORYXHardware model number:	OX4-SRSoftware version number:	ORYX F/W v4.00 Oryx Data Collector v3.7.2.0data status	okinstallation	princeton_trtdifferential loss correction	single-endedforward channel	channel 2reverse channel	N/Adate	2019/09/12time	05:33:11forward acquisition time	60.00reverse acquisition time	0.00gamma	496.2192k internal	0.2325k external	0.2325temperature offset calibration	1.0068default loss term (dB/km)	0.3790temperature slope calibration	1.0000multiplexer offset coefficient	1.0000multiplexer slope coefficient	1.0000fibre end	0.00T internal ref (°C)	31.94T ext. ref 1 (°C)	1.62T ext. ref 2 (°C)	27.44length (m)	temperature (°C)	Stokes	anti-Stokes-747.200	211.262	-0.098	0.156
-746.185	-200.000	0.007	0.225
-745.171	103.335	0.117	0.139
-744.156	-200.000	0.014	0.148
-743.142	-14.526	0.071	0.046
-742.127	800.000	0.122	0.533
-741.112	6.923	0.311	0.234
-740.098	-70.045	0.011	0.004
-739.083	178.774	0.083	-0.122
-738.069	-200.000	-0.020	0.202
-737.054	-200.000	-0.007	-0.104
-736.039	137.978	-0.129	-0.170
-735.025	800.000	-0.049	0.185
-734.010	800.000	-0.095	-0.347
-732.996	-45.585	-0.290	0.145
-731.981	114.098	0.029	0.036
-730.966	8.062	0.129	-0.098
-729.952	-113.610	-0.311	0.061
-728.937	-10.504	0.024	0.016
-727.923	110.969	0.083	-0.101
-726.908	185.370	-0.122	-0.183
-725.894	-182.360	-0.377	-0.007
-724.879	298.185	-0.076	-0.141
-723.864	-98.796	0.073	-0.019
-722.850	168.902	0.044	0.063
-721.835	-200.000	-0.001	-0.162
-720.821	46.374	0.145	-0.135
-719.806	-24.603	0.228	0.137
-718.791	-19.684	0.223	-0.139
-717.777	398.749	-0.124	-0.261
-716.762	-157.940	0.244	-0.014
-715.748	384.055	0.114	-0.237
-714.733	98.017	-0.103	-0.119
-713.718	-133.030	-0.178	0.023
-712.704	214.897	-0.157	0.250
-711.689	41.128	0.074	0.067
-710.675	-51.937	0.236	-0.111
-709.660	-61.438	0.203	-0.086
-708.645	800.000	0.091	-0.331
-707.631	523.509	-0.064	-0.152
-706.616	709.297	-0.099	0.263
-705.602	86.901	-0.200	-0.223
-704.587	-66.184	0.072	0.029
-703.572	-77.406	-0.170	-0.059
-702.558	-47.547	0.285	-0.139
-701.543	-116.114	0.428	-0.080
-700.529	800.000	-0.061	0.228
-699.514	-13.505	-0.072	-0.047
-698.499	-200.000	0.034	0.217
-697.485	24.744	-0.162	0.135
-696.470	612.522	0.113	0.285
-695.456	800.000	0.057	-0.162
-694.441	-200.000	0.007	-0.079
-693.426	145.747	0.188	0.253
-692.412	83.255	0.196	-0.215
-691.397	493.241	0.114	-0.263
-690.383	-111.777	-0.112	0.023
-689.368	-200.000	0.017	-0.169
-688.354	77.198	0.167	0.179
-687.339	48.317	0.226	0.213
-686.324	-124.563	0.096	-0.015
-685.310	8.076	-0.052	0.039
-684.295	41.372	0.194	0.177
-683.281	65.938	0.109	-0.111
-682.266	800.000	-0.098	0.309
-681.251	-165.541	-0.323	0.014
-680.237	800.000	0.044	-0.155
-679.222	-22.818	0.420	0.255
-678.208	89.101	0.140	0.157
-677.193	-91.203	-0.288	-0.083
-676.178	800.000	-0.017	-0.065
-675.164	-161.685	-0.388	0.020
-674.149	83.392	-0.369	-0.404
-673.135	800.000	-0.041	-0.150
-672.120	-81.698	-0.238	0.079
-671.105	-94.521	0.405	0.111
-670.091	-200.000	0.016	0.125
-669.076	800.000	0.015	-0.044
-668.062	-46.568	0.116	0.057
-667.047	800.000	0.011	-0.033
-666.032	43.552	-0.056	-0.051
-665.018	-50.631	0.126	0.060
-664.003	-32.756	0.169	-0.094
-662.989	163.563	0.155	0.220
-661.974	285.753	0.171	-0.311
-660.959	800.000	0.092	0.259
-659.945	-132.767	-0.087	0.011
-658.930	-27.483	0.243	-0.142
-657.916	75.159	-0.235	-0.249
-656.901	93.699	0.214	-0.243
-655.886	49.439	-0.216	0.204
-654.872	289.880	-0.126	0.229
-653.857	-118.257	0.215	-0.038
-652.843	313.027	0.064	0.122
-651.828	800.000	-0.079	0.273
-650.814	-152.198	-0.140	-0.010
-649.799	307.460	0.247	-0.463
-648.784	800.000	-0.079	-0.292
-647.770	6.059	-0.168	0.125
-646.755	627.719	-0.061	0.155
-645.741	-200.000	-0.034	0.188
-644.726	800.000	-0.078	0.294
-643.711	-191.083	0.037	-0.000
-642.697	-200.000	0.005	-0.073
-641.682	-129.820	-0.258	0.036
-640.668	132.336	0.149	-0.193
-639.653	155.856	-0.051	-0.070
-638.638	800.000	0.034	-0.105
-637.624	-9.367	0.121	0.081
-636.609	14.199	0.206	-0.161
-635.595	-200.000	-0.042	-0.360
-634.580	800.000	0.108	0.386
-633.565	-88.781	0.502	-0.150
-632.551	-93.365	-0.104	0.029
-631.536	-200.000	-0.012	-0.088
-630.522	-157.565	0.256	-0.015
-629.507	-46.880	-0.132	0.065
-628.492	259.044	-0.104	-0.180
-627.478	800.000	-0.067	0.208
-626.463	800.000	0.093	0.337
-625.449	-41.950	0.412	0.212
-624.434	-200.000	0.015	0.364
-623.419	50.033	0.084	-0.080
-622.405	266.370	0.052	0.092
-621.390	131.206	-0.069	-0.089
-620.376	-86.326	0.160	0.049
-619.361	-62.362	-0.359	0.150
-618.346	119.939	-0.190	-0.237
-617.332	-45.601	0.205	0.102
-616.317	166.354	-0.019	-0.026
-615.303	164.738	-0.125	-0.177
-614.288	-200.000	-0.049	-0.228
-613.273	800.000	-0.120	-0.365
-612.259	-51.594	0.123	-0.057
-611.244	-200.000	0.047	-0.303
-610.230	609.468	0.045	-0.112
-609.215	-103.338	-0.323	0.077
-608.201	-200.000	-0.063	0.317
-607.186	-25.966	-0.125	0.074
-606.171	165.302	-0.121	0.171
-605.157	800.000	-0.021	0.084
-604.142	800.000	0.051	0.146
-603.128	289.885	-0.209	0.381
-602.113	-109.017	-0.034	-0.007
-601.098	27.608	0.179	-0.151
-600.084	800.000	0.061	0.182
-599.069	-26.294	0.118	-0.069
-598.055	-55.282	0.205	0.092
-597.040	25.924	0.213	0.178
-596.025	-100.441	-0.208	-0.052
-595.011	-98.582	0.032	0.008
-593.996	-41.445	0.364	-0.188
-592.982	-55.583	-0.166	0.075
-591.967	246.392	-0.136	0.229
-590.952	-126.826	0.235	0.035
-589.938	-200.000	0.055	-0.459
-588.923	284.580	0.085	0.153
-587.909	-93.290	-0.421	0.117
-586.894	-200.000	-0.047	-0.260
-585.879	-62.192	0.104	-0.043
-584.865	-24.568	0.084	-0.050
-583.850	11.220	-0.250	0.192
-582.836	-72.758	-0.258	-0.095
-581.821	197.758	0.083	-0.128
-580.806	188.035	0.105	0.157
-579.792	395.555	0.159	-0.333
-578.777	-200.000	0.023	0.115
-577.763	27.067	0.381	0.320
-576.748	-119.362	-0.258	0.045
-575.733	-200.000	-0.144	-0.001
-574.719	-57.017	-0.174	-0.077
-573.704	79.513	0.068	0.073
-572.690	-12.136	-0.157	-0.103
-571.675	-87.321	0.268	-0.081
-570.661	157.495	0.253	0.352
-569.646	4.308	-0.312	0.229
-568.631	-40.142	0.100	0.052
-567.617	-84.808	0.428	-0.135
-566.602	-18.840	0.355	-0.221
-565.588	-64.618	-0.073	-0.030
-564.573	800.000	0.048	-0.166
-563.558	-43.171	-0.142	-0.072
-562.544	-25.080	-0.219	0.130
-561.529	-200.000	0.006	-0.157
-560.515	35.281	-0.416	-0.366
-559.500	-200.000	-0.016	-0.388
-558.485	-200.000	-0.013	0.234
-557.471	30.262	-0.135	0.115
-556.456	-170.445	0.222	0.008
-555.442	-200.000	-0.027	-0.307
-554.427	10.687	0.095	-0.072
-553.412	-151.912	-0.165	-0.012
-552.398	111.930	0.097	0.117
-551.383	269.019	-0.179	0.315
-550.369	-139.651	-0.041	0.004
-549.354	113.815	0.126	0.153
-548.339	-99.510	-0.223	0.056
-547.325	164.021	-0.181	0.255
-546.310	-192.254	-0.256	0.002
-545.296	-72.242	0.179	0.066
-544.281	-200.000	0.006	-0.345
-543.266	-20.054	0.119	0.073
-542.252	-200.000	0.025	0.221
-541.237	43.829	-0.323	-0.296
-540.223	137.358	-0.242	-0.317
-539.208	-83.211	-0.099	-0.032
-538.193	-68.024	-0.342	0.133
-537.179	12.356	-0.209	-0.161
-536.164	82.153	0.101	0.110
-535.150	-31.515	-0.058	0.033
-534.135	800.000	-0.096	-0.387
-533.121	15.740	0.108	0.085
-532.106	193.271	-0.264	0.400
-531.091	-200.000	0.000	0.037
-530.077	-49.445	-0.106	0.051
-529.062	-87.388	0.302	0.092
-528.048	-200.000	0.014	0.190
-527.033	-32.884	-0.044	0.025
-526.018	800.000	0.059	-0.195
-525.004	-65.959	-0.089	0.035
-523.989	-167.388	0.242	0.010
-522.975	361.179	-0.030	-0.059
-521.960	-142.118	0.271	-0.027
-520.945	597.454	-0.086	0.214
-519.931	800.000	0.035	-0.134
-518.916	471.212	-0.124	0.279
-517.902	433.140	-0.054	0.117
-516.887	-124.101	-0.451	0.071
-515.872	-34.500	-0.232	0.127
-514.858	-149.072	0.193	-0.016
-513.843	134.551	-0.054	0.070
-512.829	385.811	-0.136	-0.281
-511.814	-200.000	-0.049	-0.258
-510.799	170.664	0.056	-0.081
-509.785	265.187	0.054	-0.095
-508.770	-55.791	0.286	0.128
-507.756	800.000	-0.110	-0.390
-506.741	-200.000	0.000	-0.172
-505.726	-96.314	0.368	-0.097
-504.712	139.020	0.060	-0.078
-503.697	447.217	0.088	0.193
-502.683	85.838	-0.095	0.105
-501.668	-19.475	-0.398	0.246
-500.653	-58.856	-0.110	-0.048
-499.639	280.109	-0.064	-0.114
-498.624	-200.000	-0.020	0.187
-497.610	300.477	0.113	-0.208
-496.595	-200.000	0.002	0.120
-495.581	-90.382	-0.394	-0.114
-494.566	-116.590	-0.249	-0.046
-493.551	-200.000	0.018	0.176
-492.537	405.136	-0.133	0.279
-491.522	612.916	-0.053	0.134
-490.508	-57.555	-0.235	0.103
-489.493	-118.999	-0.144	0.025
-488.478	-161.132	0.144	-0.007
-487.464	229.449	0.159	-0.260
-486.449	-200.000	0.033	-0.253
-485.435	141.578	-0.172	0.227
-484.420	-200.000	-0.105	-0.504
-483.405	1.437	0.360	-0.259
-482.391	255.808	-0.063	-0.108
-481.376	-91.088	-0.175	-0.050
-480.362	286.239	0.121	-0.218
-479.347	-175.171	-0.154	-0.004
-478.332	-17.972	-0.218	0.137
-477.318	75.286	-0.158	0.167
-476.303	4.613	-0.186	-0.137
-475.289	-189.520	0.120	0.001
-474.274	58.294	0.258	0.253
-473.259	-93.380	0.245	-0.068
-472.245	-200.000	-0.039	-0.344
-471.230	-110.090	-0.309	-0.065
-470.216	-59.021	-0.099	-0.043
-469.201	319.825	0.068	0.128
-468.186	160.393	0.190	-0.265
-467.172	800.000	-0.030	-0.111
-466.157	-200.000	0.086	0.378
-465.143	98.470	0.085	0.098
-464.128	-37.958	-0.239	-0.127
-463.113	-200.000	-0.002	0.306
-462.099	4.444	0.128	0.093
-461.084	-200.000	0.020	0.152
-460.070	662.911	0.157	0.405
-459.055	781.648	0.039	0.106
-458.040	-114.037	-0.316	0.061
-457.026	29.298	0.170	0.144
-456.011	-91.745	0.137	0.039
-454.997	-200.000	-0.037	-0.195
-453.982	194.084	0.127	-0.192
-452.968	16.055	-0.285	0.224
-451.953	-118.066	0.419	-0.075
-450.938	-200.000	0.034	0.305
-449.924	-200.000	0.034	0.196
-448.909	-200.000	-0.037	-0.167
-447.895	800.000	-0.016	-0.056
-446.880	-55.423	-0.196	0.088
-445.865	-200.000	0.042	-0.379
-444.851	-12.368	-0.087	0.056
-443.836	-200.000	-0.004	0.333
-442.822	-200.000	-0.018	0.135
-441.807	284.865	0.081	0.146
-440.792	-105.699	0.067	-0.015
-439.778	418.717	-0.142	0.304
-438.763	747.657	0.128	0.344
-437.749	800.000	-0.079	-0.297
-436.734	509.244	-0.094	0.217
-435.719	-66.483	-0.058	0.023
-434.705	3.699	-0.333	0.242
-433.690	719.503	0.023	-0.062
-432.676	800.000	0.048	-0.182
-431.661	69.535	-0.094	0.096
-430.646	-4.190	0.184	-0.127
-429.632	-200.000	-0.010	0.079
-428.617	-200.000	-0.083	-0.410
-427.603	44.107	-0.164	-0.150
-426.588	800.000	0.027	0.095
-425.573	248.472	-0.079	-0.133
-424.559	-94.586	-0.160	0.043
-423.544	277.885	0.098	0.174
-422.530	-200.000	-0.113	0.001
-421.515	-133.037	0.392	0.050
-420.500	78.781	0.321	0.342
-419.486	-57.347	0.104	-0.046
-418.471	-200.000	-0.008	-0.071
-417.457	800.000	0.034	0.102
-416.442	169.940	0.092	-0.131
-415.428	2.870	-0.224	0.162
-414.413	-78.937	0.479	-0.163
-413.398	640.911	0.068	-0.173
-412.384	752.333	-0.119	0.319
-411.369	-50.982	0.218	0.102
-410.355	-200.000	-0.012	0.196
-409.340	-106.891	0.173	0.038
-408.325	-200.000	-0.000	0.019
-407.311	-10.109	-0.191	0.127
-406.296	169.138	-0.066	0.094
-405.282	19.730	0.107	0.086
-404.267	640.384	-0.027	0.068
-403.252	316.118	-0.099	0.185
-402.238	381.853	0.092	-0.189
-401.223	-57.821	-0.178	0.077
-400.209	-200.000	-0.022	-0.368
-399.194	-8.066	0.151	-0.102
-398.179	-200.000	-0.021	-0.232
-397.165	23.057	0.188	-0.153
-396.150	691.267	-0.134	-0.350
-395.136	64.088	-0.082	-0.082
-394.121	-155.275	0.464	0.030
-393.106	800.000	-0.053	-0.156
-392.092	-111.031	0.192	0.039
-391.077	-91.538	0.169	-0.048
-390.063	274.761	-0.110	0.194
-389.048	-200.000	0.030	0.133
-388.033	-57.252	-0.135	0.059
-387.019	266.219	-0.090	0.156
-386.004	-104.685	-0.111	-0.025
-384.990	107.967	0.175	0.208
-383.975	-175.495	-0.354	-0.010
-382.960	-85.230	-0.234	-0.073
-381.946	445.896	0.062	0.136
-380.931	-96.469	0.179	0.047
-379.917	67.649	-0.144	0.146
-378.902	-58.166	-0.212	-0.092
-377.888	84.628	0.141	-0.153
-376.873	-14.871	-0.132	-0.084
-375.858	-94.574	-0.242	0.066
-374.844	44.812	0.113	-0.104
-373.829	107.532	-0.116	-0.138
-372.815	272.184	-0.097	0.171
-371.800	-200.000	-0.042	-0.453
-370.785	241.954	0.191	-0.318
-369.771	-200.000	0.052	-0.258
-368.756	-76.672	-0.269	0.094
-367.742	-200.000	-0.001	0.216
-366.727	-200.000	0.002	0.069
-365.712	256.911	-0.095	0.162
-364.698	134.568	-0.144	-0.186
-363.683	-76.297	0.117	0.041
-362.669	-200.000	0.030	0.278
-361.654	-200.000	0.027	-0.234
-360.639	-85.670	-0.292	0.090
-359.625	800.000	0.046	-0.193
-358.610	-200.000	-0.011	0.059
-357.596	123.517	0.019	0.024
-356.581	154.918	-0.117	-0.159
-355.566	-98.797	-0.268	-0.068
-354.552	5.211	0.096	0.070
-353.537	2.318	0.117	0.084
-352.523	-36.052	0.438	-0.235
-351.508	4.076	-0.077	-0.056
-350.493	-200.000	-0.010	-0.411
-349.479	-9.745	-0.066	-0.044
-348.464	127.978	0.230	-0.290
-347.450	101.786	0.099	0.115
-346.435	800.000	-0.086	-0.294
-345.420	-37.672	0.238	0.126
-344.406	-103.711	0.314	-0.073
-343.391	-200.000	0.019	0.162
-342.377	-200.000	0.012	0.172
-341.362	20.198	-0.106	0.085
-340.348	-19.130	0.049	-0.030
-339.333	427.939	0.122	0.262
-338.318	61.357	-0.234	-0.231
-337.304	51.486	0.068	-0.064
-336.289	-127.455	-0.505	0.073
-335.275	800.000	0.116	-0.388
-334.260	-39.801	-0.151	0.078
-333.245	535.086	0.017	0.039
-332.231	800.000	-0.034	0.101
-331.216	-58.496	-0.009	-0.004
-330.202	-77.421	-0.299	-0.103
-329.187	380.249	0.041	0.084
-328.172	-57.572	-0.221	-0.096
-327.158	-151.782	0.131	0.010
-326.143	-89.408	0.063	-0.018
-325.129	-200.000	-0.015	0.094
-324.114	-200.000	0.014	0.103
-323.099	-12.101	0.279	-0.182
-322.085	-110.354	-0.313	0.065
-321.070	-126.420	-0.311	0.046
-320.056	800.000	-0.047	0.142
-319.041	-200.000	0.006	0.055
-318.026	-69.285	0.204	-0.078
-317.012	32.228	0.035	-0.030
-315.997	-200.000	-0.021	-0.236
-314.983	139.770	-0.198	0.258
-313.968	101.971	-0.213	-0.247
-312.953	224.774	0.125	-0.201
-311.939	262.596	0.018	0.030
-310.924	184.216	-0.058	0.085
-309.910	-116.397	-0.538	-0.099
-308.895	-4.689	0.204	0.140
-307.880	-168.947	0.158	0.006
-306.866	-137.222	0.337	0.038
-305.851	113.960	-0.166	0.200
-304.837	-34.392	-0.128	-0.070
-303.822	-200.000	-0.004	-0.320
-302.807	-111.680	-0.008	-0.002
-301.793	-93.883	-0.021	0.006
-300.778	184.366	-0.064	-0.094
-299.764	8.983	0.106	0.079
-298.749	10.267	-0.073	0.055
-297.735	149.356	-0.057	0.076
-296.720	85.737	0.348	0.380
-295.705	53.033	-0.053	-0.050
-294.691	-85.836	-0.153	-0.047
-293.676	102.660	0.265	0.307
-292.662	-108.858	0.196	0.042
-291.647	534.961	0.038	-0.089
-290.632	353.438	-0.177	0.349
-289.618	-105.637	0.314	0.070
-288.603	-97.985	-0.225	-0.058
-287.589	-200.000	-0.021	0.279
-286.574	624.322	0.107	0.267
-285.559	800.000	0.079	-0.281
-284.545	265.975	0.037	0.065
-283.530	135.246	0.139	-0.179
-282.516	-200.000	-0.008	0.116
-281.501	410.830	-0.114	-0.239
-280.486	-200.000	0.059	-0.343
-279.472	-5.313	0.228	0.155
-278.457	63.107	-0.183	0.181
-277.443	109.508	-0.150	0.178
-276.428	-200.000	-0.019	-0.376
-275.413	-118.563	0.305	-0.053
-274.399	-59.129	0.379	0.162
-273.384	-130.065	0.219	0.030
-272.370	167.623	-0.027	-0.037
-271.355	800.000	-0.082	-0.270
-270.340	-24.330	0.299	0.177
-269.326	800.000	0.014	0.052
-268.311	526.567	-0.053	-0.124
-267.297	-58.875	0.129	0.055
-266.282	-46.089	0.123	-0.060
-265.267	178.295	0.348	0.503
-264.253	344.687	0.147	0.286
-263.238	45.231	-0.258	-0.236
-262.224	16.176	-0.093	-0.073
-261.209	-200.000	-0.033	-0.448
-260.195	800.000	0.026	-0.113
-259.180	523.938	0.112	-0.261
-258.165	40.678	0.160	-0.142
-257.151	-10.004	0.219	0.144
-256.136	141.511	-0.095	0.125
-255.122	52.886	0.292	0.276
-254.107	-83.828	0.325	-0.102
-253.092	319.343	-0.175	0.328
-252.078	-200.000	0.015	-0.190
-251.063	-200.000	0.008	-0.201
-250.049	-130.669	0.338	0.045
-249.034	-134.995	0.222	-0.027
-248.019	-200.000	-0.008	-0.270
-247.005	394.800	-0.095	-0.195
-245.990	-200.000	-0.007	-0.417
-244.976	15.441	0.128	-0.100
-243.961	-175.131	-0.236	-0.006
-242.946	58.035	0.175	0.170
-241.932	-68.026	-0.361	0.139
-240.917	259.828	-0.077	0.132
-239.903	-90.704	0.310	0.089
-238.888	-88.641	-0.110	-0.032
-237.873	773.081	0.083	-0.224
-236.859	452.752	-0.220	-0.482
-235.844	800.000	-0.046	-0.194
-234.830	-200.000	-0.035	0.183
-233.815	-200.000	-0.013	-0.198
-232.800	800.000	-0.064	-0.255
-231.786	800.000	0.052	-0.220
-230.771	-200.000	-0.002	0.283
-229.757	-39.882	-0.080	-0.041
-228.742	-145.650	-0.186	-0.016
-227.727	-200.000	0.019	-0.556
-226.713	14.639	0.187	0.145
-225.698	-32.191	-0.113	0.063
-224.684	66.104	0.322	-0.323
-223.669	140.461	0.100	0.130
-222.655	29.879	-0.129	-0.109
-221.640	800.000	-0.048	0.199
-220.625	-200.000	0.015	0.217
-219.611	-200.000	0.028	0.195
-218.596	8.382	0.085	0.063
-217.582	49.046	-0.247	0.229
-216.567	-200.000	0.008	-0.278
-215.552	-200.000	-0.086	-0.479
-214.538	-99.385	0.246	-0.061
-213.523	-119.969	-0.342	0.058
-212.509	-9.794	-0.267	0.175
-211.494	33.033	0.139	-0.119
-210.479	-200.000	0.016	0.182
-209.465	-22.014	0.149	-0.089
-208.450	-200.000	0.007	0.222
-207.436	800.000	-0.091	0.274
-206.421	539.685	0.062	-0.145
-205.406	-147.913	0.266	0.022
-204.392	-124.054	-0.525	-0.081
-203.377	-79.848	0.023	-0.008
-202.363	-7.550	-0.061	0.041
-201.348	198.440	0.139	0.210
-200.333	353.230	0.029	0.057
-199.319	3.633	0.188	0.135
-198.304	9.898	0.292	0.219
-197.290	188.373	0.124	0.184
-196.275	235.357	-0.021	0.035
-195.260	58.195	0.105	-0.101
-194.246	-78.384	0.322	0.109
-193.231	800.000	0.052	0.223
-192.217	800.000	-0.054	0.189
-191.202	92.905	-0.073	0.081
-190.187	-200.000	0.002	-0.280
-189.173	32.968	-0.168	-0.144
-188.158	-107.241	-0.405	-0.088
-187.144	-79.865	0.271	-0.090
-186.129	-66.099	-0.214	-0.084
-185.114	-200.000	0.020	0.282
-184.100	146.821	0.065	-0.086
-183.085	24.242	0.265	-0.216
-182.071	800.000	-0.061	0.252
-181.056	164.219	-0.066	-0.092
-180.042	-87.112	0.071	0.021
-179.027	-130.796	0.129	0.017
-178.012	-3.612	0.156	0.107
-176.998	231.890	-0.155	-0.250
-175.983	526.804	0.079	0.184
-174.969	21.322	-0.301	-0.241
-173.954	245.171	0.126	0.209
-172.939	569.605	-0.158	0.378
-171.925	190.927	-0.127	0.188
-170.910	7.702	0.129	-0.096
-169.896	-8.173	0.265	0.176
-168.881	141.773	-0.055	-0.072
-167.866	-27.671	-0.025	0.014
-166.852	-200.000	0.000	0.331
-165.837	-200.000	-0.001	-0.066
-164.823	390.493	-0.106	0.217
-163.808	164.313	0.134	0.186
-162.793	-90.234	0.235	0.067
-161.779	87.795	0.208	-0.228
-160.764	62.631	-0.129	0.127
-159.750	329.435	0.076	-0.144
-158.735	-70.455	0.131	-0.049
-157.720	-106.210	-0.212	-0.047
-156.706	1.283	-0.121	0.086
-155.691	-111.616	0.227	0.046
-154.677	-78.078	-0.261	-0.088
-153.662	4.643	-0.161	-0.117
-152.647	-8.008	0.204	-0.135
-151.633	-74.554	-0.275	-0.098
-150.618	-70.105	0.206	0.077
-149.604	-82.841	0.069	-0.022
-148.589	-95.389	0.096	0.025
-147.574	-108.046	-0.349	0.075
-146.560	-187.454	0.196	0.003
-145.545	-200.000	0.004	0.162
-144.531	-46.449	-0.255	-0.123
-143.516	-65.891	-0.065	0.026
-142.502	-82.214	0.190	0.061
-141.487	-133.038	0.188	0.024
-140.472	-200.000	-0.010	-0.215
-139.458	800.000	-0.037	-0.159
-138.443	-200.000	-0.006	0.134
-137.429	150.513	0.047	0.063
-136.414	77.366	-0.324	-0.340
-135.399	322.354	0.074	-0.139
-134.385	-27.237	0.375	-0.215
-133.370	-149.304	-0.424	0.033
-132.356	74.422	-0.121	0.125
-131.341	259.999	-0.262	-0.446
-130.326	262.933	0.126	-0.216
-129.312	83.813	0.124	0.133
-128.297	-200.000	0.024	-0.229
-127.283	669.515	-0.015	0.039
-126.268	140.967	0.125	-0.163
-125.253	-200.000	0.024	0.307
-124.239	-57.431	-0.334	0.145
-123.224	455.675	0.050	0.109
-122.210	521.784	0.071	0.165
-121.195	-138.731	0.278	-0.030
-120.180	-200.000	0.021	0.337
