DTS Sentinel unit serial number:	SN413079Multiplexer serial number:	ORYXHardware model number:	OX4-SRSoftware version number:	ORYX F/W v4.00 Oryx Data Collector v3.7.2.0data status	okinstallation	princeton_trtdifferential loss correction	single-endedforward channel	channel 2reverse channel	N/Adate	2019/09/14time	09:39:34forward acquisition time	60.00reverse acquisition time	0.00gamma	496.2192k internal	0.2323k external	0.2323temperature offset calibration	1.0132default loss term (dB/km)	0.3790temperature slope calibration	1.0000multiplexer offset coefficient	1.0000multiplexer slope coefficient	1.0000fibre end	0.00T internal ref (°C)	31.92T ext. ref 1 (°C)	3.90T ext. ref 2 (°C)	30.09length (m)	temperature (°C)	Stokes	anti-Stokes-747.200	-200.000	0.022	0.177
-746.185	-148.025	0.191	0.016
-745.171	-105.862	-0.181	-0.041
-744.156	800.000	0.041	0.174
-743.142	800.000	-0.052	-0.194
-742.127	800.000	0.077	0.216
-741.112	246.998	0.074	-0.126
-740.098	31.303	0.171	0.148
-739.083	-118.761	0.209	0.037
-738.069	-104.808	0.176	-0.041
-737.054	305.788	0.162	-0.303
-736.039	137.342	-0.137	-0.181
-735.025	-44.775	0.171	0.086
-734.010	7.110	0.111	0.084
-732.996	179.116	-0.172	0.254
-731.981	800.000	0.095	0.360
-730.966	-200.000	-0.024	-0.349
-729.952	-200.000	-0.013	-0.075
-728.937	-128.564	-0.200	-0.029
-727.923	800.000	0.002	0.007
-726.908	401.552	0.093	-0.196
-725.894	647.728	-0.154	-0.396
-724.879	-200.000	0.011	-0.153
-723.864	-200.000	0.057	-0.353
-722.850	11.827	-0.100	-0.078
-721.835	166.868	0.107	-0.153
-720.821	77.147	0.223	0.239
-719.806	-200.000	0.077	0.404
-718.791	-134.797	0.228	0.028
-717.777	-78.255	0.249	-0.086
-716.762	-17.589	-0.234	-0.149
-715.748	619.394	0.025	-0.062
-714.733	800.000	-0.117	-0.392
-713.718	460.260	-0.054	-0.122
-712.704	-200.000	0.022	0.387
-711.689	800.000	-0.061	-0.255
-710.675	-4.526	0.228	0.159
-709.660	800.000	-0.041	0.121
-708.645	-24.028	-0.378	0.228
-707.631	800.000	0.045	-0.193
-706.616	-0.389	0.097	0.069
-705.602	-36.396	-0.115	0.062
-704.587	-95.268	-0.294	-0.080
-703.572	800.000	-0.097	0.273
-702.558	548.964	-0.106	-0.255
-701.543	-200.000	-0.052	-0.270
-700.529	-109.614	-0.321	-0.068
-699.514	220.730	0.126	0.204
-698.499	433.577	-0.094	-0.206
-697.485	-88.217	0.400	-0.121
-696.470	245.339	0.182	0.309
-695.456	-200.000	0.018	-0.132
-694.441	-95.781	-0.124	-0.033
-693.426	-72.809	-0.251	-0.093
-692.412	26.198	-0.265	0.223
-691.397	-38.438	-0.187	-0.100
-690.383	800.000	0.025	-0.072
-689.368	23.360	0.032	-0.026
-688.354	-82.855	-0.304	-0.099
-687.339	800.000	-0.112	-0.414
-686.324	102.838	0.272	-0.321
-685.310	800.000	-0.095	-0.281
-684.295	-42.917	-0.130	-0.067
-683.281	612.217	0.056	0.142
-682.266	-21.677	0.286	0.176
-681.251	94.472	0.087	-0.100
-680.237	-53.608	0.145	-0.067
-679.222	103.539	-0.088	-0.104
-678.208	241.143	-0.197	0.331
-677.193	162.309	0.125	0.177
-676.178	73.824	0.098	-0.104
-675.164	347.892	0.074	-0.147
-674.149	800.000	-0.017	0.064
-673.135	244.185	-0.050	-0.085
-672.120	-36.992	-0.209	-0.113
-671.105	-57.873	0.108	-0.048
-670.091	800.000	-0.051	-0.143
-669.076	-18.904	-0.314	-0.197
-668.062	30.985	-0.087	-0.075
-667.047	13.098	0.227	-0.177
-666.032	316.783	-0.082	0.156
-665.018	760.550	-0.080	-0.218
-664.003	-61.241	-0.041	-0.017
-662.989	800.000	-0.105	-0.310
-661.974	0.763	-0.105	-0.076
-660.959	-200.000	0.003	-0.245
-659.945	-37.561	-0.162	-0.087
-658.930	-123.564	0.355	0.057
-657.916	109.182	0.155	-0.187
-656.901	66.976	-0.229	-0.235
-655.886	-200.000	-0.063	0.362
-654.872	-157.487	0.304	-0.018
-653.857	-200.000	-0.022	0.142
-652.843	304.504	-0.153	-0.286
-651.828	-56.544	0.250	-0.111
-650.814	-72.155	0.210	-0.079
-649.799	-150.600	-0.306	-0.024
-648.784	157.136	0.233	0.324
-647.770	-178.472	-0.270	0.006
-646.755	8.936	0.142	0.108
-645.741	-139.181	-0.252	-0.027
-644.726	254.292	-0.156	-0.269
-643.711	150.539	0.071	0.097
-642.697	-9.225	-0.279	-0.188
-641.682	-0.980	0.047	-0.033
-640.668	-108.124	-0.194	-0.042
-639.653	-200.000	0.010	0.052
-638.638	191.389	0.096	0.146
-637.624	-156.479	0.382	-0.024
-636.609	-50.202	-0.111	0.053
-635.595	340.347	-0.178	-0.350
-634.580	413.552	-0.060	-0.129
-633.565	276.755	-0.043	0.077
-632.551	-79.425	0.118	0.040
-631.536	-83.833	0.053	0.017
-630.522	290.171	0.143	-0.262
-629.507	119.517	0.090	-0.112
-628.492	246.210	-0.182	-0.308
-627.478	-200.000	-0.003	-0.332
-626.463	123.945	0.112	0.142
-625.449	101.549	-0.164	-0.192
-624.434	-78.833	-0.020	-0.007
-623.419	-200.000	0.037	-0.472
-622.405	-94.511	-0.288	0.079
-621.390	46.925	-0.136	-0.127
-620.376	-61.457	0.045	0.019
-619.361	-200.000	-0.036	-0.293
-618.346	174.507	-0.104	-0.151
-617.332	145.705	0.070	-0.094
-616.317	-11.458	-0.325	0.215
-615.303	30.734	0.231	0.199
-614.288	347.945	0.102	-0.203
-613.273	-15.734	-0.310	-0.199
-612.259	800.000	0.050	0.163
-611.244	4.020	-0.091	0.067
-610.230	-26.068	-0.144	0.085
-609.215	-200.000	0.008	0.041
-608.201	32.708	-0.140	-0.122
-607.186	62.733	0.099	-0.099
-606.171	-200.000	0.002	-0.183
-605.157	-98.199	-0.427	-0.110
-604.142	235.455	-0.040	-0.067
-603.128	-122.501	-0.340	0.056
-602.113	800.000	0.041	0.145
-601.098	-90.356	0.231	-0.067
-600.084	-117.309	0.178	0.032
-599.069	2.359	0.132	-0.096
-598.055	-200.000	-0.003	-0.097
-597.040	530.394	0.072	-0.172
-596.025	325.772	-0.045	0.086
-595.011	-153.981	-0.263	-0.018
-593.996	-37.042	0.268	-0.144
-592.982	68.660	0.138	0.142
-591.967	-156.227	-0.253	-0.016
-590.952	17.052	-0.020	-0.016
-589.938	-44.909	-0.344	0.172
-588.923	800.000	0.030	0.099
-587.909	-200.000	0.099	-0.532
-586.894	86.451	-0.161	0.178
-585.879	7.450	-0.243	-0.183
-584.865	202.247	-0.116	-0.180
-583.850	-104.429	-0.246	-0.057
-582.836	370.063	0.030	0.061
-581.821	13.209	0.296	-0.230
-580.806	331.198	-0.068	0.131
-579.792	122.841	0.088	-0.111
-578.777	-134.164	0.108	-0.013
-577.763	201.759	-0.189	-0.293
-576.748	128.817	-0.143	0.183
-575.733	-31.449	-0.119	0.067
-574.719	585.146	0.142	-0.351
-573.704	67.543	0.194	-0.199
-572.690	-32.133	-0.374	-0.210
-571.675	800.000	0.096	-0.379
-570.661	403.841	0.161	-0.340
-569.646	800.000	-0.119	-0.364
-568.631	-200.000	-0.036	-0.278
-567.617	800.000	0.006	-0.022
-566.602	800.000	-0.033	0.129
-565.588	-46.853	0.055	-0.027
-564.573	140.596	-0.084	-0.112
-563.558	800.000	0.068	0.223
-562.544	53.461	-0.055	0.053
-561.529	234.342	0.120	-0.199
-560.515	-142.800	-0.049	0.005
-559.500	191.664	-0.049	0.074
-558.485	-200.000	-0.015	0.169
-557.471	126.434	0.348	-0.441
-556.456	-35.242	0.081	-0.044
-555.442	6.122	0.326	0.242
-554.427	77.604	-0.072	0.077
-553.412	-65.698	0.182	-0.073
-552.398	-112.750	-0.289	0.057
-551.383	-200.000	-0.048	0.267
-550.369	86.370	0.139	0.153
-549.354	-200.000	0.028	0.139
-548.339	544.762	0.126	0.301
-547.325	-156.901	0.251	0.015
-546.310	-173.222	-0.434	-0.013
-545.296	658.615	0.087	0.224
-544.281	-110.283	-0.085	0.018
-543.266	-200.000	0.025	-0.124
-542.252	511.263	0.070	0.163
-541.237	67.954	-0.280	-0.287
-540.223	-155.366	0.432	0.028
-539.208	800.000	0.055	0.210
-538.193	23.079	0.183	0.150
-537.179	-2.336	0.170	0.120
-536.164	-156.965	0.069	0.004
-535.150	800.000	-0.054	-0.151
-534.135	-200.000	0.008	-0.253
-533.121	-141.266	-0.068	-0.007
-532.106	-200.000	0.019	-0.286
-531.091	154.436	-0.189	0.260
-530.077	21.192	-0.337	0.274
-529.062	240.999	-0.111	0.185
-528.048	-200.000	0.030	0.167
-527.033	52.986	0.142	-0.136
-526.018	572.633	-0.136	-0.332
-525.004	-35.507	-0.136	0.074
-523.989	531.725	0.017	-0.040
-522.975	-200.000	0.027	-0.238
-521.960	-94.026	0.188	-0.052
-520.945	-132.879	0.195	-0.025
-519.931	-21.435	0.236	0.144
-518.916	790.353	0.122	0.335
-517.902	-162.388	-0.160	0.008
-516.887	201.866	0.070	-0.108
-515.872	-200.000	0.045	-0.303
-514.858	-77.975	-0.060	0.021
-513.843	-171.286	0.294	-0.010
-512.829	31.598	-0.313	0.270
-511.814	13.754	-0.053	-0.042
-510.799	-17.920	0.268	0.169
-509.785	-85.542	-0.207	-0.065
-508.770	-66.786	0.339	0.134
-507.756	418.323	0.159	0.341
-506.741	-162.480	0.224	-0.011
-505.726	-200.000	0.006	-0.121
-504.712	422.628	0.031	0.067
-503.697	104.608	-0.132	0.155
-502.683	-164.070	0.090	0.004
-501.668	-132.566	0.219	0.028
-500.653	-46.376	-0.315	-0.155
-499.639	169.676	0.094	-0.134
-498.624	110.732	-0.133	0.160
-497.610	-200.000	-0.029	0.184
-496.595	-45.072	-0.187	-0.093
-495.581	-200.000	-0.032	-0.212
-494.566	510.656	-0.126	-0.292
-493.551	42.254	-0.189	0.172
-492.537	-200.000	0.031	0.144
-491.522	-42.017	-0.366	-0.187
-490.508	49.762	0.158	0.149
-489.493	800.000	-0.021	0.061
-488.478	-200.000	-0.047	0.499
-487.464	10.028	-0.162	-0.123
-486.449	268.778	-0.089	0.157
-485.435	188.922	0.198	0.296
-484.420	-121.894	-0.101	0.017
-483.405	-37.430	0.149	-0.079
-482.391	-102.334	0.217	-0.052
-481.376	-133.320	0.121	0.015
-480.362	-94.718	-0.243	0.066
-479.347	-8.385	-0.197	-0.132
-478.332	-39.770	0.082	-0.043
-477.318	-200.000	0.040	0.262
-476.303	-58.372	-0.253	0.110
-475.289	133.152	0.089	-0.115
-474.274	-159.588	-0.108	0.006
-473.259	800.000	0.054	-0.188
-472.245	25.345	-0.361	0.300
-471.230	292.804	-0.071	0.129
-470.216	800.000	0.074	-0.216
-469.201	-128.924	-0.216	-0.030
-468.186	-200.000	0.030	-0.137
-467.172	-113.625	0.335	-0.065
-466.157	129.972	0.185	-0.237
-465.143	78.072	0.174	0.185
-464.128	62.027	0.105	-0.105
-463.113	-78.455	-0.171	0.058
-462.099	205.972	-0.103	-0.161
-461.084	-118.854	-0.137	-0.024
-460.070	551.551	0.167	0.401
-459.055	800.000	0.006	0.019
-458.040	566.556	-0.087	0.212
-457.026	-200.000	-0.032	-0.308
-456.011	-83.899	-0.631	-0.201
-454.997	-119.884	-0.065	-0.011
-453.982	119.641	-0.096	0.118
-452.968	800.000	-0.127	0.461
-451.953	78.542	0.057	0.061
-450.938	800.000	-0.067	-0.244
-449.924	32.231	-0.307	-0.265
-448.909	111.203	-0.135	-0.162
-447.895	4.169	0.312	-0.228
-446.880	-200.000	-0.059	-0.612
-445.865	-200.000	0.036	0.163
-444.851	-99.416	-0.164	-0.041
-443.836	-81.577	0.148	0.049
-442.822	-115.779	-0.312	0.058
-441.807	54.772	0.236	-0.228
-440.792	800.000	-0.062	0.232
-439.778	85.929	-0.085	-0.093
-438.763	38.052	0.219	0.195
-437.749	588.116	0.041	0.100
-436.734	-76.473	0.114	0.040
-435.719	-200.000	-0.001	0.064
-434.705	353.812	-0.271	-0.537
-433.690	112.570	-0.204	-0.247
-432.676	-200.000	0.005	-0.047
-431.661	-57.851	-0.117	0.051
-430.646	291.459	0.076	-0.137
-429.632	800.000	0.159	-0.514
-428.617	-55.621	0.313	-0.140
-427.603	-200.000	0.038	0.198
-426.588	38.857	0.196	0.174
-425.573	-94.902	0.237	0.064
-424.559	-38.778	0.059	-0.031
-423.544	-98.337	0.288	0.074
-422.530	76.619	-0.184	0.195
-421.515	-81.352	-0.224	0.074
-420.500	-200.000	-0.028	-0.154
-419.486	149.936	0.017	0.023
-418.471	-200.000	0.032	-0.311
-417.457	-200.000	-0.006	-0.083
-416.442	-200.000	0.019	0.196
-415.428	497.873	-0.033	0.076
-414.413	90.469	-0.104	0.117
-413.398	-174.624	-0.333	-0.009
-412.384	457.371	0.141	-0.312
-411.369	-200.000	-0.002	0.530
-410.355	118.730	-0.106	-0.130
-409.340	-131.114	-0.338	-0.045
-408.325	-105.191	0.171	-0.039
-407.311	-118.228	0.176	0.031
-406.296	44.811	-0.126	0.115
-405.282	-200.000	-0.010	0.100
-404.267	717.001	0.077	-0.203
-403.252	-116.404	0.079	-0.014
-402.238	-32.660	-0.136	0.075
-401.223	101.406	0.212	0.246
-400.209	-200.000	0.049	0.226
-399.194	-87.623	0.151	0.045
-398.179	-44.294	-0.085	0.042
-397.165	123.517	0.204	0.255
-396.150	636.227	0.023	-0.058
-395.136	-87.768	-0.158	0.047
-394.121	-3.669	0.092	-0.064
-393.106	513.374	0.055	-0.128
-392.092	216.804	0.054	-0.085
-391.077	800.000	0.059	-0.223
-390.063	570.651	0.057	-0.137
-389.048	-200.000	0.025	-0.161
-388.033	148.617	0.139	0.186
-387.019	600.653	-0.038	-0.095
-386.004	-56.677	0.278	0.123
-384.990	-22.049	-0.204	-0.123
-383.975	-27.272	0.323	-0.188
-382.960	423.353	-0.172	0.368
-381.946	-200.000	-0.040	-0.193
-380.931	-152.661	0.275	-0.020
-379.917	-56.188	0.139	0.061
-378.902	20.969	-0.203	0.164
-377.888	-34.870	-0.203	0.110
-376.873	-192.981	0.145	-0.001
-375.858	31.865	0.191	-0.164
-374.844	-82.818	-0.184	-0.059
-373.829	492.755	0.142	0.324
-372.815	428.936	0.137	0.295
-371.800	-172.910	0.300	-0.009
-370.785	-200.000	-0.001	-0.314
-369.771	21.803	0.084	0.068
-368.756	-64.597	0.458	0.185
-367.742	-180.391	-0.311	0.006
-366.727	64.824	-0.093	0.093
-365.712	-200.000	-0.029	0.293
-364.698	-200.000	0.014	0.151
-363.683	181.028	-0.263	0.385
-362.669	41.431	0.127	0.114
-361.654	222.646	0.053	-0.086
-360.639	800.000	-0.089	-0.260
-359.625	249.750	0.107	-0.181
-358.610	-100.214	0.215	0.053
-357.596	501.761	-0.013	0.029
-356.581	82.121	0.036	-0.039
-355.566	-42.817	0.342	0.173
-354.552	-80.544	-0.099	0.033
-353.537	-2.029	0.035	-0.024
-352.523	-176.217	0.149	0.004
-351.508	-200.000	-0.007	0.205
-350.493	23.794	-0.141	-0.116
-349.479	800.000	-0.096	0.286
-348.464	639.738	0.009	-0.023
-347.450	-5.730	-0.209	-0.143
-346.435	800.000	-0.046	0.170
-345.420	-104.936	0.241	0.055
-344.406	-200.000	0.009	-0.222
-343.391	-18.790	0.076	0.047
-342.377	-148.135	0.323	0.027
-341.362	-200.000	-0.010	0.328
-340.348	319.890	-0.066	-0.124
-339.333	-25.932	0.306	0.179
-338.318	-102.184	0.315	-0.075
-337.304	-124.813	0.220	0.034
-336.289	-200.000	-0.005	0.431
-335.275	-150.897	-0.269	0.020
-334.260	-200.000	-0.059	0.261
-333.245	-165.930	-0.252	0.011
-332.231	796.297	0.057	-0.157
-331.216	800.000	0.069	-0.258
-330.202	-155.054	0.224	0.015
-329.187	235.600	0.063	0.103
-328.172	-24.621	0.049	0.029
-327.158	-114.523	0.309	0.059
-326.143	126.800	-0.207	0.261
-325.129	-89.326	-0.079	-0.023
-324.114	800.000	-0.067	0.229
-323.099	-6.492	-0.185	0.125
-322.085	762.475	-0.176	-0.474
-321.070	-137.745	0.362	-0.040
-320.056	176.369	-0.110	-0.158
-319.041	-31.955	0.175	0.097
-318.026	513.783	-0.052	0.121
-317.012	-38.106	0.391	0.206
-315.997	-191.587	-0.482	0.005
-314.983	-125.561	-0.190	0.029
-313.968	205.364	0.098	-0.152
-312.953	-126.898	-0.205	-0.030
-311.939	800.000	0.064	-0.193
-310.924	-27.887	0.535	0.308
-309.910	210.995	-0.163	0.255
-308.895	800.000	-0.063	-0.242
-307.880	1.476	-0.306	0.219
-306.866	161.872	-0.090	-0.125
-305.851	-200.000	0.005	-0.127
-304.837	-43.262	0.230	0.116
-303.822	26.927	-0.132	-0.110
-302.807	-98.754	0.222	-0.056
-301.793	551.896	-0.106	-0.252
-300.778	-200.000	0.023	-0.139
-299.764	181.332	-0.174	0.255
-298.749	521.739	-0.124	0.289
-297.735	659.238	-0.133	0.339
-296.720	-46.558	-0.278	-0.135
-295.705	31.955	-0.144	-0.123
-294.691	-84.387	-0.277	0.087
-293.676	-102.871	0.433	-0.102
-292.662	-63.418	-0.224	-0.091
-291.647	-50.848	0.124	-0.058
-290.632	-95.937	0.014	0.004
-289.618	-65.991	0.051	-0.020
-288.603	-53.426	-0.296	0.134
-287.589	-122.730	-0.221	-0.036
-286.574	-101.929	0.141	0.034
-285.559	-149.700	-0.386	0.030
-284.545	-113.617	-0.159	0.031
-283.530	-42.208	0.127	0.064
-282.516	216.702	0.093	0.146
-281.501	151.976	0.240	-0.324
-280.486	-16.556	-0.139	0.088
-279.472	-200.000	0.034	-0.282
-278.457	-122.193	-0.192	-0.031
-277.443	-200.000	-0.013	0.275
-276.428	-113.177	-0.072	0.014
-275.413	192.126	-0.066	0.099
-274.399	-61.385	-0.312	0.130
-273.384	800.000	-0.021	-0.063
-272.370	800.000	0.058	0.212
-271.355	-200.000	-0.009	0.055
-270.340	800.000	0.033	-0.123
-269.326	-78.569	0.164	0.056
-268.311	-200.000	-0.022	0.266
-267.297	259.975	0.232	-0.397
-266.282	-166.566	0.117	0.005
-265.267	-56.034	-0.073	0.032
-264.253	-104.484	-0.040	0.009
-263.238	-21.329	-0.115	0.070
-262.224	-200.000	-0.029	-0.160
-261.209	-200.000	0.011	0.308
-260.195	-85.296	0.312	0.097
-259.180	800.000	0.033	-0.095
-258.165	-44.515	-0.164	0.081
-257.151	-65.657	0.157	-0.063
-256.136	44.517	-0.060	-0.055
-255.122	77.277	0.334	0.352
-254.107	-93.808	0.307	0.084
-253.092	-200.000	-0.001	0.033
-252.078	-200.000	-0.009	0.044
-251.063	-141.096	0.227	0.023
-250.049	-200.000	-0.039	-0.220
-249.034	55.635	0.117	-0.112
-248.019	800.000	-0.024	-0.079
-247.005	-200.000	-0.003	0.095
-245.990	800.000	0.070	-0.262
-244.976	48.210	-0.116	0.107
-243.961	-200.000	-0.016	-0.070
-242.946	-172.164	0.355	0.011
-241.932	181.438	-0.098	0.142
-240.917	-200.000	0.037	-0.438
-239.903	20.309	0.044	0.036
-238.888	60.907	-0.212	0.209
-237.873	-62.505	0.396	0.163
-236.859	800.000	-0.033	0.123
-235.844	-200.000	-0.017	0.149
-234.830	-125.690	0.351	0.053
-233.815	405.630	-0.057	0.120
-232.800	-67.222	-0.063	0.024
-231.786	-2.529	0.131	0.091
-230.771	-200.000	0.003	0.229
-229.757	336.255	-0.075	-0.144
-228.742	800.000	0.046	0.128
-227.727	-200.000	0.017	-0.112
-226.713	-200.000	0.046	-0.319
-225.698	-200.000	-0.018	0.285
-224.684	-18.653	-0.097	0.060
-223.669	-112.064	-0.189	-0.038
-222.655	-168.180	0.308	-0.012
-221.640	-113.841	0.381	-0.073
-220.625	14.898	0.395	-0.306
-219.611	511.103	-0.096	0.221
-218.596	-130.253	-0.177	-0.024
-217.582	800.000	-0.039	0.156
-216.567	-141.475	0.359	0.036
-215.552	658.229	-0.058	0.147
-214.538	-53.214	-0.157	0.071
-213.523	800.000	-0.019	0.072
-212.509	505.677	0.067	-0.153
-211.494	83.829	-0.298	-0.322
-210.479	-200.000	0.044	-0.263
-209.465	-200.000	0.016	-0.140
-208.450	192.671	-0.138	0.207
-207.436	-146.496	0.276	0.024
-206.421	198.392	-0.190	0.287
-205.406	-27.717	0.064	-0.037
-204.392	800.000	-0.044	0.127
-203.377	-63.358	-0.485	0.197
-202.363	130.517	-0.125	0.159
-201.348	-200.000	0.007	0.200
-200.333	-44.478	0.168	0.083
-199.319	-145.977	0.160	0.014
-198.304	-86.667	0.092	0.028
-197.290	235.464	-0.095	-0.155
-196.275	-57.283	0.271	-0.118
-195.260	20.896	-0.359	-0.288
-194.246	327.801	-0.115	-0.219
-193.231	30.820	0.133	-0.113
-192.217	-121.299	-0.293	-0.048
-191.202	657.876	0.022	0.055
-190.187	-200.000	0.081	0.442
-189.173	-84.697	0.163	0.051
-188.158	664.831	-0.064	-0.162
-187.144	228.367	-0.144	-0.232
-186.129	-15.352	-0.104	0.065
-185.114	800.000	-0.019	-0.072
-184.100	-75.431	0.152	0.053
-183.085	112.438	0.189	-0.226
-182.071	-77.291	-0.136	0.047
-181.056	42.402	0.210	0.189
-180.042	162.307	-0.047	-0.065
-179.027	-66.191	0.267	0.105
-178.012	-48.015	-0.236	-0.113
-176.998	800.000	0.104	-0.293
-175.983	387.335	0.098	-0.199
-174.969	224.135	-0.086	-0.137
-173.954	-180.683	0.196	-0.004
-172.939	-200.000	0.060	0.391
-171.925	329.919	0.062	-0.117
-170.910	-122.878	0.243	0.039
-169.896	-68.511	-0.209	-0.080
-168.881	-5.313	0.206	0.140
-167.866	-200.000	0.011	-0.087
-166.852	800.000	0.010	-0.033
-165.837	-64.992	0.075	0.030
-164.823	426.459	0.025	-0.053
-163.808	-25.715	-0.475	-0.276
-162.793	-200.000	-0.084	0.442
-161.779	-43.373	-0.419	-0.209
-160.764	800.000	0.057	-0.160
-159.750	-200.000	0.074	0.422
-158.735	-113.980	-0.081	0.015
-157.720	183.649	-0.013	-0.018
-156.706	-100.039	0.128	0.032
-155.691	156.195	0.307	0.418
-154.677	161.241	-0.243	0.335
-153.662	77.056	-0.239	-0.251
-152.647	97.916	-0.141	-0.160
-151.633	-45.360	0.164	0.080
-150.618	800.000	-0.050	-0.201
-149.604	-66.221	-0.326	0.128
-148.589	-109.807	0.221	-0.046
-147.574	21.577	-0.129	0.103
-146.560	161.912	-0.161	-0.222
-145.545	95.090	-0.294	-0.331
-144.531	-200.000	-0.057	0.269
-143.516	61.754	0.133	-0.131
-142.502	-26.057	-0.200	-0.116
-141.487	-175.781	-0.130	0.003
-140.472	-63.893	0.106	0.043
-139.458	-200.000	-0.041	-0.227
-138.443	27.657	0.092	0.076
-137.429	386.831	-0.127	0.259
-136.414	-20.689	-0.458	0.277
-135.399	-200.000	-0.004	0.286
-134.385	624.310	-0.048	-0.120
-133.370	800.000	-0.081	0.232
-132.356	-196.265	0.295	-0.002
-131.341	280.322	0.142	-0.251
-130.326	45.288	-0.113	-0.103
-129.312	3.798	-0.297	0.214
-128.297	-38.903	-0.173	0.090
-127.283	265.302	-0.102	-0.175
-126.268	-172.351	0.262	0.008
-125.253	-135.536	0.362	-0.043
-124.239	336.499	0.073	-0.139
-123.224	195.105	0.101	-0.152
-122.210	-125.792	-0.436	0.065
