DTS Sentinel unit serial number:	SN413079Multiplexer serial number:	ORYXHardware model number:	OX4-SRSoftware version number:	ORYX F/W v4.00 Oryx Data Collector v3.7.2.0data status	okinstallation	princeton_trtdifferential loss correction	single-endedforward channel	channel 2reverse channel	N/Adate	2019/09/11time	12:45:11forward acquisition time	60.00reverse acquisition time	0.00gamma	496.2192k internal	0.2294k external	0.2294temperature offset calibration	0.9965default loss term (dB/km)	0.3790temperature slope calibration	1.0000multiplexer offset coefficient	1.0000multiplexer slope coefficient	1.0000fibre end	0.00T internal ref (°C)	41.02T ext. ref 1 (°C)	0.21T ext. ref 2 (°C)	38.70length (m)	temperature (°C)	Stokes	anti-Stokes-747.200	-32.845	0.455	-0.259
-746.185	-146.657	-0.242	0.021
-745.171	-101.377	0.085	-0.021
-744.156	-125.541	-0.168	-0.026
-743.142	-2.965	0.352	0.252
-742.127	278.913	-0.214	0.391
-741.112	-200.000	-0.015	0.098
-740.098	177.104	0.064	0.096
-739.083	239.771	0.073	-0.125
-738.069	-52.148	0.101	0.048
-737.054	9.135	-0.338	-0.261
-736.039	6.476	0.121	-0.092
-735.025	68.010	0.146	0.152
-734.010	191.366	-0.164	0.253
-732.996	27.179	-0.458	-0.393
-731.981	446.595	-0.143	0.322
-730.966	-135.492	-0.044	0.005
-729.952	724.475	-0.049	0.134
-728.937	-116.444	-0.241	0.046
-727.923	281.404	-0.053	0.097
-726.908	-67.734	0.187	0.075
-725.894	38.263	-0.134	-0.122
-724.879	-10.222	0.096	-0.065
-723.864	-5.125	-0.209	0.147
-722.850	69.412	-0.363	-0.382
-721.835	21.017	-0.128	-0.106
-720.821	188.583	0.043	-0.065
-719.806	615.599	0.088	-0.226
-718.791	59.847	0.078	-0.079
-717.777	-7.163	-0.186	-0.129
-716.762	54.925	0.108	0.107
-715.748	78.513	0.111	0.121
-714.733	750.402	0.164	-0.452
-713.718	-30.850	-0.264	-0.152
-712.704	-69.322	0.178	-0.070
-711.689	800.000	0.037	0.117
-710.675	-104.094	0.165	0.039
-709.660	800.000	0.036	-0.111
-708.645	-24.910	0.243	-0.147
-707.631	-155.251	-0.253	-0.017
-706.616	-200.000	0.017	0.084
-705.602	-200.000	-0.039	-0.179
-704.587	88.460	-0.133	-0.151
-703.572	259.623	-0.087	0.154
-702.558	13.705	-0.134	0.107
-701.543	-25.255	-0.020	0.012
-700.529	800.000	0.124	-0.395
-699.514	-200.000	0.021	-0.101
-698.499	-27.489	0.176	-0.105
-697.485	1.820	-0.164	-0.121
-696.470	-200.000	-0.017	-0.090
-695.456	800.000	-0.052	-0.187
-694.441	-104.174	-0.227	0.054
-693.426	-68.471	0.105	-0.042
-692.412	-46.290	-0.059	-0.029
-691.397	-9.489	-0.221	0.151
-690.383	31.726	-0.120	-0.106
-689.368	-163.136	-0.430	-0.021
-688.354	-112.891	-0.171	-0.035
-687.339	82.716	-0.165	0.183
-686.324	-187.552	-0.139	0.002
-685.310	61.779	-0.145	-0.148
-684.295	800.000	0.111	-0.481
-683.281	-200.000	0.033	-0.286
-682.266	-200.000	0.065	-0.319
-681.251	-6.604	-0.095	-0.066
-680.237	-164.069	-0.169	0.008
-679.222	800.000	-0.088	-0.301
-678.208	149.111	-0.113	0.156
-677.193	371.350	0.103	0.214
-676.178	26.728	-0.072	0.061
-675.164	800.000	0.006	-0.019
-674.149	-104.098	-0.065	0.016
-673.135	800.000	0.023	0.099
-672.120	504.735	-0.160	-0.378
-671.105	-200.000	0.001	-0.237
-670.091	10.283	0.205	-0.159
-669.076	141.327	0.069	0.093
-668.062	474.529	0.076	-0.174
-667.047	800.000	-0.154	0.486
-666.032	391.203	-0.099	-0.210
-665.018	152.217	0.126	0.176
-664.003	32.986	0.146	0.129
-662.989	-72.190	-0.254	-0.096
-661.974	-200.000	-0.018	-0.356
-660.959	-56.779	-0.357	-0.161
-659.945	288.886	0.088	-0.163
-658.930	13.867	-0.118	0.094
-657.916	-52.505	-0.256	0.121
-656.901	-200.000	0.042	0.403
-655.886	-29.976	-0.044	0.025
-654.872	287.351	0.221	0.406
-653.857	-52.864	-0.210	0.099
-652.843	424.786	0.068	-0.148
-651.828	-157.503	-0.446	0.027
-650.814	170.396	0.062	-0.091
-649.799	-200.000	0.004	-0.146
-648.784	42.962	0.247	0.230
-647.770	-137.002	-0.480	-0.056
-646.755	800.000	0.077	0.237
-645.741	-200.000	0.040	0.484
-644.726	255.120	0.168	-0.294
-643.711	-200.000	-0.014	-0.209
-642.697	-78.283	0.190	-0.067
-641.682	568.954	0.019	-0.047
-640.668	-38.112	-0.043	0.023
-639.653	-200.000	-0.010	-0.072
-638.638	38.586	0.100	-0.091
-637.624	-200.000	-0.021	0.113
-636.609	-145.141	0.277	0.026
-635.595	-89.404	-0.482	0.144
-634.580	456.612	-0.109	-0.246
-633.565	-155.924	-0.274	-0.018
-632.551	444.966	0.141	0.315
-631.536	13.464	-0.311	-0.245
-630.522	-147.680	0.087	-0.007
-629.507	-83.035	-0.223	-0.073
-628.492	-121.578	0.221	0.037
-627.478	-56.044	-0.323	0.146
-626.463	-7.909	-0.139	0.095
-625.449	-200.000	0.012	0.210
-624.434	-47.067	-0.188	0.093
-623.419	64.103	0.024	0.025
-622.405	-27.278	-0.086	-0.051
-621.390	34.483	0.268	-0.238
-620.376	136.256	0.037	-0.049
-619.361	186.321	-0.105	-0.159
-618.346	-110.935	0.358	-0.075
-617.332	-200.000	0.043	-0.322
-616.317	800.000	-0.118	0.374
-615.303	-0.275	-0.246	-0.178
-614.288	-76.755	-0.083	-0.029
-613.273	-151.907	-0.127	0.009
-612.259	-200.000	-0.004	0.139
-611.244	-113.729	-0.440	-0.087
-610.230	125.710	-0.039	-0.051
-609.215	-156.178	0.252	0.016
-608.201	-91.173	0.261	0.076
-607.186	323.876	-0.164	-0.318
-606.171	-50.318	-0.136	0.065
-605.157	241.398	-0.063	0.108
-604.142	26.013	-0.132	0.112
-603.128	-59.454	0.052	0.023
-602.113	119.146	-0.125	-0.158
-601.098	-63.338	-0.341	-0.143
-600.084	-87.349	-0.161	-0.050
-599.069	-200.000	-0.054	0.338
-598.055	-5.296	-0.149	-0.104
-597.040	163.937	0.063	0.090
-596.025	-56.875	0.147	-0.066
-595.011	-85.107	-0.439	-0.140
-593.996	-66.396	0.179	-0.072
-592.982	-35.211	0.219	-0.121
-591.967	111.867	0.247	0.303
-590.952	144.351	0.078	-0.105
-589.938	234.675	0.088	-0.148
-588.923	31.943	-0.217	-0.190
-587.909	-49.696	0.080	0.039
-586.894	265.753	0.147	0.261
-585.879	11.978	-0.231	0.180
-584.865	-200.000	-0.050	0.281
-583.850	800.000	-0.052	0.183
-582.836	757.676	-0.026	-0.073
-581.821	199.969	-0.034	-0.053
-580.806	18.632	-0.436	-0.354
-579.792	-71.466	0.048	0.018
-578.777	100.594	0.101	-0.119
-577.763	22.945	0.362	-0.302
-576.748	-20.605	-0.333	-0.208
-575.733	233.504	0.186	0.310
-574.719	-18.844	0.193	0.122
-573.704	277.869	-0.085	-0.153
-572.690	361.948	-0.079	-0.161
-571.675	109.206	-0.118	0.144
-570.661	-54.003	-0.206	-0.095
-569.646	92.760	0.161	-0.185
-568.631	-53.296	-0.062	-0.029
-567.617	146.465	0.116	-0.158
-566.602	-86.807	-0.381	-0.118
-565.588	564.814	-0.098	0.240
-564.573	-38.020	0.147	0.079
-563.558	-100.021	0.211	-0.053
-562.544	-46.927	0.309	-0.154
-561.529	-105.077	-0.179	-0.041
-560.515	-80.501	-0.422	0.143
-559.500	-116.621	-0.340	-0.063
-558.485	-149.217	0.312	0.025
-557.471	-200.000	0.004	-0.145
-556.456	800.000	-0.041	0.160
-555.442	800.000	-0.034	-0.108
-554.427	-28.660	-0.208	0.122
-553.412	-14.787	-0.097	0.063
-552.398	-200.000	0.025	0.205
-551.383	95.889	0.054	0.062
-550.369	-200.000	-0.010	0.176
-549.354	-90.971	0.269	0.079
-548.339	96.319	0.131	0.152
-547.325	-27.132	-0.065	-0.038
-546.310	-119.370	0.396	-0.070
-545.296	-117.648	0.182	0.033
-544.281	-67.792	-0.090	-0.036
-543.266	57.009	0.248	0.246
-542.252	-200.000	-0.006	0.147
-541.237	209.832	-0.158	-0.251
-540.223	-52.445	0.220	-0.103
-539.208	-166.012	0.115	0.005
-538.193	126.927	0.023	0.029
-537.179	800.000	0.092	-0.293
-536.164	131.208	-0.058	-0.075
-535.150	-20.828	-0.294	0.183
-534.135	700.054	0.094	-0.250
-533.121	-47.505	-0.190	0.093
-532.106	30.495	0.205	0.178
-531.091	50.301	-0.171	-0.164
-530.077	339.526	-0.011	0.022
-529.062	-138.489	-0.525	-0.059
-528.048	42.232	-0.385	-0.355
-527.033	-18.525	0.179	-0.113
-526.018	-60.391	-0.132	-0.057
-525.004	-129.616	0.139	-0.019
-523.989	-38.246	-0.184	0.099
-522.975	87.127	-0.071	0.080
-521.960	-200.000	0.105	-0.494
-520.945	134.044	-0.044	0.058
-519.931	800.000	0.101	0.343
-518.916	86.659	-0.229	-0.256
-517.902	-200.000	-0.002	0.052
-516.887	-200.000	-0.003	-0.303
-515.872	540.459	-0.131	-0.316
-514.858	-68.741	0.265	-0.104
-513.843	-103.620	0.252	0.060
-512.829	-89.812	0.109	0.032
-511.814	800.000	0.075	0.311
-510.799	-28.026	-0.332	-0.194
-509.785	-200.000	-0.010	0.219
-508.770	800.000	0.061	-0.217
-507.756	-131.655	-0.181	-0.024
-506.741	-83.907	-0.431	-0.139
-505.726	148.355	0.229	-0.313
-504.712	-9.413	0.183	0.124
-503.697	-76.238	0.392	-0.140
-502.683	3.206	-0.107	-0.079
-501.668	-200.000	-0.028	-0.421
-500.653	-175.306	-0.359	-0.010
-499.639	800.000	-0.012	-0.049
-498.624	-200.000	-0.015	0.321
-497.610	13.258	0.179	-0.140
-496.595	27.802	0.084	-0.071
-495.581	69.846	-0.123	0.128
-494.566	33.329	-0.205	0.180
-493.551	-18.391	0.111	-0.070
-492.537	800.000	0.099	-0.363
-491.522	-149.554	0.363	0.029
-490.508	64.930	-0.119	0.122
-489.493	-47.857	0.230	-0.113
-488.478	-75.746	0.239	-0.086
-487.464	-1.274	0.135	-0.096
-486.449	86.098	-0.301	-0.335
-485.435	-200.000	-0.034	-0.162
-484.420	-28.898	0.301	0.175
-483.405	-200.000	0.305	-0.002
-482.391	-65.052	0.301	0.123
-481.376	507.888	0.062	0.145
-480.362	-104.226	-0.233	-0.055
-479.347	800.000	-0.038	0.112
-478.332	-151.081	-0.194	-0.015
-477.318	35.218	-0.248	-0.220
-476.303	800.000	-0.036	-0.120
-475.289	189.549	0.225	-0.341
-474.274	-51.528	-0.328	-0.155
-473.259	800.000	-0.031	0.094
-472.245	-127.104	0.205	-0.030
-471.230	-176.940	-0.601	-0.015
-470.216	-94.868	0.277	0.076
-469.201	-159.086	0.121	0.007
-468.186	-28.627	-0.124	0.072
-467.172	-91.628	0.117	-0.034
-466.157	-43.214	0.129	0.066
-465.143	-129.180	-0.090	0.013
-464.128	-200.000	0.005	-0.088
-463.113	357.721	0.014	-0.029
-462.099	-200.000	-0.055	-0.289
-461.084	-9.633	0.184	-0.124
-460.070	629.269	0.030	-0.076
-459.055	88.148	-0.197	0.221
-458.040	-42.937	-0.126	0.065
-457.026	-101.466	-0.167	0.041
-456.011	155.801	0.090	-0.126
-454.997	800.000	0.057	0.191
-453.982	-105.669	0.117	0.027
-452.968	-200.000	0.017	-0.092
-451.953	332.685	-0.109	0.213
-450.938	89.782	0.148	-0.167
-449.924	281.955	-0.099	-0.180
-448.909	-101.577	0.157	-0.038
-447.895	-200.000	0.045	0.206
-446.880	271.899	-0.061	0.109
-445.865	800.000	0.060	-0.240
-444.851	-200.000	0.020	0.133
-443.836	57.487	-0.048	0.047
-442.822	-87.550	-0.227	-0.069
-441.807	-15.493	-0.376	0.243
-440.792	545.059	0.114	0.276
-439.778	-122.620	0.309	-0.051
-438.763	44.152	-0.317	0.294
-437.749	-200.000	-0.018	0.127
-436.734	156.293	0.063	-0.088
-435.719	163.743	-0.147	0.209
-434.705	244.101	-0.042	0.072
-433.690	-63.114	0.147	-0.061
-432.676	-154.078	0.129	0.009
-431.661	-200.000	0.030	0.147
-430.646	329.436	0.180	0.349
-429.632	-200.000	0.009	0.160
-428.617	800.000	0.054	-0.199
-427.603	800.000	-0.010	0.038
-426.588	-149.320	-0.029	0.002
-425.573	-200.000	0.021	-0.157
-424.559	34.667	-0.106	0.093
-423.544	120.900	-0.194	-0.243
-422.530	-53.765	0.254	0.117
-421.515	800.000	-0.026	-0.093
-420.500	-35.539	-0.155	-0.085
-419.486	-200.000	0.039	-0.239
-418.471	205.834	0.110	0.172
-417.457	-200.000	-0.070	0.367
-416.442	26.846	0.294	0.249
-415.428	-200.000	-0.046	-0.288
-414.413	-43.429	0.236	-0.120
-413.398	800.000	-0.069	0.230
-412.384	215.446	0.178	-0.285
-411.369	800.000	0.099	-0.291
-410.355	-39.895	-0.211	-0.111
-409.340	-140.525	0.135	-0.014
-408.325	142.397	0.126	0.169
-407.311	800.000	-0.057	-0.173
-406.296	-0.808	0.071	0.051
-405.282	800.000	-0.100	0.326
-404.267	-140.329	0.181	-0.019
-403.252	-170.577	-0.193	0.007
-402.238	292.680	0.152	0.280
-401.223	-200.000	0.009	0.391
-400.209	13.994	0.189	0.148
-399.194	-24.849	-0.305	0.183
-398.179	672.886	-0.039	0.101
-397.165	2.759	0.049	-0.036
-396.150	800.000	0.144	-0.466
-395.136	-99.867	-0.236	0.059
-394.121	-39.668	0.153	-0.080
-393.106	-177.436	0.248	-0.006
-392.092	-29.140	0.195	0.113
-391.077	800.000	-0.049	-0.144
-390.063	33.043	-0.120	-0.105
-389.048	-200.000	0.024	-0.181
-388.033	67.775	-0.070	0.072
-387.019	-200.000	-0.020	-0.196
-386.004	-200.000	0.034	0.149
-384.990	-200.000	-0.010	0.137
-383.975	19.133	-0.298	-0.241
-382.960	-9.229	-0.126	0.085
-381.946	800.000	0.100	0.318
-380.931	-126.460	0.373	-0.056
-379.917	634.381	-0.137	-0.351
-378.902	-5.161	-0.131	0.091
-377.888	257.210	-0.100	0.174
-376.873	276.372	-0.161	0.288
-375.858	64.613	-0.196	0.200
-374.844	143.791	-0.190	0.255
-373.829	800.000	-0.042	-0.144
-372.815	-116.237	0.263	0.049
-371.800	-113.042	-0.272	0.054
-370.785	37.099	0.067	-0.060
-369.771	-200.000	-0.030	0.355
-368.756	-200.000	-0.017	0.267
-367.742	800.000	0.171	-0.551
-366.727	-200.000	0.017	-0.120
-365.712	226.119	0.080	-0.131
-364.698	-137.951	-0.227	0.025
-363.683	169.812	-0.255	-0.368
-362.669	386.285	0.090	0.187
-361.654	-105.033	-0.204	0.047
-360.639	-182.591	0.191	0.004
-359.625	101.719	-0.052	0.061
-358.610	800.000	0.123	0.344
-357.596	-102.680	0.346	-0.083
-356.581	172.913	-0.148	-0.215
-355.566	763.028	-0.025	-0.069
-354.552	365.842	0.065	-0.131
-353.537	800.000	-0.072	-0.230
-352.523	-200.000	0.003	-0.132
-351.508	-80.686	0.233	0.078
-350.493	214.168	0.151	0.241
-349.479	70.200	-0.386	0.402
-348.464	61.305	0.120	0.120
-347.450	381.757	-0.064	0.133
-346.435	-200.000	-0.003	0.158
-345.420	71.120	0.081	0.085
-344.406	5.116	-0.116	-0.086
-343.391	162.640	-0.088	0.125
-342.377	-47.118	-0.279	-0.137
-341.362	-11.947	0.120	-0.079
-340.348	531.718	0.092	-0.218
-339.333	45.782	0.095	-0.088
-338.318	156.146	0.186	-0.258
-337.304	-104.756	0.297	0.069
-336.289	279.815	-0.108	0.195
-335.275	785.039	-0.071	0.195
-334.260	-200.000	0.010	0.202
-333.245	18.311	0.109	-0.088
-332.231	800.000	-0.024	0.093
-331.216	800.000	-0.072	0.267
-330.202	-31.536	0.057	-0.032
-329.187	241.152	-0.098	-0.165
-328.172	-53.273	-0.302	-0.139
-327.158	-57.499	0.118	-0.052
-326.143	-27.389	-0.286	-0.167
-325.129	-9.124	-0.131	-0.088
-324.114	-11.406	-0.067	-0.045
-323.099	-200.000	-0.031	0.383
-322.085	43.403	0.113	-0.104
-321.070	-99.589	0.091	-0.023
-320.056	-143.738	0.264	-0.025
-319.041	-200.000	0.007	0.211
-318.026	800.000	-0.013	-0.045
-317.012	33.679	0.266	0.232
-315.997	-94.188	0.033	-0.009
-314.983	-51.760	0.181	-0.085
-313.968	59.865	-0.167	0.165
-312.953	-44.395	0.102	0.051
-311.939	-200.000	-0.010	0.113
-310.924	800.000	0.112	0.312
-309.910	53.782	0.097	0.094
-308.895	800.000	-0.091	0.273
-307.880	-9.711	0.161	-0.108
-306.866	556.593	0.073	0.176
-305.851	-200.000	0.041	-0.192
-304.837	54.905	-0.190	-0.184
-303.822	-164.234	-0.188	0.009
-302.807	47.508	-0.102	0.096
-301.793	-32.035	-0.460	0.259
-300.778	479.665	0.157	0.357
-299.764	-151.969	-0.272	0.020
-298.749	261.751	0.036	0.063
-297.735	-57.323	0.152	-0.067
-296.720	800.000	0.064	0.230
-295.705	-200.000	0.017	0.220
-294.691	-124.577	0.082	0.013
-293.676	342.026	-0.030	-0.059
-292.662	-200.000	-0.025	-0.335
-291.647	-137.057	0.327	-0.038
-290.632	58.542	0.160	0.157
-289.618	-91.303	-0.265	0.076
-288.603	68.626	-0.134	0.138
-287.589	138.433	-0.262	-0.345
-286.574	65.755	-0.235	-0.239
-285.559	-200.000	0.070	0.363
-284.545	98.369	-0.270	0.313
-283.530	-200.000	-0.073	0.331
-282.516	30.160	0.154	0.132
-281.501	113.497	-0.192	0.234
-280.486	-114.380	0.247	-0.048
-279.472	-159.734	-0.014	-0.001
-278.457	249.933	0.144	-0.246
-277.443	185.604	0.147	-0.219
-276.428	38.127	-0.047	0.042
-275.413	-200.000	-0.018	-0.100
-274.399	36.186	-0.042	0.037
-273.384	-200.000	-0.031	0.203
-272.370	27.365	0.092	0.078
-271.355	-65.269	-0.147	0.059
-270.340	-124.539	-0.190	0.030
-269.326	-50.473	0.351	0.166
-268.311	800.000	0.041	0.147
-267.297	-140.914	0.434	0.045
-266.282	-50.224	-0.099	0.047
-265.267	20.717	-0.231	0.188
-264.253	800.000	0.071	0.241
-263.238	-59.894	0.109	-0.047
-262.224	431.166	0.066	-0.143
-261.209	-2.043	0.152	-0.107
-260.195	180.033	0.243	0.357
-259.180	33.673	-0.162	-0.141
-258.165	-86.813	0.437	0.134
-257.151	382.547	-0.064	-0.132
-256.136	-200.000	-0.043	0.386
-255.122	-86.274	-0.054	-0.017
-254.107	275.436	0.134	-0.238
-253.092	-200.000	0.040	-0.201
-252.078	-200.000	0.034	0.243
-251.063	-54.449	-0.209	-0.095
-250.049	12.134	0.189	-0.146
-249.034	-155.305	0.026	-0.002
-248.019	-34.490	-0.092	-0.051
-247.005	-171.908	-0.162	0.005
-245.990	-200.000	0.016	-0.131
-244.976	-200.000	0.043	-0.331
-243.961	-89.434	-0.155	-0.046
-242.946	-200.000	-0.014	-0.187
-241.932	182.377	0.104	-0.153
-240.917	-78.604	-0.279	-0.096
-239.903	-134.911	0.215	0.026
-238.888	91.798	0.131	0.147
-237.873	-200.000	0.033	0.249
-236.859	-160.262	-0.048	0.003
-235.844	-200.000	-0.049	-0.394
-234.830	508.560	0.095	-0.221
-233.815	384.592	0.157	0.325
-232.800	90.809	-0.266	0.299
-231.786	-96.240	0.268	-0.071
-230.771	389.422	-0.136	0.283
-229.757	19.905	-0.089	-0.072
-228.742	-34.755	0.190	0.104
-227.727	-42.034	0.412	-0.211
-226.713	-200.000	0.022	0.232
-225.698	-122.851	0.414	0.067
-224.684	-54.141	0.186	-0.085
-223.669	467.925	-0.171	-0.384
-222.655	-172.065	0.195	0.006
-221.640	-86.180	0.107	0.033
-220.625	800.000	-0.063	-0.212
-219.611	-113.412	-0.349	0.069
-218.596	87.731	0.196	-0.218
-217.582	-61.567	-0.081	0.034
-216.567	-57.991	0.225	0.098
-215.552	303.243	-0.080	-0.149
-214.538	205.506	0.092	0.143
-213.523	89.690	-0.093	0.104
-212.509	800.000	-0.044	0.170
-211.494	132.592	-0.037	-0.047
-210.479	-44.024	0.144	0.073
-209.465	800.000	-0.071	0.198
-208.450	-36.473	0.246	-0.133
-207.436	-158.603	-0.099	-0.006
-206.421	-14.796	-0.189	0.121
-205.406	47.768	0.101	-0.094
-204.392	224.746	-0.111	-0.180
-203.377	-106.514	-0.475	-0.106
-202.363	-109.393	0.214	-0.045
-201.348	152.618	-0.138	-0.188
-200.333	800.000	0.111	-0.317
-199.319	-123.151	0.101	0.016
-198.304	800.000	0.016	-0.050
-197.290	-144.251	0.334	-0.031
-196.275	-200.000	0.007	0.056
-195.260	12.225	0.244	-0.188
-194.246	800.000	0.011	0.033
-193.231	800.000	-0.041	-0.148
-192.217	-7.015	0.211	0.143
-191.202	-200.000	-0.036	-0.244
-190.187	-14.182	0.179	0.115
-189.173	85.108	-0.216	0.237
-188.158	-200.000	0.028	-0.183
-187.144	88.197	0.106	0.118
-186.129	102.140	-0.140	0.164
-185.114	800.000	-0.011	0.035
-184.100	-192.834	-0.108	0.001
-183.085	-200.000	-0.012	-0.199
-182.071	-200.000	-0.008	-0.132
-181.056	51.152	0.019	-0.018
-180.042	40.942	-0.121	-0.109
-179.027	-200.000	0.000	0.102
-178.012	445.038	0.113	-0.248
-176.998	131.051	0.218	-0.280
-175.983	800.000	-0.027	0.116
-174.969	-10.162	-0.099	0.066
-173.954	84.011	-0.085	-0.093
-172.939	496.196	0.073	0.168
-171.925	-9.125	0.307	-0.205
-170.910	133.523	-0.210	-0.272
-169.896	700.525	-0.031	-0.082
-168.881	-128.474	-0.486	0.069
-167.866	16.398	-0.185	0.146
-166.852	800.000	-0.009	0.026
-165.837	-169.822	0.319	-0.011
-164.823	-200.000	-0.011	-0.273
-163.808	710.305	-0.084	-0.222
-162.793	-115.057	0.132	-0.025
-161.779	800.000	-0.037	0.118
-160.764	-19.378	0.134	-0.083
-159.750	-152.884	0.223	-0.016
-158.735	430.573	0.093	0.201
-157.720	-17.044	0.141	-0.089
-156.706	467.252	0.029	-0.065
-155.691	-48.055	0.065	0.031
-154.677	-70.770	-0.305	0.115
-153.662	132.969	-0.301	0.388
-152.647	-109.044	0.154	-0.033
-151.633	-128.195	0.122	0.017
-150.618	800.000	-0.056	-0.244
-149.604	-144.787	0.360	0.033
-148.589	353.500	0.093	0.185
-147.574	339.464	0.126	0.245
-146.560	-200.000	0.025	-0.115
-145.545	-25.857	-0.192	0.113
-144.531	-6.558	0.280	-0.190
-143.516	-60.677	0.175	-0.074
-142.502	-79.991	0.131	-0.044
-141.487	619.586	0.136	0.342
-140.472	-176.181	0.196	0.005
-139.458	230.919	0.164	0.268
-138.443	-186.378	0.375	-0.005
-137.429	-200.000	0.000	0.142
-136.414	800.000	0.050	0.147
-135.399	-200.000	0.071	0.336
-134.385	-107.767	-0.460	0.100
-133.370	504.213	-0.188	0.435
-132.356	800.000	0.039	0.145
-131.341	112.884	0.264	0.319
-130.326	14.846	0.182	0.142
-129.312	123.720	-0.107	-0.134
-128.297	-78.795	0.134	-0.045
-127.283	49.947	0.093	0.087
-126.268	622.687	0.076	0.191
-125.253	-106.540	-0.044	-0.010
-124.239	-13.128	-0.338	-0.219
-123.224	-45.952	0.172	0.085
-122.210	-200.000	0.011	-0.202
-121.195	160.548	-0.201	-0.279
