DTS Sentinel unit serial number:	SN413079Multiplexer serial number:	ORYXHardware model number:	OX4-SRSoftware version number:	ORYX F/W v4.00 Oryx Data Collector v3.7.2.0data status	okinstallation	princeton_trtdifferential loss correction	single-endedforward channel	channel 2reverse channel	N/Adate	2019/09/16time	12:07:35forward acquisition time	60.00reverse acquisition time	0.00gamma	496.2192k internal	0.2306k external	0.2306temperature offset calibration	0.9953default loss term (dB/km)	0.3790temperature slope calibration	1.0000multiplexer offset coefficient	1.0000multiplexer slope coefficient	1.0000fibre end	0.00T internal ref (°C)	38.87T ext. ref 1 (°C)	13.21T ext. ref 2 (°C)	36.03length (m)	temperature (°C)	Stokes	anti-Stokes-747.200	2.577	-0.120	0.088
-746.185	-200.000	0.012	0.132
-745.171	33.277	-0.131	0.116
-744.156	118.298	0.121	0.152
-743.142	-200.000	0.049	-0.000
-742.127	482.729	-0.097	0.225
-741.112	-127.314	0.138	-0.020
-740.098	78.924	0.113	0.123
-739.083	419.980	0.132	-0.287
-738.069	-167.813	-0.161	0.006
-737.054	-148.060	0.227	0.019
-736.039	122.140	-0.384	-0.488
-735.025	800.000	0.024	-0.100
-734.010	645.178	0.022	0.057
-732.996	-80.845	0.115	0.039
-731.981	-101.335	-0.171	-0.042
-730.966	-74.283	-0.110	-0.040
-729.952	32.840	0.296	-0.261
-728.937	-99.622	-0.316	0.081
-727.923	-13.061	-0.092	0.061
-726.908	-101.759	-0.332	0.082
-725.894	-200.000	-0.064	-0.466
-724.879	-17.586	-0.106	0.068
-723.864	179.364	0.054	0.080
-722.850	159.323	0.086	0.122
-721.835	-200.000	-0.016	-0.082
-720.821	295.996	-0.034	0.064
-719.806	-106.975	-0.132	-0.030
-718.791	149.626	-0.139	0.192
-717.777	244.559	-0.103	-0.176
-716.762	-200.000	-0.013	0.236
-715.748	-102.920	-0.075	0.018
-714.733	-67.794	-0.447	-0.178
-713.718	419.523	0.171	-0.372
-712.704	-84.002	0.086	-0.028
-711.689	-200.000	-0.011	-0.290
-710.675	135.897	0.062	0.083
-709.660	243.750	-0.186	-0.318
-708.645	-79.388	0.546	-0.188
-707.631	800.000	-0.034	0.105
-706.616	-200.000	-0.196	-0.001
-705.602	110.038	0.056	-0.069
-704.587	359.208	-0.118	-0.240
-703.572	-10.831	0.366	0.246
-702.558	84.574	-0.160	-0.178
-701.543	-128.426	0.207	-0.030
-700.529	-200.000	-0.010	-0.140
-699.514	-59.195	-0.365	-0.160
-698.499	-200.000	-0.018	-0.133
-697.485	-115.747	0.103	0.020
-696.470	-85.071	0.244	0.078
-695.456	-200.000	-0.003	-0.245
-694.441	-39.475	-0.102	-0.054
-693.426	69.417	0.096	-0.101
-692.412	24.199	0.242	0.203
-691.397	383.007	-0.218	-0.456
-690.383	-85.067	0.265	-0.084
-689.368	-200.000	0.012	-0.061
-688.354	313.764	0.185	-0.354
-687.339	-83.029	0.055	-0.018
-686.324	-82.493	-0.414	-0.136
-685.310	1.071	-0.090	0.065
-684.295	-72.485	0.183	-0.069
-683.281	-71.577	-0.250	-0.095
-682.266	800.000	-0.023	0.065
-681.251	-200.000	0.002	0.183
-680.237	-85.947	-0.220	-0.069
-679.222	-131.317	0.133	-0.018
-678.208	107.519	0.137	-0.165
-677.193	-37.688	-0.274	-0.148
-676.178	313.534	0.201	0.383
-675.164	147.227	-0.068	0.093
-674.149	47.694	-0.273	0.259
-673.135	-200.000	0.303	0.000
-672.120	-66.392	-0.218	-0.088
-671.105	-200.000	-0.044	0.278
-670.091	-200.000	0.008	-0.067
-669.076	-171.884	0.187	0.006
-668.062	800.000	0.106	0.324
-667.047	-88.168	0.258	-0.078
-666.032	211.714	-0.096	0.154
-665.018	-74.204	0.138	0.051
-664.003	631.429	-0.037	0.094
-662.989	55.273	0.091	-0.089
-661.974	12.113	-0.177	0.138
-660.959	23.272	-0.211	-0.175
-659.945	335.057	-0.091	-0.179
-658.930	-149.237	-0.239	-0.019
-657.916	-6.508	0.071	-0.049
-656.901	174.402	0.072	0.105
-655.886	-109.581	-0.159	0.034
-654.872	-141.328	-0.388	-0.040
-653.857	128.688	-0.061	-0.079
-652.843	119.217	-0.124	-0.155
-651.828	-200.000	-0.141	-0.001
-650.814	-87.143	0.164	0.051
-649.799	-61.745	-0.090	0.038
-648.784	-200.000	0.025	0.167
-647.770	-72.394	0.235	-0.088
-646.755	679.777	0.087	0.229
-645.741	501.033	-0.030	0.071
-644.726	68.191	0.256	-0.265
-643.711	184.453	0.159	-0.239
-642.697	-200.000	0.014	0.213
-641.682	612.858	0.074	-0.188
-640.668	800.000	-0.070	-0.234
-639.653	800.000	-0.086	-0.280
-638.638	-62.316	-0.158	0.067
-637.624	-116.671	-0.179	0.033
-636.609	-123.131	-0.209	0.034
-635.595	-130.645	-0.150	-0.020
-634.580	128.613	-0.253	-0.326
-633.565	-200.000	-0.055	-0.403
-632.551	249.075	0.045	-0.077
-631.536	171.594	0.184	0.267
-630.522	-155.965	-0.165	0.011
-629.507	-48.753	-0.138	-0.067
-628.492	668.166	-0.086	-0.225
-627.478	329.090	-0.083	0.162
-626.463	-200.000	0.008	-0.266
-625.449	637.203	-0.052	0.135
-624.434	-85.478	-0.199	0.063
-623.419	303.012	-0.091	0.171
-622.405	420.082	0.140	-0.303
-621.390	-120.563	0.264	0.045
-620.376	671.867	0.070	0.185
-619.361	73.104	-0.107	0.114
-618.346	-200.000	-0.077	0.359
-617.332	36.966	-0.488	-0.437
-616.317	-13.821	-0.408	0.267
-615.303	-200.000	-0.038	0.192
-614.288	145.740	-0.111	0.151
-613.273	-72.249	-0.278	0.104
-612.259	358.038	0.074	-0.149
-611.244	113.313	0.134	-0.164
-610.230	106.275	-0.269	0.323
-609.215	368.477	-0.068	0.139
-608.201	-170.336	-0.261	0.009
-607.186	401.703	-0.103	-0.220
-606.171	55.088	-0.191	0.186
-605.157	105.841	0.171	-0.205
-604.142	-200.000	0.026	0.261
-603.128	5.211	-0.297	0.222
-602.113	-141.200	-0.470	0.048
-601.098	-170.043	0.302	0.011
-600.084	-61.464	-0.205	-0.087
-599.069	-167.796	0.307	-0.012
-598.055	-12.664	-0.287	-0.189
-597.040	-200.000	-0.029	0.200
-596.025	268.127	-0.039	-0.069
-595.011	363.713	0.103	0.209
-593.996	386.608	0.075	-0.157
-592.982	27.367	0.159	-0.135
-591.967	180.906	-0.172	0.256
-590.952	-200.000	-0.020	0.234
-589.938	-200.000	0.026	0.166
-588.923	800.000	0.090	-0.347
-587.909	27.938	-0.122	-0.104
-586.894	-59.661	-0.143	0.062
-585.879	-200.000	0.036	0.198
-584.865	-200.000	-0.011	-0.292
-583.850	475.439	-0.167	0.381
-582.836	-94.198	0.036	-0.010
-581.821	16.617	0.122	0.098
-580.806	752.208	0.077	-0.209
-579.792	-106.201	-0.144	0.033
-578.777	4.392	0.138	0.102
-577.763	-36.665	0.032	-0.017
-576.748	-81.020	0.172	0.057
-575.733	13.890	0.426	0.335
-574.719	800.000	0.083	0.232
-573.704	-69.032	-0.233	-0.091
-572.690	-68.919	-0.067	0.026
-571.675	-200.000	0.050	0.399
-570.661	-80.084	-0.213	0.072
-569.646	347.138	-0.035	0.069
-568.631	427.384	0.062	-0.136
-567.617	110.892	0.172	-0.210
-566.602	-200.000	-0.031	0.289
-565.588	-70.893	0.286	-0.109
-564.573	-173.398	-0.414	0.013
-563.558	-59.273	-0.110	-0.048
-562.544	-137.086	0.473	-0.055
-561.529	29.166	-0.135	-0.116
-560.515	-200.000	0.000	-0.080
-559.500	800.000	0.031	-0.095
-558.485	534.716	-0.061	0.146
-557.471	-80.244	0.246	-0.083
-556.456	84.398	0.059	-0.065
-555.442	86.649	0.087	-0.097
-554.427	72.656	-0.203	-0.214
-553.412	-200.000	-0.003	-0.283
-552.398	763.414	0.036	0.099
-551.383	419.816	-0.098	-0.212
-550.369	-80.416	0.090	0.030
-549.354	22.981	0.107	0.089
-548.339	23.905	0.332	-0.276
-547.325	-56.229	0.027	0.012
-546.310	-22.345	0.261	-0.160
-545.296	-75.350	0.085	-0.031
-544.281	6.428	-0.302	-0.227
-543.266	800.000	0.036	0.116
-542.252	185.836	0.076	0.114
-541.237	-2.351	-0.262	-0.185
-540.223	-190.846	-0.380	0.004
-539.208	-149.135	-0.314	-0.025
-538.193	800.000	-0.095	0.340
-537.179	142.428	-0.207	-0.277
-536.164	305.892	0.137	-0.257
-535.150	260.688	0.090	-0.156
-534.135	42.197	0.270	0.248
-533.121	128.719	0.085	0.110
-532.106	161.238	-0.203	0.287
-531.091	-112.095	0.107	-0.022
-530.077	-200.000	-0.033	-0.227
-529.062	-200.000	-0.088	-0.000
-528.048	-137.342	-0.160	0.018
-527.033	6.704	0.088	0.066
-526.018	-36.756	0.148	0.080
-525.004	-17.457	0.148	0.094
-523.989	757.505	0.103	-0.282
-522.975	-25.886	0.021	-0.013
-521.960	-22.247	-0.045	-0.027
-520.945	502.681	-0.031	0.072
-519.931	749.822	-0.089	0.243
-518.916	-200.000	-0.022	-0.277
-517.902	-200.000	0.039	0.290
-516.887	-97.906	0.138	-0.036
-515.872	361.302	-0.068	-0.136
-514.858	-200.000	-0.053	-0.235
-513.843	200.920	-0.106	0.165
-512.829	-200.000	0.029	-0.359
-511.814	-58.537	0.119	0.052
-510.799	49.717	0.127	-0.120
-509.785	-200.000	0.027	0.235
-508.770	-200.000	-0.038	-0.275
-507.756	800.000	0.028	0.091
-506.741	-150.738	0.313	0.024
-505.726	143.043	-0.233	0.312
-504.712	66.593	-0.145	0.149
-503.697	-69.477	0.062	0.024
-502.683	109.070	0.066	-0.079
-501.668	99.123	0.260	0.303
-500.653	158.574	0.121	-0.169
-499.639	10.497	0.351	0.270
-498.624	800.000	0.089	0.251
-497.610	-143.574	-0.402	-0.039
-496.595	1.785	-0.134	-0.098
-495.581	-74.981	-0.223	0.081
-494.566	183.246	0.206	0.306
-493.551	462.110	0.046	-0.104
-492.537	-137.543	-0.292	0.033
-491.522	-24.505	0.227	0.136
-490.508	-200.000	-0.055	0.339
-489.493	800.000	0.016	-0.061
-488.478	-200.000	0.040	0.250
-487.464	67.974	0.093	0.096
-486.449	-140.711	0.070	-0.007
-485.435	267.923	0.180	0.317
-484.420	-68.343	-0.123	0.048
-483.405	-187.507	0.085	-0.001
-482.391	-200.000	0.010	0.267
-481.376	221.198	0.091	0.148
-480.362	489.033	0.122	0.281
-479.347	-200.000	0.045	0.438
-478.332	-29.519	-0.093	0.054
-477.318	97.480	0.106	-0.122
-476.303	-63.202	-0.155	0.064
-475.289	393.588	-0.037	-0.077
-474.274	241.244	-0.141	0.237
-473.259	800.000	0.016	0.059
-472.245	155.950	0.183	0.254
-471.230	-183.458	0.176	-0.003
-470.216	-137.581	0.549	0.062
-469.201	-164.683	0.138	0.006
-468.186	218.163	0.200	-0.322
-467.172	-200.000	0.033	-0.327
-466.157	544.183	-0.046	0.110
-465.143	-1.701	0.242	-0.171
-464.128	224.640	-0.067	0.109
-463.113	-14.625	0.202	-0.131
-462.099	-6.876	0.074	0.051
-461.084	113.140	0.370	-0.452
-460.070	800.000	0.101	-0.354
-459.055	-102.207	-0.165	0.040
-458.040	-34.904	-0.438	-0.240
-457.026	2.107	-0.209	0.152
-456.011	28.407	0.068	-0.058
-454.997	-200.000	0.023	-0.111
-453.982	69.739	-0.142	-0.147
-452.968	182.702	-0.138	0.205
-451.953	-200.000	0.024	-0.145
-450.938	-140.719	-0.257	0.027
-449.924	152.785	0.272	0.374
-448.909	-91.748	-0.382	0.109
-447.895	800.000	-0.005	-0.015
-446.880	-113.916	0.207	0.040
-445.865	-200.000	0.002	-0.129
-444.851	-49.369	-0.211	0.101
-443.836	-79.675	0.173	0.059
-442.822	-85.554	0.155	0.048
-441.807	220.239	-0.137	-0.220
-440.792	102.168	-0.119	0.140
-439.778	-12.787	0.205	-0.134
-438.763	-200.000	-0.028	0.418
-437.749	-106.525	-0.235	-0.053
-436.734	59.448	-0.135	-0.134
-435.719	380.387	0.114	-0.235
-434.705	150.439	-0.144	0.197
-433.690	-105.659	-0.200	0.045
-432.676	76.528	0.332	-0.353
-431.661	-137.194	0.343	-0.039
-430.646	438.537	-0.014	-0.032
-429.632	-200.000	-0.000	0.138
-428.617	-114.783	-0.346	0.066
-427.603	13.338	0.098	0.076
-426.588	-123.899	0.329	0.052
-425.573	55.376	-0.154	-0.149
-424.559	155.484	0.016	0.022
-423.544	-200.000	0.015	-0.283
-422.530	-154.709	-0.265	0.018
-421.515	-200.000	0.109	-0.511
-420.500	800.000	0.027	0.077
-419.486	-57.558	-0.101	0.044
-418.471	126.936	0.159	-0.202
-417.457	56.387	-0.345	-0.337
-416.442	35.345	0.296	-0.261
-415.428	-135.745	0.277	-0.033
-414.413	-66.866	0.321	-0.128
-413.398	-118.051	-0.252	-0.045
-412.384	800.000	-0.106	0.346
-411.369	15.444	0.153	-0.120
-410.355	-200.000	-0.032	-0.162
-409.340	53.768	-0.371	-0.357
-408.325	800.000	-0.007	-0.031
-407.311	-98.477	0.456	-0.117
-406.296	190.381	-0.083	-0.125
-405.282	686.594	0.118	-0.310
-404.267	800.000	-0.160	-0.489
-403.252	635.498	0.114	-0.289
-402.238	-65.100	-0.161	-0.065
-401.223	210.435	0.120	0.190
-400.209	-35.885	0.419	0.227
-399.194	778.015	-0.044	-0.122
-398.179	218.428	-0.106	-0.170
-397.165	800.000	0.008	0.028
-396.150	-27.851	-0.160	-0.093
-395.136	39.358	-0.184	0.165
-394.121	-200.000	0.041	0.298
-393.106	288.002	0.144	0.262
-392.092	-200.000	-0.059	0.399
-391.077	136.828	0.173	-0.227
-390.063	-74.349	-0.180	0.065
-389.048	-200.000	-0.010	-0.068
-388.033	-200.000	-0.005	0.042
-387.019	30.827	-0.185	0.159
-386.004	-4.329	-0.308	-0.214
-384.990	800.000	0.074	0.244
-383.975	101.968	0.212	0.248
-382.960	41.465	-0.246	0.223
-381.946	800.000	0.045	0.124
-380.931	-50.951	0.224	-0.106
-379.917	163.422	0.049	-0.070
-378.902	162.682	-0.161	0.227
-377.888	713.447	0.045	-0.119
-376.873	-200.000	-0.010	0.076
-375.858	11.870	-0.268	-0.206
-374.844	53.447	0.278	-0.267
-373.829	9.397	0.066	-0.050
-372.815	53.502	0.135	-0.130
-371.800	-103.750	-0.180	0.042
-370.785	-200.000	-0.060	0.527
-369.771	-84.312	0.330	0.105
-368.756	438.404	0.135	0.295
-367.742	35.875	0.250	0.220
-366.727	-63.627	0.307	-0.126
-365.712	606.872	0.106	0.265
-364.698	456.393	-0.145	0.324
-363.683	-130.012	-0.137	-0.019
-362.669	800.000	0.091	-0.320
-361.654	-200.000	0.009	-0.127
-360.639	-82.912	-0.090	-0.029
-359.625	72.782	0.094	0.098
-358.610	-200.000	-0.011	0.068
-357.596	-128.745	-0.139	-0.020
-356.581	245.748	-0.127	0.214
-355.566	-121.739	-0.043	-0.007
-354.552	-200.000	-0.009	0.477
-353.537	-37.183	0.136	-0.073
-352.523	333.329	0.056	-0.108
-351.508	57.976	0.249	0.244
-350.493	175.601	0.115	0.167
-349.479	-42.202	0.156	-0.080
-348.464	-131.043	-0.229	-0.031
-347.450	168.130	0.081	0.115
-346.435	-6.280	0.090	-0.061
-345.420	-200.000	-0.025	0.153
-344.406	42.445	-0.088	-0.080
-343.391	-79.272	0.416	0.141
-342.377	-20.433	0.074	0.046
-341.362	-179.216	-0.298	-0.007
-340.348	16.769	0.429	-0.340
-339.333	-112.385	-0.116	0.023
-338.318	2.236	-0.191	0.138
-337.304	-109.165	-0.179	-0.038
-336.289	120.801	-0.066	-0.082
-335.275	1.498	-0.059	0.042
-334.260	-61.672	-0.058	-0.024
-333.245	283.168	-0.122	-0.219
-332.231	5.884	-0.181	-0.134
-331.216	-73.292	0.239	0.088
-330.202	-153.340	-0.057	0.004
-329.187	669.150	-0.057	0.147
-328.172	87.615	0.211	0.234
-327.158	-200.000	-0.048	-0.427
-326.143	800.000	-0.080	-0.289
-325.129	493.951	0.064	0.147
-324.114	20.030	0.128	0.103
-323.099	96.226	-0.272	0.312
-322.085	40.460	0.264	0.237
-321.070	-111.228	0.105	-0.021
-320.056	145.528	0.167	-0.223
-319.041	-49.283	-0.146	0.070
-318.026	-71.521	-0.123	-0.046
-317.012	-200.000	-0.013	0.153
-315.997	2.057	-0.117	-0.084
-314.983	-48.980	0.238	-0.114
-313.968	109.841	-0.086	0.103
-312.953	-24.147	-0.238	-0.142
-311.939	-151.830	0.076	0.006
-310.924	78.750	-0.331	0.354
-309.910	800.000	-0.066	-0.224
-308.895	-97.846	-0.357	-0.092
-307.880	38.137	0.156	-0.139
-306.866	800.000	-0.094	0.360
-305.851	117.398	-0.132	-0.162
-304.837	-43.615	-0.156	-0.079
-303.822	-200.000	-0.009	0.251
-302.807	-21.808	0.259	-0.158
-301.793	-199.008	0.174	-0.001
-300.778	-101.079	0.141	0.035
-299.764	-200.000	-0.058	0.369
-298.749	167.977	-0.057	0.081
-297.735	-200.000	-0.021	-0.134
-296.720	-200.000	-0.049	0.371
-295.705	-200.000	0.002	0.026
-294.691	48.543	-0.167	-0.157
-293.676	-147.989	-0.315	0.026
-292.662	-59.099	-0.229	-0.099
-291.647	-178.354	0.417	0.010
-290.632	-200.000	0.059	-0.400
-289.618	79.135	0.131	-0.140
-288.603	-56.900	0.181	-0.080
-287.589	-9.881	0.213	-0.142
-286.574	800.000	0.054	-0.150
-285.559	800.000	-0.113	0.338
-284.545	3.391	0.236	-0.172
-283.530	173.593	0.259	-0.373
-282.516	-200.000	0.004	-0.125
-281.501	-123.380	0.047	-0.007
-280.486	-200.000	0.007	0.224
-279.472	143.544	0.041	0.054
-278.457	-200.000	0.022	0.218
-277.443	800.000	-0.171	-0.590
-276.428	800.000	-0.071	-0.220
-275.413	142.626	-0.087	-0.116
-274.399	-142.178	-0.048	0.005
-273.384	-144.776	-0.099	-0.009
-272.370	800.000	-0.051	-0.162
-271.355	-66.713	-0.288	0.114
-270.340	-66.520	0.097	0.038
-269.326	-126.141	-0.054	0.008
-268.311	-7.738	-0.215	-0.145
-267.297	-129.497	-0.044	-0.006
-266.282	800.000	-0.052	-0.157
-265.267	-200.000	0.039	-0.353
-264.253	-200.000	-0.003	-0.263
-263.238	139.562	0.117	-0.154
-262.224	-120.426	0.211	0.036
-261.209	244.310	-0.081	0.136
-260.195	-99.445	-0.372	-0.094
-259.180	-18.004	-0.258	-0.161
-258.165	-200.000	-0.063	0.302
-257.151	370.305	-0.034	-0.070
-256.136	-200.000	-0.019	-0.276
-255.122	800.000	-0.040	0.167
-254.107	31.039	-0.117	-0.100
-253.092	288.513	0.136	-0.245
-252.078	98.071	0.232	0.267
-251.063	-200.000	0.028	-0.186
-250.049	-125.010	-0.116	-0.018
-249.034	468.780	-0.233	0.522
-248.019	-108.878	0.133	0.028
-247.005	-133.539	0.315	0.039
-245.990	-200.000	0.014	-0.082
-244.976	19.806	-0.234	0.188
-243.961	399.939	0.084	-0.175
-242.946	-89.660	-0.302	0.088
-241.932	-129.293	-0.181	0.025
-240.917	-143.504	-0.197	0.019
-239.903	-200.000	0.072	-0.329
-238.888	800.000	0.058	0.208
-237.873	164.276	0.089	0.125
-236.859	800.000	-0.101	0.316
-235.844	-80.153	-0.192	-0.064
-234.830	-77.549	0.096	-0.033
-233.815	-0.443	0.234	0.166
-232.800	-200.000	0.061	0.276
-231.786	217.910	-0.164	-0.260
-230.771	54.709	0.229	-0.220
-229.757	-52.346	-0.277	-0.128
-228.742	319.030	-0.007	0.014
-227.727	-200.000	-0.024	0.488
-226.713	-90.214	0.470	-0.136
-225.698	53.493	-0.013	0.012
-224.684	191.433	0.143	-0.215
-223.669	-0.060	0.068	0.049
-222.655	120.167	0.151	0.187
-221.640	-200.000	0.016	0.304
-220.625	-200.000	0.031	-0.237
-219.611	561.128	-0.115	-0.276
-218.596	-33.764	-0.311	-0.171
-217.582	-200.000	-0.027	-0.155
-216.567	94.354	-0.112	0.127
-215.552	-94.723	0.183	-0.050
-214.538	416.530	0.093	-0.198
-213.523	-200.000	-0.042	-0.224
-212.509	367.241	-0.143	0.287
-211.494	-200.000	0.046	-0.326
-210.479	-196.427	0.145	0.001
-209.465	-125.740	-0.426	-0.064
-208.450	-172.355	0.165	-0.005
-207.436	800.000	-0.067	-0.273
-206.421	-90.288	0.151	0.044
-205.406	800.000	0.014	-0.039
-204.392	543.682	-0.070	0.166
-203.377	179.271	-0.287	0.418
-202.363	-114.842	-0.162	0.031
-201.348	-126.318	-0.055	-0.008
-200.333	-40.616	0.309	0.160
-199.319	-124.045	-0.129	-0.020
-198.304	-81.769	-0.252	-0.082
-197.290	352.925	0.087	-0.171
-196.275	-42.917	-0.135	0.068
-195.260	-200.000	0.034	0.355
-194.246	171.526	0.215	-0.308
-193.231	-200.000	-0.041	0.226
-192.217	-98.313	-0.244	-0.062
-191.202	-200.000	0.026	0.237
-190.187	32.209	-0.113	0.097
-189.173	-200.000	-0.053	-0.499
-188.158	148.499	-0.078	-0.105
-187.144	165.082	0.277	-0.389
-186.129	-200.000	0.031	-0.178
-185.114	-93.507	0.360	0.099
-184.100	-52.765	-0.096	-0.044
-183.085	99.132	-0.089	0.103
-182.071	-40.588	-0.345	0.178
-181.056	99.622	-0.173	-0.200
-180.042	-46.292	0.240	-0.117
-179.027	-145.362	-0.049	-0.004
-178.012	-48.011	0.120	-0.058
-176.998	-43.391	0.258	0.130
-175.983	373.842	-0.128	0.258
-174.969	598.728	0.097	-0.238
-173.954	-200.000	0.041	0.194
-172.939	-200.000	0.013	0.186
-171.925	800.000	0.128	0.459
-170.910	343.182	-0.059	-0.115
-169.896	117.462	0.074	-0.091
-168.881	-131.973	0.092	0.012
-167.866	800.000	0.016	-0.048
-166.852	340.075	-0.121	-0.234
-165.837	-200.000	0.103	0.463
-164.823	-144.054	0.166	-0.016
-163.808	-121.436	0.365	-0.060
-162.793	-116.705	0.269	0.049
-161.779	22.190	-0.069	0.056
-160.764	586.000	0.068	-0.167
-159.750	-12.575	-0.162	0.105
-158.735	-200.000	0.199	0.001
-157.720	106.492	0.193	0.228
-156.706	800.000	-0.062	-0.175
-155.691	-200.000	-0.004	0.074
-154.677	85.513	-0.040	-0.043
-153.662	-200.000	0.000	-0.248
-152.647	199.761	-0.024	-0.037
-151.633	-161.803	0.139	-0.007
-150.618	109.190	0.152	-0.181
-149.604	145.660	0.199	0.265
-148.589	800.000	0.069	0.210
-147.574	-200.000	0.013	0.083
-146.560	-84.047	-0.237	-0.075
-145.545	-200.000	-0.025	-0.260
-144.531	-37.142	0.143	0.076
-143.516	99.214	-0.144	0.166
-142.502	123.482	-0.100	0.124
-141.487	140.899	0.158	0.208
-140.472	-70.979	-0.446	0.167
-139.458	-28.360	0.157	-0.090
-138.443	-104.154	0.193	0.045
-137.429	800.000	-0.073	0.278
-136.414	-77.147	-0.192	-0.067
-135.399	274.012	-0.134	0.235
-134.385	-26.817	0.184	0.107
-133.370	-14.744	-0.073	0.046
-132.356	406.378	-0.042	-0.089
-131.341	-19.664	-0.235	-0.144
-130.326	-200.000	0.048	0.000
-129.312	-200.000	0.083	0.389
-128.297	-52.590	-0.066	-0.030
-127.283	-200.000	-0.004	-0.145
-126.268	-95.094	-0.156	0.042
-125.253	450.458	0.082	0.179
-124.239	-47.155	-0.102	-0.049
-123.224	-128.164	0.209	0.030
-122.210	-120.625	0.194	0.033
