DTS Sentinel unit serial number:	SN413079Multiplexer serial number:	ORYXHardware model number:	OX4-SRSoftware version number:	ORYX F/W v4.00 Oryx Data Collector v3.7.2.0data status	okinstallation	princeton_trtdifferential loss correction	single-endedforward channel	channel 2reverse channel	N/Adate	2019/09/14time	10:31:35forward acquisition time	60.00reverse acquisition time	0.00gamma	496.2192k internal	0.2316k external	0.2316temperature offset calibration	1.0143default loss term (dB/km)	0.3790temperature slope calibration	1.0000multiplexer offset coefficient	1.0000multiplexer slope coefficient	1.0000fibre end	0.00T internal ref (°C)	34.83T ext. ref 1 (°C)	4.20T ext. ref 2 (°C)	32.81length (m)	temperature (°C)	Stokes	anti-Stokes-747.200	-116.676	0.543	-0.101
-746.185	-166.631	0.340	-0.014
-745.171	-163.483	-0.195	0.009
-744.156	-200.000	0.020	0.401
-743.142	-89.375	0.140	0.042
-742.127	578.055	0.103	0.255
-741.112	-81.116	0.356	-0.119
-740.098	-74.319	-0.206	-0.075
-739.083	168.288	0.240	0.347
-738.069	800.000	-0.118	0.337
-737.054	800.000	-0.039	-0.146
-736.039	-88.877	-0.371	0.111
-735.025	-43.118	0.142	0.073
-734.010	-56.166	-0.070	0.032
-732.996	-152.501	-0.396	-0.029
-731.981	143.074	-0.038	-0.051
-730.966	-79.417	-0.099	-0.034
-729.952	800.000	-0.034	0.095
-728.937	-81.136	-0.329	-0.110
-727.923	18.538	0.099	0.080
-726.908	-196.990	0.356	-0.002
-725.894	-125.426	-0.150	0.023
-724.879	-21.372	0.242	-0.150
-723.864	49.647	-0.131	0.125
-722.850	108.455	-0.063	-0.076
-721.835	141.508	0.138	0.185
-720.821	-200.000	-0.049	-0.225
-719.806	-200.000	0.058	-0.262
-718.791	800.000	0.033	-0.123
-717.777	152.169	0.019	-0.026
-716.762	508.697	0.163	-0.383
-715.748	12.857	-0.208	0.162
-714.733	-78.437	0.236	-0.082
-713.718	-73.409	-0.148	0.055
-712.704	59.654	0.126	-0.126
-711.689	-76.555	-0.270	-0.096
-710.675	66.620	-0.091	-0.094
-709.660	-166.887	0.151	-0.006
-708.645	173.471	-0.241	0.352
-707.631	-21.812	-0.059	-0.036
-706.616	169.100	-0.120	-0.174
-705.602	-57.152	-0.325	0.145
-704.587	-200.000	-0.012	-0.193
-703.572	69.591	0.046	-0.048
-702.558	800.000	0.084	0.255
-701.543	73.818	0.100	-0.107
-700.529	800.000	0.049	0.166
-699.514	317.750	-0.081	0.156
-698.499	-108.468	-0.111	0.024
-697.485	-200.000	0.060	-0.472
-696.470	-200.000	0.006	-0.087
-695.456	-200.000	-0.058	-0.306
-694.441	-106.284	-0.370	-0.084
-693.426	-119.732	-0.129	0.022
-692.412	-20.876	0.355	-0.220
-691.397	365.387	0.192	-0.390
-690.383	-172.151	0.202	0.007
-689.368	-108.277	0.169	0.037
-688.354	-48.800	0.267	0.129
-687.339	87.953	0.089	-0.100
-686.324	102.558	-0.170	0.201
-685.310	276.546	0.088	-0.159
-684.295	-92.216	-0.247	-0.071
-683.281	56.204	0.122	-0.119
-682.266	-200.000	0.027	-0.157
-681.251	-54.603	0.260	-0.119
-680.237	-50.740	0.358	-0.171
-679.222	-185.508	-0.322	-0.005
-678.208	-4.381	-0.129	-0.090
-677.193	-27.646	0.205	-0.120
-676.178	-200.000	0.021	0.434
-675.164	99.737	0.262	-0.307
-674.149	56.205	0.194	-0.191
-673.135	800.000	-0.072	-0.272
-672.120	123.337	0.278	-0.352
-671.105	-193.564	-0.384	-0.003
-670.091	169.342	-0.138	-0.200
-669.076	-169.216	-0.176	-0.007
-668.062	-17.545	-0.066	0.042
-667.047	-118.244	-0.255	0.046
-666.032	239.597	-0.096	0.162
-665.018	221.361	-0.199	-0.324
-664.003	800.000	0.014	-0.039
-662.989	463.605	0.161	-0.363
-661.974	55.196	0.116	-0.113
-660.959	-53.887	-0.296	0.136
-659.945	48.245	0.344	0.325
-658.930	-88.766	0.043	0.013
-657.916	478.730	-0.069	-0.159
-656.901	800.000	0.032	0.103
-655.886	800.000	-0.061	0.203
-654.872	99.570	0.149	0.174
-653.857	-15.527	0.175	-0.113
-652.843	-200.000	0.010	0.074
-651.828	457.554	-0.148	-0.333
-650.814	13.475	0.306	0.239
-649.799	-37.829	-0.254	-0.137
-648.784	275.177	-0.186	-0.333
-647.770	-66.068	-0.128	0.051
-646.755	-200.000	0.040	-0.229
-645.741	-200.000	0.000	-0.079
-644.726	-200.000	-0.052	-0.310
-643.711	800.000	-0.052	0.149
-642.697	195.354	0.169	0.258
-641.682	103.971	0.340	0.404
-640.668	155.536	0.023	-0.032
-639.653	31.251	0.352	0.305
-638.638	20.251	0.269	0.219
-637.624	481.669	0.150	-0.343
-636.609	-94.403	-0.251	0.069
-635.595	90.483	0.089	0.101
-634.580	-10.956	-0.139	-0.093
-633.565	-41.590	-0.047	-0.024
-632.551	310.802	-0.052	0.098
-631.536	800.000	-0.025	-0.092
-630.522	-200.000	-0.000	0.102
-629.507	5.056	-0.087	0.064
-628.492	24.735	0.115	0.096
-627.478	-200.000	-0.018	0.209
-626.463	-200.000	-0.076	0.509
-625.449	800.000	-0.018	0.070
-624.434	-200.000	0.045	0.207
-623.419	-80.559	-0.169	0.057
-622.405	800.000	0.090	0.319
-621.390	-86.790	-0.224	0.069
-620.376	-85.362	0.265	0.083
-619.361	589.417	-0.057	-0.142
-618.346	-114.426	-0.228	-0.044
-617.332	-167.189	-0.177	-0.007
-616.317	-136.391	-0.203	0.024
-615.303	103.909	0.147	0.174
-614.288	-22.492	0.141	-0.086
-613.273	176.089	-0.237	0.347
-612.259	800.000	-0.129	0.363
-611.244	121.575	0.269	-0.338
-610.230	45.195	0.318	-0.296
-609.215	-200.000	-0.013	0.073
-608.201	800.000	0.076	-0.243
-607.186	-38.771	-0.101	0.053
-606.171	149.485	0.133	-0.181
-605.157	280.149	0.171	-0.308
-604.142	-41.995	0.470	-0.243
-603.128	-200.000	-0.086	-0.544
-602.113	689.292	-0.117	-0.307
-601.098	419.552	0.083	-0.178
-600.084	-12.306	-0.172	-0.113
-599.069	-18.322	0.148	-0.093
-598.055	800.000	0.100	0.340
-597.040	-200.000	-0.020	0.143
-596.025	41.091	0.160	-0.145
-595.011	444.662	-0.052	-0.115
-593.996	-21.294	-0.175	0.107
-592.982	208.040	-0.278	-0.438
-591.967	800.000	0.037	0.107
-590.952	-200.000	-0.014	0.110
-589.938	75.701	0.042	-0.044
-588.923	-200.000	0.039	0.320
-587.909	-53.864	0.132	-0.060
-586.894	13.742	-0.345	0.270
-585.879	102.472	0.062	0.073
-584.865	-62.338	-0.110	-0.046
-583.850	800.000	-0.092	-0.310
-582.836	29.157	0.234	-0.200
-581.821	73.562	-0.082	0.086
-580.806	47.942	0.199	0.188
-579.792	-44.693	0.045	0.023
-578.777	94.832	-0.197	0.225
-577.763	-200.000	0.037	-0.173
-576.748	-200.000	0.006	0.082
-575.733	-200.000	-0.002	-0.036
-574.719	-200.000	0.030	0.307
-573.704	75.984	-0.259	-0.276
-572.690	35.162	-0.181	-0.160
-571.675	-144.897	0.181	0.017
-570.661	-200.000	-0.030	-0.277
-569.646	-59.132	-0.183	0.080
-568.631	-17.740	-0.169	-0.107
-567.617	-60.398	-0.023	0.010
-566.602	11.499	-0.125	0.096
-565.588	341.425	-0.024	0.047
-564.573	-108.597	-0.435	-0.094
-563.558	-22.427	-0.324	-0.197
-562.544	94.226	-0.135	-0.154
-561.529	-64.777	0.202	-0.082
-560.515	-200.000	-0.029	-0.152
-559.500	452.332	-0.036	0.080
-558.485	800.000	0.058	-0.172
-557.471	-200.000	-0.003	0.188
-556.456	-152.317	-0.168	0.012
-555.442	68.934	-0.336	0.347
-554.427	-37.661	0.283	0.151
-553.412	210.634	0.222	-0.351
-552.398	506.847	0.014	-0.033
-551.383	-200.000	-0.005	-0.215
-550.369	145.638	-0.171	-0.231
-549.354	784.630	0.047	0.131
-548.339	-126.593	-0.078	0.012
-547.325	800.000	0.052	-0.157
-546.310	-200.000	0.009	0.153
-545.296	800.000	-0.048	-0.171
-544.281	800.000	-0.124	-0.406
-543.266	29.270	-0.245	-0.209
-542.252	800.000	-0.111	-0.389
-541.237	-137.742	0.083	-0.009
-540.223	772.426	0.038	0.105
-539.208	-102.358	0.242	-0.058
-538.193	-122.128	0.074	-0.012
-537.179	129.497	-0.132	-0.170
-536.164	-169.218	-0.091	-0.003
-535.150	190.613	-0.167	-0.253
-534.135	82.409	-0.101	0.110
-533.121	800.000	0.126	-0.392
-532.106	-135.567	-0.211	0.025
-531.091	158.825	-0.097	0.135
-530.077	-144.088	0.190	-0.018
-529.062	54.916	0.015	-0.015
-528.048	24.561	0.342	-0.285
-527.033	78.683	-0.220	-0.236
-526.018	-114.724	0.163	0.031
-525.004	-200.000	-0.025	0.304
-523.989	800.000	-0.038	-0.165
-522.975	473.467	-0.123	-0.279
-521.960	-200.000	0.029	-0.377
-520.945	-26.374	0.127	-0.075
-519.931	-115.199	-0.308	-0.059
-518.916	-200.000	-0.001	-0.032
-517.902	-105.741	0.227	0.051
-516.887	-133.799	-0.143	-0.018
-515.872	231.566	-0.141	-0.232
-514.858	-145.893	0.094	-0.008
-513.843	-195.820	-0.356	0.003
-512.829	-26.173	-0.209	0.123
-511.814	-91.388	-0.208	-0.060
-510.799	638.803	0.138	0.352
-509.785	422.181	-0.112	0.241
-508.770	239.706	-0.080	-0.133
-507.756	-45.360	0.064	0.032
-506.741	12.350	-0.278	-0.215
-505.726	-54.220	0.328	-0.149
-504.712	503.359	-0.119	-0.277
-503.697	-20.122	0.089	0.055
-502.683	27.752	0.077	-0.065
-501.668	80.661	0.263	0.285
-500.653	-9.922	-0.188	-0.125
-499.639	-200.000	-0.013	-0.158
-498.624	-25.428	-0.313	0.186
-497.610	461.371	0.144	-0.322
-496.595	-200.000	-0.026	-0.139
-495.581	-145.748	-0.073	0.007
-494.566	295.697	-0.042	-0.078
-493.551	-200.000	0.017	-0.084
-492.537	-72.964	0.044	0.016
-491.522	18.267	0.201	0.161
-490.508	-124.098	-0.214	-0.034
-489.493	800.000	-0.066	-0.208
-488.478	482.446	-0.100	0.228
-487.464	27.355	0.175	-0.148
-486.449	450.080	-0.124	0.275
-485.435	-154.080	-0.203	0.014
-484.420	-75.807	-0.185	-0.066
-483.405	294.000	0.123	0.225
-482.391	360.892	0.108	0.216
-481.376	-86.004	0.309	-0.096
-480.362	-92.058	0.333	0.095
-479.347	-90.619	0.232	0.067
-478.332	-44.134	0.145	-0.073
-477.318	-200.000	-0.077	-0.492
-476.303	14.720	-0.085	-0.067
-475.289	800.000	-0.030	-0.113
-474.274	800.000	-0.096	0.313
-473.259	800.000	-0.080	0.222
-472.245	21.957	0.149	0.122
-471.230	216.295	-0.083	0.133
-470.216	-82.399	0.143	0.046
-469.201	-76.650	0.120	-0.042
-468.186	44.656	0.151	0.139
-467.172	-53.179	0.100	0.046
-466.157	0.008	0.102	0.073
-465.143	-56.539	0.267	-0.119
-464.128	-86.574	-0.265	0.081
-463.113	-126.274	-0.380	0.057
-462.099	-32.159	0.077	0.043
-461.084	99.718	-0.069	0.080
-460.070	-52.894	-0.235	-0.109
-459.055	-5.902	0.016	0.011
-458.040	800.000	-0.015	0.045
-457.026	50.163	0.200	0.190
-456.011	27.259	0.254	0.213
-454.997	-186.736	-0.203	0.003
-453.982	20.785	0.179	0.145
-452.968	-200.000	0.006	-0.110
-451.953	785.504	-0.003	0.010
-450.938	800.000	0.027	0.112
-449.924	800.000	-0.101	0.327
-448.909	-108.778	-0.116	0.025
-447.895	521.101	0.080	-0.187
-446.880	39.067	0.092	0.082
-445.865	-144.696	0.252	0.023
-444.851	-200.000	-0.030	-0.135
-443.836	-111.482	0.388	-0.079
-442.822	94.717	0.165	0.188
-441.807	-200.000	-0.005	-0.163
-440.792	800.000	0.064	-0.261
-439.778	-198.593	0.198	0.001
-438.763	-200.000	-0.044	0.286
-437.749	-137.868	0.199	0.022
-436.734	-128.358	0.132	0.019
-435.719	-121.403	-0.201	-0.033
-434.705	-7.553	0.139	0.094
-433.690	-48.128	-0.092	-0.045
-432.676	-93.334	0.131	0.036
-431.661	-10.938	-0.098	0.064
-430.646	-200.000	-0.008	0.098
-429.632	284.797	-0.019	0.034
-428.617	569.067	-0.124	-0.301
-427.603	-8.462	-0.205	0.138
-426.588	3.673	0.181	0.132
-425.573	44.676	0.096	0.089
-424.559	-200.000	-0.003	-0.224
-423.544	-70.534	0.066	-0.025
-422.530	-200.000	-0.049	-0.321
-421.515	-90.212	-0.264	-0.077
-420.500	-200.000	0.017	0.315
-419.486	-74.726	0.085	0.031
-418.471	-119.137	-0.191	-0.033
-417.457	-174.541	-0.428	0.012
-416.442	163.815	0.007	0.009
-415.428	-16.521	0.302	-0.192
-414.413	-121.686	-0.270	-0.045
-413.398	-94.743	-0.301	-0.082
-412.384	479.675	0.020	0.045
-411.369	151.169	0.082	0.112
-410.355	-170.415	0.514	0.018
-409.340	136.287	-0.258	-0.336
-408.325	800.000	-0.091	0.366
-407.311	264.912	-0.055	-0.096
-406.296	-88.909	0.108	0.032
-405.282	-32.942	-0.024	0.013
-404.267	-62.632	0.215	-0.089
-403.252	36.809	-0.134	-0.118
-402.238	225.540	0.020	-0.032
-401.223	396.305	0.047	-0.097
-400.209	-200.000	-0.023	0.104
-399.194	-43.615	-0.241	0.122
-398.179	-29.624	0.237	-0.135
-397.165	-17.895	-0.244	-0.153
-396.150	-95.316	-0.204	-0.055
-395.136	-200.000	0.002	0.268
-394.121	-2.462	0.194	-0.136
-393.106	-80.235	-0.134	-0.045
-392.092	406.125	0.062	0.131
-391.077	216.533	0.073	0.117
-390.063	-155.992	-0.228	0.014
-389.048	800.000	-0.044	-0.178
-388.033	-200.000	-0.018	0.299
-387.019	800.000	-0.064	0.184
-386.004	129.241	0.077	0.098
-384.990	-154.253	0.223	0.015
-383.975	402.525	0.159	-0.334
-382.960	35.228	0.111	-0.097
-381.946	-36.401	-0.186	0.100
-380.931	800.000	0.116	-0.333
-379.917	-200.000	-0.019	0.185
-378.902	-124.902	0.283	0.044
-377.888	-200.000	-0.040	-0.360
-376.873	127.847	0.094	0.119
-375.858	-200.000	0.027	-0.149
-374.844	-12.828	0.078	-0.051
-373.829	-99.679	-0.103	0.026
-372.815	101.519	0.006	-0.007
-371.800	29.719	-0.076	-0.065
-370.785	-82.704	0.340	-0.110
-369.771	247.543	0.085	0.143
-368.756	800.000	-0.096	-0.284
-367.742	-26.192	0.268	-0.157
-366.727	37.978	-0.218	0.193
-365.712	-147.589	0.356	-0.030
-364.698	552.636	0.100	-0.241
-363.683	-68.075	0.057	0.022
-362.669	15.145	0.120	0.094
-361.654	-72.351	0.314	0.116
-360.639	-143.859	-0.467	0.044
-359.625	84.819	0.297	0.325
-358.610	-200.000	0.023	0.286
-357.596	-87.148	0.221	0.067
-356.581	245.483	-0.213	-0.358
-355.566	5.490	0.200	0.147
-354.552	595.760	-0.083	-0.205
-353.537	722.562	0.082	-0.219
-352.523	-93.001	-0.121	-0.034
-351.508	439.163	-0.007	0.016
-350.493	225.587	0.113	-0.183
-349.479	-44.229	0.075	0.038
-348.464	-200.000	0.026	-0.124
-347.450	-200.000	-0.008	0.035
-346.435	412.484	0.096	0.204
-345.420	127.036	-0.140	0.177
-344.406	50.649	-0.281	0.265
-343.391	-45.716	-0.143	0.071
-342.377	-64.968	0.529	0.213
-341.362	800.000	0.062	0.210
-340.348	-200.000	-0.050	0.373
-339.333	-15.109	0.257	0.164
-338.318	9.681	-0.136	0.103
-337.304	-131.735	-0.113	-0.015
-336.289	87.101	0.060	-0.066
-335.275	-141.078	0.054	0.006
-334.260	646.290	-0.056	-0.143
-333.245	-136.644	0.213	-0.025
-332.231	-200.000	0.000	0.095
-331.216	-57.906	-0.158	0.069
-330.202	-42.149	0.132	-0.067
-329.187	-110.601	0.082	-0.017
-328.172	7.402	-0.012	-0.009
-327.158	-100.004	-0.241	0.060
-326.143	-111.151	-0.088	0.018
-325.129	-101.437	0.144	0.035
-324.114	-48.273	-0.367	-0.176
-323.099	-200.000	-0.099	-0.449
-322.085	-200.000	0.046	0.616
-321.070	215.103	-0.086	0.136
-320.056	-200.000	0.009	0.302
-319.041	-80.127	0.307	0.103
-318.026	-53.946	0.218	0.099
-317.012	87.134	0.147	-0.162
-315.997	-107.453	-0.256	-0.056
-314.983	655.754	-0.045	-0.115
-313.968	191.460	0.110	-0.165
-312.953	-200.000	-0.033	-0.154
-311.939	-1.859	0.089	0.063
-310.924	800.000	-0.057	-0.236
-309.910	58.041	0.231	-0.225
-308.895	-200.000	0.046	-0.297
-307.880	91.495	0.198	-0.221
-306.866	800.000	-0.060	0.218
-305.851	109.916	-0.209	-0.250
-304.837	-200.000	-0.026	0.122
-303.822	-148.374	-0.128	0.010
-302.807	376.369	-0.037	-0.076
-301.793	-200.000	0.007	-0.109
-300.778	-36.449	0.359	-0.192
-299.764	39.667	-0.080	-0.072
-298.749	-53.776	-0.074	0.033
-297.735	-70.888	0.266	0.100
-296.720	-200.000	0.114	0.537
-295.705	-200.000	-0.004	0.277
-294.691	-4.074	-0.176	-0.121
-293.676	800.000	-0.069	0.239
-292.662	-200.000	-0.021	-0.242
-291.647	-77.915	-0.403	0.138
-290.632	-118.395	-0.168	0.030
-289.618	200.084	0.235	0.359
-288.603	-200.000	-0.060	-0.318
-287.589	98.123	-0.221	0.253
-286.574	226.746	-0.077	-0.124
-285.559	-126.007	0.290	0.043
-284.545	-200.000	0.078	0.342
-283.530	329.772	-0.098	-0.188
-282.516	800.000	-0.045	-0.129
-281.501	-48.134	-0.261	0.125
-280.486	23.710	0.147	-0.120
-279.472	-96.891	0.266	-0.069
-278.457	-200.000	-0.007	0.110
-277.443	225.481	0.132	0.213
-276.428	93.601	-0.105	0.118
-275.413	-94.035	-0.070	-0.019
-274.399	198.082	-0.126	-0.192
-273.384	-16.326	-0.273	-0.172
-272.370	51.127	0.209	-0.197
-271.355	-143.430	0.255	0.024
-270.340	288.355	-0.061	-0.110
-269.326	661.993	-0.105	0.269
-268.311	-13.117	-0.053	0.034
-267.297	-35.009	-0.290	-0.157
-266.282	80.873	-0.116	-0.125
-265.267	-200.000	0.072	-0.364
-264.253	-16.070	-0.220	-0.139
-263.238	130.064	-0.085	0.108
-262.224	-200.000	0.025	-0.301
-261.209	800.000	-0.101	-0.330
-260.195	106.838	0.026	0.030
-259.180	-189.801	-0.399	-0.005
-258.165	-62.148	0.119	0.049
-257.151	70.357	-0.032	-0.033
-256.136	-55.375	-0.071	0.031
-255.122	-159.433	-0.133	0.007
-254.107	126.219	-0.120	0.151
-253.092	-200.000	0.030	-0.181
-252.078	800.000	0.055	-0.171
-251.063	-43.179	0.434	-0.218
-250.049	-99.272	-0.211	-0.053
-249.034	800.000	-0.022	-0.071
-248.019	436.269	0.025	-0.054
-247.005	-142.658	-0.321	0.031
-245.990	-200.000	0.013	-0.235
-244.976	-132.358	0.180	0.023
-243.961	397.760	-0.180	0.375
-242.946	-200.000	-0.035	0.165
-241.932	-181.695	0.157	0.003
-240.917	-200.000	0.004	0.181
-239.903	86.931	0.124	0.136
-238.888	-61.276	-0.042	-0.018
-237.873	147.417	0.211	0.282
-236.859	-19.263	0.032	-0.020
-235.844	-8.854	-0.459	0.305
-234.830	800.000	-0.052	0.167
-233.815	-130.081	-0.135	0.018
-232.800	119.758	0.264	-0.325
-231.786	-200.000	0.059	-0.279
-230.771	448.679	-0.092	-0.201
-229.757	-65.220	0.104	-0.041
-228.742	800.000	-0.026	-0.090
-227.727	-83.548	-0.157	0.050
-226.713	770.767	0.069	0.186
-225.698	-200.000	-0.041	0.337
-224.684	-200.000	-0.011	0.059
-223.669	367.369	-0.023	0.045
-222.655	-92.055	0.300	0.084
-221.640	98.325	-0.090	0.103
-220.625	800.000	-0.024	0.094
-219.611	561.190	0.075	0.180
-218.596	-39.518	0.351	0.183
-217.582	41.041	-0.156	-0.140
-216.567	156.006	-0.067	0.092
-215.552	-78.097	-0.186	0.064
-214.538	106.918	0.197	0.232
-213.523	-200.000	-0.054	0.243
-212.509	-53.733	-0.269	0.122
-211.494	747.121	-0.116	0.310
-210.479	234.273	-0.075	-0.123
-209.465	-66.623	0.181	-0.071
-208.450	-192.860	0.238	-0.002
-207.436	-59.179	0.183	-0.078
-206.421	7.127	0.162	0.120
-205.406	230.868	0.072	0.117
-204.392	-200.000	0.078	0.394
-203.377	-200.000	-0.055	0.246
-202.363	-10.915	0.024	-0.016
-201.348	267.058	-0.204	0.354
-200.333	23.504	-0.331	-0.270
-199.319	-70.442	0.174	-0.065
-198.304	-79.231	-0.231	-0.078
-197.290	208.819	-0.099	-0.153
-196.275	-116.136	0.224	0.041
-195.260	-35.668	0.117	-0.063
-194.246	-65.915	-0.132	0.052
-193.231	-200.000	0.030	0.236
-192.217	355.586	-0.047	-0.093
-191.202	34.876	0.034	0.029
-190.187	-143.150	-0.246	0.024
-189.173	36.282	0.249	0.218
-188.158	-38.727	0.146	-0.076
-187.144	213.361	0.045	0.070
-186.129	-200.000	0.022	-0.102
-185.114	-44.277	-0.407	0.202
-184.100	-89.883	0.221	-0.064
-183.085	-200.000	-0.010	-0.199
-182.071	-130.954	0.109	-0.014
-181.056	-92.168	0.172	-0.048
-180.042	7.075	0.130	0.096
-179.027	-31.074	0.133	-0.075
-178.012	87.551	0.157	-0.173
-176.998	334.252	-0.117	0.224
-175.983	-67.895	0.126	0.049
-174.969	509.146	-0.098	0.227
-173.954	-150.322	0.298	-0.023
-172.939	28.560	-0.217	-0.182
-171.925	-123.498	-0.288	-0.045
-170.910	76.923	0.079	-0.083
-169.896	-41.876	0.296	-0.150
-168.881	-121.479	-0.278	0.046
-167.866	-85.875	0.290	0.089
-166.852	269.365	0.115	0.201
-165.837	-200.000	-0.040	0.199
-164.823	-37.941	-0.351	0.185
-163.808	336.669	0.051	-0.099
-162.793	307.749	-0.056	-0.103
-161.779	483.917	0.069	0.157
-160.764	-118.717	-0.199	-0.035
-159.750	800.000	0.014	-0.040
-158.735	251.862	-0.145	-0.245
-157.720	225.921	0.075	-0.120
-156.706	2.157	0.107	0.076
-155.691	13.539	-0.102	0.078
-154.677	-33.679	0.015	-0.008
-153.662	-108.486	0.305	0.065
-152.647	-89.454	0.134	0.039
-151.633	-200.000	-0.005	0.307
-150.618	-80.274	-0.261	0.086
-149.604	-200.000	0.026	0.172
-148.589	-19.770	0.263	0.161
-147.574	-200.000	0.021	0.290
-146.560	-113.990	-0.269	-0.052
-145.545	137.397	-0.182	-0.236
-144.531	394.381	0.180	-0.371
-143.516	-107.505	0.510	0.111
-142.502	800.000	-0.051	-0.197
-141.487	-200.000	-0.052	-0.252
-140.472	92.455	-0.114	-0.127
-139.458	-73.708	-0.066	-0.024
-138.443	649.188	-0.030	-0.075
-137.429	-200.000	-0.043	0.232
-136.414	-200.000	0.154	0.001
-135.399	204.803	-0.164	-0.252
-134.385	49.764	0.164	0.153
-133.370	-194.075	-0.190	-0.002
-132.356	121.211	-0.203	-0.250
-131.341	324.442	0.077	-0.146
-130.326	557.688	-0.081	-0.193
-129.312	-6.589	-0.380	-0.256
-128.297	800.000	0.099	0.335
-127.283	-200.000	0.000	0.197
-126.268	-144.327	-0.161	-0.015
-125.253	51.149	-0.053	-0.050
-124.239	-5.858	0.252	0.171
-123.224	-200.000	0.028	0.122
-122.210	-124.585	-0.044	0.007
-121.195	202.282	-0.025	0.038
