DTS Sentinel unit serial number:	SN413079Multiplexer serial number:	ORYXHardware model number:	OX4-SRSoftware version number:	ORYX F/W v4.00 Oryx Data Collector v3.7.2.0data status	okinstallation	princeton_trtdifferential loss correction	single-endedforward channel	channel 2reverse channel	N/Adate	2019/09/16time	06:19:35forward acquisition time	60.00reverse acquisition time	0.00gamma	496.2192k internal	0.2334k external	0.2334temperature offset calibration	0.9973default loss term (dB/km)	0.3790temperature slope calibration	1.0000multiplexer offset coefficient	1.0000multiplexer slope coefficient	1.0000fibre end	0.00T internal ref (°C)	27.44T ext. ref 1 (°C)	11.33T ext. ref 2 (°C)	21.65length (m)	temperature (°C)	Stokes	anti-Stokes-747.200	800.000	0.186	0.566
-746.185	74.610	0.088	0.093
-745.171	-91.261	0.159	0.046
-744.156	-120.145	-0.341	-0.059
-743.142	-127.746	0.102	-0.015
-742.127	-55.497	0.107	-0.048
-741.112	119.540	0.153	0.191
-740.098	-200.000	-0.038	0.510
-739.083	469.706	-0.059	-0.132
-738.069	-122.528	0.042	-0.007
-737.054	-145.796	-0.064	-0.006
-736.039	25.390	-0.103	-0.086
-735.025	-100.356	0.096	0.024
-734.010	308.252	-0.049	-0.092
-732.996	272.537	0.193	-0.342
-731.981	800.000	0.094	-0.397
-730.966	20.994	-0.050	0.041
-729.952	800.000	-0.026	-0.082
-728.937	570.513	-0.066	-0.161
-727.923	83.340	-0.115	0.126
-726.908	800.000	0.118	-0.413
-725.894	-91.830	-0.571	-0.163
-724.879	704.243	0.105	0.278
-723.864	-43.318	0.089	0.045
-722.850	-135.535	-0.151	-0.018
-721.835	-8.398	-0.154	-0.104
-720.821	-200.000	0.024	0.147
-719.806	-93.792	-0.135	0.037
-718.791	-200.000	0.061	-0.271
-717.777	-200.000	-0.024	-0.292
-716.762	-174.631	0.138	-0.004
-715.748	528.031	0.132	-0.312
-714.733	-200.000	-0.015	-0.221
-713.718	-200.000	-0.026	0.361
-712.704	-123.419	-0.240	0.038
-711.689	53.836	-0.269	-0.259
-710.675	373.873	0.040	-0.082
-709.660	14.288	0.155	0.121
-708.645	-1.846	-0.203	0.143
-707.631	295.942	-0.083	0.153
-706.616	-200.000	0.002	0.093
-705.602	-56.231	-0.039	-0.018
-704.587	-115.800	-0.062	0.012
-703.572	-18.024	0.309	0.194
-702.558	800.000	-0.051	-0.163
-701.543	-75.055	-0.129	0.046
-700.529	800.000	0.089	0.379
-699.514	-54.046	-0.378	-0.172
-698.499	107.773	-0.131	0.157
-697.485	-198.749	0.331	-0.002
-696.470	-200.000	-0.038	0.194
-695.456	-200.000	-0.045	-0.268
-694.441	45.932	0.279	0.259
-693.426	-200.000	-0.017	-0.152
-692.412	-95.379	-0.131	-0.035
-691.397	26.021	0.148	-0.124
-690.383	6.212	-0.042	0.031
-689.368	489.793	-0.168	0.385
-688.354	-200.000	-0.018	-0.103
-687.339	620.787	-0.107	-0.271
-686.324	-92.076	-0.263	0.075
-685.310	107.146	-0.192	0.229
-684.295	800.000	0.088	0.267
-683.281	171.504	0.048	0.069
-682.266	7.424	-0.139	-0.104
-681.251	-127.745	-0.205	0.030
-680.237	-129.395	-0.194	0.027
-679.222	-137.057	-0.377	-0.043
-678.208	-42.487	0.128	0.065
-677.193	800.000	-0.072	-0.221
-676.178	7.813	0.120	-0.090
-675.164	-200.000	0.002	0.170
-674.149	-200.000	-0.030	-0.198
-673.135	-95.360	0.085	0.023
-672.120	23.645	-0.110	0.091
-671.105	-161.955	0.060	0.003
-670.091	-71.315	0.128	0.048
-669.076	-200.000	0.056	0.301
-668.062	800.000	0.016	0.045
-667.047	134.906	-0.159	0.206
-666.032	800.000	0.122	0.406
-665.018	72.626	-0.036	-0.038
-664.003	52.281	-0.171	-0.164
-662.989	-156.572	0.130	-0.008
-661.974	800.000	-0.049	-0.149
-660.959	-200.000	-0.003	0.147
-659.945	-13.555	-0.222	0.144
-658.930	-149.490	-0.199	0.016
-657.916	-200.000	0.022	-0.126
-656.901	-8.669	-0.275	-0.185
-655.886	4.579	0.072	-0.053
-654.872	418.465	-0.061	0.130
-653.857	-70.157	-0.278	0.106
-652.843	133.458	0.099	0.128
-651.828	323.098	-0.132	-0.253
-650.814	-107.610	-0.130	-0.028
-649.799	-102.613	0.180	0.043
-648.784	-31.399	-0.196	-0.111
-647.770	-52.898	-0.182	-0.084
-646.755	107.460	0.043	-0.052
-645.741	-200.000	0.003	0.426
-644.726	175.892	0.379	0.550
-643.711	800.000	-0.069	-0.238
-642.697	-184.700	-0.309	-0.005
-641.682	-92.780	-0.502	-0.141
-640.668	3.062	-0.126	-0.091
-639.653	696.345	-0.038	-0.099
-638.638	800.000	0.036	0.155
-637.624	-55.054	-0.343	0.154
-636.609	-126.337	-0.085	-0.013
-635.595	-66.575	0.139	-0.055
-634.580	-200.000	-0.020	0.123
-633.565	246.441	-0.099	-0.167
-632.551	23.693	0.065	0.053
-631.536	-57.048	-0.064	0.028
-630.522	-46.694	0.317	-0.155
-629.507	30.523	0.274	-0.235
-628.492	-44.545	-0.218	-0.109
-627.478	-200.000	-0.003	0.338
-626.463	20.651	-0.128	-0.104
-625.449	-48.964	-0.142	-0.068
-624.434	482.275	-0.123	0.281
-623.419	198.222	0.136	-0.208
-622.405	27.864	-0.301	-0.254
-621.390	-200.000	-0.048	-0.224
-620.376	90.636	-0.198	0.221
-619.361	-200.000	0.003	-0.093
-618.346	604.799	0.205	-0.511
-617.332	-83.519	0.042	-0.014
-616.317	-200.000	0.010	-0.116
-615.303	-200.000	-0.019	-0.262
-614.288	-92.458	0.286	-0.080
-613.273	-51.172	-0.301	0.141
-612.259	-200.000	-0.022	0.149
-611.244	-92.040	-0.285	-0.081
-610.230	92.346	-0.132	0.149
-609.215	-30.129	0.150	0.085
-608.201	-87.147	-0.209	0.063
-607.186	-24.351	0.228	-0.136
-606.171	-200.000	-0.012	0.185
-605.157	-16.011	-0.336	0.213
-604.142	800.000	-0.071	-0.257
-603.128	-14.684	0.333	0.214
-602.113	627.354	-0.183	-0.463
-601.098	-146.355	0.191	-0.017
-600.084	12.286	-0.184	-0.141
-599.069	-85.292	-0.154	0.048
-598.055	-98.108	-0.191	0.049
-597.040	172.822	0.041	-0.060
-596.025	50.628	-0.065	0.061
-595.011	382.981	0.053	-0.108
-593.996	-91.731	0.305	0.087
-592.982	800.000	0.127	0.438
-591.967	-13.407	0.223	-0.145
-590.952	97.872	0.351	-0.403
-589.938	96.188	-0.179	-0.204
-588.923	91.333	0.094	0.106
-587.909	121.390	0.121	0.150
-586.894	-21.655	0.419	0.255
-585.879	49.966	0.226	0.213
-584.865	-10.482	0.320	-0.212
-583.850	-14.942	-0.570	0.365
-582.836	800.000	-0.040	0.126
-581.821	-200.000	0.036	0.338
-580.806	-108.522	-0.082	-0.018
-579.792	149.775	0.067	-0.090
-578.777	-43.877	-0.129	-0.065
-577.763	-48.157	0.164	0.079
-576.748	-25.695	0.069	0.041
-575.733	-24.442	-0.173	-0.103
-574.719	-58.147	0.134	0.058
-573.704	-21.419	0.038	0.023
-572.690	-200.000	-0.030	-0.238
-571.675	-200.000	-0.001	0.045
-570.661	-12.725	-0.473	0.307
-569.646	-24.520	-0.308	0.183
-568.631	-200.000	0.017	-0.097
-567.617	-51.982	0.130	0.060
-566.602	-34.726	-0.259	-0.141
-565.588	-129.402	-0.185	0.026
-564.573	-200.000	0.028	-0.122
-563.558	107.161	0.067	0.079
-562.544	800.000	-0.065	-0.261
-561.529	-158.701	-0.260	0.015
-560.515	140.444	-0.131	-0.173
-559.500	-52.412	0.117	-0.054
-558.485	520.717	-0.083	0.194
-557.471	77.972	0.216	-0.230
-556.456	-10.437	0.122	0.081
-555.442	-87.514	-0.548	-0.165
-554.427	59.352	-0.262	0.257
-553.412	417.490	0.089	-0.189
-552.398	800.000	0.017	0.052
-551.383	-1.531	-0.190	0.134
-550.369	-72.377	0.071	-0.026
-549.354	-200.000	-0.028	-0.268
-548.339	-55.146	-0.318	0.143
-547.325	142.903	-0.203	0.269
-546.310	-61.820	0.210	0.088
-545.296	-124.423	0.081	-0.013
-544.281	-122.801	0.163	-0.026
-543.266	128.903	-0.158	0.201
-542.252	-200.000	-0.005	0.157
-541.237	-20.513	0.187	-0.115
-540.223	439.884	0.113	0.245
-539.208	-63.352	-0.219	0.090
-538.193	-86.202	-0.160	0.049
-537.179	623.508	0.149	-0.375
-536.164	157.493	0.161	-0.222
-535.150	-4.474	-0.128	-0.088
-534.135	125.459	-0.031	-0.039
-533.121	348.071	-0.010	-0.020
-532.106	444.162	0.110	0.241
-531.091	-65.836	0.156	-0.062
-530.077	541.935	0.140	-0.333
-529.062	800.000	0.033	-0.104
-528.048	-200.000	0.021	0.142
-527.033	800.000	-0.068	-0.238
-526.018	-172.835	0.227	-0.007
-525.004	57.720	-0.150	0.146
-523.989	-200.000	-0.017	-0.227
-522.975	-132.268	0.211	0.027
-521.960	-170.451	0.117	0.004
-520.945	-200.000	-0.037	0.356
-519.931	-18.171	0.140	-0.087
-518.916	3.165	0.094	-0.068
-517.902	228.792	0.100	-0.163
-516.887	-200.000	-0.036	0.364
-515.872	-200.000	0.034	0.256
-514.858	-164.840	-0.380	-0.017
-513.843	-148.184	0.208	0.017
-512.829	147.754	0.155	-0.208
-511.814	689.709	0.024	-0.063
-510.799	800.000	-0.046	0.171
-509.785	-200.000	-0.052	-0.308
-508.770	171.639	0.008	-0.012
-507.756	81.256	-0.328	-0.353
-506.741	-124.017	0.310	-0.049
-505.726	395.877	-0.077	-0.161
-504.712	-136.636	0.117	0.013
-503.697	-55.621	0.313	0.139
-502.683	86.619	-0.156	0.171
-501.668	22.913	0.199	0.162
-500.653	-200.000	0.035	0.325
-499.639	-26.389	-0.143	-0.084
-498.624	74.317	0.159	-0.166
-497.610	37.654	0.114	0.101
-496.595	-75.349	0.044	0.016
-495.581	-16.000	0.148	-0.094
-494.566	7.564	0.151	0.112
-493.551	-73.528	-0.130	0.047
-492.537	-96.617	-0.087	0.023
-491.522	800.000	0.080	-0.294
-490.508	324.263	-0.166	0.316
-489.493	229.875	0.139	0.225
-488.478	-108.556	0.328	0.070
-487.464	-139.959	0.013	0.001
-486.449	-114.817	-0.194	0.037
-485.435	55.451	-0.201	-0.194
-484.420	-137.207	0.460	0.052
-483.405	-117.644	-0.191	-0.034
-482.391	202.234	0.112	-0.171
-481.376	105.032	0.083	-0.098
-480.362	160.453	-0.095	0.131
-479.347	82.249	0.123	0.133
-478.332	9.851	0.281	0.212
-477.318	-106.692	-0.114	0.025
-476.303	800.000	-0.010	-0.040
-475.289	70.565	-0.076	-0.078
-474.274	-200.000	-0.021	-0.200
-473.259	-114.456	-0.330	-0.063
-472.245	-98.011	-0.228	-0.058
-471.230	-200.000	0.019	-0.082
-470.216	480.047	0.049	-0.111
-469.201	800.000	-0.083	0.270
-468.186	479.190	-0.109	-0.246
-467.172	16.737	0.087	0.069
-466.157	-52.609	0.230	-0.105
-465.143	94.279	0.282	-0.318
-464.128	511.731	-0.135	-0.313
-463.113	-2.194	-0.141	0.098
-462.099	-161.242	-0.392	0.020
-461.084	-136.320	0.336	0.039
-460.070	-200.000	0.033	0.205
-459.055	-63.699	-0.119	-0.049
-458.040	16.086	0.381	0.298
-457.026	-58.322	-0.392	0.169
-456.011	-141.116	-0.145	-0.015
-454.997	66.619	-0.160	0.162
-453.982	-200.000	0.014	-0.119
-452.968	-200.000	-0.016	-0.084
-451.953	312.502	-0.100	0.186
-450.938	-36.340	-0.088	0.047
-449.924	-200.000	0.009	-0.250
-448.909	513.094	0.159	0.368
-447.895	-76.852	-0.141	0.049
-446.880	800.000	0.078	0.228
-445.865	216.965	-0.171	-0.271
-444.851	-156.337	-0.144	0.009
-443.836	64.743	-0.153	0.154
-442.822	296.532	-0.048	-0.087
-441.807	-11.714	0.039	0.026
-440.792	-200.000	0.053	0.247
-439.778	-143.990	0.114	-0.011
-438.763	-22.628	-0.282	-0.170
-437.749	-160.664	0.226	-0.012
-436.734	-134.727	-0.277	0.033
-435.719	-40.301	0.142	0.073
-434.705	-9.847	0.090	0.059
-433.690	39.023	-0.310	-0.275
-432.676	-12.948	-0.176	-0.114
-431.661	-156.117	0.261	-0.016
-430.646	-200.000	0.009	-0.270
-429.632	-200.000	0.007	0.114
-428.617	-73.535	0.097	0.035
-427.603	240.604	-0.144	0.238
-426.588	-180.505	-0.278	-0.006
-425.573	800.000	-0.063	-0.188
-424.559	154.188	-0.129	-0.176
-423.544	-143.909	-0.370	0.035
-422.530	-54.479	0.096	-0.043
-421.515	800.000	0.063	-0.222
-420.500	-110.708	-0.347	-0.071
-419.486	455.922	0.069	-0.151
-418.471	-11.748	0.128	0.084
-417.457	-43.730	0.369	0.184
-416.442	-200.000	0.019	0.249
-415.428	73.089	-0.169	-0.175
-414.413	-9.043	0.047	-0.031
-413.398	13.521	0.333	0.256
-412.384	-109.329	-0.310	-0.065
-411.369	42.582	0.380	-0.343
-410.355	800.000	-0.043	-0.133
-409.340	800.000	-0.035	0.135
-408.325	74.393	0.195	-0.203
-407.311	800.000	0.058	0.186
-406.296	28.162	-0.112	-0.094
-405.282	-79.907	-0.034	-0.011
-404.267	-68.905	0.194	0.074
-403.252	13.092	-0.308	0.236
-402.238	-200.000	0.000	0.028
-401.223	-126.223	-0.309	-0.046
-400.209	481.947	0.076	-0.172
-399.194	317.190	0.043	0.081
-398.179	94.475	-0.156	-0.175
-397.165	-97.512	0.256	-0.066
-396.150	800.000	-0.106	0.318
-395.136	172.718	-0.173	0.246
-394.121	-143.318	-0.208	-0.020
-393.106	-200.000	0.018	-0.192
-392.092	-54.850	0.414	-0.185
-391.077	406.666	0.061	0.128
-390.063	-200.000	0.069	0.365
-389.048	-145.732	0.056	-0.005
-388.033	-121.220	0.070	-0.012
-387.019	-42.324	-0.058	0.029
-386.004	45.507	-0.072	0.066
-384.990	790.046	0.047	-0.127
-383.975	-123.461	0.047	-0.007
-382.960	-119.456	0.226	0.039
-381.946	301.531	-0.107	-0.196
-380.931	-169.417	0.206	0.007
-379.917	166.550	0.061	0.086
-378.902	26.407	-0.243	0.201
-377.888	194.673	-0.112	-0.168
-376.873	800.000	0.178	0.515
-375.858	-56.595	0.179	0.078
-374.844	429.386	-0.188	0.403
-373.829	110.918	-0.101	0.121
-372.815	259.939	-0.073	-0.125
-371.800	-100.318	-0.309	0.076
-370.785	-118.386	-0.103	0.018
-369.771	204.427	0.105	-0.161
-368.756	-91.540	-0.273	-0.077
-367.742	458.169	0.192	-0.422
-366.727	800.000	-0.060	-0.165
-365.712	-200.000	-0.013	0.281
-364.698	27.117	0.162	-0.135
-363.683	198.278	-0.026	0.040
-362.669	209.747	0.156	0.242
-361.654	453.801	-0.181	0.397
-360.639	-42.778	-0.378	0.190
-359.625	-130.076	0.449	-0.061
-358.610	-170.485	0.123	0.004
-357.596	11.368	0.132	-0.100
-356.581	-78.182	0.050	0.017
-355.566	800.000	-0.027	-0.111
-354.552	-16.940	0.288	0.180
-353.537	-200.000	-0.027	0.198
-352.523	-63.388	-0.087	0.035
-351.508	-63.707	0.192	-0.078
-350.493	-85.610	-0.303	0.093
-349.479	166.084	-0.180	-0.253
-348.464	-57.649	-0.264	-0.114
-347.450	-200.000	0.019	0.110
-346.435	-95.609	0.211	-0.056
-345.420	-18.885	0.455	-0.280
-344.406	-46.762	-0.261	-0.126
-343.391	323.443	0.237	-0.447
-342.377	130.483	-0.144	0.183
-341.362	267.498	-0.125	0.217
-340.348	800.000	0.087	-0.247
-339.333	-200.000	0.017	0.341
-338.318	800.000	-0.019	0.063
-337.304	-68.136	0.092	0.035
-336.289	279.909	-0.131	0.231
-335.275	-104.584	0.126	0.029
-334.260	797.486	-0.167	-0.454
-333.245	-51.500	-0.183	-0.084
-332.231	-1.077	0.032	-0.022
-331.216	32.764	0.143	0.123
-330.202	431.070	-0.146	-0.313
-329.187	-152.308	-0.307	-0.022
-328.172	486.971	-0.113	-0.255
-327.158	172.963	-0.047	0.067
-326.143	471.405	-0.077	-0.171
-325.129	-200.000	0.053	-0.313
-324.114	800.000	-0.050	0.167
-323.099	-93.944	-0.129	-0.035
-322.085	-200.000	0.002	-0.338
-321.070	-200.000	0.008	-0.311
-320.056	-72.355	0.271	0.099
-319.041	144.814	0.286	-0.378
-318.026	800.000	-0.069	0.195
-317.012	-14.600	0.058	-0.037
-315.997	-200.000	-0.009	-0.137
-314.983	-154.413	0.408	0.027
-313.968	800.000	-0.044	0.164
-312.953	-137.038	-0.036	0.004
-311.939	581.106	0.117	-0.283
-310.924	-17.177	-0.080	-0.050
-309.910	9.454	0.399	-0.299
-308.895	-129.853	-0.174	-0.024
-307.880	1.221	-0.139	-0.099
-306.866	-200.000	-0.029	0.184
-305.851	55.425	0.061	-0.058
-304.837	-132.896	-0.232	-0.029
-303.822	-64.401	0.232	0.093
-302.807	-114.294	-0.143	-0.027
-301.793	28.445	0.273	-0.228
-300.778	30.910	0.233	0.197
-299.764	179.637	-0.049	-0.071
-298.749	482.109	-0.048	0.107
-297.735	800.000	0.028	-0.120
-296.720	67.225	0.114	0.115
-295.705	-44.578	-0.132	-0.065
-294.691	763.975	-0.104	-0.280
-293.676	770.090	-0.077	0.206
-292.662	-129.545	0.052	-0.007
-291.647	-43.252	-0.116	-0.058
-290.632	-167.917	-0.266	-0.010
-289.618	-118.009	0.178	0.032
-288.603	157.249	0.132	0.180
-287.589	119.321	0.400	0.489
-286.574	-200.000	-0.017	0.087
-285.559	-180.027	0.025	0.001
-284.545	-102.161	-0.325	-0.077
-283.530	-200.000	-0.011	-0.337
-282.516	-80.308	-0.110	0.036
-281.501	-148.802	-0.183	0.015
-280.486	135.188	0.037	0.047
-279.472	-200.000	-0.006	0.414
-278.457	-96.850	0.216	-0.056
-277.443	-200.000	0.001	0.076
-276.428	134.088	0.092	0.118
-275.413	267.723	0.031	-0.054
-274.399	171.676	-0.081	-0.115
-273.384	-115.812	-0.175	-0.032
-272.370	358.219	0.067	0.132
-271.355	800.000	0.064	-0.180
-270.340	-200.000	-0.062	0.393
-269.326	-200.000	0.014	-0.304
-268.311	-79.972	-0.171	-0.057
-267.297	41.836	-0.244	-0.218
-266.282	-42.392	0.319	0.161
-265.267	-178.689	-0.272	0.006
-264.253	-10.142	0.304	0.199
-263.238	-159.821	-0.171	-0.009
-262.224	-12.276	-0.371	-0.239
-261.209	62.316	0.201	-0.197
-260.195	-78.266	-0.090	-0.030
-259.180	-65.416	0.201	0.080
-258.165	377.412	-0.066	-0.133
-257.151	800.000	-0.053	-0.208
-256.136	-9.842	0.229	-0.150
-255.122	94.405	-0.113	0.126
-254.107	-200.000	-0.011	0.067
-253.092	279.504	0.112	-0.196
-252.078	187.808	-0.288	0.424
-251.063	54.533	0.205	0.195
-250.049	-200.000	-0.030	0.246
-249.034	298.095	0.175	0.316
-248.019	-43.127	0.396	0.198
-247.005	-28.626	0.290	-0.165
-245.990	141.456	-0.121	-0.158
-244.976	62.289	-0.163	-0.160
-243.961	-123.529	0.528	-0.083
-242.946	170.963	-0.117	0.166
-241.932	369.529	-0.071	0.142
-240.917	-83.985	0.291	0.091
-239.903	46.052	-0.041	-0.038
-238.888	-101.713	0.332	-0.079
-237.873	250.049	-0.149	0.250
-236.859	-16.688	0.008	0.005
-235.844	-2.947	0.296	-0.204
-234.830	-200.000	-0.019	-0.092
-233.815	112.060	-0.219	0.260
-232.800	124.622	0.157	0.195
-231.786	-200.000	-0.028	0.188
-230.771	-100.253	-0.123	-0.030
-229.757	183.077	-0.093	0.135
-228.742	323.942	-0.055	0.103
-227.727	351.891	-0.203	-0.396
-226.713	-115.830	0.138	0.025
-225.698	-102.344	0.151	0.036
-224.684	-200.000	-0.012	-0.496
-223.669	-91.533	-0.262	-0.073
-222.655	-200.000	0.034	0.314
-221.640	464.262	0.031	-0.067
-220.625	-200.000	0.013	0.091
-219.611	620.848	-0.087	-0.215
-218.596	-200.000	-0.047	-0.000
-217.582	-200.000	0.019	0.091
-216.567	-41.653	-0.124	-0.063
-215.552	-53.817	-0.063	0.028
-214.538	-179.634	0.274	-0.006
-213.523	54.925	-0.085	0.081
-212.509	-37.298	-0.150	-0.079
-211.494	97.492	-0.151	0.170
-210.479	-200.000	-0.025	0.177
-209.465	436.408	0.112	0.239
-208.450	672.582	-0.082	0.209
-207.436	-81.069	-0.036	0.012
-206.421	-200.000	-0.013	0.357
-205.406	-174.145	-0.194	-0.006
-204.392	254.269	0.224	-0.376
-203.377	-200.000	-0.008	-0.175
-202.363	800.000	0.065	-0.183
-201.348	-200.000	0.028	0.121
-200.333	-132.400	0.355	-0.045
-199.319	187.529	-0.074	0.109
-198.304	-200.000	-0.025	-0.142
-197.290	800.000	-0.043	0.151
-196.275	178.290	-0.116	0.166
-195.260	-97.849	0.286	-0.073
-194.246	57.240	0.199	-0.191
-193.231	-200.000	-0.002	-0.376
-192.217	-38.521	0.155	0.080
-191.202	-200.000	0.049	-0.244
-190.187	25.913	0.046	-0.038
-189.173	-200.000	0.009	0.278
-188.158	409.467	-0.100	0.208
-187.144	800.000	-0.047	-0.169
-186.129	9.728	-0.217	0.162
-185.114	-56.900	-0.224	-0.097
-184.100	-28.193	0.082	0.047
-183.085	11.152	0.178	0.134
-182.071	199.706	0.047	-0.070
-181.056	-51.821	-0.075	0.034
-180.042	-136.329	0.310	0.036
-179.027	-176.812	-0.229	0.006
-178.012	147.832	-0.080	-0.106
-176.998	800.000	-0.120	0.474
-175.983	-200.000	-0.016	0.291
-174.969	-200.000	0.000	-0.122
-173.954	162.584	0.060	-0.083
-172.939	800.000	-0.049	-0.169
-171.925	321.802	-0.052	0.097
-170.910	-103.225	0.227	0.053
-169.896	-69.435	0.111	-0.042
-168.881	190.927	-0.063	-0.093
-167.866	-62.218	0.303	0.124
-166.852	272.641	0.039	0.067
-165.837	-147.298	-0.097	-0.008
-164.823	32.482	0.258	0.219
-163.808	-67.853	-0.310	-0.119
-162.793	79.046	0.272	-0.287
-161.779	-200.000	0.010	-0.147
-160.764	800.000	-0.107	-0.391
-159.750	800.000	0.041	-0.136
-158.735	129.517	0.176	0.221
-157.720	-45.605	-0.029	0.014
-156.706	-195.112	0.148	0.001
-155.691	543.425	0.065	-0.152
-154.677	-200.000	-0.055	0.299
-153.662	-137.027	-0.222	-0.025
-152.647	-161.109	0.207	-0.011
-151.633	-71.322	0.272	0.100
-150.618	800.000	0.029	0.121
-149.604	-200.000	0.000	-0.145
-148.589	330.289	0.153	-0.290
-147.574	-200.000	0.006	-0.041
-146.560	179.716	0.050	-0.072
-145.545	-26.487	0.046	0.026
-144.531	249.138	-0.050	0.083
-143.516	613.517	0.054	-0.133
-142.502	307.661	0.090	-0.166
-141.487	-5.199	0.127	-0.086
-140.472	196.840	0.079	-0.118
-139.458	800.000	0.056	0.165
-138.443	8.510	0.308	0.227
-137.429	-150.094	-0.443	0.034
-136.414	-129.752	0.254	-0.034
-135.399	-200.000	0.300	0.001
-134.385	800.000	0.068	-0.191
-133.370	-200.000	-0.121	0.000
-132.356	2.522	0.093	0.066
-131.341	-100.228	0.287	-0.070
-130.326	800.000	0.108	0.321
-129.312	800.000	-0.037	-0.114
-128.297	-200.000	-0.062	0.307
-127.283	707.727	0.057	0.147
-126.268	800.000	0.157	-0.478
-125.253	-200.000	0.030	0.141
-124.239	-137.727	0.133	0.015
-123.224	-36.701	-0.381	0.201
-122.210	-25.992	-0.100	-0.058
