DTS Sentinel unit serial number:	SN413079Multiplexer serial number:	ORYXHardware model number:	OX4-SRSoftware version number:	ORYX F/W v4.00 Oryx Data Collector v3.7.2.0data status	okinstallation	princeton_trtdifferential loss correction	single-endedforward channel	channel 2reverse channel	N/Adate	2019/09/17time	09:59:35forward acquisition time	60.00reverse acquisition time	0.00gamma	496.2192k internal	0.2327k external	0.2327temperature offset calibration	0.9978default loss term (dB/km)	0.3790temperature slope calibration	1.0000multiplexer offset coefficient	1.0000multiplexer slope coefficient	1.0000fibre end	0.00T internal ref (°C)	29.62T ext. ref 1 (°C)	0.18T ext. ref 2 (°C)	25.28length (m)	temperature (°C)	Stokes	anti-Stokes-747.200	800.000	-0.117	-0.341
-746.185	51.720	-0.251	-0.241
-745.171	-34.184	0.228	-0.126
-744.156	-127.744	-0.363	-0.053
-743.142	160.605	0.047	0.066
-742.127	-200.000	0.006	0.136
-741.112	-48.610	0.281	0.136
-740.098	130.063	-0.178	0.230
-739.083	56.248	0.162	0.159
-738.069	186.770	0.111	0.167
-737.054	-200.000	-0.016	0.403
-736.039	-15.433	-0.332	0.213
-735.025	-107.003	0.302	0.067
-734.010	-200.000	-0.054	0.240
-732.996	42.041	-0.298	0.273
-731.981	800.000	-0.040	0.167
-730.966	24.536	0.020	0.017
-729.952	-156.806	-0.386	-0.024
-728.937	478.762	-0.191	-0.435
-727.923	-200.000	0.112	-0.536
-726.908	220.971	-0.031	0.050
-725.894	-107.684	-0.158	0.035
-724.879	-76.578	0.322	0.114
-723.864	-129.502	0.103	-0.014
-722.850	-79.773	-0.082	0.028
-721.835	63.976	0.099	-0.101
-720.821	96.147	0.200	0.230
-719.806	-85.907	-0.398	0.124
-718.791	-72.136	-0.377	-0.141
-717.777	-24.303	0.118	0.071
-716.762	114.787	0.047	0.058
-715.748	800.000	-0.089	-0.259
-714.733	-43.414	-0.215	-0.110
-713.718	-176.621	-0.094	-0.002
-712.704	118.227	0.215	-0.267
-711.689	-136.966	0.090	0.010
-710.675	272.372	-0.076	0.136
-709.660	79.767	0.052	-0.057
-708.645	800.000	0.011	0.032
-707.631	-105.955	0.308	-0.070
-706.616	22.556	0.286	-0.236
-705.602	-40.974	0.260	0.135
-704.587	-176.731	-0.124	-0.003
-703.572	406.041	0.037	0.080
-702.558	-69.975	0.185	0.071
-701.543	-138.313	0.310	-0.034
-700.529	79.030	0.020	0.021
-699.514	-114.455	-0.226	0.044
-698.499	120.389	0.292	-0.365
-697.485	-12.933	-0.084	-0.055
-696.470	-25.120	-0.319	-0.190
-695.456	28.342	-0.198	-0.169
-694.441	-184.261	-0.147	-0.002
-693.426	143.189	0.111	-0.148
-692.412	16.077	0.046	0.037
-691.397	-122.997	-0.525	-0.085
-690.383	-171.122	-0.368	0.013
-689.368	800.000	0.024	-0.097
-688.354	494.611	0.075	0.174
-687.339	186.303	-0.114	-0.171
-686.324	-200.000	-0.027	0.313
-685.310	-94.353	-0.302	-0.083
-684.295	800.000	-0.021	0.071
-683.281	-88.097	-0.240	0.072
-682.266	488.936	0.183	0.421
-681.251	113.443	0.263	0.321
-680.237	-141.191	0.163	0.017
-679.222	64.187	-0.216	-0.219
-678.208	-131.215	0.322	-0.043
-677.193	-182.133	0.128	-0.002
-676.178	46.378	0.147	-0.137
-675.164	-200.000	-0.070	-0.310
-674.149	237.526	0.155	-0.258
-673.135	82.140	-0.009	0.009
-672.120	93.350	0.153	0.174
-671.105	-60.080	-0.122	-0.052
-670.091	273.717	0.144	-0.256
-669.076	800.000	0.044	0.181
-668.062	-128.396	-0.309	-0.044
-667.047	32.849	-0.206	-0.179
-666.032	222.344	-0.113	-0.182
-665.018	-200.000	0.004	0.064
-664.003	-18.259	-0.245	0.154
-662.989	137.241	-0.151	-0.198
-661.974	-68.151	0.090	-0.035
-660.959	-78.561	-0.186	-0.064
-659.945	-200.000	0.013	0.170
-658.930	-136.887	-0.190	0.022
-657.916	244.123	0.086	0.145
-656.901	595.303	0.065	0.162
-655.886	-126.001	0.101	-0.015
-654.872	-147.497	-0.315	-0.027
-653.857	13.048	-0.348	0.271
-652.843	-126.387	-0.040	-0.006
-651.828	-58.289	0.149	-0.065
-650.814	-30.266	-0.119	-0.068
-649.799	-0.542	-0.187	-0.134
-648.784	-200.000	0.021	0.163
-647.770	-88.785	-0.161	0.048
-646.755	136.518	0.051	-0.067
-645.741	-98.609	0.180	0.046
-644.726	-26.390	-0.190	-0.112
-643.711	37.828	-0.068	-0.061
-642.697	800.000	0.002	0.006
-641.682	-75.266	0.187	-0.067
-640.668	-200.000	0.008	-0.052
-639.653	-183.793	-0.100	0.002
-638.638	-200.000	-0.007	0.055
-637.624	800.000	0.045	0.150
-636.609	800.000	0.013	-0.054
-635.595	574.080	0.104	-0.254
-634.580	98.663	-0.072	0.084
-633.565	175.006	0.047	0.069
-632.551	-29.048	0.146	0.084
-631.536	37.912	0.281	-0.250
-630.522	3.779	0.022	0.016
-629.507	30.444	-0.233	0.200
-628.492	-179.551	0.158	-0.003
-627.478	-119.915	-0.216	0.037
-626.463	-64.897	0.123	-0.050
-625.449	-89.195	-0.397	0.118
-624.434	642.124	-0.099	0.253
-623.419	94.326	-0.354	-0.404
-622.405	269.775	-0.080	0.140
-621.390	465.873	-0.145	-0.326
-620.376	29.232	0.130	-0.110
-619.361	-200.000	-0.002	-0.265
-618.346	-52.094	-0.080	0.037
-617.332	230.146	0.191	0.314
-616.317	39.114	0.055	-0.050
-615.303	307.660	-0.137	0.256
-614.288	-6.904	0.235	0.160
-613.273	-88.606	-0.059	0.018
-612.259	-117.542	-0.231	-0.042
-611.244	181.801	0.055	0.082
-610.230	-32.271	0.114	0.064
-609.215	538.446	-0.020	0.048
-608.201	-200.000	0.011	-0.205
-607.186	-200.000	0.008	-0.293
-606.171	158.968	0.171	0.238
-605.157	258.780	0.086	0.148
-604.142	800.000	0.040	0.155
-603.128	-136.114	-0.175	-0.021
-602.113	-129.420	0.177	0.025
-601.098	-39.216	-0.117	-0.061
-600.084	168.115	0.036	-0.051
-599.069	800.000	-0.062	0.198
-598.055	-150.626	-0.143	0.011
-597.040	-200.000	0.002	0.252
-596.025	-73.493	-0.072	-0.026
-595.011	1.721	-0.180	0.130
-593.996	-22.506	-0.223	-0.135
-592.982	29.796	-0.163	0.139
-591.967	682.171	0.041	0.107
-590.952	24.780	0.141	0.117
-589.938	65.139	-0.377	-0.382
-588.923	0.598	-0.142	0.102
-587.909	-152.898	0.464	0.033
-586.894	250.589	-0.199	-0.338
-585.879	131.291	0.037	-0.048
-584.865	-7.348	0.078	0.053
-583.850	-9.138	0.326	-0.218
-582.836	800.000	0.042	0.171
-581.821	66.874	-0.346	0.353
-580.806	-131.699	-0.138	0.018
-579.792	-117.212	0.136	-0.025
-578.777	13.449	0.234	-0.182
-577.763	195.412	0.122	0.185
-576.748	800.000	0.039	-0.119
-575.733	6.654	0.176	-0.131
-574.719	437.741	0.186	-0.407
-573.704	-6.990	0.192	-0.131
-572.690	21.572	-0.093	-0.076
-571.675	631.710	0.077	-0.197
-570.661	-200.000	0.024	0.139
-569.646	800.000	0.024	-0.079
-568.631	800.000	0.028	-0.094
-567.617	-200.000	-0.027	-0.260
-566.602	-30.129	-0.339	0.193
-565.588	800.000	0.055	-0.193
-564.573	-124.076	0.147	0.023
-563.558	800.000	-0.087	-0.352
-562.544	3.702	-0.236	-0.172
-561.529	391.699	-0.157	-0.327
-560.515	-200.000	0.006	-0.425
-559.500	-2.606	-0.262	0.183
-558.485	800.000	-0.048	0.176
-557.471	-60.554	0.371	-0.158
-556.456	99.203	0.069	-0.080
-555.442	800.000	-0.075	-0.224
-554.427	88.546	-0.054	-0.060
-553.412	-200.000	-0.014	-0.139
-552.398	181.011	0.283	-0.417
-551.383	45.446	0.159	0.147
-550.369	227.995	0.024	0.039
-549.354	-63.397	-0.145	-0.060
-548.339	-200.000	-0.112	-0.569
-547.325	87.220	-0.208	-0.230
-546.310	785.739	-0.128	0.351
-545.296	-159.991	-0.270	-0.015
-544.281	-7.578	0.209	0.141
-543.266	-139.338	0.293	0.032
-542.252	195.494	0.151	0.229
-541.237	11.131	-0.107	0.082
-540.223	-72.907	-0.208	0.076
-539.208	50.747	0.015	-0.014
-538.193	-28.750	-0.157	0.090
-537.179	-200.000	-0.008	-0.078
-536.164	-37.800	0.112	-0.060
-535.150	3.816	-0.209	-0.152
-534.135	61.377	0.272	0.270
-533.121	-200.000	0.023	0.238
-532.106	-152.405	-0.207	-0.015
-531.091	-120.491	-0.391	-0.066
-530.077	-67.375	-0.126	0.049
-529.062	-200.000	0.006	-0.199
-528.048	-138.630	0.254	0.028
-527.033	-200.000	0.013	-0.159
-526.018	-74.692	0.076	-0.027
-525.004	362.715	0.125	-0.251
-523.989	-200.000	0.019	-0.180
-522.975	7.510	-0.265	0.198
-521.960	438.114	0.129	0.280
-520.945	-87.213	0.256	0.078
-519.931	603.316	0.108	-0.268
-518.916	69.487	-0.164	0.169
-517.902	800.000	-0.020	-0.085
-516.887	326.789	0.090	0.172
-515.872	-200.000	-0.047	-0.296
-514.858	-48.644	-0.259	0.124
-513.843	-200.000	-0.055	0.243
-512.829	-168.080	-0.127	-0.005
-511.814	-179.661	0.195	0.004
-510.799	477.821	-0.123	-0.278
-509.785	251.999	0.294	-0.500
-508.770	32.267	0.083	0.071
-507.756	64.823	0.275	0.277
-506.741	-60.899	-0.122	0.051
-505.726	800.000	-0.036	0.129
-504.712	-79.660	0.190	0.064
-503.697	12.856	0.198	0.153
-502.683	-200.000	-0.023	0.152
-501.668	-104.562	-0.283	-0.065
-500.653	441.906	-0.087	0.191
-499.639	3.366	-0.261	0.190
-498.624	-103.685	0.030	0.007
-497.610	308.347	0.089	-0.166
-496.595	32.093	-0.185	0.160
-495.581	295.719	-0.101	0.184
-494.566	-122.936	-0.108	0.017
-493.551	8.548	-0.078	-0.059
-492.537	-131.571	-0.110	-0.014
-491.522	-43.266	-0.171	-0.086
-490.508	11.759	0.286	0.220
-489.493	235.506	0.178	0.293
-488.478	32.120	0.111	-0.096
-487.464	800.000	0.028	0.115
-486.449	60.525	-0.088	0.087
-485.435	-200.000	-0.031	-0.171
-484.420	19.666	-0.309	-0.248
-483.405	103.876	-0.211	0.247
-482.391	800.000	-0.016	0.045
-481.376	56.097	-0.173	-0.168
-480.362	-112.959	0.236	0.047
-479.347	-87.698	-0.218	-0.066
-478.332	-200.000	-0.043	-0.221
-477.318	-35.112	0.054	-0.029
-476.303	-84.962	-0.086	0.027
-475.289	-95.060	-0.061	-0.016
-474.274	800.000	-0.029	0.103
-473.259	800.000	0.096	-0.274
-472.245	-30.861	0.069	0.039
-471.230	251.058	-0.155	-0.264
-470.216	800.000	-0.115	0.372
-469.201	-129.612	-0.301	0.041
-468.186	-130.990	-0.075	-0.010
-467.172	-146.645	0.083	0.007
-466.157	-167.312	0.364	0.015
-465.143	78.456	0.051	0.054
-464.128	87.785	0.127	0.140
-463.113	-86.408	0.180	0.055
-462.099	-200.000	0.004	-0.216
-461.084	186.141	0.185	-0.274
-460.070	-21.412	-0.270	-0.164
-459.055	-200.000	0.018	0.217
-458.040	800.000	0.064	-0.252
-457.026	50.881	0.031	0.029
-456.011	-200.000	0.007	0.300
-454.997	198.194	-0.219	-0.334
-453.982	-43.592	0.444	0.223
-452.968	-200.000	-0.047	-0.282
-451.953	16.998	0.093	-0.073
-450.938	-117.952	-0.137	-0.025
-449.924	79.383	-0.227	0.242
-448.909	583.048	0.144	0.351
-447.895	-200.000	-0.013	-0.089
-446.880	-68.975	0.155	-0.060
-445.865	-200.000	0.008	0.134
-444.851	144.449	0.063	-0.084
-443.836	-4.894	-0.143	0.098
-442.822	-48.235	-0.343	-0.165
-441.807	-1.463	-0.233	0.164
-440.792	172.007	-0.234	0.336
-439.778	27.684	0.044	0.037
-438.763	224.902	-0.265	0.426
-437.749	-63.439	0.074	0.030
-436.734	169.277	0.070	-0.100
-435.719	-200.000	0.304	-0.000
-434.705	-200.000	-0.003	0.080
-433.690	-200.000	-0.009	0.116
-432.676	233.837	-0.117	0.191
-431.661	54.850	0.130	0.125
-430.646	605.684	-0.084	0.209
-429.632	-81.318	-0.299	0.098
-428.617	800.000	0.166	-0.465
-427.603	800.000	-0.071	0.197
-426.588	389.794	-0.101	0.209
-425.573	-200.000	0.025	0.221
-424.559	-88.277	-0.093	-0.028
-423.544	-147.833	0.334	0.028
-422.530	-200.000	-0.005	-0.179
-421.515	552.496	-0.112	0.269
-420.500	473.848	0.056	0.127
-419.486	-66.359	0.101	0.040
-418.471	38.607	-0.120	0.106
-417.457	-200.000	0.024	0.131
-416.442	-56.405	0.077	-0.034
-415.428	-53.053	-0.354	0.162
-414.413	51.602	-0.120	0.113
-413.398	-200.000	0.024	-0.131
-412.384	-200.000	0.028	-0.181
-411.369	48.195	0.168	-0.157
-410.355	1.999	0.187	0.134
-409.340	800.000	-0.102	0.396
-408.325	283.998	0.084	0.151
-407.311	-22.247	0.191	-0.115
-406.296	-171.141	-0.381	-0.013
-405.282	-200.000	-0.010	-0.107
-404.267	-67.897	0.149	-0.058
-403.252	-3.308	-0.202	-0.140
-402.238	800.000	-0.054	0.176
-401.223	-89.078	-0.122	0.036
-400.209	-74.417	0.377	-0.135
-399.194	-66.756	0.157	0.062
-398.179	-122.161	0.276	-0.045
-397.165	12.839	-0.167	0.128
-396.150	-157.074	0.119	-0.007
-395.136	133.601	-0.244	0.314
-394.121	398.045	-0.123	0.255
-393.106	-166.266	-0.192	-0.008
-392.092	800.000	0.090	-0.299
-391.077	381.742	0.112	-0.229
-390.063	-53.203	0.217	-0.099
-389.048	92.902	-0.046	0.052
-388.033	-125.311	0.222	0.034
-387.019	-64.929	-0.134	-0.054
-386.004	-152.033	0.304	0.022
-384.990	-7.283	0.328	-0.221
-383.975	84.767	-0.266	0.290
-382.960	-105.483	-0.265	0.060
-381.946	127.959	-0.068	0.086
-380.931	63.071	-0.207	-0.206
-379.917	-131.246	0.081	-0.011
-378.902	-62.200	-0.138	-0.057
-377.888	356.645	-0.140	0.278
-376.873	-200.000	0.018	-0.116
-375.858	660.047	0.100	-0.255
-374.844	-12.493	0.159	-0.103
-373.829	46.274	-0.130	0.120
-372.815	-200.000	0.017	-0.179
-371.800	-48.533	0.308	0.147
-370.785	-75.329	0.146	0.052
-369.771	-200.000	0.028	-0.174
-368.756	800.000	-0.058	-0.201
-367.742	32.694	-0.272	0.233
-366.727	800.000	-0.120	0.358
-365.712	-7.743	0.275	-0.184
-364.698	96.312	-0.136	-0.154
-363.683	388.777	0.162	-0.333
-362.669	-64.281	-0.237	0.096
-361.654	-55.291	0.298	0.133
-360.639	-91.019	-0.157	0.045
-359.625	-6.817	0.058	0.039
-358.610	-200.000	0.014	-0.086
-357.596	-38.012	-0.165	0.087
-356.581	-200.000	0.001	0.092
-355.566	-200.000	-0.102	-0.497
-354.552	-146.580	0.432	-0.037
-353.537	800.000	-0.098	0.354
-352.523	445.150	0.128	-0.280
-351.508	612.636	-0.026	-0.064
-350.493	-130.399	-0.294	-0.039
-349.479	23.972	-0.212	0.174
-348.464	537.014	-0.087	0.205
-347.450	-9.519	-0.128	-0.085
-346.435	-37.638	0.309	0.163
-345.420	-136.795	0.403	0.046
-344.406	348.420	0.070	-0.136
-343.391	-91.288	-0.063	0.018
-342.377	84.940	0.360	-0.392
-341.362	-132.244	-0.071	0.009
-340.348	-78.887	-0.204	-0.069
-339.333	800.000	-0.050	0.212
-338.318	36.285	0.134	-0.117
-337.304	-200.000	0.033	-0.186
-336.289	800.000	-0.040	-0.120
-335.275	-200.000	-0.015	-0.301
-334.260	-63.820	-0.156	-0.064
-333.245	648.914	-0.048	0.122
-332.231	-3.823	-0.052	0.036
-331.216	5.035	-0.027	0.020
-330.202	270.559	-0.094	0.165
-329.187	666.917	-0.013	0.032
-328.172	53.003	-0.103	-0.097
-327.158	518.054	-0.085	0.198
-326.143	30.737	0.095	0.081
-325.129	-62.401	-0.235	0.097
-324.114	800.000	0.035	-0.149
-323.099	-130.938	0.181	-0.024
-322.085	-128.229	0.287	-0.041
-321.070	183.374	0.164	0.241
-320.056	-28.996	0.090	0.051
-319.041	-200.000	-0.000	-0.172
-318.026	-200.000	0.022	-0.254
-317.012	249.857	0.053	0.089
-315.997	107.780	-0.173	0.204
-314.983	-123.924	-0.344	-0.054
-313.968	-156.255	-0.118	0.007
-312.953	97.701	0.099	0.113
-311.939	-29.171	0.186	-0.105
-310.924	800.000	0.038	-0.121
-309.910	-35.415	-0.034	0.018
-308.895	-157.766	-0.480	0.028
-307.880	-115.470	-0.202	-0.038
-306.866	-39.087	0.298	-0.155
-305.851	24.412	-0.077	0.063
-304.837	323.029	0.052	-0.098
-303.822	800.000	-0.146	-0.449
-302.807	94.274	0.240	-0.270
-301.793	115.138	-0.194	-0.235
-300.778	-29.185	-0.247	0.140
-299.764	800.000	0.023	0.077
-298.749	689.686	-0.067	0.175
-297.735	-5.714	0.192	-0.131
-296.720	-196.995	0.103	-0.001
-295.705	152.288	-0.363	0.491
-294.691	-140.284	0.208	-0.022
-293.676	174.152	-0.138	-0.198
-292.662	-41.764	0.290	0.148
-291.647	6.629	-0.172	-0.127
-290.632	-200.000	0.004	0.084
-289.618	800.000	-0.123	-0.386
-288.603	800.000	0.020	0.072
-287.589	248.127	0.087	-0.145
-286.574	-200.000	-0.004	-0.021
-285.559	32.007	-0.082	0.070
-284.545	27.725	0.178	-0.148
-283.530	-200.000	-0.056	-0.333
-282.516	800.000	-0.090	0.265
-281.501	-135.578	-0.201	-0.024
-280.486	-135.269	-0.262	-0.031
-279.472	-119.648	-0.217	0.037
-278.457	0.713	0.165	0.117
-277.443	19.308	0.236	-0.188
-276.428	-94.807	0.209	0.056
-275.413	206.128	-0.132	0.204
-274.399	-200.000	0.002	0.289
-273.384	-178.667	-0.083	0.002
-272.370	-89.502	-0.418	-0.122
-271.355	95.648	0.151	-0.170
-270.340	57.720	0.105	-0.102
-269.326	-118.374	-0.086	-0.015
-268.311	115.811	0.239	0.289
-267.297	-200.000	0.018	-0.121
-266.282	-102.200	0.263	-0.063
-265.267	161.609	-0.124	-0.172
-264.253	-200.000	-0.031	0.259
-263.238	-155.181	0.070	0.005
-262.224	-200.000	0.034	-0.176
-261.209	800.000	0.038	-0.106
-260.195	-1.143	0.066	-0.046
-259.180	-83.976	0.150	0.047
-258.165	-154.529	-0.369	-0.024
-257.151	25.355	0.251	-0.206
-256.136	-99.551	0.407	0.101
-255.122	-62.039	0.109	-0.045
-254.107	7.253	-0.308	0.228
-253.092	535.800	0.163	0.382
-252.078	266.905	-0.169	-0.293
-251.063	-59.049	0.316	0.135
-250.049	-131.132	-0.021	0.003
-249.034	-65.622	0.287	-0.114
-248.019	31.591	-0.197	0.167
-247.005	64.995	-0.133	-0.132
-245.990	500.009	0.061	0.140
-244.976	96.918	0.046	-0.053
-243.961	-37.187	0.294	0.155
-242.946	800.000	0.076	-0.270
-241.932	-72.974	0.292	-0.106
-240.917	109.234	0.268	0.317
-239.903	5.547	0.246	-0.180
-238.888	78.212	-0.119	0.126
-237.873	84.762	-0.071	-0.077
-236.859	800.000	0.123	0.420
-235.844	180.962	-0.257	0.373
-234.830	800.000	-0.015	-0.055
-233.815	-200.000	-0.036	-0.163
-232.800	91.480	-0.229	-0.255
-231.786	7.682	0.239	0.177
-230.771	-151.554	0.121	0.009
-229.757	210.617	-0.063	-0.097
-228.742	-108.589	0.164	-0.035
-227.727	424.627	0.112	-0.237
-226.713	-83.749	-0.252	-0.080
-225.698	800.000	0.076	-0.267
-224.684	-59.055	-0.067	-0.029
-223.669	267.519	0.119	0.205
-222.655	128.733	0.197	0.248
-221.640	-95.280	-0.085	0.022
-220.625	-25.704	-0.092	0.054
-219.611	411.000	-0.091	0.191
-218.596	102.964	0.157	0.181
-217.582	62.426	0.338	-0.333
-216.567	110.168	0.187	0.221
-215.552	20.894	-0.349	-0.279
-214.538	-200.000	0.042	-0.341
-213.523	210.674	0.220	0.342
-212.509	-200.000	-0.013	0.330
-211.494	-52.394	-0.133	-0.061
-210.479	53.072	-0.109	-0.103
-209.465	-37.639	-0.145	0.076
-208.450	-189.455	0.253	0.003
-207.436	10.952	-0.419	-0.316
-206.421	-200.000	0.035	0.239
-205.406	-200.000	-0.039	-0.179
-204.392	-3.007	-0.271	-0.186
-203.377	-200.000	-0.011	0.116
-202.363	-74.722	-0.446	0.158
-201.348	48.711	-0.105	-0.097
-200.333	120.113	-0.119	0.146
-199.319	-200.000	-0.007	-0.126
-198.304	16.275	0.068	-0.053
-197.290	125.576	0.086	0.108
-196.275	-138.469	-0.448	-0.049
-195.260	-79.400	-0.151	0.051
-194.246	143.786	-0.265	-0.348
-193.231	-47.115	0.077	-0.037
-192.217	-86.588	0.189	0.057
-191.202	112.929	0.122	0.146
-190.187	-112.102	0.180	0.036
-189.173	-122.995	-0.142	0.022
-188.158	800.000	-0.075	0.314
-187.144	518.721	0.052	0.121
-186.129	545.598	-0.182	-0.430
-185.114	-200.000	-0.013	0.099
-184.100	64.141	0.221	0.219
-183.085	-200.000	0.092	-0.396
-182.071	-200.000	-0.013	-0.252
-181.056	-200.000	0.018	0.301
-180.042	444.195	0.188	0.406
-179.027	658.416	-0.064	0.162
-178.012	-62.796	0.355	0.145
-176.998	800.000	-0.041	-0.145
-175.983	200.954	0.127	0.193
-174.969	215.419	0.084	0.132
-173.954	-62.179	-0.372	0.153
-172.939	-130.586	0.263	-0.035
-171.925	-59.505	0.320	0.135
-170.910	-200.000	0.007	-0.286
-169.896	-200.000	0.018	0.078
-168.881	191.181	0.120	0.178
-167.866	3.825	0.174	0.125
-166.852	800.000	0.062	-0.184
-165.837	-61.277	-0.025	-0.010
-164.823	-34.770	0.256	-0.138
-163.808	-119.742	0.498	-0.085
-162.793	-142.762	0.188	0.018
-161.779	334.649	0.141	-0.270
-160.764	-0.329	0.127	-0.089
-159.750	137.591	0.130	0.168
-158.735	71.654	0.077	0.078
-157.720	-200.000	-0.010	-0.198
-156.706	800.000	-0.019	-0.065
-155.691	46.449	-0.220	0.201
-154.677	800.000	0.061	0.218
-153.662	-200.000	0.029	0.605
-152.647	35.605	-0.334	-0.289
-151.633	14.578	0.163	-0.125
-150.618	5.896	0.190	-0.139
-149.604	539.251	-0.049	-0.116
-148.589	-96.261	0.179	-0.047
-147.574	596.954	0.067	-0.165
-146.560	-142.348	-0.076	0.007
-145.545	-129.790	-0.163	-0.022
-144.531	141.826	-0.140	-0.182
-143.516	-139.822	0.178	-0.019
-142.502	605.483	0.081	0.198
-141.487	-89.832	-0.216	-0.062
-140.472	-81.823	-0.356	-0.115
-139.458	-83.514	0.064	0.020
-138.443	40.210	-0.034	0.030
-137.429	-153.284	0.171	-0.012
-136.414	-134.563	-0.236	-0.028
-135.399	-152.684	-0.289	0.020
-134.385	198.581	0.059	-0.090
-133.370	-72.763	-0.445	0.161
-132.356	-65.012	-0.228	-0.091
-131.341	371.218	0.027	0.054
-130.326	107.951	-0.113	0.132
-129.312	42.729	0.132	-0.119
-128.297	800.000	0.101	0.297
-127.283	72.744	-0.227	-0.233
-126.268	-200.000	-0.060	0.311
-125.253	-57.408	0.050	0.021
-124.239	-72.835	0.141	-0.051
-123.224	134.899	-0.128	0.163
-122.210	-200.000	-0.020	0.136
-121.195	542.910	-0.180	-0.423
-120.180	800.000	-0.116	0.326
-119.166	137.575	-0.291	0.375
