DTS Sentinel unit serial number:	SN413079Multiplexer serial number:	ORYXHardware model number:	OX4-SRSoftware version number:	ORYX F/W v4.00 Oryx Data Collector v3.7.2.0data status	okinstallation	princeton_trtdifferential loss correction	single-endedforward channel	channel 2reverse channel	N/Adate	2019/09/11time	14:45:10forward acquisition time	60.00reverse acquisition time	0.00gamma	496.2192k internal	0.2289k external	0.2289temperature offset calibration	1.0007default loss term (dB/km)	0.3790temperature slope calibration	1.0000multiplexer offset coefficient	1.0000multiplexer slope coefficient	1.0000fibre end	0.00T internal ref (°C)	42.44T ext. ref 1 (°C)	0.92T ext. ref 2 (°C)	37.48length (m)	temperature (°C)	Stokes	anti-Stokes-747.200	-82.384	0.132	-0.044
-746.185	-200.000	-0.009	-0.364
-745.171	800.000	0.056	-0.185
-744.156	232.773	0.214	0.361
-743.142	-63.180	-0.197	0.083
-742.127	76.349	-0.282	0.306
-741.112	38.097	0.132	0.120
-740.098	105.052	-0.102	0.123
-739.083	149.596	-0.018	-0.025
-738.069	93.084	-0.072	-0.083
-737.054	214.572	-0.149	0.241
-736.039	33.987	0.296	-0.264
-735.025	-129.607	0.258	-0.037
-734.010	25.867	-0.167	0.143
-732.996	-79.397	-0.176	0.061
-731.981	186.975	-0.252	-0.385
-730.966	-200.000	-0.097	0.494
-729.952	-200.000	0.019	0.171
-728.937	81.244	0.116	-0.129
-727.923	239.166	-0.152	-0.259
-726.908	-94.154	-0.555	0.156
-725.894	-200.000	-0.040	-0.247
-724.879	164.381	-0.197	-0.284
-723.864	800.000	-0.110	-0.350
-722.850	-49.503	0.105	0.051
-721.835	152.339	-0.058	-0.081
-720.821	203.162	-0.092	-0.146
-719.806	-28.384	-0.213	0.126
-718.791	-17.136	-0.096	0.062
-717.777	-177.141	-0.083	0.002
-716.762	199.452	0.196	0.308
-715.748	-49.693	-0.241	0.117
-714.733	-79.206	-0.148	-0.051
-713.718	-154.671	-0.216	0.015
-712.704	602.246	0.040	-0.101
-711.689	347.605	-0.047	-0.094
-710.675	511.473	-0.055	-0.131
-709.660	-39.746	0.232	0.124
-708.645	258.324	-0.070	-0.124
-707.631	800.000	0.051	0.165
-706.616	-70.013	0.193	0.075
-705.602	6.264	0.106	-0.081
-704.587	210.961	0.063	-0.101
-703.572	-72.472	0.284	0.107
-702.558	246.416	0.067	-0.116
-701.543	-98.244	-0.209	-0.055
-700.529	-173.632	0.177	-0.005
-699.514	-79.109	-0.338	-0.117
-698.499	-200.000	-0.029	-0.185
-697.485	-30.935	0.064	0.037
-696.470	486.399	-0.095	-0.222
-695.456	633.820	0.108	-0.281
-694.441	235.008	0.163	-0.275
-693.426	41.633	-0.151	0.140
-692.412	-200.000	-0.012	-0.178
-691.397	85.764	-0.114	0.129
-690.383	57.235	0.113	0.113
-689.368	-103.455	0.087	-0.021
-688.354	96.261	0.129	0.151
-687.339	-58.964	-0.072	-0.032
-686.324	-26.839	-0.076	-0.045
-685.310	-104.689	0.141	-0.033
-684.295	103.771	0.195	-0.234
-683.281	-200.000	-0.005	-0.170
-682.266	23.948	-0.183	-0.154
-681.251	-99.942	0.161	-0.041
-680.237	-200.000	-0.003	0.031
-679.222	83.540	0.284	-0.316
-678.208	-23.215	-0.225	0.138
-677.193	800.000	0.038	-0.122
-676.178	-105.524	0.155	0.036
-675.164	28.031	-0.200	0.172
-674.149	80.925	-0.242	-0.266
-673.135	41.517	0.248	0.230
-672.120	125.309	0.068	-0.088
-671.105	-101.784	0.174	-0.043
-670.091	18.038	-0.166	-0.135
-669.076	-122.387	-0.287	-0.048
-668.062	-200.000	-0.023	0.164
-667.047	-77.863	-0.216	-0.076
-666.032	-67.643	0.152	0.061
-665.018	245.633	0.080	-0.137
-664.003	280.909	0.063	0.116
-662.989	-200.000	0.009	0.343
-661.974	86.722	0.159	0.179
-660.959	185.060	0.053	-0.081
-659.945	-95.472	0.314	0.086
-658.930	-50.176	0.086	0.041
-657.916	-183.478	0.214	-0.004
-656.901	-104.008	-0.290	-0.069
-655.886	32.915	0.075	0.066
-654.872	-103.282	-0.238	-0.057
-653.857	-200.000	0.052	-0.235
-652.843	-109.481	0.326	-0.070
-651.828	-14.617	-0.108	0.071
-650.814	209.589	0.209	0.335
-649.799	-200.000	0.005	0.129
-648.784	153.132	-0.106	-0.148
-647.770	800.000	-0.080	-0.242
-646.755	108.747	0.156	0.190
-645.741	99.762	0.072	0.085
-644.726	-145.110	-0.124	-0.012
-643.711	-152.680	0.166	0.012
-642.697	-200.000	-0.011	-0.170
-641.682	-128.758	0.197	-0.028
-640.668	85.951	0.060	-0.068
-639.653	-115.557	-0.024	0.005
-638.638	52.761	0.189	-0.184
-637.624	412.062	0.071	-0.154
-636.609	-149.261	-0.238	-0.019
-635.595	-47.252	0.132	0.065
-634.580	362.881	0.097	-0.198
-633.565	-95.947	-0.044	-0.012
-632.551	237.207	0.195	0.330
-631.536	-142.021	-0.421	0.043
-630.522	-71.859	0.090	0.034
-629.507	34.500	-0.302	0.269
-628.492	-61.528	0.236	-0.101
-627.478	-34.238	0.090	0.050
-626.463	800.000	0.041	0.181
-625.449	294.680	0.045	-0.083
-624.434	-200.000	0.004	-0.053
-623.419	45.900	-0.117	-0.110
-622.405	-58.019	0.091	0.040
-621.390	548.445	0.055	-0.134
-620.376	-98.503	0.034	-0.009
-619.361	120.866	-0.161	0.205
-618.346	-200.000	-0.047	0.212
-617.332	-97.258	0.503	0.134
-616.317	-200.000	-0.015	0.179
-615.303	56.914	0.173	-0.172
-614.288	-115.701	-0.183	0.035
-613.273	6.956	0.174	-0.132
-612.259	-53.668	0.289	-0.134
-611.244	5.283	0.189	0.142
-610.230	712.085	0.135	0.365
-609.215	-30.202	0.103	-0.059
-608.201	-200.000	-0.087	-0.532
-607.186	-200.000	-0.024	-0.165
-606.171	-200.000	-0.040	-0.218
-605.157	-134.966	0.286	-0.035
-604.142	-32.264	-0.166	-0.094
-603.128	-179.067	-0.224	-0.005
-602.113	-71.489	-0.052	0.020
-601.098	800.000	0.016	0.054
-600.084	-200.000	0.022	0.122
-599.069	25.215	-0.188	-0.160
-598.055	-4.327	0.152	-0.107
-597.040	208.690	-0.201	-0.320
-596.025	228.342	-0.146	-0.242
-595.011	800.000	-0.064	-0.247
-593.996	194.657	-0.138	0.213
-592.982	169.706	-0.141	-0.205
-591.967	484.609	0.098	-0.226
-590.952	4.577	-0.098	0.074
-589.938	69.707	0.036	-0.037
-588.923	-184.918	0.262	-0.004
-587.909	-86.376	-0.273	0.086
-586.894	-200.000	0.001	-0.218
-585.879	800.000	-0.031	0.101
-584.865	-40.099	-0.140	-0.074
-583.850	-200.000	-0.014	-0.193
-582.836	192.141	-0.138	-0.212
-581.821	-98.986	-0.169	0.044
-580.806	64.478	0.065	0.066
-579.792	312.755	-0.029	-0.055
-578.777	58.307	0.047	-0.047
-577.763	-200.000	-0.001	-0.218
-576.748	-200.000	0.266	0.000
-575.733	-35.301	-0.125	-0.069
-574.719	268.209	-0.120	0.213
-573.704	54.094	-0.142	0.139
-572.690	800.000	-0.105	0.420
-571.675	253.677	0.196	0.341
-570.661	-200.000	0.033	0.169
-569.646	346.307	-0.090	-0.181
-568.631	800.000	-0.040	0.163
-567.617	260.082	0.054	-0.096
-566.602	800.000	0.062	0.189
-565.588	216.927	0.106	0.171
-564.573	-117.152	-0.188	-0.035
-563.558	118.885	-0.213	-0.268
-562.544	800.000	0.042	-0.121
-561.529	219.708	-0.227	0.369
-560.515	-107.873	-0.209	0.046
-559.500	-200.000	0.030	0.225
-558.485	-110.935	-0.137	-0.029
-557.471	52.555	0.120	-0.117
-556.456	103.662	0.220	-0.262
-555.442	-120.429	-0.096	0.017
-554.427	-200.000	-0.020	-0.161
-553.412	-185.821	-0.026	-0.000
-552.398	-26.282	-0.204	0.122
-551.383	-200.000	-0.023	0.419
-550.369	-139.633	-0.206	-0.022
-549.354	73.229	-0.194	-0.206
-548.339	67.651	0.112	0.116
-547.325	31.292	-0.294	0.257
-546.310	20.918	-0.069	0.057
-545.296	-8.509	-0.052	-0.036
-544.281	-43.113	0.368	-0.189
-543.266	-200.000	-0.042	-0.276
-542.252	-180.224	0.163	0.003
-541.237	-118.729	-0.169	0.030
-540.223	258.872	0.074	-0.130
-539.208	-91.291	-0.302	0.088
-538.193	-50.902	-0.059	-0.028
-537.179	13.979	-0.138	0.109
-536.164	-200.000	0.014	-0.202
-535.150	-56.442	0.198	-0.089
-534.135	134.436	-0.155	-0.204
-533.121	-123.810	-0.292	-0.047
-532.106	36.536	0.231	-0.207
-531.091	-200.000	-0.028	0.427
-530.077	80.163	0.142	-0.156
-529.062	370.821	-0.022	-0.046
-528.048	63.105	0.119	0.121
-527.033	800.000	-0.006	-0.025
-526.018	-126.260	0.283	-0.043
-525.004	800.000	-0.080	-0.271
-523.989	-73.014	-0.030	0.011
-522.975	130.873	0.158	0.206
-521.960	-34.747	-0.142	0.079
-520.945	-143.798	0.201	0.019
-519.931	-200.000	-0.049	0.289
-518.916	163.821	-0.118	-0.168
-517.902	-59.721	0.056	-0.024
-516.887	-22.256	-0.229	-0.141
-515.872	391.626	-0.059	-0.124
-514.858	-141.417	0.184	-0.019
-513.843	169.253	-0.272	-0.394
-512.829	800.000	-0.040	0.127
-511.814	-29.076	0.050	-0.029
-510.799	621.284	-0.123	-0.313
-509.785	-187.145	0.294	-0.004
-508.770	-200.000	-0.005	-0.110
-507.756	-15.258	0.170	0.110
-506.741	-200.000	0.022	0.252
-505.726	-180.621	0.103	-0.002
-504.712	-135.056	-0.238	0.029
-503.697	-200.000	-0.019	0.274
-502.683	715.541	0.036	-0.097
-501.668	-30.091	-0.085	0.049
-500.653	-52.313	-0.179	-0.084
-499.639	-90.641	0.255	-0.075
-498.624	800.000	0.108	-0.361
-497.610	-200.000	-0.035	-0.223
-496.595	357.637	0.048	-0.098
-495.581	800.000	-0.052	-0.183
-494.566	236.434	-0.119	-0.200
-493.551	97.316	0.231	0.269
-492.537	-200.000	-0.020	-0.273
-491.522	800.000	-0.051	-0.159
-490.508	800.000	-0.056	-0.193
-489.493	-160.221	-0.263	0.014
-488.478	-200.000	-0.049	0.455
-487.464	800.000	-0.109	-0.361
-486.449	-37.659	-0.242	-0.131
-485.435	-114.210	-0.175	-0.034
-484.420	228.284	0.023	-0.038
-483.405	-168.844	-0.138	0.005
-482.391	-45.982	0.251	0.126
-481.376	-200.000	0.015	0.177
-480.362	-74.158	0.032	0.012
-479.347	-200.000	-0.061	-0.413
-478.332	-200.000	0.022	-0.243
-477.318	682.943	-0.075	0.198
-476.303	-200.000	0.074	0.399
-475.289	800.000	0.124	0.417
-474.274	-200.000	0.042	0.230
-473.259	800.000	0.078	0.253
-472.245	27.222	-0.112	0.095
-471.230	681.194	-0.034	-0.089
-470.216	58.455	0.117	-0.116
-469.201	73.394	0.382	0.405
-468.186	-200.000	0.015	0.171
-467.172	-70.160	0.166	-0.064
-466.157	32.842	0.188	-0.165
-465.143	5.818	-0.151	0.113
-464.128	136.917	0.110	-0.145
-463.113	543.395	0.026	-0.062
-462.099	157.455	-0.187	-0.263
-461.084	144.282	-0.124	-0.167
-460.070	35.037	-0.175	-0.155
-459.055	-51.669	-0.246	0.116
-458.040	-103.677	-0.122	0.029
-457.026	-200.000	-0.016	0.282
-456.011	207.382	0.169	-0.268
-454.997	5.661	-0.096	-0.072
-453.982	37.811	0.102	0.091
-452.968	742.971	0.037	0.101
-451.953	800.000	0.078	0.288
-450.938	225.542	0.242	-0.398
-449.924	-77.927	-0.324	-0.113
-448.909	186.088	-0.067	0.101
-447.895	129.588	0.276	-0.357
-446.880	65.708	-0.076	0.078
-445.865	-66.331	0.212	-0.085
-444.851	606.259	-0.104	-0.262
-443.836	218.045	-0.025	-0.040
-442.822	-24.748	-0.254	0.153
-441.807	418.921	-0.152	0.329
-440.792	-200.000	-0.007	0.078
-439.778	-28.455	0.064	0.038
-438.763	126.741	0.122	0.157
-437.749	-200.000	-0.009	-0.162
-436.734	800.000	0.055	0.199
-435.719	44.375	-0.209	0.194
-434.705	616.813	0.071	-0.181
-433.690	-144.857	0.456	-0.042
-432.676	-111.859	-0.373	-0.076
-431.661	-74.250	0.183	0.067
-430.646	-40.700	0.279	0.146
-429.632	-2.018	0.080	-0.057
-428.617	-109.042	0.251	-0.054
-427.603	-86.767	-0.125	0.039
-426.588	237.529	-0.023	0.039
-425.573	-6.293	0.276	-0.191
-424.559	-200.000	-0.065	-0.482
-423.544	-70.147	0.070	0.027
-422.530	-132.824	-0.182	0.023
-421.515	374.022	-0.050	-0.103
-420.500	-200.000	0.036	-0.206
-419.486	130.471	-0.280	0.363
-418.471	-62.148	-0.228	0.096
-417.457	-157.447	0.316	-0.019
-416.442	47.198	0.157	0.148
-415.428	-109.958	-0.185	0.039
-414.413	800.000	0.050	0.173
-413.398	396.887	0.051	-0.108
-412.384	26.362	0.297	-0.251
-411.369	132.595	0.136	-0.178
-410.355	236.030	-0.181	-0.303
-409.340	-62.211	0.267	0.113
-408.325	236.003	-0.059	-0.098
-407.311	64.256	-0.174	-0.177
-406.296	-39.307	-0.075	-0.040
-405.282	-56.780	0.364	0.163
-404.267	-115.591	0.428	-0.081
-403.252	35.459	0.195	-0.173
-402.238	-60.695	-0.257	0.110
-401.223	77.397	-0.326	-0.350
-400.209	-56.529	-0.141	0.063
-399.194	29.937	-0.124	-0.107
-398.179	-185.763	0.299	-0.005
-397.165	-200.000	0.008	0.160
-396.150	-58.110	-0.363	0.160
-395.136	209.811	-0.028	0.044
-394.121	800.000	-0.115	-0.431
-393.106	705.749	0.110	0.294
-392.092	-79.919	-0.206	0.070
-391.077	-84.868	0.311	0.099
-390.063	113.642	0.056	0.068
-389.048	-37.502	0.090	0.049
-388.033	-115.731	-0.129	-0.024
-387.019	179.473	0.110	0.163
-386.004	498.425	0.172	0.399
-384.990	-129.478	0.037	-0.005
-383.975	459.555	-0.050	0.113
-382.960	180.210	0.227	0.337
-381.946	48.753	0.231	0.219
-380.931	800.000	0.060	0.255
-379.917	-179.308	-0.295	-0.007
-378.902	-200.000	-0.008	0.408
-377.888	-37.648	0.296	0.159
-376.873	-200.000	0.005	0.483
-375.858	449.223	-0.096	0.214
-374.844	-200.000	-0.012	0.238
-373.829	-1.080	0.174	-0.124
-372.815	-57.895	0.320	0.141
-371.800	190.686	-0.086	-0.130
-370.785	70.688	0.031	0.033
-369.771	141.176	-0.213	0.285
-368.756	155.051	-0.104	0.145
-367.742	-61.722	-0.127	0.054
-366.727	135.306	0.126	-0.166
-365.712	-47.549	-0.396	-0.194
-364.698	409.525	-0.179	-0.384
-363.683	-63.434	-0.169	-0.070
-362.669	-18.552	0.201	-0.127
-361.654	-74.713	-0.143	0.052
-360.639	265.158	0.042	0.074
-359.625	-200.000	0.039	0.435
-358.610	360.291	-0.072	-0.146
-357.596	114.067	-0.347	-0.427
-356.581	-30.327	-0.330	-0.189
-355.566	-157.608	0.225	0.014
-354.552	4.923	0.125	-0.093
-353.537	-161.532	-0.207	0.011
-352.523	-56.007	0.307	-0.138
-351.508	-200.000	0.003	-0.137
-350.493	261.954	-0.034	0.059
-349.479	95.045	-0.038	-0.044
-348.464	129.303	-0.118	0.152
-347.450	-200.000	0.011	-0.105
-346.435	-80.557	-0.170	-0.057
-345.420	-200.000	0.031	-0.306
-344.406	-168.837	0.068	0.003
-343.391	359.678	-0.111	-0.224
-342.377	138.478	-0.285	0.378
-341.362	-56.037	-0.029	0.013
-340.348	-151.837	0.103	0.008
-339.333	-129.716	0.157	0.022
-338.318	-200.000	-0.016	-0.158
-337.304	-138.418	-0.105	0.012
-336.289	80.168	-0.181	0.197
-335.275	-200.000	-0.012	0.398
-334.260	-200.000	-0.017	-0.084
-333.245	299.978	0.057	-0.107
-332.231	-200.000	0.022	0.442
-331.216	800.000	0.126	0.382
-330.202	177.852	0.144	0.212
-329.187	-46.810	-0.211	0.104
-328.172	-200.000	0.019	0.169
-327.158	-111.856	0.131	-0.027
-326.143	-44.491	0.185	0.094
-325.129	-107.430	-0.097	-0.022
-324.114	-70.193	0.197	-0.075
-323.099	194.827	0.124	0.189
-322.085	-116.534	-0.221	0.041
-321.070	-69.409	-0.143	-0.055
-320.056	195.079	0.059	-0.090
-319.041	216.822	-0.211	0.338
-318.026	-76.301	0.239	0.085
-317.012	58.168	-0.078	0.077
-315.997	-46.371	-0.086	0.043
-314.983	147.829	-0.109	-0.148
-313.968	233.701	-0.109	-0.181
-312.953	-116.377	0.166	-0.031
-311.939	-62.650	0.273	-0.114
-310.924	192.036	-0.233	0.354
-309.910	41.925	-0.227	0.208
-308.895	-78.749	0.369	0.127
-307.880	-14.713	0.054	-0.035
-306.866	800.000	0.080	-0.246
-305.851	146.656	-0.311	-0.421
-304.837	112.670	-0.300	-0.366
-303.822	-200.000	-0.006	0.146
-302.807	-156.212	0.558	-0.035
-301.793	-116.429	-0.278	-0.052
-300.778	163.598	0.103	-0.145
-299.764	-100.527	0.101	0.025
-298.749	-170.496	0.201	-0.007
-297.735	800.000	0.087	0.242
-296.720	-131.698	-0.360	0.048
-295.705	-105.628	0.102	-0.023
-294.691	-149.358	-0.384	-0.031
-293.676	255.680	0.112	-0.193
-292.662	-200.000	0.012	0.159
-291.647	154.552	-0.035	-0.048
-290.632	800.000	0.027	0.115
-289.618	116.813	-0.124	-0.153
-288.603	-124.958	-0.159	0.025
-287.589	71.938	-0.158	-0.166
-286.574	-200.000	0.264	-0.001
-285.559	109.376	-0.011	0.013
-284.545	88.808	-0.154	0.173
-283.530	312.980	-0.132	-0.250
-282.516	18.948	0.229	0.185
-281.501	-200.000	0.027	0.162
-280.486	3.978	-0.076	0.056
-279.472	-54.783	0.059	0.027
-278.457	140.683	-0.115	-0.152
-277.443	96.876	0.050	-0.058
-276.428	98.833	0.134	-0.155
-275.413	800.000	-0.038	-0.120
-274.399	-200.000	-0.054	0.390
-273.384	-37.692	0.088	-0.047
-272.370	800.000	-0.031	0.095
-271.355	-117.325	0.258	-0.047
-270.340	-45.070	-0.172	-0.086
-269.326	-200.000	-0.023	-0.141
-268.311	104.512	0.279	-0.330
-267.297	-152.952	-0.239	-0.017
-266.282	-136.056	0.254	-0.030
-265.267	800.000	-0.049	-0.209
-264.253	49.882	-0.228	-0.217
-263.238	-38.090	-0.238	0.127
-262.224	72.708	0.214	0.224
-261.209	107.525	-0.162	-0.194
-260.195	148.943	0.383	-0.521
-259.180	598.815	-0.071	0.178
-258.165	5.901	0.098	-0.073
-257.151	-44.103	0.427	0.216
-256.136	-75.346	-0.165	0.059
-255.122	-93.613	-0.219	0.061
-254.107	-161.732	0.166	0.009
-253.092	800.000	0.072	0.272
-252.078	-130.020	0.311	0.043
-251.063	565.760	0.073	0.178
-250.049	766.731	0.023	0.063
-249.034	-94.455	0.291	-0.080
-248.019	-200.000	0.023	-0.143
-247.005	-200.000	0.082	-0.473
-245.990	228.397	-0.176	0.289
-244.976	177.185	-0.153	0.224
-243.961	800.000	-0.131	-0.436
-242.946	-2.925	-0.103	0.072
-241.932	-124.964	0.174	0.027
-240.917	130.536	0.198	-0.255
-239.903	309.306	0.111	0.209
-238.888	-200.000	0.038	-0.203
-237.873	800.000	-0.067	-0.219
-236.859	-56.567	0.302	0.135
-235.844	-200.000	0.032	0.166
-234.830	18.597	0.209	0.168
-233.815	-132.542	0.208	-0.027
-232.800	1.734	-0.197	0.143
-231.786	-200.000	0.030	-0.234
-230.771	800.000	0.029	-0.090
-229.757	-48.860	-0.161	-0.078
-228.742	56.751	0.124	0.121
-227.727	-72.378	0.154	-0.057
-226.713	0.892	-0.245	0.176
-225.698	-161.032	-0.429	0.023
-224.684	-42.004	0.300	-0.154
-223.669	-1.571	-0.118	-0.084
-222.655	94.033	-0.221	-0.252
-221.640	-99.492	-0.159	-0.040
-220.625	-4.543	-0.175	-0.122
-219.611	256.253	0.067	0.115
-218.596	97.272	-0.145	0.167
-217.582	-200.000	0.072	0.358
-216.567	49.387	-0.139	0.131
-215.552	768.200	-0.097	0.264
-214.538	389.745	-0.036	0.076
-213.523	684.210	-0.062	-0.161
-212.509	-200.000	0.020	-0.207
-211.494	163.343	0.232	0.327
-210.479	-119.162	-0.033	0.006
-209.465	800.000	0.039	0.144
-208.450	5.640	-0.160	-0.118
-207.436	-42.603	0.464	0.237
-206.421	800.000	0.048	-0.145
-205.406	500.286	0.013	0.030
-204.392	2.263	0.079	-0.058
-203.377	-200.000	-0.043	0.445
-202.363	-145.644	0.141	0.013
-201.348	46.471	0.245	-0.228
-200.333	-200.000	0.036	-0.265
-199.319	743.393	-0.124	0.334
-198.304	-200.000	0.020	0.222
-197.290	201.708	-0.137	-0.213
-196.275	-118.977	-0.122	0.022
-195.260	-122.804	0.060	0.010
-194.246	100.270	-0.117	0.136
-193.231	114.592	0.235	0.287
-192.217	52.524	-0.110	-0.106
-191.202	57.395	0.190	-0.186
-190.187	-27.022	-0.415	0.243
-189.173	800.000	0.048	0.151
-188.158	-200.000	-0.022	0.355
-187.144	75.479	-0.224	0.237
-186.129	-200.000	0.017	-0.140
-185.114	186.377	0.097	0.144
-184.100	726.211	0.254	-0.680
-183.085	119.436	0.287	0.356
-182.071	-110.494	-0.110	0.023
-181.056	587.186	-0.120	-0.296
-180.042	129.737	-0.141	0.181
-179.027	49.603	-0.057	-0.054
-178.012	-200.000	-0.002	0.246
-176.998	-200.000	-0.051	-0.237
-175.983	13.159	-0.152	0.118
-174.969	268.651	0.060	-0.105
-173.954	800.000	0.096	0.375
-172.939	-200.000	-0.010	0.214
-171.925	-27.859	0.077	-0.045
-170.910	631.921	-0.032	0.080
-169.896	-135.787	0.174	0.021
-168.881	800.000	0.088	0.307
-167.866	200.321	-0.120	0.185
-166.852	-123.499	-0.274	-0.044
-165.837	148.252	-0.099	-0.134
-164.823	-200.000	0.004	-0.091
-163.808	-38.203	0.300	0.159
-162.793	163.248	-0.122	-0.172
-161.779	-6.844	0.325	-0.221
-160.764	47.910	-0.317	-0.297
-159.750	290.746	-0.087	0.158
-158.735	645.840	-0.027	-0.070
-157.720	-75.076	-0.199	0.071
-156.706	-200.000	0.019	-0.122
-155.691	660.600	0.159	-0.411
-154.677	-0.695	-0.192	-0.136
-153.662	67.376	0.223	-0.228
-152.647	-58.177	0.196	-0.086
-151.633	-200.000	-0.003	-0.090
-150.618	-77.718	0.267	0.093
-149.604	107.824	0.162	-0.193
-148.589	-200.000	-0.013	-0.307
-147.574	-10.190	0.111	-0.074
-146.560	-123.606	-0.034	-0.005
-145.545	387.386	0.140	0.290
-144.531	-102.520	0.084	0.020
-143.516	-82.032	0.122	0.040
-142.502	800.000	0.020	0.086
-141.487	169.091	0.101	0.144
-140.472	3.198	0.044	0.032
-139.458	774.860	0.046	0.125
-138.443	766.246	-0.088	-0.239
-137.429	-121.753	-0.243	0.040
-136.414	-145.242	-0.212	0.019
-135.399	-200.000	0.013	0.132
-134.385	-184.734	-0.236	0.004
-133.370	-129.683	0.115	0.016
-132.356	-200.000	0.015	0.115
-131.341	387.765	0.109	0.225
-130.326	-116.747	0.067	0.012
-129.312	38.783	-0.243	0.217
-128.297	-200.000	0.041	-0.199
-127.283	-188.680	-0.153	-0.002
-126.268	-200.000	0.003	-0.151
-125.253	-200.000	0.000	-0.117
-124.239	-0.727	-0.129	0.091
-123.224	-200.000	-0.006	-0.045
-122.210	163.964	0.076	-0.107
