DTS Sentinel unit serial number:	SN413079Multiplexer serial number:	ORYXHardware model number:	OX4-SRSoftware version number:	ORYX F/W v4.00 Oryx Data Collector v3.7.2.0data status	okinstallation	princeton_trtdifferential loss correction	single-endedforward channel	channel 2reverse channel	N/Adate	2019/09/15time	14:39:35forward acquisition time	60.00reverse acquisition time	0.00gamma	496.2192k internal	0.2297k external	0.2297temperature offset calibration	0.9984default loss term (dB/km)	0.3790temperature slope calibration	1.0000multiplexer offset coefficient	1.0000multiplexer slope coefficient	1.0000fibre end	0.00T internal ref (°C)	39.58T ext. ref 1 (°C)	4.87T ext. ref 2 (°C)	36.83length (m)	temperature (°C)	Stokes	anti-Stokes-747.200	-200.000	-0.012	0.098
-746.185	6.472	0.071	-0.054
-745.171	-174.350	0.208	-0.006
-744.156	800.000	-0.061	0.212
-743.142	52.367	0.168	0.164
-742.127	178.722	0.220	0.328
-741.112	-156.995	0.198	-0.012
-740.098	110.383	-0.099	0.122
-739.083	225.335	0.126	0.208
-738.069	800.000	-0.067	0.262
-737.054	226.733	-0.063	0.104
-736.039	52.569	0.157	-0.153
-735.025	28.816	0.160	-0.138
-734.010	135.608	-0.066	-0.088
-732.996	102.856	-0.067	0.080
-731.981	75.973	-0.147	0.158
-730.966	-47.183	-0.376	-0.187
-729.952	-178.894	-0.284	-0.007
-728.937	56.271	-0.119	-0.118
-727.923	50.739	-0.191	0.185
-726.908	-55.374	-0.146	-0.067
-725.894	217.642	0.052	0.085
-724.879	-200.000	-0.018	-0.100
-723.864	-200.000	-0.008	0.263
-722.850	-200.000	-0.002	0.246
-721.835	-92.044	-0.163	-0.047
-720.821	120.772	0.114	-0.145
-719.806	338.266	-0.136	-0.270
-718.791	799.665	0.174	-0.490
-717.777	60.962	-0.278	-0.282
-716.762	-86.447	-0.136	0.043
-715.748	198.030	-0.193	0.301
-714.733	362.856	-0.102	-0.208
-713.718	328.736	-0.050	0.099
-712.704	100.858	-0.238	-0.283
-711.689	173.848	0.034	0.050
-710.675	-53.358	0.165	-0.077
-709.660	95.840	-0.109	0.127
-708.645	17.847	0.181	0.147
-707.631	-97.974	-0.076	-0.020
-706.616	-57.727	0.203	-0.091
-705.602	479.524	-0.106	0.246
-704.587	800.000	-0.059	0.207
-703.572	-39.918	-0.186	0.099
-702.558	-200.000	0.040	0.333
-701.543	45.946	0.174	-0.164
-700.529	-159.715	0.270	-0.015
-699.514	-32.482	0.360	0.205
-698.499	800.000	-0.069	-0.239
-697.485	-58.858	-0.245	-0.108
-696.470	-114.361	0.303	-0.059
-695.456	565.180	0.076	0.189
-694.441	-15.854	0.265	-0.172
-693.426	205.858	-0.066	0.105
-692.412	-108.324	0.334	-0.073
-691.397	86.407	-0.083	0.093
-690.383	9.725	-0.249	-0.192
-689.368	-200.000	-0.077	-0.401
-688.354	33.586	0.072	0.063
-687.339	800.000	-0.058	-0.199
-686.324	98.449	-0.133	0.157
-685.310	48.015	-0.093	-0.089
-684.295	-69.501	0.147	-0.057
-683.281	198.162	-0.167	0.261
-682.266	-132.366	0.237	0.031
-681.251	-200.000	0.034	-0.421
-680.237	-13.944	0.141	0.093
-679.222	201.051	-0.134	-0.210
-678.208	-36.918	-0.097	0.053
-677.193	89.321	-0.125	0.142
-676.178	-200.000	0.006	-0.305
-675.164	41.554	0.064	-0.059
-674.149	156.210	0.083	0.116
-673.135	-78.240	0.161	-0.056
-672.120	39.973	0.121	-0.111
-671.105	-200.000	-0.055	-0.316
-670.091	205.147	-0.109	0.173
-669.076	-107.638	0.215	-0.048
-668.062	-13.935	0.139	-0.091
-667.047	-127.677	-0.267	-0.039
-666.032	-200.000	-0.003	0.235
-665.018	-33.965	-0.134	0.075
-664.003	13.355	-0.297	-0.235
-662.989	147.823	0.160	-0.219
-661.974	-200.000	0.048	-0.318
-660.959	-101.822	0.055	0.013
-659.945	-45.669	-0.203	-0.102
-658.930	-64.129	0.058	0.024
-657.916	-200.000	0.014	-0.095
-656.901	-200.000	-0.048	-0.291
-655.886	768.430	-0.105	-0.290
-654.872	-57.003	-0.111	0.050
-653.857	89.552	0.258	-0.293
-652.843	-152.197	-0.371	0.027
-651.828	82.321	0.131	-0.144
-650.814	800.000	0.012	0.048
-649.799	-172.229	0.156	-0.005
-648.784	-48.460	0.213	-0.104
-647.770	497.567	0.006	0.014
-646.755	45.258	-0.078	0.073
-645.741	-110.967	0.298	0.062
-644.726	-101.000	-0.173	0.043
-643.711	374.101	-0.175	-0.362
-642.697	7.035	0.388	0.295
-641.682	-72.294	-0.199	-0.075
-640.668	-87.627	0.071	0.022
-639.653	-121.899	0.182	0.031
-638.638	-28.914	-0.186	-0.109
-637.624	33.969	-0.146	0.129
-636.609	-57.028	-0.340	-0.153
-635.595	-67.192	0.197	0.079
-634.580	250.315	-0.094	0.163
-633.565	101.058	-0.056	0.066
-632.551	-61.703	-0.050	-0.021
-631.536	-37.715	-0.150	0.081
-630.522	96.296	0.146	-0.169
-629.507	225.015	0.173	-0.285
-628.492	85.490	0.094	0.105
-627.478	58.295	0.429	-0.428
-626.463	-65.276	-0.126	-0.052
-625.449	-63.945	-0.243	-0.101
-624.434	-5.649	-0.140	0.097
-623.419	-62.894	0.130	-0.055
-622.405	775.931	0.023	0.063
-621.390	-200.000	0.053	-0.239
-620.376	39.703	0.178	0.162
-619.361	81.468	0.173	0.190
-618.346	-200.000	-0.015	-0.292
-617.332	-40.742	-0.319	-0.168
-616.317	15.581	0.177	-0.141
-615.303	103.191	0.098	0.117
-614.288	81.693	-0.034	-0.038
-613.273	-61.751	-0.339	0.145
-612.259	-60.827	-0.188	0.081
-611.244	800.000	-0.076	0.263
-610.230	-133.222	0.188	-0.024
-609.215	800.000	-0.050	0.173
-608.201	212.802	0.184	-0.295
-607.186	-169.354	0.152	-0.006
-606.171	-154.920	0.373	-0.025
-605.157	-18.777	0.249	-0.158
-604.142	6.867	-0.265	0.200
-603.128	137.609	0.100	-0.133
-602.113	800.000	-0.033	0.091
-601.098	-125.817	-0.081	-0.012
-600.084	-48.274	0.066	0.032
-599.069	-144.113	-0.193	0.018
-598.055	800.000	0.112	-0.423
-597.040	178.681	-0.121	0.179
-596.025	-92.583	0.086	-0.025
-595.011	800.000	-0.070	-0.248
-593.996	141.064	-0.214	-0.287
-592.982	-40.724	-0.190	0.100
-591.967	-170.347	-0.347	-0.012
-590.952	38.803	0.074	-0.067
-589.938	-200.000	0.094	-0.614
-588.923	-200.000	-0.018	-0.122
-587.909	343.374	0.043	-0.085
-586.894	82.309	-0.179	0.197
-585.879	131.127	-0.042	0.055
-584.865	156.879	0.042	0.059
-583.850	-79.962	0.084	0.029
-582.836	6.811	-0.255	0.192
-581.821	82.103	-0.016	-0.018
-580.806	800.000	0.172	0.506
-579.792	-82.704	0.431	-0.141
-578.777	52.534	-0.209	-0.202
-577.763	800.000	0.092	0.292
-576.748	-146.833	-0.165	-0.014
-575.733	800.000	0.053	0.198
-574.719	785.346	-0.058	-0.161
-573.704	148.026	-0.320	-0.438
-572.690	-139.917	-0.194	-0.021
-571.675	4.812	0.181	-0.135
-570.661	706.188	-0.041	-0.109
-569.646	186.001	-0.098	-0.147
-568.631	-200.000	-0.027	-0.383
-567.617	-200.000	-0.012	-0.326
-566.602	-197.402	0.264	-0.002
-565.588	-200.000	0.012	0.078
-564.573	-200.000	0.014	-0.266
-563.558	-135.003	0.151	-0.018
-562.544	800.000	-0.018	-0.070
-561.529	-111.360	-0.147	0.030
-560.515	-173.835	-0.256	0.008
-559.500	-200.000	-0.022	0.114
-558.485	800.000	0.068	-0.276
-557.471	28.495	0.343	0.294
-556.456	-17.153	-0.385	-0.246
-555.442	-1.368	-0.187	0.134
-554.427	180.400	-0.190	-0.282
-553.412	669.295	0.049	0.130
-552.398	-152.233	0.179	-0.013
-551.383	350.486	0.175	-0.351
-550.369	47.475	0.335	-0.316
-549.354	-79.547	-0.637	-0.218
-548.339	-177.451	-0.208	0.005
-547.325	-19.366	0.065	-0.041
-546.310	-24.474	0.195	-0.118
-545.296	517.200	0.123	-0.292
-544.281	238.157	0.118	0.198
-543.266	-74.586	0.121	-0.044
-542.252	24.605	0.119	-0.100
-541.237	-104.242	-0.082	-0.019
-540.223	-34.740	0.204	0.113
-539.208	-71.992	-0.190	0.072
-538.193	476.183	-0.113	0.259
-537.179	-82.768	0.531	0.174
-536.164	748.033	-0.023	0.063
-535.150	-161.836	-0.226	-0.012
-534.135	800.000	-0.036	0.138
-533.121	334.051	-0.180	0.354
-532.106	159.420	-0.205	-0.289
-531.091	-200.000	0.015	-0.216
-530.077	-5.123	0.183	-0.127
-529.062	-46.578	-0.162	0.080
-528.048	-103.288	-0.249	-0.060
-527.033	-40.115	-0.227	0.120
-526.018	-133.289	0.119	-0.015
-525.004	-73.246	-0.121	-0.045
-523.989	25.311	-0.233	0.196
-522.975	-200.000	0.013	0.161
-521.960	-79.201	-0.077	-0.026
-520.945	148.891	-0.125	0.171
-519.931	-130.027	-0.072	0.010
-518.916	-74.514	-0.060	-0.022
-517.902	-200.000	-0.035	-0.162
-516.887	-131.837	-0.275	0.036
-515.872	-200.000	0.021	-0.217
-514.858	-147.218	-0.222	0.019
-513.843	730.813	0.091	0.245
-512.829	255.268	0.061	0.106
-511.814	7.487	-0.060	-0.046
-510.799	-91.549	0.394	-0.114
-509.785	-74.658	-0.241	-0.088
-508.770	-200.000	0.010	-0.072
-507.756	800.000	0.101	-0.322
-506.741	52.013	0.285	-0.274
-505.726	-78.951	-0.535	-0.184
-504.712	120.790	-0.107	-0.134
-503.697	-69.072	0.007	-0.003
-502.683	-200.000	-0.046	-0.263
-501.668	-200.000	0.031	0.247
-500.653	-125.470	0.254	-0.039
-499.639	-107.168	-0.140	-0.031
-498.624	78.359	0.126	0.136
-497.610	-65.241	-0.286	-0.117
-496.595	-200.000	0.001	-0.310
-495.581	-200.000	0.017	-0.139
-494.566	-200.000	0.053	0.400
-493.551	-77.497	0.220	0.077
-492.537	-102.365	0.061	0.015
-491.522	-104.034	-0.245	0.058
-490.508	-44.793	-0.449	-0.227
-489.493	75.281	-0.090	-0.096
-488.478	-63.147	0.210	-0.088
-487.464	800.000	-0.090	0.272
-486.449	-124.538	-0.315	0.049
-485.435	-24.060	0.114	0.069
-484.420	18.665	-0.081	-0.065
-483.405	36.202	-0.144	0.129
-482.391	-125.594	0.318	0.049
-481.376	-63.448	0.061	0.025
-480.362	-60.523	-0.108	-0.046
-479.347	-82.578	0.258	0.085
-478.332	115.256	0.219	0.270
-477.318	-127.275	-0.414	0.061
-476.303	-135.796	0.172	-0.021
-475.289	-49.499	-0.175	0.084
-474.274	-67.321	-0.304	0.121
-473.259	-146.802	-0.044	0.004
-472.245	-77.762	0.298	-0.104
-471.230	-123.142	0.255	-0.041
-470.216	-86.590	-0.192	0.060
-469.201	800.000	-0.160	0.494
-468.186	398.277	-0.153	-0.324
-467.172	166.645	0.180	-0.258
-466.157	-145.068	0.229	0.021
-465.143	-200.000	-0.031	0.220
-464.128	-200.000	0.004	0.037
-463.113	800.000	-0.073	0.214
-462.099	10.120	0.355	-0.272
-461.084	-200.000	-0.031	-0.195
-460.070	-200.000	0.028	-0.170
-459.055	-200.000	-0.001	0.124
-458.040	201.719	-0.249	-0.388
-457.026	-200.000	0.033	0.211
-456.011	-200.000	-0.047	-0.239
-454.997	-200.000	0.021	-0.186
-453.982	271.343	-0.132	-0.235
-452.968	42.338	0.253	0.232
-451.953	-167.552	0.084	0.003
-450.938	800.000	-0.024	-0.104
-449.924	-57.446	0.216	0.096
-448.909	-200.000	0.015	-0.135
-447.895	193.345	-0.178	0.272
-446.880	525.963	0.013	-0.031
-445.865	302.865	-0.095	-0.178
-444.851	-25.127	-0.242	0.145
-443.836	-55.198	-0.220	0.100
-442.822	67.522	0.153	-0.158
-441.807	98.543	0.114	0.133
-440.792	30.193	0.080	-0.069
-439.778	-200.000	-0.054	-0.316
-438.763	65.343	0.118	-0.120
-437.749	800.000	-0.013	-0.046
-436.734	90.452	-0.098	0.111
-435.719	-37.291	0.110	0.059
-434.705	373.214	0.123	-0.252
-433.690	521.089	0.050	-0.118
-432.676	16.637	0.235	-0.188
-431.661	-118.440	-0.152	0.027
-430.646	-200.000	0.057	-0.272
-429.632	-200.000	-0.016	-0.146
-428.617	-36.628	-0.190	0.103
-427.603	172.850	-0.143	-0.208
-426.588	-3.236	0.326	-0.229
-425.573	-200.000	0.067	0.400
-424.559	45.848	0.127	-0.119
-423.544	-87.442	-0.216	-0.066
-422.530	-128.009	-0.101	-0.015
-421.515	-68.364	0.120	-0.047
-420.500	-52.830	-0.264	0.123
-419.486	-88.129	-0.161	-0.049
-418.471	162.165	0.094	-0.133
-417.457	800.000	-0.107	0.372
-416.442	800.000	-0.069	0.275
-415.428	93.979	0.046	0.052
-414.413	26.670	0.156	-0.132
-413.398	-200.000	-0.039	0.302
-412.384	-10.271	-0.068	0.046
-411.369	-0.482	-0.197	-0.141
-410.355	-174.060	0.306	0.009
-409.340	-140.702	0.157	0.016
-408.325	102.915	-0.228	-0.269
-407.311	19.900	-0.179	0.145
-406.296	-80.354	0.287	0.097
-405.282	-15.724	0.220	-0.142
-404.267	800.000	0.021	-0.089
-403.252	13.831	-0.137	-0.107
-402.238	283.552	-0.165	0.299
-401.223	800.000	-0.051	0.204
-400.209	-91.628	0.210	0.060
-399.194	-200.000	0.004	0.042
-398.179	-166.080	-0.126	-0.005
-397.165	-41.967	-0.327	0.169
-396.150	230.178	0.102	-0.167
-395.136	145.957	0.095	0.128
-394.121	6.464	0.273	0.205
-393.106	800.000	-0.010	0.038
-392.092	-168.255	-0.402	-0.016
-391.077	461.379	0.071	0.159
-390.063	283.133	0.171	0.309
-389.048	174.765	0.111	-0.162
-388.033	-161.111	-0.296	0.016
-387.019	-162.934	-0.236	0.012
-386.004	-102.454	-0.221	0.053
-384.990	-200.000	0.036	0.427
-383.975	800.000	-0.056	0.221
-382.960	-28.975	0.209	0.121
-381.946	-118.026	-0.416	0.075
-380.931	-62.630	-0.163	-0.068
-379.917	519.778	0.139	-0.328
-378.902	-18.004	0.034	-0.022
-377.888	800.000	-0.009	-0.038
-376.873	433.114	0.027	0.059
-375.858	800.000	0.023	-0.069
-374.844	109.124	-0.074	0.089
-373.829	-28.063	0.325	0.190
-372.815	243.570	-0.063	0.107
-371.800	-200.000	-0.032	0.191
-370.785	96.186	-0.136	-0.157
-369.771	-134.225	-0.412	-0.051
-368.756	-87.248	-0.169	0.052
-367.742	452.164	-0.129	-0.287
-366.727	100.558	0.208	-0.244
-365.712	-200.000	-0.058	-0.269
-364.698	26.390	-0.335	0.282
-363.683	396.598	-0.155	0.325
-362.669	14.821	0.237	-0.187
-361.654	-200.000	0.029	0.129
-360.639	-200.000	0.030	0.162
-359.625	41.323	-0.106	0.096
-358.610	-68.194	0.466	-0.182
-357.596	-200.000	0.035	-0.350
-356.581	87.624	-0.263	0.293
-355.566	800.000	0.096	0.379
-354.552	-73.943	0.100	0.036
-353.537	-31.463	0.294	0.166
-352.523	167.516	0.119	0.170
-351.508	18.375	0.230	-0.185
-350.493	-130.140	0.229	0.031
-349.479	800.000	-0.057	-0.187
-348.464	-80.383	0.197	0.066
-347.450	56.041	-0.088	0.086
-346.435	-38.705	0.366	0.194
-345.420	-136.665	-0.254	-0.029
-344.406	12.193	-0.265	-0.205
-343.391	117.680	-0.111	0.138
-342.377	-88.390	-0.113	-0.034
-341.362	233.254	-0.062	-0.102
-340.348	92.258	-0.116	-0.132
-339.333	53.316	0.180	-0.174
-338.318	88.975	-0.130	-0.145
-337.304	22.849	0.184	-0.152
-336.289	-17.498	-0.177	0.112
-335.275	-200.000	0.012	0.185
-334.260	-28.452	-0.133	0.077
-333.245	-200.000	-0.007	-0.040
-332.231	109.007	0.046	0.055
-331.216	51.982	-0.265	-0.254
-330.202	-117.177	0.237	-0.043
-329.187	-118.430	0.232	0.041
-328.172	-190.193	0.091	0.001
-327.158	-78.497	-0.217	-0.075
-326.143	800.000	-0.102	-0.324
-325.129	136.829	0.131	0.172
-324.114	29.502	-0.073	-0.063
-323.099	172.171	0.096	-0.139
-322.085	-4.579	0.371	-0.257
-321.070	76.174	0.328	-0.348
-320.056	-3.237	0.205	0.143
-319.041	-200.000	0.024	0.129
-318.026	800.000	0.056	-0.165
-317.012	104.443	-0.118	-0.140
-315.997	-200.000	-0.058	-0.257
-314.983	26.229	0.297	-0.249
-313.968	800.000	-0.033	-0.098
-312.953	-150.427	0.325	0.025
-311.939	-200.000	0.034	-0.150
-310.924	800.000	-0.117	0.392
-309.910	-107.266	-0.229	0.050
-308.895	5.659	-0.159	0.118
-307.880	3.310	-0.099	-0.072
-306.866	86.222	-0.141	0.156
-305.851	-117.429	0.177	-0.032
-304.837	10.640	-0.076	0.058
-303.822	258.839	0.030	0.052
-302.807	800.000	0.048	0.185
-301.793	-200.000	-0.040	-0.191
-300.778	-156.395	-0.304	-0.019
-299.764	800.000	0.087	0.359
-298.749	321.234	0.047	0.090
-297.735	86.462	-0.052	-0.057
-296.720	2.985	0.322	-0.235
-295.705	-49.162	0.048	0.023
-294.691	-65.456	-0.145	0.058
-293.676	356.258	0.120	-0.240
-292.662	-200.000	0.017	0.169
-291.647	172.341	-0.062	0.089
-290.632	178.873	0.160	0.234
-289.618	241.232	-0.189	-0.316
-288.603	-116.078	0.127	0.024
-287.589	-41.552	-0.104	-0.054
-286.574	800.000	0.092	-0.269
-285.559	103.166	0.121	0.142
-284.545	176.107	0.175	-0.255
-283.530	476.497	0.061	0.138
-282.516	-93.764	0.159	-0.044
-281.501	-200.000	-0.020	-0.247
-280.486	-200.000	-0.007	0.175
-279.472	451.301	-0.054	0.120
-278.457	334.028	0.097	0.189
-277.443	193.680	-0.109	0.165
-276.428	-5.678	-0.144	-0.099
-275.413	-69.991	0.121	-0.046
-274.399	-103.582	-0.283	0.067
-273.384	32.831	0.193	-0.167
-272.370	-111.883	-0.234	0.047
-271.355	77.065	-0.129	0.138
-270.340	370.139	0.058	0.117
-269.326	800.000	-0.102	0.396
-268.311	427.995	-0.067	-0.145
-267.297	-200.000	-0.028	0.175
-266.282	6.506	0.189	0.140
-265.267	-174.308	-0.221	-0.006
-264.253	453.689	0.011	-0.023
-263.238	-200.000	-0.032	0.419
-262.224	-57.472	-0.155	0.068
-261.209	404.716	-0.119	0.251
-260.195	1.583	0.200	0.144
-259.180	48.898	-0.082	-0.078
-258.165	310.157	-0.037	0.070
-257.151	63.072	-0.126	-0.126
-256.136	-43.529	0.163	0.083
-255.122	38.272	0.137	-0.122
-254.107	108.357	0.147	0.176
-253.092	-11.424	0.211	0.139
-252.078	-200.000	-0.047	0.210
-251.063	-85.125	0.243	0.076
-250.049	-125.683	-0.353	0.054
-249.034	201.671	0.110	-0.170
-248.019	282.650	0.107	-0.193
-247.005	-200.000	-0.010	-0.262
-245.990	-12.632	-0.274	-0.179
-244.976	416.969	0.221	0.473
-243.961	34.548	0.298	-0.261
-242.946	-200.000	0.077	0.337
-241.932	248.500	-0.099	0.167
-240.917	-114.751	0.295	0.056
-239.903	-20.017	0.142	0.088
-238.888	-91.916	-0.065	0.018
-237.873	194.566	0.076	0.116
-236.859	4.644	0.049	-0.036
-235.844	-72.511	0.365	0.135
-234.830	-141.672	-0.205	-0.021
-233.815	-200.000	-0.037	0.220
-232.800	-200.000	0.004	0.088
-231.786	323.909	0.077	-0.147
-230.771	-200.000	0.015	-0.067
-229.757	800.000	0.079	0.307
-228.742	0.459	-0.151	0.108
-227.727	100.264	-0.242	0.281
-226.713	585.351	-0.129	0.317
-225.698	84.727	0.190	0.209
-224.684	-200.000	-0.018	0.218
-223.669	8.541	-0.260	0.195
-222.655	159.236	0.125	0.174
-221.640	800.000	0.052	-0.226
-220.625	800.000	-0.018	-0.077
-219.611	-106.300	0.194	-0.043
-218.596	-200.000	-0.004	-0.214
-217.582	482.443	0.221	0.502
-216.567	778.980	0.110	0.301
-215.552	-173.856	-0.543	-0.016
-214.538	-63.416	-0.187	-0.077
-213.523	-100.674	0.182	0.045
-212.509	-38.925	0.108	0.057
-211.494	800.000	-0.080	-0.327
-210.479	-148.770	0.249	0.020
-209.465	-200.000	-0.036	0.251
-208.450	118.633	-0.054	0.066
-207.436	545.744	0.061	0.146
-206.421	-132.053	0.229	0.030
-205.406	80.217	0.283	-0.305
-204.392	-181.932	0.189	-0.004
-203.377	-49.409	0.235	-0.112
-202.363	395.561	-0.060	-0.125
-201.348	116.589	0.144	-0.177
-200.333	349.699	0.162	0.320
-199.319	-117.733	0.276	0.050
-198.304	-78.553	0.147	0.050
-197.290	-7.998	-0.051	-0.034
-196.275	-5.361	-0.142	0.097
-195.260	-51.567	0.322	-0.150
-194.246	-200.000	-0.049	0.363
-193.231	-151.248	-0.259	-0.019
-192.217	12.045	-0.323	-0.248
-191.202	172.879	-0.153	-0.220
-190.187	-15.085	0.192	-0.123
-189.173	3.715	0.059	0.043
-188.158	177.617	0.148	0.216
-187.144	-200.000	-0.015	0.419
-186.129	800.000	0.008	0.035
-185.114	376.785	0.126	0.257
-184.100	800.000	0.039	0.109
-183.085	435.488	0.050	-0.109
-182.071	800.000	-0.049	-0.198
-181.056	326.273	-0.119	-0.228
-180.042	260.647	-0.217	-0.374
-179.027	-67.991	0.197	-0.077
-178.012	658.656	-0.042	0.108
-176.998	-200.000	-0.001	0.176
-175.983	202.034	-0.207	-0.318
-174.969	205.845	0.049	0.076
-173.954	-70.835	0.253	0.095
-172.939	800.000	-0.064	0.222
-171.925	-200.000	-0.010	0.156
-170.910	800.000	0.078	0.291
-169.896	-180.289	0.037	-0.001
-168.881	-200.000	-0.023	0.179
-167.866	-129.089	0.043	-0.006
-166.852	-44.198	0.156	-0.078
-165.837	-149.572	0.230	-0.018
-164.823	164.886	-0.101	-0.142
-163.808	287.526	-0.115	0.207
-162.793	452.138	0.097	-0.215
-161.779	121.939	-0.148	-0.185
-160.764	-200.000	0.001	0.067
-159.750	22.545	-0.312	0.255
-158.735	-200.000	-0.015	0.198
-157.720	69.626	-0.105	-0.108
-156.706	-200.000	0.050	-0.220
-155.691	588.774	0.112	0.274
-154.677	-200.000	0.022	-0.133
-153.662	366.110	0.072	-0.145
-152.647	332.969	-0.097	-0.187
-151.633	-189.560	-0.319	0.004
-150.618	0.148	0.305	-0.217
-149.604	-200.000	-0.012	-0.059
-148.589	-162.286	-0.187	0.009
-147.574	-112.945	-0.120	-0.024
-146.560	34.779	0.144	-0.126
-145.545	479.425	0.036	-0.081
-144.531	-200.000	0.046	0.325
-143.516	-200.000	0.263	-0.001
-142.502	-130.067	-0.077	0.011
-141.487	-200.000	0.020	0.329
-140.472	800.000	0.035	0.108
-139.458	-200.000	0.001	-0.131
-138.443	-85.059	0.173	-0.054
-137.429	34.301	-0.126	-0.109
-136.414	254.856	0.137	0.234
-135.399	-200.000	0.046	0.210
-134.385	-106.411	0.192	-0.043
-133.370	-122.830	0.246	0.040
-132.356	-77.473	0.326	-0.113
-131.341	425.818	0.042	0.089
-130.326	616.073	0.061	0.152
-129.312	45.233	0.121	0.111
-128.297	-84.460	-0.180	0.057
-127.283	89.543	-0.291	-0.323
-126.268	-200.000	0.018	-0.409
-125.253	800.000	-0.082	0.274
-124.239	-200.000	-0.004	0.111
-123.224	171.498	-0.212	0.303
-122.210	441.919	-0.061	-0.134
-121.195	485.689	0.048	0.109
-120.180	-28.755	0.356	-0.204
