DTS Sentinel unit serial number:	SN413079Multiplexer serial number:	ORYXHardware model number:	OX4-SRSoftware version number:	ORYX F/W v4.00 Oryx Data Collector v3.7.2.0data status	okinstallation	princeton_trtdifferential loss correction	single-endedforward channel	channel 2reverse channel	N/Adate	2019/09/16time	05:31:35forward acquisition time	60.00reverse acquisition time	0.00gamma	496.2192k internal	0.2335k external	0.2335temperature offset calibration	0.9977default loss term (dB/km)	0.3790temperature slope calibration	1.0000multiplexer offset coefficient	1.0000multiplexer slope coefficient	1.0000fibre end	0.00T internal ref (°C)	27.28T ext. ref 1 (°C)	11.14T ext. ref 2 (°C)	22.11length (m)	temperature (°C)	Stokes	anti-Stokes-747.200	300.607	0.035	0.064
-746.185	-74.000	-0.046	0.017
-745.171	-30.701	-0.218	0.124
-744.156	-81.440	-0.402	0.133
-743.142	800.000	0.009	0.031
-742.127	800.000	-0.028	0.093
-741.112	0.122	-0.105	-0.075
-740.098	-81.991	-0.051	-0.017
-739.083	800.000	-0.047	-0.157
-738.069	134.453	-0.189	0.246
-737.054	-35.269	0.160	0.088
-736.039	-43.404	0.018	0.009
-735.025	129.300	0.134	0.171
-734.010	-148.419	-0.443	0.037
-732.996	50.431	-0.202	-0.192
-731.981	-27.465	-0.487	-0.284
-730.966	-200.000	0.002	0.094
-729.952	-87.364	-0.115	0.035
-728.937	46.902	-0.244	0.228
-727.923	175.579	-0.149	-0.218
-726.908	800.000	-0.049	-0.206
-725.894	314.917	0.066	-0.125
-724.879	-34.137	0.162	-0.089
-723.864	-200.000	0.018	-0.087
-722.850	-104.676	-0.232	0.054
-721.835	-107.788	-0.056	0.012
-720.821	-165.407	-0.387	-0.017
-719.806	-200.000	0.059	-0.309
-718.791	-200.000	0.000	-0.066
-717.777	-200.000	-0.016	-0.152
-716.762	17.336	-0.243	-0.194
-715.748	-106.759	0.304	0.068
-714.733	-90.684	0.266	-0.077
-713.718	-7.876	0.006	-0.004
-712.704	167.177	0.027	-0.038
-711.689	-20.548	0.299	0.185
-710.675	282.472	0.039	-0.070
-709.660	-179.762	-0.313	-0.007
-708.645	444.351	0.065	-0.144
-707.631	-3.153	-0.325	0.227
-706.616	37.769	-0.160	0.143
-705.602	-7.212	0.153	-0.104
-704.587	-200.000	0.047	-0.230
-703.572	107.368	0.080	-0.096
-702.558	-103.379	-0.294	0.070
-701.543	192.418	0.249	0.378
-700.529	-82.904	-0.252	-0.082
-699.514	92.276	-0.070	-0.079
-698.499	-65.910	-0.180	0.072
-697.485	-69.726	0.210	0.080
-696.470	800.000	-0.052	0.156
-695.456	-200.000	-0.020	-0.116
-694.441	233.245	-0.251	-0.414
-693.426	-15.339	-0.098	-0.063
-692.412	465.838	0.074	0.166
-691.397	199.247	0.141	0.217
-690.383	-30.889	0.036	-0.020
-689.368	-88.804	-0.375	-0.112
-688.354	-198.294	0.208	0.001
-687.339	724.104	0.040	0.107
-686.324	-142.255	-0.262	-0.026
-685.310	-164.101	-0.203	-0.009
-684.295	-200.000	-0.012	0.071
-683.281	25.307	-0.078	0.065
-682.266	-82.009	-0.102	0.034
-681.251	126.850	-0.176	0.223
-680.237	-130.796	0.016	-0.002
-679.222	486.087	0.101	0.231
-678.208	-15.573	-0.164	0.105
-677.193	-200.000	0.041	-0.429
-676.178	480.215	-0.107	0.244
-675.164	-102.041	-0.159	0.038
-674.149	-69.048	-0.272	-0.105
-673.135	-125.451	0.257	-0.039
-672.120	800.000	-0.081	-0.286
-671.105	31.429	-0.143	-0.123
-670.091	-165.834	0.206	-0.009
-669.076	-46.149	-0.142	-0.070
-668.062	-57.944	0.308	0.135
-667.047	-24.718	0.284	0.169
-666.032	130.508	-0.166	0.214
-665.018	191.698	0.094	-0.142
-664.003	89.653	-0.150	-0.168
-662.989	-200.000	0.037	-0.164
-661.974	-124.287	0.152	-0.024
-660.959	24.914	0.043	0.036
-659.945	-114.829	-0.324	0.062
-658.930	90.233	0.026	-0.029
-657.916	-112.830	0.238	0.047
-656.901	171.499	0.096	0.138
-655.886	-200.000	-0.063	-0.283
-654.872	800.000	0.064	0.183
-653.857	-90.801	-0.333	-0.096
-652.843	-200.000	0.050	0.322
-651.828	203.745	-0.237	-0.368
-650.814	46.385	-0.069	-0.064
-649.799	72.089	-0.107	-0.112
-648.784	-74.040	0.234	-0.085
-647.770	171.391	0.061	0.088
-646.755	-200.000	0.022	-0.354
-645.741	800.000	-0.089	-0.261
-644.726	-3.753	0.160	-0.111
-643.711	325.269	0.052	0.099
-642.697	85.750	-0.289	-0.318
-641.682	39.579	0.151	-0.136
-640.668	244.524	0.197	0.331
-639.653	-200.000	-0.003	0.219
-638.638	-2.114	0.401	-0.282
-637.624	-125.961	0.185	-0.028
-636.609	-48.496	0.037	0.018
-635.595	-15.863	0.118	-0.075
-634.580	-200.000	0.026	-0.260
-633.565	-200.000	-0.018	-0.329
-632.551	-113.484	0.318	-0.062
-631.536	75.514	-0.236	-0.249
-630.522	221.031	0.139	-0.224
-629.507	-99.933	-0.216	0.054
-628.492	253.956	-0.033	0.057
-627.478	168.772	0.154	0.219
-626.463	351.545	-0.120	-0.237
-625.449	-200.000	0.024	-0.124
-624.434	137.621	0.182	0.239
-623.419	-33.332	-0.120	-0.066
-622.405	149.111	-0.121	-0.163
-621.390	157.171	-0.124	0.171
-620.376	-150.939	0.146	0.011
-619.361	800.000	0.008	-0.028
-618.346	-159.959	-0.232	-0.013
-617.332	31.483	-0.147	0.126
-616.317	724.012	-0.057	0.152
-615.303	-200.000	0.029	0.188
-614.288	-1.618	0.089	-0.063
-613.273	410.222	-0.132	-0.280
-612.259	314.768	0.111	-0.208
-611.244	-200.000	-0.019	-0.240
-610.230	157.669	-0.226	-0.313
-609.215	652.509	0.184	0.470
-608.201	68.415	0.112	0.115
-607.186	-96.227	0.106	-0.028
-606.171	-130.199	-0.227	-0.031
-605.157	-80.484	0.388	0.129
-604.142	-117.925	-0.103	-0.018
-603.128	789.305	0.113	0.310
-602.113	273.559	-0.110	-0.194
-601.098	-67.690	0.184	0.072
-600.084	-95.761	0.307	0.082
-599.069	-111.200	0.318	-0.065
-598.055	-121.656	-0.087	-0.014
-597.040	-72.074	0.217	0.081
-596.025	-200.000	-0.056	0.331
-595.011	-128.109	-0.349	-0.050
-593.996	15.406	0.234	0.183
-592.982	53.349	-0.123	0.118
-591.967	202.024	-0.104	-0.160
-590.952	308.048	-0.139	0.259
-589.938	-200.000	-0.034	0.174
-588.923	-44.958	-0.362	-0.180
-587.909	126.955	-0.033	0.042
-586.894	159.176	-0.056	0.078
-585.879	800.000	0.044	0.139
-584.865	-200.000	-0.004	0.020
-583.850	-64.308	0.444	0.180
-582.836	189.159	-0.219	-0.327
-581.821	132.007	-0.060	0.077
-580.806	75.791	-0.015	-0.015
-579.792	-115.300	-0.410	0.077
-578.777	27.774	0.166	-0.139
-577.763	15.997	-0.140	-0.110
-576.748	-74.261	-0.142	-0.051
-575.733	123.421	0.108	-0.136
-574.719	-128.933	-0.028	0.004
-573.704	109.512	-0.078	-0.093
-572.690	-5.878	-0.157	0.108
-571.675	129.066	0.099	-0.126
-570.661	-135.543	-0.070	-0.008
-569.646	800.000	0.045	0.155
-568.631	343.765	-0.041	-0.080
-567.617	-80.740	0.442	-0.147
-566.602	800.000	0.043	0.186
-565.588	98.317	-0.174	0.200
-564.573	-11.424	-0.189	0.124
-563.558	-198.736	-0.338	-0.002
-562.544	-157.872	0.214	0.013
-561.529	-73.333	0.035	-0.013
-560.515	-200.000	-0.024	-0.249
-559.500	-200.000	-0.015	-0.091
-558.485	192.108	0.132	-0.198
-557.471	63.149	-0.143	-0.143
-556.456	52.718	-0.312	0.298
-555.442	-200.000	0.009	0.045
-554.427	-196.217	-0.174	0.001
-553.412	419.572	-0.096	-0.205
-552.398	-155.626	0.090	-0.006
-551.383	800.000	-0.093	0.386
-550.369	381.394	0.084	-0.171
-549.354	-103.903	-0.156	0.036
-548.339	106.126	0.060	0.071
-547.325	445.290	0.187	0.410
-546.310	800.000	-0.067	-0.192
-545.296	-118.088	-0.158	-0.028
-544.281	-200.000	0.012	-0.336
-543.266	-200.000	-0.015	0.087
-542.252	-36.812	-0.184	-0.099
-541.237	16.623	-0.190	0.150
-540.223	130.626	0.167	0.214
-539.208	-200.000	0.010	-0.151
-538.193	800.000	-0.088	-0.327
-537.179	93.485	0.247	0.278
-536.164	198.892	-0.132	0.201
-535.150	-200.000	-0.033	0.162
-534.135	168.012	0.080	0.113
-533.121	57.462	0.191	-0.186
-532.106	-41.520	-0.264	0.135
-531.091	-200.000	-0.013	0.242
-530.077	800.000	-0.085	-0.272
-529.062	-70.460	-0.264	0.100
-528.048	-200.000	-0.068	-0.370
-527.033	-138.664	0.175	0.019
-526.018	-200.000	0.367	-0.001
-525.004	296.464	-0.110	-0.201
-523.989	180.050	0.163	-0.238
-522.975	-200.000	0.043	-0.272
-521.960	558.191	0.115	-0.277
-520.945	-51.886	0.325	-0.151
-519.931	423.887	0.107	0.229
-518.916	40.310	-0.010	0.009
-517.902	-200.000	-0.043	-0.255
-516.887	278.780	0.043	-0.076
-515.872	-200.000	0.006	0.345
-514.858	163.163	-0.127	0.178
-513.843	-2.114	-0.176	-0.123
-512.829	592.275	0.094	-0.231
-511.814	-200.000	-0.017	0.130
-510.799	-85.527	-0.356	-0.110
-509.785	-2.381	0.338	-0.236
-508.770	-23.012	0.098	0.059
-507.756	-200.000	-0.023	0.407
-506.741	14.510	-0.223	0.173
-505.726	-200.000	-0.024	-0.132
-504.712	55.579	0.060	0.058
-503.697	-135.940	-0.371	0.043
-502.683	425.842	-0.059	-0.126
-501.668	2.302	-0.128	0.092
-500.653	-7.750	0.341	-0.230
-499.639	201.089	-0.209	-0.321
-498.624	321.143	-0.130	-0.246
-497.610	-160.624	-0.101	0.005
-496.595	-40.547	0.110	-0.057
-495.581	-40.953	0.006	-0.003
-494.566	-200.000	0.047	0.507
-493.551	800.000	0.033	-0.110
-492.537	177.732	-0.214	-0.311
-491.522	800.000	0.173	-0.506
-490.508	-200.000	-0.023	-0.312
-489.493	313.492	-0.094	-0.176
-488.478	19.856	-0.214	0.171
-487.464	-81.408	0.220	0.072
-486.449	-200.000	0.011	0.190
-485.435	-27.832	-0.291	0.168
-484.420	124.185	-0.182	-0.228
-483.405	-200.000	0.003	-0.128
-482.391	-8.328	0.247	-0.165
-481.376	-143.945	-0.289	0.027
-480.362	-69.545	-0.248	0.095
-479.347	370.837	-0.128	0.258
-478.332	32.128	-0.195	-0.168
-477.318	63.908	-0.229	-0.229
-476.303	-113.543	-0.297	-0.058
-475.289	800.000	-0.075	0.273
-474.274	-131.450	0.228	0.030
-473.259	-200.000	0.011	-0.164
-472.245	731.718	0.126	-0.336
-471.230	91.069	0.091	0.101
-470.216	421.907	-0.046	0.097
-469.201	-57.400	0.385	0.168
-468.186	-200.000	0.045	0.327
-467.172	-200.000	-0.002	-0.069
-466.157	161.577	-0.180	-0.250
-465.143	5.491	0.154	0.113
-464.128	202.322	-0.090	-0.137
-463.113	-49.685	-0.154	-0.073
-462.099	15.009	-0.145	-0.113
-461.084	-128.754	0.204	-0.029
-460.070	-47.102	-0.190	-0.092
-459.055	48.024	-0.286	-0.266
-458.040	-71.351	0.155	-0.058
-457.026	6.689	0.296	-0.219
-456.011	800.000	0.098	-0.273
-454.997	148.478	0.176	-0.236
-453.982	800.000	-0.034	-0.095
-452.968	66.524	0.082	0.083
-451.953	-80.833	-0.114	0.038
-450.938	68.189	-0.081	-0.083
-449.924	270.429	0.041	0.071
-448.909	800.000	-0.122	-0.426
-447.895	-18.192	-0.153	-0.095
-446.880	800.000	0.035	0.105
-445.865	-68.951	0.028	0.011
-444.851	800.000	-0.067	0.252
-443.836	-116.432	0.270	-0.049
-442.822	216.872	-0.203	-0.320
-441.807	-52.323	-0.363	-0.167
-440.792	214.698	-0.033	0.052
-439.778	155.532	-0.079	-0.108
-438.763	408.851	0.007	-0.015
-437.749	-200.000	0.005	0.158
-436.734	-44.838	-0.315	0.156
-435.719	23.836	0.072	-0.059
-434.705	331.765	0.023	-0.044
-433.690	-200.000	-0.019	-0.238
-432.676	-200.000	-0.004	0.237
-431.661	244.782	0.180	-0.300
-430.646	345.073	0.128	0.250
-429.632	800.000	0.055	0.154
-428.617	251.714	0.068	0.115
-427.603	220.511	-0.116	0.184
-426.588	-95.430	-0.128	0.034
-425.573	-126.798	-0.125	-0.018
-424.559	8.747	0.056	-0.042
-423.544	-118.867	-0.051	-0.009
-422.530	301.904	0.113	0.207
-421.515	-200.000	0.046	-0.292
-420.500	-51.626	0.294	0.136
-419.486	12.370	0.198	0.151
-418.471	-200.000	-0.019	0.257
-417.457	-59.587	0.178	0.076
-416.442	-2.843	-0.101	0.070
-415.428	-91.419	0.029	0.008
-414.413	-200.000	-0.001	0.205
-413.398	-200.000	-0.023	-0.172
-412.384	1.268	0.107	0.076
-411.369	577.692	0.065	0.158
-410.355	-200.000	-0.024	0.437
-409.340	-82.514	0.441	0.142
-408.325	-150.120	-0.370	-0.028
-407.311	800.000	-0.056	-0.195
-406.296	20.496	-0.073	-0.059
-405.282	597.927	0.045	-0.111
-404.267	-132.554	0.104	0.013
-403.252	-147.427	-0.123	0.010
-402.238	675.040	0.014	-0.036
-401.223	-173.168	-0.189	-0.006
-400.209	-200.000	0.028	-0.227
-399.194	-200.000	-0.031	0.192
-398.179	622.153	-0.106	-0.265
-397.165	250.857	-0.051	0.087
-396.150	256.949	0.152	-0.259
-395.136	-128.418	-0.443	-0.062
-394.121	-80.391	0.214	0.071
-393.106	-44.845	0.217	0.107
-392.092	-200.000	0.018	-0.296
-391.077	184.709	0.033	0.049
-390.063	800.000	-0.048	-0.192
-389.048	239.536	-0.101	0.167
-388.033	800.000	0.104	0.345
-387.019	325.613	-0.043	0.081
-386.004	-102.540	-0.350	0.083
-384.990	-135.831	0.223	0.026
-383.975	-96.988	0.158	-0.041
-382.960	-57.674	-0.101	0.044
-381.946	800.000	-0.074	-0.206
-380.931	800.000	0.106	0.454
-379.917	24.231	-0.117	0.096
-378.902	8.887	0.208	-0.156
-377.888	284.559	-0.118	0.210
-376.873	256.582	-0.046	0.078
-375.858	-57.847	0.186	-0.081
-374.844	696.433	-0.101	-0.263
-373.829	290.099	0.063	-0.113
-372.815	93.806	0.156	0.175
-371.800	-200.000	-0.021	-0.107
-370.785	175.937	0.076	0.110
-369.771	-200.000	-0.028	0.151
-368.756	138.568	0.180	0.234
-367.742	389.894	0.020	0.040
-366.727	-105.813	0.041	-0.009
-365.712	800.000	-0.061	-0.204
-364.698	-94.521	-0.214	-0.058
-363.683	72.225	0.063	-0.065
-362.669	-71.870	0.303	-0.112
-361.654	-200.000	0.024	0.209
-360.639	-200.000	0.027	-0.349
-359.625	-112.059	0.450	-0.090
-358.610	101.892	0.156	-0.180
-357.596	-88.571	-0.288	-0.085
-356.581	-69.719	-0.038	-0.014
-355.566	-200.000	-0.017	0.304
-354.552	-200.000	-0.016	-0.194
-353.537	-1.125	0.505	0.354
-352.523	-13.367	-0.249	0.160
-351.508	-200.000	-0.011	-0.237
-350.493	800.000	-0.024	0.097
-349.479	-81.478	-0.180	0.058
-348.464	-200.000	0.039	0.185
-347.450	52.387	-0.091	0.086
-346.435	-41.009	0.111	0.057
-345.420	278.601	0.196	0.345
-344.406	25.126	-0.316	0.259
-343.391	410.626	0.073	0.153
-342.377	371.937	-0.093	-0.187
-341.362	-3.240	-0.045	-0.031
-340.348	-147.199	0.409	0.034
-339.333	-4.277	-0.149	-0.102
-338.318	-200.000	-0.021	0.170
-337.304	800.000	0.040	0.119
-336.289	471.796	-0.048	-0.107
-335.275	-200.000	0.031	-0.547
-334.260	-84.244	-0.225	-0.071
-333.245	357.331	-0.096	-0.189
-332.231	30.930	0.165	0.139
-331.216	-106.157	-0.173	-0.038
-330.202	214.810	-0.026	-0.041
-329.187	-71.571	-0.213	0.079
-328.172	800.000	-0.047	0.155
-327.158	-48.629	0.336	-0.160
-326.143	270.577	-0.113	-0.197
-325.129	800.000	-0.098	0.417
-324.114	29.100	-0.161	-0.135
-323.099	-172.135	0.187	0.006
-322.085	20.452	-0.253	0.202
-321.070	29.742	-0.058	-0.048
-320.056	139.822	-0.187	0.244
-319.041	-185.735	-0.069	-0.001
-318.026	-132.791	0.329	-0.041
-317.012	-181.343	-0.251	-0.005
-315.997	-81.900	-0.243	0.079
-314.983	533.629	-0.063	0.148
-313.968	-110.441	-0.195	0.040
-312.953	188.695	-0.083	0.122
-311.939	23.244	-0.187	0.152
-310.924	251.249	0.089	-0.149
-309.910	-200.000	-0.010	0.117
-308.895	-200.000	-0.015	-0.154
-307.880	166.372	-0.168	-0.235
-306.866	-200.000	0.021	-0.248
-305.851	151.333	-0.158	-0.213
-304.837	228.263	-0.166	-0.267
-303.822	-200.000	0.047	-0.254
-302.807	-9.121	-0.246	0.162
-301.793	-101.463	0.262	0.063
-300.778	470.032	0.089	0.198
-299.764	91.163	-0.188	0.208
-298.749	54.464	0.201	-0.191
-297.735	-141.993	-0.033	-0.003
-296.720	-200.000	-0.099	0.557
-295.705	-115.437	-0.032	-0.006
-294.691	-200.000	-0.013	-0.099
-293.676	800.000	0.052	-0.150
-292.662	-0.377	0.167	-0.117
-291.647	35.037	-0.143	0.124
-290.632	62.829	0.093	-0.091
-289.618	-72.750	-0.140	0.051
-288.603	-60.008	0.261	0.110
-287.589	-117.823	0.059	0.010
-286.574	-30.952	-0.177	0.098
-285.559	-49.431	0.333	0.157
-284.545	99.204	0.075	0.086
-283.530	-107.893	-0.143	-0.031
-282.516	59.841	0.165	0.160
-281.501	-172.525	-0.174	-0.005
-280.486	123.769	-0.080	0.099
-279.472	85.224	0.146	0.158
-278.457	113.413	0.193	-0.231
-277.443	590.983	-0.056	0.136
-276.428	-101.220	-0.193	0.047
-275.413	-200.000	-0.002	-0.168
-274.399	-149.121	0.366	0.029
-273.384	436.959	0.146	0.314
-272.370	-76.917	0.178	-0.061
-271.355	10.823	0.186	-0.140
-270.340	-124.117	0.118	0.018
-269.326	242.330	0.076	-0.126
-268.311	82.757	0.073	0.079
-267.297	-81.494	0.357	-0.116
-266.282	-130.724	0.147	-0.020
-265.267	195.951	0.047	0.070
-264.253	-100.700	0.337	0.082
-263.238	-45.455	-0.162	0.079
-262.224	-140.875	-0.336	-0.034
-261.209	258.517	-0.017	0.029
-260.195	800.000	0.044	0.187
-259.180	-200.000	-0.013	0.057
-258.165	-156.757	-0.200	-0.012
-257.151	-55.896	-0.135	-0.059
-256.136	-21.962	-0.165	-0.099
-255.122	-200.000	-0.059	-0.360
-254.107	1.468	-0.413	-0.293
-253.092	-39.883	-0.209	0.108
-252.078	150.134	0.102	-0.136
-251.063	-29.584	-0.118	0.066
-250.049	-200.000	0.012	-0.059
-249.034	54.762	0.204	0.194
-248.019	44.817	-0.306	0.278
-247.005	-200.000	0.031	-0.411
-245.990	-200.000	-0.007	-0.122
-244.976	-200.000	0.021	0.203
-243.961	-200.000	0.009	0.135
-242.946	-41.328	-0.110	0.056
-241.932	-60.176	-0.288	0.121
-240.917	-74.994	-0.290	0.102
-239.903	339.285	0.039	0.075
-238.888	-80.533	-0.062	0.020
-237.873	-200.000	0.041	-0.296
-236.859	-70.709	-0.233	-0.087
-235.844	800.000	0.055	0.191
-234.830	800.000	0.021	0.089
-233.815	91.733	-0.244	0.271
-232.800	-115.719	0.118	0.022
-231.786	37.204	0.327	-0.285
-230.771	-159.587	-0.090	0.005
-229.757	332.837	0.054	-0.102
-228.742	800.000	-0.033	0.123
-227.727	545.855	0.115	0.270
-226.713	-200.000	-0.007	0.078
-225.698	260.166	-0.117	-0.199
-224.684	225.737	0.088	0.140
-223.669	122.711	-0.167	0.206
-222.655	-6.518	0.040	0.027
-221.640	-94.016	0.128	-0.035
-220.625	49.257	0.253	-0.235
-219.611	21.546	0.256	0.205
-218.596	522.554	-0.070	0.163
-217.582	48.262	0.129	-0.119
-216.567	-200.000	-0.008	0.267
-215.552	39.416	0.402	-0.354
-214.538	117.555	0.056	0.068
-213.523	84.793	0.234	-0.252
-212.509	141.817	0.111	-0.145
-211.494	-98.542	-0.027	0.007
-210.479	182.914	0.230	0.333
-209.465	-18.435	-0.232	0.143
-208.450	-27.210	-0.298	0.171
-207.436	-200.000	-0.035	0.306
-206.421	-49.241	0.560	0.263
-205.406	-71.927	0.191	0.070
-204.392	-26.785	0.260	-0.149
-203.377	232.880	-0.146	-0.235
-202.363	423.406	-0.022	-0.047
-201.348	-52.887	-0.129	-0.058
-200.333	35.152	-0.084	0.072
-199.319	146.057	-0.147	-0.194
-198.304	-200.000	-0.026	-0.145
-197.290	-129.597	0.212	-0.029
-196.275	800.000	0.028	0.112
-195.260	-107.808	0.639	0.137
-194.246	12.982	-0.176	-0.134
-193.231	63.303	0.166	-0.164
-192.217	-71.241	-0.273	-0.101
-191.202	-0.693	-0.342	0.238
-190.187	46.206	-0.075	0.068
-189.173	-53.689	-0.093	0.042
-188.158	54.466	0.224	0.212
-187.144	108.593	-0.212	0.249
-186.129	-96.481	0.121	0.031
-185.114	-126.498	0.010	-0.001
-184.100	-68.227	0.171	-0.065
-183.085	195.382	0.087	0.130
-182.071	-200.000	-0.029	-0.137
-181.056	54.652	-0.285	0.271
-180.042	-161.583	0.299	-0.015
-179.027	-200.000	-0.009	-0.087
-178.012	-17.972	-0.074	-0.045
-176.998	5.942	0.225	0.163
-175.983	-200.000	0.080	0.446
-174.969	800.000	0.010	-0.037
-173.954	241.241	0.108	-0.177
-172.939	-198.825	-0.161	-0.001
-171.925	-68.788	-0.085	-0.032
-170.910	172.060	-0.138	0.195
-169.896	800.000	0.058	0.156
-168.881	-101.364	-0.035	0.008
-167.866	242.978	0.186	-0.306
-166.852	177.847	-0.091	-0.130
-165.837	394.672	0.080	0.165
-164.823	-40.924	0.209	0.106
-163.808	-109.234	-0.397	-0.083
-162.793	30.330	0.209	0.176
-161.779	-54.012	0.239	-0.107
-160.764	-71.492	0.261	-0.096
-159.750	-66.395	-0.135	0.053
-158.735	-35.481	0.234	-0.125
-157.720	-118.365	0.462	0.081
-156.706	-19.628	-0.500	0.304
-155.691	-34.922	-0.213	-0.114
-154.677	-150.673	0.016	0.001
-153.662	800.000	0.107	0.378
-152.647	8.658	0.249	-0.184
-151.633	12.980	-0.105	0.080
-150.618	-200.000	0.041	0.229
-149.604	-122.964	0.411	0.065
-148.589	-2.097	0.221	-0.153
-147.574	366.009	-0.167	-0.331
-146.560	41.477	0.207	0.184
-145.545	-200.000	-0.034	0.344
-144.531	-104.383	0.373	0.085
-143.516	-200.000	0.019	-0.091
-142.502	-200.000	0.029	-0.147
-141.487	-200.000	0.035	0.275
-140.472	13.198	0.193	0.147
-139.458	-138.743	-0.106	0.011
-138.443	180.302	-0.157	0.226
-137.429	-200.000	0.012	0.066
-136.414	-166.821	-0.201	-0.008
-135.399	-79.363	-0.133	-0.044
-134.385	49.661	0.336	0.310
-133.370	170.597	-0.098	-0.138
-132.356	303.825	0.063	0.115
-131.341	-134.754	-0.453	0.054
-130.326	323.997	0.071	0.133
-129.312	595.840	0.183	0.445
-128.297	140.944	0.165	0.214
-127.283	-13.312	0.093	-0.059
-126.268	-74.232	-0.091	-0.032
-125.253	-19.698	0.320	-0.194
-124.239	277.443	-0.206	-0.359
-123.224	-11.233	-0.028	0.018
-122.210	29.722	0.219	0.183
-121.195	54.552	0.193	0.183
