DTS Sentinel unit serial number:	SN413079Multiplexer serial number:	ORYXHardware model number:	OX4-SRSoftware version number:	ORYX F/W v4.00 Oryx Data Collector v3.7.2.0data status	okinstallation	princeton_trtdifferential loss correction	single-endedforward channel	channel 2reverse channel	N/Adate	2019/09/13time	10:11:35forward acquisition time	60.00reverse acquisition time	0.00gamma	496.2192k internal	0.2324k external	0.2324temperature offset calibration	1.0193default loss term (dB/km)	0.3790temperature slope calibration	1.0000multiplexer offset coefficient	1.0000multiplexer slope coefficient	1.0000fibre end	0.00T internal ref (°C)	30.56T ext. ref 1 (°C)	4.52T ext. ref 2 (°C)	27.92length (m)	temperature (°C)	Stokes	anti-Stokes-747.200	-200.000	-0.014	0.300
-746.185	-200.000	-0.061	0.304
-745.171	-9.848	0.161	0.109
-744.156	-85.497	-0.247	0.078
-743.142	-7.968	-0.172	0.117
-742.127	-200.000	0.032	0.438
-741.112	4.457	0.176	0.130
-740.098	-200.000	-0.009	0.057
-739.083	4.553	-0.161	0.120
-738.069	226.838	0.200	0.328
-737.054	77.403	0.184	-0.198
-736.039	-109.494	-0.314	0.067
-735.025	-200.000	-0.002	-0.154
-734.010	219.063	-0.257	-0.414
-732.996	53.348	-0.241	-0.233
-731.981	-200.000	-0.001	-0.167
-730.966	516.977	0.052	-0.123
-729.952	-85.270	-0.333	-0.105
-728.937	-114.367	-0.129	0.025
-727.923	268.652	0.168	0.298
-726.908	-7.325	0.240	-0.164
-725.894	145.630	-0.217	-0.294
-724.879	-67.619	-0.170	-0.067
-723.864	-99.052	-0.272	-0.070
-722.850	-200.000	0.043	0.255
-721.835	97.147	-0.109	-0.126
-720.821	-200.000	-0.005	-0.139
-719.806	-59.913	-0.142	-0.061
-718.791	-200.000	0.024	-0.134
-717.777	-109.179	-0.230	0.049
-716.762	-200.000	0.056	0.436
-715.748	155.575	0.146	-0.202
-714.733	75.018	0.075	-0.080
-713.718	-71.884	0.171	0.064
-712.704	159.765	0.179	-0.251
-711.689	-200.000	-0.005	0.106
-710.675	525.763	0.109	0.259
-709.660	-200.000	0.041	0.182
-708.645	-70.249	0.308	0.118
-707.631	-31.826	0.194	0.110
-706.616	725.964	-0.065	0.174
-705.602	344.053	-0.035	0.070
-704.587	53.358	-0.168	-0.162
-703.572	-23.729	-0.203	-0.123
-702.558	-200.000	-0.039	-0.305
-701.543	-200.000	0.031	-0.139
-700.529	-42.069	-0.068	0.035
-699.514	-87.578	-0.068	-0.021
-698.499	-200.000	-0.019	0.202
-697.485	-153.548	0.331	0.023
-696.470	439.249	0.077	-0.171
-695.456	-200.000	0.008	0.134
-694.441	229.992	0.162	-0.267
-693.426	-200.000	-0.011	-0.391
-692.412	-6.913	0.270	0.185
-691.397	-111.438	-0.414	0.085
-690.383	-200.000	-0.217	-0.001
-689.368	248.241	-0.203	-0.347
-688.354	-34.264	0.295	-0.163
-687.339	-29.570	-0.180	-0.104
-686.324	57.228	0.112	0.110
-685.310	-200.000	0.044	-0.249
-684.295	-164.205	-0.135	0.006
-683.281	105.297	0.156	-0.185
-682.266	800.000	-0.107	0.412
-681.251	132.442	0.111	-0.144
-680.237	-95.717	-0.170	-0.046
-679.222	-102.384	0.230	0.056
-678.208	-33.866	-0.104	-0.058
-677.193	-40.113	-0.153	0.080
-676.178	-200.000	0.018	0.153
-675.164	800.000	0.106	-0.343
-674.149	-131.845	-0.143	0.019
-673.135	10.976	-0.191	-0.147
-672.120	37.427	-0.119	0.106
-671.105	800.000	-0.030	0.113
-670.091	65.340	-0.193	-0.197
-669.076	51.622	0.185	-0.177
-668.062	-119.584	0.095	0.017
-667.047	18.384	0.130	0.105
-666.032	-123.891	0.188	-0.030
-665.018	1.590	0.095	-0.069
-664.003	13.599	-0.236	-0.185
-662.989	44.456	0.072	-0.066
-661.974	-57.749	-0.142	0.062
-660.959	38.440	0.194	-0.174
-659.945	0.612	-0.263	0.189
-658.930	-200.000	0.014	-0.394
-657.916	422.055	0.144	-0.311
-656.901	-200.000	-0.008	-0.472
-655.886	34.626	-0.171	0.150
-654.872	142.469	0.048	-0.065
-653.857	230.477	0.138	-0.226
-652.843	123.956	-0.225	0.284
-651.828	470.615	-0.088	0.199
-650.814	800.000	-0.073	0.299
-649.799	-87.117	0.200	0.061
-648.784	-81.136	-0.108	0.036
-647.770	76.330	0.240	-0.255
-646.755	32.772	-0.097	-0.084
-645.741	538.708	-0.081	-0.195
-644.726	115.170	0.181	0.222
-643.711	90.704	-0.088	-0.099
-642.697	40.144	0.207	-0.187
-641.682	188.174	-0.195	0.293
-640.668	-124.404	0.279	0.044
-639.653	79.323	-0.355	-0.383
-638.638	155.330	0.173	-0.239
-637.624	-84.209	0.412	-0.131
-636.609	-127.171	0.094	-0.014
-635.595	-14.023	-0.229	-0.149
-634.580	800.000	0.106	-0.368
-633.565	-36.381	0.074	-0.040
-632.551	-60.238	-0.057	-0.024
-631.536	800.000	0.009	-0.041
-630.522	-109.020	-0.370	0.079
-629.507	-160.668	0.088	-0.005
-628.492	686.440	0.140	-0.368
-627.478	-200.000	-0.017	-0.271
-626.463	225.318	-0.058	-0.094
-625.449	-132.771	0.409	-0.053
-624.434	-200.000	0.010	-0.088
-623.419	800.000	0.055	-0.197
-622.405	119.789	-0.116	-0.144
-621.390	-200.000	0.023	-0.173
-620.376	-101.737	0.244	-0.059
-619.361	445.266	-0.031	0.069
-618.346	22.911	0.164	0.135
-617.332	-91.202	0.287	-0.083
-616.317	-200.000	-0.022	0.275
-615.303	-24.835	-0.160	0.095
-614.288	623.664	0.086	-0.217
-613.273	-190.848	-0.179	-0.002
-612.259	-72.455	-0.209	-0.078
-611.244	312.885	0.128	0.241
-610.230	-9.553	-0.423	0.284
-609.215	-7.908	-0.236	-0.160
-608.201	-101.951	-0.107	-0.026
-607.186	-142.885	0.391	0.038
-606.171	26.429	0.254	0.213
-605.157	188.412	-0.134	-0.202
-604.142	-44.876	0.178	-0.089
-603.128	-200.000	-0.007	0.088
-602.113	32.372	0.109	-0.094
-601.098	800.000	0.057	0.197
-600.084	-107.041	0.403	-0.089
-599.069	-170.621	-0.242	-0.008
-598.055	-200.000	0.024	-0.124
-597.040	145.259	0.281	-0.377
-596.025	800.000	-0.047	-0.141
-595.011	-182.156	-0.388	0.007
-593.996	-126.074	-0.313	-0.047
-592.982	662.139	-0.137	0.354
-591.967	-58.900	0.323	-0.140
-590.952	259.124	-0.144	-0.249
-589.938	476.636	0.163	0.370
-588.923	-12.388	0.016	0.011
-587.909	-200.000	0.015	-0.139
-586.894	-13.219	0.095	-0.062
-585.879	-36.679	-0.142	0.076
-584.865	-103.581	0.118	-0.028
-583.850	-45.204	-0.155	0.077
-582.836	33.564	-0.082	-0.072
-581.821	-8.124	-0.188	0.127
-580.806	-200.000	0.015	-0.515
-579.792	7.220	-0.259	0.194
-578.777	204.996	0.106	0.164
-577.763	-200.000	-0.019	0.155
-576.748	-37.301	-0.182	0.098
-575.733	-200.000	0.042	-0.210
-574.719	800.000	-0.130	0.447
-573.704	-200.000	-0.023	-0.254
-572.690	532.496	-0.078	0.184
-571.675	-200.000	0.057	0.000
-570.661	-113.109	0.193	-0.038
-569.646	-36.572	-0.369	-0.199
-568.631	407.547	0.051	0.108
-567.617	-117.614	-0.060	-0.011
-566.602	-80.157	0.144	-0.048
-565.588	-200.000	-0.045	-0.392
-564.573	0.793	-0.378	-0.271
-563.558	180.462	0.160	-0.235
-562.544	60.995	0.154	-0.153
-561.529	-145.130	-0.043	-0.004
-560.515	-160.574	0.023	0.001
-559.500	305.081	0.084	-0.157
-558.485	206.957	0.018	0.028
-557.471	151.433	-0.152	0.207
-556.456	34.810	0.153	0.134
-555.442	-169.991	0.397	-0.014
-554.427	-125.124	0.153	0.023
-553.412	59.470	-0.274	0.271
-552.398	-12.488	-0.169	0.111
-551.383	800.000	0.039	-0.164
-550.369	27.489	-0.321	-0.271
-549.354	-81.740	-0.355	-0.117
-548.339	800.000	-0.052	0.180
-547.325	16.349	0.114	-0.090
-546.310	-115.759	-0.127	0.024
-545.296	-166.129	-0.442	-0.019
-544.281	-200.000	0.002	-0.223
-543.266	-200.000	-0.019	0.186
-542.252	76.706	-0.079	0.084
-541.237	217.380	0.040	0.064
-540.223	-64.868	0.068	-0.027
-539.208	-200.000	-0.014	-0.067
-538.193	-98.383	0.243	-0.062
-537.179	-200.000	-0.001	0.038
-536.164	-127.533	0.251	0.037
-535.150	72.371	-0.138	-0.144
-534.135	-76.038	-0.215	0.076
-533.121	-35.844	0.315	0.171
-532.106	800.000	-0.036	-0.138
-531.091	110.339	-0.085	0.102
-530.077	-11.861	-0.172	-0.113
-529.062	-63.094	0.378	-0.156
-528.048	-49.280	-0.137	0.066
-527.033	-160.671	-0.250	-0.013
-526.018	-105.137	-0.174	-0.040
-525.004	559.782	0.023	-0.055
-523.989	210.634	-0.192	-0.302
-522.975	29.292	0.272	0.231
-521.960	-104.267	-0.258	0.060
-520.945	-200.000	-0.022	-0.212
-519.931	335.266	0.131	0.254
-518.916	70.874	0.128	-0.133
-517.902	800.000	-0.128	0.380
-516.887	395.552	-0.048	0.101
-515.872	-200.000	-0.017	0.160
-514.858	-200.000	-0.027	0.334
-513.843	-58.127	0.138	-0.060
-512.829	800.000	-0.017	-0.069
-511.814	-54.065	-0.195	0.089
-510.799	-65.627	-0.126	0.050
-509.785	-94.021	0.331	0.091
-508.770	-200.000	-0.022	0.248
-507.756	-22.524	-0.205	0.124
-506.741	-200.000	0.008	-0.093
-505.726	800.000	0.040	0.128
-504.712	-28.560	-0.183	0.105
-503.697	-200.000	-0.005	-0.140
-502.683	687.878	0.070	0.183
-501.668	-96.397	0.351	-0.093
-500.653	111.054	0.153	-0.184
-499.639	800.000	-0.076	-0.215
-498.624	80.722	-0.168	0.181
-497.610	-200.000	0.181	-0.000
-496.595	346.441	-0.100	-0.197
-495.581	-82.342	-0.428	0.139
-494.566	-200.000	0.006	-0.029
-493.551	-95.240	-0.126	-0.034
-492.537	-98.470	0.144	-0.037
-491.522	426.296	-0.045	0.098
-490.508	-200.000	-0.003	-0.205
-489.493	203.118	-0.099	0.154
-488.478	160.187	-0.031	0.043
-487.464	-200.000	-0.048	0.281
-486.449	106.544	-0.076	0.091
-485.435	201.564	0.068	-0.104
-484.420	-91.702	-0.102	0.029
-483.405	-38.353	-0.236	0.125
-482.391	3.496	-0.177	0.129
-481.376	148.003	0.079	0.106
-480.362	-83.360	-0.128	-0.041
-479.347	255.247	0.077	0.131
-478.332	-200.000	-0.021	0.217
-477.318	440.835	0.059	0.130
-476.303	352.147	-0.112	-0.223
-475.289	585.421	-0.020	-0.050
-474.274	-13.922	-0.227	-0.147
-473.259	-200.000	0.024	0.218
-472.245	474.001	-0.097	-0.218
-471.230	-25.230	-0.322	0.191
-470.216	-116.322	-0.193	-0.036
-469.201	219.977	0.240	0.384
-468.186	351.151	0.214	0.424
-467.172	-44.234	-0.151	-0.076
-466.157	-200.000	-0.109	-0.000
-465.143	142.385	-0.066	-0.088
-464.128	800.000	-0.151	-0.570
-463.113	-46.297	0.080	0.039
-462.099	321.789	0.179	0.341
-461.084	800.000	0.049	0.194
-460.070	69.376	-0.239	0.246
-459.055	-97.482	-0.392	0.102
-458.040	-19.559	-0.201	0.124
-457.026	-200.000	0.031	-0.328
-456.011	175.825	-0.186	-0.269
-454.997	415.857	0.069	-0.146
-453.982	107.350	0.216	-0.257
-452.968	6.855	0.101	-0.075
-451.953	241.864	0.196	-0.327
-450.938	-86.686	0.133	0.041
-449.924	800.000	0.062	-0.206
-448.909	-82.508	-0.143	0.046
-447.895	800.000	-0.020	0.063
-446.880	-8.226	-0.092	0.062
-445.865	-200.000	0.001	-0.279
-444.851	401.828	-0.072	-0.152
-443.836	-2.592	-0.320	0.224
-442.822	191.896	0.042	-0.063
-441.807	-6.488	0.134	0.091
-440.792	-200.000	-0.008	-0.104
-439.778	-46.322	0.157	0.077
-438.763	5.103	-0.231	0.170
-437.749	-200.000	0.030	0.187
-436.734	87.228	0.199	0.219
-435.719	694.890	-0.109	0.285
-434.705	-200.000	-0.013	-0.159
-433.690	166.544	0.044	0.063
-432.676	61.537	-0.232	-0.230
-431.661	800.000	0.066	0.262
-430.646	-36.391	-0.184	-0.099
-429.632	-200.000	-0.032	-0.217
-428.617	-127.238	0.091	0.013
-427.603	-14.141	-0.207	0.133
-426.588	346.253	0.070	-0.137
-425.573	492.919	0.132	-0.301
-424.559	53.734	0.109	-0.104
-423.544	65.502	0.057	-0.057
-422.530	-200.000	-0.004	0.131
-421.515	-200.000	-0.009	-0.085
-420.500	65.878	0.015	0.015
-419.486	49.144	-0.112	0.105
-418.471	-200.000	0.014	0.074
-417.457	-64.761	0.047	0.019
-416.442	-82.290	0.375	0.122
-415.428	800.000	-0.083	-0.287
-414.413	-200.000	-0.008	-0.175
-413.398	76.602	0.127	-0.134
-412.384	-57.792	-0.133	0.058
-411.369	-50.396	0.203	0.095
-410.355	-25.405	-0.134	0.079
-409.340	204.768	0.043	0.067
-408.325	-15.960	0.156	-0.099
-407.311	-33.250	-0.127	0.070
-406.296	-5.591	-0.275	0.188
-405.282	-186.845	0.143	0.002
-404.267	197.921	0.120	-0.182
-403.252	182.641	-0.088	0.129
-402.238	128.247	0.055	-0.070
-401.223	800.000	0.125	-0.433
-400.209	-200.000	-0.002	0.103
-399.194	74.469	-0.093	0.097
-398.179	-132.398	-0.137	0.018
-397.165	-85.508	0.025	0.008
-396.150	-40.150	-0.267	-0.139
-395.136	-163.703	0.157	-0.007
-394.121	605.673	0.091	0.225
-393.106	117.588	-0.117	0.143
-392.092	198.153	0.178	0.271
-391.077	18.975	-0.030	-0.024
-390.063	109.922	-0.113	0.135
-389.048	800.000	-0.043	-0.175
-388.033	371.370	0.059	0.119
-387.019	-143.601	0.288	-0.027
-386.004	-43.205	-0.265	-0.134
-384.990	-155.624	0.198	0.013
-383.975	-71.158	0.065	0.024
-382.960	-23.837	0.250	-0.149
-381.946	-143.257	0.271	-0.026
-380.931	800.000	0.079	-0.308
-379.917	-200.000	-0.027	0.263
-378.902	-200.000	0.009	0.160
-377.888	283.885	-0.057	0.102
-376.873	-13.053	0.116	0.075
-375.858	800.000	-0.077	0.213
-374.844	581.776	0.125	0.305
-373.829	-200.000	0.065	-0.397
-372.815	25.675	-0.043	0.036
-371.800	63.556	0.105	0.105
-370.785	112.445	-0.032	-0.039
-369.771	-48.829	0.086	-0.041
-368.756	-190.521	-0.174	-0.002
-367.742	46.168	0.095	-0.088
-366.727	-23.363	0.032	-0.019
-365.712	-110.293	0.365	0.076
-364.698	-72.293	-0.046	-0.017
-363.683	-78.846	-0.135	-0.046
-362.669	-137.996	-0.084	0.009
-361.654	385.367	-0.039	0.079
-360.639	800.000	-0.052	-0.148
-359.625	-108.841	-0.003	-0.001
-358.610	-7.925	-0.129	0.087
-357.596	-200.000	-0.011	-0.130
-356.581	-15.831	0.223	0.142
-355.566	368.064	-0.067	0.135
-354.552	122.663	-0.080	-0.099
-353.537	54.396	-0.137	-0.131
-352.523	278.760	-0.243	0.430
-351.508	-117.116	0.337	0.061
-350.493	-2.463	-0.321	0.224
-349.479	110.028	-0.154	0.184
-348.464	67.891	-0.255	-0.259
-347.450	261.985	-0.130	0.224
-346.435	168.644	-0.113	0.160
-345.420	42.525	-0.181	0.164
-344.406	-141.350	0.279	0.028
-343.391	4.450	0.246	0.179
-342.377	-49.836	-0.100	-0.047
-341.362	29.801	-0.155	-0.131
-340.348	118.778	-0.144	-0.177
-339.333	-106.011	-0.156	-0.035
-338.318	10.330	0.150	0.113
-337.304	196.736	0.089	-0.134
-336.289	-3.632	-0.093	0.064
-335.275	42.216	-0.105	0.095
-334.260	184.411	0.142	-0.210
-333.245	320.731	-0.088	0.166
-332.231	16.401	-0.059	-0.046
-331.216	15.940	-0.170	-0.133
-330.202	527.285	0.110	0.259
-329.187	106.671	0.115	0.135
-328.172	-81.822	0.347	0.113
-327.158	-52.546	-0.023	0.010
-326.143	-109.706	0.105	0.022
-325.129	184.627	0.196	-0.288
-324.114	118.650	0.203	-0.249
-323.099	800.000	0.075	0.304
-322.085	33.990	0.132	-0.115
-321.070	8.790	-0.337	-0.252
-320.056	642.797	-0.127	-0.322
-319.041	-49.988	0.062	-0.029
-318.026	-200.000	-0.007	-0.121
-317.012	117.493	-0.107	-0.131
-315.997	800.000	0.087	0.269
-314.983	-200.000	0.003	-0.099
-313.968	-200.000	-0.035	0.171
-312.953	-97.704	-0.337	0.087
-311.939	570.316	-0.023	0.055
-310.924	-149.783	0.329	-0.026
-309.910	-200.000	0.054	0.337
-308.895	138.859	0.216	0.281
-307.880	-13.874	-0.083	-0.053
-306.866	-81.789	-0.057	0.019
-305.851	-200.000	-0.035	0.229
-304.837	109.811	-0.044	0.052
-303.822	732.021	-0.097	0.257
-302.807	-76.426	0.275	-0.096
-301.793	-88.663	0.122	-0.036
-300.778	800.000	-0.104	0.311
-299.764	-63.684	0.225	-0.091
-298.749	-33.947	0.164	0.090
-297.735	-29.865	-0.352	-0.199
-296.720	800.000	-0.064	-0.222
-295.705	-146.004	-0.135	-0.012
-294.691	95.808	0.104	-0.118
-293.676	159.211	0.024	0.033
-292.662	409.343	0.079	-0.166
-291.647	800.000	-0.080	-0.297
-290.632	-58.576	0.238	-0.102
-289.618	197.128	-0.019	-0.029
-288.603	-90.669	-0.261	0.075
-287.589	157.168	-0.168	0.231
-286.574	43.578	-0.061	-0.055
-285.559	800.000	-0.078	0.263
-284.545	-5.949	0.242	0.164
-283.530	229.138	0.084	0.136
-282.516	67.152	0.152	0.153
-281.501	-73.337	-0.327	0.118
-280.486	5.114	-0.103	0.075
-279.472	-200.000	0.010	0.164
-278.457	-200.000	-0.030	0.286
-277.443	8.462	0.114	-0.085
-276.428	239.723	0.012	-0.021
-275.413	-200.000	-0.028	0.150
-274.399	16.436	0.027	0.021
-273.384	-159.348	0.486	-0.027
-272.370	95.539	0.140	0.158
-271.355	127.670	0.126	0.158
-270.340	203.004	0.251	-0.385
-269.326	800.000	-0.085	0.352
-268.311	-105.117	0.089	0.020
-267.297	-200.000	-0.027	-0.196
-266.282	-119.295	-0.185	0.032
-265.267	-74.384	0.094	0.034
-264.253	-150.403	-0.308	0.023
-263.238	285.086	0.062	-0.110
-262.224	-200.000	0.008	0.101
-261.209	-128.379	-0.120	-0.017
-260.195	-29.780	0.175	-0.099
-259.180	-45.773	0.094	0.046
-258.165	800.000	0.074	-0.219
-257.151	448.829	-0.056	0.123
-256.136	800.000	-0.149	-0.450
-255.122	8.037	0.068	0.051
-254.107	21.761	0.170	-0.137
-253.092	-146.969	0.109	-0.009
-252.078	-130.380	-0.329	-0.044
-251.063	222.366	0.184	0.294
-250.049	296.873	-0.061	-0.111
-249.034	228.489	-0.086	-0.138
-248.019	-24.550	0.157	0.092
-247.005	-24.825	-0.179	-0.105
-245.990	-200.000	0.128	0.000
-244.976	-200.000	-0.004	0.028
-243.961	204.417	-0.147	-0.225
-242.946	-200.000	-0.013	-0.089
-241.932	-200.000	-0.045	-0.216
-240.917	-77.813	0.227	-0.078
-239.903	-200.000	-0.028	0.265
-238.888	-100.812	0.062	-0.015
-237.873	-200.000	0.046	-0.203
-236.859	398.052	-0.064	-0.133
-235.844	-200.000	-0.019	0.120
-234.830	-200.000	-0.007	-0.104
-233.815	113.134	-0.075	0.090
-232.800	192.952	0.103	0.154
-231.786	-1.706	0.197	0.137
-230.771	-58.137	0.237	0.102
-229.757	-48.856	0.293	-0.139
-228.742	-146.695	0.179	0.015
-227.727	-49.151	-0.291	0.138
-226.713	-3.155	0.232	0.160
-225.698	-200.000	0.005	0.104
-224.684	800.000	0.092	-0.365
-223.669	59.702	-0.150	-0.146
-222.655	-65.808	-0.390	-0.155
-221.640	800.000	-0.049	-0.161
-220.625	272.941	0.046	0.080
-219.611	-200.000	0.022	0.206
-218.596	-175.294	0.151	-0.004
-217.582	410.553	-0.139	-0.291
-216.567	-92.729	0.305	0.085
-215.552	-38.037	0.188	-0.099
-214.538	-106.154	-0.297	0.066
-213.523	32.045	-0.173	0.147
-212.509	-70.648	0.095	-0.036
-211.494	-49.265	0.280	-0.132
-210.479	-107.250	0.187	-0.041
-209.465	-10.587	0.289	-0.189
-208.450	-181.228	0.367	0.007
-207.436	467.451	-0.084	-0.185
-206.421	800.000	-0.076	-0.291
-205.406	-145.381	0.060	0.005
-204.392	-176.458	0.073	-0.002
-203.377	185.376	-0.155	0.227
-202.363	791.892	-0.062	-0.168
-201.348	320.121	0.165	-0.310
-200.333	170.695	-0.066	-0.093
-199.319	8.851	-0.143	0.107
-198.304	-26.154	-0.052	0.030
-197.290	-134.224	-0.211	-0.026
-196.275	-94.968	-0.308	0.082
-195.260	-31.470	0.255	0.142
-194.246	98.170	0.066	0.075
-193.231	-57.686	0.252	0.109
-192.217	800.000	0.050	0.198
-191.202	-24.201	0.130	0.077
-190.187	51.623	-0.089	-0.084
-189.173	-50.973	0.141	-0.065
-188.158	99.609	0.083	0.095
-187.144	115.948	-0.234	0.283
-186.129	-128.255	0.143	-0.020
-185.114	271.890	0.085	-0.147
-184.100	47.589	0.097	0.090
-183.085	237.108	0.159	0.261
-182.071	-200.000	0.043	0.200
-181.056	0.046	-0.185	-0.130
-180.042	-200.000	-0.095	0.414
-179.027	-22.539	0.176	-0.105
-178.012	188.261	-0.039	-0.058
-176.998	800.000	-0.027	0.076
-175.983	38.529	-0.297	-0.262
-174.969	-188.146	0.186	-0.002
-173.954	327.428	-0.186	0.353
-172.939	800.000	0.052	0.189
-171.925	337.414	-0.111	0.213
-170.910	800.000	-0.046	-0.186
-169.896	338.589	-0.117	-0.224
-168.881	48.309	0.258	-0.238
-167.866	-200.000	-0.007	-0.402
-166.852	47.507	0.229	0.211
-165.837	-200.000	-0.009	-0.107
-164.823	403.099	0.150	0.311
-163.808	21.590	-0.201	-0.161
-162.793	-200.000	0.061	-0.380
-161.779	577.354	0.015	0.036
-160.764	-100.613	-0.275	-0.067
-159.750	211.080	0.282	0.437
-158.735	-200.000	-0.010	-0.324
-157.720	472.287	0.029	0.064
-156.706	74.948	-0.201	0.209
-155.691	66.118	-0.173	-0.173
-154.677	800.000	0.052	0.157
-153.662	25.874	-0.173	0.142
-152.647	-119.245	0.073	-0.013
-151.633	-89.430	0.234	0.068
-150.618	-63.729	0.040	0.016
-149.604	71.652	-0.086	0.088
-148.589	195.368	0.038	-0.057
-147.574	74.173	0.118	0.122
-146.560	-5.943	0.252	-0.170
-145.545	173.843	0.171	0.244
-144.531	448.371	-0.096	0.208
-143.516	-133.064	-0.273	0.034
-142.502	45.650	-0.110	0.100
-141.487	-141.437	-0.117	-0.012
-140.472	130.841	0.078	-0.099
-139.458	458.489	-0.075	0.165
-138.443	8.398	0.205	-0.152
-137.429	-149.016	0.210	0.017
-136.414	-115.110	0.121	-0.023
-135.399	144.272	-0.069	0.091
-134.385	800.000	-0.097	-0.351
-133.370	58.873	0.061	0.059
-132.356	311.137	0.147	0.271
-131.341	186.443	-0.077	0.113
-130.326	152.052	0.249	0.335
-129.312	208.706	0.153	-0.236
-128.297	-109.740	0.094	-0.019
-127.283	61.404	0.195	-0.191
-126.268	-200.000	0.020	0.107
-125.253	105.652	0.063	-0.074
-124.239	102.763	0.109	0.126
-123.224	190.991	0.017	-0.025
-122.210	4.267	0.032	-0.023
-121.195	-87.896	-0.125	-0.037
-120.180	-38.097	-0.213	-0.112
