DTS Sentinel unit serial number:	SN413079Multiplexer serial number:	ORYXHardware model number:	OX4-SRSoftware version number:	ORYX F/W v4.00 Oryx Data Collector v3.7.2.0data status	okinstallation	princeton_trtdifferential loss correction	single-endedforward channel	channel 2reverse channel	N/Adate	2019/09/18time	03:55:35forward acquisition time	60.00reverse acquisition time	0.00gamma	496.2192k internal	0.2348k external	0.2348temperature offset calibration	0.9983default loss term (dB/km)	0.3790temperature slope calibration	1.0000multiplexer offset coefficient	1.0000multiplexer slope coefficient	1.0000fibre end	0.00T internal ref (°C)	23.08T ext. ref 1 (°C)	0.18T ext. ref 2 (°C)	18.08length (m)	temperature (°C)	Stokes	anti-Stokes-747.200	43.492	-0.374	0.341
-746.185	-97.508	-0.415	-0.108
-745.171	76.107	0.207	0.219
-744.156	-123.783	-0.247	0.039
-743.142	64.456	0.024	0.024
-742.127	-17.507	0.360	0.226
-741.112	392.874	-0.129	0.269
-740.098	6.655	-0.332	0.246
-739.083	800.000	-0.085	-0.291
-738.069	-141.490	-0.233	0.024
-737.054	217.826	-0.069	0.110
-736.039	-200.000	0.006	-0.069
-735.025	-108.509	0.506	-0.109
-734.010	-47.300	-0.179	0.087
-732.996	-99.411	-0.140	0.035
-731.981	103.850	-0.145	-0.170
-730.966	-200.000	-0.010	0.215
-729.952	22.404	-0.094	0.077
-728.937	800.000	0.120	-0.347
-727.923	-33.690	-0.318	-0.175
-726.908	330.837	-0.150	-0.288
-725.894	-5.719	-0.425	-0.291
-724.879	-74.067	-0.101	-0.036
-723.864	800.000	0.151	0.465
-722.850	-108.641	-0.081	0.017
-721.835	-80.954	-0.135	-0.045
-720.821	67.850	0.080	0.082
-719.806	394.360	-0.173	-0.360
-718.791	164.522	-0.127	-0.179
-717.777	-156.819	-0.208	-0.013
-716.762	81.396	0.281	-0.303
-715.748	91.519	-0.144	0.162
-714.733	800.000	-0.052	-0.167
-713.718	29.485	0.278	-0.236
-712.704	-112.544	0.296	0.059
-711.689	-116.227	0.246	-0.046
-710.675	-105.184	-0.122	0.028
-709.660	47.704	0.183	-0.170
-708.645	-200.000	0.019	0.138
-707.631	55.280	0.246	0.238
-706.616	-111.194	0.037	-0.008
-705.602	334.075	0.022	-0.042
-704.587	-84.516	0.326	0.103
-703.572	-42.638	0.271	0.138
-702.558	-0.023	-0.067	-0.047
-701.543	-36.111	0.244	-0.131
-700.529	35.859	-0.063	0.055
-699.514	3.176	0.241	0.175
-698.499	-200.000	0.027	0.251
-697.485	-38.429	0.052	0.027
-696.470	99.711	0.081	0.093
-695.456	-200.000	-0.035	0.195
-694.441	-128.230	-0.040	-0.006
-693.426	-200.000	0.023	0.192
-692.412	-33.706	0.257	0.141
-691.397	-200.000	-0.002	0.242
-690.383	-121.043	-0.226	0.038
-689.368	-57.722	0.092	-0.040
-688.354	800.000	-0.127	-0.385
-687.339	-121.608	0.240	-0.040
-686.324	-92.341	-0.070	0.020
-685.310	355.994	0.162	0.321
-684.295	800.000	-0.048	0.198
-683.281	420.290	-0.089	0.191
-682.266	-81.359	-0.103	0.034
-681.251	-52.592	0.158	0.073
-680.237	800.000	0.029	-0.101
-679.222	-39.192	-0.386	0.202
-678.208	800.000	-0.042	-0.150
-677.193	-138.204	-0.276	-0.030
-676.178	-50.670	-0.075	-0.035
-675.164	96.008	-0.042	-0.048
-674.149	-51.177	0.234	-0.109
-673.135	-67.906	-0.097	0.038
-672.120	-174.687	0.367	-0.010
-671.105	-164.706	-0.278	-0.012
-670.091	187.006	0.110	0.163
-669.076	179.829	0.148	-0.217
-668.062	13.468	-0.052	0.040
-667.047	-43.753	0.182	0.091
-666.032	-74.126	0.346	0.125
-665.018	-31.329	-0.177	-0.099
-664.003	-65.117	0.156	0.063
-662.989	55.686	0.120	0.116
-661.974	-10.253	-0.162	-0.107
-660.959	-0.761	0.080	-0.057
-659.945	227.370	-0.116	0.188
-658.930	-40.835	-0.206	-0.106
-657.916	-136.219	-0.240	0.028
-656.901	1.695	-0.171	0.123
-655.886	141.994	-0.035	0.046
-654.872	252.766	-0.053	0.090
-653.857	178.074	-0.097	0.141
-652.843	-116.071	-0.477	-0.088
-651.828	-147.615	0.239	0.020
-650.814	800.000	0.068	0.263
-649.799	626.164	0.110	-0.277
-648.784	-35.227	-0.353	-0.191
-647.770	410.578	0.028	-0.060
-646.755	772.058	-0.099	-0.269
-645.741	236.155	0.054	-0.088
-644.726	176.292	0.156	0.225
-643.711	193.159	-0.115	-0.172
-642.697	-85.616	-0.163	0.051
-641.682	-200.000	-0.068	0.324
-640.668	-200.000	-0.022	-0.281
-639.653	-200.000	-0.007	-0.096
-638.638	86.349	0.148	-0.162
-637.624	-200.000	0.047	-0.210
-636.609	561.037	-0.031	0.073
-635.595	-124.439	-0.247	-0.038
-634.580	-61.241	-0.230	-0.097
-633.565	-200.000	0.044	0.239
-632.551	800.000	0.101	-0.296
-631.536	38.867	0.108	-0.096
-630.522	71.751	0.171	-0.177
-629.507	-117.059	-0.255	-0.046
-628.492	114.586	0.240	-0.291
-627.478	800.000	-0.048	-0.166
-626.463	17.765	-0.197	-0.156
-625.449	-200.000	0.004	-0.195
-624.434	-200.000	-0.030	-0.331
-623.419	-46.702	0.210	-0.102
-622.405	-6.755	-0.157	0.106
-621.390	197.130	0.028	-0.043
-620.376	248.619	0.212	0.356
-619.361	-200.000	0.024	0.200
-618.346	-200.000	-0.032	-0.215
-617.332	-54.567	-0.384	0.173
-616.317	-80.990	0.334	-0.110
-615.303	-78.837	-0.189	-0.064
-614.288	-115.619	-0.405	-0.076
-613.273	18.106	0.199	-0.158
-612.259	-152.344	0.346	-0.025
-611.244	-21.771	-0.212	-0.128
-610.230	435.190	-0.065	0.140
-609.215	-57.137	0.155	-0.068
-608.201	20.243	-0.280	-0.225
-607.186	-200.000	0.040	0.206
-606.171	-41.511	0.182	-0.093
-605.157	452.894	-0.103	-0.227
-604.142	8.878	0.042	-0.031
-603.128	273.074	-0.246	0.433
-602.113	800.000	-0.110	-0.363
-601.098	-9.681	-0.295	-0.195
-600.084	259.788	0.171	-0.293
-599.069	159.988	-0.195	0.270
-598.055	335.152	0.068	-0.131
-597.040	-122.590	0.252	-0.041
-596.025	130.903	-0.005	0.006
-595.011	168.628	0.284	-0.401
-593.996	380.776	0.046	-0.095
-592.982	-95.391	0.350	0.093
-591.967	-12.066	-0.081	-0.053
-590.952	397.437	-0.023	0.048
-589.938	800.000	0.018	-0.065
-588.923	-70.867	0.048	0.018
-587.909	3.843	0.168	-0.122
-586.894	4.687	0.207	0.151
-585.879	50.679	-0.191	-0.179
-584.865	-120.555	-0.248	-0.042
-583.850	800.000	-0.113	-0.342
-582.836	103.210	0.207	-0.240
-581.821	409.324	0.148	-0.310
-580.806	-59.230	-0.262	-0.112
-579.792	-37.904	0.162	0.085
-578.777	800.000	0.090	0.357
-577.763	-200.000	0.022	0.523
-576.748	-200.000	-0.001	-0.143
-575.733	55.477	-0.096	-0.092
-574.719	800.000	0.055	-0.221
-573.704	-119.742	0.077	0.013
-572.690	391.600	-0.118	0.244
-571.675	800.000	0.055	0.208
-570.661	-29.852	-0.179	-0.101
-569.646	-85.682	0.069	-0.021
-568.631	-107.709	0.254	0.055
-567.617	-92.050	-0.069	0.019
-566.602	716.930	-0.105	-0.277
-565.588	-127.694	-0.119	-0.017
-564.573	-200.000	-0.019	0.113
-563.558	8.719	0.170	-0.127
-562.544	231.747	0.228	-0.371
-561.529	-134.023	0.279	0.034
-560.515	800.000	-0.042	0.126
-559.500	-200.000	0.031	-0.199
-558.485	-200.000	-0.003	0.139
-557.471	-8.084	-0.224	0.150
-556.456	404.104	0.098	0.204
-555.442	800.000	-0.084	-0.252
-554.427	-136.871	0.072	-0.008
-553.412	175.157	0.110	-0.158
-552.398	-200.000	-0.002	-0.068
-551.383	-200.000	0.013	0.164
-550.369	-200.000	-0.005	0.340
-549.354	800.000	-0.125	0.363
-548.339	-200.000	-0.023	0.130
-547.325	109.147	0.153	-0.181
-546.310	4.775	0.086	-0.062
-545.296	800.000	-0.108	-0.425
-544.281	-200.000	-0.054	-0.426
-543.266	-200.000	-0.059	0.324
-542.252	88.513	-0.168	0.185
-541.237	-200.000	-0.047	0.217
-540.223	-136.119	0.297	-0.035
-539.208	-177.928	0.073	0.002
-538.193	-200.000	-0.055	-0.268
-537.179	121.600	-0.113	0.139
-536.164	-200.000	-0.028	-0.131
-535.150	-145.948	-0.319	0.028
-534.135	258.892	0.021	-0.035
-533.121	-116.339	0.074	0.014
-532.106	-73.077	0.151	0.055
-531.091	203.108	0.056	-0.086
-530.077	18.705	0.168	0.133
-529.062	394.347	0.171	-0.353
-528.048	272.879	0.119	-0.208
-527.033	-37.018	0.141	-0.075
-526.018	322.612	0.110	0.208
-525.004	800.000	-0.060	-0.255
-523.989	800.000	0.114	0.370
-522.975	-42.912	-0.358	-0.180
-521.960	-200.000	-0.002	0.170
-520.945	-7.571	-0.130	-0.087
-519.931	162.361	0.076	0.106
-518.916	163.740	0.148	-0.207
-517.902	194.349	-0.197	-0.295
-516.887	-200.000	0.031	0.205
-515.872	-200.000	0.009	-0.303
-514.858	14.331	-0.171	0.132
-513.843	-122.519	-0.361	-0.058
-512.829	108.852	0.168	0.199
-511.814	796.828	0.046	0.125
-510.799	-200.000	-0.012	0.063
-509.785	-200.000	-0.030	0.149
-508.770	-35.561	-0.266	-0.143
-507.756	99.613	0.126	-0.145
-506.741	800.000	0.054	0.213
-505.726	-135.656	-0.179	0.021
-504.712	175.776	0.036	-0.052
-503.697	-142.102	0.151	0.015
-502.683	180.841	0.184	-0.267
-501.668	800.000	-0.157	-0.509
-500.653	-90.820	0.264	-0.075
-499.639	-166.307	-0.359	-0.015
-498.624	-137.730	-0.100	0.011
-497.610	-200.000	0.033	-0.322
-496.595	431.235	-0.134	0.287
-495.581	-116.099	-0.211	-0.039
-494.566	-200.000	-0.008	-0.430
-493.551	-45.949	-0.433	-0.211
-492.537	-5.522	0.298	0.202
-491.522	-141.561	-0.156	-0.016
-490.508	66.959	-0.128	-0.129
-489.493	159.274	-0.385	-0.529
-488.478	-47.391	0.085	-0.041
-487.464	-131.930	0.384	-0.050
-486.449	95.419	0.137	0.154
-485.435	-17.518	-0.113	-0.070
-484.420	57.853	-0.140	-0.135
-483.405	138.086	0.097	-0.126
-482.391	-60.808	-0.189	-0.079
-481.376	800.000	0.051	0.196
-480.362	-49.917	0.264	-0.124
-479.347	-156.873	-0.090	0.005
-478.332	-167.039	0.130	-0.005
-477.318	82.988	-0.096	-0.104
-476.303	-70.670	-0.157	0.059
-475.289	800.000	0.061	-0.236
-474.274	800.000	0.039	-0.162
-473.259	-200.000	-0.033	-0.354
-472.245	-90.145	-0.214	-0.061
-471.230	240.783	-0.086	0.142
-470.216	-86.222	0.031	0.009
-469.201	699.611	0.058	-0.151
-468.186	-41.145	0.163	0.083
-467.172	313.346	0.147	-0.273
-466.157	-6.760	0.288	-0.194
-465.143	-98.274	0.229	-0.058
-464.128	-76.160	0.426	-0.149
-463.113	107.167	0.077	-0.090
-462.099	3.629	-0.253	0.182
-461.084	11.409	0.247	-0.187
-460.070	-108.768	-0.069	0.015
-459.055	-188.320	0.238	-0.003
-458.040	330.270	-0.138	-0.263
-457.026	340.738	-0.013	0.025
-456.011	575.653	-0.145	0.349
-454.997	190.854	-0.093	0.138
-453.982	238.708	0.066	-0.108
-452.968	-104.000	0.043	0.010
-451.953	-57.270	0.416	0.181
-450.938	-88.151	-0.127	-0.038
-449.924	-161.706	0.186	-0.009
-448.909	800.000	-0.059	0.189
-447.895	-98.747	0.142	0.036
-446.880	-55.637	0.098	0.043
-445.865	-200.000	-0.005	-0.314
-444.851	326.042	-0.077	0.146
-443.836	800.000	-0.027	0.106
-442.822	617.512	0.066	0.165
-441.807	444.457	-0.174	-0.378
-440.792	800.000	0.080	-0.322
-439.778	75.619	0.108	-0.112
-438.763	-200.000	0.016	-0.174
-437.749	800.000	0.037	0.132
-436.734	-200.000	0.009	0.159
-435.719	-61.018	-0.142	0.059
-434.705	-200.000	-0.027	0.207
-433.690	-146.234	0.218	-0.019
-432.676	205.930	0.236	0.363
-431.661	-93.726	0.110	0.030
-430.646	-200.000	0.004	0.064
-429.632	-88.254	-0.514	-0.152
-428.617	111.314	-0.030	0.035
-427.603	-131.605	-0.187	-0.024
-426.588	96.746	0.236	0.266
-425.573	800.000	-0.105	-0.354
-424.559	-115.618	-0.246	0.046
-423.544	-119.850	-0.429	0.073
-422.530	781.451	0.097	0.261
-421.515	-145.186	-0.081	0.007
-420.500	800.000	0.043	-0.146
-419.486	-38.686	-0.136	-0.071
-418.471	49.848	-0.358	0.333
-417.457	27.656	-0.239	0.198
-416.442	-94.657	0.189	0.051
-415.428	-124.752	-0.141	0.021
-414.413	4.871	0.177	-0.129
-413.398	800.000	-0.032	0.117
-412.384	-140.281	0.181	0.019
-411.369	800.000	0.107	0.358
-410.355	372.549	-0.162	0.325
-409.340	-200.000	-0.010	-0.102
-408.325	136.068	0.081	-0.104
-407.311	107.087	-0.037	0.044
-406.296	800.000	-0.071	-0.225
-405.282	-91.867	0.142	0.040
-404.267	-200.000	0.003	-0.128
-403.252	-200.000	0.022	0.197
-402.238	-200.000	0.047	0.392
-401.223	-72.039	-0.205	0.075
-400.209	9.746	0.332	0.248
-399.194	-88.766	-0.067	-0.020
-398.179	100.692	-0.074	0.085
-397.165	2.835	-0.224	-0.160
-396.150	64.528	0.154	0.153
-395.136	-142.707	0.109	0.010
-394.121	43.645	0.266	-0.240
-393.106	162.098	0.036	0.049
-392.092	-119.725	0.213	-0.036
-391.077	800.000	0.112	0.457
-390.063	-200.000	-0.014	-0.163
-389.048	-200.000	-0.051	-0.306
-388.033	262.731	-0.046	0.079
-387.019	-8.987	0.076	-0.050
-386.004	-200.000	-0.012	0.055
-384.990	-37.169	0.373	-0.197
-383.975	-59.640	0.412	-0.174
-382.960	127.202	0.123	-0.154
-381.946	-200.000	-0.031	-0.283
-380.931	-200.000	0.026	-0.164
-379.917	-124.717	0.033	0.005
-378.902	-83.765	0.202	-0.063
-377.888	602.487	-0.127	-0.311
-376.873	800.000	0.092	0.322
-375.858	8.589	-0.126	-0.093
-374.844	16.674	0.193	-0.150
-373.829	64.611	-0.229	-0.228
-372.815	141.284	-0.088	-0.115
-371.800	272.115	0.137	-0.238
-370.785	-153.004	-0.111	0.008
-369.771	137.383	-0.206	0.266
-368.756	412.830	-0.140	0.293
-367.742	91.711	-0.174	0.193
-366.727	800.000	0.022	-0.068
-365.712	-68.809	-0.160	-0.061
-364.698	76.262	0.117	0.122
-363.683	138.003	0.059	-0.076
-362.669	-150.386	-0.281	-0.021
-361.654	-153.173	-0.374	-0.026
-360.639	800.000	-0.064	0.215
-359.625	6.273	0.074	-0.054
-358.610	-68.076	0.092	0.035
-357.596	-16.386	-0.177	0.111
-356.581	335.865	-0.128	0.244
-355.566	729.887	0.083	0.217
-354.552	-36.396	0.082	-0.043
-353.537	-165.949	0.278	-0.012
-352.523	-150.378	-0.468	0.035
-351.508	7.482	0.189	-0.139
-350.493	119.902	0.086	-0.105
-349.479	800.000	-0.038	0.117
-348.464	-114.755	-0.231	-0.043
-347.450	-92.687	0.015	0.004
-346.435	86.432	0.120	-0.130
-345.420	-171.271	-0.372	0.012
-344.406	70.556	-0.241	0.245
-343.391	123.514	-0.142	-0.175
-342.377	-200.000	0.033	-0.192
-341.362	630.907	-0.062	-0.155
-340.348	-162.531	-0.257	-0.012
-339.333	800.000	0.047	0.200
-338.318	-200.000	0.081	0.442
-337.304	800.000	-0.020	-0.083
-336.289	-180.072	-0.045	-0.001
-335.275	43.320	0.106	-0.095
-334.260	-121.160	0.057	0.009
-333.245	113.123	-0.133	-0.159
-332.231	69.396	0.227	-0.230
-331.216	-76.229	0.202	0.070
-330.202	-200.000	0.053	-0.298
-329.187	441.285	0.047	-0.100
-328.172	-200.000	0.004	-0.035
-327.158	111.293	0.076	-0.090
-326.143	531.025	0.070	-0.162
-325.129	-200.000	0.021	-0.406
-324.114	292.838	-0.150	0.269
-323.099	0.804	-0.129	-0.091
-322.085	-7.679	0.221	0.146
-321.070	-103.093	0.465	0.108
-320.056	-200.000	0.009	0.194
-319.041	152.756	0.422	0.566
-318.026	-37.539	0.158	0.083
-317.012	466.985	0.097	0.214
-315.997	-123.521	0.248	0.039
-314.983	-1.111	-0.030	0.021
-313.968	-34.174	-0.108	-0.058
-312.953	-182.602	-0.157	0.003
-311.939	-2.069	-0.077	-0.053
-310.924	-101.956	0.083	-0.020
-309.910	-145.182	-0.226	0.020
-308.895	-134.787	-0.192	-0.023
-307.880	372.215	-0.049	0.097
-306.866	49.690	0.293	-0.271
-305.851	-87.302	0.348	0.104
-304.837	571.886	0.011	0.026
-303.822	800.000	-0.066	0.280
-302.807	-165.375	-0.324	-0.014
-301.793	-46.603	-0.200	0.096
-300.778	102.035	-0.027	-0.031
-299.764	-200.000	-0.037	0.172
-298.749	547.902	-0.101	0.238
-297.735	200.011	0.100	0.151
-296.720	-200.000	0.021	0.111
-295.705	-182.083	-0.174	0.003
-294.691	-200.000	0.031	0.198
-293.676	455.728	0.130	-0.284
-292.662	800.000	-0.077	-0.211
-291.647	249.652	-0.156	0.259
-290.632	-200.000	-0.004	0.018
-289.618	-200.000	-0.043	-0.343
-288.603	477.541	0.141	0.313
-287.589	-200.000	-0.021	0.110
-286.574	-200.000	-0.026	-0.123
-285.559	149.453	-0.107	0.143
-284.545	800.000	0.050	0.140
-283.530	249.992	0.097	0.161
-282.516	136.980	-0.249	0.319
-281.501	35.618	0.116	-0.100
-280.486	-150.534	-0.132	-0.010
-279.472	194.265	-0.201	0.299
-278.457	-200.000	-0.003	-0.096
-277.443	473.184	-0.042	-0.093
-276.428	800.000	-0.018	-0.050
-275.413	-78.764	-0.166	0.056
-274.399	78.770	0.151	0.158
-273.384	-129.537	0.152	0.021
-272.370	-200.000	-0.019	-0.302
-271.355	-200.000	0.006	-0.249
-270.340	5.873	0.198	-0.144
-269.326	21.511	0.532	0.424
-268.311	-25.244	-0.086	-0.050
-267.297	-35.535	0.134	-0.071
-266.282	-43.441	-0.546	0.270
-265.267	500.043	0.058	0.131
-264.253	-135.863	0.253	-0.029
-263.238	412.758	-0.151	0.314
-262.224	-200.000	0.035	-0.151
-261.209	-83.870	-0.322	0.101
-260.195	-85.718	0.372	0.113
-259.180	-100.923	-0.257	-0.062
-258.165	800.000	0.183	-0.568
-257.151	-3.654	-0.297	-0.202
-256.136	379.897	0.055	-0.110
-255.122	111.518	-0.189	-0.224
-254.107	73.935	-0.042	0.043
-253.092	-90.014	0.463	0.132
-252.078	-89.797	0.208	0.060
-251.063	-6.253	-0.225	-0.151
-250.049	-162.777	-0.142	0.007
-249.034	127.508	0.145	0.180
-248.019	-200.000	-0.131	-0.000
-247.005	149.104	0.088	0.116
-245.990	-42.130	-0.198	0.099
-244.976	-200.000	0.033	-0.221
-243.961	-200.000	-0.011	0.068
-242.946	-93.424	-0.115	-0.031
-241.932	-53.698	-0.178	0.079
-240.917	-200.000	-0.021	-0.100
-239.903	-11.371	0.070	0.045
-238.888	-188.598	0.089	-0.001
-237.873	3.387	-0.332	0.237
-236.859	305.040	0.098	0.179
-235.844	-40.753	-0.284	0.144
-234.830	-163.264	0.243	0.011
-233.815	208.271	-0.163	0.250
-232.800	127.209	-0.072	0.089
-231.786	-51.265	-0.187	-0.086
-230.771	800.000	0.063	-0.265
-229.757	-73.048	-0.215	0.077
-228.742	28.167	0.100	-0.083
-227.727	95.067	-0.105	0.117
-226.713	109.970	-0.137	-0.161
-225.698	-116.687	-0.143	0.026
-224.684	212.456	0.167	0.258
-223.669	800.000	-0.048	-0.164
-222.655	800.000	0.171	0.497
-221.640	-200.000	0.010	0.342
-220.625	-50.299	0.180	0.083
-219.611	-68.657	0.218	0.083
-218.596	97.159	-0.179	0.201
-217.582	-200.000	-0.027	0.460
-216.567	79.559	0.238	0.250
-215.552	-133.476	0.263	-0.032
-214.538	-135.432	-0.342	-0.040
-213.523	-46.618	0.552	0.265
-212.509	-49.319	-0.021	-0.010
-211.494	27.911	0.123	-0.101
-210.479	-69.900	0.055	-0.021
-209.465	-175.341	-0.182	-0.005
-208.450	-22.815	-0.172	-0.101
-207.436	261.890	-0.155	0.263
-206.421	-124.104	0.284	0.044
-205.406	5.316	0.058	0.042
-204.392	349.873	0.083	0.161
-203.377	-200.000	-0.042	-0.278
-202.363	-200.000	0.004	0.049
-201.348	-115.125	-0.384	0.071
-200.333	800.000	0.006	-0.019
-199.319	-93.823	-0.325	-0.087
-198.304	22.517	-0.299	-0.239
-197.290	-200.000	-0.056	-0.266
-196.275	-200.000	-0.036	-0.358
-195.260	6.036	0.188	-0.136
-194.246	-130.565	-0.148	-0.019
-193.231	58.738	0.075	0.072
-192.217	-25.187	0.342	0.198
-191.202	-200.000	-0.002	-0.051
-190.187	65.825	0.172	0.170
-189.173	800.000	0.045	-0.164
-188.158	-59.254	0.171	0.072
-187.144	19.173	-0.272	0.214
-186.129	-200.000	-0.043	0.328
-185.114	-199.348	-0.116	-0.001
-184.100	-200.000	-0.048	0.000
-183.085	51.384	0.054	0.050
-182.071	238.071	-0.092	0.149
-181.056	20.272	-0.048	0.038
-180.042	-71.511	0.301	0.110
-179.027	800.000	0.124	0.466
-178.012	-134.923	-0.315	0.037
-176.998	-52.876	0.129	-0.058
-175.983	671.907	0.085	-0.216
-174.969	-200.000	-0.018	0.173
-173.954	473.183	-0.042	0.093
-172.939	800.000	0.072	-0.289
-171.925	430.608	0.075	0.159
-170.910	-200.000	-0.039	0.395
-169.896	-127.888	0.020	0.003
-168.881	-200.000	0.056	-0.352
-167.866	-200.000	-0.019	0.371
-166.852	623.650	-0.075	0.184
-165.837	126.525	-0.268	0.331
-164.823	800.000	0.028	0.093
-163.808	273.534	-0.080	-0.139
-162.793	-2.253	0.233	0.159
-161.779	22.260	0.230	0.183
-160.764	-200.000	-0.033	0.255
-159.750	-145.139	0.230	0.020
-158.735	83.308	0.215	0.229
-157.720	-54.839	0.150	0.066
-156.706	-148.712	0.196	-0.016
-155.691	110.037	-0.193	0.227
-154.677	-151.857	-0.124	-0.009
-153.662	-200.000	-0.058	0.331
-152.647	-11.153	0.154	0.099
-151.633	13.512	-0.074	-0.056
-150.618	-200.000	-0.006	-0.102
-149.604	606.595	0.085	0.207
-148.589	437.229	-0.107	0.228
-147.574	77.222	-0.091	0.094
-146.560	157.631	-0.048	0.065
-145.545	113.276	-0.189	0.223
-144.531	152.226	-0.161	0.214
-143.516	800.000	0.058	0.192
-142.502	88.369	0.089	0.096
-141.487	-177.692	0.067	0.002
-140.472	-193.697	-0.412	-0.003
-139.458	-200.000	-0.017	-0.135
-138.443	-200.000	0.000	0.069
-137.429	-43.193	-0.275	-0.136
-136.414	-98.301	0.024	-0.006
-135.399	483.135	0.160	0.355
-134.385	800.000	-0.094	0.291
-133.370	-200.000	-0.076	-0.406
-132.356	-40.860	0.284	-0.143
-131.341	51.534	0.216	0.200
-130.326	87.350	-0.129	0.140
-129.312	104.302	0.137	0.157
-128.297	-92.311	-0.055	0.015
-127.283	606.932	-0.047	-0.113
-126.268	-106.439	0.080	-0.018
-125.253	-200.000	0.026	-0.169
-124.239	-61.496	0.071	0.029
-123.224	-89.304	-0.187	0.054
-122.210	221.357	-0.101	-0.157
-121.195	627.047	-0.080	0.196
