DTS Sentinel unit serial number:	SN413079Multiplexer serial number:	ORYXHardware model number:	OX4-SRSoftware version number:	ORYX F/W v4.00 Oryx Data Collector v3.7.2.0data status	okinstallation	princeton_trtdifferential loss correction	single-endedforward channel	channel 2reverse channel	N/Adate	2019/09/18time	02:23:35forward acquisition time	60.00reverse acquisition time	0.00gamma	496.2192k internal	0.2350k external	0.2350temperature offset calibration	0.9983default loss term (dB/km)	0.3790temperature slope calibration	1.0000multiplexer offset coefficient	1.0000multiplexer slope coefficient	1.0000fibre end	0.00T internal ref (°C)	22.81T ext. ref 1 (°C)	0.17T ext. ref 2 (°C)	16.93length (m)	temperature (°C)	Stokes	anti-Stokes-747.200	-107.953	0.199	0.043
-746.185	-75.529	0.101	-0.036
-745.171	-6.682	-0.193	0.131
-744.156	800.000	0.003	0.014
-743.142	-200.000	-0.006	0.136
-742.127	-162.256	0.188	-0.009
-741.112	-170.005	-0.181	0.006
-740.098	-200.000	-0.010	0.169
-739.083	526.027	0.060	-0.141
-738.069	-102.751	-0.436	-0.104
-737.054	800.000	-0.107	0.300
-736.039	-23.062	-0.149	-0.090
-735.025	800.000	0.091	0.375
-734.010	113.434	-0.260	-0.315
-732.996	93.243	0.111	0.126
-731.981	102.019	-0.206	-0.240
-730.966	77.728	0.084	0.089
-729.952	-30.693	-0.143	-0.081
-728.937	-105.511	-0.075	-0.017
-727.923	-200.000	-0.041	0.282
-726.908	800.000	0.041	-0.123
-725.894	779.836	0.088	-0.239
-724.879	-100.566	0.180	0.044
-723.864	800.000	-0.051	0.167
-722.850	800.000	0.047	0.144
-721.835	-156.883	0.157	0.010
-720.821	31.631	-0.152	-0.131
-719.806	-200.000	0.018	0.266
-718.791	-74.416	0.137	0.049
-717.777	-87.713	0.121	-0.036
-716.762	800.000	-0.087	0.244
-715.748	-200.000	-0.023	0.294
-714.733	122.093	-0.134	0.167
-713.718	-125.283	0.029	0.004
-712.704	-35.849	-0.265	-0.143
-711.689	-189.030	-0.220	0.003
-710.675	73.620	-0.301	0.314
-709.660	145.535	-0.260	0.347
-708.645	-45.160	-0.257	-0.127
-707.631	-200.000	0.062	0.294
-706.616	-188.651	0.246	-0.003
-705.602	506.781	-0.060	0.138
-704.587	22.396	-0.088	0.072
-703.572	-162.615	-0.280	0.014
-702.558	800.000	0.062	0.226
-701.543	-145.489	0.321	0.029
-700.529	800.000	-0.031	0.124
-699.514	31.554	0.188	0.161
-698.499	351.081	0.124	0.244
-697.485	467.721	-0.101	-0.226
-696.470	79.175	0.049	-0.053
-695.456	-194.516	-0.341	-0.003
-694.441	-48.743	-0.382	-0.183
-693.426	-200.000	-0.003	0.021
-692.412	-200.000	0.006	0.058
-691.397	-44.540	0.026	-0.013
-690.383	60.233	0.207	0.204
-689.368	-88.457	-0.535	-0.159
-688.354	-84.125	-0.210	-0.066
-687.339	-92.689	-0.298	0.083
-686.324	-200.000	-0.011	-0.186
-685.310	800.000	-0.065	0.211
-684.295	-142.072	-0.243	0.024
-683.281	181.312	0.075	0.111
-682.266	-43.080	0.151	-0.076
-681.251	-78.291	-0.269	-0.092
-680.237	-200.000	-0.003	-0.066
-679.222	49.708	-0.244	-0.229
-678.208	-200.000	0.048	-0.303
-677.193	-77.440	0.158	-0.055
-676.178	564.750	0.179	-0.433
-675.164	332.992	0.110	-0.211
-674.149	-200.000	0.025	-0.128
-673.135	321.194	-0.128	-0.243
-672.120	-93.407	-0.150	-0.041
-671.105	-90.899	0.156	-0.045
-670.091	-200.000	-0.016	-0.134
-669.076	800.000	0.028	0.115
-668.062	676.553	0.059	-0.151
-667.047	800.000	0.102	0.307
-666.032	394.975	-0.065	-0.135
-665.018	75.577	-0.020	0.021
-664.003	57.039	-0.028	-0.028
-662.989	62.876	0.052	0.052
-661.974	800.000	-0.093	0.386
-660.959	25.824	0.014	0.012
-659.945	-149.058	-0.214	0.017
-658.930	-53.641	-0.269	0.122
-657.916	800.000	-0.002	-0.005
-656.901	532.187	0.069	-0.163
-655.886	-4.777	-0.281	0.193
-654.872	195.291	-0.180	-0.272
-653.857	135.915	0.175	0.226
-652.843	478.721	0.112	0.251
-651.828	-37.706	-0.197	0.104
-650.814	-160.097	-0.267	-0.014
-649.799	-200.000	0.002	0.082
-648.784	278.276	0.151	-0.268
-647.770	-126.377	0.298	-0.044
-646.755	460.837	0.056	-0.124
-645.741	800.000	-0.029	0.108
-644.726	-7.399	0.172	0.116
-643.711	531.329	0.159	-0.374
-642.697	-90.870	-0.034	-0.010
-641.682	30.836	-0.234	-0.199
-640.668	796.385	-0.096	-0.263
-639.653	-80.652	0.186	0.061
-638.638	256.495	-0.051	0.087
-637.624	-51.153	-0.051	-0.024
-636.609	800.000	-0.043	-0.139
-635.595	-200.000	-0.005	0.173
-634.580	800.000	-0.054	-0.222
-633.565	-93.160	-0.065	-0.018
-632.551	460.355	-0.059	-0.131
-631.536	362.398	-0.144	0.288
-630.522	640.682	0.016	0.041
-629.507	-200.000	0.047	-0.379
-628.492	230.549	-0.173	0.282
-627.478	361.887	-0.112	-0.222
-626.463	-200.000	-0.035	0.226
-625.449	681.830	-0.149	-0.387
-624.434	-22.816	0.046	-0.028
-623.419	-88.504	0.451	-0.134
-622.405	375.640	0.064	0.130
-621.390	184.368	0.125	0.184
-620.376	55.193	0.255	-0.245
-619.361	367.042	-0.142	0.284
-618.346	119.681	-0.189	0.233
-617.332	-200.000	-0.002	0.079
-616.317	502.093	0.077	-0.176
-615.303	-47.173	0.094	-0.046
-614.288	665.119	0.021	0.055
-613.273	-200.000	0.013	-0.411
-612.259	-61.101	-0.134	0.056
-611.244	-133.211	0.127	0.016
-610.230	153.373	-0.181	-0.246
-609.215	-200.000	-0.008	-0.155
-608.201	128.109	0.250	0.315
-607.186	-200.000	-0.007	-0.321
-606.171	800.000	0.017	-0.074
-605.157	11.912	-0.109	0.083
-604.142	8.589	-0.383	-0.287
-603.128	-163.844	-0.126	-0.006
-602.113	138.287	-0.092	0.119
-601.098	-160.370	-0.132	-0.007
-600.084	102.970	-0.196	0.227
-599.069	265.395	-0.203	-0.352
-598.055	153.735	0.346	-0.470
-597.040	-200.000	-0.031	-0.164
-596.025	-57.860	-0.352	0.153
-595.011	21.010	0.327	-0.263
-593.996	-176.508	0.444	0.011
-592.982	-23.538	0.252	-0.150
-591.967	-159.914	-0.463	0.025
-590.952	159.273	0.082	0.113
-589.938	314.356	-0.108	0.202
-588.923	-102.463	-0.239	-0.057
-587.909	-141.549	-0.305	0.031
-586.894	85.316	0.066	0.072
-585.879	800.000	0.079	0.220
-584.865	-45.917	-0.209	-0.103
-583.850	-116.652	0.237	-0.043
-582.836	-59.976	-0.312	-0.132
-581.821	800.000	-0.112	-0.392
-580.806	206.001	-0.155	-0.239
-579.792	-200.000	-0.016	0.079
-578.777	-35.341	0.410	-0.221
-577.763	415.661	0.065	0.138
-576.748	-200.000	-0.037	0.284
-575.733	124.528	0.105	-0.131
-574.719	-142.012	-0.268	-0.026
-573.704	-24.066	0.382	-0.227
-572.690	284.404	0.066	0.117
-571.675	-200.000	-0.005	-0.103
-570.661	134.853	0.128	-0.165
-569.646	-200.000	-0.033	-0.292
-568.631	-141.503	-0.220	0.022
-567.617	-117.229	-0.347	-0.063
-566.602	36.225	-0.210	-0.183
-565.588	788.965	0.105	-0.286
-564.573	129.079	-0.126	0.159
-563.558	244.560	0.122	-0.204
-562.544	22.543	-0.269	-0.218
-561.529	452.040	-0.157	-0.344
-560.515	479.884	0.204	0.459
-559.500	-200.000	-0.017	0.123
-558.485	111.853	-0.262	0.313
-557.471	39.624	-0.155	0.138
-556.456	5.973	-0.148	-0.108
-555.442	96.256	-0.228	0.258
-554.427	-54.387	0.171	0.077
-553.412	-107.921	0.167	-0.036
-552.398	347.356	-0.131	0.256
-551.383	-136.117	-0.352	0.041
-550.369	213.493	-0.047	0.073
-549.354	-113.896	0.083	-0.016
-548.339	55.106	0.353	0.338
-547.325	56.505	-0.220	0.212
-546.310	-98.741	0.046	-0.012
-545.296	148.155	-0.068	0.091
-544.281	493.366	-0.076	-0.174
-543.266	71.318	0.102	-0.104
-542.252	39.951	0.201	0.179
-541.237	31.018	-0.231	-0.196
-540.223	800.000	0.038	-0.116
-539.208	790.479	-0.090	-0.246
-538.193	-13.568	-0.267	0.172
-537.179	-67.449	-0.176	0.068
-536.164	100.166	-0.181	-0.208
-535.150	-88.852	0.336	0.099
-534.135	47.127	-0.251	-0.231
-533.121	181.493	0.255	-0.372
-532.106	-47.781	0.128	0.061
-531.091	101.392	0.120	-0.138
-530.077	-4.242	-0.159	-0.109
-529.062	25.137	-0.119	-0.098
-528.048	94.931	0.050	0.056
-527.033	17.155	-0.124	-0.097
-526.018	-200.000	0.148	0.001
-525.004	-150.192	0.326	0.025
-523.989	-200.000	-0.005	-0.246
-522.975	-118.781	0.311	-0.054
-521.960	55.359	0.082	0.078
-520.945	-97.802	-0.088	-0.023
-519.931	800.000	0.035	-0.108
-518.916	-200.000	-0.032	0.144
-517.902	800.000	0.111	-0.339
-516.887	-70.366	0.153	0.057
-515.872	32.230	0.262	0.224
-514.858	116.782	0.265	0.322
-513.843	421.257	-0.076	0.161
-512.829	163.731	-0.153	0.213
-511.814	82.786	0.438	0.471
-510.799	652.882	0.058	0.147
-509.785	-200.000	-0.009	0.156
-508.770	1.788	-0.301	0.215
-507.756	-117.276	-0.347	0.062
-506.741	-200.000	-0.038	0.190
-505.726	207.558	-0.133	-0.205
-504.712	-60.479	0.075	0.032
-503.697	454.947	0.045	0.099
-502.683	13.435	0.195	-0.150
-501.668	-53.443	-0.192	-0.087
-500.653	-50.915	0.175	0.082
-499.639	-200.000	0.021	-0.157
-498.624	204.644	0.083	0.128
-497.610	41.985	-0.217	0.195
-496.595	-76.297	-0.197	-0.069
-495.581	70.710	-0.142	-0.145
-494.566	-200.000	-0.036	-0.200
-493.551	759.609	-0.032	-0.085
-492.537	187.928	0.060	-0.089
-491.522	-81.263	-0.153	-0.050
-490.508	23.905	-0.246	-0.200
-489.493	-93.790	0.337	0.092
-488.478	-64.645	-0.227	0.091
-487.464	-51.959	0.191	-0.088
-486.449	383.936	-0.175	-0.355
-485.435	133.891	0.177	-0.227
-484.420	-200.000	-0.039	-0.323
-483.405	-38.148	0.301	0.158
-482.391	-200.000	-0.004	-0.088
-481.376	-200.000	0.051	-0.378
-480.362	-200.000	-0.037	-0.201
-479.347	-77.871	-0.401	-0.137
-478.332	-200.000	-0.042	0.259
-477.318	-164.693	-0.175	0.008
-476.303	187.772	0.054	0.079
-475.289	-78.478	-0.228	-0.077
-474.274	2.540	-0.149	-0.107
-473.259	9.832	0.212	0.159
-472.245	86.928	0.153	-0.167
-471.230	127.475	-0.155	-0.194
-470.216	-200.000	-0.024	-0.118
-469.201	-21.773	-0.222	-0.133
-468.186	-17.460	-0.182	-0.113
-467.172	687.892	-0.128	0.331
-466.157	156.238	0.210	-0.286
-465.143	-64.179	0.045	0.018
-464.128	244.929	-0.105	0.174
-463.113	16.594	-0.235	0.183
-462.099	-129.425	0.228	0.031
-461.084	-200.000	0.020	-0.191
-460.070	-35.709	-0.201	0.108
-459.055	800.000	-0.108	0.362
-458.040	-143.834	-0.497	-0.046
-457.026	8.791	0.087	0.064
-456.011	-166.062	-0.385	-0.016
-454.997	-91.663	0.075	0.021
-453.982	-146.454	0.448	-0.039
-452.968	-21.228	0.187	0.113
-451.953	613.405	-0.092	-0.228
-450.938	-30.415	-0.214	-0.120
-449.924	-66.037	-0.081	-0.032
-448.909	284.897	0.159	0.282
-447.895	369.343	-0.028	-0.056
-446.880	367.813	0.153	-0.304
-445.865	-78.337	0.263	0.089
-444.851	155.670	0.116	0.158
-443.836	254.375	-0.179	0.302
-442.822	-200.000	0.001	0.154
-441.807	-200.000	0.007	-0.254
-440.792	123.743	0.110	-0.136
-439.778	-102.720	0.347	-0.082
-438.763	-20.288	0.110	-0.067
-437.749	464.867	-0.048	-0.105
-436.734	40.746	0.093	0.083
-435.719	-116.671	-0.216	0.039
-434.705	132.311	0.149	0.189
-433.690	-66.196	0.129	0.051
-432.676	262.744	0.311	0.533
-431.661	117.365	-0.105	0.127
-430.646	-32.777	-0.389	-0.213
-429.632	800.000	0.043	0.122
-428.617	800.000	0.041	-0.112
-427.603	800.000	-0.042	-0.175
-426.588	-143.356	-0.095	0.009
-425.573	-200.000	0.029	0.163
-424.559	-9.586	-0.278	0.183
-423.544	-132.948	0.376	0.047
-422.530	-200.000	0.035	0.160
-421.515	44.060	-0.247	0.223
-420.500	161.141	0.092	0.127
-419.486	298.098	0.158	-0.286
-418.471	-127.031	-0.259	-0.037
-417.457	146.110	-0.108	-0.143
-416.442	-71.229	-0.567	-0.210
-415.428	-121.967	0.195	0.032
-414.413	-200.000	0.035	-0.155
-413.398	-101.470	-0.125	0.030
-412.384	800.000	0.094	-0.312
-411.369	63.237	-0.250	-0.247
-410.355	124.956	0.150	0.186
-409.340	54.945	0.076	-0.073
-408.325	46.663	-0.043	0.039
-407.311	112.680	-0.155	-0.185
-406.296	800.000	0.061	-0.209
-405.282	168.909	0.019	-0.026
-404.267	-200.000	-0.034	0.150
-403.252	713.859	-0.064	-0.168
-402.238	71.959	-0.127	0.130
-401.223	-200.000	0.033	0.282
-400.209	-143.995	0.163	0.015
-399.194	-200.000	0.002	0.070
-398.179	20.977	0.109	0.087
-397.165	762.196	0.072	-0.191
-396.150	-123.243	-0.067	0.011
-395.136	-130.554	0.121	-0.016
-394.121	-38.783	0.341	0.177
-393.106	-54.048	-0.103	0.046
-392.092	-200.000	0.007	-0.099
-391.077	402.723	-0.151	0.313
-390.063	230.657	0.081	-0.131
-389.048	-200.000	0.018	-0.092
-388.033	-58.933	-0.197	0.084
-387.019	-200.000	0.016	-0.103
-386.004	-200.000	0.028	0.346
-384.990	-74.185	-0.419	0.149
-383.975	-5.655	0.275	-0.186
-382.960	317.658	0.036	-0.066
-381.946	-89.048	-0.210	0.061
-380.931	20.955	-0.259	0.207
-379.917	-9.818	0.292	-0.191
-378.902	-32.323	0.176	-0.097
-377.888	558.393	-0.133	-0.317
-376.873	-90.972	-0.246	0.070
-375.858	-5.728	0.289	-0.195
-374.844	237.682	-0.090	-0.147
-373.829	73.127	0.224	-0.231
-372.815	-50.614	0.195	-0.091
-371.800	800.000	-0.045	0.191
-370.785	58.868	0.099	-0.096
-369.771	131.652	-0.055	-0.070
-368.756	709.139	-0.165	0.428
-367.742	-200.000	0.001	0.340
-366.727	16.964	0.150	-0.117
-365.712	167.486	-0.141	0.197
-364.698	-200.000	-0.064	-0.304
-363.683	-20.926	-0.020	-0.012
-362.669	653.913	0.065	0.164
-361.654	239.765	0.174	-0.285
-360.639	191.763	0.225	0.334
-359.625	-200.000	0.040	-0.241
-358.610	137.228	-0.162	-0.208
-357.596	-200.000	-0.010	0.132
-356.581	-84.514	0.216	-0.067
-355.566	231.559	-0.088	0.142
-354.552	-200.000	0.002	-0.159
-353.537	465.392	0.013	0.029
-352.523	800.000	0.071	0.217
-351.508	-200.000	0.004	-0.083
-350.493	-7.752	-0.473	-0.314
-349.479	-64.504	-0.264	0.105
-348.464	-200.000	-0.008	-0.221
-347.450	599.478	-0.109	0.267
-346.435	637.923	0.109	-0.273
-345.420	-200.000	0.099	-0.433
-344.406	-27.259	0.073	0.042
-343.391	-43.884	0.284	-0.140
-342.377	636.706	0.104	0.261
-341.362	-200.000	-0.087	-0.564
-340.348	-51.645	0.416	0.191
-339.333	83.172	0.167	0.179
-338.318	-200.000	0.026	0.312
-337.304	41.890	-0.229	-0.204
-336.289	-200.000	-0.021	0.296
-335.275	-33.414	-0.090	-0.049
-334.260	-200.000	-0.011	0.266
-333.245	48.015	-0.184	0.169
-332.231	-24.609	0.046	0.027
-331.216	-200.000	0.068	-0.404
-330.202	563.548	0.105	0.251
-329.187	176.238	0.130	0.186
-328.172	1.727	0.275	0.195
-327.158	15.278	0.098	-0.076
-326.143	-58.913	-0.214	0.091
-325.129	-200.000	0.028	-0.127
-324.114	-200.000	-0.185	0.000
-323.099	305.804	0.220	0.403
-322.085	-1.148	0.380	0.264
-321.070	800.000	-0.017	-0.061
-320.056	240.362	-0.064	0.104
-319.041	11.015	0.430	-0.323
-318.026	244.402	0.042	0.069
-317.012	-90.447	0.030	-0.009
-315.997	7.410	0.271	0.199
-314.983	11.331	-0.067	-0.050
-313.968	11.275	0.200	0.150
-312.953	-58.920	-0.156	-0.066
-311.939	-91.112	-0.314	0.088
-310.924	-200.000	0.005	0.340
-309.910	3.461	0.274	0.196
-308.895	186.113	-0.142	-0.207
-307.880	84.776	0.178	-0.191
-306.866	28.443	0.035	0.029
-305.851	-98.015	-0.228	0.058
-304.837	800.000	0.063	0.218
-303.822	325.220	0.073	0.136
-302.807	-200.000	0.007	-0.075
-301.793	-144.141	-0.131	-0.012
-300.778	-77.700	-0.229	0.078
-299.764	-123.949	0.089	0.014
-298.749	63.210	0.093	-0.091
-297.735	-36.825	0.285	0.150
-296.720	-21.348	0.163	0.098
-295.705	800.000	0.090	0.265
-294.691	101.490	0.070	0.080
-293.676	649.934	-0.029	-0.072
-292.662	-11.140	-0.348	0.225
-291.647	-110.239	0.211	-0.043
-290.632	-73.106	0.219	0.079
-289.618	-19.601	0.200	0.122
-288.603	800.000	0.030	-0.088
-287.589	57.778	-0.316	-0.303
-286.574	-117.069	-0.155	0.028
-285.559	-36.373	-0.194	0.103
-284.545	-200.000	-0.044	-0.206
-283.530	-44.914	0.277	0.135
-282.516	-106.091	-0.303	-0.067
-281.501	-41.508	-0.297	0.150
-280.486	-200.000	0.020	0.233
-279.472	36.651	-0.176	-0.153
-278.457	-200.000	-0.009	0.071
-277.443	-61.600	0.233	-0.096
-276.428	-200.000	0.038	0.316
-275.413	248.314	-0.187	-0.309
-274.399	-200.000	0.001	-0.077
-273.384	267.641	0.151	-0.259
-272.370	-200.000	0.059	0.316
-271.355	61.709	-0.129	0.126
-270.340	24.860	0.034	0.028
-269.326	-200.000	0.007	0.262
-268.311	264.174	0.176	-0.301
-267.297	-78.963	0.191	-0.064
-266.282	58.822	0.339	0.327
-265.267	46.632	0.108	-0.098
-264.253	-64.048	0.012	0.005
-263.238	800.000	-0.109	0.307
-262.224	-114.890	-0.461	0.086
-261.209	539.525	0.090	0.210
-260.195	-145.797	0.156	0.014
-259.180	-7.992	-0.231	-0.152
-258.165	800.000	0.148	0.417
-257.151	800.000	0.046	-0.175
-256.136	-181.625	-0.472	-0.009
-255.122	-34.721	-0.170	0.091
-254.107	-138.188	0.210	0.023
-253.092	210.427	-0.142	-0.218
-252.078	-190.773	0.236	0.002
-251.063	-200.000	0.004	0.180
-250.049	232.208	-0.076	-0.123
-249.034	800.000	0.073	-0.306
-248.019	304.965	0.086	-0.157
-247.005	172.747	-0.112	0.158
-245.990	-92.903	0.138	0.038
-244.976	-136.265	-0.172	-0.020
-243.961	105.833	-0.259	-0.300
-242.946	-200.000	-0.010	0.302
-241.932	80.562	-0.193	-0.203
-240.917	800.000	0.014	-0.055
-239.903	800.000	0.043	-0.182
-238.888	-175.109	-0.432	-0.012
-237.873	-186.940	0.278	-0.004
-236.859	800.000	-0.011	0.044
-235.844	-71.460	0.301	-0.110
-234.830	800.000	-0.063	-0.214
-233.815	-50.155	0.109	0.050
-232.800	-200.000	-0.040	0.251
-231.786	49.316	0.226	-0.208
-230.771	155.488	-0.170	-0.230
-229.757	-169.533	-0.110	-0.004
-228.742	-200.000	0.003	0.052
-227.727	-61.831	0.100	-0.041
-226.713	-200.000	0.015	-0.227
-225.698	-166.853	-0.160	0.006
-224.684	386.193	0.071	0.143
-223.669	329.756	-0.100	0.189
-222.655	-50.383	0.187	0.086
-221.640	1.438	-0.201	-0.142
-220.625	-177.442	0.196	0.005
-219.611	-200.000	-0.019	0.125
-218.596	-96.130	0.121	-0.031
-217.582	395.025	0.116	0.237
-216.567	-33.212	-0.413	0.224
-215.552	414.917	-0.089	-0.186
-214.538	-79.174	-0.157	0.052
-213.523	800.000	0.004	0.015
-212.509	147.657	0.014	0.018
-211.494	370.887	-0.093	0.184
-210.479	-87.799	0.090	0.027
-209.465	800.000	0.036	-0.112
-208.450	-200.000	0.010	-0.315
-207.436	5.111	-0.264	0.190
-206.421	800.000	-0.011	0.036
-205.406	136.657	-0.183	0.233
-204.392	15.976	0.202	-0.156
-203.377	272.970	-0.138	-0.238
-202.363	-42.204	-0.250	-0.125
-201.348	61.444	0.256	-0.249
-200.333	-149.512	-0.214	0.017
-199.319	800.000	0.120	0.488
-198.304	92.890	0.089	0.099
-197.290	237.349	0.195	0.316
-196.275	40.950	0.291	0.257
-195.260	54.279	0.128	0.121
-194.246	-88.266	0.058	-0.017
-193.231	-0.475	0.132	-0.092
-192.217	-123.755	0.113	-0.018
-191.202	-54.155	-0.134	-0.060
-190.187	255.105	0.242	-0.405
-189.173	-89.496	-0.201	0.058
-188.158	-12.698	-0.138	-0.088
-187.144	12.429	-0.057	0.043
-186.129	-41.283	0.299	-0.150
-185.114	-114.090	-0.104	0.020
-184.100	71.057	0.043	0.043
-183.085	87.821	-0.103	0.112
-182.071	-181.834	-0.307	0.006
-181.056	-200.000	0.022	0.143
-180.042	-200.000	0.066	0.295
-179.027	-200.000	-0.030	-0.348
-178.012	-200.000	0.012	0.406
-176.998	-154.034	0.117	-0.008
-175.983	-79.267	0.040	0.013
-174.969	800.000	0.095	0.401
-173.954	-149.567	0.251	0.019
-172.939	800.000	-0.075	-0.275
-171.925	-22.087	0.122	0.072
-170.910	-168.992	0.291	0.011
-169.896	528.126	-0.068	0.156
-168.881	-200.000	-0.005	-0.038
-167.866	29.276	-0.079	-0.066
-166.852	137.116	-0.088	-0.113
-165.837	-200.000	-0.008	0.167
-164.823	-63.346	0.178	-0.072
-163.808	-141.373	0.208	0.021
-162.793	-200.000	0.014	0.574
-161.779	-108.490	0.102	0.021
-160.764	800.000	-0.111	0.395
-159.750	-58.846	0.241	0.102
-158.735	800.000	-0.096	-0.276
-157.720	283.742	0.157	-0.276
-156.706	23.596	0.243	0.196
-155.691	42.862	0.256	0.228
-154.677	773.577	-0.102	0.272
-153.662	487.849	-0.016	0.035
-152.647	113.567	-0.095	-0.112
-151.633	-44.058	0.109	-0.053
-150.618	-31.446	-0.277	0.152
-149.604	39.299	0.127	-0.111
-148.589	227.629	0.064	-0.102
-147.574	312.663	-0.226	-0.413
-146.560	-151.014	0.251	-0.018
-145.545	-58.808	-0.134	0.057
-144.531	393.996	0.018	-0.036
-143.516	-200.000	-0.036	0.246
-142.502	-40.834	-0.232	0.117
-141.487	-200.000	-0.017	0.200
-140.472	443.626	0.042	0.089
-139.458	105.269	0.119	-0.137
-138.443	-89.690	-0.262	0.075
-137.429	-200.000	-0.016	0.188
-136.414	-143.300	-0.190	0.018
-135.399	127.370	0.160	0.198
-134.385	357.447	0.100	-0.195
-133.370	225.194	-0.105	-0.166
-132.356	800.000	-0.046	-0.162
-131.341	53.135	0.200	-0.187
-130.326	635.866	-0.048	0.119
-129.312	354.566	-0.077	-0.149
-128.297	-96.649	0.521	-0.134
-127.283	-200.000	-0.019	-0.187
-126.268	469.644	0.119	-0.262
-125.253	-46.559	-0.374	0.179
-124.239	-200.000	0.022	-0.268
-123.224	-154.163	-0.250	-0.016
-122.210	-48.680	-0.044	0.021
-121.195	75.129	0.195	0.200
-120.180	-200.000	0.001	-0.178
