DTS Sentinel unit serial number:	SN413079Multiplexer serial number:	ORYXHardware model number:	OX4-SRSoftware version number:	ORYX F/W v4.00 Oryx Data Collector v3.7.2.0data status	okinstallation	princeton_trtdifferential loss correction	single-endedforward channel	channel 2reverse channel	N/Adate	2019/09/15time	22:47:35forward acquisition time	60.00reverse acquisition time	0.00gamma	496.2192k internal	0.2335k external	0.2335temperature offset calibration	0.9947default loss term (dB/km)	0.3790temperature slope calibration	1.0000multiplexer offset coefficient	1.0000multiplexer slope coefficient	1.0000fibre end	0.00T internal ref (°C)	28.81T ext. ref 1 (°C)	8.87T ext. ref 2 (°C)	22.35length (m)	temperature (°C)	Stokes	anti-Stokes-747.200	-55.743	-0.067	0.030
-746.185	76.212	-0.106	0.113
-745.171	188.593	0.256	0.385
-744.156	-52.663	-0.243	0.113
-743.142	-37.518	-0.102	0.055
-742.127	149.334	0.113	0.154
-741.112	119.077	-0.126	-0.156
-740.098	1.884	-0.362	0.262
-739.083	-14.495	-0.062	-0.040
-738.069	490.079	0.068	-0.156
-737.054	-38.533	-0.104	-0.055
-736.039	157.943	-0.120	0.167
-735.025	-200.000	0.044	0.228
-734.010	-200.000	-0.019	-0.266
-732.996	-200.000	-0.006	0.032
-731.981	-94.680	0.169	0.046
-730.966	-72.505	-0.077	-0.029
-729.952	717.758	0.083	-0.222
-728.937	235.994	0.106	0.176
-727.923	350.101	-0.072	0.143
-726.908	-136.994	-0.107	-0.012
-725.894	-131.966	0.137	-0.018
-724.879	-145.590	0.313	-0.028
-723.864	290.999	-0.172	-0.314
-722.850	17.461	-0.254	-0.203
-721.835	269.435	-0.068	0.120
-720.821	-80.288	0.178	0.060
-719.806	118.947	-0.185	0.229
-718.791	-200.000	-0.013	0.105
-717.777	-74.809	-0.346	0.125
-716.762	20.355	0.212	-0.172
-715.748	118.829	-0.055	-0.069
-714.733	548.462	0.086	0.207
-713.718	-142.174	0.065	0.006
-712.704	800.000	-0.048	-0.150
-711.689	800.000	-0.019	0.059
-710.675	46.760	0.205	-0.191
-709.660	-200.000	-0.040	0.361
-708.645	41.483	-0.152	-0.138
-707.631	-49.794	-0.352	0.168
-706.616	-121.577	-0.256	-0.043
-705.602	769.915	0.032	-0.086
-704.587	-172.286	0.086	-0.003
-703.572	200.069	-0.216	0.333
-702.558	800.000	-0.120	0.465
-701.543	108.678	-0.059	-0.070
-700.529	-200.000	-0.040	-0.190
-699.514	-80.399	-0.144	0.048
-698.499	795.784	0.024	-0.065
-697.485	-90.716	0.165	-0.048
-696.470	800.000	0.067	-0.188
-695.456	-34.662	-0.056	0.031
-694.441	-200.000	-0.033	0.152
-693.426	9.761	0.116	-0.088
-692.412	-33.518	-0.243	-0.135
-691.397	-17.939	0.083	-0.052
-690.383	-17.763	-0.151	0.095
-689.368	-200.000	-0.008	-0.484
-688.354	28.788	0.091	-0.078
-687.339	34.759	0.220	-0.193
-686.324	-74.875	0.125	0.045
-685.310	206.721	0.183	0.285
-684.295	-17.398	0.107	0.067
-683.281	115.787	0.129	-0.158
-682.266	-85.474	-0.387	-0.121
-681.251	-200.000	0.018	-0.165
-680.237	-62.380	0.373	-0.156
-679.222	800.000	-0.064	0.203
-678.208	139.384	-0.110	-0.146
-677.193	83.802	-0.209	0.229
-676.178	63.767	-0.111	-0.112
-675.164	-142.476	0.283	0.028
-674.149	306.682	-0.040	0.075
-673.135	800.000	-0.010	-0.036
-672.120	-104.640	0.157	0.036
-671.105	69.977	0.215	-0.223
-670.091	111.575	0.177	-0.214
-669.076	-101.446	-0.280	-0.068
-668.062	-54.482	-0.270	-0.123
-667.047	411.578	0.175	0.372
-666.032	68.742	-0.303	-0.311
-665.018	-57.007	0.034	0.015
-664.003	526.948	-0.075	-0.176
-662.989	280.774	0.096	0.173
-661.974	79.355	-0.042	-0.045
-660.959	-32.002	-0.242	0.135
-659.945	-200.000	-0.001	-0.152
-658.930	-200.000	-0.001	0.156
-657.916	-173.628	-0.136	0.004
-656.901	-144.349	0.179	0.017
-655.886	55.651	-0.114	-0.110
-654.872	118.383	0.163	0.202
-653.857	46.146	-0.310	-0.287
-652.843	139.777	-0.155	-0.205
-651.828	-200.000	0.008	0.152
-650.814	225.668	-0.054	0.088
-649.799	16.249	0.540	-0.426
-648.784	-200.000	-0.025	-0.233
-647.770	-85.732	0.269	0.084
-646.755	-16.040	0.079	0.051
-645.741	713.071	-0.132	-0.349
-644.726	168.739	-0.155	-0.222
-643.711	-76.174	-0.291	-0.103
-642.697	-39.172	0.408	0.215
-641.682	74.449	-0.023	-0.024
-640.668	-120.783	0.181	0.031
-639.653	-101.831	-0.265	-0.064
-638.638	158.394	-0.175	-0.243
-637.624	-89.217	0.153	-0.045
-636.609	-200.000	-0.284	0.001
-635.595	-200.000	-0.011	0.213
-634.580	-91.006	0.228	-0.066
-633.565	-50.930	-0.038	0.018
-632.551	30.977	0.037	-0.032
-631.536	-108.182	0.181	0.039
-630.522	-200.000	-0.002	0.116
-629.507	552.202	-0.065	0.156
-628.492	-8.628	-0.121	-0.081
-627.478	45.400	-0.079	-0.073
-626.463	30.409	0.199	0.170
-625.449	226.163	-0.115	-0.187
-624.434	-200.000	0.016	0.112
-623.419	93.301	0.247	-0.279
-622.405	113.741	0.250	-0.304
-621.390	-10.498	-0.233	-0.154
-620.376	606.163	-0.071	-0.177
-619.361	235.848	0.157	0.260
-618.346	-163.924	-0.170	0.008
-617.332	-36.093	0.209	0.113
-616.317	736.072	0.125	-0.336
-615.303	-78.671	0.288	-0.098
-614.288	20.495	0.111	0.090
-613.273	-57.614	-0.343	0.150
-612.259	-200.000	0.017	0.272
-611.244	71.463	0.091	-0.095
-610.230	103.577	0.205	0.240
-609.215	64.476	-0.167	-0.169
-608.201	224.954	0.062	0.100
-607.186	-77.168	0.245	0.085
-606.171	-19.018	0.317	0.197
-605.157	-61.146	0.085	-0.036
-604.142	-200.000	0.003	-0.100
-603.128	800.000	-0.047	-0.191
-602.113	-111.477	-0.343	-0.070
-601.098	-171.456	-0.207	-0.007
-600.084	800.000	0.053	-0.163
-599.069	-4.660	0.243	0.167
-598.055	0.953	-0.159	0.114
-597.040	800.000	-0.095	-0.362
-596.025	-111.964	0.079	-0.016
-595.011	-200.000	-0.010	0.175
-593.996	-110.064	0.123	0.026
-592.982	800.000	-0.044	-0.152
-591.967	220.474	-0.243	-0.390
-590.952	603.815	-0.121	0.302
-589.938	-200.000	-0.012	0.218
-588.923	15.185	-0.238	-0.186
-587.909	-200.000	-0.011	-0.078
-586.894	800.000	0.016	0.064
-585.879	-106.748	-0.101	0.022
-584.865	-64.196	0.071	0.029
-583.850	-124.857	0.067	0.010
-582.836	454.329	0.032	0.071
-581.821	800.000	-0.043	0.168
-580.806	-46.207	-0.140	-0.069
-579.792	247.616	0.062	-0.105
-578.777	62.469	-0.153	0.153
-577.763	-128.913	-0.125	0.018
-576.748	399.540	-0.020	-0.042
-575.733	210.713	0.250	-0.392
-574.719	33.981	-0.089	0.077
-573.704	-200.000	-0.025	-0.358
-572.690	133.734	0.198	0.256
-571.675	32.964	0.315	0.272
-570.661	5.811	0.151	0.111
-569.646	-17.138	0.129	0.081
-568.631	-200.000	0.010	-0.404
-567.617	172.195	0.046	0.066
-566.602	-108.717	-0.103	0.022
-565.588	-5.232	0.296	-0.203
-564.573	-196.288	0.184	0.001
-563.558	-117.606	-0.050	0.009
-562.544	502.073	-0.073	0.168
-561.529	-200.000	-0.011	0.172
-560.515	-200.000	-0.001	-0.211
-559.500	-200.000	0.055	-0.291
-558.485	-81.066	-0.046	0.015
-557.471	-14.662	-0.229	-0.147
-556.456	-62.569	0.287	0.119
-555.442	-6.068	0.178	-0.122
-554.427	-77.121	-0.160	-0.055
-553.412	313.161	0.150	-0.282
-552.398	-98.826	0.338	-0.086
-551.383	44.759	0.105	0.096
-550.369	-112.949	-0.341	-0.067
-549.354	-14.410	-0.113	0.073
-548.339	-62.482	-0.604	0.250
-547.325	-88.163	-0.243	0.073
-546.310	-200.000	0.035	-0.184
-545.296	-70.717	0.183	0.069
-544.281	310.945	0.273	-0.509
-543.266	182.567	-0.169	-0.248
-542.252	47.243	0.177	-0.164
-541.237	488.464	0.023	0.053
-540.223	384.675	0.085	0.174
-539.208	119.529	-0.220	0.271
-538.193	800.000	-0.061	0.206
-537.179	195.672	0.228	-0.346
-536.164	785.636	-0.098	-0.269
-535.150	167.780	0.236	0.335
-534.135	310.719	-0.027	0.051
-533.121	176.821	0.141	-0.204
-532.106	-200.000	0.027	-0.377
-531.091	32.695	0.147	0.126
-530.077	81.780	-0.127	-0.137
-529.062	60.256	-0.158	0.156
-528.048	-125.116	0.358	-0.055
-527.033	-151.978	0.471	-0.034
-526.018	-77.769	0.136	-0.047
-525.004	-5.044	0.137	0.094
-523.989	-200.000	-0.005	0.076
-522.975	-106.836	0.331	0.073
-521.960	4.867	-0.107	0.078
-520.945	68.355	0.164	0.167
-519.931	-200.000	0.028	-0.291
-518.916	-200.000	-0.007	-0.272
-517.902	-53.944	0.133	-0.061
-516.887	181.336	-0.077	0.113
-515.872	800.000	0.050	0.144
-514.858	-200.000	0.026	0.131
-513.843	800.000	0.077	0.243
-512.829	800.000	0.125	0.366
-511.814	-52.688	0.245	0.113
-510.799	800.000	0.045	-0.168
-509.785	17.361	0.077	0.061
-508.770	-12.743	-0.464	-0.301
-507.756	116.903	0.209	-0.255
-506.741	-105.422	-0.286	0.065
-505.726	-21.930	-0.237	-0.143
-504.712	-78.160	0.269	0.092
-503.697	395.300	0.076	0.158
-502.683	-200.000	-0.069	0.409
-501.668	800.000	-0.026	0.108
-500.653	235.009	0.129	-0.211
-499.639	22.401	-0.273	-0.222
-498.624	-200.000	0.257	0.000
-497.610	-127.131	-0.198	-0.029
-496.595	418.078	0.049	-0.104
-495.581	431.228	-0.158	0.341
-494.566	-90.583	0.216	0.062
-493.551	81.870	-0.063	0.068
-492.537	91.017	-0.076	0.085
-491.522	-90.641	0.318	-0.091
-490.508	223.114	0.164	0.263
-489.493	120.340	0.169	0.209
-488.478	-200.000	-0.030	0.141
-487.464	-33.378	-0.075	-0.041
-486.449	236.866	-0.130	-0.214
-485.435	-139.879	-0.202	0.021
-484.420	-87.460	0.309	0.093
-483.405	-167.518	0.278	-0.011
-482.391	-117.705	-0.413	0.074
-481.376	71.581	0.263	0.272
-480.362	16.143	0.240	-0.188
-479.347	-129.731	-0.229	-0.031
-478.332	-10.496	-0.316	-0.208
-477.318	99.731	-0.122	-0.140
-476.303	19.099	-0.102	0.081
-475.289	299.296	-0.068	0.125
-474.274	436.920	0.034	-0.073
-473.259	-200.000	0.006	-0.258
-472.245	238.897	-0.090	0.149
-471.230	-200.000	-0.038	0.195
-470.216	-56.033	-0.193	0.085
-469.201	-155.602	0.312	0.020
-468.186	-138.680	-0.268	0.029
-467.172	-44.289	0.167	-0.083
-466.157	55.756	-0.288	-0.277
-465.143	-134.025	-0.236	0.029
-464.128	63.763	-0.044	-0.044
-463.113	800.000	0.056	-0.241
-462.099	217.282	0.103	-0.162
-461.084	-200.000	-0.005	0.263
-460.070	5.001	-0.345	-0.252
-459.055	541.994	-0.130	-0.308
-458.040	-39.491	0.184	0.096
-457.026	-123.983	-0.279	0.044
-456.011	537.385	0.091	-0.214
-454.997	66.002	0.100	0.101
-453.982	631.517	0.073	-0.185
-452.968	800.000	-0.012	-0.036
-451.953	113.102	-0.093	-0.112
-450.938	-200.000	-0.051	0.243
-449.924	-19.875	0.232	0.142
-448.909	-139.896	0.182	0.019
-447.895	800.000	0.104	-0.369
-446.880	195.043	0.106	-0.160
-445.865	-200.000	0.034	0.291
-444.851	39.740	0.264	-0.235
-443.836	-12.612	-0.255	0.165
-442.822	41.247	0.129	-0.116
-441.807	256.435	0.121	0.206
-440.792	-158.078	-0.220	-0.013
-439.778	154.678	0.043	0.059
-438.763	33.534	-0.331	0.286
-437.749	-80.077	0.052	0.017
-436.734	-38.433	-0.114	-0.060
-435.719	41.166	0.171	0.153
-434.705	800.000	-0.126	-0.474
-433.690	800.000	-0.057	-0.201
-432.676	-200.000	-0.007	0.217
-431.661	-200.000	0.004	0.225
-430.646	-108.304	0.196	0.042
-429.632	800.000	0.007	-0.027
-428.617	800.000	0.030	0.113
-427.603	52.924	0.045	0.043
-426.588	-190.006	0.367	0.004
-425.573	6.709	0.342	0.252
-424.559	-157.293	-0.313	-0.019
-423.544	-135.205	-0.216	-0.026
-422.530	640.833	0.015	0.037
-421.515	168.379	0.200	-0.282
-420.500	32.808	-0.336	0.288
-419.486	0.606	-0.217	0.154
-418.471	-122.962	-0.154	-0.025
-417.457	-84.924	-0.254	-0.079
-416.442	48.985	0.019	-0.018
-415.428	233.941	0.098	-0.160
-414.413	150.490	-0.048	-0.065
-413.398	-95.936	-0.169	0.045
-412.384	-200.000	-0.018	0.478
-411.369	-200.000	-0.001	-0.085
-410.355	503.939	0.076	0.175
-409.340	-200.000	0.013	-0.080
-408.325	-155.616	0.222	-0.014
-407.311	-200.000	0.025	0.234
-406.296	-33.528	0.122	-0.067
-405.282	-200.000	-0.071	-0.474
-404.267	441.188	0.107	-0.233
-403.252	800.000	0.071	-0.220
-402.238	244.176	-0.137	-0.227
-401.223	-56.361	-0.081	-0.036
-400.209	-32.659	0.120	0.066
-399.194	-118.680	0.336	0.059
-398.179	-104.751	-0.211	-0.048
-397.165	-54.972	0.106	-0.047
-396.150	182.633	0.103	0.151
-395.136	-106.127	-0.241	-0.054
-394.121	-200.000	-0.003	-0.263
-393.106	4.842	-0.102	-0.074
-392.092	355.524	-0.009	-0.018
-391.077	141.106	-0.118	0.155
-390.063	182.268	-0.188	0.274
-389.048	-92.733	0.171	-0.047
-388.033	-33.204	-0.229	0.126
-387.019	356.650	0.002	-0.003
-386.004	302.324	0.130	0.238
-384.990	243.346	-0.104	-0.173
-383.975	-112.556	-0.097	-0.019
-382.960	800.000	-0.109	-0.418
-381.946	-96.366	0.380	-0.100
-380.931	-99.991	0.074	-0.018
-379.917	216.847	0.319	-0.503
-378.902	800.000	0.086	-0.262
-377.888	394.303	-0.048	-0.099
-376.873	46.003	0.129	-0.118
-375.858	-134.894	-0.168	-0.020
-374.844	455.122	-0.156	0.343
-373.829	416.381	-0.088	0.185
-372.815	146.541	0.192	0.255
-371.800	-200.000	-0.063	-0.385
-370.785	593.564	-0.089	0.217
-369.771	-172.237	-0.217	-0.007
-368.756	-200.000	-0.054	-0.322
-367.742	-3.568	-0.046	-0.032
-366.727	-200.000	0.027	0.308
-365.712	-32.161	0.291	0.161
-364.698	800.000	-0.071	0.205
-363.683	1.016	-0.194	0.138
-362.669	426.685	0.006	0.013
-361.654	327.516	-0.054	-0.102
-360.639	-200.000	-0.003	0.020
-359.625	-200.000	0.043	-0.229
-358.610	800.000	-0.071	-0.196
-357.596	-89.656	-0.126	-0.037
-356.581	183.185	0.156	0.227
-355.566	513.907	0.068	0.158
-354.552	104.160	-0.168	-0.196
-353.537	70.732	0.137	-0.140
-352.523	-200.000	-0.089	-0.510
-351.508	255.068	0.109	-0.184
-350.493	-88.337	0.101	0.030
-349.479	800.000	0.041	0.136
-348.464	-180.651	0.062	-0.001
-347.450	-111.592	0.305	0.061
-346.435	633.136	-0.145	-0.363
-345.420	366.118	-0.216	-0.431
-344.406	127.450	-0.167	0.210
-343.391	7.907	-0.176	-0.130
-342.377	-47.545	0.264	-0.127
-341.362	-200.000	0.030	-0.198
-340.348	-63.283	0.488	0.199
-339.333	-145.514	-0.121	-0.011
-338.318	288.614	-0.123	0.221
-337.304	-200.000	0.034	0.269
-336.289	-97.115	0.101	-0.026
-335.275	-200.000	-0.016	0.262
-334.260	-142.688	-0.196	0.019
-333.245	11.298	0.297	0.225
-332.231	138.854	0.055	0.071
-331.216	800.000	0.032	0.125
-330.202	347.475	-0.083	0.162
-329.187	-117.378	-0.341	0.061
-328.172	145.698	-0.043	-0.057
-327.158	800.000	0.098	-0.331
-326.143	-124.323	0.350	0.054
-325.129	15.157	0.371	0.288
-324.114	-23.268	-0.150	-0.089
-323.099	55.639	-0.021	0.020
-322.085	-200.000	0.005	0.188
-321.070	80.447	0.116	0.124
-320.056	-200.000	0.024	0.194
-319.041	-69.318	-0.228	0.086
-318.026	20.658	0.029	0.023
-317.012	-200.000	-0.087	-0.387
-315.997	-79.969	-0.476	-0.158
-314.983	-76.451	-0.230	-0.080
-313.968	-173.137	-0.321	0.010
-312.953	33.200	-0.055	-0.047
-311.939	-33.298	0.151	-0.083
-310.924	62.896	-0.143	0.141
-309.910	-20.007	-0.183	0.112
-308.895	-64.599	0.305	-0.122
-307.880	-200.000	0.051	0.236
-306.866	-6.317	-0.189	0.127
-305.851	-200.000	-0.026	0.135
-304.837	658.707	0.041	0.103
-303.822	5.295	-0.242	-0.176
-302.807	131.836	0.074	-0.094
-301.793	-200.000	0.004	-0.024
-300.778	-200.000	-0.007	0.072
-299.764	-200.000	0.028	0.314
-298.749	-141.781	0.079	0.008
-297.735	-200.000	-0.020	0.258
-296.720	58.131	0.244	-0.236
-295.705	-200.000	0.046	-0.203
-294.691	152.115	-0.057	0.076
-293.676	-10.078	-0.139	-0.091
-292.662	-96.121	0.282	0.074
-291.647	-121.255	-0.122	-0.020
-290.632	-200.000	0.039	-0.225
-289.618	-176.782	-0.169	-0.004
-288.603	40.668	0.140	-0.124
-287.589	5.182	-0.177	0.129
-286.574	106.551	0.147	0.173
-285.559	54.324	-0.192	0.182
-284.545	84.055	-0.298	0.321
-283.530	-3.265	0.186	0.128
-282.516	2.697	0.168	-0.120
-281.501	-200.000	0.010	-0.263
-280.486	191.799	-0.245	-0.365
-279.472	-200.000	-0.008	-0.075
-278.457	65.592	0.249	-0.249
-277.443	539.511	0.094	0.222
-276.428	-6.539	-0.198	-0.133
-275.413	108.965	0.202	0.239
-274.399	-96.919	-0.143	-0.037
-273.384	291.328	0.153	-0.275
-272.370	-200.000	0.036	0.337
-271.355	2.823	-0.140	0.100
-270.340	253.242	-0.076	0.128
-269.326	456.833	-0.072	0.157
-268.311	58.089	0.130	-0.126
-267.297	250.438	-0.186	0.312
-266.282	-21.608	0.154	0.092
-265.267	-57.155	-0.189	-0.082
-264.253	-12.566	0.372	0.239
-263.238	468.645	-0.067	0.147
-262.224	-200.000	0.043	0.345
-261.209	-130.323	0.121	0.016
-260.195	-83.606	-0.201	-0.063
-259.180	70.364	0.196	-0.200
-258.165	-9.918	-0.012	0.008
-257.151	-200.000	0.005	0.354
-256.136	-111.647	-0.071	0.014
-255.122	-70.693	-0.332	-0.124
-254.107	-48.201	-0.157	0.075
-253.092	216.961	0.071	0.112
-252.078	800.000	0.109	-0.300
-251.063	-81.536	0.065	-0.021
-250.049	56.500	-0.075	-0.072
-249.034	44.983	-0.158	-0.143
-248.019	-34.883	0.173	-0.093
-247.005	-18.153	0.051	0.031
-245.990	-53.168	-0.214	0.097
-244.976	-20.897	0.418	-0.252
-243.961	89.695	-0.048	-0.052
-242.946	331.296	-0.194	0.368
-241.932	173.736	-0.105	0.150
-240.917	-200.000	-0.016	0.102
-239.903	-200.000	0.005	-0.074
-238.888	-200.000	0.034	0.270
-237.873	-200.000	-0.018	0.170
-236.859	-200.000	0.001	0.137
-235.844	-186.168	0.408	0.006
-234.830	11.085	-0.373	0.281
-233.815	185.221	-0.146	0.213
-232.800	-200.000	0.004	0.066
-231.786	800.000	-0.036	-0.118
-230.771	-145.129	0.109	0.010
-229.757	-200.000	0.034	0.272
-228.742	184.955	-0.049	-0.071
-227.727	-2.488	0.167	-0.115
-226.713	-200.000	-0.008	-0.150
-225.698	150.126	0.219	0.293
-224.684	59.762	-0.144	-0.139
-223.669	100.159	0.266	-0.303
-222.655	-200.000	0.007	0.144
-221.640	-118.050	-0.130	-0.023
-220.625	650.730	-0.031	0.079
-219.611	-96.695	-0.317	0.082
-218.596	-200.000	0.025	0.129
-217.582	800.000	-0.055	0.153
-216.567	103.530	-0.143	-0.165
-215.552	252.819	0.133	-0.223
-214.538	-69.202	-0.164	-0.062
-213.523	-16.660	-0.502	-0.313
-212.509	-200.000	0.025	0.459
-211.494	-8.941	0.080	-0.052
-210.479	478.852	0.114	0.253
-209.465	-200.000	-0.083	0.543
-208.450	-200.000	-0.024	-0.171
-207.436	-200.000	-0.056	0.274
-206.421	800.000	0.069	-0.209
-205.406	-32.750	0.146	-0.080
-204.392	128.332	0.055	0.069
-203.377	-200.000	-0.010	-0.160
-202.363	195.028	0.116	-0.173
-201.348	63.545	-0.093	0.092
-200.333	-200.000	-0.010	0.058
-199.319	2.443	0.039	-0.028
-198.304	-4.738	-0.150	-0.102
-197.290	-82.586	-0.224	-0.071
-196.275	800.000	0.095	0.347
-195.260	19.067	-0.317	0.250
-194.246	-133.758	-0.261	-0.032
-193.231	-62.998	0.084	-0.034
-192.217	204.731	0.048	0.073
-191.202	-109.482	-0.195	-0.041
-190.187	699.674	-0.055	-0.142
-189.173	-155.519	0.078	0.005
-188.158	311.839	0.132	-0.243
-187.144	-143.433	-0.312	-0.029
-186.129	319.507	0.037	0.068
-185.114	234.811	0.225	0.365
-184.100	717.260	0.030	0.079
-183.085	-140.018	-0.097	0.010
-182.071	673.040	-0.102	-0.260
-181.056	173.794	-0.200	0.283
-180.042	160.882	-0.038	0.052
-179.027	-48.871	0.286	0.135
-178.012	-127.359	-0.259	-0.037
-176.998	-77.851	-0.250	-0.085
-175.983	-200.000	-0.072	-0.328
-174.969	-200.000	0.014	-0.169
-173.954	-200.000	0.009	-0.047
-172.939	65.019	0.075	-0.074
-171.925	-16.422	0.318	0.198
-170.910	800.000	0.040	0.163
-169.896	67.429	-0.263	-0.263
-168.881	155.675	-0.151	0.205
-167.866	119.941	-0.075	-0.092
-166.852	-200.000	-0.057	0.385
-165.837	-60.277	-0.323	-0.135
-164.823	-154.104	-0.164	0.011
-163.808	-76.031	0.307	0.107
-162.793	800.000	-0.134	-0.363
-161.779	800.000	-0.041	0.146
-160.764	163.578	-0.028	-0.039
-159.750	88.633	-0.200	0.219
-158.735	81.383	0.107	0.114
-157.720	-109.965	0.246	0.051
-156.706	-101.189	0.392	0.094
-155.691	800.000	-0.042	-0.142
-154.677	-17.559	-0.305	0.188
-153.662	-200.000	-0.002	-0.192
-152.647	16.423	0.142	0.110
-151.633	210.003	-0.065	-0.100
-150.618	800.000	0.015	0.052
-149.604	-13.437	0.179	-0.114
-148.589	-53.022	-0.367	0.166
-147.574	800.000	0.014	-0.048
-146.560	800.000	0.002	0.008
-145.545	-152.670	-0.118	-0.008
-144.531	671.279	-0.098	0.249
-143.516	800.000	0.094	-0.266
-142.502	-43.212	0.078	0.039
-141.487	-200.000	-0.019	0.186
-140.472	155.303	0.144	-0.195
-139.458	-54.698	0.128	-0.057
-138.443	-200.000	-0.017	0.113
-137.429	-174.218	-0.331	0.009
-136.414	31.602	-0.130	0.110
-135.399	-200.000	-0.010	-0.100
-134.385	-38.903	0.344	-0.178
-133.370	-200.000	-0.003	0.017
-132.356	118.780	-0.069	-0.083
-131.341	-32.484	0.091	-0.050
-130.326	51.161	-0.258	0.240
-129.312	-55.305	-0.097	-0.043
-128.297	-84.171	0.312	0.097
-127.283	-200.000	-0.015	0.438
-126.268	-10.698	-0.188	-0.122
-125.253	-200.000	-0.054	-0.339
-124.239	-0.489	0.172	0.120
-123.224	-200.000	0.002	-0.288
-122.210	-67.062	0.059	0.023
-121.195	-103.324	0.227	-0.052
