DTS Sentinel unit serial number:	SN413079Multiplexer serial number:	ORYXHardware model number:	OX4-SRSoftware version number:	ORYX F/W v4.00 Oryx Data Collector v3.7.2.0data status	okinstallation	princeton_trtdifferential loss correction	single-endedforward channel	channel 2reverse channel	N/Adate	2019/09/19time	01:35:35forward acquisition time	60.00reverse acquisition time	0.00gamma	496.2192k internal	0.2353k external	0.2353temperature offset calibration	1.0015default loss term (dB/km)	0.3790temperature slope calibration	1.0000multiplexer offset coefficient	1.0000multiplexer slope coefficient	1.0000fibre end	0.00T internal ref (°C)	21.52T ext. ref 1 (°C)	0.69T ext. ref 2 (°C)	14.92length (m)	temperature (°C)	Stokes	anti-Stokes-747.200	78.337	-0.085	-0.090
-746.185	400.972	0.139	0.291
-745.171	-63.977	-0.078	-0.032
-744.156	19.435	-0.189	-0.152
-743.142	-200.000	-0.002	0.069
-742.127	141.986	-0.072	0.095
-741.112	66.867	-0.296	0.301
-740.098	-200.000	-0.010	-0.274
-739.083	-200.000	-0.016	0.219
-738.069	658.515	0.145	-0.371
-737.054	-119.652	-0.469	-0.081
-736.039	-101.399	0.103	-0.025
-735.025	132.595	-0.091	0.117
-734.010	-70.056	-0.464	0.176
-732.996	137.803	-0.178	-0.232
-731.981	11.699	0.189	0.144
-730.966	-58.716	-0.283	-0.122
-729.952	-126.378	-0.175	-0.026
-728.937	-50.124	-0.216	0.102
-727.923	285.427	0.065	0.116
-726.908	54.188	-0.287	0.275
-725.894	53.350	-0.177	-0.169
-724.879	-49.151	0.341	-0.162
-723.864	183.023	0.204	0.301
-722.850	-200.000	-0.043	-0.195
-721.835	-55.362	0.079	0.035
-720.821	293.007	-0.051	0.093
-719.806	-4.617	-0.111	0.076
-718.791	1.288	0.061	-0.044
-717.777	-80.617	-0.017	-0.006
-716.762	-200.000	0.012	-0.429
-715.748	389.460	0.076	0.158
-714.733	164.586	0.143	-0.201
-713.718	-79.983	0.284	0.095
-712.704	-135.867	0.189	0.022
-711.689	-200.000	0.022	0.180
-710.675	232.123	0.101	-0.165
-709.660	347.449	0.099	-0.195
-708.645	-80.753	0.390	-0.129
-707.631	-157.712	0.220	-0.013
-706.616	-169.004	-0.156	-0.006
-705.602	-200.000	0.028	0.265
-704.587	800.000	-0.027	0.115
-703.572	557.521	-0.052	-0.125
-702.558	9.444	0.256	-0.193
-701.543	121.885	0.135	0.168
-700.529	-59.211	-0.040	0.017
-699.514	30.536	0.193	-0.164
-698.499	-69.462	0.163	0.062
-697.485	698.004	-0.071	-0.185
-696.470	72.423	0.152	-0.157
-695.456	-200.000	0.021	-0.111
-694.441	-109.093	-0.190	0.040
-693.426	82.348	0.214	-0.231
-692.412	-12.874	0.062	-0.040
-691.397	800.000	0.048	-0.136
-690.383	-68.720	-0.061	0.024
-689.368	-69.719	0.199	0.076
-688.354	-200.000	-0.204	0.000
-687.339	-21.387	0.087	0.053
-686.324	234.167	-0.055	0.091
-685.310	-102.038	0.145	-0.035
-684.295	-200.000	0.015	-0.160
-683.281	-120.107	-0.203	-0.035
-682.266	84.203	-0.237	-0.258
-681.251	131.621	-0.097	-0.125
-680.237	-32.737	-0.484	-0.268
-679.222	115.555	0.264	0.321
-678.208	307.561	0.115	-0.212
-677.193	-149.101	-0.455	-0.036
-676.178	-200.000	0.016	-0.158
-675.164	-162.944	-0.129	-0.006
-674.149	800.000	-0.024	0.096
-673.135	242.920	-0.124	-0.206
-672.120	-200.000	0.001	-0.481
-671.105	-200.000	-0.061	-0.278
-670.091	800.000	-0.082	0.286
-669.076	-74.795	0.258	-0.092
-668.062	-200.000	-0.019	-0.090
-667.047	-88.353	0.279	-0.083
-666.032	93.544	0.274	0.309
-665.018	3.009	-0.071	-0.051
-664.003	-200.000	-0.143	0.001
-662.989	241.127	-0.248	0.412
-661.974	-77.259	0.631	0.218
-660.959	-200.000	-0.031	-0.255
-659.945	-200.000	0.022	-0.209
-658.930	-21.028	0.333	-0.203
-657.916	-116.242	0.183	0.034
-656.901	612.521	-0.157	0.391
-655.886	7.256	0.242	-0.179
-654.872	469.448	0.093	-0.208
-653.857	408.900	-0.160	-0.337
-652.843	800.000	-0.040	-0.123
-651.828	-100.441	-0.192	-0.047
-650.814	-200.000	0.047	-0.288
-649.799	439.368	-0.039	-0.084
-648.784	800.000	0.083	0.357
-647.770	-87.366	0.083	0.025
-646.755	134.904	-0.172	0.222
-645.741	-125.898	0.508	0.076
-644.726	-57.147	-0.336	-0.147
-643.711	-200.000	0.022	0.153
-642.697	310.690	-0.046	0.086
-641.682	3.493	0.107	-0.077
-640.668	42.830	-0.183	-0.166
-639.653	-5.094	-0.108	-0.074
-638.638	69.398	0.236	0.241
-637.624	-200.000	0.007	0.047
-636.609	476.166	0.041	0.091
-635.595	405.038	-0.016	-0.034
-634.580	79.783	-0.168	-0.180
-633.565	-13.319	0.048	-0.031
-632.551	-76.390	-0.125	-0.044
-631.536	644.139	0.115	0.292
-630.522	-22.305	0.271	-0.163
-629.507	800.000	-0.071	-0.224
-628.492	-126.944	0.184	0.027
-627.478	-80.934	0.145	-0.048
-626.463	366.677	-0.079	0.158
-625.449	509.263	0.095	-0.220
-624.434	-200.000	0.002	-0.398
-623.419	38.086	-0.202	-0.179
-622.405	-200.000	0.036	0.266
-621.390	-25.719	-0.178	0.104
-620.376	545.832	0.057	0.134
-619.361	800.000	0.033	-0.131
-618.346	159.553	0.099	0.137
-617.332	-130.845	0.368	0.049
-616.317	485.546	0.047	0.107
-615.303	-32.708	-0.128	0.071
-614.288	18.889	-0.272	-0.216
-613.273	797.570	0.092	0.252
-612.259	714.155	0.105	0.277
-611.244	-200.000	0.001	0.090
-610.230	160.298	-0.127	0.176
-609.215	-38.802	-0.259	-0.136
-608.201	626.756	0.115	0.288
-607.186	-12.841	0.164	0.106
-606.171	-200.000	0.013	-0.219
-605.157	-31.838	0.320	0.178
-604.142	116.075	0.044	-0.053
-603.128	800.000	0.120	-0.462
-602.113	800.000	0.113	-0.403
-601.098	800.000	0.017	0.052
-600.084	117.333	0.037	-0.045
-599.069	-200.000	-0.045	0.298
-598.055	-200.000	-0.040	-0.231
-597.040	-42.598	-0.096	-0.049
-596.025	-200.000	0.089	0.505
-595.011	736.576	0.168	-0.447
-593.996	-200.000	0.017	0.343
-592.982	12.054	-0.408	-0.311
-591.967	28.483	0.162	0.136
-590.952	-200.000	-0.004	-0.265
-589.938	148.096	-0.120	-0.161
-588.923	262.762	-0.016	0.028
-587.909	116.506	-0.071	-0.086
-586.894	-78.540	0.265	0.090
-585.879	-200.000	0.049	0.327
-584.865	-113.622	-0.176	-0.034
-583.850	130.527	-0.232	-0.295
-582.836	-39.878	0.355	0.184
-581.821	-96.013	-0.245	0.064
-580.806	-111.561	0.280	-0.056
-579.792	-159.374	-0.164	-0.009
-578.777	98.707	-0.102	-0.116
-577.763	-200.000	0.058	-0.257
-576.748	503.303	0.033	0.075
-575.733	-73.164	-0.268	-0.097
-574.719	781.809	-0.049	-0.133
-573.704	-20.633	-0.094	-0.057
-572.690	-78.731	0.282	0.095
-571.675	87.855	-0.106	0.117
-570.661	226.051	0.095	-0.153
-569.646	-177.150	0.138	0.003
-568.631	388.429	0.057	0.117
-567.617	177.963	-0.035	-0.051
-566.602	-38.782	-0.298	0.155
-565.588	75.094	-0.157	0.164
-564.573	800.000	-0.097	-0.328
-563.558	-200.000	-0.012	0.112
-562.544	-125.884	0.161	0.024
-561.529	55.359	0.032	-0.030
-560.515	291.876	-0.091	-0.163
-559.500	-50.207	0.090	0.042
-558.485	-165.247	0.075	-0.003
-557.471	91.009	0.133	-0.148
-556.456	39.648	-0.108	-0.096
-555.442	199.001	-0.133	-0.201
-554.427	127.237	-0.348	-0.436
-553.412	455.851	0.150	-0.330
-552.398	97.647	0.074	0.085
-551.383	5.375	-0.085	0.062
-550.369	-82.480	0.243	-0.078
-549.354	-102.059	0.188	0.045
-548.339	296.870	0.095	0.172
-547.325	800.000	-0.098	-0.394
-546.310	-5.611	-0.209	-0.142
-545.296	-64.120	0.093	0.038
-544.281	-200.000	0.047	0.285
-543.266	-200.000	0.002	0.061
-542.252	-5.277	0.153	0.104
-541.237	-200.000	0.053	0.245
-540.223	-104.514	-0.151	-0.035
-539.208	-143.526	-0.448	0.042
-538.193	22.253	0.086	-0.069
-537.179	-200.000	0.028	0.156
-536.164	24.702	0.214	-0.175
-535.150	-110.394	0.199	0.041
-534.135	-200.000	0.048	0.410
-533.121	-200.000	-0.012	-0.137
-532.106	233.584	-0.067	-0.109
-531.091	800.000	0.099	-0.275
-530.077	250.306	0.220	0.370
-529.062	800.000	0.007	-0.026
-528.048	-33.551	0.146	0.080
-527.033	604.432	-0.154	0.379
-526.018	31.907	0.189	0.161
-525.004	800.000	-0.041	-0.122
-523.989	800.000	0.029	0.096
-522.975	11.308	0.049	-0.037
-521.960	264.562	-0.008	0.014
-520.945	-147.612	0.073	-0.006
-519.931	-122.980	0.137	-0.022
-518.916	2.256	0.118	-0.084
-517.902	-200.000	0.010	-0.254
-516.887	-140.561	-0.374	0.038
-515.872	125.363	-0.037	-0.047
-514.858	-91.869	0.160	0.045
-513.843	-197.596	0.120	0.001
-512.829	-168.774	-0.219	-0.008
-511.814	800.000	-0.058	-0.197
-510.799	8.529	0.061	0.045
-509.785	142.970	-0.188	0.247
-508.770	-200.000	-0.045	0.217
-507.756	-200.000	0.006	0.236
-506.741	800.000	-0.085	0.283
-505.726	-48.890	-0.210	0.099
-504.712	-1.503	0.177	-0.124
-503.697	241.486	0.319	-0.526
-502.683	64.426	-0.172	-0.171
-501.668	-154.506	-0.184	-0.012
-500.653	103.669	0.029	0.033
-499.639	-64.667	-0.188	-0.075
-498.624	678.768	0.054	-0.140
-497.610	-167.253	-0.123	-0.005
-496.595	-83.465	0.274	-0.087
-495.581	171.522	-0.128	-0.181
-494.566	-60.075	0.211	-0.089
-493.551	-200.000	0.004	0.034
-492.537	539.362	0.094	0.220
-491.522	159.757	0.176	0.243
-490.508	-200.000	-0.012	-0.145
-489.493	-200.000	0.006	-0.116
-488.478	313.313	0.059	0.109
-487.464	-81.837	0.087	-0.028
-486.449	60.502	-0.273	-0.267
-485.435	-200.000	-0.001	-0.110
-484.420	75.360	0.011	-0.011
-483.405	-59.182	0.425	0.181
-482.391	-200.000	-0.007	0.408
-481.376	-103.937	0.187	-0.043
-480.362	182.911	0.108	0.157
-479.347	-8.403	0.235	0.156
-478.332	127.054	0.122	-0.153
-477.318	-35.104	-0.213	-0.115
-476.303	-102.510	0.118	-0.028
-475.289	195.236	0.137	-0.205
-474.274	-6.541	0.335	0.225
-473.259	8.244	0.185	-0.137
-472.245	-200.000	-0.035	-0.363
-471.230	800.000	0.056	0.172
-470.216	-33.494	0.151	0.082
-469.201	-39.762	0.104	0.054
-468.186	326.333	0.120	-0.227
-467.172	631.536	-0.098	0.244
-466.157	84.799	-0.244	-0.264
-465.143	626.183	0.038	-0.094
-464.128	-72.474	0.188	0.069
-463.113	281.212	-0.084	-0.148
-462.099	155.475	-0.090	0.123
-461.084	-148.656	-0.357	-0.029
-460.070	292.892	0.079	-0.141
-459.055	105.949	0.073	0.085
-458.040	71.512	0.194	-0.198
-457.026	-147.033	-0.318	-0.027
-456.011	93.833	-0.312	-0.349
-454.997	-200.000	0.047	0.216
-453.982	-200.000	-0.018	-0.093
-452.968	-54.637	0.242	-0.108
-451.953	181.876	-0.078	-0.114
-450.938	-119.794	-0.376	-0.064
-449.924	160.478	-0.117	0.161
-448.909	18.357	-0.054	0.042
-447.895	-141.531	0.320	-0.032
-446.880	120.963	-0.116	-0.142
-445.865	131.912	-0.122	0.155
-444.851	-200.000	0.065	0.440
-443.836	-44.400	0.221	-0.109
-442.822	800.000	0.032	-0.119
-441.807	-13.942	-0.094	-0.060
-440.792	106.528	-0.114	0.133
-439.778	7.473	-0.319	0.235
-438.763	-115.094	0.090	-0.017
-437.749	-124.042	-0.322	-0.050
-436.734	263.276	-0.192	-0.328
-435.719	800.000	0.056	0.241
-434.705	-200.000	-0.017	0.095
-433.690	163.017	0.161	0.223
-432.676	-103.461	0.211	-0.049
-431.661	-23.722	-0.273	0.161
-430.646	-33.565	0.492	-0.268
-429.632	-13.191	-0.116	-0.074
-428.617	15.390	-0.115	0.089
-427.603	231.122	-0.177	-0.286
-426.588	800.000	-0.078	-0.222
-425.573	30.742	-0.068	-0.057
-424.559	-0.671	0.043	-0.030
-423.544	800.000	-0.029	-0.086
-422.530	112.740	-0.268	-0.319
-421.515	346.442	0.089	0.173
-420.500	7.642	0.239	0.176
-419.486	219.815	-0.143	-0.226
-418.471	-200.000	-0.005	0.165
-417.457	-78.567	-0.218	0.074
-416.442	691.332	-0.047	-0.120
-415.428	25.404	-0.151	-0.123
-414.413	-139.445	0.523	0.055
-413.398	108.607	-0.349	0.410
-412.384	-6.684	-0.068	-0.046
-411.369	-32.752	0.188	0.103
-410.355	-14.166	0.032	-0.020
-409.340	-200.000	0.031	-0.352
-408.325	408.704	0.039	0.082
-407.311	-126.286	-0.071	-0.010
-406.296	257.717	-0.170	-0.288
-405.282	-52.343	0.111	0.050
-404.267	206.374	0.092	-0.141
-403.252	-45.975	-0.238	-0.116
-402.238	174.989	0.179	0.254
-401.223	410.926	0.189	0.395
-400.209	-178.140	0.275	-0.006
-399.194	142.097	0.073	0.096
-398.179	-200.000	0.052	0.367
-397.165	464.584	-0.015	-0.033
-396.150	11.300	-0.208	0.157
-395.136	-126.821	-0.176	0.025
-394.121	-46.403	-0.034	-0.016
-393.106	118.111	-0.147	-0.178
-392.092	-200.000	-0.007	-0.117
-391.077	-84.161	-0.200	-0.062
-390.063	440.613	0.085	0.183
-389.048	-200.000	0.045	-0.228
-388.033	269.794	0.204	-0.353
-387.019	-200.000	-0.042	-0.202
-386.004	-15.678	-0.147	0.092
-384.990	-108.571	0.141	0.030
-383.975	-93.011	-0.241	0.066
-382.960	800.000	0.079	-0.256
-381.946	800.000	0.074	-0.258
-380.931	800.000	0.071	0.223
-379.917	-10.099	-0.111	-0.072
-378.902	-121.776	-0.237	-0.038
-377.888	231.978	0.042	0.068
-376.873	-115.893	-0.073	-0.013
-375.858	46.680	0.051	0.047
-374.844	387.239	-0.092	0.186
-373.829	-95.733	-0.228	0.060
-372.815	43.642	0.207	0.186
-371.800	54.132	-0.152	0.143
-370.785	-95.976	0.155	0.041
-369.771	-10.600	0.455	0.296
-368.756	-68.347	-0.136	-0.052
-367.742	195.590	0.214	0.320
-366.727	-159.591	0.179	0.010
-365.712	-144.108	-0.134	-0.012
-364.698	101.719	0.119	-0.137
-363.683	-123.006	0.189	0.030
-362.669	756.179	-0.063	-0.169
-361.654	800.000	0.019	0.076
-360.639	179.026	-0.197	0.283
-359.625	60.100	-0.065	-0.063
-358.610	-21.439	-0.126	-0.075
-357.596	-200.000	0.025	-0.313
-356.581	-200.000	-0.010	-0.061
-355.566	-105.364	0.041	0.009
-354.552	-130.979	-0.115	0.015
-353.537	-200.000	-0.124	0.000
-352.523	-200.000	0.022	-0.165
-351.508	-105.350	0.035	-0.008
-350.493	800.000	0.027	0.109
-349.479	800.000	0.078	0.278
-348.464	-79.246	-0.523	-0.174
-347.450	24.456	0.152	-0.123
-346.435	88.280	0.375	-0.409
-345.420	-200.000	-0.029	-0.164
-344.406	-200.000	0.024	0.174
-343.391	-33.960	0.074	-0.040
-342.377	87.565	0.183	-0.199
-341.362	628.001	0.029	0.073
-340.348	-105.296	-0.028	0.006
-339.333	-81.846	-0.069	-0.022
-338.318	640.748	-0.023	0.058
-337.304	0.146	-0.231	-0.162
-336.289	558.717	0.097	-0.230
-335.275	190.882	-0.021	-0.030
-334.260	256.884	-0.057	-0.096
-333.245	240.762	-0.170	-0.278
-332.231	250.935	-0.189	-0.315
-331.216	11.759	0.078	0.058
-330.202	-86.003	-0.501	0.152
-329.187	470.064	-0.058	0.128
-328.172	-29.022	-0.013	0.007
-327.158	-38.569	0.122	-0.063
-326.143	531.617	-0.141	-0.326
-325.129	85.988	-0.185	0.200
-324.114	-38.263	0.343	0.178
-323.099	481.358	-0.207	-0.460
-322.085	-47.859	0.101	0.048
-321.070	-53.853	-0.181	0.081
-320.056	-127.496	-0.297	-0.042
-319.041	495.582	-0.131	-0.296
-318.026	-200.000	0.002	-0.308
-317.012	800.000	0.053	-0.205
-315.997	-200.000	0.038	0.245
-314.983	-7.427	-0.182	-0.121
-313.968	164.091	0.107	-0.148
-312.953	93.983	-0.203	0.226
-311.939	453.985	0.081	0.175
-310.924	309.798	0.092	-0.168
-309.910	207.328	-0.121	-0.186
-308.895	-200.000	-0.036	-0.223
-307.880	-41.903	-0.127	0.064
-306.866	-85.386	0.239	0.073
-305.851	-12.519	-0.254	-0.163
-304.837	270.263	-0.043	0.074
-303.822	-42.255	0.133	-0.067
-302.807	29.644	-0.169	-0.141
-301.793	-86.066	0.295	0.089
-300.778	-5.386	-0.050	-0.034
-299.764	-183.158	0.171	0.003
-298.749	284.290	0.048	-0.085
-297.735	-200.000	0.096	0.528
-296.720	-200.000	0.007	0.067
-295.705	-200.000	0.027	0.167
-294.691	101.308	-0.139	-0.159
-293.676	-200.000	0.002	-0.035
-292.662	404.723	-0.099	0.205
-291.647	1.367	-0.128	-0.090
-290.632	-14.598	-0.269	0.169
-289.618	29.093	0.197	0.163
-288.603	-200.000	0.010	0.202
-287.589	-200.000	0.035	-0.277
-286.574	504.526	-0.087	-0.197
-285.559	42.128	0.082	0.073
-284.545	263.398	-0.047	-0.080
-283.530	-200.000	0.071	-0.470
-282.516	47.414	0.096	-0.088
-281.501	-1.637	0.339	0.234
-280.486	97.914	-0.139	-0.156
-279.472	612.804	0.063	-0.154
-278.457	319.511	0.177	-0.329
-277.443	-200.000	-0.018	-0.206
-276.428	-200.000	0.033	0.181
-275.413	-117.981	0.190	-0.033
-274.399	-62.041	-0.424	0.173
-273.384	-200.000	-0.000	0.212
-272.370	-143.271	0.128	0.012
-271.355	800.000	-0.025	0.100
-270.340	-122.805	0.114	-0.018
-269.326	800.000	0.061	0.221
-268.311	-148.529	-0.176	-0.014
-267.297	62.906	0.144	-0.141
-266.282	238.203	0.068	-0.110
-265.267	-200.000	-0.025	-0.134
-264.253	140.998	-0.138	0.179
-263.238	800.000	-0.085	0.261
-262.224	202.985	-0.218	0.330
-261.209	-153.226	-0.084	0.006
-260.195	-200.000	-0.020	-0.288
-259.180	189.737	0.082	-0.120
-258.165	254.376	0.082	0.137
-257.151	-71.693	0.232	0.085
-256.136	261.545	-0.049	-0.083
-255.122	42.098	-0.069	0.061
-254.107	-146.955	-0.242	0.020
-253.092	199.410	-0.110	0.164
-252.078	-200.000	0.000	0.025
-251.063	-24.850	0.096	-0.055
-250.049	-200.000	0.056	0.263
-249.034	255.302	0.010	-0.016
-248.019	614.081	0.095	0.232
-247.005	411.248	-0.185	0.383
-245.990	-10.944	0.164	-0.106
-244.976	-61.664	0.143	0.059
-243.961	-73.931	0.283	-0.100
-242.946	-19.113	0.161	0.098
-241.932	-200.000	0.006	0.089
-240.917	-27.350	-0.158	0.090
-239.903	338.922	0.021	-0.041
-238.888	-97.892	0.050	-0.013
-237.873	-200.000	-0.084	0.377
-236.859	-200.000	0.004	0.085
-235.844	800.000	-0.087	-0.247
-234.830	-74.793	0.040	-0.014
-233.815	182.555	-0.198	0.286
-232.800	-200.000	0.055	0.363
-231.786	-12.386	-0.182	-0.116
-230.771	800.000	0.095	0.333
-229.757	-11.412	-0.142	0.092
-228.742	12.056	0.146	-0.110
-227.727	-151.852	-0.244	0.017
-226.713	-121.327	0.463	-0.075
-225.698	-200.000	0.002	0.153
-224.684	116.996	0.176	0.211
-223.669	45.422	0.007	-0.007
-222.655	-97.137	0.318	0.081
-221.640	-41.218	-0.172	0.087
-220.625	4.720	0.123	-0.089
-219.611	-200.000	0.023	0.213
-218.596	-119.564	-0.257	0.043
-217.582	86.731	-0.259	0.279
-216.567	-200.000	0.007	-0.222
-215.552	51.443	0.064	0.059
-214.538	-200.000	-0.047	-0.295
-213.523	-111.289	-0.190	0.038
-212.509	286.557	0.080	0.140
-211.494	-59.915	-0.157	-0.066
-210.479	800.000	-0.054	0.203
-209.465	-4.308	-0.058	-0.039
-208.450	206.430	-0.230	0.350
-207.436	-200.000	0.004	-0.067
-206.421	-200.000	-0.056	-0.255
-205.406	800.000	0.145	-0.490
-204.392	-200.000	-0.015	0.152
-203.377	800.000	0.103	0.366
-202.363	152.758	0.073	-0.098
-201.348	154.715	0.160	0.215
-200.333	82.227	-0.137	0.145
-199.319	-195.117	-0.282	-0.002
-198.304	-115.618	0.139	-0.026
-197.290	-200.000	-0.036	0.279
-196.275	31.453	0.430	0.360
-195.260	56.150	0.150	0.142
-194.246	-161.346	-0.126	-0.006
-193.231	-200.000	-0.018	0.148
-192.217	-27.047	0.482	-0.274
-191.202	-180.784	0.104	0.002
-190.187	-200.000	0.017	0.102
-189.173	28.147	-0.263	0.216
-188.158	716.560	0.161	-0.416
-187.144	577.844	-0.178	0.426
-186.129	-117.785	0.021	-0.004
-185.114	800.000	0.067	-0.196
-184.100	-62.320	0.386	-0.157
-183.085	154.072	-0.095	-0.127
-182.071	-200.000	-0.057	-0.384
-181.056	-22.312	0.246	0.145
-180.042	800.000	0.068	0.213
-179.027	93.712	0.177	0.195
-178.012	44.550	-0.122	-0.110
-176.998	115.053	-0.084	-0.100
-175.983	-31.716	-0.578	0.316
-174.969	-200.000	-0.010	-0.128
-173.954	-131.192	0.394	0.051
-172.939	-101.482	0.267	-0.063
-171.925	-122.220	-0.439	0.070
-170.910	800.000	-0.038	-0.106
-169.896	398.965	-0.140	0.287
-168.881	-200.000	-0.049	-0.266
-167.866	-112.891	-0.182	0.035
-166.852	-141.509	0.048	0.005
-165.837	217.649	-0.081	-0.125
-164.823	800.000	-0.104	0.285
-163.808	273.485	0.207	0.356
-162.793	-10.254	-0.200	-0.129
-161.779	606.403	0.054	-0.130
-160.764	-1.194	-0.182	0.125
-159.750	-200.000	0.027	-0.168
-158.735	65.651	0.124	-0.122
-157.720	556.495	-0.044	0.103
-156.706	350.022	-0.097	-0.187
-155.691	-94.891	-0.215	-0.057
-154.677	463.712	0.095	0.208
-153.662	19.884	-0.134	-0.105
-152.647	-69.675	-0.087	0.032
-151.633	473.769	0.173	-0.379
-150.618	-145.356	-0.147	-0.013
-149.604	-131.669	0.083	0.011
-148.589	446.895	0.076	0.163
-147.574	131.633	0.135	0.169
-146.560	-94.816	-0.184	0.048
-145.545	-117.761	-0.342	-0.060
-144.531	-46.938	0.144	-0.068
-143.516	207.316	0.069	-0.105
-142.502	-147.789	-0.306	0.025
-141.487	313.161	0.078	0.143
-140.472	104.220	-0.070	-0.081
-139.458	65.980	0.181	0.179
-138.443	414.587	0.101	-0.210
-137.429	-200.000	-0.032	-0.303
-136.414	209.779	0.081	-0.124
-135.399	-171.229	-0.109	-0.004
-134.385	71.006	0.291	-0.293
-133.370	-200.000	0.005	-0.603
-132.356	-165.803	0.251	-0.011
-131.341	-77.380	0.259	-0.087
-130.326	-200.000	0.001	-0.153
-129.312	-94.924	0.266	0.070
-128.297	27.961	-0.259	-0.213
-127.283	41.699	-0.071	0.063
-126.268	800.000	-0.131	-0.362
-125.253	389.917	0.066	0.133
-124.239	660.686	0.098	-0.247
-123.224	800.000	0.075	0.229
-122.210	-200.000	-0.027	-0.264
-121.195	-200.000	-0.046	-0.215
