DTS Sentinel unit serial number:	SN413079Multiplexer serial number:	ORYXHardware model number:	OX4-SRSoftware version number:	ORYX F/W v4.00 Oryx Data Collector v3.7.2.0data status	okinstallation	princeton_trtdifferential loss correction	single-endedforward channel	channel 2reverse channel	N/Adate	2019/09/14time	10:23:34forward acquisition time	60.00reverse acquisition time	0.00gamma	496.2192k internal	0.2316k external	0.2316temperature offset calibration	1.0139default loss term (dB/km)	0.3790temperature slope calibration	1.0000multiplexer offset coefficient	1.0000multiplexer slope coefficient	1.0000fibre end	0.00T internal ref (°C)	34.42T ext. ref 1 (°C)	4.15T ext. ref 2 (°C)	32.83length (m)	temperature (°C)	Stokes	anti-Stokes-747.200	-44.508	-0.147	-0.074
-746.185	735.894	-0.158	0.430
-745.171	21.158	0.425	0.350
-744.156	390.197	0.107	-0.225
-743.142	-197.420	0.327	-0.002
-742.127	-39.920	0.177	0.093
-741.112	-120.002	0.398	0.069
-740.098	800.000	-0.021	0.078
-739.083	800.000	-0.038	0.125
-738.069	-200.000	-0.011	0.185
-737.054	800.000	-0.080	0.250
-736.039	-139.400	-0.083	-0.009
-735.025	440.212	0.049	-0.108
-734.010	-114.632	0.134	0.026
-732.996	452.838	0.018	0.040
-731.981	-186.386	0.163	-0.002
-730.966	368.663	-0.136	-0.279
-729.952	-88.902	-0.344	-0.103
-728.937	-74.072	-0.185	0.068
-727.923	-200.000	-0.069	-0.350
-726.908	-41.891	-0.131	-0.068
-725.894	-200.000	0.030	0.272
-724.879	71.245	-0.241	-0.253
-723.864	351.991	0.080	0.161
-722.850	0.873	-0.164	-0.119
-721.835	800.000	0.033	0.100
-720.821	-200.000	-0.023	-0.274
-719.806	-8.951	-0.141	-0.095
-718.791	-179.795	0.340	-0.007
-717.777	161.000	-0.055	0.077
-716.762	-163.811	0.244	0.012
-715.748	-171.114	0.251	0.009
-714.733	-113.131	-0.247	-0.049
-713.718	800.000	0.038	-0.137
-712.704	231.163	-0.122	-0.202
-711.689	-200.000	0.011	0.294
-710.675	32.184	0.131	-0.114
-709.660	-200.000	0.063	0.318
-708.645	-200.000	0.023	-0.139
-707.631	-200.000	-0.036	-0.238
-706.616	525.925	0.118	0.280
-705.602	35.604	-0.305	0.271
-704.587	-122.971	-0.107	-0.017
-703.572	-200.000	0.031	-0.189
-702.558	107.121	0.213	0.257
-701.543	136.990	-0.287	-0.380
-700.529	-30.879	-0.115	-0.066
-699.514	-78.645	-0.147	-0.051
-698.499	73.001	-0.357	-0.377
-697.485	-108.056	-0.201	-0.044
-696.470	-43.832	-0.217	-0.111
-695.456	-138.086	-0.117	-0.013
-694.441	-141.598	-0.054	0.005
-693.426	-76.470	0.066	-0.023
-692.412	800.000	0.021	-0.079
-691.397	-49.080	-0.166	-0.081
-690.383	-200.000	-0.012	0.246
-689.368	-200.000	-0.342	0.001
-688.354	800.000	-0.029	0.117
-687.339	-200.000	0.004	-0.077
-686.324	800.000	0.070	0.207
-685.310	-141.479	0.363	0.037
-684.295	800.000	-0.099	0.356
-683.281	-200.000	-0.003	0.170
-682.266	-126.087	0.169	-0.026
-681.251	174.283	0.046	-0.068
-680.237	557.163	0.087	-0.212
-679.222	225.811	0.051	0.083
-678.208	-148.788	-0.301	0.025
-677.193	-9.816	0.148	-0.100
-676.178	-145.704	0.227	-0.020
-675.164	385.654	0.124	-0.260
-674.149	800.000	-0.012	0.051
-673.135	-115.538	-0.212	-0.040
-672.120	274.900	-0.290	-0.518
-671.105	-152.871	-0.182	-0.013
-670.091	25.761	-0.284	-0.239
-669.076	-200.000	0.063	-0.423
-668.062	59.750	0.165	-0.165
-667.047	211.064	0.121	0.193
-666.032	60.166	0.055	-0.055
-665.018	-48.592	0.311	-0.151
-664.003	-25.585	0.214	0.128
-662.989	205.716	-0.337	-0.529
-661.974	31.346	-0.120	-0.104
-660.959	24.478	-0.073	-0.061
-659.945	-200.000	-0.037	0.163
-658.930	50.355	0.145	-0.138
-657.916	800.000	0.036	-0.116
-656.901	85.686	-0.203	0.226
-655.886	-94.941	0.201	0.055
-654.872	671.413	-0.032	0.083
-653.857	-46.826	0.306	-0.151
-652.843	625.205	-0.090	0.229
-651.828	256.294	0.198	-0.343
-650.814	-33.262	0.227	-0.127
-649.799	217.997	0.051	0.082
-648.784	-200.000	-0.005	0.254
-647.770	800.000	-0.051	0.202
-646.755	54.357	-0.081	0.079
-645.741	-200.000	-0.005	-0.073
-644.726	-200.000	-0.023	-0.177
-643.711	125.225	0.074	-0.094
-642.697	424.573	0.110	-0.239
-641.682	-200.000	0.022	-0.278
-640.668	256.220	0.186	-0.322
-639.653	-200.000	-0.019	-0.222
-638.638	189.793	-0.135	-0.204
-637.624	-200.000	0.031	0.155
-636.609	320.296	0.218	0.418
-635.595	800.000	0.049	-0.144
-634.580	-1.893	-0.267	0.189
-633.565	76.449	-0.184	0.196
-632.551	150.056	0.055	-0.075
-631.536	210.158	-0.131	0.207
-630.522	138.905	-0.112	-0.148
-629.507	800.000	-0.032	-0.129
-628.492	-17.704	0.031	-0.020
-627.478	383.128	-0.099	-0.206
-626.463	176.572	-0.157	0.230
-625.449	15.433	-0.203	-0.160
-624.434	-178.373	-0.107	0.003
-623.419	-90.999	-0.334	-0.097
-622.405	-21.737	-0.171	0.105
-621.390	120.947	-0.168	-0.211
-620.376	374.829	0.066	0.135
-619.361	98.286	0.198	-0.230
-618.346	572.882	0.119	-0.292
-617.332	-33.401	0.205	0.114
-616.317	-200.000	0.023	0.139
-615.303	670.825	0.066	0.172
-614.288	66.951	0.225	0.231
-613.273	-27.886	0.255	-0.149
-612.259	182.032	-0.155	0.231
-611.244	-200.000	0.010	-0.229
-610.230	81.681	0.052	0.056
-609.215	146.092	-0.169	-0.229
-608.201	147.599	0.146	-0.198
-607.186	-14.577	-0.387	0.251
-606.171	800.000	0.025	0.071
-605.157	94.201	0.171	-0.195
-604.142	394.402	0.043	0.091
-603.128	-31.562	0.304	-0.172
-602.113	-200.000	-0.001	-0.074
-601.098	-177.195	0.154	-0.004
-600.084	419.975	0.063	0.136
-599.069	-165.874	0.172	0.007
-598.055	-67.901	0.369	-0.145
-597.040	216.257	0.127	-0.204
-596.025	-55.303	-0.116	-0.052
-595.011	116.025	0.137	-0.169
-593.996	-200.000	0.028	-0.331
-592.982	230.250	-0.110	0.182
-591.967	33.371	-0.101	0.088
-590.952	90.598	0.042	0.048
-589.938	-200.000	-0.014	-0.064
-588.923	800.000	0.051	0.204
-587.909	-113.743	0.035	0.007
-586.894	800.000	0.044	0.126
-585.879	800.000	0.071	0.235
-584.865	-200.000	-0.002	0.144
-583.850	11.231	-0.102	-0.079
-582.836	1.582	0.072	0.052
-581.821	307.991	-0.155	0.292
-580.806	3.729	-0.079	0.058
-579.792	-77.158	0.392	0.137
-578.777	-200.000	0.001	0.077
-577.763	800.000	0.092	0.274
-576.748	-14.616	-0.093	0.060
-575.733	173.940	0.079	0.115
-574.719	42.318	-0.286	-0.262
-573.704	-200.000	-0.036	-0.344
-572.690	-77.049	0.060	0.021
-571.675	800.000	0.068	0.297
-570.661	68.344	-0.050	0.052
-569.646	800.000	0.137	0.468
-568.631	4.845	0.237	-0.176
-567.617	-200.000	-0.190	0.001
-566.602	-200.000	0.023	-0.192
-565.588	-200.000	0.050	-0.283
-564.573	9.082	-0.090	0.068
-563.558	-58.982	0.187	-0.081
-562.544	78.285	0.202	0.217
-561.529	249.904	-0.053	-0.090
-560.515	179.016	0.149	-0.218
-559.500	-33.392	-0.392	-0.218
-558.485	-200.000	-0.045	-0.490
-557.471	43.132	0.048	0.044
-556.456	-200.000	-0.045	-0.488
-555.442	96.913	0.166	-0.192
-554.427	-200.000	-0.002	0.052
-553.412	-19.649	-0.109	-0.068
-552.398	800.000	-0.117	-0.406
-551.383	-159.215	-0.018	-0.001
-550.369	60.916	-0.268	-0.267
-549.354	-32.263	0.248	-0.139
-548.339	25.178	0.261	-0.218
-547.325	-200.000	0.015	0.106
-546.310	-200.000	0.023	0.279
-545.296	800.000	-0.115	-0.343
-544.281	-172.181	0.161	0.005
-543.266	800.000	-0.119	0.375
-542.252	86.919	0.201	-0.224
-541.237	561.724	-0.140	0.341
-540.223	0.504	-0.093	0.067
-539.208	-116.799	-0.071	-0.013
-538.193	-117.758	-0.139	-0.025
-537.179	281.503	-0.044	-0.080
-536.164	800.000	-0.044	0.189
-535.150	-183.559	-0.240	0.004
-534.135	-106.601	0.038	0.009
-533.121	-200.000	0.033	-0.363
-532.106	-193.654	-0.174	0.001
-531.091	800.000	0.060	-0.198
-530.077	-156.945	0.265	0.016
-529.062	-79.659	-0.134	0.045
-528.048	-93.752	-0.093	0.026
-527.033	314.255	0.102	-0.193
-526.018	461.143	0.063	-0.140
-525.004	86.520	-0.150	-0.166
-523.989	-200.000	0.009	-0.188
-522.975	174.383	-0.112	-0.163
-521.960	-200.000	-0.026	-0.340
-520.945	-120.999	0.190	0.032
-519.931	-63.004	-0.072	0.030
-518.916	182.595	-0.065	-0.096
-517.902	-31.077	-0.184	0.104
-516.887	-200.000	0.002	-0.145
-515.872	7.856	0.215	-0.162
-514.858	-62.228	-0.164	0.069
-513.843	-123.505	-0.333	0.053
-512.829	-200.000	-0.011	-0.080
-511.814	-50.876	0.123	-0.058
-510.799	-109.216	-0.159	-0.034
-509.785	75.062	-0.224	0.237
-508.770	372.031	-0.097	0.198
-507.756	-200.000	0.002	0.017
-506.741	-30.449	0.139	-0.079
-505.726	579.889	-0.136	0.333
-504.712	-200.000	0.015	-0.206
-503.697	798.915	-0.070	0.194
-502.683	413.129	-0.124	0.265
-501.668	-200.000	-0.021	-0.115
-500.653	135.650	-0.203	-0.265
-499.639	263.573	-0.172	0.299
-498.624	-103.624	0.208	-0.049
-497.610	-160.610	0.208	0.011
-496.595	800.000	-0.114	0.345
-495.581	244.415	-0.104	-0.175
-494.566	-97.070	-0.310	0.081
-493.551	14.034	-0.222	0.174
-492.537	524.768	0.097	0.228
-491.522	212.532	-0.247	0.392
-490.508	-197.512	0.190	-0.001
-489.493	800.000	-0.121	-0.369
-488.478	-200.000	-0.010	0.126
-487.464	-111.145	-0.336	0.069
-486.449	-131.319	0.018	0.002
-485.435	-200.000	0.014	0.226
-484.420	511.943	-0.088	0.205
-483.405	-200.000	0.090	0.546
-482.391	-114.414	0.255	-0.049
-481.376	360.230	0.043	-0.086
-480.362	-101.710	-0.308	0.075
-479.347	110.368	-0.229	0.275
-478.332	-200.000	-0.000	-0.058
-477.318	-47.733	0.114	0.055
-476.303	800.000	-0.051	-0.171
-475.289	-22.035	-0.059	0.036
-474.274	800.000	-0.060	-0.190
-473.259	85.006	0.034	0.037
-472.245	-200.000	0.046	-0.370
-471.230	-200.000	-0.005	0.211
-470.216	-146.203	0.175	0.015
-469.201	149.667	0.202	-0.274
-468.186	-95.819	0.103	-0.027
-467.172	-150.516	-0.102	-0.008
-466.157	-38.964	-0.117	0.062
-465.143	-1.571	-0.086	-0.060
-464.128	62.985	0.068	0.069
-463.113	86.538	-0.076	0.083
-462.099	34.622	0.421	0.369
-461.084	800.000	-0.066	0.194
-460.070	-7.318	-0.220	0.149
-459.055	152.900	0.064	-0.088
-458.040	-145.452	-0.079	-0.007
-457.026	-97.553	-0.109	0.028
-456.011	37.177	-0.141	-0.125
-454.997	-79.989	0.158	-0.053
-453.982	-22.766	-0.059	0.036
-452.968	146.975	-0.067	-0.091
-451.953	-200.000	0.036	0.238
-450.938	-200.000	-0.001	-0.143
-449.924	800.000	-0.055	0.162
-448.909	800.000	0.142	0.444
-447.895	-15.234	-0.193	-0.123
-446.880	4.412	0.286	0.210
-445.865	-200.000	0.036	-0.321
-444.851	402.165	0.022	0.045
-443.836	-200.000	-0.019	-0.108
-442.822	800.000	-0.046	-0.177
-441.807	37.928	-0.204	0.182
-440.792	-170.188	0.205	-0.007
-439.778	-95.616	-0.038	0.010
-438.763	-200.000	-0.020	0.121
-437.749	12.703	-0.266	0.205
-436.734	-129.388	0.061	0.008
-435.719	681.728	-0.128	-0.335
-434.705	-200.000	-0.040	0.308
-433.690	10.446	0.161	-0.123
-432.676	103.050	-0.119	0.140
-431.661	85.770	-0.141	-0.155
-430.646	-26.577	0.083	0.049
-429.632	800.000	0.083	-0.231
-428.617	193.221	0.284	0.430
-427.603	53.359	0.096	-0.092
-426.588	95.534	0.143	0.164
-425.573	-94.971	-0.075	-0.020
-424.559	182.383	0.128	-0.190
-423.544	800.000	-0.016	-0.052
-422.530	225.930	0.203	0.329
-421.515	83.770	-0.208	0.227
-420.500	776.749	0.098	0.267
-419.486	-68.211	-0.154	-0.060
-418.471	-4.754	0.240	-0.165
-417.457	188.032	0.112	0.167
-416.442	800.000	-0.135	-0.385
-415.428	26.194	0.233	-0.194
-414.413	32.240	-0.320	-0.276
-413.398	210.860	0.051	-0.080
-412.384	800.000	-0.060	-0.202
-411.369	297.211	-0.094	-0.172
-410.355	-143.301	-0.120	-0.012
-409.340	800.000	-0.078	-0.272
-408.325	205.151	-0.143	0.223
-407.311	-200.000	0.038	0.314
-406.296	-158.268	0.122	-0.007
-405.282	5.819	0.195	0.144
-404.267	-64.245	-0.326	0.133
-403.252	-58.504	0.071	-0.031
-402.238	-200.000	0.020	0.124
-401.223	-200.000	-0.002	-0.243
-400.209	-55.101	-0.058	0.026
-399.194	-143.936	-0.356	-0.034
-398.179	-200.000	-0.002	-0.116
-397.165	-39.204	0.191	-0.100
-396.150	-84.117	-0.198	-0.063
-395.136	-170.278	-0.274	-0.010
-394.121	-134.326	-0.106	-0.013
-393.106	-12.554	0.103	-0.067
-392.092	-93.413	-0.136	0.038
-391.077	-47.030	-0.149	-0.073
-390.063	800.000	0.063	-0.194
-389.048	1.684	-0.169	0.122
-388.033	149.364	0.203	0.275
-387.019	-128.359	-0.267	-0.038
-386.004	-65.997	-0.064	-0.026
-384.990	-164.944	0.096	-0.004
-383.975	-200.000	-0.002	-0.059
-382.960	-200.000	0.008	0.134
-381.946	-110.759	0.291	0.060
-380.931	-200.000	0.030	-0.149
-379.917	38.735	0.018	-0.016
-378.902	-29.530	-0.200	-0.114
-377.888	-200.000	0.002	0.079
-376.873	314.375	-0.128	-0.240
-375.858	95.685	0.077	-0.088
-374.844	57.602	0.115	-0.112
-373.829	-109.168	-0.349	0.074
-372.815	-70.213	0.215	0.082
-371.800	800.000	-0.086	0.338
-370.785	-95.169	0.155	0.042
-369.771	-125.461	0.070	-0.011
-368.756	-61.827	-0.063	-0.026
-367.742	99.808	-0.096	0.111
-366.727	-114.999	-0.134	0.026
-365.712	-200.000	-0.023	-0.328
-364.698	332.944	-0.041	0.080
-363.683	177.284	-0.246	-0.358
-362.669	-4.238	0.133	0.092
-361.654	-40.363	-0.392	0.203
-360.639	-166.253	-0.063	0.003
-359.625	-89.702	0.211	-0.062
-358.610	185.830	0.157	0.233
-357.596	-34.904	0.129	0.070
-356.581	800.000	-0.091	0.362
-355.566	-97.356	-0.250	0.065
-354.552	-160.369	0.083	-0.004
-353.537	-200.000	0.088	0.000
-352.523	-176.522	-0.219	-0.006
-351.508	136.753	-0.136	-0.178
-350.493	800.000	-0.092	-0.323
-349.479	468.194	-0.069	-0.155
-348.464	25.697	-0.170	0.141
-347.450	92.691	0.209	0.236
-346.435	800.000	0.087	-0.258
-345.420	800.000	0.047	-0.204
-344.406	234.389	0.165	-0.270
-343.391	326.764	0.155	0.295
-342.377	-200.000	-0.370	-0.000
-341.362	-170.628	-0.154	-0.005
-340.348	17.885	-0.246	-0.195
-339.333	-80.059	0.165	0.055
-338.318	6.959	-0.131	-0.097
-337.304	147.387	0.146	-0.196
-336.289	43.667	0.118	0.107
-335.275	800.000	-0.042	0.128
-334.260	-200.000	-0.029	0.274
-333.245	5.695	-0.139	-0.102
-332.231	-94.907	-0.127	-0.034
-331.216	82.927	0.031	0.034
-330.202	-110.893	-0.326	0.067
-329.187	190.472	0.045	-0.068
-328.172	-200.000	0.046	-0.247
-327.158	-200.000	0.048	0.227
-326.143	-43.443	0.095	0.048
-325.129	76.333	0.114	0.120
-324.114	800.000	0.121	0.441
-323.099	601.884	0.013	0.032
-322.085	-125.236	-0.239	-0.036
-321.070	539.652	0.129	-0.306
-320.056	-69.979	-0.115	0.044
-319.041	-6.077	0.221	-0.150
-318.026	144.071	0.376	-0.500
-317.012	-200.000	0.010	-0.043
-315.997	800.000	0.097	0.341
-314.983	88.804	0.067	-0.074
-313.968	-200.000	0.006	-0.124
-312.953	-82.876	-0.311	-0.100
-311.939	800.000	-0.096	-0.316
-310.924	-187.454	-0.155	-0.002
-309.910	71.594	0.152	0.157
-308.895	456.569	0.073	-0.162
-307.880	36.722	0.154	-0.135
-306.866	-200.000	0.000	-0.038
-305.851	323.809	0.077	-0.147
-304.837	111.566	0.161	-0.193
-303.822	-108.621	-0.193	0.041
-302.807	-56.976	-0.166	-0.073
-301.793	-78.945	0.430	0.146
-300.778	800.000	0.077	0.272
-299.764	-200.000	0.024	-0.335
-298.749	-74.348	-0.149	0.053
-297.735	-136.992	-0.112	0.013
-296.720	568.937	0.119	-0.289
-295.705	800.000	-0.086	0.260
-294.691	83.769	0.075	-0.081
-293.676	139.309	0.142	-0.186
-292.662	263.938	0.047	0.082
-291.647	-165.640	0.323	-0.014
-290.632	355.643	-0.109	0.215
-289.618	-124.165	0.106	-0.016
-288.603	161.593	0.229	0.319
-287.589	43.453	-0.150	0.136
-286.574	-200.000	-0.024	-0.116
-285.559	297.019	0.098	0.179
-284.545	178.341	-0.128	0.185
-283.530	355.176	0.327	-0.648
-282.516	-145.787	-0.547	-0.048
-281.501	378.769	0.077	0.157
-280.486	76.341	0.090	0.095
-279.472	271.199	0.065	-0.114
-278.457	-200.000	-0.056	-0.370
-277.443	99.167	0.148	0.170
-276.428	475.242	-0.095	0.214
-275.413	118.098	0.069	-0.085
-274.399	26.899	-0.239	0.199
-273.384	-93.508	0.145	0.040
-272.370	98.107	-0.091	0.104
-271.355	175.461	0.030	-0.043
-270.340	25.929	0.150	0.124
-269.326	106.193	-0.024	0.028
-268.311	-200.000	-0.057	0.272
-267.297	12.939	0.226	-0.174
-266.282	114.101	0.165	0.199
-265.267	-115.985	0.302	-0.056
-264.253	144.656	0.106	0.141
-263.238	800.000	-0.141	0.413
-262.224	-196.809	0.273	0.002
-261.209	-163.131	0.080	-0.004
-260.195	-104.255	-0.231	0.053
-259.180	45.104	-0.349	0.319
-258.165	-200.000	-0.022	-0.231
-257.151	-47.360	0.284	-0.137
-256.136	-41.177	-0.234	0.120
-255.122	0.639	0.222	-0.158
-254.107	201.712	0.058	0.089
-253.092	800.000	-0.076	0.219
-252.078	-200.000	-0.036	-0.194
-251.063	553.293	-0.103	0.245
-250.049	268.254	0.163	0.284
-249.034	800.000	0.077	0.262
-248.019	-99.764	-0.043	0.011
-247.005	114.856	-0.225	0.273
-245.990	-104.537	-0.299	-0.069
-244.976	97.936	0.227	0.259
-243.961	800.000	0.070	-0.225
-242.946	-74.259	0.310	0.111
-241.932	800.000	0.103	-0.285
-240.917	-200.000	0.038	-0.334
-239.903	353.004	-0.085	0.168
-238.888	-155.849	-0.237	0.015
-237.873	-200.000	-0.014	0.360
-236.859	800.000	0.078	0.222
-235.844	419.481	-0.133	0.283
-234.830	-16.453	0.146	0.092
-233.815	67.606	0.129	-0.131
-232.800	-200.000	0.004	0.140
-231.786	-200.000	-0.016	0.211
-230.771	-200.000	-0.010	0.226
-229.757	-120.877	0.100	-0.017
-228.742	-200.000	0.012	-0.149
-227.727	43.230	0.127	0.116
-226.713	-110.399	-0.293	-0.060
-225.698	-37.085	0.323	-0.172
-224.684	83.131	0.108	0.117
-223.669	-145.158	0.114	0.010
-222.655	800.000	-0.098	0.295
-221.640	-200.000	-0.059	-0.335
-220.625	-200.000	-0.053	0.289
-219.611	-139.504	0.099	-0.011
-218.596	134.153	0.092	0.118
-217.582	184.175	-0.079	0.115
-216.567	547.281	-0.002	-0.005
-215.552	23.517	0.070	0.057
-214.538	191.191	-0.150	0.224
-213.523	-62.018	-0.181	-0.075
-212.509	77.846	0.303	0.321
-211.494	-200.000	0.326	-0.001
-210.479	361.571	-0.095	0.190
-209.465	-44.390	0.355	-0.176
-208.450	-12.205	0.200	-0.130
-207.436	-200.000	-0.063	-0.394
-206.421	-14.677	0.260	-0.166
-205.406	624.812	0.043	-0.107
-204.392	54.897	0.114	0.109
-203.377	278.197	0.045	-0.080
-202.363	-200.000	0.011	-0.120
-201.348	800.000	0.073	-0.261
-200.333	278.892	0.125	-0.221
-199.319	49.228	-0.262	-0.244
-198.304	-97.851	-0.134	0.034
-197.290	522.291	0.064	-0.148
-196.275	-81.182	-0.212	-0.069
-195.260	-200.000	-0.005	0.217
-194.246	-39.999	0.145	-0.075
-193.231	-31.726	-0.205	0.114
-192.217	-39.236	-0.077	0.040
-191.202	-137.936	-0.387	0.043
-190.187	-87.041	0.308	-0.093
-189.173	-0.732	0.365	-0.256
-188.158	-95.479	-0.455	0.121
-187.144	-17.614	-0.158	0.099
-186.129	226.656	0.153	-0.246
-185.114	86.652	-0.010	0.011
-184.100	61.868	-0.253	0.250
-183.085	-183.794	0.052	-0.001
-182.071	21.042	0.059	-0.048
-181.056	-100.992	0.368	-0.089
-180.042	292.324	-0.037	0.067
-179.027	-90.602	-0.141	0.040
-178.012	-97.692	0.230	0.059
-176.998	-109.676	0.417	-0.087
-175.983	-146.352	-0.236	-0.020
-174.969	-200.000	0.000	-0.099
-173.954	-111.302	0.234	-0.047
-172.939	129.562	0.088	0.111
-171.925	549.722	-0.102	-0.241
-170.910	-67.513	0.207	-0.080
-169.896	287.819	0.071	-0.127
-168.881	-142.210	-0.094	0.009
-167.866	-200.000	0.005	-0.036
-166.852	-131.329	0.033	0.004
-165.837	800.000	-0.054	0.164
-164.823	-200.000	-0.050	-0.341
-163.808	88.614	0.201	-0.221
-162.793	164.221	0.094	0.132
-161.779	86.249	0.102	-0.111
-160.764	651.302	-0.045	0.115
-159.750	-59.259	0.065	-0.028
-158.735	800.000	0.024	0.073
-157.720	-121.999	0.409	-0.067
-156.706	120.821	0.228	0.280
-155.691	27.462	-0.376	-0.313
-154.677	-200.000	0.027	0.203
-153.662	180.716	-0.111	0.161
-152.647	157.012	-0.079	0.108
-151.633	-175.167	-0.330	-0.009
-150.618	51.304	-0.011	0.010
-149.604	406.141	-0.075	-0.157
-148.589	235.923	0.115	0.189
-147.574	-74.536	0.154	-0.055
-146.560	102.547	-0.132	-0.153
-145.545	800.000	-0.028	-0.098
-144.531	-140.206	0.130	0.014
-143.516	550.518	0.092	-0.218
-142.502	-163.639	-0.064	0.003
-141.487	57.628	0.229	-0.221
-140.472	-28.438	0.176	0.100
-139.458	-47.018	0.103	-0.050
-138.443	9.268	-0.102	0.076
-137.429	-39.350	-0.181	-0.094
-136.414	367.603	-0.091	-0.182
-135.399	9.838	-0.034	-0.025
-134.385	-81.085	-0.201	-0.066
-133.370	800.000	0.048	-0.157
-132.356	-47.102	0.218	0.105
-131.341	-200.000	0.193	0.000
-130.326	-46.857	0.338	-0.163
-129.312	33.838	-0.212	0.183
-128.297	800.000	0.160	0.453
-127.283	-200.000	-0.011	-0.534
-126.268	317.664	0.194	-0.363
-125.253	46.199	-0.093	-0.085
-124.239	-71.959	0.064	-0.023
-123.224	-126.993	-0.249	0.036
-122.210	216.121	-0.088	0.138
-121.195	-198.267	-0.129	-0.001
