DTS Sentinel unit serial number:	SN413079Multiplexer serial number:	ORYXHardware model number:	OX4-SRSoftware version number:	ORYX F/W v4.00 Oryx Data Collector v3.7.2.0data status	okinstallation	princeton_trtdifferential loss correction	single-endedforward channel	channel 2reverse channel	N/Adate	2019/09/13time	15:47:35forward acquisition time	60.00reverse acquisition time	0.00gamma	496.2192k internal	0.2316k external	0.2316temperature offset calibration	1.0215default loss term (dB/km)	0.3790temperature slope calibration	1.0000multiplexer offset coefficient	1.0000multiplexer slope coefficient	1.0000fibre end	0.00T internal ref (°C)	34.69T ext. ref 1 (°C)	4.77T ext. ref 2 (°C)	29.53length (m)	temperature (°C)	Stokes	anti-Stokes-747.200	-158.237	0.175	-0.010
-746.185	-200.000	0.055	0.320
-745.171	-37.257	0.238	0.129
-744.156	-200.000	-0.003	0.093
-743.142	-18.337	-0.143	-0.091
-742.127	596.683	-0.093	0.234
-741.112	-130.540	-0.174	0.024
-740.098	27.659	-0.396	0.337
-739.083	590.995	0.150	-0.375
-738.069	-158.733	-0.359	0.021
-737.054	2.131	0.160	-0.117
-736.039	800.000	0.075	0.251
-735.025	31.659	0.026	0.023
-734.010	31.052	-0.147	-0.127
-732.996	373.490	-0.096	-0.198
-731.981	-0.614	-0.164	0.118
-730.966	150.556	0.124	0.170
-729.952	-77.574	-0.260	-0.091
-728.937	-130.103	-0.587	0.081
-727.923	-74.508	-0.121	0.044
-726.908	-200.000	0.016	-0.157
-725.894	-142.840	-0.045	0.004
-724.879	-52.285	-0.213	-0.100
-723.864	-200.000	-0.034	-0.315
-722.850	129.557	-0.158	0.205
-721.835	179.035	-0.128	0.189
-720.821	114.716	0.048	-0.060
-719.806	-133.603	-0.407	0.052
-718.791	-75.045	-0.134	-0.049
-717.777	91.474	-0.083	0.094
-716.762	509.761	0.182	-0.429
-715.748	-54.371	0.238	-0.109
-714.733	228.710	-0.158	0.261
-713.718	-113.190	-0.179	-0.036
-712.704	637.227	-0.120	0.307
-711.689	-46.800	0.104	-0.052
-710.675	13.623	-0.318	0.249
-709.660	-200.000	0.001	0.075
-708.645	216.811	0.055	0.088
-707.631	800.000	-0.038	0.152
-706.616	-86.652	-0.286	0.089
-705.602	-136.536	-0.191	0.022
-704.587	53.926	0.104	-0.101
-703.572	-200.000	0.047	-0.549
-702.558	139.240	-0.148	-0.197
-701.543	125.268	0.191	-0.244
-700.529	800.000	0.042	-0.122
-699.514	-102.405	0.206	0.050
-698.499	-191.087	-0.430	0.005
-697.485	449.658	-0.066	0.147
-696.470	800.000	0.047	-0.150
-695.456	-200.000	-0.003	-0.149
-694.441	-200.000	-0.006	-0.199
-693.426	-56.754	0.301	-0.134
-692.412	-200.000	0.020	-0.256
-691.397	-18.053	-0.061	0.039
-690.383	400.471	0.130	-0.275
-689.368	-139.534	-0.024	-0.003
-688.354	-100.882	-0.194	-0.048
-687.339	72.821	0.214	0.225
-686.324	-80.353	0.124	0.042
-685.310	800.000	-0.056	0.211
-684.295	53.357	-0.250	-0.242
-683.281	174.581	-0.258	0.377
-682.266	-200.000	0.029	0.290
-681.251	-200.000	-0.023	0.123
-680.237	-200.000	-0.007	0.137
-679.222	-148.550	0.058	0.005
-678.208	-34.457	0.130	-0.072
-677.193	451.913	0.079	0.176
-676.178	-33.265	-0.502	0.281
-675.164	800.000	0.053	-0.228
-674.149	-36.957	-0.446	0.241
-673.135	-200.000	0.024	-0.232
-672.120	44.283	-0.161	0.149
-671.105	800.000	-0.076	0.230
-670.091	-118.709	-0.226	-0.040
-669.076	800.000	0.068	0.242
-668.062	-50.379	0.100	-0.048
-667.047	-200.000	0.024	-0.192
-666.032	524.136	-0.079	-0.188
-665.018	-200.000	-0.033	0.364
-664.003	-200.000	-0.048	0.293
-662.989	344.350	0.212	0.420
-661.974	-122.703	0.269	0.044
-660.959	499.528	-0.039	0.091
-659.945	-93.471	0.212	0.059
-658.930	-200.000	0.008	0.244
-657.916	-131.669	0.244	-0.032
-656.901	-158.328	0.481	0.028
-655.886	-83.833	0.188	-0.060
-654.872	-200.000	-0.080	-0.406
-653.857	11.262	-0.078	0.061
-652.843	-122.879	-0.379	-0.062
-651.828	-200.000	0.017	0.088
-650.814	-15.656	0.214	0.138
-649.799	-150.802	-0.085	-0.006
-648.784	-26.148	-0.223	-0.132
-647.770	-25.351	-0.204	-0.122
-646.755	-135.396	-0.249	-0.030
-645.741	428.931	-0.120	-0.261
-644.726	-100.677	-0.329	-0.082
-643.711	-43.491	0.125	-0.063
-642.697	195.669	0.179	-0.275
-641.682	-4.953	0.181	-0.126
-640.668	222.294	-0.047	-0.076
-639.653	53.089	0.008	-0.007
-638.638	800.000	-0.167	0.503
-637.624	-200.000	0.018	-0.088
-636.609	138.416	-0.348	-0.461
-635.595	-200.000	0.003	-0.095
-634.580	75.416	-0.075	-0.080
-633.565	-200.000	-0.017	-0.109
-632.551	-45.084	-0.281	-0.141
-631.536	37.989	-0.132	0.119
-630.522	429.434	-0.115	0.251
-629.507	66.311	-0.176	0.181
-628.492	-115.191	0.401	0.077
-627.478	-200.000	0.010	-0.122
-626.463	-95.136	0.352	-0.096
-625.449	-141.579	-0.346	0.035
-624.434	-197.479	-0.131	0.001
-623.419	-97.817	0.308	-0.080
-622.405	223.425	0.156	-0.253
-621.390	-84.568	0.039	0.013
-620.376	-175.160	0.040	-0.001
-619.361	-43.261	0.176	-0.090
-618.346	329.360	-0.152	-0.294
-617.332	-180.145	-0.500	-0.011
-616.317	-24.162	0.069	0.042
-615.303	-118.447	-0.383	-0.068
-614.288	128.320	-0.130	0.167
-613.273	-200.000	0.016	-0.109
-612.259	27.583	-0.295	0.250
-611.244	250.124	0.130	-0.223
-610.230	306.926	-0.205	0.385
-609.215	-116.668	0.021	0.004
-608.201	-200.000	-0.027	0.224
-607.186	-56.251	-0.167	0.075
-606.171	328.287	-0.138	-0.268
-605.157	540.187	0.102	0.245
-604.142	271.384	0.174	-0.309
-603.128	-14.376	0.196	0.127
-602.113	800.000	0.039	-0.165
-601.098	286.585	0.102	-0.185
-600.084	28.530	0.125	0.106
-599.069	800.000	-0.057	-0.246
-598.055	-200.000	-0.010	-0.212
-597.040	26.639	-0.100	0.085
-596.025	-31.497	0.248	0.140
-595.011	-200.000	0.037	-0.214
-593.996	-200.000	-0.000	-0.166
-592.982	-171.137	-0.029	-0.001
-591.967	279.983	0.135	-0.244
-590.952	-8.175	0.062	0.042
-589.938	341.016	-0.116	0.228
-588.923	144.909	-0.045	-0.060
-587.909	-64.208	-0.031	-0.013
-586.894	-2.922	-0.410	0.288
-585.879	-13.558	0.431	-0.281
-584.865	-200.000	0.064	-0.293
-583.850	-200.000	-0.025	-0.246
-582.836	-27.701	-0.111	-0.065
-581.821	-19.954	0.310	0.193
-580.806	-28.892	-0.097	0.056
-579.792	-5.814	0.166	0.115
-578.777	-137.681	0.108	-0.012
-577.763	310.254	0.220	-0.414
-576.748	279.714	0.065	0.116
-575.733	646.220	-0.188	-0.484
-574.719	130.892	0.057	0.073
-573.704	-75.119	-0.115	0.041
-572.690	31.328	-0.233	-0.202
-571.675	28.734	0.311	-0.265
-570.661	-109.183	0.316	0.068
-569.646	-135.097	-0.029	-0.003
-568.631	-161.101	-0.263	0.014
-567.617	208.472	-0.311	0.490
-566.602	-31.299	-0.150	0.085
-565.588	-200.000	0.016	-0.157
-564.573	-127.596	0.251	-0.037
-563.558	-200.000	-0.065	-0.312
-562.544	-200.000	0.053	-0.239
-561.529	800.000	-0.082	-0.240
-560.515	-81.842	-0.238	0.078
-559.500	296.261	0.085	-0.156
-558.485	238.656	0.060	0.101
-557.471	151.246	-0.113	-0.154
-556.456	-1.643	-0.192	-0.136
-555.442	9.631	-0.229	-0.174
-554.427	-17.038	0.153	-0.097
-553.412	-200.000	-0.006	-0.311
-552.398	-25.432	0.120	0.071
-551.383	-200.000	0.043	0.195
-550.369	99.892	-0.061	0.071
-549.354	-120.770	0.262	-0.044
-548.339	-200.000	-0.024	0.189
-547.325	144.709	-0.117	0.157
-546.310	800.000	0.037	-0.131
-545.296	491.558	-0.120	-0.277
-544.281	364.355	-0.064	-0.129
-543.266	-83.604	0.113	-0.036
-542.252	800.000	-0.077	-0.321
-541.237	497.132	0.026	-0.060
-540.223	-200.000	0.026	0.168
-539.208	162.731	-0.117	0.165
-538.193	335.416	0.086	-0.167
-537.179	-166.289	0.394	0.017
-536.164	800.000	0.052	-0.223
-535.150	-200.000	-0.008	0.235
-534.135	-54.980	-0.161	0.073
-533.121	-107.152	0.154	-0.034
-532.106	42.786	0.216	-0.198
-531.091	284.025	-0.125	-0.226
-530.077	100.456	-0.041	0.048
-529.062	-200.000	-0.016	-0.129
-528.048	-158.202	0.155	0.009
-527.033	380.973	-0.092	-0.190
-526.018	-124.546	-0.165	-0.026
-525.004	115.001	0.092	-0.113
-523.989	-72.215	-0.256	0.095
-522.975	563.377	0.015	-0.035
-521.960	-200.000	0.003	-0.080
-520.945	-81.052	0.031	-0.010
-519.931	800.000	0.028	0.091
-518.916	354.100	-0.188	0.375
-517.902	-55.690	-0.178	0.080
-516.887	224.428	0.088	-0.142
-515.872	77.208	-0.114	0.122
-514.858	162.555	-0.087	-0.123
-513.843	-51.503	0.280	0.131
-512.829	-200.000	0.048	0.327
-511.814	557.224	0.124	0.301
-510.799	424.650	0.130	0.282
-509.785	800.000	0.041	0.128
-508.770	144.581	0.179	0.240
-507.756	174.291	0.162	-0.235
-506.741	-43.628	-0.295	0.149
-505.726	-105.142	-0.117	0.027
-504.712	-200.000	-0.008	0.131
-503.697	-160.300	0.232	-0.013
-502.683	-33.152	0.198	0.110
-501.668	-200.000	-0.001	-0.026
-500.653	-130.358	0.459	0.062
-499.639	800.000	0.087	-0.242
-498.624	-136.357	-0.379	0.044
-497.610	-200.000	-0.005	0.065
-496.595	-200.000	0.004	0.240
-495.581	-200.000	-0.003	-0.062
-494.566	512.838	0.151	-0.354
-493.551	-146.600	0.122	-0.011
-492.537	-200.000	-0.027	-0.137
-491.522	-67.950	-0.289	0.113
-490.508	-9.146	-0.309	-0.208
-489.493	-133.492	0.194	0.024
-488.478	-45.461	0.102	-0.051
-487.464	-120.187	-0.132	-0.023
-486.449	-97.122	-0.251	0.066
-485.435	-74.258	0.213	-0.077
-484.420	-133.347	0.089	0.011
-483.405	-158.849	0.443	-0.025
-482.391	-5.635	0.108	-0.075
-481.376	-200.000	-0.021	0.167
-480.362	-99.237	-0.162	0.041
-479.347	-128.692	-0.336	0.048
-478.332	-147.796	0.378	-0.032
-477.318	675.886	-0.136	-0.353
-476.303	41.930	-0.086	0.078
-475.289	-188.411	-0.444	-0.006
-474.274	-200.000	-0.004	-0.265
-473.259	-200.000	0.037	0.164
-472.245	-20.620	0.299	0.184
-471.230	75.464	0.293	0.310
-470.216	291.832	0.123	-0.224
-469.201	-133.349	-0.273	0.034
-468.186	-89.494	-0.204	-0.060
-467.172	800.000	-0.045	-0.144
-466.157	164.679	0.162	-0.229
-465.143	-39.532	0.131	-0.069
-464.128	80.807	0.084	0.091
-463.113	-137.766	0.401	-0.045
-462.099	-150.844	-0.241	0.018
-461.084	-200.000	-0.038	-0.258
-460.070	33.939	-0.266	0.232
-459.055	-138.426	0.193	0.021
-458.040	-200.000	-0.011	-0.097
-457.026	33.451	0.195	0.170
-456.011	-110.889	0.278	-0.057
-454.997	4.922	0.183	0.134
-453.982	-10.417	0.097	-0.065
-452.968	-98.070	0.318	0.082
-451.953	-55.010	-0.083	-0.038
-450.938	-81.527	0.128	-0.042
-449.924	-95.540	-0.260	0.070
-448.909	124.572	0.161	-0.202
-447.895	-66.656	-0.249	-0.099
-446.880	267.611	-0.150	-0.263
-445.865	800.000	-0.057	-0.179
-444.851	-91.946	0.313	-0.089
-443.836	202.027	0.122	-0.188
-442.822	-47.338	-0.234	-0.114
-441.807	-28.939	-0.337	0.194
-440.792	165.285	-0.043	0.061
-439.778	800.000	-0.072	0.292
-438.763	22.387	-0.190	-0.155
-437.749	800.000	0.104	-0.362
-436.734	-200.000	-0.011	-0.197
-435.719	-186.835	0.069	-0.001
-434.705	-200.000	-0.029	-0.448
-433.690	-151.890	0.483	0.035
-432.676	-141.897	0.336	-0.034
-431.661	118.119	-0.081	0.100
-430.646	800.000	0.070	0.267
-429.632	-105.887	0.218	-0.049
-428.617	-200.000	-0.044	0.331
-427.603	-200.000	-0.031	0.254
-426.588	113.438	0.087	-0.105
-425.573	783.670	-0.028	-0.076
-424.559	-104.051	-0.238	0.055
-423.544	-200.000	0.017	0.228
-422.530	40.639	-0.206	-0.186
-421.515	800.000	0.083	-0.272
-420.500	12.612	0.192	-0.148
-419.486	800.000	0.104	0.291
-418.471	290.139	0.110	0.199
-417.457	-152.480	0.214	0.015
-416.442	800.000	-0.073	-0.217
-415.428	-4.801	-0.108	-0.074
-414.413	127.570	-0.206	-0.261
-413.398	609.450	0.105	-0.263
-412.384	162.102	0.069	0.097
-411.369	800.000	-0.058	0.227
-410.355	260.066	-0.092	0.160
-409.340	-153.335	0.082	0.006
-408.325	-102.527	0.300	0.072
-407.311	-159.077	-0.350	0.020
-406.296	800.000	-0.056	-0.196
-405.282	116.388	0.077	0.094
-404.267	633.075	-0.063	0.159
-403.252	-142.438	0.230	0.023
-402.238	300.303	-0.079	0.146
-401.223	142.396	-0.119	-0.158
-400.209	-200.000	-0.033	-0.277
-399.194	-24.623	-0.241	-0.143
-398.179	800.000	-0.061	-0.222
-397.165	144.258	0.053	0.071
-396.150	-103.295	0.302	0.071
-395.136	-200.000	-0.016	-0.246
-394.121	-200.000	-0.001	0.229
-393.106	-87.485	-0.149	0.045
-392.092	800.000	0.009	0.029
-391.077	50.438	0.012	-0.012
-390.063	16.015	0.130	0.102
-389.048	-200.000	-0.013	0.080
-388.033	152.390	-0.153	0.209
-387.019	748.264	0.067	-0.180
-386.004	-200.000	-0.013	0.065
-384.990	800.000	-0.057	0.222
-383.975	-18.685	-0.075	-0.047
-382.960	-200.000	0.076	0.434
-381.946	46.577	-0.140	-0.130
-380.931	-36.215	-0.231	0.125
-379.917	-200.000	-0.033	0.307
-378.902	-122.372	0.090	0.015
-377.888	88.570	-0.196	0.217
-376.873	325.358	-0.058	0.110
-375.858	200.127	-0.148	0.226
-374.844	9.846	0.098	0.074
-373.829	-200.000	0.004	0.223
-372.815	-200.000	0.042	0.340
-371.800	800.000	0.041	0.135
-370.785	-200.000	-0.051	0.354
-369.771	800.000	0.143	-0.419
-368.756	-131.768	0.106	0.014
-367.742	-120.670	-0.179	0.030
-366.727	-35.412	-0.268	0.145
-365.712	-28.072	0.079	-0.045
-364.698	101.615	0.209	0.244
-363.683	792.325	-0.121	-0.332
-362.669	-117.922	-0.359	0.064
-361.654	87.533	0.220	0.243
-360.639	300.335	-0.265	0.488
-359.625	-78.473	-0.145	0.049
-358.610	-144.884	-0.163	0.015
-357.596	59.538	-0.218	-0.214
-356.581	-135.176	0.184	0.022
-355.566	-200.000	-0.062	-0.307
-354.552	780.723	0.098	-0.266
-353.537	800.000	-0.037	0.117
-352.523	-185.234	0.043	0.001
-351.508	214.233	0.123	-0.195
-350.493	749.107	-0.053	0.142
-349.479	-8.123	0.257	0.173
-348.464	800.000	0.062	-0.208
-347.450	20.721	-0.194	0.156
-346.435	-200.000	-0.049	-0.298
-345.420	337.702	0.045	0.087
-344.406	51.796	-0.178	-0.169
-343.391	24.277	-0.117	-0.096
-342.377	-200.000	0.033	0.259
-341.362	-110.242	0.380	-0.079
-340.348	800.000	0.102	0.299
-339.333	-114.540	-0.308	0.059
-338.318	-200.000	0.065	0.469
-337.304	243.976	-0.106	-0.177
-336.289	-92.717	0.070	0.020
-335.275	-90.007	-0.367	-0.107
-334.260	62.943	0.104	-0.104
-333.245	87.515	0.194	0.214
-332.231	-200.000	-0.066	0.316
-331.216	470.891	0.164	0.367
-330.202	129.799	-0.139	-0.177
-329.187	350.998	0.060	0.118
-328.172	-175.130	0.341	0.009
-327.158	-108.387	0.125	-0.027
-326.143	-60.463	0.310	0.131
-325.129	-105.670	0.304	-0.069
-324.114	-200.000	0.003	0.214
-323.099	800.000	0.135	0.434
-322.085	-200.000	-0.038	-0.207
-321.070	-127.816	0.206	0.030
-320.056	-133.010	-0.246	0.031
-319.041	44.811	-0.226	-0.207
-318.026	777.548	-0.082	0.224
-317.012	628.829	-0.060	-0.150
-315.997	-16.938	0.219	-0.138
-314.983	-200.000	-0.030	0.282
-313.968	101.152	-0.138	0.160
-312.953	-118.846	0.061	0.011
-311.939	12.039	0.284	-0.217
-310.924	203.478	-0.171	-0.263
-309.910	19.945	0.047	0.038
-308.895	150.520	0.219	0.296
-307.880	-59.012	-0.236	0.101
-306.866	-200.000	-0.065	-0.353
-305.851	800.000	-0.041	-0.172
-304.837	-200.000	-0.019	0.274
-303.822	426.222	-0.177	0.380
-302.807	74.054	0.166	0.173
-301.793	122.593	0.040	-0.049
-300.778	53.435	-0.268	0.256
-299.764	24.533	-0.137	0.113
-298.749	243.938	-0.092	0.153
-297.735	27.038	-0.242	-0.202
-296.720	-100.203	0.159	-0.039
-295.705	38.946	-0.249	-0.221
-294.691	190.495	0.038	0.057
-293.676	-200.000	-0.065	0.302
-292.662	294.775	-0.198	0.360
-291.647	115.931	0.081	0.099
-290.632	133.887	0.278	0.359
-289.618	-29.053	-0.172	0.098
-288.603	392.800	-0.050	-0.104
-287.589	35.238	-0.212	0.185
-286.574	631.949	0.101	-0.253
-285.559	19.930	0.102	0.081
-284.545	-55.065	-0.342	0.153
-283.530	-2.673	0.171	0.119
-282.516	238.629	0.190	0.313
-281.501	-75.164	-0.111	0.039
-280.486	318.139	-0.126	-0.238
-279.472	800.000	0.078	0.272
-278.457	-115.616	-0.235	0.044
-277.443	286.172	0.115	0.207
-276.428	-200.000	0.000	0.124
-275.413	47.548	0.034	0.031
-274.399	-4.929	-0.148	0.101
-273.384	-113.516	-0.146	-0.028
-272.370	30.496	0.205	0.174
-271.355	37.375	-0.139	-0.123
-270.340	-62.231	-0.309	0.128
-269.326	-92.034	0.236	0.066
-268.311	800.000	-0.134	-0.447
-267.297	800.000	-0.072	-0.227
-266.282	161.654	0.046	-0.064
-265.267	303.582	-0.115	-0.212
-264.253	-200.000	-0.015	-0.171
-263.238	111.466	0.088	0.105
-262.224	-159.825	0.243	0.013
-261.209	-46.421	0.169	-0.082
-260.195	117.609	0.276	0.338
-259.180	64.063	-0.191	-0.190
-258.165	235.396	0.104	0.171
-257.151	-41.666	-0.093	0.048
-256.136	-33.327	-0.310	-0.171
-255.122	-200.000	-0.022	0.168
-254.107	38.118	0.327	0.289
-253.092	-200.000	-0.001	-0.197
-252.078	177.423	-0.111	0.161
-251.063	541.054	-0.024	0.057
-250.049	-200.000	0.009	0.122
-249.034	89.409	0.372	0.412
-248.019	-55.461	-0.183	0.082
-247.005	166.518	-0.042	-0.059
-245.990	-115.598	0.397	-0.074
-244.976	-46.304	-0.323	0.158
-243.961	-137.826	0.155	0.017
-242.946	2.536	-0.124	-0.090
-241.932	-200.000	-0.027	-0.172
-240.917	270.473	-0.048	-0.084
-239.903	118.341	0.131	0.161
-238.888	532.241	-0.067	-0.157
-237.873	-25.795	0.284	-0.166
-236.859	47.170	-0.089	0.082
-235.844	-200.000	-0.044	0.259
-234.830	800.000	0.093	-0.385
-233.815	-109.019	0.068	-0.014
-232.800	800.000	0.066	-0.215
-231.786	369.537	-0.112	-0.226
-230.771	-129.312	0.136	0.019
-229.757	102.058	0.067	-0.078
-228.742	7.201	-0.112	0.083
-227.727	74.903	0.116	-0.121
-226.713	-200.000	-0.015	-0.489
-225.698	37.317	-0.114	-0.101
-224.684	295.488	-0.091	-0.166
-223.669	800.000	-0.040	-0.142
-222.655	-48.148	-0.371	-0.178
-221.640	-200.000	-0.016	-0.229
-220.625	458.516	-0.136	0.301
-219.611	-141.129	-0.012	0.001
-218.596	-184.664	-0.321	-0.005
-217.582	247.611	0.010	-0.016
-216.567	-200.000	0.007	0.096
-215.552	682.605	-0.037	0.097
-214.538	-78.137	0.270	-0.092
-213.523	800.000	0.065	-0.252
-212.509	-79.415	0.388	0.130
-211.494	-36.203	-0.211	-0.113
-210.479	501.383	0.157	0.360
-209.465	-8.662	0.034	0.023
-208.450	-200.000	-0.014	0.348
-207.436	3.248	-0.252	-0.182
-206.421	620.261	0.133	-0.332
-205.406	246.642	-0.131	0.220
-204.392	741.117	-0.086	0.228
-203.377	-200.000	-0.003	-0.209
-202.363	-200.000	0.180	0.000
-201.348	-148.654	0.249	-0.020
-200.333	-200.000	-0.013	-0.161
-199.319	-52.390	0.236	0.108
-198.304	-103.665	-0.309	0.072
-197.290	-125.845	0.227	-0.034
-196.275	-108.240	0.308	0.066
-195.260	43.536	0.220	-0.200
-194.246	-200.000	-0.008	0.147
-193.231	-200.000	0.033	0.189
-192.217	-155.313	0.234	0.015
-191.202	17.827	-0.053	-0.042
-190.187	110.121	0.155	-0.185
-189.173	-87.717	-0.161	-0.048
-188.158	-90.843	-0.148	-0.042
-187.144	181.121	-0.228	-0.332
-186.129	-61.812	-0.145	0.060
-185.114	800.000	-0.085	0.294
-184.100	-196.228	0.357	0.002
-183.085	-97.184	0.275	0.071
-182.071	-200.000	0.015	0.296
-181.056	-15.355	-0.117	0.074
-180.042	-200.000	-0.009	-0.350
-179.027	470.841	0.153	0.342
-178.012	-40.060	0.058	-0.030
-176.998	-200.000	-0.010	-0.316
-175.983	-200.000	0.004	-0.193
-174.969	30.639	-0.081	0.069
-173.954	55.323	0.289	-0.277
-172.939	-29.321	-0.223	0.126
-171.925	334.171	0.233	0.447
-170.910	129.778	0.125	0.159
-169.896	9.178	0.030	-0.023
-168.881	-86.825	0.076	-0.023
-167.866	-200.000	0.011	0.061
-166.852	4.829	-0.142	0.103
-165.837	800.000	-0.082	0.262
-164.823	148.640	0.091	-0.122
-163.808	77.772	-0.139	-0.147
-162.793	47.572	-0.081	-0.075
-161.779	45.884	0.128	-0.117
-160.764	-151.280	-0.095	0.007
-159.750	800.000	-0.098	0.295
-158.735	-200.000	0.015	0.211
-157.720	-200.000	-0.002	-0.117
-156.706	-18.093	-0.211	0.131
-155.691	96.384	0.025	-0.028
-154.677	-133.971	0.107	0.013
-153.662	800.000	-0.150	-0.523
-152.647	-54.061	-0.240	0.108
-151.633	-133.615	0.475	-0.059
-150.618	441.491	-0.060	-0.131
-149.604	-84.012	0.191	0.060
-148.589	-96.088	-0.100	-0.026
-147.574	-63.551	-0.365	-0.148
-146.560	416.436	0.037	0.078
-145.545	17.273	-0.266	0.209
-144.531	705.937	-0.080	0.210
-143.516	-32.210	-0.117	0.065
-142.502	-2.201	0.286	0.199
-141.487	-64.039	-0.192	0.078
-140.472	-81.799	0.162	0.053
-139.458	-18.904	-0.093	0.057
-138.443	800.000	-0.060	0.177
-137.429	800.000	-0.054	0.190
-136.414	599.580	-0.015	0.037
-135.399	800.000	-0.057	0.234
-134.385	-136.834	-0.187	0.021
-133.370	800.000	-0.127	-0.366
-132.356	-109.756	0.381	0.079
-131.341	521.613	0.052	-0.120
-130.326	-200.000	-0.018	0.238
-129.312	-200.000	-0.100	0.553
-128.297	-200.000	-0.020	-0.125
-127.283	-140.760	0.309	0.032
-126.268	-169.004	-0.091	-0.003
-125.253	-200.000	-0.002	0.443
-124.239	-90.534	0.190	-0.054
-123.224	-119.358	-0.089	-0.015
