DTS Sentinel unit serial number:	SN413079Multiplexer serial number:	ORYXHardware model number:	OX4-SRSoftware version number:	ORYX F/W v4.00 Oryx Data Collector v3.7.2.0data status	okinstallation	princeton_trtdifferential loss correction	single-endedforward channel	channel 2reverse channel	N/Adate	2019/09/17time	06:11:34forward acquisition time	60.00reverse acquisition time	0.00gamma	496.2192k internal	0.2330k external	0.2330temperature offset calibration	0.9975default loss term (dB/km)	0.3790temperature slope calibration	1.0000multiplexer offset coefficient	1.0000multiplexer slope coefficient	1.0000fibre end	0.00T internal ref (°C)	28.56T ext. ref 1 (°C)	0.13T ext. ref 2 (°C)	21.93length (m)	temperature (°C)	Stokes	anti-Stokes-747.200	200.241	0.019	0.030
-746.185	107.411	-0.360	0.431
-745.171	-200.000	0.019	0.132
-744.156	32.612	-0.230	0.200
-743.142	176.676	0.190	0.278
-742.127	635.230	0.044	-0.111
-741.112	-1.237	-0.039	0.028
-740.098	-175.552	0.238	0.006
-739.083	303.938	0.075	0.140
-738.069	-116.589	0.164	0.030
-737.054	49.772	-0.233	0.221
-736.039	182.168	-0.083	0.124
-735.025	79.211	-0.158	0.170
-734.010	19.535	-0.138	0.112
-732.996	-200.000	0.004	-0.020
-731.981	-31.156	-0.343	-0.195
-730.966	-160.975	-0.244	-0.013
-729.952	-184.447	-0.092	-0.002
-728.937	-34.638	-0.571	-0.314
-727.923	-63.836	0.055	0.023
-726.908	-187.934	-0.192	-0.003
-725.894	261.132	-0.168	-0.293
-724.879	-200.000	0.056	0.271
-723.864	800.000	-0.109	0.390
-722.850	145.132	0.067	0.090
-721.835	197.764	0.041	0.064
-720.821	84.278	-0.183	-0.202
-719.806	629.237	-0.034	-0.086
-718.791	-200.000	0.002	0.130
-717.777	-200.000	-0.031	-0.172
-716.762	-200.000	0.003	-0.225
-715.748	-200.000	-0.005	-0.041
-714.733	237.367	-0.169	-0.282
-713.718	800.000	-0.044	0.167
-712.704	-113.333	0.081	0.016
-711.689	-200.000	-0.019	-0.159
-710.675	-120.038	-0.302	0.052
-709.660	-158.328	0.058	0.003
-708.645	-73.439	0.072	0.026
-707.631	-200.000	0.004	0.138
-706.616	173.053	-0.125	0.182
-705.602	693.813	0.050	0.131
-704.587	-200.000	-0.000	-0.085
-703.572	-14.280	-0.173	0.112
-702.558	-200.000	-0.030	-0.236
-701.543	37.854	0.307	-0.274
-700.529	-38.619	0.230	-0.122
-699.514	-105.575	0.172	-0.039
-698.499	-200.000	-0.037	0.256
-697.485	512.883	0.012	-0.027
-696.470	-200.000	0.042	-0.313
-695.456	755.313	-0.043	0.116
-694.441	-130.705	0.227	0.031
-693.426	38.268	0.191	-0.171
-692.412	54.701	0.212	0.206
-691.397	462.932	-0.164	0.368
-690.383	111.084	0.114	0.138
-689.368	88.052	0.292	-0.325
-688.354	109.199	0.113	-0.136
-687.339	-11.603	0.165	0.109
-686.324	800.000	0.044	-0.141
-685.310	690.436	-0.068	-0.180
-684.295	-182.121	0.046	-0.001
-683.281	-59.430	-0.209	0.090
-682.266	-200.000	0.026	-0.181
-681.251	32.096	-0.226	0.196
-680.237	28.383	-0.143	0.121
-679.222	-200.000	0.032	0.264
-678.208	-144.535	-0.120	0.011
-677.193	582.220	0.108	0.266
-676.178	-19.433	0.372	-0.232
-675.164	-200.000	-0.006	0.029
-674.149	-107.423	-0.708	0.156
-673.135	800.000	0.090	0.390
-672.120	-62.502	-0.275	0.115
-671.105	-108.819	0.167	0.036
-670.091	-22.277	-0.449	-0.273
-669.076	14.950	-0.104	-0.081
-668.062	22.116	-0.138	0.113
-667.047	-200.000	0.022	-0.125
-666.032	-124.570	0.190	-0.030
-665.018	-38.605	-0.217	-0.115
-664.003	113.824	0.305	-0.372
-662.989	72.101	-0.160	-0.167
-661.974	564.598	0.144	0.350
-660.959	-200.000	-0.031	0.136
-659.945	288.895	0.185	-0.337
-658.930	91.017	-0.180	-0.202
-657.916	-200.000	0.015	-0.357
-656.901	-200.000	0.005	-0.124
-655.886	214.833	0.061	-0.097
-654.872	800.000	0.090	-0.253
-653.857	-200.000	-0.079	0.394
-652.843	800.000	-0.092	0.297
-651.828	-108.612	-0.279	0.060
-650.814	-29.372	-0.213	-0.122
-649.799	670.952	-0.101	0.262
-648.784	40.551	-0.126	0.114
-647.770	-87.875	0.331	-0.100
-646.755	-129.123	0.156	-0.022
-645.741	-164.270	-0.197	0.009
-644.726	55.408	0.077	0.074
-643.711	-14.516	0.117	-0.075
-642.697	393.309	-0.048	-0.101
-641.682	-87.808	0.058	-0.017
-640.668	-200.000	0.039	-0.177
-639.653	139.279	0.078	-0.103
-638.638	40.779	0.313	0.283
-637.624	23.553	-0.044	0.036
-636.609	-89.272	-0.210	-0.062
-635.595	-200.000	0.010	0.158
-634.580	-200.000	0.020	-0.300
-633.565	-126.133	-0.311	-0.047
-632.551	800.000	0.066	-0.216
-631.536	430.311	0.041	-0.088
-630.522	-176.627	-0.120	0.003
-629.507	35.585	0.134	-0.118
-628.492	-116.828	0.131	0.024
-627.478	800.000	0.153	-0.640
-626.463	-82.462	0.265	-0.086
-625.449	110.545	-0.127	0.153
-624.434	-105.065	-0.120	-0.028
-623.419	-81.666	0.242	-0.079
-622.405	-200.000	0.012	-0.201
-621.390	-200.000	-0.009	0.117
-620.376	221.921	-0.056	-0.091
-619.361	-72.121	-0.049	0.018
-618.346	37.785	0.189	0.168
-617.332	-163.188	-0.175	-0.008
-616.317	-200.000	0.089	0.417
-615.303	-200.000	0.023	0.257
-614.288	800.000	0.054	0.155
-613.273	463.334	0.087	0.194
-612.259	-200.000	-0.025	-0.125
-611.244	-180.980	-0.227	-0.005
-610.230	800.000	0.098	-0.372
-609.215	314.472	-0.180	-0.340
-608.201	62.231	0.188	-0.188
-607.186	77.811	-0.217	-0.232
-606.171	210.755	0.184	-0.289
-605.157	-200.000	0.046	0.210
-604.142	-200.000	0.037	-0.459
-603.128	462.769	-0.070	-0.156
-602.113	800.000	0.073	0.309
-601.098	-107.228	0.174	0.038
-600.084	57.080	-0.142	-0.138
-599.069	-45.599	-0.328	-0.163
-598.055	-200.000	0.018	0.347
-597.040	-123.764	0.431	-0.068
-596.025	133.241	0.079	0.102
-595.011	-122.843	-0.246	0.040
-593.996	-151.387	0.243	-0.018
-592.982	-200.000	0.009	-0.184
-591.967	162.527	-0.072	0.101
-590.952	800.000	0.074	0.277
-589.938	-24.107	-0.336	-0.201
-588.923	-200.000	-0.040	-0.396
-587.909	378.892	-0.160	-0.328
-586.894	118.833	0.084	-0.104
-585.879	-76.408	-0.068	-0.024
-584.865	-28.825	-0.110	-0.063
-583.850	-200.000	-0.039	0.236
-582.836	-99.223	-0.407	0.103
-581.821	75.329	0.040	-0.043
-580.806	-200.000	0.026	0.169
-579.792	-102.340	-0.119	-0.029
-578.777	-183.240	-0.303	-0.005
-577.763	147.661	-0.139	0.187
-576.748	226.041	-0.106	-0.171
-575.733	77.093	0.134	0.143
-574.719	800.000	-0.029	0.123
-573.704	-30.409	-0.100	0.057
-572.690	-173.603	0.148	-0.004
-571.675	127.798	0.143	0.181
-570.661	-63.599	0.276	-0.113
-569.646	-112.645	-0.309	-0.062
-568.631	800.000	-0.076	0.226
-567.617	-200.000	0.004	-0.116
-566.602	7.638	0.333	0.249
-565.588	445.344	0.277	-0.609
-564.573	-200.000	0.021	-0.324
-563.558	-200.000	-0.005	0.086
-562.544	-93.066	0.206	-0.057
-561.529	2.652	0.033	-0.024
-560.515	-25.872	-0.292	0.172
-559.500	-186.394	0.132	0.002
-558.485	800.000	-0.068	0.238
-557.471	-168.055	0.178	0.007
-556.456	-111.264	-0.089	0.018
-555.442	59.096	-0.051	-0.051
-554.427	-200.000	-0.047	0.437
-553.412	341.561	0.102	0.200
-552.398	146.501	0.152	0.205
-551.383	17.819	0.082	-0.065
-550.369	-149.304	0.239	0.019
-549.354	73.607	0.009	0.009
-548.339	80.494	-0.219	0.236
-547.325	-125.565	-0.167	0.025
-546.310	-200.000	-0.007	-0.067
-545.296	309.553	-0.106	-0.199
-544.281	51.989	-0.460	-0.438
-543.266	242.315	-0.082	-0.137
-542.252	294.151	-0.038	0.070
-541.237	406.015	-0.154	0.325
-540.223	192.156	-0.059	0.089
-539.208	51.203	-0.104	-0.099
-538.193	234.929	-0.116	0.191
-537.179	-49.733	-0.154	0.073
-536.164	80.645	-0.187	-0.201
-535.150	-200.000	0.023	-0.111
-534.135	-200.000	-0.012	-0.075
-533.121	-200.000	-0.011	0.077
-532.106	-189.205	-0.302	0.004
-531.091	-92.824	0.328	0.092
-530.077	23.175	0.347	0.285
-529.062	119.674	-0.074	0.092
-528.048	0.333	-0.275	0.196
-527.033	-200.000	0.046	-0.335
-526.018	46.481	0.243	0.225
-525.004	711.238	0.120	0.318
-523.989	119.061	0.347	0.428
-522.975	642.393	-0.022	0.056
-521.960	-200.000	-0.011	-0.547
-520.945	800.000	-0.074	-0.305
-519.931	-200.000	-0.030	-0.216
-518.916	800.000	0.152	0.485
-517.902	-11.855	0.063	0.041
-516.887	-32.159	0.172	-0.096
-515.872	-138.794	-0.306	-0.033
-514.858	264.290	0.108	0.188
-513.843	-43.561	-0.024	-0.012
-512.829	800.000	0.091	0.295
-511.814	-139.733	0.224	-0.024
-510.799	-200.000	0.021	0.115
-509.785	161.554	0.220	-0.307
-508.770	-140.526	-0.012	-0.001
-507.756	-3.837	-0.316	-0.219
-506.741	-143.084	-0.073	-0.007
-505.726	-9.796	0.247	-0.164
-504.712	-200.000	0.015	0.194
-503.697	800.000	0.031	0.087
-502.683	-76.122	0.099	-0.035
-501.668	-200.000	0.040	0.313
-500.653	-108.070	0.286	-0.062
-499.639	-66.185	-0.288	0.114
-498.624	-160.583	0.306	0.016
-497.610	-200.000	0.046	-0.404
-496.595	-200.000	0.008	-0.159
-495.581	-73.890	0.310	-0.112
-494.566	202.773	0.195	0.301
-493.551	800.000	0.055	0.222
-492.537	-84.904	0.152	-0.047
-491.522	-132.188	-0.344	0.045
-490.508	-61.317	-0.229	0.096
-489.493	324.490	0.094	-0.179
-488.478	-113.620	-0.263	-0.051
-487.464	-46.814	0.135	-0.066
-486.449	67.193	-0.081	0.082
-485.435	-200.000	0.026	-0.254
-484.420	-153.299	-0.229	-0.016
-483.405	-200.000	0.031	-0.277
-482.391	800.000	0.129	0.428
-481.376	800.000	-0.057	-0.164
-480.362	146.405	0.152	0.203
-479.347	-142.513	-0.127	-0.012
-478.332	305.405	0.078	0.145
-477.318	-200.000	-0.016	0.306
-476.303	-200.000	0.359	0.001
-475.289	-155.624	-0.128	0.008
-474.274	122.403	0.346	-0.430
-473.259	-200.000	-0.010	-0.185
-472.245	-82.021	0.110	0.036
-471.230	-75.403	0.186	-0.066
-470.216	487.832	-0.037	0.085
-469.201	800.000	0.146	-0.425
-468.186	39.665	-0.308	-0.275
-467.172	-200.000	-0.002	0.197
-466.157	-19.682	0.284	-0.175
-465.143	112.430	-0.175	-0.210
-464.128	302.603	0.057	0.105
-463.113	-123.348	-0.129	-0.020
-462.099	64.400	-0.060	-0.060
-461.084	565.239	0.134	0.323
-460.070	-86.618	-0.242	-0.074
-459.055	-200.000	0.010	0.059
-458.040	-200.000	-0.058	-0.302
-457.026	180.220	-0.072	0.105
-456.011	353.983	-0.078	0.155
-454.997	-77.075	-0.284	0.099
-453.982	90.232	0.131	-0.146
-452.968	-71.953	0.152	-0.056
-451.953	57.105	0.232	-0.225
-450.938	-72.792	0.197	0.072
-449.924	-17.415	-0.228	-0.143
-448.909	-88.882	0.192	-0.057
-447.895	-2.949	0.093	-0.065
-446.880	-112.173	0.763	-0.152
-445.865	-108.710	-0.344	0.073
-444.851	800.000	-0.067	-0.245
-443.836	-104.011	-0.137	0.032
-442.822	16.200	0.069	0.054
-441.807	-23.127	0.135	0.081
-440.792	800.000	-0.062	-0.177
-439.778	16.290	0.044	-0.035
-438.763	-76.023	0.356	0.125
-437.749	-40.231	-0.140	-0.072
-436.734	-200.000	0.051	0.430
-435.719	221.860	-0.137	0.219
-434.705	181.232	0.110	0.160
-433.690	598.901	-0.111	-0.274
-432.676	-63.795	-0.269	0.110
-431.661	-72.204	0.158	-0.058
-430.646	126.786	0.070	-0.088
-429.632	7.786	0.147	0.109
-428.617	154.321	0.141	0.193
-427.603	-13.745	0.065	0.042
-426.588	-165.416	-0.191	0.008
-425.573	26.229	-0.308	0.256
-424.559	449.418	-0.058	0.126
-423.544	48.200	-0.060	0.055
-422.530	-192.733	-0.308	-0.003
-421.515	-24.861	-0.258	0.152
-420.500	403.992	0.109	0.228
-419.486	-53.891	-0.209	0.095
-418.471	177.779	0.131	0.190
-417.457	-200.000	-0.083	0.524
-416.442	-168.629	0.074	-0.003
-415.428	-151.455	-0.184	0.014
-414.413	800.000	0.084	0.267
-413.398	-200.000	0.049	0.455
-412.384	-129.133	-0.568	-0.079
-411.369	366.190	-0.052	-0.104
-410.355	174.090	-0.080	0.116
-409.340	-1.216	0.175	0.123
-408.325	-48.679	-0.276	0.132
-407.311	293.436	0.083	-0.150
-406.296	-200.000	-0.001	-0.206
-405.282	-111.002	-0.051	-0.010
-404.267	110.595	-0.250	0.298
-403.252	284.837	0.102	-0.183
-402.238	-61.938	-0.216	-0.090
-401.223	-26.420	-0.215	-0.125
-400.209	800.000	0.025	-0.099
-399.194	800.000	0.023	0.073
-398.179	11.880	-0.325	-0.248
-397.165	109.987	-0.031	0.037
-396.150	198.740	0.070	0.106
-395.136	-53.820	-0.144	0.065
-394.121	48.830	0.248	0.231
-393.106	-49.640	0.182	0.086
-392.092	-70.642	0.013	-0.005
-391.077	-45.570	0.137	0.067
-390.063	-200.000	-0.104	-0.482
-389.048	-28.981	-0.039	-0.022
-388.033	-109.306	0.063	0.013
-387.019	-200.000	-0.012	-0.218
-386.004	37.288	-0.086	-0.076
-384.990	57.946	-0.148	0.144
-383.975	-200.000	-0.032	0.226
-382.960	-129.934	-0.080	-0.011
-381.946	-76.088	-0.136	0.048
-380.931	136.744	0.194	0.251
-379.917	97.609	0.130	0.148
-378.902	-200.000	0.016	0.182
-377.888	-145.708	0.095	-0.008
-376.873	483.868	-0.130	0.294
-375.858	-47.824	0.047	0.022
-374.844	-125.147	-0.149	-0.023
-373.829	800.000	0.090	-0.263
-372.815	113.273	-0.095	-0.114
-371.800	142.111	-0.179	0.236
-370.785	-196.816	-0.231	-0.002
-369.771	-159.160	-0.252	-0.014
-368.756	440.719	0.124	0.269
-367.742	-194.582	0.096	0.001
-366.727	431.900	-0.050	0.108
-365.712	800.000	0.054	-0.171
-364.698	-121.035	-0.413	-0.069
-363.683	-200.000	0.005	-0.188
-362.669	-82.313	0.357	0.115
-361.654	150.279	0.035	0.047
-360.639	-200.000	-0.044	0.261
-359.625	-68.838	-0.042	-0.016
-358.610	-109.705	0.191	-0.040
-357.596	-147.933	0.219	0.018
-356.581	800.000	-0.037	-0.128
-355.566	-200.000	-0.042	-0.212
-354.552	-200.000	-0.013	-0.168
-353.537	331.668	-0.126	0.241
-352.523	-77.067	-0.208	-0.072
-351.508	244.784	-0.044	0.074
-350.493	-69.313	0.191	0.073
-349.479	176.668	0.113	0.164
-348.464	14.497	-0.110	0.085
-347.450	134.542	-0.280	0.360
-346.435	-200.000	0.049	-0.233
-345.420	42.492	0.268	-0.241
-344.406	235.758	-0.124	-0.204
-343.391	-0.693	-0.299	0.210
-342.377	-47.074	0.260	0.126
-341.362	225.604	0.074	-0.118
-340.348	800.000	-0.067	0.236
-339.333	-200.000	-0.027	0.148
-338.318	569.594	-0.107	0.257
-337.304	29.755	-0.285	-0.241
-336.289	-115.547	0.081	-0.015
-335.275	31.782	0.158	-0.134
-334.260	-155.261	-0.384	-0.025
-333.245	312.328	0.213	0.397
-332.231	-62.882	0.443	-0.182
-331.216	-14.858	-0.165	-0.105
-330.202	-126.555	-0.295	-0.043
-329.187	-200.000	0.009	0.108
-328.172	-1.876	-0.034	0.024
-327.158	10.042	-0.142	-0.107
-326.143	38.812	-0.306	-0.271
-325.129	-200.000	-0.012	-0.316
-324.114	263.434	0.093	0.160
-323.099	-102.208	0.264	0.063
-322.085	-138.088	-0.091	0.010
-321.070	-106.357	0.149	0.033
-320.056	-74.077	0.151	-0.054
-319.041	-200.000	-0.140	0.000
-318.026	-200.000	-0.016	0.105
-317.012	800.000	-0.103	-0.361
-315.997	-41.710	-0.193	0.098
-314.983	119.677	0.177	0.217
-313.968	394.154	0.052	0.107
-312.953	730.910	-0.024	-0.062
-311.939	-88.936	-0.140	-0.041
-310.924	-200.000	0.015	0.130
-309.910	-45.195	-0.132	-0.065
-308.895	-116.331	0.344	0.063
-307.880	800.000	-0.127	-0.418
-306.866	-77.210	-0.143	0.049
-305.851	-134.802	-0.407	0.049
-304.837	-66.024	-0.293	0.116
-303.822	-35.012	0.265	0.143
-302.807	800.000	-0.031	-0.129
-301.793	35.651	0.082	-0.071
-300.778	-200.000	0.046	0.302
-299.764	-167.996	0.229	0.009
-298.749	0.118	-0.246	-0.173
-297.735	-200.000	-0.043	-0.321
-296.720	-73.619	0.255	0.092
-295.705	-176.143	-0.039	0.001
-294.691	-200.000	-0.024	-0.157
-293.676	-2.830	-0.286	-0.198
-292.662	-47.971	0.122	-0.059
-291.647	204.147	0.056	0.086
-290.632	71.895	-0.028	0.029
-289.618	-200.000	-0.092	-0.422
-288.603	-53.633	-0.195	0.088
-287.589	45.513	-0.275	0.251
-286.574	-79.962	0.509	-0.169
-285.559	-120.932	0.075	-0.012
-284.545	33.376	-0.190	0.163
-283.530	-68.727	0.201	0.077
-282.516	162.077	-0.049	-0.068
-281.501	0.363	-0.056	0.040
-280.486	-48.125	0.193	-0.092
-279.472	-61.410	-0.128	0.053
-278.457	-200.000	0.039	-0.317
-277.443	-26.564	-0.268	0.155
-276.428	24.275	-0.072	0.059
-275.413	-80.898	0.517	-0.170
-274.399	0.964	-0.340	-0.241
-273.384	-149.983	-0.114	-0.009
-272.370	493.124	-0.049	-0.110
-271.355	30.481	-0.209	-0.177
-270.340	243.379	0.118	0.196
-269.326	71.302	0.206	-0.211
-268.311	39.021	0.017	0.015
-267.297	-200.000	-0.019	-0.173
-266.282	404.879	-0.140	0.291
-265.267	70.575	-0.156	-0.160
-264.253	263.822	0.149	0.256
-263.238	52.134	-0.036	0.034
-262.224	101.364	-0.078	-0.090
-261.209	-42.877	-0.312	-0.157
-260.195	146.794	-0.229	-0.304
-259.180	-113.926	0.290	-0.056
-258.165	-200.000	0.013	0.182
-257.151	-96.370	0.195	-0.051
-256.136	800.000	-0.044	-0.126
-255.122	-87.774	0.314	-0.093
-254.107	18.569	0.008	-0.006
-253.092	101.068	0.089	0.103
-252.078	10.124	0.369	-0.277
-251.063	800.000	0.102	-0.310
-250.049	146.474	-0.135	0.179
-249.034	-133.175	-0.262	0.033
-248.019	-200.000	0.085	0.435
-247.005	-200.000	-0.077	0.531
-245.990	-200.000	0.015	0.177
-244.976	-87.089	0.297	0.089
-243.961	-25.810	-0.151	0.088
-242.946	-16.940	0.134	-0.084
-241.932	28.012	-0.065	0.054
-240.917	148.811	0.102	-0.136
-239.903	-82.316	0.435	0.140
-238.888	-182.818	0.223	0.004
-237.873	-200.000	-0.010	-0.453
-236.859	431.874	-0.120	-0.256
-235.844	-75.254	0.060	0.021
-234.830	159.078	-0.065	-0.089
-233.815	-147.299	-0.311	-0.026
-232.800	-89.970	0.291	0.084
-231.786	-200.000	-0.082	0.356
-230.771	-156.483	0.514	-0.032
-229.757	-110.298	0.090	0.018
-228.742	268.101	0.043	0.075
-227.727	449.969	-0.143	-0.312
-226.713	382.366	-0.224	0.454
-225.698	-200.000	-0.001	-0.090
-224.684	-200.000	0.008	-0.169
-223.669	-30.091	-0.096	-0.054
-222.655	800.000	-0.054	0.186
-221.640	-138.779	0.233	0.025
-220.625	302.650	0.101	-0.185
-219.611	-12.478	-0.144	-0.093
-218.596	127.105	-0.043	-0.054
-217.582	-1.966	-0.124	0.086
-216.567	111.268	-0.128	-0.153
-215.552	-153.151	0.161	0.011
-214.538	-4.209	-0.309	0.211
-213.523	40.767	0.093	0.082
-212.509	-69.098	-0.372	0.141
-211.494	-21.487	0.216	0.130
-210.479	-16.347	-0.172	0.107
-209.465	-139.368	0.157	-0.017
-208.450	-109.085	0.198	-0.042
-207.436	577.473	-0.063	0.152
-206.421	72.441	0.036	0.037
-205.406	165.233	-0.073	-0.102
-204.392	800.000	-0.058	0.200
-203.377	800.000	-0.129	-0.542
-202.363	58.645	0.098	0.095
-201.348	-102.843	0.073	0.017
-200.333	-134.059	0.152	0.019
-199.319	-200.000	0.054	-0.375
-198.304	-129.383	-0.070	-0.010
-197.290	95.610	0.199	-0.223
-196.275	98.157	-0.132	-0.150
-195.260	193.326	-0.093	-0.139
-194.246	800.000	0.054	-0.202
-193.231	5.346	-0.196	0.142
-192.217	800.000	-0.051	-0.219
-191.202	-47.990	0.256	0.122
-190.187	81.518	-0.145	0.154
-189.173	149.458	0.063	0.085
-188.158	209.041	0.027	0.042
-187.144	-17.827	0.047	-0.029
-186.129	183.719	0.091	-0.132
-185.114	74.655	-0.075	-0.077
-184.100	-124.114	0.382	0.059
-183.085	800.000	-0.123	0.349
-182.071	-94.008	-0.414	-0.112
-181.056	-131.229	0.178	0.023
-180.042	218.640	-0.108	-0.170
-179.027	-181.325	-0.199	0.004
-178.012	800.000	0.006	0.025
-176.998	-30.439	0.198	-0.111
-175.983	-176.592	0.233	0.006
-174.969	241.723	0.054	-0.089
-173.954	6.595	0.124	0.090
-172.939	800.000	-0.068	-0.228
-171.925	800.000	0.054	-0.207
-170.910	800.000	-0.048	0.188
-169.896	78.650	0.143	0.151
-168.881	40.443	0.303	-0.269
-167.866	-200.000	0.023	0.226
-166.852	-70.224	0.242	0.091
-165.837	102.600	-0.136	-0.157
-164.823	800.000	-0.064	0.218
-163.808	-82.526	-0.191	-0.061
-162.793	91.293	-0.102	-0.113
-161.779	-200.000	0.025	0.157
-160.764	-125.480	0.321	-0.048
-159.750	-77.882	0.342	-0.116
-158.735	800.000	-0.147	0.547
-157.720	166.211	0.180	0.251
-156.706	-102.524	0.199	0.047
-155.691	285.428	-0.048	-0.085
-154.677	174.523	0.117	0.167
-153.662	6.445	-0.200	-0.146
-152.647	129.466	0.241	-0.302
-151.633	-86.924	-0.405	-0.122
-150.618	-63.172	0.204	0.083
-149.604	-58.388	0.138	0.059
-148.589	-12.996	0.297	0.190
-147.574	-96.315	-0.384	0.100
-146.560	64.955	-0.039	-0.039
-145.545	729.591	0.079	0.207
-144.531	538.803	-0.042	0.098
-143.516	-89.495	-0.443	-0.128
-142.502	-200.000	0.089	0.480
-141.487	-176.659	0.307	-0.008
-140.472	-126.321	0.500	-0.073
-139.458	-107.307	0.146	-0.032
-138.443	56.591	0.151	0.144
-137.429	81.690	0.156	-0.166
-136.414	-51.413	0.050	0.023
-135.399	-146.205	0.339	0.029
-134.385	46.138	-0.112	0.102
-133.370	149.869	0.069	0.091
-132.356	800.000	0.126	0.448
-131.341	-200.000	0.044	-0.354
-130.326	-117.109	0.344	-0.062
-129.312	-17.286	-0.097	-0.060
-128.297	535.401	0.067	0.156
-127.283	151.363	0.056	0.074
-126.268	162.115	-0.118	0.163
-125.253	6.789	-0.129	-0.094
-124.239	-200.000	-0.084	0.428
-123.224	219.249	-0.184	-0.289
-122.210	-105.454	-0.222	-0.050
