DTS Sentinel unit serial number:	SN413079Multiplexer serial number:	ORYXHardware model number:	OX4-SRSoftware version number:	ORYX F/W v4.00 Oryx Data Collector v3.7.2.0data status	okinstallation	princeton_trtdifferential loss correction	single-endedforward channel	channel 2reverse channel	N/Adate	2019/09/16time	19:23:35forward acquisition time	60.00reverse acquisition time	0.00gamma	496.2192k internal	0.2322k external	0.2322temperature offset calibration	0.9969default loss term (dB/km)	0.3790temperature slope calibration	1.0000multiplexer offset coefficient	1.0000multiplexer slope coefficient	1.0000fibre end	0.00T internal ref (°C)	34.75T ext. ref 1 (°C)	0.07T ext. ref 2 (°C)	27.80length (m)	temperature (°C)	Stokes	anti-Stokes-747.200	7.841	0.388	0.294
-746.185	-0.085	0.259	0.187
-745.171	116.972	-0.093	-0.115
-744.156	261.214	0.091	0.160
-743.142	573.935	-0.128	-0.316
-742.127	354.889	0.042	0.084
-741.112	613.430	0.029	0.073
-740.098	-123.984	-0.284	0.045
-739.083	121.703	0.053	-0.067
-738.069	-143.689	0.236	0.023
-737.054	-141.330	-0.242	0.025
-736.039	-5.903	-0.176	-0.122
-735.025	-114.787	0.347	0.067
-734.010	-200.000	0.055	-0.319
-732.996	800.000	0.138	-0.407
-731.981	-200.000	0.045	0.262
-730.966	-158.565	0.136	-0.008
-729.952	-64.905	-0.296	-0.121
-728.937	-0.817	-0.252	0.180
-727.923	-200.000	-0.034	-0.482
-726.908	435.911	0.083	-0.182
-725.894	-29.663	-0.092	-0.053
-724.879	362.467	0.034	0.069
-723.864	325.376	0.143	-0.276
-722.850	371.270	-0.081	-0.165
-721.835	-62.043	0.161	-0.068
-720.821	304.633	-0.033	0.062
-719.806	178.105	0.256	-0.376
-718.791	800.000	0.053	0.194
-717.777	95.684	-0.260	-0.299
-716.762	61.789	-0.155	-0.156
-715.748	-14.110	0.110	-0.072
-714.733	-1.704	-0.125	-0.089
-713.718	-200.000	-0.053	-0.299
-712.704	-124.705	-0.232	-0.036
-711.689	-200.000	-0.025	0.237
-710.675	-93.748	-0.035	-0.010
-709.660	-200.000	-0.001	-0.053
-708.645	800.000	0.098	-0.399
-707.631	800.000	-0.025	-0.104
-706.616	-41.099	-0.176	0.092
-705.602	119.009	0.054	-0.068
-704.587	-28.843	-0.142	0.082
-703.572	-200.000	-0.004	0.213
-702.558	156.869	-0.089	0.124
-701.543	-119.246	0.056	0.010
-700.529	-13.938	-0.157	0.103
-699.514	-68.133	-0.365	0.143
-698.499	800.000	-0.013	0.045
-697.485	243.410	0.171	-0.290
-696.470	-200.000	-0.004	-0.221
-695.456	-200.000	0.023	-0.479
-694.441	-200.000	0.024	-0.167
-693.426	252.106	-0.095	-0.164
-692.412	-152.617	-0.160	-0.012
-691.397	270.512	-0.049	0.087
-690.383	-121.632	-0.289	0.048
-689.368	181.169	-0.209	0.310
-688.354	-26.123	0.292	-0.173
-687.339	254.858	-0.153	-0.263
-686.324	800.000	-0.036	0.122
-685.310	104.864	0.104	-0.124
-684.295	-160.039	-0.382	0.021
-683.281	-118.636	-0.123	0.022
-682.266	-177.343	-0.062	0.002
-681.251	115.136	0.038	0.047
-680.237	82.213	0.087	0.096
-679.222	214.139	0.149	-0.238
-678.208	-83.850	0.086	0.028
-677.193	800.000	-0.161	-0.467
-676.178	-30.346	-0.046	0.026
-675.164	270.175	0.137	-0.243
-674.149	-200.000	-0.012	-0.184
-673.135	263.755	-0.228	0.400
-672.120	426.701	-0.089	0.194
-671.105	44.688	-0.091	-0.084
-670.091	709.401	-0.073	-0.195
-669.076	800.000	0.047	-0.191
-668.062	59.580	0.161	0.160
-667.047	-36.558	-0.053	-0.029
-666.032	59.714	0.124	-0.123
-665.018	17.504	-0.262	-0.210
-664.003	-67.539	-0.350	0.138
-662.989	22.066	-0.199	0.164
-661.974	-200.000	-0.031	0.165
-660.959	-28.657	-0.018	0.010
-659.945	800.000	0.087	0.259
-658.930	-84.192	0.349	0.111
-657.916	49.871	-0.122	-0.116
-656.901	800.000	-0.073	-0.220
-655.886	108.419	0.115	-0.139
-654.872	180.076	-0.100	0.147
-653.857	-176.743	-0.095	0.002
-652.843	-200.000	0.010	-0.213
-651.828	6.791	0.163	-0.122
-650.814	-200.000	-0.021	-0.115
-649.799	800.000	0.122	-0.379
-648.784	205.406	-0.153	-0.240
-647.770	800.000	-0.025	0.111
-646.755	-1.690	0.113	0.080
-645.741	5.661	-0.191	0.142
-644.726	-102.735	0.350	0.084
-643.711	800.000	0.056	0.160
-642.697	-132.994	0.184	0.024
-641.682	-158.122	0.235	-0.014
-640.668	-80.855	0.273	-0.091
-639.653	283.184	0.177	0.319
-638.638	800.000	0.020	-0.085
-637.624	800.000	0.032	-0.126
-636.609	459.159	0.048	-0.108
-635.595	-173.836	0.033	-0.001
-634.580	-90.286	0.062	0.018
-633.565	-109.002	-0.306	0.066
-632.551	800.000	0.053	-0.150
-631.536	-27.389	0.031	-0.018
-630.522	283.682	-0.013	-0.023
-629.507	12.745	0.156	0.121
-628.492	-200.000	0.016	0.140
-627.478	-154.556	-0.127	-0.009
-626.463	-142.811	0.335	-0.033
-625.449	120.369	0.191	-0.238
-624.434	800.000	0.026	-0.073
-623.419	32.047	-0.086	-0.075
-622.405	-4.604	0.363	-0.252
-621.390	-20.799	-0.057	-0.035
-620.376	-6.260	0.174	0.119
-619.361	-31.160	0.195	-0.110
-618.346	188.560	-0.050	-0.075
-617.332	36.632	-0.188	-0.167
-616.317	-139.024	0.075	0.008
-615.303	131.773	0.189	0.244
-614.288	-135.018	-0.368	-0.045
-613.273	159.429	0.238	-0.333
-612.259	-200.000	0.018	0.399
-611.244	44.774	0.227	0.210
-610.230	-179.157	-0.223	0.005
-609.215	241.974	-0.019	-0.032
-608.201	-150.548	-0.137	-0.011
-607.186	-106.576	0.086	0.019
-606.171	84.607	0.088	0.097
-605.157	-42.337	0.358	0.184
-604.142	333.606	-0.133	0.258
-603.128	800.000	0.036	-0.147
-602.113	-13.179	-0.325	-0.212
-601.098	800.000	-0.091	0.381
-600.084	-200.000	-0.015	0.113
-599.069	-200.000	0.023	-0.211
-598.055	-120.023	0.153	-0.026
-597.040	15.729	-0.124	-0.098
-596.025	800.000	0.141	-0.429
-595.011	800.000	0.027	-0.100
-593.996	-4.432	0.122	-0.085
-592.982	800.000	-0.001	-0.005
-591.967	-200.000	-0.060	0.274
-590.952	-16.727	0.220	0.140
-589.938	800.000	-0.022	-0.072
-588.923	-200.000	-0.027	0.156
-587.909	-115.023	0.119	0.023
-586.894	800.000	0.113	-0.319
-585.879	-155.378	-0.174	-0.011
-584.865	-154.766	-0.237	0.016
-583.850	169.772	-0.196	-0.281
-582.836	-113.311	0.391	-0.077
-581.821	-88.575	-0.346	0.103
-580.806	-29.604	-0.185	-0.106
-579.792	141.435	0.054	-0.072
-578.777	117.835	0.066	0.082
-577.763	800.000	-0.047	-0.141
-576.748	-140.669	0.366	0.038
-575.733	285.781	0.060	0.108
-574.719	26.421	0.145	-0.122
-573.704	-200.000	0.271	0.001
-572.690	-82.992	0.126	-0.041
-571.675	-139.532	0.215	0.023
-570.661	-130.139	-0.430	0.059
-569.646	-200.000	0.059	0.279
-568.631	-167.353	-0.270	0.011
-567.617	127.468	0.069	0.088
-566.602	-48.201	-0.245	-0.119
-565.588	-165.516	-0.309	-0.014
-564.573	215.090	-0.106	0.169
-563.558	0.797	-0.192	0.138
-562.544	-200.000	0.000	-0.069
-561.529	31.852	-0.257	0.222
-560.515	-200.000	0.002	0.015
-559.500	-114.214	0.179	-0.035
-558.485	-77.089	0.249	0.087
-557.471	-95.570	-0.306	0.082
-556.456	-200.000	-0.014	0.180
-555.442	388.828	-0.224	-0.466
-554.427	-200.000	-0.009	0.070
-553.412	-36.604	0.157	-0.084
-552.398	-18.909	0.215	0.134
-551.383	-87.703	0.039	0.012
-550.369	-54.480	0.213	-0.097
-549.354	-78.770	0.055	0.019
-548.339	6.789	-0.166	-0.124
-547.325	-111.804	-0.212	-0.043
-546.310	86.478	0.194	0.215
-545.296	-139.757	0.386	-0.041
-544.281	130.003	0.044	0.057
-543.266	-152.456	0.194	-0.014
-542.252	-66.399	-0.215	-0.086
-541.237	-200.000	-0.073	-0.365
-540.223	-97.030	0.269	0.071
-539.208	358.063	-0.023	0.047
-538.193	63.225	0.025	0.025
-537.179	347.270	0.039	-0.078
-536.164	-138.976	0.137	-0.015
-535.150	-200.000	-0.010	-0.257
-534.135	59.926	-0.082	-0.081
-533.121	-33.869	-0.268	0.148
-532.106	-200.000	-0.009	0.141
-531.091	378.589	-0.153	-0.313
-530.077	-200.000	-0.036	-0.480
-529.062	-113.439	0.366	0.072
-528.048	-4.435	-0.095	0.066
-527.033	-150.755	-0.119	-0.009
-526.018	-19.376	0.243	-0.151
-525.004	-93.323	-0.216	0.060
-523.989	800.000	-0.095	-0.282
-522.975	186.421	-0.099	-0.148
-521.960	-152.892	0.359	-0.025
-520.945	-200.000	-0.002	-0.246
-519.931	-162.628	0.272	0.013
-518.916	-10.045	-0.229	0.152
-517.902	166.007	0.086	0.121
-516.887	195.960	0.103	-0.157
-515.872	-33.426	-0.164	0.091
-514.858	67.728	0.218	0.223
-513.843	-200.000	0.016	-0.422
-512.829	800.000	-0.031	-0.123
-511.814	192.187	-0.155	0.235
-510.799	-193.812	0.207	0.002
-509.785	-200.000	0.010	-0.091
-508.770	800.000	-0.094	0.321
-507.756	-200.000	0.063	-0.298
-506.741	226.137	-0.146	-0.237
-505.726	88.277	0.213	-0.237
-504.712	800.000	0.001	-0.004
-503.697	-166.682	0.295	0.012
-502.683	-103.902	0.358	0.084
-501.668	149.856	0.118	-0.160
-500.653	75.898	0.127	-0.134
-499.639	163.044	-0.085	-0.119
-498.624	-131.013	0.250	0.033
-497.610	-200.000	-0.019	-0.126
-496.595	-200.000	0.034	-0.162
-495.581	-79.770	0.083	-0.028
-494.566	523.253	0.041	0.097
-493.551	-96.836	-0.425	-0.112
-492.537	-25.460	0.235	-0.139
-491.522	-200.000	0.004	0.172
-490.508	605.768	0.101	0.252
-489.493	-90.904	-0.391	-0.113
-488.478	800.000	-0.089	0.380
-487.464	440.767	0.086	0.187
-486.449	171.332	0.168	0.241
-485.435	528.362	-0.016	0.038
-484.420	207.001	-0.161	-0.250
-483.405	-11.602	-0.147	0.096
-482.391	-147.422	0.108	0.009
-481.376	67.561	0.138	0.141
-480.362	-80.633	0.267	-0.089
-479.347	226.162	-0.060	0.098
-478.332	-200.000	0.006	-0.204
-477.318	728.721	-0.021	0.056
-476.303	15.284	-0.276	0.217
-475.289	43.428	0.131	-0.119
-474.274	-11.845	0.279	-0.183
-473.259	-75.521	-0.342	-0.122
-472.245	3.173	0.351	0.255
-471.230	-79.439	-0.248	-0.084
-470.216	780.988	-0.113	0.310
-469.201	-101.109	0.110	-0.027
-468.186	-95.417	0.065	0.017
-467.172	45.445	0.207	0.191
-466.157	65.329	0.091	-0.092
-465.143	800.000	0.095	-0.317
-464.128	-134.799	0.068	-0.008
-463.113	-195.030	-0.244	-0.002
-462.099	286.616	0.130	-0.234
-461.084	364.147	0.017	-0.034
-460.070	140.912	-0.082	0.108
-459.055	-200.000	0.028	0.175
-458.040	-51.159	0.415	0.194
-457.026	155.478	0.095	0.130
-456.011	-200.000	-0.049	-0.308
-454.997	199.374	-0.154	-0.236
-453.982	106.072	-0.023	-0.028
-452.968	229.991	0.145	-0.237
-451.953	440.041	-0.147	-0.321
-450.938	-104.493	-0.179	0.041
-449.924	-198.463	-0.319	-0.002
-448.909	-200.000	-0.055	-0.241
-447.895	373.813	-0.040	-0.081
-446.880	-200.000	-0.018	-0.219
-445.865	-200.000	0.029	0.214
-444.851	56.559	-0.097	-0.094
-443.836	-8.346	-0.061	-0.041
-442.822	102.983	0.191	0.223
-441.807	-200.000	-0.019	-0.132
-440.792	622.385	-0.158	0.397
-439.778	-200.000	0.051	0.239
-438.763	-200.000	0.029	-0.203
-437.749	573.068	0.118	0.286
-436.734	-85.005	0.059	0.018
-435.719	152.426	-0.215	-0.294
-434.705	92.670	0.050	-0.057
-433.690	145.728	-0.087	-0.117
-432.676	21.188	-0.173	-0.140
-431.661	-200.000	0.038	-0.539
-430.646	-80.440	-0.390	-0.130
-429.632	800.000	-0.107	-0.350
-428.617	-27.566	0.244	-0.142
-427.603	200.771	0.212	0.325
-426.588	493.462	-0.103	-0.235
-425.573	-9.789	0.168	0.111
-424.559	-10.571	-0.317	0.209
-423.544	151.280	0.169	-0.230
-422.530	-200.000	0.004	-0.225
-421.515	-109.149	0.123	0.026
-420.500	-54.781	0.178	0.080
-419.486	158.695	-0.197	0.273
-418.471	-1.437	-0.074	0.052
-417.457	62.672	-0.189	0.189
-416.442	-144.133	0.299	0.028
-415.428	-11.430	0.436	0.286
-414.413	-200.000	0.065	0.392
-413.398	-28.132	-0.312	-0.180
-412.384	-44.710	-0.146	0.073
-411.369	800.000	0.053	0.189
-410.355	147.297	-0.074	0.099
-409.340	-61.761	0.354	-0.148
-408.325	197.010	0.119	-0.181
-407.311	201.640	0.108	0.165
-406.296	-98.589	-0.192	0.049
-405.282	-126.828	0.283	-0.042
-404.267	646.982	0.027	-0.070
-403.252	-26.596	-0.124	0.072
-402.238	-89.644	0.287	0.084
-401.223	89.640	-0.127	-0.141
-400.209	425.143	0.141	-0.303
-399.194	-136.894	-0.141	0.016
-398.179	-200.000	-0.012	0.077
-397.165	800.000	-0.091	-0.271
-396.150	-88.609	0.234	0.069
-395.136	52.666	0.269	0.256
-394.121	-200.000	0.001	0.137
-393.106	-200.000	-0.021	0.228
-392.092	-8.297	-0.375	-0.252
-391.077	360.387	0.102	0.204
-390.063	-200.000	0.019	0.189
-389.048	800.000	-0.065	0.246
-388.033	29.231	0.136	0.115
-387.019	-200.000	0.012	0.103
-386.004	126.486	0.102	0.128
-384.990	-120.820	-0.498	0.084
-383.975	-103.475	-0.260	-0.061
-382.960	5.071	-0.263	0.193
-381.946	88.594	0.264	0.293
-380.931	-35.512	0.258	-0.139
-379.917	-24.265	0.121	-0.072
-378.902	133.636	0.209	0.269
-377.888	20.850	0.186	0.150
-376.873	-200.000	-0.000	-0.073
-375.858	0.679	-0.218	0.155
-374.844	-20.917	-0.041	0.025
-373.829	-64.171	-0.134	-0.055
-372.815	-200.000	-0.004	-0.415
-371.800	-109.146	0.265	0.056
-370.785	289.115	-0.088	-0.158
-369.771	-46.830	-0.292	0.142
-368.756	-81.893	0.313	-0.102
-367.742	474.719	-0.155	0.347
-366.727	-43.090	0.144	-0.072
-365.712	367.525	-0.172	0.345
-364.698	800.000	0.087	0.259
-363.683	-67.115	-0.520	-0.204
-362.669	11.546	0.369	0.282
-361.654	16.279	-0.074	0.058
-360.639	-105.567	-0.344	0.078
-359.625	-19.011	0.218	0.135
-358.610	-123.336	-0.148	0.024
-357.596	-33.169	0.178	-0.098
-356.581	-200.000	0.024	0.151
-355.566	268.089	-0.114	-0.199
-354.552	187.469	-0.079	0.117
-353.537	-145.396	-0.174	0.016
-352.523	-122.466	0.581	0.094
-351.508	-114.252	-0.099	0.019
-350.493	-140.883	-0.254	-0.026
-349.479	-200.000	-0.036	0.273
-348.464	-63.494	-0.286	0.117
-347.450	-137.106	0.250	-0.028
-346.435	4.339	0.225	-0.164
-345.420	3.911	-0.306	-0.222
-344.406	-200.000	-0.042	0.235
-343.391	-137.085	-0.143	-0.016
-342.377	-46.305	-0.186	-0.091
-341.362	363.919	-0.033	0.066
-340.348	-151.454	0.315	0.023
-339.333	751.580	0.095	0.256
-338.318	40.120	0.176	0.157
-337.304	-200.000	-0.030	0.156
-336.289	-15.102	-0.140	-0.089
-335.275	-148.338	0.431	0.035
-334.260	21.082	-0.227	0.183
-333.245	-62.002	0.270	0.112
-332.231	83.179	-0.224	-0.242
-331.216	28.671	-0.257	0.216
-330.202	593.634	0.098	-0.241
-329.187	-55.652	-0.221	-0.098
-328.172	112.299	-0.194	0.233
-327.158	-200.000	0.031	-0.208
-326.143	-101.118	-0.303	0.074
-325.129	30.939	0.190	-0.162
-324.114	49.277	-0.129	-0.121
-323.099	451.370	-0.105	-0.230
-322.085	-50.130	-0.337	-0.158
-321.070	-168.349	-0.208	-0.008
-320.056	132.203	0.202	0.259
-319.041	684.900	0.109	-0.283
-318.026	-19.681	-0.158	0.097
-317.012	-200.000	-0.006	-0.073
-315.997	-113.483	-0.186	-0.036
-314.983	135.055	0.179	-0.231
-313.968	-22.803	-0.262	-0.157
-312.953	-31.382	0.183	0.102
-311.939	-145.561	-0.414	0.037
-310.924	-200.000	0.018	0.302
-309.910	-70.386	-0.201	-0.076
-308.895	-125.228	-0.192	-0.029
-307.880	-146.239	-0.095	0.008
-306.866	800.000	-0.022	-0.065
-305.851	117.291	0.228	-0.278
-304.837	-200.000	-0.003	0.205
-303.822	405.231	0.069	0.144
-302.807	-58.878	-0.092	0.039
-301.793	196.034	-0.249	0.377
-300.778	101.781	-0.193	0.224
-299.764	-200.000	-0.033	0.192
-298.749	391.850	-0.054	-0.112
-297.735	14.631	0.175	-0.136
-296.720	800.000	-0.060	0.165
-295.705	-86.166	0.350	0.107
-294.691	-94.995	0.203	-0.054
-293.676	35.324	-0.213	-0.186
-292.662	17.276	0.352	-0.277
-291.647	39.841	-0.249	-0.222
-290.632	182.980	0.117	-0.172
-289.618	65.190	-0.113	0.113
-288.603	327.330	-0.127	0.242
-287.589	-200.000	0.003	-0.134
-286.574	-41.829	-0.107	-0.054
-285.559	800.000	-0.043	0.128
-284.545	-200.000	0.033	0.421
-283.530	1.236	-0.171	-0.122
-282.516	-21.256	-0.217	-0.131
-281.501	-109.561	0.375	0.079
-280.486	43.107	-0.142	0.129
-279.472	-140.674	-0.201	-0.021
-278.457	-158.038	-0.273	-0.016
-277.443	-10.201	-0.093	0.061
-276.428	21.487	-0.471	-0.380
-275.413	-179.162	-0.333	0.007
-274.399	174.003	0.087	-0.125
-273.384	-163.814	0.052	-0.002
-272.370	-161.762	0.166	-0.008
-271.355	-200.000	-0.018	0.102
-270.340	-200.000	-0.025	-0.194
-269.326	-165.500	0.126	0.005
-268.311	-137.345	-0.309	0.035
-267.297	-53.976	0.314	0.142
-266.282	-123.203	0.292	-0.046
-265.267	800.000	0.075	0.274
-264.253	-33.528	0.129	0.071
-263.238	800.000	-0.032	-0.114
-262.224	147.888	-0.167	0.223
-261.209	-76.999	-0.186	0.064
-260.195	-86.990	-0.074	0.022
-259.180	-90.154	0.295	0.085
-258.165	800.000	-0.028	-0.101
-257.151	-86.017	-0.095	0.029
-256.136	45.210	0.097	0.088
-255.122	519.288	0.086	0.201
-254.107	-89.691	0.102	0.030
-253.092	800.000	0.107	-0.386
-252.078	689.593	-0.092	-0.239
-251.063	710.381	-0.152	0.398
-250.049	162.299	0.048	-0.066
-249.034	800.000	0.034	-0.117
-248.019	213.529	-0.195	-0.306
-247.005	-140.011	0.348	-0.036
-245.990	-31.171	0.031	0.017
-244.976	-35.995	0.120	0.064
-243.961	-72.364	0.143	0.053
-242.946	33.891	0.087	0.075
-241.932	100.713	-0.083	0.095
-240.917	160.778	0.054	-0.074
-239.903	117.402	-0.129	0.157
-238.888	-54.875	-0.202	0.090
-237.873	-61.256	-0.104	0.044
-236.859	-200.000	-0.013	0.329
-235.844	275.520	0.058	-0.102
-234.830	800.000	-0.051	-0.187
-233.815	-200.000	0.055	0.352
-232.800	-46.527	0.240	0.117
-231.786	-20.216	-0.157	-0.096
-230.771	199.996	0.153	-0.233
-229.757	220.764	-0.058	-0.092
-228.742	-183.517	-0.184	-0.003
-227.727	-115.031	-0.111	-0.021
-226.713	82.442	0.155	0.167
-225.698	-200.000	-0.014	0.177
-224.684	-3.419	0.145	0.100
-223.669	11.284	0.117	0.089
-222.655	-150.188	-0.152	0.012
-221.640	476.850	0.094	0.211
-220.625	-200.000	-0.010	0.296
-219.611	-59.650	0.056	0.024
-218.596	-48.141	-0.389	-0.186
-217.582	141.127	0.183	-0.239
-216.567	800.000	-0.037	-0.137
-215.552	-125.035	-0.353	-0.054
-214.538	800.000	-0.109	-0.361
-213.523	40.642	-0.135	0.121
-212.509	-29.122	0.058	-0.033
-211.494	-200.000	-0.011	-0.239
-210.479	108.533	-0.182	-0.215
-209.465	-53.007	-0.046	-0.021
-208.450	-13.401	-0.133	0.085
-207.436	484.007	-0.074	0.166
-206.421	800.000	-0.052	0.151
-205.406	-66.780	-0.112	0.044
-204.392	-165.386	0.278	-0.012
-203.377	30.124	-0.089	-0.075
-202.363	-123.768	-0.370	-0.058
-201.348	1.027	-0.113	-0.080
-200.333	524.290	0.105	-0.243
-199.319	-85.007	-0.438	0.136
-198.304	-100.627	-0.312	-0.076
-197.290	-99.249	0.143	0.036
-196.275	95.383	-0.156	0.175
-195.260	260.920	0.090	0.154
-194.246	60.053	0.200	0.196
-193.231	77.232	0.278	-0.292
-192.217	95.522	-0.196	-0.221
-191.202	-200.000	0.042	0.255
-190.187	-101.374	0.156	-0.038
-189.173	-200.000	-0.001	0.132
-188.158	-85.247	0.182	0.056
-187.144	-200.000	0.045	-0.239
-186.129	460.229	-0.042	0.093
-185.114	122.939	-0.094	-0.116
-184.100	800.000	-0.104	-0.410
-183.085	-154.434	0.455	0.030
-182.071	-200.000	0.044	-0.214
-181.056	-72.051	0.257	-0.094
-180.042	444.380	0.115	0.249
-179.027	334.920	0.243	0.465
-178.012	92.623	-0.299	-0.334
-176.998	800.000	-0.087	0.276
-175.983	-55.338	-0.108	0.048
-174.969	-88.911	-0.211	-0.062
-173.954	-145.369	0.263	0.023
-172.939	-200.000	-0.005	-0.040
-171.925	-200.000	-0.002	-0.116
-170.910	-51.238	-0.189	0.087
-169.896	139.247	0.121	0.158
-168.881	303.836	-0.169	0.309
-167.866	201.679	0.025	0.039
-166.852	-200.000	0.005	-0.217
-165.837	86.321	-0.092	-0.100
-164.823	-144.586	0.204	-0.019
-163.808	-102.811	0.108	0.025
-162.793	-11.376	0.184	0.120
-161.779	55.883	-0.257	0.247
-160.764	63.624	-0.064	-0.063
-159.750	-197.079	-0.181	0.001
-158.735	-91.723	-0.201	0.056
-157.720	-100.535	-0.172	0.042
-156.706	345.609	0.109	0.211
-155.691	-200.000	0.045	0.303
-154.677	800.000	0.056	-0.240
-153.662	770.010	0.105	-0.282
-152.647	474.401	0.070	-0.156
-151.633	-200.000	-0.049	-0.505
-150.618	-200.000	0.025	-0.184
-149.604	-200.000	0.039	-0.443
-148.589	249.186	0.168	0.281
-147.574	-200.000	0.027	0.314
-146.560	-37.503	-0.084	-0.044
-145.545	81.028	-0.172	0.183
-144.531	-200.000	-0.016	0.305
-143.516	800.000	0.061	-0.232
-142.502	-149.939	0.220	-0.017
-141.487	596.299	0.064	0.156
-140.472	-39.342	0.202	0.104
-139.458	-155.012	-0.115	-0.007
-138.443	43.142	-0.085	0.076
-137.429	-65.236	-0.222	-0.088
-136.414	-200.000	0.042	-0.346
-135.399	-76.480	0.311	-0.108
-134.385	7.437	0.055	-0.041
-133.370	5.204	0.141	0.103
-132.356	103.367	-0.067	-0.078
-131.341	42.589	-0.204	-0.183
-130.326	68.887	-0.199	-0.201
-129.312	-124.399	0.203	0.031
-128.297	208.146	-0.080	0.123
-127.283	-195.645	-0.212	-0.002
-126.268	748.196	0.123	0.326
-125.253	-10.269	-0.081	0.053
-124.239	-200.000	-0.021	-0.272
-123.224	-200.000	-0.024	0.238
-122.210	439.943	-0.193	0.416
