DTS Sentinel unit serial number:	SN413079Multiplexer serial number:	ORYXHardware model number:	OX4-SRSoftware version number:	ORYX F/W v4.00 Oryx Data Collector v3.7.2.0data status	okinstallation	princeton_trtdifferential loss correction	single-endedforward channel	channel 2reverse channel	N/Adate	2019/09/18time	17:35:35forward acquisition time	60.00reverse acquisition time	0.00gamma	496.2192k internal	0.2298k external	0.2298temperature offset calibration	1.0017default loss term (dB/km)	0.3790temperature slope calibration	1.0000multiplexer offset coefficient	1.0000multiplexer slope coefficient	1.0000fibre end	0.00T internal ref (°C)	40.25T ext. ref 1 (°C)	0.91T ext. ref 2 (°C)	35.65length (m)	temperature (°C)	Stokes	anti-Stokes-747.200	-4.902	0.141	-0.100
-746.185	-169.079	0.324	0.012
-745.171	-200.000	0.112	0.539
-744.156	-132.210	-0.210	-0.028
-743.142	-121.000	-0.133	0.023
-742.127	-200.000	-0.034	0.218
-741.112	-87.264	-0.121	0.037
-740.098	-200.000	0.032	-0.302
-739.083	-200.000	-0.008	0.233
-738.069	127.558	-0.286	0.370
-737.054	800.000	0.033	0.132
-736.039	525.125	-0.118	0.284
-735.025	-116.184	0.211	-0.040
-734.010	432.835	-0.140	-0.310
-732.996	-200.000	-0.063	-0.609
-731.981	-200.000	-0.042	-0.232
-730.966	-108.780	-0.146	-0.032
-729.952	-200.000	0.042	-0.209
-728.937	-69.825	0.125	-0.049
-727.923	-200.000	-0.046	-0.290
-726.908	-200.000	0.060	0.351
-725.894	-39.212	-0.383	0.205
-724.879	-4.509	-0.216	-0.152
-723.864	717.984	-0.038	-0.103
-722.850	-50.351	-0.202	0.097
-721.835	-79.484	-0.345	0.119
-720.821	443.953	-0.012	0.027
-719.806	-200.000	-0.002	0.054
-718.791	77.076	0.166	0.179
-717.777	-42.295	0.255	-0.133
-716.762	486.542	-0.096	0.223
-715.748	-65.073	-0.120	0.050
-714.733	51.087	0.080	0.077
-713.718	-91.986	0.357	-0.103
-712.704	249.402	0.195	0.337
-711.689	281.327	-0.105	0.191
-710.675	10.546	0.364	0.283
-709.660	800.000	0.064	-0.256
-708.645	-196.058	-0.310	-0.002
-707.631	109.356	0.114	0.139
-706.616	-92.757	0.070	0.020
-705.602	-85.439	-0.127	0.040
-704.587	-74.935	0.129	0.047
-703.572	-12.490	0.249	-0.166
-702.558	651.111	0.049	0.128
-701.543	31.777	0.243	-0.214
-700.529	7.525	0.231	-0.176
-699.514	315.087	-0.094	-0.180
-698.499	-17.062	-0.243	-0.156
-697.485	-106.906	-0.190	0.043
-696.470	-51.163	0.075	0.036
-695.456	800.000	-0.043	-0.175
-694.441	-132.744	-0.272	-0.035
-693.426	67.175	-0.163	0.169
-692.412	69.937	-0.130	0.137
-691.397	-55.279	-0.250	0.114
-690.383	63.753	0.053	0.054
-689.368	13.695	0.113	-0.089
-688.354	-46.970	-0.250	0.125
-687.339	269.414	0.158	0.282
-686.324	287.020	-0.116	-0.213
-685.310	65.267	-0.072	-0.074
-684.295	-42.756	0.238	0.123
-683.281	-37.561	0.347	-0.189
-682.266	69.821	0.190	-0.200
-681.251	-71.220	0.102	0.039
-680.237	369.087	0.094	-0.195
-679.222	480.286	0.011	-0.024
-678.208	-112.949	-0.216	0.043
-677.193	211.655	-0.103	0.165
-676.178	-136.079	0.197	-0.024
-675.164	800.000	0.115	0.445
-674.149	487.306	0.156	0.363
-673.135	-200.000	-0.004	0.098
-672.120	800.000	-0.067	-0.196
-671.105	404.879	-0.055	0.118
-670.091	-97.811	0.453	-0.119
-669.076	-21.481	0.096	-0.060
-668.062	-21.057	-0.100	0.062
-667.047	-40.951	-0.171	0.090
-666.032	-65.417	-0.193	-0.079
-665.018	-135.433	0.211	-0.026
-664.003	417.705	-0.074	-0.160
-662.989	550.730	-0.060	-0.148
-661.974	-200.000	0.055	0.552
-660.959	190.695	-0.154	0.235
-659.945	-200.000	0.014	-0.132
-658.930	580.246	-0.105	-0.263
-657.916	-144.835	0.170	0.016
-656.901	-200.000	0.051	0.246
-655.886	800.000	-0.067	-0.199
-654.872	800.000	0.053	0.180
-653.857	-193.315	-0.116	-0.001
-652.843	-200.000	-0.003	0.304
-651.828	-200.000	-0.044	0.341
-650.814	69.870	0.174	-0.183
-649.799	-41.790	-0.251	0.131
-648.784	-200.000	0.042	0.562
-647.770	-49.466	-0.225	0.109
-646.755	31.911	0.034	-0.030
-645.741	-200.000	-0.018	-0.080
-644.726	-200.000	0.069	-0.400
-643.711	494.824	0.173	-0.405
-642.697	10.956	-0.213	0.166
-641.682	-200.000	-0.038	0.220
-640.668	604.910	0.056	-0.141
-639.653	-23.402	-0.110	0.067
-638.638	546.227	0.069	0.168
-637.624	281.770	0.134	0.244
-636.609	-200.000	0.009	-0.246
-635.595	89.176	-0.050	0.057
-634.580	800.000	0.065	-0.225
-633.565	270.087	-0.098	0.174
-632.551	566.406	0.018	0.045
-631.536	262.710	-0.061	-0.107
-630.522	-33.387	-0.569	0.320
-629.507	136.889	0.303	0.403
-628.492	151.254	0.100	0.139
-627.478	105.731	-0.176	0.211
-626.463	8.110	0.188	-0.143
-625.449	113.025	-0.294	0.362
-624.434	-137.159	0.173	-0.020
-623.419	-200.000	-0.016	-0.221
-622.405	-200.000	-0.029	-0.136
-621.390	-8.781	0.197	-0.134
-620.376	-200.000	-0.017	-0.296
-619.361	465.791	-0.054	-0.124
-618.346	23.089	-0.309	0.258
-617.332	103.421	-0.127	-0.152
-616.317	8.397	-0.159	-0.122
-615.303	145.267	-0.081	-0.110
-614.288	-200.000	-0.036	0.215
-613.273	186.170	0.136	-0.205
-612.259	158.632	0.184	-0.260
-611.244	4.876	-0.057	-0.043
-610.230	-57.364	0.082	-0.037
-609.215	-200.000	0.026	-0.118
-608.201	-200.000	-0.005	0.024
-607.186	-97.214	-0.294	-0.078
-606.171	-150.294	0.509	0.040
-605.157	-107.590	0.103	-0.023
-604.142	270.307	-0.150	0.268
-603.128	7.103	-0.094	0.071
-602.113	-100.037	-0.148	0.038
-601.098	-15.008	0.254	0.165
-600.084	115.093	-0.235	0.292
-599.069	-74.962	-0.118	-0.043
-598.055	-35.872	0.124	0.068
-597.040	-167.705	-0.066	0.003
-596.025	-96.680	-0.419	-0.112
-595.011	-200.000	-0.017	-0.158
-593.996	-137.322	0.111	0.013
-592.982	786.143	-0.143	0.398
-591.967	614.170	-0.102	0.258
-590.952	800.000	0.079	0.251
-589.938	103.267	0.022	-0.027
-588.923	16.347	-0.169	-0.135
-587.909	-59.270	0.485	-0.212
-586.894	221.645	-0.127	-0.207
-585.879	-50.038	-0.246	0.118
-584.865	-12.582	0.195	-0.129
-583.850	174.383	-0.050	-0.074
-582.836	258.429	-0.062	-0.108
-581.821	-174.556	-0.133	-0.004
-580.806	800.000	-0.054	-0.164
-579.792	-137.955	0.123	0.014
-578.777	359.978	-0.072	-0.147
-577.763	-200.000	0.030	0.305
-576.748	14.988	-0.198	0.157
-575.733	101.801	-0.294	0.348
-574.719	-200.000	-0.003	-0.444
-573.704	135.826	0.282	-0.373
-572.690	130.615	-0.260	-0.338
-571.675	-200.000	-0.001	-0.084
-570.661	-90.700	0.071	0.021
-569.646	-200.000	-0.014	-0.091
-568.631	-108.739	-0.355	0.077
-567.617	38.545	-0.146	-0.132
-566.602	800.000	-0.091	0.289
-565.588	251.148	-0.132	-0.228
-564.573	800.000	0.043	0.132
-563.558	-38.307	-0.214	-0.115
-562.544	86.440	0.094	0.105
-561.529	-122.603	-0.139	-0.023
-560.515	-163.110	-0.255	-0.012
-559.500	133.590	0.173	-0.227
-558.485	-91.357	0.056	0.016
-557.471	476.799	-0.055	-0.126
-556.456	148.407	-0.031	-0.042
-555.442	2.935	-0.386	-0.284
-554.427	112.302	-0.201	-0.247
-553.412	-91.469	0.177	-0.051
-552.398	2.236	-0.230	-0.169
-551.383	27.293	-0.190	-0.162
-550.369	39.465	0.128	0.116
-549.354	-200.000	0.067	0.415
-548.339	-9.372	-0.107	-0.073
-547.325	800.000	0.026	0.090
-546.310	12.280	0.219	-0.171
-545.296	55.703	-0.181	0.178
-544.281	-200.000	-0.025	-0.167
-543.266	437.478	-0.105	-0.232
-542.252	72.516	0.442	-0.467
-541.237	324.697	0.105	-0.203
-540.223	160.529	-0.251	-0.355
-539.208	-200.000	0.002	0.055
-538.193	-98.435	0.166	-0.043
-537.179	601.906	0.061	-0.155
-536.164	-152.852	-0.294	0.021
-535.150	-200.000	0.017	0.284
-534.135	-26.763	0.128	0.076
-533.121	20.844	-0.195	-0.160
-532.106	6.331	-0.155	-0.116
-531.091	210.723	0.102	0.162
-530.077	800.000	-0.073	-0.266
-529.062	-200.000	0.024	-0.284
-528.048	-81.491	-0.233	-0.078
-527.033	-16.483	-0.231	-0.148
-526.018	8.447	-0.330	-0.251
-525.004	9.859	0.122	-0.094
-523.989	-166.227	0.236	0.010
-522.975	68.999	-0.072	0.075
-521.960	-200.000	-0.039	0.251
-520.945	244.537	0.207	0.352
-519.931	-86.927	-0.205	0.063
-518.916	62.846	-0.053	0.054
-517.902	800.000	0.043	-0.169
-516.887	14.600	0.055	0.043
-515.872	-200.000	0.035	-0.309
-514.858	-200.000	-0.003	-0.314
-513.843	-78.031	0.206	0.072
-512.829	12.351	0.156	0.122
-511.814	800.000	0.090	0.357
-510.799	-130.780	-0.254	0.035
-509.785	213.109	0.106	-0.169
-508.770	-47.133	0.149	0.074
-507.756	-4.865	0.168	-0.117
-506.741	-77.944	-0.078	-0.027
-505.726	-200.000	-0.064	-0.336
-504.712	-200.000	-0.042	0.248
-503.697	111.435	0.141	0.173
-502.683	-82.171	0.182	0.060
-501.668	-161.141	-0.166	0.009
-500.653	219.187	-0.167	-0.271
-499.639	-104.288	-0.157	-0.037
-498.624	-200.000	0.025	0.205
-497.610	-60.792	0.019	-0.008
-496.595	-200.000	0.004	-0.038
-495.581	-10.614	-0.111	0.074
-494.566	41.892	0.172	0.158
-493.551	92.939	0.147	0.167
-492.537	-45.605	-0.113	-0.056
-491.522	81.824	0.322	0.353
-490.508	-10.510	0.072	-0.048
-489.493	192.610	-0.035	-0.053
-488.478	-70.381	-0.152	-0.058
-487.464	564.469	-0.039	0.097
-486.449	-200.000	-0.037	0.180
-485.435	101.375	-0.182	0.214
-484.420	-200.000	0.001	-0.019
-483.405	-200.000	0.004	-0.241
-482.391	-54.123	-0.235	-0.108
-481.376	12.362	0.031	-0.024
-480.362	51.985	-0.124	0.119
-479.347	-52.301	-0.423	0.198
-478.332	163.674	-0.187	0.265
-477.318	37.288	0.192	0.172
-476.303	-13.723	0.110	-0.072
-475.289	-37.283	-0.174	-0.094
-474.274	32.703	-0.074	-0.064
-473.259	-200.000	0.025	0.222
-472.245	166.775	0.188	-0.270
-471.230	-53.593	-0.160	-0.074
-470.216	-200.000	-0.023	-0.548
-469.201	-186.581	0.062	-0.001
-468.186	-103.268	-0.159	-0.038
-467.172	-200.000	-0.015	-0.347
-466.157	34.598	0.139	0.123
-465.143	-39.945	-0.211	0.111
-464.128	-76.275	-0.221	0.079
-463.113	328.606	-0.124	0.240
-462.099	0.990	-0.078	-0.056
-461.084	-119.171	-0.289	-0.051
-460.070	-200.000	-0.015	-0.145
-459.055	298.370	0.024	-0.045
-458.040	196.365	-0.170	0.261
-457.026	-82.182	0.308	-0.101
-456.011	186.064	0.240	0.360
-454.997	-163.935	-0.192	-0.009
-453.982	174.786	0.176	0.257
-452.968	29.205	-0.027	0.023
-451.953	51.350	0.137	0.131
-450.938	20.942	-0.041	0.034
-449.924	375.424	0.150	-0.309
-448.909	-80.723	-0.158	0.053
-447.895	-78.881	0.150	-0.051
-446.880	-200.000	-0.038	0.270
-445.865	272.329	-0.133	0.237
-444.851	-69.718	0.232	0.089
-443.836	254.276	-0.223	-0.385
-442.822	-115.357	0.074	-0.014
-441.807	-200.000	0.002	-0.075
-440.792	-121.043	0.361	0.061
-439.778	204.033	0.140	0.218
-438.763	125.780	-0.109	-0.138
-437.749	-6.008	0.094	0.065
-436.734	-200.000	0.039	0.283
-435.719	-200.000	-0.013	-0.073
-434.705	-79.818	-0.104	-0.035
-433.690	9.453	0.087	0.067
-432.676	-84.561	-0.336	-0.107
-431.661	-33.746	0.384	0.214
-430.646	-98.598	0.107	0.027
-429.632	189.092	0.143	-0.215
-428.617	145.211	-0.074	-0.100
-427.603	116.178	0.145	0.179
-426.588	-200.000	-0.010	-0.115
-425.573	-200.000	0.014	0.067
-424.559	-66.511	-0.216	-0.087
-423.544	-87.845	0.108	-0.033
-422.530	-200.000	-0.035	-0.315
-421.515	-57.289	-0.188	0.083
-420.500	598.000	0.039	0.096
-419.486	800.000	-0.048	0.173
-418.471	100.209	0.278	-0.325
-417.457	95.889	0.340	0.392
-416.442	505.495	-0.164	-0.382
-415.428	149.550	-0.096	-0.131
-414.413	-106.220	0.123	0.028
-413.398	800.000	-0.045	0.189
-412.384	107.335	-0.117	-0.140
-411.369	-96.073	-0.360	-0.096
-410.355	-140.882	-0.180	-0.019
-409.340	456.485	-0.128	-0.286
-408.325	-200.000	-0.019	-0.135
-407.311	-161.096	-0.363	0.019
-406.296	-9.766	0.029	-0.019
-405.282	-72.698	-0.407	0.151
-404.267	-103.952	0.495	0.116
-403.252	230.779	-0.071	-0.117
-402.238	8.815	-0.025	0.019
-401.223	216.334	-0.117	0.188
-400.209	-200.000	0.322	-0.000
-399.194	800.000	0.008	-0.030
-398.179	-7.042	-0.239	0.164
-397.165	263.424	-0.039	0.069
-396.150	-150.512	0.213	0.016
-395.136	800.000	-0.080	-0.248
-394.121	-102.767	0.225	-0.054
-393.106	-200.000	0.039	-0.346
-392.092	-6.908	0.168	0.115
-391.077	86.330	0.146	0.162
-390.063	-51.514	0.250	-0.118
-389.048	-185.693	-0.029	-0.000
-388.033	-45.848	0.225	-0.112
-387.019	21.377	0.080	0.066
-386.004	-159.849	-0.333	-0.018
-384.990	-81.589	-0.087	-0.029
-383.975	129.944	0.052	-0.067
-382.960	-22.914	0.170	-0.103
-381.946	-49.626	-0.156	-0.075
-380.931	-150.972	0.148	0.011
-379.917	49.036	0.108	-0.102
-378.902	-51.009	-0.127	-0.060
-377.888	-137.838	0.129	-0.015
-376.873	421.464	0.024	0.051
-375.858	280.047	-0.076	0.137
-374.844	174.473	0.151	-0.219
-373.829	-51.856	-0.458	-0.215
-372.815	520.644	-0.014	0.032
-371.800	3.765	-0.163	0.120
-370.785	-110.019	0.104	-0.022
-369.771	-21.029	-0.229	0.141
-368.756	105.607	0.062	0.074
-367.742	235.672	-0.081	-0.134
-366.727	9.845	-0.216	-0.165
-365.712	4.334	-0.200	0.148
-364.698	186.321	-0.036	-0.054
-363.683	-102.801	0.110	0.026
-362.669	3.296	0.152	0.111
-361.654	501.139	0.126	0.293
-360.639	67.404	-0.194	0.199
-359.625	-134.731	-0.141	0.017
-358.610	82.413	-0.205	0.224
-357.596	152.919	0.081	0.112
-356.581	-60.845	-0.137	-0.058
-355.566	28.655	0.158	-0.135
-354.552	-98.076	0.099	0.026
-353.537	542.259	0.090	-0.215
-352.523	-30.737	-0.201	-0.114
-351.508	355.774	0.066	-0.132
-350.493	-200.000	0.033	-0.181
-349.479	17.453	0.126	-0.101
-348.464	28.108	0.195	0.165
-347.450	592.318	-0.035	0.086
-346.435	199.530	-0.285	0.440
-345.420	-200.000	-0.001	0.130
-344.406	800.000	0.091	-0.307
-343.391	-31.404	-0.162	-0.092
-342.377	45.577	0.055	0.051
-341.362	-41.243	-0.195	0.101
-340.348	58.051	-0.174	0.171
-339.333	-49.110	-0.311	0.150
-338.318	800.000	-0.033	0.130
-337.304	36.977	-0.131	0.116
-336.289	-88.923	0.350	0.104
-335.275	-18.659	0.055	-0.034
-334.260	-55.876	0.316	0.142
-333.245	85.550	0.278	0.307
-332.231	-13.920	0.342	0.222
-331.216	-86.198	0.043	0.013
-330.202	-47.781	0.070	-0.034
-329.187	347.029	0.042	0.083
-328.172	-200.000	-0.002	0.300
-327.158	-93.198	-0.138	0.039
-326.143	-36.369	-0.030	0.016
-325.129	-200.000	-0.066	-0.383
-324.114	-11.664	0.450	0.297
-323.099	286.181	-0.148	0.268
-322.085	117.795	0.105	0.130
-321.070	382.980	0.103	-0.214
-320.056	-0.027	0.098	0.070
-319.041	-153.200	0.296	0.021
-318.026	-102.450	0.114	0.027
-317.012	665.222	-0.140	0.362
-315.997	-135.230	-0.434	-0.052
-314.983	164.961	0.186	-0.264
-313.968	685.714	0.180	-0.472
-312.953	52.114	0.139	-0.133
-311.939	123.480	0.216	0.272
-310.924	-200.000	-0.014	-0.192
-309.910	-24.149	0.232	0.139
-308.895	151.766	0.264	0.361
-307.880	44.607	0.137	0.126
-306.866	92.059	0.241	-0.272
-305.851	377.196	0.080	-0.164
-304.837	-200.000	0.091	0.472
-303.822	172.323	-0.043	-0.062
-302.807	603.598	0.074	0.184
-301.793	-200.000	-0.006	0.238
-300.778	-42.026	-0.330	-0.170
-299.764	-200.000	0.005	-0.147
-298.749	52.139	-0.038	0.036
-297.735	229.064	-0.184	-0.302
-296.720	-125.395	0.318	-0.049
-295.705	415.274	-0.107	-0.228
-294.691	-82.394	-0.157	-0.051
-293.676	645.932	-0.090	-0.230
-292.662	1.590	-0.283	0.204
-291.647	283.203	0.022	0.039
-290.632	318.969	0.095	0.180
-289.618	-160.840	0.224	-0.012
-288.603	560.306	-0.051	0.124
-287.589	11.466	0.335	-0.258
-286.574	-144.324	0.243	0.023
-285.559	23.194	0.472	0.389
-284.545	800.000	-0.061	-0.241
-283.530	-65.350	-0.281	0.113
-282.516	-101.687	0.085	0.021
-281.501	-200.000	0.012	-0.208
-280.486	453.193	0.110	-0.243
-279.472	307.079	0.035	-0.065
-278.457	-200.000	0.019	0.133
-277.443	-138.158	0.333	0.037
-276.428	381.852	0.160	-0.329
-275.413	-60.512	0.092	-0.039
-274.399	-200.000	0.009	-0.065
-273.384	-98.760	-0.219	-0.056
-272.370	83.691	0.055	-0.060
-271.355	33.648	0.379	-0.331
-270.340	9.432	0.139	-0.106
-269.326	-92.751	-0.322	0.090
-268.311	800.000	0.071	0.289
-267.297	208.742	-0.046	-0.073
-266.282	218.300	0.056	-0.090
-265.267	-59.130	0.102	-0.044
-264.253	219.584	-0.118	0.189
-263.238	-69.142	-0.162	0.063
-262.224	-200.000	-0.068	0.336
-261.209	-159.930	0.108	0.006
-260.195	-101.861	0.075	0.018
-259.180	-130.696	-0.096	0.013
-258.165	800.000	-0.017	-0.065
-257.151	-79.291	-0.208	0.071
-256.136	-142.205	-0.271	-0.027
-255.122	-7.745	-0.314	0.213
-254.107	72.755	0.086	-0.090
-253.092	241.196	-0.257	-0.429
-252.078	-200.000	-0.061	-0.295
-251.063	-200.000	0.046	-0.373
-250.049	-120.267	0.125	-0.021
-249.034	-74.222	0.231	0.084
-248.019	128.373	-0.133	0.169
-247.005	-75.156	-0.318	-0.114
-245.990	97.704	0.063	-0.073
-244.976	-200.000	0.007	-0.126
-243.961	-84.269	0.215	0.068
-242.946	-102.031	-0.093	0.022
-241.932	-200.000	0.027	0.179
-240.917	356.069	-0.111	-0.221
-239.903	-113.880	-0.185	0.036
-238.888	800.000	0.045	0.150
-237.873	-165.571	0.218	-0.009
-236.859	106.815	0.370	0.439
-235.844	114.820	0.133	0.163
-234.830	800.000	0.062	-0.206
-233.815	-102.136	0.153	0.037
-232.800	34.377	-0.083	-0.072
-231.786	12.848	0.347	-0.269
-230.771	3.595	0.024	-0.018
-229.757	-12.556	-0.154	-0.100
-228.742	615.902	0.194	0.487
-227.727	-166.478	0.493	-0.021
-226.713	-200.000	0.026	-0.149
-225.698	-126.879	-0.302	-0.044
-224.684	-105.097	0.043	0.010
-223.669	-200.000	0.068	0.442
-222.655	-126.980	0.074	0.011
-221.640	397.330	0.150	0.313
-220.625	-127.084	0.109	-0.016
-219.611	43.060	0.214	0.196
-218.596	406.490	0.115	-0.242
-217.582	-152.841	0.113	-0.008
-216.567	61.747	0.120	0.120
-215.552	38.225	0.210	0.187
-214.538	-142.572	-0.145	0.014
-213.523	0.575	0.269	0.192
-212.509	437.310	-0.051	-0.110
-211.494	-170.468	0.229	-0.008
-210.479	-79.238	-0.302	-0.102
-209.465	206.073	0.146	0.227
-208.450	618.188	-0.110	-0.277
-207.436	198.192	-0.061	0.093
-206.421	-45.825	-0.242	0.119
-205.406	-200.000	0.045	-0.307
-204.392	-168.214	0.207	-0.008
-203.377	6.373	-0.168	-0.124
-202.363	-138.202	0.264	-0.029
-201.348	-85.147	0.361	0.113
-200.333	504.321	0.025	-0.057
-199.319	-133.020	-0.224	0.028
-198.304	800.000	-0.061	-0.174
-197.290	-85.927	0.260	0.080
-196.275	-200.000	-0.002	0.328
-195.260	41.088	0.120	0.108
-194.246	209.077	-0.045	-0.071
-193.231	13.736	-0.230	-0.178
-192.217	45.361	-0.238	-0.219
-191.202	-114.223	0.028	-0.005
-190.187	285.804	0.155	0.279
-189.173	-165.612	-0.219	0.009
-188.158	-137.969	0.025	0.003
-187.144	25.604	0.107	0.089
-186.129	-46.296	-0.046	-0.023
-185.114	108.055	-0.046	-0.055
-184.100	-22.338	-0.037	-0.022
-183.085	162.849	0.041	0.058
-182.071	-82.192	0.166	0.054
-181.056	14.740	0.069	0.054
-180.042	235.166	0.109	-0.179
-179.027	365.356	-0.098	-0.196
-178.012	27.696	0.300	0.252
-176.998	373.791	0.078	0.158
-175.983	-44.222	0.059	-0.030
-174.969	-200.000	-0.050	-0.378
-173.954	-17.239	-0.067	-0.042
-172.939	42.415	-0.264	-0.240
-171.925	-200.000	0.003	-0.129
-170.910	-200.000	0.047	0.396
-169.896	342.204	0.053	0.104
-168.881	-200.000	-0.009	-0.158
-167.866	-200.000	-0.018	0.194
-166.852	9.418	0.124	-0.093
-165.837	-156.678	0.067	0.004
-164.823	73.050	-0.234	0.244
-163.808	1.231	0.096	-0.069
-162.793	260.096	0.086	0.149
-161.779	-55.764	-0.208	-0.093
-160.764	213.738	0.099	0.156
-159.750	-45.968	-0.203	-0.100
-158.735	-200.000	0.049	0.241
-157.720	-46.311	-0.121	-0.059
-156.706	-83.137	0.095	-0.031
-155.691	-200.000	-0.042	-0.196
-154.677	-142.855	-0.164	-0.016
-153.662	-133.166	0.208	0.026
-152.647	-74.104	0.165	0.060
-151.633	-21.735	-0.239	0.145
-150.618	48.570	0.090	-0.084
-149.604	800.000	0.082	0.337
-148.589	-200.000	-0.009	0.102
-147.574	60.231	-0.311	-0.306
-146.560	12.069	-0.238	-0.183
-145.545	-200.000	0.015	0.143
-144.531	192.834	0.184	0.277
-143.516	57.287	-0.141	-0.138
-142.502	-134.120	-0.276	0.034
-141.487	800.000	0.049	0.137
-140.472	-200.000	-0.054	0.332
-139.458	58.240	0.094	0.092
-138.443	1.599	-0.049	0.035
-137.429	-4.140	-0.269	-0.186
-136.414	81.372	0.202	-0.217
-135.399	-6.297	-0.218	0.148
-134.385	-200.000	-0.053	0.323
-133.370	-200.000	0.162	0.000
-132.356	800.000	-0.018	-0.054
-131.341	-12.601	-0.099	-0.065
-130.326	40.348	0.050	0.045
-129.312	227.400	-0.200	-0.325
-128.297	99.804	0.034	0.039
-127.283	223.127	-0.085	0.137
-126.268	-142.163	-0.252	0.025
-125.253	-71.384	0.066	-0.025
-124.239	-159.789	0.049	0.003
-123.224	30.938	0.220	-0.187
-122.210	-5.421	0.470	-0.322
-121.195	102.234	-0.152	0.176
-120.180	-200.000	-0.007	0.251
