DTS Sentinel unit serial number:	SN413079Multiplexer serial number:	ORYXHardware model number:	OX4-SRSoftware version number:	ORYX F/W v4.00 Oryx Data Collector v3.7.2.0data status	okinstallation	princeton_trtdifferential loss correction	single-endedforward channel	channel 2reverse channel	N/Adate	2019/09/15time	00:15:34forward acquisition time	60.00reverse acquisition time	0.00gamma	496.2192k internal	0.2324k external	0.2324temperature offset calibration	1.0045default loss term (dB/km)	0.3790temperature slope calibration	1.0000multiplexer offset coefficient	1.0000multiplexer slope coefficient	1.0000fibre end	0.00T internal ref (°C)	32.19T ext. ref 1 (°C)	4.59T ext. ref 2 (°C)	27.18length (m)	temperature (°C)	Stokes	anti-Stokes-747.200	320.995	0.125	-0.240
-746.185	25.474	-0.196	0.164
-745.171	800.000	-0.042	-0.168
-744.156	-155.946	0.209	-0.013
-743.142	38.550	-0.186	0.168
-742.127	238.740	-0.134	0.224
-741.112	141.390	-0.010	0.014
-740.098	-85.598	0.132	0.041
-739.083	-200.000	-0.061	0.342
-738.069	108.673	-0.219	-0.264
-737.054	-73.877	-0.089	-0.033
-736.039	100.958	0.065	0.076
-735.025	88.629	0.313	0.352
-734.010	-27.590	-0.107	0.063
-732.996	319.536	0.183	-0.350
-731.981	-83.103	0.154	-0.050
-730.966	-200.000	0.016	-0.292
-729.952	-158.623	-0.471	-0.027
-728.937	800.000	-0.074	-0.250
-727.923	-59.422	-0.238	-0.103
-726.908	442.462	0.149	-0.328
-725.894	-117.722	-0.455	-0.083
-724.879	142.469	-0.111	-0.149
-723.864	128.501	-0.109	0.140
-722.850	-90.918	-0.090	-0.026
-721.835	800.000	0.073	0.264
-720.821	42.234	0.199	-0.183
-719.806	329.416	0.078	-0.151
-718.791	-200.000	0.070	0.362
-717.777	-200.000	-0.005	-0.356
-716.762	-200.000	0.001	-0.094
-715.748	85.074	-0.182	0.201
-714.733	191.068	0.088	-0.133
-713.718	18.015	-0.142	0.114
-712.704	-200.000	-0.027	-0.363
-711.689	69.545	0.099	-0.103
-710.675	-200.000	0.032	-0.216
-709.660	29.454	-0.051	-0.044
-708.645	92.323	-0.244	-0.277
-707.631	136.561	-0.355	0.467
-706.616	276.335	-0.151	-0.271
-705.602	362.659	-0.082	0.166
-704.587	-200.000	-0.006	0.043
-703.572	800.000	0.055	-0.156
-702.558	-200.000	0.046	-0.290
-701.543	514.703	-0.093	-0.218
-700.529	-89.255	0.294	0.087
-699.514	136.380	0.175	0.230
-698.499	800.000	-0.107	0.333
-697.485	-114.806	0.078	-0.015
-696.470	-99.127	0.296	0.075
-695.456	8.550	0.192	-0.146
-694.441	-200.000	0.291	0.001
-693.426	-200.000	-0.022	0.137
-692.412	-200.000	0.069	0.368
-691.397	800.000	-0.126	-0.379
-690.383	-172.489	-0.260	0.008
-689.368	-121.862	-0.244	-0.041
-688.354	-123.237	-0.347	-0.056
-687.339	333.607	-0.075	-0.147
-686.324	72.434	-0.181	-0.190
-685.310	70.546	-0.164	-0.171
-684.295	-200.000	-0.050	-0.272
-683.281	-22.806	0.167	-0.101
-682.266	104.811	-0.145	0.172
-681.251	176.517	-0.166	0.242
-680.237	-111.235	-0.128	-0.026
-679.222	-47.554	0.332	-0.162
-678.208	-79.724	0.073	-0.025
-677.193	-200.000	0.010	-0.049
-676.178	36.347	-0.342	-0.304
-675.164	87.632	-0.297	-0.331
-674.149	12.359	-0.165	-0.128
-673.135	-133.717	-0.148	0.019
-672.120	-69.749	0.246	0.095
-671.105	390.415	-0.112	-0.234
-670.091	-15.983	-0.194	0.124
-669.076	-109.388	-0.294	0.063
-668.062	84.244	0.063	-0.069
-667.047	-135.784	-0.322	0.038
-666.032	256.665	0.105	0.182
-665.018	-200.000	0.018	-0.205
-664.003	-183.701	-0.146	0.003
-662.989	607.756	0.188	-0.472
-661.974	-88.002	-0.335	-0.101
-660.959	-118.894	-0.200	-0.035
-659.945	163.022	0.087	-0.123
-658.930	-84.130	0.405	0.129
-657.916	-109.584	0.340	0.072
-656.901	341.955	0.111	0.218
-655.886	-200.000	-0.010	0.087
-654.872	15.987	0.128	0.102
-653.857	-200.000	-0.031	0.196
-652.843	792.413	0.023	-0.064
-651.828	753.287	-0.090	-0.244
-650.814	-200.000	0.008	-0.057
-649.799	-200.000	0.016	0.234
-648.784	-14.766	-0.176	0.113
-647.770	3.733	-0.070	0.052
-646.755	-5.647	0.286	0.197
-645.741	657.497	0.059	-0.152
-644.726	-200.000	-0.019	-0.133
-643.711	109.115	0.102	0.123
-642.697	-200.000	0.032	0.290
-641.682	800.000	0.054	0.160
-640.668	-69.550	0.299	-0.115
-639.653	-92.811	-0.147	-0.041
-638.638	91.952	-0.145	0.164
-637.624	-58.765	0.240	-0.104
-636.609	-36.706	0.133	0.072
-635.595	-40.024	0.257	-0.135
-634.580	-112.110	-0.103	0.021
-633.565	-58.433	-0.254	-0.111
-632.551	41.010	-0.257	-0.233
-631.536	134.873	-0.153	-0.200
-630.522	-120.633	0.114	-0.019
-629.507	-134.561	-0.153	0.019
-628.492	-44.624	0.477	-0.239
-627.478	-119.604	0.127	-0.022
-626.463	-200.000	0.050	0.283
-625.449	-136.469	0.327	-0.038
-624.434	-20.837	0.291	-0.179
-623.419	-200.000	0.028	-0.381
-622.405	-89.263	-0.174	0.051
-621.390	160.082	-0.141	-0.197
-620.376	-200.000	0.016	-0.329
-619.361	166.972	-0.057	0.081
-618.346	-65.461	-0.253	-0.102
-617.332	-139.599	-0.104	-0.011
-616.317	-200.000	0.028	-0.126
-615.303	560.137	0.124	0.301
-614.288	13.685	-0.462	0.361
-613.273	-6.548	0.153	0.105
-612.259	-200.000	0.009	0.164
-611.244	-40.071	-0.097	0.051
-610.230	70.410	0.288	-0.299
-609.215	98.983	0.123	-0.143
-608.201	-84.775	0.289	-0.091
-607.186	-62.234	0.161	-0.067
-606.171	-102.264	0.161	-0.039
-605.157	282.355	-0.071	-0.128
-604.142	102.300	-0.119	-0.140
-603.128	530.147	-0.123	0.291
-602.113	-106.531	0.208	-0.046
-601.098	800.000	-0.052	-0.146
-600.084	-41.188	0.120	-0.062
-599.069	52.673	-0.167	-0.160
-598.055	-89.936	-0.143	0.042
-597.040	236.528	-0.078	-0.130
-596.025	-6.957	0.342	0.233
-595.011	208.084	0.098	0.153
-593.996	-70.749	-0.078	-0.029
-592.982	-200.000	-0.004	-0.059
-591.967	-14.670	-0.063	-0.041
-590.952	-124.808	-0.228	-0.035
-589.938	158.146	-0.056	-0.077
-588.923	-117.946	0.132	0.024
-587.909	-2.301	-0.112	-0.079
-586.894	-136.141	-0.442	0.052
-585.879	-27.840	-0.252	-0.147
-584.865	-200.000	-0.018	0.299
-583.850	-11.396	-0.080	0.053
-582.836	-37.463	-0.203	0.109
-581.821	30.670	-0.322	0.276
-580.806	-189.481	-0.268	-0.003
-579.792	360.954	-0.064	0.128
-578.777	-72.316	-0.282	-0.105
-577.763	-200.000	-0.005	-0.280
-576.748	800.000	-0.072	-0.228
-575.733	8.038	-0.171	-0.128
-574.719	-200.000	0.002	-0.131
-573.704	276.961	-0.139	0.248
-572.690	100.093	0.153	0.178
-571.675	800.000	0.025	0.101
-570.661	-200.000	-0.047	0.294
-569.646	-200.000	0.010	-0.047
-568.631	41.449	-0.208	-0.189
-567.617	-200.000	0.009	0.110
-566.602	-131.271	-0.253	0.034
-565.588	-200.000	0.025	-0.277
-564.573	56.623	0.052	-0.050
-563.558	800.000	0.067	-0.223
-562.544	344.835	-0.102	-0.201
-561.529	-146.850	-0.236	-0.020
-560.515	-132.848	0.167	0.021
-559.500	-154.181	0.099	-0.007
-558.485	46.929	-0.217	-0.202
-557.471	-119.088	-0.184	0.032
-556.456	-1.956	-0.191	-0.134
-555.442	-200.000	-0.007	-0.190
-554.427	129.625	-0.213	0.273
-553.412	-200.000	0.025	0.510
-552.398	67.882	0.226	-0.232
-551.383	-90.666	0.139	0.040
-550.369	-27.727	0.278	-0.162
-549.354	-140.150	0.142	0.015
-548.339	621.233	-0.144	-0.362
-547.325	-200.000	0.012	0.286
-546.310	-200.000	-0.056	0.284
-545.296	-50.103	-0.278	0.132
-544.281	-200.000	-0.050	0.245
-543.266	120.646	-0.089	0.110
-542.252	45.628	-0.056	-0.052
-541.237	-157.810	0.092	0.005
-540.223	-23.624	0.073	-0.044
-539.208	-144.555	0.104	0.010
-538.193	503.857	0.085	-0.196
-537.179	60.275	-0.049	-0.048
-536.164	-200.000	-0.046	-0.217
-535.150	-117.614	0.370	0.067
-534.135	218.186	0.123	-0.196
-533.121	179.112	0.092	-0.135
-532.106	112.256	0.209	-0.253
-531.091	-200.000	-0.005	0.031
-530.077	-120.422	-0.156	-0.027
-529.062	-92.387	-0.234	-0.066
-528.048	-112.930	-0.269	0.053
-527.033	-165.590	-0.185	-0.008
-526.018	215.711	0.191	-0.304
-525.004	60.584	0.101	0.100
-523.989	-80.156	-0.187	-0.063
-522.975	83.538	-0.121	-0.132
-521.960	-155.609	-0.090	0.006
-520.945	800.000	0.042	-0.116
-519.931	800.000	-0.111	0.364
-518.916	110.452	-0.065	0.079
-517.902	-163.972	0.188	0.009
-516.887	-200.000	-0.001	-0.217
-515.872	-120.933	0.238	0.040
-514.858	-163.076	0.042	0.002
-513.843	-18.708	-0.053	-0.033
-512.829	-184.148	-0.368	-0.006
-511.814	94.225	-0.185	-0.210
-510.799	-135.344	0.428	-0.051
-509.785	194.510	-0.171	-0.259
-508.770	132.180	-0.048	0.061
-507.756	-200.000	-0.002	0.222
-506.741	800.000	-0.038	-0.163
-505.726	-61.190	-0.090	0.038
-504.712	800.000	0.079	0.228
-503.697	82.624	-0.129	-0.140
-502.683	-50.222	-0.151	-0.071
-501.668	-56.525	-0.138	0.061
-500.653	269.332	-0.053	0.094
-499.639	-100.010	0.250	0.062
-498.624	-74.295	-0.322	0.116
-497.610	387.784	-0.045	0.092
-496.595	800.000	0.036	0.100
-495.581	34.542	0.120	-0.105
-494.566	13.700	0.162	-0.126
-493.551	-136.100	-0.151	-0.018
-492.537	135.112	-0.213	0.276
-491.522	-31.395	-0.123	0.069
-490.508	-200.000	0.061	0.493
-489.493	485.947	-0.077	-0.175
-488.478	-122.582	0.267	0.043
-487.464	-89.854	0.189	-0.055
-486.449	425.000	0.102	0.219
-485.435	-157.710	-0.229	0.014
-484.420	-141.282	-0.210	0.021
-483.405	-153.638	0.275	0.019
-482.391	184.238	0.098	0.146
-481.376	430.308	-0.105	0.226
-480.362	-109.935	0.185	0.039
-479.347	9.234	0.146	-0.110
-478.332	117.763	0.135	-0.166
-477.318	-200.000	-0.029	0.393
-476.303	-12.108	0.168	0.110
-475.289	195.722	0.132	0.201
-474.274	89.484	-0.081	-0.090
-473.259	-30.011	-0.196	0.112
-472.245	-14.220	0.095	0.061
-471.230	-193.658	0.364	0.003
-470.216	-121.360	-0.214	0.036
-469.201	24.929	-0.187	0.155
-468.186	800.000	0.099	-0.380
-467.172	-49.843	0.264	0.125
-466.157	138.454	0.031	0.040
-465.143	-37.901	-0.333	-0.177
-464.128	-160.701	0.231	0.012
-463.113	800.000	0.042	-0.151
-462.099	-67.596	-0.196	-0.077
-461.084	-53.805	0.143	0.065
-460.070	-200.000	-0.022	0.372
-459.055	-200.000	-0.000	0.158
-458.040	162.150	0.065	0.091
-457.026	-8.994	-0.381	-0.255
-456.011	-41.645	0.185	0.095
-454.997	117.155	-0.118	0.144
-453.982	83.238	0.030	-0.033
-452.968	-200.000	0.099	-0.583
-451.953	-97.807	-0.040	-0.010
-450.938	-200.000	-0.035	0.239
-449.924	165.743	-0.027	-0.039
-448.909	166.079	0.095	-0.134
-447.895	109.685	0.149	0.178
-446.880	-200.000	-0.000	-0.013
-445.865	-162.497	0.455	-0.022
-444.851	-105.346	-0.295	-0.067
-443.836	-200.000	-0.000	-0.299
-442.822	105.223	-0.204	-0.241
-441.807	-83.138	0.067	-0.022
-440.792	173.266	-0.192	0.276
-439.778	-0.417	-0.151	-0.107
-438.763	90.517	-0.072	0.080
-437.749	-110.201	0.226	-0.047
-436.734	-98.134	-0.257	0.066
-435.719	-200.000	-0.021	0.093
-434.705	8.449	0.079	-0.059
-433.690	-48.155	0.209	-0.101
-432.676	50.847	-0.103	0.097
-431.661	-120.495	0.205	-0.035
-430.646	800.000	0.039	0.147
-429.632	-73.785	0.079	0.029
-428.617	-86.891	0.048	-0.015
-427.603	-200.000	-0.005	-0.099
-426.588	-142.820	0.141	-0.014
-425.573	667.546	-0.119	-0.307
-424.559	92.428	0.048	-0.054
-423.544	-200.000	-0.024	-0.201
-422.530	-200.000	0.173	-0.001
-421.515	800.000	-0.038	0.139
-420.500	-200.000	0.007	0.122
-419.486	-200.000	-0.005	0.065
-418.471	511.453	-0.038	0.089
-417.457	-51.287	-0.108	0.050
-416.442	19.521	0.127	0.102
-415.428	8.273	-0.212	-0.159
-414.413	-36.023	-0.270	0.145
-413.398	800.000	0.083	-0.257
-412.384	-32.845	-0.092	0.051
-411.369	112.894	-0.075	0.091
-410.355	12.333	-0.115	0.088
-409.340	-184.505	-0.213	-0.003
-408.325	55.508	-0.309	-0.298
-407.311	-200.000	0.027	-0.201
-406.296	222.512	0.044	-0.071
-405.282	371.644	0.168	0.339
-404.267	84.158	0.145	0.157
-403.252	84.550	-0.169	0.184
-402.238	491.378	0.221	-0.504
-401.223	102.718	-0.259	0.302
-400.209	-83.750	0.263	0.083
-399.194	-69.672	-0.318	-0.121
-398.179	89.025	-0.057	-0.063
-397.165	23.502	0.258	0.211
-396.150	84.951	0.248	0.271
-395.136	-100.756	0.131	0.032
-394.121	-200.000	0.014	-0.103
-393.106	-108.909	-0.169	-0.036
-392.092	-15.300	0.305	0.194
-391.077	-104.423	0.047	-0.011
-390.063	220.347	-0.011	-0.018
-389.048	100.179	-0.033	0.038
-388.033	-29.865	-0.166	-0.094
-387.019	528.368	-0.070	-0.163
-386.004	800.000	-0.131	-0.428
-384.990	581.059	-0.032	0.079
-383.975	-42.549	0.211	0.107
-382.960	800.000	-0.012	-0.044
-381.946	800.000	-0.005	-0.017
-380.931	-38.444	-0.110	0.058
-379.917	531.182	0.139	0.327
-378.902	-154.374	-0.182	-0.012
-377.888	-162.752	0.317	-0.015
-376.873	83.466	-0.104	-0.112
-375.858	-58.080	-0.476	0.207
-374.844	-116.284	0.201	-0.037
-373.829	613.875	0.073	-0.181
-372.815	-32.840	0.048	-0.026
-371.800	-104.069	0.307	0.071
-370.785	-35.262	-0.085	0.046
-369.771	-200.000	0.004	0.079
-368.756	-0.120	-0.268	-0.190
-367.742	114.425	-0.107	-0.130
-366.727	-200.000	-0.017	0.147
-365.712	-127.168	-0.099	-0.014
-364.698	-54.487	0.247	-0.111
-363.683	-110.136	-0.079	-0.016
-362.669	431.693	0.121	-0.260
-361.654	800.000	-0.112	-0.309
-360.639	13.976	-0.167	-0.129
-359.625	800.000	0.053	0.173
-358.610	-23.545	0.082	0.049
-357.596	35.260	-0.201	-0.175
-356.581	-200.000	0.050	-0.238
-355.566	-151.186	0.199	0.015
-354.552	-70.644	-0.173	-0.065
-353.537	800.000	0.043	-0.166
-352.523	800.000	0.042	-0.127
-351.508	-6.350	0.112	-0.076
-350.493	424.672	-0.031	-0.067
-349.479	23.058	-0.255	-0.208
-348.464	105.859	0.191	0.224
-347.450	38.428	0.135	0.119
-346.435	-200.000	0.035	-0.166
-345.420	84.791	-0.107	0.116
-344.406	105.254	-0.063	-0.074
-343.391	800.000	0.051	-0.147
-342.377	-200.000	-0.026	-0.120
-341.362	-175.453	-0.066	-0.002
-340.348	12.407	-0.081	0.062
-339.333	-28.514	0.246	0.141
-338.318	800.000	0.030	-0.104
-337.304	82.032	-0.221	-0.237
-336.289	374.762	-0.037	0.076
-335.275	-192.151	0.189	-0.002
-334.260	-32.306	-0.019	0.011
-333.245	-53.407	0.245	0.112
-332.231	-47.130	-0.118	0.057
-331.216	-200.000	-0.020	0.297
-330.202	800.000	-0.014	0.057
-329.187	-111.667	-0.195	-0.039
-328.172	697.136	0.097	-0.252
-327.158	800.000	-0.038	-0.164
-326.143	-134.414	0.115	0.014
-325.129	-46.694	0.222	0.108
-324.114	-200.000	-0.032	-0.273
-323.099	-31.895	-0.084	0.047
-322.085	212.987	-0.144	-0.226
-321.070	192.903	0.168	-0.252
-320.056	41.963	-0.310	0.279
-319.041	267.480	0.100	0.174
-318.026	-200.000	-0.035	-0.294
-317.012	-78.505	-0.170	0.058
-315.997	-60.072	0.227	0.096
-314.983	17.465	0.215	0.169
-313.968	-24.726	0.273	-0.161
-312.953	-87.004	-0.388	0.117
-311.939	-21.729	0.203	0.122
-310.924	271.864	-0.031	0.054
-309.910	-200.000	0.099	0.452
-308.895	16.332	0.309	0.242
-307.880	285.879	-0.096	-0.171
-306.866	-126.979	-0.162	0.024
-305.851	16.583	-0.197	0.154
-304.837	679.994	-0.080	-0.207
-303.822	800.000	0.008	-0.030
-302.807	-52.699	0.255	-0.117
-301.793	20.716	0.072	-0.058
-300.778	721.599	0.044	-0.117
-299.764	247.065	0.131	-0.219
-298.749	-130.948	-0.094	-0.012
-297.735	247.150	-0.186	-0.311
-296.720	27.085	-0.152	0.126
-295.705	-200.000	0.030	0.385
-294.691	-200.000	-0.017	0.291
-293.676	-42.651	-0.158	-0.080
-292.662	89.923	0.096	0.107
-291.647	35.048	-0.360	0.313
-290.632	29.840	-0.320	0.271
-289.618	3.127	-0.206	0.149
-288.603	-200.000	-0.007	0.136
-287.589	-46.643	-0.020	0.010
-286.574	-200.000	-0.003	0.126
-285.559	-29.638	0.310	-0.176
-284.545	6.219	0.217	-0.159
-283.530	-200.000	-0.023	0.300
-282.516	-200.000	0.041	0.226
-281.501	-153.589	0.167	-0.011
-280.486	489.260	-0.113	0.256
-279.472	-70.340	0.223	-0.084
-278.457	77.735	-0.018	0.019
-277.443	-200.000	0.064	-0.569
-276.428	28.729	0.106	-0.089
-275.413	132.343	-0.180	0.230
-274.399	-200.000	-0.019	0.209
-273.384	309.540	-0.048	0.090
-272.370	-141.165	0.085	-0.009
-271.355	-145.433	0.214	0.019
-270.340	-195.553	-0.202	0.001
-269.326	32.817	-0.137	0.118
-268.311	288.249	0.130	-0.234
-267.297	25.684	-0.075	0.062
-266.282	1.153	0.165	-0.117
-265.267	800.000	-0.015	0.049
-264.253	-112.893	-0.368	-0.072
-263.238	-173.095	-0.177	-0.005
-262.224	228.722	0.030	-0.048
-261.209	-80.794	-0.058	0.019
-260.195	-144.414	0.153	-0.014
-259.180	192.098	0.284	0.425
-258.165	-103.624	0.354	0.082
-257.151	-42.035	0.148	0.075
-256.136	-50.367	-0.202	0.094
-255.122	-200.000	0.068	0.366
-254.107	-73.997	0.038	-0.014
-253.092	-200.000	0.024	-0.304
-252.078	-153.780	0.273	0.019
-251.063	-89.098	-0.164	-0.048
-250.049	-62.864	0.132	-0.054
-249.034	-48.066	0.069	-0.033
-248.019	176.055	-0.097	0.139
-247.005	-174.763	0.314	-0.009
-245.990	-112.790	0.265	0.052
-244.976	-182.854	-0.169	-0.003
-243.961	238.291	-0.137	0.226
-242.946	-72.633	0.304	-0.111
-241.932	800.000	-0.033	-0.121
-240.917	201.872	0.039	-0.060
-239.903	-99.359	-0.291	-0.073
-238.888	-43.758	-0.237	-0.118
-237.873	-155.284	0.155	-0.010
-236.859	-44.125	-0.178	-0.088
-235.844	-114.834	0.698	0.132
-234.830	85.853	0.037	0.040
-233.815	-84.820	0.162	-0.050
-232.800	41.992	-0.120	0.108
-231.786	800.000	0.012	0.046
-230.771	-128.487	0.122	0.017
-229.757	-135.187	0.197	-0.023
-228.742	351.946	-0.103	0.202
-227.727	-1.669	0.071	0.049
-226.713	800.000	-0.073	0.236
-225.698	93.279	-0.088	-0.099
-224.684	-78.569	-0.182	-0.062
-223.669	183.255	0.106	0.154
-222.655	-123.896	0.314	0.049
-221.640	111.006	-0.226	0.269
-220.625	-76.693	0.364	0.126
-219.611	44.621	-0.071	0.064
-218.596	-200.000	0.012	0.113
-217.582	-89.557	0.189	-0.055
-216.567	109.920	-0.186	0.220
-215.552	800.000	-0.054	-0.234
-214.538	-118.560	0.335	-0.059
-213.523	199.832	-0.071	-0.107
-212.509	416.771	0.095	0.200
-211.494	-146.337	-0.216	-0.019
-210.479	-183.583	-0.312	0.005
-209.465	-200.000	0.024	0.217
-208.450	15.926	0.249	0.193
-207.436	-53.512	0.289	0.131
-206.421	-26.009	-0.216	0.125
-205.406	76.966	-0.179	-0.188
-204.392	-200.000	0.002	-0.133
-203.377	43.773	-0.241	-0.218
-202.363	-200.000	-0.070	0.367
-201.348	139.847	0.185	-0.241
-200.333	-93.514	-0.177	-0.048
-199.319	-72.485	-0.162	-0.059
-198.304	-83.225	-0.177	-0.056
-197.290	131.127	0.065	-0.083
-196.275	-11.063	0.176	0.115
-195.260	-84.725	-0.125	-0.039
-194.246	315.947	-0.123	-0.229
-193.231	800.000	0.026	0.090
-192.217	-200.000	-0.016	-0.227
-191.202	32.615	0.112	0.095
-190.187	-200.000	0.009	0.263
-189.173	-3.407	-0.199	0.137
-188.158	85.190	0.177	-0.192
-187.144	114.252	-0.028	-0.033
-186.129	-200.000	-0.029	-0.286
-185.114	29.473	0.281	-0.236
-184.100	-2.747	-0.148	0.102
-183.085	265.151	-0.126	0.218
-182.071	92.977	-0.132	-0.147
-181.056	46.968	0.319	0.293
-180.042	-57.379	-0.235	-0.102
-179.027	332.946	-0.093	0.177
-178.012	170.078	0.026	0.036
-176.998	-72.668	0.086	-0.031
-175.983	-200.000	-0.003	-0.113
-174.969	254.595	-0.121	0.205
-173.954	55.741	-0.165	-0.158
-172.939	-200.000	0.047	0.293
-171.925	440.894	-0.172	-0.370
-170.910	147.214	0.279	-0.370
-169.896	-154.125	-0.063	-0.004
-168.881	-200.000	0.040	0.210
-167.866	11.951	0.238	-0.181
-166.852	103.059	-0.098	-0.113
-165.837	-129.845	0.328	0.044
-164.823	-132.834	0.088	-0.011
-163.808	765.187	-0.105	0.281
-162.793	65.636	0.184	0.184
-161.779	-200.000	0.021	-0.317
-160.764	9.047	0.136	-0.102
-159.750	-200.000	0.009	-0.159
-158.735	-200.000	-0.006	-0.190
-157.720	-99.934	0.292	0.072
-156.706	305.831	0.190	0.349
-155.691	-127.181	-0.238	-0.034
-154.677	-200.000	0.030	-0.250
-153.662	-104.965	0.210	0.048
-152.647	-200.000	0.041	-0.239
-151.633	-170.683	-0.240	-0.008
-150.618	-200.000	-0.014	-0.078
-149.604	114.505	0.155	0.186
-148.589	800.000	0.080	0.306
-147.574	-184.704	0.143	-0.002
-146.560	275.782	-0.142	0.248
-145.545	-36.953	0.041	0.022
-144.531	-17.296	-0.244	-0.151
-143.516	43.238	-0.213	0.192
-142.502	52.168	-0.195	0.184
-141.487	76.119	0.195	0.204
-140.472	129.080	-0.103	-0.130
-139.458	74.887	-0.079	0.082
-138.443	190.290	-0.165	-0.244
-137.429	-4.496	-0.068	-0.047
-136.414	-200.000	-0.054	-0.260
-135.399	-58.207	-0.019	-0.008
-134.385	800.000	-0.057	0.166
-133.370	7.759	0.231	0.171
-132.356	-200.000	0.014	-0.177
-131.341	145.269	-0.133	-0.176
-130.326	99.108	-0.080	-0.091
-129.312	-40.852	0.260	-0.132
-128.297	-200.000	0.023	-0.126
-127.283	10.969	0.184	-0.139
-126.268	72.638	0.368	-0.379
-125.253	-44.033	-0.013	-0.006
-124.239	800.000	0.070	-0.284
-123.224	-97.917	0.194	-0.049
