DTS Sentinel unit serial number:	SN413079Multiplexer serial number:	ORYXHardware model number:	OX4-SRSoftware version number:	ORYX F/W v4.00 Oryx Data Collector v3.7.2.0data status	okinstallation	princeton_trtdifferential loss correction	single-endedforward channel	channel 2reverse channel	N/Adate	2019/09/17time	05:39:35forward acquisition time	60.00reverse acquisition time	0.00gamma	496.2192k internal	0.2329k external	0.2329temperature offset calibration	0.9972default loss term (dB/km)	0.3790temperature slope calibration	1.0000multiplexer offset coefficient	1.0000multiplexer slope coefficient	1.0000fibre end	0.00T internal ref (°C)	29.12T ext. ref 1 (°C)	0.14T ext. ref 2 (°C)	22.90length (m)	temperature (°C)	Stokes	anti-Stokes-747.200	-155.671	0.234	-0.015
-746.185	737.101	0.071	0.192
-745.171	66.928	-0.124	-0.127
-744.156	182.997	-0.143	0.213
-743.142	-67.580	0.221	0.087
-742.127	-200.000	0.017	0.178
-741.112	71.668	0.069	0.072
-740.098	-200.000	-0.045	0.217
-739.083	33.575	0.102	0.089
-738.069	-102.181	-0.304	0.074
-737.054	28.811	0.122	0.104
-736.039	-87.563	-0.293	-0.089
-735.025	-167.268	-0.139	0.006
-734.010	163.255	0.026	-0.037
-732.996	-200.000	-0.016	0.089
-731.981	-64.441	0.262	-0.107
-730.966	-200.000	0.005	-0.262
-729.952	-67.833	0.192	-0.076
-728.937	-200.000	-0.067	0.317
-727.923	118.497	0.112	0.139
-726.908	-96.059	-0.447	-0.120
-725.894	-77.761	0.098	-0.034
-724.879	153.074	0.243	-0.334
-723.864	197.879	-0.076	0.117
-722.850	278.334	-0.074	0.133
-721.835	-136.995	-0.050	0.006
-720.821	775.357	0.149	0.410
-719.806	-14.782	-0.200	-0.130
-718.791	37.815	-0.223	-0.199
-717.777	-46.038	0.102	0.051
-716.762	-16.974	0.325	0.207
-715.748	-135.509	0.116	0.014
-714.733	204.935	-0.039	0.061
-713.718	-200.000	0.011	-0.086
-712.704	-200.000	0.020	-0.142
-711.689	143.643	-0.099	0.133
-710.675	155.810	0.104	0.144
-709.660	239.917	-0.065	0.110
-708.645	177.081	-0.088	-0.129
-707.631	-122.229	-0.304	0.050
-706.616	-170.809	0.171	-0.006
-705.602	285.301	0.128	-0.231
-704.587	-28.033	0.278	-0.162
-703.572	-200.000	0.010	0.063
-702.558	-133.429	0.373	-0.047
-701.543	-94.386	0.254	0.070
-700.529	-97.611	0.336	-0.088
-699.514	629.123	0.093	0.236
-698.499	-176.737	-0.266	-0.007
-697.485	-1.877	-0.331	-0.234
-696.470	-102.682	0.278	-0.067
-695.456	-200.000	0.022	-0.163
-694.441	-18.161	-0.110	0.069
-693.426	528.947	0.167	0.395
-692.412	-20.723	-0.132	-0.081
-691.397	-200.000	-0.005	-0.266
-690.383	483.940	-0.072	0.164
-689.368	-200.000	0.008	0.043
-688.354	-130.637	-0.171	-0.023
-687.339	-200.000	0.047	-0.282
-686.324	-196.264	0.131	0.001
-685.310	-200.000	-0.043	-0.284
-684.295	1.921	-0.153	0.111
-683.281	800.000	0.114	-0.466
-682.266	-95.104	-0.191	0.052
-681.251	111.531	-0.128	0.155
-680.237	256.019	-0.139	0.240
-679.222	-75.968	0.074	-0.026
-678.208	440.340	0.033	-0.072
-677.193	-200.000	0.060	-0.337
-676.178	-55.168	-0.251	0.113
-675.164	7.139	-0.111	0.083
-674.149	-117.434	-0.175	0.032
-673.135	203.033	0.134	-0.208
-672.120	213.323	0.109	-0.173
-671.105	121.812	0.094	-0.118
-670.091	157.024	0.214	-0.297
-669.076	-61.966	-0.220	-0.092
-668.062	-63.541	-0.165	0.068
-667.047	800.000	-0.012	-0.044
-666.032	233.091	-0.057	0.094
-665.018	-131.427	0.279	-0.037
-664.003	800.000	-0.061	-0.199
-662.989	-81.873	-0.291	0.096
-661.974	-127.647	0.092	-0.013
-660.959	800.000	0.074	0.238
-659.945	175.455	-0.091	0.132
-658.930	-102.379	-0.114	-0.027
-657.916	13.021	0.093	-0.072
-656.901	-170.616	-0.127	0.004
-655.886	278.432	0.157	0.281
-654.872	33.024	0.262	0.228
-653.857	-194.364	-0.053	-0.000
-652.843	-200.000	-0.038	0.248
-651.828	-89.578	0.013	0.004
-650.814	800.000	-0.072	-0.259
-649.799	319.563	-0.113	0.215
-648.784	-65.523	-0.048	0.020
-647.770	-108.497	-0.103	0.022
-646.755	-144.478	0.385	-0.036
-645.741	30.885	0.047	-0.041
-644.726	-29.913	-0.240	0.137
-643.711	800.000	0.063	0.265
-642.697	-200.000	-0.002	-0.095
-641.682	-149.615	0.101	0.008
-640.668	-200.000	-0.005	0.117
-639.653	-4.921	-0.186	0.128
-638.638	64.752	-0.178	-0.181
-637.624	-19.417	0.008	0.005
-636.609	-200.000	0.050	-0.269
-635.595	197.006	-0.104	0.159
-634.580	285.365	-0.050	0.091
-633.565	-192.935	-0.445	0.004
-632.551	92.889	0.088	0.100
-631.536	373.651	0.114	0.233
-630.522	552.329	-0.036	-0.088
-629.507	-200.000	0.040	-0.333
-628.492	-74.186	0.216	-0.078
-627.478	77.448	-0.112	-0.120
-626.463	800.000	-0.074	-0.210
-625.449	-101.478	0.334	0.082
-624.434	-121.800	-0.099	0.016
-623.419	-55.234	0.061	0.027
-622.405	-200.000	0.013	0.175
-621.390	130.613	-0.081	-0.105
-620.376	-138.742	0.296	0.032
-619.361	388.704	0.080	-0.167
-618.346	-22.386	-0.334	0.203
-617.332	605.675	-0.150	-0.375
-616.317	217.629	0.059	0.095
-615.303	2.500	0.314	0.228
-614.288	296.887	-0.149	0.274
-613.273	-95.010	-0.272	0.074
-612.259	40.263	-0.087	0.079
-611.244	-200.000	-0.010	0.071
-610.230	52.721	-0.131	-0.126
-609.215	-93.496	0.178	-0.049
-608.201	184.800	-0.174	0.258
-607.186	9.338	0.223	0.169
-606.171	30.878	-0.139	0.119
-605.157	-200.000	-0.025	0.120
-604.142	800.000	0.113	0.318
-603.128	-79.473	-0.266	0.090
-602.113	-36.623	0.107	-0.058
-601.098	-14.463	0.212	0.136
-600.084	-200.000	-0.021	-0.243
-599.069	133.086	-0.117	0.151
-598.055	-84.976	0.116	-0.036
-597.040	-81.669	-0.113	-0.037
-596.025	-200.000	-0.003	0.193
-595.011	-200.000	0.035	-0.243
-593.996	-72.645	-0.309	-0.114
-592.982	375.656	-0.083	-0.168
-591.967	800.000	0.055	0.158
-590.952	501.615	0.122	-0.282
-589.938	54.496	0.182	0.175
-588.923	-86.338	-0.048	-0.015
-587.909	-20.417	0.155	-0.096
-586.894	246.404	-0.151	-0.255
-585.879	800.000	0.048	-0.142
-584.865	-200.000	-0.051	-0.309
-583.850	484.548	-0.014	0.031
-582.836	800.000	0.028	-0.116
-581.821	-102.256	-0.042	-0.010
-580.806	79.670	0.192	0.207
-579.792	-24.500	-0.282	0.168
-578.777	3.765	0.179	0.131
-577.763	404.542	-0.127	-0.267
-576.748	-3.060	0.135	0.094
-575.733	-123.613	-0.409	-0.065
-574.719	53.650	0.207	0.199
-573.704	144.444	0.227	-0.303
-572.690	23.057	0.237	-0.195
-571.675	-56.991	0.294	-0.130
-570.661	-135.421	-0.031	0.004
-569.646	-200.000	0.051	-0.241
-568.631	-33.929	0.172	0.095
-567.617	18.025	0.171	-0.136
-566.602	32.799	0.078	-0.068
-565.588	-68.010	0.250	0.098
-564.573	227.293	0.091	-0.148
-563.558	-72.119	0.058	-0.022
-562.544	43.980	-0.247	0.226
-561.529	188.081	-0.080	0.120
-560.515	282.022	-0.103	0.184
-559.500	-162.033	0.164	0.008
-558.485	-39.377	0.144	0.076
-557.471	-52.452	-0.200	-0.093
-556.456	368.647	-0.098	0.198
-555.442	-12.495	-0.138	-0.090
-554.427	-15.356	-0.316	0.202
-553.412	-20.414	-0.141	0.087
-552.398	376.926	-0.101	-0.206
-551.383	-6.898	0.136	-0.093
-550.369	503.174	-0.169	-0.390
-549.354	353.422	-0.105	-0.208
-548.339	236.459	0.045	-0.075
-547.325	-114.517	0.462	-0.089
-546.310	-32.270	-0.498	0.278
-545.296	180.507	0.110	-0.161
-544.281	-200.000	0.066	-0.396
-543.266	210.740	0.182	0.286
-542.252	34.859	-0.080	0.070
-541.237	6.759	-0.347	-0.258
-540.223	362.852	-0.080	0.161
-539.208	-2.423	-0.124	0.087
-538.193	9.160	-0.402	-0.303
-537.179	157.750	-0.022	0.030
-536.164	183.712	0.099	-0.146
-535.150	-149.249	-0.338	0.027
-534.135	142.341	-0.111	0.148
-533.121	227.428	-0.059	-0.096
-532.106	-200.000	-0.014	-0.693
-531.091	-113.381	-0.455	-0.089
-530.077	800.000	-0.065	0.279
-529.062	-45.545	0.282	0.140
-528.048	-1.381	0.016	-0.011
-527.033	-61.840	-0.138	-0.058
-526.018	-97.360	0.062	-0.016
-525.004	-91.789	-0.191	0.054
-523.989	94.553	0.025	0.028
-522.975	175.601	-0.157	-0.227
-521.960	149.168	-0.263	0.355
-520.945	-200.000	-0.065	0.357
-519.931	-147.111	0.358	0.031
-518.916	-113.947	0.254	-0.049
-517.902	511.557	-0.062	-0.145
-516.887	-200.000	0.064	-0.378
-515.872	-173.952	-0.137	0.004
-514.858	-200.000	-0.041	-0.335
-513.843	-90.153	0.366	-0.106
-512.829	319.250	0.129	0.244
-511.814	314.745	0.029	-0.055
-510.799	259.726	-0.125	0.216
-509.785	-152.545	-0.245	-0.017
-508.770	-125.028	0.225	0.035
-507.756	292.753	-0.025	-0.046
-506.741	30.161	0.203	-0.173
-505.726	19.293	-0.123	-0.098
-504.712	-108.174	0.475	-0.103
-503.697	-200.000	-0.019	-0.112
-502.683	-200.000	-0.042	0.258
-501.668	-200.000	0.010	0.401
-500.653	12.016	0.279	0.214
-499.639	-166.153	0.438	-0.019
-498.624	-200.000	0.017	0.137
-497.610	86.947	0.213	-0.235
-496.595	406.326	-0.050	-0.105
-495.581	112.583	-0.324	-0.391
-494.566	-58.789	-0.379	-0.164
-493.551	800.000	-0.148	-0.427
-492.537	800.000	0.072	-0.226
-491.522	75.663	0.237	0.250
-490.508	-200.000	-0.031	-0.230
-489.493	777.085	0.022	0.061
-488.478	559.495	0.070	-0.169
-487.464	223.190	0.098	-0.158
-486.449	175.146	-0.152	-0.219
-485.435	-71.061	-0.212	-0.079
-484.420	-14.667	0.114	-0.073
-483.405	106.445	-0.107	-0.127
-482.391	43.868	-0.098	0.089
-481.376	398.529	-0.076	-0.158
-480.362	398.626	-0.088	-0.184
-479.347	207.145	-0.009	0.013
-478.332	-200.000	0.027	0.414
-477.318	18.706	0.201	-0.161
-476.303	-122.282	0.179	0.029
-475.289	-200.000	0.016	-0.102
-474.274	171.679	0.061	0.087
-473.259	-24.022	0.136	0.081
-472.245	-200.000	0.385	0.001
-471.230	-125.694	0.294	0.044
-470.216	800.000	-0.067	-0.287
-469.201	-7.445	-0.238	0.160
-468.186	107.351	0.049	0.058
-467.172	-200.000	0.033	-0.143
-466.157	-64.078	0.078	0.032
-465.143	528.765	0.163	-0.383
-464.128	800.000	-0.056	0.204
-463.113	155.820	0.138	0.189
-462.099	100.669	0.124	0.144
-461.084	43.100	-0.098	0.089
-460.070	-104.976	-0.080	0.018
-459.055	-82.646	0.213	0.069
-458.040	-200.000	-0.012	-0.055
-457.026	92.528	-0.335	0.377
-456.011	405.154	0.125	0.262
-454.997	289.349	0.022	-0.041
-453.982	148.589	-0.142	-0.191
-452.968	139.574	-0.210	-0.275
-451.953	-170.288	-0.475	-0.017
-450.938	46.899	0.194	0.180
-449.924	-25.671	-0.034	0.020
-448.909	-30.393	-0.151	0.085
-447.895	-200.000	0.035	0.212
-446.880	-131.512	0.122	0.016
-445.865	205.704	0.179	-0.277
-444.851	-112.816	0.121	-0.024
-443.836	428.372	-0.093	-0.201
-442.822	-77.788	0.140	-0.048
-441.807	280.960	0.116	-0.206
-440.792	-116.501	-0.419	-0.077
-439.778	-151.025	0.230	-0.017
-438.763	175.715	0.065	-0.093
-437.749	16.512	0.120	-0.094
-436.734	-7.754	-0.377	-0.253
-435.719	414.976	-0.094	0.199
-434.705	-200.000	-0.069	-0.403
-433.690	-200.000	0.013	-0.187
-432.676	48.172	0.143	-0.133
-431.661	-20.144	0.236	0.145
-430.646	-56.191	0.249	0.110
-429.632	-74.825	0.194	0.069
-428.617	302.024	-0.116	-0.214
-427.603	-115.872	-0.114	0.021
-426.588	-72.436	-0.266	-0.098
-425.573	800.000	0.100	0.310
-424.559	-73.763	0.126	0.046
-423.544	317.026	-0.172	0.323
-422.530	-200.000	-0.021	0.304
-421.515	161.891	-0.049	-0.069
-420.500	-200.000	0.019	-0.117
-419.486	-25.144	-0.237	-0.139
-418.471	-200.000	-0.043	0.450
-417.457	296.805	0.040	-0.074
-416.442	-99.536	0.111	-0.028
-415.428	86.124	-0.141	0.154
-414.413	-183.457	-0.225	0.004
-413.398	-161.036	0.233	0.012
-412.384	-122.177	0.239	-0.039
-411.369	-200.000	-0.083	0.425
-410.355	-27.838	-0.115	-0.066
-409.340	-107.495	0.155	-0.034
-408.325	-138.882	-0.135	0.015
-407.311	-91.395	-0.157	-0.045
-406.296	-128.583	0.116	0.016
-405.282	744.016	-0.067	-0.180
-404.267	470.267	-0.036	0.080
-403.252	-200.000	-0.039	0.360
-402.238	25.883	0.238	0.197
-401.223	-96.519	-0.239	-0.063
-400.209	100.176	-0.190	0.219
-399.194	-108.569	0.253	0.054
-398.179	12.059	0.012	0.009
-397.165	-45.520	0.222	-0.109
-396.150	-43.544	0.108	-0.054
-395.136	-200.000	0.096	0.424
-394.121	-200.000	-0.061	-0.285
-393.106	191.901	0.135	-0.201
-392.092	-200.000	-0.020	-0.151
-391.077	-86.578	0.248	-0.075
-390.063	61.339	0.416	-0.410
-389.048	26.451	-0.223	-0.185
-388.033	-106.634	-0.272	0.060
-387.019	-200.000	-0.093	-0.549
-386.004	-200.000	-0.006	-0.094
-384.990	-25.056	-0.072	0.043
-383.975	-108.157	0.215	0.046
-382.960	174.235	-0.093	0.133
-381.946	-200.000	0.011	-0.054
-380.931	292.377	0.184	-0.333
-379.917	-88.988	0.163	-0.048
-378.902	-139.464	-0.196	-0.021
-377.888	14.402	0.238	-0.184
-376.873	80.799	-0.135	-0.145
-375.858	-96.534	0.176	-0.046
-374.844	-119.661	-0.280	0.048
-373.829	-33.869	0.221	0.121
-372.815	-162.638	-0.336	0.016
-371.800	800.000	-0.080	-0.284
-370.785	-200.000	-0.047	0.278
-369.771	-110.070	0.166	-0.035
-368.756	-48.645	0.390	0.186
-367.742	-119.329	0.107	0.018
-366.727	-86.000	0.257	0.079
-365.712	668.304	0.030	-0.078
-364.698	35.768	0.149	0.130
-363.683	261.123	-0.171	0.293
-362.669	-72.396	0.174	0.064
-361.654	-78.657	-0.134	-0.045
-360.639	130.542	-0.153	0.194
-359.625	800.000	-0.093	0.273
-358.610	-162.072	-0.332	0.017
-357.596	13.743	0.340	-0.262
-356.581	421.512	-0.180	0.383
-355.566	-200.000	-0.024	0.181
-354.552	211.482	-0.058	0.090
-353.537	-85.535	-0.076	0.023
-352.523	-104.355	0.233	0.054
-351.508	-2.285	0.123	0.085
-350.493	-200.000	0.016	0.173
-349.479	192.206	0.123	0.184
-348.464	99.628	-0.053	0.061
-347.450	-111.726	0.292	-0.059
-346.435	-200.000	-0.011	-0.051
-345.420	-86.762	0.226	-0.069
-344.406	38.476	-0.264	-0.233
-343.391	800.000	-0.033	-0.093
-342.377	37.561	-0.144	0.127
-341.362	683.014	0.100	0.259
-340.348	74.646	0.213	0.222
-339.333	-11.256	0.084	0.055
-338.318	113.930	0.068	-0.082
-337.304	-99.357	0.084	0.021
-336.289	277.037	-0.085	0.150
-335.275	311.526	-0.154	0.286
-334.260	-40.572	0.038	0.020
-333.245	-200.000	-0.024	0.272
-332.231	53.694	-0.243	-0.231
-331.216	57.713	0.234	-0.227
-330.202	-200.000	0.039	-0.176
-329.187	800.000	-0.040	0.148
-328.172	-134.117	-0.093	0.011
-327.158	620.586	0.041	-0.102
-326.143	39.748	-0.257	0.228
-325.129	-133.154	-0.279	-0.035
-324.114	800.000	0.054	0.194
-323.099	-135.395	-0.154	-0.018
-322.085	-200.000	-0.038	-0.369
-321.070	103.436	-0.094	-0.109
-320.056	800.000	0.059	0.231
-319.041	800.000	0.112	0.328
-318.026	46.254	0.060	0.055
-317.012	-200.000	0.014	0.111
-315.997	144.731	0.248	0.328
-314.983	-200.000	0.009	-0.041
-313.968	532.104	-0.089	0.209
-312.953	298.198	0.201	-0.366
-311.939	2.028	-0.014	-0.010
-310.924	84.501	0.107	0.116
-309.910	800.000	-0.040	0.120
-308.895	-30.780	0.242	0.135
-307.880	800.000	0.082	-0.325
-306.866	89.570	0.274	-0.303
-305.851	213.827	0.070	-0.110
-304.837	800.000	-0.099	-0.318
-303.822	283.992	0.140	0.249
-302.807	800.000	-0.055	0.208
-301.793	-19.640	-0.132	0.081
-300.778	800.000	0.020	-0.074
-299.764	-200.000	0.016	0.125
-298.749	-52.734	0.152	0.070
-297.735	253.906	-0.084	-0.143
-296.720	-200.000	-0.021	0.116
-295.705	800.000	-0.076	-0.284
-294.691	-111.693	0.186	-0.037
-293.676	-200.000	-0.037	0.175
-292.662	-200.000	0.012	0.143
-291.647	800.000	-0.020	0.079
-290.632	117.842	-0.155	0.188
-289.618	-42.699	0.190	-0.096
-288.603	409.993	0.188	-0.394
-287.589	218.899	0.022	0.035
-286.574	-164.801	0.251	0.011
-285.559	-18.723	-0.178	0.110
-284.545	3.207	-0.156	0.112
-283.530	-159.869	-0.199	0.011
-282.516	245.653	0.317	0.528
-281.501	-144.818	-0.295	-0.027
-280.486	-95.834	-0.253	0.067
-279.472	-200.000	-0.024	-0.211
-278.457	288.644	-0.019	0.034
-277.443	-84.953	-0.128	0.040
-276.428	708.051	-0.080	0.210
-275.413	-128.804	0.141	-0.020
-274.399	-30.495	-0.034	0.019
-273.384	-94.771	-0.306	0.082
-272.370	343.595	-0.082	0.159
-271.355	104.666	-0.213	0.248
-270.340	-62.269	0.143	-0.059
-269.326	-144.114	-0.276	-0.026
-268.311	-189.262	0.214	-0.003
-267.297	-100.817	0.321	0.078
-266.282	20.269	-0.202	-0.161
-265.267	408.476	0.090	-0.187
-264.253	800.000	0.041	0.148
-263.238	361.378	0.070	-0.138
-262.224	-200.000	0.065	0.422
-261.209	-200.000	0.044	0.195
-260.195	181.198	-0.081	0.118
-259.180	-105.719	0.241	0.054
-258.165	218.054	-0.273	0.431
-257.151	191.110	0.116	-0.172
-256.136	-157.119	0.202	-0.012
-255.122	168.570	-0.103	0.145
-254.107	-73.656	-0.004	0.001
-253.092	-48.009	0.215	-0.103
-252.078	-200.000	0.008	0.061
-251.063	-165.767	-0.179	-0.008
-250.049	233.868	-0.125	-0.203
-249.034	-160.968	0.147	-0.008
-248.019	-200.000	0.015	-0.358
-247.005	-83.979	-0.213	0.067
-245.990	-31.406	0.124	-0.069
-244.976	-200.000	0.014	-0.219
-243.961	-34.798	0.089	0.048
-242.946	84.654	0.152	-0.164
-241.932	800.000	-0.037	0.154
-240.917	-47.394	-0.149	-0.071
-239.903	-28.808	-0.107	0.061
-238.888	-53.844	0.120	-0.054
-237.873	705.282	-0.091	0.236
-236.859	269.478	0.069	0.120
-235.844	87.356	0.209	-0.229
-234.830	-19.743	-0.096	-0.058
-233.815	92.130	0.435	-0.484
-232.800	130.834	-0.084	0.106
-231.786	-159.546	-0.344	0.019
-230.771	-168.111	0.314	-0.012
-229.757	252.335	-0.060	0.100
-228.742	64.994	0.160	0.159
-227.727	64.733	0.131	-0.130
-226.713	-84.511	-0.272	0.085
-225.698	13.428	-0.102	-0.078
-224.684	171.334	0.080	-0.113
-223.669	-162.342	-0.302	0.015
-222.655	198.851	-0.220	-0.333
-221.640	-38.973	-0.142	-0.074
-220.625	800.000	0.048	-0.185
-219.611	800.000	-0.032	0.107
-218.596	210.765	0.140	0.217
-217.582	143.571	0.100	-0.132
-216.567	120.708	0.260	-0.318
-215.552	-146.097	-0.209	-0.018
-214.538	45.991	-0.143	-0.130
-213.523	58.359	0.122	-0.118
-212.509	-59.445	-0.203	0.086
-211.494	8.138	-0.131	0.097
-210.479	-22.352	-0.293	0.175
-209.465	-77.658	0.243	0.083
-208.450	-200.000	-0.019	-0.177
-207.436	203.363	-0.214	-0.326
-206.421	800.000	-0.056	0.233
-205.406	-157.132	-0.215	0.013
-204.392	1.785	0.116	0.082
-203.377	800.000	0.016	0.050
-202.363	-47.791	0.226	0.108
-201.348	-200.000	-0.056	0.286
-200.333	-200.000	0.013	0.264
-199.319	-101.270	-0.366	-0.088
-198.304	-21.598	-0.207	-0.124
-197.290	313.033	-0.082	0.152
-196.275	800.000	-0.093	-0.302
-195.260	-5.683	-0.209	0.141
-194.246	27.333	-0.193	0.160
-193.231	34.005	0.050	-0.043
-192.217	-200.000	-0.043	-0.188
-191.202	-23.306	-0.351	-0.208
-190.187	-191.847	0.204	-0.002
-189.173	735.788	-0.108	0.286
-188.158	140.862	-0.136	-0.177
-187.144	-22.749	-0.046	-0.028
-186.129	-108.692	0.317	0.067
-185.114	-95.759	0.265	0.070
-184.100	157.465	0.118	-0.161
-183.085	42.934	0.132	0.119
-182.071	-64.670	0.254	-0.101
-181.056	508.286	-0.090	-0.207
-180.042	-200.000	0.284	0.001
-179.027	-200.000	-0.008	0.063
-178.012	-188.438	0.388	-0.005
-176.998	-171.323	-0.431	-0.014
-175.983	-65.131	0.581	-0.231
-174.969	800.000	0.036	0.131
-173.954	150.345	-0.296	0.396
-172.939	-200.000	0.068	0.324
-171.925	800.000	-0.045	-0.175
-170.910	-103.301	-0.183	0.042
-169.896	-200.000	0.027	-0.188
-168.881	-200.000	-0.049	-0.276
-167.866	-200.000	0.028	0.164
-166.852	445.089	-0.137	0.296
-165.837	243.138	0.132	-0.217
-164.823	780.980	-0.075	-0.203
-163.808	-109.377	-0.195	-0.041
-162.793	13.599	0.112	0.086
-161.779	-200.000	-0.000	0.195
-160.764	-96.193	-0.153	0.040
-159.750	-200.000	0.025	-0.220
-158.735	-83.451	0.319	0.101
-157.720	-133.800	-0.282	-0.035
-156.706	59.806	0.139	0.135
-155.691	114.784	0.078	0.094
-154.677	-120.470	-0.300	0.050
-153.662	244.614	0.059	-0.098
-152.647	63.897	0.065	-0.065
-151.633	-20.200	-0.211	0.128
-150.618	78.442	0.143	0.151
-149.604	244.185	-0.196	0.323
-148.589	5.522	0.124	-0.090
-147.574	800.000	-0.030	-0.113
-146.560	-22.260	-0.274	0.163
-145.545	-86.175	0.259	-0.079
-144.531	-200.000	-0.042	0.237
-143.516	-200.000	0.001	0.082
-142.502	-76.950	-0.120	0.041
-141.487	84.028	-0.101	-0.108
-140.472	226.551	-0.088	0.140
-139.458	380.270	0.126	-0.254
-138.443	-18.737	-0.271	0.166
-137.429	800.000	-0.052	0.141
-136.414	-200.000	0.019	-0.253
-135.399	-200.000	0.061	0.322
-134.385	347.524	0.163	0.316
-133.370	-200.000	-0.009	0.110
-132.356	-200.000	0.040	0.210
-131.341	202.203	-0.127	-0.192
-130.326	96.941	0.216	-0.243
-129.312	72.374	0.110	-0.112
-128.297	-45.059	0.010	0.005
-127.283	800.000	0.050	0.196
-126.268	-89.939	0.157	-0.045
-125.253	-116.482	-0.248	-0.045
-124.239	-200.000	0.036	0.279
-123.224	-87.367	0.501	-0.149
-122.210	11.765	0.020	0.015
-121.195	23.200	0.089	0.072
