DTS Sentinel unit serial number:	SN413079Multiplexer serial number:	ORYXHardware model number:	OX4-SRSoftware version number:	ORYX F/W v4.00 Oryx Data Collector v3.7.2.0data status	okinstallation	princeton_trtdifferential loss correction	single-endedforward channel	channel 2reverse channel	N/Adate	2019/09/17time	05:27:35forward acquisition time	60.00reverse acquisition time	0.00gamma	496.2192k internal	0.2329k external	0.2329temperature offset calibration	0.9976default loss term (dB/km)	0.3790temperature slope calibration	1.0000multiplexer offset coefficient	1.0000multiplexer slope coefficient	1.0000fibre end	0.00T internal ref (°C)	29.27T ext. ref 1 (°C)	0.14T ext. ref 2 (°C)	23.31length (m)	temperature (°C)	Stokes	anti-Stokes-747.200	74.305	0.145	-0.154
-746.185	-11.083	-0.285	0.189
-745.171	-161.416	0.408	-0.021
-744.156	-200.000	-0.020	0.235
-743.142	-2.127	0.202	0.143
-742.127	65.951	0.312	0.319
-741.112	-105.637	0.190	0.043
-740.098	147.807	0.102	-0.138
-739.083	-75.206	-0.041	-0.015
-738.069	152.536	0.283	0.389
-737.054	-200.000	-0.027	0.131
-736.039	-119.103	-0.267	-0.047
-735.025	-82.192	0.170	0.056
-734.010	-28.690	-0.392	0.227
-732.996	-200.000	-0.012	-0.252
-731.981	56.867	0.205	-0.202
-730.966	-157.904	0.172	0.010
-729.952	-55.147	-0.028	0.013
-728.937	139.905	-0.086	0.114
-727.923	-200.000	-0.012	0.090
-726.908	-109.270	-0.171	0.036
-725.894	-163.488	-0.207	-0.010
-724.879	-74.527	0.283	-0.103
-723.864	-91.774	-0.212	0.061
-722.850	-122.915	-0.079	-0.013
-721.835	800.000	-0.106	-0.343
-720.821	-36.165	-0.169	-0.092
-719.806	582.059	-0.031	0.077
-718.791	91.727	-0.102	0.116
-717.777	21.664	0.131	0.107
-716.762	70.427	0.182	0.189
-715.748	800.000	-0.116	-0.334
-714.733	626.666	0.068	0.173
-713.718	-35.797	-0.124	-0.068
-712.704	-36.467	-0.069	0.038
-711.689	7.078	-0.238	-0.179
-710.675	588.726	-0.081	0.201
-709.660	-96.956	0.110	0.029
-708.645	-35.645	0.368	-0.201
-707.631	-102.701	-0.148	-0.035
-706.616	-153.040	-0.321	-0.023
-705.602	800.000	-0.042	-0.138
-704.587	800.000	0.083	-0.274
-703.572	-200.000	-0.208	0.001
-702.558	-25.991	0.252	-0.149
-701.543	84.960	0.219	0.242
-700.529	119.745	-0.204	0.255
-699.514	406.234	0.109	0.232
-698.499	-75.739	-0.114	0.041
-697.485	443.913	-0.120	-0.264
-696.470	-200.000	-0.046	0.286
-695.456	800.000	-0.147	-0.597
-694.441	800.000	0.102	-0.318
-693.426	235.594	0.137	-0.228
-692.412	-118.873	0.161	-0.028
-691.397	800.000	-0.084	0.312
-690.383	-200.000	0.059	0.449
-689.368	310.287	-0.117	0.220
-688.354	-119.363	-0.328	-0.057
-687.339	-200.000	0.008	-0.140
-686.324	-77.023	0.537	0.188
-685.310	-118.115	-0.273	-0.049
-684.295	138.866	0.140	0.185
-683.281	66.268	-0.229	-0.233
-682.266	-48.646	-0.291	-0.140
-681.251	-89.366	0.314	-0.093
-680.237	-36.661	-0.246	0.133
-679.222	-200.000	-0.024	-0.142
-678.208	-59.228	-0.170	0.074
-677.193	-200.000	0.005	0.090
-676.178	-14.600	-0.186	-0.120
-675.164	-200.000	-0.024	-0.104
-674.149	-200.000	0.008	-0.375
-673.135	-58.402	-0.152	-0.066
-672.120	-200.000	-0.014	0.189
-671.105	-128.677	-0.189	0.027
-670.091	-194.260	-0.309	0.003
-669.076	-106.971	-0.284	0.063
-668.062	453.485	-0.170	-0.378
-667.047	800.000	-0.110	-0.312
-666.032	270.553	-0.050	-0.088
-665.018	-51.924	0.135	0.063
-664.003	-200.000	-0.001	0.106
-662.989	75.228	-0.241	-0.256
-661.974	-71.278	0.187	-0.071
-660.959	-158.593	-0.073	-0.004
-659.945	99.712	-0.059	-0.069
-658.930	-153.089	0.272	0.019
-657.916	-72.033	0.081	0.030
-656.901	-200.000	0.029	0.132
-655.886	45.885	0.160	0.148
-654.872	437.573	0.074	-0.163
-653.857	-200.000	0.015	0.107
-652.843	-85.718	-0.273	0.085
-651.828	-200.000	-0.008	-0.096
-650.814	-19.108	-0.249	-0.155
-649.799	189.842	0.082	-0.123
-648.784	-200.000	0.028	0.215
-647.770	-152.545	-0.591	0.042
-646.755	167.629	0.090	0.129
-645.741	127.118	0.053	0.068
-644.726	81.574	0.159	0.172
-643.711	-172.182	0.234	-0.008
-642.697	-50.937	0.145	0.068
-641.682	-9.157	-0.235	-0.158
-640.668	-19.681	-0.105	0.065
-639.653	9.817	-0.424	0.323
-638.638	-159.031	-0.194	0.011
-637.624	158.362	-0.067	0.094
-636.609	-200.000	0.048	0.254
-635.595	-99.750	0.439	-0.110
-634.580	255.169	-0.213	-0.366
-633.565	0.956	-0.073	-0.053
-632.551	-61.865	0.166	0.069
-631.536	800.000	-0.030	0.110
-630.522	446.715	0.057	0.126
-629.507	-149.241	0.326	-0.026
-628.492	-200.000	0.006	-0.078
-627.478	0.495	-0.157	-0.113
-626.463	305.943	0.071	0.133
-625.449	-67.817	0.092	-0.036
-624.434	-13.830	0.155	0.101
-623.419	-19.243	-0.074	-0.046
-622.405	141.543	-0.164	0.217
-621.390	103.844	0.260	0.306
-620.376	800.000	-0.084	0.278
-619.361	-200.000	-0.005	0.126
-618.346	58.850	0.148	0.146
-617.332	128.768	-0.273	-0.349
-616.317	-178.939	0.225	0.005
-615.303	788.385	-0.063	0.173
-614.288	-76.541	0.418	-0.147
-613.273	-138.711	-0.130	-0.014
-612.259	-31.406	-0.259	-0.146
-611.244	162.815	0.134	-0.189
-610.230	263.205	0.069	0.120
-609.215	-2.643	-0.106	0.074
-608.201	-200.000	0.016	-0.112
-607.186	30.774	-0.190	-0.163
-606.171	12.518	-0.314	0.243
-605.157	800.000	-0.050	0.160
-604.142	-62.842	0.205	-0.085
-603.128	72.855	-0.051	-0.053
-602.113	-128.508	-0.232	0.033
-601.098	5.346	-0.214	-0.158
-600.084	-86.494	0.246	0.076
-599.069	-39.473	0.143	-0.075
-598.055	138.488	-0.179	-0.235
-597.040	-200.000	-0.007	-0.054
-596.025	-112.907	-0.180	-0.036
-595.011	-31.750	-0.091	-0.051
-593.996	-111.063	-0.185	-0.038
-592.982	-200.000	0.002	-0.305
-591.967	25.512	0.252	-0.210
-590.952	-200.000	-0.020	-0.345
-589.938	572.479	-0.093	0.226
-588.923	-167.528	-0.104	0.004
-587.909	-103.248	0.060	-0.014
-586.894	140.801	0.230	-0.305
-585.879	162.274	-0.090	0.126
-584.865	-146.755	0.050	-0.004
-583.850	630.834	-0.117	0.297
-582.836	800.000	-0.064	-0.179
-581.821	-57.569	-0.085	-0.037
-580.806	324.503	0.069	0.131
-579.792	734.425	0.088	-0.235
-578.777	-142.432	0.197	-0.019
-577.763	281.534	0.136	-0.244
-576.748	-23.359	-0.131	-0.079
-575.733	-200.000	0.063	-0.380
-574.719	51.274	0.153	0.146
-573.704	84.422	0.178	-0.195
-572.690	46.444	-0.186	-0.173
-571.675	800.000	-0.026	0.098
-570.661	-200.000	0.015	-0.252
-569.646	-96.878	0.223	0.059
-568.631	140.985	-0.178	-0.236
-567.617	-8.299	0.361	-0.243
-566.602	-200.000	-0.003	-0.107
-565.588	363.847	-0.104	-0.210
-564.573	475.894	-0.219	0.495
-563.558	800.000	0.013	0.053
-562.544	-200.000	0.008	-0.277
-561.529	183.487	-0.060	0.089
-560.515	30.470	-0.097	0.083
-559.500	-200.000	0.020	-0.176
-558.485	-57.476	-0.283	0.124
-557.471	800.000	-0.091	-0.381
-556.456	15.297	-0.233	0.183
-555.442	-87.759	0.244	-0.074
-554.427	-91.362	0.199	-0.057
-553.412	391.687	-0.189	-0.392
-552.398	348.808	0.129	-0.255
-551.383	-91.446	0.103	-0.029
-550.369	-56.244	-0.087	0.039
-549.354	67.708	0.092	-0.094
-548.339	359.542	-0.037	0.074
-547.325	-6.951	-0.064	-0.043
-546.310	800.000	-0.031	0.117
-545.296	39.926	0.049	0.044
-544.281	478.575	0.062	-0.139
-543.266	-136.583	0.143	-0.017
-542.252	56.981	0.222	-0.217
-541.237	800.000	0.091	0.365
-540.223	-52.765	-0.151	0.070
-539.208	800.000	-0.091	-0.280
-538.193	-96.974	-0.360	0.094
-537.179	-26.803	-0.461	0.269
-536.164	-15.445	0.168	0.108
-535.150	275.543	0.027	-0.048
-534.135	17.945	0.264	-0.210
-533.121	-113.574	-0.023	0.005
-532.106	176.979	-0.186	0.270
-531.091	-200.000	0.039	0.173
-530.077	800.000	-0.047	0.167
-529.062	168.967	0.095	-0.135
-528.048	-110.821	-0.370	0.076
-527.033	712.191	-0.121	0.320
-526.018	800.000	0.128	0.387
-525.004	-127.055	-0.317	0.046
-523.989	-120.874	-0.205	-0.034
-522.975	336.909	0.081	-0.157
-521.960	-200.000	-0.008	0.104
-520.945	-48.165	0.184	0.088
-519.931	72.455	0.076	-0.079
-518.916	-93.820	0.223	-0.061
-517.902	800.000	0.035	-0.109
-516.887	533.290	-0.098	-0.233
-515.872	86.009	0.141	-0.155
-514.858	169.385	-0.135	0.192
-513.843	-143.987	0.062	0.006
-512.829	-200.000	0.065	-0.543
-511.814	-83.747	0.315	0.100
-510.799	-200.000	-0.090	-0.442
-509.785	68.336	-0.313	0.321
-508.770	-64.148	-0.195	0.079
-507.756	-41.090	-0.245	-0.126
-506.741	51.759	-0.359	-0.341
-505.726	-10.317	0.040	-0.027
-504.712	112.169	0.101	0.122
-503.697	-66.577	-0.419	-0.166
-502.683	-175.018	0.211	-0.006
-501.668	42.694	-0.065	-0.059
-500.653	172.300	-0.093	0.134
-499.639	145.348	0.075	0.100
-498.624	-200.000	-0.005	-0.445
-497.610	116.993	0.269	-0.330
-496.595	-200.000	-0.001	0.064
-495.581	1.100	0.196	0.140
-494.566	-200.000	0.024	-0.147
-493.551	-20.442	-0.218	0.134
-492.537	-121.563	-0.265	0.044
-491.522	358.749	-0.088	-0.175
-490.508	-65.615	-0.142	-0.057
-489.493	-101.405	-0.470	-0.114
-488.478	-42.444	-0.046	-0.023
-487.464	188.036	-0.200	0.298
-486.449	53.524	-0.316	0.302
-485.435	217.436	0.179	-0.284
-484.420	-200.000	0.038	0.374
-483.405	-169.156	-0.216	-0.008
-482.391	-94.877	0.049	0.013
-481.376	228.857	0.083	-0.135
-480.362	-28.743	-0.576	0.330
-479.347	-35.104	-0.286	-0.155
-478.332	599.002	-0.055	-0.136
-477.318	800.000	0.046	-0.154
-476.303	256.293	0.139	0.239
-475.289	-92.666	0.361	-0.101
-474.274	-200.000	0.019	0.111
-473.259	37.844	-0.099	0.087
-472.245	278.319	-0.189	-0.335
-471.230	-137.065	-0.095	0.011
-470.216	-200.000	-0.075	0.394
-469.201	15.476	-0.126	-0.099
-468.186	-200.000	-0.028	-0.134
-467.172	-200.000	-0.029	0.145
-466.157	-59.206	0.188	0.081
-465.143	-55.310	0.131	-0.059
-464.128	230.367	-0.102	-0.166
-463.113	800.000	-0.090	0.326
-462.099	676.617	-0.074	0.192
-461.084	38.521	-0.109	-0.097
-460.070	-116.031	0.188	0.035
-459.055	-45.050	0.169	-0.084
-458.040	95.290	0.107	-0.121
-457.026	-18.235	0.092	-0.057
-456.011	800.000	0.067	0.207
-454.997	-200.000	-0.050	-0.306
-453.982	-113.407	0.293	0.057
-452.968	-200.000	-0.039	0.327
-451.953	-200.000	0.007	0.057
-450.938	-60.829	-0.092	-0.039
-449.924	34.901	0.132	-0.115
-448.909	285.716	0.194	0.349
-447.895	-162.349	0.145	0.007
-446.880	-200.000	-0.012	-0.097
-445.865	72.013	-0.184	-0.191
-444.851	800.000	-0.082	0.328
-443.836	-15.378	-0.256	0.163
-442.822	-200.000	-0.000	-0.521
-441.807	800.000	-0.066	-0.233
-440.792	-200.000	-0.031	0.171
-439.778	130.610	0.159	0.203
-438.763	-161.799	-0.273	0.014
-437.749	693.893	0.016	-0.043
-436.734	-39.437	-0.177	-0.092
-435.719	78.234	0.179	0.190
-434.705	100.025	0.261	0.301
-433.690	-200.000	0.009	0.197
-432.676	-109.729	-0.270	-0.057
-431.661	-117.310	0.156	0.028
-430.646	-14.789	-0.165	0.105
-429.632	800.000	-0.080	0.316
-428.617	-200.000	0.029	-0.149
-427.603	-200.000	-0.011	-0.165
-426.588	15.487	-0.132	0.103
-425.573	-200.000	0.032	-0.146
-424.559	231.690	-0.143	-0.233
-423.544	99.308	-0.091	-0.104
-422.530	-89.020	-0.151	0.045
-421.515	61.127	0.093	0.092
-420.500	-167.847	-0.454	-0.018
-419.486	-200.000	-0.027	-0.150
-418.471	210.580	-0.016	0.026
-417.457	50.272	0.053	-0.050
-416.442	-160.885	0.136	-0.007
-415.428	49.364	-0.334	0.312
-414.413	245.193	0.054	0.090
-413.398	-131.728	0.128	0.017
-412.384	-115.838	-0.045	-0.008
-411.369	-46.965	0.197	-0.096
-410.355	-103.288	0.123	0.029
-409.340	275.860	0.046	0.081
-408.325	-47.550	0.142	0.069
-407.311	-104.159	0.292	-0.068
-406.296	-88.157	0.222	-0.066
-405.282	-200.000	0.002	0.097
-404.267	436.966	0.128	0.276
-403.252	-200.000	-0.050	-0.294
-402.238	376.285	0.074	-0.150
-401.223	-200.000	-0.048	-0.353
-400.209	800.000	-0.061	-0.182
-399.194	25.754	0.128	-0.106
-398.179	800.000	-0.022	-0.074
-397.165	-111.522	0.085	0.017
-396.150	432.020	-0.007	0.014
-395.136	-31.799	0.118	-0.066
-394.121	-42.982	-0.051	-0.026
-393.106	-200.000	0.029	-0.228
-392.092	14.842	0.242	0.188
-391.077	-66.625	-0.339	0.134
-390.063	-50.509	-0.149	0.070
-389.048	297.645	0.096	0.174
-388.033	11.109	0.159	0.121
-387.019	-29.930	-0.232	-0.132
-386.004	800.000	0.118	-0.434
-384.990	396.335	0.107	-0.222
-383.975	-200.000	0.004	-0.254
-382.960	264.974	-0.045	-0.078
-381.946	739.800	-0.090	0.240
-380.931	-135.829	-0.176	-0.021
-379.917	20.198	0.134	-0.107
-378.902	21.553	0.088	-0.071
-377.888	322.047	0.105	0.198
-376.873	-200.000	0.009	-0.053
-375.858	-146.505	-0.115	0.010
-374.844	172.363	0.037	-0.052
-373.829	-146.890	-0.021	-0.002
-372.815	-134.094	0.164	0.020
-371.800	76.953	0.228	0.240
-370.785	197.794	0.101	0.153
-369.771	181.369	0.069	0.101
-368.756	-66.080	-0.214	-0.085
-367.742	-19.464	0.117	-0.072
-366.727	800.000	-0.099	0.388
-365.712	32.559	-0.202	-0.173
-364.698	7.493	0.418	-0.310
-363.683	-57.373	-0.149	0.065
-362.669	210.357	0.114	0.178
-361.654	800.000	-0.082	-0.235
-360.639	43.737	-0.005	-0.005
-359.625	-42.820	-0.260	-0.131
-358.610	522.145	0.154	0.358
-357.596	530.187	-0.143	-0.336
-356.581	69.434	0.135	-0.138
-355.566	-83.534	0.289	-0.092
-354.552	-200.000	-0.018	0.164
-353.537	150.856	-0.202	0.272
-352.523	800.000	-0.095	0.314
-351.508	-142.129	-0.383	-0.038
-350.493	-139.289	0.375	-0.040
-349.479	-167.486	-0.348	-0.014
-348.464	-101.202	0.101	0.025
-347.450	-71.753	0.294	-0.109
-346.435	45.973	0.068	-0.062
-345.420	800.000	-0.094	0.358
-344.406	162.235	-0.083	0.115
-343.391	-165.385	0.263	0.011
-342.377	410.955	-0.136	0.285
-341.362	-200.000	-0.052	0.292
-340.348	-51.318	0.245	-0.114
-339.333	341.388	-0.138	-0.268
-338.318	-200.000	-0.084	0.376
-337.304	546.632	0.080	0.191
-336.289	73.031	0.249	0.258
-335.275	449.785	-0.051	-0.113
-334.260	-159.486	0.069	-0.004
-333.245	-119.636	0.308	-0.053
-332.231	97.131	-0.066	-0.075
-331.216	-200.000	0.013	0.137
-330.202	-48.499	-0.224	-0.107
-329.187	-152.370	-0.112	0.008
-328.172	-87.605	0.127	0.038
-327.158	-200.000	0.031	-0.341
-326.143	-133.488	-0.096	-0.012
-325.129	-53.479	0.065	-0.030
-324.114	254.615	0.119	0.201
-323.099	568.046	0.035	-0.085
-322.085	181.581	0.110	-0.160
-321.070	52.916	0.119	-0.113
-320.056	-200.000	-0.040	0.205
-319.041	-62.286	0.174	-0.072
-318.026	-28.784	0.242	0.138
-317.012	-5.485	0.207	0.141
-315.997	-15.008	-0.137	0.087
-314.983	-200.000	-0.081	0.413
-313.968	-73.663	0.328	-0.118
-312.953	-200.000	0.012	0.338
-311.939	-27.239	-0.076	0.044
-310.924	56.462	0.144	0.138
-309.910	800.000	-0.041	0.175
-308.895	-200.000	0.033	-0.189
-307.880	-200.000	0.024	0.122
-306.866	2.821	-0.169	-0.122
-305.851	800.000	-0.081	0.334
-304.837	77.047	0.201	-0.211
-303.822	50.602	0.117	0.109
-302.807	800.000	0.036	-0.115
-301.793	43.012	-0.071	-0.064
-300.778	-157.588	0.148	0.009
-299.764	-200.000	0.015	-0.173
-298.749	-26.482	-0.116	0.067
-297.735	800.000	-0.032	0.089
-296.720	-108.940	-0.265	-0.056
-295.705	-200.000	-0.008	0.076
-294.691	-63.200	0.292	-0.119
-293.676	-200.000	0.013	-0.415
-292.662	79.745	0.203	-0.216
-291.647	93.840	-0.290	0.325
-290.632	-18.629	0.340	0.210
-289.618	-61.398	0.030	-0.013
-288.603	-46.764	0.141	-0.069
-287.589	338.868	0.240	0.463
-286.574	521.434	-0.165	0.382
-285.559	800.000	-0.025	-0.077
-284.545	489.938	0.126	0.284
-283.530	54.072	-0.178	0.170
-282.516	-1.737	0.250	-0.174
-281.501	-127.846	-0.163	0.023
-280.486	-200.000	-0.010	0.310
-279.472	-119.178	0.092	0.016
-278.457	-77.896	0.137	0.047
-277.443	-121.302	-0.296	0.049
-276.428	39.848	0.153	0.136
-275.413	43.360	-0.154	-0.139
-274.399	630.697	0.047	0.118
-273.384	-200.000	0.004	-0.290
-272.370	-1.462	-0.291	-0.203
-271.355	113.029	-0.216	-0.259
-270.340	600.918	-0.056	0.138
-269.326	20.622	0.317	-0.253
-268.311	-115.188	0.495	0.093
-267.297	646.086	-0.047	-0.119
-266.282	-107.053	-0.109	-0.024
-265.267	-177.154	-0.045	0.001
-264.253	-200.000	-0.060	0.422
-263.238	36.000	-0.218	-0.190
-262.224	-200.000	0.011	-0.094
-261.209	-200.000	-0.022	0.270
-260.195	134.322	-0.226	0.290
-259.180	597.885	0.072	-0.176
-258.165	168.717	0.203	-0.286
-257.151	41.841	-0.252	-0.226
-256.136	83.969	0.085	0.091
-255.122	-200.000	-0.004	-0.113
-254.107	105.358	-0.074	0.087
-253.092	-176.688	-0.226	-0.006
-252.078	38.621	0.245	-0.216
-251.063	180.458	-0.048	0.070
-250.049	-152.246	-0.245	0.018
-249.034	170.303	-0.103	0.146
-248.019	-61.524	0.052	0.022
-247.005	327.317	0.135	0.255
-245.990	-0.385	0.242	-0.170
-244.976	-7.954	0.146	0.097
-243.961	-166.333	0.271	0.011
-242.946	44.275	0.220	-0.199
-241.932	-45.389	0.401	0.197
-240.917	-200.000	-0.001	-0.109
-239.903	347.880	0.085	0.165
-238.888	-160.396	0.161	0.009
-237.873	-101.327	0.443	0.107
-236.859	-1.963	-0.253	-0.176
-235.844	-71.764	0.178	0.065
-234.830	-200.000	0.010	-0.228
-233.815	-143.426	0.225	-0.021
-232.800	687.845	0.041	0.106
-231.786	116.252	0.054	-0.065
-230.771	47.226	-0.153	-0.141
-229.757	634.083	0.078	-0.196
-228.742	-6.636	-0.233	0.157
-227.727	83.302	0.085	-0.092
-226.713	-45.348	0.103	0.051
-225.698	218.293	-0.228	0.359
-224.684	40.795	0.093	-0.083
-223.669	800.000	0.041	-0.128
-222.655	-200.000	0.045	-0.320
-221.640	-8.123	-0.351	-0.233
-220.625	-30.577	0.192	0.107
-219.611	99.303	-0.080	-0.091
-218.596	800.000	0.067	-0.230
-217.582	149.254	0.053	-0.070
-216.567	-19.069	0.252	0.154
-215.552	471.836	0.203	0.451
-214.538	-200.000	0.021	0.106
-213.523	-139.917	-0.232	0.024
-212.509	-132.128	0.163	-0.021
-211.494	-200.000	0.023	0.228
-210.479	-200.000	-0.015	0.252
-209.465	56.372	0.183	0.175
-208.450	-40.607	0.228	0.117
-207.436	-100.225	-0.176	0.043
-206.421	-200.000	-0.050	0.249
-205.406	103.878	0.129	-0.149
-204.392	52.827	0.114	0.107
-203.377	800.000	-0.049	0.189
-202.363	-104.566	-0.186	0.042
-201.348	-4.344	0.142	0.097
-200.333	162.019	-0.150	0.207
-199.319	298.639	0.169	-0.306
-198.304	-127.474	-0.062	0.009
-197.290	-185.917	-0.376	0.005
-196.275	-173.675	-0.381	-0.011
-195.260	475.576	0.090	-0.201
-194.246	-136.048	0.074	0.009
-193.231	800.000	0.115	0.456
-192.217	334.024	0.081	-0.155
-191.202	-151.575	0.205	-0.015
-190.187	35.525	-0.100	-0.086
-189.173	-4.502	-0.336	0.229
-188.158	-123.886	0.136	-0.021
-187.144	776.609	0.076	-0.206
-186.129	147.836	-0.075	0.099
-185.114	-15.970	0.306	0.192
-184.100	76.685	-0.143	-0.149
-183.085	32.024	0.181	-0.154
-182.071	7.291	-0.384	-0.282
-181.056	-82.350	0.237	0.076
-180.042	-122.414	-0.167	-0.027
-179.027	-86.534	0.099	-0.030
-178.012	-110.585	0.163	-0.033
-176.998	-200.000	-0.219	-0.000
-175.983	-68.675	-0.122	-0.046
-174.969	-200.000	0.009	0.119
-173.954	-93.922	-0.212	0.057
-172.939	-114.970	0.146	-0.027
-171.925	-79.068	-0.065	-0.022
-170.910	-38.516	-0.093	-0.048
-169.896	-200.000	-0.002	-0.181
-168.881	-200.000	-0.021	-0.270
-167.866	145.397	0.047	-0.062
-166.852	-200.000	0.011	0.059
-165.837	-200.000	-0.002	-0.050
-164.823	-60.509	0.214	-0.090
-163.808	-43.155	-0.108	-0.054
-162.793	104.586	0.016	-0.018
-161.779	-200.000	-0.088	-0.403
-160.764	124.179	0.357	-0.442
-159.750	-150.465	0.192	-0.014
-158.735	-141.082	-0.650	0.065
-157.720	14.912	-0.067	-0.051
-156.706	-79.457	-0.193	0.064
-155.691	-118.731	0.255	-0.044
-154.677	800.000	-0.029	-0.100
-153.662	-200.000	-0.005	0.189
-152.647	213.111	-0.103	0.160
-151.633	4.074	-0.088	0.063
-150.618	-66.362	0.300	0.117
-149.604	646.964	-0.101	-0.253
-148.589	46.730	0.369	-0.337
-147.574	-100.381	0.119	0.029
-146.560	560.631	-0.014	0.032
-145.545	-2.102	0.057	-0.040
-144.531	149.091	0.150	-0.199
-143.516	132.084	0.128	0.163
-142.502	51.775	0.072	-0.067
-141.487	-200.000	0.003	0.040
-140.472	-30.151	0.243	0.136
-139.458	-74.336	0.174	0.062
-138.443	140.687	0.207	-0.268
-137.429	-155.061	-0.284	0.018
-136.414	-200.000	-0.036	0.209
-135.399	-91.371	-0.151	0.042
-134.385	-200.000	-0.025	0.178
-133.370	-200.000	-0.002	-0.012
-132.356	95.796	-0.144	-0.161
-131.341	-160.726	-0.365	-0.019
-130.326	186.192	-0.047	-0.068
-129.312	-98.457	0.359	0.090
-128.297	281.121	-0.086	0.151
-127.283	86.633	0.212	0.230
-126.268	379.206	0.157	0.316
-125.253	-90.547	0.409	0.116
-124.239	187.195	0.115	0.168
-123.224	372.490	0.155	-0.310
-122.210	-200.000	-0.022	0.109
