DTS Sentinel unit serial number:	SN413079Multiplexer serial number:	ORYXHardware model number:	OX4-SRSoftware version number:	ORYX F/W v4.00 Oryx Data Collector v3.7.2.0data status	okinstallation	princeton_trtdifferential loss correction	single-endedforward channel	channel 2reverse channel	N/Adate	2019/09/12time	07:09:10forward acquisition time	60.00reverse acquisition time	0.00gamma	496.2192k internal	0.2324k external	0.2324temperature offset calibration	1.0064default loss term (dB/km)	0.3790temperature slope calibration	1.0000multiplexer offset coefficient	1.0000multiplexer slope coefficient	1.0000fibre end	0.00T internal ref (°C)	32.19T ext. ref 1 (°C)	1.61T ext. ref 2 (°C)	27.79length (m)	temperature (°C)	Stokes	anti-Stokes-747.200	800.000	0.026	-0.103
-746.185	-200.000	0.017	0.426
-745.171	-30.968	-0.055	0.031
-744.156	-86.209	-0.141	-0.044
-743.142	-200.000	-0.000	-0.039
-742.127	-75.777	-0.256	-0.092
-741.112	469.527	-0.014	0.031
-740.098	-41.474	0.288	0.149
-739.083	49.197	0.193	0.183
-738.069	-200.000	0.009	-0.058
-737.054	30.401	-0.084	-0.072
-736.039	-87.475	0.174	-0.053
-735.025	231.268	-0.221	0.365
-734.010	-142.529	-0.274	0.027
-732.996	-200.000	-0.059	-0.303
-731.981	-195.938	-0.443	-0.003
-730.966	486.838	-0.158	-0.364
-729.952	-32.656	-0.271	-0.152
-728.937	-188.295	-0.195	-0.002
-727.923	-200.000	-0.000	-0.204
-726.908	-112.212	-0.120	-0.024
-725.894	78.562	-0.150	0.162
-724.879	-147.595	-0.473	-0.040
-723.864	800.000	0.106	0.314
-722.850	318.250	0.096	-0.183
-721.835	-200.000	-0.047	-0.508
-720.821	-111.791	-0.198	-0.040
-719.806	-141.398	-0.217	0.022
-718.791	-22.206	-0.257	0.157
-717.777	93.131	0.096	-0.110
-716.762	332.320	-0.035	0.068
-715.748	-131.404	0.408	-0.054
-714.733	372.784	0.023	-0.046
-713.718	19.672	-0.182	0.147
-712.704	-200.000	0.009	-0.130
-711.689	121.549	-0.008	0.009
-710.675	-13.630	-0.079	-0.052
-709.660	584.872	0.026	-0.064
-708.645	800.000	0.178	-0.524
-707.631	-86.874	0.128	-0.039
-706.616	-80.974	0.129	0.043
-705.602	-87.975	-0.339	0.103
-704.587	-200.000	0.003	-0.513
-703.572	11.458	0.238	0.184
-702.558	-72.171	-0.252	-0.094
-701.543	-200.000	0.047	0.275
-700.529	-69.205	-0.134	0.052
-699.514	8.116	0.119	0.090
-698.499	-200.000	-0.025	0.125
-697.485	800.000	-0.099	0.302
-696.470	137.151	0.313	-0.412
-695.456	-200.000	-0.024	-0.330
-694.441	-200.000	0.036	-0.436
-693.426	-80.353	-0.053	-0.018
-692.412	-66.011	-0.232	-0.093
-691.397	-30.680	0.151	0.086
-690.383	-200.000	-0.021	0.146
-689.368	800.000	-0.119	-0.346
-688.354	347.738	0.067	0.134
-687.339	60.189	-0.301	-0.299
-686.324	-33.780	-0.178	-0.099
-685.310	1.314	-0.185	-0.134
-684.295	127.343	-0.087	0.111
-683.281	-54.068	0.122	-0.056
-682.266	-200.000	0.039	0.281
-681.251	-153.527	0.050	-0.003
-680.237	23.832	-0.241	-0.200
-679.222	-24.513	-0.147	-0.088
-678.208	-20.894	-0.082	0.050
-677.193	-166.383	-0.296	-0.013
-676.178	5.736	0.340	-0.253
-675.164	16.634	-0.291	0.231
-674.149	-134.302	-0.100	0.012
-673.135	-200.000	0.062	-0.482
-672.120	-19.984	-0.200	-0.125
-671.105	-79.775	-0.235	0.080
-670.091	-200.000	-0.036	-0.199
-669.076	-110.685	-0.452	-0.094
-668.062	124.763	0.129	-0.163
-667.047	800.000	0.040	0.159
-666.032	-64.962	-0.417	0.170
-665.018	-200.000	-0.017	0.266
-664.003	210.985	-0.145	-0.229
-662.989	187.279	0.154	0.231
-661.974	-108.404	-0.255	-0.055
-660.959	800.000	-0.065	-0.237
-659.945	-158.883	0.076	0.004
-658.930	-15.757	-0.125	-0.080
-657.916	-100.668	-0.447	-0.111
-656.901	-35.353	0.206	-0.113
-655.886	413.046	-0.067	-0.144
-654.872	800.000	-0.081	0.289
-653.857	-126.794	0.390	0.058
-652.843	-134.638	0.094	-0.011
-651.828	28.142	-0.123	-0.104
-650.814	75.745	-0.123	0.131
-649.799	-127.506	0.318	0.046
-648.784	354.422	0.122	-0.244
-647.770	-88.749	-0.443	-0.132
-646.755	-126.050	0.239	0.036
-645.741	-200.000	0.056	0.323
-644.726	2.050	-0.033	0.024
-643.711	498.834	-0.090	-0.208
-642.697	-39.226	0.112	-0.059
-641.682	30.736	0.289	0.249
-640.668	56.050	0.262	-0.256
-639.653	-109.913	0.151	-0.032
-638.638	-64.109	-0.205	-0.084
-637.624	800.000	-0.053	0.177
-636.609	-3.929	-0.146	0.102
-635.595	-129.584	-0.014	-0.002
-634.580	-45.400	-0.183	-0.091
-633.565	-38.711	-0.121	-0.064
-632.551	-200.000	-0.018	0.100
-631.536	-108.639	0.268	-0.058
-630.522	32.619	-0.147	-0.128
-629.507	-69.527	0.191	0.074
-628.492	800.000	-0.039	-0.118
-627.478	-200.000	-0.016	0.103
-626.463	133.155	-0.137	0.178
-625.449	-151.989	-0.168	0.012
-624.434	7.838	0.228	0.172
-623.419	-49.147	-0.141	-0.068
-622.405	-4.006	0.115	0.080
-621.390	-62.072	0.174	-0.073
-620.376	338.813	0.038	0.074
-619.361	-84.197	-0.230	0.073
-618.346	-200.000	0.010	-0.240
-617.332	78.563	0.251	-0.270
-616.317	425.066	-0.089	0.193
-615.303	-58.974	-0.060	-0.026
-614.288	351.313	0.089	-0.178
-613.273	756.398	-0.072	0.196
-612.259	13.426	-0.158	0.123
-611.244	-200.000	-0.017	-0.360
-610.230	-173.473	-0.330	-0.010
-609.215	0.067	-0.392	-0.281
-608.201	-71.032	-0.351	0.133
-607.186	800.000	-0.035	0.124
-606.171	-200.000	0.015	0.235
-605.157	-200.000	0.039	0.278
-604.142	-150.753	0.349	-0.027
-603.128	-60.728	0.244	0.104
-602.113	-200.000	0.025	0.364
-601.098	800.000	-0.042	-0.177
-600.084	-137.639	-0.175	-0.020
-599.069	309.157	-0.035	0.066
-598.055	-151.715	0.197	-0.015
-597.040	-200.000	-0.064	0.373
-596.025	77.371	-0.136	-0.145
-595.011	-200.000	-0.029	-0.228
-593.996	-59.114	0.359	-0.155
-592.982	301.085	-0.090	0.167
-591.967	111.947	-0.028	0.034
-590.952	51.758	0.184	-0.176
-589.938	64.976	0.182	0.185
-588.923	4.657	-0.194	-0.143
-587.909	219.517	0.005	-0.009
-586.894	294.906	-0.205	-0.376
-585.879	-200.000	-0.024	-0.188
-584.865	9.080	-0.032	-0.024
-583.850	800.000	0.076	-0.258
-582.836	-94.997	0.447	0.121
-581.821	33.134	-0.118	0.103
-580.806	-200.000	0.055	-0.249
-579.792	181.259	0.039	-0.057
-578.777	611.411	0.008	-0.019
-577.763	-91.892	0.147	-0.042
-576.748	517.752	0.089	-0.210
-575.733	-73.000	0.375	0.138
-574.719	117.422	0.077	-0.095
-573.704	-105.313	0.087	0.020
-572.690	-173.898	0.254	-0.008
-571.675	412.765	-0.059	-0.126
-570.661	-167.476	0.234	0.009
-569.646	800.000	-0.044	-0.158
-568.631	-200.000	-0.028	-0.418
-567.617	164.918	-0.135	-0.192
-566.602	-63.897	-0.169	-0.069
-565.588	141.444	-0.105	-0.139
-564.573	37.823	-0.044	0.039
-563.558	145.637	-0.287	0.386
-562.544	-8.145	0.125	0.084
-561.529	-85.308	-0.346	-0.108
-560.515	-200.000	0.054	0.252
-559.500	-37.859	-0.354	-0.189
-558.485	-16.405	0.248	-0.158
-557.471	549.481	0.184	-0.443
-556.456	109.064	-0.132	-0.158
-555.442	-46.720	-0.315	-0.155
-554.427	275.612	0.236	0.420
-553.412	36.180	0.067	-0.059
-552.398	0.323	0.282	-0.202
-551.383	274.008	0.182	0.323
-550.369	800.000	0.047	0.190
-549.354	407.235	-0.093	-0.197
-548.339	144.207	-0.209	-0.279
-547.325	38.614	-0.166	0.148
-546.310	-101.250	0.050	0.012
-545.296	664.645	-0.091	0.236
-544.281	113.745	0.133	0.162
-543.266	-55.263	-0.276	0.124
-542.252	406.224	0.108	-0.227
-541.237	-131.331	0.074	-0.010
-540.223	155.084	-0.238	-0.328
-539.208	-41.741	0.283	-0.146
-538.193	287.808	-0.099	-0.179
-537.179	-200.000	-0.010	-0.143
-536.164	175.109	-0.113	-0.164
-535.150	-55.871	-0.156	0.070
-534.135	-200.000	0.041	0.201
-533.121	51.808	-0.122	0.116
-532.106	121.386	-0.101	-0.126
-531.091	31.362	0.298	-0.256
-530.077	63.801	-0.140	0.140
-529.062	-122.398	0.199	0.032
-528.048	-200.000	-0.012	0.175
-527.033	-101.729	0.164	-0.040
-526.018	-200.000	-0.005	0.189
-525.004	-47.927	-0.380	0.184
-523.989	-200.000	-0.070	-0.380
-522.975	-73.565	-0.123	-0.045
-521.960	478.473	-0.221	0.500
-520.945	-118.580	0.594	0.105
-519.931	133.480	-0.157	-0.203
-518.916	-57.270	-0.069	0.030
-517.902	-200.000	0.028	-0.162
-516.887	0.281	0.080	-0.057
-515.872	-200.000	0.006	0.035
-514.858	-6.221	0.070	0.048
-513.843	-200.000	0.018	-0.185
-512.829	800.000	0.117	-0.358
-511.814	151.362	-0.093	0.126
-510.799	331.710	0.170	0.329
-509.785	147.559	-0.049	-0.066
-508.770	639.464	-0.086	-0.220
-507.756	-200.000	-0.037	0.256
-506.741	46.403	-0.101	-0.093
-505.726	415.994	0.122	0.260
-504.712	-116.692	-0.292	-0.054
-503.697	578.565	-0.096	-0.234
-502.683	-129.776	-0.305	0.042
-501.668	318.254	-0.096	0.182
-500.653	58.020	0.133	0.130
-499.639	-89.341	-0.353	-0.104
-498.624	800.000	0.071	-0.225
-497.610	7.534	-0.328	-0.245
-496.595	98.506	-0.179	0.206
-495.581	75.964	0.092	-0.098
-494.566	73.389	0.126	-0.131
-493.551	632.641	0.075	0.190
-492.537	539.845	-0.108	-0.258
-491.522	-197.798	-0.141	-0.001
-490.508	155.576	-0.183	0.252
-489.493	216.709	0.157	-0.250
-488.478	800.000	-0.055	0.195
-487.464	-130.868	-0.232	-0.031
-486.449	-200.000	-0.023	-0.140
-485.435	-96.478	-0.072	-0.019
-484.420	94.183	0.163	-0.185
-483.405	800.000	0.053	-0.231
-482.391	88.960	0.207	0.230
-481.376	-200.000	-0.032	0.263
-480.362	7.494	0.363	0.271
-479.347	93.920	0.334	-0.378
-478.332	121.740	0.099	0.123
-477.318	21.945	0.101	-0.082
-476.303	-10.981	-0.158	0.104
-475.289	-174.317	0.266	-0.008
-474.274	800.000	0.097	0.381
-473.259	599.974	0.096	-0.238
-472.245	-141.340	-0.175	0.018
-471.230	-200.000	0.041	0.195
-470.216	161.623	-0.233	0.325
-469.201	-200.000	0.030	-0.319
-468.186	-75.909	0.355	-0.125
-467.172	-200.000	-0.004	-0.251
-466.157	800.000	-0.105	-0.306
-465.143	-115.763	-0.419	0.078
-464.128	800.000	0.018	-0.076
-463.113	-200.000	-0.011	0.153
-462.099	-200.000	0.025	-0.171
-461.084	-200.000	-0.033	-0.159
-460.070	-200.000	-0.080	-0.371
-459.055	-5.314	0.064	-0.044
-458.040	-71.136	-0.183	0.069
-457.026	221.410	0.043	0.069
-456.011	192.831	0.160	-0.242
-454.997	-73.539	-0.231	-0.084
-453.982	-29.166	-0.026	0.015
-452.968	-75.826	-0.164	-0.058
-451.953	20.852	-0.116	0.094
-450.938	234.403	0.104	0.171
-449.924	-141.529	0.304	0.031
-448.909	95.600	-0.141	-0.161
-447.895	-33.068	-0.049	0.027
-446.880	800.000	0.159	-0.614
-445.865	-114.569	-0.209	0.040
-444.851	-58.938	0.061	0.026
-443.836	249.228	-0.130	-0.220
-442.822	420.180	-0.224	0.479
-441.807	-91.253	0.255	-0.073
-440.792	110.163	-0.079	-0.094
-439.778	-200.000	0.002	-0.113
-438.763	247.643	0.092	0.156
-437.749	174.624	0.271	-0.391
-436.734	-107.356	0.045	-0.010
-435.719	800.000	0.117	0.469
-434.705	117.244	-0.141	-0.173
-433.690	-6.280	-0.042	-0.029
-432.676	192.297	0.100	0.150
-431.661	24.980	0.073	-0.060
-430.646	-63.312	-0.242	-0.099
-429.632	-200.000	-0.019	-0.096
-428.617	406.020	0.025	-0.052
-427.603	-32.201	-0.131	-0.073
-426.588	-55.131	-0.214	-0.096
-425.573	-157.531	-0.353	-0.021
-424.559	-170.117	0.276	-0.010
-423.544	800.000	0.066	0.194
-422.530	271.211	-0.163	-0.286
-421.515	-43.236	0.170	-0.086
-420.500	-34.649	-0.393	0.214
-419.486	432.550	0.128	0.277
-418.471	800.000	0.058	-0.244
-417.457	-106.115	0.198	-0.044
-416.442	363.912	-0.100	0.201
-415.428	-26.972	0.122	-0.071
-414.413	488.249	0.077	0.175
-413.398	-53.213	-0.130	-0.060
-412.384	14.738	0.150	0.116
-411.369	-200.000	-0.051	0.436
-410.355	376.868	-0.069	-0.140
-409.340	-28.568	0.217	0.125
-408.325	-50.638	0.195	-0.091
-407.311	7.437	-0.147	-0.109
-406.296	-93.503	0.167	0.046
-405.282	101.126	0.119	-0.138
-404.267	103.448	-0.272	0.318
-403.252	800.000	0.054	-0.153
-402.238	-32.217	-0.315	0.175
-401.223	-45.140	-0.294	0.146
-400.209	-200.000	-0.011	0.189
-399.194	-200.000	-0.002	-0.188
-398.179	-53.437	0.092	0.042
-397.165	30.666	-0.310	0.264
-396.150	-50.805	-0.130	0.061
-395.136	-155.085	-0.297	0.019
-394.121	-66.619	-0.202	-0.080
-393.106	575.918	0.112	-0.272
-392.092	-200.000	0.034	-0.227
-391.077	454.593	0.046	-0.101
-390.063	-106.544	0.335	-0.074
-389.048	-86.388	-0.142	-0.044
-388.033	355.094	-0.066	-0.130
-387.019	76.264	0.132	0.140
-386.004	-99.045	-0.333	0.084
-384.990	-200.000	-0.058	-0.340
-383.975	-100.442	0.222	-0.055
-382.960	-70.617	0.277	0.104
-381.946	-94.826	-0.332	-0.090
-380.931	405.892	0.080	-0.168
-379.917	5.905	-0.176	0.130
-378.902	-200.000	0.034	-0.252
-377.888	-95.990	-0.322	0.085
-376.873	313.405	0.037	0.069
-375.858	-200.000	-0.051	-0.238
-374.844	258.947	-0.114	-0.196
-373.829	800.000	-0.087	-0.312
-372.815	37.465	-0.127	0.112
-371.800	-62.520	0.141	0.058
-370.785	-49.036	-0.205	-0.098
-369.771	-200.000	-0.025	0.190
-368.756	285.045	0.137	0.246
-367.742	38.267	0.149	0.132
-366.727	-103.443	0.016	-0.004
-365.712	501.969	-0.090	-0.207
-364.698	800.000	-0.044	-0.129
-363.683	178.337	0.141	-0.205
-362.669	140.674	0.201	-0.263
-361.654	247.868	0.059	0.099
-360.639	-181.801	-0.207	0.004
-359.625	-119.648	-0.301	0.052
-358.610	5.209	0.119	-0.087
-357.596	134.893	-0.158	-0.204
-356.581	20.501	0.149	0.120
-355.566	800.000	-0.106	0.376
-354.552	-107.748	0.228	-0.049
-353.537	-12.084	0.221	-0.144
-352.523	271.602	-0.094	0.164
-351.508	-90.914	0.124	-0.036
-350.493	134.359	0.045	-0.058
-349.479	101.467	0.078	-0.091
-348.464	-117.083	-0.261	0.047
-347.450	710.817	0.076	-0.201
-346.435	-172.579	-0.054	-0.002
-345.420	61.027	-0.131	-0.130
-344.406	26.580	-0.057	-0.047
-343.391	367.611	-0.075	0.150
-342.377	-28.352	-0.113	-0.065
-341.362	160.695	-0.214	0.296
-340.348	636.396	0.081	-0.204
-339.333	372.954	-0.046	-0.093
-338.318	-79.535	0.305	0.102
-337.304	-126.577	0.234	-0.035
-336.289	-69.726	-0.164	-0.062
-335.275	40.504	-0.228	-0.204
-334.260	32.305	-0.256	0.219
-333.245	-6.321	0.194	0.132
-332.231	782.464	0.099	0.268
-331.216	-200.000	-0.048	0.404
-330.202	182.230	-0.194	-0.284
-329.187	-50.169	-0.402	0.189
-328.172	17.229	0.209	0.165
-327.158	-111.460	0.414	-0.084
-326.143	425.663	0.074	-0.159
-325.129	-34.828	0.300	0.163
-324.114	84.262	-0.115	0.124
-323.099	9.095	0.130	-0.098
-322.085	356.882	-0.139	0.276
-321.070	-156.638	0.280	0.017
-320.056	688.927	-0.046	-0.120
-319.041	800.000	0.070	-0.256
-318.026	139.660	-0.138	0.181
-317.012	-200.000	-0.021	0.271
-315.997	17.729	0.123	0.097
-314.983	-164.314	0.051	-0.002
-313.968	104.197	-0.177	0.207
-312.953	-118.931	-0.104	0.018
-311.939	416.270	0.109	0.230
-310.924	-123.499	0.235	-0.037
-309.910	285.145	0.094	0.169
-308.895	-131.140	-0.195	0.026
-307.880	29.270	0.030	-0.025
-306.866	33.966	0.177	0.153
-305.851	1.037	-0.111	0.079
-304.837	-76.067	0.185	0.065
-303.822	615.439	-0.037	-0.092
-302.807	251.246	0.202	0.341
-301.793	775.248	0.089	0.241
-300.778	-200.000	-0.012	0.173
-299.764	800.000	-0.042	0.141
-298.749	80.003	-0.094	-0.100
-297.735	8.991	0.292	-0.219
-296.720	800.000	-0.072	-0.231
-295.705	-81.816	0.370	-0.120
-294.691	26.956	0.183	0.152
-293.676	4.047	0.100	-0.073
-292.662	10.523	0.043	-0.033
-291.647	35.980	-0.117	0.102
-290.632	29.976	-0.064	-0.054
-289.618	-155.321	-0.093	-0.006
-288.603	-167.766	0.037	-0.001
-287.589	143.775	0.118	0.156
-286.574	95.320	0.218	-0.246
-285.559	-125.743	0.048	0.007
-284.545	25.203	0.358	-0.295
-283.530	103.284	0.162	0.188
-282.516	33.766	-0.104	0.090
-281.501	800.000	-0.112	0.318
-280.486	239.130	0.059	-0.097
-279.472	-200.000	0.031	-0.392
-278.457	800.000	-0.052	0.178
-277.443	-17.881	0.257	-0.160
-276.428	-20.325	-0.326	-0.199
-275.413	599.879	-0.051	0.126
-274.399	-200.000	0.035	0.170
-273.384	-34.676	0.247	0.134
-272.370	-200.000	0.047	0.289
-271.355	8.556	-0.165	-0.123
-270.340	-50.783	0.115	0.054
-269.326	800.000	0.053	0.155
-268.311	-200.000	-0.029	0.325
-267.297	661.291	-0.094	-0.240
-266.282	-157.858	0.112	0.007
-265.267	-55.498	-0.211	-0.093
-264.253	602.207	0.036	0.088
-263.238	-49.026	0.176	0.083
-262.224	800.000	-0.098	0.350
-261.209	-101.447	-0.169	-0.041
-260.195	0.207	0.134	-0.095
-259.180	654.173	0.077	-0.196
-258.165	43.608	-0.060	-0.054
-257.151	800.000	-0.088	-0.249
-256.136	-200.000	0.030	-0.260
-255.122	-200.000	-0.033	-0.155
-254.107	108.067	0.085	-0.101
-253.092	-92.167	0.300	-0.084
-252.078	-144.934	0.171	0.015
-251.063	-54.798	0.059	0.026
-250.049	223.596	-0.134	-0.215
-249.034	-30.608	0.303	0.170
-248.019	-74.814	-0.240	0.085
-247.005	280.348	0.109	0.194
-245.990	-85.683	0.238	-0.073
-244.976	-32.371	0.134	-0.074
-243.961	-68.061	0.330	-0.127
-242.946	-200.000	0.091	0.459
-241.932	-82.860	-0.397	0.127
-240.917	-167.799	0.237	-0.009
-239.903	688.455	0.143	0.371
-238.888	-200.000	-0.105	-0.502
-237.873	-41.838	0.400	-0.203
-236.859	-200.000	-0.007	-0.214
-235.844	-200.000	0.020	-0.311
-234.830	-122.630	0.129	0.021
-233.815	28.120	0.248	-0.207
-232.800	-53.033	-0.267	0.122
-231.786	219.194	0.164	-0.260
-230.771	-16.931	-0.146	0.091
-229.757	145.965	0.069	-0.091
-228.742	160.351	-0.109	0.150
-227.727	-50.202	-0.210	-0.098
-226.713	410.977	0.084	0.177
-225.698	-45.889	-0.329	0.161
-224.684	-28.376	0.425	-0.243
-223.669	-145.338	-0.200	0.018
-222.655	69.778	0.040	0.041
-221.640	5.003	-0.280	0.204
-220.625	-200.000	0.044	0.348
-219.611	627.143	0.102	0.255
-218.596	3.546	-0.350	0.252
-217.582	197.570	0.068	0.103
-216.567	-130.223	0.184	0.025
-215.552	-8.282	0.022	0.015
-214.538	-158.870	-0.060	0.003
-213.523	137.387	-0.132	0.171
-212.509	-200.000	-0.058	0.324
-211.494	-148.813	-0.238	0.019
-210.479	-65.244	-0.186	-0.074
-209.465	-200.000	-0.011	0.297
-208.450	6.385	-0.075	-0.055
-207.436	127.282	0.185	0.232
-206.421	232.274	0.090	0.147
-205.406	53.731	0.091	-0.087
-204.392	114.208	0.141	0.170
-203.377	-112.178	0.085	-0.017
-202.363	46.316	-0.124	0.113
-201.348	800.000	0.084	0.352
-200.333	303.972	-0.082	-0.151
-199.319	43.821	0.149	0.135
-198.304	428.340	0.100	-0.214
-197.290	138.898	0.163	-0.211
-196.275	37.111	-0.232	-0.203
-195.260	300.573	-0.040	0.072
-194.246	-31.573	-0.210	0.117
-193.231	162.481	-0.092	0.128
-192.217	211.225	-0.026	-0.040
-191.202	-49.173	-0.105	0.050
-190.187	-200.000	0.014	-0.145
-189.173	-200.000	-0.016	0.161
-188.158	-114.844	-0.088	-0.017
-187.144	-200.000	-0.032	0.177
-186.129	67.479	0.150	0.151
-185.114	162.548	-0.023	-0.031
-184.100	89.440	-0.130	-0.143
-183.085	-129.023	-0.292	-0.040
-182.071	94.613	-0.148	0.166
-181.056	206.598	-0.041	-0.063
-180.042	-5.052	-0.082	0.056
-179.027	-200.000	0.014	-0.070
-178.012	11.181	-0.310	-0.235
-176.998	-200.000	0.045	-0.378
-175.983	-134.220	-0.176	0.021
-174.969	132.728	0.281	0.358
-173.954	-88.771	-0.274	0.080
-172.939	-200.000	-0.010	-0.197
-171.925	-200.000	-0.017	0.105
-170.910	800.000	-0.082	0.266
-169.896	-140.477	0.197	0.020
-168.881	675.020	0.137	0.350
-167.866	-139.776	-0.257	-0.027
-166.852	93.240	0.182	0.203
-165.837	676.315	0.047	0.121
-164.823	800.000	0.154	-0.482
-163.808	6.511	0.116	-0.085
-162.793	-200.000	0.072	0.436
-161.779	281.052	0.010	0.017
-160.764	-62.610	-0.165	0.068
-159.750	-68.820	0.199	-0.076
-158.735	800.000	-0.013	0.054
-157.720	-102.962	-0.103	0.024
-156.706	-87.723	-0.144	0.043
-155.691	48.296	0.202	0.187
-154.677	-7.651	0.214	0.143
-153.662	-149.754	0.232	-0.018
-152.647	-17.323	-0.139	0.086
-151.633	-19.793	-0.195	-0.119
-150.618	-200.000	-0.015	-0.273
-149.604	800.000	0.063	-0.214
-148.589	-200.000	0.057	-0.374
-147.574	-200.000	-0.024	-0.289
-146.560	-200.000	0.008	0.200
-145.545	148.981	0.183	-0.244
-144.531	15.573	0.166	0.129
-143.516	15.169	0.141	-0.109
-142.502	8.321	0.195	-0.145
-141.487	68.965	0.058	-0.059
-140.472	164.314	0.187	-0.260
-139.458	-121.319	-0.199	0.033
-138.443	109.243	-0.162	-0.192
-137.429	128.932	0.230	-0.289
-136.414	-52.592	-0.175	0.080
-135.399	-129.779	-0.181	-0.025
-134.385	-53.926	-0.046	0.021
-133.370	74.746	0.193	0.200
-132.356	556.111	0.051	-0.120
-131.341	332.020	0.177	0.336
-130.326	-200.000	-0.007	0.108
-129.312	-105.753	0.320	-0.071
-128.297	-38.196	0.273	0.142
-127.283	160.936	0.134	0.184
-126.268	800.000	0.028	0.106
-125.253	-4.244	-0.303	0.206
-124.239	6.538	-0.193	-0.141
-123.224	-81.578	-0.251	0.081
-122.210	246.016	0.222	-0.368
-121.195	-102.684	-0.187	-0.044
