DTS Sentinel unit serial number:	SN413079Multiplexer serial number:	ORYXHardware model number:	OX4-SRSoftware version number:	ORYX F/W v4.00 Oryx Data Collector v3.7.2.0data status	okinstallation	princeton_trtdifferential loss correction	single-endedforward channel	channel 2reverse channel	N/Adate	2019/09/15time	03:47:34forward acquisition time	60.00reverse acquisition time	0.00gamma	496.2192k internal	0.2325k external	0.2325temperature offset calibration	1.0027default loss term (dB/km)	0.3790temperature slope calibration	1.0000multiplexer offset coefficient	1.0000multiplexer slope coefficient	1.0000fibre end	0.00T internal ref (°C)	30.95T ext. ref 1 (°C)	4.61T ext. ref 2 (°C)	25.90length (m)	temperature (°C)	Stokes	anti-Stokes-747.200	147.647	0.108	-0.147
-746.185	-33.916	-0.221	0.123
-745.171	-200.000	-0.026	0.239
-744.156	-200.000	-0.021	0.359
-743.142	-3.407	0.456	-0.320
-742.127	40.790	-0.273	0.249
-741.112	142.252	-0.032	0.042
-740.098	-24.386	0.164	-0.099
-739.083	-117.923	0.213	0.038
-738.069	-103.474	-0.064	0.015
-737.054	-133.622	0.077	0.010
-736.039	-132.107	-0.350	-0.046
-735.025	51.077	0.197	0.189
-734.010	-35.393	-0.076	-0.041
-732.996	-10.105	-0.205	-0.138
-731.981	-200.000	-0.040	-0.281
-730.966	-200.000	-0.091	-0.588
-729.952	173.110	-0.081	-0.118
-728.937	-200.000	0.001	0.086
-727.923	800.000	0.033	0.105
-726.908	169.030	-0.130	0.187
-725.894	99.108	-0.044	0.051
-724.879	49.205	-0.048	-0.046
-723.864	159.498	-0.076	-0.106
-722.850	-65.944	-0.108	-0.043
-721.835	58.798	-0.130	-0.129
-720.821	81.890	0.103	-0.112
-719.806	-58.431	0.484	-0.212
-718.791	243.187	0.063	0.107
-717.777	-113.337	0.380	0.075
-716.762	85.581	-0.041	-0.046
-715.748	13.094	-0.320	-0.249
-714.733	43.431	0.219	-0.201
-713.718	98.262	-0.274	-0.318
-712.704	800.000	0.122	-0.368
-711.689	185.196	0.107	-0.159
-710.675	-109.729	0.114	0.024
-709.660	-190.822	-0.297	-0.003
-708.645	-17.599	-0.071	0.045
-707.631	266.438	0.192	-0.339
-706.616	19.808	-0.163	0.132
-705.602	800.000	0.057	0.250
-704.587	-6.824	-0.137	-0.094
-703.572	415.464	0.136	0.292
-702.558	-53.695	-0.136	0.063
-701.543	-142.356	0.401	-0.040
-700.529	463.650	0.116	-0.262
-699.514	-200.000	-0.019	-0.382
-698.499	-120.625	0.264	0.045
-697.485	800.000	-0.013	0.043
-696.470	-24.189	-0.156	0.094
-695.456	-200.000	-0.020	-0.190
-694.441	386.185	0.082	-0.170
-693.426	-140.202	0.223	0.024
-692.412	271.105	0.265	-0.469
-691.397	-63.280	-0.198	0.082
-690.383	41.839	0.099	0.090
-689.368	56.062	0.167	0.163
-688.354	-69.462	-0.263	0.101
-687.339	-121.554	0.145	0.024
-686.324	-63.149	-0.278	-0.116
-685.310	-123.000	-0.148	-0.024
-684.295	-95.963	0.254	-0.068
-683.281	74.052	0.211	-0.222
-682.266	-81.891	0.143	0.047
-681.251	-109.317	0.265	0.056
-680.237	800.000	0.011	0.045
-679.222	-98.669	0.252	-0.065
-678.208	268.501	0.113	-0.199
-677.193	-134.029	-0.258	0.032
-676.178	-60.348	0.010	-0.004
-675.164	-200.000	-0.034	0.172
-674.149	-199.598	-0.179	0.001
-673.135	33.843	0.180	-0.158
-672.120	155.460	-0.077	0.106
-671.105	436.369	-0.111	-0.243
-670.091	-146.723	0.276	0.024
-669.076	-200.000	-0.001	0.093
-668.062	-200.000	0.016	0.076
-667.047	-200.000	0.014	0.093
-666.032	-60.274	-0.121	-0.052
-665.018	553.118	0.130	-0.313
-664.003	165.671	-0.118	-0.167
-662.989	-69.389	0.065	-0.025
-661.974	-70.144	0.326	0.125
-660.959	-58.885	-0.461	0.200
-659.945	271.827	-0.069	-0.122
-658.930	-17.805	-0.085	-0.054
-657.916	-152.454	0.126	0.009
-656.901	-52.277	0.270	0.126
-655.886	-200.000	-0.039	-0.272
-654.872	-0.684	0.150	-0.107
-653.857	-165.143	0.112	-0.005
-652.843	-57.832	0.251	-0.111
-651.828	-0.016	-0.300	0.214
-650.814	800.000	-0.085	0.244
-649.799	-86.108	-0.324	0.100
-648.784	-63.032	0.133	-0.055
-647.770	-24.547	-0.068	-0.041
-646.755	-54.960	-0.252	0.114
-645.741	-77.944	-0.255	-0.088
-644.726	800.000	-0.068	-0.281
-643.711	110.762	-0.154	0.186
-642.697	-90.762	-0.164	-0.048
-641.682	-200.000	0.003	-0.195
-640.668	43.533	0.146	-0.134
-639.653	104.567	-0.052	-0.062
-638.638	-13.867	0.198	-0.128
-637.624	15.537	-0.084	-0.066
-636.609	8.152	0.029	0.022
-635.595	-58.476	-0.120	-0.052
-634.580	95.744	0.118	0.135
-633.565	21.913	-0.248	-0.203
-632.551	55.360	0.162	0.157
-631.536	794.038	-0.113	0.312
-630.522	0.833	0.199	0.143
-629.507	-80.914	-0.021	0.007
-628.492	-17.649	-0.299	-0.189
-627.478	236.928	0.065	0.109
-626.463	-53.436	0.146	-0.067
-625.449	63.410	-0.201	-0.203
-624.434	239.506	0.092	0.153
-623.419	304.921	-0.213	0.398
-622.405	73.412	0.094	0.099
-621.390	-184.065	-0.157	-0.003
-620.376	33.403	-0.109	0.095
-619.361	-68.753	-0.303	-0.118
-618.346	-89.581	-0.166	0.049
-617.332	-77.005	-0.200	-0.070
-616.317	139.381	-0.175	-0.231
-615.303	303.781	-0.062	-0.115
-614.288	-154.665	-0.144	0.010
-613.273	-200.000	-0.014	0.093
-612.259	36.811	0.287	0.255
-611.244	-34.874	0.085	-0.047
-610.230	-1.753	0.098	-0.069
-609.215	-54.329	-0.172	0.078
-608.201	295.974	-0.071	-0.130
-607.186	365.567	-0.031	0.063
-606.171	-200.000	0.289	0.001
-605.157	-200.000	0.018	0.275
-604.142	15.601	0.045	0.035
-603.128	30.708	-0.165	0.142
-602.113	-54.307	-0.088	0.040
-601.098	-141.494	0.281	0.029
-600.084	-200.000	0.036	-0.197
-599.069	-192.437	0.123	-0.001
-598.055	-44.978	0.312	0.156
-597.040	-4.563	0.221	-0.153
-596.025	-86.304	0.031	0.010
-595.011	-7.536	-0.094	-0.064
-593.996	-90.092	0.152	-0.044
-592.982	-200.000	-0.031	0.156
-591.967	-144.733	0.498	0.046
-590.952	-112.483	-0.115	-0.023
-589.938	-181.278	-0.257	-0.005
-588.923	800.000	0.023	-0.069
-587.909	249.164	-0.011	-0.018
-586.894	800.000	0.052	-0.145
-585.879	-200.000	0.037	-0.168
-584.865	705.302	0.110	0.292
-583.850	800.000	-0.092	-0.398
-582.836	-108.059	0.226	0.049
-581.821	-127.242	0.124	0.018
-580.806	-140.398	0.342	0.036
-579.792	74.638	-0.174	0.184
-578.777	-200.000	-0.067	-0.312
-577.763	155.684	-0.045	-0.063
-576.748	-15.221	0.236	0.151
-575.733	144.134	-0.238	0.319
-574.719	-26.918	-0.076	-0.045
-573.704	-58.080	-0.109	0.048
-572.690	800.000	0.081	-0.353
-571.675	-172.890	-0.098	0.003
-570.661	76.327	-0.189	0.201
-569.646	-200.000	-0.039	0.293
-568.631	21.176	-0.145	-0.118
-567.617	52.630	0.076	-0.073
-566.602	-89.395	0.339	0.100
-565.588	-200.000	-0.029	0.181
-564.573	-37.464	0.187	-0.100
-563.558	-29.131	0.221	0.127
-562.544	800.000	0.031	0.125
-561.529	800.000	0.031	-0.092
-560.515	-52.382	-0.144	-0.067
-559.500	-41.135	0.230	0.119
-558.485	-92.134	-0.189	0.053
-557.471	-18.365	0.306	-0.192
-556.456	-200.000	0.004	0.132
-555.442	69.125	0.182	0.187
-554.427	-42.640	-0.202	0.103
-553.412	161.398	-0.163	-0.228
-552.398	800.000	0.065	0.189
-551.383	-200.000	-0.005	0.134
-550.369	233.892	0.049	-0.080
-549.354	-200.000	-0.026	0.144
-548.339	-200.000	0.055	-0.303
-547.325	409.525	-0.105	-0.222
-546.310	389.810	0.122	0.253
-545.296	26.170	-0.050	-0.042
-544.281	-200.000	0.083	-0.367
-543.266	541.387	-0.112	-0.268
-542.252	409.406	-0.071	0.151
-541.237	-43.667	-0.220	0.111
-540.223	-80.075	-0.255	0.086
-539.208	-59.611	0.385	-0.165
-538.193	1.360	-0.065	0.047
-537.179	46.339	-0.189	-0.176
-536.164	116.941	0.244	-0.300
-535.150	96.381	-0.226	-0.259
-534.135	116.873	-0.088	-0.108
-533.121	-73.538	-0.166	0.061
-532.106	-26.733	0.617	-0.361
-531.091	-200.000	-0.064	-0.387
-530.077	-42.115	-0.156	-0.080
-529.062	11.896	-0.220	-0.169
-528.048	-28.411	0.230	0.133
-527.033	174.939	0.151	-0.219
-526.018	201.917	-0.168	-0.260
-525.004	-200.000	-0.012	0.174
-523.989	800.000	-0.053	-0.165
-522.975	-200.000	-0.006	-0.025
-521.960	-79.435	0.112	-0.038
-520.945	27.159	0.458	0.384
-519.931	-58.042	0.215	0.094
-518.916	-200.000	-0.052	0.232
-517.902	392.490	0.046	-0.095
-516.887	325.674	0.084	0.161
-515.872	-131.245	0.309	-0.041
-514.858	-200.000	-0.012	0.104
-513.843	800.000	-0.059	-0.179
-512.829	-99.205	0.422	-0.107
-511.814	25.559	0.044	0.037
-510.799	121.047	-0.177	0.220
-509.785	800.000	0.068	0.195
-508.770	33.558	0.213	0.185
-507.756	-134.272	-0.214	-0.026
-506.741	-104.146	-0.141	0.033
-505.726	126.470	-0.238	0.301
-504.712	138.805	0.028	-0.037
-503.697	800.000	0.015	0.065
-502.683	-45.931	0.169	-0.084
-501.668	212.961	0.102	0.161
-500.653	-200.000	0.000	-0.017
-499.639	-200.000	0.043	-0.212
-498.624	800.000	0.050	0.158
-497.610	-19.567	-0.229	-0.142
-496.595	113.272	-0.147	0.178
-495.581	770.088	0.056	0.152
-494.566	341.563	0.099	-0.194
-493.551	-200.000	0.046	-0.275
-492.537	118.972	-0.052	0.065
-491.522	-64.795	-0.147	-0.059
-490.508	-200.000	0.027	-0.169
-489.493	-200.000	0.002	0.203
-488.478	200.053	-0.099	-0.152
-487.464	-136.908	-0.275	-0.032
-486.449	469.797	-0.036	0.081
-485.435	-97.302	-0.262	-0.068
-484.420	-0.725	0.137	-0.097
-483.405	24.441	0.220	0.181
-482.391	257.605	0.112	-0.192
-481.376	800.000	-0.108	0.396
-480.362	129.667	0.086	-0.109
-479.347	-200.000	-0.041	0.312
-478.332	440.384	-0.051	-0.110
-477.318	262.753	0.201	0.348
-476.303	-16.640	0.080	-0.050
-475.289	-100.520	0.375	-0.093
-474.274	800.000	-0.039	-0.143
-473.259	-200.000	0.001	0.084
-472.245	239.828	0.108	-0.180
-471.230	800.000	-0.063	0.182
-470.216	-184.760	0.397	0.006
-469.201	800.000	-0.110	-0.371
-468.186	219.270	-0.059	-0.094
-467.172	63.591	0.240	0.240
-466.157	19.794	-0.315	0.253
-465.143	340.687	0.157	-0.306
-464.128	-38.397	0.283	-0.149
-463.113	75.725	0.083	-0.088
-462.099	113.966	-0.172	0.208
-461.084	289.801	0.105	-0.190
-460.070	73.934	-0.131	0.137
-459.055	800.000	0.076	-0.301
-458.040	798.711	-0.097	0.266
-457.026	84.532	-0.139	-0.152
-456.011	-134.319	-0.131	0.016
-454.997	-87.616	-0.266	0.080
-453.982	-200.000	0.055	0.000
-452.968	-12.893	0.363	-0.236
-451.953	-200.000	-0.083	-0.404
-450.938	-200.000	-0.002	-0.176
-449.924	9.234	-0.109	-0.082
-448.909	-200.000	-0.003	0.036
-447.895	-200.000	0.002	0.120
-446.880	287.249	0.130	-0.234
-445.865	67.486	-0.096	-0.098
-444.851	8.123	-0.089	-0.067
-443.836	-108.139	-0.177	-0.038
-442.822	-119.004	0.216	0.038
-441.807	-164.968	-0.351	-0.016
-440.792	800.000	0.053	0.174
-439.778	342.388	-0.159	-0.311
-438.763	-45.972	0.300	-0.148
-437.749	267.976	0.159	0.278
-436.734	155.158	-0.036	0.049
-435.719	-16.174	-0.187	0.119
-434.705	287.753	0.049	-0.089
-433.690	-200.000	-0.007	-0.108
-432.676	96.200	-0.096	0.109
-431.661	316.037	-0.122	0.229
-430.646	-59.694	0.255	-0.109
-429.632	127.759	0.187	-0.237
-428.617	-200.000	-0.015	0.082
-427.603	92.455	0.142	0.159
-426.588	151.283	-0.257	0.349
-425.573	369.249	0.031	-0.064
-424.559	-200.000	0.030	0.164
-423.544	-66.154	0.063	-0.025
-422.530	104.566	-0.205	-0.241
-421.515	63.919	-0.103	0.103
-420.500	-170.378	0.105	-0.004
-419.486	800.000	0.017	-0.070
-418.471	-36.532	0.062	-0.033
-417.457	16.167	-0.102	0.080
-416.442	64.681	0.209	-0.210
-415.428	800.000	0.047	0.132
-414.413	800.000	-0.090	0.271
-413.398	301.440	0.172	0.316
-412.384	54.552	-0.320	0.308
-411.369	800.000	0.052	-0.154
-410.355	800.000	-0.060	-0.228
-409.340	-23.970	-0.027	-0.016
-408.325	423.853	-0.078	-0.167
-407.311	220.537	-0.172	0.275
-406.296	-89.513	0.196	0.057
-405.282	-200.000	-0.101	-0.441
-404.267	-105.043	-0.022	0.005
-403.252	327.933	-0.094	0.179
-402.238	-108.282	0.327	0.070
-401.223	-200.000	0.041	0.204
-400.209	-104.882	0.242	-0.055
-399.194	-200.000	0.010	-0.124
-398.179	-89.988	-0.225	0.065
-397.165	-98.093	0.109	0.028
-396.150	-86.446	-0.262	0.080
-395.136	-45.447	0.146	0.072
-394.121	-101.895	-0.258	0.062
-393.106	-83.187	0.408	-0.130
-392.092	84.382	-0.023	0.025
-391.077	530.969	-0.093	0.219
-390.063	281.527	-0.089	0.158
-389.048	49.198	-0.165	0.154
-388.033	800.000	0.087	-0.245
-387.019	106.759	-0.065	-0.076
-386.004	-78.621	-0.065	0.022
-384.990	-200.000	0.012	-0.136
-383.975	430.890	-0.028	-0.060
-382.960	-200.000	0.064	-0.400
-381.946	561.753	0.168	-0.403
-380.931	91.385	0.086	-0.096
-379.917	-105.212	0.218	-0.049
-378.902	-118.999	0.158	-0.027
-377.888	330.783	0.102	-0.195
-376.873	194.642	0.176	-0.266
-375.858	-200.000	0.037	0.239
-374.844	-51.233	-0.107	0.050
-373.829	800.000	0.036	0.108
-372.815	-61.732	-0.394	-0.164
-371.800	-88.038	-0.170	-0.051
-370.785	800.000	-0.048	0.181
-369.771	-200.000	-0.006	-0.108
-368.756	164.715	-0.315	0.442
-367.742	-200.000	0.018	0.211
-366.727	-147.115	0.254	0.022
-365.712	86.983	-0.167	0.183
-364.698	-89.089	0.335	0.099
-363.683	24.798	0.197	-0.162
-362.669	91.896	-0.205	0.230
-361.654	-118.112	0.254	-0.045
-360.639	-200.000	-0.023	-0.108
-359.625	-41.359	0.312	-0.160
-358.610	800.000	0.034	0.115
-357.596	-27.471	0.246	-0.142
-356.581	-21.376	-0.133	-0.081
-355.566	-47.163	-0.245	-0.119
-354.552	-122.312	-0.188	0.030
-353.537	10.983	0.158	0.120
-352.523	-139.242	-0.050	-0.005
-351.508	19.819	-0.312	0.250
-350.493	239.093	-0.093	-0.154
-349.479	4.656	-0.255	0.186
-348.464	-40.241	-0.310	-0.160
-347.450	101.881	-0.168	0.195
-346.435	-61.102	0.160	-0.067
-345.420	-200.000	-0.063	-0.348
-344.406	-200.000	-0.021	-0.298
-343.391	800.000	0.048	0.188
-342.377	51.174	0.187	0.176
-341.362	-88.832	-0.220	-0.065
-340.348	237.840	0.162	-0.267
-339.333	455.650	-0.025	0.054
-338.318	-97.281	0.150	0.039
-337.304	-88.061	-0.114	0.034
-336.289	6.752	0.235	-0.174
-335.275	-33.078	-0.175	0.096
-334.260	361.085	0.077	-0.154
-333.245	385.797	-0.104	-0.213
-332.231	-166.688	0.142	-0.006
-331.216	-1.946	-0.129	0.090
-330.202	-200.000	-0.022	-0.316
-329.187	563.449	0.115	-0.276
-328.172	-185.781	-0.206	0.003
-327.158	800.000	-0.024	-0.078
-326.143	661.366	0.116	-0.296
-325.129	263.692	-0.068	-0.117
-324.114	-2.139	0.198	0.138
-323.099	800.000	-0.115	-0.358
-322.085	-56.463	0.103	0.045
-321.070	-200.000	-0.012	0.184
-320.056	-167.871	-0.188	-0.007
-319.041	800.000	-0.042	0.162
-318.026	-132.348	0.099	0.013
-317.012	-3.571	0.285	0.197
-315.997	-150.885	-0.194	-0.015
-314.983	15.329	0.315	-0.245
-313.968	-200.000	0.024	0.119
-312.953	262.287	-0.023	0.039
-311.939	634.180	-0.140	0.351
-310.924	-103.586	-0.199	-0.046
-309.910	-0.125	0.182	0.129
-308.895	729.209	0.122	-0.322
-307.880	-58.238	-0.134	-0.058
-306.866	45.781	-0.149	0.137
-305.851	-19.909	0.209	-0.128
-304.837	185.982	-0.085	0.125
-303.822	586.068	-0.099	0.242
-302.807	-29.351	-0.317	-0.180
-301.793	-99.628	-0.075	-0.019
-300.778	187.102	-0.051	-0.075
-299.764	-200.000	0.020	0.263
-298.749	45.480	-0.188	0.173
-297.735	-89.210	-0.053	-0.015
-296.720	-200.000	0.052	0.311
-295.705	63.711	-0.136	0.136
-294.691	-40.576	0.116	-0.059
-293.676	-200.000	-0.046	-0.205
-292.662	-63.720	0.221	0.090
-291.647	42.448	-0.161	0.145
-290.632	-37.340	-0.235	-0.125
-289.618	-200.000	-0.024	0.311
-288.603	-78.550	-0.261	-0.088
-287.589	146.590	-0.114	0.151
-286.574	-200.000	0.063	0.314
-285.559	38.123	-0.301	-0.266
-284.545	800.000	0.122	0.391
-283.530	139.078	-0.140	-0.182
-282.516	-200.000	-0.030	-0.219
-281.501	-160.757	-0.250	-0.013
-280.486	237.470	-0.077	0.127
-279.472	-153.909	-0.106	-0.007
-278.457	-200.000	-0.010	0.390
-277.443	44.515	-0.292	0.266
-276.428	-77.044	-0.263	-0.091
-275.413	800.000	-0.009	-0.035
-274.399	74.886	0.057	-0.060
-273.384	-94.200	-0.160	0.043
-272.370	-98.673	0.027	-0.007
-271.355	-69.705	-0.105	0.040
-270.340	278.378	-0.140	0.248
-269.326	-106.912	0.107	0.024
-268.311	-200.000	0.002	-0.215
-267.297	192.150	-0.040	0.060
-266.282	-65.902	0.197	-0.078
-265.267	99.700	0.147	-0.168
-264.253	38.086	0.172	-0.152
-263.238	255.204	0.044	-0.074
-262.224	25.323	0.320	0.263
-261.209	-82.309	-0.206	0.066
-260.195	-110.818	0.396	0.081
-259.180	120.907	-0.126	-0.155
-258.165	108.548	-0.088	-0.104
-257.151	185.510	0.029	-0.042
-256.136	-44.296	0.032	0.016
-255.122	27.888	-0.181	0.151
-254.107	229.366	-0.051	0.082
-253.092	-200.000	-0.032	0.247
-252.078	-200.000	-0.056	0.309
-251.063	436.634	-0.121	0.260
-250.049	791.441	0.020	-0.055
-249.034	80.408	0.190	-0.202
-248.019	-135.676	0.068	-0.008
-247.005	-78.889	-0.112	-0.038
-245.990	1.309	0.096	0.069
-244.976	-39.141	-0.099	0.051
-243.961	-200.000	0.008	0.364
-242.946	-58.974	0.221	-0.095
-241.932	418.478	0.038	0.081
-240.917	98.010	-0.184	0.210
-239.903	800.000	0.032	0.110
-238.888	84.493	-0.077	-0.083
-237.873	-80.874	-0.183	0.060
-236.859	5.713	-0.224	0.164
-235.844	800.000	0.018	-0.073
-234.830	800.000	-0.021	-0.081
-233.815	149.082	0.028	-0.037
-232.800	91.032	0.307	0.340
-231.786	-189.103	0.179	0.002
-230.771	41.930	0.261	-0.234
-229.757	337.830	-0.081	-0.156
-228.742	-64.494	0.258	-0.104
-227.727	163.956	0.058	-0.081
-226.713	41.262	-0.162	0.145
-225.698	-52.833	0.158	0.072
-224.684	-73.016	0.069	0.025
-223.669	-164.951	0.533	-0.024
-222.655	-90.015	0.315	0.091
-221.640	135.267	-0.069	0.089
-220.625	38.274	-0.106	0.094
-219.611	-200.000	-0.031	0.167
-218.596	800.000	-0.075	-0.291
-217.582	368.845	-0.084	0.168
-216.567	130.974	0.242	-0.307
-215.552	-52.072	-0.125	0.057
-214.538	310.462	0.101	0.187
-213.523	517.479	-0.048	0.111
-212.509	-200.000	0.031	-0.209
-211.494	800.000	-0.022	0.080
-210.479	-200.000	-0.009	-0.097
-209.465	96.171	-0.178	0.201
-208.450	-82.873	-0.164	0.052
-207.436	800.000	0.066	-0.205
-206.421	340.201	0.044	-0.085
-205.406	-63.595	-0.025	0.010
-204.392	30.373	0.093	-0.079
-203.377	286.079	0.053	-0.094
-202.363	-100.334	0.306	0.075
-201.348	104.046	-0.079	-0.092
-200.333	116.596	0.121	0.146
-199.319	-155.994	-0.248	-0.016
-198.304	144.426	-0.062	-0.081
-197.290	23.051	-0.229	-0.186
-196.275	-114.980	0.192	0.036
-195.260	653.001	0.018	-0.045
-194.246	-158.289	-0.140	-0.008
-193.231	-89.882	-0.171	0.049
-192.217	800.000	-0.128	0.450
-191.202	263.006	0.089	-0.153
-190.187	-32.541	-0.348	-0.191
-189.173	-91.414	0.240	-0.068
-188.158	-35.408	0.067	0.036
-187.144	800.000	0.018	-0.068
-186.129	38.552	0.108	-0.095
-185.114	-42.849	-0.086	-0.043
-184.100	643.099	0.066	-0.167
-183.085	-36.493	0.136	0.072
-182.071	-200.000	0.057	0.360
-181.056	800.000	-0.093	-0.325
-180.042	-143.304	-0.012	-0.001
-179.027	15.346	-0.047	-0.036
-178.012	276.287	0.101	0.178
-176.998	-200.000	0.004	0.268
-175.983	-200.000	-0.027	-0.244
-174.969	-200.000	-0.032	-0.185
-173.954	73.280	-0.139	0.143
-172.939	207.790	-0.049	-0.076
-171.925	-130.684	0.397	-0.053
-170.910	-200.000	-0.010	0.137
-169.896	41.293	0.097	0.087
-168.881	-107.826	-0.086	0.019
-167.866	-140.808	-0.139	0.014
-166.852	-137.399	0.290	0.032
-165.837	-137.026	-0.229	0.026
-164.823	383.401	0.080	0.161
-163.808	800.000	-0.123	0.357
-162.793	30.639	0.264	-0.223
-161.779	238.256	0.180	-0.295
-160.764	453.677	0.024	0.053
-159.750	-117.022	0.185	-0.033
-158.735	114.878	-0.107	-0.129
-157.720	75.377	-0.103	0.107
-156.706	237.018	-0.029	-0.048
-155.691	397.388	0.096	-0.198
-154.677	207.164	0.087	-0.134
-153.662	88.652	-0.258	-0.282
-152.647	-169.471	0.147	-0.005
-151.633	55.620	-0.213	0.204
-150.618	443.038	0.231	0.499
-149.604	-63.410	-0.189	-0.077
-148.589	111.156	-0.078	-0.093
-147.574	-200.000	0.048	-0.350
-146.560	-6.160	0.213	0.143
-145.545	221.317	0.200	-0.317
-144.531	-5.419	-0.153	0.104
-143.516	-110.161	0.123	-0.025
-142.502	-200.000	0.012	-0.165
-141.487	233.651	0.106	-0.172
-140.472	800.000	0.129	0.415
-139.458	-46.116	-0.292	-0.142
-138.443	-70.890	-0.368	0.137
-137.429	800.000	0.069	0.289
-136.414	231.875	-0.098	-0.159
-135.399	-200.000	-0.063	0.382
-134.385	55.385	0.266	0.253
-133.370	55.251	0.059	0.056
-132.356	537.455	0.061	0.144
-131.341	800.000	-0.095	0.277
-130.326	800.000	0.093	-0.373
-129.312	-136.422	-0.190	0.022
-128.297	-40.787	-0.146	-0.074
-127.283	56.937	0.260	0.250
-126.268	335.558	0.066	0.126
-125.253	-70.350	-0.304	-0.114
-124.239	-200.000	-0.004	0.047
-123.224	260.436	-0.076	-0.130
-122.210	-8.662	0.314	0.207
-121.195	-200.000	0.017	0.087
