DTS Sentinel unit serial number:	SN413079Multiplexer serial number:	ORYXHardware model number:	OX4-SRSoftware version number:	ORYX F/W v4.00 Oryx Data Collector v3.7.2.0data status	okinstallation	princeton_trtdifferential loss correction	single-endedforward channel	channel 2reverse channel	N/Adate	2019/09/17time	21:27:35forward acquisition time	60.00reverse acquisition time	0.00gamma	496.2192k internal	0.2341k external	0.2341temperature offset calibration	0.9987default loss term (dB/km)	0.3790temperature slope calibration	1.0000multiplexer offset coefficient	1.0000multiplexer slope coefficient	1.0000fibre end	0.00T internal ref (°C)	27.27T ext. ref 1 (°C)	0.19T ext. ref 2 (°C)	19.31length (m)	temperature (°C)	Stokes	anti-Stokes-747.200	-200.000	-0.040	0.200
-746.185	800.000	0.045	0.143
-745.171	70.267	0.163	-0.169
-744.156	-7.225	-0.256	0.174
-743.142	-106.845	0.178	0.040
-742.127	-200.000	0.006	0.093
-741.112	2.755	0.283	0.205
-740.098	28.020	-0.406	0.344
-739.083	800.000	0.127	0.375
-738.069	-200.000	0.044	0.413
-737.054	-200.000	-0.028	0.129
-736.039	103.739	-0.114	0.134
-735.025	196.608	0.433	0.661
-734.010	265.458	-0.137	-0.239
-732.996	-200.000	-0.005	-0.500
-731.981	284.985	-0.074	-0.133
-730.966	88.350	0.071	-0.079
-729.952	-44.480	-0.489	-0.245
-728.937	16.749	0.280	0.222
-727.923	142.540	-0.235	0.312
-726.908	376.285	0.157	0.321
-725.894	-200.000	-0.021	0.231
-724.879	36.635	-0.341	-0.302
-723.864	259.402	-0.087	-0.151
-722.850	-18.768	-0.054	-0.034
-721.835	-37.778	-0.117	0.062
-720.821	20.057	0.032	0.026
-719.806	-134.397	-0.133	-0.016
-718.791	800.000	0.026	-0.086
-717.777	-107.966	0.278	-0.061
-716.762	259.174	-0.102	0.176
-715.748	-200.000	0.002	-0.210
-714.733	-55.351	-0.207	0.093
-713.718	-200.000	-0.059	0.292
-712.704	37.013	0.300	-0.265
-711.689	345.950	0.087	0.172
-710.675	21.094	-0.423	0.343
-709.660	-200.000	0.005	-0.171
-708.645	-136.741	0.261	-0.030
-707.631	5.923	-0.149	-0.111
-706.616	-34.784	0.155	0.085
-705.602	-115.154	-0.177	0.034
-704.587	-200.000	-0.010	-0.075
-703.572	-15.784	0.080	-0.051
-702.558	-40.951	-0.086	-0.045
-701.543	-39.146	0.229	0.120
-700.529	-200.000	0.024	-0.123
-699.514	-185.632	-0.404	-0.006
-698.499	364.073	-0.047	0.095
-697.485	800.000	0.051	0.157
-696.470	-155.123	0.052	-0.003
-695.456	22.147	0.329	0.269
-694.441	48.631	-0.136	-0.127
-693.426	-200.000	-0.025	-0.142
-692.412	-185.613	-0.236	-0.004
-691.397	-36.255	-0.322	0.174
-690.383	286.541	0.128	-0.230
-689.368	193.861	0.029	0.043
-688.354	-200.000	0.001	-0.192
-687.339	78.546	-0.134	0.143
-686.324	-200.000	-0.022	0.351
-685.310	-36.447	-0.404	0.218
-684.295	-200.000	-0.004	-0.327
-683.281	-26.893	-0.170	0.099
-682.266	-16.071	0.092	-0.059
-681.251	-200.000	-0.052	0.299
-680.237	208.608	0.142	0.222
-679.222	89.270	-0.193	-0.215
-678.208	-86.883	0.126	-0.038
-677.193	-104.083	0.200	0.047
-676.178	19.698	0.200	0.161
-675.164	800.000	0.093	0.258
-674.149	800.000	0.042	-0.163
-673.135	124.716	-0.104	-0.131
-672.120	105.645	0.410	0.484
-671.105	408.588	-0.081	-0.171
-670.091	133.584	-0.248	-0.320
-669.076	6.257	0.161	-0.120
-668.062	229.579	0.048	-0.078
-667.047	-200.000	0.004	-0.132
-666.032	26.772	-0.113	0.095
-665.018	-112.095	-0.098	-0.020
-664.003	-122.710	0.057	-0.009
-662.989	-5.726	-0.194	-0.133
-661.974	59.887	0.079	0.078
-660.959	-72.344	0.182	-0.067
-659.945	-83.542	0.118	-0.038
-658.930	59.365	-0.004	-0.004
-657.916	-3.771	0.035	-0.024
-656.901	59.984	0.115	-0.113
-655.886	-200.000	-0.060	0.320
-654.872	269.782	-0.142	-0.248
-653.857	-138.078	0.522	0.058
-652.843	55.568	0.106	0.103
-651.828	789.378	-0.091	-0.250
-650.814	132.196	0.277	-0.357
-649.799	314.603	0.025	0.047
-648.784	-108.646	0.213	0.046
-647.770	7.948	-0.106	0.079
-646.755	350.458	-0.102	0.200
-645.741	-62.413	-0.102	0.042
-644.726	107.012	-0.066	-0.078
-643.711	22.250	0.344	-0.280
-642.697	528.636	0.099	-0.234
-641.682	25.013	0.214	-0.177
-640.668	96.831	-0.077	0.089
-639.653	281.096	0.216	0.385
-638.638	3.864	-0.344	-0.251
-637.624	-200.000	-0.006	-0.137
-636.609	17.141	-0.149	0.118
-635.595	37.175	0.084	0.075
-634.580	163.931	-0.133	-0.186
-633.565	-38.194	-0.069	-0.037
-632.551	-92.779	0.066	0.018
-631.536	317.182	0.117	0.220
-630.522	169.963	0.172	-0.245
-629.507	97.630	0.044	0.051
-628.492	-200.000	0.084	0.442
-627.478	-200.000	-0.007	-0.231
-626.463	-36.969	0.116	0.062
-625.449	-106.938	-0.072	-0.016
-624.434	-113.255	-0.219	-0.043
-623.419	-200.000	-0.026	-0.383
-622.405	-115.474	-0.173	0.032
-621.390	165.103	0.127	0.179
-620.376	108.558	0.134	-0.160
-619.361	-6.963	-0.185	0.125
-618.346	-39.822	0.184	0.096
-617.332	-135.825	0.116	0.014
-616.317	-200.000	0.025	0.156
-615.303	-104.192	-0.031	0.007
-614.288	427.564	0.116	0.250
-613.273	-97.586	0.242	-0.063
-612.259	-74.623	0.264	-0.095
-611.244	-8.492	0.112	0.075
-610.230	-109.619	-0.468	-0.098
-609.215	-200.000	0.039	-0.285
-608.201	-133.184	-0.251	0.032
-607.186	-108.114	0.197	0.043
-606.171	-200.000	-0.027	-0.204
-605.157	-120.951	-0.189	0.032
-604.142	-100.174	0.211	-0.052
-603.128	392.934	-0.032	0.066
-602.113	-139.415	0.330	0.035
-601.098	51.455	-0.394	0.374
-600.084	-200.000	-0.007	-0.303
-599.069	-14.576	-0.214	-0.137
-598.055	-61.501	-0.256	-0.107
-597.040	26.500	-0.054	-0.045
-596.025	-121.544	-0.019	0.003
-595.011	-10.450	0.190	0.126
-593.996	6.408	0.271	-0.201
-592.982	79.770	-0.131	-0.140
-591.967	21.433	-0.092	-0.075
-590.952	227.790	-0.170	-0.275
-589.938	-102.631	0.199	-0.047
-588.923	-50.488	-0.307	-0.144
-587.909	-73.026	0.091	-0.033
-586.894	136.292	-0.102	0.132
-585.879	469.773	0.113	-0.253
-584.865	-200.000	-0.034	0.168
-583.850	-52.217	-0.315	-0.146
-582.836	-200.000	-0.052	-0.746
-581.821	162.302	-0.121	0.168
-580.806	20.266	-0.176	-0.142
-579.792	23.469	0.155	-0.127
-578.777	379.346	-0.056	0.113
-577.763	43.014	-0.088	-0.080
-576.748	-200.000	-0.029	-0.185
-575.733	-116.737	-0.284	-0.052
-574.719	8.919	0.323	0.243
-573.704	800.000	0.013	-0.039
-572.690	-167.032	0.412	0.017
-571.675	339.439	-0.070	-0.136
-570.661	110.424	0.333	-0.398
-569.646	5.566	0.303	0.223
-568.631	-61.040	0.060	-0.025
-567.617	-72.531	-0.403	-0.148
-566.602	-109.020	-0.121	0.026
-565.588	40.562	0.118	-0.106
-564.573	800.000	0.027	-0.108
-563.558	-200.000	-0.022	-0.353
-562.544	-140.555	0.244	0.025
-561.529	-83.953	-0.388	0.123
-560.515	-92.787	0.451	-0.125
-559.500	299.845	-0.127	-0.233
-558.485	54.804	-0.063	-0.061
-557.471	-200.000	0.057	0.516
-556.456	-9.893	-0.378	-0.250
-555.442	-42.735	0.063	-0.032
-554.427	18.007	0.213	-0.169
-553.412	-30.733	0.156	0.088
-552.398	321.176	0.083	-0.157
-551.383	-126.215	0.209	-0.031
-550.369	-200.000	0.019	0.237
-549.354	-31.636	-0.099	0.055
-548.339	800.000	0.034	0.109
-547.325	244.472	0.057	-0.095
-546.310	127.825	-0.035	-0.044
-545.296	17.703	-0.326	-0.258
-544.281	-200.000	0.012	-0.127
-543.266	95.102	0.241	0.273
-542.252	199.153	-0.149	0.226
-541.237	800.000	0.026	0.087
-540.223	595.334	0.189	0.465
-539.208	-35.283	-0.116	0.063
-538.193	-71.956	0.147	0.054
-537.179	800.000	-0.067	-0.231
-536.164	-88.882	0.271	-0.080
-535.150	-200.000	-0.034	-0.301
-534.135	-111.408	0.323	-0.065
-533.121	-200.000	-0.097	-0.497
-532.106	800.000	0.121	-0.411
-531.091	-200.000	0.016	0.194
-530.077	401.159	-0.084	0.175
-529.062	-198.271	-0.314	-0.002
-528.048	-116.130	-0.061	-0.011
-527.033	10.957	-0.116	0.088
-526.018	-200.000	0.054	-0.273
-525.004	-99.944	0.311	-0.077
-523.989	-107.874	0.061	-0.013
-522.975	272.770	-0.095	0.167
-521.960	172.632	-0.302	-0.432
-520.945	800.000	0.178	-0.555
-519.931	441.087	0.057	0.124
-518.916	135.481	0.265	-0.343
-517.902	-165.987	-0.116	-0.005
-516.887	800.000	-0.021	-0.061
-515.872	-116.737	0.339	-0.062
-514.858	43.969	-0.210	0.191
-513.843	-136.062	-0.312	-0.036
-512.829	-17.819	0.256	0.159
-511.814	-108.559	0.311	0.066
-510.799	-77.493	-0.339	-0.117
-509.785	-200.000	0.026	-0.180
-508.770	-200.000	-0.000	-0.113
-507.756	365.125	-0.130	0.260
-506.741	-116.316	-0.101	0.019
-505.726	57.228	-0.138	-0.134
-504.712	301.847	-0.088	0.162
-503.697	245.326	0.088	-0.147
-502.683	-12.056	0.158	-0.103
-501.668	149.829	0.153	-0.207
-500.653	12.462	-0.160	0.122
-499.639	-83.979	0.309	0.098
-498.624	285.085	-0.033	-0.059
-497.610	425.991	0.063	-0.135
-496.595	-200.000	0.002	-0.025
-495.581	136.829	0.180	-0.233
-494.566	-21.659	-0.300	-0.181
-493.551	-76.429	-0.262	-0.091
-492.537	57.533	-0.063	0.061
-491.522	117.758	0.071	0.086
-490.508	46.393	-0.123	0.113
-489.493	63.118	-0.104	0.104
-488.478	-200.000	0.031	0.158
-487.464	800.000	-0.129	-0.416
-486.449	-200.000	-0.025	0.130
-485.435	-200.000	-0.005	0.103
-484.420	-200.000	0.072	-0.395
-483.405	96.019	0.116	0.132
-482.391	-87.100	0.069	0.021
-481.376	189.903	-0.256	0.381
-480.362	-141.914	-0.143	0.014
-479.347	258.469	-0.109	-0.186
-478.332	64.650	0.174	0.174
-477.318	-200.000	-0.007	0.175
-476.303	92.749	-0.109	0.122
-475.289	-108.092	-0.256	-0.055
-474.274	-200.000	0.037	0.198
-473.259	236.346	0.137	0.224
-472.245	800.000	0.133	-0.389
-471.230	229.606	-0.071	-0.115
-470.216	227.097	0.079	0.127
-469.201	-200.000	0.058	0.293
-468.186	-95.161	0.021	0.006
-467.172	13.092	-0.107	0.082
-466.157	15.246	-0.238	0.185
-465.143	4.860	-0.270	-0.197
-464.128	-101.898	0.308	-0.074
-463.113	340.597	0.122	0.236
-462.099	281.886	-0.080	0.142
-461.084	-196.820	0.389	-0.003
-460.070	76.613	-0.155	-0.163
-459.055	-23.513	0.093	0.055
-458.040	9.310	0.366	0.275
-457.026	800.000	-0.082	0.323
-456.011	800.000	-0.067	-0.190
-454.997	-200.000	0.003	0.059
-453.982	36.212	-0.251	0.219
-452.968	-200.000	0.024	-0.327
-451.953	57.175	-0.131	-0.127
-450.938	65.436	-0.114	-0.114
-449.924	-200.000	0.027	0.401
-448.909	-106.405	0.409	0.091
-447.895	-200.000	0.038	0.272
-446.880	-8.115	0.206	0.137
-445.865	-157.646	-0.138	-0.008
-444.851	-136.528	-0.452	-0.052
-443.836	-138.636	-0.218	0.024
-442.822	-26.349	0.213	0.124
-441.807	800.000	-0.062	0.245
-440.792	-200.000	0.004	0.061
-439.778	129.924	0.155	0.196
-438.763	301.565	-0.175	-0.319
-437.749	-165.060	0.235	0.010
-436.734	-200.000	0.018	0.082
-435.719	-34.076	0.130	0.071
-434.705	-119.789	0.095	0.016
-433.690	-9.257	-0.092	0.061
-432.676	-200.000	0.008	-0.190
-431.661	-200.000	-0.014	-0.111
-430.646	-67.945	0.120	0.046
-429.632	-8.897	0.213	-0.142
-428.617	-122.697	0.107	0.017
-427.603	189.971	-0.019	-0.028
-426.588	-151.335	-0.277	-0.020
-425.573	-137.477	-0.156	0.017
-424.559	-151.769	-0.238	0.017
-423.544	-155.704	0.233	0.015
-422.530	-200.000	0.064	-0.482
-421.515	-108.783	0.197	-0.042
-420.500	800.000	-0.117	-0.362
-419.486	-17.115	0.291	-0.182
-418.471	-153.337	0.180	0.012
-417.457	155.337	-0.135	-0.183
-416.442	13.293	0.067	-0.051
-415.428	-159.475	-0.111	-0.006
-414.413	-200.000	0.021	0.111
-413.398	-200.000	-0.018	-0.119
-412.384	-148.796	-0.185	0.015
-411.369	91.086	0.079	0.087
-410.355	421.692	0.057	0.121
-409.340	-140.136	0.217	0.023
-408.325	-140.921	-0.169	0.017
-407.311	800.000	-0.033	-0.114
-406.296	-178.476	-0.356	-0.008
-405.282	26.396	0.227	0.187
-404.267	196.843	-0.144	-0.217
-403.252	9.105	0.140	-0.105
-402.238	-176.251	-0.167	-0.004
-401.223	-27.663	-0.199	-0.114
-400.209	-200.000	0.039	-0.295
-399.194	-200.000	0.040	-0.249
-398.179	-200.000	0.016	0.230
-397.165	-200.000	-0.052	0.361
-396.150	57.397	0.137	-0.133
-395.136	85.630	-0.212	-0.230
-394.121	23.309	0.293	0.238
-393.106	-134.179	0.357	0.044
-392.092	769.487	0.098	-0.265
-391.077	-71.486	0.103	0.038
-390.063	-200.000	-0.012	-0.253
-389.048	-200.000	0.126	0.000
-388.033	-6.740	0.176	0.118
-387.019	162.933	-0.114	0.158
-386.004	160.193	-0.084	-0.116
-384.990	800.000	-0.080	0.236
-383.975	-200.000	-0.025	0.171
-382.960	-200.000	-0.003	-0.024
-381.946	6.795	0.309	0.227
-380.931	-200.000	0.008	0.282
-379.917	-43.462	-0.018	0.009
-378.902	382.125	0.108	0.220
-377.888	-105.635	-0.071	0.016
-376.873	-108.634	-0.249	-0.053
-375.858	183.262	-0.102	-0.149
-374.844	800.000	0.059	0.235
-373.829	224.300	-0.095	-0.151
-372.815	282.161	-0.047	-0.084
-371.800	-159.681	-0.212	0.012
-370.785	93.506	-0.118	0.132
-369.771	-5.043	-0.075	-0.051
-368.756	-50.238	-0.077	0.036
-367.742	90.572	-0.281	0.311
-366.727	800.000	0.038	0.147
-365.712	-200.000	0.000	0.111
-364.698	286.120	-0.121	-0.216
-363.683	-96.023	0.278	0.073
-362.669	-129.984	0.388	0.052
-361.654	800.000	0.083	0.255
-360.639	-185.089	-0.171	0.003
-359.625	-131.311	0.117	-0.015
-358.610	45.834	0.183	-0.167
-357.596	-61.989	0.140	0.058
-356.581	656.973	-0.100	0.253
-355.566	223.446	-0.109	-0.174
-354.552	-14.330	-0.189	-0.120
-353.537	315.594	-0.194	0.360
-352.523	-17.279	0.105	0.066
-351.508	5.529	0.122	0.089
-350.493	82.888	0.163	0.175
-349.479	-200.000	-0.030	0.194
-348.464	38.216	0.205	0.180
-347.450	-200.000	-0.048	0.248
-346.435	-200.000	0.027	0.267
-345.420	-200.000	-0.031	-0.237
-344.406	210.288	0.181	0.280
-343.391	430.698	0.044	0.095
-342.377	-50.230	0.196	-0.092
-341.362	800.000	0.087	-0.274
-340.348	0.559	0.174	0.123
-339.333	-123.393	0.252	-0.040
-338.318	-200.000	-0.032	-0.204
-337.304	-200.000	0.032	-0.168
-336.289	163.079	-0.081	-0.112
-335.275	-148.921	-0.283	0.023
-334.260	31.432	-0.111	-0.094
-333.245	-84.523	-0.299	0.093
-332.231	800.000	0.123	0.341
-331.216	-27.823	-0.425	0.243
-330.202	-200.000	0.018	-0.177
-329.187	-107.829	-0.253	-0.054
-328.172	-112.436	-0.149	-0.029
-327.158	-32.365	-0.301	-0.166
-326.143	-200.000	0.076	-0.455
-325.129	59.333	-0.098	-0.095
-324.114	-95.761	0.373	0.098
-323.099	-119.538	0.328	0.056
-322.085	-200.000	-0.068	0.316
-321.070	267.790	0.145	0.251
-320.056	-200.000	0.050	0.220
-319.041	-102.690	0.289	0.068
-318.026	205.231	-0.129	0.197
-317.012	679.438	0.036	-0.094
-315.997	800.000	-0.087	-0.281
-314.983	60.772	-0.202	0.198
-313.968	800.000	-0.078	0.277
-312.953	-142.328	-0.174	-0.017
-311.939	138.327	-0.040	0.051
-310.924	-47.556	0.358	0.172
-309.910	800.000	0.111	0.316
-308.895	11.727	-0.049	0.037
-307.880	-114.859	0.389	-0.073
-306.866	-27.227	0.163	-0.093
-305.851	-94.203	-0.221	0.060
-304.837	-124.715	-0.349	0.053
-303.822	-70.207	-0.360	0.135
-302.807	-12.737	0.232	0.149
-301.793	352.362	0.203	0.396
-300.778	-200.000	-0.025	-0.195
-299.764	-3.397	0.188	-0.129
-298.749	-200.000	-0.018	0.193
-297.735	329.592	-0.113	0.215
-296.720	68.821	-0.199	-0.201
-295.705	261.660	0.154	0.263
-294.691	-200.000	0.018	0.132
-293.676	114.943	-0.242	0.291
-292.662	575.732	0.098	0.235
-291.647	-200.000	0.061	0.385
-290.632	19.044	0.244	0.193
-289.618	-86.657	0.295	0.089
-288.603	-200.000	0.034	0.562
-287.589	-200.000	0.036	-0.312
-286.574	800.000	-0.029	-0.109
-285.559	800.000	-0.080	0.312
-284.545	-200.000	-0.016	0.081
-283.530	-90.726	-0.182	0.052
-282.516	31.927	0.136	-0.115
-281.501	119.555	-0.247	-0.302
-280.486	800.000	0.020	0.067
-279.472	-27.682	0.318	0.181
-278.457	335.407	0.091	0.173
-277.443	649.080	-0.063	0.158
-276.428	24.637	-0.234	-0.191
-275.413	-135.236	0.211	0.025
-274.399	-159.267	0.110	-0.006
-273.384	800.000	-0.002	0.005
-272.370	321.468	-0.017	-0.032
-271.355	-18.626	0.072	-0.044
-270.340	68.927	0.040	0.041
-269.326	-119.490	0.034	0.006
-268.311	-200.000	-0.219	-0.000
-267.297	54.397	0.297	-0.282
-266.282	402.278	-0.118	0.244
-265.267	29.564	0.220	-0.184
-264.253	-200.000	0.009	-0.174
-263.238	314.572	0.099	-0.184
-262.224	439.855	-0.102	0.220
-261.209	-200.000	0.029	0.265
-260.195	800.000	0.092	0.251
-259.180	-200.000	-0.056	-0.243
-258.165	46.458	0.243	-0.222
-257.151	-200.000	-0.012	-0.289
-256.136	83.209	-0.019	-0.020
-255.122	-200.000	0.043	-0.226
-254.107	420.685	0.061	-0.128
-253.092	-178.716	-0.113	-0.003
-252.078	800.000	0.087	0.259
-251.063	-22.184	0.175	0.105
-250.049	-200.000	0.008	-0.167
-249.034	-31.083	-0.384	-0.213
-248.019	258.900	-0.089	-0.152
-247.005	604.072	0.063	-0.153
-245.990	582.198	0.070	-0.169
-244.976	443.636	-0.150	-0.323
-243.961	185.430	0.054	0.078
-242.946	-200.000	-0.092	-0.411
-241.932	-119.159	-0.492	0.085
-240.917	-79.801	-0.198	0.065
-239.903	-171.752	-0.395	0.013
-238.888	-34.040	0.070	-0.038
-237.873	-92.142	-0.219	0.061
-236.859	26.444	0.124	-0.102
-235.844	176.791	-0.115	-0.164
-234.830	-49.102	0.175	0.082
-233.815	-28.137	0.024	0.013
-232.800	800.000	0.091	0.250
-231.786	-78.088	0.105	-0.036
-230.771	651.712	-0.040	0.100
-229.757	103.718	-0.091	0.105
-228.742	-153.703	0.108	-0.007
-227.727	-200.000	-0.005	0.377
-226.713	-150.647	-0.294	0.022
-225.698	800.000	0.031	0.129
-224.684	-80.352	-0.117	0.038
-223.669	800.000	-0.043	-0.160
-222.655	800.000	-0.129	0.401
-221.640	800.000	-0.130	0.445
-220.625	-88.833	0.173	-0.050
-219.611	115.621	0.203	0.244
-218.596	-82.910	0.035	-0.011
-217.582	-21.523	-0.228	-0.137
-216.567	-39.256	-0.255	-0.132
-215.552	185.395	-0.121	-0.176
-214.538	141.388	-0.186	0.242
-213.523	691.435	0.096	0.247
-212.509	-49.769	0.157	-0.073
-211.494	3.863	0.107	-0.077
-210.479	397.020	0.145	0.298
-209.465	305.718	0.055	-0.100
-208.450	115.413	-0.130	-0.156
-207.436	-200.000	-0.026	0.129
-206.421	-69.068	-0.349	0.132
-205.406	-58.535	0.244	-0.104
-204.392	141.960	-0.130	0.169
-203.377	-136.465	-0.242	0.028
-202.363	-200.000	0.030	-0.278
-201.348	-148.364	-0.390	-0.031
-200.333	52.560	0.046	0.043
-199.319	-5.805	-0.079	-0.053
-198.304	214.647	0.180	-0.280
-197.290	163.350	-0.157	0.216
-196.275	191.325	-0.041	-0.060
-195.260	-37.250	0.295	0.155
-194.246	-41.655	0.077	-0.039
-193.231	101.733	-0.068	-0.078
-192.217	38.140	0.104	-0.091
-191.202	800.000	-0.057	-0.212
-190.187	800.000	-0.074	-0.262
-189.173	-200.000	-0.016	-0.180
-188.158	199.818	-0.066	0.100
-187.144	-36.232	0.284	0.151
-186.129	-139.812	-0.396	0.041
-185.114	-178.134	0.020	-0.000
-184.100	800.000	-0.031	-0.125
-183.085	-169.535	0.150	-0.005
-182.071	-65.022	-0.260	-0.103
-181.056	-7.384	-0.335	-0.222
-180.042	57.472	0.069	0.066
-179.027	-65.124	-0.304	0.120
-178.012	594.099	-0.075	-0.182
-176.998	-200.000	0.042	0.289
-175.983	393.799	0.037	0.075
-174.969	-200.000	0.042	-0.355
-173.954	-200.000	-0.018	-0.120
-172.939	8.184	0.137	0.101
-171.925	156.466	0.093	0.126
-170.910	-88.454	-0.079	0.023
-169.896	151.529	0.170	-0.227
-168.881	-200.000	0.000	-0.008
-167.866	153.219	-0.160	0.214
-166.852	-95.258	0.130	0.034
-165.837	-88.382	0.265	-0.078
-164.823	-200.000	0.023	-0.365
-163.808	-62.297	0.193	-0.079
-162.793	-12.308	0.373	-0.239
-161.779	29.125	-0.406	0.338
-160.764	-200.000	-0.016	0.083
-159.750	232.148	0.169	-0.271
-158.735	175.890	-0.179	0.254
-157.720	170.332	-0.019	-0.027
-156.706	17.309	0.139	0.108
-155.691	-87.421	-0.266	-0.079
-154.677	-42.944	0.162	0.081
-153.662	-63.587	0.237	0.095
-152.647	-135.713	-0.228	-0.026
-151.633	-200.000	-0.027	-0.292
-150.618	-96.011	-0.232	-0.061
-149.604	-200.000	0.041	-0.238
-148.589	-200.000	-0.003	0.114
-147.574	291.067	0.134	0.239
-146.560	64.841	-0.354	-0.350
-145.545	547.073	0.147	-0.345
-144.531	-200.000	0.009	0.227
-143.516	-132.208	-0.154	0.020
-142.502	261.293	0.112	0.191
-141.487	-62.566	-0.149	0.061
-140.472	-39.438	0.203	-0.104
-139.458	469.812	-0.026	0.056
-138.443	-200.000	0.015	0.182
-137.429	24.265	-0.080	-0.065
-136.414	245.197	-0.047	0.078
-135.399	167.627	-0.083	0.116
-134.385	72.117	0.078	0.079
-133.370	-50.788	0.340	0.157
-132.356	85.244	0.111	-0.119
-131.341	53.289	-0.008	-0.008
-130.326	68.767	0.195	0.196
-129.312	356.793	0.098	0.191
-128.297	-200.000	0.058	0.372
-127.283	128.619	0.306	-0.382
-126.268	-9.365	-0.527	0.344
-125.253	134.170	0.126	0.160
-124.239	66.867	-0.234	0.233
-123.224	102.630	0.141	0.161
-122.210	-53.769	0.067	0.030
-121.195	314.379	-0.028	-0.052
