DTS Sentinel unit serial number:	SN413079Multiplexer serial number:	ORYXHardware model number:	OX4-SRSoftware version number:	ORYX F/W v4.00 Oryx Data Collector v3.7.2.0data status	okinstallation	princeton_trtdifferential loss correction	single-endedforward channel	channel 2reverse channel	N/Adate	2019/09/18time	07:39:34forward acquisition time	60.00reverse acquisition time	0.00gamma	496.2192k internal	0.2349k external	0.2349temperature offset calibration	0.9982default loss term (dB/km)	0.3790temperature slope calibration	1.0000multiplexer offset coefficient	1.0000multiplexer slope coefficient	1.0000fibre end	0.00T internal ref (°C)	23.25T ext. ref 1 (°C)	0.20T ext. ref 2 (°C)	17.85length (m)	temperature (°C)	Stokes	anti-Stokes-747.200	-71.876	-0.260	-0.097
-746.185	-162.669	-0.160	0.008
-745.171	47.679	-0.228	0.213
-744.156	-200.000	-0.068	0.606
-743.142	-200.000	-0.025	-0.125
-742.127	-26.657	-0.382	-0.223
-741.112	-200.000	-0.083	0.418
-740.098	-64.516	0.427	0.173
-739.083	-43.652	-0.068	0.034
-738.069	-52.431	-0.256	0.118
-737.054	800.000	-0.063	-0.260
-736.039	-71.063	-0.140	-0.053
-735.025	139.929	0.103	0.136
-734.010	-53.926	-0.302	-0.137
-732.996	-99.337	0.239	0.060
-731.981	19.439	-0.178	-0.143
-730.966	-116.351	-0.129	-0.024
-729.952	138.192	0.169	-0.221
-728.937	42.371	-0.357	0.324
-727.923	444.188	0.075	-0.165
-726.908	-147.645	-0.407	-0.034
-725.894	-190.991	-0.168	0.002
-724.879	-1.901	-0.213	-0.150
-723.864	-59.281	0.222	0.095
-722.850	-124.044	-0.068	0.011
-721.835	-149.768	-0.243	-0.019
-720.821	-39.203	-0.102	-0.054
-719.806	-9.208	-0.160	0.107
-718.791	10.098	-0.286	0.217
-717.777	134.690	0.184	0.238
-716.762	237.458	-0.158	-0.261
-715.748	150.964	0.129	0.175
-714.733	270.488	0.083	-0.146
-713.718	-40.716	-0.107	-0.055
-712.704	117.660	0.018	0.022
-711.689	107.342	-0.091	0.107
-710.675	-89.188	0.082	0.024
-709.660	-200.000	0.033	-0.150
-708.645	86.952	-0.227	-0.250
-707.631	142.006	0.082	-0.108
-706.616	800.000	0.054	-0.188
-705.602	21.821	0.131	0.107
-704.587	-152.185	0.215	0.016
-703.572	98.639	-0.114	0.132
-702.558	800.000	0.063	0.201
-701.543	800.000	0.104	-0.292
-700.529	800.000	0.062	-0.250
-699.514	-53.758	0.240	-0.109
-698.499	800.000	-0.041	0.131
-697.485	-113.512	-0.080	-0.016
-696.470	153.172	0.109	0.149
-695.456	-147.345	0.128	0.011
-694.441	127.610	-0.159	0.201
-693.426	-76.026	0.243	0.086
-692.412	300.195	-0.168	0.308
-691.397	-200.000	-0.012	-0.202
-690.383	-56.353	0.176	-0.078
-689.368	-10.410	-0.313	-0.207
-688.354	-167.694	-0.135	0.005
-687.339	5.278	-0.179	0.132
-686.324	-63.390	0.194	-0.079
-685.310	403.088	0.084	-0.176
-684.295	-40.843	-0.224	-0.116
-683.281	290.549	-0.094	-0.170
-682.266	148.723	0.117	-0.157
-681.251	-45.881	0.131	-0.065
-680.237	-8.065	-0.396	0.266
-679.222	144.552	0.057	-0.075
-678.208	-146.962	-0.203	-0.017
-677.193	-200.000	-0.062	0.327
-676.178	-58.986	-0.308	0.132
-675.164	-200.000	0.003	-0.274
-674.149	-136.951	0.193	0.022
-673.135	-200.000	-0.029	0.129
-672.120	-191.238	0.233	-0.002
-671.105	-200.000	-0.027	-0.128
-670.091	-200.000	0.023	-0.198
-669.076	-51.483	-0.070	-0.032
-668.062	800.000	-0.083	0.236
-667.047	-55.923	-0.371	0.165
-666.032	-144.482	0.373	-0.034
-665.018	5.807	-0.109	-0.080
-664.003	-36.755	-0.093	-0.050
-662.989	41.225	-0.376	-0.338
-661.974	79.329	-0.111	0.118
-660.959	-200.000	-0.031	-0.233
-659.945	88.665	-0.095	0.105
-658.930	-98.162	-0.237	-0.061
-657.916	-112.721	-0.274	0.054
-656.901	-113.250	0.346	0.068
-655.886	-78.872	0.589	0.200
-654.872	-200.000	-0.003	-0.141
-653.857	-83.378	0.287	0.091
-652.843	-152.745	-0.243	0.017
-651.828	-12.525	-0.183	-0.119
-650.814	71.700	-0.061	-0.063
-649.799	-124.798	-0.262	0.040
-648.784	-171.784	0.278	-0.009
-647.770	31.455	-0.191	-0.163
-646.755	-200.000	0.036	-0.265
-645.741	-132.827	0.317	-0.040
-644.726	3.515	-0.202	-0.147
-643.711	28.123	0.182	-0.153
-642.697	-79.693	-0.061	0.020
-641.682	-38.163	0.099	-0.052
-640.668	-200.000	-0.023	-0.324
-639.653	-148.034	0.149	0.012
-638.638	533.068	0.053	-0.124
-637.624	800.000	0.041	-0.140
-636.609	-79.743	-0.259	-0.087
-635.595	-10.724	0.159	0.104
-634.580	238.838	-0.192	-0.317
-633.565	-200.000	0.080	0.557
-632.551	-200.000	0.020	0.279
-631.536	800.000	0.143	-0.449
-630.522	800.000	-0.057	-0.211
-629.507	-200.000	-0.011	-0.061
-628.492	62.297	-0.179	0.178
-627.478	232.799	0.055	0.090
-626.463	-162.133	0.217	0.011
-625.449	-22.788	0.125	0.075
-624.434	-39.641	-0.201	0.104
-623.419	149.248	-0.134	-0.180
-622.405	-106.883	0.307	-0.068
-621.390	20.101	-0.221	0.177
-620.376	6.073	0.210	0.155
-619.361	800.000	-0.048	0.164
-618.346	294.096	0.123	-0.223
-617.332	-66.956	0.188	0.074
-616.317	-200.000	0.032	0.372
-615.303	295.694	0.196	0.356
-614.288	-200.000	-0.035	0.310
-613.273	-82.407	0.166	-0.054
-612.259	311.713	0.046	-0.086
-611.244	-200.000	0.134	-0.000
-610.230	-200.000	0.024	-0.133
-609.215	-185.901	-0.130	0.002
-608.201	246.724	-0.103	0.173
-607.186	137.805	0.178	0.231
-606.171	-7.467	0.075	0.050
-605.157	-52.017	0.374	0.173
-604.142	-56.047	-0.215	-0.095
-603.128	-43.242	-0.387	0.194
-602.113	-200.000	0.024	0.147
-601.098	-90.758	0.246	-0.070
-600.084	63.726	0.125	0.125
-599.069	235.789	-0.116	0.190
-598.055	800.000	-0.058	-0.226
-597.040	591.446	-0.031	0.076
-596.025	-142.314	-0.098	0.010
-595.011	-68.705	0.295	0.113
-593.996	-95.743	0.187	0.050
-592.982	800.000	-0.072	-0.286
-591.967	-38.103	0.104	0.055
-590.952	-200.000	-0.021	-0.187
-589.938	88.577	-0.168	-0.186
-588.923	-200.000	0.002	-0.214
-587.909	57.381	0.121	0.117
-586.894	618.150	-0.074	0.184
-585.879	-81.490	-0.201	-0.066
-584.865	-200.000	-0.039	0.215
-583.850	254.381	-0.075	-0.128
-582.836	-200.000	0.013	-0.290
-581.821	423.807	-0.087	0.186
-580.806	172.725	0.045	-0.064
-579.792	645.616	0.090	-0.228
-578.777	266.044	0.132	0.228
-577.763	-138.519	0.184	-0.020
-576.748	-151.213	0.140	-0.010
-575.733	-55.889	0.078	0.035
-574.719	-200.000	-0.031	-0.182
-573.704	-62.453	0.513	0.212
-572.690	367.775	0.017	-0.033
-571.675	200.794	0.068	-0.104
-570.661	224.459	0.019	0.031
-569.646	-200.000	-0.014	-0.098
-568.631	-162.932	-0.163	0.008
-567.617	-115.531	-0.327	-0.061
-566.602	20.543	0.341	-0.273
-565.588	114.954	0.168	-0.204
-564.573	-200.000	-0.077	-0.445
-563.558	-143.067	-0.265	-0.025
-562.544	151.867	0.072	-0.097
-561.529	-65.128	0.399	0.160
-560.515	160.561	-0.076	-0.105
-559.500	20.679	-0.135	0.108
-558.485	-200.000	-0.053	-0.332
-557.471	-167.825	-0.227	0.009
-556.456	-145.665	-0.161	0.014
-555.442	77.414	0.086	0.091
-554.427	-153.736	-0.168	-0.011
-553.412	800.000	0.034	-0.129
-552.398	800.000	-0.063	-0.191
-551.383	156.834	0.092	0.126
-550.369	-61.341	0.198	-0.083
-549.354	-200.000	-0.058	-0.422
-548.339	-147.264	0.262	-0.022
-547.325	-57.286	-0.159	-0.069
-546.310	800.000	-0.020	0.066
-545.296	800.000	-0.020	-0.080
-544.281	-200.000	-0.008	-0.218
-543.266	80.379	0.115	0.123
-542.252	-79.216	-0.093	0.031
-541.237	800.000	-0.183	-0.517
-540.223	-28.214	-0.134	-0.077
-539.208	-109.780	0.228	-0.047
-538.193	28.232	-0.084	0.070
-537.179	462.488	0.120	-0.265
-536.164	-200.000	0.064	0.412
-535.150	52.606	0.247	-0.234
-534.135	37.536	0.315	-0.276
-533.121	53.889	0.211	-0.201
-532.106	-200.000	-0.002	-0.346
-531.091	800.000	-0.017	-0.069
-530.077	-49.034	-0.511	-0.242
-529.062	-101.478	0.212	-0.051
-528.048	800.000	0.005	-0.015
-527.033	-74.495	-0.079	-0.028
-526.018	-95.352	0.262	-0.070
-525.004	652.475	0.050	0.128
-523.989	-25.048	-0.183	-0.108
-522.975	-86.338	-0.242	0.074
-521.960	37.301	0.159	0.139
-520.945	27.555	-0.215	0.179
-519.931	62.036	0.220	-0.217
-518.916	800.000	0.068	-0.224
-517.902	136.825	0.040	-0.052
-516.887	12.756	0.133	0.102
-515.872	800.000	0.006	0.021
-514.858	174.093	-0.071	-0.101
-513.843	-200.000	-0.013	-0.316
-512.829	-159.056	0.241	-0.014
-511.814	-192.869	-0.133	-0.001
-510.799	800.000	-0.044	0.161
-509.785	-169.165	-0.266	0.010
-508.770	-4.307	-0.259	0.177
-507.756	-200.000	0.015	-0.097
-506.741	-83.785	0.298	0.094
-505.726	203.974	0.096	0.148
-504.712	32.133	0.127	-0.108
-503.697	-77.145	0.065	-0.022
-502.683	61.465	-0.164	-0.162
-501.668	682.793	0.069	0.179
-500.653	57.514	0.186	0.180
-499.639	-179.018	-0.214	-0.005
-498.624	33.943	0.204	-0.176
-497.610	-160.146	-0.290	0.016
-496.595	379.598	0.028	0.056
-495.581	-200.000	-0.039	-0.217
-494.566	-70.630	-0.142	0.053
-493.551	-47.694	-0.159	-0.076
-492.537	-139.290	0.465	0.050
-491.522	-21.374	-0.052	0.032
-490.508	-10.582	-0.065	0.042
-489.493	-200.000	0.009	-0.119
-488.478	-138.683	0.325	-0.035
-487.464	-16.305	-0.333	-0.209
-486.449	94.579	0.126	-0.142
-485.435	-200.000	-0.017	0.161
-484.420	172.257	0.062	-0.088
-483.405	237.873	-0.300	0.491
-482.391	-200.000	-0.015	0.179
-481.376	392.419	0.160	0.329
-480.362	53.898	0.218	-0.207
-479.347	-22.797	-0.500	0.298
-478.332	65.875	-0.225	-0.225
-477.318	69.012	0.273	0.277
-476.303	-170.375	-0.074	-0.003
-475.289	2.727	-0.272	0.195
-474.274	-28.305	0.110	-0.063
-473.259	-43.163	-0.199	-0.100
-472.245	634.999	-0.085	-0.214
-471.230	179.851	-0.170	-0.247
-470.216	-6.649	-0.203	-0.136
-469.201	40.922	-0.063	0.056
-468.186	73.956	0.293	0.304
-467.172	36.965	0.124	-0.108
-466.157	-146.144	0.196	-0.017
-465.143	-106.532	-0.151	0.033
-464.128	-200.000	-0.014	-0.338
-463.113	776.889	-0.059	0.158
-462.099	538.774	0.111	0.262
-461.084	196.706	-0.096	0.145
-460.070	16.904	0.026	0.020
-459.055	66.147	-0.134	0.134
-458.040	-64.174	-0.143	0.058
-457.026	28.561	-0.304	-0.254
-456.011	-99.382	0.188	0.047
-454.997	-48.343	0.479	0.228
-453.982	102.146	0.210	-0.242
-452.968	17.242	0.234	-0.184
-451.953	153.441	0.013	0.017
-450.938	228.083	-0.166	-0.267
-449.924	-7.761	-0.107	-0.071
-448.909	155.507	-0.073	-0.100
-447.895	-41.136	-0.096	-0.049
-446.880	-145.960	-0.273	0.024
-445.865	216.434	-0.050	0.079
-444.851	-165.495	0.169	-0.007
-443.836	800.000	-0.015	-0.046
-442.822	202.882	-0.074	0.113
-441.807	483.813	-0.048	0.108
-440.792	-200.000	0.031	-0.183
-439.778	800.000	0.083	0.290
-438.763	-0.214	-0.144	-0.101
-437.749	-200.000	0.016	-0.198
-436.734	-140.505	0.279	0.029
-435.719	-20.677	-0.166	0.101
-434.705	87.844	0.085	0.093
-433.690	364.421	-0.133	0.263
-432.676	169.085	0.220	-0.310
-431.661	-69.421	0.265	-0.100
-430.646	-5.774	-0.052	0.035
-429.632	800.000	0.080	-0.336
-428.617	29.992	0.247	-0.208
-427.603	-80.345	0.611	0.202
-426.588	-200.000	0.073	-0.355
-425.573	-200.000	0.000	-0.107
-424.559	-200.000	-0.001	-0.114
-423.544	-104.296	-0.301	0.069
-422.530	19.608	-0.145	-0.115
-421.515	-45.296	0.470	0.230
-420.500	170.135	-0.130	0.184
-419.486	470.484	-0.097	0.215
-418.471	-65.899	0.308	-0.121
-417.457	244.498	0.152	0.253
-416.442	217.841	0.044	0.069
-415.428	-7.768	-0.173	-0.115
-414.413	165.077	0.135	0.188
-413.398	-98.309	-0.158	0.040
-412.384	81.469	-0.160	0.171
-411.369	6.775	0.307	0.225
-410.355	800.000	0.017	0.061
-409.340	-84.869	0.251	-0.078
-408.325	-200.000	-0.051	0.297
-407.311	-200.000	0.049	-0.215
-406.296	-200.000	-0.052	-0.312
-405.282	345.446	-0.082	0.159
-404.267	226.300	0.150	0.240
-403.252	800.000	0.170	0.534
-402.238	321.848	-0.075	-0.141
-401.223	136.193	0.149	0.192
-400.209	-200.000	0.010	0.120
-399.194	-55.528	-0.110	-0.049
-398.179	127.300	0.078	-0.098
-397.165	-200.000	-0.016	-0.151
-396.150	-200.000	0.008	0.056
-395.136	-144.719	0.176	0.016
-394.121	382.164	-0.022	-0.046
-393.106	-11.886	-0.505	0.326
-392.092	800.000	0.065	-0.205
-391.077	-200.000	-0.007	0.380
-390.063	367.713	0.065	-0.130
-389.048	200.214	-0.059	-0.089
-388.033	-200.000	0.005	0.061
-387.019	-3.875	-0.122	0.083
-386.004	221.409	0.026	0.041
-384.990	361.966	-0.078	-0.154
-383.975	-34.628	0.536	0.289
-382.960	257.021	0.189	0.320
-381.946	-200.000	-0.022	0.235
-380.931	384.434	-0.084	-0.169
-379.917	800.000	-0.082	-0.244
-378.902	91.941	-0.151	0.167
-377.888	301.420	0.063	-0.114
-376.873	73.027	-0.164	0.169
-375.858	210.102	-0.188	0.291
-374.844	-200.000	-0.000	-0.186
-373.829	-38.714	0.148	-0.077
-372.815	-87.907	0.181	-0.054
-371.800	-30.197	0.373	0.208
-370.785	-134.993	-0.499	0.059
-369.771	-42.012	-0.288	0.145
-368.756	-168.984	0.229	0.008
-367.742	800.000	-0.054	0.217
-366.727	-86.621	0.082	0.025
-365.712	-200.000	-0.037	0.219
-364.698	-8.286	0.025	-0.017
-363.683	-153.931	0.245	0.016
-362.669	582.471	0.066	-0.159
-361.654	-2.389	0.195	-0.134
-360.639	237.796	-0.128	0.208
-359.625	95.890	0.103	0.116
-358.610	3.165	-0.231	-0.166
-357.596	150.697	-0.151	-0.202
-356.581	-167.836	-0.225	0.009
-355.566	311.864	0.082	-0.151
-354.552	163.195	0.058	-0.080
-353.537	-52.983	0.349	0.158
-352.523	-200.000	0.044	0.299
-351.508	-200.000	0.032	-0.149
-350.493	-117.220	-0.125	-0.022
-349.479	46.278	-0.195	0.178
-348.464	-82.291	0.240	0.077
-347.450	-59.786	0.209	-0.088
-346.435	800.000	-0.135	-0.376
-345.420	800.000	0.109	0.425
-344.406	95.862	0.186	0.209
-343.391	46.339	-0.214	0.195
-342.377	-109.345	0.201	0.042
-341.362	185.026	-0.138	0.201
-340.348	-146.289	-0.217	-0.019
-339.333	-200.000	0.023	-0.329
-338.318	-200.000	0.001	-0.224
-337.304	-47.604	0.176	-0.084
-336.289	34.236	-0.242	-0.207
-335.275	-97.651	-0.346	-0.088
-334.260	99.253	0.182	-0.207
-333.245	32.597	-0.194	0.165
-332.231	-3.039	-0.027	-0.018
-331.216	184.117	0.041	0.060
-330.202	92.561	-0.073	0.081
-329.187	-200.000	0.070	0.404
-328.172	-15.554	-0.187	0.118
-327.158	-59.594	0.312	0.132
-326.143	-200.000	0.016	-0.292
-325.129	-200.000	0.002	-0.308
-324.114	130.194	0.062	-0.078
-323.099	-134.184	-0.120	0.015
-322.085	-57.141	0.206	-0.089
-321.070	-25.264	-0.247	0.144
-320.056	53.928	-0.226	0.213
-319.041	115.857	0.140	0.168
-318.026	-165.525	0.558	-0.024
-317.012	-145.617	0.245	-0.022
-315.997	-200.000	-0.006	-0.096
-314.983	29.480	-0.151	-0.126
-313.968	73.714	0.101	0.104
-312.953	321.045	0.131	-0.244
-311.939	-44.703	0.078	0.038
-310.924	3.596	0.217	0.155
-309.910	800.000	0.096	0.297
-308.895	800.000	-0.123	0.413
-307.880	16.516	0.213	0.165
-306.866	800.000	-0.103	-0.303
-305.851	-41.110	-0.328	-0.166
-304.837	800.000	0.079	-0.226
-303.822	-65.519	-0.113	-0.044
-302.807	70.606	0.123	-0.124
-301.793	-200.000	-0.009	0.061
-300.778	-32.403	-0.208	-0.114
-299.764	-9.485	-0.128	-0.084
-298.749	301.413	-0.136	-0.246
-297.735	54.235	0.128	-0.121
-296.720	-200.000	0.008	-0.062
-295.705	-200.000	0.008	0.351
-294.691	49.577	0.217	0.201
-293.676	5.001	-0.337	0.243
-292.662	616.832	0.149	0.366
-291.647	-88.191	0.066	-0.019
-290.632	800.000	0.051	-0.179
-289.618	-150.759	0.080	-0.006
-288.603	174.286	-0.240	0.340
-287.589	47.835	-0.132	-0.121
-286.574	87.301	0.143	-0.155
-285.559	-44.253	-0.133	-0.065
-284.545	-200.000	0.002	-0.049
-283.530	-39.159	-0.331	-0.171
-282.516	146.888	-0.098	0.130
-281.501	375.571	0.070	0.141
-280.486	67.458	-0.050	-0.050
-279.472	353.328	-0.149	-0.289
-278.457	235.834	0.043	0.070
-277.443	-200.000	0.020	0.382
-276.428	151.678	-0.125	0.166
-275.413	-120.447	0.280	0.047
-274.399	-11.404	0.158	-0.102
-273.384	-134.914	0.227	0.027
-272.370	-200.000	0.007	-0.043
-271.355	-30.988	0.224	-0.124
-270.340	-200.000	-0.048	0.217
-269.326	65.546	-0.234	-0.233
-268.311	800.000	-0.036	-0.119
-267.297	800.000	0.060	0.212
-266.282	-62.742	-0.268	-0.109
-265.267	800.000	-0.121	-0.337
-264.253	-200.000	0.045	0.234
-263.238	800.000	-0.078	0.266
-262.224	34.937	0.118	-0.101
-261.209	-200.000	0.079	-0.557
-260.195	-2.959	-0.123	-0.084
-259.180	-9.022	-0.049	-0.032
-258.165	1.008	-0.392	0.275
-257.151	-18.843	-0.197	0.120
-256.136	-143.121	-0.408	0.039
-255.122	32.351	-0.177	0.150
-254.107	-69.478	-0.434	0.163
-253.092	800.000	0.033	-0.133
-252.078	-200.000	-0.010	-0.054
-251.063	-141.108	0.237	0.024
-250.049	-6.538	-0.058	-0.039
-249.034	222.669	0.123	-0.194
-248.019	-148.268	-0.259	-0.021
-247.005	-19.412	-0.032	-0.019
-245.990	-200.000	0.050	0.235
-244.976	19.424	-0.250	0.197
-243.961	203.780	-0.152	0.230
-242.946	24.047	-0.166	0.134
-241.932	-184.160	-0.355	0.006
-240.917	430.761	-0.132	-0.280
-239.903	160.110	0.093	0.127
-238.888	357.174	-0.085	0.167
-237.873	23.717	-0.193	-0.156
-236.859	-200.000	0.017	-0.124
-235.844	-84.263	-0.048	-0.015
-234.830	-160.979	0.249	-0.013
-233.815	-200.000	-0.016	0.106
-232.800	38.632	0.254	0.222
-231.786	-131.458	-0.008	-0.001
-230.771	192.576	0.308	0.455
-229.757	-80.404	0.069	-0.022
-228.742	-63.710	-0.070	-0.028
-227.727	-67.420	0.033	-0.013
-226.713	-200.000	-0.038	-0.165
-225.698	-200.000	0.018	-0.117
-224.684	-74.087	-0.190	0.067
-223.669	781.240	0.012	-0.032
-222.655	38.170	0.213	-0.186
-221.640	178.870	-0.105	0.149
-220.625	-25.663	0.155	0.090
-219.611	-122.816	0.108	-0.017
-218.596	137.082	-0.157	0.200
-217.582	192.833	0.268	-0.396
-216.567	-180.604	-0.094	0.002
-215.552	732.189	0.147	0.383
-214.538	-0.300	0.122	-0.085
-213.523	50.819	-0.241	-0.224
-212.509	-23.507	-0.147	-0.086
-211.494	-44.076	0.181	0.089
-210.479	-61.596	-0.144	0.059
-209.465	518.333	0.116	0.266
-208.450	-99.335	-0.437	-0.108
-207.436	-77.087	-0.103	0.035
-206.421	408.701	0.041	-0.085
-205.406	-50.039	0.037	0.017
-204.392	800.000	-0.139	-0.578
-203.377	-200.000	-0.013	-0.108
-202.363	21.800	-0.218	-0.174
-201.348	208.752	-0.244	-0.373
-200.333	109.478	-0.286	-0.335
-199.319	-200.000	0.029	-0.145
-198.304	-200.000	0.066	-0.304
-197.290	24.489	0.232	-0.187
-196.275	237.970	0.154	0.250
-195.260	-27.217	0.051	-0.029
-194.246	-120.947	-0.325	0.053
-193.231	-200.000	0.037	0.253
-192.217	181.595	0.088	0.126
-191.202	-200.000	-0.009	0.069
-190.187	23.466	-0.229	0.184
-189.173	-200.000	-0.030	0.416
-188.158	-72.246	-0.302	0.109
-187.144	-68.991	-0.207	0.078
-186.129	395.182	-0.148	0.302
-185.114	-48.064	0.460	0.217
-184.100	-129.462	-0.432	0.059
-183.085	-173.443	0.371	0.011
-182.071	800.000	-0.082	0.295
-181.056	-200.000	-0.048	-0.327
-180.042	192.771	-0.087	-0.129
-179.027	-152.045	0.315	0.022
-178.012	-125.227	0.150	0.022
-176.998	53.278	-0.161	0.151
-175.983	-23.648	0.033	0.019
-174.969	-116.780	0.169	0.030
-173.954	-41.605	0.180	0.090
-172.939	-200.000	-0.018	-0.287
-171.925	227.478	-0.243	0.386
-170.910	230.269	0.065	-0.104
-169.896	-200.000	-0.030	-0.154
-168.881	800.000	-0.024	0.072
-167.866	-18.827	-0.221	-0.135
-166.852	64.802	-0.299	-0.295
-165.837	-121.541	0.098	0.016
-164.823	800.000	0.029	-0.098
-163.808	51.431	0.184	0.171
-162.793	257.352	0.040	-0.067
-161.779	-200.000	-0.049	0.333
-160.764	800.000	0.033	0.137
-159.750	-200.000	-0.005	0.094
-158.735	-200.000	0.356	-0.000
-157.720	228.738	-0.092	0.147
-156.706	8.726	-0.180	-0.133
-155.691	696.666	0.080	-0.205
-154.677	79.468	-0.216	-0.226
-153.662	-200.000	0.017	0.137
-152.647	-93.358	-0.272	-0.074
-151.633	-187.528	-0.294	0.004
-150.618	-20.081	0.148	0.089
-149.604	229.731	0.164	0.261
-148.589	-140.818	-0.096	0.010
-147.574	305.668	-0.080	0.145
-146.560	-129.367	0.185	-0.025
-145.545	350.146	0.231	0.446
-144.531	266.549	0.118	0.202
-143.516	-136.912	0.191	-0.021
-142.502	-200.000	0.038	-0.253
-141.487	-24.898	0.140	-0.081
-140.472	-25.632	-0.140	-0.080
-139.458	-141.283	-0.297	0.029
-138.443	-200.000	-0.018	0.357
-137.429	564.119	-0.009	-0.020
-136.414	-129.813	0.214	-0.029
-135.399	715.769	-0.014	-0.035
-134.385	-161.796	0.427	0.021
-133.370	-35.078	-0.312	-0.166
-132.356	-155.230	0.087	-0.005
-131.341	-4.927	0.202	-0.136
-130.326	-200.000	-0.007	0.046
-129.312	-82.397	-0.104	-0.033
-128.297	-184.673	0.067	-0.001
-127.283	-200.000	0.026	-0.213
-126.268	-145.355	0.096	0.008
-125.253	-44.405	0.263	-0.128
-124.239	321.792	0.197	0.365
-123.224	-13.180	-0.160	-0.102
-122.210	-148.616	-0.405	-0.032
-121.195	59.700	0.244	0.235
