DTS Sentinel unit serial number:	SN413079Multiplexer serial number:	ORYXHardware model number:	OX4-SRSoftware version number:	ORYX F/W v4.00 Oryx Data Collector v3.7.2.0data status	okinstallation	princeton_trtdifferential loss correction	single-endedforward channel	channel 2reverse channel	N/Adate	2019/09/15time	10:55:35forward acquisition time	60.00reverse acquisition time	0.00gamma	496.2192k internal	0.2315k external	0.2315temperature offset calibration	1.0016default loss term (dB/km)	0.3790temperature slope calibration	1.0000multiplexer offset coefficient	1.0000multiplexer slope coefficient	1.0000fibre end	0.00T internal ref (°C)	34.25T ext. ref 1 (°C)	5.02T ext. ref 2 (°C)	29.84length (m)	temperature (°C)	Stokes	anti-Stokes-747.200	42.299	-0.216	0.199
-746.185	800.000	0.084	0.261
-745.171	35.041	-0.068	-0.060
-744.156	89.263	-0.103	0.117
-743.142	800.000	0.062	-0.180
-742.127	-200.000	-0.019	0.131
-741.112	-200.000	0.001	0.135
-740.098	-125.252	-0.057	-0.009
-739.083	-182.117	0.300	-0.006
-738.069	450.105	-0.057	0.127
-737.054	-116.383	-0.257	0.048
-736.039	-149.978	0.258	0.020
-735.025	281.446	0.114	0.206
-734.010	359.551	0.033	-0.068
-732.996	-17.622	-0.138	-0.088
-731.981	-19.638	-0.265	-0.166
-730.966	79.358	-0.078	0.084
-729.952	436.353	-0.032	-0.071
-728.937	-163.862	-0.281	0.013
-727.923	-50.957	0.247	-0.117
-726.908	-200.000	0.002	0.208
-725.894	38.390	-0.090	-0.081
-724.879	47.849	-0.167	-0.158
-723.864	-10.350	-0.141	-0.095
-722.850	30.715	0.077	-0.066
-721.835	1.062	-0.202	0.147
-720.821	-115.190	-0.306	-0.059
-719.806	755.433	-0.051	-0.138
-718.791	800.000	0.070	0.198
-717.777	-29.830	0.024	0.014
-716.762	-200.000	0.008	-0.272
-715.748	-181.994	0.028	-0.001
-714.733	-17.080	-0.400	-0.255
-713.718	-106.640	-0.375	-0.084
-712.704	40.362	0.241	-0.220
-711.689	-200.000	-0.012	-0.355
-710.675	173.585	0.116	-0.169
-709.660	9.740	-0.179	0.138
-708.645	699.651	-0.140	-0.374
-707.631	-66.685	0.292	-0.117
-706.616	-200.000	-0.019	-0.290
-705.602	187.888	-0.150	-0.227
-704.587	-68.167	-0.248	-0.097
-703.572	-200.000	0.036	-0.501
-702.558	150.169	-0.038	0.052
-701.543	800.000	-0.115	-0.330
-700.529	730.019	0.096	0.259
-699.514	-200.000	0.071	-0.330
-698.499	295.864	0.196	0.363
-697.485	31.126	-0.161	0.139
-696.470	-15.331	-0.175	0.113
-695.456	-67.528	-0.200	0.080
-694.441	-200.000	0.038	-0.326
-693.426	24.239	0.206	0.172
-692.412	800.000	0.038	0.159
-691.397	381.471	-0.151	-0.313
-690.383	800.000	0.081	0.238
-689.368	-48.422	0.359	-0.175
-688.354	-200.000	0.035	-0.226
-687.339	-58.083	-0.174	-0.077
-686.324	800.000	0.105	0.307
-685.310	84.309	-0.073	-0.081
-684.295	-137.784	0.162	-0.018
-683.281	-200.000	-0.002	-0.097
-682.266	-200.000	-0.001	0.113
-681.251	-130.205	0.139	-0.019
-680.237	93.125	0.074	-0.085
-679.222	141.583	-0.315	-0.422
-678.208	-200.000	0.058	0.328
-677.193	486.630	-0.101	-0.232
-676.178	-86.480	0.379	0.118
-675.164	-38.711	0.231	0.123
-674.149	-30.601	-0.149	-0.085
-673.135	469.488	0.195	-0.443
-672.120	-200.000	-0.003	-0.180
-671.105	-109.532	0.216	-0.046
-670.091	-6.537	-0.448	0.309
-669.076	64.775	-0.014	0.014
-668.062	-4.969	0.107	0.074
-667.047	60.706	-0.208	0.209
-666.032	182.644	0.045	0.067
-665.018	-58.563	-0.027	-0.012
-664.003	-20.010	0.368	-0.229
-662.989	623.683	0.017	-0.043
-661.974	-144.831	-0.164	-0.015
-660.959	-8.516	-0.048	-0.033
-659.945	-162.267	0.107	-0.005
-658.930	-59.888	-0.256	-0.110
-657.916	9.047	0.130	-0.099
-656.901	-67.885	-0.258	-0.102
-655.886	174.492	-0.077	-0.112
-654.872	-200.000	0.306	0.001
-653.857	-41.332	0.215	-0.112
-652.843	329.321	-0.118	-0.229
-651.828	60.726	-0.348	-0.348
-650.814	668.428	-0.064	0.168
-649.799	268.751	0.071	-0.126
-648.784	59.142	0.139	0.138
-647.770	-200.000	-0.121	-0.743
-646.755	800.000	-0.130	-0.536
-645.741	-122.720	0.318	-0.052
-644.726	-13.562	-0.199	-0.130
-643.711	800.000	-0.074	-0.258
-642.697	-200.000	-0.024	0.460
-641.682	-61.799	0.186	-0.078
-640.668	68.663	-0.188	-0.195
-639.653	-87.295	0.232	-0.071
-638.638	800.000	0.033	-0.101
-637.624	102.536	-0.226	0.267
-636.609	410.394	-0.029	-0.062
-635.595	195.744	0.123	-0.189
-634.580	35.312	-0.295	-0.261
-633.565	-112.614	0.154	-0.031
-632.551	-200.000	-0.027	-0.183
-631.536	292.107	0.053	-0.098
-630.522	325.590	-0.166	-0.321
-629.507	800.000	-0.079	-0.221
-628.492	-15.120	-0.134	0.086
-627.478	-200.000	0.045	0.282
-626.463	316.135	-0.080	-0.152
-625.449	12.121	0.190	-0.148
-624.434	82.511	-0.041	-0.044
-623.419	-26.262	0.213	0.126
-622.405	800.000	-0.013	0.047
-621.390	662.600	0.012	0.031
-620.376	-200.000	0.007	-0.067
-619.361	-144.696	-0.110	-0.010
-618.346	106.851	-0.077	0.092
-617.332	640.999	-0.059	0.153
-616.317	-120.913	0.280	0.048
-615.303	154.822	-0.150	0.208
-614.288	-108.074	0.092	0.020
-613.273	-85.415	0.116	-0.037
-612.259	287.954	-0.121	-0.221
-611.244	-27.616	-0.167	0.098
-610.230	239.017	-0.113	-0.190
-609.215	534.063	0.060	0.144
-608.201	56.497	0.210	0.206
-607.186	788.358	-0.134	-0.371
-606.171	96.469	-0.173	0.200
-605.157	132.909	-0.046	0.060
-604.142	-200.000	-0.031	-0.218
-603.128	-200.000	0.436	-0.002
-602.113	-162.442	-0.177	-0.009
-601.098	-101.424	-0.332	0.081
-600.084	77.857	0.072	0.078
-599.069	-41.124	-0.193	-0.100
-598.055	13.953	-0.108	-0.085
-597.040	4.590	0.074	0.055
-596.025	-57.339	0.107	-0.047
-595.011	246.201	0.065	-0.110
-593.996	-200.000	0.000	-0.268
-592.982	230.954	0.147	-0.242
-591.967	-117.406	0.219	-0.040
-590.952	-49.055	0.159	-0.077
-589.938	348.453	0.135	0.268
-588.923	-200.000	0.025	0.180
-587.909	-97.786	0.337	0.088
-586.894	247.852	-0.146	0.249
-585.879	-98.153	0.395	0.102
-584.865	-200.000	-0.012	0.401
-583.850	800.000	0.068	-0.197
-582.836	800.000	0.021	0.086
-581.821	-147.170	-0.310	0.027
-580.806	12.510	-0.090	0.070
-579.792	-65.485	0.452	-0.183
-578.777	-161.788	0.083	0.004
-577.763	-200.000	0.039	-0.197
-576.748	-124.513	-0.379	-0.059
-575.733	30.224	0.116	-0.100
-574.719	136.653	-0.252	0.331
-573.704	157.655	-0.069	0.097
-572.690	-87.917	-0.244	0.074
-571.675	-135.828	0.557	-0.066
-570.661	-79.464	-0.285	-0.097
-569.646	68.711	-0.135	0.139
-568.631	-172.111	-0.212	-0.007
-567.617	69.615	-0.182	-0.189
-566.602	-71.345	-0.297	-0.112
-565.588	-27.958	-0.347	-0.202
-564.573	-200.000	0.021	0.255
-563.558	78.409	0.038	0.041
-562.544	-112.834	-0.123	0.025
-561.529	263.789	-0.114	0.199
-560.515	27.691	0.050	-0.043
-559.500	-3.482	-0.164	-0.115
-558.485	154.628	0.139	-0.192
-557.471	314.786	-0.060	-0.114
-556.456	-200.000	0.050	-0.333
-555.442	-200.000	0.006	-0.247
-554.427	-200.000	-0.003	-0.343
-553.412	-200.000	-0.020	-0.171
-552.398	-118.558	0.180	-0.032
-551.383	0.765	0.163	0.117
-550.369	800.000	0.057	-0.206
-549.354	305.099	0.067	-0.124
-548.339	-28.584	0.367	0.213
-547.325	69.193	0.093	-0.096
-546.310	-16.838	-0.309	0.196
-545.296	-200.000	0.005	0.272
-544.281	-108.564	0.075	0.016
-543.266	800.000	-0.044	0.191
-542.252	201.465	0.073	-0.114
-541.237	-199.988	-0.131	0.001
-540.223	800.000	0.064	-0.205
-539.208	67.235	0.173	-0.177
-538.193	-10.944	0.185	0.123
-537.179	-76.413	0.238	-0.084
-536.164	800.000	-0.057	0.243
-535.150	800.000	0.063	-0.242
-534.135	-58.179	-0.241	-0.106
-533.121	-107.310	-0.542	0.120
-532.106	-24.550	-0.182	-0.109
-531.091	-200.000	0.039	0.218
-530.077	-200.000	0.062	0.312
-529.062	-200.000	0.022	-0.202
-528.048	309.808	0.054	0.102
-527.033	293.049	-0.069	-0.126
-526.018	800.000	-0.100	0.351
-525.004	800.000	0.058	-0.203
-523.989	-200.000	-0.005	0.066
-522.975	-48.587	-0.080	-0.039
-521.960	-200.000	0.093	0.518
-520.945	-147.555	-0.281	0.024
-519.931	459.593	-0.044	0.098
-518.916	-200.000	0.035	0.313
-517.902	-191.882	0.204	-0.002
-516.887	-25.314	0.119	0.071
-515.872	-200.000	0.011	-0.211
-514.858	-140.680	-0.211	0.022
-513.843	53.109	0.242	-0.233
-512.829	-33.997	-0.057	-0.032
-511.814	637.087	-0.139	-0.354
-510.799	368.513	0.073	-0.148
-509.785	-200.000	0.011	-0.048
-508.770	602.570	0.094	-0.234
-507.756	23.254	-0.370	-0.305
-506.741	-200.000	0.028	0.423
-505.726	-200.000	-0.031	-0.191
-504.712	284.324	-0.086	-0.156
-503.697	-64.187	0.219	0.089
-502.683	-200.000	0.053	-0.297
-501.668	249.255	0.158	-0.268
-500.653	800.000	0.107	0.379
-499.639	509.497	0.149	0.349
-498.624	800.000	-0.038	-0.144
-497.610	-32.402	-0.105	-0.059
-496.595	-137.367	-0.447	0.051
-495.581	-10.780	-0.251	0.167
-494.566	-200.000	0.065	-0.338
-493.551	67.715	0.305	-0.313
-492.537	-125.607	0.267	-0.041
-491.522	-28.551	0.385	0.222
-490.508	-14.929	0.352	0.227
-489.493	576.407	0.015	-0.037
-488.478	-200.000	-0.008	0.215
-487.464	-84.255	0.178	-0.057
-486.449	154.530	0.177	0.243
-485.435	502.845	-0.142	0.330
-484.420	17.601	0.479	-0.382
-483.405	-31.991	-0.128	-0.072
-482.391	-157.974	0.388	-0.023
-481.376	-18.802	-0.224	-0.140
-480.362	-36.599	0.059	0.032
-479.347	-86.913	-0.556	-0.170
-478.332	165.889	-0.154	0.219
-477.318	-125.804	-0.206	-0.031
-476.303	-30.293	-0.123	0.070
-475.289	-99.371	-0.466	0.118
-474.274	-200.000	0.052	0.412
-473.259	800.000	-0.022	0.090
-472.245	-200.000	-0.040	-0.400
-471.230	-98.872	-0.196	-0.050
-470.216	-121.230	0.112	0.019
-469.201	-39.565	0.136	0.072
-468.186	-200.000	0.090	0.485
-467.172	140.296	-0.220	0.292
-466.157	-200.000	0.022	-0.166
-465.143	426.143	0.100	-0.216
-464.128	117.084	-0.087	-0.107
-463.113	-200.000	0.068	-0.332
-462.099	86.099	0.128	-0.141
-461.084	-100.761	-0.163	-0.040
-460.070	333.358	0.165	0.319
-459.055	-167.854	-0.401	-0.016
-458.040	-200.000	0.077	0.492
-457.026	-200.000	0.008	-0.054
-456.011	-56.986	-0.275	-0.122
-454.997	-117.491	0.229	0.042
-453.982	40.196	0.316	-0.285
-452.968	-18.761	-0.076	-0.047
-451.953	330.969	0.135	0.262
-450.938	-31.027	0.177	0.100
-449.924	2.097	0.194	0.140
-448.909	77.337	0.144	0.153
-447.895	-0.408	-0.055	0.039
-446.880	-18.841	0.095	-0.059
-445.865	400.844	-0.085	0.179
-444.851	-86.341	-0.247	0.076
-443.836	116.833	0.005	-0.006
-442.822	97.574	-0.202	-0.232
-441.807	800.000	0.054	-0.186
-440.792	800.000	-0.077	-0.254
-439.778	243.484	0.223	-0.375
-438.763	86.383	-0.066	-0.073
-437.749	800.000	0.056	-0.189
-436.734	643.616	-0.120	-0.306
-435.719	82.499	-0.113	-0.123
-434.705	17.423	-0.073	0.058
-433.690	-107.495	0.191	0.042
-432.676	-81.923	0.341	0.112
-431.661	-38.525	0.136	0.072
-430.646	-200.000	0.011	0.062
-429.632	272.118	-0.086	-0.151
-428.617	-144.779	0.245	-0.022
-427.603	-200.000	-0.026	0.186
-426.588	195.818	-0.057	-0.087
-425.573	294.460	-0.123	-0.225
-424.559	-96.236	0.236	-0.063
-423.544	-200.000	0.017	-0.126
-422.530	800.000	0.081	-0.236
-421.515	800.000	0.055	0.196
-420.500	116.325	-0.201	-0.247
-419.486	522.369	0.056	-0.131
-418.471	150.306	-0.062	-0.084
-417.457	85.814	0.049	-0.054
-416.442	-200.000	0.019	0.153
-415.428	-29.058	0.121	-0.070
-414.413	230.242	-0.073	-0.119
-413.398	578.444	0.119	-0.292
-412.384	-131.471	-0.124	-0.016
-411.369	-12.164	-0.205	0.134
-410.355	-200.000	0.007	0.165
-409.340	-53.670	0.032	0.015
-408.325	-101.585	-0.231	-0.056
-407.311	231.808	0.259	-0.425
-406.296	-200.000	0.049	-0.255
-405.282	116.911	0.342	-0.420
-404.267	187.472	-0.137	-0.205
-403.252	219.276	-0.298	0.476
-402.238	406.210	0.059	0.125
-401.223	427.722	0.114	-0.245
-400.209	441.587	0.082	-0.179
-399.194	604.493	-0.025	-0.062
-398.179	20.845	-0.348	-0.282
-397.165	-24.234	0.116	0.069
-396.150	-6.388	-0.284	0.194
-395.136	152.276	0.210	-0.287
-394.121	153.084	0.056	0.076
-393.106	-176.898	-0.145	-0.004
-392.092	-96.393	0.432	0.114
-391.077	-200.000	-0.049	0.273
-390.063	800.000	-0.041	-0.130
-389.048	460.215	-0.113	-0.252
-388.033	5.349	0.124	-0.092
-387.019	-94.786	-0.254	0.069
-386.004	-200.000	0.168	-0.001
-384.990	800.000	-0.029	-0.081
-383.975	-109.836	0.169	0.035
-382.960	96.944	-0.080	-0.091
-381.946	-131.259	-0.321	0.043
-380.931	26.774	-0.191	0.160
-379.917	165.278	0.204	0.288
-378.902	506.888	-0.126	0.291
-377.888	-200.000	0.073	0.357
-376.873	-103.363	-0.229	0.054
-375.858	-200.000	-0.017	-0.178
-374.844	-200.000	-0.031	0.296
-373.829	-200.000	-0.097	0.444
-372.815	168.874	0.120	-0.171
-371.800	-117.563	0.137	-0.025
-370.785	302.669	-0.198	0.367
-369.771	102.464	0.195	0.228
-368.756	88.271	0.091	-0.100
-367.742	-59.646	0.014	0.006
-366.727	-55.692	-0.311	-0.139
-365.712	800.000	0.037	0.142
-364.698	-200.000	0.019	0.151
-363.683	-2.740	-0.047	-0.033
-362.669	800.000	-0.104	-0.298
-361.654	112.987	0.079	0.096
-360.639	129.086	0.119	-0.152
-359.625	-130.247	0.147	-0.020
-358.610	800.000	0.031	0.122
-357.596	800.000	-0.031	-0.119
-356.581	-44.437	-0.410	0.205
-355.566	-200.000	0.069	0.427
-354.552	107.257	-0.034	0.040
-353.537	-82.167	-0.144	-0.047
-352.523	170.751	-0.035	0.050
-351.508	216.118	-0.100	-0.158
-350.493	-200.000	0.017	0.135
-349.479	-119.784	0.127	-0.022
-348.464	-51.208	0.206	0.096
-347.450	432.335	-0.075	-0.161
-346.435	116.575	-0.163	-0.199
-345.420	261.795	-0.071	-0.123
-344.406	-34.038	-0.231	-0.127
-343.391	-165.315	0.103	-0.005
-342.377	-200.000	0.024	0.441
-341.362	-2.925	0.178	0.124
-340.348	-35.579	-0.189	0.103
-339.333	-200.000	0.028	0.172
-338.318	-160.184	-0.089	0.005
-337.304	-200.000	-0.021	0.521
-336.289	-151.970	0.127	0.009
-335.275	-123.291	0.349	0.056
-334.260	-74.660	-0.135	-0.049
-333.245	139.842	-0.312	-0.410
-332.231	-31.825	-0.169	0.095
-331.216	-140.659	0.319	-0.033
-330.202	-200.000	0.033	-0.337
-329.187	-79.879	0.268	-0.090
-328.172	800.000	0.013	0.036
-327.158	-88.391	0.103	-0.031
-326.143	-170.059	0.065	0.002
-325.129	800.000	0.131	-0.458
-324.114	-200.000	-0.028	-0.228
-323.099	176.215	0.050	-0.072
-322.085	0.532	0.118	0.084
-321.070	-35.734	0.129	-0.070
-320.056	296.472	-0.034	0.063
-319.041	-134.600	-0.145	-0.018
-318.026	-200.000	-0.055	-0.330
-317.012	280.709	-0.060	-0.107
-315.997	-200.000	0.015	0.188
-314.983	-23.578	0.237	0.142
-313.968	-4.277	0.222	0.153
-312.953	562.605	0.172	0.415
-311.939	-108.027	-0.079	-0.017
-310.924	355.561	-0.075	-0.149
-309.910	-35.913	-0.178	-0.096
-308.895	-200.000	-0.009	-0.277
-307.880	193.318	0.092	-0.138
-306.866	800.000	0.022	0.084
-305.851	46.214	-0.167	-0.155
-304.837	235.674	0.117	-0.193
-303.822	86.648	0.191	0.210
-302.807	8.562	-0.255	-0.191
-301.793	54.321	-0.113	0.108
-300.778	152.250	0.158	-0.214
-299.764	11.643	0.077	-0.059
-298.749	-200.000	0.027	-0.291
-297.735	-2.133	-0.173	0.121
-296.720	-118.346	-0.295	0.052
-295.705	59.667	-0.119	0.117
-294.691	-200.000	-0.015	-0.216
-293.676	-200.000	-0.030	-0.139
-292.662	-200.000	-0.051	0.225
-291.647	-77.850	-0.408	0.140
-290.632	230.234	-0.093	0.152
-289.618	-38.228	0.195	0.103
-288.603	187.608	-0.051	0.075
-287.589	6.871	-0.113	-0.084
-286.574	-200.000	0.035	0.351
-285.559	-86.715	0.261	-0.079
-284.545	-200.000	-0.011	0.090
-283.530	61.803	-0.054	0.053
-282.516	-200.000	0.038	0.269
-281.501	-145.894	-0.339	0.030
-280.486	197.602	0.213	0.324
-279.472	65.488	-0.142	0.143
-278.457	19.222	-0.196	0.156
-277.443	640.509	0.079	0.201
-276.428	-56.404	0.276	0.122
-275.413	139.213	0.232	0.304
-274.399	0.097	-0.271	0.192
-273.384	223.475	-0.013	0.022
-272.370	0.815	-0.175	0.124
-271.355	800.000	0.057	0.164
-270.340	175.888	0.089	-0.129
-269.326	-200.000	-0.025	0.121
-268.311	549.120	0.039	0.092
-267.297	616.508	0.102	0.254
-266.282	-65.517	-0.203	0.081
-265.267	-126.559	0.078	0.011
-264.253	63.050	-0.112	0.111
-263.238	258.033	-0.173	-0.295
-262.224	800.000	-0.070	0.256
-261.209	-89.256	-0.267	-0.078
-260.195	209.411	-0.260	0.406
-259.180	249.195	0.257	0.433
-258.165	54.526	0.273	-0.261
-257.151	800.000	-0.022	0.060
-256.136	121.971	0.162	0.201
-255.122	-200.000	-0.002	0.137
-254.107	59.820	-0.184	0.180
-253.092	-177.010	-0.378	-0.009
-252.078	29.855	0.266	-0.226
-251.063	-193.647	-0.133	-0.001
-250.049	50.176	-0.025	-0.023
-249.034	123.307	-0.022	-0.028
-248.019	-200.000	-0.001	-0.134
-247.005	772.654	0.113	0.306
-245.990	785.420	-0.075	0.203
-244.976	-200.000	0.021	0.283
-243.961	-106.499	0.296	0.066
-242.946	800.000	0.046	-0.142
-241.932	516.646	0.111	-0.258
-240.917	679.095	0.036	0.094
-239.903	337.334	-0.045	0.086
-238.888	-10.714	0.129	-0.085
-237.873	800.000	0.029	0.088
-236.859	-128.524	0.162	0.023
-235.844	-106.944	0.033	0.007
-234.830	-193.380	-0.577	-0.005
-233.815	-111.514	-0.185	-0.037
-232.800	124.256	0.116	-0.145
-231.786	-103.028	0.415	-0.098
-230.771	-99.752	0.182	-0.045
-229.757	751.272	0.079	-0.212
-228.742	-116.795	0.082	0.015
-227.727	34.449	0.201	0.174
-226.713	104.975	-0.164	0.192
-225.698	131.707	0.172	-0.220
-224.684	49.841	-0.256	-0.239
-223.669	147.937	-0.106	-0.141
-222.655	5.727	0.060	-0.044
-221.640	-75.363	-0.213	-0.076
-220.625	-56.549	0.219	0.096
-219.611	327.527	-0.154	0.294
-218.596	-133.411	0.063	-0.008
-217.582	296.782	0.126	-0.230
-216.567	92.287	-0.095	-0.106
-215.552	509.712	0.088	-0.203
-214.538	59.767	-0.125	0.123
-213.523	-68.946	0.153	-0.059
-212.509	221.333	-0.150	0.239
-211.494	42.611	0.164	0.148
-210.479	-88.933	0.364	-0.107
-209.465	-143.703	-0.095	-0.009
-208.450	-200.000	-0.003	0.031
-207.436	-72.074	0.180	0.066
-206.421	800.000	-0.082	0.328
-205.406	92.429	-0.066	0.074
-204.392	-131.559	-0.217	-0.028
-203.377	4.730	0.086	0.063
-202.363	39.813	0.152	0.135
-201.348	-119.606	-0.088	0.015
-200.333	41.429	-0.028	-0.025
-199.319	-200.000	-0.006	0.056
-198.304	-117.023	-0.064	-0.012
-197.290	127.109	0.320	0.402
-196.275	304.504	-0.127	0.233
-195.260	28.326	0.075	-0.063
-194.246	-72.531	0.275	0.101
-193.231	-200.000	0.050	0.569
-192.217	-149.888	0.185	-0.014
-191.202	148.539	0.026	0.035
-190.187	301.334	0.124	-0.226
-189.173	-146.805	-0.400	-0.034
-188.158	800.000	0.047	0.201
-187.144	46.113	-0.151	0.138
-186.129	-200.000	-0.014	-0.157
-185.114	800.000	-0.110	0.303
-184.100	-200.000	0.070	-0.343
-183.085	176.444	0.044	-0.063
-182.071	113.175	0.049	0.059
-181.056	-200.000	-0.043	-0.339
-180.042	-105.759	0.224	0.050
-179.027	-144.224	-0.137	0.013
-178.012	-93.198	-0.374	0.103
-176.998	-103.187	0.041	-0.010
-175.983	-0.923	0.200	-0.140
-174.969	-200.000	-0.036	-0.276
-173.954	255.943	0.168	0.286
-172.939	-128.238	-0.411	0.058
-171.925	-102.436	-0.372	-0.088
-170.910	-200.000	-0.028	0.220
-169.896	276.883	-0.137	-0.241
-168.881	-35.927	0.090	-0.048
-167.866	371.123	-0.132	-0.264
-166.852	466.445	-0.114	-0.253
-165.837	16.768	0.126	0.099
-164.823	-80.314	-0.267	0.088
-163.808	800.000	-0.042	-0.142
-162.793	640.948	-0.053	-0.134
-161.779	26.516	-0.246	0.204
-160.764	-101.238	0.357	-0.086
-159.750	-79.135	0.285	0.096
-158.735	10.444	0.208	-0.157
-157.720	575.917	-0.069	-0.168
-156.706	-123.546	-0.119	-0.019
-155.691	9.636	0.136	0.102
-154.677	23.888	-0.012	-0.010
-153.662	-129.469	0.341	0.047
-152.647	606.403	0.041	-0.102
-151.633	800.000	0.095	0.359
-150.618	-0.157	0.335	0.236
-149.604	-32.098	0.334	0.185
-148.589	243.822	0.251	-0.417
-147.574	-200.000	-0.008	0.112
-146.560	-200.000	-0.004	0.408
-145.545	356.415	-0.084	0.165
-144.531	-64.359	-0.255	0.103
-143.516	800.000	0.028	0.104
-142.502	30.364	0.053	-0.045
-141.487	122.497	0.068	-0.085
-140.472	635.355	-0.209	0.526
-139.458	39.606	0.215	0.190
-138.443	-82.598	-0.209	-0.067
-137.429	-200.000	-0.084	-0.456
-136.414	88.368	0.221	0.243
-135.399	-200.000	-0.066	-0.308
-134.385	-50.007	-0.249	-0.117
-133.370	160.821	-0.222	0.307
-132.356	-200.000	-0.071	0.334
-131.341	261.717	0.109	0.186
-130.326	-200.000	0.013	-0.170
-129.312	-66.934	-0.158	0.062
-128.297	555.530	0.063	-0.149
-127.283	326.164	-0.139	-0.263
-126.268	198.145	0.037	0.055
-125.253	116.815	-0.100	0.122
-124.239	-121.634	-0.221	-0.036
-123.224	-75.384	0.353	-0.124
-122.210	1.238	0.134	-0.095
