DTS Sentinel unit serial number:	SN413079Multiplexer serial number:	ORYXHardware model number:	OX4-SRSoftware version number:	ORYX F/W v4.00 Oryx Data Collector v3.7.2.0data status	okinstallation	princeton_trtdifferential loss correction	single-endedforward channel	channel 2reverse channel	N/Adate	2019/09/17time	21:19:34forward acquisition time	60.00reverse acquisition time	0.00gamma	496.2192k internal	0.2340k external	0.2340temperature offset calibration	0.9988default loss term (dB/km)	0.3790temperature slope calibration	1.0000multiplexer offset coefficient	1.0000multiplexer slope coefficient	1.0000fibre end	0.00T internal ref (°C)	27.64T ext. ref 1 (°C)	0.19T ext. ref 2 (°C)	19.55length (m)	temperature (°C)	Stokes	anti-Stokes-747.200	800.000	0.074	0.273
-746.185	-200.000	0.014	0.164
-745.171	-200.000	-0.039	0.306
-744.156	800.000	0.094	0.389
-743.142	800.000	-0.022	-0.090
-742.127	800.000	-0.081	0.290
-741.112	800.000	0.064	0.273
-740.098	-200.000	-0.080	0.476
-739.083	15.008	-0.171	0.134
-738.069	800.000	-0.058	0.168
-737.054	-200.000	0.009	0.076
-736.039	71.155	-0.117	0.122
-735.025	-150.264	-0.369	-0.029
-734.010	654.580	-0.078	-0.201
-732.996	402.626	-0.193	-0.407
-731.981	380.705	0.088	-0.180
-730.966	-12.978	0.099	-0.065
-729.952	-200.000	-0.003	-0.269
-728.937	88.354	0.226	-0.252
-727.923	-62.775	-0.315	0.131
-726.908	135.251	-0.186	0.243
-725.894	126.192	-0.173	-0.220
-724.879	-133.594	-0.364	0.046
-723.864	-153.541	0.237	-0.016
-722.850	348.921	-0.085	-0.168
-721.835	241.803	-0.160	0.267
-720.821	-3.187	0.127	-0.089
-719.806	-94.493	-0.416	0.114
-718.791	243.075	-0.050	-0.084
-717.777	178.530	-0.051	-0.074
-716.762	-200.000	0.048	0.256
-715.748	-91.127	-0.157	0.045
-714.733	205.576	0.067	-0.105
-713.718	-45.908	-0.166	-0.082
-712.704	-125.727	0.530	-0.080
-711.689	201.390	0.030	-0.046
-710.675	-200.000	-0.003	0.159
-709.660	-200.000	-0.025	0.111
-708.645	-145.675	-0.323	-0.029
-707.631	-58.739	-0.219	-0.095
-706.616	-200.000	0.005	-0.283
-705.602	230.306	0.092	-0.151
-704.587	800.000	0.072	0.220
-703.572	-47.553	0.227	0.110
-702.558	253.986	-0.143	-0.245
-701.543	-14.849	-0.127	0.081
-700.529	-157.574	0.177	0.011
-699.514	567.424	0.036	-0.087
-698.499	-59.792	-0.213	0.091
-697.485	-29.380	-0.089	0.051
-696.470	-126.286	-0.466	-0.070
-695.456	7.227	-0.139	-0.104
-694.441	-200.000	0.003	-0.145
-693.426	-143.817	0.235	-0.022
-692.412	-149.776	-0.235	-0.018
-691.397	-21.181	-0.113	0.069
-690.383	-35.165	-0.138	0.075
-689.368	200.827	0.199	0.306
-688.354	82.971	-0.226	-0.246
-687.339	-113.928	-0.358	0.070
-686.324	-9.724	0.076	-0.050
-685.310	2.052	-0.267	0.193
-684.295	-35.904	0.300	0.162
-683.281	34.643	-0.064	0.056
-682.266	-135.645	-0.438	-0.052
-681.251	-180.710	-0.085	-0.002
-680.237	41.489	0.105	-0.095
-679.222	-200.000	0.014	0.145
-678.208	-159.813	0.252	-0.014
-677.193	71.259	-0.200	-0.207
-676.178	323.645	0.070	-0.134
-675.164	-61.891	0.170	0.071
-674.149	-99.739	-0.146	0.037
-673.135	413.995	-0.183	0.389
-672.120	-119.538	-0.110	-0.019
-671.105	800.000	-0.095	-0.349
-670.091	13.526	-0.287	0.222
-669.076	3.696	0.147	-0.107
-668.062	-200.000	0.024	0.193
-667.047	10.274	-0.069	0.053
-666.032	86.451	-0.092	0.101
-665.018	65.745	-0.017	-0.017
-664.003	-19.395	-0.245	-0.152
-662.989	54.697	-0.052	-0.050
-661.974	109.091	0.080	-0.096
-660.959	67.049	-0.057	0.058
-659.945	4.966	0.356	-0.262
-658.930	800.000	-0.031	0.119
-657.916	-38.805	0.144	0.076
-656.901	87.373	0.246	-0.272
-655.886	141.343	0.108	-0.142
-654.872	129.053	0.123	-0.157
-653.857	-103.044	-0.311	0.074
-652.843	-45.670	-0.237	0.117
-651.828	22.193	0.136	0.111
-650.814	800.000	-0.057	0.191
-649.799	-27.003	0.080	-0.047
-648.784	800.000	-0.117	0.400
-647.770	-105.865	-0.166	-0.037
-646.755	-200.000	-0.002	-0.204
-645.741	-32.749	0.273	-0.152
-644.726	800.000	-0.079	0.233
-643.711	11.803	-0.214	-0.164
-642.697	-84.284	0.327	-0.103
-641.682	-169.750	0.122	-0.004
-640.668	104.719	-0.096	0.113
-639.653	419.604	-0.071	0.151
-638.638	218.467	-0.085	-0.136
-637.624	-6.565	-0.148	0.101
-636.609	800.000	0.013	-0.054
-635.595	-128.701	-0.108	0.015
-634.580	114.024	0.121	-0.147
-633.565	-110.929	0.147	-0.030
-632.551	-200.000	-0.005	0.200
-631.536	-19.425	-0.211	0.131
-630.522	226.634	0.256	-0.414
-629.507	126.877	0.133	-0.168
-628.492	-102.556	0.235	0.056
-627.478	-104.235	0.398	-0.092
-626.463	-38.565	0.254	0.134
-625.449	191.103	-0.026	0.039
-624.434	791.164	0.154	-0.421
-623.419	800.000	0.060	-0.186
-622.405	252.755	0.132	0.224
-621.390	2.271	-0.234	-0.169
-620.376	9.176	0.057	-0.043
-619.361	-104.838	-0.412	-0.095
-618.346	800.000	0.090	0.287
-617.332	-53.120	0.183	0.084
-616.317	-200.000	0.009	-0.455
-615.303	-111.263	-0.118	0.024
-614.288	87.174	0.133	0.147
-613.273	328.656	0.148	-0.284
-612.259	800.000	0.071	0.272
-611.244	759.454	0.093	0.250
-610.230	29.588	0.065	0.055
-609.215	-38.502	0.166	0.087
-608.201	-199.178	-0.232	0.001
-607.186	361.199	-0.018	-0.035
-606.171	170.647	-0.127	-0.181
-605.157	281.441	0.054	-0.096
-604.142	-133.228	-0.375	0.047
-603.128	404.674	0.096	-0.201
-602.113	-107.071	0.079	-0.017
-601.098	-138.553	-0.360	0.039
-600.084	44.564	-0.221	-0.202
-599.069	-200.000	0.072	0.388
-598.055	-200.000	0.010	0.345
-597.040	16.713	0.287	0.226
-596.025	-99.980	-0.178	0.044
-595.011	-125.720	-0.136	0.021
-593.996	-149.562	-0.093	0.007
-592.982	-200.000	-0.050	-0.344
-591.967	-131.358	0.218	-0.029
-590.952	83.726	-0.264	-0.287
-589.938	-190.744	-0.201	0.002
-588.923	306.759	-0.063	-0.117
-587.909	105.632	0.082	-0.097
-586.894	63.881	0.089	-0.089
-585.879	-61.155	-0.221	0.093
-584.865	-96.518	0.125	0.033
-583.850	272.389	0.217	0.382
-582.836	800.000	-0.117	0.411
-581.821	-200.000	0.061	-0.293
-580.806	-54.017	-0.067	-0.030
-579.792	-192.536	-0.219	-0.002
-578.777	32.020	0.217	-0.187
-577.763	235.974	0.095	0.157
-576.748	-7.160	0.212	0.143
-575.733	47.615	0.162	0.151
-574.719	-200.000	0.029	-0.303
-573.704	-108.525	0.183	-0.039
-572.690	-200.000	0.043	-0.191
-571.675	-28.775	0.277	0.159
-570.661	87.011	-0.201	-0.222
-569.646	95.516	0.305	0.347
-568.631	27.994	-0.157	0.131
-567.617	82.727	0.314	0.339
-566.602	-49.413	-0.161	0.077
-565.588	455.578	0.075	0.166
-564.573	-200.000	0.043	-0.347
-563.558	29.964	0.268	0.228
-562.544	-57.964	0.099	0.043
-561.529	-200.000	-0.023	0.148
-560.515	-125.783	-0.443	0.067
-559.500	-200.000	-0.006	-0.101
-558.485	-86.651	-0.067	-0.020
-557.471	-102.098	-0.259	-0.062
-556.456	-44.604	-0.202	-0.100
-555.442	-25.072	0.129	-0.076
-554.427	-200.000	0.021	0.134
-553.412	800.000	0.024	-0.087
-552.398	-105.388	-0.354	-0.080
-551.383	-115.352	-0.227	-0.043
-550.369	-15.622	-0.188	0.119
-549.354	-65.682	-0.092	0.037
-548.339	-104.160	-0.200	0.046
-547.325	-94.150	0.062	0.017
-546.310	-136.769	0.285	0.033
-545.296	86.580	-0.220	-0.241
-544.281	379.225	-0.083	-0.168
-543.266	405.683	0.067	0.141
-542.252	-26.033	0.048	0.028
-541.237	-79.779	-0.217	0.073
-540.223	-152.205	-0.199	-0.014
-539.208	-200.000	0.008	0.171
-538.193	-93.774	0.147	-0.040
-537.179	-200.000	-0.007	0.134
-536.164	-101.066	0.221	-0.054
-535.150	460.768	0.172	-0.382
-534.135	147.652	0.145	0.194
-533.121	-55.598	-0.276	-0.123
-532.106	800.000	-0.022	0.081
-531.091	186.329	0.117	-0.173
-530.077	165.134	-0.228	-0.320
-529.062	800.000	0.152	-0.455
-528.048	-115.462	-0.043	0.008
-527.033	-200.000	0.032	0.171
-526.018	27.805	-0.263	0.220
-525.004	-33.782	-0.246	0.135
-523.989	-28.001	-0.133	0.077
-522.975	190.310	-0.020	0.031
-521.960	-26.345	0.120	0.070
-520.945	-73.569	0.134	-0.049
-519.931	-200.000	0.054	-0.410
-518.916	-200.000	-0.014	-0.161
-517.902	449.624	0.144	-0.316
-516.887	113.744	-0.210	-0.253
-515.872	-200.000	0.002	-0.291
-514.858	119.031	0.233	0.287
-513.843	149.832	-0.109	-0.146
-512.829	79.806	-0.164	-0.175
-511.814	187.070	-0.145	-0.215
-510.799	32.917	-0.148	-0.128
-509.785	759.450	-0.202	-0.543
-508.770	33.733	0.242	0.209
-507.756	281.147	0.233	0.415
-506.741	206.679	-0.233	-0.361
-505.726	-138.992	0.074	-0.008
-504.712	-108.510	-0.302	0.065
-503.697	-93.897	-0.131	-0.036
-502.683	42.259	0.232	0.209
-501.668	-84.143	0.053	0.017
-500.653	-200.000	-0.035	0.179
-499.639	-17.018	0.129	0.081
-498.624	191.270	-0.222	-0.333
-497.610	-99.649	-0.316	-0.079
-496.595	-156.746	0.100	0.006
-495.581	-139.736	-0.529	0.056
-494.566	-96.227	-0.427	-0.112
-493.551	734.115	-0.084	-0.223
-492.537	68.152	-0.148	-0.150
-491.522	675.400	0.092	0.236
-490.508	-200.000	0.052	0.226
-489.493	-200.000	0.013	0.200
-488.478	23.331	0.176	-0.144
-487.464	86.192	-0.169	0.184
-486.449	519.985	-0.143	-0.333
-485.435	-149.995	-0.120	-0.009
-484.420	-67.081	-0.245	-0.096
-483.405	80.473	0.219	0.234
-482.391	70.639	-0.100	0.103
-481.376	-68.939	-0.077	-0.030
-480.362	-200.000	0.018	0.156
-479.347	243.558	0.196	-0.326
-478.332	66.203	0.169	0.170
-477.318	800.000	-0.062	0.218
-476.303	276.714	-0.020	-0.035
-475.289	98.056	0.231	-0.263
-474.274	-68.249	0.289	-0.111
-473.259	281.703	0.080	-0.142
-472.245	36.204	-0.067	-0.058
-471.230	171.197	-0.081	-0.115
-470.216	-116.655	0.369	-0.067
-469.201	800.000	0.017	0.058
-468.186	206.607	0.038	-0.058
-467.172	-41.197	0.178	0.091
-466.157	800.000	-0.064	0.203
-465.143	800.000	0.017	0.062
-464.128	-17.829	0.053	-0.033
-463.113	-87.792	0.162	0.049
-462.099	182.038	0.023	-0.033
-461.084	-20.860	0.045	0.028
-460.070	14.316	-0.328	0.254
-459.055	-76.102	-0.278	0.097
-458.040	-200.000	0.019	0.131
-457.026	736.550	-0.120	0.320
-456.011	-200.000	0.009	0.130
-454.997	-139.959	-0.487	-0.051
-453.982	-28.928	0.168	-0.096
-452.968	-111.473	0.353	-0.071
-451.953	-200.000	-0.030	0.184
-450.938	2.585	-0.099	-0.071
-449.924	238.829	0.089	-0.146
-448.909	800.000	-0.014	0.042
-447.895	-48.619	-0.154	-0.073
-446.880	13.903	-0.304	0.234
-445.865	716.341	-0.057	0.151
-444.851	-55.275	0.265	0.118
-443.836	370.298	-0.059	-0.119
-442.822	2.867	0.190	-0.137
-441.807	-46.127	-0.337	0.164
-440.792	14.123	0.085	0.065
-439.778	-1.696	-0.129	-0.090
-438.763	-51.754	-0.359	-0.166
-437.749	180.287	-0.238	-0.346
-436.734	-200.000	0.024	-0.151
-435.719	-1.934	0.105	-0.073
-434.705	150.321	0.132	0.178
-433.690	-157.950	0.040	-0.002
-432.676	800.000	0.076	-0.245
-431.661	113.784	-0.102	-0.123
-430.646	800.000	0.032	-0.099
-429.632	421.925	-0.131	0.279
-428.617	18.997	-0.086	0.069
-427.603	-200.000	0.034	-0.173
-426.588	354.813	-0.026	0.051
-425.573	124.164	0.063	-0.078
-424.559	800.000	0.074	-0.228
-423.544	-30.626	0.120	-0.067
-422.530	2.413	-0.034	0.024
-421.515	-29.359	0.124	0.070
-420.500	386.688	-0.160	0.327
-419.486	-85.811	-0.240	-0.074
-418.471	6.911	0.230	0.170
-417.457	-200.000	0.005	0.069
-416.442	-28.111	-0.373	-0.214
-415.428	73.516	-0.160	-0.166
-414.413	-163.304	-0.167	0.008
-413.398	-19.631	0.104	-0.064
-412.384	-174.539	0.187	-0.005
-411.369	800.000	-0.051	0.154
-410.355	800.000	-0.025	-0.088
-409.340	-132.229	0.145	0.019
-408.325	-4.046	-0.067	-0.046
-407.311	13.339	0.224	-0.172
-406.296	-5.835	0.192	0.130
-405.282	11.724	-0.062	-0.047
-404.267	-146.182	0.379	-0.033
-403.252	-114.305	-0.081	0.015
-402.238	-117.049	0.112	0.020
-401.223	8.681	-0.057	0.042
-400.209	-200.000	-0.035	0.197
-399.194	340.156	0.070	-0.135
-398.179	15.431	0.329	0.256
-397.165	266.711	-0.131	-0.226
-396.150	-200.000	0.067	-0.381
-395.136	-200.000	-0.024	-0.172
-394.121	-91.301	0.077	-0.022
-393.106	800.000	0.096	0.328
-392.092	-71.181	0.050	0.019
-391.077	-57.687	0.113	-0.049
-390.063	59.184	-0.122	-0.119
-389.048	-99.513	0.288	-0.072
-388.033	50.731	-0.079	-0.073
-387.019	9.134	-0.064	0.048
-386.004	-29.849	-0.149	0.084
-384.990	-116.111	0.058	-0.011
-383.975	338.924	0.083	-0.160
-382.960	-176.063	-0.360	0.009
-381.946	177.488	0.029	-0.042
-380.931	-200.000	0.003	0.016
-379.917	275.350	0.016	0.028
-378.902	434.772	-0.120	0.257
-377.888	-69.756	0.249	-0.094
-376.873	-200.000	0.015	-0.165
-375.858	800.000	-0.037	-0.117
-374.844	-90.025	-0.281	-0.081
-373.829	-24.894	-0.072	-0.042
-372.815	-141.649	0.150	0.015
-371.800	-71.852	-0.344	0.127
-370.785	-79.370	0.098	0.033
-369.771	-64.730	0.231	-0.092
-368.756	-79.514	-0.183	-0.061
-367.742	-117.036	-0.389	-0.070
-366.727	800.000	-0.020	0.057
-365.712	-114.859	-0.144	0.027
-364.698	-188.505	-0.293	0.004
-363.683	-49.313	0.403	-0.190
-362.669	378.319	-0.199	0.402
-361.654	800.000	-0.078	0.326
-360.639	8.931	-0.386	0.288
-359.625	800.000	0.070	0.254
-358.610	-200.000	0.002	-0.241
-357.596	379.373	-0.114	0.231
-356.581	-200.000	-0.026	-0.449
-355.566	-142.565	0.202	-0.020
-354.552	-200.000	-0.028	-0.234
-353.537	633.131	-0.054	0.134
-352.523	800.000	0.125	0.418
-351.508	29.735	0.248	-0.208
-350.493	15.359	-0.084	0.065
-349.479	-200.000	-0.103	0.467
-348.464	-73.902	0.258	-0.092
-347.450	328.524	-0.242	-0.458
-346.435	54.016	0.074	0.070
-345.420	-88.884	-0.054	0.016
-344.406	33.782	0.253	-0.217
-343.391	-200.000	-0.004	-0.082
-342.377	800.000	0.050	0.173
-341.362	-123.044	0.206	0.033
-340.348	-200.000	-0.001	-0.106
-339.333	1.341	-0.041	-0.029
-338.318	104.416	-0.109	0.127
-337.304	-160.228	-0.040	0.002
-336.289	800.000	-0.033	-0.140
-335.275	42.858	-0.287	0.258
-334.260	-73.056	-0.132	0.048
-333.245	202.871	-0.076	-0.116
-332.231	226.077	-0.034	0.055
-331.216	-64.868	0.108	-0.043
-330.202	200.455	-0.177	-0.269
-329.187	214.266	-0.085	0.132
-328.172	-150.239	0.235	-0.018
-327.158	-27.052	-0.366	0.210
-326.143	-117.102	-0.349	-0.063
-325.129	173.353	-0.113	-0.160
-324.114	-51.626	-0.172	0.079
-323.099	42.469	0.159	0.143
-322.085	136.979	0.119	0.153
-321.070	-90.180	-0.112	-0.032
-320.056	158.378	0.196	0.268
-319.041	-200.000	0.046	0.266
-318.026	-136.144	-0.295	-0.034
-317.012	-200.000	0.025	-0.158
-315.997	-200.000	0.018	0.141
-314.983	190.777	-0.188	0.279
-313.968	-186.981	-0.344	-0.005
-312.953	-79.334	0.141	0.047
-311.939	-39.630	-0.084	-0.043
-310.924	338.750	0.138	0.266
-309.910	73.929	0.072	0.075
-308.895	-104.542	-0.154	-0.035
-307.880	-168.396	0.281	-0.011
-306.866	-122.753	0.195	0.031
-305.851	-150.513	0.174	-0.013
-304.837	34.782	0.160	-0.138
-303.822	102.820	-0.164	-0.190
-302.807	-110.632	0.103	0.021
-301.793	66.314	-0.204	-0.204
-300.778	-44.874	-0.114	0.056
-299.764	-112.102	0.332	0.066
-298.749	313.556	-0.117	-0.217
-297.735	-76.449	-0.282	0.098
-296.720	12.713	0.135	-0.102
-295.705	-43.531	0.265	-0.132
-294.691	126.255	0.086	-0.107
-293.676	-90.256	0.314	-0.090
-292.662	-144.205	0.198	-0.018
-291.647	368.906	-0.105	0.210
-290.632	213.062	0.080	0.124
-289.618	-200.000	-0.048	0.372
-288.603	-200.000	0.023	0.262
-287.589	-22.128	0.122	-0.073
-286.574	242.365	-0.197	0.325
-285.559	800.000	-0.051	-0.155
-284.545	212.882	0.051	-0.079
-283.530	-200.000	-0.035	-0.208
-282.516	15.050	0.060	0.047
-281.501	546.795	0.030	-0.070
-280.486	-102.243	0.061	0.014
-279.472	-135.232	-0.067	-0.008
-278.457	800.000	0.074	0.240
-277.443	0.339	0.403	-0.283
-276.428	-200.000	0.028	0.262
-275.413	-29.557	-0.158	0.089
-274.399	197.633	0.227	-0.341
-273.384	108.012	-0.387	-0.454
-272.370	-63.640	0.192	0.077
-271.355	-96.292	-0.077	-0.020
-270.340	8.063	0.324	0.239
-269.326	-200.000	0.003	0.074
-268.311	-48.274	0.104	-0.049
-267.297	-112.049	0.339	0.067
-266.282	-39.077	0.339	-0.176
-265.267	-18.492	0.232	0.143
-264.253	46.326	-0.135	0.123
-263.238	800.000	-0.034	0.146
-262.224	-78.483	-0.256	0.086
-261.209	-97.960	0.331	-0.084
-260.195	-200.000	-0.003	-0.261
-259.180	-93.337	-0.098	-0.027
-258.165	498.023	-0.042	0.095
-257.151	45.074	0.084	-0.076
-256.136	-29.660	-0.476	-0.267
-255.122	-32.600	0.291	-0.159
-254.107	800.000	0.027	-0.072
-253.092	-200.000	0.036	0.273
-252.078	74.586	-0.082	0.085
-251.063	-92.064	-0.042	0.012
-250.049	-146.514	0.338	0.029
-249.034	-200.000	0.013	0.358
-248.019	-53.208	0.164	-0.074
-247.005	-136.169	0.195	0.022
-245.990	17.714	0.125	-0.098
-244.976	-45.111	-0.282	-0.138
-243.961	-200.000	-0.028	-0.130
-242.946	172.022	0.072	0.102
-241.932	-60.201	-0.127	-0.053
-240.917	438.399	-0.059	-0.126
-239.903	396.122	0.109	-0.223
-238.888	12.682	-0.184	-0.140
-237.873	55.281	-0.120	0.114
-236.859	154.151	0.146	0.197
-235.844	800.000	-0.133	0.392
-234.830	79.865	0.045	-0.047
-233.815	108.792	-0.048	0.057
-232.800	-65.145	-0.200	0.079
-231.786	130.189	0.095	0.120
-230.771	520.674	0.039	-0.090
-229.757	800.000	-0.040	-0.118
-228.742	20.932	0.144	0.115
-227.727	-57.846	0.248	-0.107
-226.713	800.000	0.025	-0.106
-225.698	-77.037	0.318	-0.109
-224.684	-128.988	-0.223	0.031
-223.669	-200.000	-0.052	-0.254
-222.655	-200.000	-0.085	-0.390
-221.640	-64.603	0.111	-0.044
-220.625	-162.691	0.236	-0.011
-219.611	-100.728	-0.098	-0.024
-218.596	800.000	0.110	-0.438
-217.582	29.614	-0.142	-0.118
-216.567	-171.874	0.242	0.008
-215.552	285.297	0.092	0.163
-214.538	27.241	0.325	0.268
-213.523	25.353	0.105	-0.086
-212.509	-13.174	0.160	-0.102
-211.494	318.818	0.026	0.049
-210.479	-200.000	-0.021	-0.122
-209.465	180.076	0.080	0.115
-208.450	-165.797	-0.044	-0.002
-207.436	800.000	-0.066	-0.212
-206.421	-18.764	-0.176	0.107
-205.406	106.371	0.090	0.105
-204.392	-200.000	0.054	-0.346
-203.377	343.905	0.058	-0.112
-202.363	-136.995	-0.160	-0.018
-201.348	-22.246	0.383	-0.228
-200.333	127.219	-0.174	0.217
-199.319	-7.905	-0.121	0.080
-198.304	800.000	-0.054	0.167
-197.290	127.916	-0.115	-0.143
-196.275	-200.000	0.034	0.182
-195.260	-200.000	0.038	0.223
-194.246	-104.060	-0.083	0.019
-193.231	211.432	0.107	0.165
-192.217	26.895	-0.311	0.256
-191.202	-51.213	0.367	0.169
-190.187	-188.258	-0.210	-0.003
-189.173	-93.681	-0.198	0.054
-188.158	199.411	0.033	-0.050
-187.144	6.040	0.169	-0.123
-186.129	92.750	0.051	-0.056
-185.114	-82.649	0.207	0.066
-184.100	-112.661	0.065	-0.013
-183.085	159.487	0.196	0.267
-182.071	-113.884	0.084	-0.016
-181.056	-142.092	-0.301	-0.029
-180.042	-200.000	-0.050	-0.312
-179.027	-121.545	0.225	-0.037
-178.012	-35.437	0.283	-0.151
-176.998	-175.744	-0.268	-0.007
-175.983	-56.103	0.181	-0.079
-174.969	-17.458	-0.221	-0.136
-173.954	702.801	-0.110	0.284
-172.939	558.906	-0.096	0.228
-171.925	367.352	0.029	-0.057
-170.910	-45.989	-0.131	-0.063
-169.896	1.406	0.220	0.155
-168.881	348.862	0.065	0.126
-167.866	-106.807	-0.058	-0.013
-166.852	-46.480	0.227	0.109
-165.837	81.572	-0.052	0.055
-164.823	366.710	0.126	0.248
-163.808	-69.653	0.146	0.055
-162.793	-168.038	-0.092	-0.004
-161.779	216.330	-0.080	0.125
-160.764	-90.136	-0.176	0.050
-159.750	-200.000	-0.006	-0.066
-158.735	110.872	0.059	-0.069
-157.720	-200.000	-0.059	0.387
-156.706	-50.215	-0.202	-0.094
-155.691	187.995	-0.043	0.063
-154.677	-200.000	0.004	0.496
-153.662	-85.379	0.094	0.029
-152.647	93.291	0.122	0.135
-151.633	530.361	0.058	0.134
-150.618	-70.946	0.137	0.050
-149.604	277.006	0.076	-0.133
-148.589	43.208	0.166	0.148
-147.574	215.246	-0.150	-0.232
-146.560	-200.000	0.056	-0.414
-145.545	145.293	-0.108	0.142
-144.531	-200.000	0.026	-0.271
-143.516	184.286	0.184	-0.267
-142.502	30.120	-0.325	0.271
-141.487	-14.762	0.159	0.100
-140.472	800.000	0.060	0.204
-139.458	-26.156	-0.181	0.104
-138.443	-16.528	-0.238	0.148
-137.429	-68.611	-0.348	0.132
-136.414	53.433	-0.165	0.155
-135.399	166.588	0.183	0.253
-134.385	502.444	0.272	0.616
-133.370	-200.000	0.010	-0.057
-132.356	-80.361	0.124	-0.040
-131.341	17.538	0.079	0.062
-130.326	-65.800	0.542	-0.212
-129.312	-51.078	0.451	-0.207
-128.297	326.730	0.160	-0.301
-127.283	-58.857	0.375	-0.159
-126.268	41.974	-0.108	-0.096
-125.253	248.118	0.148	-0.244
-124.239	176.227	0.094	-0.134
-123.224	-112.108	0.113	0.022
-122.210	-48.002	0.246	0.116
-121.195	61.945	-0.159	-0.155
-120.180	-55.743	0.083	0.036
