DTS Sentinel unit serial number:	SN413079Multiplexer serial number:	ORYXHardware model number:	OX4-SRSoftware version number:	ORYX F/W v4.00 Oryx Data Collector v3.7.2.0data status	okinstallation	princeton_trtdifferential loss correction	single-endedforward channel	channel 2reverse channel	N/Adate	2019/09/13time	22:23:35forward acquisition time	60.00reverse acquisition time	0.00gamma	496.2192k internal	0.2335k external	0.2335temperature offset calibration	1.0134default loss term (dB/km)	0.3790temperature slope calibration	1.0000multiplexer offset coefficient	1.0000multiplexer slope coefficient	1.0000fibre end	0.00T internal ref (°C)	27.81T ext. ref 1 (°C)	3.23T ext. ref 2 (°C)	22.49length (m)	temperature (°C)	Stokes	anti-Stokes-747.200	223.809	0.031	0.050
-746.185	279.605	0.156	0.279
-745.171	-11.364	0.134	0.088
-744.156	17.806	-0.427	0.341
-743.142	-191.068	-0.321	0.003
-742.127	-130.455	-0.337	-0.046
-741.112	-166.812	-0.414	0.017
-740.098	221.041	0.036	-0.058
-739.083	-84.801	-0.241	-0.076
-738.069	21.502	0.081	-0.066
-737.054	4.185	0.127	0.093
-736.039	61.474	-0.091	0.091
-735.025	-200.000	-0.049	0.215
-734.010	-200.000	-0.044	0.321
-732.996	800.000	0.046	0.195
-731.981	86.367	0.219	-0.242
-730.966	-103.128	-0.304	-0.072
-729.952	-200.000	-0.041	-0.271
-728.937	758.667	0.054	0.146
-727.923	-109.422	-0.136	-0.029
-726.908	-200.000	0.024	-0.120
-725.894	-141.928	-0.103	-0.010
-724.879	-182.997	0.211	-0.004
-723.864	429.516	-0.085	0.185
-722.850	-200.000	-0.010	0.088
-721.835	-153.951	-0.335	-0.023
-720.821	16.852	-0.168	0.134
-719.806	-93.340	-0.206	-0.057
-718.791	-38.118	0.079	0.042
-717.777	-200.000	-0.017	-0.275
-716.762	-92.403	-0.138	-0.039
-715.748	167.647	-0.221	-0.315
-714.733	-200.000	0.004	-0.066
-713.718	-0.409	0.166	-0.118
-712.704	-10.979	0.047	0.031
-711.689	-40.380	0.313	0.163
-710.675	800.000	-0.047	0.169
-709.660	-12.941	-0.223	-0.145
-708.645	-64.776	-0.128	0.052
-707.631	-23.665	-0.030	0.018
-706.616	223.792	-0.113	-0.182
-705.602	-200.000	0.017	0.103
-704.587	-200.000	0.001	0.042
-703.572	-123.914	0.176	0.028
-702.558	-20.987	-0.189	-0.116
-701.543	-140.249	0.150	0.016
-700.529	-98.536	0.222	0.057
-699.514	-80.741	0.189	-0.063
-698.499	-19.230	0.196	-0.122
-697.485	43.239	-0.077	0.070
-696.470	-44.654	-0.177	-0.089
-695.456	800.000	-0.041	-0.126
-694.441	-200.000	0.005	0.099
-693.426	800.000	0.036	-0.102
-692.412	342.212	0.190	0.373
-691.397	-200.000	-0.038	0.210
-690.383	-167.782	-0.309	-0.012
-689.368	-98.132	0.136	-0.035
-688.354	800.000	0.011	0.038
-687.339	800.000	-0.007	-0.019
-686.324	-200.000	0.042	-0.247
-685.310	-200.000	-0.003	0.021
-684.295	-200.000	-0.003	-0.155
-683.281	-200.000	-0.020	0.226
-682.266	-17.642	-0.382	0.241
-681.251	447.917	0.071	0.156
-680.237	668.241	0.062	-0.161
-679.222	-32.071	-0.171	0.096
-678.208	198.644	0.153	0.235
-677.193	77.693	0.289	-0.309
-676.178	-200.000	0.013	-0.193
-675.164	-20.577	0.336	0.207
-674.149	359.027	0.097	-0.194
-673.135	476.087	-0.212	-0.481
-672.120	97.695	-0.283	-0.326
-671.105	-16.278	-0.218	0.139
-670.091	2.227	-0.073	0.053
-669.076	-200.000	0.004	-0.024
-668.062	-200.000	-0.030	0.147
-667.047	141.234	-0.335	0.444
-666.032	154.567	0.122	0.167
-665.018	-140.673	0.312	0.032
-664.003	22.499	-0.105	-0.086
-662.989	-134.430	-0.241	0.030
-661.974	28.196	-0.299	0.253
-660.959	215.070	0.011	-0.017
-659.945	-54.119	0.528	-0.240
-658.930	156.141	-0.174	-0.241
-657.916	800.000	-0.022	0.063
-656.901	-8.798	-0.429	-0.288
-655.886	-76.233	0.151	-0.053
-654.872	29.720	-0.187	0.159
-653.857	236.046	-0.153	-0.253
-652.843	-78.114	-0.157	-0.054
-651.828	-97.186	-0.121	0.032
-650.814	-200.000	0.020	-0.188
-649.799	800.000	-0.020	-0.061
-648.784	-8.887	-0.250	0.168
-647.770	-149.138	0.217	0.017
-646.755	-143.825	-0.327	-0.031
-645.741	800.000	0.090	-0.357
-644.726	-189.225	-0.285	-0.003
-643.711	-50.129	-0.292	-0.139
-642.697	-200.000	0.038	0.218
-641.682	655.141	-0.087	-0.224
-640.668	800.000	0.103	-0.312
-639.653	800.000	0.030	0.107
-638.638	-182.530	0.228	0.004
-637.624	115.417	-0.092	0.113
-636.609	-158.599	0.423	0.024
-635.595	-41.478	-0.181	-0.093
-634.580	-120.844	-0.184	0.031
-633.565	241.472	0.137	0.229
-632.551	-124.027	0.152	0.024
-631.536	-123.862	0.081	0.013
-630.522	-98.872	0.148	-0.038
-629.507	289.079	-0.127	-0.230
-628.492	-11.078	0.326	-0.215
-627.478	-159.056	-0.253	-0.014
-626.463	15.738	0.242	0.190
-625.449	575.777	0.148	-0.362
-624.434	36.155	-0.209	-0.184
-623.419	-38.736	-0.062	-0.033
-622.405	125.883	-0.169	0.214
-621.390	-157.191	0.104	-0.006
-620.376	-46.645	-0.195	-0.095
-619.361	150.001	0.082	-0.112
-618.346	99.529	-0.197	-0.228
-617.332	-66.910	-0.174	-0.069
-616.317	96.797	-0.153	-0.175
-615.303	-53.141	0.166	-0.076
-614.288	-49.580	-0.183	-0.087
-613.273	228.755	-0.060	-0.099
-612.259	800.000	-0.067	0.238
-611.244	74.951	-0.019	-0.020
-610.230	800.000	-0.039	-0.117
-609.215	-200.000	0.008	-0.148
-608.201	800.000	-0.056	0.167
-607.186	556.255	-0.059	-0.142
-606.171	-151.785	0.586	0.043
-605.157	-200.000	0.023	0.344
-604.142	44.309	-0.091	0.083
-603.128	-34.004	-0.409	-0.225
-602.113	607.803	-0.018	0.045
-601.098	-58.289	-0.251	0.109
-600.084	-0.165	-0.075	-0.054
-599.069	-109.390	0.214	-0.045
-598.055	-154.714	-0.154	-0.010
-597.040	-130.952	-0.166	0.022
-596.025	324.207	-0.083	-0.159
-595.011	46.210	0.183	-0.169
-593.996	64.403	-0.068	-0.069
-592.982	171.044	-0.082	0.117
-591.967	598.461	-0.034	-0.085
-590.952	800.000	-0.001	-0.003
-589.938	-200.000	0.068	0.305
-588.923	-200.000	0.006	0.156
-587.909	139.441	-0.128	0.168
-586.894	130.651	0.087	-0.111
-585.879	800.000	-0.070	0.213
-584.865	-200.000	0.059	-0.359
-583.850	-2.869	-0.151	0.106
-582.836	800.000	-0.039	0.136
-581.821	103.369	0.075	-0.088
-580.806	-11.704	-0.151	0.099
-579.792	-77.742	0.250	-0.086
-578.777	-147.058	-0.265	-0.023
-577.763	-111.712	-0.207	-0.042
-576.748	72.029	0.413	-0.429
-575.733	102.903	0.006	-0.007
-574.719	306.450	-0.187	0.347
-573.704	-200.000	-0.016	-0.092
-572.690	-87.880	0.113	0.034
-571.675	120.477	0.211	0.262
-570.661	-129.811	0.311	-0.043
-569.646	-109.728	0.311	0.065
-568.631	33.481	-0.046	-0.040
-567.617	-170.253	0.085	0.003
-566.602	-9.538	-0.169	0.112
-565.588	217.272	-0.076	-0.121
-564.573	-170.685	0.136	0.005
-563.558	-200.000	-0.033	0.482
-562.544	181.442	-0.169	0.248
-561.529	-135.816	-0.437	0.051
-560.515	-200.000	-0.014	-0.200
-559.500	800.000	-0.105	0.342
-558.485	-11.683	-0.119	0.078
-557.471	-87.262	-0.140	0.042
-556.456	180.187	0.215	-0.314
-555.442	800.000	0.029	-0.091
-554.427	69.152	-0.442	0.453
-553.412	-200.000	0.011	-0.305
-552.398	112.643	0.089	-0.108
-551.383	-69.435	-0.275	0.105
-550.369	429.746	0.088	0.189
-549.354	-200.000	-0.031	-0.249
-548.339	-148.547	-0.203	0.017
-547.325	91.375	-0.127	0.142
-546.310	-200.000	0.007	-0.151
-545.296	320.087	0.037	0.071
-544.281	-200.000	0.019	-0.167
-543.266	94.278	0.126	0.143
-542.252	-77.106	0.182	0.063
-541.237	178.106	-0.196	0.284
-540.223	800.000	-0.052	0.155
-539.208	-54.096	-0.123	-0.056
-538.193	-200.000	0.002	0.047
-537.179	83.661	0.094	0.102
-536.164	-162.238	-0.311	-0.015
-535.150	800.000	0.053	0.154
-534.135	-121.536	-0.154	0.025
-533.121	37.967	-0.057	-0.051
-532.106	-116.085	-0.162	0.030
-531.091	66.974	-0.432	-0.439
-530.077	97.795	-0.203	-0.233
-529.062	274.975	0.061	0.108
-528.048	-90.702	-0.096	-0.028
-527.033	-88.351	-0.200	0.060
-526.018	249.133	-0.160	0.270
-525.004	-182.464	-0.002	0.000
-523.989	101.434	0.123	-0.143
-522.975	-128.635	0.198	-0.028
-521.960	35.508	0.271	0.237
-520.945	-12.143	-0.013	0.009
-519.931	118.916	0.167	-0.206
-518.916	582.745	0.096	-0.234
-517.902	-105.575	-0.337	0.076
-516.887	-200.000	-0.029	0.132
-515.872	-39.865	-0.164	0.085
-514.858	311.247	-0.106	0.198
-513.843	-200.000	-0.031	-0.166
-512.829	54.618	0.122	0.117
-511.814	72.225	-0.180	0.186
-510.799	69.716	0.174	-0.178
-509.785	118.558	-0.155	-0.191
-508.770	-200.000	0.003	-0.024
-507.756	-137.609	0.269	-0.030
-506.741	-27.925	-0.230	0.133
-505.726	61.232	0.065	-0.065
-504.712	-200.000	0.009	-0.144
-503.697	-200.000	-0.012	0.147
-502.683	-77.712	-0.337	0.116
-501.668	-200.000	0.007	-0.033
-500.653	75.127	-0.093	-0.098
-499.639	98.417	-0.165	-0.189
-498.624	116.502	-0.065	-0.080
-497.610	12.548	-0.075	0.058
-496.595	94.522	-0.027	-0.031
-495.581	-84.581	-0.516	0.162
-494.566	2.907	0.278	-0.201
-493.551	-200.000	0.020	0.094
-492.537	-154.612	-0.164	0.011
-491.522	385.016	0.055	-0.112
-490.508	-58.591	-0.223	0.096
-489.493	-200.000	0.009	-0.151
-488.478	36.652	0.037	-0.033
-487.464	-163.715	0.091	0.004
-486.449	178.129	0.069	0.100
-485.435	24.864	-0.198	-0.163
-484.420	-155.881	-0.105	-0.007
-483.405	4.584	-0.225	-0.165
-482.391	-200.000	-0.208	0.001
-481.376	38.584	-0.023	-0.020
-480.362	37.026	0.131	-0.116
-479.347	-60.900	-0.234	-0.099
-478.332	114.648	0.239	0.289
-477.318	800.000	0.116	-0.326
-476.303	-78.178	0.325	-0.111
-475.289	440.002	0.075	-0.162
-474.274	800.000	-0.019	0.055
-473.259	-200.000	0.013	-0.183
-472.245	246.234	0.168	-0.282
-471.230	-43.872	-0.143	0.072
-470.216	162.311	-0.198	0.275
-469.201	15.714	0.238	0.186
-468.186	-53.006	0.181	-0.083
-467.172	800.000	-0.115	0.331
-466.157	5.918	0.263	0.193
-465.143	-11.146	-0.234	0.153
-464.128	-118.803	0.166	0.029
-463.113	-200.000	0.041	0.262
-462.099	-28.991	-0.312	-0.178
-461.084	-0.756	0.112	0.079
-460.070	58.775	0.153	-0.150
-459.055	-200.000	0.063	0.406
-458.040	754.179	0.027	0.073
-457.026	-145.761	0.321	-0.028
-456.011	-60.792	-0.129	0.054
-454.997	40.234	0.086	-0.077
-453.982	788.810	-0.133	0.362
-452.968	-200.000	-0.020	-0.103
-451.953	800.000	0.077	-0.240
-450.938	752.690	0.009	-0.023
-449.924	-191.923	-0.456	-0.004
-448.909	-200.000	0.006	0.254
-447.895	800.000	-0.024	-0.103
-446.880	-109.974	0.203	0.042
-445.865	-193.296	0.183	-0.002
-444.851	-200.000	-0.012	0.149
-443.836	216.112	-0.274	-0.433
-442.822	152.301	0.162	-0.219
-441.807	370.799	0.038	-0.077
-440.792	-136.632	0.114	0.013
-439.778	443.139	-0.064	0.138
-438.763	-48.126	-0.173	-0.083
-437.749	800.000	0.116	-0.363
-436.734	-74.524	0.300	-0.107
-435.719	-18.594	0.154	-0.096
-434.705	204.594	0.109	-0.168
-433.690	-17.663	0.296	-0.185
-432.676	38.336	-0.190	0.168
-431.661	564.627	0.072	-0.174
-430.646	-200.000	-0.006	0.150
-429.632	800.000	-0.105	-0.303
-428.617	366.365	0.087	0.175
-427.603	-117.950	-0.203	-0.036
-426.588	-200.000	-0.001	-0.082
-425.573	214.576	-0.161	0.252
-424.559	94.191	0.115	0.130
-423.544	800.000	-0.075	0.285
-422.530	425.859	0.160	0.343
-421.515	-184.952	-0.599	0.009
-420.500	-139.798	-0.249	0.026
-419.486	-200.000	0.048	-0.521
-418.471	-45.957	-0.075	-0.037
-417.457	-0.912	-0.040	0.028
-416.442	-128.175	0.222	-0.032
-415.428	-200.000	0.013	-0.188
-414.413	-162.891	0.321	-0.015
-413.398	800.000	-0.147	0.477
-412.384	48.804	0.089	-0.083
-411.369	-200.000	0.039	-0.287
-410.355	503.259	-0.021	0.049
-409.340	-27.564	0.352	0.203
-408.325	800.000	0.058	0.185
-407.311	27.314	-0.172	0.143
-406.296	-7.879	-0.133	-0.089
-405.282	-21.594	0.149	0.090
-404.267	60.890	-0.182	0.179
-403.252	56.719	-0.145	-0.140
-402.238	800.000	-0.034	0.111
-401.223	-200.000	-0.045	0.206
-400.209	-200.000	0.042	0.211
-399.194	-80.053	0.208	0.069
-398.179	-160.605	0.226	-0.012
-397.165	-138.185	0.170	-0.019
-396.150	-139.429	0.146	-0.015
-395.136	-200.000	-0.005	0.166
-394.121	800.000	-0.059	0.203
-393.106	-11.401	0.078	0.051
-392.092	-161.196	0.337	-0.017
-391.077	-103.163	-0.149	0.035
-390.063	-200.000	-0.571	-0.001
-389.048	-200.000	0.008	-0.173
-388.033	-1.300	-0.078	-0.054
-387.019	290.789	-0.076	0.138
-386.004	-6.154	0.038	-0.025
-384.990	-109.724	-0.422	-0.088
-383.975	-166.234	0.207	0.009
-382.960	-200.000	0.068	-0.347
-381.946	-156.906	0.131	0.008
-380.931	-200.000	0.022	-0.163
-379.917	800.000	0.067	-0.205
-378.902	-126.913	0.358	-0.052
-377.888	66.529	-0.205	-0.206
-376.873	-25.737	0.380	0.222
-375.858	-200.000	-0.013	0.209
-374.844	200.917	0.243	-0.370
-373.829	-81.636	-0.324	-0.106
-372.815	800.000	0.073	-0.276
-371.800	251.536	-0.183	-0.309
-370.785	-200.000	0.038	-0.195
-369.771	14.935	0.226	0.175
-368.756	-64.524	-0.312	0.126
-367.742	448.657	0.066	-0.144
-366.727	-200.000	0.005	0.027
-365.712	-98.895	0.266	0.067
-364.698	204.939	-0.112	-0.172
-363.683	800.000	0.038	-0.163
-362.669	-200.000	-0.016	0.149
-361.654	-1.306	-0.225	-0.157
-360.639	0.071	-0.079	-0.055
-359.625	-85.222	0.301	-0.093
-358.610	136.706	0.284	0.367
-357.596	610.235	-0.039	0.097
-356.581	-200.000	0.008	0.152
-355.566	-19.986	0.292	0.178
-354.552	-91.217	-0.379	-0.107
-353.537	70.892	-0.166	0.170
-352.523	223.265	-0.114	0.182
-351.508	-41.423	0.313	-0.159
-350.493	-200.000	-0.012	0.452
-349.479	59.634	-0.217	0.212
-348.464	115.349	0.045	-0.054
-347.450	-200.000	-0.017	0.403
-346.435	105.605	0.297	0.347
-345.420	-131.844	0.205	-0.026
-344.406	9.655	-0.201	-0.151
-343.391	800.000	-0.106	-0.330
-342.377	625.192	0.086	0.215
-341.362	101.886	-0.057	-0.066
-340.348	-23.419	0.095	-0.056
-339.333	-66.625	0.233	-0.091
-338.318	-200.000	-0.008	0.188
-337.304	-78.699	0.321	0.108
-336.289	-200.000	-0.038	-0.266
-335.275	68.223	-0.080	0.081
-334.260	-33.594	0.041	-0.022
-333.245	800.000	0.101	0.286
-332.231	-200.000	0.008	0.280
-331.216	327.966	0.087	-0.165
-330.202	-114.938	-0.072	0.014
-329.187	-200.000	0.033	-0.191
-328.172	-200.000	0.144	0.000
-327.158	-200.000	0.018	0.175
-326.143	-200.000	0.038	0.197
-325.129	41.582	-0.290	0.260
-324.114	-122.574	-0.252	-0.040
-323.099	-123.806	-0.200	-0.031
-322.085	293.543	0.064	0.115
-321.070	-57.749	0.176	-0.076
-320.056	299.844	0.073	0.133
-319.041	-7.129	0.216	-0.145
-318.026	-37.139	0.106	-0.056
-317.012	639.573	0.051	0.128
-315.997	121.750	-0.032	-0.039
-314.983	85.164	-0.168	0.182
-313.968	-175.140	0.167	-0.005
-312.953	329.817	-0.078	0.148
-311.939	84.416	-0.077	-0.083
-310.924	-35.111	0.065	0.035
-309.910	-200.000	-0.016	-0.368
-308.895	-20.866	-0.325	-0.197
-307.880	138.967	0.227	0.295
-306.866	606.040	-0.062	0.153
-305.851	-113.637	0.291	0.056
-304.837	270.200	0.085	-0.148
-303.822	800.000	-0.094	-0.306
-302.807	278.382	-0.067	-0.118
-301.793	7.484	-0.120	-0.088
-300.778	361.719	0.181	0.359
-299.764	-54.778	-0.451	-0.201
-298.749	-200.000	0.054	0.492
-297.735	-2.383	0.328	0.227
-296.720	800.000	-0.095	0.265
-295.705	-108.704	0.125	0.026
-294.691	-164.030	-0.309	-0.014
-293.676	-81.783	0.128	0.042
-292.662	-90.936	-0.141	-0.040
-291.647	800.000	0.035	-0.106
-290.632	800.000	-0.066	0.181
-289.618	-18.688	0.181	-0.111
-288.603	-145.784	0.296	0.026
-287.589	-19.935	0.052	-0.032
-286.574	-200.000	0.004	-0.103
-285.559	-55.577	-0.179	-0.079
-284.545	573.724	-0.100	-0.240
-283.530	447.326	0.098	0.212
-282.516	173.566	-0.090	0.127
-281.501	14.553	0.133	-0.102
-280.486	394.210	-0.123	-0.253
-279.472	293.381	0.157	-0.283
-278.457	-200.000	0.010	-0.044
-277.443	726.081	-0.146	0.383
-276.428	-198.562	0.520	0.003
-275.413	84.877	0.105	-0.114
-274.399	-200.000	-0.024	-0.127
-273.384	-41.476	0.169	0.086
-272.370	164.325	-0.040	0.055
-271.355	19.127	-0.159	-0.126
-270.340	-94.904	0.036	-0.010
-269.326	-8.078	-0.204	0.136
-268.311	-200.000	-0.001	0.370
-267.297	278.218	-0.128	0.225
-266.282	-96.732	-0.279	-0.072
-265.267	-49.277	-0.131	0.062
-264.253	800.000	-0.104	-0.315
-263.238	-33.364	-0.281	-0.153
-262.224	800.000	0.030	0.116
-261.209	139.582	0.089	-0.116
-260.195	47.227	-0.129	-0.118
-259.180	800.000	0.143	0.607
-258.165	-170.147	0.338	0.012
-257.151	96.396	-0.287	-0.324
-256.136	-200.000	0.005	0.114
-255.122	194.617	-0.170	-0.255
-254.107	59.377	-0.094	-0.091
-253.092	-200.000	-0.016	-0.219
-252.078	474.120	0.123	-0.273
-251.063	-200.000	-0.024	-0.399
-250.049	19.504	-0.144	0.114
-249.034	25.091	0.106	-0.087
-248.019	143.070	-0.094	0.124
-247.005	492.391	-0.070	-0.157
-245.990	-200.000	0.005	-0.174
-244.976	-200.000	-0.004	0.237
-243.961	-134.756	0.021	0.002
-242.946	-108.493	0.088	-0.019
-241.932	-200.000	-0.012	-0.091
-240.917	-200.000	-0.064	-0.334
-239.903	-200.000	0.036	0.187
-238.888	-104.857	0.110	0.025
-237.873	-60.088	0.328	-0.138
-236.859	467.144	0.073	0.160
-235.844	67.715	0.116	-0.116
-234.830	-200.000	-0.035	0.253
-233.815	92.162	-0.061	-0.067
-232.800	-200.000	-0.067	0.442
-231.786	800.000	0.024	-0.068
-230.771	800.000	-0.067	0.235
-229.757	-139.964	0.187	-0.019
-228.742	13.401	0.281	-0.215
-227.727	800.000	0.048	0.140
-226.713	-200.000	-0.012	-0.152
-225.698	651.026	0.120	-0.302
-224.684	607.943	0.138	-0.340
-223.669	293.580	0.049	-0.088
-222.655	800.000	-0.040	0.129
-221.640	-200.000	-0.105	0.505
-220.625	156.841	-0.176	-0.239
-219.611	-0.789	0.123	0.086
-218.596	31.241	0.051	0.043
-217.582	-200.000	0.003	0.068
-216.567	180.127	0.179	0.258
-215.552	145.735	0.172	0.226
-214.538	125.353	0.151	0.188
-213.523	229.810	-0.067	-0.108
-212.509	-25.721	-0.204	-0.118
-211.494	106.247	0.292	-0.340
-210.479	-200.000	-0.012	0.134
-209.465	125.551	-0.211	-0.262
-208.450	638.559	-0.137	0.343
-207.436	50.299	-0.138	-0.128
-206.421	-89.250	0.207	-0.060
-205.406	-200.000	-0.008	-0.111
-204.392	-200.000	-0.009	0.221
-203.377	-200.000	0.007	0.165
-202.363	94.132	0.179	0.199
-201.348	-200.000	0.003	-0.056
-200.333	176.458	0.145	-0.207
-199.319	-200.000	-0.020	-0.149
-198.304	465.353	0.117	-0.257
-197.290	-200.000	-0.016	-0.267
-196.275	-12.568	0.160	0.103
-195.260	158.959	-0.087	0.119
-194.246	-63.817	-0.183	-0.074
-193.231	-32.211	0.308	-0.169
-192.217	-54.663	0.330	0.147
-191.202	-52.469	-0.221	-0.100
-190.187	-49.924	0.041	0.019
-189.173	332.436	-0.101	0.191
-188.158	-92.445	-0.161	0.045
-187.144	-85.202	-0.265	-0.081
-186.129	800.000	0.041	0.113
-185.114	-200.000	-0.018	-0.118
-184.100	-200.000	0.007	-0.098
-183.085	24.078	-0.225	0.182
-182.071	6.467	-0.031	0.023
-181.056	7.838	-0.110	0.081
-180.042	305.551	0.051	-0.093
-179.027	-31.174	0.144	0.080
-178.012	364.599	-0.193	-0.382
-176.998	800.000	0.031	0.105
-175.983	-200.000	0.078	-0.432
-174.969	423.265	0.048	-0.101
-173.954	7.117	0.121	0.089
-172.939	-118.470	0.127	0.022
-171.925	557.301	0.075	-0.177
-170.910	128.867	0.098	0.123
-169.896	-70.709	0.091	-0.034
-168.881	-29.061	0.379	0.214
-167.866	86.647	0.046	0.050
-166.852	49.717	-0.042	-0.039
-165.837	-50.849	0.302	0.140
-164.823	-133.194	-0.071	-0.009
-163.808	112.894	0.120	0.143
-162.793	192.224	0.243	-0.360
-161.779	57.617	-0.065	0.063
-160.764	800.000	0.028	0.105
-159.750	-92.217	0.091	-0.025
-158.735	695.538	-0.163	0.420
-157.720	-76.366	-0.207	-0.071
-156.706	87.709	0.179	-0.195
-155.691	800.000	-0.083	-0.319
-154.677	-69.212	0.106	-0.040
-153.662	-26.637	0.186	0.107
-152.647	310.101	0.068	0.126
-151.633	-119.420	0.353	0.060
-150.618	800.000	0.050	-0.197
-149.604	267.709	-0.185	0.318
-148.589	-200.000	-0.016	-0.402
-147.574	-139.163	0.279	0.030
-146.560	180.753	0.086	-0.124
-145.545	157.618	0.195	-0.265
-144.531	800.000	-0.052	-0.151
-143.516	-200.000	0.016	-0.084
-142.502	-37.244	0.323	0.169
-141.487	225.033	-0.120	-0.191
-140.472	58.510	-0.198	-0.191
-139.458	152.849	0.258	0.346
-138.443	-33.566	-0.195	-0.106
-137.429	-180.297	0.367	-0.008
-136.414	-79.333	0.324	-0.108
-135.399	-43.205	-0.263	0.131
-134.385	260.189	-0.155	0.262
-133.370	-200.000	-0.019	-0.182
-132.356	166.384	0.090	0.125
-131.341	-117.110	0.091	0.016
-130.326	49.361	0.096	-0.088
-129.312	97.626	0.118	-0.133
-128.297	-1.681	0.216	-0.149
-127.283	345.408	-0.070	0.135
-126.268	-49.606	0.135	-0.063
-125.253	-200.000	-0.011	0.402
-124.239	98.309	0.342	0.386
-123.224	90.214	0.167	0.183
-122.210	63.491	-0.049	-0.048
