DTS Sentinel unit serial number:	SN413079Multiplexer serial number:	ORYXHardware model number:	OX4-SRSoftware version number:	ORYX F/W v4.00 Oryx Data Collector v3.7.2.0data status	okinstallation	princeton_trtdifferential loss correction	single-endedforward channel	channel 2reverse channel	N/Adate	2019/09/14time	22:35:35forward acquisition time	60.00reverse acquisition time	0.00gamma	496.2192k internal	0.2324k external	0.2324temperature offset calibration	1.0060default loss term (dB/km)	0.3790temperature slope calibration	1.0000multiplexer offset coefficient	1.0000multiplexer slope coefficient	1.0000fibre end	0.00T internal ref (°C)	32.56T ext. ref 1 (°C)	4.68T ext. ref 2 (°C)	27.56length (m)	temperature (°C)	Stokes	anti-Stokes-747.200	-159.987	0.234	-0.013
-746.185	124.070	-0.313	0.397
-745.171	-23.687	-0.361	-0.219
-744.156	-118.680	-0.205	0.037
-743.142	-200.000	-0.040	0.360
-742.127	-12.555	-0.050	0.033
-741.112	-147.830	-0.366	-0.031
-740.098	-76.405	-0.122	0.043
-739.083	800.000	0.077	-0.238
-738.069	-35.578	-0.227	0.124
-737.054	83.927	0.272	0.300
-736.039	425.985	0.089	0.194
-735.025	86.474	-0.089	-0.100
-734.010	-200.000	0.000	-0.058
-732.996	-9.243	0.185	-0.125
-731.981	109.874	-0.361	0.438
-730.966	366.817	-0.068	0.139
-729.952	-158.055	-0.320	0.019
-728.937	-56.398	-0.145	-0.065
-727.923	-32.611	-0.115	0.065
-726.908	197.823	0.010	-0.015
-725.894	546.441	-0.034	-0.082
-724.879	-45.209	0.112	0.056
-723.864	327.106	-0.056	-0.109
-722.850	51.246	0.205	-0.196
-721.835	255.653	-0.148	-0.255
-720.821	-200.000	0.022	-0.179
-719.806	-200.000	-0.055	-0.357
-718.791	17.270	0.120	0.096
-717.777	251.251	-0.124	0.213
-716.762	-200.000	-0.001	0.154
-715.748	800.000	-0.073	0.318
-714.733	139.600	-0.121	-0.160
-713.718	29.342	-0.080	0.068
-712.704	-106.895	0.059	0.013
-711.689	-200.000	-0.008	-0.090
-710.675	-200.000	0.049	0.266
-709.660	-12.575	-0.051	0.033
-708.645	-200.000	-0.204	-0.000
-707.631	38.800	0.245	-0.221
-706.616	-34.005	-0.229	-0.127
-705.602	197.040	0.147	0.227
-704.587	-64.927	0.349	-0.142
-703.572	-38.874	-0.140	-0.074
-702.558	800.000	0.074	-0.294
-701.543	-200.000	0.043	-0.293
-700.529	-40.916	0.186	-0.097
-699.514	800.000	0.050	0.147
-698.499	-200.000	0.025	-0.486
-697.485	39.964	-0.253	-0.229
-696.470	-50.074	-0.385	-0.184
-695.456	-76.193	0.094	-0.034
-694.441	-127.318	0.249	0.037
-693.426	-151.268	-0.086	0.006
-692.412	81.544	0.190	-0.207
-691.397	-153.913	-0.345	-0.024
-690.383	409.312	-0.058	0.125
-689.368	-42.391	-0.279	-0.143
-688.354	-81.133	-0.143	-0.048
-687.339	-200.000	-0.034	-0.224
-686.324	-56.767	0.051	0.023
-685.310	13.028	-0.096	0.075
-684.295	-79.054	0.207	0.071
-683.281	-200.000	-0.013	0.117
-682.266	-131.794	-0.164	0.022
-681.251	-164.854	0.322	-0.015
-680.237	-200.000	-0.016	0.106
-679.222	-86.490	0.149	0.046
-678.208	34.385	0.469	0.412
-677.193	-115.734	-0.114	-0.022
-676.178	-150.485	0.205	0.016
-675.164	619.281	-0.081	-0.205
-674.149	-66.515	0.122	0.049
-673.135	800.000	0.070	-0.210
-672.120	324.907	-0.174	-0.335
-671.105	119.578	0.173	0.215
-670.091	410.166	0.091	-0.195
-669.076	223.532	0.089	-0.144
-668.062	135.176	0.102	-0.133
-667.047	-53.154	-0.160	-0.074
-666.032	-200.000	-0.047	-0.217
-665.018	75.195	0.241	0.256
-664.003	290.456	0.079	0.144
-662.989	45.066	-0.069	0.064
-661.974	-53.678	0.306	0.141
-660.959	-43.451	0.328	-0.167
-659.945	-200.000	-0.063	0.363
-658.930	231.489	-0.094	0.155
-657.916	-200.000	-0.017	0.108
-656.901	66.678	0.228	0.234
-655.886	446.789	0.025	-0.054
-654.872	-149.851	-0.163	0.013
-653.857	92.903	-0.058	0.066
-652.843	-200.000	-0.008	0.168
-651.828	112.036	-0.076	-0.093
-650.814	98.909	-0.429	-0.499
-649.799	392.298	0.085	-0.178
-648.784	-34.498	0.231	0.128
-647.770	6.716	-0.301	-0.225
-646.755	-200.000	-0.044	-0.220
-645.741	124.423	-0.297	-0.375
-644.726	98.221	-0.009	0.010
-643.711	64.084	0.240	0.243
-642.697	-75.239	-0.123	-0.044
-641.682	43.925	0.156	0.144
-640.668	-113.171	-0.154	0.031
-639.653	-148.322	-0.176	-0.015
-638.638	547.263	-0.033	0.079
-637.624	-200.000	-0.053	0.247
-636.609	800.000	-0.017	-0.055
-635.595	750.736	0.167	-0.453
-634.580	368.936	-0.078	-0.159
-633.565	79.187	0.177	0.190
-632.551	57.141	-0.277	-0.272
-631.536	218.007	-0.134	-0.214
-630.522	800.000	-0.091	-0.305
-629.507	92.540	-0.174	-0.197
-628.492	341.119	-0.057	-0.113
-627.478	687.305	-0.035	-0.093
-626.463	109.599	0.068	0.082
-625.449	384.648	0.080	-0.166
-624.434	-153.313	-0.231	-0.016
-623.419	-200.000	-0.005	-0.192
-622.405	-42.532	-0.197	0.101
-621.390	800.000	-0.003	0.010
-620.376	-170.433	0.106	-0.004
-619.361	-200.000	-0.016	0.293
-618.346	31.541	-0.232	-0.201
-617.332	321.633	0.040	-0.076
-616.317	-200.000	0.007	-0.131
-615.303	-200.000	-0.007	-0.101
-614.288	162.028	0.136	-0.192
-613.273	-41.653	-0.285	0.147
-612.259	602.013	0.026	-0.065
-611.244	231.022	0.169	0.278
-610.230	-200.000	-0.004	0.036
-609.215	482.662	-0.092	0.211
-608.201	-143.226	-0.093	0.009
-607.186	-68.542	-0.118	0.046
-606.171	100.819	0.176	-0.206
-605.157	-200.000	-0.036	-0.215
-604.142	9.575	0.133	0.101
-603.128	-39.064	-0.092	-0.049
-602.113	-37.803	0.334	0.179
-601.098	-129.134	0.050	-0.007
-600.084	800.000	0.040	-0.163
-599.069	-74.616	-0.064	-0.023
-598.055	-105.378	0.379	0.087
-597.040	279.011	-0.215	0.385
-596.025	129.445	-0.029	-0.037
-595.011	-123.826	-0.169	0.027
-593.996	-105.373	-0.214	0.049
-592.982	-76.066	0.102	0.036
-591.967	-1.727	0.446	-0.315
-590.952	-200.000	-0.003	0.153
-589.938	370.018	0.050	0.102
-588.923	-200.000	0.036	0.314
-587.909	-109.331	0.124	-0.026
-586.894	237.580	0.132	0.220
-585.879	-200.000	-0.007	-0.070
-584.865	181.207	-0.107	-0.158
-583.850	206.938	0.112	0.175
-582.836	-36.228	0.120	0.065
-581.821	401.921	-0.113	-0.237
-580.806	-200.000	0.025	0.236
-579.792	-83.597	-0.107	0.034
-578.777	41.458	-0.137	-0.124
-577.763	135.857	-0.107	-0.139
-576.748	685.499	-0.138	-0.361
-575.733	53.422	-0.127	0.122
-574.719	800.000	-0.056	-0.215
-573.704	13.860	0.268	0.209
-572.690	-58.408	0.170	0.074
-571.675	-50.082	-0.302	-0.143
-570.661	122.109	0.124	-0.155
-569.646	-41.687	-0.226	-0.117
-568.631	800.000	0.060	-0.246
-567.617	424.625	0.031	0.067
-566.602	-69.535	-0.288	-0.110
-565.588	-123.448	-0.243	0.039
-564.573	82.335	-0.118	0.128
-563.558	-98.814	-0.203	0.052
-562.544	-61.831	0.045	-0.019
-561.529	-200.000	-0.011	-0.119
-560.515	633.695	0.041	-0.104
-559.500	-140.852	-0.288	-0.030
-558.485	-123.834	-0.425	-0.067
-557.471	659.205	0.109	-0.282
-556.456	-200.000	0.026	-0.209
-555.442	127.768	-0.187	-0.238
-554.427	731.987	0.099	-0.264
-553.412	17.000	0.076	0.060
-552.398	800.000	-0.061	-0.172
-551.383	-89.721	0.317	0.093
-550.369	-200.000	-0.018	-0.148
-549.354	-157.378	0.179	0.011
-548.339	198.502	0.033	-0.050
-547.325	-67.305	0.192	0.076
-546.310	-156.710	0.350	0.022
-545.296	275.779	-0.102	-0.182
-544.281	-200.000	-0.003	0.076
-543.266	660.194	0.112	0.289
-542.252	247.501	0.031	-0.052
-541.237	-39.654	-0.181	0.095
-540.223	-200.000	0.061	-0.482
-539.208	442.836	0.133	-0.292
-538.193	800.000	-0.054	-0.156
-537.179	-200.000	-0.035	0.196
-536.164	-35.094	-0.290	-0.158
-535.150	-135.339	-0.247	-0.030
-534.135	83.885	0.244	0.266
-533.121	30.652	0.090	-0.077
-532.106	41.394	0.091	-0.082
-531.091	-200.000	-0.018	-0.264
-530.077	570.317	-0.069	-0.167
-529.062	-200.000	-0.018	0.083
-528.048	437.783	0.200	0.438
-527.033	18.943	-0.082	-0.066
-526.018	-46.189	0.088	-0.043
-525.004	800.000	0.059	0.239
-523.989	-200.000	0.012	0.073
-522.975	800.000	0.054	-0.169
-521.960	-113.572	-0.232	0.045
-520.945	-93.382	0.332	0.092
-519.931	450.530	0.104	-0.229
-518.916	277.291	-0.163	-0.291
-517.902	800.000	0.086	-0.353
-516.887	477.141	0.015	0.033
-515.872	-163.495	-0.203	-0.010
-514.858	-12.961	0.395	0.257
-513.843	254.655	0.138	0.236
-512.829	-133.673	-0.135	0.017
-511.814	-30.750	0.368	0.208
-510.799	-110.215	-0.348	0.073
-509.785	-77.348	-0.259	-0.090
-508.770	800.000	-0.092	-0.269
-507.756	-155.635	0.101	0.007
-506.741	-200.000	0.004	0.182
-505.726	-3.692	-0.282	0.196
-504.712	800.000	0.016	0.064
-503.697	-200.000	-0.066	0.402
-502.683	-7.293	0.253	-0.171
-501.668	179.359	-0.157	-0.230
-500.653	-200.000	-0.021	0.104
-499.639	50.306	-0.138	0.130
-498.624	423.314	-0.005	0.012
-497.610	73.705	0.214	-0.225
-496.595	224.710	-0.022	0.035
-495.581	-112.793	-0.126	-0.025
-494.566	2.141	-0.392	0.284
-493.551	800.000	0.055	-0.158
-492.537	88.763	0.071	-0.079
-491.522	7.040	-0.256	-0.191
-490.508	-105.171	-0.185	-0.042
-489.493	-200.000	0.028	0.234
-488.478	-97.934	0.259	-0.067
-487.464	-200.000	-0.027	-0.300
-486.449	62.443	-0.165	0.165
-485.435	177.758	0.236	-0.343
-484.420	199.765	-0.279	-0.428
-483.405	-92.290	0.178	0.050
-482.391	285.633	0.068	-0.123
-481.376	-87.773	0.221	-0.066
-480.362	-95.248	0.027	0.007
-479.347	-200.000	0.049	0.313
-478.332	-58.668	-0.226	0.098
-477.318	287.129	-0.144	0.260
-476.303	-200.000	-0.002	-0.081
-475.289	130.758	-0.241	0.308
-474.274	391.267	0.076	0.158
-473.259	281.649	-0.050	0.090
-472.245	18.674	-0.115	-0.092
-471.230	800.000	0.018	0.068
-470.216	-80.969	-0.110	0.036
-469.201	5.267	0.055	-0.041
-468.186	-200.000	-0.003	0.093
-467.172	-45.745	-0.215	0.106
-466.157	-69.576	-0.157	0.060
-465.143	-122.197	0.156	-0.026
-464.128	800.000	0.034	-0.112
-463.113	-154.021	0.207	0.014
-462.099	114.056	-0.182	-0.221
-461.084	-200.000	-0.097	-0.537
-460.070	-200.000	0.056	-0.260
-459.055	-48.452	-0.023	-0.011
-458.040	-107.389	-0.058	-0.013
-457.026	-158.191	0.177	0.010
-456.011	30.421	-0.077	-0.066
-454.997	-200.000	-0.015	-0.138
-453.982	800.000	-0.067	0.231
-452.968	-200.000	0.030	-0.150
-451.953	-200.000	0.034	0.426
-450.938	800.000	0.095	-0.404
-449.924	101.523	-0.090	0.105
-448.909	-60.102	-0.180	0.077
-447.895	163.854	0.102	-0.143
-446.880	158.247	-0.070	-0.097
-445.865	-159.175	-0.218	0.012
-444.851	130.359	-0.141	-0.180
-443.836	-114.094	-0.261	-0.050
-442.822	130.882	0.031	0.039
-441.807	155.574	0.103	0.142
-440.792	54.199	0.185	-0.178
-439.778	-100.106	0.133	-0.033
-438.763	-115.704	-0.442	-0.083
-437.749	97.782	-0.051	0.058
-436.734	50.816	0.126	0.120
-435.719	-87.207	0.210	-0.064
-434.705	-87.580	0.258	-0.078
-433.690	33.510	-0.053	0.046
-432.676	-21.913	-0.141	-0.085
-431.661	800.000	-0.084	0.232
-430.646	78.078	-0.081	0.086
-429.632	58.931	0.096	0.094
-428.617	-26.232	0.363	0.213
-427.603	72.936	0.145	-0.151
-426.588	48.648	-0.230	-0.215
-425.573	-7.700	-0.256	0.172
-424.559	384.149	0.084	-0.172
-423.544	-96.608	0.266	0.070
-422.530	-128.212	0.273	-0.039
-421.515	206.008	0.085	0.133
-420.500	-200.000	-0.038	-0.348
-419.486	800.000	0.113	-0.346
-418.471	-107.518	0.361	-0.079
-417.457	205.591	0.096	-0.148
-416.442	29.926	0.029	-0.025
-415.428	86.496	-0.052	-0.057
-414.413	800.000	-0.008	-0.029
-413.398	-15.409	-0.169	-0.108
-412.384	800.000	0.021	0.062
-411.369	800.000	0.096	-0.372
-410.355	319.151	0.075	0.141
-409.340	-158.703	0.073	-0.004
-408.325	-74.777	-0.557	0.199
-407.311	88.847	0.068	-0.076
-406.296	-200.000	0.008	0.097
-405.282	103.858	-0.019	0.023
-404.267	105.087	0.051	-0.060
-403.252	-200.000	-0.029	-0.182
-402.238	9.726	-0.042	-0.032
-401.223	2.034	-0.328	-0.236
-400.209	649.135	0.016	0.040
-399.194	579.317	-0.008	-0.020
-398.179	40.868	0.095	-0.085
-397.165	80.726	-0.143	0.153
-396.150	101.010	-0.142	0.164
-395.136	-200.000	0.037	-0.224
-394.121	-12.523	0.175	-0.113
-393.106	-200.000	0.014	-0.146
-392.092	-66.547	0.160	-0.063
-391.077	800.000	0.048	0.178
-390.063	-176.478	0.339	0.009
-389.048	-200.000	0.048	-0.332
-388.033	-200.000	0.083	-0.504
-387.019	470.891	-0.113	0.253
-386.004	-200.000	0.058	0.428
-384.990	-200.000	0.020	-0.116
-383.975	10.768	-0.104	-0.079
-382.960	206.489	0.109	-0.168
-381.946	-25.665	0.209	0.123
-380.931	800.000	-0.091	-0.304
-379.917	-88.510	0.282	0.084
-378.902	-101.861	0.154	-0.037
-377.888	800.000	0.129	0.433
-376.873	800.000	-0.071	0.290
-375.858	177.120	-0.266	0.385
-374.844	-200.000	0.078	0.387
-373.829	800.000	-0.035	-0.101
-372.815	-171.312	0.228	-0.008
-371.800	11.685	-0.166	-0.127
-370.785	-200.000	-0.011	-0.133
-369.771	-8.367	0.134	0.090
-368.756	51.234	0.155	-0.146
-367.742	-78.084	-0.138	0.047
-366.727	356.720	0.192	-0.381
-365.712	-79.496	-0.220	0.074
-364.698	-58.407	-0.269	0.116
-363.683	-55.422	0.327	0.146
-362.669	576.108	0.083	-0.201
-361.654	49.941	-0.043	-0.041
-360.639	-90.196	-0.348	0.101
-359.625	140.380	0.174	0.229
-358.610	-200.000	0.014	-0.235
-357.596	254.569	-0.165	-0.281
-356.581	562.002	-0.033	-0.079
-355.566	158.147	-0.231	0.319
-354.552	-200.000	-0.050	0.348
-353.537	154.675	-0.132	0.180
-352.523	-102.364	0.289	-0.069
-351.508	223.103	-0.113	0.181
-350.493	-200.000	-0.013	0.235
-349.479	-132.030	0.244	0.032
-348.464	51.100	0.164	-0.155
-347.450	122.238	-0.117	-0.145
-346.435	-200.000	-0.001	0.176
-345.420	38.678	0.229	-0.203
-344.406	-200.000	-0.014	0.187
-343.391	-95.839	-0.269	-0.071
-342.377	238.554	-0.196	0.324
-341.362	134.631	-0.154	-0.199
-340.348	694.482	0.109	-0.284
-339.333	-94.097	0.134	-0.037
-338.318	597.764	-0.086	-0.212
-337.304	-200.000	-0.014	0.216
-336.289	800.000	0.053	0.195
-335.275	-200.000	-0.026	-0.215
-334.260	321.796	0.039	-0.073
-333.245	-200.000	0.002	0.137
-332.231	6.172	0.317	0.233
-331.216	-35.415	0.082	-0.045
-330.202	178.825	-0.146	-0.212
-329.187	-200.000	0.019	0.398
-328.172	800.000	-0.131	-0.403
-327.158	-15.182	-0.109	-0.069
-326.143	-57.761	-0.137	0.060
-325.129	372.569	-0.120	0.242
-324.114	-200.000	-0.033	0.258
-323.099	-59.192	-0.184	0.079
-322.085	151.524	0.116	-0.157
-321.070	-200.000	0.095	0.632
-320.056	-132.972	-0.295	-0.037
-319.041	800.000	0.024	0.088
-318.026	262.492	-0.053	-0.091
-317.012	-93.814	0.282	0.077
-315.997	122.570	-0.184	0.228
-314.983	16.876	0.143	-0.112
-313.968	-148.981	0.128	-0.010
-312.953	-200.000	0.004	0.046
-311.939	-146.941	-0.132	0.011
-310.924	18.959	0.242	-0.193
-309.910	-200.000	0.007	0.148
-308.895	-25.856	-0.025	0.015
-307.880	-135.634	0.129	-0.015
-306.866	72.644	-0.188	-0.195
-305.851	-77.421	0.058	-0.020
-304.837	39.326	-0.136	0.121
-303.822	-80.661	0.234	0.077
-302.807	-200.000	0.064	0.389
-301.793	600.254	0.169	0.415
-300.778	69.162	-0.232	0.237
-299.764	33.973	-0.196	-0.169
-298.749	-23.082	-0.278	0.166
-297.735	-15.020	0.196	0.125
-296.720	28.998	0.140	-0.118
-295.705	-200.000	0.009	0.333
-294.691	800.000	0.047	0.136
-293.676	-173.249	0.234	0.007
-292.662	-93.886	-0.386	0.105
-291.647	-200.000	-0.024	0.322
-290.632	-105.260	0.200	-0.045
-289.618	519.648	-0.077	0.178
-288.603	94.003	-0.151	-0.170
-287.589	-112.138	-0.121	0.024
-286.574	-200.000	0.163	-0.001
-285.559	118.963	-0.108	-0.132
-284.545	-96.382	0.116	-0.030
-283.530	11.213	-0.098	0.074
-282.516	7.011	-0.218	0.161
-281.501	800.000	-0.037	0.151
-280.486	138.515	0.097	-0.126
-279.472	198.796	0.047	-0.071
-278.457	67.503	0.246	-0.249
-277.443	-200.000	0.030	0.143
-276.428	768.319	-0.077	-0.206
-275.413	61.524	0.129	-0.128
-274.399	78.639	0.087	-0.093
-273.384	800.000	0.124	-0.348
-272.370	-24.717	0.206	0.121
-271.355	211.387	0.170	0.265
-270.340	156.539	-0.074	0.101
-269.326	139.157	0.189	0.247
-268.311	-200.000	0.011	0.238
-267.297	800.000	-0.138	0.404
-266.282	-200.000	0.013	0.333
-265.267	-147.340	-0.094	-0.008
-264.253	98.507	0.187	-0.213
-263.238	-108.760	0.340	0.072
-262.224	-78.855	0.258	-0.087
-261.209	-10.928	-0.219	0.143
-260.195	-139.087	-0.239	0.026
-259.180	291.865	-0.130	0.234
-258.165	-64.295	0.253	-0.102
-257.151	7.813	0.129	-0.096
-256.136	212.085	-0.129	0.202
-255.122	233.953	0.051	0.083
-254.107	488.266	-0.055	0.125
-253.092	-137.585	-0.366	0.041
-252.078	-200.000	-0.065	0.431
-251.063	800.000	0.024	-0.077
-250.049	800.000	-0.071	0.222
-249.034	-35.178	0.174	-0.094
-248.019	-200.000	0.043	0.289
-247.005	-128.081	0.288	0.041
-245.990	196.080	-0.151	-0.227
-244.976	-7.295	-0.069	0.047
-243.961	-200.000	0.058	0.567
-242.946	163.367	0.078	0.108
-241.932	-89.423	0.466	0.136
-240.917	800.000	0.029	0.124
-239.903	-0.816	0.074	0.052
-238.888	-200.000	0.013	-0.088
-237.873	-200.000	0.008	0.214
-236.859	118.493	0.102	-0.124
-235.844	102.731	-0.129	0.149
-234.830	-20.307	0.246	0.150
-233.815	-82.275	-0.069	0.022
-232.800	-120.810	-0.417	0.070
-231.786	800.000	-0.050	0.168
-230.771	36.073	0.254	0.221
-229.757	-115.442	-0.234	0.044
-228.742	7.669	-0.079	0.058
-227.727	-67.647	-0.319	-0.124
-226.713	223.093	0.121	0.193
-225.698	32.789	-0.299	-0.256
-224.684	-32.216	-0.288	0.159
-223.669	-79.983	0.230	-0.076
-222.655	553.089	-0.116	0.276
-221.640	-84.077	-0.306	-0.096
-220.625	46.693	-0.206	0.189
-219.611	284.585	0.082	-0.146
-218.596	64.236	-0.168	0.167
-217.582	23.686	0.121	-0.099
-216.567	-81.099	0.245	-0.080
-215.552	-145.685	-0.297	-0.026
-214.538	-38.641	0.241	-0.126
-213.523	-90.811	-0.293	-0.084
-212.509	-200.000	0.020	0.178
-211.494	-87.993	-0.235	0.070
-210.479	117.023	-0.122	0.149
-209.465	116.863	-0.028	-0.034
-208.450	-93.111	0.053	0.015
-207.436	305.334	0.125	0.229
-206.421	-200.000	0.048	0.210
-205.406	-200.000	-0.006	-0.056
-204.392	-123.991	0.060	-0.009
-203.377	-200.000	-0.022	-0.096
-202.363	31.814	0.168	-0.143
-201.348	234.894	0.164	-0.268
-200.333	-200.000	0.032	0.154
-199.319	-200.000	0.008	-0.263
-198.304	-57.049	0.115	-0.050
-197.290	46.408	-0.126	-0.116
-196.275	148.704	-0.130	0.174
-195.260	-96.828	0.316	-0.082
-194.246	339.182	0.206	0.398
-193.231	-100.956	-0.445	-0.108
-192.217	41.416	-0.146	-0.131
-191.202	106.337	0.247	-0.289
-190.187	589.715	0.090	-0.220
-189.173	-106.482	-0.031	0.007
-188.158	800.000	-0.027	0.078
-187.144	29.949	0.209	0.176
-186.129	-200.000	0.014	-0.238
-185.114	75.076	0.119	0.124
-184.100	-91.097	-0.162	-0.046
-183.085	800.000	0.017	0.050
-182.071	-200.000	-0.037	0.299
-181.056	121.390	0.072	-0.088
-180.042	-200.000	0.032	-0.197
-179.027	-27.182	0.107	0.062
-178.012	800.000	0.022	0.075
-176.998	-29.101	0.341	-0.193
-175.983	-200.000	0.002	0.084
-174.969	800.000	-0.021	0.074
-173.954	-7.073	0.364	0.244
-172.939	800.000	0.028	0.087
-171.925	-172.853	-0.484	-0.015
-170.910	-70.186	0.119	0.045
-169.896	-89.698	0.336	-0.097
-168.881	257.786	0.243	-0.413
-167.866	-79.337	0.226	-0.076
-166.852	108.150	0.223	0.262
-165.837	-200.000	-0.005	-0.040
-164.823	-92.598	0.074	0.020
-163.808	276.266	0.034	-0.060
-162.793	294.962	0.171	-0.308
-161.779	-75.873	-0.228	0.080
-160.764	712.907	-0.090	0.235
-159.750	91.222	0.237	-0.262
-158.735	-197.051	-0.300	0.002
-157.720	341.577	-0.109	-0.209
-156.706	-61.413	-0.353	-0.147
-155.691	-101.440	-0.178	0.043
-154.677	20.753	0.180	0.144
-153.662	655.072	0.126	-0.319
-152.647	-146.372	0.124	-0.011
-151.633	347.228	0.187	-0.363
-150.618	-47.133	0.163	-0.079
-149.604	-155.710	0.291	-0.018
-148.589	-8.946	-0.245	0.162
-147.574	-200.000	0.010	-0.133
-146.560	246.934	0.042	0.070
-145.545	3.574	-0.100	0.072
-144.531	-186.424	-0.106	-0.002
-143.516	742.521	0.038	-0.101
-142.502	-200.000	0.006	0.151
-141.487	-101.966	-0.167	-0.040
-140.472	274.333	0.089	0.155
-139.458	418.657	0.177	-0.373
-138.443	-147.451	-0.084	-0.007
-137.429	-79.026	0.235	0.079
-136.414	-87.725	0.215	-0.064
-135.399	-101.341	-0.326	0.078
-134.385	800.000	0.011	0.038
-133.370	-48.001	0.168	0.080
-132.356	-22.394	-0.226	-0.135
-131.341	-127.076	-0.135	0.020
-130.326	800.000	-0.080	0.294
-129.312	-67.058	0.179	-0.069
-128.297	-108.028	-0.351	-0.075
-127.283	-200.000	0.002	-0.111
-126.268	-60.182	0.381	0.160
-125.253	-97.928	0.093	0.024
-124.239	-81.590	0.084	0.027
-123.224	-26.083	0.123	0.071
-122.210	-67.558	-0.141	0.055
-121.195	781.568	0.071	0.192
