DTS Sentinel unit serial number:	SN413079Multiplexer serial number:	ORYXHardware model number:	OX4-SRSoftware version number:	ORYX F/W v4.00 Oryx Data Collector v3.7.2.0data status	okinstallation	princeton_trtdifferential loss correction	single-endedforward channel	channel 2reverse channel	N/Adate	2019/09/16time	23:35:34forward acquisition time	60.00reverse acquisition time	0.00gamma	496.2192k internal	0.2330k external	0.2330temperature offset calibration	0.9970default loss term (dB/km)	0.3790temperature slope calibration	1.0000multiplexer offset coefficient	1.0000multiplexer slope coefficient	1.0000fibre end	0.00T internal ref (°C)	29.81T ext. ref 1 (°C)	0.09T ext. ref 2 (°C)	23.57length (m)	temperature (°C)	Stokes	anti-Stokes-747.200	-111.725	-0.016	-0.003
-746.185	-109.298	-0.382	-0.082
-745.171	216.555	-0.102	-0.163
-744.156	34.298	-0.225	0.198
-743.142	-200.000	0.008	0.035
-742.127	800.000	-0.087	0.263
-741.112	-102.729	-0.228	0.055
-740.098	800.000	0.019	0.055
-739.083	-67.329	0.188	0.074
-738.069	359.786	-0.094	0.189
-737.054	67.596	-0.138	-0.142
-736.039	-53.587	-0.028	0.013
-735.025	800.000	0.091	0.279
-734.010	-104.736	-0.142	-0.033
-732.996	800.000	-0.140	-0.392
-731.981	121.053	-0.161	0.202
-730.966	-129.353	-0.159	-0.022
-729.952	800.000	0.100	-0.312
-728.937	-200.000	-0.017	-0.276
-727.923	97.844	-0.104	0.121
-726.908	33.035	0.272	-0.237
-725.894	174.023	-0.104	-0.151
-724.879	-100.128	-0.071	-0.018
-723.864	42.473	0.094	-0.086
-722.850	800.000	0.066	-0.196
-721.835	-200.000	-0.002	-0.202
-720.821	-140.309	-0.290	0.031
-719.806	-96.228	0.135	-0.036
-718.791	257.008	-0.163	0.281
-717.777	-200.000	0.009	0.061
-716.762	-200.000	0.013	-0.322
-715.748	-200.000	0.020	0.196
-714.733	109.028	-0.096	0.116
-713.718	179.110	0.123	0.181
-712.704	300.786	-0.080	-0.149
-711.689	-189.850	0.138	-0.002
-710.675	-200.000	0.114	0.000
-709.660	-41.553	-0.149	-0.077
-708.645	21.563	-0.194	0.159
-707.631	-113.177	-0.155	-0.031
-706.616	-200.000	-0.020	-0.168
-705.602	800.000	0.099	-0.297
-704.587	136.290	-0.122	0.160
-703.572	-200.000	0.033	-0.273
-702.558	-200.000	0.052	-0.463
-701.543	151.423	-0.062	-0.085
-700.529	-28.366	-0.315	-0.183
-699.514	-27.720	0.235	0.137
-698.499	-175.794	0.076	0.002
-697.485	400.730	0.049	0.103
-696.470	-200.000	0.047	0.278
-695.456	-200.000	-0.062	-0.287
-694.441	800.000	0.075	0.281
-693.426	37.292	0.323	-0.288
-692.412	-200.000	-0.027	0.185
-691.397	800.000	0.165	-0.498
-690.383	-20.754	-0.126	-0.078
-689.368	-111.585	-0.189	-0.038
-688.354	44.904	-0.218	0.202
-687.339	-90.785	0.241	-0.070
-686.324	-103.051	-0.193	-0.046
-685.310	-200.000	0.083	0.435
-684.295	467.501	-0.285	0.641
-683.281	-200.000	-0.092	-0.000
-682.266	212.642	0.283	-0.449
-681.251	56.909	0.137	-0.134
-680.237	-110.885	-0.119	-0.025
-679.222	-36.196	-0.375	0.203
-678.208	141.913	-0.114	-0.152
-677.193	-92.383	0.104	0.029
-676.178	17.055	-0.192	-0.153
-675.164	-143.573	0.078	-0.008
-674.149	344.505	-0.086	0.170
-673.135	800.000	-0.045	-0.160
-672.120	800.000	-0.041	-0.128
-671.105	-183.665	-0.126	-0.002
-670.091	43.156	0.177	-0.162
-669.076	-106.878	0.264	0.059
-668.062	-200.000	0.065	-0.288
-667.047	205.416	-0.037	0.057
-666.032	31.011	0.239	-0.206
-665.018	-122.723	-0.429	-0.070
-664.003	79.216	0.379	0.408
-662.989	81.739	-0.113	-0.123
-661.974	-10.916	-0.115	0.076
-660.959	800.000	-0.029	0.103
-659.945	800.000	-0.013	-0.039
-658.930	800.000	-0.122	0.435
-657.916	172.920	-0.129	0.187
-656.901	227.128	-0.189	-0.309
-655.886	-49.389	-0.110	-0.053
-654.872	800.000	-0.034	0.109
-653.857	-103.183	0.244	0.058
-652.843	33.541	-0.294	0.257
-651.828	-77.996	-0.287	0.099
-650.814	380.786	0.046	-0.094
-649.799	-200.000	0.026	-0.181
-648.784	-103.289	-0.270	-0.064
-647.770	61.311	0.188	-0.187
-646.755	-130.039	-0.077	0.011
-645.741	183.788	-0.048	-0.071
-644.726	-163.326	-0.153	0.007
-643.711	127.219	0.095	-0.121
-642.697	-200.000	0.019	-0.232
-641.682	-148.262	-0.189	-0.016
-640.668	124.492	-0.068	-0.086
-639.653	498.265	-0.190	-0.438
-638.638	-200.000	-0.020	-0.112
-637.624	388.766	-0.099	0.205
-636.609	-72.143	-0.251	-0.093
-635.595	143.040	-0.069	0.092
-634.580	-161.754	-0.124	-0.006
-633.565	-70.008	0.134	-0.051
-632.551	-98.811	0.157	0.040
-631.536	-68.644	0.210	0.082
-630.522	517.435	0.034	-0.079
-629.507	-200.000	-0.031	0.138
-628.492	94.098	-0.157	-0.179
-627.478	-37.416	0.210	0.112
-626.463	154.648	0.137	0.189
-625.449	800.000	0.139	-0.395
-624.434	-25.847	0.040	-0.024
-623.419	-200.000	0.015	-0.205
-622.405	-40.308	-0.103	-0.053
-621.390	-41.429	0.086	-0.044
-620.376	-200.000	-0.008	0.269
-619.361	299.625	0.100	0.184
-618.346	800.000	0.090	-0.302
-617.332	-200.000	0.045	-0.502
-616.317	4.335	-0.332	0.244
-615.303	-104.626	-0.203	0.047
-614.288	-200.000	-0.041	0.263
-613.273	334.173	0.246	-0.476
-612.259	136.219	0.052	0.068
-611.244	-17.952	0.304	0.191
-610.230	207.944	-0.048	-0.075
-609.215	48.288	-0.272	-0.255
-608.201	54.830	0.111	0.107
-607.186	-2.203	-0.179	-0.126
-606.171	561.718	0.094	0.227
-605.157	-200.000	0.024	0.113
-604.142	-96.127	-0.194	0.052
-603.128	800.000	-0.050	-0.206
-602.113	373.343	0.061	-0.124
-601.098	191.538	0.085	0.128
-600.084	23.554	0.031	0.026
-599.069	-160.346	-0.173	0.009
-598.055	-92.697	-0.262	-0.073
-597.040	420.952	-0.091	-0.196
-596.025	-200.000	0.015	-0.131
-595.011	-200.000	0.001	-0.174
-593.996	-53.742	0.160	-0.073
-592.982	-65.401	-0.223	0.090
-591.967	538.063	-0.107	0.254
-590.952	391.361	0.183	-0.381
-589.938	800.000	0.055	-0.175
-588.923	50.954	0.134	0.127
-587.909	9.907	-0.388	-0.295
-586.894	31.340	-0.061	-0.052
-585.879	-107.017	-0.077	0.017
-584.865	800.000	0.025	0.082
-583.850	800.000	0.064	0.196
-582.836	-200.000	-0.000	-0.303
-581.821	37.648	-0.067	-0.059
-580.806	-200.000	-0.072	-0.353
-579.792	42.948	0.064	0.058
-578.777	-42.498	0.234	-0.119
-577.763	-82.012	-0.317	0.104
-576.748	-200.000	-0.090	0.000
-575.733	-140.944	-0.450	-0.046
-574.719	-200.000	0.028	0.220
-573.704	-126.380	-0.127	-0.019
-572.690	800.000	0.136	0.392
-571.675	-151.141	0.220	0.017
-570.661	-200.000	-0.026	-0.119
-569.646	800.000	-0.136	0.514
-568.631	486.139	-0.133	-0.303
-567.617	-24.755	0.317	-0.189
-566.602	-10.665	0.215	0.142
-565.588	-62.752	-0.185	-0.077
-564.573	-200.000	0.018	0.273
-563.558	292.260	0.155	0.282
-562.544	3.696	0.144	0.105
-561.529	5.947	-0.183	-0.136
-560.515	-143.783	0.283	-0.027
-559.500	48.507	0.046	-0.043
-558.485	19.051	-0.034	0.027
-557.471	-4.626	-0.255	-0.176
-556.456	-7.409	0.177	-0.120
-555.442	-168.461	-0.479	-0.018
-554.427	365.185	-0.117	-0.236
-553.412	271.213	0.137	-0.242
-552.398	223.955	-0.069	-0.111
-551.383	-200.000	-0.023	0.410
-550.369	-36.595	-0.149	-0.080
-549.354	-200.000	0.054	0.352
-548.339	-138.207	-0.324	0.036
-547.325	630.278	0.052	0.131
-546.310	183.352	0.144	-0.212
-545.296	97.807	-0.136	0.156
-544.281	-103.287	0.066	-0.015
-543.266	-179.305	0.299	-0.007
-542.252	490.922	-0.069	-0.158
-541.237	-42.346	0.034	0.017
-540.223	-43.788	0.303	0.152
-539.208	800.000	-0.035	-0.125
-538.193	13.005	0.076	-0.059
-537.179	66.037	-0.219	-0.222
-536.164	-200.000	-0.042	-0.281
-535.150	800.000	0.075	0.228
-534.135	71.986	-0.173	0.180
-533.121	-39.123	-0.161	-0.084
-532.106	-8.378	-0.394	-0.265
-531.091	-200.000	0.022	-0.238
-530.077	54.956	0.138	0.133
-529.062	12.166	0.201	0.155
-528.048	-173.071	0.537	-0.016
-527.033	-108.783	-0.331	0.071
-526.018	-143.693	-0.574	-0.054
-525.004	-86.594	-0.196	-0.060
-523.989	-117.401	0.172	0.031
-522.975	-129.550	-0.185	-0.026
-521.960	800.000	0.035	-0.127
-520.945	800.000	-0.032	-0.132
-519.931	190.032	-0.147	0.220
-518.916	51.774	0.123	0.117
-517.902	105.739	0.174	-0.206
-516.887	-65.167	-0.380	0.153
-515.872	16.258	0.214	0.168
-514.858	800.000	-0.094	0.259
-513.843	-0.816	0.090	0.063
-512.829	-200.000	-0.002	0.012
-511.814	-70.183	0.320	-0.121
-510.799	-158.375	0.283	0.016
-509.785	-15.862	-0.022	0.014
-508.770	-200.000	0.017	0.409
-507.756	-17.018	-0.322	0.203
-506.741	-170.915	-0.103	-0.003
-505.726	227.117	-0.161	-0.261
-504.712	-25.274	0.419	0.248
-503.697	800.000	0.046	-0.195
-502.683	56.258	0.190	-0.184
-501.668	600.449	-0.119	-0.295
-500.653	-200.000	0.006	-0.120
-499.639	-200.000	-0.000	-0.046
-498.624	-6.344	0.154	0.104
-497.610	-200.000	-0.012	0.147
-496.595	-38.538	0.074	-0.039
-495.581	190.602	-0.215	0.323
-494.566	-114.592	-0.183	-0.035
-493.551	-143.863	-0.239	0.023
-492.537	-200.000	-0.007	-0.053
-491.522	760.206	-0.062	0.168
-490.508	-8.368	0.285	0.191
-489.493	3.631	-0.127	0.093
-488.478	208.245	0.176	-0.274
-487.464	48.358	-0.291	-0.271
-486.449	-107.206	0.275	0.060
-485.435	83.838	0.199	0.216
-484.420	800.000	0.037	-0.150
-483.405	-200.000	0.015	0.191
-482.391	-35.840	0.249	-0.134
-481.376	-99.402	0.201	0.050
-480.362	49.706	0.194	0.182
-479.347	-98.877	0.113	-0.029
-478.332	116.455	0.070	-0.085
-477.318	-136.345	0.290	0.034
-476.303	-81.838	-0.102	0.033
-475.289	182.942	-0.129	-0.190
-474.274	-200.000	0.016	0.106
-473.259	-15.835	-0.258	-0.164
-472.245	-200.000	0.032	0.270
-471.230	344.542	0.189	0.369
-470.216	-113.700	-0.284	0.055
-469.201	800.000	-0.031	-0.119
-468.186	114.135	-0.139	0.168
-467.172	12.099	-0.194	0.149
-466.157	37.716	-0.176	-0.156
-465.143	58.880	0.102	0.100
-464.128	35.578	0.075	-0.066
-463.113	154.893	0.035	0.048
-462.099	29.499	-0.149	-0.126
-461.084	94.776	-0.156	0.177
-460.070	-36.103	-0.161	-0.087
-459.055	-200.000	0.069	-0.422
-458.040	19.710	0.036	-0.029
-457.026	-55.104	-0.407	-0.182
-456.011	-200.000	-0.006	-0.041
-454.997	800.000	-0.106	0.373
-453.982	505.249	-0.036	0.084
-452.968	41.834	-0.081	0.073
-451.953	-101.757	-0.355	-0.086
-450.938	-100.060	-0.312	0.078
-449.924	-200.000	0.012	-0.360
-448.909	741.022	0.044	-0.118
-447.895	-200.000	0.006	0.273
-446.880	800.000	0.037	-0.137
-445.865	-200.000	0.025	0.172
-444.851	800.000	0.008	-0.029
-443.836	-40.988	0.154	-0.079
-442.822	13.190	0.321	0.247
-441.807	-85.543	0.080	-0.025
-440.792	110.677	0.146	0.175
-439.778	800.000	-0.065	-0.229
-438.763	-44.112	0.249	-0.124
-437.749	-187.732	0.188	-0.002
-436.734	19.843	-0.327	0.262
-435.719	-61.308	0.070	-0.029
-434.705	-74.848	0.413	-0.147
-433.690	-200.000	-0.046	0.296
-432.676	-123.422	-0.108	-0.017
-431.661	95.813	-0.128	-0.145
-430.646	-139.570	0.234	-0.025
-429.632	-94.830	-0.231	-0.062
-428.617	93.452	-0.075	0.085
-427.603	406.946	-0.110	-0.232
-426.588	-184.889	0.506	0.008
-425.573	62.540	-0.028	-0.027
-424.559	-39.178	0.340	0.177
-423.544	-21.188	-0.133	0.081
-422.530	800.000	0.098	-0.321
-421.515	800.000	0.054	-0.208
-420.500	176.354	0.096	-0.138
-419.486	-200.000	0.019	0.101
-418.471	-111.708	0.043	-0.009
-417.457	-200.000	0.040	-0.359
-416.442	-36.103	0.229	0.123
-415.428	-200.000	0.044	-0.235
-414.413	-200.000	0.006	-0.041
-413.398	-96.654	-0.040	0.011
-412.384	-102.253	-0.103	-0.025
-411.369	-2.564	-0.293	0.204
-410.355	26.532	-0.046	0.038
-409.340	146.039	-0.214	0.285
-408.325	-200.000	0.077	0.360
-407.311	800.000	0.095	-0.296
-406.296	-82.722	-0.261	-0.084
-405.282	-88.443	0.343	0.102
-404.267	-79.907	-0.261	0.087
-403.252	240.498	0.217	-0.360
-402.238	-165.692	0.244	0.010
-401.223	226.452	-0.126	0.204
-400.209	-200.000	0.035	0.281
-399.194	-90.667	-0.161	-0.046
-398.179	-23.299	0.271	-0.162
-397.165	-80.385	0.203	-0.067
-396.150	800.000	-0.042	-0.115
-395.136	-82.548	0.066	0.021
-394.121	-200.000	0.081	0.379
-393.106	-111.022	-0.054	-0.011
-392.092	-102.856	0.292	-0.069
-391.077	-141.990	0.212	-0.021
-390.063	-68.105	0.166	0.064
-389.048	50.071	0.028	-0.026
-388.033	-15.335	0.128	-0.081
-387.019	89.313	-0.112	0.124
-386.004	8.520	-0.205	-0.153
-384.990	-94.889	-0.113	-0.030
-383.975	-76.365	0.041	0.014
-382.960	-72.760	0.510	-0.186
-381.946	-28.014	0.385	0.221
-380.931	-71.926	0.127	-0.047
-379.917	141.446	-0.290	0.381
-378.902	-121.063	0.305	-0.051
-377.888	800.000	0.106	-0.396
-376.873	-160.962	0.231	0.012
-375.858	-141.241	-0.074	-0.007
-374.844	16.511	0.373	-0.292
-373.829	-24.488	-0.359	-0.212
-372.815	151.356	0.028	0.038
-371.800	-117.014	-0.222	0.040
-370.785	-200.000	-0.061	-0.399
-369.771	800.000	-0.068	-0.224
-368.756	-200.000	-0.422	0.000
-367.742	-28.516	0.317	-0.181
-366.727	266.391	0.132	0.229
-365.712	-124.299	0.075	0.012
-364.698	-104.585	0.070	-0.016
-363.683	-94.384	-0.025	0.007
-362.669	42.038	0.186	-0.167
-361.654	205.431	-0.112	-0.173
-360.639	115.150	-0.117	0.142
-359.625	47.198	-0.189	-0.175
-358.610	107.770	0.247	-0.292
-357.596	-82.878	-0.339	0.109
-356.581	82.336	-0.071	0.077
-355.566	456.123	-0.100	-0.220
-354.552	-200.000	-0.010	-0.305
-353.537	181.437	-0.123	-0.179
-352.523	-200.000	0.008	-0.199
-351.508	-61.217	-0.249	0.104
-350.493	-200.000	-0.035	0.292
-349.479	-128.490	-0.139	-0.020
-348.464	-6.629	-0.219	-0.148
-347.450	-26.796	-0.167	-0.097
-346.435	-136.761	-0.050	-0.006
-345.420	-200.000	-0.364	-0.001
-344.406	5.551	-0.122	0.089
-343.391	-73.282	-0.441	0.160
-342.377	51.594	0.144	0.135
-341.362	-149.055	-0.242	-0.019
-340.348	251.930	-0.075	0.127
-339.333	-47.189	-0.398	-0.192
-338.318	-9.729	0.094	0.062
-337.304	3.497	-0.252	0.182
-336.289	-30.474	-0.275	0.155
-335.275	165.472	0.236	-0.331
-334.260	-9.469	-0.308	0.203
-333.245	-200.000	0.024	-0.168
-332.231	-154.562	0.315	0.021
-331.216	17.220	0.083	-0.065
-330.202	75.336	0.187	0.196
-329.187	-113.811	0.012	-0.002
-328.172	-41.212	0.114	-0.058
-327.158	800.000	0.059	-0.235
-326.143	209.180	0.016	0.025
-325.129	215.171	0.180	0.282
-324.114	-200.000	-0.032	0.154
-323.099	800.000	0.034	-0.123
-322.085	-58.452	0.151	0.065
-321.070	246.180	-0.104	0.174
-320.056	-200.000	-0.020	0.122
-319.041	-146.666	-0.140	0.012
-318.026	-200.000	0.008	-0.055
-317.012	-171.961	0.383	-0.012
-315.997	-112.538	0.134	0.026
-314.983	-200.000	0.050	0.226
-313.968	-5.628	-0.413	-0.281
-312.953	244.679	0.161	-0.267
-311.939	-45.944	-0.145	-0.071
-310.924	178.461	0.173	0.250
-309.910	45.206	0.044	0.040
-308.895	169.949	0.168	-0.238
-307.880	-200.000	0.020	-0.366
-306.866	-43.244	0.102	-0.051
-305.851	-89.219	0.180	0.053
-304.837	-200.000	-0.001	0.273
-303.822	235.295	-0.144	0.236
-302.807	-200.000	0.008	0.100
-301.793	490.426	0.035	0.079
-300.778	-117.926	-0.193	-0.034
-299.764	794.429	0.161	-0.438
-298.749	-146.950	0.289	0.025
-297.735	181.164	-0.310	-0.451
-296.720	174.408	-0.146	-0.209
-295.705	-16.847	-0.146	-0.091
-294.691	-27.052	-0.097	0.056
-293.676	714.042	-0.114	0.299
-292.662	71.195	-0.192	0.197
-291.647	800.000	0.073	0.246
-290.632	-115.711	-0.065	0.012
-289.618	800.000	-0.015	-0.062
-288.603	706.313	-0.062	0.161
-287.589	90.721	-0.080	0.089
-286.574	-147.308	0.320	-0.027
-285.559	-0.912	0.159	-0.111
-284.545	-124.529	0.380	-0.058
-283.530	176.659	-0.026	-0.038
-282.516	618.093	-0.082	-0.203
-281.501	-91.447	-0.021	-0.006
-280.486	683.778	0.013	-0.034
-279.472	800.000	-0.037	-0.139
-278.457	800.000	0.083	-0.311
-277.443	117.963	0.183	0.223
-276.428	223.427	-0.193	0.308
-275.413	168.542	0.134	-0.189
-274.399	800.000	0.064	0.251
-273.384	228.590	0.148	-0.238
-272.370	-200.000	-0.054	0.238
-271.355	93.637	-0.129	-0.144
-270.340	94.955	-0.322	-0.362
-269.326	-200.000	-0.005	0.260
-268.311	-128.078	0.096	0.014
-267.297	428.682	-0.165	-0.353
-266.282	47.423	0.145	0.134
-265.267	186.729	-0.080	-0.117
-264.253	800.000	0.035	0.120
-263.238	-93.259	-0.193	-0.053
-262.224	-55.786	-0.196	-0.087
-261.209	-22.286	-0.034	0.020
-260.195	310.262	-0.110	0.203
-259.180	-52.624	0.381	-0.174
-258.165	-200.000	0.019	0.085
-257.151	33.497	0.296	-0.254
-256.136	-11.079	-0.131	0.086
-255.122	-46.983	-0.313	0.151
-254.107	244.062	-0.120	-0.199
-253.092	522.510	-0.053	-0.124
-252.078	7.548	-0.220	-0.162
-251.063	-66.013	0.245	-0.097
-250.049	-164.540	0.214	0.010
-249.034	-200.000	0.023	-0.108
-248.019	800.000	-0.071	0.229
-247.005	800.000	-0.073	-0.251
-245.990	208.525	-0.237	-0.366
-244.976	-97.665	0.313	-0.080
-243.961	30.172	0.164	0.138
-242.946	73.762	0.234	-0.243
-241.932	-200.000	0.003	-0.057
-240.917	47.743	-0.320	0.295
-239.903	-14.339	0.218	-0.139
-238.888	-99.787	-0.237	0.059
-237.873	800.000	0.108	0.326
-236.859	-21.506	0.132	0.079
-235.844	-200.000	-0.090	0.000
-234.830	800.000	-0.115	0.345
-233.815	306.514	-0.130	0.238
-232.800	99.937	0.173	0.198
-231.786	-188.740	-0.052	-0.001
-230.771	800.000	-0.054	0.181
-229.757	-176.210	0.291	0.008
-228.742	-1.072	0.159	0.111
-227.727	220.545	-0.026	0.041
-226.713	800.000	0.068	0.233
-225.698	157.239	-0.172	0.235
-224.684	122.412	-0.124	0.153
-223.669	12.457	0.209	-0.159
-222.655	100.738	0.282	-0.323
-221.640	123.870	0.208	0.258
-220.625	42.511	-0.241	0.216
-219.611	189.111	-0.336	0.496
-218.596	491.908	0.158	0.356
-217.582	-96.697	0.088	0.023
-216.567	-200.000	-0.036	0.295
-215.552	-23.805	-0.153	-0.090
-214.538	-111.005	0.377	-0.076
-213.523	-184.534	-0.308	-0.005
-212.509	530.417	0.062	0.145
-211.494	7.702	0.141	-0.104
-210.479	22.707	0.035	0.029
-209.465	-200.000	0.038	0.384
-208.450	412.197	0.105	-0.220
-207.436	-1.920	0.362	0.251
-206.421	161.118	0.086	0.119
-205.406	-200.000	0.021	-0.103
-204.392	131.062	0.269	0.341
-203.377	161.241	-0.067	0.093
-202.363	59.364	-0.099	-0.096
-201.348	304.264	-0.158	-0.288
-200.333	316.978	0.157	0.293
-199.319	-200.000	0.006	-0.045
-198.304	-39.603	-0.223	0.115
-197.290	249.326	-0.174	0.291
-196.275	-200.000	0.010	0.232
-195.260	-112.970	0.225	0.044
-194.246	-200.000	-0.001	-0.072
-193.231	41.988	-0.368	0.329
-192.217	800.000	-0.090	0.337
-191.202	-25.313	-0.281	0.164
-190.187	93.672	-0.171	0.190
-189.173	154.579	0.188	0.255
-188.158	202.826	0.085	-0.129
-187.144	222.955	-0.151	-0.239
-186.129	1.484	-0.247	-0.175
-185.114	-200.000	0.004	0.217
-184.100	-200.000	0.074	-0.341
-183.085	-200.000	-0.024	-0.365
-182.071	200.147	0.012	0.018
-181.056	-200.000	-0.028	0.184
-180.042	62.766	0.159	0.157
-179.027	800.000	0.061	0.231
-178.012	-13.782	0.216	0.137
-176.998	-14.596	0.181	-0.114
-175.983	-63.991	0.128	-0.051
-174.969	-200.000	0.029	-0.133
-173.954	-21.094	0.108	0.065
-172.939	-200.000	-0.015	0.467
-171.925	57.547	0.086	0.083
-170.910	-130.620	0.154	0.020
-169.896	3.028	0.014	-0.010
-168.881	734.451	0.155	0.409
-167.866	-59.548	-0.162	0.068
-166.852	-200.000	0.036	-0.228
-165.837	-200.000	0.022	-0.210
-164.823	73.599	0.265	0.274
-163.808	-99.956	-0.336	-0.083
-162.793	-200.000	0.014	0.125
-161.779	800.000	-0.012	-0.033
-160.764	-200.000	-0.011	-0.116
-159.750	-30.225	0.082	0.046
-158.735	-64.720	-0.154	0.062
-157.720	-200.000	0.055	-0.400
-156.706	-74.398	-0.040	-0.014
-155.691	101.823	0.271	-0.311
-154.677	-26.942	0.171	-0.099
-153.662	200.173	0.178	0.270
-152.647	460.635	-0.078	0.172
-151.633	-130.942	0.077	-0.010
-150.618	-72.673	-0.224	0.081
-149.604	80.872	0.090	0.095
-148.589	56.324	-0.227	0.217
-147.574	800.000	-0.085	-0.287
-146.560	-16.259	-0.137	0.086
-145.545	125.564	0.204	-0.253
-144.531	-200.000	0.001	0.110
-143.516	109.288	0.118	0.139
-142.502	77.579	0.219	0.230
-141.487	-71.405	-0.240	-0.088
-140.472	-200.000	-0.013	-0.453
-139.458	93.563	-0.158	-0.176
-138.443	244.104	-0.070	-0.116
-137.429	800.000	-0.054	-0.150
-136.414	289.732	0.171	0.306
-135.399	800.000	0.134	0.404
-134.385	-200.000	0.047	0.280
-133.370	-144.548	-0.291	-0.026
-132.356	-16.529	-0.100	0.063
-131.341	105.145	0.181	-0.210
-130.326	800.000	0.077	0.224
-129.312	-23.008	-0.551	0.326
-128.297	800.000	0.033	0.104
-127.283	-46.076	0.451	0.219
-126.268	-77.527	-0.137	-0.047
-125.253	65.511	-0.098	0.098
-124.239	-73.295	0.153	0.055
-123.224	-200.000	-0.003	-0.240
-122.210	461.184	0.165	0.362
-121.195	-27.596	-0.219	-0.125
