DTS Sentinel unit serial number:	SN413079Multiplexer serial number:	ORYXHardware model number:	OX4-SRSoftware version number:	ORYX F/W v4.00 Oryx Data Collector v3.7.2.0data status	okinstallation	princeton_trtdifferential loss correction	single-endedforward channel	channel 2reverse channel	N/Adate	2019/09/16time	15:51:35forward acquisition time	60.00reverse acquisition time	0.00gamma	496.2192k internal	0.2299k external	0.2299temperature offset calibration	0.9935default loss term (dB/km)	0.3790temperature slope calibration	1.0000multiplexer offset coefficient	1.0000multiplexer slope coefficient	1.0000fibre end	0.00T internal ref (°C)	41.12T ext. ref 1 (°C)	14.82T ext. ref 2 (°C)	35.93length (m)	temperature (°C)	Stokes	anti-Stokes-747.200	177.182	-0.093	-0.138
-746.185	157.556	-0.216	0.305
-745.171	-165.749	0.132	-0.006
-744.156	99.045	-0.199	0.235
-743.142	800.000	-0.047	0.176
-742.127	228.177	-0.147	0.244
-741.112	82.512	0.108	-0.120
-740.098	800.000	-0.114	0.501
-739.083	295.020	0.245	0.457
-738.069	564.188	-0.023	0.056
-737.054	-82.333	-0.055	-0.018
-736.039	800.000	0.024	0.086
-735.025	-0.350	0.128	0.093
-734.010	800.000	-0.011	0.040
-732.996	-119.924	-0.209	0.037
-731.981	-48.809	0.216	-0.106
-730.966	8.825	0.260	0.200
-729.952	28.880	0.160	0.138
-728.937	-136.991	-0.209	-0.024
-727.923	-200.000	0.063	-0.292
-726.908	800.000	-0.111	0.329
-725.894	-82.602	-0.108	0.036
-724.879	604.476	0.102	-0.260
-723.864	33.817	-0.336	0.298
-722.850	73.057	0.162	-0.173
-721.835	-61.972	-0.323	0.138
-720.821	800.000	-0.037	0.153
-719.806	-10.222	0.037	0.025
-718.791	-200.000	-0.009	-0.291
-717.777	-4.320	-0.316	-0.223
-716.762	-170.738	-0.145	-0.005
-715.748	-200.000	-0.037	0.189
-714.733	365.119	-0.115	0.236
-713.718	-42.904	0.188	0.098
-712.704	-67.708	0.105	-0.042
-711.689	95.423	0.112	-0.130
-710.675	-200.000	-0.007	0.176
-709.660	-200.000	-0.073	0.440
-708.645	-200.000	-0.015	0.140
-707.631	686.535	0.037	0.098
-706.616	800.000	-0.104	0.344
-705.602	-200.000	-0.014	-0.175
-704.587	11.558	0.148	0.116
-703.572	66.514	-0.058	-0.061
-702.558	192.156	0.267	0.410
-701.543	695.838	-0.062	-0.165
-700.529	161.182	-0.101	-0.144
-699.514	-39.235	-0.223	-0.119
-698.499	-145.794	-0.142	0.013
-697.485	257.621	-0.114	0.200
-696.470	-200.000	0.024	-0.134
-695.456	-77.609	0.062	-0.022
-694.441	191.796	-0.115	0.176
-693.426	-200.000	0.003	0.045
-692.412	-95.704	-0.244	-0.066
-691.397	-119.921	0.222	-0.039
-690.383	121.366	-0.046	-0.058
-689.368	46.950	0.135	-0.128
-688.354	-200.000	-0.017	0.115
-687.339	189.141	0.196	-0.299
-686.324	0.131	0.079	0.058
-685.310	64.706	0.239	-0.246
-684.295	67.901	-0.352	-0.367
-683.281	-62.845	-0.157	-0.066
-682.266	800.000	0.119	0.401
-681.251	-89.527	0.150	0.045
-680.237	-78.582	-0.288	-0.100
-679.222	-71.373	-0.557	-0.212
-678.208	-55.342	0.259	0.118
-677.193	41.921	-0.175	0.161
-676.178	-93.005	0.087	0.025
-675.164	-105.876	-0.147	-0.034
-674.149	-48.650	-0.108	0.053
-673.135	-103.647	0.142	-0.034
-672.120	-152.369	0.300	-0.022
-671.105	354.606	0.110	-0.223
-670.091	-39.165	-0.162	-0.087
-669.076	280.142	0.099	0.181
-668.062	155.758	0.174	-0.245
-667.047	800.000	-0.052	0.151
-666.032	-44.061	-0.136	-0.069
-665.018	-15.655	0.201	0.131
-664.003	-107.448	0.439	0.098
-662.989	-200.000	-0.012	0.106
-661.974	-161.118	-0.144	0.008
-660.959	75.851	-0.075	-0.081
-659.945	-28.850	-0.135	-0.079
-658.930	-200.000	0.021	0.192
-657.916	359.768	0.050	0.102
-656.901	72.090	-0.173	0.183
-655.886	0.333	-0.070	0.051
-654.872	-142.439	0.162	-0.016
-653.857	112.598	-0.236	-0.290
-652.843	233.863	-0.174	-0.292
-651.828	800.000	-0.085	0.320
-650.814	296.935	-0.236	-0.441
-649.799	-200.000	-0.045	-0.244
-648.784	-45.629	0.384	-0.193
-647.770	-53.994	-0.144	0.067
-646.755	-200.000	0.051	-0.412
-645.741	-107.846	0.309	0.068
-644.726	-143.210	0.357	-0.035
-643.711	99.369	-0.113	-0.133
-642.697	800.000	0.035	-0.155
-641.682	15.255	0.193	0.154
-640.668	118.625	-0.184	-0.232
-639.653	-144.877	0.296	0.028
-638.638	2.313	-0.297	0.218
-637.624	69.379	0.069	0.072
-636.609	433.798	-0.014	-0.031
-635.595	62.933	-0.085	-0.086
-634.580	-200.000	-0.046	0.517
-633.565	-141.541	-0.125	0.013
-632.551	15.278	0.194	0.155
-631.536	-200.000	0.026	0.219
-630.522	-182.728	-0.344	0.006
-629.507	-200.000	-0.044	-0.280
-628.492	-94.518	0.209	0.058
-627.478	-200.000	0.044	-0.342
-626.463	10.896	-0.184	0.143
-625.449	800.000	-0.036	0.154
-624.434	-200.000	-0.023	0.152
-623.419	-200.000	0.036	-0.397
-622.405	-200.000	-0.017	0.254
-621.390	-138.566	0.052	0.006
-620.376	-200.000	-0.045	0.266
-619.361	86.308	0.194	0.217
-618.346	29.959	0.167	-0.145
-617.332	-175.052	0.287	0.008
-616.317	337.956	-0.070	0.139
-615.303	-75.282	0.352	0.128
-614.288	57.461	0.145	0.144
-613.273	-200.000	0.047	-0.459
-612.259	-79.188	0.072	0.025
-611.244	-106.645	-0.187	-0.042
-610.230	36.195	0.171	0.153
-609.215	302.705	0.047	0.088
-608.201	453.590	-0.079	-0.178
-607.186	52.250	-0.216	0.209
-606.171	-100.055	0.086	0.022
-605.157	-96.896	0.245	-0.065
-604.142	249.930	-0.111	0.192
-603.128	-74.054	0.200	0.074
-602.113	-135.724	-0.206	-0.025
-601.098	1.161	0.187	0.136
-600.084	-105.280	0.328	-0.076
-599.069	316.755	-0.100	-0.191
-598.055	-200.000	0.032	-0.148
-597.040	100.041	-0.164	0.193
-596.025	-25.902	0.116	0.069
-595.011	-169.091	-0.187	0.007
-593.996	70.679	0.237	-0.249
-592.982	45.388	0.041	0.039
-591.967	-200.000	0.058	0.360
-590.952	77.321	-0.049	0.053
-589.938	660.441	0.110	-0.287
-588.923	-123.172	0.251	0.041
-587.909	288.426	-0.251	0.461
-586.894	373.373	0.063	0.130
-585.879	800.000	-0.041	0.144
-584.865	414.815	0.174	-0.377
-583.850	-69.467	-0.263	-0.102
-582.836	-76.135	-0.192	0.069
-581.821	14.091	-0.395	-0.312
-580.806	-100.190	0.093	0.023
-579.792	139.439	-0.264	0.352
-578.777	-200.000	-0.010	-0.337
-577.763	410.509	-0.048	0.103
-576.748	800.000	0.005	0.019
-575.733	-163.731	-0.232	0.011
-574.719	-2.468	-0.126	0.090
-573.704	-200.000	-0.069	0.390
-572.690	-200.000	0.023	-0.208
-571.675	800.000	-0.033	-0.110
-570.661	154.670	0.090	0.125
-569.646	-8.188	0.132	0.090
-568.631	-200.000	-0.019	-0.442
-567.617	268.658	-0.111	-0.197
-566.602	-147.689	-0.142	-0.012
-565.588	-200.000	-0.010	-0.188
-564.573	-124.675	0.182	0.029
-563.558	-57.323	0.199	-0.089
-562.544	300.532	0.022	-0.042
-561.529	195.748	-0.120	-0.185
-560.515	-196.136	0.174	-0.001
-559.500	-94.099	-0.253	0.070
-558.485	306.264	-0.080	0.151
-557.471	-7.211	0.221	0.152
-556.456	4.252	0.048	-0.036
-555.442	-12.738	-0.163	0.108
-554.427	-177.027	0.264	-0.007
-553.412	-102.591	-0.238	-0.058
-552.398	-175.474	-0.200	-0.006
-551.383	800.000	-0.085	-0.283
-550.369	185.300	0.085	0.128
-549.354	73.521	-0.227	0.241
-548.339	-40.961	0.331	-0.173
-547.325	-44.641	0.071	0.036
-546.310	-52.661	-0.259	-0.121
-545.296	-117.640	-0.237	0.043
-544.281	31.573	-0.186	-0.162
-543.266	2.428	-0.225	-0.165
-542.252	73.420	0.111	-0.118
-541.237	-0.718	-0.107	-0.077
-540.223	59.217	0.081	0.081
-539.208	-10.446	-0.256	0.172
-538.193	128.747	0.260	-0.336
-537.179	765.364	0.091	0.249
-536.164	-53.123	-0.108	0.050
-535.150	2.728	0.074	-0.055
-534.135	-80.839	-0.261	0.088
-533.121	3.307	-0.106	0.078
-532.106	148.001	-0.193	0.263
-531.091	-200.000	-0.379	-0.000
-530.077	-187.647	-0.302	-0.004
-529.062	-135.096	-0.167	-0.020
-528.048	-93.729	-0.459	-0.128
-527.033	85.193	0.186	0.206
-526.018	-200.000	0.039	-0.221
-525.004	144.001	0.195	-0.263
-523.989	-80.707	-0.264	-0.089
-522.975	-166.766	-0.215	0.009
-521.960	104.991	-0.356	-0.425
-520.945	-121.842	-0.231	0.039
-519.931	-200.000	-0.033	0.157
-518.916	-25.121	-0.257	-0.154
-517.902	-200.000	0.007	0.343
-516.887	-95.316	-0.288	0.078
-515.872	-200.000	0.019	-0.360
-514.858	-86.869	0.100	0.031
-513.843	690.655	0.089	-0.235
-512.829	800.000	-0.058	-0.164
-511.814	-153.173	0.077	0.005
-510.799	-16.750	0.235	0.151
-509.785	-103.153	0.238	-0.057
-508.770	-62.016	0.239	0.101
-507.756	265.183	-0.173	0.305
-506.741	15.952	-0.042	0.033
-505.726	73.093	-0.238	0.252
-504.712	264.318	-0.047	0.083
-503.697	-175.801	0.111	-0.003
-502.683	-57.788	0.308	-0.136
-501.668	173.538	-0.091	-0.132
-500.653	6.978	0.227	0.171
-499.639	-61.188	0.251	-0.107
-498.624	-37.582	0.246	0.132
-497.610	-55.799	0.248	0.112
-496.595	-45.386	0.093	0.047
-495.581	4.347	-0.128	0.095
-494.566	800.000	-0.047	-0.166
-493.551	-58.596	0.084	0.037
-492.537	-200.000	0.003	-0.026
-491.522	388.919	0.110	0.231
-490.508	800.000	0.026	-0.106
-489.493	-19.960	-0.089	0.056
-488.478	87.404	0.167	-0.186
-487.464	104.989	0.095	0.113
-486.449	-200.000	0.036	0.166
-485.435	154.056	-0.087	0.120
-484.420	-175.041	0.272	0.008
-483.405	-130.261	-0.286	-0.039
-482.391	800.000	0.033	0.130
-481.376	282.916	0.031	-0.056
-480.362	145.971	0.164	0.221
-479.347	389.438	-0.098	-0.206
-478.332	-103.758	0.180	0.043
-477.318	-108.426	0.179	0.039
-476.303	167.131	0.085	0.122
-475.289	-200.000	0.021	0.110
-474.274	-150.140	-0.158	0.012
-473.259	529.109	-0.048	0.115
-472.245	260.481	0.121	-0.212
-471.230	-15.812	0.180	-0.116
-470.216	800.000	-0.081	-0.325
-469.201	-64.439	-0.190	0.078
-468.186	-200.000	0.056	-0.374
-467.172	-79.145	-0.226	0.077
-466.157	173.806	0.226	0.329
-465.143	158.585	0.060	-0.084
-464.128	-131.938	-0.014	0.002
-463.113	-130.800	0.244	0.033
-462.099	-200.000	0.003	0.198
-461.084	-200.000	0.031	0.335
-460.070	-26.012	0.245	-0.146
-459.055	-99.114	0.288	0.074
-458.040	-7.206	0.268	-0.183
-457.026	192.377	0.081	-0.124
-456.011	128.952	-0.206	0.265
-454.997	800.000	0.060	0.232
-453.982	-121.678	0.088	0.015
-452.968	-127.091	0.245	0.036
-451.953	-109.025	0.122	0.026
-450.938	68.361	0.102	0.105
-449.924	24.485	-0.300	-0.250
-448.909	-200.000	0.012	-0.303
-447.895	800.000	-0.078	-0.279
-446.880	-200.000	0.021	0.116
-445.865	-200.000	-0.001	0.242
-444.851	58.836	-0.089	-0.088
-443.836	-88.202	0.107	-0.032
-442.822	-17.098	-0.050	0.032
-441.807	50.066	-0.192	0.183
-440.792	586.879	0.124	0.309
-439.778	800.000	-0.029	-0.118
-438.763	800.000	0.066	-0.281
-437.749	-106.333	-0.032	-0.007
-436.734	800.000	0.045	-0.153
-435.719	800.000	-0.059	0.165
-434.705	-44.810	0.133	-0.067
-433.690	-98.297	-0.185	-0.048
-432.676	59.871	0.171	-0.170
-431.661	-200.000	0.007	0.354
-430.646	568.641	-0.097	0.237
-429.632	35.295	-0.273	-0.241
-428.617	-176.312	0.385	-0.010
-427.603	611.255	0.076	0.192
-426.588	-7.747	0.296	-0.201
-425.573	-196.281	-0.249	0.002
-424.559	-164.851	0.245	0.011
-423.544	162.316	-0.106	0.149
-422.530	575.713	0.044	-0.108
-421.515	18.342	-0.262	0.211
-420.500	303.792	0.056	-0.105
-419.486	800.000	0.029	-0.118
-418.471	-200.000	-0.043	-0.217
-417.457	142.339	0.062	-0.083
-416.442	-200.000	-0.003	-0.072
-415.428	800.000	0.038	-0.114
-414.413	-200.000	0.046	0.276
-413.398	27.728	0.022	0.018
-412.384	-53.556	0.360	0.166
-411.369	-1.414	0.063	-0.045
-410.355	31.606	0.210	-0.182
-409.340	-40.720	-0.095	0.050
-408.325	112.055	-0.145	0.177
-407.311	196.899	-0.230	-0.353
-406.296	-115.392	-0.342	0.065
-405.282	85.175	0.242	-0.267
-404.267	800.000	-0.057	-0.233
-403.252	566.061	-0.119	-0.291
-402.238	-51.370	-0.084	-0.039
-401.223	-50.607	0.365	0.173
-400.209	-12.954	0.104	-0.068
-399.194	37.653	0.298	-0.266
-398.179	50.630	0.107	-0.102
-397.165	298.462	-0.058	-0.107
-396.150	-200.000	0.004	0.039
-395.136	-86.806	-0.308	0.095
-394.121	-38.568	0.258	-0.137
-393.106	-200.000	-0.021	-0.129
-392.092	129.274	-0.202	0.260
-391.077	-94.411	-0.347	0.095
-390.063	-3.789	-0.259	0.181
-389.048	-128.627	0.042	0.006
-388.033	800.000	-0.025	-0.110
-387.019	-128.720	-0.095	-0.014
-386.004	-128.267	0.244	0.035
-384.990	-200.000	-0.045	0.255
-383.975	293.485	0.124	-0.228
-382.960	-19.675	0.045	-0.028
-381.946	32.714	-0.260	-0.226
-380.931	-92.167	-0.236	0.067
-379.917	-142.557	-0.078	0.008
-378.902	496.160	-0.039	-0.091
-377.888	76.570	0.044	-0.047
-376.873	-88.506	-0.292	0.088
-375.858	-154.789	-0.198	0.013
-374.844	27.036	-0.049	-0.042
-373.829	91.475	-0.175	-0.198
-372.815	18.187	0.165	-0.132
-371.800	-200.000	-0.044	-0.292
-370.785	-200.000	0.001	-0.273
-369.771	-185.718	-0.272	0.004
-368.756	-200.000	-0.043	0.599
-367.742	-12.800	0.315	0.206
-366.727	-87.313	0.174	0.053
-365.712	-29.013	0.056	0.032
-364.698	43.839	-0.203	0.187
-363.683	138.227	0.061	-0.081
-362.669	-200.000	0.028	-0.203
-361.654	-67.884	-0.266	-0.104
-360.639	-200.000	-0.067	-0.670
-359.625	313.078	-0.174	-0.328
-358.610	-200.000	-0.067	-0.508
-357.596	-45.986	-0.120	0.059
-356.581	-161.067	0.019	0.001
-355.566	45.549	-0.253	0.235
-354.552	-164.994	-0.133	-0.006
-353.537	-200.000	-0.021	-0.123
-352.523	-200.000	-0.020	0.510
-351.508	-40.286	-0.274	0.143
-350.493	546.214	-0.116	-0.278
-349.479	800.000	-0.025	0.087
-348.464	225.253	-0.103	0.167
-347.450	800.000	0.041	0.162
-346.435	800.000	-0.048	-0.144
-345.420	610.816	-0.075	-0.188
-344.406	113.018	-0.243	0.296
-343.391	114.285	-0.162	0.198
-342.377	660.120	0.056	0.145
-341.362	462.419	-0.069	-0.154
-340.348	-121.609	-0.033	0.005
-339.333	-11.157	-0.163	0.108
-338.318	-7.533	0.109	-0.074
-337.304	-185.865	0.156	0.002
-336.289	-200.000	0.106	0.483
-335.275	-189.446	-0.199	0.002
-334.260	-5.092	-0.194	0.134
-333.245	173.657	-0.029	-0.042
-332.231	-140.258	0.273	-0.029
-331.216	59.919	-0.165	-0.163
-330.202	532.701	0.030	-0.072
-329.187	-200.000	0.034	0.346
-328.172	800.000	-0.028	0.106
-327.158	58.031	-0.240	-0.235
-326.143	-13.644	0.093	-0.061
-325.129	404.594	-0.143	0.302
-324.114	425.818	0.128	-0.278
-323.099	-51.133	-0.063	0.030
-322.085	800.000	0.032	-0.118
-321.070	-200.000	0.030	0.368
-320.056	47.096	-0.203	0.190
-319.041	102.474	0.141	-0.165
-318.026	178.744	0.173	0.253
-317.012	-161.465	0.031	0.002
-315.997	116.335	0.235	-0.288
-314.983	40.987	-0.400	0.362
-313.968	-172.912	0.164	-0.005
-312.953	-200.000	0.057	0.496
-311.939	86.299	-0.193	-0.213
-310.924	246.029	-0.087	-0.146
-309.910	-11.475	0.488	-0.322
-308.895	-64.946	0.285	0.115
-307.880	800.000	0.091	0.318
-306.866	16.975	0.165	0.131
-305.851	-111.902	-0.282	0.057
-304.837	800.000	-0.040	-0.126
-303.822	-200.000	0.040	0.183
-302.807	92.840	0.194	0.219
-301.793	-200.000	-0.003	0.142
-300.778	800.000	-0.085	0.293
-299.764	-200.000	-0.018	-0.241
-298.749	-47.700	-0.049	0.024
-297.735	-200.000	-0.036	-0.201
-296.720	-99.459	0.116	-0.029
-295.705	485.959	-0.082	-0.186
-294.691	101.871	0.143	0.168
-293.676	756.312	0.009	-0.025
-292.662	103.458	0.197	-0.231
-291.647	-200.000	0.025	-0.121
-290.632	664.646	-0.020	0.053
-289.618	-30.940	0.282	-0.160
-288.603	-125.739	-0.371	-0.056
-287.589	-113.978	-0.147	-0.029
-286.574	800.000	-0.065	0.229
-285.559	-131.450	-0.106	0.014
-284.545	-62.596	-0.255	0.106
-283.530	211.519	0.111	-0.176
-282.516	105.076	-0.058	0.068
-281.501	-82.903	0.284	-0.092
-280.486	247.660	-0.075	-0.127
-279.472	800.000	-0.006	-0.019
-278.457	107.835	-0.076	-0.091
-277.443	-112.323	-0.105	-0.021
-276.428	608.762	0.134	-0.336
-275.413	-148.215	0.212	-0.018
-274.399	800.000	0.025	-0.069
-273.384	-11.609	0.264	-0.174
-272.370	94.652	0.220	0.251
-271.355	51.667	-0.049	0.046
-270.340	-38.321	-0.158	-0.084
-269.326	-96.380	-0.028	0.008
-268.311	-39.409	-0.121	-0.063
-267.297	349.473	-0.081	-0.160
-266.282	800.000	-0.057	0.184
-265.267	-139.264	0.209	0.022
-264.253	293.000	0.102	-0.187
-263.238	800.000	0.139	0.458
-262.224	123.098	-0.067	0.084
-261.209	-101.812	-0.221	0.053
-260.195	246.842	0.075	0.126
-259.180	-100.344	0.229	0.057
-258.165	29.005	-0.044	-0.038
-257.151	8.792	0.196	-0.148
-256.136	-200.000	0.044	-0.261
-255.122	-85.580	-0.216	-0.067
-254.107	-156.988	0.455	0.028
-253.092	-51.867	0.312	-0.146
-252.078	293.574	0.161	0.294
-251.063	585.235	-0.141	0.348
-250.049	144.414	0.147	0.196
-249.034	248.587	0.097	-0.164
-248.019	91.430	-0.092	0.104
-247.005	510.363	0.137	-0.318
-245.990	595.385	-0.053	-0.131
-244.976	-134.454	0.135	-0.017
-243.961	-50.793	-0.134	0.063
-242.946	-19.708	-0.113	-0.070
-241.932	4.705	-0.129	-0.095
-240.917	800.000	-0.059	0.163
-239.903	200.445	0.158	0.243
-238.888	-115.354	0.253	-0.048
-237.873	185.158	-0.048	0.071
-236.859	-200.000	0.031	0.144
-235.844	0.312	0.160	-0.115
-234.830	-20.244	0.063	-0.039
-233.815	-78.061	-0.180	-0.062
-232.800	59.376	0.195	0.193
-231.786	104.911	-0.046	0.055
-230.771	800.000	-0.039	-0.110
-229.757	1.985	0.170	0.123
-228.742	386.719	0.124	0.257
-227.727	-143.313	0.260	-0.025
-226.713	-154.264	-0.392	-0.026
-225.698	-185.399	0.094	0.001
-224.684	498.569	-0.049	0.112
-223.669	25.727	0.194	0.162
-222.655	-37.496	0.092	0.049
-221.640	-36.377	0.117	-0.063
-220.625	335.486	-0.069	0.134
-219.611	254.807	0.018	-0.031
-218.596	-136.132	0.291	0.034
-217.582	-101.955	-0.204	0.049
-216.567	260.014	-0.059	0.102
-215.552	-69.783	-0.213	0.081
-214.538	281.782	0.119	-0.214
-213.523	163.033	-0.162	0.227
-212.509	-90.497	-0.139	0.040
-211.494	188.607	0.199	0.297
-210.479	-84.895	-0.089	-0.028
-209.465	269.596	0.173	-0.304
-208.450	254.234	0.035	-0.060
-207.436	245.626	-0.112	-0.189
-206.421	-21.847	-0.198	-0.121
-205.406	9.907	0.204	-0.155
-204.392	-200.000	-0.035	-0.280
-203.377	-200.000	-0.012	-0.216
-202.363	212.907	0.012	0.018
-201.348	-200.000	-0.012	0.280
-200.333	27.382	0.184	-0.154
-199.319	78.157	-0.277	0.295
-198.304	-15.682	0.104	0.066
-197.290	-200.000	-0.003	-0.333
-196.275	222.251	0.150	0.241
-195.260	-131.521	-0.107	0.014
-194.246	55.288	-0.073	-0.071
-193.231	-142.962	-0.054	-0.005
-192.217	403.597	0.030	-0.064
-191.202	-150.828	0.095	0.007
-190.187	-121.393	-0.227	0.038
-189.173	248.368	-0.148	-0.250
-188.158	-200.000	0.006	-0.308
-187.144	-21.675	-0.164	-0.100
-186.129	-200.000	-0.053	0.434
-185.114	-200.000	-0.040	0.231
-184.100	800.000	0.053	-0.206
-183.085	-200.000	0.051	0.344
-182.071	-2.690	-0.180	-0.126
-181.056	-123.787	-0.222	0.035
-180.042	-110.190	0.569	0.118
-179.027	100.985	-0.050	-0.059
-178.012	-200.000	0.006	0.031
-176.998	-62.144	-0.224	0.093
-175.983	-200.000	-0.023	0.164
-174.969	-76.289	-0.048	0.017
-173.954	111.489	-0.053	-0.064
-172.939	-69.415	0.275	0.105
-171.925	-90.347	-0.179	-0.052
-170.910	-30.376	-0.307	-0.174
-169.896	119.684	-0.039	0.048
-168.881	126.354	0.076	-0.095
-167.866	-36.371	0.195	-0.105
-166.852	39.326	0.081	-0.072
-165.837	-95.243	-0.108	0.029
-164.823	43.391	0.026	-0.023
-163.808	-200.000	-0.008	-0.254
-162.793	-100.643	-0.240	0.059
-161.779	-127.805	0.364	-0.052
-160.764	-200.000	-0.041	-0.311
-159.750	148.999	-0.095	-0.128
-158.735	143.072	-0.088	-0.116
-157.720	-102.727	0.201	0.048
-156.706	-123.022	-0.186	-0.030
-155.691	800.000	0.016	0.065
-154.677	-200.000	0.051	0.301
-153.662	330.109	0.037	0.070
-152.647	39.293	0.171	-0.153
-151.633	-55.017	-0.297	0.134
-150.618	-54.036	-0.242	-0.110
-149.604	-200.000	-0.033	0.234
-148.589	-150.764	-0.245	-0.019
-147.574	-106.807	0.103	0.023
-146.560	337.741	0.146	0.283
-145.545	-200.000	-0.015	-0.155
-144.531	748.752	-0.076	-0.204
-143.516	800.000	0.021	-0.067
-142.502	650.822	-0.126	-0.321
-141.487	-200.000	-0.042	0.260
-140.472	-82.520	-0.209	0.068
-139.458	152.327	0.002	0.002
-138.443	800.000	0.052	0.188
-137.429	800.000	-0.063	0.246
-136.414	800.000	0.091	0.325
-135.399	-148.395	0.260	0.021
-134.385	800.000	0.055	-0.158
-133.370	-200.000	0.076	-0.508
-132.356	352.460	0.141	-0.278
-131.341	-200.000	0.003	-0.115
-130.326	502.878	0.050	0.115
-129.312	128.597	0.257	0.326
-128.297	-112.432	-0.268	-0.053
-127.283	122.779	0.125	0.155
-126.268	-18.308	0.069	-0.043
-125.253	65.753	0.126	0.127
-124.239	-200.000	0.059	0.402
-123.224	-131.572	-0.136	0.018
-122.210	419.217	-0.119	0.253
-121.195	-200.000	0.034	-0.314
