DTS Sentinel unit serial number:	SN413079Multiplexer serial number:	ORYXHardware model number:	OX4-SRSoftware version number:	ORYX F/W v4.00 Oryx Data Collector v3.7.2.0data status	okinstallation	princeton_trtdifferential loss correction	single-endedforward channel	channel 2reverse channel	N/Adate	2019/09/11time	13:17:11forward acquisition time	60.00reverse acquisition time	0.00gamma	496.2192k internal	0.2292k external	0.2292temperature offset calibration	1.0008default loss term (dB/km)	0.3790temperature slope calibration	1.0000multiplexer offset coefficient	1.0000multiplexer slope coefficient	1.0000fibre end	0.00T internal ref (°C)	41.94T ext. ref 1 (°C)	0.81T ext. ref 2 (°C)	36.58length (m)	temperature (°C)	Stokes	anti-Stokes-747.200	228.712	-0.109	0.182
-746.185	497.180	0.146	0.345
-745.171	9.249	0.142	0.110
-744.156	-110.119	-0.273	0.058
-743.142	-200.000	-0.022	0.160
-742.127	-108.515	0.241	0.053
-741.112	102.149	0.227	0.272
-740.098	136.680	-0.152	0.203
-739.083	-200.000	0.020	0.127
-738.069	368.489	-0.149	0.309
-737.054	-59.234	0.351	0.155
-736.039	-11.826	0.172	-0.116
-735.025	-29.303	-0.105	0.061
-734.010	15.012	-0.324	-0.260
-732.996	346.774	0.116	-0.233
-731.981	387.476	0.179	-0.379
-730.966	-11.123	-0.130	0.088
-729.952	3.593	-0.048	-0.036
-728.937	-200.000	-0.026	-0.206
-727.923	800.000	0.086	0.267
-726.908	800.000	0.073	-0.267
-725.894	90.447	0.099	0.113
-724.879	335.048	-0.038	0.074
-723.864	800.000	0.121	0.424
-722.850	800.000	-0.049	0.153
-721.835	-24.871	-0.106	0.064
-720.821	-111.938	-0.209	-0.043
-719.806	-48.585	-0.173	-0.085
-718.791	28.405	0.056	0.048
-717.777	-67.247	0.148	0.059
-716.762	-200.000	0.033	0.192
-715.748	-99.680	0.197	0.051
-714.733	444.963	-0.139	0.313
-713.718	597.437	-0.177	0.448
-712.704	47.239	-0.110	-0.105
-711.689	800.000	-0.085	-0.312
-710.675	107.900	0.250	-0.305
-709.660	20.965	-0.119	-0.099
-708.645	304.848	-0.133	-0.252
-707.631	-171.268	0.188	-0.006
-706.616	202.125	0.168	-0.265
-705.602	-33.200	-0.223	-0.126
-704.587	228.763	-0.029	-0.048
-703.572	267.415	0.067	-0.120
-702.558	-88.210	-0.106	-0.032
-701.543	-183.148	-0.151	0.003
-700.529	-12.370	-0.180	0.120
-699.514	-70.152	-0.251	0.098
-698.499	-200.000	-0.003	0.171
-697.485	-65.134	-0.179	-0.074
-696.470	800.000	0.105	-0.385
-695.456	-69.501	-0.099	0.039
-694.441	-200.000	0.007	0.044
-693.426	2.399	-0.147	0.108
-692.412	-200.000	0.045	0.203
-691.397	-111.846	-0.404	-0.083
-690.383	-28.203	-0.227	0.134
-689.368	193.846	-0.097	-0.150
-688.354	-114.639	-0.171	0.034
-687.339	0.947	-0.237	0.173
-686.324	54.342	-0.108	0.106
-685.310	-200.000	-0.032	-0.160
-684.295	-84.765	0.084	0.027
-683.281	9.311	-0.137	0.106
-682.266	800.000	0.032	0.121
-681.251	-200.000	0.030	0.176
-680.237	-200.000	0.024	-0.229
-679.222	-200.000	-0.003	-0.037
-678.208	-200.000	-0.012	0.173
-677.193	-80.508	-0.289	-0.098
-676.178	-20.433	-0.142	-0.089
-675.164	131.247	0.092	0.120
-674.149	-183.815	0.200	0.003
-673.135	-67.310	-0.217	0.087
-672.120	-73.569	-0.191	-0.071
-671.105	44.572	0.120	-0.112
-670.091	269.373	-0.183	-0.328
-669.076	-85.554	0.284	-0.090
-668.062	-200.000	-0.063	0.281
-667.047	-200.000	0.070	-0.355
-666.032	-200.000	0.026	-0.304
-665.018	-138.047	-0.238	0.027
-664.003	800.000	-0.024	0.080
-662.989	800.000	-0.043	0.137
-661.974	678.917	0.064	-0.170
-660.959	-104.520	-0.066	0.016
-659.945	95.897	-0.134	0.156
-658.930	786.694	0.081	0.228
-657.916	800.000	0.072	0.231
-656.901	288.416	0.078	0.145
-655.886	-38.302	-0.089	0.048
-654.872	-65.357	0.214	-0.088
-653.857	-5.259	0.047	0.033
-652.843	-113.590	-0.185	0.037
-651.828	8.662	-0.181	-0.139
-650.814	-200.000	0.003	-0.086
-649.799	146.588	-0.042	0.058
-648.784	-200.000	0.023	-0.145
-647.770	-101.889	-0.335	-0.083
-646.755	105.665	-0.064	-0.077
-645.741	256.404	-0.131	-0.229
-644.726	-32.382	-0.156	-0.089
-643.711	33.756	0.046	-0.041
-642.697	-59.771	0.265	0.116
-641.682	-200.000	-0.030	-0.272
-640.668	-200.000	0.006	-0.321
-639.653	-200.000	-0.006	-0.162
-638.638	-45.027	-0.128	-0.065
-637.624	-128.371	-0.128	-0.019
-636.609	-200.000	-0.003	0.084
-635.595	-33.628	-0.147	-0.082
-634.580	-200.000	-0.008	0.192
-633.565	-200.000	0.001	-0.111
-632.551	1.895	0.097	0.071
-631.536	-92.972	0.294	-0.084
-630.522	800.000	-0.090	-0.261
-629.507	-38.967	-0.349	0.187
-628.492	285.959	0.196	-0.361
-627.478	-32.003	0.265	0.151
-626.463	2.731	-0.463	-0.342
-625.449	197.199	0.027	-0.042
-624.434	800.000	0.040	-0.151
-623.419	-123.126	0.231	0.038
-622.405	580.034	0.079	0.197
-621.390	62.229	-0.178	0.181
-620.376	-69.149	-0.083	0.033
-619.361	-200.000	-0.037	-0.421
-618.346	147.516	-0.068	-0.093
-617.332	-57.679	-0.246	-0.110
-616.317	-55.521	0.339	0.155
-615.303	164.146	0.131	-0.188
-614.288	170.284	-0.073	-0.107
-613.273	-46.099	0.169	-0.085
-612.259	-145.323	-0.110	0.010
-611.244	800.000	-0.057	0.186
-610.230	-125.057	-0.209	0.033
-609.215	-200.000	-0.079	0.400
-608.201	173.718	-0.174	0.256
-607.186	-90.224	0.225	-0.066
-606.171	-200.000	-0.071	-0.360
-605.157	376.567	-0.075	0.155
-604.142	43.959	0.062	-0.058
-603.128	-7.260	0.203	-0.140
-602.113	223.629	0.133	0.218
-601.098	-200.000	0.000	-0.179
-600.084	168.471	0.074	0.107
-599.069	193.579	-0.242	0.373
-598.055	-200.000	0.005	0.065
-597.040	800.000	-0.030	0.108
-596.025	21.175	-0.224	0.185
-595.011	-200.000	0.019	0.248
-593.996	98.158	0.096	0.112
-592.982	-200.000	-0.019	-0.111
-591.967	27.744	-0.085	-0.073
-590.952	108.055	0.060	0.073
-589.938	-50.261	0.136	0.066
-588.923	-124.162	0.286	0.046
-587.909	123.069	0.084	0.107
-586.894	-42.985	-0.175	0.090
-585.879	607.670	0.071	-0.181
-584.865	94.592	-0.095	-0.110
-583.850	81.214	0.216	-0.237
-582.836	800.000	0.039	-0.173
-581.821	15.197	-0.176	-0.140
-580.806	-54.374	-0.128	-0.059
-579.792	-22.550	-0.213	0.131
-578.777	-41.691	0.237	0.124
-577.763	-200.000	-0.020	-0.116
-576.748	-102.089	-0.141	0.034
-575.733	-126.161	0.181	-0.028
-574.719	800.000	0.046	-0.142
-573.704	-108.814	-0.272	0.059
-572.690	-122.241	-0.458	0.076
-571.675	-113.996	-0.343	0.068
-570.661	65.497	-0.139	-0.143
-569.646	-56.855	-0.084	-0.038
-568.631	12.994	-0.215	-0.169
-567.617	-200.000	-0.012	-0.273
-566.602	-200.000	0.039	-0.207
-565.588	-55.477	0.207	-0.094
-564.573	-200.000	0.033	0.178
-563.558	-154.648	-0.130	-0.009
-562.544	16.595	0.062	-0.050
-561.529	800.000	-0.076	-0.220
-560.515	-200.000	-0.005	0.109
-559.500	-42.099	0.299	0.155
-558.485	800.000	-0.053	0.164
-557.471	800.000	-0.026	-0.076
-556.456	-127.377	-0.119	0.018
-555.442	27.274	-0.113	0.097
-554.427	408.575	0.114	-0.245
-553.412	423.820	0.030	-0.066
-552.398	104.944	0.243	0.291
-551.383	800.000	-0.070	0.276
-550.369	196.177	0.044	-0.068
-549.354	-95.193	-0.292	-0.080
-548.339	-102.641	0.416	0.101
-547.325	-14.894	-0.263	0.171
-546.310	-78.105	0.160	-0.056
-545.296	-102.827	-0.563	0.136
-544.281	6.143	0.160	0.120
-543.266	800.000	-0.120	0.341
-542.252	75.916	0.167	-0.179
-541.237	800.000	-0.060	0.196
-540.223	-200.000	-0.035	0.168
-539.208	-82.673	0.262	0.086
-538.193	116.036	-0.157	0.195
-537.179	468.334	0.075	0.171
-536.164	609.709	-0.019	0.049
-535.150	-200.000	-0.017	-0.201
-534.135	-200.000	0.017	0.136
-533.121	147.313	0.205	0.280
-532.106	395.022	-0.086	0.181
-531.091	800.000	0.021	-0.087
-530.077	138.099	0.160	-0.212
-529.062	-113.514	0.185	0.037
-528.048	-162.137	0.305	-0.016
-527.033	86.628	0.160	-0.179
-526.018	-6.889	-0.287	0.198
-525.004	-51.001	-0.058	0.028
-523.989	420.233	-0.135	0.294
-522.975	-200.000	0.001	-0.052
-521.960	-147.085	-0.279	-0.024
-520.945	156.244	-0.042	-0.058
-519.931	-200.000	-0.054	-0.268
-518.916	-7.573	-0.349	0.240
-517.902	52.615	-0.082	0.080
-516.887	-112.248	-0.291	-0.059
-515.872	-200.000	-0.006	-0.034
-514.858	-119.214	-0.097	0.017
-513.843	800.000	0.093	0.311
-512.829	-119.929	0.336	0.059
-511.814	218.518	-0.164	-0.266
-510.799	-10.922	0.049	0.033
-509.785	36.826	-0.070	-0.063
-508.770	-151.794	0.481	-0.036
-507.756	230.715	-0.109	-0.182
-506.741	0.800	0.204	0.148
-505.726	-51.242	0.109	0.052
-504.712	800.000	-0.045	0.141
-503.697	-200.000	0.058	0.297
-502.683	-200.000	-0.005	-0.153
-501.668	-195.781	0.231	0.002
-500.653	95.149	-0.122	-0.141
-499.639	-42.767	-0.148	-0.076
-498.624	70.300	-0.175	-0.184
-497.610	-44.199	-0.077	-0.039
-496.595	-56.050	-0.097	-0.044
-495.581	800.000	0.049	0.206
-494.566	416.281	0.035	0.075
-493.551	78.479	0.241	0.261
-492.537	-44.267	-0.272	-0.138
-491.522	-200.000	-0.041	-0.427
-490.508	800.000	-0.036	-0.114
-489.493	-126.414	-0.189	-0.029
-488.478	256.428	-0.116	0.201
-487.464	427.946	-0.113	0.247
-486.449	800.000	-0.101	0.338
-485.435	4.736	-0.240	-0.179
-484.420	290.702	0.133	-0.245
-483.405	-200.000	0.014	-0.155
-482.391	122.611	-0.110	0.140
-481.376	-27.062	0.026	0.015
-480.362	-56.667	-0.198	-0.089
-479.347	-73.625	-0.136	-0.050
-478.332	-173.116	0.131	0.004
-477.318	214.356	0.120	-0.193
-476.303	-40.496	-0.342	-0.180
-475.289	-200.000	0.016	-0.292
-474.274	707.937	-0.026	0.071
-473.259	-200.000	0.009	-0.299
-472.245	-71.465	-0.251	-0.095
-471.230	662.268	0.088	0.229
-470.216	27.687	0.112	-0.095
-469.201	-200.000	0.278	0.000
-468.186	-200.000	0.037	0.217
-467.172	-65.356	0.186	-0.076
-466.157	-123.102	-0.169	0.027
-465.143	404.889	0.021	0.045
-464.128	297.673	0.145	0.269
-463.113	-68.546	0.457	0.179
-462.099	-144.911	-0.263	-0.024
-461.084	-59.624	0.273	0.119
-460.070	-200.000	0.015	0.101
-459.055	-58.486	-0.282	0.124
-458.040	-22.257	0.276	0.169
-457.026	14.484	-0.118	-0.093
-456.011	500.384	0.106	-0.248
-454.997	-100.846	0.104	-0.026
-453.982	-76.308	-0.118	-0.042
-452.968	-53.083	0.234	-0.109
-451.953	-78.875	0.104	-0.036
-450.938	276.396	-0.233	-0.420
-449.924	800.000	0.072	-0.207
-448.909	431.505	-0.085	-0.185
-447.895	-70.204	-0.297	0.114
-446.880	-200.000	-0.015	-0.141
-445.865	-183.617	0.123	0.002
-444.851	113.536	0.147	0.181
-443.836	-42.730	-0.085	-0.044
-442.822	736.725	0.035	0.094
-441.807	-100.989	0.121	0.030
-440.792	191.225	0.118	-0.179
-439.778	800.000	-0.026	-0.090
-438.763	-32.969	0.121	0.068
-437.749	102.785	-0.095	-0.113
-436.734	-200.000	0.018	0.246
-435.719	-200.000	-0.001	0.401
-434.705	-110.789	-0.107	-0.022
-433.690	-200.000	0.006	-0.029
-432.676	-191.680	-0.138	0.001
-431.661	391.776	0.048	0.100
-430.646	-97.708	0.293	0.077
-429.632	92.356	-0.106	-0.121
-428.617	-200.000	-0.005	0.214
-427.603	-200.000	-0.019	-0.092
-426.588	11.638	0.160	-0.124
-425.573	-81.836	-0.153	0.051
-424.559	-75.519	-0.222	-0.080
-423.544	376.731	-0.066	0.137
-422.530	326.150	0.038	-0.073
-421.515	800.000	0.062	-0.246
-420.500	504.792	-0.071	-0.166
-419.486	7.359	0.149	-0.112
-418.471	-90.048	-0.198	0.058
-417.457	31.714	-0.414	0.360
-416.442	-46.375	-0.129	-0.064
-415.428	-200.000	0.003	0.397
-414.413	-16.916	-0.127	0.081
-413.398	-200.000	-0.007	0.270
-412.384	539.482	0.185	0.444
-411.369	-47.107	0.153	0.075
-410.355	477.831	-0.088	-0.202
-409.340	-4.877	-0.168	0.117
-408.325	243.817	-0.064	-0.108
-407.311	-72.149	-0.132	-0.050
-406.296	-73.095	0.249	-0.092
-405.282	68.903	0.324	0.336
-404.267	-200.000	-0.084	-0.411
-403.252	499.185	0.175	-0.406
-402.238	-200.000	0.010	-0.252
-401.223	88.344	-0.197	-0.220
-400.209	-17.342	0.086	0.054
-399.194	-164.023	0.213	0.010
-398.179	60.924	0.063	0.063
-397.165	1.957	-0.434	-0.316
-396.150	2.204	-0.163	-0.119
-395.136	239.510	0.080	-0.135
-394.121	61.679	0.374	0.376
-393.106	16.449	0.097	-0.078
-392.092	-65.831	0.130	-0.052
-391.077	658.923	0.041	0.106
-390.063	81.164	-0.052	0.057
-389.048	-11.634	0.138	-0.092
-388.033	-200.000	0.025	-0.188
-387.019	-49.477	0.304	0.146
-386.004	267.826	-0.150	0.265
-384.990	800.000	0.032	-0.122
-383.975	-2.507	0.179	-0.126
-382.960	56.255	-0.044	-0.043
-381.946	-78.293	-0.228	-0.079
-380.931	-200.000	0.046	0.210
-379.917	274.249	-0.163	-0.291
-378.902	125.692	-0.195	-0.248
-377.888	-57.233	0.101	-0.045
-376.873	-75.397	0.262	-0.094
-375.858	-199.219	-0.046	-0.000
-374.844	-90.151	0.160	0.047
-373.829	800.000	0.075	0.249
-372.815	201.688	0.053	0.083
-371.800	-23.438	0.123	-0.074
-370.785	534.620	-0.117	-0.279
-369.771	65.184	0.069	-0.070
-368.756	800.000	-0.030	-0.093
-367.742	62.278	-0.204	-0.205
-366.727	174.205	-0.105	-0.153
-365.712	3.115	-0.368	0.270
-364.698	-81.898	0.181	0.060
-363.683	-70.760	-0.171	-0.065
-362.669	197.027	0.041	0.063
-361.654	291.773	0.126	-0.231
-360.639	-200.000	0.023	0.166
-359.625	-200.000	-0.052	0.260
-358.610	-200.000	0.015	0.083
-357.596	-200.000	-0.004	-0.065
-356.581	156.352	-0.147	-0.205
-355.566	-2.313	0.389	0.275
-354.552	-200.000	0.020	0.285
-353.537	-142.402	-0.225	-0.022
-352.523	-124.410	-0.258	0.041
-351.508	-143.394	0.271	0.026
-350.493	800.000	0.120	0.494
-349.479	-200.000	0.014	0.375
-348.464	800.000	0.094	0.274
-347.450	122.869	-0.187	-0.235
-346.435	-151.456	0.326	-0.024
-345.420	-1.894	-0.061	0.043
-344.406	-78.099	0.124	0.043
-343.391	155.801	0.135	0.187
-342.377	514.799	0.157	-0.370
-341.362	-4.581	0.179	0.125
-340.348	-70.051	0.021	0.008
-339.333	12.612	-0.274	-0.213
-338.318	560.884	0.056	-0.136
-337.304	-147.832	0.181	-0.015
-336.289	-198.661	0.198	-0.001
-335.275	98.123	0.093	-0.108
-334.260	-191.604	0.228	0.002
-333.245	549.270	0.062	-0.151
-332.231	800.000	0.116	0.332
-331.216	-130.717	-0.194	0.026
-330.202	800.000	-0.052	0.224
-329.187	-200.000	0.009	0.196
-328.172	-51.186	-0.080	0.038
-327.158	-21.073	0.286	0.176
-326.143	-83.699	0.216	-0.070
-325.129	-102.774	-0.054	-0.013
-324.114	-200.000	0.061	0.292
-323.099	100.251	-0.102	-0.119
-322.085	-153.275	-0.305	0.021
-321.070	-197.869	-0.187	-0.001
-320.056	-68.432	0.177	-0.069
-319.041	-17.832	-0.120	-0.076
-318.026	-178.913	0.179	-0.004
-317.012	169.999	0.213	-0.307
-315.997	-83.327	-0.163	0.053
-314.983	19.253	-0.348	0.281
-313.968	65.701	0.150	-0.153
-312.953	159.348	-0.044	-0.061
-311.939	-34.204	0.106	-0.059
-310.924	-200.000	0.063	0.311
-309.910	-76.292	-0.157	-0.055
-308.895	-134.024	0.288	0.036
-307.880	800.000	-0.052	0.158
-306.866	-200.000	0.011	0.089
-305.851	-49.714	0.225	-0.108
-304.837	-74.848	0.134	-0.049
-303.822	-200.000	-0.012	-0.318
-302.807	-200.000	-0.022	0.249
-301.793	-51.338	-0.175	-0.082
-300.778	-104.083	-0.047	0.011
-299.764	19.183	0.229	-0.185
-298.749	237.471	0.093	-0.154
-297.735	19.135	0.161	0.130
-296.720	-31.365	-0.079	-0.045
-295.705	-159.965	-0.489	-0.027
-294.691	-84.554	0.116	0.037
-293.676	59.336	-0.127	0.126
-292.662	-64.990	-0.328	-0.133
-291.647	-107.776	-0.303	0.066
-290.632	-64.334	-0.355	-0.145
-289.618	290.180	-0.081	-0.148
-288.603	53.068	0.233	-0.224
-287.589	800.000	-0.040	-0.154
-286.574	26.793	0.331	-0.279
-285.559	-200.000	-0.031	-0.230
-284.545	-15.192	-0.191	-0.123
-283.530	66.325	0.209	-0.213
-282.516	173.204	-0.189	-0.274
-281.501	-200.000	-0.065	-0.305
-280.486	-1.244	0.335	0.238
-279.472	-0.025	-0.175	0.125
-278.457	23.892	0.297	0.246
-277.443	-119.648	0.224	0.039
-276.428	-46.415	-0.232	-0.114
-275.413	514.974	0.105	0.245
-274.399	0.203	-0.354	-0.253
-273.384	235.269	0.162	0.270
-272.370	-62.638	0.122	0.051
-271.355	224.896	-0.120	0.195
-270.340	-118.218	-0.128	0.023
-269.326	686.749	-0.103	0.270
-268.311	-156.825	0.284	0.018
-267.297	77.526	0.068	-0.073
-266.282	-126.432	0.214	0.032
-265.267	326.751	-0.269	-0.517
-264.253	207.455	-0.115	-0.181
-263.238	235.451	-0.173	-0.286
-262.224	643.356	0.114	-0.293
-261.209	-130.933	-0.168	-0.023
-260.195	-200.000	-0.018	0.136
-259.180	-99.783	-0.045	-0.011
-258.165	132.312	0.150	0.195
-257.151	-38.214	0.047	-0.025
-256.136	49.696	0.316	-0.299
-255.122	-74.024	0.257	-0.094
-254.107	321.993	0.076	-0.145
-253.092	543.997	-0.089	0.214
-252.078	-200.000	0.010	0.295
-251.063	222.216	-0.063	-0.102
-250.049	-94.783	-0.136	0.037
-249.034	-182.209	-0.248	0.005
-248.019	-200.000	0.044	0.230
-247.005	-102.679	0.141	-0.034
-245.990	107.200	0.142	0.169
-244.976	652.174	0.092	0.236
-243.961	-200.000	-0.057	0.376
-242.946	-55.911	0.182	0.081
-241.932	261.563	-0.073	-0.127
-240.917	-200.000	0.009	0.193
-239.903	-123.086	0.211	0.034
-238.888	-95.928	-0.168	-0.045
-237.873	-177.107	0.144	0.004
-236.859	206.500	0.064	-0.100
-235.844	-200.000	0.069	0.387
-234.830	7.740	-0.024	-0.018
-233.815	5.377	-0.136	0.101
-232.800	21.868	-0.219	-0.179
-231.786	-101.001	-0.309	0.076
-230.771	800.000	0.039	-0.116
-229.757	-200.000	-0.131	0.000
-228.742	-23.647	0.170	-0.102
-227.727	-164.034	-0.110	-0.005
-226.713	-137.232	0.237	0.027
-225.698	-170.834	0.102	-0.004
-224.684	225.125	-0.091	0.148
-223.669	316.769	-0.181	0.344
-222.655	-200.000	-0.018	0.213
-221.640	83.456	-0.182	0.199
-220.625	60.948	-0.115	-0.115
-219.611	37.559	0.300	-0.266
-218.596	-43.497	0.122	-0.062
-217.582	-164.053	-0.181	-0.008
-216.567	-82.121	0.192	0.063
-215.552	-200.000	0.041	0.188
-214.538	65.671	0.464	0.471
-213.523	31.471	0.148	0.127
-212.509	-174.896	0.381	0.011
-211.494	139.724	-0.169	-0.224
-210.479	-116.608	0.269	0.050
-209.465	9.530	0.157	0.119
-208.450	114.873	-0.208	-0.254
-207.436	2.753	-0.106	0.077
-206.421	-2.161	-0.079	0.056
-205.406	-200.000	-0.081	-0.378
-204.392	-32.352	0.247	-0.138
-203.377	-41.305	-0.033	0.017
-202.363	145.339	0.122	-0.164
-201.348	-169.519	-0.163	0.006
-200.333	800.000	0.061	-0.222
-199.319	800.000	-0.060	-0.228
-198.304	166.324	-0.224	-0.317
-197.290	741.674	-0.072	0.194
-196.275	56.794	-0.036	0.035
-195.260	-32.026	0.062	0.035
-194.246	705.574	-0.069	0.182
-193.231	643.314	0.033	0.083
-192.217	50.412	-0.374	0.355
-191.202	-81.267	-0.044	-0.015
-190.187	-62.136	0.196	0.082
-189.173	83.539	-0.173	-0.189
-188.158	-140.765	0.087	-0.009
-187.144	-200.000	0.063	0.510
-186.129	-107.625	0.342	0.075
-185.114	-22.855	0.114	-0.069
-184.100	124.146	-0.158	0.198
-183.085	-38.534	0.260	-0.138
-182.071	555.137	0.043	-0.103
-181.056	-9.059	-0.129	0.087
-180.042	-21.126	-0.071	0.044
-179.027	359.089	0.027	0.055
-178.012	-200.000	-0.040	-0.211
-176.998	-127.885	0.296	-0.043
-175.983	764.814	-0.014	0.038
-174.969	710.053	0.091	-0.241
-173.954	-112.330	0.261	-0.052
-172.939	-129.435	-0.326	-0.045
-171.925	59.789	0.125	0.124
-170.910	800.000	0.054	0.187
-169.896	36.500	-0.298	-0.263
-168.881	-13.865	-0.352	0.228
-167.866	800.000	0.055	0.161
-166.852	183.792	-0.165	-0.244
-165.837	194.624	0.129	0.196
-164.823	207.357	0.141	0.220
-163.808	800.000	0.065	0.196
-162.793	40.322	-0.228	0.205
-161.779	23.589	0.281	-0.232
-160.764	72.413	-0.129	-0.134
-159.750	-91.616	-0.158	-0.045
-158.735	800.000	0.123	-0.425
-157.720	800.000	0.100	-0.286
-156.706	-200.000	-0.005	0.418
-155.691	104.420	0.168	0.198
-154.677	-74.761	-0.161	-0.058
-153.662	73.890	-0.115	0.121
-152.647	34.400	0.234	-0.205
-151.633	-200.000	-0.010	-0.296
-150.618	10.270	0.116	-0.088
-149.604	-95.917	0.147	-0.039
-148.589	66.161	-0.048	0.049
-147.574	744.149	0.065	-0.174
-146.560	-108.386	0.057	0.012
-145.545	-106.734	-0.130	0.029
-144.531	-117.300	-0.159	0.029
-143.516	223.505	0.129	-0.209
-142.502	-98.772	-0.133	-0.034
-141.487	-93.617	-0.348	-0.096
-140.472	-200.000	0.068	-0.348
-139.458	85.851	0.120	0.132
-138.443	-67.323	-0.043	0.017
-137.429	-200.000	0.005	0.104
-136.414	97.578	-0.167	0.192
-135.399	-200.000	0.002	-0.400
-134.385	-108.040	0.142	-0.031
-133.370	-49.300	-0.164	0.078
-132.356	13.363	0.279	-0.216
-131.341	-55.142	0.117	0.053
-130.326	683.657	0.057	-0.149
-129.312	-116.328	0.225	0.042
-128.297	-48.612	-0.206	0.099
-127.283	800.000	-0.083	-0.297
-126.268	-42.232	-0.157	0.080
-125.253	27.828	0.147	0.124
-124.239	-111.066	-0.376	-0.077
-123.224	167.532	-0.203	-0.288
-122.210	-107.242	-0.099	0.022
-121.195	-200.000	-0.002	-0.086
