DTS Sentinel unit serial number:	SN413079Multiplexer serial number:	ORYXHardware model number:	OX4-SRSoftware version number:	ORYX F/W v4.00 Oryx Data Collector v3.7.2.0data status	okinstallation	princeton_trtdifferential loss correction	single-endedforward channel	channel 2reverse channel	N/Adate	2019/09/16time	06:31:35forward acquisition time	60.00reverse acquisition time	0.00gamma	496.2192k internal	0.2334k external	0.2334temperature offset calibration	0.9979default loss term (dB/km)	0.3790temperature slope calibration	1.0000multiplexer offset coefficient	1.0000multiplexer slope coefficient	1.0000fibre end	0.00T internal ref (°C)	27.37T ext. ref 1 (°C)	11.37T ext. ref 2 (°C)	21.81length (m)	temperature (°C)	Stokes	anti-Stokes-747.200	-60.578	0.111	0.047
-746.185	800.000	-0.098	0.310
-745.171	-200.000	0.003	0.070
-744.156	-16.927	0.089	0.056
-743.142	-115.057	0.241	-0.046
-742.127	-25.205	0.130	0.077
-741.112	388.343	0.165	0.343
-740.098	0.436	-0.347	0.249
-739.083	12.483	0.077	-0.059
-738.069	171.820	-0.108	0.155
-737.054	-183.579	0.152	0.003
-736.039	-30.765	-0.295	0.167
-735.025	707.088	0.181	0.480
-734.010	172.061	-0.134	0.194
-732.996	-10.743	0.200	-0.133
-731.981	327.276	-0.013	-0.024
-730.966	-200.000	-0.038	-0.307
-729.952	-138.149	-0.189	-0.021
-728.937	190.292	-0.200	-0.302
-727.923	202.355	0.067	-0.105
-726.908	-200.000	0.025	0.187
-725.894	-142.100	-0.097	-0.010
-724.879	400.822	-0.218	0.460
-723.864	-92.649	0.135	0.038
-722.850	800.000	-0.039	0.138
-721.835	800.000	0.064	-0.273
-720.821	-86.297	0.081	-0.025
-719.806	341.158	-0.063	-0.124
-718.791	-104.898	0.226	0.052
-717.777	-44.076	0.225	0.114
-716.762	-175.595	-0.263	-0.007
-715.748	439.522	0.123	-0.270
-714.733	800.000	-0.103	0.386
-713.718	-200.000	0.047	0.402
-712.704	-200.000	-0.008	-0.163
-711.689	24.182	-0.234	-0.194
-710.675	800.000	0.136	0.389
-709.660	-200.000	-0.011	-0.375
-708.645	384.905	0.208	0.430
-707.631	250.716	-0.175	-0.299
-706.616	29.035	-0.237	-0.202
-705.602	-168.485	0.132	-0.005
-704.587	800.000	0.025	-0.081
-703.572	64.554	0.206	-0.209
-702.558	-53.140	-0.247	-0.114
-701.543	-108.839	-0.096	-0.021
-700.529	-111.560	-0.243	0.050
-699.514	741.323	-0.038	0.102
-698.499	800.000	-0.268	-0.803
-697.485	-34.352	0.099	-0.055
-696.470	-96.268	0.120	-0.032
-695.456	25.575	0.162	-0.136
-694.441	-200.000	-0.048	0.244
-693.426	384.148	0.135	-0.280
-692.412	-200.000	-0.024	-0.109
-691.397	-37.854	-0.418	0.223
-690.383	6.653	-0.178	-0.133
-689.368	94.579	-0.230	-0.262
-688.354	189.371	-0.038	-0.057
-687.339	195.243	0.042	0.064
-686.324	-200.000	-0.014	0.149
-685.310	-96.066	-0.139	-0.037
-684.295	489.225	-0.113	-0.258
-683.281	-200.000	0.036	-0.240
-682.266	-116.405	-0.219	-0.041
-681.251	-112.645	0.029	-0.006
-680.237	800.000	0.085	0.265
-679.222	-200.000	0.004	-0.132
-678.208	-200.000	-0.037	0.246
-677.193	67.959	-0.168	-0.172
-676.178	111.991	0.186	0.225
-675.164	-200.000	0.021	0.104
-674.149	-1.091	0.229	0.162
-673.135	-39.038	-0.141	-0.074
-672.120	-200.000	-0.015	0.095
-671.105	768.963	0.095	0.260
-670.091	-54.685	-0.289	0.131
-669.076	418.653	-0.040	-0.086
-668.062	800.000	0.064	-0.273
-667.047	-200.000	0.043	-0.248
-666.032	43.612	0.019	0.017
-665.018	-26.053	-0.090	-0.053
-664.003	-180.660	-0.063	0.001
-662.989	-99.705	0.119	0.030
-661.974	117.292	-0.169	-0.209
-660.959	-200.000	-0.017	0.144
-659.945	141.213	0.171	0.227
-658.930	-78.313	0.439	-0.151
-657.916	-108.551	-0.051	0.011
-656.901	-200.000	-0.033	0.181
-655.886	228.363	-0.198	-0.323
-654.872	-169.671	0.143	-0.005
-653.857	-29.445	-0.220	0.126
-652.843	92.516	-0.110	-0.124
-651.828	10.106	-0.084	0.064
-650.814	-200.000	0.014	0.188
-649.799	17.603	-0.286	0.228
-648.784	-200.000	-0.033	-0.240
-647.770	207.187	0.050	0.078
-646.755	-15.410	0.146	-0.094
-645.741	279.064	-0.070	-0.125
-644.726	-118.699	0.187	-0.033
-643.711	-74.579	0.275	-0.099
-642.697	-66.938	-0.175	0.069
-641.682	800.000	-0.068	-0.275
-640.668	-51.040	0.188	-0.088
-639.653	43.950	-0.055	0.051
-638.638	38.542	0.221	0.197
-637.624	-92.955	-0.148	-0.041
-636.609	33.585	-0.243	-0.211
-635.595	-200.000	0.031	-0.250
-634.580	13.331	0.315	-0.245
-633.565	405.492	-0.086	0.182
-632.551	34.635	-0.302	-0.264
-631.536	800.000	-0.067	-0.218
-630.522	171.949	0.039	-0.056
-629.507	-53.468	0.279	-0.128
-628.492	-133.378	0.313	0.039
-627.478	15.636	-0.318	0.250
-626.463	-200.000	-0.028	0.356
-625.449	-106.939	-0.436	-0.097
-624.434	-127.065	-0.121	-0.018
-623.419	800.000	0.166	0.528
-622.405	-200.000	-0.006	0.126
-621.390	618.408	-0.057	0.144
-620.376	-200.000	0.030	-0.348
-619.361	-200.000	0.013	0.197
-618.346	-200.000	0.000	0.084
-617.332	-26.587	0.318	0.187
-616.317	-200.000	0.035	0.345
-615.303	557.049	0.116	-0.281
-614.288	32.516	-0.150	0.130
-613.273	-99.436	0.275	-0.069
-612.259	-173.236	0.433	-0.013
-611.244	-86.661	0.104	0.032
-610.230	73.932	-0.078	0.082
-609.215	105.820	-0.204	0.241
-608.201	-119.684	0.179	-0.031
-607.186	0.944	0.040	0.029
-606.171	-81.704	0.126	-0.041
-605.157	-106.071	0.335	0.075
-604.142	66.730	0.181	0.184
-603.128	481.747	-0.138	-0.314
-602.113	-140.342	0.195	-0.020
-601.098	175.669	0.152	-0.220
-600.084	19.969	-0.276	0.222
-599.069	800.000	0.091	-0.277
-598.055	-200.000	-0.015	-0.178
-597.040	402.154	-0.221	0.465
-596.025	-110.831	-0.176	-0.036
-595.011	-20.824	-0.310	-0.190
-593.996	800.000	0.015	0.065
-592.982	-200.000	0.040	-0.285
-591.967	301.736	-0.080	-0.147
-590.952	-40.662	-0.271	-0.140
-589.938	1.487	0.140	-0.101
-588.923	9.275	-0.145	0.110
-587.909	-30.723	-0.274	-0.155
-586.894	-97.013	0.349	-0.091
-585.879	800.000	0.071	-0.210
-584.865	448.981	0.064	0.141
-583.850	2.388	0.187	0.135
-582.836	-152.366	-0.242	-0.017
-581.821	2.482	-0.101	0.073
-580.806	19.458	0.238	-0.191
-579.792	-200.000	-0.267	-0.000
-578.777	-150.067	-0.179	0.014
-577.763	-135.901	-0.234	0.028
-576.748	-145.631	0.206	-0.018
-575.733	-50.849	0.147	-0.069
-574.719	-148.849	0.289	-0.023
-573.704	86.801	-0.232	0.255
-572.690	-78.968	0.056	-0.019
-571.675	-144.574	0.154	-0.014
-570.661	85.440	0.121	0.132
-569.646	55.179	-0.157	-0.152
-568.631	758.720	0.087	0.235
-567.617	-63.570	0.232	0.095
-566.602	96.429	-0.150	0.172
-565.588	-72.329	-0.288	-0.106
-564.573	-5.822	-0.139	0.095
-563.558	-88.973	-0.097	-0.029
-562.544	42.989	0.018	-0.017
-561.529	103.949	-0.126	0.148
-560.515	-11.023	0.236	0.155
-559.500	-49.080	-0.135	-0.065
-558.485	60.850	0.060	-0.059
-557.471	-107.559	-0.240	-0.053
-556.456	28.929	-0.066	-0.056
-555.442	800.000	-0.063	-0.223
-554.427	94.914	0.153	0.173
-553.412	-62.836	-0.135	-0.056
-552.398	-65.587	-0.074	0.029
-551.383	94.583	0.357	-0.405
-550.369	800.000	0.032	0.102
-549.354	800.000	0.042	-0.165
-548.339	-126.488	-0.517	0.077
-547.325	-200.000	-0.015	0.261
-546.310	-70.233	0.185	-0.070
-545.296	-30.225	0.111	-0.063
-544.281	73.632	0.261	-0.272
-543.266	-55.141	-0.087	0.039
-542.252	800.000	-0.055	-0.158
-541.237	89.305	0.177	0.197
-540.223	222.920	-0.074	-0.119
-539.208	-200.000	0.029	-0.165
-538.193	307.323	0.113	-0.209
-537.179	800.000	-0.079	0.338
-536.164	-159.799	-0.147	-0.008
-535.150	-200.000	-0.102	0.563
-534.135	-113.826	-0.145	-0.028
-533.121	13.783	-0.148	0.114
-532.106	-200.000	0.046	-0.203
-531.091	258.332	0.128	-0.219
-530.077	-146.573	-0.085	0.007
-529.062	-200.000	-0.017	0.300
-528.048	-133.159	-0.036	-0.004
-527.033	787.174	-0.135	-0.368
-526.018	-158.983	-0.084	-0.005
-525.004	-200.000	0.022	-0.098
-523.989	18.999	0.232	0.185
-522.975	9.860	-0.174	0.131
-521.960	-137.177	-0.137	-0.016
-520.945	-122.822	-0.161	0.026
-519.931	-37.057	0.033	-0.018
-518.916	-146.650	-0.185	0.016
-517.902	-200.000	0.010	0.269
-516.887	-66.124	-0.172	-0.068
-515.872	-200.000	-0.051	0.294
-514.858	-73.910	-0.025	0.009
-513.843	-200.000	0.001	0.192
-512.829	800.000	0.012	0.040
-511.814	-135.089	-0.034	0.004
-510.799	-10.263	-0.053	-0.035
-509.785	-46.198	-0.084	-0.041
-508.770	-179.185	-0.228	-0.005
-507.756	158.099	0.130	0.179
-506.741	800.000	0.077	0.272
-505.726	-75.032	0.151	0.054
-504.712	-45.962	-0.370	-0.182
-503.697	164.732	-0.052	0.074
-502.683	-200.000	-0.010	-0.390
-501.668	52.056	0.151	-0.143
-500.653	343.642	-0.083	-0.162
-499.639	-155.459	0.464	-0.030
-498.624	-153.036	0.180	0.013
-497.610	-15.236	-0.246	-0.156
-496.595	27.882	0.114	-0.096
-495.581	-67.294	-0.198	0.077
-494.566	506.745	0.082	-0.190
-493.551	-153.522	0.239	-0.016
-492.537	77.134	0.003	-0.003
-491.522	800.000	0.064	-0.268
-490.508	-154.526	-0.364	-0.024
-489.493	-79.066	0.172	0.058
-488.478	-51.245	0.207	0.097
-487.464	-30.580	-0.301	0.170
-486.449	233.810	-0.153	-0.251
-485.435	211.801	-0.045	-0.070
-484.420	-200.000	-0.004	-0.102
-483.405	800.000	-0.052	0.173
-482.391	67.306	-0.265	0.269
-481.376	-162.741	-0.189	-0.009
-480.362	26.121	0.167	-0.139
-479.347	800.000	0.037	-0.126
-478.332	-102.172	0.074	-0.018
-477.318	224.792	0.049	0.078
-476.303	9.144	0.228	0.171
-475.289	-9.551	0.258	-0.171
-474.274	-11.850	-0.054	0.035
-473.259	-62.048	-0.403	0.167
-472.245	-73.486	0.312	-0.113
-471.230	-48.029	-0.151	-0.073
-470.216	211.603	-0.199	0.312
-469.201	616.761	0.093	0.231
-468.186	800.000	-0.065	-0.256
-467.172	800.000	-0.087	0.362
-466.157	800.000	0.088	0.283
-465.143	125.563	0.209	0.262
-464.128	-200.000	0.063	0.353
-463.113	-96.201	-0.157	-0.041
-462.099	-3.988	0.117	-0.081
-461.084	110.416	-0.119	-0.142
-460.070	-200.000	-0.014	-0.061
-459.055	-142.129	0.299	0.029
-458.040	-200.000	-0.021	0.204
-457.026	682.243	0.052	-0.134
-456.011	800.000	-0.198	0.545
-454.997	-190.184	-0.186	0.002
-453.982	637.141	0.024	-0.061
-452.968	-125.861	-0.159	0.024
-451.953	133.925	-0.229	-0.295
-450.938	-49.474	-0.433	0.205
-449.924	-166.898	0.077	-0.003
-448.909	-32.379	0.126	-0.070
-447.895	-73.481	0.060	0.022
-446.880	447.909	0.113	-0.246
-445.865	-82.405	0.130	-0.042
-444.851	5.575	-0.179	-0.131
-443.836	-100.534	0.166	-0.041
-442.822	-200.000	0.001	0.178
-441.807	491.976	-0.050	-0.115
-440.792	-109.564	0.185	-0.039
-439.778	698.431	-0.057	0.149
-438.763	113.138	-0.206	0.248
-437.749	800.000	0.063	0.241
-436.734	-149.779	-0.069	-0.005
-435.719	51.148	0.184	0.174
-434.705	125.352	0.110	-0.137
-433.690	6.406	0.236	-0.174
-432.676	51.803	0.189	-0.179
-431.661	167.291	0.046	0.065
-430.646	-34.398	0.177	0.096
-429.632	800.000	0.106	0.320
-428.617	800.000	0.044	0.134
-427.603	-30.332	-0.114	-0.064
-426.588	433.923	0.184	0.397
-425.573	-200.000	0.007	-0.150
-424.559	74.143	-0.146	-0.153
-423.544	800.000	0.015	-0.063
-422.530	299.304	0.218	0.399
-421.515	-92.472	-0.110	-0.031
-420.500	245.921	-0.025	-0.042
-419.486	3.239	0.264	-0.191
-418.471	-200.000	-0.041	-0.399
-417.457	-200.000	0.030	-0.263
-416.442	-94.297	-0.112	0.031
-415.428	-112.732	-0.398	0.078
-414.413	708.568	0.050	0.132
-413.398	800.000	0.038	-0.131
-412.384	-9.571	-0.127	0.084
-411.369	-62.560	0.368	-0.152
-410.355	16.832	0.276	0.217
-409.340	333.920	0.132	0.254
-408.325	800.000	-0.022	0.088
-407.311	-101.327	-0.256	-0.062
-406.296	800.000	0.128	0.397
-405.282	-80.600	-0.325	-0.107
-404.267	-87.377	-0.396	-0.119
-403.252	72.550	0.237	0.245
-402.238	212.439	0.061	0.095
-401.223	800.000	-0.053	0.164
-400.209	800.000	-0.072	0.289
-399.194	48.017	-0.100	-0.092
-398.179	-12.207	0.226	0.146
-397.165	-6.153	0.185	0.125
-396.150	-39.872	-0.262	-0.136
-395.136	107.872	-0.161	-0.190
-394.121	-73.995	0.355	0.128
-393.106	-65.282	0.149	0.059
-392.092	-200.000	-0.014	-0.321
-391.077	-86.250	-0.344	0.105
-390.063	81.356	0.049	0.052
-389.048	800.000	-0.014	-0.056
-388.033	-76.419	0.200	0.070
-387.019	248.530	-0.120	0.202
-386.004	800.000	-0.032	0.106
-384.990	800.000	0.060	0.166
-383.975	-93.926	-0.547	0.149
-382.960	-29.529	0.054	-0.031
-381.946	353.694	0.071	-0.140
-380.931	-98.245	-0.394	-0.100
-379.917	-15.282	-0.206	0.131
-378.902	38.970	-0.157	-0.139
-377.888	-200.000	-0.058	-0.261
-376.873	-83.008	-0.273	0.087
-375.858	-200.000	-0.029	-0.319
-374.844	-32.517	0.239	0.132
-373.829	65.817	0.170	-0.171
-372.815	-113.709	-0.286	-0.055
-371.800	-111.865	-0.055	0.011
-370.785	-81.451	0.318	-0.104
-369.771	50.449	-0.152	0.142
-368.756	800.000	0.058	-0.165
-367.742	-121.141	-0.091	0.015
-366.727	-97.722	-0.374	-0.096
-365.712	-22.965	0.094	-0.056
-364.698	186.287	-0.109	0.160
-363.683	606.528	-0.018	0.043
-362.669	689.294	-0.063	-0.163
-361.654	138.278	-0.079	-0.102
-360.639	22.612	0.109	0.088
-359.625	15.548	0.121	0.094
-358.610	800.000	0.033	0.097
-357.596	352.743	0.101	0.199
-356.581	-45.960	0.399	-0.195
-355.566	-146.280	0.234	-0.020
-354.552	43.977	-0.184	0.167
-353.537	-43.870	0.155	-0.077
-352.523	-23.306	0.229	-0.136
-351.508	800.000	-0.012	0.049
-350.493	2.156	0.371	-0.265
-349.479	-200.000	0.011	-0.468
-348.464	327.997	-0.260	-0.495
-347.450	60.146	0.091	-0.089
-346.435	-200.000	0.004	-0.317
-345.420	152.034	0.223	-0.301
-344.406	-79.387	0.303	-0.101
-343.391	471.380	-0.030	0.068
-342.377	-61.311	-0.289	0.121
-341.362	-200.000	-0.007	-0.074
-340.348	-132.500	-0.510	0.065
-339.333	-103.318	-0.218	-0.051
-338.318	-29.587	0.287	-0.162
-337.304	113.047	-0.025	-0.030
-336.289	-16.605	-0.059	-0.037
-335.275	91.975	0.209	0.233
-334.260	-20.349	-0.156	0.095
-333.245	-200.000	-0.062	-0.476
-332.231	3.837	-0.061	0.044
-331.216	-39.127	-0.226	0.118
-330.202	-43.629	-0.245	-0.122
-329.187	235.673	-0.089	-0.145
-328.172	638.670	-0.022	-0.055
-327.158	721.545	-0.055	-0.143
-326.143	-200.000	-0.093	0.630
-325.129	89.605	0.153	-0.169
-324.114	515.378	-0.134	0.309
-323.099	357.566	-0.070	-0.139
-322.085	800.000	-0.035	0.135
-321.070	24.841	-0.320	0.262
-320.056	-33.331	0.156	-0.086
-319.041	-70.142	-0.139	-0.052
-318.026	-200.000	0.003	0.226
-317.012	-200.000	-0.000	0.015
-315.997	-83.738	-0.268	0.085
-314.983	-18.456	-0.166	-0.102
-313.968	142.881	-0.141	-0.186
-312.953	76.259	-0.147	0.154
-311.939	800.000	0.043	-0.139
-310.924	8.343	0.074	0.055
-309.910	-186.419	0.344	0.005
-308.895	106.919	-0.062	-0.073
-307.880	-150.519	-0.178	-0.014
-306.866	-200.000	0.035	-0.194
-305.851	247.515	0.078	-0.130
-304.837	-200.000	-0.004	-0.200
-303.822	320.937	0.178	0.334
-302.807	152.997	0.139	0.187
-301.793	-200.000	-0.026	0.150
-300.778	-200.000	-0.024	-0.155
-299.764	-170.207	-0.064	-0.002
-298.749	22.014	-0.210	-0.169
-297.735	42.568	0.129	-0.116
-296.720	-34.454	0.191	0.103
-295.705	-8.520	0.320	0.212
-294.691	-144.785	0.424	-0.038
-293.676	-64.608	-0.086	-0.034
-292.662	130.718	-0.076	-0.096
-291.647	-74.682	0.406	0.144
-290.632	-200.000	-0.055	-0.337
-289.618	40.075	0.180	-0.160
-288.603	-200.000	0.010	0.200
-287.589	-170.378	-0.295	0.010
-286.574	-200.000	-0.014	0.452
-285.559	136.959	0.059	-0.077
-284.545	39.501	-0.141	-0.124
-283.530	171.253	-0.105	0.149
-282.516	-125.465	-0.401	-0.060
-281.501	62.261	-0.163	0.160
-280.486	-200.000	-0.028	-0.143
-279.472	171.407	-0.166	-0.234
-278.457	-192.247	-0.035	-0.000
-277.443	93.842	0.086	0.097
-276.428	-110.407	-0.223	-0.046
-275.413	-94.784	0.384	0.103
-274.399	-200.000	-0.004	0.024
-273.384	121.773	-0.022	0.027
-272.370	111.975	0.187	-0.223
-271.355	80.071	0.214	-0.227
-270.340	-200.000	-0.056	0.347
-269.326	-59.583	-0.151	-0.064
-268.311	800.000	0.088	-0.322
-267.297	666.869	0.060	0.154
-266.282	147.802	0.175	0.233
-265.267	-46.054	-0.066	0.032
-264.253	332.403	-0.107	-0.205
-263.238	8.713	0.209	-0.156
-262.224	392.391	-0.088	-0.180
-261.209	-6.398	-0.400	0.269
-260.195	4.912	0.216	0.157
-259.180	83.394	-0.354	0.380
-258.165	-14.388	-0.279	0.177
-257.151	30.588	0.326	0.275
-256.136	-53.837	-0.214	0.096
-255.122	-151.100	0.112	-0.008
-254.107	64.907	-0.195	0.194
-253.092	92.647	-0.221	-0.246
-252.078	-187.410	-0.226	-0.003
-251.063	-200.000	-0.010	0.075
-250.049	42.967	0.094	-0.085
-249.034	-200.000	0.001	-0.089
-248.019	-95.591	0.162	-0.043
-247.005	-59.150	0.209	0.089
-245.990	16.059	-0.082	-0.064
-244.976	-197.721	-0.126	-0.001
-243.961	-152.935	0.336	0.023
-242.946	-76.383	-0.258	0.090
-241.932	-69.967	-0.350	-0.131
-240.917	-200.000	0.019	-0.126
-239.903	-23.381	-0.256	0.151
-238.888	-79.751	0.294	-0.097
-237.873	248.455	0.065	0.108
-236.859	210.968	-0.111	-0.172
-235.844	800.000	-0.052	0.178
-234.830	-64.414	0.121	-0.049
-233.815	-106.208	-0.134	-0.030
-232.800	64.430	0.035	-0.035
-231.786	-128.496	-0.199	-0.028
-230.771	26.936	-0.100	-0.082
-229.757	800.000	0.053	0.212
-228.742	-6.030	0.340	0.229
-227.727	-57.884	-0.529	-0.228
-226.713	-200.000	-0.022	-0.217
-225.698	-200.000	0.011	-0.058
-224.684	-200.000	-0.002	-0.181
-223.669	-75.966	-0.255	-0.089
-222.655	-39.400	-0.160	0.083
-221.640	33.397	-0.113	0.097
-220.625	800.000	0.096	0.273
-219.611	-46.732	0.294	-0.142
-218.596	-200.000	0.051	0.398
-217.582	-135.730	0.155	0.018
-216.567	800.000	0.030	-0.101
-215.552	475.054	0.083	0.185
-214.538	-105.801	0.011	-0.003
-213.523	-144.246	-0.014	0.001
-212.509	-200.000	-0.079	-0.367
-211.494	800.000	0.057	-0.238
-210.479	-200.000	0.007	0.046
-209.465	302.460	0.032	0.059
-208.450	-200.000	-0.005	-0.348
-207.436	-138.547	0.561	0.061
-206.421	800.000	0.048	-0.139
-205.406	-53.766	-0.096	0.043
-204.392	-200.000	-0.013	0.213
-203.377	-34.263	-0.199	-0.107
-202.363	310.326	0.096	-0.178
-201.348	252.329	0.135	0.226
-200.333	800.000	0.055	0.163
-199.319	763.304	-0.053	-0.142
-198.304	-200.000	-0.014	-0.285
-197.290	-126.521	0.301	0.044
-196.275	-164.288	0.190	0.009
-195.260	74.597	0.053	0.055
-194.246	74.728	-0.151	-0.156
-193.231	109.200	-0.096	0.113
-192.217	800.000	-0.032	-0.086
-191.202	800.000	-0.005	0.017
-190.187	800.000	0.063	-0.209
-189.173	28.535	-0.134	0.111
-188.158	-200.000	-0.074	0.380
-187.144	800.000	0.073	0.244
-186.129	154.231	0.146	0.196
-185.114	-59.623	0.134	-0.056
-184.100	-10.711	0.268	0.174
-183.085	-200.000	-0.045	-0.437
-182.071	-99.686	-0.125	0.031
-181.056	82.568	0.151	-0.161
-180.042	276.727	-0.120	0.210
-179.027	235.787	-0.036	-0.058
-178.012	108.603	-0.070	-0.082
-176.998	-200.000	0.041	0.180
-175.983	-200.000	0.033	-0.149
-174.969	45.647	0.304	-0.276
-173.954	-82.498	0.408	0.130
-172.939	-129.496	0.281	0.038
-171.925	419.988	-0.063	-0.133
-170.910	415.107	0.152	-0.318
-169.896	-45.866	0.114	-0.055
-168.881	800.000	0.040	0.110
-167.866	0.659	-0.074	-0.052
-166.852	148.956	0.147	-0.196
-165.837	9.912	0.256	0.191
-164.823	-143.602	0.092	0.009
-163.808	43.449	0.144	0.129
-162.793	30.470	0.139	0.116
-161.779	5.933	-0.207	-0.151
-160.764	641.743	0.040	-0.099
-159.750	-108.227	0.130	0.028
-158.735	89.131	0.198	-0.217
-157.720	148.537	0.140	-0.186
-156.706	-200.000	-0.032	-0.171
-155.691	-116.270	0.250	-0.046
-154.677	800.000	0.144	0.519
-153.662	-3.340	0.144	-0.098
-152.647	-143.430	-0.045	0.004
-151.633	-54.119	-0.127	0.057
-150.618	131.076	0.222	-0.279
-149.604	42.909	0.314	0.281
-148.589	-143.223	-0.295	0.028
-147.574	-151.294	0.484	-0.035
-146.560	-50.458	0.164	-0.076
-145.545	191.131	0.045	0.067
-144.531	-200.000	0.030	0.322
-143.516	-123.060	-0.118	-0.019
-142.502	-71.959	-0.097	0.036
-141.487	-59.245	0.303	0.128
-140.472	-200.000	0.020	-0.335
-139.458	549.620	0.080	-0.189
-138.443	-200.000	-0.039	-0.252
-137.429	258.072	-0.150	0.253
-136.414	194.501	0.074	0.111
-135.399	-138.950	-0.303	-0.032
-134.385	-132.911	0.105	0.013
-133.370	402.539	0.071	-0.147
-132.356	642.896	0.065	-0.163
-131.341	-24.757	-0.247	-0.144
-130.326	-200.000	0.073	0.405
-129.312	-200.000	0.008	0.105
-128.297	54.216	0.299	-0.282
-127.283	120.614	-0.082	0.100
-126.268	800.000	-0.067	0.248
-125.253	-200.000	0.004	-0.190
-124.239	-200.000	-0.005	0.042
-123.224	24.490	0.215	-0.174
-122.210	100.063	0.236	0.268
-121.195	20.417	-0.168	-0.133
