DTS Sentinel unit serial number:	SN413079Multiplexer serial number:	ORYXHardware model number:	OX4-SRSoftware version number:	ORYX F/W v4.00 Oryx Data Collector v3.7.2.0data status	okinstallation	princeton_trtdifferential loss correction	single-endedforward channel	channel 2reverse channel	N/Adate	2019/09/10time	18:17:11forward acquisition time	60.00reverse acquisition time	0.00gamma	496.2192k internal	0.2317k external	0.2317temperature offset calibration	0.9944default loss term (dB/km)	0.3790temperature slope calibration	1.0000multiplexer offset coefficient	1.0000multiplexer slope coefficient	1.0000fibre end	0.00T internal ref (°C)	36.45T ext. ref 1 (°C)	-0.30T ext. ref 2 (°C)	28.36length (m)	temperature (°C)	Stokes	anti-Stokes-747.200	-79.754	0.306	-0.104
-746.185	443.843	0.048	0.105
-745.171	42.691	0.250	-0.231
-744.156	-200.000	-0.017	0.226
-743.142	800.000	-0.063	-0.221
-742.127	-176.032	-0.301	0.008
-741.112	-115.807	0.286	-0.054
-740.098	4.884	-0.285	0.212
-739.083	43.066	0.207	-0.191
-738.069	135.944	-0.107	0.142
-737.054	-200.000	0.038	-0.174
-736.039	-200.000	0.009	-0.365
-735.025	-200.000	-0.040	-0.238
-734.010	712.975	-0.107	0.286
-732.996	-70.687	0.046	-0.017
-731.981	-200.000	-0.009	-0.124
-730.966	800.000	-0.032	-0.092
-729.952	800.000	-0.018	-0.061
-728.937	184.516	-0.290	0.435
-727.923	40.190	-0.210	-0.191
-726.908	325.518	-0.184	-0.356
-725.894	-200.000	0.045	-0.326
-724.879	-172.855	-0.125	-0.004
-723.864	-34.074	-0.262	-0.146
-722.850	105.485	-0.098	0.117
-721.835	-139.412	0.158	-0.017
-720.821	-200.000	-0.036	0.163
-719.806	-192.088	-0.234	0.002
-718.791	199.564	0.036	0.056
-717.777	-110.138	0.047	0.010
-716.762	-74.932	0.163	-0.059
-715.748	-77.113	0.386	-0.136
-714.733	-151.459	0.333	-0.025
-713.718	70.225	-0.170	0.177
-712.704	-127.326	0.219	-0.032
-711.689	281.587	0.138	0.251
-710.675	800.000	-0.107	-0.337
-709.660	264.316	0.077	0.135
-708.645	800.000	0.011	-0.042
-707.631	-200.000	-0.001	-0.142
-706.616	-119.929	0.336	-0.058
-705.602	-30.579	0.334	0.191
-704.587	-32.531	-0.090	0.050
-703.572	-94.603	0.083	-0.023
-702.558	99.055	-0.089	0.104
-701.543	309.667	0.076	-0.143
-700.529	80.385	-0.072	0.079
-699.514	-9.721	-0.157	-0.106
-698.499	-121.039	0.200	-0.034
-697.485	800.000	-0.109	-0.344
-696.470	20.093	-0.122	-0.099
-695.456	220.141	-0.155	-0.251
-694.441	800.000	-0.094	0.290
-693.426	800.000	-0.070	0.203
-692.412	52.851	0.205	0.198
-691.397	-23.521	0.193	0.117
-690.383	53.645	-0.210	-0.204
-689.368	-78.825	-0.368	-0.127
-688.354	-42.353	-0.145	-0.075
-687.339	1.158	0.060	0.044
-686.324	177.448	-0.260	-0.383
-685.310	-200.000	-0.086	-0.417
-684.295	44.447	-0.117	-0.108
-683.281	-154.805	-0.181	0.012
-682.266	34.965	-0.380	-0.336
-681.251	-111.643	-0.318	-0.065
-680.237	125.345	-0.116	0.148
-679.222	800.000	-0.127	-0.376
-678.208	13.227	0.117	0.092
-677.193	-67.626	0.166	-0.065
-676.178	294.516	-0.048	-0.088
-675.164	800.000	0.095	-0.393
-674.149	628.836	0.110	-0.281
-673.135	-200.000	0.052	0.253
-672.120	105.478	-0.151	0.181
-671.105	119.947	-0.187	0.234
-670.091	125.699	-0.118	0.150
-669.076	150.219	0.086	-0.118
-668.062	-68.205	0.182	0.072
-667.047	36.038	0.146	0.130
-666.032	32.474	-0.169	-0.147
-665.018	-63.771	-0.246	-0.102
-664.003	148.163	0.169	0.229
-662.989	5.264	-0.143	0.106
-661.974	800.000	0.074	-0.209
-660.959	-101.380	-0.389	-0.096
-659.945	-165.668	-0.154	-0.007
-658.930	-165.040	0.087	0.004
-657.916	-117.068	-0.241	-0.044
-656.901	422.057	0.109	0.236
-655.886	46.082	0.164	0.153
-654.872	-46.956	0.069	0.034
-653.857	800.000	0.103	-0.317
-652.843	44.718	-0.101	0.094
-651.828	-12.204	-0.322	0.213
-650.814	797.433	0.077	-0.213
-649.799	-89.968	0.056	-0.016
-648.784	800.000	-0.021	-0.077
-647.770	-200.000	-0.286	-0.001
-646.755	155.427	-0.061	-0.084
-645.741	103.921	0.197	-0.234
-644.726	48.402	-0.126	0.119
-643.711	425.339	-0.110	0.239
-642.697	774.223	0.097	-0.268
-641.682	-63.809	-0.237	-0.098
-640.668	-68.415	0.201	-0.079
-639.653	721.030	0.073	-0.195
-638.638	64.683	-0.106	-0.108
-637.624	-5.726	-0.176	0.121
-636.609	155.017	-0.164	0.227
-635.595	-13.761	0.096	-0.063
-634.580	27.747	-0.280	-0.238
-633.565	81.429	0.071	-0.078
-632.551	463.171	0.110	0.247
-631.536	232.586	0.131	-0.216
-630.522	-16.979	-0.113	0.072
-629.507	-200.000	0.013	-0.263
-628.492	-28.850	0.185	0.107
-627.478	-200.000	0.028	-0.137
-626.463	394.837	-0.039	-0.082
-625.449	-160.816	-0.246	-0.013
-624.434	-132.708	0.138	0.018
-623.419	196.382	-0.115	-0.177
-622.405	241.156	0.035	-0.059
-621.390	425.797	-0.065	-0.141
-620.376	58.400	0.072	-0.072
-619.361	-26.020	0.088	-0.052
-618.346	-200.000	0.018	-0.321
-617.332	483.688	-0.139	-0.318
-616.317	-22.676	-0.079	0.048
-615.303	90.967	-0.298	-0.336
-614.288	-7.534	-0.053	-0.036
-613.273	-42.761	0.157	0.080
-612.259	-47.521	0.372	0.182
-611.244	-155.456	0.236	0.015
-610.230	741.953	0.082	-0.222
-609.215	38.688	-0.075	-0.067
-608.201	-200.000	-0.004	-0.111
-607.186	800.000	-0.074	0.321
-606.171	-54.587	0.089	-0.040
-605.157	-200.000	-0.039	-0.208
-604.142	-76.216	-0.046	-0.016
-603.128	158.002	-0.056	0.078
-602.113	800.000	-0.129	-0.491
-601.098	3.556	0.318	0.234
-600.084	-200.000	0.022	0.227
-599.069	29.614	-0.203	-0.173
-598.055	-37.153	0.066	0.035
-597.040	800.000	0.041	0.155
-596.025	-200.000	0.067	-0.353
-595.011	-11.962	-0.153	0.101
-593.996	-86.649	-0.300	0.093
-592.982	800.000	-0.130	0.441
-591.967	-200.000	-0.018	0.289
-590.952	-200.000	-0.085	0.454
-589.938	383.679	-0.040	0.083
-588.923	-200.000	0.011	0.099
-587.909	249.071	-0.100	0.171
-586.894	800.000	0.035	0.143
-585.879	-200.000	-0.072	-0.334
-584.865	134.497	-0.101	0.131
-583.850	-73.581	-0.240	0.088
-582.836	-75.252	-0.190	-0.068
-581.821	-50.538	-0.118	0.056
-580.806	-76.199	-0.117	0.042
-579.792	347.870	0.062	0.122
-578.777	686.949	-0.089	0.234
-577.763	-78.750	-0.262	-0.090
-576.748	-10.761	0.038	-0.025
-575.733	-90.280	-0.192	0.056
-574.719	42.715	0.238	-0.218
-573.704	13.904	0.234	0.183
-572.690	84.992	0.239	-0.264
-571.675	-149.299	0.362	-0.029
-570.661	-124.211	-0.339	0.053
-569.646	-78.349	-0.407	-0.140
-568.631	-200.000	0.019	-0.265
-567.617	800.000	-0.085	0.300
-566.602	-36.644	-0.147	0.080
-565.588	-148.353	0.186	-0.015
-564.573	336.548	-0.116	-0.226
-563.558	-200.000	-0.022	0.166
-562.544	387.690	-0.021	0.045
-561.529	-116.498	0.098	-0.018
-560.515	-49.861	-0.086	-0.041
-559.500	-200.000	0.030	0.170
-558.485	800.000	-0.037	0.133
-557.471	-88.762	0.275	-0.082
-556.456	19.905	0.202	-0.163
-555.442	85.623	0.134	0.148
-554.427	16.473	0.236	0.187
-553.412	-52.227	0.228	-0.106
-552.398	-121.609	0.349	-0.058
-551.383	-80.833	0.147	-0.049
-550.369	298.198	-0.081	-0.150
-549.354	-104.498	-0.165	-0.038
-548.339	8.138	0.085	0.064
-547.325	-10.920	-0.337	0.224
-546.310	-29.819	-0.301	-0.173
-545.296	358.453	0.093	-0.186
-544.281	97.820	-0.184	0.213
-543.266	-80.041	0.188	0.063
-542.252	115.907	-0.094	-0.115
-541.237	-200.000	0.008	-0.091
-540.223	535.392	0.054	0.129
-539.208	189.554	0.120	-0.181
-538.193	524.488	-0.080	-0.190
-537.179	-200.000	0.022	-0.194
-536.164	800.000	-0.061	-0.214
-535.150	-39.107	0.303	0.160
-534.135	0.553	0.097	0.070
-533.121	-101.334	0.337	-0.083
-532.106	-200.000	-0.091	-0.405
-531.091	800.000	-0.053	-0.165
-530.077	-200.000	-0.070	-0.311
-529.062	-140.670	-0.121	-0.013
-528.048	-115.789	0.424	0.080
-527.033	36.260	-0.321	-0.284
-526.018	496.729	0.033	0.076
-525.004	-200.000	-0.004	-0.116
-523.989	-200.000	0.035	0.155
-522.975	-200.000	0.021	0.479
-521.960	-67.862	0.080	-0.031
-520.945	-200.000	-0.014	-0.239
-519.931	-200.000	-0.006	0.051
-518.916	154.503	0.083	0.114
-517.902	311.608	-0.028	0.053
-516.887	-200.000	-0.054	-0.356
-515.872	275.568	0.084	0.149
-514.858	800.000	0.032	0.110
-513.843	-97.211	-0.104	0.027
-512.829	63.470	-0.228	-0.230
-511.814	800.000	-0.082	0.289
-510.799	-85.549	-0.083	-0.026
-509.785	-200.000	0.019	-0.087
-508.770	-127.520	-0.317	0.046
-507.756	64.992	0.081	-0.082
-506.741	-115.153	0.075	-0.014
-505.726	85.156	0.006	0.007
-504.712	-91.874	-0.358	-0.102
-503.697	55.281	-0.310	0.301
-502.683	-200.000	0.048	-0.445
-501.668	800.000	-0.052	-0.153
-500.653	7.288	0.231	-0.173
-499.639	-116.513	-0.036	0.007
-498.624	-100.608	0.263	0.065
-497.610	-54.134	0.150	0.068
-496.595	-186.447	-0.161	-0.002
-495.581	499.149	0.128	0.297
-494.566	152.138	-0.093	-0.127
-493.551	139.300	-0.074	0.098
-492.537	800.000	0.101	0.387
-491.522	255.470	0.150	0.258
-490.508	-200.000	-0.010	-0.170
-489.493	-106.238	-0.369	0.083
-488.478	-200.000	0.098	0.439
-487.464	244.178	0.297	-0.499
-486.449	73.409	-0.157	0.165
-485.435	-34.608	-0.226	0.124
-484.420	-49.575	-0.273	-0.130
-483.405	-132.086	0.336	0.044
-482.391	-54.666	0.161	0.073
-481.376	156.350	-0.303	0.418
-480.362	61.177	-0.030	-0.030
-479.347	800.000	0.074	-0.256
-478.332	-127.195	-0.520	0.076
-477.318	125.176	-0.252	0.318
-476.303	75.425	-0.095	0.101
-475.289	-200.000	0.041	-0.291
-474.274	77.466	0.164	0.175
-473.259	-154.752	-0.086	0.006
-472.245	77.942	0.118	0.126
-471.230	-200.000	-0.054	-0.239
-470.216	-3.623	-0.261	-0.181
-469.201	800.000	0.059	-0.177
-468.186	-200.000	-0.006	0.101
-467.172	-200.000	0.016	0.180
-466.157	-69.249	0.327	-0.126
-465.143	90.944	0.163	0.183
-464.128	727.505	0.017	-0.045
-463.113	-164.602	0.178	-0.008
-462.099	-93.018	0.046	-0.013
-461.084	-71.710	0.269	0.101
-460.070	-47.205	-0.299	0.146
-459.055	-30.493	0.175	-0.099
-458.040	-42.833	-0.083	-0.042
-457.026	800.000	0.057	0.211
-456.011	-135.415	0.110	0.013
-454.997	33.943	-0.102	0.089
-453.982	220.674	-0.021	0.034
-452.968	-200.000	0.009	-0.058
-451.953	-83.262	0.254	0.082
-450.938	-119.844	0.244	0.042
-449.924	-87.541	0.083	0.025
-448.909	142.029	0.174	0.231
-447.895	800.000	-0.014	-0.046
-446.880	14.797	0.092	0.072
-445.865	-200.000	0.038	-0.241
-444.851	-81.769	0.257	0.084
-443.836	-84.244	0.167	0.053
-442.822	-137.753	-0.157	0.018
-441.807	-58.576	0.212	-0.092
-440.792	-200.000	0.006	-0.082
-439.778	21.652	-0.122	-0.099
-438.763	-200.000	0.007	0.118
-437.749	-68.408	-0.140	-0.054
-436.734	331.810	-0.100	-0.194
-435.719	-66.674	0.206	0.081
-434.705	71.892	0.048	-0.050
-433.690	-200.000	0.035	0.233
-432.676	-192.992	0.074	0.001
-431.661	-184.461	-0.352	-0.006
-430.646	-15.682	0.258	0.165
-429.632	268.019	-0.166	-0.290
-428.617	-56.745	-0.249	0.110
-427.603	79.967	0.171	0.183
-426.588	74.143	-0.104	-0.110
-425.573	-54.884	-0.309	-0.139
-424.559	116.501	-0.236	-0.290
-423.544	-200.000	0.003	-0.330
-422.530	-58.171	0.080	-0.035
-421.515	24.548	0.082	0.068
-420.500	-125.559	0.166	0.025
-419.486	800.000	-0.185	-0.534
-418.471	-118.827	0.246	-0.043
-417.457	21.379	-0.255	0.207
-416.442	135.935	-0.236	0.307
-415.428	-82.448	-0.337	-0.109
-414.413	-114.989	0.181	-0.034
-413.398	293.397	-0.107	-0.196
-412.384	-200.000	0.001	0.200
-411.369	-23.217	0.088	0.053
-410.355	800.000	0.028	0.088
-409.340	1.240	-0.281	0.201
-408.325	-107.135	-0.217	-0.048
-407.311	40.194	-0.251	-0.226
-406.296	-200.000	0.006	0.060
-405.282	330.525	0.020	-0.038
-404.267	-200.000	-0.010	0.047
-403.252	-90.653	0.307	-0.088
-402.238	181.681	0.214	0.314
-401.223	800.000	0.049	-0.164
-400.209	-26.799	0.281	-0.164
-399.194	24.765	0.253	0.209
-398.179	193.922	-0.080	-0.120
-397.165	-14.425	-0.239	0.154
-396.150	800.000	-0.041	-0.178
-395.136	-13.159	0.218	0.141
-394.121	800.000	0.063	-0.253
-393.106	82.008	-0.128	0.139
-392.092	-200.000	-0.021	-0.302
-391.077	-56.161	-0.093	0.041
-390.063	-200.000	0.007	-0.179
-389.048	46.238	-0.054	0.050
-388.033	-149.338	0.081	-0.006
-387.019	92.694	-0.188	-0.212
-386.004	-200.000	0.014	-0.115
-384.990	419.992	0.282	-0.603
-383.975	-13.780	-0.156	-0.101
-382.960	-113.578	0.058	0.011
-381.946	-72.510	0.122	-0.045
-380.931	452.669	0.083	0.184
-379.917	445.888	0.044	-0.095
-378.902	81.897	-0.018	0.019
-377.888	1.652	-0.291	-0.209
-376.873	-154.384	0.174	-0.012
-375.858	126.108	-0.125	-0.158
-374.844	31.956	0.209	0.180
-373.829	-45.794	-0.153	0.075
-372.815	-126.688	0.137	-0.020
-371.800	236.629	0.084	-0.138
-370.785	-200.000	-0.029	-0.288
-369.771	-25.575	-0.181	-0.107
-368.756	-84.954	0.151	-0.047
-367.742	800.000	-0.044	0.121
-366.727	210.579	0.022	0.034
-365.712	-200.000	-0.024	-0.118
-364.698	-104.075	-0.129	-0.030
-363.683	-156.642	0.085	0.005
-362.669	372.221	-0.094	0.190
-361.654	-187.698	-0.220	-0.003
-360.639	74.553	0.177	0.185
-359.625	-79.328	0.103	-0.035
-358.610	-69.621	-0.193	-0.074
-357.596	103.272	0.229	-0.268
-356.581	-95.324	0.141	0.038
-355.566	-46.407	0.182	-0.089
-354.552	51.009	0.210	-0.199
-353.537	275.668	-0.201	-0.356
-352.523	-86.634	-0.123	0.038
-351.508	328.865	-0.049	0.093
-350.493	717.149	-0.041	0.108
-349.479	800.000	-0.026	0.077
-348.464	-114.734	-0.270	0.052
-347.450	-75.284	0.239	-0.085
-346.435	13.070	0.136	-0.105
-345.420	-191.855	-0.251	0.002
-344.406	-200.000	-0.002	0.079
-343.391	651.756	0.100	-0.254
-342.377	-42.285	0.028	0.014
-341.362	-145.260	-0.251	-0.023
-340.348	35.377	0.282	0.246
-339.333	12.688	0.170	0.131
-338.318	-47.199	-0.180	0.087
-337.304	60.696	-0.178	0.176
-336.289	41.211	0.154	0.138
-335.275	-36.798	-0.312	0.167
-334.260	412.641	0.114	-0.241
-333.245	800.000	0.096	-0.279
-332.231	-40.482	0.160	0.083
-331.216	-65.423	-0.260	-0.104
-330.202	-200.000	0.030	-0.189
-329.187	-135.102	0.252	-0.030
-328.172	154.928	0.093	0.128
-327.158	-88.914	0.155	-0.046
-326.143	-93.806	0.214	0.059
-325.129	-200.000	0.009	0.070
-324.114	-200.000	0.002	-0.362
-323.099	-112.456	-0.222	-0.044
-322.085	56.953	0.420	0.408
-321.070	-66.137	-0.192	0.076
-320.056	-40.565	-0.324	-0.167
-319.041	-200.000	-0.004	0.125
-318.026	-200.000	-0.011	0.257
-317.012	59.738	-0.110	-0.108
-315.997	800.000	-0.050	-0.188
-314.983	-29.223	0.289	-0.165
-313.968	-113.182	-0.279	0.055
-312.953	243.762	-0.100	-0.167
-311.939	-200.000	-0.001	0.234
-310.924	190.237	0.128	0.191
-309.910	-8.384	0.137	0.092
-308.895	56.114	-0.057	-0.055
-307.880	800.000	0.058	-0.226
-306.866	-80.683	-0.085	-0.028
-305.851	-200.000	0.018	0.372
-304.837	-171.148	0.218	0.007
-303.822	44.760	0.130	0.119
-302.807	-123.496	-0.184	-0.029
-301.793	-115.315	0.260	0.049
-300.778	-200.000	-0.010	-0.119
-299.764	266.649	0.136	0.236
-298.749	800.000	0.087	-0.259
-297.735	-152.789	0.379	0.027
-296.720	800.000	0.041	-0.163
-295.705	-54.610	0.273	-0.123
-294.691	143.539	-0.131	0.174
-293.676	-74.421	0.279	0.100
-292.662	322.238	-0.051	-0.097
-291.647	-145.921	-0.226	-0.020
-290.632	252.739	-0.045	0.076
-289.618	686.462	0.049	0.127
-288.603	57.639	0.106	-0.103
-287.589	-200.000	0.039	0.214
-286.574	-200.000	0.044	0.410
-285.559	413.800	-0.080	-0.169
-284.545	-152.693	-0.211	-0.015
-283.530	342.416	-0.103	0.200
-282.516	125.252	0.068	0.086
-281.501	48.237	-0.090	0.083
-280.486	138.260	0.062	-0.081
-279.472	-200.000	0.011	-0.086
-278.457	800.000	0.087	0.247
-277.443	-118.128	0.108	0.019
-276.428	800.000	0.019	-0.058
-275.413	14.535	-0.233	-0.181
-274.399	-148.919	0.228	0.018
-273.384	135.376	-0.250	0.323
-272.370	96.072	0.144	-0.164
-271.355	-38.106	-0.112	0.059
-270.340	800.000	-0.093	-0.255
-269.326	-122.856	0.209	-0.033
-268.311	318.080	0.187	0.352
-267.297	156.820	0.064	0.088
-266.282	-200.000	-0.008	0.064
-265.267	-118.678	-0.153	-0.027
-264.253	-153.859	-0.082	0.006
-263.238	-116.702	-0.171	0.031
-262.224	-124.480	0.325	0.050
-261.209	-153.515	0.062	-0.004
-260.195	19.451	-0.214	-0.171
-259.180	-12.412	0.080	0.052
-258.165	15.802	0.351	0.275
-257.151	-123.531	0.044	-0.007
-256.136	78.945	-0.256	-0.272
-255.122	-113.204	0.315	-0.062
-254.107	-200.000	0.023	0.287
-253.092	-129.027	-0.114	-0.016
-252.078	215.094	0.114	0.179
-251.063	46.853	0.065	-0.060
-250.049	-33.707	0.401	-0.219
-249.034	52.902	-0.127	0.121
-248.019	-60.594	-0.385	0.162
-247.005	-44.861	-0.092	-0.045
-245.990	-34.717	0.114	0.062
-244.976	-200.000	0.010	0.359
-243.961	-117.221	-0.246	0.044
-242.946	-200.000	-0.010	-0.241
-241.932	-105.511	0.130	-0.029
-240.917	-37.328	0.173	-0.092
-239.903	-200.000	0.015	-0.124
-238.888	800.000	-0.072	-0.293
-237.873	224.242	-0.218	0.349
-236.859	44.823	-0.120	0.110
-235.844	354.471	0.034	0.067
-234.830	254.153	0.183	0.311
-233.815	686.931	-0.089	0.232
-232.800	14.027	-0.029	-0.023
-231.786	-2.318	-0.122	0.085
-230.771	267.400	0.191	0.332
-229.757	-200.000	0.022	0.205
-228.742	130.240	0.144	-0.183
-227.727	-41.200	-0.034	0.017
-226.713	78.623	-0.112	0.119
-225.698	211.685	0.196	0.306
-224.684	-200.000	-0.016	-0.186
-223.669	267.167	-0.156	0.271
-222.655	86.934	0.226	-0.247
-221.640	-200.000	0.003	0.044
-220.625	-87.780	-0.147	0.044
-219.611	800.000	-0.076	0.213
-218.596	20.403	0.033	-0.026
-217.582	212.941	0.112	-0.175
-216.567	-52.097	0.077	-0.035
-215.552	-90.572	-0.123	-0.035
-214.538	-42.542	-0.110	-0.055
-213.523	-28.583	-0.149	0.085
-212.509	112.063	-0.134	0.160
-211.494	-147.559	0.189	0.016
-210.479	93.110	0.200	0.224
-209.465	-200.000	-0.025	0.188
-208.450	182.717	-0.149	0.217
-207.436	-53.381	-0.388	0.176
-206.421	-48.090	-0.260	0.124
-205.406	485.815	-0.004	0.008
-204.392	374.467	-0.124	-0.250
-203.377	71.879	-0.135	-0.139
-202.363	-15.648	-0.113	0.072
-201.348	-38.515	0.098	0.051
-200.333	83.540	0.170	-0.184
-199.319	-107.627	-0.235	0.051
-198.304	59.368	0.198	-0.194
-197.290	323.350	0.181	0.341
-196.275	-200.000	0.051	0.337
-195.260	-13.337	0.290	0.187
-194.246	516.308	-0.061	0.142
-193.231	800.000	0.110	-0.323
-192.217	800.000	0.042	-0.134
-191.202	-129.816	0.054	0.007
-190.187	478.316	-0.061	0.136
-189.173	-200.000	-0.009	0.215
-188.158	235.525	-0.007	-0.011
-187.144	-200.000	0.030	-0.223
-186.129	9.853	0.174	-0.130
-185.114	102.475	-0.143	0.166
-184.100	-104.268	-0.351	-0.081
-183.085	-119.609	0.295	-0.050
-182.071	-53.101	0.222	0.101
-181.056	196.877	0.075	-0.112
-180.042	170.783	0.070	-0.100
-179.027	-200.000	-0.038	0.215
-178.012	236.442	-0.130	0.212
-176.998	800.000	-0.056	0.237
-175.983	-200.000	0.003	-0.127
-174.969	-200.000	-0.248	-0.001
-173.954	-200.000	0.025	0.218
-172.939	373.660	-0.110	-0.221
-171.925	-118.137	0.141	0.025
-170.910	-68.657	0.177	0.068
-169.896	520.101	0.093	-0.216
-168.881	-49.601	-0.222	-0.105
-167.866	703.356	0.010	-0.027
-166.852	206.438	-0.080	-0.124
-165.837	-79.224	-0.184	0.062
-164.823	359.394	-0.081	-0.161
-163.808	-25.981	-0.037	0.022
-162.793	-83.156	0.197	0.063
-161.779	43.668	-0.135	0.122
-160.764	140.298	0.137	-0.179
-159.750	280.334	-0.173	-0.306
-158.735	-200.000	-0.020	-0.243
-157.720	-78.171	-0.328	0.112
-156.706	143.770	0.144	0.190
-155.691	-104.573	-0.127	0.029
-154.677	-49.645	0.171	0.080
-153.662	230.017	-0.125	0.201
-152.647	-59.758	0.333	-0.141
-151.633	800.000	0.076	-0.238
-150.618	-200.000	0.014	-0.193
-149.604	800.000	0.056	-0.189
-148.589	-45.624	-0.151	0.074
-147.574	800.000	-0.033	-0.113
-146.560	199.249	0.146	-0.221
-145.545	475.043	0.031	-0.070
-144.531	-78.082	-0.105	-0.036
-143.516	297.728	0.154	-0.279
-142.502	-178.208	0.073	0.002
-141.487	-73.713	0.202	-0.073
-140.472	-82.331	-0.194	-0.062
-139.458	-9.811	0.202	-0.133
-138.443	31.936	0.070	-0.060
-137.429	-82.340	-0.094	0.030
-136.414	624.482	0.122	0.303
-135.399	-200.000	0.022	0.190
-134.385	800.000	0.071	0.250
-133.370	-200.000	0.052	0.421
-132.356	-32.801	-0.139	0.076
-131.341	709.916	0.090	0.236
-130.326	63.069	-0.088	0.088
-129.312	-88.604	0.168	-0.049
-128.297	92.975	0.188	0.210
-127.283	265.892	0.080	0.139
-126.268	-103.193	0.398	-0.093
-125.253	-15.791	-0.048	-0.030
-124.239	-200.000	-0.016	0.230
-123.224	-15.038	-0.137	0.087
-122.210	800.000	-0.054	0.147
-121.195	315.514	-0.019	0.036
