DTS Sentinel unit serial number:	SN413079Multiplexer serial number:	ORYXHardware model number:	OX4-SRSoftware version number:	ORYX F/W v4.00 Oryx Data Collector v3.7.2.0data status	okinstallation	princeton_trtdifferential loss correction	single-endedforward channel	channel 2reverse channel	N/Adate	2019/09/14time	00:39:35forward acquisition time	60.00reverse acquisition time	0.00gamma	496.2192k internal	0.2338k external	0.2338temperature offset calibration	1.0125default loss term (dB/km)	0.3790temperature slope calibration	1.0000multiplexer offset coefficient	1.0000multiplexer slope coefficient	1.0000fibre end	0.00T internal ref (°C)	26.42T ext. ref 1 (°C)	3.17T ext. ref 2 (°C)	21.05length (m)	temperature (°C)	Stokes	anti-Stokes-747.200	-29.690	-0.026	-0.015
-746.185	81.038	0.049	0.053
-745.171	293.696	-0.030	-0.054
-744.156	-62.091	-0.258	0.108
-743.142	-19.103	-0.123	0.076
-742.127	-11.806	-0.281	0.185
-741.112	-200.000	0.119	-0.591
-740.098	-132.645	-0.328	0.042
-739.083	-200.000	0.005	0.204
-738.069	-78.589	0.207	0.071
-737.054	263.767	-0.088	-0.154
-736.039	107.757	0.090	-0.108
-735.025	67.688	0.167	-0.171
-734.010	88.777	-0.280	0.313
-732.996	-102.028	-0.368	0.089
-731.981	51.079	0.077	-0.073
-730.966	800.000	0.040	0.162
-729.952	177.749	-0.224	0.327
-728.937	-63.989	-0.216	-0.089
-727.923	-57.515	0.203	-0.089
-726.908	697.949	-0.068	-0.180
-725.894	124.729	0.180	-0.227
-724.879	-200.000	-0.042	-0.407
-723.864	106.175	-0.221	-0.262
-722.850	683.220	-0.116	-0.303
-721.835	110.573	-0.183	-0.221
-720.821	-100.756	-0.341	0.084
-719.806	118.362	0.097	0.120
-718.791	25.631	-0.211	-0.176
-717.777	64.925	-0.090	-0.091
-716.762	62.297	-0.225	-0.225
-715.748	39.247	-0.119	0.107
-714.733	87.964	0.123	0.137
-713.718	-125.032	-0.188	-0.029
-712.704	800.000	-0.048	0.168
-711.689	199.665	0.107	-0.164
-710.675	-38.087	-0.117	0.062
-709.660	12.042	-0.034	-0.026
-708.645	384.097	0.122	-0.251
-707.631	359.544	0.158	-0.316
-706.616	31.481	-0.046	0.040
-705.602	60.934	0.110	-0.109
-704.587	164.741	-0.086	0.122
-703.572	-200.000	0.042	-0.300
-702.558	74.059	0.214	-0.225
-701.543	-200.000	0.019	0.181
-700.529	-200.000	0.040	-0.252
-699.514	-18.662	0.087	-0.054
-698.499	-200.000	0.126	0.622
-697.485	34.141	-0.033	-0.029
-696.470	-200.000	0.002	-0.219
-695.456	-200.000	0.099	0.438
-694.441	-200.000	0.023	0.217
-693.426	-81.008	-0.306	0.101
-692.412	-99.736	-0.211	0.053
-691.397	37.093	-0.131	0.116
-690.383	-200.000	-0.043	-0.273
-689.368	490.969	-0.135	-0.308
-688.354	255.874	-0.076	-0.131
-687.339	616.957	0.043	-0.107
-686.324	-18.356	0.118	-0.074
-685.310	-26.905	-0.188	-0.110
-684.295	-116.170	-0.227	0.042
-683.281	-52.141	-0.373	0.173
-682.266	800.000	0.120	-0.497
-681.251	-67.116	0.177	0.070
-680.237	-176.174	0.033	-0.001
-679.222	800.000	-0.102	0.302
-678.208	-137.396	-0.077	0.009
-677.193	-105.196	-0.121	0.028
-676.178	3.414	-0.051	-0.037
-675.164	800.000	-0.080	-0.293
-674.149	-102.958	0.229	-0.054
-673.135	-10.711	-0.410	0.271
-672.120	800.000	-0.045	0.133
-671.105	45.991	0.027	0.025
-670.091	25.598	-0.097	-0.081
-669.076	-200.000	0.037	0.363
-668.062	-108.187	0.258	0.056
-667.047	297.325	-0.154	-0.282
-666.032	-88.278	0.174	-0.052
-665.018	168.342	0.144	-0.206
-664.003	75.604	0.134	-0.142
-662.989	239.846	-0.059	0.098
-661.974	-200.000	0.027	-0.291
-660.959	-200.000	0.002	-0.102
-659.945	82.463	0.104	-0.113
-658.930	685.217	-0.055	0.143
-657.916	-200.000	-0.034	0.174
-656.901	-200.000	0.129	0.000
-655.886	225.946	-0.037	0.059
-654.872	-10.266	0.321	0.213
-653.857	465.710	-0.082	-0.183
-652.843	92.626	0.070	-0.079
-651.828	-55.973	0.242	0.108
-650.814	-200.000	-0.023	0.129
-649.799	-97.991	-0.298	0.077
-648.784	373.621	-0.056	-0.114
-647.770	-126.357	-0.070	0.010
-646.755	-200.000	-0.025	0.176
-645.741	-200.000	0.013	-0.104
-644.726	34.487	-0.259	0.226
-643.711	-37.788	0.033	-0.017
-642.697	165.824	-0.117	-0.166
-641.682	597.665	-0.032	-0.080
-640.668	15.905	-0.062	-0.048
-639.653	-85.533	0.033	-0.010
-638.638	-121.530	-0.150	0.025
-637.624	-153.015	0.278	0.020
-636.609	-200.000	0.027	-0.127
-635.595	-112.699	-0.151	0.030
-634.580	-200.000	-0.003	-0.084
-633.565	240.032	0.044	0.073
-632.551	800.000	-0.033	0.105
-631.536	242.533	-0.202	-0.339
-630.522	-70.621	0.170	-0.064
-629.507	447.706	-0.152	0.334
-628.492	438.604	0.108	0.234
-627.478	88.693	0.144	0.160
-626.463	25.844	-0.215	0.179
-625.449	161.983	0.105	0.147
-624.434	-200.000	-0.026	0.179
-623.419	-66.359	-0.276	-0.110
-622.405	33.193	-0.129	0.112
-621.390	-30.922	-0.122	-0.069
-620.376	-141.996	-0.152	-0.015
-619.361	-200.000	0.012	0.089
-618.346	125.746	-0.131	0.166
-617.332	-141.884	0.142	-0.014
-616.317	10.932	0.081	-0.062
-615.303	-109.654	-0.448	-0.094
-614.288	175.634	0.150	-0.217
-613.273	601.007	0.005	-0.012
-612.259	800.000	-0.105	-0.371
-611.244	-86.751	0.173	-0.053
-610.230	406.148	-0.111	-0.234
-609.215	46.960	-0.464	0.431
-608.201	-99.444	0.339	0.085
-607.186	777.693	-0.028	-0.077
-606.171	260.635	-0.160	-0.276
-605.157	344.292	-0.120	0.235
-604.142	-40.258	-0.186	0.097
-603.128	-111.394	0.281	0.057
-602.113	70.390	-0.073	0.075
-601.098	26.031	0.132	0.110
-600.084	-85.431	0.074	-0.023
-599.069	800.000	-0.080	0.268
-598.055	800.000	0.035	-0.109
-597.040	800.000	0.079	-0.320
-596.025	101.021	0.174	0.202
-595.011	-102.209	-0.254	0.061
-593.996	-69.512	-0.102	0.039
-592.982	800.000	0.076	-0.219
-591.967	-200.000	-0.021	0.238
-590.952	-80.840	-0.444	-0.147
-589.938	699.494	-0.023	0.060
-588.923	800.000	-0.075	-0.232
-587.909	59.138	-0.278	0.273
-586.894	-132.281	-0.174	0.022
-585.879	-200.000	-0.073	0.349
-584.865	-200.000	0.066	-0.372
-583.850	551.894	0.041	-0.099
-582.836	800.000	0.055	-0.219
-581.821	800.000	0.053	-0.227
-580.806	-69.116	-0.152	0.058
-579.792	140.543	-0.124	-0.164
-578.777	800.000	-0.054	0.165
-577.763	-119.681	0.028	-0.005
-576.748	-123.159	-0.113	0.018
-575.733	579.256	0.075	-0.182
-574.719	87.682	0.143	-0.157
-573.704	-53.326	0.144	-0.066
-572.690	-200.000	0.083	0.382
-571.675	-200.000	-0.002	0.136
-570.661	-125.918	0.250	0.038
-569.646	149.121	0.035	0.047
-568.631	96.012	0.144	0.164
-567.617	331.065	-0.154	-0.295
-566.602	5.403	0.213	-0.157
-565.588	-99.744	-0.078	-0.020
-564.573	63.529	-0.214	0.214
-563.558	-57.567	-0.075	0.033
-562.544	-51.553	-0.103	-0.048
-561.529	535.117	-0.055	-0.130
-560.515	-90.775	0.026	0.008
-559.500	-62.286	-0.054	0.022
-558.485	-200.000	-0.014	0.162
-557.471	-137.658	0.320	-0.036
-556.456	-67.214	0.102	-0.040
-555.442	-200.000	-0.008	-0.122
-554.427	-4.852	-0.416	-0.286
-553.412	-0.237	0.258	0.183
-552.398	-105.359	0.283	0.064
-551.383	-103.435	-0.254	0.059
-550.369	115.984	0.157	0.191
-549.354	19.595	0.350	-0.280
-548.339	-173.654	-0.323	-0.010
-547.325	-125.352	0.121	0.018
-546.310	44.955	-0.241	0.221
-545.296	-98.477	0.186	-0.047
-544.281	-51.411	-0.114	-0.053
-543.266	346.724	0.198	0.388
-542.252	198.833	0.069	0.105
-541.237	-200.000	0.004	0.063
-540.223	24.147	0.289	-0.237
-539.208	-117.055	-0.088	-0.016
-538.193	-105.355	0.389	-0.088
-537.179	-200.000	0.012	0.279
-536.164	341.543	-0.163	0.318
-535.150	88.084	-0.176	-0.194
-534.135	72.089	0.091	-0.094
-533.121	453.615	0.086	-0.189
-532.106	800.000	-0.058	0.161
-531.091	548.528	0.143	0.341
-530.077	-71.274	-0.300	0.112
-529.062	-104.608	0.288	0.066
-528.048	7.443	-0.188	-0.140
-527.033	-122.244	0.131	0.021
-526.018	-200.000	0.070	-0.319
-525.004	-200.000	0.007	0.079
-523.989	92.946	-0.129	0.145
-522.975	-200.000	-0.010	-0.293
-521.960	-7.626	-0.407	-0.274
-520.945	1.993	0.159	0.114
-519.931	-200.000	0.047	0.216
-518.916	-95.794	-0.336	-0.089
-517.902	-200.000	-0.025	0.226
-516.887	-84.090	-0.199	-0.063
-515.872	800.000	0.067	-0.252
-514.858	-200.000	-0.032	0.164
-513.843	0.885	-0.086	0.061
-512.829	448.619	-0.141	0.308
-511.814	-200.000	-0.004	0.141
-510.799	-50.748	-0.352	0.165
-509.785	-32.878	0.174	-0.096
-508.770	-8.671	-0.142	-0.094
-507.756	800.000	0.067	0.229
-506.741	-200.000	-0.016	-0.152
-505.726	-111.061	-0.356	-0.073
-504.712	270.950	-0.059	-0.104
-503.697	459.174	0.054	0.118
-502.683	211.049	-0.031	0.048
-501.668	96.390	-0.056	-0.064
-500.653	42.453	0.308	0.278
-499.639	-185.427	0.245	0.004
-498.624	92.387	-0.013	0.014
-497.610	129.189	-0.107	0.136
-496.595	-200.000	0.043	0.256
-495.581	45.106	-0.137	0.126
-494.566	-56.691	-0.193	0.085
-493.551	-44.127	-0.198	-0.099
-492.537	251.380	0.221	-0.373
-491.522	491.845	-0.030	0.068
-490.508	-200.000	0.014	0.249
-489.493	-33.316	0.142	0.078
-488.478	19.665	-0.176	0.140
-487.464	-172.519	-0.354	-0.011
-486.449	-200.000	0.027	-0.128
-485.435	20.272	-0.147	0.118
-484.420	326.523	-0.111	-0.212
-483.405	-200.000	-0.014	-0.347
-482.391	-125.893	0.218	-0.033
-481.376	515.360	-0.084	0.195
-480.362	202.860	-0.173	-0.266
-479.347	241.382	0.233	-0.387
-478.332	100.162	0.095	-0.110
-477.318	-200.000	0.022	0.229
-476.303	800.000	0.079	0.306
-475.289	553.009	-0.123	-0.294
-474.274	346.485	-0.118	0.230
-473.259	-45.160	-0.239	0.118
-472.245	-200.000	0.033	-0.151
-471.230	-146.529	0.215	0.019
-470.216	-200.000	0.024	0.119
-469.201	-200.000	-0.068	0.306
-468.186	60.725	0.225	0.221
-467.172	-200.000	0.045	-0.203
-466.157	-132.097	-0.195	-0.025
-465.143	800.000	0.069	0.194
-464.128	-154.220	0.299	0.020
-463.113	-108.961	0.090	-0.019
-462.099	-181.499	-0.115	-0.002
-461.084	-7.032	-0.142	-0.096
-460.070	-172.311	-0.412	0.013
-459.055	324.982	0.002	-0.005
-458.040	-32.094	0.338	0.188
-457.026	-0.721	-0.166	0.116
-456.011	-17.888	-0.072	0.045
-454.997	-33.474	0.183	-0.100
-453.982	103.487	0.034	0.040
-452.968	-200.000	-0.075	-0.329
-451.953	-15.469	-0.180	-0.114
-450.938	151.909	-0.200	0.271
-449.924	800.000	0.011	0.034
-448.909	138.462	0.152	0.198
-447.895	-38.341	-0.337	-0.177
-446.880	-28.563	0.221	-0.126
-445.865	-200.000	-0.011	-0.283
-444.851	-200.000	-0.341	-0.001
-443.836	-30.503	0.089	-0.050
-442.822	-200.000	0.009	-0.064
-441.807	116.665	0.055	0.067
-440.792	5.942	-0.206	0.152
-439.778	-118.352	0.187	-0.033
-438.763	-200.000	-0.029	0.322
-437.749	-200.000	-0.005	-0.167
-436.734	-139.661	0.267	0.028
-435.719	-165.557	0.409	-0.018
-434.705	8.621	0.211	-0.157
-433.690	128.460	0.190	0.240
-432.676	24.580	-0.202	-0.166
-431.661	-34.648	-0.260	-0.141
-430.646	-200.000	-0.014	0.178
-429.632	435.745	-0.035	-0.075
-428.617	-85.352	0.228	0.071
-427.603	-80.884	-0.224	-0.074
-426.588	-118.862	0.309	0.054
-425.573	-62.601	-0.169	-0.070
-424.559	-147.428	-0.163	0.014
-423.544	800.000	-0.050	0.209
-422.530	-200.000	0.005	0.512
-421.515	800.000	0.041	0.120
-420.500	-200.000	-0.041	-0.279
-419.486	159.866	-0.130	-0.180
-418.471	535.118	0.117	-0.274
-417.457	308.310	0.113	-0.208
-416.442	-48.744	-0.303	0.144
-415.428	-200.000	-0.011	0.199
-414.413	159.381	-0.162	0.223
-413.398	124.837	0.097	0.121
-412.384	-33.134	0.290	-0.159
-411.369	-155.051	0.256	-0.017
-410.355	-200.000	-0.015	0.279
-409.340	265.295	0.096	-0.167
-408.325	-11.793	-0.109	0.071
-407.311	34.875	-0.288	-0.250
-406.296	2.463	-0.144	0.103
-405.282	-17.369	-0.155	0.096
-404.267	-79.774	-0.228	0.076
-403.252	89.456	0.092	-0.102
-402.238	-200.000	0.000	-0.372
-401.223	718.189	-0.099	-0.260
-400.209	-85.202	0.323	0.100
-399.194	-46.294	0.220	0.107
-398.179	-84.811	0.144	0.045
-397.165	31.445	-0.434	-0.369
-396.150	-200.000	-0.051	0.253
-395.136	-129.848	-0.078	0.011
-394.121	29.757	-0.350	0.295
-393.106	79.740	-0.364	-0.387
-392.092	-23.885	0.143	-0.085
-391.077	-200.000	-0.002	0.259
-390.063	-200.000	0.017	0.243
-389.048	8.963	0.206	0.154
-388.033	-200.000	0.027	0.244
-387.019	-93.170	0.214	-0.059
-386.004	-200.000	0.055	0.305
-384.990	-94.842	-0.066	-0.018
-383.975	91.895	0.225	-0.251
-382.960	-200.000	0.014	0.210
-381.946	-24.029	-0.363	-0.215
-380.931	-55.618	-0.329	-0.146
-379.917	198.720	-0.234	-0.355
-378.902	800.000	0.107	0.295
-377.888	-200.000	-0.051	0.234
-376.873	-169.525	0.099	0.004
-375.858	-200.000	-0.003	-0.048
-374.844	137.217	0.112	0.144
-373.829	-11.974	-0.233	0.151
-372.815	35.929	0.141	0.122
-371.800	-200.000	0.016	-0.420
-370.785	-200.000	0.041	-0.260
-369.771	-200.000	-0.092	-0.468
-368.756	758.949	0.053	0.142
-367.742	-123.183	-0.077	-0.012
-366.727	-89.446	-0.250	0.073
-365.712	242.542	0.050	0.083
-364.698	-60.265	-0.122	-0.051
-363.683	364.435	0.051	-0.101
-362.669	223.451	-0.076	0.121
-361.654	-61.522	0.062	-0.026
-360.639	-94.335	-0.211	-0.057
-359.625	-104.954	0.376	-0.085
-358.610	-114.146	0.213	0.041
-357.596	115.305	-0.151	-0.182
-356.581	113.590	-0.147	0.176
-355.566	800.000	0.056	-0.162
-354.552	39.124	0.156	0.138
-353.537	226.659	0.129	-0.207
-352.523	25.682	-0.096	0.079
-351.508	-74.887	-0.081	-0.029
-350.493	-51.146	0.051	-0.024
-349.479	-200.000	-0.032	-0.167
-348.464	122.295	-0.057	-0.071
-347.450	-80.746	-0.133	-0.044
-346.435	363.717	0.177	0.351
-345.420	267.837	-0.085	-0.148
-344.406	-26.317	-0.127	0.074
-343.391	-200.000	0.012	0.083
-342.377	-66.152	-0.095	0.037
-341.362	655.643	-0.051	0.130
-340.348	-48.516	0.225	0.107
-339.333	93.068	0.187	0.208
-338.318	90.914	-0.202	-0.224
-337.304	252.767	0.167	-0.281
-336.289	-200.000	-0.035	-0.161
-335.275	-163.896	-0.103	0.005
-334.260	-145.328	-0.324	-0.029
-333.245	-77.743	0.232	-0.079
-332.231	-31.200	-0.067	-0.038
-331.216	279.755	0.008	-0.014
-330.202	131.419	-0.187	-0.237
-329.187	38.828	-0.162	-0.143
-328.172	800.000	-0.054	0.186
-327.158	-142.202	0.100	0.010
-326.143	-200.000	-0.014	-0.227
-325.129	-100.653	0.140	-0.034
-324.114	800.000	0.054	-0.195
-323.099	-59.694	-0.218	-0.092
-322.085	-166.963	0.316	0.013
-321.070	-90.732	0.169	-0.048
-320.056	-87.165	-0.258	-0.077
-319.041	-200.000	-0.007	0.064
-318.026	-200.000	0.052	0.270
-317.012	79.691	-0.169	0.179
-315.997	-20.150	0.225	0.137
-314.983	-83.939	-0.248	-0.078
-313.968	-8.876	0.278	0.184
-312.953	63.160	-0.262	-0.259
-311.939	-60.791	0.193	-0.081
-310.924	-113.201	-0.097	0.019
-309.910	-112.448	0.468	-0.092
-308.895	73.727	0.405	0.418
-307.880	-95.007	0.280	0.075
-306.866	800.000	0.051	0.143
-305.851	-7.097	-0.164	0.109
-304.837	-69.546	-0.089	0.034
-303.822	-5.477	0.156	0.106
-302.807	-157.089	-0.237	-0.014
-301.793	568.505	0.177	-0.425
-300.778	-200.000	0.082	0.441
-299.764	524.973	-0.012	0.028
-298.749	-200.000	-0.017	-0.265
-297.735	-68.650	0.334	-0.127
-296.720	121.448	-0.145	-0.178
-295.705	800.000	-0.063	0.216
-294.691	800.000	-0.033	0.129
-293.676	-3.849	-0.140	0.096
-292.662	111.583	0.293	0.349
-291.647	-200.000	-0.079	-0.379
-290.632	112.926	0.166	-0.199
-289.618	-200.000	-0.010	0.093
-288.603	61.681	0.100	0.098
-287.589	-29.147	-0.214	-0.121
-286.574	-200.000	0.033	-0.230
-285.559	800.000	0.110	0.388
-284.545	-200.000	0.033	-0.151
-283.530	249.983	-0.128	-0.214
-282.516	800.000	0.043	0.144
-281.501	-200.000	0.037	0.196
-280.486	723.987	-0.067	-0.176
-279.472	34.157	0.203	0.175
-278.457	-138.399	0.229	-0.025
-277.443	-40.702	-0.226	-0.116
-276.428	-168.279	-0.222	-0.008
-275.413	800.000	0.006	0.024
-274.399	27.532	0.191	-0.159
-273.384	375.140	-0.034	-0.067
-272.370	-200.000	0.010	0.307
-271.355	275.436	-0.048	0.083
-270.340	-64.863	0.275	-0.110
-269.326	509.595	-0.117	0.268
-268.311	-137.630	-0.026	0.003
-267.297	159.611	-0.190	-0.260
-266.282	-100.246	0.436	0.107
-265.267	113.324	0.068	-0.081
-264.253	-200.000	-0.020	-0.129
-263.238	50.820	0.107	0.099
-262.224	273.410	0.070	-0.121
-261.209	240.416	-0.039	0.065
-260.195	800.000	0.033	-0.097
-259.180	26.849	0.130	-0.107
-258.165	450.772	0.039	-0.084
-257.151	15.909	-0.141	0.110
-256.136	-120.984	-0.190	0.031
-255.122	-160.089	0.269	0.014
-254.107	208.329	-0.127	-0.195
-253.092	-200.000	0.043	-0.281
-252.078	800.000	0.067	0.244
-251.063	217.720	0.140	0.220
-250.049	304.386	-0.079	-0.144
-249.034	-23.781	0.010	-0.006
-248.019	277.944	0.121	-0.213
-247.005	-7.481	0.069	-0.046
-245.990	457.138	0.147	0.320
-244.976	800.000	0.054	-0.155
-243.961	-167.562	0.170	-0.007
-242.946	-121.177	-0.169	-0.028
-241.932	-9.031	0.122	-0.081
-240.917	-25.755	-0.078	0.045
-239.903	-79.977	0.347	-0.114
-238.888	-136.694	0.141	0.016
-237.873	800.000	0.106	-0.357
-236.859	800.000	-0.012	-0.051
-235.844	-164.737	0.101	0.004
-234.830	800.000	-0.080	-0.242
-233.815	-85.468	0.306	-0.094
-232.800	-40.078	-0.225	-0.115
-231.786	-73.431	0.166	-0.060
-230.771	-200.000	-0.016	0.190
-229.757	693.163	0.138	-0.355
-228.742	32.351	0.228	0.194
-227.727	-19.714	0.309	0.188
-226.713	-86.500	0.207	0.063
-225.698	-58.834	-0.252	-0.107
-224.684	120.229	-0.085	-0.104
-223.669	178.331	0.275	-0.394
-222.655	-26.433	-0.208	-0.120
-221.640	-51.233	-0.381	-0.175
-220.625	47.933	0.186	0.171
-219.611	-174.178	0.160	-0.005
-218.596	800.000	-0.055	-0.168
-217.582	-2.349	0.093	0.064
-216.567	-200.000	-0.003	-0.049
-215.552	48.166	0.110	0.101
-214.538	-18.470	0.071	-0.043
-213.523	-200.000	-0.014	-0.112
-212.509	800.000	-0.064	-0.233
-211.494	169.009	-0.156	0.219
-210.479	-94.069	-0.189	0.051
-209.465	800.000	0.127	0.415
-208.450	-33.686	-0.165	0.089
-207.436	190.347	-0.112	0.165
-206.421	-25.104	0.223	0.130
-205.406	559.700	0.150	-0.356
-204.392	-61.940	-0.574	-0.236
-203.377	624.526	0.074	-0.183
-202.363	-14.043	-0.132	0.084
-201.348	-200.000	0.014	0.228
-200.333	235.954	-0.150	0.244
-199.319	647.385	-0.057	-0.142
-198.304	-23.662	0.276	-0.163
-197.290	-200.000	-0.003	0.048
-196.275	-56.006	0.361	-0.158
-195.260	192.654	0.167	0.247
-194.246	-20.441	0.098	0.059
-193.231	-200.000	0.034	0.152
-192.217	224.161	-0.086	0.137
-191.202	-88.015	0.149	-0.044
-190.187	199.321	-0.119	0.179
-189.173	18.650	0.090	0.070
-188.158	-47.505	0.150	-0.072
-187.144	-200.000	0.010	0.144
-186.129	-200.000	-0.025	-0.224
-185.114	188.053	-0.094	0.138
-184.100	800.000	-0.066	0.214
-183.085	180.130	-0.033	0.048
-182.071	118.234	-0.178	0.215
-181.056	-165.756	-0.430	-0.018
-180.042	-49.509	0.262	-0.123
-179.027	-45.516	-0.177	0.086
-178.012	-200.000	0.011	0.302
-176.998	800.000	0.091	-0.281
-175.983	560.546	-0.174	-0.414
-174.969	206.372	-0.080	0.121
-173.954	90.144	0.326	0.358
-172.939	800.000	-0.101	0.306
-171.925	-200.000	-0.025	0.405
-170.910	591.338	0.074	-0.179
-169.896	90.905	0.379	-0.417
-168.881	-80.382	0.062	-0.020
-167.866	-108.784	-0.407	-0.086
-166.852	-200.000	0.024	0.304
-165.837	119.455	-0.074	-0.090
-164.823	-181.980	0.479	0.009
-163.808	-200.000	-0.026	0.274
-162.793	295.270	0.165	-0.296
-161.779	800.000	0.162	-0.577
-160.764	-137.222	0.332	-0.037
-159.750	-109.731	0.153	-0.032
-158.735	-178.401	-0.143	0.003
-157.720	-110.194	0.333	-0.068
-156.706	-95.120	0.081	-0.021
-155.691	-20.787	0.331	-0.199
-154.677	-16.743	-0.066	-0.041
-153.662	-52.219	-0.083	0.038
-152.647	407.373	0.073	-0.151
-151.633	-200.000	-0.015	-0.245
-150.618	-17.732	0.234	-0.144
-149.604	22.223	-0.192	0.153
-148.589	800.000	0.047	0.196
-147.574	-200.000	-0.008	0.125
-146.560	800.000	-0.083	0.325
-145.545	349.717	0.127	-0.247
-144.531	7.177	-0.178	0.130
-143.516	800.000	0.087	0.297
-142.502	-121.636	0.169	0.027
-141.487	-97.287	-0.211	0.054
-140.472	483.156	0.054	-0.119
-139.458	-65.972	-0.024	0.009
-138.443	28.067	-0.328	-0.271
-137.429	-200.000	0.011	-0.087
-136.414	-151.630	0.092	-0.007
-135.399	800.000	-0.037	0.152
-134.385	29.998	-0.254	-0.212
-133.370	58.631	0.173	0.167
-132.356	408.117	-0.117	0.242
-131.341	800.000	-0.128	-0.500
-130.326	82.807	0.128	-0.137
-129.312	-200.000	-0.078	-0.378
-128.297	-73.423	0.153	-0.055
-127.283	-45.640	-0.200	0.097
-126.268	-14.790	0.149	-0.093
-125.253	-140.042	-0.256	0.026
-124.239	-200.000	-0.006	-0.041
-123.224	-144.713	0.128	-0.012
-122.210	-34.866	-0.098	0.053
