DTS Sentinel unit serial number:	SN413079Multiplexer serial number:	ORYXHardware model number:	OX4-SRSoftware version number:	ORYX F/W v4.00 Oryx Data Collector v3.7.2.0data status	okinstallation	princeton_trtdifferential loss correction	single-endedforward channel	channel 2reverse channel	N/Adate	2019/09/12time	19:27:49forward acquisition time	15.00reverse acquisition time	0.00gamma	496.2192k internal	0.2326k external	0.2326temperature offset calibration	1.0147default loss term (dB/km)	0.3790temperature slope calibration	1.0000multiplexer offset coefficient	1.0000multiplexer slope coefficient	1.0000fibre end	0.00T internal ref (°C)	32.25T ext. ref 1 (°C)	3.27T ext. ref 2 (°C)	26.83length (m)	temperature (°C)	Stokes	anti-Stokes-747.200	-84.473	0.896	0.286
-746.185	-165.733	0.825	0.036
-745.171	-200.000	-0.009	-0.625
-744.156	553.416	0.250	-0.605
-743.142	-116.924	-0.300	-0.055
-742.127	-76.381	-0.951	0.338
-741.112	-8.668	0.544	0.369
-740.098	-200.000	-0.113	0.825
-739.083	256.227	-0.367	-0.635
-738.069	-200.000	0.039	0.338
-737.054	-200.000	-0.118	0.748
-736.039	-134.362	-1.019	0.126
-735.025	-41.871	0.449	0.232
-734.010	-83.207	0.098	-0.032
-732.996	-200.000	0.060	-0.320
-731.981	800.000	0.020	0.059
-730.966	170.201	0.432	0.624
-729.952	693.017	0.278	-0.736
-728.937	-200.000	-0.017	0.501
-727.923	58.696	0.264	-0.262
-726.908	-106.119	1.224	-0.277
-725.894	109.380	0.508	-0.613
-724.879	61.198	-0.516	-0.517
-723.864	56.001	-0.405	-0.396
-722.850	-200.000	0.024	-0.351
-721.835	800.000	-0.145	-0.594
-720.821	-85.154	-0.174	0.055
-719.806	109.058	-0.324	0.390
-718.791	-34.936	-0.445	0.245
-717.777	800.000	-0.170	0.681
-716.762	-145.556	0.848	-0.077
-715.748	-66.611	-0.832	0.332
-714.733	-118.041	0.626	-0.113
-713.718	-73.497	-0.163	-0.060
-712.704	-86.859	-0.246	0.076
-711.689	26.795	0.746	-0.630
-710.675	-200.000	-0.030	0.336
-709.660	-159.365	-1.064	-0.060
-708.645	69.538	-0.521	0.540
-707.631	767.755	-0.202	-0.553
-706.616	-74.718	0.326	0.118
-705.602	513.179	0.073	0.172
-704.587	800.000	0.252	0.832
-703.572	0.459	-0.493	0.355
-702.558	415.806	0.168	-0.360
-701.543	-69.386	-0.235	0.091
-700.529	92.944	-0.260	-0.295
-699.514	-39.605	-1.295	0.683
-698.499	386.791	0.259	0.538
-697.485	156.377	-0.270	-0.375
-696.470	255.803	-0.299	-0.516
-695.456	190.878	0.174	-0.263
-694.441	-100.695	-0.237	-0.059
-693.426	497.209	-0.253	0.585
-692.412	183.377	0.446	0.663
-691.397	614.068	-0.244	0.615
-690.383	-44.686	-0.406	-0.204
-689.368	-200.000	0.048	-0.825
-688.354	242.909	0.140	-0.235
-687.339	17.799	0.240	0.192
-686.324	-58.408	-0.455	0.199
-685.310	189.208	-0.249	0.376
-684.295	-200.000	0.001	0.253
-683.281	-99.604	-1.023	-0.258
-682.266	507.477	0.232	0.542
-681.251	-128.285	0.939	0.135
-680.237	204.359	-0.226	-0.353
-679.222	-128.297	0.295	0.042
-678.208	800.000	0.082	0.323
-677.193	-156.590	-0.558	-0.035
-676.178	167.698	-0.363	-0.519
-675.164	-3.228	-0.439	-0.308
-674.149	-128.893	-1.042	-0.147
-673.135	49.421	-0.670	0.634
-672.120	137.010	0.223	0.294
-671.105	58.519	-0.068	-0.067
-670.091	800.000	0.179	0.571
-669.076	-7.914	-0.913	-0.620
-668.062	280.496	0.396	-0.712
-667.047	39.285	-0.452	0.407
-666.032	-97.602	0.987	0.258
-665.018	800.000	0.134	0.399
-664.003	90.197	0.159	0.179
-662.989	68.072	-0.200	-0.206
-661.974	164.015	0.371	0.526
-660.959	-200.000	-0.170	-0.796
-659.945	-92.730	-0.417	-0.117
-658.930	131.448	-0.414	0.535
-657.916	223.685	0.349	0.565
-656.901	104.811	0.539	-0.638
-655.886	18.642	0.889	0.715
-654.872	-200.000	0.029	0.772
-653.857	59.839	-0.360	-0.357
-652.843	-73.417	-0.524	-0.192
-651.828	800.000	-0.161	-0.481
-650.814	120.027	0.223	-0.277
-649.799	-200.000	-0.009	-0.589
-648.784	800.000	0.163	0.540
-647.770	800.000	-0.258	0.747
-646.755	39.714	-0.460	-0.415
-645.741	-23.682	-0.361	0.218
-644.726	396.208	0.408	-0.857
-643.711	800.000	-0.283	-0.958
-642.697	-168.696	1.223	0.047
-641.682	-200.000	-0.071	0.400
-640.668	493.155	0.170	-0.392
-639.653	136.171	0.109	-0.142
-638.638	79.901	-0.358	-0.386
-637.624	-103.186	0.836	0.199
-636.609	87.088	0.115	-0.127
-635.595	-18.099	-0.058	0.036
-634.580	-86.442	-0.194	-0.060
-633.565	800.000	0.248	0.937
-632.551	-200.000	-0.013	0.075
-631.536	-153.158	-0.299	-0.021
-630.522	-129.193	1.106	-0.155
-629.507	74.622	-0.214	-0.226
-628.492	-133.702	-0.780	0.098
-627.478	-118.397	0.420	0.075
-626.463	153.416	-0.203	0.279
-625.449	1.977	-0.492	-0.356
-624.434	-200.000	0.017	-0.117
-623.419	-117.745	0.649	0.117
-622.405	-65.276	-0.286	0.116
-621.390	-88.724	0.304	0.091
-620.376	-164.448	0.394	0.018
-619.361	-43.606	0.125	0.063
-618.346	-45.446	0.359	-0.179
-617.332	36.442	-0.525	-0.465
-616.317	-200.000	-0.056	0.378
-615.303	-200.000	0.043	0.193
-614.288	800.000	-0.133	0.419
-613.273	94.007	-0.233	-0.266
-612.259	272.690	-0.162	-0.287
-611.244	-45.245	0.608	-0.303
-610.230	-36.172	0.151	-0.082
-609.215	-197.588	-0.067	0.000
-608.201	190.146	-0.737	1.110
-607.186	125.565	-0.375	0.475
-606.171	-79.741	0.160	-0.054
-605.157	-67.358	0.405	0.160
-604.142	-108.015	0.327	-0.071
-603.128	119.820	0.428	-0.532
-602.113	-108.887	0.955	0.205
-601.098	800.000	0.159	0.480
-600.084	498.958	0.193	-0.446
-599.069	158.614	0.233	-0.324
-598.055	-200.000	-0.054	-0.366
-597.040	-37.073	-0.203	0.109
-596.025	-73.303	-0.415	0.152
-595.011	-90.878	0.589	-0.170
-593.996	-200.000	-0.433	0.001
-592.982	-47.138	0.157	0.077
-591.967	-76.123	-0.633	0.224
-590.952	66.054	-0.313	-0.318
-589.938	17.981	0.255	-0.204
-588.923	-94.490	-0.557	-0.152
-587.909	-72.081	-1.090	0.406
-586.894	-74.254	0.219	0.079
-585.879	557.135	-0.282	-0.681
-584.865	-174.725	-0.389	0.011
-583.850	-101.678	-0.540	0.131
-582.836	-64.131	0.296	0.121
-581.821	-176.343	0.444	0.012
-580.806	83.825	-0.129	0.141
-579.792	-132.831	0.200	-0.026
-578.777	-200.000	0.099	-0.793
-577.763	800.000	0.059	-0.170
-576.748	-200.000	0.085	-0.776
-575.733	-200.000	0.067	-0.760
-574.719	-200.000	0.051	0.454
-573.704	8.465	0.279	0.211
-572.690	800.000	0.213	-0.786
-571.675	209.046	0.207	0.324
-570.661	800.000	0.052	-0.191
-569.646	-200.000	-0.050	0.924
-568.631	659.379	-0.366	-0.943
-567.617	124.426	0.277	0.349
-566.602	-200.000	0.003	-0.247
-565.588	201.532	0.100	0.154
-564.573	220.563	0.254	0.407
-563.558	258.991	0.233	0.403
-562.544	-107.721	-0.877	-0.192
-561.529	-174.651	0.583	-0.017
-560.515	-200.000	0.183	-0.878
-559.500	-81.955	-0.618	-0.202
-558.485	-200.000	-0.080	-0.368
-557.471	-159.288	-0.493	-0.028
-556.456	-200.000	-0.063	0.296
-555.442	-109.141	0.156	0.033
-554.427	-71.810	0.272	0.101
-553.412	79.840	0.560	0.603
-552.398	-157.712	-0.401	0.024
-551.383	-120.699	0.494	0.084
-550.369	632.804	0.172	0.436
-549.354	-22.647	0.356	0.215
-548.339	-111.483	-0.341	0.070
-547.325	-100.099	-0.288	0.072
-546.310	-54.336	-0.714	-0.324
-545.296	-136.165	-0.573	0.067
-544.281	-7.295	-0.385	0.261
-543.266	-200.000	0.153	0.724
-542.252	-96.809	0.243	0.064
-541.237	-147.200	0.233	-0.020
-540.223	-96.198	0.230	-0.061
-539.208	-114.975	0.456	-0.087
-538.193	79.839	-0.424	-0.456
-537.179	-39.316	-0.825	0.433
-536.164	327.031	-0.565	1.084
-535.150	-200.000	-0.037	-0.339
-534.135	161.406	0.179	-0.251
-533.121	-196.289	-0.820	0.006
-532.106	397.043	0.210	-0.439
-531.091	-153.307	-1.043	0.073
-530.077	-200.000	-0.200	-1.174
-529.062	10.400	-0.441	-0.336
-528.048	542.963	-0.208	-0.496
-527.033	308.698	0.429	-0.801
-526.018	83.715	-0.218	-0.238
-525.004	-37.598	0.356	0.190
-523.989	58.855	0.412	0.405
-522.975	-137.808	-0.249	0.028
-521.960	83.182	-0.842	0.917
-520.945	80.150	-0.182	-0.196
-519.931	157.170	0.037	0.051
-518.916	-200.000	0.012	0.145
-517.902	25.584	0.322	-0.268
-516.887	-140.558	-0.627	-0.065
-515.872	-31.432	0.142	-0.080
-514.858	174.426	0.375	-0.543
-513.843	-159.847	0.245	-0.013
-512.829	221.759	0.164	-0.264
-511.814	-24.774	-0.492	-0.292
-510.799	89.934	-0.279	-0.312
-509.785	22.150	-0.287	0.234
-508.770	-116.008	0.808	-0.150
-507.756	90.905	0.180	0.202
-506.741	-17.474	-0.049	-0.031
-505.726	-200.000	-0.139	0.679
-504.712	295.997	-0.081	0.148
-503.697	284.760	0.284	-0.512
-502.683	117.230	-0.035	-0.043
-501.668	104.639	-0.019	-0.022
-500.653	-200.000	0.020	-0.406
-499.639	-200.000	0.044	-0.629
-498.624	-141.502	-0.727	0.073
-497.610	-11.999	0.515	0.337
-496.595	1.113	-0.572	0.410
-495.581	-69.740	0.750	0.286
-494.566	74.314	0.074	0.078
-493.551	-200.000	-0.076	-0.501
-492.537	344.573	0.117	0.229
-491.522	93.460	-0.424	0.479
-490.508	-58.252	-0.653	0.284
-489.493	606.153	-0.111	0.275
-488.478	-131.321	-0.425	-0.056
-487.464	-200.000	0.009	-0.329
-486.449	-49.461	1.076	-0.512
-485.435	97.806	0.149	-0.171
-484.420	51.254	0.603	0.572
-483.405	800.000	0.191	-0.548
-482.391	-97.610	0.464	-0.120
-481.376	-30.162	-0.475	-0.270
-480.362	-10.089	0.295	0.196
-479.347	286.644	0.147	-0.265
-478.332	19.273	0.334	0.267
-477.318	24.814	0.416	0.344
-476.303	-2.188	0.239	0.168
-475.289	399.096	-0.046	0.096
-474.274	320.642	-0.165	-0.313
-473.259	800.000	0.057	-0.246
-472.245	-42.749	0.427	-0.217
-471.230	-86.183	0.641	0.197
-470.216	800.000	0.081	0.345
-469.201	800.000	0.499	1.489
-468.186	736.324	0.235	-0.628
-467.172	258.494	-0.271	-0.466
-466.157	-74.622	-0.906	0.325
-465.143	172.717	0.371	0.533
-464.128	132.013	-0.243	0.313
-463.113	46.826	0.174	0.161
-462.099	800.000	-0.190	-0.774
-461.084	3.236	-0.218	-0.158
-460.070	800.000	-0.048	-0.181
-459.055	-200.000	-0.189	-0.853
-458.040	640.758	0.335	-0.852
-457.026	-42.945	-0.372	0.189
-456.011	154.993	0.671	-0.920
-454.997	75.525	-0.331	0.349
-453.982	417.416	0.132	0.282
-452.968	51.861	-0.550	-0.522
-451.953	-75.984	-0.600	-0.212
-450.938	-59.137	-0.429	-0.184
-449.924	800.000	0.287	0.960
-448.909	-164.713	0.556	0.025
-447.895	-78.435	-0.086	-0.029
-446.880	-200.000	-0.115	-0.829
-445.865	-99.081	1.057	-0.267
-444.851	-53.236	-0.727	-0.333
-443.836	-33.009	0.110	0.061
-442.822	800.000	0.275	-0.802
-441.807	358.902	0.393	-0.783
-440.792	35.729	-0.281	0.246
-439.778	-23.388	0.413	0.247
-438.763	-136.718	-0.506	-0.058
-437.749	264.951	-0.173	0.301
-436.734	-200.000	-0.111	0.831
-435.719	-200.000	-0.047	0.315
-434.705	-7.761	0.341	-0.230
-433.690	-20.685	-0.531	-0.325
-432.676	168.832	0.508	0.722
-431.661	-36.317	-0.515	-0.277
-430.646	-200.000	0.018	-0.088
-429.632	-86.970	0.520	0.158
-428.617	381.725	0.283	0.580
-427.603	24.285	0.235	-0.194
-426.588	20.284	-0.626	0.504
-425.573	-113.357	0.036	0.007
-424.559	-200.000	-0.195	1.169
-423.544	323.232	0.191	-0.363
-422.530	54.719	0.595	0.572
-421.515	-95.574	-0.506	-0.135
-420.500	477.705	0.233	0.525
-419.486	-140.731	-0.685	0.070
-418.471	-109.330	-0.516	-0.109
-417.457	800.000	0.235	0.891
-416.442	71.791	-0.505	-0.523
-415.428	12.989	0.821	-0.633
-414.413	294.835	0.228	0.416
-413.398	211.347	0.534	0.837
-412.384	-95.248	-0.795	0.213
-411.369	-200.000	-0.039	0.346
-410.355	-200.000	-0.047	0.337
-409.340	490.033	-0.099	0.226
-408.325	-200.000	0.198	1.359
-407.311	-200.000	0.049	-0.709
-406.296	253.041	-0.347	0.589
-405.282	-127.228	-0.768	-0.112
-404.267	-97.496	0.238	-0.062
-403.252	387.667	0.569	1.171
-402.238	276.940	-0.579	-1.024
-401.223	85.411	-0.522	-0.570
-400.209	26.460	0.173	-0.144
-399.194	142.932	0.238	0.315
-398.179	-97.883	0.319	-0.082
-397.165	-200.000	-0.173	-1.088
-396.150	-200.000	0.165	-1.073
-395.136	7.330	0.545	0.405
-394.121	-200.000	-0.053	-0.391
-393.106	-200.000	-0.040	0.538
-392.092	-200.000	0.029	-0.523
-391.077	-90.857	0.518	0.148
-390.063	-147.513	0.111	0.009
-389.048	420.205	0.226	0.481
-388.033	800.000	-0.339	1.338
-387.019	275.111	0.343	-0.605
-386.004	504.983	0.176	0.406
-384.990	464.715	-0.116	-0.258
-383.975	-118.450	0.339	-0.060
-382.960	-11.898	0.214	-0.139
-381.946	-14.810	-0.565	0.361
-380.931	84.198	-0.393	0.427
-379.917	418.588	0.296	0.630
-378.902	429.574	0.300	-0.644
-377.888	800.000	-0.188	0.583
-376.873	-35.920	-0.349	-0.188
-375.858	800.000	-0.144	-0.440
-374.844	-37.489	0.725	-0.385
-373.829	95.211	0.768	-0.870
-372.815	212.734	-0.202	0.316
-371.800	-151.767	0.235	0.017
-370.785	11.994	-0.190	0.145
-369.771	-200.000	0.070	0.707
-368.756	330.841	0.676	1.295
-367.742	124.987	0.200	-0.251
-366.727	205.876	-0.181	-0.280
-365.712	-200.000	0.005	0.378
-364.698	-100.502	0.750	0.184
-363.683	-44.006	0.454	0.227
-362.669	168.578	-0.102	0.144
-361.654	-200.000	0.031	0.151
-360.639	800.000	0.363	-1.045
-359.625	-200.000	-0.004	0.128
-358.610	-167.549	-0.252	-0.010
-357.596	15.757	-0.093	0.073
-356.581	15.285	0.790	0.616
-355.566	-200.000	-0.216	1.206
-354.552	-133.597	-0.287	0.036
-353.537	138.036	-0.376	0.490
-352.523	-75.266	-1.001	-0.355
-351.508	584.193	0.153	-0.374
-350.493	-200.000	-0.089	0.506
-349.479	728.130	0.239	-0.634
-348.464	800.000	0.192	0.642
-347.450	329.319	0.506	0.966
-346.435	-23.479	-0.215	0.128
-345.420	566.026	0.068	-0.164
-344.406	-153.452	-0.072	0.005
-343.391	-200.000	0.159	-0.727
-342.377	-121.182	0.774	-0.129
-341.362	-57.520	0.345	-0.151
-340.348	320.350	-0.259	0.488
-339.333	-13.035	0.310	0.200
-338.318	36.384	-0.479	-0.419
-337.304	149.282	0.287	-0.386
-336.289	-61.652	-0.443	0.184
-335.275	-166.329	0.328	0.014
-334.260	-200.000	-0.007	-0.612
-333.245	800.000	0.205	0.778
-332.231	-106.165	-0.513	0.114
-331.216	-129.129	-0.214	-0.030
-330.202	664.064	-0.256	0.655
-329.187	-81.541	-0.175	-0.057
-328.172	-47.262	-0.098	0.048
-327.158	-92.411	0.396	-0.110
-326.143	-50.110	-0.232	-0.109
-325.129	800.000	0.140	-0.579
-324.114	-8.345	0.793	0.529
-323.099	-33.502	-0.744	0.408
-322.085	-10.972	0.371	-0.243
-321.070	558.765	-0.114	-0.272
-320.056	-30.288	-0.969	0.546
-319.041	748.250	-0.022	0.058
-318.026	732.552	0.120	-0.318
-317.012	-200.000	-0.006	-0.160
-315.997	-200.000	-0.111	0.769
-314.983	-200.000	0.044	0.679
-313.968	-24.861	0.362	-0.213
-312.953	-162.964	0.210	-0.010
-311.939	44.130	0.765	0.696
-310.924	-200.000	-0.054	-0.298
-309.910	-116.971	-0.403	-0.073
-308.895	-16.453	0.331	0.208
-307.880	7.200	-0.547	0.405
-306.866	118.147	0.329	-0.402
-305.851	-4.474	-0.198	-0.136
-304.837	32.574	0.200	0.171
-303.822	-200.000	0.092	-0.461
-302.807	-140.061	-0.575	0.060
-301.793	-200.000	-0.101	0.787
-300.778	800.000	0.320	0.957
-299.764	559.200	-0.168	0.403
-298.749	-200.000	0.147	-0.670
-297.735	-200.000	0.102	-0.600
-296.720	274.090	-0.428	-0.751
-295.705	487.675	-0.175	-0.395
-294.691	-36.175	-1.050	-0.562
-293.676	-33.840	-0.211	0.115
-292.662	-161.551	-0.463	0.024
-291.647	163.442	0.304	-0.424
-290.632	-121.638	0.524	0.086
-289.618	305.612	-0.094	-0.174
-288.603	61.056	-0.283	-0.279
-287.589	-200.000	0.033	0.423
-286.574	-135.992	0.439	0.051
-285.559	330.545	0.135	-0.258
-284.545	111.778	0.415	-0.497
-283.530	-200.000	0.034	0.445
-282.516	-18.110	-0.517	-0.321
-281.501	-78.436	0.316	-0.107
-280.486	96.964	-0.607	-0.689
-279.472	-96.926	0.793	-0.206
-278.457	273.778	0.050	0.087
-277.443	-53.569	0.218	0.099
-276.428	800.000	0.180	0.680
-275.413	357.240	0.161	0.317
-274.399	-35.156	-0.187	-0.101
-273.384	73.512	0.623	-0.646
-272.370	-39.688	-0.289	-0.150
-271.355	87.305	-0.128	0.140
-270.340	-80.524	-0.029	0.009
-269.326	-200.000	0.057	-0.646
-268.311	3.676	-0.159	0.115
-267.297	329.439	0.200	-0.381
-266.282	-30.326	0.370	-0.208
-265.267	111.902	0.475	0.568
-264.253	-115.807	0.870	0.161
-263.238	144.809	-0.795	-1.052
-262.224	-89.580	0.226	0.066
-261.209	-200.000	0.131	0.650
-260.195	23.924	-0.184	0.150
-259.180	-56.044	-0.877	0.387
-258.165	149.248	0.320	0.429
-257.151	-200.000	-0.065	-0.975
-256.136	-200.000	0.005	-0.116
-255.122	64.902	0.384	0.383
-254.107	-200.000	-0.093	0.677
-253.092	478.899	-0.333	-0.747
-252.078	65.047	0.417	0.417
-251.063	-72.106	0.421	-0.155
-250.049	-200.000	0.010	0.168
-249.034	-154.168	0.428	0.029
-248.019	800.000	-0.284	-1.029
-247.005	-3.994	-0.284	-0.195
-245.990	507.350	-0.391	0.897
-244.976	298.839	-0.329	0.598
-243.961	73.383	-0.143	0.148
-242.946	42.539	-0.217	0.195
-241.932	800.000	0.215	-0.607
-240.917	422.565	-0.035	-0.075
-239.903	-200.000	-0.005	-0.336
-238.888	-14.458	-0.366	0.233
-237.873	800.000	0.056	-0.193
-236.859	-81.357	-0.680	-0.222
-235.844	42.639	-0.362	0.326
-234.830	-43.835	-0.543	-0.270
-233.815	243.803	-0.433	-0.718
-232.800	-36.147	0.283	-0.151
-231.786	-87.936	0.295	-0.088
-230.771	-173.743	-0.507	0.015
-229.757	-22.592	-0.575	0.344
-228.742	107.347	0.038	0.045
-227.727	-200.000	0.284	1.605
-226.713	-57.766	-0.158	-0.068
-225.698	-200.000	-0.001	-0.698
-224.684	73.157	-0.670	-0.692
-223.669	136.978	-0.173	0.223
-222.655	374.169	-0.102	-0.205
-221.640	24.629	0.631	-0.516
-220.625	57.312	-0.221	-0.213
-219.611	-51.575	0.868	0.400
-218.596	283.972	0.239	-0.425
-217.582	734.715	0.190	0.502
-216.567	10.139	-0.656	0.493
-215.552	-200.000	0.084	-0.443
-214.538	-104.898	0.342	-0.078
-213.523	-200.000	0.012	-0.281
-212.509	-107.394	-0.690	-0.150
-211.494	800.000	-0.222	0.646
-210.479	34.419	0.482	0.415
-209.465	-18.168	-0.885	0.547
-208.450	485.796	-0.140	-0.316
-207.436	-24.769	-0.709	-0.416
-206.421	-40.627	-0.319	-0.163
-205.406	23.500	0.474	-0.385
-204.392	-53.538	-0.304	0.137
-203.377	173.630	-0.173	0.247
-202.363	-60.926	0.963	0.402
-201.348	143.045	0.333	0.438
-200.333	-138.341	-0.500	0.055
-199.319	-30.487	-0.066	-0.037
-198.304	-0.389	0.129	0.090
-197.290	-200.000	-0.014	-0.650
-196.275	800.000	0.090	0.277
-195.260	-30.950	-0.098	-0.055
-194.246	-41.795	-1.111	0.563
-193.231	-82.987	0.593	0.189
-192.217	169.928	0.616	0.869
-191.202	-200.000	-0.006	-0.549
-190.187	800.000	-0.174	-0.640
-189.173	38.573	0.259	-0.228
-188.158	168.352	0.369	0.518
-187.144	48.126	0.724	0.669
-186.129	14.589	0.784	-0.604
-185.114	93.141	-0.707	-0.789
-184.100	-144.103	0.159	0.015
-183.085	23.364	0.108	0.088
-182.071	277.768	0.153	0.269
-181.056	-100.870	0.482	0.117
-180.042	430.808	0.121	-0.259
-179.027	31.584	-0.471	-0.399
-178.012	-96.865	-0.909	-0.235
-176.998	-73.613	-0.208	-0.075
-175.983	670.652	-0.369	-0.942
-174.969	-80.770	-0.778	-0.255
-173.954	336.044	0.131	0.251
-172.939	-200.000	0.127	0.689
-171.925	800.000	0.156	0.573
-170.910	-94.914	-1.028	0.274
-169.896	-165.777	0.359	-0.015
-168.881	65.630	0.196	-0.195
-167.866	-117.963	0.625	0.110
-166.852	-34.534	-0.351	-0.190
-165.837	-69.212	-0.789	0.299
-164.823	-5.178	0.069	-0.047
-163.808	319.400	0.266	-0.497
-162.793	-68.839	0.286	-0.109
-161.779	-59.172	-0.269	-0.114
-160.764	-147.072	0.628	-0.053
-159.750	85.943	-0.416	0.451
-158.735	634.697	-0.136	0.340
-157.720	-200.000	0.001	-0.230
-156.706	105.814	0.289	-0.337
-155.691	45.630	0.438	0.399
-154.677	-104.027	-0.456	0.105
-153.662	78.133	-0.552	-0.581
-152.647	-72.720	0.891	-0.323
-151.633	800.000	0.184	-0.644
-150.618	-200.000	-0.111	-0.652
-149.604	-185.692	0.305	-0.005
-148.589	66.337	0.403	-0.403
-147.574	-57.709	-0.487	0.210
-146.560	582.189	0.075	-0.181
-145.545	27.804	-0.329	0.273
-144.531	-88.156	0.452	0.133
-143.516	-78.998	0.285	-0.096
-142.502	-200.000	-0.020	-0.450
-141.487	-200.000	-0.157	0.726
-140.472	-43.483	0.468	0.233
-139.458	-75.469	0.447	-0.157
-138.443	-50.430	0.355	-0.165
-137.429	45.258	-0.739	-0.672
-136.414	412.514	-0.292	0.612
-135.399	134.114	-0.520	-0.663
-134.385	10.153	0.202	0.151
-133.370	552.077	0.077	-0.181
-132.356	-44.276	0.754	-0.372
-131.341	317.901	-0.471	0.877
-130.326	-42.596	-0.676	0.339
-129.312	190.326	0.371	-0.548
-128.297	-5.482	1.118	0.755
-127.283	-200.000	-0.135	0.660
-126.268	-200.000	0.033	0.211
-125.253	557.552	-0.204	0.483
-124.239	-200.000	0.050	-0.216
-123.224	195.327	-0.219	-0.327
-122.210	296.713	0.574	-1.037
-121.195	-118.747	-0.751	0.130
-120.180	800.000	-0.188	-0.526
