DTS Sentinel unit serial number:	SN413079Multiplexer serial number:	ORYXHardware model number:	OX4-SRSoftware version number:	ORYX F/W v4.00 Oryx Data Collector v3.7.2.0data status	okinstallation	princeton_trtdifferential loss correction	single-endedforward channel	channel 2reverse channel	N/Adate	2019/09/13time	19:11:35forward acquisition time	60.00reverse acquisition time	0.00gamma	496.2192k internal	0.2328k external	0.2328temperature offset calibration	1.0174default loss term (dB/km)	0.3790temperature slope calibration	1.0000multiplexer offset coefficient	1.0000multiplexer slope coefficient	1.0000fibre end	0.00T internal ref (°C)	31.47T ext. ref 1 (°C)	3.84T ext. ref 2 (°C)	24.83length (m)	temperature (°C)	Stokes	anti-Stokes-747.200	-50.946	-0.253	0.120
-746.185	-56.637	-0.060	-0.027
-745.171	81.868	-0.135	-0.147
-744.156	800.000	-0.071	0.233
-743.142	8.166	-0.244	0.184
-742.127	-136.863	-0.159	-0.018
-741.112	-200.000	-0.015	0.118
-740.098	-200.000	-0.003	0.468
-739.083	-200.000	-0.007	0.160
-738.069	144.666	-0.261	0.352
-737.054	-81.718	-0.336	-0.111
-736.039	309.049	0.188	-0.355
-735.025	-200.000	0.041	0.439
-734.010	-0.041	-0.132	0.095
-732.996	-111.457	-0.251	-0.052
-731.981	-200.000	0.013	-0.107
-730.966	-0.513	0.254	0.182
-729.952	-142.197	-0.203	0.020
-728.937	-14.960	-0.090	-0.058
-727.923	-100.576	-0.463	-0.115
-726.908	139.179	-0.217	0.287
-725.894	175.850	0.167	0.244
-724.879	-200.000	0.021	0.202
-723.864	800.000	-0.053	-0.155
-722.850	-200.000	0.022	0.166
-721.835	-76.460	-0.149	0.053
-720.821	275.677	-0.152	0.272
-719.806	-107.367	-0.285	0.063
-718.791	343.195	-0.074	0.146
-717.777	90.608	-0.172	-0.194
-716.762	-200.000	0.016	-0.165
-715.748	27.559	-0.065	0.055
-714.733	75.558	0.071	-0.075
-713.718	-200.000	-0.034	-0.162
-712.704	-116.788	-0.052	-0.010
-711.689	-95.201	-0.290	-0.079
-710.675	-118.232	-0.282	-0.050
-709.660	-200.000	-0.030	-0.176
-708.645	44.819	-0.138	-0.128
-707.631	53.045	-0.138	-0.132
-706.616	-55.624	0.111	0.050
-705.602	20.197	-0.240	0.195
-704.587	114.682	-0.039	-0.048
-703.572	766.961	-0.093	-0.255
-702.558	-40.229	-0.056	0.029
-701.543	778.591	0.075	0.207
-700.529	-153.758	0.055	0.004
-699.514	443.733	-0.089	0.195
-698.499	-131.266	-0.144	-0.019
-697.485	-161.012	-0.394	-0.021
-696.470	-137.399	-0.275	-0.031
-695.456	-43.754	0.126	0.064
-694.441	1.681	-0.156	0.113
-693.426	127.314	0.022	0.028
-692.412	634.804	-0.068	0.172
-691.397	-7.326	-0.151	-0.103
-690.383	429.250	0.069	0.151
-689.368	-50.500	0.102	-0.048
-688.354	-57.924	-0.240	-0.105
-687.339	143.221	0.183	-0.245
-686.324	103.268	0.291	-0.343
-685.310	24.922	-0.208	-0.173
-684.295	-200.000	-0.001	0.198
-683.281	-200.000	0.020	0.126
-682.266	-124.108	0.292	0.046
-681.251	-200.000	0.051	0.288
-680.237	-124.558	0.298	-0.046
-679.222	-89.060	-0.284	0.084
-678.208	-171.465	-0.038	-0.001
-677.193	353.674	-0.023	-0.047
-676.178	-142.472	0.475	0.047
-675.164	-136.396	-0.420	-0.049
-674.149	26.891	-0.127	-0.107
-673.135	229.251	-0.038	-0.063
-672.120	800.000	-0.091	-0.300
-671.105	-128.282	0.198	-0.028
-670.091	-200.000	0.054	0.320
-669.076	800.000	-0.054	-0.155
-668.062	28.597	0.096	0.082
-667.047	97.921	-0.124	-0.144
-666.032	44.420	0.184	-0.170
-665.018	-155.467	0.237	0.015
-664.003	800.000	-0.013	0.055
-662.989	104.652	0.141	0.167
-661.974	-57.621	-0.232	-0.102
-660.959	-46.422	0.350	-0.173
-659.945	800.000	-0.020	-0.078
-658.930	800.000	0.072	0.250
-657.916	99.229	-0.090	-0.104
-656.901	-200.000	-0.034	-0.291
-655.886	189.038	0.083	0.125
-654.872	-10.366	-0.186	-0.124
-653.857	790.342	-0.084	0.232
-652.843	800.000	-0.049	0.173
-651.828	800.000	-0.094	-0.332
-650.814	-53.296	0.318	0.146
-649.799	119.640	-0.073	0.090
-648.784	800.000	-0.077	0.256
-647.770	-92.655	0.224	0.063
-646.755	104.446	-0.075	-0.088
-645.741	-45.442	-0.191	0.095
-644.726	-200.000	0.035	0.167
-643.711	-53.183	-0.345	-0.159
-642.697	-56.703	0.214	0.095
-641.682	-44.757	0.040	0.020
-640.668	-111.933	-0.198	0.040
-639.653	-123.774	-0.216	0.034
-638.638	-180.633	0.124	-0.003
-637.624	-110.457	0.134	0.028
-636.609	-140.087	0.279	0.029
-635.595	-200.000	0.044	-0.372
-634.580	296.669	-0.130	-0.239
-633.565	44.339	-0.155	0.143
-632.551	-175.912	-0.188	0.005
-631.536	800.000	-0.061	0.182
-630.522	-74.027	-0.412	0.150
-629.507	800.000	-0.098	-0.347
-628.492	-200.000	-0.018	0.125
-627.478	800.000	0.149	-0.545
-626.463	628.062	-0.082	0.207
-625.449	433.517	-0.121	0.264
-624.434	800.000	-0.033	0.118
-623.419	-14.189	-0.107	0.069
-622.405	-119.403	0.438	-0.076
-621.390	800.000	-0.009	0.027
-620.376	-15.917	0.245	0.156
-619.361	800.000	0.077	0.271
-618.346	-200.000	-0.017	-0.151
-617.332	-71.614	0.176	0.066
-616.317	260.583	0.043	-0.075
-615.303	86.594	-0.199	-0.220
-614.288	-19.488	0.118	0.073
-613.273	-200.000	0.003	-0.076
-612.259	17.896	0.099	-0.079
-611.244	-96.933	-0.273	0.072
-610.230	0.291	0.030	-0.021
-609.215	800.000	-0.061	0.259
-608.201	-156.768	-0.660	-0.041
-607.186	-113.664	0.197	-0.038
-606.171	800.000	-0.021	0.086
-605.157	800.000	-0.046	-0.161
-604.142	178.487	-0.168	0.246
-603.128	800.000	0.097	0.333
-602.113	9.826	0.209	0.159
-601.098	800.000	0.099	0.398
-600.084	451.998	0.007	0.015
-599.069	180.148	0.184	0.271
-598.055	80.850	0.117	-0.127
-597.040	800.000	-0.028	-0.078
-596.025	5.791	-0.258	-0.191
-595.011	-200.000	0.015	-0.076
-593.996	-111.826	0.066	0.013
-592.982	-175.560	-0.199	0.005
-591.967	800.000	0.031	0.114
-590.952	-200.000	-0.029	-0.233
-589.938	487.700	0.078	-0.179
-588.923	-200.000	0.005	-0.233
-587.909	-13.911	-0.206	-0.133
-586.894	-200.000	-0.027	-0.313
-585.879	-200.000	0.006	-0.030
-584.865	-120.201	0.254	0.044
-583.850	-200.000	0.003	-0.128
-582.836	5.201	0.070	0.051
-581.821	-165.427	0.186	0.008
-580.806	800.000	-0.069	0.259
-579.792	24.267	0.073	0.061
-578.777	132.891	0.169	-0.218
-577.763	-108.401	-0.073	0.016
-576.748	-37.798	-0.252	-0.134
-575.733	-155.058	0.212	0.014
-574.719	-173.120	-0.451	-0.014
-573.704	20.295	-0.304	-0.245
-572.690	-145.560	-0.277	-0.025
-571.675	-200.000	0.011	-0.398
-570.661	-124.777	0.218	0.034
-569.646	-200.000	-0.015	0.254
-568.631	-111.553	0.094	-0.019
-567.617	174.036	0.140	0.202
-566.602	65.254	-0.015	0.015
-565.588	-200.000	-0.010	0.135
-564.573	42.717	-0.115	-0.105
-563.558	53.880	0.220	-0.211
-562.544	119.679	0.201	0.249
-561.529	-55.130	-0.112	-0.050
-560.515	207.871	-0.202	-0.316
-559.500	800.000	0.053	-0.222
-558.485	512.507	0.092	-0.216
-557.471	105.600	0.167	-0.198
-556.456	99.135	-0.215	0.249
-555.442	-98.217	-0.151	-0.039
-554.427	61.960	0.101	-0.100
-553.412	-200.000	0.073	-0.395
-552.398	7.267	0.211	0.158
-551.383	-140.372	-0.159	0.017
-550.369	-26.542	0.116	-0.068
-549.354	267.015	0.080	0.139
-548.339	267.145	0.020	-0.035
-547.325	90.875	-0.040	-0.045
-546.310	327.148	0.055	0.105
-545.296	364.569	-0.098	0.198
-544.281	227.721	0.118	0.192
-543.266	800.000	-0.039	-0.123
-542.252	-200.000	-0.007	0.184
-541.237	623.279	0.140	0.352
-540.223	285.572	-0.080	-0.145
-539.208	-200.000	0.147	-0.000
-538.193	69.006	0.224	-0.230
-537.179	-200.000	-0.017	-0.346
-536.164	-3.604	-0.135	0.094
-535.150	-200.000	-0.094	-0.472
-534.135	473.031	-0.116	-0.262
-533.121	-125.020	0.048	-0.007
-532.106	-200.000	-0.025	0.213
-531.091	58.130	-0.082	0.080
-530.077	800.000	-0.068	-0.193
-529.062	-27.939	0.531	0.307
-528.048	-169.139	-0.270	0.010
-527.033	-200.000	-0.011	0.164
-526.018	-200.000	0.004	-0.341
-525.004	-200.000	-0.346	0.001
-523.989	-200.000	-0.046	0.239
-522.975	-1.257	0.162	-0.114
-521.960	-200.000	0.027	0.250
-520.945	-147.271	-0.319	0.027
-519.931	800.000	-0.058	0.252
-518.916	-17.798	0.102	0.064
-517.902	-89.636	0.439	0.129
-516.887	800.000	-0.052	-0.152
-515.872	-121.913	0.437	-0.072
-514.858	-200.000	-0.003	-0.022
-513.843	-124.520	0.450	-0.070
-512.829	32.605	0.112	0.097
-511.814	-145.107	0.081	0.007
-510.799	44.586	0.145	0.133
-509.785	3.548	0.154	0.112
-508.770	-161.140	-0.145	0.008
-507.756	29.248	0.154	-0.131
-506.741	36.228	-0.052	-0.046
-505.726	-200.000	0.088	0.391
-504.712	-69.638	0.278	0.106
-503.697	800.000	0.101	0.344
-502.683	22.722	-0.123	0.101
-501.668	-200.000	-0.000	-0.118
-500.653	102.597	-0.148	-0.172
-499.639	-157.645	0.074	0.004
-498.624	-65.473	-0.170	0.068
-497.610	-18.187	-0.193	-0.121
-496.595	800.000	-0.028	0.119
-495.581	-31.204	-0.172	-0.097
-494.566	-200.000	0.082	-0.389
-493.551	-160.854	0.061	0.003
-492.537	33.259	0.032	0.027
-491.522	58.807	0.183	0.180
-490.508	305.280	-0.030	-0.056
-489.493	46.749	0.295	0.274
-488.478	-200.000	-0.036	0.212
-487.464	28.194	-0.140	-0.118
-486.449	-126.241	-0.114	-0.017
-485.435	-109.380	-0.167	-0.035
-484.420	-200.000	-0.004	0.403
-483.405	436.281	-0.072	-0.156
-482.391	-53.423	-0.192	-0.088
-481.376	513.359	0.158	-0.367
-480.362	-86.586	-0.050	-0.015
-479.347	37.032	0.207	-0.183
-478.332	215.151	-0.219	-0.347
-477.318	-125.855	-0.329	0.049
-476.303	-200.000	-0.016	0.093
-475.289	-200.000	0.034	0.178
-474.274	-74.325	-0.087	0.031
-473.259	800.000	-0.026	0.081
-472.245	-105.910	-0.043	0.010
-471.230	78.568	0.020	-0.021
-470.216	-200.000	-0.021	0.210
-469.201	386.317	-0.183	-0.377
-468.186	53.914	-0.168	0.161
-467.172	79.831	0.337	-0.361
-466.157	31.407	0.187	-0.160
-465.143	-55.090	-0.090	-0.040
-464.128	-200.000	0.015	0.257
-463.113	-98.759	-0.127	0.032
-462.099	95.674	0.223	-0.254
-461.084	20.597	-0.361	-0.291
-460.070	-160.044	-0.199	0.011
-459.055	-200.000	-0.020	-0.089
-458.040	-200.000	0.062	-0.330
-457.026	-104.862	-0.373	0.085
-456.011	-200.000	-0.018	0.499
-454.997	-114.983	0.251	-0.048
-453.982	79.516	-0.132	0.141
-452.968	-200.000	0.001	0.017
-451.953	19.682	0.157	0.126
-450.938	140.803	0.261	-0.343
-449.924	-111.089	-0.142	-0.029
-448.909	-40.097	0.181	0.094
-447.895	705.150	0.047	-0.123
-446.880	800.000	0.013	0.042
-445.865	54.721	0.093	0.089
-444.851	55.712	0.187	0.180
-443.836	-51.215	-0.156	0.073
-442.822	380.170	0.097	-0.198
-441.807	-143.914	-0.175	0.016
-440.792	17.802	-0.237	0.188
-439.778	-99.153	0.272	0.069
-438.763	-116.031	0.047	0.009
-437.749	-159.405	0.085	0.005
-436.734	-71.638	-0.212	-0.079
-435.719	367.409	0.185	0.372
-434.705	-140.125	0.271	0.028
-433.690	800.000	0.015	0.048
-432.676	800.000	-0.036	-0.121
-431.661	276.726	-0.227	-0.401
-430.646	189.238	-0.101	-0.151
-429.632	-142.993	-0.074	0.007
-428.617	10.439	-0.206	0.156
-427.603	-8.371	-0.067	-0.045
-426.588	-37.516	-0.173	0.092
-425.573	149.993	-0.075	0.101
-424.559	800.000	0.066	0.184
-423.544	322.299	0.193	-0.365
-422.530	211.933	-0.133	0.209
-421.515	205.001	0.130	-0.201
-420.500	-165.967	-0.539	-0.023
-419.486	162.077	-0.046	-0.064
-418.471	150.721	-0.115	0.155
-417.457	233.415	-0.024	-0.040
-416.442	-200.000	-0.034	0.267
-415.428	-86.932	0.081	0.025
-414.413	800.000	0.088	-0.324
-413.398	800.000	-0.092	-0.333
-412.384	800.000	0.077	0.214
-411.369	800.000	-0.082	0.253
-410.355	-200.000	0.002	0.020
-409.340	141.479	0.295	-0.389
-408.325	465.859	0.197	0.439
-407.311	241.122	0.032	0.052
-406.296	-117.480	-0.120	0.022
-405.282	-200.000	-0.029	-0.169
-404.267	-200.000	-0.013	-0.265
-403.252	3.734	0.112	-0.081
-402.238	-200.000	-0.022	-0.125
-401.223	800.000	0.032	-0.091
-400.209	-38.464	0.182	-0.096
-399.194	106.058	0.237	0.278
-398.179	-200.000	0.021	0.112
-397.165	203.318	-0.064	-0.098
-396.150	-4.145	-0.228	-0.157
-395.136	-26.503	-0.278	-0.162
-394.121	242.501	-0.212	-0.353
-393.106	-24.932	0.253	0.149
-392.092	-51.265	0.242	0.113
-391.077	-200.000	0.002	0.270
-390.063	0.569	-0.315	0.224
-389.048	-39.982	0.177	-0.092
-388.033	-200.000	-0.021	-0.212
-387.019	110.472	-0.219	0.261
-386.004	-39.067	-0.101	0.053
-384.990	239.403	-0.159	0.262
-383.975	800.000	-0.030	0.116
-382.960	15.004	-0.050	0.039
-381.946	196.441	0.040	-0.060
-380.931	376.620	-0.042	0.085
-379.917	454.718	-0.118	-0.259
-378.902	29.394	0.106	0.090
-377.888	-200.000	0.053	0.333
-376.873	-59.796	0.174	0.074
-375.858	-200.000	-0.011	-0.209
-374.844	-68.167	-0.173	-0.067
-373.829	-37.432	-0.629	-0.334
-372.815	800.000	0.088	0.285
-371.800	23.854	-0.056	-0.046
-370.785	694.576	-0.055	0.144
-369.771	-200.000	0.004	0.053
-368.756	75.973	0.063	0.066
-367.742	205.325	-0.211	0.326
-366.727	-4.319	-0.307	-0.211
-365.712	772.744	0.063	0.172
-364.698	70.475	-0.234	-0.240
-363.683	48.854	0.055	-0.051
-362.669	38.949	-0.178	0.158
-361.654	-92.525	0.098	-0.027
-360.639	15.549	-0.208	-0.162
-359.625	196.250	0.181	-0.274
-358.610	-77.517	0.091	-0.031
-357.596	-49.392	-0.087	0.041
-356.581	-106.804	-0.085	0.019
-355.566	-44.921	0.287	-0.142
-354.552	-200.000	0.027	-0.230
-353.537	53.186	-0.113	0.107
-352.523	6.362	0.142	0.105
-351.508	678.069	-0.156	-0.403
-350.493	14.783	-0.194	0.150
-349.479	-36.603	-0.211	-0.113
-348.464	-200.000	0.002	0.063
-347.450	9.027	0.313	0.235
-346.435	-157.286	0.101	0.006
-345.420	-146.833	0.473	0.040
-344.406	377.892	0.132	-0.268
-343.391	36.532	0.117	0.102
-342.377	66.539	-0.216	0.218
-341.362	11.383	0.061	-0.046
-340.348	-105.679	-0.170	-0.038
-339.333	-60.794	-0.355	0.149
-338.318	-200.000	-0.004	0.192
-337.304	-35.482	0.243	-0.131
-336.289	-11.707	0.129	-0.084
-335.275	-200.000	-0.006	-0.148
-334.260	341.394	0.231	0.448
-333.245	-77.992	-0.148	-0.050
-332.231	451.689	0.110	-0.240
-331.216	81.802	-0.259	0.278
-330.202	84.166	-0.179	-0.194
-329.187	127.794	0.133	0.167
-328.172	-37.540	0.139	-0.074
-327.158	-2.782	-0.112	-0.078
-326.143	-108.191	0.110	0.024
-325.129	800.000	0.006	-0.016
-324.114	-18.157	-0.024	-0.015
-323.099	-101.933	-0.221	0.053
-322.085	-10.130	0.097	-0.064
-321.070	800.000	0.037	-0.123
-320.056	-93.129	0.036	-0.010
-319.041	73.358	-0.053	-0.055
-318.026	800.000	0.087	0.299
-317.012	-52.274	-0.366	-0.168
-315.997	-121.967	-0.400	-0.065
-314.983	-200.000	-0.038	0.411
-313.968	52.941	-0.175	0.166
-312.953	-80.632	0.114	-0.037
-311.939	214.362	-0.139	0.217
-310.924	84.640	0.282	0.306
-309.910	297.263	0.052	0.094
-308.895	-157.945	-0.278	0.016
-307.880	800.000	0.083	0.279
-306.866	-200.000	-0.014	0.299
-305.851	-68.088	0.095	0.037
-304.837	-55.981	0.172	0.076
-303.822	-105.798	-0.205	0.046
-302.807	343.924	0.094	-0.182
-301.793	-192.732	-0.134	-0.001
-300.778	-35.056	0.155	-0.084
-299.764	143.924	-0.134	-0.176
-298.749	800.000	0.072	-0.226
-297.735	792.562	-0.132	0.360
-296.720	-29.611	-0.346	-0.196
-295.705	0.640	0.318	0.225
-294.691	-124.833	0.155	0.024
-293.676	-133.619	-0.153	0.019
-292.662	67.420	-0.060	0.061
-291.647	114.840	0.130	-0.157
-290.632	-89.255	-0.153	0.045
-289.618	-121.981	-0.035	-0.006
-288.603	7.163	0.165	0.122
-287.589	-79.624	0.270	0.090
-286.574	43.684	0.117	0.106
-285.559	244.422	0.037	0.062
-284.545	-105.227	0.161	-0.036
-283.530	-200.000	-0.004	0.070
-282.516	-142.499	-0.066	-0.006
-281.501	102.207	0.295	-0.342
-280.486	18.160	0.204	-0.161
-279.472	90.675	0.059	0.066
-278.457	75.623	-0.291	-0.304
-277.443	-200.000	-0.036	-0.172
-276.428	440.543	0.068	-0.146
-275.413	-78.746	0.220	0.074
-274.399	-200.000	0.012	0.079
-273.384	-200.000	0.007	-0.141
-272.370	468.441	0.065	-0.144
-271.355	257.234	0.054	-0.092
-270.340	-200.000	-0.018	0.119
-269.326	800.000	0.137	0.524
-268.311	-54.844	-0.064	0.029
-267.297	800.000	-0.035	0.118
-266.282	72.512	0.108	-0.112
-265.267	0.236	-0.124	0.088
-264.253	87.653	-0.067	-0.074
-263.238	800.000	-0.016	0.060
-262.224	-200.000	-0.013	-0.135
-261.209	800.000	0.096	-0.297
-260.195	221.867	0.064	-0.101
-259.180	-105.869	-0.451	0.101
-258.165	503.123	-0.222	0.509
-257.151	96.016	0.207	0.233
-256.136	-200.000	-0.019	-0.239
-255.122	339.896	-0.152	-0.292
-254.107	71.628	-0.062	0.063
-253.092	-100.706	0.135	-0.033
-252.078	-23.008	-0.211	-0.126
-251.063	-36.074	0.203	0.109
-250.049	145.308	0.110	-0.145
-249.034	18.657	0.134	-0.106
-248.019	43.662	0.392	0.354
-247.005	-200.000	0.010	0.104
-245.990	34.973	-0.278	0.240
-244.976	239.576	-0.188	0.308
-243.961	800.000	0.052	-0.167
-242.946	-13.729	0.205	-0.131
-241.932	22.323	-0.081	-0.066
-240.917	800.000	-0.032	-0.107
-239.903	800.000	-0.076	0.235
-238.888	-38.892	-0.119	-0.062
-237.873	-2.577	0.274	-0.190
-236.859	-131.417	-0.130	-0.017
-235.844	138.571	0.151	0.196
-234.830	15.799	0.313	-0.243
-233.815	162.228	0.185	-0.256
-232.800	-61.075	-0.328	0.137
-231.786	-52.860	0.200	0.091
-230.771	92.376	0.174	-0.193
-229.757	59.205	-0.175	-0.170
-228.742	395.446	0.226	-0.465
-227.727	-45.645	-0.397	-0.194
-226.713	-81.288	-0.045	0.015
-225.698	96.921	-0.179	-0.203
-224.684	31.042	0.197	-0.167
-223.669	-90.892	-0.085	0.024
-222.655	-136.383	0.182	-0.021
-221.640	531.803	0.055	0.127
-220.625	51.344	-0.074	-0.069
-219.611	-51.641	0.046	-0.021
-218.596	689.488	0.048	0.125
-217.582	-32.245	0.159	-0.088
-216.567	216.941	-0.026	0.041
-215.552	-151.656	0.191	0.014
-214.538	-200.000	-0.009	-0.120
-213.523	102.737	-0.077	0.089
-212.509	130.055	-0.114	0.144
-211.494	800.000	-0.058	0.165
-210.479	-21.732	-0.097	-0.058
-209.465	-53.024	0.145	0.066
-208.450	65.511	0.165	-0.165
-207.436	-67.208	-0.275	0.107
-206.421	574.777	-0.029	0.069
-205.406	-94.618	0.033	-0.009
-204.392	800.000	-0.120	-0.340
-203.377	11.491	0.242	0.183
-202.363	489.594	0.084	0.188
-201.348	-200.000	0.027	-0.178
-200.333	-161.970	0.425	0.021
-199.319	-16.948	-0.205	-0.128
-198.304	-73.708	-0.258	0.093
-197.290	-107.973	-0.125	-0.027
-196.275	324.129	0.104	-0.195
-195.260	275.184	-0.108	-0.190
-194.246	-130.563	0.279	-0.037
-193.231	-41.727	0.242	-0.123
-192.217	151.277	0.109	0.147
-191.202	-50.746	0.137	0.064
-190.187	515.704	0.116	-0.268
-189.173	800.000	-0.049	0.190
-188.158	-113.124	0.327	0.064
-187.144	-5.342	0.099	0.067
-186.129	176.331	0.057	0.081
-185.114	-153.838	-0.067	0.005
-184.100	72.840	-0.155	-0.160
-183.085	33.250	0.119	0.102
-182.071	-123.472	0.183	0.029
-181.056	-200.000	-0.100	0.439
-180.042	221.667	-0.206	-0.326
-179.027	-200.000	-0.001	-0.342
-178.012	459.991	-0.111	-0.243
-176.998	-36.742	0.360	0.191
-175.983	206.828	-0.180	0.276
-174.969	149.813	0.182	0.243
-173.954	-93.395	-0.271	0.074
-172.939	-96.407	-0.125	-0.033
-171.925	-200.000	0.041	-0.196
-170.910	-42.178	0.249	-0.125
-169.896	-74.077	-0.057	-0.020
-168.881	90.137	-0.353	0.389
-167.866	-156.629	0.190	-0.012
-166.852	-6.070	-0.274	-0.184
-165.837	51.439	-0.135	0.127
-164.823	-156.215	0.293	-0.018
-163.808	488.217	-0.061	-0.138
-162.793	-150.891	0.222	-0.017
-161.779	-59.229	-0.158	-0.067
-160.764	124.443	0.277	0.343
-159.750	-125.845	0.054	-0.008
-158.735	-200.000	-0.056	-0.278
-157.720	-173.972	-0.301	0.009
-156.706	-65.456	0.094	0.037
-155.691	800.000	-0.009	0.038
-154.677	-147.209	0.146	0.012
-153.662	70.856	-0.111	-0.113
-152.647	101.218	0.194	0.222
-151.633	-74.928	0.230	0.081
-150.618	-89.685	0.083	-0.024
-149.604	800.000	0.068	-0.251
-148.589	208.141	0.128	0.197
-147.574	270.724	-0.112	-0.194
-146.560	-137.058	-0.081	-0.009
-145.545	30.807	0.206	0.174
-144.531	-104.110	0.296	-0.068
-143.516	-63.002	-0.278	0.113
-142.502	-80.848	0.141	-0.046
-141.487	498.227	-0.092	0.208
-140.472	-200.000	0.003	0.196
-139.458	-135.206	-0.214	-0.025
-138.443	68.028	-0.155	0.156
-137.429	83.778	0.118	0.126
-136.414	800.000	-0.084	-0.337
-135.399	98.636	-0.071	0.080
-134.385	292.170	-0.096	-0.171
-133.370	-41.410	-0.241	0.122
-132.356	-169.936	-0.390	0.014
-131.341	58.259	-0.065	0.063
-130.326	800.000	-0.076	-0.217
-129.312	97.540	-0.128	-0.145
-128.297	94.352	0.346	0.386
-127.283	-49.972	-0.179	0.083
-126.268	800.000	-0.072	-0.244
-125.253	657.147	-0.045	-0.115
-124.239	-112.514	0.184	-0.036
-123.224	377.806	0.227	-0.457
-122.210	286.186	0.035	-0.063
-121.195	341.832	0.208	0.399
