DTS Sentinel unit serial number:	SN413079Multiplexer serial number:	ORYXHardware model number:	OX4-SRSoftware version number:	ORYX F/W v4.00 Oryx Data Collector v3.7.2.0data status	okinstallation	princeton_trtdifferential loss correction	single-endedforward channel	channel 2reverse channel	N/Adate	2019/09/17time	04:31:35forward acquisition time	60.00reverse acquisition time	0.00gamma	496.2192k internal	0.2328k external	0.2328temperature offset calibration	0.9979default loss term (dB/km)	0.3790temperature slope calibration	1.0000multiplexer offset coefficient	1.0000multiplexer slope coefficient	1.0000fibre end	0.00T internal ref (°C)	29.69T ext. ref 1 (°C)	0.13T ext. ref 2 (°C)	24.13length (m)	temperature (°C)	Stokes	anti-Stokes-747.200	-131.430	-0.283	-0.038
-746.185	215.793	-0.095	0.152
-745.171	-200.000	0.079	0.493
-744.156	-200.000	0.021	0.134
-743.142	6.603	-0.210	-0.157
-742.127	-200.000	0.001	-0.046
-741.112	84.575	-0.123	0.135
-740.098	-200.000	-0.041	0.272
-739.083	-200.000	-0.046	0.352
-738.069	53.405	-0.142	0.137
-737.054	56.408	0.086	0.084
-736.039	68.433	-0.385	-0.398
-735.025	170.689	0.099	-0.143
-734.010	238.108	-0.137	-0.230
-732.996	-175.504	-0.364	0.010
-731.981	-200.000	0.007	0.370
-730.966	271.963	-0.065	0.115
-729.952	800.000	-0.026	-0.112
-728.937	56.698	-0.121	0.118
-727.923	-61.722	-0.356	0.150
-726.908	-200.000	-0.087	-0.404
-725.894	-27.714	0.110	0.065
-724.879	-70.231	-0.212	0.081
-723.864	-90.440	0.100	-0.029
-722.850	390.835	-0.139	-0.289
-721.835	110.447	0.238	-0.287
-720.821	-200.000	0.010	-0.149
-719.806	320.447	-0.220	-0.422
-718.791	800.000	0.140	-0.412
-717.777	800.000	0.090	-0.292
-716.762	218.643	0.065	0.105
-715.748	-200.000	0.018	0.086
-714.733	340.499	-0.013	-0.026
-713.718	-79.383	-0.113	-0.038
-712.704	-14.423	-0.256	-0.166
-711.689	99.518	0.083	-0.097
-710.675	3.224	0.199	0.146
-709.660	-200.000	-0.030	0.222
-708.645	800.000	-0.094	-0.264
-707.631	-200.000	0.021	-0.224
-706.616	5.140	-0.234	-0.174
-705.602	800.000	-0.100	-0.300
-704.587	250.218	-0.212	-0.363
-703.572	96.459	-0.114	-0.131
-702.558	-200.000	0.024	-0.149
-701.543	245.371	0.137	-0.231
-700.529	-45.650	-0.190	0.095
-699.514	-55.199	-0.118	0.053
-698.499	688.619	0.069	0.181
-697.485	-90.275	0.258	-0.075
-696.470	-31.959	0.267	-0.150
-695.456	-3.018	0.066	-0.046
-694.441	-17.123	-0.396	0.251
-693.426	-85.812	-0.129	-0.040
-692.412	-200.000	0.068	-0.369
-691.397	53.222	0.393	-0.379
-690.383	-87.082	-0.407	-0.125
-689.368	-67.235	-0.524	-0.208
-688.354	-70.993	-0.232	-0.088
-687.339	537.828	-0.096	0.229
-686.324	-8.155	0.362	-0.245
-685.310	-200.000	-0.260	-0.000
-684.295	-114.076	-0.285	0.056
-683.281	-124.290	0.085	0.013
-682.266	-200.000	0.009	0.134
-681.251	-200.000	0.008	-0.143
-680.237	148.380	0.073	-0.099
-679.222	76.308	-0.130	0.138
-678.208	-200.000	0.029	-0.146
-677.193	-22.643	0.256	-0.155
-676.178	55.912	-0.125	-0.122
-675.164	-200.000	0.083	-0.367
-674.149	30.565	-0.061	-0.053
-673.135	197.433	0.190	-0.292
-672.120	89.023	-0.171	-0.191
-671.105	800.000	-0.118	-0.357
-670.091	-122.592	0.430	0.070
-669.076	17.419	-0.148	0.118
-668.062	143.811	0.148	0.199
-667.047	800.000	0.105	0.296
-666.032	47.733	0.321	-0.301
-665.018	205.708	-0.100	-0.156
-664.003	-200.000	0.072	-0.444
-662.989	-49.552	-0.223	0.107
-661.974	-39.173	0.169	-0.089
-660.959	-4.379	-0.076	0.053
-659.945	-102.008	0.153	-0.037
-658.930	139.396	-0.086	-0.113
-657.916	53.736	-0.172	-0.166
-656.901	800.000	-0.087	-0.252
-655.886	-8.161	-0.483	0.327
-654.872	-37.211	0.197	-0.106
-653.857	-68.629	-0.201	0.078
-652.843	-200.000	-0.066	-0.423
-651.828	28.012	-0.092	0.078
-650.814	-26.572	-0.150	-0.088
-649.799	-30.241	-0.160	0.091
-648.784	-74.810	-0.109	-0.039
-647.770	-58.463	-0.273	0.119
-646.755	-17.857	0.317	0.200
-645.741	-200.000	-0.036	0.261
-644.726	528.194	-0.082	0.195
-643.711	-200.000	0.031	0.233
-642.697	-113.607	-0.189	0.037
-641.682	-125.056	-0.247	0.038
-640.668	-79.496	0.059	-0.020
-639.653	800.000	-0.083	-0.301
-638.638	-49.438	0.341	-0.163
-637.624	419.583	-0.072	0.155
-636.609	-86.692	-0.262	-0.081
-635.595	199.980	0.172	-0.266
-634.580	-200.000	-0.024	-0.278
-633.565	10.527	0.079	-0.060
-632.551	800.000	-0.052	0.186
-631.536	-21.245	0.238	-0.146
-630.522	74.246	0.144	-0.152
-629.507	-30.953	0.129	0.073
-628.492	800.000	-0.140	-0.411
-627.478	-135.836	-0.216	0.026
-626.463	226.820	-0.201	-0.328
-625.449	-200.000	0.025	0.123
-624.434	-98.843	0.280	-0.071
-623.419	800.000	0.039	0.133
-622.405	800.000	0.051	-0.171
-621.390	78.747	-0.275	0.295
-620.376	800.000	-0.039	0.118
-619.361	442.525	-0.115	0.254
-618.346	-93.577	0.067	0.019
-617.332	-85.436	0.346	0.108
-616.317	-1.104	-0.138	-0.098
-615.303	-85.142	-0.122	-0.038
-614.288	-40.715	-0.236	0.122
-613.273	-94.021	-0.130	-0.036
-612.259	265.772	-0.159	-0.279
-611.244	46.401	-0.290	-0.270
-610.230	-76.865	0.267	0.093
-609.215	800.000	-0.039	-0.167
-608.201	800.000	0.110	0.437
-607.186	64.786	-0.181	0.183
-606.171	-6.449	0.143	0.098
-605.157	-99.327	0.291	0.074
-604.142	245.656	-0.053	0.089
-603.128	449.628	0.140	-0.310
-602.113	-0.958	-0.125	0.089
-601.098	-155.764	-0.261	-0.017
-600.084	-102.618	0.352	-0.084
-599.069	125.957	0.151	0.191
-598.055	-200.000	-0.011	-0.063
-597.040	-21.406	-0.146	-0.089
-596.025	16.697	-0.156	-0.124
-595.011	89.339	-0.160	-0.179
-593.996	-86.585	0.350	-0.108
-592.982	-98.984	-0.210	0.053
-591.967	28.577	0.097	-0.082
-590.952	13.901	0.189	-0.147
-589.938	108.580	0.039	0.047
-588.923	-83.168	-0.290	-0.093
-587.909	176.697	0.046	-0.067
-586.894	97.121	-0.096	0.110
-585.879	800.000	0.057	-0.237
-584.865	5.248	-0.058	0.043
-583.850	-64.731	0.177	-0.072
-582.836	86.450	0.218	0.241
-581.821	-24.810	-0.106	0.063
-580.806	-122.955	-0.195	-0.031
-579.792	-107.293	-0.207	-0.046
-578.777	174.186	-0.079	0.115
-577.763	501.910	0.035	-0.081
-576.748	-57.474	0.023	0.010
-575.733	-53.764	-0.175	-0.080
-574.719	233.986	0.089	0.147
-573.704	-151.458	0.382	-0.028
-572.690	-106.570	-0.228	-0.051
-571.675	-144.468	-0.391	-0.036
-570.661	800.000	-0.012	-0.048
-569.646	441.701	-0.068	-0.150
-568.631	148.198	0.044	-0.059
-567.617	800.000	-0.074	0.271
-566.602	-169.213	-0.101	0.004
-565.588	-51.965	-0.040	-0.018
-564.573	-200.000	0.019	-0.249
-563.558	-64.536	-0.223	-0.091
-562.544	-108.453	-0.121	-0.026
-561.529	-4.321	0.180	0.125
-560.515	-111.924	-0.132	0.027
-559.500	-108.110	-0.322	0.070
-558.485	-142.963	0.120	0.012
-557.471	800.000	0.052	0.206
-556.456	-67.840	0.236	0.092
-555.442	-155.879	0.390	-0.025
-554.427	375.264	-0.049	-0.100
-553.412	-65.465	0.361	-0.145
-552.398	-71.852	0.071	-0.027
-551.383	800.000	0.057	-0.215
-550.369	-160.285	0.325	0.018
-549.354	191.611	-0.111	-0.167
-548.339	566.824	-0.030	-0.072
-547.325	-149.797	0.192	-0.015
-546.310	60.309	-0.044	-0.044
-545.296	161.155	0.010	-0.014
-544.281	-124.144	-0.239	0.037
-543.266	-21.773	-0.193	-0.117
-542.252	-200.000	-0.000	-0.035
-541.237	-68.558	0.233	0.090
-540.223	800.000	-0.057	0.242
-539.208	-200.000	0.021	-0.108
-538.193	-200.000	-0.013	0.106
-537.179	-103.277	-0.127	-0.030
-536.164	59.843	0.174	-0.172
-535.150	-120.582	-0.256	-0.043
-534.135	-14.939	-0.062	-0.040
-533.121	14.148	-0.049	-0.038
-532.106	-138.883	0.135	-0.015
-531.091	32.818	0.084	0.073
-530.077	-84.122	0.115	-0.037
-529.062	-200.000	-0.019	0.175
-528.048	29.883	0.119	-0.102
-527.033	-23.371	-0.157	0.095
-526.018	-20.255	-0.171	0.105
-525.004	73.464	0.122	0.127
-523.989	146.356	0.159	-0.213
-522.975	-72.914	0.309	0.114
-521.960	-87.512	-0.292	-0.088
-520.945	35.597	0.260	0.228
-519.931	554.243	0.110	-0.264
-518.916	-169.468	-0.290	-0.011
-517.902	554.310	-0.144	0.347
-516.887	47.564	0.192	-0.179
-515.872	-77.432	-0.230	0.080
-514.858	738.168	0.087	-0.234
-513.843	35.883	0.128	0.113
-512.829	800.000	-0.054	0.151
-511.814	57.825	-0.181	0.177
-510.799	-200.000	0.009	0.103
-509.785	800.000	-0.068	-0.247
-508.770	-200.000	0.032	-0.182
-507.756	-200.000	-0.004	0.083
-506.741	154.040	-0.217	0.297
-505.726	800.000	0.046	-0.161
-504.712	1.619	0.053	-0.038
-503.697	711.793	-0.144	0.379
-502.683	-200.000	-0.003	0.032
-501.668	-200.000	0.069	0.358
-500.653	-51.352	0.210	0.098
-499.639	-117.000	-0.404	-0.074
-498.624	9.801	0.038	-0.029
-497.610	166.525	-0.043	-0.061
-496.595	58.795	0.250	0.246
-495.581	567.907	-0.155	0.375
-494.566	-27.454	-0.118	0.068
-493.551	-14.571	0.101	0.065
-492.537	-62.321	0.195	0.081
-491.522	150.703	0.144	-0.195
-490.508	-59.098	-0.284	0.122
-489.493	-155.251	0.155	-0.010
-488.478	-122.771	0.349	0.056
-487.464	74.633	0.143	-0.150
-486.449	-47.304	-0.207	-0.101
-485.435	800.000	0.092	-0.255
-484.420	137.847	0.152	-0.199
-483.405	-200.000	0.018	0.226
-482.391	-200.000	0.008	-0.303
-481.376	35.936	0.153	-0.134
-480.362	508.482	-0.018	-0.041
-479.347	-48.210	0.093	-0.045
-478.332	484.607	0.110	0.249
-477.318	800.000	-0.071	-0.198
-476.303	150.057	0.160	-0.216
-475.289	70.458	0.176	-0.181
-474.274	800.000	0.119	0.385
-473.259	-200.000	0.044	-0.480
-472.245	800.000	0.037	-0.105
-471.230	-200.000	-0.033	0.489
-470.216	305.146	0.043	-0.079
-469.201	70.299	-0.075	0.077
-468.186	246.049	0.155	0.261
-467.172	90.164	0.211	0.235
-466.157	51.862	0.075	-0.071
-465.143	-125.142	-0.104	0.016
-464.128	-33.993	0.298	-0.163
-463.113	800.000	0.055	-0.203
-462.099	-81.806	-0.220	0.072
-461.084	146.649	0.217	-0.291
-460.070	800.000	-0.048	-0.170
-459.055	-47.078	-0.181	-0.088
-458.040	579.109	0.048	-0.117
-457.026	800.000	0.047	0.136
-456.011	167.497	-0.079	0.111
-454.997	-61.478	-0.366	0.153
-453.982	-200.000	0.041	0.203
-452.968	800.000	-0.138	0.392
-451.953	-200.000	-0.048	-0.259
-450.938	690.349	-0.013	-0.034
-449.924	-200.000	-0.003	0.030
-448.909	-44.483	-0.154	-0.077
-447.895	84.087	0.067	0.073
-446.880	-179.125	0.134	0.003
-445.865	-200.000	-0.014	-0.176
-444.851	24.644	-0.214	-0.177
-443.836	-150.426	-0.360	0.028
-442.822	-138.495	-0.274	-0.030
-441.807	518.873	0.143	-0.333
-440.792	26.631	-0.125	0.104
-439.778	194.590	-0.105	0.159
-438.763	-200.000	-0.068	-0.509
-437.749	180.899	0.161	0.235
-436.734	344.725	0.046	-0.091
-435.719	-200.000	-0.030	-0.174
-434.705	146.755	0.210	-0.281
-433.690	-38.737	-0.063	-0.033
-432.676	-200.000	-0.027	-0.191
-431.661	-200.000	0.018	0.086
-430.646	-4.793	0.155	-0.107
-429.632	212.700	-0.096	0.151
-428.617	800.000	-0.013	-0.042
-427.603	-200.000	0.025	0.157
-426.588	-174.206	-0.160	0.005
-425.573	-200.000	0.002	0.056
-424.559	-86.592	0.213	-0.065
-423.544	-200.000	-0.042	0.319
-422.530	-71.823	0.117	-0.043
-421.515	-143.197	-0.063	0.006
-420.500	46.176	-0.114	0.105
-419.486	4.925	-0.158	-0.116
-418.471	-111.261	-0.094	0.019
-417.457	-59.515	0.402	-0.172
-416.442	800.000	-0.031	-0.125
-415.428	-82.526	-0.103	0.033
-414.413	223.642	0.039	0.062
-413.398	-49.371	0.259	-0.123
-412.384	800.000	0.039	-0.119
-411.369	-114.567	0.168	0.032
-410.355	316.452	-0.072	0.135
-409.340	250.292	-0.188	0.318
-408.325	-66.757	-0.117	-0.046
-407.311	95.864	0.073	0.083
-406.296	375.937	0.082	0.166
-405.282	0.081	-0.273	0.194
-404.267	62.909	-0.134	-0.133
-403.252	12.198	-0.264	0.202
-402.238	-73.773	-0.374	-0.135
-401.223	258.968	0.224	0.385
-400.209	-200.000	-0.000	0.189
-399.194	-151.709	-0.070	0.005
-398.179	-200.000	-0.010	-0.100
-397.165	-110.203	-0.143	-0.030
-396.150	356.189	0.150	0.296
-395.136	-107.671	0.210	0.046
-394.121	110.365	-0.233	0.278
-393.106	48.419	0.123	0.114
-392.092	800.000	-0.046	-0.171
-391.077	13.362	-0.316	0.244
-390.063	-100.887	0.141	0.034
-389.048	-200.000	-0.023	0.286
-388.033	-200.000	-0.003	-0.081
-387.019	-200.000	0.018	-0.305
-386.004	-200.000	-0.008	-0.087
-384.990	209.284	-0.073	-0.114
-383.975	-200.000	-0.001	0.044
-382.960	-91.454	0.291	-0.083
-381.946	-55.086	-0.122	0.055
-380.931	-6.541	0.184	0.125
-379.917	-49.885	0.345	0.163
-378.902	-103.366	-0.137	0.032
-377.888	-19.355	0.199	-0.122
-376.873	52.880	0.070	-0.067
-375.858	516.911	-0.120	0.279
-374.844	505.718	0.097	-0.222
-373.829	79.594	0.169	0.180
-372.815	-0.026	0.117	-0.082
-371.800	-181.867	-0.142	0.003
-370.785	188.668	0.113	-0.168
-369.771	-56.479	0.302	0.133
-368.756	-114.290	-0.145	-0.028
-367.742	212.604	0.139	0.218
-366.727	-200.000	-0.009	0.217
-365.712	9.348	0.401	-0.301
-364.698	-0.564	-0.170	-0.120
-363.683	496.823	0.097	0.222
-362.669	-5.264	0.185	-0.126
-361.654	42.393	0.155	-0.140
-360.639	395.608	0.131	0.271
-359.625	24.437	-0.386	0.317
-358.610	-91.833	-0.305	0.086
-357.596	-134.859	0.101	0.012
-356.581	451.625	-0.008	0.018
-355.566	-63.126	-0.187	-0.076
-354.552	-99.445	0.335	-0.084
-353.537	-200.000	0.034	-0.367
-352.523	-200.000	-0.012	-0.294
-351.508	-82.860	0.122	-0.039
-350.493	328.971	0.179	-0.341
-349.479	-155.941	0.212	-0.013
-348.464	-87.504	0.012	-0.004
-347.450	-41.525	0.333	-0.170
-346.435	-81.347	-0.306	-0.100
-345.420	-127.745	0.403	0.058
-344.406	-13.880	0.177	-0.114
-343.391	-174.055	0.117	-0.003
-342.377	-164.517	-0.080	-0.004
-341.362	284.694	0.155	0.276
-340.348	-113.414	0.172	-0.033
-339.333	318.700	-0.111	-0.209
-338.318	53.463	-0.329	-0.313
-337.304	-200.000	0.026	-0.146
-336.289	283.750	0.102	-0.182
-335.275	-86.937	0.234	0.071
-334.260	-200.000	-0.007	-0.053
-333.245	-60.694	-0.065	0.027
-332.231	-118.916	0.171	0.030
-331.216	27.997	0.223	-0.187
-330.202	-200.000	0.042	-0.321
-329.187	-200.000	0.000	0.066
-328.172	-191.112	-0.083	0.001
-327.158	-27.912	-0.151	0.087
-326.143	-200.000	-0.045	0.402
-325.129	-103.101	0.109	-0.026
-324.114	-200.000	0.060	-0.293
-323.099	694.463	0.006	0.015
-322.085	152.190	0.149	0.202
-321.070	800.000	0.047	0.154
-320.056	800.000	-0.093	-0.308
-319.041	-200.000	-0.058	0.302
-318.026	-32.677	-0.278	0.153
-317.012	245.473	-0.111	0.186
-315.997	-66.583	-0.309	-0.122
-314.983	358.612	0.039	-0.076
-313.968	-200.000	0.034	0.516
-312.953	-41.214	0.181	0.093
-311.939	-89.619	-0.371	0.108
-310.924	-16.456	0.158	0.099
-309.910	-200.000	-0.030	-0.240
-308.895	346.663	0.136	-0.266
-307.880	-200.000	0.005	-0.367
-306.866	-75.767	-0.139	-0.049
-305.851	275.128	-0.261	0.458
-304.837	-123.374	-0.246	-0.039
-303.822	-200.000	-0.012	0.296
-302.807	-55.263	-0.187	-0.083
-301.793	277.851	0.080	0.142
-300.778	218.767	0.133	-0.211
-299.764	-98.799	-0.055	-0.014
-298.749	50.992	-0.149	-0.140
-297.735	-97.093	-0.183	0.047
-296.720	-36.447	-0.339	0.181
-295.705	800.000	0.028	-0.116
-294.691	-200.000	0.055	-0.438
-293.676	-200.000	0.001	-0.125
-292.662	118.653	0.152	-0.186
-291.647	154.598	-0.075	0.102
-290.632	-4.998	-0.204	0.139
-289.618	-55.239	-0.089	-0.039
-288.603	-114.454	0.200	-0.038
-287.589	-124.407	-0.142	0.022
-286.574	-128.838	-0.239	-0.033
-285.559	434.163	0.159	0.341
-284.545	-147.355	0.092	0.008
-283.530	-200.000	-0.003	-0.141
-282.516	-176.425	0.169	0.004
-281.501	-178.766	-0.455	-0.010
-280.486	-169.676	-0.273	-0.010
-279.472	-200.000	-0.007	-0.165
-278.457	-200.000	0.017	-0.301
-277.443	179.487	0.109	0.158
-276.428	-9.133	0.218	-0.144
-275.413	748.412	0.039	-0.105
-274.399	800.000	-0.079	-0.254
-273.384	-139.829	-0.250	-0.026
-272.370	108.349	-0.099	0.117
-271.355	127.637	0.083	0.104
-270.340	668.637	0.088	-0.225
-269.326	-134.911	0.130	0.016
-268.311	-91.784	0.204	-0.057
-267.297	-86.929	0.516	-0.156
-266.282	43.278	0.145	-0.131
-265.267	-87.301	-0.260	0.078
-264.253	-44.489	-0.204	-0.101
-263.238	-117.716	0.123	0.022
-262.224	3.408	0.153	-0.110
-261.209	164.146	-0.214	0.297
-260.195	-36.995	0.506	-0.268
-259.180	-200.000	0.002	-0.383
-258.165	12.175	-0.095	0.072
-257.151	130.900	-0.076	-0.096
-256.136	41.213	-0.096	0.086
-255.122	379.281	-0.030	-0.060
-254.107	-75.622	-0.485	0.170
-253.092	-200.000	-0.007	-0.235
-252.078	114.765	0.289	-0.348
-251.063	-128.787	-0.214	0.030
-250.049	11.452	-0.086	0.065
-249.034	-200.000	0.015	-0.090
-248.019	15.433	-0.041	0.032
-247.005	33.861	-0.215	-0.185
-245.990	-57.087	0.378	0.165
-244.976	186.649	-0.097	-0.143
-243.961	150.442	-0.099	-0.133
-242.946	22.588	0.145	0.118
-241.932	77.309	-0.110	-0.116
-240.917	-200.000	0.015	-0.130
-239.903	-200.000	0.008	0.206
-238.888	-6.393	0.185	-0.125
-237.873	-100.629	-0.469	0.114
-236.859	-89.006	-0.118	-0.034
-235.844	-200.000	0.031	0.229
-234.830	-200.000	-0.006	-0.304
-233.815	800.000	-0.033	-0.098
-232.800	-200.000	-0.031	0.177
-231.786	-50.184	-0.149	-0.070
-230.771	-53.484	-0.184	0.083
-229.757	273.897	0.093	0.162
-228.742	142.075	0.240	-0.314
-227.727	-42.145	0.126	-0.064
-226.713	-69.349	0.147	0.056
-225.698	-57.173	0.129	-0.056
-224.684	800.000	0.090	0.288
-223.669	397.990	0.117	0.242
-222.655	800.000	-0.038	-0.110
-221.640	39.221	-0.318	-0.281
-220.625	460.108	0.076	0.167
-219.611	-27.745	0.155	-0.089
-218.596	51.639	0.118	-0.111
-217.582	61.009	-0.036	0.035
-216.567	-184.136	-0.039	-0.001
-215.552	-200.000	-0.021	-0.176
-214.538	47.872	0.218	-0.201
-213.523	-87.927	0.221	0.065
-212.509	800.000	0.142	0.402
-211.494	-31.703	-0.224	-0.124
-210.479	-119.173	-0.136	0.023
-209.465	-85.454	0.066	0.020
-208.450	110.034	-0.027	-0.033
-207.436	-129.112	-0.056	0.008
-206.421	-200.000	-0.008	0.046
-205.406	669.941	0.047	0.121
-204.392	423.007	0.063	0.134
-203.377	-118.544	-0.163	0.028
-202.363	800.000	0.034	0.092
-201.348	419.272	-0.052	-0.109
-200.333	800.000	-0.065	0.201
-199.319	-41.973	0.489	0.247
-198.304	781.227	-0.071	0.192
-197.290	-21.188	-0.203	0.123
-196.275	-1.229	-0.256	-0.178
-195.260	800.000	0.061	0.256
-194.246	-25.452	-0.332	-0.194
-193.231	-137.413	-0.321	0.036
-192.217	-200.000	0.021	-0.142
-191.202	-129.444	-0.094	-0.013
-190.187	706.773	-0.092	0.240
-189.173	285.094	0.129	0.229
-188.158	-200.000	0.023	-0.124
-187.144	104.240	-0.158	0.183
-186.129	-57.244	0.017	-0.007
-185.114	87.047	-0.101	0.110
-184.100	800.000	0.113	0.411
-183.085	140.485	0.078	-0.101
-182.071	48.356	0.043	0.039
-181.056	-110.868	0.125	0.025
-180.042	-48.834	-0.133	-0.063
-179.027	-134.056	0.199	0.024
-178.012	-40.086	0.132	0.068
-176.998	670.004	0.098	0.250
-175.983	-143.392	0.152	-0.014
-174.969	-113.791	0.138	-0.027
-173.954	-138.045	-0.304	0.033
-172.939	-109.011	-0.270	0.057
-171.925	-23.125	-0.240	0.142
-170.910	46.415	0.091	0.083
-169.896	-150.732	-0.377	-0.028
-168.881	318.840	0.040	0.075
-167.866	-93.375	0.169	0.046
-166.852	347.349	0.105	0.203
-165.837	-158.203	0.235	-0.014
-164.823	-45.427	0.308	0.151
-163.808	-163.012	-0.254	0.012
-162.793	-200.000	-0.022	0.258
-161.779	524.169	-0.077	0.178
-160.764	512.968	-0.135	-0.310
-159.750	94.633	0.084	0.094
-158.735	-99.797	0.438	0.108
-157.720	-131.238	0.112	0.015
-156.706	248.824	0.085	-0.141
-155.691	800.000	-0.040	0.134
-154.677	23.050	-0.239	-0.193
-153.662	122.465	0.165	-0.204
-152.647	233.552	-0.032	0.051
-151.633	58.388	-0.133	0.128
-150.618	-200.000	-0.029	0.235
-149.604	-94.194	-0.274	0.074
-148.589	-12.172	0.219	-0.141
-147.574	-26.638	0.109	0.063
-146.560	631.627	-0.101	0.251
-145.545	800.000	0.049	-0.134
-144.531	127.289	-0.075	0.093
-143.516	115.279	-0.086	0.103
-142.502	-75.320	0.379	0.133
-141.487	-83.596	-0.385	0.121
-140.472	560.319	0.060	-0.143
-139.458	800.000	0.029	0.117
-138.443	-7.066	0.183	0.123
-137.429	325.369	-0.091	0.172
-136.414	-117.526	-0.180	-0.032
-135.399	800.000	0.117	0.502
-134.385	-23.455	-0.062	-0.037
-133.370	-94.141	0.346	0.093
-132.356	37.905	-0.161	-0.141
-131.341	54.140	0.134	0.127
-130.326	710.376	-0.190	-0.496
-129.312	46.491	0.269	0.246
-128.297	263.218	-0.154	0.263
-127.283	-136.082	0.465	-0.054
-126.268	195.592	0.131	0.196
-125.253	-200.000	-0.028	-0.177
-124.239	-128.582	-0.142	-0.020
-123.224	258.189	0.129	-0.219
-122.210	-125.085	0.218	0.033
