DTS Sentinel unit serial number:	SN413079Multiplexer serial number:	ORYXHardware model number:	OX4-SRSoftware version number:	ORYX F/W v4.00 Oryx Data Collector v3.7.2.0data status	okinstallation	princeton_trtdifferential loss correction	single-endedforward channel	channel 2reverse channel	N/Adate	2019/09/16time	00:35:34forward acquisition time	60.00reverse acquisition time	0.00gamma	496.2192k internal	0.2337k external	0.2337temperature offset calibration	0.9961default loss term (dB/km)	0.3790temperature slope calibration	1.0000multiplexer offset coefficient	1.0000multiplexer slope coefficient	1.0000fibre end	0.00T internal ref (°C)	27.50T ext. ref 1 (°C)	9.61T ext. ref 2 (°C)	21.60length (m)	temperature (°C)	Stokes	anti-Stokes-747.200	66.696	-0.143	0.146
-746.185	-94.405	-0.161	0.044
-745.171	-102.124	-0.111	0.027
-744.156	238.061	-0.339	0.565
-743.142	365.805	-0.134	-0.271
-742.127	266.281	-0.200	0.351
-741.112	-70.661	0.305	0.116
-740.098	424.815	-0.157	0.340
-739.083	-200.000	-0.059	0.535
-738.069	100.872	-0.171	-0.199
-737.054	-178.163	0.130	-0.003
-736.039	35.813	-0.181	0.160
-735.025	-92.254	0.283	-0.080
-734.010	-133.789	-0.197	0.025
-732.996	-200.000	-0.014	-0.081
-731.981	236.568	0.102	-0.170
-730.966	-2.637	0.271	-0.191
-729.952	-52.820	-0.156	-0.072
-728.937	59.983	-0.242	0.240
-727.923	401.082	-0.133	-0.280
-726.908	-200.000	-0.028	-0.170
-725.894	107.670	-0.067	-0.080
-724.879	416.854	-0.096	0.205
-723.864	25.623	0.100	-0.083
-722.850	-47.008	-0.129	-0.063
-721.835	800.000	-0.067	-0.187
-720.821	-200.000	-0.006	-0.031
-719.806	68.304	0.188	0.193
-718.791	-200.000	-0.007	-0.031
-717.777	-13.207	0.125	-0.081
-716.762	800.000	0.102	0.332
-715.748	161.201	-0.146	-0.204
-714.733	134.174	0.155	-0.202
-713.718	74.996	0.128	-0.136
-712.704	800.000	0.010	-0.037
-711.689	-96.578	0.121	0.032
-710.675	-200.000	0.000	0.010
-709.660	656.347	0.054	0.140
-708.645	-55.329	-0.164	0.074
-707.631	-19.339	0.438	-0.272
-706.616	-200.000	0.035	0.439
-705.602	-79.935	0.411	-0.138
-704.587	467.555	-0.146	-0.328
-703.572	800.000	0.098	-0.279
-702.558	-86.197	0.378	0.117
-701.543	-152.998	-0.159	-0.011
-700.529	360.201	0.167	0.335
-699.514	-39.839	0.204	-0.107
-698.499	308.203	-0.135	-0.252
-697.485	120.840	0.110	0.137
-696.470	-88.293	-0.162	-0.048
-695.456	-59.296	-0.337	0.145
-694.441	-52.508	0.175	-0.081
-693.426	-200.000	-0.019	-0.257
-692.412	-200.000	-0.011	-0.286
-691.397	47.994	-0.176	0.165
-690.383	93.541	0.085	-0.097
-689.368	-200.000	0.021	-0.491
-688.354	800.000	-0.109	-0.346
-687.339	-71.533	0.197	0.074
-686.324	45.943	-0.323	0.299
-685.310	65.428	-0.175	-0.177
-684.295	591.231	-0.127	-0.314
-683.281	-91.110	0.267	0.077
-682.266	298.893	-0.180	-0.331
-681.251	-200.000	0.013	-0.254
-680.237	34.524	-0.233	0.204
-679.222	175.369	-0.114	-0.165
-678.208	421.003	-0.252	-0.540
-677.193	-63.442	0.267	-0.110
-676.178	-119.952	0.490	-0.084
-675.164	247.083	0.047	-0.079
-674.149	800.000	-0.084	-0.238
-673.135	386.131	0.102	-0.210
-672.120	189.910	0.080	0.120
-671.105	25.135	0.176	0.147
-670.091	53.928	-0.103	0.099
-669.076	39.968	0.231	0.208
-668.062	-34.125	0.373	-0.205
-667.047	-200.000	0.049	-0.331
-666.032	-150.044	0.144	-0.011
-665.018	-1.731	0.058	-0.041
-664.003	-120.092	-0.139	-0.024
-662.989	-154.666	0.250	0.017
-661.974	70.646	-0.133	0.138
-660.959	-200.000	-0.015	0.122
-659.945	-6.767	0.322	0.220
-658.930	547.016	0.121	-0.290
-657.916	428.978	-0.017	-0.036
-656.901	-200.000	-0.011	-0.121
-655.886	-200.000	0.019	-0.180
-654.872	131.563	0.151	0.194
-653.857	-38.262	0.200	-0.106
-652.843	-66.771	-0.249	0.099
-651.828	-9.980	0.186	-0.124
-650.814	-200.000	0.007	0.212
-649.799	0.597	0.073	-0.052
-648.784	-76.107	-0.514	-0.182
-647.770	281.210	0.050	0.089
-646.755	52.916	-0.233	-0.223
-645.741	348.357	-0.069	-0.136
-644.726	-116.293	0.482	-0.089
-643.711	800.000	-0.031	0.123
-642.697	173.727	0.173	0.250
-641.682	18.271	-0.060	0.048
-640.668	-49.315	-0.203	-0.097
-639.653	178.554	0.098	-0.143
-638.638	-41.584	0.264	-0.136
-637.624	57.435	0.074	-0.073
-636.609	19.626	-0.195	0.157
-635.595	-200.000	0.010	-0.241
-634.580	795.552	0.039	-0.107
-633.565	800.000	0.034	0.124
-632.551	800.000	0.068	-0.198
-631.536	55.127	0.216	0.208
-630.522	6.979	-0.164	0.122
-629.507	688.129	0.113	0.296
-628.492	-200.000	-0.004	-0.038
-627.478	-200.000	-0.007	0.053
-626.463	3.865	0.103	0.075
-625.449	100.043	-0.071	0.082
-624.434	-175.244	0.161	-0.004
-623.419	639.161	0.026	-0.066
-622.405	-101.699	-0.268	0.065
-621.390	800.000	0.005	0.014
-620.376	20.037	0.246	0.198
-619.361	-13.266	0.027	0.017
-618.346	-37.982	-0.150	-0.079
-617.332	-12.713	-0.260	-0.169
-616.317	54.847	-0.136	-0.132
-615.303	-119.103	0.310	0.054
-614.288	-137.731	-0.312	-0.035
-613.273	-200.000	0.024	-0.288
-612.259	-68.007	0.287	0.112
-611.244	-84.349	-0.310	-0.098
-610.230	-7.500	-0.172	-0.117
-609.215	-133.853	-0.169	-0.021
-608.201	68.527	0.227	-0.232
-607.186	181.031	0.147	0.215
-606.171	800.000	-0.050	0.155
-605.157	166.291	-0.136	0.192
-604.142	12.908	0.090	-0.069
-603.128	667.885	-0.133	-0.343
-602.113	-0.622	0.088	0.062
-601.098	-200.000	-0.014	-0.120
-600.084	58.856	-0.151	-0.148
-599.069	-200.000	-0.197	0.001
-598.055	127.878	-0.175	-0.222
-597.040	-58.814	-0.139	0.060
-596.025	-97.541	0.210	0.054
-595.011	336.529	-0.080	0.156
-593.996	121.650	-0.077	-0.096
-592.982	-138.822	0.155	-0.017
-591.967	-72.934	-0.346	-0.127
-590.952	-200.000	-0.006	0.366
-589.938	-43.073	-0.242	0.122
-588.923	-22.939	-0.354	-0.213
-587.909	-200.000	-0.014	0.194
-586.894	92.509	-0.097	-0.110
-585.879	27.964	0.181	0.153
-584.865	-171.723	0.136	0.004
-583.850	202.403	-0.155	-0.239
-582.836	526.276	-0.110	0.259
-581.821	195.994	-0.109	-0.165
-580.806	304.720	0.048	-0.088
-579.792	-78.411	-0.209	0.071
-578.777	-180.103	-0.423	0.009
-577.763	201.293	0.038	-0.059
-576.748	126.037	-0.067	-0.084
-575.733	252.107	-0.060	-0.102
-574.719	-200.000	-0.026	0.135
-573.704	62.564	0.140	-0.140
-572.690	-200.000	0.011	0.148
-571.675	-103.161	0.096	-0.023
-570.661	-22.059	-0.193	-0.117
-569.646	50.209	-0.206	-0.194
-568.631	-200.000	-0.062	-0.297
-567.617	34.223	0.322	-0.280
-566.602	-49.564	-0.135	0.064
-565.588	800.000	-0.014	0.048
-564.573	-44.822	0.292	0.145
-563.558	-29.181	0.328	-0.187
-562.544	564.909	0.084	-0.202
-561.529	-23.260	0.072	0.043
-560.515	155.071	0.072	-0.099
-559.500	246.395	-0.114	0.192
-558.485	132.608	-0.059	-0.076
-557.471	63.455	0.289	-0.289
-556.456	700.164	-0.107	-0.282
-555.442	-18.142	0.315	0.197
-554.427	-164.654	0.224	0.010
-553.412	23.262	0.101	-0.082
-552.398	-200.000	-0.005	-0.032
-551.383	-52.225	-0.177	-0.082
-550.369	256.169	0.088	-0.150
-549.354	14.445	0.272	0.211
-548.339	87.034	-0.352	-0.388
-547.325	88.932	-0.203	0.226
-546.310	74.694	0.182	-0.191
-545.296	276.697	0.100	-0.177
-544.281	-149.101	0.264	0.021
-543.266	42.743	-0.405	-0.367
-542.252	17.262	-0.085	-0.067
-541.237	-80.975	-0.179	-0.059
-540.223	-200.000	0.008	-0.057
-539.208	-104.983	-0.386	0.088
-538.193	-88.096	0.149	-0.044
-537.179	213.589	-0.094	-0.148
-536.164	49.737	-0.334	-0.313
-535.150	-187.972	0.322	-0.004
-534.135	446.469	-0.118	0.258
-533.121	39.642	0.270	0.241
-532.106	87.817	-0.184	-0.203
-531.091	211.603	-0.289	-0.452
-530.077	60.059	-0.113	0.111
-529.062	-200.000	-0.018	-0.153
-528.048	800.000	0.080	-0.250
-527.033	-129.438	-0.192	-0.027
-526.018	-200.000	-0.010	-0.080
-525.004	-34.608	0.187	-0.102
-523.989	-112.003	0.280	-0.056
-522.975	-200.000	0.009	0.209
-521.960	-67.288	0.140	-0.055
-520.945	73.376	0.149	-0.156
-519.931	592.171	-0.045	0.109
-518.916	-45.221	-0.089	0.044
-517.902	3.190	0.274	0.198
-516.887	-49.595	0.238	-0.113
-515.872	-156.112	-0.309	-0.019
-514.858	25.092	0.184	-0.152
-513.843	-22.103	0.300	-0.181
-512.829	-200.000	0.021	-0.248
-511.814	-47.738	0.059	-0.028
-510.799	-121.816	0.106	-0.017
-509.785	346.233	-0.078	-0.152
-508.770	-200.000	-0.025	0.137
-507.756	-13.587	-0.343	-0.221
-506.741	-114.687	-0.133	0.025
-505.726	-200.000	-0.006	0.052
-504.712	-164.655	-0.204	-0.009
-503.697	-78.519	-0.140	0.048
-502.683	-200.000	0.012	0.222
-501.668	384.202	0.042	-0.085
-500.653	-122.683	-0.187	0.030
-499.639	-94.236	-0.185	-0.050
-498.624	800.000	0.057	-0.164
-497.610	2.468	-0.205	0.148
-496.595	-54.691	-0.086	0.039
-495.581	-22.112	-0.212	-0.128
-494.566	-89.152	0.309	0.091
-493.551	800.000	0.050	-0.162
-492.537	-76.553	0.082	0.029
-491.522	800.000	-0.028	0.119
-490.508	-54.497	0.258	-0.116
-489.493	800.000	-0.059	-0.212
-488.478	450.064	-0.023	0.049
-487.464	-200.000	0.031	0.136
-486.449	-99.686	-0.350	-0.087
-485.435	293.691	0.062	-0.112
-484.420	-200.000	0.010	-0.069
-483.405	800.000	-0.038	-0.122
-482.391	-73.429	-0.068	-0.025
-481.376	-101.234	0.140	0.034
-480.362	455.587	0.187	-0.412
-479.347	-137.469	0.186	-0.021
-478.332	800.000	0.076	0.230
-477.318	-200.000	-0.032	-0.223
-476.303	-99.070	-0.129	-0.032
-475.289	800.000	0.062	-0.210
-474.274	-7.012	-0.263	-0.177
-473.259	-200.000	0.010	0.153
-472.245	432.641	-0.102	0.219
-471.230	-149.290	-0.271	-0.021
-470.216	84.543	-0.266	0.289
-469.201	236.196	0.051	0.084
-468.186	-7.591	-0.198	-0.133
-467.172	-27.936	-0.318	-0.183
-466.157	-97.133	0.217	0.056
-465.143	-200.000	-0.028	0.439
-464.128	7.037	-0.177	-0.131
-463.113	238.251	0.080	-0.131
-462.099	125.539	0.093	-0.117
-461.084	-129.023	-0.245	-0.034
-460.070	100.655	-0.071	-0.081
-459.055	-78.792	0.195	-0.066
-458.040	41.223	0.168	0.151
-457.026	-74.684	-0.207	0.074
-456.011	-65.921	-0.223	0.089
-454.997	-90.397	0.155	0.045
-453.982	238.992	-0.082	-0.135
-452.968	-200.000	0.016	-0.258
-451.953	-37.219	-0.215	0.114
-450.938	-16.019	-0.213	-0.134
-449.924	-200.000	0.054	-0.000
-448.909	-17.573	0.152	0.095
-447.895	32.444	-0.179	-0.153
-446.880	-167.397	0.224	0.009
-445.865	127.555	-0.163	-0.205
-444.851	371.636	-0.079	0.159
-443.836	-144.446	-0.073	0.007
-442.822	11.954	0.127	-0.097
-441.807	-200.000	0.010	0.046
-440.792	-200.000	0.007	-0.198
-439.778	-96.391	0.596	-0.156
-438.763	153.384	-0.232	0.315
-437.749	78.500	0.249	0.264
-436.734	606.717	-0.100	0.247
-435.719	799.096	0.104	0.285
-434.705	-32.048	-0.093	-0.052
-433.690	622.562	0.135	-0.337
-432.676	-47.042	-0.176	-0.085
-431.661	-147.568	0.151	0.013
-430.646	800.000	-0.041	-0.119
-429.632	91.699	0.042	0.047
-428.617	-200.000	0.037	-0.206
-427.603	-200.000	0.018	0.185
-426.588	-62.312	-0.153	-0.063
-425.573	-118.661	-0.216	-0.038
-424.559	391.442	-0.058	-0.120
-423.544	18.013	0.151	-0.120
-422.530	-97.876	0.468	-0.120
-421.515	727.799	-0.164	0.434
-420.500	-130.063	0.179	-0.024
-419.486	211.193	-0.163	-0.254
-418.471	231.652	0.088	0.143
-417.457	101.976	-0.185	0.214
-416.442	-200.000	-0.007	0.225
-415.428	47.129	-0.090	-0.083
-414.413	-65.722	-0.158	0.063
-413.398	105.812	-0.118	0.138
-412.384	75.112	-0.211	-0.221
-411.369	14.963	0.276	0.214
-410.355	-49.676	-0.243	-0.114
-409.340	800.000	0.057	-0.221
-408.325	-200.000	-0.005	0.070
-407.311	-3.074	0.472	-0.326
-406.296	-200.000	0.008	-0.087
-405.282	4.283	-0.094	0.068
-404.267	800.000	0.105	-0.350
-403.252	-18.494	0.320	0.198
-402.238	249.255	-0.132	-0.222
-401.223	289.884	0.068	0.122
-400.209	-59.181	0.213	0.091
-399.194	-29.173	0.175	0.099
-398.179	-3.253	0.210	-0.145
-397.165	-150.408	0.239	-0.018
-396.150	-138.724	0.160	-0.017
-395.136	-83.569	-0.161	-0.051
-394.121	-157.289	-0.077	0.005
-393.106	90.055	-0.072	0.080
-392.092	-121.083	-0.132	-0.022
-391.077	66.535	0.324	-0.326
-390.063	785.705	0.101	-0.274
-389.048	800.000	0.078	0.287
-388.033	-200.000	-0.018	-0.346
-387.019	800.000	-0.032	0.138
-386.004	-200.000	-0.018	0.096
-384.990	800.000	-0.145	0.487
-383.975	-57.639	-0.159	0.069
-382.960	-6.502	-0.276	-0.186
-381.946	710.602	0.129	-0.339
-380.931	-63.601	-0.198	0.081
-379.917	230.941	-0.110	0.178
-378.902	800.000	0.159	0.453
-377.888	272.974	-0.058	-0.102
-376.873	102.438	-0.104	-0.120
-375.858	800.000	-0.009	0.033
-374.844	-92.466	-0.114	0.032
-373.829	782.902	-0.051	0.137
-372.815	180.468	-0.177	0.257
-371.800	-36.196	0.211	0.113
-370.785	47.435	0.040	-0.037
-369.771	77.867	-0.165	0.174
-368.756	800.000	0.111	-0.355
-367.742	-50.319	0.067	0.031
-366.727	209.180	-0.199	-0.308
-365.712	-200.000	-0.025	-0.155
-364.698	-157.332	-0.109	0.007
-363.683	-200.000	-0.012	-0.059
-362.669	185.666	0.088	0.129
-361.654	147.815	0.057	-0.076
-360.639	-81.183	-0.433	0.142
-359.625	-200.000	-0.017	0.226
-358.610	77.297	-0.072	0.076
-357.596	-200.000	0.094	0.616
-356.581	427.461	-0.113	-0.241
-355.566	-76.942	0.260	0.090
-354.552	135.063	0.164	-0.211
-353.537	103.295	0.227	-0.263
-352.523	-146.575	0.309	0.027
-351.508	-200.000	-0.011	0.225
-350.493	-200.000	0.062	-0.382
-349.479	75.874	0.349	0.365
-348.464	97.548	-0.130	-0.148
-347.450	-200.000	0.021	-0.103
-346.435	-200.000	0.001	-0.052
-345.420	437.530	0.165	0.355
-344.406	16.605	-0.057	-0.044
-343.391	452.143	0.047	0.103
-342.377	-144.040	-0.429	0.040
-341.362	74.568	-0.097	0.101
-340.348	-200.000	0.008	0.194
-339.333	-78.745	0.226	-0.076
-338.318	-7.011	0.240	0.161
-337.304	-200.000	0.015	0.180
-336.289	-200.000	0.011	0.121
-335.275	111.215	0.136	-0.162
-334.260	-62.047	0.236	-0.097
-333.245	-154.243	-0.114	0.008
-332.231	221.052	-0.077	-0.122
-331.216	-200.000	0.025	0.165
-330.202	-132.313	-0.239	0.031
-329.187	-77.564	-0.187	0.064
-328.172	-54.926	-0.192	0.086
-327.158	70.922	0.112	0.115
-326.143	-70.109	0.237	0.089
-325.129	295.996	-0.097	0.176
-324.114	-123.166	0.193	0.031
-323.099	-52.649	-0.094	-0.043
-322.085	79.273	0.266	0.282
-321.070	307.919	-0.054	0.100
-320.056	-134.024	0.112	-0.014
-319.041	800.000	0.013	0.041
-318.026	163.951	-0.254	0.354
-317.012	-200.000	-0.008	-0.189
-315.997	144.513	0.038	0.050
-314.983	-13.777	-0.127	-0.081
-313.968	-200.000	-0.011	-0.072
-312.953	-118.985	0.079	0.014
-311.939	-84.489	-0.133	-0.041
-310.924	-157.041	0.197	0.012
-309.910	183.129	0.176	-0.257
-308.895	155.858	-0.079	0.107
-307.880	-55.277	0.190	0.084
-306.866	-145.347	0.208	-0.019
-305.851	-200.000	-0.009	-0.205
-304.837	26.165	0.187	0.154
-303.822	-78.384	0.374	0.127
-302.807	-200.000	-0.007	0.130
-301.793	-163.444	0.139	0.007
-300.778	-200.000	0.008	0.459
-299.764	607.143	-0.050	-0.122
-298.749	20.374	0.273	-0.217
-297.735	-200.000	0.040	0.258
-296.720	461.958	0.097	0.214
-295.705	234.487	-0.098	0.160
-294.691	372.801	-0.063	-0.127
-293.676	800.000	-0.046	-0.150
-292.662	570.464	0.058	0.139
-291.647	424.207	0.139	0.295
-290.632	220.097	0.172	-0.271
-289.618	-200.000	0.054	0.238
-288.603	-118.793	0.238	0.041
-287.589	-78.252	-0.076	0.026
-286.574	-200.000	0.218	0.000
-285.559	-63.257	0.167	-0.068
-284.545	-200.000	0.000	-0.334
-283.530	-200.000	-0.001	0.332
-282.516	-28.372	-0.176	0.100
-281.501	-35.755	0.286	0.153
-280.486	-84.366	-0.398	0.124
-279.472	-200.000	-0.007	-0.073
-278.457	800.000	-0.066	0.221
-277.443	-200.000	0.022	0.448
-276.428	800.000	0.019	0.060
-275.413	800.000	0.032	-0.125
-274.399	800.000	-0.048	0.171
-273.384	733.992	-0.090	0.237
-272.370	255.167	0.180	-0.303
-271.355	-200.000	0.010	-0.060
-270.340	-200.000	0.012	-0.051
-269.326	13.138	0.290	0.222
-268.311	527.845	0.163	0.379
-267.297	374.385	0.019	0.038
-266.282	509.875	0.051	-0.117
-265.267	-111.515	-0.246	0.049
-264.253	-200.000	-0.001	0.076
-263.238	-200.000	0.001	0.351
-262.224	-200.000	0.007	-0.066
-261.209	415.050	0.076	-0.159
-260.195	-200.000	-0.009	0.194
-259.180	-92.285	-0.496	0.138
-258.165	-200.000	0.029	0.173
-257.151	160.579	-0.145	0.200
-256.136	326.238	0.040	0.076
-255.122	-152.273	-0.111	0.008
-254.107	-31.864	-0.265	-0.146
-253.092	30.928	-0.197	-0.166
-252.078	294.004	-0.070	0.125
-251.063	-36.420	0.209	-0.111
-250.049	195.968	-0.116	0.173
-249.034	800.000	-0.104	0.309
-248.019	-200.000	-0.005	0.129
-247.005	320.060	0.172	0.322
-245.990	478.568	-0.061	-0.137
-244.976	-200.000	0.071	-0.334
-243.961	1.305	-0.303	-0.215
-242.946	-200.000	-0.020	-0.299
-241.932	603.805	0.037	-0.092
-240.917	-144.127	0.180	0.017
-239.903	302.709	0.098	0.179
-238.888	-0.140	-0.243	-0.170
-237.873	95.827	-0.155	0.175
-236.859	-179.279	0.203	-0.004
-235.844	-146.057	0.198	0.017
-234.830	-110.860	0.236	0.048
-233.815	-90.482	0.354	0.101
-232.800	-153.691	-0.171	-0.012
-231.786	-200.000	-0.020	-0.154
-230.771	-200.000	0.017	-0.264
-229.757	-200.000	0.012	-0.130
-228.742	-88.534	0.082	-0.024
-227.727	-49.425	-0.043	0.020
-226.713	-112.200	-0.030	0.006
-225.698	390.092	0.174	0.355
-224.684	-148.482	0.136	-0.011
-223.669	-101.171	0.530	-0.128
-222.655	186.784	0.131	0.192
-221.640	-161.953	0.135	0.007
-220.625	142.403	-0.118	-0.154
-219.611	-122.346	-0.021	0.003
-218.596	-200.000	0.012	-0.179
-217.582	800.000	0.018	-0.060
-216.567	-200.000	0.033	-0.350
-215.552	-200.000	-0.009	-0.176
-214.538	598.869	-0.058	0.140
-213.523	-65.435	-0.221	-0.087
-212.509	-200.000	0.011	0.110
-211.494	46.440	0.254	0.231
-210.479	-74.977	-0.204	-0.072
-209.465	-72.416	0.266	0.097
-208.450	51.452	-0.218	0.203
-207.436	-200.000	-0.024	0.203
-206.421	118.403	-0.062	0.075
-205.406	-76.204	-0.259	-0.090
-204.392	800.000	0.135	-0.365
-203.377	-167.750	-0.331	-0.013
-202.363	-37.725	-0.576	0.302
-201.348	800.000	-0.124	0.500
-200.333	-128.966	-0.053	-0.007
-199.319	-28.151	0.115	-0.066
-198.304	228.725	-0.219	0.351
-197.290	4.882	0.082	-0.059
-196.275	321.008	0.055	-0.103
-195.260	145.572	-0.041	-0.053
-194.246	-30.559	0.248	0.138
-193.231	-55.982	-0.110	0.048
-192.217	-90.936	0.172	-0.049
-191.202	800.000	0.038	0.148
-190.187	-43.932	0.211	0.104
-189.173	-78.001	-0.219	-0.074
-188.158	167.641	0.043	-0.059
-187.144	350.937	-0.169	0.329
-186.129	-22.125	0.075	-0.045
-185.114	228.445	0.171	-0.274
-184.100	-23.598	0.250	0.147
-183.085	-152.376	-0.118	0.008
-182.071	-72.807	0.275	-0.099
-181.056	234.440	0.218	-0.353
-180.042	101.637	-0.161	0.184
-179.027	-147.793	-0.213	0.018
-178.012	-200.000	0.039	-0.191
-176.998	252.968	-0.061	-0.102
-175.983	800.000	-0.108	-0.361
-174.969	376.641	0.082	-0.165
-173.954	-85.317	-0.042	0.013
-172.939	-64.241	-0.191	0.076
-171.925	-0.953	-0.032	-0.022
-170.910	800.000	0.025	0.100
-169.896	-43.652	0.269	-0.133
-168.881	-200.000	-0.017	0.082
-167.866	244.353	0.119	0.196
-166.852	621.409	0.066	0.162
-165.837	23.281	-0.097	0.078
-164.823	800.000	0.087	0.346
-163.808	25.647	-0.121	0.099
-162.793	472.928	-0.040	-0.089
-161.779	62.266	-0.107	0.104
-160.764	419.578	0.056	0.117
-159.750	-87.648	-0.216	-0.064
-158.735	119.284	0.007	-0.009
-157.720	-200.000	-0.024	0.251
-156.706	-60.536	0.230	-0.096
-155.691	-200.000	0.013	0.060
-154.677	-66.583	0.058	0.023
-153.662	219.501	0.097	-0.152
-152.647	154.939	-0.052	0.070
-151.633	-29.235	-0.122	-0.069
-150.618	72.124	0.106	-0.109
-149.604	358.212	0.208	0.407
-148.589	-136.380	0.139	0.016
-147.574	-43.721	-0.333	-0.165
-146.560	57.254	-0.267	0.255
-145.545	-200.000	-0.015	0.284
-144.531	75.745	0.372	-0.386
-143.516	-61.832	-0.087	-0.036
-142.502	154.475	0.140	0.188
-141.487	53.929	0.127	-0.119
-140.472	800.000	0.107	0.388
-139.458	-200.000	-0.037	-0.162
-138.443	94.443	0.056	-0.063
-137.429	-69.214	-0.280	0.106
-136.414	246.170	-0.202	0.334
-135.399	-92.626	0.593	0.163
-134.385	800.000	0.056	-0.172
-133.370	800.000	0.052	-0.222
-132.356	-11.396	-0.085	-0.055
-131.341	-52.017	0.152	-0.069
-130.326	-51.213	-0.105	-0.048
-129.312	-110.553	0.242	-0.049
-128.297	-6.204	-0.034	0.023
-127.283	32.006	-0.116	-0.098
-126.268	-15.699	-0.205	0.128
-125.253	124.897	0.125	-0.155
-124.239	-162.459	-0.346	0.017
-123.224	500.842	0.121	0.274
-122.210	-76.022	0.170	-0.059
-121.195	-31.032	0.191	-0.106
