DTS Sentinel unit serial number:	SN413079Multiplexer serial number:	ORYXHardware model number:	OX4-SRSoftware version number:	ORYX F/W v4.00 Oryx Data Collector v3.7.2.0data status	okinstallation	princeton_trtdifferential loss correction	single-endedforward channel	channel 2reverse channel	N/Adate	2019/09/17time	02:23:34forward acquisition time	60.00reverse acquisition time	0.00gamma	496.2192k internal	0.2327k external	0.2327temperature offset calibration	0.9976default loss term (dB/km)	0.3790temperature slope calibration	1.0000multiplexer offset coefficient	1.0000multiplexer slope coefficient	1.0000fibre end	0.00T internal ref (°C)	29.75T ext. ref 1 (°C)	0.12T ext. ref 2 (°C)	24.75length (m)	temperature (°C)	Stokes	anti-Stokes-747.200	800.000	-0.026	-0.091
-746.185	-5.189	-0.300	-0.208
-745.171	9.158	0.286	0.218
-744.156	44.199	-0.153	0.142
-743.142	-73.885	0.174	-0.064
-742.127	-200.000	0.033	-0.196
-741.112	293.125	-0.039	0.072
-740.098	-200.000	-0.018	0.192
-739.083	-14.859	-0.146	-0.095
-738.069	548.874	-0.054	-0.131
-737.054	-122.364	-0.488	0.080
-736.039	800.000	-0.053	0.163
-735.025	800.000	-0.078	0.301
-734.010	-2.955	-0.308	-0.217
-732.996	272.268	0.190	0.338
-731.981	-200.000	0.016	-0.459
-730.966	-200.000	0.001	0.071
-729.952	-35.916	0.117	0.064
-728.937	-79.630	0.177	-0.060
-727.923	421.288	0.124	-0.269
-726.908	-84.995	-0.123	-0.039
-725.894	172.455	-0.060	0.086
-724.879	-81.706	-0.152	0.050
-723.864	34.152	-0.120	0.105
-722.850	115.660	-0.155	0.192
-721.835	-29.625	-0.296	0.170
-720.821	-200.000	0.027	0.140
-719.806	-68.372	0.072	-0.028
-718.791	-54.840	-0.113	0.051
-717.777	62.856	-0.238	0.240
-716.762	222.992	-0.057	-0.092
-715.748	800.000	-0.045	-0.168
-714.733	101.291	-0.028	0.032
-713.718	-83.445	-0.133	0.043
-712.704	427.579	0.090	-0.196
-711.689	160.201	-0.088	0.123
-710.675	-80.615	-0.072	-0.024
-709.660	241.165	-0.200	-0.336
-708.645	-57.594	0.169	0.075
-707.631	58.653	0.147	0.145
-706.616	-95.614	-0.189	-0.051
-705.602	-149.739	0.276	0.022
-704.587	22.557	0.286	0.236
-703.572	-200.000	0.014	-0.263
-702.558	215.413	0.124	-0.198
-701.543	800.000	-0.030	-0.101
-700.529	155.564	0.056	-0.078
-699.514	-95.427	-0.099	0.027
-698.499	-200.000	-0.003	-0.289
-697.485	142.513	-0.055	-0.074
-696.470	91.149	-0.132	-0.149
-695.456	-55.858	-0.257	0.115
-694.441	-41.004	0.194	0.101
-693.426	713.585	-0.073	-0.194
-692.412	-108.495	-0.091	0.020
-691.397	-59.488	-0.418	-0.181
-690.383	-68.593	0.218	-0.085
-689.368	339.886	0.104	0.204
-688.354	24.986	0.326	0.272
-687.339	-61.684	-0.208	0.088
-686.324	-100.339	-0.072	-0.018
-685.310	-36.878	0.240	0.129
-684.295	-200.000	-0.010	-0.145
-683.281	-132.097	0.095	-0.012
-682.266	-51.640	0.060	-0.028
-681.251	-19.759	0.067	0.042
-680.237	-35.025	-0.180	-0.099
-679.222	-46.027	-0.282	0.140
-678.208	-139.560	-0.172	0.018
-677.193	-112.950	0.116	0.023
-676.178	-110.777	-0.254	-0.053
-675.164	-200.000	0.036	-0.162
-674.149	-162.861	-0.286	0.014
-673.135	800.000	0.040	0.168
-672.120	-120.865	-0.218	-0.037
-671.105	-90.489	0.109	-0.032
-670.091	-73.056	-0.237	0.087
-669.076	800.000	0.016	0.059
-668.062	-177.457	0.154	0.004
-667.047	-200.000	0.051	0.264
-666.032	-46.091	-0.034	0.017
-665.018	-146.153	0.328	-0.029
-664.003	-12.747	-0.107	0.070
-662.989	28.068	0.119	-0.101
-661.974	-107.057	-0.241	0.053
-660.959	-57.247	-0.247	0.109
-659.945	800.000	0.061	0.205
-658.930	162.914	-0.035	-0.049
-657.916	608.674	-0.109	0.273
-656.901	636.778	-0.114	-0.291
-655.886	66.890	-0.153	-0.157
-654.872	800.000	0.024	0.095
-653.857	800.000	0.064	-0.226
-652.843	412.534	-0.208	0.443
-651.828	66.914	-0.264	0.270
-650.814	-166.036	-0.257	0.011
-649.799	69.985	0.105	-0.109
-648.784	18.182	0.041	0.033
-647.770	376.521	-0.093	0.191
-646.755	-165.674	-0.313	-0.014
-645.741	-62.631	0.274	-0.114
-644.726	86.778	-0.180	0.199
-643.711	277.800	0.285	-0.510
-642.697	-189.398	-0.337	-0.004
-641.682	-37.048	0.134	0.072
-640.668	-24.000	-0.158	-0.095
-639.653	-55.161	0.371	0.167
-638.638	-6.543	-0.368	0.252
-637.624	-37.569	-0.220	0.118
-636.609	-43.243	0.253	-0.129
-635.595	-53.643	-0.177	0.081
-634.580	110.123	-0.178	-0.214
-633.565	180.912	-0.112	0.165
-632.551	340.226	0.178	0.348
-631.536	62.416	-0.174	-0.175
-630.522	139.242	-0.293	-0.387
-629.507	-145.997	-0.231	-0.021
-628.492	-153.886	-0.272	-0.019
-627.478	-59.886	-0.451	0.194
-626.463	-92.690	-0.222	-0.063
-625.449	-110.111	-0.264	0.055
-624.434	-115.807	-0.344	0.065
-623.419	77.538	-0.130	-0.139
-622.405	-163.272	-0.180	0.009
-621.390	179.185	0.053	-0.078
-620.376	-12.040	0.068	0.045
-619.361	-69.743	0.211	-0.081
-618.346	-183.861	0.291	0.005
-617.332	-200.000	-0.004	-0.093
-616.317	-200.000	0.006	-0.220
-615.303	800.000	0.068	-0.223
-614.288	-34.446	0.192	0.106
-613.273	-63.333	-0.250	-0.103
-612.259	479.837	0.100	0.228
-611.244	-200.000	-0.020	-0.351
-610.230	800.000	0.069	-0.209
-609.215	651.295	0.089	-0.228
-608.201	-200.000	0.079	-0.400
-607.186	99.197	0.209	-0.242
-606.171	313.123	-0.032	-0.060
-605.157	-73.795	0.108	-0.040
-604.142	-81.583	0.071	0.023
-603.128	800.000	0.115	-0.336
-602.113	-173.783	0.225	0.007
-601.098	-136.177	0.111	0.013
-600.084	-184.952	0.256	0.004
-599.069	332.257	0.163	-0.315
-598.055	-80.189	0.376	-0.126
-597.040	800.000	0.111	-0.327
-596.025	-109.722	-0.299	0.063
-595.011	527.953	-0.048	0.113
-593.996	-86.429	0.054	0.017
-592.982	310.936	-0.072	0.135
-591.967	-200.000	-0.004	0.066
-590.952	157.820	0.047	-0.066
-589.938	49.536	-0.117	0.110
-588.923	52.669	-0.175	-0.167
-587.909	-126.602	-0.418	-0.062
-586.894	-120.394	-0.258	0.044
-585.879	189.776	0.125	-0.188
-584.865	-174.691	0.112	-0.003
-583.850	-0.118	0.149	0.106
-582.836	-166.252	-0.334	-0.014
-581.821	-16.561	0.216	0.137
-580.806	-200.000	0.002	-0.089
-579.792	106.473	0.104	-0.123
-578.777	-119.848	0.204	-0.035
-577.763	239.906	-0.124	-0.207
-576.748	-11.236	0.182	0.120
-575.733	457.608	-0.089	0.199
-574.719	-59.527	-0.163	-0.070
-573.704	-138.339	0.314	0.035
-572.690	-67.250	-0.288	-0.114
-571.675	28.109	0.101	-0.086
-570.661	-65.959	0.274	-0.110
-569.646	-53.226	0.374	0.172
-568.631	78.052	0.219	-0.234
-567.617	-11.341	-0.137	0.091
-566.602	-59.302	-0.167	0.072
-565.588	-82.656	-0.200	0.065
-564.573	-6.405	-0.139	-0.095
-563.558	-200.000	0.042	-0.282
-562.544	16.617	-0.124	-0.098
-561.529	-200.000	0.011	-0.139
-560.515	148.325	-0.097	-0.131
-559.500	261.061	-0.150	-0.260
-558.485	346.715	0.077	-0.152
-557.471	30.944	-0.070	-0.060
-556.456	570.058	-0.170	-0.413
-555.442	-141.749	-0.237	0.024
-554.427	-80.910	-0.326	0.108
-553.412	149.241	-0.106	0.143
-552.398	-141.308	-0.289	-0.029
-551.383	-56.027	-0.120	-0.053
-550.369	587.717	-0.096	0.236
-549.354	-36.123	0.243	0.131
-548.339	479.449	-0.057	-0.129
-547.325	-147.002	-0.269	-0.023
-546.310	198.019	0.118	0.180
-545.296	695.521	0.003	-0.009
-544.281	800.000	0.050	-0.184
-543.266	-89.499	0.072	0.021
-542.252	100.537	-0.285	0.332
-541.237	-200.000	-0.026	0.486
-540.223	24.804	0.025	-0.021
-539.208	-200.000	-0.038	-0.323
-538.193	229.863	-0.074	-0.122
-537.179	-200.000	-0.096	-0.496
-536.164	-132.630	-0.128	0.016
-535.150	86.767	-0.100	-0.110
-534.135	-200.000	-0.032	0.190
-533.121	-80.346	-0.409	-0.137
-532.106	800.000	-0.084	-0.349
-531.091	-200.000	-0.010	0.359
-530.077	-96.603	-0.136	0.036
-529.062	800.000	-0.067	-0.250
-528.048	-110.594	-0.161	0.033
-527.033	800.000	-0.114	-0.412
-526.018	-200.000	0.092	0.485
-525.004	71.226	0.277	0.288
-523.989	-96.715	-0.341	0.090
-522.975	800.000	0.043	0.187
-521.960	-143.246	0.149	-0.014
-520.945	-200.000	-0.009	-0.293
-519.931	-200.000	0.003	-0.221
-518.916	-200.000	0.027	-0.138
-517.902	666.045	-0.036	0.094
-516.887	-200.000	-0.020	0.237
-515.872	220.429	-0.049	0.079
-514.858	125.071	0.155	0.196
-513.843	-200.000	-0.023	-0.220
-512.829	642.195	0.103	0.262
-511.814	19.814	-0.207	0.167
-510.799	800.000	-0.035	-0.141
-509.785	800.000	-0.051	0.220
-508.770	-142.072	-0.215	-0.021
-507.756	6.478	0.277	-0.205
-506.741	8.208	0.243	0.182
-505.726	-200.000	0.003	-0.228
-504.712	-13.673	-0.399	-0.258
-503.697	800.000	-0.076	-0.232
-502.683	-55.936	0.222	0.099
-501.668	-108.052	-0.321	0.070
-500.653	-200.000	0.004	-0.246
-499.639	-200.000	-0.028	-0.258
-498.624	264.222	0.209	0.363
-497.610	-26.043	0.084	-0.049
-496.595	800.000	0.049	-0.190
-495.581	-200.000	0.006	-0.048
-494.566	-123.235	-0.069	-0.011
-493.551	-99.673	-0.086	0.021
-492.537	-200.000	0.032	0.226
-491.522	298.770	0.061	0.111
-490.508	29.414	-0.532	0.451
-489.493	133.260	-0.142	0.183
-488.478	-87.341	0.422	0.128
-487.464	-199.565	-0.391	0.002
-486.449	246.848	-0.095	-0.160
-485.435	-104.697	0.102	0.023
-484.420	78.746	0.205	-0.219
-483.405	800.000	-0.100	-0.383
-482.391	185.332	0.116	-0.171
-481.376	35.140	-0.057	-0.050
-480.362	-100.762	-0.067	0.016
-479.347	71.609	-0.146	-0.151
-478.332	47.122	0.134	-0.125
-477.318	-86.003	0.361	0.111
-476.303	-55.404	-0.203	-0.091
-475.289	-143.198	0.166	-0.016
-474.274	800.000	-0.036	0.140
-473.259	-79.108	0.068	-0.023
-472.245	136.669	-0.187	0.243
-471.230	-124.992	-0.301	0.046
-470.216	646.453	-0.065	0.166
-469.201	82.919	-0.195	0.211
-468.186	-84.238	0.215	-0.068
-467.172	-200.000	-0.019	0.135
-466.157	-72.460	-0.217	0.080
-465.143	118.120	0.158	0.194
-464.128	-200.000	0.020	0.231
-463.113	-95.509	0.021	0.006
-462.099	-200.000	0.030	0.232
-461.084	413.852	0.043	0.091
-460.070	131.977	0.240	0.309
-459.055	-200.000	-0.005	-0.215
-458.040	-65.768	0.192	-0.077
-457.026	682.810	-0.026	0.068
-456.011	-147.300	0.199	-0.017
-454.997	-56.884	0.239	-0.105
-453.982	315.940	0.097	-0.183
-452.968	495.787	0.137	0.313
-451.953	-155.843	0.178	0.011
-450.938	26.916	0.216	0.180
-449.924	227.978	-0.194	0.315
-448.909	-15.936	0.026	-0.017
-447.895	-187.110	0.344	-0.005
-446.880	5.464	-0.289	-0.213
-445.865	-17.981	-0.071	-0.044
-444.851	800.000	0.051	-0.204
-443.836	668.504	-0.083	-0.214
-442.822	-200.000	-0.076	-0.457
-441.807	98.958	-0.068	0.078
-440.792	-72.513	0.356	-0.131
-439.778	26.710	0.105	-0.088
-438.763	40.817	-0.211	0.189
-437.749	155.143	0.190	-0.261
-436.734	-200.000	0.019	-0.181
-435.719	769.469	0.155	0.420
-434.705	135.152	-0.026	-0.034
-433.690	-184.852	0.072	-0.001
-432.676	-200.000	0.026	0.122
-431.661	58.769	-0.139	-0.136
-430.646	-200.000	-0.003	-0.169
-429.632	-121.302	-0.184	-0.031
-428.617	84.250	-0.164	-0.178
-427.603	-78.124	0.243	-0.083
-426.588	-146.908	-0.282	0.024
-425.573	800.000	0.057	-0.200
-424.559	189.062	0.059	-0.088
-423.544	134.572	-0.269	-0.347
-422.530	102.090	0.083	0.096
-421.515	-67.614	0.269	-0.105
-420.500	800.000	0.093	0.272
-419.486	-200.000	-0.022	0.632
-418.471	-200.000	-0.001	0.124
-417.457	-48.796	-0.190	-0.091
-416.442	223.910	-0.145	0.233
-415.428	-200.000	0.014	-0.242
-414.413	218.967	0.049	0.078
-413.398	-163.207	-0.131	0.006
-412.384	252.729	-0.040	0.068
-411.369	114.777	0.082	-0.100
-410.355	-48.057	0.081	-0.039
-409.340	9.361	0.118	0.089
-408.325	800.000	-0.062	0.256
-407.311	-200.000	-0.041	0.282
-406.296	-51.223	0.098	-0.046
-405.282	800.000	-0.042	0.150
-404.267	-126.802	0.313	-0.046
-403.252	25.478	0.102	0.085
-402.238	-200.000	0.022	-0.164
-401.223	-45.556	0.269	0.133
-400.209	-200.000	-0.001	0.256
-399.194	260.873	-0.199	-0.342
-398.179	-85.329	0.153	0.047
-397.165	-126.208	0.098	0.015
-396.150	-200.000	-0.023	0.206
-395.136	-109.767	0.112	0.023
-394.121	321.798	0.024	0.046
-393.106	-141.097	-0.135	-0.014
-392.092	-17.870	-0.092	-0.057
-391.077	-15.750	-0.181	-0.115
-390.063	-109.371	0.265	0.056
-389.048	-200.000	0.067	-0.373
-388.033	-38.320	0.250	0.132
-387.019	86.400	-0.176	0.193
-386.004	-25.413	-0.305	-0.179
-384.990	-200.000	0.024	0.132
-383.975	-7.723	-0.088	0.059
-382.960	467.521	0.188	0.419
-381.946	-76.086	0.284	0.100
-380.931	509.290	0.079	-0.183
-379.917	92.907	0.244	0.274
-378.902	800.000	0.096	-0.266
-377.888	321.669	-0.066	-0.125
-376.873	-31.994	-0.334	-0.186
-375.858	-76.987	-0.317	-0.110
-374.844	-101.140	-0.432	0.105
-373.829	800.000	0.086	0.288
-372.815	-200.000	-0.017	0.094
-371.800	279.504	-0.044	0.078
-370.785	-10.683	0.095	0.062
-369.771	224.478	-0.008	-0.013
-368.756	60.935	0.268	-0.264
-367.742	800.000	-0.114	0.476
-366.727	-73.571	-0.173	-0.063
-365.712	-135.424	-0.346	0.041
-364.698	77.234	0.294	-0.311
-363.683	574.406	0.041	-0.099
-362.669	692.988	0.020	0.052
-361.654	-20.420	-0.140	-0.085
-360.639	-166.482	-0.210	-0.009
-359.625	-169.492	-0.071	-0.003
-358.610	-200.000	-0.031	-0.235
-357.596	-200.000	0.053	-0.342
-356.581	-166.078	-0.212	0.009
-355.566	-200.000	-0.006	-0.057
-354.552	-27.074	0.135	0.078
-353.537	-15.313	-0.278	0.176
-352.523	800.000	0.058	-0.196
-351.508	-172.308	0.221	-0.007
-350.493	48.762	-0.221	0.206
-349.479	-96.323	0.284	0.075
-348.464	-94.977	0.208	0.056
-347.450	-114.058	-0.097	-0.019
-346.435	-92.977	0.209	0.058
-345.420	-145.148	-0.322	0.029
-344.406	-117.608	0.143	0.026
-343.391	13.730	-0.184	-0.142
-342.377	-200.000	-0.018	0.245
-341.362	450.382	-0.104	-0.228
-340.348	-200.000	-0.016	0.160
-339.333	-124.740	-0.143	-0.022
-338.318	7.934	0.088	0.065
-337.304	32.526	0.204	0.175
-336.289	-140.840	-0.350	0.036
-335.275	73.413	0.107	-0.111
-334.260	31.344	0.115	-0.098
-333.245	208.603	0.107	0.167
-332.231	-40.370	-0.291	-0.150
-331.216	466.079	-0.054	0.120
-330.202	49.256	-0.164	0.153
-329.187	-120.339	0.296	0.050
-328.172	-200.000	0.060	-0.349
-327.158	-117.266	-0.083	0.015
-326.143	121.388	-0.055	0.067
-325.129	-24.734	-0.069	0.041
-324.114	-132.017	0.365	0.047
-323.099	161.599	0.118	-0.164
-322.085	285.954	-0.103	-0.184
-321.070	-43.731	-0.272	0.136
-320.056	654.988	-0.099	-0.252
-319.041	286.342	0.127	0.227
-318.026	50.413	-0.054	-0.051
-317.012	-36.790	0.270	0.143
-315.997	227.240	0.200	-0.323
-314.983	12.372	-0.053	-0.041
-313.968	-74.151	0.394	-0.141
-312.953	76.833	-0.040	0.042
-311.939	-200.000	-0.035	0.181
-310.924	-200.000	0.020	0.144
-309.910	-200.000	0.030	0.316
-308.895	-35.846	-0.271	0.145
-307.880	68.965	0.137	0.139
-306.866	514.427	-0.191	-0.441
-305.851	-92.860	-0.321	0.089
-304.837	36.890	0.052	0.045
-303.822	-85.551	0.357	0.110
-302.807	800.000	-0.035	0.102
-301.793	16.440	-0.109	-0.085
-300.778	-57.065	0.266	0.116
-299.764	-46.865	-0.150	-0.072
-298.749	-200.000	-0.011	-0.152
-297.735	-173.090	-0.157	0.005
-296.720	203.016	0.091	0.140
-295.705	800.000	0.103	-0.359
-294.691	-93.788	-0.149	0.041
-293.676	-121.561	0.132	-0.022
-292.662	-68.544	0.472	0.181
-291.647	-200.000	0.006	0.055
-290.632	-200.000	0.031	0.417
-289.618	-159.953	0.036	0.002
-288.603	-109.167	-0.129	0.027
-287.589	-2.666	0.318	-0.220
-286.574	238.352	0.163	-0.268
-285.559	800.000	0.054	0.154
-284.545	-200.000	0.016	-0.076
-283.530	-161.139	-0.184	0.010
-282.516	-125.812	-0.254	0.038
-281.501	-15.692	-0.156	0.099
-280.486	-200.000	-0.439	-0.002
-279.472	800.000	0.056	0.231
-278.457	-41.382	0.121	-0.062
-277.443	-200.000	0.016	-0.248
-276.428	736.374	0.166	-0.441
-275.413	-200.000	-0.032	0.179
-274.399	-124.456	-0.232	0.036
-273.384	-79.315	-0.491	-0.165
-272.370	3.915	-0.087	-0.063
-271.355	-83.944	0.336	-0.106
-270.340	-116.486	0.184	-0.034
-269.326	-132.538	-0.215	0.027
-268.311	-200.000	0.013	-0.159
-267.297	-61.370	0.265	0.110
-266.282	-21.355	0.085	-0.051
-265.267	-200.000	0.064	-0.388
-264.253	-58.920	0.036	0.016
-263.238	-101.055	-0.187	0.045
-262.224	14.907	0.187	0.145
-261.209	-101.203	0.140	-0.034
-260.195	-141.652	0.299	0.030
-259.180	13.362	0.207	0.159
-258.165	91.777	0.257	-0.286
-257.151	67.683	-0.229	0.231
-256.136	-128.688	0.103	0.014
-255.122	283.407	-0.017	0.031
-254.107	800.000	0.178	0.512
-253.092	59.684	0.185	0.180
-252.078	33.297	0.294	0.252
-251.063	-172.344	0.490	0.015
-250.049	-200.000	0.002	-0.044
-249.034	-43.821	0.095	0.047
-248.019	-29.114	-0.178	-0.101
-247.005	-32.930	-0.409	-0.224
-245.990	800.000	0.132	-0.440
-244.976	27.642	-0.084	0.070
-243.961	-76.754	0.112	0.039
-242.946	-8.592	-0.129	-0.086
-241.932	-97.585	-0.333	0.086
-240.917	-4.867	-0.161	-0.109
-239.903	-200.000	-0.022	0.146
-238.888	35.140	-0.075	-0.065
-237.873	8.022	0.125	0.093
-236.859	-102.488	-0.255	-0.060
-235.844	800.000	0.078	0.245
-234.830	-38.674	0.457	-0.238
-233.815	46.363	-0.181	0.165
-232.800	6.026	-0.079	-0.058
-231.786	164.011	0.018	-0.026
-230.771	-21.140	-0.405	-0.244
-229.757	69.229	-0.047	0.048
-228.742	-200.000	0.029	0.125
-227.727	623.213	0.069	-0.171
-226.713	514.096	-0.088	-0.203
-225.698	796.619	0.158	0.429
-224.684	0.428	0.099	-0.070
-223.669	338.190	-0.043	-0.083
-222.655	-200.000	-0.011	0.342
-221.640	108.240	0.047	0.056
-220.625	-100.410	0.245	-0.060
-219.611	32.140	0.176	0.150
-218.596	-29.992	-0.083	0.047
-217.582	-35.148	0.340	-0.183
-216.567	-26.031	-0.069	-0.040
-215.552	-192.032	-0.103	0.001
-214.538	626.330	0.061	0.153
-213.523	37.603	0.074	0.065
-212.509	26.409	-0.237	-0.196
-211.494	157.959	0.043	0.058
-210.479	-82.479	0.148	-0.047
-209.465	-90.459	0.221	0.063
-208.450	-138.349	-0.111	-0.012
-207.436	488.410	-0.060	-0.135
-206.421	111.278	-0.130	0.155
-205.406	218.787	0.221	-0.348
-204.392	-169.597	-0.131	-0.005
-203.377	800.000	-0.103	0.379
-202.363	800.000	-0.052	0.160
-201.348	89.313	-0.295	0.325
-200.333	136.328	-0.120	-0.154
-199.319	94.040	0.025	-0.027
-198.304	180.894	-0.104	-0.151
-197.290	-101.825	0.057	0.014
-196.275	-76.408	0.113	-0.039
-195.260	-200.000	0.033	-0.185
-194.246	417.825	0.178	0.376
-193.231	-200.000	0.050	-0.265
-192.217	89.778	-0.167	0.184
-191.202	-47.404	0.105	0.050
-190.187	57.258	-0.176	-0.169
-189.173	-160.580	0.444	0.023
-188.158	-200.000	0.034	0.495
-187.144	800.000	0.057	0.190
-186.129	157.526	0.154	-0.210
-185.114	-79.907	-0.308	-0.102
-184.100	-66.304	-0.090	0.035
-183.085	-92.599	-0.122	0.034
-182.071	769.768	-0.026	-0.070
-181.056	-200.000	0.009	0.216
-180.042	39.887	0.307	-0.271
-179.027	-175.668	0.169	-0.005
-178.012	265.117	-0.085	0.146
-176.998	21.441	0.079	0.063
-175.983	-74.804	0.385	0.136
-174.969	362.320	-0.073	-0.145
-173.954	-97.576	0.249	0.064
-172.939	-72.781	0.157	0.057
-171.925	-50.054	0.228	0.107
-170.910	-57.026	-0.071	0.031
-169.896	15.107	0.298	0.230
-168.881	-22.155	-0.365	0.219
-167.866	-49.695	0.152	-0.071
-166.852	-200.000	0.014	0.086
-165.837	-200.000	0.035	0.225
-164.823	55.599	-0.097	0.093
-163.808	-113.843	0.178	-0.034
-162.793	702.500	0.123	0.318
-161.779	344.389	0.142	0.274
-160.764	-97.786	0.459	-0.117
-159.750	800.000	0.053	0.189
-158.735	570.262	0.096	0.230
-157.720	249.630	-0.148	0.248
-156.706	-200.000	0.014	-0.234
-155.691	86.888	-0.208	0.226
-154.677	-7.455	0.266	0.177
-153.662	31.864	-0.181	-0.154
-152.647	193.148	-0.066	-0.098
-151.633	105.106	-0.110	-0.128
-150.618	-78.840	-0.278	-0.093
-149.604	379.936	-0.125	0.252
-148.589	-44.585	-0.108	0.053
-147.574	-27.950	-0.075	0.043
-146.560	800.000	0.005	0.018
-145.545	-27.446	0.331	-0.190
-144.531	379.306	-0.031	-0.062
-143.516	93.220	0.192	0.213
-142.502	-200.000	0.008	-0.104
-141.487	-200.000	0.090	0.431
-140.472	-71.841	0.192	0.071
-139.458	41.291	0.039	-0.035
-138.443	-105.368	-0.119	-0.027
-137.429	-200.000	-0.016	0.149
-136.414	36.819	0.224	0.195
-135.399	15.103	0.159	-0.123
-134.385	800.000	0.140	-0.512
-133.370	617.039	-0.037	-0.091
-132.356	-200.000	-0.043	-0.222
-131.341	395.789	-0.118	0.241
-130.326	109.241	-0.153	-0.180
-129.312	699.217	-0.076	0.197
-128.297	-130.808	0.164	0.022
-127.283	800.000	0.042	0.141
-126.268	94.507	0.259	0.290
-125.253	15.379	-0.226	0.175
-124.239	-125.773	0.121	0.018
-123.224	200.535	-0.038	-0.058
-122.210	17.765	-0.181	0.142
-121.195	548.575	-0.111	-0.263
