DTS Sentinel unit serial number:	SN413079Multiplexer serial number:	ORYXHardware model number:	OX4-SRSoftware version number:	ORYX F/W v4.00 Oryx Data Collector v3.7.2.0data status	okinstallation	princeton_trtdifferential loss correction	single-endedforward channel	channel 2reverse channel	N/Adate	2019/09/13time	07:19:34forward acquisition time	60.00reverse acquisition time	0.00gamma	496.2192k internal	0.2337k external	0.2337temperature offset calibration	1.0200default loss term (dB/km)	0.3790temperature slope calibration	1.0000multiplexer offset coefficient	1.0000multiplexer slope coefficient	1.0000fibre end	0.00T internal ref (°C)	26.06T ext. ref 1 (°C)	4.17T ext. ref 2 (°C)	21.55length (m)	temperature (°C)	Stokes	anti-Stokes-747.200	34.761	-0.132	-0.116
-746.185	-200.000	0.044	0.207
-745.171	-200.000	-0.027	0.262
-744.156	-131.553	-0.427	-0.056
-743.142	-30.645	0.085	0.048
-742.127	777.613	-0.056	0.152
-741.112	-152.397	0.339	-0.024
-740.098	-124.264	-0.395	-0.062
-739.083	-78.022	0.113	-0.039
-738.069	188.364	-0.023	-0.034
-737.054	77.826	-0.178	-0.190
-736.039	800.000	0.033	-0.113
-735.025	639.702	0.061	-0.156
-734.010	124.386	-0.157	-0.198
-732.996	12.168	-0.392	-0.303
-731.981	-97.206	0.127	-0.033
-730.966	-23.417	0.119	-0.072
-729.952	165.831	-0.112	0.158
-728.937	67.080	-0.058	0.060
-727.923	219.878	-0.073	-0.118
-726.908	-115.501	0.310	-0.059
-725.894	-38.906	-0.038	0.020
-724.879	459.279	0.063	0.141
-723.864	-200.000	-0.028	0.146
-722.850	1.187	0.075	-0.054
-721.835	-200.000	0.049	-0.303
-720.821	-112.599	0.194	-0.039
-719.806	800.000	0.113	-0.348
-718.791	800.000	0.089	-0.290
-717.777	800.000	-0.031	0.126
-716.762	-200.000	0.011	0.153
-715.748	399.347	0.077	0.162
-714.733	-56.893	0.262	-0.116
-713.718	317.968	-0.092	0.175
-712.704	-157.550	-0.092	-0.006
-711.689	-60.163	0.177	-0.075
-710.675	39.559	-0.067	-0.060
-709.660	-200.000	0.011	0.143
-708.645	123.980	-0.229	-0.288
-707.631	-128.739	-0.262	-0.037
-706.616	-86.982	-0.456	0.139
-705.602	22.821	0.195	-0.160
-704.587	436.779	0.093	-0.202
-703.572	-200.000	0.005	0.063
-702.558	-200.000	0.045	0.240
-701.543	-103.187	-0.468	-0.111
-700.529	296.464	0.116	-0.212
-699.514	688.223	0.100	-0.262
-698.499	137.785	-0.122	0.160
-697.485	321.672	0.076	0.144
-696.470	-153.650	-0.383	-0.026
-695.456	-94.349	-0.254	-0.070
-694.441	300.696	0.171	-0.317
-693.426	571.305	0.104	0.255
-692.412	6.115	0.456	-0.339
-691.397	800.000	0.036	-0.133
-690.383	-122.850	0.155	0.025
-689.368	-22.704	-0.203	0.123
-688.354	-200.000	-0.019	0.205
-687.339	-33.265	0.282	-0.156
-686.324	106.741	0.322	-0.383
-685.310	800.000	0.031	0.130
-684.295	25.383	0.336	-0.280
-683.281	-200.000	-0.002	-0.227
-682.266	-200.000	0.017	0.173
-681.251	-78.587	-0.490	-0.168
-680.237	-134.348	-0.080	0.010
-679.222	-83.595	0.070	-0.023
-678.208	-200.000	0.037	0.253
-677.193	105.340	0.325	-0.384
-676.178	-160.824	-0.246	0.013
-675.164	-22.606	0.380	0.230
-674.149	388.847	0.127	-0.263
-673.135	37.809	-0.117	-0.104
-672.120	-200.000	-0.009	-0.212
-671.105	-200.000	0.021	0.134
-670.091	800.000	0.079	0.300
-669.076	-105.926	-0.188	0.042
-668.062	-200.000	-0.016	-0.110
-667.047	44.595	-0.068	-0.062
-666.032	-62.531	-0.196	-0.081
-665.018	-11.202	0.204	0.134
-664.003	48.977	0.091	0.085
-662.989	-200.000	0.103	0.000
-661.974	47.795	-0.148	-0.139
-660.959	3.829	0.210	-0.154
-659.945	-14.184	0.177	0.114
-658.930	-35.256	-0.151	0.082
-657.916	-70.273	0.059	0.023
-656.901	-191.980	0.227	-0.002
-655.886	14.640	-0.130	0.101
-654.872	-132.247	-0.122	0.016
-653.857	-126.376	0.289	-0.043
-652.843	800.000	-0.065	-0.256
-651.828	14.520	-0.137	0.107
-650.814	249.261	-0.045	-0.077
-649.799	348.304	-0.112	0.221
-648.784	-200.000	-0.017	0.238
-647.770	-200.000	0.018	0.319
-646.755	236.438	0.139	0.231
-645.741	-200.000	-0.018	0.204
-644.726	-112.006	-0.116	-0.023
-643.711	185.311	0.138	-0.206
-642.697	-77.830	0.331	-0.114
-641.682	800.000	0.009	-0.038
-640.668	86.793	-0.183	0.202
-639.653	46.274	0.185	-0.171
-638.638	-23.803	0.247	-0.148
-637.624	42.620	0.159	-0.145
-636.609	-200.000	0.003	0.054
-635.595	-34.758	-0.093	-0.051
-634.580	-200.000	-0.269	0.001
-633.565	-200.000	-0.040	-0.374
-632.551	800.000	0.061	-0.207
-631.536	-200.000	-0.038	0.192
-630.522	-200.000	0.009	-0.140
-629.507	39.304	0.101	0.091
-628.492	-68.012	-0.322	0.125
-627.478	-35.847	-0.111	-0.060
-626.463	-39.461	0.075	0.039
-625.449	6.123	0.383	0.284
-624.434	51.504	0.127	0.120
-623.419	407.624	0.137	0.289
-622.405	270.359	-0.216	0.380
-621.390	-200.000	-0.016	-0.087
-620.376	-200.000	-0.020	-0.265
-619.361	-103.503	0.217	0.051
-618.346	-200.000	0.001	0.068
-617.332	800.000	0.077	0.262
-616.317	800.000	0.075	-0.264
-615.303	86.475	0.069	-0.076
-614.288	766.779	0.066	-0.179
-613.273	-116.592	-0.211	-0.039
-612.259	61.307	0.187	-0.185
-611.244	55.932	0.207	-0.200
-610.230	-48.940	-0.214	0.102
-609.215	-134.048	0.299	-0.037
-608.201	800.000	0.115	0.384
-607.186	-65.433	-0.216	0.087
-606.171	99.817	0.123	-0.142
-605.157	-200.000	-0.003	-0.177
-604.142	53.483	-0.194	-0.186
-603.128	-73.350	-0.024	0.009
-602.113	-177.368	0.314	0.008
-601.098	359.923	-0.068	0.135
-600.084	35.593	-0.152	-0.133
-599.069	-0.790	-0.244	-0.173
-598.055	101.957	0.154	0.179
-597.040	-144.961	-0.140	-0.013
-596.025	264.494	0.055	0.096
-595.011	35.581	0.090	0.079
-593.996	-200.000	-0.002	0.267
-592.982	277.322	0.331	-0.587
-591.967	-89.864	-0.228	-0.066
-590.952	-72.972	-0.112	-0.041
-589.938	800.000	-0.115	-0.321
-588.923	-200.000	0.048	0.251
-587.909	-138.446	0.081	0.009
-586.894	298.286	0.114	0.210
-585.879	534.586	-0.059	0.140
-584.865	-101.965	-0.099	-0.024
-583.850	-200.000	0.018	0.171
-582.836	800.000	0.046	-0.140
-581.821	-123.103	-0.025	0.004
-580.806	328.149	0.168	-0.322
-579.792	147.091	-0.062	-0.083
-578.777	336.711	-0.188	0.365
-577.763	-200.000	0.028	-0.142
-576.748	-86.737	0.039	-0.012
-575.733	-112.458	0.400	0.080
-574.719	-50.825	0.286	0.134
-573.704	800.000	0.072	-0.269
-572.690	76.589	-0.137	0.145
-571.675	456.437	-0.196	0.433
-570.661	-10.209	-0.157	0.104
-569.646	174.861	-0.105	-0.152
-568.631	-82.822	0.485	0.156
-567.617	-200.000	0.018	-0.120
-566.602	-124.462	0.677	-0.105
-565.588	640.838	-0.022	-0.055
-564.573	87.441	-0.101	-0.111
-563.558	-96.862	0.181	-0.047
-562.544	-200.000	-0.008	0.185
-561.529	800.000	0.025	0.069
-560.515	537.979	0.093	0.221
-559.500	-181.010	-0.053	0.001
-558.485	-200.000	-0.030	0.136
-557.471	800.000	0.093	0.368
-556.456	800.000	0.088	-0.312
-555.442	109.415	0.304	0.363
-554.427	-200.000	-0.001	0.250
-553.412	-87.384	-0.364	0.110
-552.398	105.168	0.049	-0.058
-551.383	-91.219	-0.205	0.059
-550.369	-27.409	-0.190	0.110
-549.354	181.162	-0.166	0.244
-548.339	-166.370	0.227	-0.010
-547.325	15.817	-0.364	0.285
-546.310	191.912	0.053	0.079
-545.296	-85.882	0.204	-0.063
-544.281	-200.000	0.012	0.183
-543.266	234.460	-0.058	-0.095
-542.252	14.526	0.083	-0.065
-541.237	78.447	0.096	-0.102
-540.223	56.251	0.086	0.083
-539.208	-98.186	-0.371	0.095
-538.193	-200.000	0.009	-0.265
-537.179	2.818	0.167	-0.121
-536.164	330.007	0.040	-0.077
-535.150	-191.528	-0.240	0.002
-534.135	-130.791	0.064	-0.009
-533.121	-128.973	-0.226	0.032
-532.106	276.405	0.201	-0.355
-531.091	800.000	0.133	0.377
-530.077	-3.054	-0.152	-0.106
-529.062	68.744	-0.155	0.159
-528.048	-113.736	0.046	-0.009
-527.033	-64.178	0.401	-0.163
-526.018	326.459	-0.074	-0.142
-525.004	-112.199	-0.125	0.025
-523.989	92.383	-0.190	0.213
-522.975	14.056	0.152	0.117
-521.960	429.735	-0.034	0.073
-520.945	800.000	-0.017	-0.054
-519.931	-145.990	-0.162	0.014
-518.916	384.951	0.032	-0.065
-517.902	527.454	-0.064	-0.150
-516.887	-94.536	-0.083	-0.023
-515.872	398.380	-0.092	0.191
-514.858	142.026	0.074	-0.098
-513.843	800.000	-0.038	-0.144
-512.829	176.867	-0.191	-0.277
-511.814	-140.766	0.029	-0.003
-510.799	31.344	-0.280	0.239
-509.785	-165.372	0.507	-0.022
-508.770	30.673	-0.094	-0.080
-507.756	3.508	0.040	-0.029
-506.741	800.000	-0.033	-0.099
-505.726	-200.000	-0.364	0.001
-504.712	56.549	0.062	-0.060
-503.697	47.022	-0.277	0.256
-502.683	72.506	0.078	-0.081
-501.668	450.904	-0.092	0.203
-500.653	-200.000	0.024	-0.292
-499.639	225.660	-0.095	0.152
-498.624	-200.000	-0.020	-0.288
-497.610	58.498	0.199	-0.194
-496.595	-106.123	0.157	-0.035
-495.581	31.903	0.098	0.084
-494.566	69.986	-0.048	-0.050
-493.551	-200.000	-0.034	0.407
-492.537	-81.551	-0.451	0.147
-491.522	-94.838	0.200	-0.054
-490.508	-18.415	0.218	-0.135
-489.493	-158.193	-0.283	0.016
-488.478	-147.620	0.249	0.021
-487.464	-200.000	0.044	-0.339
-486.449	71.894	-0.104	0.108
-485.435	32.076	0.057	0.049
-484.420	88.747	-0.135	0.149
-483.405	215.857	0.086	0.136
-482.391	-200.000	-0.028	0.381
-481.376	-56.659	-0.266	0.117
-480.362	56.892	0.398	0.386
-479.347	-200.000	-0.038	0.415
-478.332	110.350	-0.171	-0.204
-477.318	-108.595	0.343	-0.073
-476.303	55.515	-0.126	-0.121
-475.289	-200.000	0.013	0.392
-474.274	-61.412	-0.046	0.019
-473.259	1.392	-0.191	-0.137
-472.245	657.025	-0.045	-0.116
-471.230	-38.281	-0.387	-0.203
-470.216	189.715	0.057	0.085
-469.201	-200.000	0.083	-0.411
-468.186	73.759	0.264	0.275
-467.172	-137.963	0.237	-0.026
-466.157	630.075	0.051	0.128
-465.143	-44.451	0.156	-0.078
-464.128	800.000	0.102	-0.329
-463.113	18.684	0.260	-0.206
-462.099	800.000	-0.032	0.105
-461.084	-200.000	-0.016	0.330
-460.070	89.146	-0.187	-0.207
-459.055	90.954	-0.191	0.213
-458.040	-117.810	0.108	-0.019
-457.026	69.348	-0.327	-0.334
-456.011	28.501	0.110	-0.093
-454.997	-185.506	-0.168	-0.003
-453.982	-89.575	0.046	-0.013
-452.968	-111.905	-0.289	-0.058
-451.953	-26.475	0.172	0.100
-450.938	23.341	-0.121	0.098
-449.924	219.365	0.020	-0.031
-448.909	-34.168	0.105	0.057
-447.895	-200.000	0.093	-0.454
-446.880	7.904	-0.088	-0.065
-445.865	-200.000	0.052	-0.437
-444.851	-181.091	-0.143	-0.003
-443.836	733.311	-0.103	-0.273
-442.822	800.000	-0.075	0.271
-441.807	-64.618	0.140	-0.056
-440.792	-74.968	-0.102	0.036
-439.778	-200.000	-0.013	0.258
-438.763	-110.312	-0.156	-0.032
-437.749	-138.764	0.088	0.010
-436.734	-200.000	-0.002	0.091
-435.719	-48.121	-0.036	0.017
-434.705	-19.872	-0.081	-0.050
-433.690	-148.220	0.214	0.018
-432.676	584.743	-0.041	-0.100
-431.661	800.000	-0.107	-0.321
-430.646	292.783	-0.129	0.233
-429.632	800.000	0.043	-0.153
-428.617	-31.056	-0.169	0.095
-427.603	581.927	0.100	-0.243
-426.588	294.568	-0.100	-0.181
-425.573	381.444	-0.147	0.300
-424.559	-160.765	0.314	-0.016
-423.544	29.412	-0.182	0.153
-422.530	-79.708	-0.169	-0.057
-421.515	-200.000	-0.045	-0.236
-420.500	479.430	-0.113	-0.254
-419.486	270.193	0.128	-0.224
-418.471	-44.456	0.437	0.217
-417.457	175.293	0.124	0.178
-416.442	-11.697	-0.183	-0.119
-415.428	-62.874	-0.285	-0.117
-414.413	16.300	0.270	-0.211
-413.398	-178.910	-0.259	0.006
-412.384	-110.617	-0.449	0.092
-411.369	183.837	0.030	0.045
-410.355	-99.640	-0.177	0.044
-409.340	-200.000	-0.337	-0.001
-408.325	-107.785	0.490	-0.106
-407.311	-200.000	0.075	0.342
-406.296	-200.000	-0.036	-0.164
-405.282	-160.658	0.247	-0.013
-404.267	-38.829	0.319	-0.167
-403.252	-200.000	0.014	0.169
-402.238	84.304	-0.134	0.145
-401.223	-119.883	-0.098	-0.017
-400.209	-34.990	0.180	-0.097
-399.194	-200.000	0.026	-0.385
-398.179	800.000	0.124	-0.476
-397.165	800.000	0.049	0.148
-396.150	-42.265	0.319	0.161
-395.136	-125.956	-0.173	0.026
-394.121	161.912	0.084	0.117
-393.106	228.761	-0.061	-0.099
-392.092	157.744	0.208	-0.285
-391.077	-74.276	0.172	0.061
-390.063	-9.854	-0.167	0.110
-389.048	800.000	0.051	-0.209
-388.033	30.898	-0.172	-0.146
-387.019	-200.000	0.007	0.305
-386.004	-200.000	-0.001	0.222
-384.990	800.000	0.091	0.342
-383.975	-200.000	0.025	-0.308
-382.960	218.188	-0.111	0.175
-381.946	-200.000	-0.020	0.150
-380.931	-200.000	0.009	-0.204
-379.917	-21.981	-0.288	0.173
-378.902	34.400	0.203	-0.175
-377.888	13.255	0.060	0.046
-376.873	119.591	-0.098	0.121
-375.858	-77.698	-0.053	0.018
-374.844	127.193	-0.165	-0.207
-373.829	-96.242	-0.526	-0.138
-372.815	1.791	0.142	-0.102
-371.800	-200.000	0.062	-0.284
-370.785	665.818	0.048	0.124
-369.771	-200.000	-0.006	0.360
-368.756	-200.000	-0.012	-0.313
-367.742	178.223	0.051	0.074
-366.727	-21.642	-0.210	0.127
-365.712	-150.686	0.475	-0.036
-364.698	800.000	0.121	-0.359
-363.683	800.000	-0.008	-0.029
-362.669	312.578	-0.108	-0.201
-361.654	252.226	0.105	-0.177
-360.639	511.451	0.081	-0.187
-359.625	-119.281	0.210	0.036
-358.610	-185.080	0.346	0.005
-357.596	-160.029	-0.379	0.020
-356.581	724.721	-0.172	-0.453
-355.566	102.227	0.178	-0.206
-354.552	-200.000	0.013	0.098
-353.537	128.560	0.102	-0.129
-352.523	-163.773	-0.150	-0.007
-351.508	-141.935	0.221	-0.022
-350.493	217.070	0.236	0.371
-349.479	37.847	-0.203	-0.179
-348.464	14.637	-0.094	-0.072
-347.450	-200.000	-0.004	0.255
-346.435	800.000	0.100	-0.326
-345.420	-65.123	-0.079	0.032
-344.406	-54.435	0.294	-0.132
-343.391	800.000	-0.066	0.181
-342.377	-200.000	0.002	-0.055
-341.362	-118.271	-0.232	-0.041
-340.348	-36.094	-0.513	-0.274
-339.333	-12.571	0.152	-0.098
-338.318	274.259	-0.160	0.279
-337.304	-131.198	0.219	0.029
-336.289	-200.000	0.000	0.267
-335.275	-79.899	-0.290	-0.096
-334.260	-200.000	0.490	-0.001
-333.245	1.326	0.063	0.045
-332.231	-95.967	0.259	-0.068
-331.216	26.985	-0.085	0.070
-330.202	-133.972	0.453	0.055
-329.187	-200.000	-0.023	-0.190
-328.172	-63.666	0.058	0.023
-327.158	64.685	0.105	-0.104
-326.143	-200.000	0.038	-0.304
-325.129	-91.710	0.192	0.054
-324.114	-110.365	0.018	0.004
-323.099	-65.405	-0.191	-0.076
-322.085	698.085	0.024	-0.061
-321.070	511.554	-0.078	0.179
-320.056	-105.072	-0.091	0.020
-319.041	98.670	-0.160	-0.183
-318.026	-87.181	-0.208	0.062
-317.012	-24.948	0.082	0.048
-315.997	36.755	0.288	-0.251
-314.983	-94.537	0.214	-0.058
-313.968	-59.628	-0.208	0.088
-312.953	-111.361	-0.163	0.033
-311.939	600.335	0.028	-0.068
-310.924	-22.336	-0.390	0.233
-309.910	-200.000	0.020	0.273
-308.895	800.000	-0.131	-0.453
-307.880	-182.486	0.524	0.010
-306.866	526.656	-0.057	0.133
-305.851	800.000	0.063	-0.177
-304.837	428.929	0.055	0.117
-303.822	51.212	0.252	0.236
-302.807	0.461	-0.061	0.043
-301.793	88.575	-0.130	0.143
-300.778	495.323	0.223	-0.505
-299.764	391.995	0.059	-0.122
-298.749	-105.287	0.203	-0.046
-297.735	-101.129	0.370	0.089
-296.720	77.807	0.111	-0.117
-295.705	131.208	-0.150	0.191
-294.691	-200.000	-0.018	0.245
-293.676	261.174	0.160	0.273
-292.662	-94.303	-0.156	-0.042
-291.647	155.605	0.131	0.178
-290.632	141.831	0.171	-0.223
-289.618	19.642	-0.310	-0.246
-288.603	-39.874	-0.090	-0.047
-287.589	257.283	0.069	0.118
-286.574	-134.187	-0.213	0.026
-285.559	2.150	-0.135	-0.096
-284.545	-30.816	0.256	0.142
-283.530	-200.000	0.005	0.165
-282.516	779.817	-0.016	-0.044
-281.501	79.528	0.305	0.323
-280.486	-13.271	-0.188	-0.120
-279.472	-54.022	0.086	-0.039
-278.457	-200.000	-0.021	-0.100
-277.443	-9.211	-0.170	0.112
-276.428	-162.928	0.074	0.004
-275.413	-50.516	0.105	-0.049
-274.399	522.712	-0.125	-0.290
-273.384	-1.779	0.339	-0.235
-272.370	127.986	0.082	0.103
-271.355	7.483	0.301	-0.222
-270.340	107.076	0.051	-0.060
-269.326	310.678	-0.087	-0.161
-268.311	41.635	-0.062	0.056
-267.297	-200.000	0.027	0.122
-266.282	800.000	-0.023	0.097
-265.267	-200.000	-0.017	0.174
-264.253	139.607	-0.064	0.083
-263.238	199.393	-0.059	-0.089
-262.224	-27.041	0.154	0.088
-261.209	328.966	0.070	0.133
-260.195	800.000	-0.035	-0.142
-259.180	-200.000	0.003	0.070
-258.165	-151.248	-0.260	0.019
-257.151	176.535	-0.195	0.279
-256.136	-12.749	-0.178	0.114
-255.122	5.341	-0.025	0.018
-254.107	240.792	-0.095	0.156
-253.092	-143.870	-0.198	-0.018
-252.078	171.914	-0.038	0.054
-251.063	145.343	0.059	-0.078
-250.049	109.969	0.159	0.187
-249.034	72.269	0.254	0.260
-248.019	-200.000	-0.014	-0.459
-247.005	800.000	-0.077	-0.281
-245.990	800.000	0.067	0.223
-244.976	800.000	0.044	0.186
-243.961	706.609	-0.048	0.125
-242.946	701.055	-0.109	-0.282
-241.932	-56.167	0.206	-0.090
-240.917	-142.082	-0.259	-0.025
-239.903	-200.000	-0.003	-0.103
-238.888	-13.966	-0.186	0.118
-237.873	318.381	-0.130	0.242
-236.859	-24.392	0.101	0.059
-235.844	-70.368	-0.103	-0.039
-234.830	-43.765	-0.357	0.177
-233.815	361.712	0.071	0.140
-232.800	-200.000	0.011	-0.456
-231.786	-43.548	0.079	-0.039
-230.771	712.836	-0.068	0.178
-229.757	-24.168	0.391	0.230
-228.742	-150.044	0.128	-0.010
-227.727	14.899	0.199	-0.153
-226.713	487.569	0.090	-0.203
-225.698	163.641	0.013	0.018
-224.684	-103.755	-0.426	0.098
-223.669	85.892	0.098	0.106
-222.655	109.515	0.159	0.188
-221.640	-81.839	0.452	0.146
-220.625	97.343	0.152	-0.172
-219.611	800.000	-0.053	-0.180
-218.596	452.616	-0.155	-0.338
-217.582	800.000	0.052	0.173
-216.567	-37.522	0.042	0.022
-215.552	-13.046	-0.188	-0.120
-214.538	439.855	-0.130	0.280
-213.523	45.670	0.204	-0.185
-212.509	-182.671	0.115	-0.002
-211.494	-200.000	-0.017	0.200
-210.479	-174.363	0.095	0.003
-209.465	-41.027	-0.213	0.108
-208.450	-200.000	-0.047	-0.261
-207.436	138.990	0.197	0.255
-206.421	111.217	-0.258	-0.305
-205.406	-200.000	-0.001	-0.070
-204.392	-144.239	0.206	0.019
-203.377	-116.164	0.288	0.052
-202.363	-200.000	-0.012	0.152
-201.348	-51.109	-0.348	0.160
-200.333	-145.447	0.053	-0.005
-199.319	115.618	-0.196	0.235
-198.304	150.066	0.123	-0.164
-197.290	148.818	-0.134	-0.178
-196.275	101.811	0.042	-0.048
-195.260	646.653	-0.014	-0.034
-194.246	-39.140	0.239	0.123
-193.231	-54.753	-0.362	-0.161
-192.217	800.000	0.119	0.332
-191.202	-46.919	-0.194	0.093
-190.187	248.590	0.048	0.080
-189.173	295.051	0.077	0.139
-188.158	0.121	-0.179	-0.126
-187.144	68.579	-0.138	0.139
-186.129	-57.541	0.074	-0.032
-185.114	-200.000	0.034	-0.280
-184.100	470.484	0.052	0.115
-183.085	-38.901	0.151	-0.078
-182.071	-121.503	-0.390	-0.064
-181.056	-200.000	0.047	0.238
-180.042	282.342	-0.105	0.186
-179.027	118.495	-0.164	0.199
-178.012	-153.154	-0.273	-0.019
-176.998	-11.285	0.102	0.066
-175.983	-200.000	0.053	0.331
-174.969	-31.847	0.204	0.112
-173.954	90.465	-0.320	-0.352
-172.939	-21.945	-0.049	-0.029
-171.925	5.433	0.140	0.101
-170.910	-200.000	0.004	-0.085
-169.896	-37.594	-0.339	0.177
-168.881	-100.477	-0.311	-0.076
-167.866	-200.000	0.028	0.262
-166.852	-97.725	-0.159	0.040
-165.837	800.000	0.016	-0.057
-164.823	-200.000	0.011	-0.090
-163.808	-130.909	-0.295	-0.039
-162.793	-61.359	-0.341	-0.141
-161.779	-159.491	-0.358	-0.020
-160.764	-7.215	0.155	-0.103
-159.750	294.352	0.054	-0.098
-158.735	80.232	-0.216	-0.228
-157.720	800.000	0.054	0.180
-156.706	-54.006	-0.208	-0.093
-155.691	-119.287	-0.196	0.034
-154.677	512.436	0.070	-0.160
-153.662	-200.000	-0.013	-0.139
-152.647	28.228	-0.087	0.072
-151.633	-200.000	0.002	0.091
-150.618	-20.402	0.414	-0.250
-149.604	130.027	0.084	0.105
-148.589	126.576	-0.093	-0.116
-147.574	-171.276	0.508	-0.017
-146.560	290.828	-0.042	-0.075
-145.545	-145.729	0.195	0.017
-144.531	-2.283	-0.233	0.160
-143.516	-127.555	0.045	-0.006
-142.502	-86.263	-0.245	-0.074
-141.487	-200.000	-0.016	-0.194
-140.472	-81.101	-0.057	0.018
-139.458	58.426	0.173	-0.166
-138.443	-200.000	-0.054	-0.299
-137.429	800.000	0.079	-0.224
-136.414	-68.852	0.234	-0.088
-135.399	800.000	0.077	0.226
-134.385	87.835	0.002	-0.002
-133.370	-25.022	-0.213	0.124
-132.356	-156.738	0.184	-0.011
-131.341	76.955	-0.118	-0.123
-130.326	21.251	0.129	0.103
-129.312	-155.277	0.175	0.011
-128.297	-195.515	0.105	-0.001
-127.283	230.719	0.115	-0.184
-126.268	-1.822	0.158	0.109
-125.253	-43.702	-0.134	0.066
-124.239	-108.583	0.268	0.056
-123.224	13.403	0.169	0.128
-122.210	-41.769	-0.114	-0.057
-121.195	800.000	-0.051	-0.144
