DTS Sentinel unit serial number:	SN413079Multiplexer serial number:	ORYXHardware model number:	OX4-SRSoftware version number:	ORYX F/W v4.00 Oryx Data Collector v3.7.2.0data status	okinstallation	princeton_trtdifferential loss correction	single-endedforward channel	channel 2reverse channel	N/Adate	2019/09/18time	05:59:35forward acquisition time	60.00reverse acquisition time	0.00gamma	496.2192k internal	0.2349k external	0.2349temperature offset calibration	0.9984default loss term (dB/km)	0.3790temperature slope calibration	1.0000multiplexer offset coefficient	1.0000multiplexer slope coefficient	1.0000fibre end	0.00T internal ref (°C)	23.19T ext. ref 1 (°C)	0.18T ext. ref 2 (°C)	17.72length (m)	temperature (°C)	Stokes	anti-Stokes-747.200	-200.000	0.020	-0.227
-746.185	107.753	0.027	-0.032
-745.171	94.102	-0.197	0.224
-744.156	160.058	-0.193	0.269
-743.142	-181.748	-0.059	-0.001
-742.127	-33.175	-0.292	-0.162
-741.112	93.485	-0.121	0.136
-740.098	194.726	-0.211	0.320
-739.083	153.110	-0.105	0.143
-738.069	-29.123	-0.324	-0.186
-737.054	-136.219	0.261	-0.031
-736.039	-200.000	-0.304	0.001
-735.025	110.152	-0.121	-0.145
-734.010	-62.749	-0.103	-0.043
-732.996	-99.332	-0.476	-0.120
-731.981	-8.983	0.081	0.054
-730.966	-72.396	-0.342	-0.126
-729.952	577.978	-0.066	-0.162
-728.937	469.343	0.088	-0.198
-727.923	-200.000	-0.031	-0.200
-726.908	62.193	0.182	-0.181
-725.894	45.521	-0.131	-0.121
-724.879	-169.976	0.369	-0.013
-723.864	-4.831	-0.132	-0.091
-722.850	166.984	-0.104	-0.147
-721.835	122.475	-0.068	-0.085
-720.821	-70.854	0.291	-0.109
-719.806	-49.005	-0.069	0.033
-718.791	-141.003	-0.272	-0.028
-717.777	250.304	-0.072	0.122
-716.762	137.008	0.079	0.103
-715.748	27.698	0.317	-0.267
-714.733	9.096	-0.148	-0.111
-713.718	517.153	0.173	0.403
-712.704	800.000	-0.121	0.453
-711.689	406.275	0.060	0.126
-710.675	-131.176	0.073	0.010
-709.660	359.943	0.231	0.461
-708.645	-113.211	-0.143	0.028
-707.631	-180.039	0.450	0.010
-706.616	147.644	-0.194	0.261
-705.602	59.658	-0.178	-0.175
-704.587	-89.918	0.126	-0.037
-703.572	-80.614	-0.291	-0.097
-702.558	-109.861	-0.400	0.084
-701.543	800.000	-0.091	-0.279
-700.529	-200.000	0.009	-0.089
-699.514	-94.513	0.108	0.029
-698.499	-200.000	0.024	-0.294
-697.485	-200.000	-0.034	0.217
-696.470	-200.000	-0.071	-0.358
-695.456	328.743	-0.104	-0.200
-694.441	-132.835	0.498	-0.063
-693.426	132.435	-0.154	-0.198
-692.412	58.848	0.076	0.075
-691.397	-102.084	-0.327	-0.079
-690.383	-200.000	-0.027	-0.182
-689.368	800.000	-0.087	-0.275
-688.354	-106.403	0.419	0.093
-687.339	-132.064	0.205	0.027
-686.324	-85.583	0.018	0.006
-685.310	-200.000	-0.000	-0.175
-684.295	169.266	-0.077	-0.109
-683.281	17.346	-0.171	0.135
-682.266	-83.549	-0.099	0.032
-681.251	-137.969	0.623	-0.069
-680.237	268.391	0.200	-0.350
-679.222	-200.000	-0.005	-0.127
-678.208	791.027	0.077	0.210
-677.193	800.000	0.019	0.081
-676.178	-75.551	-0.259	-0.092
-675.164	-200.000	-0.040	-0.178
-674.149	141.431	-0.191	-0.252
-673.135	416.791	-0.048	0.103
-672.120	123.383	-0.145	-0.181
-671.105	-27.207	0.117	-0.068
-670.091	82.792	-0.058	-0.063
-669.076	800.000	0.064	-0.214
-668.062	181.010	-0.348	-0.509
-667.047	110.863	0.168	0.201
-666.032	-200.000	0.005	-0.080
-665.018	-32.559	0.169	0.094
-664.003	-200.000	-0.050	0.419
-662.989	-10.557	-0.217	0.143
-661.974	-147.777	0.096	-0.008
-660.959	-22.871	-0.058	-0.035
-659.945	-31.921	0.205	0.114
-658.930	-200.000	0.067	0.369
-657.916	242.583	-0.252	-0.420
-656.901	-200.000	-0.006	0.287
-655.886	219.017	0.041	-0.065
-654.872	-199.599	0.196	-0.001
-653.857	-200.000	0.296	-0.001
-652.843	-124.315	-0.379	-0.059
-651.828	344.663	0.124	0.242
-650.814	-77.969	0.246	-0.084
-649.799	-130.902	0.216	-0.029
-648.784	-200.000	0.029	0.146
-647.770	130.831	-0.070	0.090
-646.755	-134.916	-0.188	-0.023
-645.741	-111.270	0.147	-0.030
-644.726	100.776	-0.234	-0.271
-643.711	10.497	-0.186	-0.141
-642.697	-200.000	0.047	0.224
-641.682	-125.053	-0.439	-0.067
-640.668	34.672	-0.198	-0.172
-639.653	-200.000	0.001	0.190
-638.638	-108.343	0.088	0.019
-637.624	-163.302	0.233	-0.011
-636.609	-28.681	-0.275	-0.157
-635.595	356.492	-0.121	0.241
-634.580	122.896	-0.127	0.159
-633.565	-75.018	-0.271	-0.097
-632.551	145.549	-0.127	-0.169
-631.536	-89.059	0.405	-0.119
-630.522	184.999	-0.033	0.048
-629.507	-200.000	0.031	0.158
-628.492	100.193	0.086	0.099
-627.478	-200.000	-0.044	0.213
-626.463	800.000	0.067	-0.275
-625.449	420.037	0.121	-0.257
-624.434	-134.417	-0.286	-0.035
-623.419	-9.809	0.229	-0.151
-622.405	-28.157	-0.228	-0.131
-621.390	-20.823	0.191	-0.116
-620.376	28.044	0.092	-0.077
-619.361	226.870	-0.127	-0.205
-618.346	164.597	0.030	-0.042
-617.332	-57.795	-0.242	-0.105
-616.317	12.179	0.145	-0.111
-615.303	-57.138	-0.252	0.110
-614.288	-96.116	0.051	0.013
-613.273	481.247	-0.045	-0.101
-612.259	35.965	-0.092	0.080
-611.244	-87.463	-0.128	0.038
-610.230	276.345	0.183	-0.323
-609.215	126.971	-0.103	-0.129
-608.201	272.864	0.103	-0.180
-607.186	-200.000	-0.007	-0.199
-606.171	-200.000	0.015	-0.103
-605.157	-132.387	0.299	0.038
-604.142	481.042	0.135	-0.305
-603.128	543.605	-0.087	0.206
-602.113	-78.600	-0.363	-0.123
-601.098	793.563	0.016	0.042
-600.084	-127.176	0.445	0.065
-599.069	-89.207	0.131	-0.039
-598.055	-200.000	-0.046	0.203
-597.040	-65.505	0.292	0.116
-596.025	-200.000	-0.026	-0.175
-595.011	108.949	0.078	-0.093
-593.996	708.626	-0.046	0.122
-592.982	-70.507	-0.126	0.048
-591.967	-200.000	0.011	0.108
-590.952	-97.053	0.066	0.017
-589.938	800.000	-0.091	0.279
-588.923	-31.205	-0.287	-0.161
-587.909	-172.433	-0.098	-0.003
-586.894	-43.537	-0.286	-0.143
-585.879	31.512	0.208	0.177
-584.865	-11.450	-0.219	0.143
-583.850	-0.351	0.118	0.083
-582.836	-95.821	-0.305	-0.081
-581.821	85.822	0.200	0.218
-580.806	622.628	0.154	0.385
-579.792	38.041	0.198	0.175
-578.777	11.857	-0.168	-0.128
-577.763	-12.473	0.078	-0.051
-576.748	121.975	-0.248	0.308
-575.733	79.475	-0.221	0.236
-574.719	337.031	0.154	-0.297
-573.704	-200.000	-0.035	-0.247
-572.690	-200.000	-0.037	0.212
-571.675	187.849	-0.108	0.160
-570.661	40.509	0.079	0.070
-569.646	209.753	0.111	-0.172
-568.631	-7.796	0.161	-0.108
-567.617	-37.911	-0.173	0.091
-566.602	-200.000	0.037	-0.185
-565.588	123.769	0.075	0.093
-564.573	44.192	0.275	-0.250
-563.558	800.000	-0.053	0.196
-562.544	120.087	-0.165	-0.203
-561.529	159.394	-0.084	0.117
-560.515	226.442	0.139	0.224
-559.500	-116.408	-0.084	-0.015
-558.485	-4.345	0.267	0.183
-557.471	500.828	-0.058	-0.132
-556.456	-67.346	-0.096	-0.037
-555.442	-142.633	-0.324	-0.031
-554.427	716.797	-0.070	-0.184
-553.412	-132.080	-0.147	-0.019
-552.398	9.066	0.076	0.057
-551.383	73.219	0.167	0.174
-550.369	-15.269	-0.234	0.149
-549.354	-200.000	-0.012	-0.283
-548.339	-7.736	0.342	-0.229
-547.325	800.000	0.050	-0.173
-546.310	-39.567	0.201	-0.105
-545.296	-200.000	-0.019	0.170
-544.281	-151.186	0.173	-0.013
-543.266	256.757	0.107	-0.182
-542.252	-1.122	0.154	0.108
-541.237	131.866	0.166	-0.212
-540.223	800.000	-0.121	0.372
-539.208	-120.643	-0.246	0.041
-538.193	209.906	0.099	0.154
-537.179	-132.998	-0.399	0.050
-536.164	325.365	0.104	0.198
-535.150	-153.151	-0.196	-0.014
-534.135	-200.000	-0.018	-0.154
-533.121	800.000	0.042	0.119
-532.106	-80.410	0.331	-0.110
-531.091	-68.554	0.204	-0.078
-530.077	249.032	0.101	-0.170
-529.062	-200.000	-0.029	-0.185
-528.048	-80.285	0.111	-0.037
-527.033	629.144	0.025	-0.062
-526.018	-200.000	0.006	-0.107
-525.004	800.000	0.076	-0.264
-523.989	160.808	0.162	0.224
-522.975	-3.346	-0.098	0.068
-521.960	-1.722	0.053	0.037
-520.945	43.542	0.170	0.154
-519.931	-200.000	0.034	0.175
-518.916	-72.001	-0.092	0.034
-517.902	42.858	-0.285	0.257
-516.887	-200.000	-0.010	-0.044
-515.872	-200.000	-0.060	-0.344
-514.858	-87.556	0.163	0.049
-513.843	-113.831	-0.326	-0.063
-512.829	-200.000	0.032	-0.223
-511.814	92.249	-0.079	0.088
-510.799	-200.000	0.013	0.530
-509.785	-104.333	-0.298	0.068
-508.770	-200.000	0.000	0.112
-507.756	-64.104	0.091	-0.037
-506.741	800.000	-0.069	-0.251
-505.726	-200.000	0.017	0.093
-504.712	-75.896	-0.327	0.115
-503.697	800.000	0.013	-0.040
-502.683	507.368	0.188	0.432
-501.668	304.518	-0.276	0.508
-500.653	94.992	0.185	0.209
-499.639	241.557	0.194	0.321
-498.624	-5.277	0.273	0.186
-497.610	-74.880	-0.251	0.089
-496.595	103.831	-0.155	0.180
-495.581	-116.577	-0.210	-0.038
-494.566	39.854	0.227	0.202
-493.551	-103.633	-0.260	0.060
-492.537	-200.000	0.003	0.098
-491.522	-89.990	-0.225	-0.065
-490.508	755.843	0.086	0.229
-489.493	218.230	-0.064	-0.101
-488.478	-200.000	0.000	0.219
-487.464	-78.467	0.123	0.042
-486.449	-200.000	-0.026	-0.146
-485.435	-200.000	-0.030	-0.170
-484.420	45.285	-0.198	-0.180
-483.405	362.407	0.244	-0.485
-482.391	-32.479	-0.333	-0.184
-481.376	-136.058	-0.222	-0.026
-480.362	-140.134	-0.224	-0.023
-479.347	-25.153	0.211	-0.124
-478.332	320.366	0.062	0.117
-477.318	431.356	0.085	0.182
-476.303	-200.000	-0.006	0.105
-475.289	-95.380	0.194	-0.052
-474.274	110.839	-0.113	0.134
-473.259	800.000	0.045	-0.148
-472.245	58.305	-0.272	0.264
-471.230	800.000	0.049	0.146
-470.216	240.002	0.093	0.154
-469.201	-7.241	-0.115	-0.077
-468.186	-30.356	-0.227	0.128
-467.172	492.159	-0.083	-0.188
-466.157	-200.000	-0.002	0.454
-465.143	-169.442	0.085	-0.003
-464.128	-200.000	-0.050	-0.276
-463.113	21.346	-0.189	-0.152
-462.099	90.491	-0.407	0.450
-461.084	14.562	-0.340	-0.262
-460.070	-200.000	-0.020	0.205
-459.055	298.274	-0.138	0.251
-458.040	-112.487	0.377	0.074
-457.026	-130.172	-0.015	0.002
-456.011	-142.828	-0.550	-0.053
-454.997	253.913	0.077	-0.131
-453.982	-151.548	0.042	-0.003
-452.968	131.261	0.092	0.116
-451.953	270.243	-0.101	-0.175
-450.938	2.650	-0.182	-0.130
-449.924	503.321	0.088	0.202
-448.909	800.000	0.080	-0.299
-447.895	-115.770	0.164	-0.030
-446.880	-200.000	-0.035	0.227
-445.865	-74.268	0.095	0.034
-444.851	-136.606	0.228	-0.026
-443.836	-11.716	-0.284	-0.184
-442.822	-200.000	0.035	-0.317
-441.807	-84.204	0.337	0.105
-440.792	508.362	-0.156	-0.358
-439.778	-60.187	-0.278	0.117
-438.763	348.516	0.108	-0.210
-437.749	-200.000	-0.036	-0.332
-436.734	85.713	0.116	0.126
-435.719	-200.000	0.060	0.427
-434.705	-200.000	-0.054	0.334
-433.690	25.639	0.276	-0.227
-432.676	40.553	-0.285	-0.254
-431.661	-28.587	-0.223	-0.127
-430.646	171.641	-0.164	0.232
-429.632	387.673	-0.159	0.324
-428.617	800.000	0.086	0.296
-427.603	800.000	0.095	-0.272
-426.588	-34.302	-0.200	0.108
-425.573	187.485	0.187	-0.275
-424.559	-200.000	0.009	-0.136
-423.544	26.415	-0.149	0.123
-422.530	-44.149	0.075	0.037
-421.515	800.000	0.085	-0.249
-420.500	15.816	0.113	-0.088
-419.486	-107.248	-0.263	0.057
-418.471	800.000	0.130	-0.394
-417.457	276.630	-0.136	-0.239
-416.442	-200.000	-0.023	0.144
-415.428	49.757	-0.395	-0.367
-414.413	-200.000	-0.005	-0.106
-413.398	-128.066	0.272	0.038
-412.384	-45.541	0.222	0.108
-411.369	17.557	-0.168	0.132
-410.355	-10.054	0.247	-0.162
-409.340	571.840	0.093	0.223
-408.325	-11.685	0.328	0.212
-407.311	-122.423	0.026	-0.004
-406.296	24.604	-0.132	-0.108
-405.282	214.390	0.096	0.151
-404.267	32.313	-0.046	-0.039
-403.252	-103.315	-0.420	-0.098
-402.238	545.853	0.132	0.312
-401.223	180.822	0.111	-0.161
-400.209	-166.938	-0.289	-0.012
-399.194	-105.913	0.301	0.067
-398.179	-200.000	-0.002	0.442
-397.165	800.000	-0.073	0.316
-396.150	12.083	-0.134	0.101
-395.136	203.369	-0.103	-0.157
-394.121	520.766	-0.034	-0.079
-393.106	800.000	0.129	-0.353
-392.092	800.000	0.082	0.251
-391.077	-94.347	-0.183	0.049
-390.063	-200.000	-0.057	-0.295
-389.048	-127.270	0.175	0.025
-388.033	622.207	-0.016	0.040
-387.019	-77.308	0.262	-0.090
-386.004	-89.837	-0.240	-0.069
-384.990	800.000	-0.114	-0.380
-383.975	672.523	-0.030	0.077
-382.960	110.439	0.042	-0.050
-381.946	-200.000	-0.020	-0.531
-380.931	-36.046	0.018	0.009
-379.917	-52.597	0.070	-0.032
-378.902	12.201	0.220	-0.166
-377.888	60.708	-0.048	0.047
-376.873	48.418	-0.045	0.042
-375.858	37.257	0.127	0.111
-374.844	-165.720	0.367	0.016
-373.829	-200.000	-0.041	-0.204
-372.815	136.913	0.097	-0.125
-371.800	183.543	-0.098	0.142
-370.785	159.510	0.099	-0.135
-369.771	404.530	-0.151	0.313
-368.756	-68.662	0.345	0.131
-367.742	-42.638	-0.309	-0.155
-366.727	325.437	-0.071	-0.134
-365.712	-26.705	0.312	-0.180
-364.698	-101.062	-0.144	-0.035
-363.683	209.119	0.201	-0.310
-362.669	38.779	-0.190	-0.167
-361.654	-200.000	-0.052	0.231
-360.639	-200.000	0.024	0.194
-359.625	-200.000	-0.012	0.246
-358.610	-200.000	-0.006	0.117
-357.596	-65.374	-0.187	-0.074
-356.581	800.000	-0.021	0.076
-355.566	11.963	0.132	0.100
-354.552	-81.524	0.325	-0.105
-353.537	277.836	0.030	0.052
-352.523	-117.686	0.084	-0.015
-351.508	-200.000	0.001	-0.101
-350.493	-78.208	-0.186	0.063
-349.479	-100.906	-0.267	0.064
-348.464	-190.312	-0.141	0.002
-347.450	-31.708	0.104	0.058
-346.435	800.000	0.076	0.221
-345.420	-63.716	-0.086	-0.035
-344.406	-32.941	0.296	-0.162
-343.391	-200.000	-0.120	0.591
-342.377	-149.036	0.280	0.022
-341.362	-200.000	0.074	-0.564
-340.348	331.839	-0.191	-0.362
-339.333	-200.000	0.028	0.186
-338.318	-41.466	-0.370	0.187
-337.304	108.156	0.272	-0.319
-336.289	113.466	-0.065	0.078
-335.275	183.515	-0.447	-0.649
-334.260	-200.000	0.007	0.058
-333.245	800.000	0.013	0.054
-332.231	14.098	0.054	0.041
-331.216	800.000	-0.109	-0.322
-330.202	-112.194	-0.159	-0.031
-329.187	-96.793	-0.328	0.085
-328.172	-24.565	-0.222	-0.130
-327.158	794.162	0.139	0.376
-326.143	-45.625	0.126	0.061
-325.129	606.628	0.112	-0.274
-324.114	-200.000	0.005	-0.072
-323.099	534.933	0.070	0.162
-322.085	-200.000	0.014	0.128
-321.070	177.042	0.174	0.248
-320.056	-200.000	-0.051	0.266
-319.041	576.338	0.017	-0.042
-318.026	39.826	0.089	-0.079
-317.012	15.156	0.101	0.078
-315.997	117.802	-0.190	-0.230
-314.983	1.469	0.074	0.052
-313.968	235.819	0.107	-0.174
-312.953	707.902	0.109	-0.283
-311.939	40.198	0.126	-0.111
-310.924	-90.045	-0.185	0.053
-309.910	167.061	0.094	0.130
-308.895	-200.000	0.084	0.527
-307.880	-141.008	0.263	0.026
-306.866	234.543	-0.270	-0.437
-305.851	36.314	-0.370	-0.320
-304.837	-53.277	-0.309	-0.139
-303.822	-58.887	0.166	-0.071
-302.807	70.138	0.072	0.073
-301.793	-0.771	0.320	-0.223
-300.778	-200.000	-0.009	-0.044
-299.764	52.576	0.134	0.126
-298.749	-200.000	-0.016	-0.162
-297.735	-157.776	-0.314	0.018
-296.720	-84.413	0.312	-0.097
-295.705	800.000	-0.040	-0.119
-294.691	-74.843	0.245	-0.086
-293.676	-39.000	0.124	0.064
-292.662	-127.780	-0.177	-0.025
-291.647	-124.494	-0.255	-0.039
-290.632	165.323	0.009	-0.013
-289.618	132.950	-0.091	-0.115
-288.603	26.836	-0.201	-0.165
-287.589	540.355	0.025	-0.059
-286.574	-200.000	-0.010	0.183
-285.559	-133.015	0.309	0.038
-284.545	417.324	-0.049	-0.102
-283.530	-31.705	0.322	-0.177
-282.516	-200.000	-0.056	-0.261
-281.501	-200.000	0.004	-0.115
-280.486	-200.000	-0.012	0.172
-279.472	29.396	-0.106	0.088
-278.457	19.070	0.159	0.125
-277.443	639.810	-0.131	0.327
-276.428	800.000	0.031	-0.102
-275.413	7.191	-0.242	-0.177
-274.399	800.000	-0.066	0.196
-273.384	-160.627	0.320	-0.017
-272.370	-20.798	0.167	0.100
-271.355	539.319	-0.111	-0.260
-270.340	-65.110	0.138	0.055
-269.326	-200.000	0.015	0.294
-268.311	154.407	0.106	-0.143
-267.297	-200.000	0.041	-0.232
-266.282	295.757	0.258	0.464
-265.267	166.986	0.138	0.192
-264.253	263.682	0.033	-0.056
-263.238	-135.343	0.210	0.025
-262.224	638.300	0.076	-0.189
-261.209	-61.089	0.241	-0.100
-260.195	-200.000	-0.009	0.066
-259.180	335.651	0.109	-0.207
-258.165	-89.789	-0.200	-0.057
-257.151	282.508	0.206	0.363
-256.136	-190.214	0.183	0.002
-255.122	324.649	-0.038	0.072
-254.107	85.079	-0.148	0.159
-253.092	260.164	0.277	-0.469
-252.078	-63.917	0.235	0.094
-251.063	-22.257	-0.060	0.036
-250.049	-200.000	-0.037	0.226
-249.034	122.010	0.153	0.187
-248.019	655.014	0.039	0.099
-247.005	-200.000	0.040	0.196
-245.990	-200.000	-0.038	0.273
-244.976	-5.115	0.045	-0.030
-243.961	185.506	0.136	-0.197
-242.946	-34.302	0.158	-0.085
-241.932	383.074	0.049	0.099
-240.917	111.291	-0.126	0.149
-239.903	166.412	0.162	0.225
-238.888	275.237	0.095	0.165
-237.873	-200.000	0.015	0.254
-236.859	-200.000	-0.038	0.362
-235.844	-117.002	0.390	0.070
-234.830	-66.594	-0.073	0.029
-233.815	385.832	0.123	0.248
-232.800	316.926	-0.128	0.236
-231.786	-75.465	0.069	-0.024
-230.771	61.082	0.069	-0.067
-229.757	-40.595	-0.081	0.041
-228.742	417.941	-0.066	0.138
-227.727	-35.438	0.226	0.120
-226.713	31.652	-0.131	0.111
-225.698	-118.993	-0.208	0.036
-224.684	-191.112	-0.143	-0.001
-223.669	-142.306	0.254	0.025
-222.655	-200.000	0.020	-0.189
-221.640	-116.169	0.066	-0.012
-220.625	43.313	-0.229	0.205
-219.611	-109.748	0.367	0.075
-218.596	800.000	-0.065	0.185
-217.582	-88.247	-0.098	0.029
-216.567	-129.368	-0.076	-0.010
-215.552	77.371	-0.169	-0.176
-214.538	330.394	0.070	0.131
-213.523	336.039	-0.072	0.136
-212.509	193.253	0.228	-0.338
-211.494	-5.958	0.209	-0.140
-210.479	143.350	-0.070	-0.091
-209.465	21.514	-0.125	-0.099
-208.450	6.096	-0.135	-0.098
-207.436	-100.712	0.093	-0.022
-206.421	-106.309	0.052	0.011
-205.406	503.179	-0.015	-0.034
-204.392	6.171	-0.215	0.156
-203.377	246.300	-0.052	0.085
-202.363	40.932	0.122	0.108
-201.348	-200.000	-0.015	0.148
-200.333	-136.332	0.376	-0.043
-199.319	-200.000	-0.047	0.238
-198.304	377.541	0.038	0.076
-197.290	91.072	0.223	0.245
-196.275	-170.802	0.344	-0.012
-195.260	-78.062	-0.194	0.065
-194.246	184.157	0.067	0.098
-193.231	-92.097	-0.172	0.048
-192.217	29.368	-0.197	0.164
-191.202	744.446	-0.095	0.250
-190.187	-200.000	0.004	0.491
-189.173	9.043	0.070	-0.051
-188.158	-200.000	0.013	-0.094
-187.144	-32.110	-0.098	0.054
-186.129	-132.016	0.240	-0.031
-185.114	-26.721	-0.073	-0.041
-184.100	309.186	-0.082	-0.150
-183.085	132.956	-0.130	-0.163
-182.071	-157.112	-0.268	0.016
-181.056	-200.000	-0.025	0.117
-180.042	-200.000	0.088	0.000
-179.027	800.000	0.093	-0.300
-178.012	135.089	0.108	-0.138
-176.998	-200.000	0.006	-0.032
-175.983	-101.796	0.142	-0.034
-174.969	-28.269	-0.060	0.034
-173.954	16.682	-0.047	-0.036
-172.939	-96.263	-0.073	-0.019
-171.925	-178.593	0.315	-0.007
-170.910	-181.109	-0.347	-0.007
-169.896	202.136	-0.152	-0.229
-168.881	-200.000	-0.051	-0.257
-167.866	-200.000	-0.006	-0.144
-166.852	166.519	0.069	-0.096
-165.837	105.703	0.172	-0.198
-164.823	202.215	-0.031	-0.046
-163.808	-103.667	0.148	-0.034
-162.793	-200.000	0.015	0.193
-161.779	277.399	-0.275	-0.478
-160.764	325.085	0.073	0.137
-159.750	-10.365	0.241	-0.156
-158.735	-0.160	0.102	-0.071
-157.720	-200.000	-0.008	-0.048
-156.706	-200.000	0.069	-0.303
-155.691	-168.062	-0.360	0.014
-154.677	-200.000	-0.080	-0.371
-153.662	-134.336	-0.267	0.032
-152.647	-62.535	0.059	-0.024
-151.633	-75.056	0.290	-0.101
-150.618	-200.000	0.016	0.122
-149.604	-200.000	0.025	0.368
-148.589	-76.383	0.075	0.026
-147.574	243.865	-0.135	0.221
-146.560	19.447	-0.137	-0.107
-145.545	-128.794	-0.261	-0.036
-144.531	-102.241	-0.238	0.056
-143.516	800.000	-0.032	0.095
-142.502	388.455	-0.211	-0.427
-141.487	-200.000	0.021	-0.357
-140.472	12.285	-0.102	0.077
-139.458	-200.000	0.004	0.148
-138.443	143.748	-0.049	-0.063
-137.429	601.737	-0.021	0.050
-136.414	-200.000	0.266	0.000
-135.399	800.000	0.022	-0.068
-134.385	-108.324	-0.103	0.022
-133.370	232.520	-0.113	0.180
-132.356	68.605	0.285	0.285
-131.341	-59.636	0.380	-0.159
-130.326	14.193	0.202	-0.154
-129.312	77.823	0.243	-0.252
-128.297	-105.748	0.127	-0.028
-127.283	47.844	-0.097	-0.088
-126.268	235.592	0.188	0.303
-125.253	52.219	0.140	0.130
-124.239	-165.628	0.479	-0.020
-123.224	116.013	-0.251	0.299
-122.210	-39.833	0.230	-0.117
