DTS Sentinel unit serial number:	SN413079Multiplexer serial number:	ORYXHardware model number:	OX4-SRSoftware version number:	ORYX F/W v4.00 Oryx Data Collector v3.7.2.0data status	okinstallation	princeton_trtdifferential loss correction	single-endedforward channel	channel 2reverse channel	N/Adate	2019/09/15time	17:11:35forward acquisition time	60.00reverse acquisition time	0.00gamma	496.2192k internal	0.2284k external	0.2284temperature offset calibration	0.9927default loss term (dB/km)	0.3790temperature slope calibration	1.0000multiplexer offset coefficient	1.0000multiplexer slope coefficient	1.0000fibre end	0.00T internal ref (°C)	44.66T ext. ref 1 (°C)	5.97T ext. ref 2 (°C)	40.39length (m)	temperature (°C)	Stokes	anti-Stokes-747.200	-97.581	-0.406	0.108
-746.185	-200.000	0.004	0.217
-745.171	-96.072	0.171	-0.047
-744.156	-99.983	-0.054	0.014
-743.142	-25.772	0.363	0.220
-742.127	-200.000	-0.018	0.187
-741.112	-108.044	-0.257	-0.057
-740.098	-200.000	-0.165	0.001
-739.083	-143.482	0.290	-0.028
-738.069	289.682	-0.197	0.367
-737.054	-88.088	-0.120	0.037
-736.039	-50.540	0.205	-0.099
-735.025	-84.483	0.255	0.083
-734.010	-134.593	0.520	0.065
-732.996	22.676	0.094	-0.079
-731.981	23.004	0.267	-0.225
-730.966	395.785	0.086	-0.185
-729.952	483.387	0.104	-0.242
-728.937	-200.000	0.021	-0.106
-727.923	153.987	0.145	-0.204
-726.908	169.252	-0.174	-0.255
-725.894	634.955	-0.048	0.124
-724.879	-135.980	-0.321	-0.039
-723.864	527.483	-0.083	-0.200
-722.850	-72.740	0.154	-0.058
-721.835	645.178	0.085	0.223
-720.821	-9.095	0.359	-0.247
-719.806	-63.893	0.069	0.029
-718.791	-18.297	-0.160	0.103
-717.777	800.000	-0.046	0.139
-716.762	800.000	-0.063	-0.204
-715.748	-153.258	-0.286	-0.020
-714.733	-184.805	0.395	-0.006
-713.718	-9.530	-0.144	-0.099
-712.704	-127.309	0.149	0.022
-711.689	-20.710	-0.207	-0.130
-710.675	763.126	-0.143	-0.397
-709.660	120.392	-0.128	-0.164
-708.645	-187.371	0.176	0.002
-707.631	-67.748	-0.301	-0.121
-706.616	194.417	-0.035	0.055
-705.602	639.085	0.018	0.048
-704.587	329.246	0.112	-0.221
-703.572	-200.000	0.017	-0.169
-702.558	-21.279	0.212	0.133
-701.543	-130.995	-0.063	-0.009
-700.529	-97.769	0.094	0.025
-699.514	52.441	-0.060	-0.059
-698.499	21.580	0.118	0.098
-697.485	-200.000	0.017	0.248
-696.470	-200.000	0.055	-0.338
-695.456	180.063	0.226	-0.339
-694.441	-10.142	0.157	0.107
-693.426	129.881	0.058	0.077
-692.412	-139.279	0.152	0.017
-691.397	-200.000	-0.006	-0.304
-690.383	-67.091	-0.153	-0.062
-689.368	76.072	0.153	0.166
-688.354	-200.000	0.056	-0.259
-687.339	42.608	-0.028	-0.026
-686.324	22.992	-0.126	-0.106
-685.310	-76.715	-0.520	-0.187
-684.295	-135.414	-0.325	0.040
-683.281	800.000	-0.034	-0.135
-682.266	-163.136	0.161	-0.008
-681.251	12.458	-0.028	-0.022
-680.237	-200.000	0.016	-0.268
-679.222	-200.000	0.019	-0.093
-678.208	-123.160	-0.279	-0.046
-677.193	-53.399	0.263	-0.123
-676.178	-173.308	0.264	-0.008
-675.164	311.123	-0.084	-0.161
-674.149	800.000	0.050	0.204
-673.135	-200.000	0.080	0.391
-672.120	456.175	0.059	0.134
-671.105	-177.652	-0.298	0.007
-670.091	-148.620	0.349	0.029
-669.076	49.255	-0.199	0.192
-668.062	-82.068	-0.077	-0.026
-667.047	-49.965	0.399	-0.194
-666.032	800.000	0.071	0.205
-665.018	-81.536	-0.236	0.079
-664.003	313.925	-0.079	-0.152
-662.989	-140.429	-0.239	0.025
-661.974	-126.594	-0.128	0.019
-660.959	-66.027	-0.531	-0.217
-659.945	98.895	0.294	-0.348
-658.930	-60.974	-0.221	-0.096
-657.916	-32.001	0.036	-0.021
-656.901	478.028	-0.056	0.130
-655.886	251.220	-0.174	-0.302
-654.872	-200.000	0.002	-0.418
-653.857	-129.107	-0.371	0.053
-652.843	-152.890	-0.147	-0.011
-651.828	498.675	-0.026	0.062
-650.814	123.286	0.203	0.261
-649.799	121.707	0.013	0.017
-648.784	16.712	0.335	0.271
-647.770	800.000	0.123	0.488
-646.755	-197.235	0.205	0.001
-645.741	-200.000	0.008	-0.196
-644.726	-183.321	0.141	-0.003
-643.711	-135.585	-0.013	-0.002
-642.697	-28.619	0.200	-0.118
-641.682	-200.000	0.029	-0.322
-640.668	-28.705	0.136	-0.080
-639.653	155.840	0.190	-0.268
-638.638	331.370	0.162	0.320
-637.624	613.907	-0.198	0.508
-636.609	-200.000	-0.058	-0.345
-635.595	608.492	0.068	-0.174
-634.580	-43.814	-0.151	-0.078
-633.565	134.310	-0.222	0.294
-632.551	12.002	-0.150	0.118
-631.536	-120.507	0.035	-0.006
-630.522	-34.292	-0.166	0.093
-629.507	-108.227	0.250	0.055
-628.492	-143.768	-0.311	0.030
-627.478	113.579	-0.164	-0.204
-626.463	-200.000	-0.021	-0.164
-625.449	156.634	0.179	-0.253
-624.434	155.451	0.069	0.098
-623.419	497.603	-0.047	0.111
-622.405	142.917	0.122	-0.166
-621.390	-200.000	-0.010	-0.070
-620.376	-200.000	-0.005	-0.116
-619.361	800.000	-0.093	0.384
-618.346	21.968	-0.252	-0.210
-617.332	-33.086	-0.226	-0.128
-616.317	146.668	-0.164	0.225
-615.303	230.596	0.212	0.355
-614.288	-94.228	0.105	0.030
-613.273	800.000	0.062	-0.258
-612.259	22.115	0.085	0.071
-611.244	238.724	-0.038	0.064
-610.230	800.000	0.052	0.170
-609.215	-133.515	0.053	-0.007
-608.201	-83.218	0.195	0.064
-607.186	-200.000	0.026	0.263
-606.171	800.000	0.039	0.169
-605.157	-64.785	0.240	-0.099
-604.142	239.510	-0.386	-0.656
-603.128	-150.116	-0.133	0.011
-602.113	159.768	-0.128	0.183
-601.098	277.318	-0.147	-0.267
-600.084	10.786	-0.200	-0.156
-599.069	-200.000	0.043	0.357
-598.055	-117.899	-0.308	-0.056
-597.040	401.932	0.139	-0.298
-596.025	123.800	0.134	-0.172
-595.011	-41.983	-0.244	-0.128
-593.996	-53.036	0.125	-0.059
-592.982	107.702	0.111	-0.135
-591.967	219.973	0.072	0.118
-590.952	-200.000	0.047	0.466
-589.938	322.423	0.061	0.120
-588.923	584.693	0.104	0.260
-587.909	58.522	0.174	0.175
-586.894	33.749	0.026	0.023
-585.879	-200.000	0.032	-0.272
-584.865	-15.060	-0.170	0.111
-583.850	20.931	-0.108	0.089
-582.836	-21.108	-0.382	-0.239
-581.821	-43.789	-0.124	-0.064
-580.806	-200.000	0.045	-0.325
-579.792	3.284	-0.093	-0.069
-578.777	40.930	-0.062	0.057
-577.763	238.802	-0.086	-0.146
-576.748	-200.000	-0.015	0.419
-575.733	227.810	-0.126	0.208
-574.719	-200.000	-0.007	0.169
-573.704	-86.334	-0.042	0.013
-572.690	-200.000	-0.037	-0.403
-571.675	800.000	-0.065	-0.278
-570.661	220.556	0.231	-0.378
-569.646	-200.000	0.008	-0.283
-568.631	374.620	0.157	0.326
-567.617	181.348	-0.059	-0.089
-566.602	672.377	0.082	-0.216
-565.588	182.234	0.059	0.088
-564.573	271.089	0.020	0.036
-563.558	-48.201	0.255	-0.126
-562.544	-182.817	0.158	-0.003
-561.529	-200.000	-0.076	-0.398
-560.515	554.966	-0.127	-0.312
-559.500	-59.070	-0.282	-0.124
-558.485	-200.000	-0.073	-0.327
-557.471	-179.231	-0.033	0.001
-556.456	233.477	0.277	-0.465
-555.442	-200.000	0.008	0.129
-554.427	44.562	-0.200	-0.187
-553.412	341.173	0.128	-0.255
-552.398	119.536	0.234	-0.296
-551.383	135.073	-0.031	-0.041
-550.369	-185.457	-0.394	0.006
-549.354	800.000	-0.045	-0.165
-548.339	592.406	-0.051	-0.129
-547.325	254.730	-0.231	-0.404
-546.310	289.638	0.174	0.321
-545.296	-104.645	-0.335	0.079
-544.281	530.707	-0.081	-0.196
-543.266	41.844	-0.140	-0.129
-542.252	389.293	-0.060	0.127
-541.237	-200.000	0.048	0.228
-540.223	-200.000	-0.405	-0.002
-539.208	-36.587	0.064	-0.035
-538.193	-89.372	-0.362	-0.108
-537.179	800.000	0.053	-0.157
-536.164	-12.477	-0.297	-0.197
-535.150	-200.000	-0.001	-0.086
-534.135	162.806	0.183	-0.261
-533.121	185.108	0.093	-0.140
-532.106	-99.678	-0.177	0.045
-531.091	-5.457	-0.154	-0.108
-530.077	119.390	0.082	0.104
-529.062	-200.000	0.025	0.254
-528.048	-10.973	-0.134	0.090
-527.033	-1.568	0.181	-0.130
-526.018	670.207	-0.047	-0.123
-525.004	-127.825	-0.267	-0.039
-523.989	49.420	0.044	0.042
-522.975	-200.000	0.010	0.183
-521.960	-104.883	0.138	0.032
-520.945	-200.000	-0.014	0.198
-519.931	-200.000	-0.059	0.481
-518.916	19.039	0.228	0.186
-517.902	-200.000	-0.010	-0.136
-516.887	-200.000	-0.018	0.127
-515.872	-50.358	-0.172	-0.083
-514.858	25.539	-0.177	0.150
-513.843	-200.000	0.039	0.392
-512.829	215.047	-0.108	-0.175
-511.814	-142.340	0.370	0.037
-510.799	47.714	0.212	-0.201
-509.785	58.016	-0.176	0.176
-508.770	-170.507	-0.301	0.011
-507.756	30.622	0.289	0.251
-506.741	6.858	0.286	-0.217
-505.726	-109.915	-0.237	-0.051
-504.712	-87.197	-0.096	0.030
-503.697	90.277	0.076	0.086
-502.683	146.892	0.138	-0.188
-501.668	-151.777	-0.179	0.013
-500.653	77.200	0.268	0.290
-499.639	99.585	0.089	-0.105
-498.624	599.951	0.043	0.109
-497.610	-32.345	-0.123	0.070
-496.595	64.792	0.303	-0.311
-495.581	54.245	-0.247	-0.242
-494.566	-200.000	0.017	-0.300
-493.551	135.433	-0.041	0.055
-492.537	-123.025	0.185	0.030
-491.522	415.535	0.020	0.043
-490.508	-13.210	0.081	-0.053
-489.493	-104.463	0.076	0.018
-488.478	-196.122	0.585	-0.004
-487.464	-189.721	0.234	0.003
-486.449	216.693	-0.126	-0.204
-485.435	126.520	-0.057	-0.073
-484.420	-15.766	-0.259	0.168
-483.405	-65.139	0.277	-0.114
-482.391	-176.730	0.149	-0.004
-481.376	-130.967	-0.061	-0.008
-480.362	326.494	0.152	-0.296
-479.347	-104.890	0.220	-0.051
-478.332	800.000	0.044	0.148
-477.318	-200.000	-0.060	0.380
-476.303	-200.000	0.006	0.155
-475.289	1.748	-0.351	-0.257
-474.274	-200.000	0.003	0.149
-473.259	-16.724	-0.137	0.088
-472.245	800.000	0.089	0.254
-471.230	-22.673	0.195	0.120
-470.216	43.207	-0.157	-0.146
-469.201	188.863	0.391	-0.595
-468.186	-82.971	0.267	-0.087
-467.172	14.806	-0.186	0.147
-466.157	-12.039	-0.058	-0.039
-465.143	-143.637	0.217	0.021
-464.128	102.827	0.056	0.067
-463.113	-200.000	-0.009	-0.122
-462.099	-92.280	0.236	-0.067
-461.084	-77.876	-0.042	-0.015
-460.070	470.035	-0.167	0.381
-459.055	119.099	-0.127	-0.159
-458.040	75.048	-0.289	0.309
-457.026	-139.903	0.176	0.019
-456.011	209.212	0.177	-0.281
-454.997	-200.000	0.014	-0.359
-453.982	-119.059	0.170	0.030
-452.968	-24.442	0.173	0.105
-451.953	-111.434	0.067	-0.014
-450.938	-200.000	-0.010	0.441
-449.924	174.823	0.013	-0.019
-448.909	-55.571	-0.171	-0.078
-447.895	-36.451	-0.304	0.167
-446.880	-17.852	0.148	0.094
-445.865	-120.091	0.466	0.081
-444.851	-135.302	-0.136	0.017
-443.836	-87.426	-0.154	-0.047
-442.822	-200.000	0.051	0.252
-441.807	800.000	0.066	-0.197
-440.792	260.880	-0.030	-0.053
-439.778	492.727	0.030	-0.070
-438.763	107.645	0.207	-0.250
-437.749	-124.913	0.182	-0.028
-436.734	-182.892	-0.225	-0.004
-435.719	-174.387	0.187	0.005
-434.705	-1.225	-0.128	0.092
-433.690	-200.000	-0.023	-0.163
-432.676	-20.176	0.114	-0.071
-431.661	-200.000	0.025	-0.248
-430.646	-200.000	-0.106	0.493
-429.632	-200.000	0.045	0.324
-428.617	-129.199	0.050	0.007
-427.603	-20.205	0.126	-0.079
-426.588	-89.523	0.175	-0.052
-425.573	59.135	0.046	0.046
-424.559	-138.648	0.201	0.022
-423.544	-17.741	0.251	0.160
-422.530	215.613	-0.089	0.144
-421.515	800.000	0.074	0.297
-420.500	-74.982	0.094	-0.034
-419.486	800.000	-0.068	0.199
-418.471	-165.370	-0.548	-0.024
-417.457	78.814	0.241	0.262
-416.442	28.820	-0.113	-0.097
-415.428	-200.000	-0.014	-0.064
-414.413	79.126	0.113	-0.123
-413.398	-36.225	0.103	0.056
-412.384	-17.454	0.196	0.125
-411.369	-200.000	-0.017	0.177
-410.355	572.988	-0.096	-0.236
-409.340	108.009	0.148	-0.178
-408.325	-105.767	0.173	0.040
-407.311	368.273	0.099	-0.204
-406.296	-200.000	0.049	0.223
-405.282	488.678	0.099	-0.228
-404.267	196.940	-0.119	0.184
-403.252	261.343	-0.104	-0.182
-402.238	-42.929	-0.127	-0.065
-401.223	-35.643	0.293	0.161
-400.209	-17.874	0.465	-0.296
-399.194	453.337	0.143	-0.322
-398.179	-200.000	0.065	-0.493
-397.165	-108.037	-0.050	-0.011
-396.150	297.122	-0.112	0.209
-395.136	-180.381	-0.141	-0.003
-394.121	-128.737	0.396	-0.057
-393.106	-137.181	0.399	0.046
-392.092	96.574	-0.178	-0.207
-391.077	257.557	-0.210	-0.366
-390.063	-182.807	-0.247	0.005
-389.048	-23.894	-0.123	-0.075
-388.033	-125.380	-0.395	-0.061
-387.019	800.000	0.053	-0.173
-386.004	105.490	0.071	0.085
-384.990	-200.000	0.048	-0.324
-383.975	694.480	0.083	-0.221
-382.960	800.000	0.095	0.311
-381.946	-118.362	-0.137	0.025
-380.931	6.794	-0.159	0.120
-379.917	-141.075	-0.114	-0.012
-378.902	-60.402	0.075	0.032
-377.888	-108.646	0.219	-0.048
-376.873	-51.962	-0.098	0.046
-375.858	-85.544	0.070	-0.022
-374.844	58.475	-0.037	0.037
-373.829	195.946	0.092	0.142
-372.815	54.513	-0.199	0.195
-371.800	-200.000	0.038	0.184
-370.785	-200.000	0.013	0.321
-369.771	104.438	0.162	0.193
-368.756	-80.697	-0.213	0.072
-367.742	-38.039	0.156	0.084
-366.727	740.212	-0.108	0.293
-365.712	-200.000	0.204	0.000
-364.698	-152.924	-0.328	-0.023
-363.683	-200.000	-0.023	0.186
-362.669	-125.235	-0.380	0.059
-361.654	-200.000	-0.035	-0.235
-360.639	-200.000	-0.004	-0.020
-359.625	-140.730	-0.376	0.039
-358.610	-200.000	0.034	-0.255
-357.596	410.976	-0.076	-0.163
-356.581	-125.874	0.073	0.011
-355.566	406.964	-0.105	-0.224
-354.552	151.760	0.062	0.086
-353.537	538.741	-0.036	-0.086
-352.523	-87.629	0.342	-0.105
-351.508	-159.789	-0.119	-0.007
-350.493	-200.000	-0.023	0.262
-349.479	218.791	-0.133	0.214
-348.464	53.703	-0.085	-0.083
-347.450	-7.900	0.250	0.171
-346.435	342.758	-0.128	-0.254
-345.420	351.165	0.063	0.126
-344.406	329.652	-0.150	0.293
-343.391	0.274	-0.328	0.236
-342.377	-200.000	-0.043	-0.299
-341.362	-138.927	0.245	0.027
-340.348	-38.814	-0.106	0.056
-339.333	39.299	0.090	-0.081
-338.318	-64.182	-0.268	-0.111
-337.304	-200.000	-0.026	0.249
-336.289	-58.482	-0.245	-0.108
-335.275	120.993	-0.229	-0.288
-334.260	-200.000	0.063	0.308
-333.245	-131.415	-0.090	0.012
-332.231	226.319	0.058	0.095
-331.216	-176.285	0.099	-0.003
-330.202	-142.180	-0.195	-0.020
-329.187	11.948	-0.030	0.024
-328.172	-200.000	-0.037	-0.274
-327.158	-91.336	-0.404	0.117
-326.143	-24.706	-0.201	-0.121
-325.129	221.413	0.105	0.170
-324.114	6.040	-0.082	0.062
-323.099	-37.985	0.290	0.156
-322.085	-41.820	-0.277	-0.144
-321.070	-130.699	0.020	-0.003
-320.056	277.781	-0.053	-0.096
-319.041	800.000	0.029	-0.090
-318.026	-70.152	0.142	-0.054
-317.012	111.033	0.146	-0.178
-315.997	-63.201	-0.086	0.036
-314.983	-200.000	0.008	-0.107
-313.968	-90.375	0.360	0.106
-312.953	-125.630	0.076	0.012
-311.939	-153.665	-0.079	0.005
-310.924	12.448	0.172	-0.134
-309.910	-37.881	0.404	-0.217
-308.895	463.158	-0.041	0.092
-307.880	-75.136	0.366	-0.132
-306.866	47.492	-0.118	0.112
-305.851	17.844	0.103	0.082
-304.837	-126.994	-0.255	0.038
-303.822	66.795	-0.215	0.221
-302.807	-96.409	0.193	-0.052
-301.793	-48.577	0.099	-0.048
-300.778	-17.511	-0.307	0.195
-299.764	116.186	0.174	0.215
-298.749	260.033	-0.093	0.162
-297.735	128.898	-0.164	-0.211
-296.720	455.114	0.153	-0.343
-295.705	-104.216	-0.135	-0.032
-294.691	36.087	-0.202	0.180
-293.676	19.827	0.178	-0.145
-292.662	252.087	0.033	-0.057
-291.647	-25.254	-0.128	0.077
-290.632	356.303	-0.076	-0.152
-289.618	-172.653	-0.271	-0.009
-288.603	51.519	-0.299	-0.287
-287.589	62.446	0.123	-0.124
-286.574	-200.000	-0.019	0.236
-285.559	105.633	-0.220	-0.263
-284.545	-200.000	-0.067	-0.324
-283.530	-110.325	-0.241	0.051
-282.516	67.107	0.092	0.094
-281.501	55.549	0.208	0.204
-280.486	4.581	0.140	0.104
-279.472	-17.839	0.095	0.060
-278.457	-114.427	0.122	0.024
-277.443	800.000	-0.051	0.163
-276.428	265.243	-0.072	-0.126
-275.413	395.084	0.112	-0.236
-274.399	167.764	-0.150	-0.215
-273.384	-176.888	-0.244	-0.006
-272.370	628.695	-0.061	0.154
-271.355	24.491	0.199	-0.166
-270.340	-200.000	-0.010	-0.061
-269.326	9.914	-0.008	-0.006
-268.311	331.049	-0.223	0.433
-267.297	-181.917	-0.039	-0.001
-266.282	-157.728	0.345	-0.021
-265.267	800.000	-0.036	-0.103
-264.253	-200.000	-0.016	0.347
-263.238	205.655	-0.157	-0.246
-262.224	-89.220	-0.436	-0.130
-261.209	324.971	-0.043	0.083
-260.195	743.397	0.073	0.198
-259.180	-140.478	-0.059	-0.006
-258.165	-200.000	0.019	0.289
-257.151	53.680	0.203	0.197
-256.136	-40.640	0.246	0.128
-255.122	186.439	-0.103	0.154
-254.107	-39.018	-0.375	0.199
-253.092	59.740	-0.179	-0.178
-252.078	-79.150	-0.269	-0.092
-251.063	-24.146	-0.113	0.068
-250.049	-200.000	0.060	-0.346
-249.034	-200.000	-0.010	-0.288
-248.019	-165.243	-0.199	-0.009
-247.005	-136.537	0.321	-0.038
-245.990	-48.388	0.299	0.145
-244.976	567.955	-0.070	-0.171
-243.961	-200.000	0.056	0.330
-242.946	-34.317	0.316	0.175
-241.932	65.576	-0.210	0.214
-240.917	152.111	-0.304	0.418
-239.903	-108.000	0.213	-0.046
-238.888	-113.661	-0.152	-0.030
-237.873	-132.455	0.186	0.024
-236.859	-200.000	-0.001	0.240
-235.844	-29.639	0.235	0.135
-234.830	-151.467	-0.292	-0.022
-233.815	-47.803	0.369	0.180
-232.800	-25.950	-0.069	0.041
-231.786	74.742	0.158	-0.168
-230.771	103.036	0.120	-0.142
-229.757	20.308	0.254	-0.206
-228.742	800.000	-0.030	0.107
-227.727	600.695	-0.016	0.041
-226.713	772.033	-0.113	0.309
-225.698	307.311	-0.101	-0.190
-224.684	42.530	0.062	0.057
-223.669	-200.000	-0.014	-0.127
-222.655	800.000	0.035	-0.098
-221.640	-44.341	0.157	0.079
-220.625	-47.543	0.103	-0.050
-219.611	-125.789	0.171	-0.026
-218.596	-73.273	-0.218	-0.080
-217.582	9.439	-0.069	-0.053
-216.567	112.822	0.131	0.160
-215.552	122.678	-0.076	0.095
-214.538	-43.337	0.131	-0.066
-213.523	-94.537	0.165	0.045
-212.509	16.747	-0.235	0.187
-211.494	111.406	0.224	0.271
-210.479	335.023	-0.053	0.104
-209.465	-200.000	-0.008	0.120
-208.450	123.791	-0.189	-0.238
-207.436	800.000	-0.055	-0.211
-206.421	-102.698	0.373	-0.089
-205.406	38.330	0.200	-0.179
-204.392	250.128	0.133	0.227
-203.377	-77.678	0.131	-0.045
-202.363	14.533	-0.122	0.096
-201.348	-174.990	-0.387	0.011
-200.333	-19.107	-0.140	-0.087
-199.319	143.803	-0.078	-0.105
-198.304	800.000	0.077	0.303
-197.290	-200.000	0.003	-0.276
-196.275	-131.440	0.100	0.013
-195.260	791.359	0.019	0.052
-194.246	-200.000	0.024	0.265
-193.231	-200.000	0.050	0.405
-192.217	-200.000	0.005	-0.095
-191.202	800.000	-0.089	-0.353
-190.187	5.864	-0.122	0.091
-189.173	43.093	-0.186	0.170
-188.158	752.387	-0.023	0.062
-187.144	22.914	0.396	-0.326
-186.129	330.344	-0.101	-0.196
-185.114	150.501	0.100	-0.137
-184.100	222.090	0.140	-0.226
-183.085	416.720	-0.102	0.220
-182.071	147.989	-0.046	0.062
-181.056	-92.514	-0.094	-0.027
-180.042	-56.835	-0.112	-0.050
-179.027	145.542	0.136	0.183
-178.012	248.579	-0.150	0.256
-176.998	-67.186	-0.265	0.105
-175.983	128.939	-0.165	0.211
-174.969	-123.970	-0.333	0.053
-173.954	333.880	0.221	0.430
-172.939	199.989	0.101	-0.156
-171.925	75.584	-0.201	0.213
-170.910	-98.051	0.236	-0.061
-169.896	-15.693	-0.348	0.223
-168.881	669.816	0.080	-0.207
-167.866	800.000	-0.028	-0.080
-166.852	800.000	0.113	0.441
-165.837	-200.000	0.069	0.343
-164.823	800.000	-0.029	-0.114
-163.808	800.000	0.043	-0.121
-162.793	800.000	0.068	0.244
-161.779	800.000	0.018	-0.074
-160.764	319.849	0.069	-0.132
-159.750	-200.000	0.062	0.330
-158.735	416.804	-0.197	-0.422
-157.720	164.907	-0.182	0.259
-156.706	-35.580	0.197	-0.108
-155.691	-75.508	0.218	-0.078
-154.677	800.000	0.039	-0.152
-153.662	-200.000	0.058	0.293
-152.647	2.091	-0.147	0.106
-151.633	-24.842	0.430	-0.256
-150.618	-142.919	0.174	-0.017
-149.604	86.713	0.082	0.091
-148.589	-165.240	0.343	0.015
-147.574	-66.221	-0.117	-0.047
-146.560	-40.387	-0.288	-0.150
-145.545	-200.000	-0.002	-0.299
-144.531	95.985	0.059	0.068
-143.516	-107.416	-0.232	0.051
-142.502	70.120	0.086	-0.089
-141.487	-110.010	-0.177	-0.037
-140.472	-66.984	-0.268	0.106
-139.458	-56.641	-0.175	-0.078
-138.443	-120.480	-0.459	-0.078
-137.429	-82.093	0.221	0.072
-136.414	-114.507	0.347	0.067
-135.399	454.351	0.050	-0.112
-134.385	305.190	0.130	0.242
-133.370	-200.000	-0.005	0.140
-132.356	800.000	0.055	-0.153
-131.341	-120.094	-0.317	0.054
-130.326	800.000	-0.054	0.201
-129.312	-200.000	0.023	0.122
-128.297	77.644	-0.212	0.227
-127.283	-200.000	0.013	-0.063
-126.268	800.000	-0.045	-0.143
-125.253	-42.392	0.131	0.067
-124.239	-200.000	-0.033	-0.222
-123.224	-109.368	0.264	-0.056
