DTS Sentinel unit serial number:	SN413079Multiplexer serial number:	ORYXHardware model number:	OX4-SRSoftware version number:	ORYX F/W v4.00 Oryx Data Collector v3.7.2.0data status	okinstallation	princeton_trtdifferential loss correction	single-endedforward channel	channel 2reverse channel	N/Adate	2019/09/12time	22:35:34forward acquisition time	60.00reverse acquisition time	0.00gamma	496.2192k internal	0.2331k external	0.2331temperature offset calibration	1.0178default loss term (dB/km)	0.3790temperature slope calibration	1.0000multiplexer offset coefficient	1.0000multiplexer slope coefficient	1.0000fibre end	0.00T internal ref (°C)	29.62T ext. ref 1 (°C)	3.74T ext. ref 2 (°C)	24.23length (m)	temperature (°C)	Stokes	anti-Stokes-747.200	33.008	0.167	-0.146
-746.185	706.991	-0.135	0.360
-745.171	-28.283	0.093	0.054
-744.156	115.060	0.136	-0.167
-743.142	0.995	0.128	0.093
-742.127	800.000	0.095	0.358
-741.112	127.696	-0.050	-0.064
-740.098	123.995	-0.172	-0.218
-739.083	-52.477	0.196	-0.091
-738.069	-200.000	-0.006	-0.151
-737.054	-200.000	-0.002	-0.045
-736.039	453.813	0.091	-0.202
-735.025	14.244	0.148	0.116
-734.010	265.371	-0.047	0.082
-732.996	1.441	-0.207	-0.150
-731.981	-196.775	0.146	0.001
-730.966	114.498	0.080	0.098
-729.952	-23.864	-0.015	0.009
-728.937	-31.173	-0.178	-0.101
-727.923	-128.827	-0.466	-0.066
-726.908	-84.036	0.216	0.069
-725.894	294.335	0.193	0.355
-724.879	800.000	-0.081	0.251
-723.864	498.241	0.103	-0.237
-722.850	-44.852	0.147	0.073
-721.835	800.000	-0.041	-0.123
-720.821	-71.309	-0.321	-0.121
-719.806	-124.780	0.172	0.027
-718.791	-104.757	0.009	0.002
-717.777	-95.993	-0.497	-0.133
-716.762	-72.125	0.125	0.047
-715.748	155.778	0.220	-0.305
-714.733	-124.104	-0.447	-0.071
-713.718	120.813	-0.197	-0.247
-712.704	1.518	0.194	0.141
-711.689	-86.977	0.118	-0.036
-710.675	137.542	0.157	0.206
-709.660	-34.382	0.278	0.153
-708.645	25.716	0.146	-0.123
-707.631	-67.230	0.110	0.044
-706.616	28.277	0.192	0.163
-705.602	800.000	-0.057	0.199
-704.587	-82.173	0.171	0.056
-703.572	-66.009	0.260	0.104
-702.558	-163.744	0.237	0.011
-701.543	-200.000	0.027	0.224
-700.529	-200.000	-0.070	0.424
-699.514	-79.469	-0.330	0.112
-698.499	-71.617	-0.201	-0.076
-697.485	426.263	-0.042	-0.090
-696.470	374.297	-0.072	-0.148
-695.456	-33.003	-0.256	0.143
-694.441	288.184	-0.015	-0.028
-693.426	430.472	-0.107	-0.232
-692.412	415.887	0.037	-0.080
-691.397	800.000	-0.105	-0.450
-690.383	28.959	0.025	0.021
-689.368	363.911	-0.026	-0.052
-688.354	-134.216	0.162	0.020
-687.339	-30.707	-0.115	-0.066
-686.324	210.726	0.274	0.432
-685.310	-40.757	0.097	-0.051
-684.295	98.566	-0.183	-0.212
-683.281	210.649	-0.150	-0.237
-682.266	460.278	0.182	-0.406
-681.251	-74.671	0.500	-0.181
-680.237	-179.381	0.311	0.007
-679.222	-200.000	-0.003	-0.079
-678.208	-86.013	0.032	-0.010
-677.193	-200.000	-0.046	0.228
-676.178	-70.328	0.265	0.101
-675.164	198.188	-0.103	-0.158
-674.149	166.120	-0.104	-0.149
-673.135	-200.000	-0.048	0.235
-672.120	-200.000	-0.050	0.344
-671.105	-95.718	-0.215	-0.058
-670.091	-200.000	0.023	0.208
-669.076	800.000	-0.053	0.213
-668.062	-121.586	-0.427	0.071
-667.047	-200.000	-0.002	0.159
-666.032	-107.350	-0.214	0.047
-665.018	-200.000	0.037	-0.215
-664.003	-200.000	-0.039	0.251
-662.989	222.732	-0.113	0.182
-661.974	-49.773	0.052	-0.025
-660.959	-96.549	0.372	-0.098
-659.945	-200.000	-0.023	0.289
-658.930	-100.106	0.129	-0.032
-657.916	-34.872	-0.145	0.079
-656.901	-27.315	-0.271	0.158
-655.886	-85.661	-0.150	0.047
-654.872	-78.836	0.174	0.060
-653.857	-107.741	0.208	0.046
-652.843	261.606	-0.044	-0.076
-651.828	-109.879	-0.191	-0.040
-650.814	-200.000	0.002	-0.149
-649.799	-37.963	0.128	0.068
-648.784	37.353	-0.052	0.046
-647.770	-65.089	0.134	-0.054
-646.755	651.282	0.114	0.294
-645.741	-79.364	0.140	-0.048
-644.726	70.722	0.087	0.090
-643.711	-200.000	-0.018	0.087
-642.697	313.899	-0.039	-0.073
-641.682	-200.000	-0.016	-0.286
-640.668	-107.044	-0.128	-0.028
-639.653	354.515	0.099	-0.197
-638.638	78.522	0.242	-0.259
-637.624	-137.544	-0.207	-0.023
-636.609	-120.718	0.153	0.026
-635.595	-200.000	0.014	0.265
-634.580	783.415	0.150	0.413
-633.565	427.457	-0.126	-0.272
-632.551	192.682	-0.114	0.172
-631.536	-200.000	0.062	0.309
-630.522	55.905	0.021	-0.021
-629.507	-200.000	-0.002	-0.065
-628.492	-180.564	0.162	0.003
-627.478	258.902	-0.095	-0.164
-626.463	487.747	-0.044	0.100
-625.449	103.965	-0.073	0.086
-624.434	353.024	0.017	-0.034
-623.419	-27.879	0.066	0.038
-622.405	76.182	-0.083	-0.088
-621.390	349.658	-0.026	0.052
-620.376	-31.270	-0.116	-0.065
-619.361	197.757	0.052	0.079
-618.346	-84.499	-0.142	-0.045
-617.332	-126.297	-0.287	0.043
-616.317	-75.118	-0.211	0.076
-615.303	233.525	0.101	0.166
-614.288	-200.000	-0.005	-0.246
-613.273	-164.138	0.268	0.012
-612.259	73.475	-0.209	0.219
-611.244	-200.000	0.001	-0.007
-610.230	-158.738	0.371	0.021
-609.215	5.159	-0.144	0.106
-608.201	-200.000	0.027	-0.351
-607.186	-142.917	0.234	-0.023
-606.171	-85.940	0.383	-0.119
-605.157	444.848	-0.047	-0.103
-604.142	377.250	0.162	-0.332
-603.128	-185.214	-0.129	0.002
-602.113	-123.127	0.150	0.024
-601.098	324.451	-0.245	-0.468
-600.084	18.277	-0.098	0.078
-599.069	152.357	-0.096	0.131
-598.055	413.040	-0.046	-0.097
-597.040	-12.512	0.156	-0.102
-596.025	-113.875	-0.145	0.028
-595.011	12.469	0.158	0.122
-593.996	-44.106	-0.268	0.135
-592.982	-141.880	0.231	-0.023
-591.967	800.000	0.040	-0.147
-590.952	-14.803	0.168	0.108
-589.938	-200.000	-0.042	-0.415
-588.923	-200.000	-0.015	-0.171
-587.909	-155.253	0.322	-0.021
-586.894	100.771	-0.115	0.133
-585.879	228.240	0.057	-0.092
-584.865	-165.905	-0.316	0.014
-583.850	75.123	-0.120	-0.127
-582.836	490.554	0.048	-0.110
-581.821	-99.435	-0.047	-0.012
-580.806	800.000	-0.035	-0.145
-579.792	-144.473	0.188	0.017
-578.777	-36.554	-0.055	0.030
-577.763	-133.550	0.210	-0.026
-576.748	-31.029	-0.060	0.034
-575.733	-200.000	-0.052	-0.327
-574.719	532.357	-0.018	-0.042
-573.704	-124.921	-0.421	-0.065
-572.690	-161.799	0.182	0.009
-571.675	-200.000	-0.010	-0.224
-570.661	-14.832	0.099	-0.063
-569.646	-200.000	-0.005	-0.111
-568.631	606.857	-0.089	-0.221
-567.617	-82.684	-0.537	0.174
-566.602	618.973	0.115	0.288
-565.588	658.876	0.099	-0.255
-564.573	445.660	-0.041	-0.090
-563.558	-53.499	-0.159	0.073
-562.544	297.491	0.176	-0.323
-561.529	287.612	0.197	-0.357
-560.515	-174.910	-0.294	0.008
-559.500	800.000	0.036	-0.125
-558.485	18.614	-0.239	0.191
-557.471	663.040	-0.038	-0.098
-556.456	-61.053	-0.113	0.048
-555.442	-200.000	0.027	0.173
-554.427	-59.645	0.209	0.089
-553.412	-147.806	-0.297	-0.025
-552.398	222.128	-0.185	-0.298
-551.383	-133.648	0.140	0.017
-550.369	172.532	0.189	0.271
-549.354	-1.544	0.060	0.042
-548.339	-67.951	-0.105	0.041
-547.325	147.755	-0.070	-0.095
-546.310	-2.813	0.207	0.145
-545.296	-200.000	0.011	0.128
-544.281	-93.039	0.396	0.110
-543.266	2.696	0.160	-0.116
-542.252	-200.000	-0.021	-0.111
-541.237	-12.928	-0.246	0.160
-540.223	-200.000	-0.008	-0.350
-539.208	16.791	0.173	-0.137
-538.193	33.548	0.347	0.301
-537.179	-79.504	-0.035	-0.012
-536.164	-42.745	0.074	-0.038
-535.150	193.430	0.091	-0.138
-534.135	-200.000	0.099	0.864
-533.121	650.973	0.035	-0.089
-532.106	800.000	-0.090	0.311
-531.091	800.000	-0.106	0.368
-530.077	-200.000	0.002	-0.158
-529.062	-167.891	-0.308	-0.012
-528.048	-54.475	0.214	-0.097
-527.033	-85.492	-0.146	0.045
-526.018	76.228	0.110	0.117
-525.004	32.132	0.033	-0.028
-523.989	-68.440	0.077	0.030
-522.975	-6.275	0.239	-0.162
-521.960	-79.048	-0.337	0.114
-520.945	64.099	0.119	0.119
-519.931	222.436	-0.082	-0.132
-518.916	-38.758	0.417	0.219
-517.902	-200.000	-0.012	0.253
-516.887	800.000	-0.042	0.164
-515.872	2.384	-0.076	-0.055
-514.858	-126.270	0.150	-0.022
-513.843	-73.418	-0.192	0.070
-512.829	-23.704	-0.233	0.139
-511.814	-127.455	-0.326	-0.047
-510.799	-24.923	0.156	-0.092
-509.785	148.520	0.212	-0.286
-508.770	-200.000	0.001	0.006
-507.756	86.867	0.069	-0.076
-506.741	76.461	0.178	0.188
-505.726	116.159	0.083	0.101
-504.712	251.432	-0.097	-0.165
-503.697	271.776	-0.125	0.220
-502.683	-200.000	-0.018	0.176
-501.668	-125.096	-0.094	-0.014
-500.653	-154.819	0.006	0.000
-499.639	69.096	-0.269	-0.275
-498.624	377.291	0.215	-0.438
-497.610	17.635	-0.313	-0.248
-496.595	-2.124	0.100	0.070
-495.581	-200.000	-0.038	-0.205
-494.566	-81.099	0.133	0.044
-493.551	2.638	-0.363	0.262
-492.537	-44.595	0.555	-0.276
-491.522	-78.488	-0.354	-0.121
-490.508	72.617	-0.213	-0.221
-489.493	-200.000	-0.001	-0.142
-488.478	-3.930	-0.321	0.222
-487.464	219.625	0.061	0.097
-486.449	582.514	-0.085	0.208
-485.435	-200.000	0.021	-0.109
-484.420	-200.000	-0.000	-0.138
-483.405	-86.965	0.098	-0.030
-482.391	83.054	-0.219	-0.237
-481.376	800.000	-0.168	0.462
-480.362	-16.176	0.455	-0.288
-479.347	389.806	-0.110	0.227
-478.332	-200.000	0.002	0.113
-477.318	-39.927	-0.363	0.189
-476.303	-200.000	0.052	-0.270
-475.289	135.226	0.043	0.056
-474.274	-55.500	-0.293	0.131
-473.259	-200.000	0.034	-0.273
-472.245	346.355	-0.131	0.257
-471.230	-200.000	0.025	0.137
-470.216	-18.287	0.282	0.176
-469.201	-200.000	0.000	-0.210
-468.186	-125.523	-0.224	-0.034
-467.172	216.590	-0.009	0.014
-466.157	-200.000	0.007	-0.429
-465.143	-21.775	0.073	0.044
-464.128	-117.963	0.377	0.067
-463.113	109.565	-0.267	-0.319
-462.099	-200.000	-0.014	-0.221
-461.084	-200.000	-0.009	-0.156
-460.070	18.313	0.303	-0.241
-459.055	-38.411	0.296	0.156
-458.040	-200.000	0.043	0.254
-457.026	211.834	-0.032	0.050
-456.011	-94.615	0.461	-0.125
-454.997	-46.167	-0.262	0.128
-453.982	26.765	-0.178	-0.149
-452.968	-200.000	0.039	-0.271
-451.953	794.618	-0.080	0.218
-450.938	-17.770	-0.162	0.101
-449.924	-124.133	0.196	0.031
-448.909	-200.000	-0.161	-0.001
-447.895	-153.475	-0.324	-0.022
-446.880	-141.491	0.241	0.024
-445.865	-200.000	-0.051	0.318
-444.851	464.648	0.084	-0.186
-443.836	-171.649	0.120	0.004
-442.822	-69.936	0.177	0.067
-441.807	-85.549	-0.306	-0.095
-440.792	351.384	-0.047	0.092
-439.778	800.000	0.033	-0.093
-438.763	198.178	0.179	0.272
-437.749	-76.546	0.270	-0.094
-436.734	-157.592	-0.238	0.014
-435.719	63.040	-0.143	0.142
-434.705	602.165	0.073	0.179
-433.690	-200.000	-0.002	0.499
-432.676	26.367	-0.214	0.178
-431.661	264.417	-0.178	-0.308
-430.646	41.141	0.270	0.242
-429.632	-200.000	-0.037	-0.174
-428.617	92.379	0.097	0.109
-427.603	501.892	-0.046	-0.105
-426.588	81.986	0.150	0.162
-425.573	-200.000	0.024	0.115
-424.559	-200.000	-0.007	0.076
-423.544	-56.072	-0.168	0.074
-422.530	4.345	0.292	-0.213
-421.515	53.656	-0.158	-0.151
-420.500	800.000	0.107	-0.301
-419.486	-32.145	0.326	0.181
-418.471	-114.980	-0.343	0.065
-417.457	108.968	-0.052	0.062
-416.442	-109.446	-0.096	-0.020
-415.428	393.881	-0.050	-0.104
-414.413	455.904	-0.092	0.204
-413.398	-107.485	-0.258	-0.056
-412.384	-36.423	0.130	0.070
-411.369	-17.956	0.042	0.026
-410.355	-200.000	0.056	-0.282
-409.340	-26.607	-0.147	-0.086
-408.325	160.823	-0.187	-0.259
-407.311	800.000	-0.088	0.284
-406.296	-200.000	-0.018	0.206
-405.282	692.725	0.013	0.033
-404.267	4.097	0.155	-0.112
-403.252	174.399	-0.087	0.126
-402.238	127.672	0.054	-0.069
-401.223	73.643	-0.183	-0.191
-400.209	800.000	-0.044	0.157
-399.194	-200.000	0.067	0.322
-398.179	-175.980	0.211	-0.006
-397.165	-200.000	0.004	0.070
-396.150	-38.950	0.132	-0.069
-395.136	800.000	0.072	0.266
-394.121	125.264	-0.087	0.109
-393.106	122.080	-0.136	-0.169
-392.092	800.000	-0.113	-0.406
-391.077	800.000	-0.046	-0.164
-390.063	-26.511	0.195	-0.113
-389.048	800.000	-0.084	0.289
-388.033	58.694	0.230	0.224
-387.019	53.908	-0.180	0.172
-386.004	-127.483	-0.013	0.002
-384.990	112.798	-0.137	-0.165
-383.975	100.801	0.191	0.221
-382.960	-134.263	-0.145	-0.018
-381.946	-110.143	0.117	0.024
-380.931	91.732	-0.070	-0.078
-379.917	-112.756	0.335	0.066
-378.902	-200.000	-0.005	0.300
-377.888	35.345	-0.117	0.102
-376.873	488.096	-0.127	0.288
-375.858	-142.239	-0.128	0.013
-374.844	-132.804	-0.325	-0.041
-373.829	70.027	-0.149	0.152
-372.815	46.620	-0.216	-0.199
-371.800	-40.120	-0.231	-0.119
-370.785	-121.949	0.175	0.029
-369.771	-200.000	0.015	0.358
-368.756	800.000	-0.069	-0.268
-367.742	800.000	0.077	-0.212
-366.727	106.174	-0.026	0.031
-365.712	-200.000	-0.010	-0.320
-364.698	71.019	-0.075	0.077
-363.683	244.823	0.117	0.195
-362.669	-33.467	-0.147	0.081
-361.654	-34.254	-0.186	-0.101
-360.639	143.285	-0.218	0.287
-359.625	535.661	-0.047	-0.110
-358.610	-48.061	0.137	0.065
-357.596	-200.000	-0.011	-0.186
-356.581	-34.696	0.325	0.176
-355.566	-200.000	-0.058	-0.287
-354.552	86.423	0.109	-0.119
-353.537	-40.570	0.034	0.018
-352.523	-117.765	0.201	0.036
-351.508	-150.937	0.437	-0.033
-350.493	-134.894	-0.139	-0.017
-349.479	-74.731	0.395	0.141
-348.464	-5.374	0.154	0.105
-347.450	-200.000	-0.002	0.298
-346.435	76.854	0.174	0.184
-345.420	53.230	-0.150	0.142
-344.406	-82.682	0.315	-0.101
-343.391	-94.620	0.397	-0.107
-342.377	149.226	0.068	-0.092
-341.362	-107.276	0.311	-0.068
-340.348	635.369	0.097	-0.245
-339.333	-68.996	-0.096	-0.037
-338.318	-200.000	0.012	0.199
-337.304	-96.950	-0.433	0.112
-336.289	800.000	-0.110	0.405
-335.275	-200.000	0.004	0.072
-334.260	-200.000	0.016	0.085
-333.245	51.040	0.170	0.160
-332.231	398.455	-0.038	0.078
-331.216	622.963	-0.030	-0.075
-330.202	-157.565	0.069	0.004
-329.187	307.309	-0.009	0.017
-328.172	-44.992	0.089	0.044
-327.158	800.000	-0.009	-0.040
-326.143	-200.000	-0.023	-0.159
-325.129	135.828	0.076	0.099
-324.114	-124.336	0.233	-0.036
-323.099	-200.000	-0.009	0.235
-322.085	236.064	0.063	0.103
-321.070	-146.780	-0.466	0.040
-320.056	-154.171	0.360	-0.024
-319.041	13.270	-0.204	-0.157
-318.026	-17.818	-0.267	0.166
-317.012	-200.000	0.004	0.100
-315.997	-104.095	0.239	0.055
-314.983	-179.700	0.405	0.009
-313.968	171.607	-0.018	0.026
-312.953	698.220	0.168	-0.437
-311.939	-194.754	0.221	0.002
-310.924	-57.986	-0.408	0.176
-309.910	262.153	0.086	-0.148
-308.895	144.172	0.170	-0.224
-307.880	27.499	0.093	0.077
-306.866	-101.973	-0.433	-0.103
-305.851	94.928	-0.224	0.252
-304.837	556.794	-0.072	0.171
-303.822	66.058	0.194	-0.195
-302.807	656.492	0.015	0.037
-301.793	43.686	0.139	0.126
-300.778	-18.404	0.168	-0.104
-299.764	-96.421	0.079	-0.021
-298.749	-200.000	-0.021	-0.210
-297.735	-88.870	0.252	-0.074
-296.720	-118.298	-0.248	-0.044
-295.705	58.873	-0.123	-0.120
-294.691	124.707	-0.274	-0.341
-293.676	-108.099	-0.166	0.036
-292.662	-60.521	-0.110	-0.046
-291.647	-200.000	-0.007	0.101
-290.632	800.000	0.051	-0.209
-289.618	-25.407	0.412	0.241
-288.603	-49.070	-0.121	0.057
-287.589	800.000	-0.101	0.347
-286.574	769.820	-0.069	-0.186
-285.559	-33.453	0.042	-0.023
-284.545	-129.376	0.248	-0.034
-283.530	-133.143	-0.238	0.030
-282.516	-85.058	-0.063	0.020
-281.501	107.630	-0.018	-0.021
-280.486	136.305	0.131	0.169
-279.472	-200.000	0.007	0.091
-278.457	145.663	0.087	-0.115
-277.443	36.764	0.082	-0.072
-276.428	160.047	0.082	0.113
-275.413	800.000	-0.021	-0.076
-274.399	123.258	-0.039	0.048
-273.384	213.315	-0.055	-0.086
-272.370	-65.184	0.158	0.063
-271.355	-33.465	-0.097	-0.053
-270.340	207.713	-0.101	-0.156
-269.326	115.030	-0.045	0.054
-268.311	-68.852	0.159	0.061
-267.297	-200.000	-0.026	-0.170
-266.282	20.637	0.047	0.038
-265.267	-151.427	0.149	0.011
-264.253	97.757	-0.116	0.131
-263.238	-160.709	0.315	-0.017
-262.224	-41.699	-0.158	0.080
-261.209	691.962	0.166	0.429
-260.195	402.730	0.040	0.084
-259.180	-49.715	-0.123	-0.058
-258.165	-91.878	-0.234	0.066
-257.151	-200.000	-0.004	0.027
-256.136	800.000	0.054	-0.159
-255.122	160.956	-0.141	-0.194
-254.107	-200.000	-0.021	0.280
-253.092	-143.831	-0.239	-0.022
-252.078	-85.955	-0.393	0.120
-251.063	11.388	0.156	-0.118
-250.049	313.576	-0.119	-0.221
-249.034	99.612	-0.197	-0.226
-248.019	46.115	0.048	0.044
-247.005	800.000	0.008	0.021
-245.990	-138.030	0.246	-0.027
-244.976	21.944	-0.336	-0.270
-243.961	-85.389	0.230	0.071
-242.946	656.589	0.104	-0.264
-241.932	-118.723	0.012	0.002
-240.917	-33.254	0.172	0.094
-239.903	223.910	-0.283	-0.450
-238.888	87.812	-0.085	-0.093
-237.873	800.000	0.107	-0.398
-236.859	59.187	0.119	-0.116
-235.844	-200.000	-0.019	-0.093
-234.830	55.768	-0.065	-0.062
-233.815	-119.030	0.375	0.065
-232.800	-36.861	-0.092	-0.049
-231.786	-166.111	-0.055	0.002
-230.771	-25.603	0.233	0.136
-229.757	-102.798	-0.189	0.044
-228.742	-200.000	0.017	0.106
-227.727	-200.000	0.017	0.135
-226.713	-200.000	-0.037	0.343
-225.698	-76.928	0.219	-0.076
-224.684	130.719	-0.123	-0.156
-223.669	722.867	-0.083	-0.218
-222.655	-17.274	-0.144	-0.089
-221.640	-74.375	0.123	-0.044
-220.625	118.528	0.252	0.307
-219.611	-200.000	-0.004	0.252
-218.596	314.747	-0.085	0.158
-217.582	-126.044	-0.210	-0.031
-216.567	800.000	-0.049	0.145
-215.552	-63.903	0.044	0.018
-214.538	-77.560	0.118	-0.040
-213.523	224.272	0.202	-0.322
-212.509	77.641	-0.194	-0.203
-211.494	9.529	0.287	0.214
-210.479	25.308	-0.243	0.199
-209.465	25.125	-0.229	0.188
-208.450	64.635	0.147	-0.146
-207.436	-73.157	-0.358	-0.129
-206.421	49.964	0.114	0.106
-205.406	16.314	0.145	-0.112
-204.392	-0.905	-0.284	-0.198
-203.377	-191.740	-0.236	0.002
-202.363	-200.000	0.019	0.147
-201.348	800.000	-0.104	-0.309
-200.333	-43.118	0.256	0.128
-199.319	-39.718	-0.211	-0.109
-198.304	-200.000	-0.001	0.039
-197.290	16.233	-0.166	0.129
-196.275	25.432	-0.230	0.188
-195.260	116.568	0.229	-0.276
-194.246	-107.444	0.078	0.017
-193.231	-200.000	0.028	0.129
-192.217	155.044	-0.059	-0.080
-191.202	672.024	0.021	0.055
-190.187	564.792	0.040	-0.095
-189.173	319.989	0.069	0.130
-188.158	170.391	0.028	-0.039
-187.144	15.972	0.310	0.241
-186.129	-186.530	-0.100	-0.001
-185.114	-17.485	0.144	0.089
-184.100	-89.634	-0.049	-0.014
-183.085	-5.584	-0.104	-0.070
-182.071	10.113	-0.174	-0.131
-181.056	300.530	-0.069	-0.126
-180.042	-111.749	-0.290	-0.058
-179.027	-77.269	-0.128	0.044
-178.012	203.607	-0.062	0.094
-176.998	-97.481	-0.096	0.025
-175.983	10.046	0.079	-0.059
-174.969	-85.122	0.123	0.038
-173.954	-200.000	0.042	-0.271
-172.939	121.615	0.169	-0.207
-171.925	-155.880	-0.389	0.024
-170.910	49.055	-0.293	0.271
-169.896	-200.000	-0.013	0.073
-168.881	800.000	0.041	-0.156
-167.866	-82.200	-0.019	0.006
-166.852	-200.000	0.394	-0.001
-165.837	107.804	0.106	0.124
-164.823	-109.035	0.176	0.037
-163.808	6.397	0.142	0.104
-162.793	-200.000	0.035	0.281
-161.779	-29.128	0.073	0.041
-160.764	-50.196	0.227	0.106
-159.750	-200.000	-0.020	-0.087
-158.735	-200.000	-0.041	0.233
-157.720	800.000	0.052	-0.217
-156.706	-4.091	-0.219	-0.150
-155.691	-200.000	-0.318	0.000
-154.677	-200.000	0.004	0.137
-153.662	-107.844	-0.092	0.020
-152.647	131.901	0.245	-0.310
-151.633	-200.000	-0.018	0.147
-150.618	200.613	0.208	0.314
-149.604	150.304	0.082	-0.109
-148.589	45.533	-0.115	-0.104
-147.574	-200.000	-0.017	-0.193
-146.560	-68.810	-0.065	-0.025
-145.545	-200.000	-0.033	-0.241
-144.531	-80.924	0.133	0.043
-143.516	800.000	0.116	-0.339
-142.502	-60.521	0.089	-0.037
-141.487	-56.353	-0.081	0.036
-140.472	-105.915	0.585	0.130
-139.458	77.579	-0.092	-0.097
-138.443	800.000	-0.106	-0.405
-137.429	91.714	-0.152	-0.168
-136.414	69.673	0.211	-0.214
-135.399	800.000	-0.100	0.313
-134.385	113.985	-0.107	-0.128
-133.370	-200.000	-0.073	0.000
-132.356	-200.000	0.015	-0.214
-131.341	428.501	0.102	-0.217
-130.326	3.812	-0.171	-0.123
-129.312	542.481	0.204	0.479
-128.297	-65.802	0.242	0.095
-127.283	-112.489	0.318	-0.062
-126.268	68.204	0.101	0.102
-125.253	-145.607	-0.208	0.018
-124.239	12.924	0.239	0.181
-123.224	543.886	-0.021	0.049
-122.210	190.873	0.072	0.106
-121.195	26.798	0.319	-0.263
