DTS Sentinel unit serial number:	SN413079Multiplexer serial number:	ORYXHardware model number:	OX4-SRSoftware version number:	ORYX F/W v4.00 Oryx Data Collector v3.7.2.0data status	okinstallation	princeton_trtdifferential loss correction	single-endedforward channel	channel 2reverse channel	N/Adate	2019/09/18time	11:19:35forward acquisition time	60.00reverse acquisition time	0.00gamma	496.2192k internal	0.2326k external	0.2326temperature offset calibration	0.9979default loss term (dB/km)	0.3790temperature slope calibration	1.0000multiplexer offset coefficient	1.0000multiplexer slope coefficient	1.0000fibre end	0.00T internal ref (°C)	29.94T ext. ref 1 (°C)	0.41T ext. ref 2 (°C)	27.35length (m)	temperature (°C)	Stokes	anti-Stokes-747.200	800.000	-0.100	0.301
-746.185	-56.050	-0.095	0.043
-745.171	-200.000	0.033	-0.208
-744.156	-1.655	-0.184	-0.131
-743.142	-176.084	0.258	-0.007
-742.127	-15.748	0.202	0.130
-741.112	-37.523	-0.282	-0.152
-740.098	-20.953	0.101	0.063
-739.083	728.514	0.016	0.044
-738.069	40.704	0.076	0.069
-737.054	-56.908	0.414	0.184
-736.039	-86.959	-0.273	-0.084
-735.025	43.571	0.193	-0.178
-734.010	644.337	-0.119	0.306
-732.996	-200.000	0.012	-0.265
-731.981	-5.522	0.281	0.194
-730.966	33.066	-0.175	-0.153
-729.952	216.253	0.068	-0.109
-728.937	-200.000	-0.040	-0.191
-727.923	313.109	0.158	-0.300
-726.908	97.903	0.084	-0.097
-725.894	283.066	0.061	0.110
-724.879	-145.734	-0.077	0.007
-723.864	105.113	-0.107	-0.127
-722.850	-200.000	0.028	-0.285
-721.835	-200.000	-0.075	-0.338
-720.821	75.549	0.208	0.222
-719.806	171.622	-0.195	-0.282
-718.791	800.000	0.142	-0.433
-717.777	800.000	0.062	-0.248
-716.762	-144.203	-0.293	0.028
-715.748	-60.399	0.092	0.040
-714.733	339.249	-0.245	-0.481
-713.718	-173.481	0.603	-0.018
-712.704	-18.487	0.332	-0.209
-711.689	-200.000	0.002	0.029
-710.675	-117.556	-0.384	0.070
-709.660	329.136	0.148	0.286
-708.645	68.105	-0.219	-0.226
-707.631	-187.787	-0.164	0.002
-706.616	54.220	-0.044	0.043
-705.602	374.913	-0.112	-0.229
-704.587	123.929	-0.183	-0.231
-703.572	-48.956	0.098	-0.047
-702.558	-53.284	-0.305	-0.141
-701.543	149.699	-0.107	-0.146
-700.529	-200.000	-0.051	0.323
-699.514	-159.836	0.280	-0.015
-698.499	-187.822	-0.319	-0.004
-697.485	-111.956	-0.093	-0.019
-696.470	-200.000	-0.014	-0.269
-695.456	160.571	0.079	0.111
-694.441	-70.531	0.570	-0.217
-693.426	27.337	-0.022	0.019
-692.412	-43.040	0.189	0.096
-691.397	12.770	0.142	-0.111
-690.383	800.000	0.057	-0.203
-689.368	-200.000	0.000	-0.045
-688.354	-88.280	-0.209	0.063
-687.339	-128.404	-0.467	0.067
-686.324	-200.000	0.048	-0.372
-685.310	-21.437	-0.098	-0.060
-684.295	399.232	0.043	-0.090
-683.281	203.784	0.151	0.235
-682.266	0.656	-0.151	0.109
-681.251	-200.000	-0.002	0.443
-680.237	-122.203	-0.576	0.095
-679.222	233.521	-0.054	-0.090
-678.208	263.758	-0.036	-0.062
-677.193	-35.731	-0.193	0.105
-676.178	184.816	0.092	0.138
-675.164	800.000	0.116	-0.391
-674.149	-200.000	-0.008	-0.125
-673.135	190.213	0.219	0.331
-672.120	144.830	-0.226	0.304
-671.105	35.397	0.068	-0.060
-670.091	800.000	0.078	-0.222
-669.076	126.024	0.243	0.309
-668.062	308.084	-0.169	-0.317
-667.047	-75.024	0.263	0.095
-666.032	-137.264	-0.211	-0.024
-665.018	8.778	-0.179	-0.136
-664.003	-200.000	-0.005	0.238
-662.989	-41.789	0.051	0.026
-661.974	-84.575	0.103	0.033
-660.959	131.675	0.092	-0.119
-659.945	-153.341	-0.347	0.024
-658.930	-97.621	-0.132	-0.034
-657.916	-60.745	0.080	-0.034
-656.901	-47.719	-0.327	-0.159
-655.886	-32.979	-0.170	0.095
-654.872	51.465	0.195	0.187
-653.857	-36.336	-0.224	-0.121
-652.843	110.781	0.319	-0.386
-651.828	82.673	-0.152	0.166
-650.814	2.208	0.069	0.050
-649.799	-113.195	0.132	0.026
-648.784	-85.890	0.093	-0.029
-647.770	-23.222	0.088	0.053
-646.755	751.003	0.076	-0.206
-645.741	-136.678	-0.184	0.021
-644.726	-200.000	-0.070	0.373
-643.711	61.274	0.183	0.183
-642.697	-200.000	-0.019	-0.275
-641.682	-150.845	-0.477	0.036
-640.668	15.801	0.174	0.138
-639.653	180.209	0.084	0.124
-638.638	7.370	-0.049	-0.037
-637.624	-76.695	0.204	-0.072
-636.609	-200.000	-0.034	0.151
-635.595	231.008	-0.202	-0.332
-634.580	-59.878	-0.409	0.176
-633.565	-200.000	0.043	0.259
-632.551	-26.571	-0.292	-0.172
-631.536	800.000	0.028	-0.078
-630.522	-200.000	-0.039	0.195
-629.507	435.772	-0.129	0.283
-628.492	115.720	-0.133	0.164
-627.478	347.850	0.071	0.141
-626.463	49.257	0.244	0.230
-625.449	-97.344	-0.171	0.045
-624.434	36.704	0.053	-0.047
-623.419	-37.209	-0.185	-0.099
-622.405	-91.327	0.315	-0.090
-621.390	-163.883	-0.300	0.014
-620.376	372.435	-0.026	-0.053
-619.361	-18.791	0.115	0.072
-618.346	-91.370	-0.426	0.122
-617.332	121.575	-0.145	-0.182
-616.317	-66.949	-0.245	0.097
-615.303	392.152	-0.030	0.062
-614.288	800.000	-0.081	-0.225
-613.273	-90.499	0.215	-0.062
-612.259	28.913	0.115	-0.098
-611.244	-79.028	0.324	-0.110
-610.230	-39.261	-0.383	-0.202
-609.215	138.418	0.234	-0.308
-608.201	800.000	0.057	-0.166
-607.186	102.846	-0.205	-0.241
-606.171	-200.000	-0.031	-0.140
-605.157	-91.995	0.175	-0.050
-604.142	185.140	0.135	0.200
-603.128	139.328	-0.201	0.266
-602.113	-115.548	-0.203	0.038
-601.098	737.162	0.012	0.032
-600.084	-153.968	0.231	0.016
-599.069	-72.432	-0.202	0.075
-598.055	132.307	0.035	-0.045
-597.040	171.971	0.124	-0.178
-596.025	48.931	0.047	-0.044
-595.011	-65.535	-0.178	0.072
-593.996	425.087	0.066	-0.142
-592.982	800.000	0.028	0.109
-591.967	-53.983	0.135	0.061
-590.952	-41.559	0.046	-0.023
-589.938	-15.593	-0.192	-0.123
-588.923	192.377	0.078	-0.118
-587.909	-200.000	-0.016	-0.161
-586.894	-39.677	0.212	0.111
-585.879	715.951	-0.145	0.386
-584.865	124.769	-0.150	0.189
-583.850	-195.225	-0.306	0.002
-582.836	-44.373	0.136	0.068
-581.821	-144.784	-0.419	0.039
-580.806	-200.000	-0.020	-0.120
-579.792	101.184	0.189	-0.221
-578.777	-122.668	0.173	-0.028
-577.763	363.246	-0.137	-0.276
-576.748	29.295	0.135	0.115
-575.733	-185.737	-0.123	-0.002
-574.719	701.507	0.030	-0.078
-573.704	-147.299	-0.116	0.010
-572.690	-7.134	-0.124	0.084
-571.675	-77.969	0.100	-0.034
-570.661	-200.000	-0.009	-0.244
-569.646	78.778	-0.149	0.160
-568.631	-149.091	0.274	0.022
-567.617	800.000	-0.152	-0.469
-566.602	-30.732	0.094	0.053
-565.588	81.234	-0.357	-0.386
-564.573	-87.425	0.317	-0.096
-563.558	-33.019	0.100	-0.055
-562.544	407.949	-0.090	-0.192
-561.529	46.264	0.045	-0.041
-560.515	-111.027	-0.133	0.027
-559.500	-200.000	-0.008	0.295
-558.485	157.970	-0.049	0.068
-557.471	87.022	-0.071	-0.078
-556.456	-200.000	-0.035	0.176
-555.442	-42.299	0.246	0.126
-554.427	-79.717	-0.316	-0.107
-553.412	93.624	-0.309	-0.351
-552.398	-24.015	0.182	0.109
-551.383	-200.000	0.007	-0.115
-550.369	-114.043	0.299	-0.058
-549.354	-200.000	0.056	-0.462
-548.339	800.000	0.008	0.026
-547.325	-52.836	-0.021	-0.010
-546.310	-200.000	0.047	-0.235
-545.296	-200.000	0.020	-0.315
-544.281	176.120	-0.032	0.046
-543.266	528.585	-0.066	-0.156
-542.252	-200.000	-0.052	-0.321
-541.237	800.000	-0.074	0.293
-540.223	87.730	0.073	-0.081
-539.208	-134.212	-0.276	0.034
-538.193	-25.605	-0.051	-0.030
-537.179	800.000	-0.046	0.163
-536.164	-179.580	-0.145	-0.003
-535.150	262.953	-0.169	0.294
-534.135	591.189	0.117	0.288
-533.121	800.000	0.032	-0.112
-532.106	97.251	-0.069	0.079
-531.091	-200.000	0.004	0.098
-530.077	33.421	0.046	-0.040
-529.062	-115.127	-0.137	0.026
-528.048	350.213	-0.101	0.200
-527.033	34.874	-0.047	0.041
-526.018	-47.112	-0.154	0.075
-525.004	144.044	-0.133	0.178
-523.989	-85.921	-0.176	-0.054
-522.975	-168.986	-0.268	-0.010
-521.960	-22.696	-0.037	0.022
-520.945	-122.064	0.168	-0.028
-519.931	-13.449	-0.097	0.063
-518.916	789.328	-0.030	0.083
-517.902	208.673	-0.073	0.114
-516.887	32.086	-0.166	0.143
-515.872	-27.144	0.177	-0.103
-514.858	282.285	0.083	0.149
-513.843	219.757	0.235	0.376
-512.829	-78.446	0.232	0.079
-511.814	-200.000	0.036	-0.361
-510.799	-47.842	-0.239	0.116
-509.785	440.890	-0.130	0.284
-508.770	-200.000	-0.008	-0.065
-507.756	263.569	0.094	-0.163
-506.741	-147.042	0.289	0.025
-505.726	93.200	-0.147	-0.166
-504.712	-9.033	0.173	0.116
-503.697	-24.133	-0.317	-0.189
-502.683	1.842	-0.278	-0.200
-501.668	-58.162	-0.036	-0.016
-500.653	98.795	0.092	-0.106
-499.639	19.718	0.053	0.042
-498.624	-102.305	0.178	-0.043
-497.610	-189.094	-0.028	-0.000
-496.595	127.162	-0.092	-0.117
-495.581	-16.066	0.027	-0.017
-494.566	800.000	0.047	0.184
-493.551	-113.427	-0.459	0.090
-492.537	280.167	0.036	0.065
-491.522	160.304	-0.023	-0.032
-490.508	35.002	0.116	0.102
-489.493	-67.489	-0.045	-0.018
-488.478	189.433	0.034	-0.051
-487.464	-39.215	0.213	0.112
-486.449	-84.151	-0.257	-0.081
-485.435	800.000	0.086	-0.293
-484.420	-200.000	0.017	-0.174
-483.405	-37.614	-0.208	-0.111
-482.391	-0.925	0.205	0.145
-481.376	60.581	-0.100	-0.099
-480.362	639.555	-0.045	-0.115
-479.347	93.818	0.023	0.026
-478.332	-169.507	-0.381	0.014
-477.318	-118.478	0.111	0.020
-476.303	117.056	-0.266	-0.326
-475.289	-200.000	-0.040	0.232
-474.274	-73.547	-0.126	0.046
-473.259	251.892	-0.093	0.157
-472.245	280.768	0.189	0.338
-471.230	57.633	0.191	-0.186
-470.216	210.513	-0.085	0.133
-469.201	-96.670	-0.201	0.053
-468.186	-68.416	0.323	-0.125
-467.172	800.000	-0.023	-0.084
-466.157	800.000	0.051	0.153
-465.143	190.755	-0.210	-0.315
-464.128	-62.332	0.234	-0.097
-463.113	-88.979	-0.115	-0.034
-462.099	-28.460	-0.107	0.061
-461.084	-147.897	0.261	-0.022
-460.070	161.367	-0.095	0.132
-459.055	-40.470	0.167	0.087
-458.040	-45.880	-0.083	0.041
-457.026	-47.323	-0.174	-0.085
-456.011	-98.099	0.387	0.099
-454.997	-3.784	0.214	0.148
-453.982	800.000	0.072	-0.214
-452.968	-93.830	-0.179	-0.049
-451.953	384.730	0.033	-0.067
-450.938	-45.495	-0.322	0.159
-449.924	24.978	-0.196	0.162
-448.909	-200.000	0.005	0.211
-447.895	-59.620	-0.087	-0.037
-446.880	275.145	-0.131	-0.231
-445.865	97.458	0.075	-0.086
-444.851	-200.000	0.039	-0.286
-443.836	-106.181	-0.493	0.110
-442.822	800.000	-0.086	-0.238
-441.807	-0.837	-0.058	-0.041
-440.792	47.536	0.146	-0.136
-439.778	129.672	0.240	-0.305
-438.763	-9.422	-0.228	-0.151
-437.749	-200.000	-0.088	-0.482
-436.734	800.000	0.062	0.242
-435.719	72.382	0.137	0.142
-434.705	-91.730	0.275	-0.078
-433.690	800.000	0.060	-0.214
-432.676	-122.395	-0.294	-0.048
-431.661	-13.504	0.131	0.084
-430.646	-71.210	0.299	0.112
-429.632	88.419	-0.062	-0.069
-428.617	800.000	0.041	0.115
-427.603	-137.267	-0.164	0.019
-426.588	121.810	-0.191	0.237
-425.573	-200.000	0.000	-0.260
-424.559	-200.000	-0.064	-0.363
-423.544	-51.541	0.074	0.034
-422.530	-200.000	0.035	-0.157
-421.515	-147.259	0.298	-0.025
-420.500	-158.622	0.085	0.005
-419.486	-3.828	0.105	0.073
-418.471	40.098	0.147	0.132
-417.457	-200.000	0.020	0.129
-416.442	-25.144	0.113	0.067
-415.428	538.630	0.134	0.317
-414.413	-200.000	-0.038	0.185
-413.398	296.787	0.169	-0.308
-412.384	-156.145	0.012	-0.001
-411.369	161.382	0.120	-0.167
-410.355	-46.082	-0.011	0.005
-409.340	-179.519	-0.099	0.002
-408.325	342.207	0.159	-0.310
-407.311	-97.855	-0.158	0.041
-406.296	-122.023	-0.239	0.039
-405.282	-44.701	0.052	-0.026
-404.267	126.935	-0.282	0.356
-403.252	-192.772	0.172	0.002
-402.238	-200.000	0.069	0.322
-401.223	-106.646	-0.206	-0.046
-400.209	30.961	0.520	0.443
-399.194	-32.473	-0.284	0.158
-398.179	413.907	0.034	-0.073
-397.165	54.936	-0.122	-0.117
-396.150	-183.419	0.152	0.003
-395.136	543.308	0.089	0.211
-394.121	90.359	0.219	0.244
-393.106	-200.000	0.026	-0.116
-392.092	-34.766	-0.195	-0.106
-391.077	342.410	0.027	-0.053
-390.063	10.648	0.166	0.126
-389.048	-60.209	0.053	0.022
-388.033	-200.000	-0.042	-0.310
-387.019	-200.000	-0.031	0.141
-386.004	253.794	0.051	-0.086
-384.990	-152.662	0.288	-0.020
-383.975	288.761	-0.034	0.061
-382.960	-117.576	0.245	-0.044
-381.946	-200.000	-0.015	0.116
-380.931	-4.854	0.243	0.166
-379.917	-200.000	-0.026	-0.241
-378.902	279.332	-0.040	-0.071
-377.888	-45.807	-0.268	0.132
-376.873	-200.000	-0.001	-0.107
-375.858	241.807	-0.216	0.358
-374.844	-119.733	-0.263	0.045
-373.829	-200.000	0.000	0.271
-372.815	-166.661	0.088	0.004
-371.800	-131.030	0.143	0.019
-370.785	-161.828	0.293	0.015
-369.771	436.355	0.133	-0.289
-368.756	-200.000	0.025	-0.252
-367.742	-200.000	-0.030	0.446
-366.727	-41.777	-0.114	-0.058
-365.712	67.176	0.201	0.204
-364.698	740.501	0.093	-0.247
-363.683	-200.000	0.030	0.164
-362.669	-200.000	0.024	0.130
-361.654	340.354	0.104	-0.201
-360.639	-47.583	0.223	0.108
-359.625	302.800	-0.074	0.136
-358.610	-73.766	0.045	0.016
-357.596	-15.534	-0.210	0.133
-356.581	-200.000	-0.000	0.063
-355.566	-148.042	-0.127	0.010
-354.552	-167.389	0.284	-0.011
-353.537	-200.000	-0.034	0.295
-352.523	-200.000	-0.002	-0.154
-351.508	-2.508	-0.090	0.062
-350.493	800.000	-0.061	-0.169
-349.479	104.443	-0.089	-0.104
-348.464	75.990	0.222	0.234
-347.450	-129.925	-0.012	-0.002
-346.435	193.055	0.177	-0.266
-345.420	298.770	-0.109	-0.199
-344.406	399.631	0.253	0.526
-343.391	47.022	0.261	-0.241
-342.377	53.823	0.239	-0.228
-341.362	-44.746	-0.323	-0.160
-340.348	-17.782	-0.110	0.068
-339.333	-114.133	0.090	0.017
-338.318	-200.000	-0.032	-0.223
-337.304	150.834	0.115	0.155
-336.289	-183.122	0.139	-0.002
-335.275	-79.692	0.205	-0.069
-334.260	-80.201	-0.401	0.133
-333.245	350.450	0.080	0.157
-332.231	-108.719	0.240	-0.051
-331.216	-200.000	0.012	0.231
-330.202	42.980	-0.172	0.155
-329.187	-200.000	0.005	-0.022
-328.172	530.880	-0.180	0.422
-327.158	455.974	0.070	0.155
-326.143	548.959	0.146	0.348
-325.129	800.000	-0.097	-0.417
-324.114	787.845	-0.112	-0.304
-323.099	-200.000	0.001	0.096
-322.085	-97.462	0.230	0.059
-321.070	306.058	0.046	0.086
-320.056	-92.709	-0.225	0.062
-319.041	-37.854	0.150	-0.079
-318.026	251.840	0.084	-0.142
-317.012	-40.931	0.135	0.069
-315.997	-200.000	0.042	0.267
-314.983	453.724	0.062	-0.137
-313.968	269.963	-0.056	0.098
-312.953	-126.388	0.138	-0.020
-311.939	-166.005	-0.237	0.010
-310.924	-200.000	0.015	-0.097
-309.910	-158.310	0.035	-0.002
-308.895	-175.182	0.256	-0.007
-307.880	800.000	-0.122	0.465
-306.866	-83.825	-0.229	0.072
-305.851	19.455	-0.063	-0.050
-304.837	-70.983	0.172	0.064
-303.822	596.034	0.136	0.335
-302.807	-118.769	-0.118	0.021
-301.793	800.000	0.015	0.054
-300.778	800.000	-0.032	-0.122
-299.764	-152.029	0.282	-0.020
-298.749	305.014	-0.104	0.192
-297.735	97.750	0.100	0.114
-296.720	645.078	0.109	0.276
-295.705	299.093	0.187	0.341
-294.691	800.000	-0.109	0.313
-293.676	-190.027	-0.127	-0.001
-292.662	44.628	0.107	0.098
-291.647	32.538	0.265	0.227
-290.632	308.771	-0.152	0.280
-289.618	138.897	0.100	0.131
-288.603	-88.992	0.030	-0.009
-287.589	-200.000	-0.028	-0.296
-286.574	-200.000	0.003	0.247
-285.559	-28.921	-0.189	-0.108
-284.545	-73.621	-0.225	0.081
-283.530	-33.889	-0.306	0.167
-282.516	92.739	0.147	-0.165
-281.501	-200.000	-0.003	-0.154
-280.486	79.500	-0.218	0.232
-279.472	598.636	0.070	-0.173
-278.457	-80.197	0.106	0.035
-277.443	-157.154	0.250	0.015
-276.428	-86.284	-0.112	0.034
-275.413	-200.000	0.011	-0.088
-274.399	345.245	0.053	-0.104
-273.384	195.900	0.168	0.253
-272.370	-174.830	0.413	0.012
-271.355	-25.426	-0.220	0.129
-270.340	800.000	-0.061	-0.226
-269.326	-163.898	0.062	-0.003
-268.311	49.369	-0.239	0.223
-267.297	-32.651	0.296	0.163
-266.282	439.412	0.148	0.319
-265.267	-67.943	0.108	0.042
-264.253	800.000	0.134	-0.463
-263.238	800.000	-0.101	0.338
-262.224	48.839	0.257	-0.239
-261.209	-48.890	-0.164	0.078
-260.195	-148.016	-0.147	-0.012
-259.180	-200.000	-0.086	-0.383
-258.165	-61.058	-0.228	-0.095
-257.151	800.000	0.015	0.045
-256.136	30.048	-0.147	0.124
-255.122	267.449	-0.123	-0.213
-254.107	92.900	-0.175	-0.195
-253.092	15.831	0.185	0.144
-252.078	-200.000	-0.021	-0.146
-251.063	310.069	-0.101	0.186
-250.049	-71.013	-0.228	0.085
-249.034	-200.000	-0.060	0.431
-248.019	-76.727	-0.195	-0.068
-247.005	30.717	-0.259	-0.219
-245.990	-200.000	0.023	0.124
-244.976	204.777	0.081	0.125
-243.961	130.646	0.063	0.080
-242.946	-51.016	-0.221	-0.102
-241.932	-65.835	-0.229	0.091
-240.917	800.000	0.083	-0.246
-239.903	-51.728	-0.054	0.025
-238.888	-147.718	-0.153	-0.013
-237.873	185.346	0.245	-0.360
-236.859	-22.800	0.114	-0.068
-235.844	-54.091	-0.149	0.067
-234.830	-68.311	0.315	0.121
-233.815	-151.466	0.124	-0.009
-232.800	46.373	-0.087	0.080
-231.786	-10.805	-0.240	-0.157
-230.771	41.442	0.061	0.055
-229.757	-200.000	0.007	-0.349
-228.742	-200.000	0.002	-0.027
-227.727	-200.000	-0.011	-0.192
-226.713	404.978	0.073	-0.153
-225.698	152.262	-0.096	0.130
-224.684	39.554	0.193	0.171
-223.669	-200.000	-0.002	0.067
-222.655	224.174	0.241	-0.385
-221.640	-40.071	0.146	-0.075
-220.625	-54.604	0.027	0.012
-219.611	-75.138	0.213	-0.075
-218.596	-94.094	-0.171	0.046
-217.582	-150.307	-0.419	-0.032
-216.567	-200.000	0.033	0.485
-215.552	-200.000	0.032	-0.207
-214.538	-9.498	0.284	-0.187
-213.523	-171.085	-0.218	-0.007
-212.509	-200.000	0.034	-0.208
-211.494	423.711	0.007	-0.015
-210.479	87.661	-0.106	0.115
-209.465	-39.716	0.264	-0.137
-208.450	198.197	-0.221	-0.333
-207.436	800.000	-0.044	-0.126
-206.421	54.749	0.068	-0.065
-205.406	800.000	-0.006	-0.024
-204.392	-55.004	0.100	-0.044
-203.377	-200.000	-0.033	-0.378
-202.363	-90.635	-0.124	-0.035
-201.348	-156.436	0.223	0.014
-200.333	-92.343	0.085	0.024
-199.319	-133.565	0.201	-0.025
-198.304	64.466	0.296	0.295
-197.290	-200.000	0.033	-0.278
-196.275	-99.565	0.248	-0.061
-195.260	-200.000	0.101	-0.445
-194.246	216.191	0.037	-0.058
-193.231	-112.936	-0.073	-0.014
-192.217	30.762	-0.148	0.125
-191.202	585.226	-0.112	0.271
-190.187	96.552	0.196	-0.221
-189.173	-77.996	0.206	0.070
-188.158	-15.022	0.161	-0.102
-187.144	-104.971	0.303	-0.069
-186.129	18.832	-0.095	0.075
-185.114	-179.421	0.094	0.002
-184.100	16.503	-0.086	0.067
-183.085	354.682	0.072	-0.141
-182.071	-123.631	-0.172	-0.027
-181.056	-143.286	0.189	0.018
-180.042	-44.663	0.083	-0.041
-179.027	-64.100	-0.066	-0.027
-178.012	24.755	0.161	-0.132
-176.998	-200.000	0.008	-0.136
-175.983	-6.767	-0.104	-0.070
-174.969	35.364	-0.204	-0.177
-173.954	-18.528	-0.071	-0.044
-172.939	90.911	-0.278	0.307
-171.925	485.656	0.028	0.064
-170.910	-187.310	-0.119	0.002
-169.896	241.126	0.107	-0.177
-168.881	-25.759	-0.190	-0.111
-167.866	-200.000	0.003	-0.168
-166.852	217.981	0.076	0.119
-165.837	30.624	0.029	-0.025
-164.823	-41.767	-0.185	-0.094
-163.808	800.000	-0.083	0.235
-162.793	-200.000	0.085	0.494
-161.779	164.821	0.105	-0.146
-160.764	-200.000	0.046	-0.381
-159.750	-146.420	-0.297	-0.026
-158.735	171.520	-0.079	0.112
-157.720	605.762	0.174	0.427
-156.706	-112.962	0.404	0.079
-155.691	-83.086	-0.244	-0.078
-154.677	-127.145	0.221	0.032
-153.662	180.496	-0.182	-0.263
-152.647	-178.831	0.309	0.007
-151.633	-152.913	0.159	-0.011
-150.618	727.820	0.078	0.206
-149.604	800.000	-0.109	0.326
-148.589	-33.130	-0.258	0.141
-147.574	518.017	-0.143	0.330
-146.560	800.000	0.039	0.158
-145.545	-71.319	-0.083	-0.031
-144.531	20.874	0.051	-0.041
-143.516	18.515	-0.106	-0.083
-142.502	800.000	0.067	0.262
-141.487	-69.082	-0.086	0.033
-140.472	-200.000	-0.003	0.307
-139.458	67.983	0.302	0.305
-138.443	64.666	0.215	-0.213
-137.429	-5.043	-0.071	0.048
-136.414	-117.924	0.189	-0.033
-135.399	59.520	-0.113	0.110
-134.385	6.274	-0.164	0.120
-133.370	36.474	0.091	0.079
-132.356	21.522	-0.332	0.265
-131.341	78.995	0.089	0.094
-130.326	99.510	0.178	-0.203
-129.312	800.000	0.036	-0.136
-128.297	-169.768	0.131	-0.005
-127.283	-4.870	-0.260	-0.176
-126.268	13.750	0.377	-0.289
-125.253	-200.000	-0.031	0.253
-124.239	-200.000	-0.013	0.140
-123.224	-83.110	-0.186	-0.059
-122.210	800.000	-0.080	0.256
-121.195	752.466	0.104	-0.276
