DTS Sentinel unit serial number:	SN413079Multiplexer serial number:	ORYXHardware model number:	OX4-SRSoftware version number:	ORYX F/W v4.00 Oryx Data Collector v3.7.2.0data status	okinstallation	princeton_trtdifferential loss correction	single-endedforward channel	channel 2reverse channel	N/Adate	2019/09/12time	05:53:11forward acquisition time	60.00reverse acquisition time	0.00gamma	496.2192k internal	0.2325k external	0.2325temperature offset calibration	1.0059default loss term (dB/km)	0.3790temperature slope calibration	1.0000multiplexer offset coefficient	1.0000multiplexer slope coefficient	1.0000fibre end	0.00T internal ref (°C)	32.06T ext. ref 1 (°C)	1.56T ext. ref 2 (°C)	27.49length (m)	temperature (°C)	Stokes	anti-Stokes-747.200	-52.679	0.458	0.213
-746.185	-84.530	-0.120	0.038
-745.171	-78.863	-0.289	0.099
-744.156	109.185	-0.178	0.215
-743.142	99.702	-0.153	-0.179
-742.127	631.106	0.149	0.382
-741.112	-68.314	0.148	0.058
-740.098	-12.265	0.225	0.148
-739.083	-50.311	0.361	-0.172
-738.069	-200.000	-0.041	0.294
-737.054	192.297	0.048	-0.073
-736.039	216.129	0.127	-0.203
-735.025	-74.585	0.291	-0.106
-734.010	800.000	-0.114	0.352
-732.996	-75.193	-0.162	-0.058
-731.981	-200.000	0.019	0.428
-730.966	-93.437	-0.126	-0.035
-729.952	-42.834	-0.240	0.123
-728.937	-200.000	0.010	-0.121
-727.923	386.866	-0.033	0.068
-726.908	-71.082	-0.243	-0.092
-725.894	166.175	-0.196	-0.280
-724.879	-200.000	0.038	0.274
-723.864	800.000	0.139	0.397
-722.850	800.000	-0.061	0.266
-721.835	332.845	0.129	0.251
-720.821	21.590	-0.210	0.172
-719.806	-26.376	0.272	-0.161
-718.791	187.200	0.030	-0.045
-717.777	-200.000	0.013	-0.243
-716.762	301.417	0.202	-0.375
-715.748	-200.000	-0.035	-0.371
-714.733	-37.382	-0.146	0.079
-713.718	98.153	-0.030	-0.035
-712.704	83.288	0.099	-0.109
-711.689	171.429	0.242	-0.350
-710.675	243.542	-0.080	0.135
-709.660	56.764	0.147	-0.144
-708.645	-3.507	0.277	0.194
-707.631	800.000	-0.107	0.373
-706.616	-200.000	-0.008	-0.063
-705.602	364.741	0.062	0.127
-704.587	-149.200	0.217	-0.018
-703.572	-200.000	-0.017	-0.086
-702.558	800.000	0.023	0.097
-701.543	89.578	0.171	0.192
-700.529	179.269	-0.132	-0.194
-699.514	252.325	0.058	-0.099
-698.499	-200.000	-0.023	0.118
-697.485	217.891	-0.046	-0.073
-696.470	103.879	0.147	-0.174
-695.456	-46.889	0.201	0.099
-694.441	-101.637	0.178	-0.043
-693.426	-8.861	0.149	0.101
-692.412	658.336	-0.077	0.200
-691.397	-200.000	-0.046	0.386
-690.383	-200.000	-0.055	-0.251
-689.368	-37.829	0.213	0.114
-688.354	169.892	-0.048	0.069
-687.339	46.164	-0.206	-0.192
-686.324	800.000	0.059	0.189
-685.310	-200.000	0.007	0.098
-684.295	-61.460	-0.158	-0.067
-683.281	-154.577	0.399	0.027
-682.266	-95.418	-0.092	-0.025
-681.251	-200.000	0.027	0.131
-680.237	-17.044	0.342	0.217
-679.222	-65.636	0.208	0.084
-678.208	-20.506	-0.310	-0.192
-677.193	32.980	-0.184	0.160
-676.178	-174.637	0.254	0.007
-675.164	-176.663	-0.342	-0.009
-674.149	-74.146	-0.255	-0.093
-673.135	236.249	-0.085	0.142
-672.120	-23.763	-0.153	0.092
-671.105	-104.114	0.251	0.059
-670.091	485.544	-0.111	0.254
-669.076	548.604	0.055	-0.133
-668.062	-132.438	0.238	-0.031
-667.047	-0.041	0.283	0.203
-666.032	494.501	0.118	-0.273
-665.018	-81.022	0.159	-0.053
-664.003	-136.643	0.336	0.039
-662.989	80.877	-0.149	-0.161
-661.974	-65.761	0.180	0.072
-660.959	-56.118	-0.211	0.094
-659.945	800.000	0.048	-0.179
-658.930	772.745	-0.105	-0.288
-657.916	-101.568	-0.242	0.059
-656.901	254.933	0.133	-0.229
-655.886	-160.162	0.481	0.026
-654.872	60.167	-0.064	0.063
-653.857	-40.048	-0.115	0.060
-652.843	-73.227	-0.301	-0.111
-651.828	-167.942	-0.139	-0.005
-650.814	33.932	-0.156	-0.136
-649.799	-103.623	0.183	-0.043
-648.784	800.000	0.031	-0.117
-647.770	-200.000	0.039	-0.182
-646.755	45.978	-0.071	0.066
-645.741	-200.000	-0.009	-0.114
-644.726	4.321	-0.173	0.128
-643.711	-170.710	0.205	-0.007
-642.697	513.987	-0.050	-0.118
-641.682	-19.441	0.253	-0.158
-640.668	-112.074	-0.277	0.056
-639.653	65.533	0.208	-0.212
-638.638	-200.000	-0.000	0.039
-637.624	-200.000	0.019	-0.308
-636.609	-3.493	0.340	-0.238
-635.595	-44.280	-0.072	0.036
-634.580	82.348	0.095	0.103
-633.565	426.627	-0.036	0.078
-632.551	800.000	-0.063	0.224
-631.536	120.986	0.030	0.037
-630.522	-200.000	-0.023	-0.257
-629.507	330.418	0.159	-0.308
-628.492	-18.976	0.243	-0.152
-627.478	-3.074	0.286	-0.200
-626.463	800.000	-0.035	0.099
-625.449	391.974	0.146	0.305
-624.434	-90.954	0.165	0.048
-623.419	-200.000	-0.019	0.202
-622.405	-58.368	-0.171	0.075
-621.390	-200.000	-0.005	0.036
-620.376	-200.000	-0.055	0.312
-619.361	800.000	0.022	-0.088
-618.346	-98.670	-0.322	0.082
-617.332	-200.000	-0.049	-0.263
-616.317	153.110	-0.099	-0.137
-615.303	-114.752	-0.106	-0.020
-614.288	251.748	-0.099	0.170
-613.273	282.936	0.130	-0.234
-612.259	-35.374	-0.198	0.108
-611.244	-200.000	0.007	-0.088
-610.230	-12.466	0.013	0.009
-609.215	-126.741	0.124	0.018
-608.201	259.946	0.167	0.290
-607.186	-200.000	0.021	-0.307
-606.171	-91.154	0.451	0.130
-605.157	-0.094	0.146	-0.104
-604.142	284.818	0.131	0.236
-603.128	800.000	-0.122	-0.351
-602.113	-67.971	0.119	0.047
-601.098	-87.536	-0.154	-0.047
-600.084	-153.636	0.022	-0.002
-599.069	261.652	-0.101	-0.176
-598.055	800.000	-0.024	0.067
-597.040	-143.440	0.163	-0.016
-596.025	-85.067	0.083	0.026
-595.011	-65.384	-0.431	0.174
-593.996	800.000	-0.080	0.238
-592.982	165.558	-0.087	0.124
-591.967	598.593	0.079	0.197
-590.952	-192.864	-0.539	-0.005
-589.938	315.919	-0.104	-0.196
-588.923	20.683	-0.200	0.162
-587.909	59.271	-0.126	0.125
-586.894	-200.000	0.012	0.254
-585.879	-200.000	-0.435	-0.000
-584.865	-112.888	0.236	-0.047
-583.850	-200.000	0.040	-0.244
-582.836	-103.594	0.302	0.071
-581.821	189.698	-0.211	0.317
-580.806	-17.325	0.151	-0.095
-579.792	475.768	-0.102	-0.231
-578.777	-200.000	0.030	0.179
-577.763	-15.888	0.066	-0.042
-576.748	-200.000	-0.032	-0.209
-575.733	800.000	-0.069	0.303
-574.719	546.310	0.086	-0.206
-573.704	-200.000	0.007	-0.061
-572.690	-200.000	0.038	0.287
-571.675	-49.363	-0.196	-0.094
-570.661	800.000	0.041	0.114
-569.646	-75.089	0.308	-0.111
-568.631	411.505	-0.015	0.033
-567.617	-143.658	-0.163	-0.015
-566.602	34.687	-0.026	-0.022
-565.588	-200.000	-0.031	0.138
-564.573	-124.927	0.223	0.034
-563.558	422.445	0.126	-0.271
-562.544	23.025	-0.148	-0.122
-561.529	-200.000	-0.011	-0.307
-560.515	14.300	0.312	-0.244
-559.500	4.621	-0.286	-0.211
-558.485	683.134	-0.113	0.294
-557.471	-179.971	0.178	0.004
-556.456	-200.000	-0.013	-0.099
-555.442	177.170	0.102	0.149
-554.427	-200.000	-0.007	-0.078
-553.412	-186.866	-0.326	0.005
-552.398	-200.000	0.018	-0.332
-551.383	-110.954	0.332	-0.068
-550.369	-12.258	-0.126	-0.083
-549.354	-42.828	-0.286	0.146
-548.339	-8.123	0.190	0.128
-547.325	-200.000	0.013	0.118
-546.310	221.380	0.066	0.107
-545.296	-73.212	0.190	-0.070
-544.281	-200.000	0.030	-0.154
-543.266	427.721	-0.122	0.264
-542.252	186.265	0.070	0.104
-541.237	800.000	0.102	-0.379
-540.223	20.051	-0.166	-0.134
-539.208	800.000	0.006	0.023
-538.193	-121.894	0.092	-0.015
-537.179	384.928	-0.064	0.133
-536.164	-200.000	-0.002	0.278
-535.150	-24.965	0.139	0.082
-534.135	-35.019	0.090	0.049
-533.121	59.473	-0.216	-0.214
-532.106	-29.359	-0.128	0.073
-531.091	9.289	-0.150	0.114
-530.077	-30.713	0.054	-0.031
-529.062	-84.819	-0.386	-0.121
-528.048	-53.338	-0.227	-0.104
-527.033	800.000	0.076	-0.334
-526.018	-138.262	0.200	0.022
-525.004	508.984	-0.042	-0.097
-523.989	55.675	-0.277	-0.269
-522.975	-200.000	-0.037	0.208
-521.960	-37.640	-0.183	-0.098
-520.945	-179.182	-0.182	-0.004
-519.931	-25.520	0.031	-0.019
-518.916	-200.000	-0.008	0.117
-517.902	629.499	-0.114	0.289
-516.887	-26.066	0.367	-0.216
-515.872	320.401	0.050	-0.096
-514.858	-42.946	-0.260	-0.132
-513.843	512.176	-0.098	-0.228
-512.829	-70.773	-0.154	-0.058
-511.814	22.475	-0.291	-0.238
-510.799	737.735	-0.079	0.212
-509.785	-87.525	-0.165	-0.050
-508.770	387.121	-0.129	0.266
-507.756	35.828	0.216	0.190
-506.741	-200.000	0.046	-0.384
-505.726	800.000	0.017	0.064
-504.712	-155.066	0.073	-0.005
-503.697	-200.000	-0.049	-0.362
-502.683	-109.421	-0.372	-0.079
-501.668	-73.204	0.197	0.072
-500.653	270.487	-0.083	-0.145
-499.639	-200.000	0.017	0.270
-498.624	-200.000	-0.011	-0.099
-497.610	307.317	0.176	-0.328
-496.595	-181.541	-0.257	0.005
-495.581	-27.510	-0.257	-0.149
-494.566	-88.981	-0.040	0.012
-493.551	66.915	-0.173	-0.176
-492.537	299.226	0.147	0.270
-491.522	43.036	-0.074	0.068
-490.508	7.860	0.069	0.051
-489.493	-157.128	-0.352	-0.021
-488.478	800.000	0.065	-0.265
-487.464	200.230	-0.174	0.266
-486.449	92.281	-0.209	-0.235
-485.435	-200.000	0.002	-0.303
-484.420	800.000	0.035	-0.150
-483.405	341.793	0.098	-0.192
-482.391	-22.038	-0.246	0.149
-481.376	154.660	0.268	0.367
-480.362	-185.415	-0.168	-0.003
-479.347	365.295	0.062	-0.125
-478.332	-65.779	0.138	-0.055
-477.318	-74.224	-0.076	0.027
-476.303	800.000	0.107	0.408
-475.289	-200.000	-0.059	0.313
-474.274	62.555	-0.384	-0.383
-473.259	-200.000	0.019	-0.192
-472.245	-200.000	0.026	0.312
-471.230	-200.000	0.055	0.279
-470.216	84.765	0.312	-0.341
-469.201	-134.487	-0.279	0.034
-468.186	63.530	-0.023	-0.023
-467.172	-200.000	0.053	0.314
-466.157	12.833	0.204	0.157
-465.143	-9.915	-0.032	-0.021
-464.128	-200.000	-0.052	0.386
-463.113	-200.000	-0.011	-0.065
-462.099	-156.337	0.374	0.023
-461.084	34.170	0.168	0.147
-460.070	-200.000	-0.001	-0.126
-459.055	-200.000	-0.015	0.255
-458.040	800.000	0.093	0.264
-457.026	-115.908	-0.234	-0.044
-456.011	-61.704	-0.115	0.048
-454.997	236.975	0.227	0.376
-453.982	-200.000	-0.010	0.053
-452.968	800.000	0.065	-0.215
-451.953	-200.000	-0.005	0.148
-450.938	-200.000	-0.028	-0.200
-449.924	-73.498	-0.178	0.065
-448.909	-200.000	-0.018	0.161
-447.895	120.314	0.019	0.024
-446.880	199.031	-0.097	0.149
-445.865	-200.000	-0.015	-0.115
-444.851	-200.000	0.023	-0.241
-443.836	-200.000	-0.004	0.078
-442.822	91.022	-0.168	0.188
-441.807	622.492	-0.047	0.117
-440.792	800.000	0.085	-0.289
-439.778	17.204	0.296	0.234
-438.763	105.124	-0.143	-0.169
-437.749	299.487	-0.113	-0.208
-436.734	-200.000	-0.028	-0.184
-435.719	96.733	0.213	-0.244
-434.705	800.000	0.057	0.205
-433.690	-200.000	-0.058	-0.364
-432.676	-200.000	-0.023	0.106
-431.661	380.081	-0.070	0.143
-430.646	-200.000	-0.059	0.352
-429.632	-99.040	0.163	-0.041
-428.617	18.102	0.238	-0.189
-427.603	-200.000	-0.013	-0.115
-426.588	800.000	-0.086	-0.287
-425.573	10.070	0.101	0.076
-424.559	48.428	-0.034	-0.032
-423.544	99.412	-0.097	-0.112
-422.530	-17.501	-0.217	-0.136
-421.515	208.444	-0.079	0.123
-420.500	-108.651	-0.229	0.049
-419.486	-200.000	0.022	-0.249
-418.471	-141.356	-0.169	-0.017
-417.457	81.523	-0.229	0.247
-416.442	72.945	0.151	0.157
-415.428	-96.521	-0.055	-0.015
-414.413	18.071	-0.128	0.102
-413.398	264.477	-0.069	-0.119
-412.384	67.174	-0.082	-0.084
-411.369	-130.624	-0.353	0.047
-410.355	101.952	0.090	0.104
-409.340	8.981	0.194	0.146
-408.325	334.071	0.056	0.107
-407.311	-118.421	0.278	0.049
-406.296	800.000	-0.021	-0.068
-405.282	475.483	0.082	0.185
-404.267	91.628	0.101	-0.113
-403.252	800.000	0.088	0.332
-402.238	446.883	0.127	-0.278
-401.223	800.000	0.071	-0.211
-400.209	18.942	0.132	0.105
-399.194	317.393	-0.059	-0.111
-398.179	-92.731	-0.207	0.058
-397.165	-90.542	0.194	-0.056
-396.150	-35.991	-0.298	0.160
-395.136	568.541	-0.109	0.263
-394.121	-41.761	-0.231	-0.118
-393.106	168.142	-0.029	-0.041
-392.092	219.816	0.252	0.402
-391.077	800.000	0.069	0.299
-390.063	149.372	-0.068	-0.092
-389.048	-91.755	-0.159	0.045
-388.033	21.748	0.106	0.086
-387.019	271.337	0.084	-0.147
-386.004	-18.692	-0.230	-0.143
-384.990	163.315	-0.168	0.234
-383.975	-116.072	0.358	-0.066
-382.960	800.000	0.104	0.332
-381.946	-200.000	-0.057	0.401
-380.931	68.085	0.136	0.138
-379.917	-120.662	-0.337	0.057
-378.902	260.270	-0.103	-0.177
-377.888	260.081	-0.218	-0.374
-376.873	800.000	0.093	0.382
-375.858	7.231	-0.041	0.031
-374.844	41.619	0.125	0.112
-373.829	-21.053	-0.284	0.173
-372.815	-200.000	-0.023	0.276
-371.800	465.005	-0.023	0.052
-370.785	-67.691	-0.146	-0.057
-369.771	-163.741	0.079	0.004
-368.756	-78.304	0.278	0.095
-367.742	95.662	-0.057	-0.065
-366.727	-200.000	0.006	0.034
-365.712	-178.393	0.288	-0.007
-364.698	-64.355	-0.195	0.079
-363.683	-63.844	-0.262	0.107
-362.669	-113.683	0.146	0.028
-361.654	6.828	0.159	0.117
-360.639	4.299	-0.277	-0.202
-359.625	-49.707	0.162	-0.076
-358.610	-119.013	-0.271	0.047
-357.596	193.924	-0.153	-0.230
-356.581	-52.572	0.074	0.034
-355.566	194.753	0.086	-0.130
-354.552	178.475	0.066	-0.095
-353.537	-14.565	0.038	0.024
-352.523	639.055	0.148	0.375
-351.508	-80.645	-0.062	-0.021
-350.493	-200.000	-0.070	0.478
-349.479	800.000	0.051	-0.193
-348.464	-200.000	-0.018	-0.188
-347.450	800.000	0.042	-0.133
-346.435	800.000	-0.051	-0.218
-345.420	8.079	0.081	-0.061
-344.406	-200.000	0.039	0.000
-343.391	-54.105	0.013	-0.006
-342.377	107.303	0.075	-0.088
-341.362	-200.000	-0.008	0.151
-340.348	525.239	0.154	0.359
-339.333	418.744	-0.141	0.300
-338.318	53.700	0.120	-0.114
-337.304	-184.191	-0.270	0.004
-336.289	72.272	0.226	0.234
-335.275	-200.000	-0.053	0.241
-334.260	-117.762	0.275	0.049
-333.245	800.000	0.071	-0.279
-332.231	-200.000	0.026	0.221
-331.216	-200.000	0.022	-0.153
-330.202	-149.307	0.211	-0.017
-329.187	-200.000	-0.034	0.184
-328.172	80.672	0.126	0.135
-327.158	8.316	0.248	-0.185
-326.143	800.000	-0.072	-0.260
-325.129	-21.013	-0.106	0.064
-324.114	-200.000	-0.031	-0.409
-323.099	-200.000	-0.030	-0.160
-322.085	-172.652	-0.178	-0.006
-321.070	800.000	0.081	-0.300
-320.056	-200.000	-0.093	-0.406
-319.041	143.134	0.153	0.202
-318.026	-12.864	-0.049	-0.031
-317.012	-84.866	0.132	0.041
-315.997	16.115	0.012	0.010
-314.983	-92.766	-0.156	0.043
-313.968	-32.599	0.065	0.036
-312.953	43.650	-0.160	0.145
-311.939	-143.440	0.121	0.012
-310.924	-144.737	-0.086	-0.008
-309.910	800.000	0.044	-0.126
-308.895	432.113	0.194	0.416
-307.880	286.923	0.099	0.177
-306.866	-141.507	-0.342	-0.034
-305.851	-92.880	-0.260	-0.072
-304.837	-13.781	-0.043	-0.027
-303.822	-3.135	-0.185	0.128
-302.807	-200.000	-0.007	0.056
-301.793	-85.021	0.499	0.155
-300.778	70.381	-0.111	-0.113
-299.764	-200.000	0.019	-0.272
-298.749	-123.134	0.289	-0.046
-297.735	-47.884	-0.381	-0.183
-296.720	401.890	0.037	-0.077
-295.705	-109.871	0.297	0.062
-294.691	36.593	-0.214	0.187
-293.676	-11.484	0.261	-0.170
-292.662	-98.624	0.178	0.045
-291.647	-40.457	-0.167	-0.086
-290.632	-32.648	0.094	0.052
-289.618	-25.466	0.090	-0.053
-288.603	206.684	0.047	0.073
-287.589	-87.147	-0.282	-0.085
-286.574	111.895	-0.113	-0.136
-285.559	403.465	0.119	0.248
-284.545	-13.953	-0.086	-0.055
-283.530	281.425	0.145	-0.258
-282.516	-54.537	-0.142	-0.064
-281.501	275.653	-0.069	-0.121
-280.486	-120.011	0.455	0.077
-279.472	800.000	-0.059	0.238
-278.457	48.969	-0.178	0.165
-277.443	155.972	-0.160	-0.219
-276.428	117.248	-0.092	-0.112
-275.413	-122.187	-0.282	-0.046
-274.399	228.458	-0.106	0.171
-273.384	182.537	0.170	0.249
-272.370	12.080	0.154	-0.118
-271.355	-200.000	0.003	-0.274
-270.340	270.889	-0.184	-0.321
-269.326	800.000	-0.064	-0.198
-268.311	800.000	0.060	0.188
-267.297	-175.024	0.335	-0.009
-266.282	326.202	0.128	0.242
-265.267	-152.586	0.078	-0.006
-264.253	30.555	0.104	-0.088
-263.238	-76.355	0.211	-0.074
-262.224	84.266	-0.053	0.058
-261.209	630.140	-0.111	-0.278
-260.195	-108.440	-0.164	0.035
-259.180	19.541	0.140	-0.112
-258.165	-94.383	0.259	0.070
-257.151	-129.181	-0.193	0.027
-256.136	387.491	-0.102	0.209
-255.122	66.378	-0.032	-0.033
-254.107	-33.228	-0.296	0.162
-253.092	-21.439	0.214	-0.129
-252.078	-142.466	-0.166	-0.016
-251.063	65.956	-0.163	-0.164
-250.049	57.071	0.134	0.130
-249.034	-37.035	0.461	-0.245
-248.019	800.000	0.026	-0.088
-247.005	201.369	0.192	-0.293
-245.990	800.000	-0.068	0.236
-244.976	215.768	-0.168	0.264
-243.961	-14.455	-0.041	-0.026
-242.946	-14.480	0.194	-0.124
-241.932	-143.818	0.140	-0.013
-240.917	-35.374	-0.106	0.057
-239.903	-200.000	0.002	0.148
-238.888	62.178	0.234	-0.231
-237.873	-152.737	-0.207	-0.015
-236.859	-140.521	-0.224	-0.023
-235.844	190.657	-0.143	0.213
-234.830	800.000	0.053	-0.190
-233.815	800.000	-0.136	0.404
-232.800	-50.698	0.215	-0.100
-231.786	-23.091	0.145	0.086
-230.771	47.895	-0.027	-0.025
-229.757	14.161	-0.144	0.111
-228.742	-102.373	0.208	-0.049
-227.727	-200.000	0.000	-0.103
-226.713	320.110	-0.153	-0.288
-225.698	6.074	-0.209	-0.153
-224.684	-66.537	0.339	-0.133
-223.669	-200.000	0.050	0.218
-222.655	151.113	-0.150	-0.202
-221.640	158.374	0.193	-0.264
-220.625	-200.000	0.018	-0.125
-219.611	88.491	0.216	0.238
-218.596	-200.000	0.010	-0.245
-217.582	41.529	0.146	-0.131
-216.567	-123.770	-0.040	-0.006
-215.552	-126.260	0.181	-0.027
-214.538	159.363	0.023	0.031
-213.523	-0.504	-0.279	-0.196
-212.509	-96.118	-0.096	0.025
-211.494	-117.249	-0.224	-0.040
-210.479	-200.000	-0.034	-0.254
-209.465	-167.039	0.051	0.002
-208.450	93.091	0.065	-0.073
-207.436	-200.000	-0.025	0.447
-206.421	-53.227	0.214	-0.097
-205.406	65.606	0.111	-0.111
-204.392	-151.978	0.291	-0.021
-203.377	25.168	-0.137	-0.112
-202.363	-200.000	0.002	-0.061
-201.348	800.000	-0.019	-0.083
-200.333	-200.000	0.001	-0.186
-199.319	800.000	-0.060	-0.206
-198.304	800.000	0.047	0.187
-197.290	-200.000	-0.026	-0.196
-196.275	-5.121	-0.203	-0.138
-195.260	-119.718	0.133	-0.023
-194.246	203.404	0.009	0.014
-193.231	-100.889	0.316	0.077
-192.217	-122.971	-0.480	0.076
-191.202	-200.000	-0.012	-0.183
-190.187	13.567	0.381	-0.292
-189.173	-68.452	0.171	0.066
-188.158	145.368	-0.205	0.271
-187.144	-107.961	0.191	-0.041
-186.129	-1.697	0.328	0.228
-185.114	-164.294	-0.049	0.002
-184.100	57.274	-0.238	0.229
-183.085	800.000	-0.004	0.012
-182.071	-35.981	0.360	-0.192
-181.056	369.953	0.053	0.105
-180.042	83.936	-0.332	0.357
-179.027	-112.025	0.320	0.064
-178.012	-200.000	-0.018	0.282
-176.998	-27.617	-0.159	-0.091
-175.983	-64.235	0.116	0.047
-174.969	-183.696	0.167	-0.003
-173.954	740.202	-0.046	0.123
-172.939	800.000	-0.081	0.270
-171.925	-9.204	-0.209	0.138
-170.910	-131.393	0.316	-0.041
-169.896	-17.919	-0.212	-0.131
-168.881	-63.893	0.237	0.096
-167.866	37.473	-0.404	0.353
-166.852	800.000	0.103	0.373
-165.837	-10.638	0.279	0.182
-164.823	800.000	0.088	0.288
-163.808	-46.120	0.142	-0.069
-162.793	99.388	-0.073	-0.084
-161.779	-132.402	-0.368	-0.047
-160.764	400.605	0.173	0.358
-159.750	171.385	-0.101	-0.143
-158.735	-200.000	0.026	-0.386
-157.720	-17.069	0.251	0.156
-156.706	12.675	0.140	0.107
-155.691	-25.409	-0.084	0.049
-154.677	85.493	0.172	-0.186
-153.662	159.610	0.126	-0.173
-152.647	45.390	-0.142	-0.129
-151.633	-120.289	0.215	0.036
-150.618	280.951	-0.180	0.317
-149.604	-100.894	-0.196	-0.048
-148.589	123.056	-0.267	-0.330
-147.574	-94.821	0.321	-0.086
-146.560	18.338	-0.205	-0.162
-145.545	-111.414	-0.227	-0.046
-144.531	122.345	-0.174	0.214
-143.516	-149.901	0.324	-0.025
-142.502	19.091	-0.106	0.084
-141.487	-200.000	-0.011	-0.104
-140.472	664.336	0.027	0.069
-139.458	800.000	0.134	-0.411
-138.443	-200.000	0.005	0.172
-137.429	-24.684	0.106	-0.062
-136.414	-200.000	-0.003	0.312
-135.399	-103.321	0.104	-0.024
-134.385	587.474	-0.185	-0.449
-133.370	224.516	0.158	-0.252
-132.356	-13.833	0.288	-0.184
-131.341	-200.000	-0.008	-0.089
-130.326	719.659	-0.065	-0.170
-129.312	62.779	-0.159	-0.157
-128.297	-125.359	-0.419	-0.063
-127.283	-200.000	-0.003	0.228
-126.268	-200.000	0.028	-0.158
-125.253	800.000	0.055	0.210
-124.239	800.000	-0.140	0.520
-123.224	72.087	-0.145	0.148
-122.210	-17.365	0.058	0.036
