DTS Sentinel unit serial number:	SN413079Multiplexer serial number:	ORYXHardware model number:	OX4-SRSoftware version number:	ORYX F/W v4.00 Oryx Data Collector v3.7.2.0data status	okinstallation	princeton_trtdifferential loss correction	single-endedforward channel	channel 2reverse channel	N/Adate	2019/09/18time	02:11:34forward acquisition time	60.00reverse acquisition time	0.00gamma	496.2192k internal	0.2350k external	0.2350temperature offset calibration	0.9980default loss term (dB/km)	0.3790temperature slope calibration	1.0000multiplexer offset coefficient	1.0000multiplexer slope coefficient	1.0000fibre end	0.00T internal ref (°C)	22.87T ext. ref 1 (°C)	0.17T ext. ref 2 (°C)	16.79length (m)	temperature (°C)	Stokes	anti-Stokes-747.200	-200.000	0.002	0.095
-746.185	-200.000	-0.080	0.463
-745.171	12.319	0.172	-0.132
-744.156	800.000	0.075	0.326
-743.142	-200.000	-0.046	-0.306
-742.127	22.253	-0.171	0.139
-741.112	403.202	-0.029	-0.060
-740.098	-121.799	-0.182	0.030
-739.083	-200.000	-0.049	-0.310
-738.069	292.060	-0.104	0.189
-737.054	-16.965	0.322	-0.203
-736.039	-131.093	-0.493	-0.066
-735.025	-200.000	0.023	0.282
-734.010	110.226	-0.331	-0.396
-732.996	428.348	-0.062	-0.134
-731.981	-140.092	0.100	0.011
-730.966	-6.715	0.174	0.118
-729.952	-21.895	-0.095	-0.058
-728.937	-2.262	-0.036	-0.025
-727.923	-142.262	-0.275	-0.027
-726.908	-200.000	0.004	-0.295
-725.894	-66.674	-0.200	0.079
-724.879	-25.105	0.376	0.222
-723.864	17.052	-0.106	0.084
-722.850	-200.000	-0.010	0.120
-721.835	298.864	0.088	-0.162
-720.821	-81.230	0.135	0.044
-719.806	-90.669	-0.317	-0.091
-718.791	269.989	-0.135	0.237
-717.777	518.089	-0.178	0.416
-716.762	-32.614	-0.384	0.213
-715.748	-200.000	0.028	-0.564
-714.733	800.000	-0.040	-0.132
-713.718	27.895	0.053	-0.044
-712.704	-86.194	0.135	0.042
-711.689	-12.050	-0.386	-0.252
-710.675	-200.000	-0.001	0.054
-709.660	22.825	-0.220	-0.180
-708.645	-200.000	0.055	0.295
-707.631	405.428	-0.033	0.068
-706.616	-82.916	-0.248	-0.080
-705.602	100.213	0.221	-0.256
-704.587	-29.912	0.336	-0.191
-703.572	-85.784	0.226	-0.070
-702.558	-31.081	0.307	0.173
-701.543	-200.000	-0.007	-0.264
-700.529	-200.000	0.030	-0.212
-699.514	8.716	0.259	-0.195
-698.499	60.202	0.099	-0.098
-697.485	-200.000	-0.064	0.354
-696.470	122.565	-0.090	-0.112
-695.456	-131.278	-0.233	-0.031
-694.441	-102.883	-0.186	-0.044
-693.426	184.791	-0.098	0.144
-692.412	31.673	0.103	-0.089
-691.397	36.784	-0.319	-0.281
-690.383	-38.478	0.100	0.053
-689.368	9.459	0.066	0.050
-688.354	-154.265	-0.245	0.016
-687.339	183.340	0.080	-0.118
-686.324	401.147	-0.212	-0.444
-685.310	11.175	-0.448	0.342
-684.295	-95.665	0.316	-0.084
-683.281	-113.745	-0.165	-0.032
-682.266	-59.658	0.050	-0.022
-681.251	-79.122	-0.138	0.047
-680.237	800.000	-0.092	0.297
-679.222	-200.000	-0.006	0.102
-678.208	-117.705	0.235	-0.042
-677.193	12.272	-0.297	0.228
-676.178	-35.539	-0.215	-0.116
-675.164	132.792	-0.074	0.095
-674.149	-200.000	-0.037	-0.385
-673.135	-200.000	0.001	0.056
-672.120	-85.513	-0.062	0.019
-671.105	-2.735	0.233	-0.162
-670.091	-52.329	0.285	0.132
-669.076	781.860	0.046	0.126
-668.062	165.722	-0.066	-0.093
-667.047	-54.801	-0.160	0.072
-666.032	-98.407	0.145	0.037
-665.018	-26.365	0.255	-0.149
-664.003	195.799	0.113	0.171
-662.989	72.535	0.087	-0.090
-661.974	8.420	-0.178	0.133
-660.959	-11.458	-0.092	-0.060
-659.945	27.687	-0.289	0.242
-658.930	-200.000	-0.007	-0.373
-657.916	61.408	0.093	0.092
-656.901	-124.022	-0.047	0.007
-655.886	-40.322	0.223	-0.115
-654.872	-71.940	0.034	0.012
-653.857	163.873	0.139	-0.194
-652.843	-113.885	0.493	0.095
-651.828	323.216	-0.083	0.157
-650.814	-115.476	0.117	0.022
-649.799	-200.000	0.022	-0.480
-648.784	79.893	0.261	-0.279
-647.770	-200.000	-0.031	-0.295
-646.755	-181.076	0.082	-0.002
-645.741	-138.306	-0.262	0.029
-644.726	-200.000	0.004	-0.075
-643.711	800.000	0.093	-0.338
-642.697	137.036	0.128	-0.166
-641.682	-200.000	-0.020	-0.151
-640.668	-200.000	-0.008	0.382
-639.653	-119.576	-0.258	0.044
-638.638	-177.653	-0.172	0.004
-637.624	372.358	-0.100	0.202
-636.609	-103.103	-0.181	0.043
-635.595	-141.304	-0.072	0.007
-634.580	413.904	-0.030	0.064
-633.565	-72.299	0.187	0.069
-632.551	-167.415	0.405	-0.016
-631.536	-69.004	-0.169	0.065
-630.522	222.727	-0.153	0.244
-629.507	-107.555	0.241	-0.052
-628.492	185.700	-0.054	0.079
-627.478	-64.431	-0.223	-0.090
-626.463	-90.007	0.161	-0.047
-625.449	-200.000	0.003	-0.224
-624.434	-62.930	-0.228	0.094
-623.419	-8.943	-0.120	-0.080
-622.405	-55.449	-0.217	-0.097
-621.390	-86.704	-0.168	0.051
-620.376	800.000	0.058	0.251
-619.361	158.724	0.092	-0.127
-618.346	228.900	0.110	-0.179
-617.332	-19.405	-0.204	-0.126
-616.317	-200.000	0.009	-0.144
-615.303	365.877	0.169	0.339
-614.288	-28.919	0.181	-0.103
-613.273	147.117	-0.300	-0.400
-612.259	21.666	-0.244	0.198
-611.244	-111.006	0.317	-0.065
-610.230	69.295	-0.352	0.359
-609.215	800.000	0.022	-0.085
-608.201	-200.000	-0.022	-0.420
-607.186	3.437	0.040	0.029
-606.171	-24.670	0.117	-0.069
-605.157	-200.000	-0.028	0.158
-604.142	447.827	-0.151	0.330
-603.128	-200.000	-0.041	-0.232
-602.113	370.835	-0.152	-0.306
-601.098	-55.200	0.190	-0.085
-600.084	-40.352	-0.209	0.108
-599.069	-200.000	0.050	0.281
-598.055	730.698	-0.070	0.187
-597.040	214.195	0.237	0.373
-596.025	-200.000	0.017	-0.110
-595.011	54.563	0.157	-0.150
-593.996	-111.954	-0.069	0.014
-592.982	-98.482	-0.210	-0.053
-591.967	131.083	-0.100	0.128
-590.952	358.152	-0.078	0.154
-589.938	-129.092	-0.354	-0.049
-588.923	-56.037	0.510	-0.225
-587.909	-73.364	0.057	0.021
-586.894	-43.388	-0.262	0.131
-585.879	-6.954	-0.217	0.146
-584.865	-200.000	0.013	0.290
-583.850	-15.890	0.082	0.052
-582.836	-200.000	0.021	0.153
-581.821	-107.961	-0.223	-0.048
-580.806	110.021	-0.123	0.147
-579.792	-11.653	-0.229	-0.149
-578.777	-133.057	0.017	-0.002
-577.763	156.268	-0.191	-0.261
-576.748	297.192	-0.102	0.186
-575.733	-99.256	-0.191	0.048
-574.719	-52.896	-0.131	-0.060
-573.704	-200.000	0.002	-0.082
-572.690	119.101	0.079	0.097
-571.675	483.618	0.072	0.163
-570.661	474.574	0.055	0.122
-569.646	16.427	-0.335	-0.262
-568.631	88.691	-0.163	-0.180
-567.617	800.000	0.035	0.099
-566.602	800.000	-0.054	-0.160
-565.588	300.071	0.065	-0.119
-564.573	-37.460	0.146	-0.077
-563.558	536.572	0.140	0.329
-562.544	-87.962	-0.352	-0.105
-561.529	-149.912	0.134	0.010
-560.515	8.752	0.061	-0.045
-559.500	-200.000	-0.031	0.252
-558.485	82.043	0.181	-0.194
-557.471	-108.625	-0.017	0.004
-556.456	800.000	-0.136	-0.422
-555.442	514.194	-0.097	-0.225
-554.427	-200.000	-0.127	0.000
-553.412	753.194	0.086	-0.231
-552.398	143.017	-0.056	0.074
-551.383	-0.861	0.172	0.121
-550.369	4.434	-0.249	0.181
-549.354	800.000	0.012	0.035
-548.339	-107.153	0.227	-0.050
-547.325	630.109	-0.154	-0.386
-546.310	-157.320	0.131	0.008
-545.296	-200.000	-0.033	-0.226
-544.281	11.797	0.355	-0.270
-543.266	-200.000	-0.038	-0.184
-542.252	0.049	0.328	0.231
-541.237	223.061	-0.287	-0.458
-540.223	174.591	0.069	-0.099
-539.208	-200.000	-0.065	0.324
-538.193	-145.806	0.123	0.011
-537.179	-181.485	-0.230	-0.004
-536.164	194.340	-0.193	-0.289
-535.150	-134.125	-0.073	-0.009
-534.135	154.557	0.177	-0.241
-533.121	-47.221	-0.073	-0.035
-532.106	315.039	-0.191	-0.357
-531.091	-57.377	-0.094	0.041
-530.077	-76.296	0.293	-0.102
-529.062	203.883	0.046	0.071
-528.048	-200.000	-0.016	-0.078
-527.033	-14.676	-0.289	0.184
-526.018	800.000	-0.086	0.257
-525.004	-200.000	-0.007	0.245
-523.989	800.000	-0.034	0.137
-522.975	-126.184	-0.299	0.044
-521.960	-83.604	-0.479	-0.152
-520.945	113.143	0.115	0.138
-519.931	16.041	-0.272	0.212
-518.916	-200.000	0.033	-0.154
-517.902	-21.729	-0.050	-0.030
-516.887	800.000	0.033	-0.096
-515.872	-200.000	-0.033	-0.149
-514.858	751.691	0.016	0.044
-513.843	-15.094	0.078	-0.050
-512.829	-82.574	0.185	0.059
-511.814	-200.000	0.011	-0.085
-510.799	265.952	-0.218	-0.376
-509.785	91.530	0.257	-0.285
-508.770	74.833	-0.157	-0.163
-507.756	5.065	-0.072	0.053
-506.741	800.000	0.031	-0.117
-505.726	423.521	-0.086	-0.184
-504.712	-67.702	-0.193	-0.075
-503.697	-200.000	-0.023	-0.180
-502.683	800.000	0.072	-0.207
-501.668	-183.043	-0.101	0.002
-500.653	-36.736	0.029	-0.016
-499.639	149.135	0.089	-0.119
-498.624	-200.000	0.021	-0.198
-497.610	-200.000	0.008	0.235
-496.595	507.432	-0.105	0.241
-495.581	-100.573	0.356	-0.087
-494.566	-9.270	0.212	-0.140
-493.551	-83.323	-0.158	0.050
-492.537	-91.132	-0.430	-0.122
-491.522	-102.944	-0.195	0.046
-490.508	-200.000	-0.005	0.145
-489.493	381.675	-0.183	0.373
-488.478	-200.000	-0.007	0.201
-487.464	-200.000	-0.052	-0.330
-486.449	125.181	0.139	-0.174
-485.435	451.738	0.135	0.295
-484.420	800.000	0.111	-0.307
-483.405	-8.870	0.150	-0.100
-482.391	50.433	-0.143	-0.133
-481.376	-118.910	-0.146	0.025
-480.362	-12.260	-0.018	-0.011
-479.347	-200.000	-0.045	-0.281
-478.332	155.887	-0.129	-0.175
-477.318	-9.692	0.068	0.045
-476.303	-200.000	0.004	0.090
-475.289	800.000	-0.083	-0.260
-474.274	-200.000	0.072	0.487
-473.259	-200.000	-0.056	0.329
-472.245	-57.997	0.394	0.170
-471.230	331.234	-0.106	-0.203
-470.216	100.978	0.145	-0.166
-469.201	-57.476	-0.086	-0.037
-468.186	276.871	0.077	-0.135
-467.172	-200.000	-0.028	0.140
-466.157	-53.536	-0.472	-0.213
-465.143	-79.876	-0.248	0.082
-464.128	-200.000	0.047	-0.219
-463.113	119.172	0.208	-0.254
-462.099	-67.928	-0.170	-0.066
-461.084	56.984	0.271	-0.261
-460.070	22.006	0.189	-0.153
-459.055	-79.855	0.135	-0.045
-458.040	-84.040	-0.214	-0.067
-457.026	272.207	0.232	-0.404
-456.011	-200.000	-0.077	-0.403
-454.997	183.534	-0.139	0.202
-453.982	429.694	0.084	0.179
-452.968	53.481	0.353	0.334
-451.953	26.312	0.277	-0.228
-450.938	86.608	-0.156	0.170
-449.924	94.958	0.150	0.169
-448.909	-93.948	-0.214	0.058
-447.895	-68.017	0.309	-0.119
-446.880	30.476	0.165	0.139
-445.865	-100.988	-0.450	-0.109
-444.851	38.674	0.199	-0.176
-443.836	117.160	0.320	-0.388
-442.822	-200.000	-0.019	-0.304
-441.807	800.000	-0.100	-0.279
-440.792	-200.000	-0.025	0.277
-439.778	25.486	-0.260	0.213
-438.763	-109.196	-0.192	-0.040
-437.749	91.827	-0.242	0.269
-436.734	664.180	0.124	0.316
-435.719	92.702	0.119	-0.133
-434.705	-27.369	0.157	-0.090
-433.690	241.403	0.083	0.137
-432.676	-66.032	0.396	-0.156
-431.661	-23.715	-0.420	0.249
-430.646	278.320	0.133	0.233
-429.632	-140.954	0.116	-0.012
-428.617	-170.005	-0.156	-0.005
-427.603	456.379	-0.132	0.290
-426.588	-200.000	0.014	0.146
-425.573	35.086	0.135	0.116
-424.559	15.630	0.203	0.158
-423.544	-200.000	-0.028	-0.247
-422.530	-115.051	-0.238	0.045
-421.515	-143.850	0.317	0.030
-420.500	-87.423	-0.210	-0.063
-419.486	260.857	-0.227	-0.388
-418.471	314.942	0.116	0.216
-417.457	-92.844	0.202	0.056
-416.442	-200.000	0.033	0.292
-415.428	-197.057	-0.095	-0.001
-414.413	275.053	-0.041	0.071
-413.398	-40.240	0.276	0.141
-412.384	-154.139	-0.309	0.021
-411.369	-200.000	-0.010	-0.181
-410.355	-200.000	0.070	0.326
-409.340	-5.430	-0.207	0.140
-408.325	6.298	-0.274	-0.201
-407.311	749.348	-0.091	0.242
-406.296	-67.892	-0.329	0.126
-405.282	3.245	-0.081	-0.058
-404.267	-76.192	-0.079	-0.028
-403.252	-200.000	-0.011	-0.303
-402.238	-117.509	-0.151	0.027
-401.223	-200.000	0.070	0.377
-400.209	800.000	0.068	-0.287
-399.194	89.939	0.213	-0.234
-398.179	231.375	0.109	-0.176
-397.165	-89.343	0.326	0.095
-396.150	45.101	-0.124	0.113
-395.136	-119.334	0.145	-0.025
-394.121	-200.000	0.025	0.224
-393.106	-200.000	-0.009	-0.262
-392.092	-38.774	0.090	-0.047
-391.077	317.409	0.048	0.089
-390.063	-39.810	0.105	-0.054
-389.048	-65.477	0.226	0.089
-388.033	800.000	0.099	-0.328
-387.019	800.000	0.093	-0.312
-386.004	800.000	0.072	-0.256
-384.990	-87.744	0.200	-0.059
-383.975	49.474	0.339	0.314
-382.960	-17.051	0.330	0.205
-381.946	-93.440	-0.450	-0.123
-380.931	42.281	0.187	-0.167
-379.917	504.720	-0.033	0.075
-378.902	-200.000	0.035	-0.171
-377.888	620.062	-0.181	0.449
-376.873	-79.087	0.195	0.065
-375.858	-164.397	-0.151	0.007
-374.844	-200.000	0.012	-0.198
-373.829	380.124	-0.063	-0.128
-372.815	64.161	0.089	0.088
-371.800	-171.412	-0.289	0.009
-370.785	38.537	0.210	0.184
-369.771	26.471	-0.275	-0.226
-368.756	-110.726	0.218	0.044
-367.742	-72.918	-0.331	0.120
-366.727	800.000	0.051	-0.153
-365.712	-151.475	-0.217	-0.016
-364.698	-200.000	-0.016	-0.180
-363.683	-32.135	-0.313	0.172
-362.669	-200.000	0.018	-0.160
-361.654	-179.495	-0.234	-0.005
-360.639	-200.000	0.024	0.265
-359.625	125.421	0.205	0.255
-358.610	-144.958	-0.315	0.028
-357.596	-159.001	-0.064	0.004
-356.581	800.000	-0.113	0.364
-355.566	800.000	-0.140	0.481
-354.552	800.000	-0.052	-0.152
-353.537	-66.755	0.297	-0.116
-352.523	-0.057	0.255	0.178
-351.508	184.618	0.185	-0.270
-350.493	-59.293	0.299	0.127
-349.479	800.000	0.097	-0.336
-348.464	84.011	-0.119	-0.127
-347.450	255.332	-0.194	-0.327
-346.435	-16.530	-0.164	-0.102
-345.420	800.000	-0.051	-0.214
-344.406	800.000	-0.014	0.050
-343.391	488.561	-0.113	0.254
-342.377	-200.000	0.037	0.226
-341.362	-200.000	-0.024	-0.141
-340.348	-36.316	0.142	0.075
-339.333	52.691	0.053	-0.049
-338.318	-27.517	-0.213	0.122
-337.304	-200.000	0.005	0.268
-336.289	-87.611	-0.202	-0.060
-335.275	-200.000	0.042	0.283
-334.260	-200.000	-0.085	0.395
-333.245	-87.627	-0.011	0.003
-332.231	-42.519	-0.188	0.094
-331.216	101.330	0.018	-0.020
-330.202	-134.361	0.068	0.008
-329.187	800.000	-0.037	0.127
-328.172	8.089	0.156	0.115
-327.158	112.953	-0.144	0.171
-326.143	-200.000	0.003	-0.181
-325.129	599.824	-0.055	-0.135
-324.114	471.108	0.036	0.079
-323.099	-200.000	0.012	-0.239
-322.085	474.651	0.108	-0.240
-321.070	-29.938	-0.186	-0.104
-320.056	-200.000	-0.029	-0.159
-319.041	-200.000	0.022	-0.097
-318.026	48.442	-0.098	-0.090
-317.012	-92.368	0.114	-0.032
-315.997	-59.288	-0.083	0.035
-314.983	-200.000	0.020	0.125
-313.968	-49.236	0.246	0.116
-312.953	-128.717	0.279	0.039
-311.939	-71.515	-0.040	0.015
-310.924	262.089	0.090	0.154
-309.910	-102.252	-0.120	-0.028
-308.895	-200.000	0.040	0.224
-307.880	-52.092	-0.074	0.034
-306.866	-31.815	0.331	-0.182
-305.851	-47.896	0.259	0.123
-304.837	-11.794	0.436	0.281
-303.822	132.343	-0.194	-0.245
-302.807	-116.796	0.178	-0.032
-301.793	65.219	-0.099	0.098
-300.778	331.621	0.175	0.331
-299.764	36.554	0.201	0.174
-298.749	-42.354	-0.151	0.076
-297.735	800.000	0.030	0.088
-296.720	33.791	0.194	-0.166
-295.705	225.149	-0.079	0.126
-294.691	-66.511	-0.106	0.041
-293.676	423.487	-0.077	0.163
-292.662	71.970	-0.106	-0.108
-291.647	15.949	-0.107	-0.083
-290.632	-5.896	-0.186	0.125
-289.618	114.908	0.207	0.248
-288.603	800.000	-0.040	-0.132
-287.589	-16.392	-0.081	0.050
-286.574	-81.008	-0.107	0.035
-285.559	-60.319	0.253	-0.106
-284.545	105.026	-0.110	0.128
-283.530	-105.091	-0.184	0.041
-282.516	-200.000	0.004	0.032
-281.501	145.518	0.106	-0.139
-280.486	-200.000	-0.006	-0.109
-279.472	-12.568	-0.240	-0.153
-278.457	-60.567	0.355	-0.148
-277.443	-200.000	0.063	0.351
-276.428	303.882	0.122	0.221
-275.413	-131.711	-0.037	-0.005
-274.399	209.867	0.069	0.106
-273.384	-7.954	-0.403	0.266
-272.370	-154.256	-0.137	-0.009
-271.355	-79.245	0.076	-0.025
-270.340	320.259	-0.039	-0.073
-269.326	50.358	0.267	-0.247
-268.311	-200.000	-0.002	0.228
-267.297	-200.000	-0.015	-0.496
-266.282	-20.744	-0.080	-0.048
-265.267	19.381	0.162	0.127
-264.253	-78.089	-0.048	-0.016
-263.238	-200.000	0.001	0.140
-262.224	-24.209	0.330	0.193
-261.209	-200.000	-0.027	0.117
-260.195	-173.289	-0.144	0.004
-259.180	686.543	0.070	0.179
-258.165	-200.000	-0.025	0.337
-257.151	287.854	-0.049	0.086
-256.136	63.332	-0.094	-0.092
-255.122	800.000	0.089	-0.357
-254.107	-200.000	0.065	-0.311
-253.092	-119.153	0.093	-0.016
-252.078	50.490	0.208	0.193
-251.063	96.369	-0.167	-0.187
-250.049	-200.000	-0.004	-0.219
-249.034	369.755	-0.031	0.061
-248.019	-200.000	0.035	-0.576
-247.005	91.746	-0.146	0.161
-245.990	185.656	0.138	0.200
-244.976	145.207	-0.195	0.255
-243.961	-175.662	0.208	-0.005
-242.946	-83.836	0.183	0.057
-241.932	-200.000	0.095	0.432
-240.917	-75.217	-0.078	0.027
-239.903	-54.594	-0.272	-0.120
-238.888	-49.089	0.325	0.152
-237.873	-200.000	-0.001	0.067
-236.859	-116.253	0.158	0.029
-235.844	-1.183	-0.127	0.088
-234.830	-200.000	-0.021	-0.322
-233.815	68.608	0.124	0.124
-232.800	643.751	-0.095	0.237
-231.786	-200.000	0.010	-0.227
-230.771	8.618	-0.179	-0.132
-229.757	7.095	0.117	-0.086
-228.742	106.000	-0.045	-0.052
-227.727	-26.596	0.164	-0.094
-226.713	-64.310	0.353	0.141
-225.698	50.324	0.351	-0.324
-224.684	11.041	0.277	-0.207
-223.669	689.563	0.040	-0.104
-222.655	135.038	0.118	0.150
-221.640	-200.000	0.028	0.272
-220.625	194.335	-0.287	0.426
-219.611	-5.070	0.233	-0.157
-218.596	9.169	-0.442	-0.327
-217.582	-200.000	0.041	-0.178
-216.567	-200.000	-0.012	0.111
-215.552	73.420	-0.117	0.120
-214.538	53.522	0.126	-0.118
-213.523	102.027	-0.196	-0.223
-212.509	-140.343	0.254	-0.026
-211.494	-22.914	0.245	0.144
-210.479	223.394	0.071	0.112
-209.465	800.000	-0.063	0.212
-208.450	-124.631	0.188	0.028
-207.436	131.261	-0.159	0.199
-206.421	226.257	0.088	0.139
-205.406	-7.320	-0.160	0.106
-204.392	455.019	-0.057	-0.123
-203.377	-100.167	0.079	-0.019
-202.363	-155.905	0.401	0.025
-201.348	-61.472	0.199	0.082
-200.333	639.264	0.041	-0.103
-199.319	51.533	0.129	0.120
-198.304	8.467	-0.060	0.044
-197.290	94.494	-0.065	0.073
-196.275	473.284	-0.044	-0.096
-195.260	70.292	0.237	0.239
-194.246	-157.917	0.311	-0.018
-193.231	-200.000	0.034	-0.277
-192.217	-200.000	-0.012	0.161
-191.202	-52.474	0.213	-0.096
-190.187	223.104	-0.114	0.179
-189.173	70.319	-0.167	0.168
-188.158	-82.784	0.268	0.085
-187.144	170.244	-0.137	-0.192
-186.129	800.000	0.109	0.295
-185.114	242.254	-0.158	0.259
-184.100	16.539	-0.183	-0.141
-183.085	-118.470	0.472	0.082
-182.071	-14.225	-0.265	0.167
-181.056	89.225	-0.173	0.188
-180.042	-52.998	0.273	0.123
-179.027	85.199	-0.479	0.513
-178.012	12.887	0.026	0.020
-176.998	-78.513	0.079	-0.026
-175.983	319.482	0.073	0.135
-174.969	278.029	0.074	0.128
-173.954	130.778	0.223	-0.279
-172.939	-135.257	0.288	-0.034
-171.925	13.468	-0.083	-0.063
-170.910	17.532	-0.178	0.138
-169.896	-200.000	0.031	-0.195
-168.881	194.393	0.104	0.154
-167.866	-200.000	0.009	-0.191
-166.852	19.695	-0.101	0.079
-165.837	-75.255	0.317	0.111
-164.823	130.424	-0.070	0.088
-163.808	-200.000	-0.045	0.202
-162.793	133.044	0.156	-0.196
-161.779	-168.081	-0.125	0.005
-160.764	-17.559	-0.085	0.052
-159.750	-82.776	0.182	-0.057
-158.735	-166.567	-0.183	-0.007
-157.720	800.000	-0.130	0.396
-156.706	180.329	0.181	-0.260
-155.691	-109.195	-0.316	0.066
-154.677	4.095	0.156	-0.111
-153.662	-67.324	0.138	-0.053
-152.647	257.107	-0.100	-0.167
-151.633	459.168	0.083	0.180
-150.618	800.000	-0.097	0.412
-149.604	5.900	0.285	-0.206
-148.589	-39.511	-0.052	-0.027
-147.574	-2.945	-0.105	-0.071
-146.560	-58.132	0.232	-0.099
-145.545	223.827	-0.178	-0.280
-144.531	-123.614	0.171	-0.026
-143.516	-200.000	0.037	0.164
-142.502	-200.000	-0.013	0.224
-141.487	255.770	-0.142	0.238
-140.472	-118.444	-0.056	-0.010
-139.458	800.000	-0.036	0.143
-138.443	-99.560	0.409	0.100
-137.429	800.000	0.055	0.231
-136.414	0.684	0.083	-0.058
-135.399	762.181	0.074	-0.195
-134.385	-33.350	-0.061	0.033
-133.370	-26.328	-0.147	-0.084
-132.356	-88.251	-0.192	-0.056
-131.341	39.635	-0.182	0.159
-130.326	-52.306	0.381	0.172
-129.312	-81.954	-0.277	-0.088
-128.297	105.984	-0.188	-0.217
-127.283	-71.104	-0.284	0.104
-126.268	800.000	-0.050	-0.194
-125.253	573.015	-0.044	-0.105
-124.239	800.000	-0.058	0.184
-123.224	27.315	0.124	0.102
-122.210	-21.517	-0.071	-0.042
-121.195	-200.000	0.038	-0.184
