DTS Sentinel unit serial number:	SN413079Multiplexer serial number:	ORYXHardware model number:	OX4-SRSoftware version number:	ORYX F/W v4.00 Oryx Data Collector v3.7.2.0data status	okinstallation	princeton_trtdifferential loss correction	single-endedforward channel	channel 2reverse channel	N/Adate	2019/09/16time	17:47:35forward acquisition time	60.00reverse acquisition time	0.00gamma	496.2192k internal	0.2313k external	0.2313temperature offset calibration	0.9946default loss term (dB/km)	0.3790temperature slope calibration	1.0000multiplexer offset coefficient	1.0000multiplexer slope coefficient	1.0000fibre end	0.00T internal ref (°C)	37.97T ext. ref 1 (°C)	15.57T ext. ref 2 (°C)	31.97length (m)	temperature (°C)	Stokes	anti-Stokes-747.200	-54.932	-0.469	0.214
-746.185	205.703	-0.307	0.484
-745.171	-78.099	0.221	-0.077
-744.156	-200.000	-0.038	0.341
-743.142	-200.000	-0.024	0.345
-742.127	-169.990	-0.040	-0.001
-741.112	-12.005	-0.137	-0.091
-740.098	800.000	-0.043	-0.120
-739.083	436.417	0.143	0.315
-738.069	-11.805	-0.133	0.089
-737.054	800.000	-0.070	-0.279
-736.039	-142.056	0.125	0.013
-735.025	74.958	0.157	0.168
-734.010	89.826	-0.079	-0.089
-732.996	460.703	-0.035	-0.079
-731.981	-200.000	0.040	-0.207
-730.966	-145.884	-0.135	-0.012
-729.952	-196.577	-0.267	0.002
-728.937	278.798	0.111	0.201
-727.923	-176.789	0.192	0.005
-726.908	369.241	-0.222	-0.456
-725.894	-5.181	0.338	0.236
-724.879	573.040	0.031	-0.077
-723.864	-200.000	0.001	-0.048
-722.850	453.315	-0.023	-0.051
-721.835	-145.053	-0.341	0.031
-720.821	-95.600	-0.330	0.090
-719.806	109.665	-0.262	-0.318
-718.791	-38.239	-0.154	0.083
-717.777	194.389	-0.094	-0.144
-716.762	-200.000	-0.033	0.308
-715.748	-61.615	-0.191	0.081
-714.733	575.498	0.041	-0.101
-713.718	22.497	-0.093	-0.077
-712.704	-200.000	0.035	0.169
-711.689	-154.647	-0.164	-0.011
-710.675	-16.468	-0.261	0.168
-709.660	34.369	-0.124	0.110
-708.645	-200.000	0.049	0.286
-707.631	800.000	-0.212	0.660
-706.616	619.306	-0.123	0.312
-705.602	242.412	-0.187	0.317
-704.587	-132.422	0.243	-0.032
-703.572	-200.000	-0.007	-0.268
-702.558	-27.157	0.132	-0.078
-701.543	-19.632	0.082	0.051
-700.529	800.000	-0.095	-0.288
-699.514	25.067	0.177	-0.149
-698.499	-46.336	-0.131	0.065
-697.485	-68.552	0.180	0.071
-696.470	-87.599	0.263	0.081
-695.456	-164.447	0.153	-0.007
-694.441	137.638	-0.050	-0.066
-693.426	358.177	0.084	-0.170
-692.412	-24.531	-0.024	-0.014
-691.397	-200.000	-0.032	0.288
-690.383	159.278	0.242	0.341
-689.368	594.856	-0.031	0.077
-688.354	505.500	-0.068	-0.160
-687.339	800.000	0.076	0.253
-686.324	-200.000	0.021	-0.279
-685.310	45.544	0.197	0.184
-684.295	-200.000	-0.007	-0.037
-683.281	388.195	0.102	0.214
-682.266	-200.000	0.006	-0.557
-681.251	-71.292	0.263	-0.100
-680.237	-103.619	0.225	0.053
-679.222	427.234	-0.113	-0.247
-678.208	-72.196	-0.312	-0.117
-677.193	-155.482	0.131	-0.009
-676.178	-19.346	0.199	0.125
-675.164	45.286	0.154	-0.144
-674.149	40.027	-0.397	0.361
-673.135	-84.795	0.236	-0.075
-672.120	456.591	-0.119	-0.268
-671.105	-200.000	-0.047	-0.245
-670.091	6.914	0.146	-0.110
-669.076	666.554	0.095	-0.247
-668.062	-124.603	-0.279	0.044
-667.047	285.682	-0.042	-0.077
-666.032	-200.000	-0.016	0.105
-665.018	-55.722	0.198	-0.090
-664.003	53.659	0.302	0.293
-662.989	155.967	-0.105	0.146
-661.974	253.347	0.029	0.050
-660.959	-44.969	-0.172	0.087
-659.945	-4.309	0.070	-0.049
-658.930	252.208	-0.096	-0.165
-657.916	-200.000	-0.025	0.175
-656.901	18.999	-0.265	-0.215
-655.886	-200.000	0.033	0.318
-654.872	-84.319	-0.242	0.077
-653.857	-200.000	0.035	-0.197
-652.843	-49.213	0.256	-0.124
-651.828	224.791	-0.060	0.098
-650.814	309.656	-0.184	-0.348
-649.799	3.043	0.077	-0.057
-648.784	54.246	-0.300	0.291
-647.770	301.620	-0.137	-0.255
-646.755	39.560	-0.156	-0.141
-645.741	800.000	0.089	0.255
-644.726	-16.464	-0.184	-0.118
-643.711	141.201	0.032	0.042
-642.697	264.625	0.208	-0.366
-641.682	-161.417	0.173	0.009
-640.668	796.602	0.097	-0.270
-639.653	720.360	0.037	0.099
-638.638	54.654	0.313	-0.305
-637.624	-127.626	0.234	0.034
-636.609	-9.062	-0.279	0.189
-635.595	-200.000	0.015	0.114
-634.580	788.816	-0.039	0.108
-633.565	-117.893	-0.349	-0.063
-632.551	-200.000	-0.006	0.121
-631.536	80.532	0.189	-0.206
-630.522	-63.929	0.191	-0.079
-629.507	-0.160	0.251	0.180
-628.492	481.589	-0.200	0.458
-627.478	-9.040	0.331	-0.224
-626.463	800.000	-0.098	-0.409
-625.449	730.739	-0.107	-0.288
-624.434	800.000	0.120	0.364
-623.419	310.420	0.115	0.216
-622.405	-175.180	0.347	0.010
-621.390	-122.832	-0.376	-0.061
-620.376	-200.000	0.006	0.142
-619.361	-179.224	-0.231	0.005
-618.346	-127.838	0.336	0.049
-617.332	800.000	-0.126	-0.383
-616.317	59.945	-0.185	-0.184
-615.303	-3.964	0.074	-0.051
-614.288	-36.538	-0.250	-0.136
-613.273	-17.940	-0.233	0.147
-612.259	-123.617	0.086	0.014
-611.244	-90.778	-0.589	-0.172
-610.230	-200.000	-0.071	-0.476
-609.215	112.281	-0.206	-0.251
-608.201	306.057	0.039	-0.073
-607.186	97.318	-0.084	0.098
-606.171	-165.116	0.153	0.007
-605.157	-26.141	-0.275	-0.163
-604.142	-32.363	-0.127	-0.072
-603.128	-24.201	-0.180	0.108
-602.113	428.621	-0.104	0.227
-601.098	272.039	0.080	-0.143
-600.084	-107.008	0.238	-0.053
-599.069	-200.000	0.010	0.099
-598.055	57.531	-0.202	-0.199
-597.040	-200.000	-0.019	0.295
-596.025	3.107	0.293	-0.215
-595.011	-96.367	0.376	0.100
-593.996	423.559	0.089	0.193
-592.982	800.000	-0.061	-0.207
-591.967	800.000	0.061	0.188
-590.952	403.462	0.084	-0.179
-589.938	-200.000	0.013	0.289
-588.923	-80.672	0.238	0.080
-587.909	-200.000	-0.004	-0.320
-586.894	336.378	-0.114	0.224
-585.879	800.000	-0.037	0.158
-584.865	-114.284	-0.192	0.037
-583.850	-200.000	-0.033	-0.344
-582.836	-55.378	-0.352	-0.159
-581.821	-19.608	0.138	0.086
-580.806	-150.075	0.104	0.008
-579.792	800.000	0.055	0.227
-578.777	405.850	0.173	-0.368
-577.763	-200.000	-0.037	-0.298
-576.748	-200.000	0.041	0.206
-575.733	-200.000	-0.027	0.344
-574.719	379.902	-0.073	-0.150
-573.704	133.231	0.072	0.094
-572.690	2.394	0.362	-0.264
-571.675	130.106	0.123	-0.158
-570.661	-187.540	-0.277	-0.004
-569.646	-119.705	-0.074	-0.013
-568.631	-1.444	0.270	0.192
-567.617	112.542	-0.197	-0.240
-566.602	-200.000	-0.023	0.198
-565.588	190.090	-0.078	-0.118
-564.573	-90.717	-0.197	-0.057
-563.558	94.470	0.213	0.244
-562.544	511.471	0.046	0.107
-561.529	-34.309	-0.169	0.094
-560.515	-72.341	-0.441	0.164
-559.500	372.555	-0.087	0.179
-558.485	-132.676	0.114	0.015
-557.471	-54.544	-0.220	0.100
-556.456	-142.642	0.371	-0.037
-555.442	121.217	-0.252	-0.316
-554.427	-141.070	0.197	0.020
-553.412	11.628	0.153	0.118
-552.398	-200.000	0.014	0.164
-551.383	-55.502	-0.205	0.093
-550.369	-151.165	0.205	-0.015
-549.354	-200.000	-0.006	-0.026
-548.339	-200.000	0.029	0.170
-547.325	-129.742	-0.107	-0.015
-546.310	241.845	-0.135	0.227
-545.296	629.507	0.105	0.267
-544.281	-44.782	0.192	-0.097
-543.266	631.647	0.135	-0.344
-542.252	-92.389	0.098	0.028
-541.237	-200.000	-0.011	0.383
-540.223	-142.198	-0.345	-0.034
-539.208	222.792	-0.175	-0.284
-538.193	-79.846	-0.104	0.035
-537.179	-86.048	-0.041	0.013
-536.164	-200.000	-0.002	0.209
-535.150	-184.111	0.100	0.002
-534.135	-41.277	0.072	0.037
-533.121	-200.000	-0.021	-0.179
-532.106	92.091	-0.192	-0.218
-531.091	-200.000	0.062	-0.486
-530.077	800.000	0.092	-0.325
-529.062	-40.397	0.311	-0.162
-528.048	-200.000	-0.028	0.191
-527.033	295.723	-0.035	0.064
-526.018	-93.886	0.400	-0.111
-525.004	616.102	0.195	0.491
-523.989	800.000	0.020	0.072
-522.975	-43.104	0.148	0.075
-521.960	-96.067	-0.080	0.022
-520.945	-200.000	0.296	-0.001
-519.931	800.000	-0.049	-0.214
-518.916	-101.337	0.342	-0.084
-517.902	-135.331	-0.294	-0.035
-516.887	-200.000	-0.021	0.165
-515.872	-25.152	0.089	-0.053
-514.858	-81.373	-0.042	0.014
-513.843	779.099	0.057	0.155
-512.829	-200.000	0.020	0.124
-511.814	-3.234	0.239	0.168
-510.799	84.002	-0.145	0.160
-509.785	460.981	0.032	0.072
-508.770	307.412	-0.140	-0.262
-507.756	-22.149	0.099	-0.060
-506.741	-71.115	-0.301	-0.114
-505.726	175.548	0.157	0.228
-504.712	-11.032	0.187	-0.124
-503.697	800.000	-0.053	0.165
-502.683	69.757	0.080	-0.083
-501.668	-108.909	-0.115	-0.025
-500.653	-109.262	-0.392	-0.084
-499.639	-200.000	0.016	0.138
-498.624	-13.019	-0.303	0.198
-497.610	230.494	-0.032	-0.053
-496.595	-125.873	-0.185	0.028
-495.581	71.469	0.170	0.177
-494.566	-200.000	0.001	-0.039
-493.551	42.164	0.039	0.035
-492.537	227.825	-0.201	0.328
-491.522	170.553	0.116	-0.167
-490.508	71.800	-0.169	-0.176
-489.493	7.849	-0.247	-0.186
-488.478	800.000	-0.060	0.193
-487.464	-83.435	-0.121	0.039
-486.449	6.925	0.178	0.133
-485.435	-27.596	-0.226	0.132
-484.420	-88.372	0.291	0.087
-483.405	-45.295	-0.195	0.097
-482.391	27.316	0.188	0.158
-481.376	-174.771	0.162	0.005
-480.362	-176.426	-0.224	0.006
-479.347	-46.764	-0.170	-0.084
-478.332	-200.000	-0.002	-0.306
-477.318	-15.326	-0.246	-0.158
-476.303	800.000	0.039	-0.110
-475.289	-70.965	0.251	-0.095
-474.274	88.215	-0.062	0.069
-473.259	-171.176	-0.316	-0.011
-472.245	-39.087	0.091	0.048
-471.230	441.100	-0.027	-0.058
-470.216	627.190	0.086	-0.219
-469.201	-78.120	0.254	-0.088
-468.186	-24.590	-0.266	0.159
-467.172	-129.463	0.395	-0.055
-466.157	-115.285	-0.193	0.037
-465.143	-200.000	-0.042	0.217
-464.128	126.702	-0.093	0.118
-463.113	-200.000	0.001	0.031
-462.099	800.000	-0.032	-0.135
-461.084	-10.406	0.202	0.134
-460.070	45.387	0.162	0.150
-459.055	-200.000	0.010	-0.276
-458.040	-158.064	-0.396	0.023
-457.026	-200.000	-0.017	0.169
-456.011	-28.252	0.183	0.106
-454.997	210.841	0.112	0.177
-453.982	229.603	-0.236	-0.387
-452.968	-139.946	0.066	0.007
-451.953	212.998	0.138	0.218
-450.938	-105.526	0.171	-0.039
-449.924	-200.000	0.002	0.320
-448.909	61.620	-0.134	-0.134
-447.895	-200.000	0.000	0.108
-446.880	-200.000	-0.004	0.060
-445.865	-200.000	-0.020	-0.304
-444.851	100.912	-0.156	-0.182
-443.836	-11.044	0.205	-0.135
-442.822	15.032	-0.320	-0.251
-441.807	-200.000	-0.000	0.160
-440.792	-200.000	0.018	0.132
-439.778	173.760	-0.179	-0.259
-438.763	-94.590	-0.252	-0.069
-437.749	-200.000	0.015	-0.160
-436.734	-200.000	-0.053	-0.416
-435.719	-65.174	0.131	0.053
-434.705	11.339	-0.105	0.081
-433.690	-200.000	-0.045	0.232
-432.676	66.887	0.089	-0.091
-431.661	-49.977	-0.392	-0.186
-430.646	-107.261	-0.208	0.046
-429.632	533.424	0.046	0.110
-428.617	800.000	-0.036	-0.118
-427.603	-200.000	-0.004	-0.279
-426.588	-155.513	0.115	-0.007
-425.573	-46.100	0.416	0.205
-424.559	34.995	0.193	0.169
-423.544	-67.732	-0.238	-0.093
-422.530	2.054	0.080	0.058
-421.515	-73.791	-0.188	0.068
-420.500	-170.604	0.154	-0.005
-419.486	-200.000	0.059	0.362
-418.471	510.965	-0.105	-0.245
-417.457	800.000	-0.095	-0.367
-416.442	55.368	0.071	0.069
-415.428	-84.190	-0.207	-0.066
-414.413	-200.000	-0.004	-0.156
-413.398	-78.485	-0.112	-0.038
-412.384	800.000	-0.008	-0.031
-411.369	543.252	-0.168	0.402
-410.355	-133.056	-0.399	0.051
-409.340	-2.865	0.306	-0.214
-408.325	-200.000	-0.023	0.111
-407.311	-200.000	0.026	0.213
-406.296	-61.096	0.302	-0.128
-405.282	-81.333	0.158	0.052
-404.267	-18.998	-0.216	0.135
-403.252	-200.000	0.064	-0.308
-402.238	-123.553	0.321	0.051
-401.223	541.386	0.077	0.184
-400.209	-12.486	-0.226	0.147
-399.194	191.945	0.270	0.407
-398.179	224.310	0.161	0.261
-397.165	-53.736	0.156	-0.071
-396.150	-37.384	-0.079	0.042
-395.136	-52.232	-0.060	0.028
-394.121	14.756	-0.250	-0.196
-393.106	800.000	-0.056	0.214
-392.092	36.828	0.222	0.196
-391.077	37.063	-0.209	0.185
-390.063	-158.497	-0.110	0.006
-389.048	104.539	0.123	0.145
-388.033	-92.511	0.344	-0.097
-387.019	-200.000	0.272	-0.000
-386.004	5.083	0.284	-0.209
-384.990	-200.000	-0.001	-0.183
-383.975	-113.676	0.064	-0.012
-382.960	425.483	0.086	-0.185
-381.946	-199.632	-0.229	0.001
-380.931	734.880	-0.039	0.104
-379.917	-119.925	-0.298	-0.051
-378.902	646.119	0.041	0.104
-377.888	-39.080	0.246	0.130
-376.873	-67.579	0.100	-0.039
-375.858	263.806	0.101	-0.175
-374.844	111.388	0.186	-0.224
-373.829	134.635	0.118	0.153
-372.815	486.185	-0.080	0.182
-371.800	463.178	0.108	-0.241
-370.785	800.000	-0.048	0.212
-369.771	224.956	-0.219	-0.355
-368.756	-200.000	0.033	-0.255
-367.742	-132.789	-0.351	0.045
-366.727	8.296	-0.248	-0.187
-365.712	57.599	0.095	-0.093
-364.698	732.418	-0.048	-0.129
-363.683	-200.000	0.019	-0.381
-362.669	-200.000	-0.022	-0.295
-361.654	800.000	0.069	0.279
-360.639	800.000	0.057	0.163
-359.625	372.803	0.083	0.168
-358.610	-62.370	-0.299	-0.124
-357.596	-200.000	0.057	-0.324
-356.581	222.302	-0.117	-0.188
-355.566	-200.000	0.022	-0.131
-354.552	-129.260	0.111	0.015
-353.537	800.000	-0.117	-0.325
-352.523	-200.000	-0.025	-0.268
-351.508	800.000	-0.073	0.266
-350.493	57.645	-0.131	-0.128
-349.479	-200.000	-0.035	-0.357
-348.464	171.825	-0.094	-0.134
-347.450	-151.152	0.153	-0.011
-346.435	204.985	0.144	-0.224
-345.420	-158.880	0.342	-0.019
-344.406	800.000	-0.025	0.071
-343.391	-50.746	-0.545	0.256
-342.377	-112.265	-0.149	-0.030
-341.362	329.124	0.176	0.338
-340.348	217.938	-0.106	0.168
-339.333	-24.374	-0.189	0.113
-338.318	-103.736	0.171	-0.040
-337.304	266.041	0.086	-0.149
-336.289	17.217	-0.246	0.195
-335.275	-71.283	-0.161	-0.060
-334.260	51.818	0.074	0.071
-333.245	170.045	0.222	0.317
-332.231	-148.536	-0.279	0.023
-331.216	252.880	-0.120	-0.204
-330.202	94.508	0.323	-0.366
-329.187	112.413	-0.142	-0.172
-328.172	89.312	0.071	-0.078
-327.158	4.287	0.081	-0.059
-326.143	-123.981	-0.262	-0.041
-325.129	293.462	0.155	-0.282
-324.114	114.946	-0.089	0.109
-323.099	-61.345	-0.173	-0.073
-322.085	-200.000	0.053	-0.283
-321.070	800.000	0.044	0.171
-320.056	475.285	-0.116	-0.260
-319.041	-200.000	0.001	-0.062
-318.026	-130.348	0.100	0.014
-317.012	-200.000	-0.011	-0.119
-315.997	-4.083	0.321	0.222
-314.983	-20.869	0.089	0.054
-313.968	-85.257	-0.143	0.044
-312.953	42.809	-0.058	-0.053
-311.939	-145.653	-0.074	0.007
-310.924	53.003	0.198	0.189
-309.910	250.234	-0.036	-0.061
-308.895	-140.231	0.166	0.017
-307.880	80.067	-0.172	0.184
-306.866	21.612	-0.185	0.150
-305.851	-78.549	-0.198	0.068
-304.837	-200.000	-0.023	0.130
-303.822	-200.000	-0.004	0.070
-302.807	138.358	-0.029	-0.038
-301.793	36.598	-0.053	-0.047
-300.778	-62.678	-0.216	-0.089
-299.764	44.871	0.194	0.178
-298.749	-200.000	-0.033	-0.611
-297.735	800.000	0.108	-0.323
-296.720	-71.047	0.201	0.075
-295.705	-78.704	-0.252	-0.086
-294.691	147.398	-0.118	0.158
-293.676	800.000	0.071	0.239
-292.662	-97.332	0.109	-0.028
-291.647	-153.931	0.362	-0.025
-290.632	-155.909	0.321	-0.020
-289.618	-200.000	0.007	0.099
-288.603	-200.000	0.021	0.230
-287.589	-45.121	-0.067	-0.033
-286.574	-200.000	0.023	0.159
-285.559	371.958	0.055	0.112
-284.545	156.477	0.127	-0.175
-283.530	-200.000	-0.036	0.478
-282.516	-200.000	0.020	0.129
-281.501	-50.994	0.341	-0.159
-280.486	-200.000	-0.069	-0.000
-279.472	-133.034	0.101	0.013
-278.457	137.146	0.030	0.039
-277.443	-93.103	-0.235	0.065
-276.428	197.675	0.150	-0.228
-275.413	33.870	0.151	-0.131
-274.399	-148.998	0.250	0.020
-273.384	136.411	0.052	0.067
-272.370	-44.183	-0.203	0.101
-271.355	800.000	0.050	-0.171
-270.340	78.830	-0.231	0.246
-269.326	96.966	0.124	-0.142
-268.311	-86.591	-0.096	-0.029
-267.297	800.000	0.051	0.204
-266.282	78.212	0.024	0.025
-265.267	-74.233	0.098	-0.035
-264.253	-75.597	-0.080	-0.028
-263.238	-129.277	0.111	-0.015
-262.224	-200.000	0.000	0.167
-261.209	-163.535	0.449	-0.021
-260.195	224.402	-0.107	-0.171
-259.180	-200.000	0.024	-0.129
-258.165	183.042	-0.323	0.475
-257.151	-131.608	0.224	-0.029
-256.136	-23.874	0.131	-0.078
-255.122	283.936	-0.171	-0.306
-254.107	16.332	0.055	0.043
-253.092	800.000	0.060	0.193
-252.078	-200.000	-0.022	0.109
-251.063	-155.989	0.390	-0.025
-250.049	-110.333	-0.250	-0.052
-249.034	-75.066	-0.099	-0.035
-248.019	-82.557	0.074	0.024
-247.005	-200.000	-0.010	-0.303
-245.990	5.726	0.338	-0.249
-244.976	745.560	-0.063	0.168
-243.961	-114.198	-0.138	-0.026
-242.946	85.257	-0.153	-0.167
-241.932	-36.742	0.206	0.110
-240.917	-130.392	0.172	0.023
-239.903	-150.287	0.286	-0.022
-238.888	15.154	-0.249	-0.194
-237.873	-200.000	-0.031	-0.154
-236.859	-200.000	-0.002	-0.038
-235.844	-151.349	-0.393	-0.029
-234.830	-12.046	-0.193	-0.126
-233.815	62.158	0.196	-0.194
-232.800	800.000	-0.053	0.149
-231.786	-200.000	-0.035	0.169
-230.771	-148.389	-0.217	0.018
-229.757	-200.000	-0.045	0.495
-228.742	-200.000	-0.004	0.160
-227.727	-80.423	0.416	0.138
-226.713	329.613	-0.116	0.222
-225.698	250.423	-0.200	0.337
-224.684	182.723	-0.093	0.137
-223.669	-200.000	-0.009	-0.100
-222.655	-93.528	0.292	0.080
-221.640	47.870	0.190	0.176
-220.625	101.793	-0.131	-0.151
-219.611	-99.108	-0.196	-0.049
-218.596	-22.501	-0.199	0.120
-217.582	-100.105	0.120	0.030
-216.567	-117.356	0.189	-0.034
-215.552	-200.000	0.005	0.050
-214.538	-141.152	0.076	0.008
-213.523	355.344	0.056	0.111
-212.509	-200.000	0.010	-0.096
-211.494	101.612	0.017	0.020
-210.479	-61.752	0.166	-0.069
-209.465	-48.803	-0.057	-0.027
-208.450	17.123	-0.083	0.066
-207.436	-44.995	-0.159	-0.079
-206.421	14.328	0.272	0.211
-205.406	-86.552	0.146	-0.044
-204.392	-200.000	0.001	-0.009
-203.377	-200.000	-0.049	-0.228
-202.363	-106.438	-0.504	0.112
-201.348	800.000	-0.151	0.419
-200.333	9.554	0.052	0.039
-199.319	-31.132	0.316	0.177
-198.304	-200.000	0.017	0.084
-197.290	0.514	0.064	0.046
-196.275	-32.000	0.061	0.034
-195.260	163.161	-0.157	0.219
-194.246	95.315	0.164	0.185
-193.231	66.052	-0.062	-0.063
-192.217	-126.263	0.137	0.020
-191.202	47.844	0.207	-0.192
-190.187	368.760	-0.169	-0.339
-189.173	-170.154	0.088	0.003
-188.158	444.293	0.128	0.279
-187.144	800.000	-0.129	0.361
-186.129	-112.255	0.266	-0.053
-185.114	36.862	-0.074	-0.065
-184.100	356.574	-0.201	0.398
-183.085	21.762	0.180	-0.146
-182.071	684.437	0.074	-0.192
-181.056	35.677	0.133	0.116
-180.042	-52.755	0.073	0.033
-179.027	-123.879	-0.193	0.030
-178.012	1.555	0.137	0.098
-176.998	574.284	-0.020	-0.048
-175.983	-127.158	-0.381	0.055
-174.969	-200.000	-0.030	-0.258
-173.954	800.000	0.051	0.211
-172.939	161.271	0.180	0.249
-171.925	16.455	-0.236	-0.185
-170.910	-200.000	0.000	-0.159
-169.896	157.743	0.047	0.064
-168.881	146.371	-0.042	0.055
-167.866	181.847	-0.166	-0.242
-166.852	262.959	-0.024	-0.041
-165.837	-34.498	0.337	0.183
-164.823	800.000	0.071	0.287
-163.808	-96.994	-0.082	0.021
-162.793	168.669	-0.171	-0.241
-161.779	424.193	-0.040	0.086
-160.764	100.615	0.049	-0.057
-159.750	615.144	-0.017	0.041
-158.735	-70.098	-0.150	-0.057
-157.720	112.150	-0.112	-0.134
-156.706	-200.000	-0.010	0.047
-155.691	-200.000	0.068	0.339
-154.677	-200.000	0.038	0.220
-153.662	-40.624	0.218	-0.112
-152.647	495.451	-0.130	-0.296
-151.633	-200.000	-0.018	-0.093
-150.618	144.022	0.053	-0.070
-149.604	172.016	0.261	0.372
-148.589	800.000	-0.078	0.232
-147.574	800.000	-0.051	0.145
-146.560	-43.350	0.166	-0.083
-145.545	-39.714	-0.110	-0.057
-144.531	434.308	-0.143	-0.307
-143.516	2.016	-0.265	0.189
-142.502	-200.000	0.024	0.114
-141.487	194.612	-0.137	0.206
-140.472	-9.977	0.254	0.167
-139.458	390.476	0.104	0.214
-138.443	-65.886	-0.185	-0.073
-137.429	-96.942	0.247	-0.064
-136.414	-200.000	-0.062	0.435
-135.399	385.569	0.110	-0.224
-134.385	-79.505	0.225	0.075
-133.370	369.302	0.016	0.032
-132.356	178.699	-0.132	0.191
-131.341	205.058	-0.113	-0.174
-130.326	501.271	0.109	0.250
-129.312	149.459	0.060	0.080
-128.297	58.695	-0.163	0.159
-127.283	-58.130	-0.276	0.119
-126.268	119.462	0.074	-0.090
-125.253	-200.000	0.009	-0.335
-124.239	-114.516	-0.254	0.048
-123.224	47.708	0.161	-0.149
-122.210	-115.869	0.299	-0.055
