DTS Sentinel unit serial number:	SN413079Multiplexer serial number:	ORYXHardware model number:	OX4-SRSoftware version number:	ORYX F/W v4.00 Oryx Data Collector v3.7.2.0data status	okinstallation	princeton_trtdifferential loss correction	single-endedforward channel	channel 2reverse channel	N/Adate	2019/09/14time	15:27:35forward acquisition time	60.00reverse acquisition time	0.00gamma	496.2192k internal	0.2303k external	0.2303temperature offset calibration	1.0143default loss term (dB/km)	0.3790temperature slope calibration	1.0000multiplexer offset coefficient	1.0000multiplexer slope coefficient	1.0000fibre end	0.00T internal ref (°C)	38.94T ext. ref 1 (°C)	5.14T ext. ref 2 (°C)	33.34length (m)	temperature (°C)	Stokes	anti-Stokes-747.200	163.231	0.088	0.126
-746.185	95.109	0.363	0.421
-745.171	173.898	-0.224	0.329
-744.156	36.515	0.307	0.276
-743.142	-200.000	-0.010	-0.103
-742.127	148.955	0.158	-0.217
-741.112	-90.641	-0.086	0.025
-740.098	-200.000	-0.024	0.246
-739.083	156.609	-0.059	-0.084
-738.069	800.000	-0.115	0.385
-737.054	32.015	-0.188	-0.165
-736.039	800.000	-0.081	-0.230
-735.025	64.119	-0.216	-0.221
-734.010	-130.831	0.098	0.013
-732.996	-200.000	0.030	-0.386
-731.981	-108.937	0.168	0.037
-730.966	66.607	0.191	-0.197
-729.952	-72.731	0.110	-0.041
-728.937	-200.000	-0.007	0.052
-727.923	-36.331	-0.300	0.164
-726.908	480.040	-0.030	0.070
-725.894	-136.530	-0.160	0.019
-724.879	582.556	0.042	-0.106
-723.864	-200.000	0.009	0.042
-722.850	-112.622	-0.362	0.073
-721.835	43.925	-0.189	-0.176
-720.821	-111.668	-0.275	-0.057
-719.806	-138.636	0.155	0.017
-718.791	785.533	0.121	-0.337
-717.777	-200.000	-0.027	-0.231
-716.762	-59.155	0.404	-0.177
-715.748	-200.000	-0.008	-0.361
-714.733	-125.630	-0.063	-0.010
-713.718	370.549	0.098	-0.201
-712.704	-167.288	0.290	-0.012
-711.689	-65.896	0.189	-0.077
-710.675	-95.949	-0.208	0.056
-709.660	-200.000	0.026	0.226
-708.645	297.306	-0.082	0.153
-707.631	800.000	-0.108	-0.336
-706.616	-200.000	0.048	-0.286
-705.602	800.000	0.025	0.074
-704.587	90.202	-0.067	0.077
-703.572	-89.029	-0.233	-0.070
-702.558	127.044	0.143	-0.185
-701.543	-200.000	0.010	0.117
-700.529	300.173	0.147	-0.276
-699.514	800.000	-0.061	0.263
-698.499	10.428	0.021	-0.016
-697.485	-30.495	0.240	0.138
-696.470	-165.900	0.241	0.011
-695.456	37.017	0.105	0.094
-694.441	53.587	-0.105	-0.102
-693.426	213.580	-0.111	0.178
-692.412	394.443	-0.038	-0.081
-691.397	-129.603	-0.251	-0.035
-690.383	-200.000	0.025	-0.279
-689.368	-7.926	0.339	0.233
-688.354	158.165	-0.197	-0.277
-687.339	58.669	-0.112	0.112
-686.324	-62.213	-0.242	-0.102
-685.310	158.628	-0.276	-0.390
-684.295	-200.000	0.074	0.355
-683.281	-42.901	-0.328	-0.169
-682.266	11.032	-0.165	0.128
-681.251	800.000	-0.063	-0.239
-680.237	663.095	-0.086	-0.224
-679.222	183.747	0.096	0.144
-678.208	-71.869	-0.242	0.091
-677.193	800.000	-0.071	-0.271
-676.178	122.371	0.118	-0.149
-675.164	26.765	-0.134	-0.114
-674.149	51.318	-0.034	-0.033
-673.135	260.107	0.103	-0.181
-672.120	800.000	0.144	-0.448
-671.105	-200.000	-0.017	-0.200
-670.091	-200.000	0.041	-0.545
-669.076	162.254	0.041	0.059
-668.062	44.265	0.071	0.067
-667.047	-94.661	0.231	-0.064
-666.032	-51.479	0.067	-0.032
-665.018	230.674	-0.114	0.190
-664.003	22.647	-0.050	0.041
-662.989	546.880	-0.065	0.157
-661.974	697.432	-0.034	-0.091
-660.959	-66.328	-0.147	-0.059
-659.945	800.000	-0.045	0.194
-658.930	-4.097	0.015	0.011
-657.916	94.934	-0.063	0.073
-656.901	-22.153	0.044	-0.027
-655.886	-6.304	-0.094	-0.065
-654.872	-200.000	0.024	-0.297
-653.857	800.000	0.067	0.232
-652.843	-127.722	0.009	-0.001
-651.828	-0.468	-0.184	-0.133
-650.814	14.285	-0.166	0.132
-649.799	95.154	0.048	-0.056
-648.784	439.638	-0.167	-0.369
-647.770	11.462	-0.154	-0.120
-646.755	-83.962	0.269	0.087
-645.741	-52.314	-0.116	-0.055
-644.726	-157.755	-0.201	-0.012
-643.711	656.865	0.098	0.255
-642.697	6.834	0.107	-0.080
-641.682	-10.959	-0.119	-0.080
-640.668	-102.829	-0.087	0.021
-639.653	305.759	-0.217	-0.410
-638.638	382.407	-0.058	-0.121
-637.624	-21.986	0.122	0.075
-636.609	27.115	-0.176	-0.149
-635.595	-71.587	0.217	0.082
-634.580	33.696	0.281	-0.248
-633.565	559.285	-0.107	0.262
-632.551	-200.000	0.016	-0.177
-631.536	104.540	-0.188	0.224
-630.522	197.545	-0.188	-0.291
-629.507	269.950	0.135	-0.241
-628.492	-88.663	0.193	0.058
-627.478	-88.030	-0.217	-0.066
-626.463	-200.000	-0.017	-0.212
-625.449	34.983	-0.106	-0.094
-624.434	-200.000	-0.009	0.199
-623.419	-200.000	-0.055	-0.364
-622.405	347.369	-0.199	-0.397
-621.390	-200.000	0.040	0.372
-620.376	-146.119	0.204	-0.018
-619.361	290.868	0.047	-0.087
-618.346	127.702	-0.154	0.199
-617.332	119.876	0.281	0.352
-616.317	632.028	-0.109	0.280
-615.303	-200.000	-0.126	-0.610
-614.288	20.363	0.079	0.064
-613.273	184.883	0.170	-0.256
-612.259	-200.000	-0.013	0.170
-611.244	-17.609	0.106	0.067
-610.230	800.000	-0.050	-0.182
-609.215	465.989	0.056	-0.128
-608.201	-200.000	-0.029	-0.415
-607.186	-200.000	-0.016	-0.080
-606.171	-117.140	0.061	-0.011
-605.157	137.812	0.101	0.134
-604.142	518.889	0.102	0.241
-603.128	356.489	-0.051	-0.103
-602.113	59.705	-0.296	-0.296
-601.098	-200.000	-0.120	0.535
-600.084	182.347	-0.188	-0.281
-599.069	-61.031	0.239	0.102
-598.055	-57.731	-0.112	-0.049
-597.040	-31.349	0.215	-0.122
-596.025	-7.872	0.138	0.095
-595.011	396.577	-0.145	-0.306
-593.996	4.155	0.131	0.097
-592.982	273.849	0.064	-0.114
-591.967	-110.820	0.393	0.082
-590.952	-78.222	0.291	0.101
-589.938	-200.000	-0.057	0.287
-588.923	800.000	-0.063	-0.224
-587.909	-107.532	-0.223	-0.049
-586.894	22.671	-0.095	-0.078
-585.879	-49.738	0.035	-0.017
-584.865	111.508	-0.054	-0.066
-583.850	800.000	0.075	-0.269
-582.836	258.933	0.150	0.262
-581.821	-101.515	0.318	-0.078
-580.806	-84.854	-0.315	-0.100
-579.792	361.343	-0.204	-0.414
-578.777	323.166	-0.078	0.150
-577.763	159.130	-0.157	0.220
-576.748	-182.243	-0.352	0.007
-575.733	12.903	0.155	0.121
-574.719	800.000	-0.039	0.143
-573.704	-155.689	-0.387	0.025
-572.690	69.208	-0.171	-0.178
-571.675	-95.052	-0.187	0.051
-570.661	-29.488	0.078	-0.045
-569.646	-149.521	0.136	-0.011
-568.631	-50.404	-0.153	-0.073
-567.617	-29.241	0.072	0.042
-566.602	26.938	-0.209	-0.178
-565.588	-117.151	0.237	-0.044
-564.573	-88.534	0.158	-0.048
-563.558	800.000	0.098	0.305
-562.544	177.018	-0.073	-0.108
-561.529	81.078	0.049	-0.053
-560.515	-200.000	-0.020	0.222
-559.500	-65.287	0.082	0.033
-558.485	593.650	-0.101	0.253
-557.471	328.061	-0.070	0.137
-556.456	192.569	0.033	0.051
-555.442	97.199	-0.359	-0.417
-554.427	-119.420	0.161	0.028
-553.412	659.328	0.089	-0.232
-552.398	669.157	-0.084	0.221
-551.383	308.264	0.193	-0.363
-550.369	3.836	0.120	0.089
-549.354	-18.447	0.367	-0.232
-548.339	-138.913	-0.120	0.013
-547.325	-90.235	-0.174	0.051
-546.310	800.000	-0.052	-0.187
-545.296	413.833	0.129	-0.277
-544.281	310.978	-0.113	-0.213
-543.266	-200.000	-0.049	-0.354
-542.252	549.549	0.135	-0.328
-541.237	-114.617	0.239	0.046
-540.223	61.267	-0.245	-0.246
-539.208	800.000	0.029	0.107
-538.193	-190.687	-0.222	-0.002
-537.179	-137.851	-0.149	-0.017
-536.164	-59.409	-0.368	-0.160
-535.150	101.072	0.237	-0.278
-534.135	393.476	0.200	0.421
-533.121	800.000	0.043	0.150
-532.106	71.308	-0.208	0.218
-531.091	-200.000	-0.004	-0.149
-530.077	53.314	0.160	-0.155
-529.062	-109.849	0.250	-0.053
-528.048	-142.954	-0.135	0.013
-527.033	-200.000	-0.002	0.409
-526.018	-65.031	-0.216	-0.088
-525.004	5.546	-0.070	0.052
-523.989	-46.351	0.361	-0.179
-522.975	413.128	-0.026	0.056
-521.960	-200.000	0.003	0.046
-520.945	800.000	0.063	-0.235
-519.931	55.830	-0.138	0.135
-518.916	85.015	0.156	-0.172
-517.902	-30.231	-0.061	-0.035
-516.887	69.171	-0.216	0.225
-515.872	-200.000	-0.080	0.371
-514.858	31.004	0.141	-0.122
-513.843	-200.000	-0.026	-0.493
-512.829	365.442	0.155	-0.315
-511.814	-74.944	-0.581	0.210
-510.799	-91.099	-0.105	-0.030
-509.785	501.865	-0.087	0.203
-508.770	-80.684	-0.130	0.044
-507.756	-200.000	0.115	0.538
-506.741	-87.105	0.182	0.056
-505.726	-134.766	-0.369	0.045
-504.712	-141.911	-0.061	0.006
-503.697	-88.382	-0.189	-0.057
-502.683	-77.879	-0.179	0.062
-501.668	290.828	-0.108	0.198
-500.653	102.759	0.172	0.203
-499.639	-88.093	0.387	0.117
-498.624	-0.883	-0.127	0.091
-497.610	-92.563	0.392	0.111
-496.595	-23.499	0.112	0.068
-495.581	122.799	-0.089	-0.113
-494.566	-31.688	0.090	-0.051
-493.551	383.307	-0.114	0.237
-492.537	-25.519	-0.088	-0.052
-491.522	-200.000	0.014	0.075
-490.508	163.493	0.105	0.149
-489.493	800.000	-0.019	-0.062
-488.478	-200.000	-0.006	-0.149
-487.464	227.539	0.049	-0.080
-486.449	-75.285	-0.133	0.048
-485.435	35.424	0.240	0.213
-484.420	-165.987	0.249	0.011
-483.405	34.284	-0.075	-0.066
-482.391	-44.694	0.291	0.146
-481.376	342.317	0.137	0.270
-480.362	185.632	-0.116	-0.174
-479.347	708.003	0.036	0.096
-478.332	370.678	0.085	-0.173
-477.318	51.822	-0.249	-0.239
-476.303	-35.534	-0.252	-0.138
-475.289	-156.081	0.184	-0.012
-474.274	11.492	0.141	-0.109
-473.259	-27.890	0.121	0.071
-472.245	-200.000	-0.008	-0.135
-471.230	-200.000	-0.011	0.094
-470.216	495.832	0.088	0.203
-469.201	-34.906	0.130	0.072
-468.186	-39.913	-0.253	-0.133
-467.172	-99.172	0.328	0.084
-466.157	800.000	-0.091	-0.311
-465.143	800.000	-0.173	-0.487
-464.128	-33.109	0.057	-0.032
-463.113	674.654	-0.026	-0.068
-462.099	-127.559	-0.061	-0.009
-461.084	-117.756	-0.213	0.039
-460.070	-45.165	0.134	0.067
-459.055	-93.079	0.288	-0.081
-458.040	-172.051	-0.079	0.003
-457.026	-49.335	-0.212	-0.102
-456.011	-110.093	0.316	-0.067
-454.997	-0.879	0.101	0.072
-453.982	11.781	-0.101	-0.078
-452.968	227.942	-0.149	0.244
-451.953	-200.000	0.011	0.146
-450.938	-81.119	-0.131	-0.043
-449.924	-90.657	-0.158	0.046
-448.909	112.978	-0.095	0.116
-447.895	-200.000	0.001	0.250
-446.880	-59.985	-0.133	-0.057
-445.865	43.623	0.257	0.237
-444.851	18.878	0.199	-0.160
-443.836	107.417	-0.206	0.247
-442.822	-104.024	0.138	0.032
-441.807	14.808	0.163	-0.128
-440.792	433.767	-0.057	-0.124
-439.778	-132.701	0.265	0.034
-438.763	800.000	-0.079	0.322
-437.749	-75.937	0.142	0.050
-436.734	-200.000	0.024	0.214
-435.719	204.368	-0.065	-0.101
-434.705	796.583	0.053	0.148
-433.690	615.038	-0.044	-0.112
-432.676	-200.000	0.083	0.421
-431.661	134.071	0.089	0.116
-430.646	800.000	-0.057	-0.171
-429.632	29.509	-0.109	-0.093
-428.617	68.993	0.313	0.324
-427.603	-170.362	-0.112	-0.004
-426.588	-81.885	-0.350	-0.115
-425.573	-51.932	-0.392	-0.183
-424.559	179.526	-0.286	0.421
-423.544	90.282	-0.164	-0.184
-422.530	543.167	-0.006	0.015
-421.515	-200.000	0.003	-0.042
-420.500	12.904	-0.186	0.145
-419.486	-112.773	0.289	0.058
-418.471	-89.957	0.225	0.066
-417.457	255.152	-0.174	-0.300
-416.442	137.433	0.183	0.241
-415.428	774.059	-0.152	-0.416
-414.413	-200.000	0.005	-0.047
-413.398	-170.003	-0.295	0.011
-412.384	-62.835	-0.233	0.097
-411.369	197.063	-0.035	0.053
-410.355	800.000	0.036	-0.121
-409.340	88.635	-0.081	-0.090
-408.325	-200.000	0.497	-0.001
-407.311	-200.000	-0.011	-0.363
-406.296	10.542	-0.099	0.076
-405.282	800.000	-0.072	0.217
-404.267	112.349	-0.103	0.125
-403.252	-10.955	-0.137	0.091
-402.238	-158.060	-0.416	0.025
-401.223	-38.305	-0.115	0.061
-400.209	-53.143	0.065	0.030
-399.194	-19.335	0.326	-0.203
-398.179	-200.000	0.026	-0.177
-397.165	-147.826	0.329	0.028
-396.150	84.984	-0.029	-0.032
-395.136	-76.484	-0.286	-0.101
-394.121	648.605	-0.053	0.135
-393.106	507.427	0.132	-0.308
-392.092	296.825	-0.093	-0.172
-391.077	110.590	-0.121	-0.146
-390.063	-128.463	-0.322	0.046
-389.048	-60.985	-0.368	0.156
-388.033	-35.242	-0.091	0.050
-387.019	33.650	-0.099	0.086
-386.004	-80.111	0.103	0.035
-384.990	512.966	-0.086	0.201
-383.975	-43.315	0.177	0.090
-382.960	363.508	0.120	-0.243
-381.946	-200.000	-0.010	-0.054
-380.931	-200.000	0.027	0.150
-379.917	-200.000	0.098	-0.446
-378.902	148.988	0.241	-0.327
-377.888	0.614	-0.118	0.085
-376.873	800.000	-0.017	-0.063
-375.858	399.977	0.083	-0.176
-374.844	247.752	-0.125	0.213
-373.829	524.276	0.140	0.330
-372.815	116.451	0.087	-0.107
-371.800	-200.000	-0.037	-0.174
-370.785	800.000	-0.087	0.283
-369.771	-172.850	0.404	-0.013
-368.756	800.000	0.045	0.124
-367.742	59.755	0.133	-0.132
-366.727	-127.491	0.257	-0.037
-365.712	63.959	-0.174	-0.176
-364.698	502.122	-0.069	-0.159
-363.683	190.019	-0.178	-0.268
-362.669	-200.000	0.055	0.431
-361.654	29.049	-0.019	-0.016
-360.639	53.295	-0.129	0.124
-359.625	265.797	0.226	0.396
-358.610	-111.090	0.311	0.064
-357.596	506.482	-0.137	-0.319
-356.581	-22.030	0.074	0.045
-355.566	-175.813	0.216	-0.006
-354.552	-1.365	-0.149	-0.105
-353.537	-1.735	-0.189	-0.133
-352.523	358.286	0.076	0.152
-351.508	-62.485	0.185	0.077
-350.493	42.058	-0.105	0.096
-349.479	800.000	0.106	-0.379
-348.464	0.572	-0.234	-0.168
-347.450	-57.236	0.074	-0.033
-346.435	-139.476	-0.179	0.019
-345.420	61.713	0.225	-0.225
-344.406	-86.167	0.186	0.057
-343.391	-200.000	0.017	0.157
-342.377	-200.000	-0.081	0.438
-341.362	68.631	0.215	-0.221
-340.348	-11.012	0.339	0.224
-339.333	-149.777	-0.220	0.017
-338.318	-200.000	0.019	-0.111
-337.304	-118.070	0.418	-0.075
-336.289	346.714	-0.043	0.086
-335.275	32.429	-0.092	0.080
-334.260	353.659	-0.299	0.596
-333.245	800.000	0.018	0.056
-332.231	800.000	-0.070	0.288
-331.216	287.955	-0.076	0.139
-330.202	179.841	-0.178	-0.261
-329.187	-36.296	0.341	0.184
-328.172	-200.000	0.014	0.132
-327.158	800.000	-0.096	0.268
-326.143	-126.310	-0.092	0.014
-325.129	146.651	-0.158	-0.213
-324.114	-58.930	0.218	-0.094
-323.099	-116.557	-0.193	0.036
-322.085	-135.579	0.233	0.028
-321.070	-1.718	0.236	-0.166
-320.056	106.168	0.103	0.123
-319.041	-89.583	0.291	0.086
-318.026	-9.758	0.123	0.082
-317.012	-132.591	0.155	0.020
-315.997	248.568	-0.116	-0.197
-314.983	-200.000	0.010	-0.049
-313.968	-200.000	0.032	0.280
-312.953	-105.313	0.266	0.061
-311.939	-31.427	0.260	0.147
-310.924	-46.159	0.159	0.078
-309.910	-96.335	-0.117	0.031
-308.895	209.552	0.095	-0.150
-307.880	103.297	-0.134	0.158
-306.866	433.758	0.131	-0.285
-305.851	800.000	0.138	-0.420
-304.837	-68.718	-0.200	0.077
-303.822	424.208	0.143	-0.308
-302.807	-70.240	0.376	-0.143
-301.793	-21.813	-0.126	-0.076
-300.778	-60.810	-0.153	-0.065
-299.764	49.640	0.087	-0.082
-298.749	128.271	-0.066	0.084
-297.735	-160.404	-0.093	-0.005
-296.720	-200.000	-0.004	0.245
-295.705	-13.533	-0.140	-0.091
-294.691	-132.735	0.177	-0.023
-293.676	67.345	0.105	0.107
-292.662	-141.905	-0.335	0.033
-291.647	-150.588	-0.199	-0.015
-290.632	-141.892	-0.175	-0.018
-289.618	-109.667	0.205	0.043
-288.603	-179.871	-0.430	-0.009
-287.589	-84.635	0.360	-0.113
-286.574	-6.883	0.231	-0.157
-285.559	58.522	-0.151	0.148
-284.545	497.419	-0.100	-0.230
-283.530	-105.709	-0.165	0.037
-282.516	-49.288	-0.120	-0.057
-281.501	-50.272	-0.129	0.061
-280.486	91.142	0.291	-0.327
-279.472	127.833	-0.150	0.191
-278.457	216.272	-0.093	0.148
-277.443	247.669	0.151	0.256
-276.428	-200.000	0.118	-0.000
-275.413	200.323	-0.137	-0.211
-274.399	800.000	-0.084	-0.324
-273.384	143.996	0.080	0.107
-272.370	150.289	0.128	-0.174
-271.355	-145.174	-0.233	0.021
-270.340	-24.635	0.208	-0.124
-269.326	274.831	-0.143	0.254
-268.311	-84.771	0.136	-0.043
-267.297	-16.873	-0.117	-0.074
-266.282	-44.116	0.030	-0.015
-265.267	399.136	0.111	-0.231
-264.253	-125.116	0.304	-0.047
-263.238	162.249	-0.117	0.163
-262.224	-59.924	-0.060	0.026
-261.209	-200.000	0.076	-0.367
-260.195	-200.000	-0.034	-0.202
-259.180	-200.000	0.033	-0.225
-258.165	567.696	0.082	-0.199
-257.151	29.169	-0.155	0.131
-256.136	-126.754	0.468	0.069
-255.122	800.000	0.036	0.108
-254.107	116.264	0.102	-0.124
-253.092	44.052	-0.150	-0.137
-252.078	-200.000	0.007	0.218
-251.063	440.204	0.082	0.179
-250.049	-111.127	-0.279	-0.057
-249.034	-128.620	-0.404	0.057
-248.019	134.959	0.102	0.133
-247.005	-72.571	0.184	-0.068
-245.990	57.007	0.076	-0.074
-244.976	-11.975	-0.196	0.128
-243.961	-200.000	0.013	0.128
-242.946	186.506	0.190	0.283
-241.932	-45.517	-0.110	0.054
-240.917	-136.396	-0.220	0.026
-239.903	-130.722	-0.060	-0.008
-238.888	-75.724	-0.090	-0.032
-237.873	-200.000	-0.040	-0.225
-236.859	-118.864	-0.079	0.014
-235.844	-40.313	0.091	-0.047
-234.830	5.955	-0.177	0.131
-233.815	-200.000	0.005	0.305
-232.800	163.667	-0.062	0.087
-231.786	800.000	0.087	0.327
-230.771	-81.196	-0.303	0.100
-229.757	70.562	0.048	-0.050
-228.742	-82.381	0.232	0.075
-227.727	51.604	-0.127	0.120
-226.713	50.831	0.093	0.088
-225.698	-58.314	-0.063	-0.027
-224.684	70.498	0.166	0.171
-223.669	-60.742	0.171	0.072
-222.655	-30.628	0.313	0.177
-221.640	-91.074	-0.345	-0.099
-220.625	706.299	0.092	-0.243
-219.611	800.000	-0.069	-0.195
-218.596	168.011	0.061	0.087
-217.582	-110.795	-0.091	0.019
-216.567	92.198	0.235	0.264
-215.552	-200.000	0.020	-0.129
-214.538	486.390	-0.101	-0.229
-213.523	-45.541	0.426	0.210
-212.509	-114.607	-0.061	0.012
-211.494	147.427	0.085	0.114
-210.479	-200.000	0.012	0.128
-209.465	177.030	-0.259	-0.376
-208.450	421.849	0.133	0.284
-207.436	-27.265	0.231	-0.134
-206.421	-110.470	0.074	-0.015
-205.406	-200.000	0.022	-0.373
-204.392	74.122	0.237	0.248
-203.377	-163.543	0.333	-0.016
-202.363	1.290	0.119	-0.085
-201.348	-80.443	-0.333	-0.111
-200.333	-200.000	0.005	0.136
-199.319	-200.000	-0.009	0.234
-198.304	800.000	0.037	0.138
-197.290	-200.000	0.013	0.090
-196.275	12.852	0.252	0.194
-195.260	-144.451	0.191	0.018
-194.246	-200.000	-0.044	-0.227
-193.231	-158.800	0.206	-0.012
-192.217	92.839	-0.113	0.127
-191.202	-13.720	-0.343	0.221
-190.187	-195.426	0.529	0.004
-189.173	211.842	0.006	0.010
-188.158	-200.000	0.004	0.094
-187.144	-77.030	-0.150	0.052
-186.129	101.645	0.100	-0.116
-185.114	0.357	0.281	0.200
-184.100	-135.285	-0.249	0.030
-183.085	-36.238	0.138	0.074
-182.071	-200.000	0.087	0.400
-181.056	130.359	-0.278	-0.355
-180.042	512.608	-0.028	0.065
-179.027	329.034	0.137	0.262
-178.012	-82.288	0.181	-0.059
-176.998	-200.000	0.008	-0.094
-175.983	-128.227	-0.323	-0.046
-174.969	-98.630	-0.141	0.036
-173.954	175.645	-0.128	-0.185
-172.939	-71.256	-0.167	0.062
-171.925	-41.222	-0.069	-0.035
-170.910	527.705	0.105	-0.247
-169.896	-111.008	0.158	-0.032
-168.881	105.637	-0.193	0.227
-167.866	-127.420	-0.139	0.020
-166.852	-7.171	0.109	0.073
-165.837	156.533	0.128	0.176
-164.823	293.056	0.075	0.135
-163.808	800.000	-0.126	0.473
-162.793	447.728	-0.131	0.286
-161.779	-152.992	-0.098	0.007
-160.764	-93.431	-0.352	-0.097
-159.750	800.000	-0.045	0.131
-158.735	-22.351	-0.071	-0.043
-157.720	-69.479	-0.227	0.086
-156.706	771.491	0.019	-0.053
-155.691	-58.893	-0.109	0.047
-154.677	-200.000	0.003	0.053
-153.662	59.869	-0.129	-0.127
-152.647	-142.240	-0.168	0.017
-151.633	-200.000	0.010	-0.225
-150.618	445.850	0.085	-0.186
-149.604	-74.748	0.087	0.031
-148.589	-200.000	0.037	0.326
-147.574	134.141	-0.099	0.127
-146.560	-123.851	-0.135	0.021
-145.545	-72.603	-0.350	-0.128
-144.531	-144.291	0.312	-0.029
-143.516	-120.515	0.241	0.041
-142.502	800.000	0.034	-0.106
-141.487	58.640	-0.067	0.065
-140.472	39.571	-0.102	0.091
-139.458	-0.381	-0.058	-0.041
-138.443	-23.392	0.233	-0.139
-137.429	77.108	0.143	0.151
-136.414	153.185	-0.177	0.241
-135.399	593.931	-0.017	0.043
-134.385	-74.908	-0.174	0.062
-133.370	-44.235	0.400	-0.199
-132.356	800.000	-0.090	-0.280
-131.341	-18.730	-0.136	0.084
-130.326	104.752	-0.128	-0.150
-129.312	-186.457	0.316	0.004
-128.297	-200.000	-0.007	0.220
-127.283	-158.376	-0.305	-0.018
-126.268	799.808	0.107	0.295
-125.253	246.551	-0.106	0.178
-124.239	42.784	-0.326	-0.295
-123.224	-71.201	-0.118	-0.044
-122.210	-13.020	0.078	0.050
-121.195	800.000	0.028	0.080
