DTS Sentinel unit serial number:	SN413079Multiplexer serial number:	ORYXHardware model number:	OX4-SRSoftware version number:	ORYX F/W v4.00 Oryx Data Collector v3.7.2.0data status	okinstallation	princeton_trtdifferential loss correction	single-endedforward channel	channel 2reverse channel	N/Adate	2019/09/17time	14:35:34forward acquisition time	60.00reverse acquisition time	0.00gamma	496.2192k internal	0.2313k external	0.2313temperature offset calibration	0.9985default loss term (dB/km)	0.3790temperature slope calibration	1.0000multiplexer offset coefficient	1.0000multiplexer slope coefficient	1.0000fibre end	0.00T internal ref (°C)	36.62T ext. ref 1 (°C)	0.40T ext. ref 2 (°C)	33.74length (m)	temperature (°C)	Stokes	anti-Stokes-747.200	-200.000	-0.006	0.220
-746.185	-200.000	-0.001	0.262
-745.171	-34.964	-0.189	-0.104
-744.156	-200.000	-0.031	0.252
-743.142	-51.751	0.408	0.193
-742.127	396.427	0.119	0.253
-741.112	-159.549	0.181	0.010
-740.098	-75.735	0.108	0.039
-739.083	800.000	-0.121	0.355
-738.069	800.000	0.042	0.166
-737.054	76.631	0.139	-0.149
-736.039	606.546	-0.040	-0.101
-735.025	-200.000	-0.001	0.139
-734.010	732.282	-0.045	-0.123
-732.996	-141.058	-0.230	-0.024
-731.981	34.256	-0.073	0.065
-730.966	4.438	-0.092	0.069
-729.952	-24.287	-0.178	-0.107
-728.937	565.395	0.059	0.145
-727.923	24.326	0.078	0.065
-726.908	800.000	0.051	-0.149
-725.894	-90.524	-0.184	0.054
-724.879	-44.075	-0.493	0.251
-723.864	-70.797	-0.276	-0.106
-722.850	-191.375	0.170	0.002
-721.835	-152.297	0.225	0.016
-720.821	346.555	-0.160	-0.318
-719.806	54.692	-0.059	-0.058
-718.791	-70.909	-0.215	-0.082
-717.777	-200.000	0.007	-0.038
-716.762	2.009	-0.063	-0.046
-715.748	-200.000	0.048	-0.327
-714.733	579.002	0.098	-0.244
-713.718	231.370	-0.093	-0.155
-712.704	800.000	-0.105	-0.325
-711.689	-200.000	-0.076	-0.415
-710.675	-128.766	-0.233	-0.033
-709.660	94.748	0.180	-0.207
-708.645	-103.843	0.196	-0.046
-707.631	32.738	-0.053	-0.046
-706.616	-69.149	-0.318	-0.124
-705.602	-12.332	-0.055	0.037
-704.587	-200.000	-0.036	-0.182
-703.572	36.508	-0.404	-0.361
-702.558	-145.780	-0.398	0.036
-701.543	-55.923	0.221	0.100
-700.529	-0.503	0.227	-0.163
-699.514	-52.229	-0.020	0.009
-698.499	610.783	0.057	0.143
-697.485	-12.308	-0.214	0.142
-696.470	-64.281	-0.270	-0.111
-695.456	751.185	0.072	0.196
-694.441	800.000	-0.044	0.127
-693.426	-200.000	0.064	-0.285
-692.412	84.584	0.074	-0.082
-691.397	209.443	0.056	-0.089
-690.383	-73.632	-0.288	0.106
-689.368	-64.657	0.159	-0.065
-688.354	800.000	0.033	0.127
-687.339	229.637	-0.217	-0.358
-686.324	-132.700	-0.197	-0.026
-685.310	167.722	-0.067	0.096
-684.295	-62.183	0.162	-0.068
-683.281	-200.000	-0.002	-0.012
-682.266	-99.669	-0.295	-0.075
-681.251	-200.000	-0.063	-0.324
-680.237	-126.146	0.155	-0.023
-679.222	25.960	0.219	-0.185
-678.208	104.344	0.025	0.030
-677.193	754.752	0.054	0.147
-676.178	-26.183	-0.181	-0.107
-675.164	94.295	0.137	-0.157
-674.149	-4.253	-0.040	-0.028
-673.135	-65.504	-0.132	0.054
-672.120	-58.787	0.391	-0.171
-671.105	-116.361	-0.260	-0.049
-670.091	-108.375	-0.334	0.073
-669.076	242.136	-0.073	-0.123
-668.062	340.959	-0.157	0.309
-667.047	-85.263	0.264	0.083
-666.032	-67.986	0.289	-0.114
-665.018	36.980	0.163	-0.146
-664.003	92.759	0.158	-0.180
-662.989	-200.000	-0.011	-0.115
-661.974	-96.663	-0.297	-0.079
-660.959	-86.632	-0.103	0.032
-659.945	109.217	0.137	-0.166
-658.930	-158.004	-0.259	-0.015
-657.916	-200.000	-0.021	-0.146
-656.901	800.000	0.128	-0.375
-655.886	47.021	0.141	0.133
-654.872	12.518	-0.141	0.110
-653.857	41.854	0.071	0.065
-652.843	-109.594	-0.282	0.060
-651.828	-103.360	0.229	-0.055
-650.814	303.314	0.051	0.096
-649.799	107.231	-0.161	-0.194
-648.784	-143.545	-0.079	-0.008
-647.770	-101.050	-0.203	0.050
-646.755	-200.000	-0.001	0.055
-645.741	-105.345	-0.156	-0.036
-644.726	22.545	-0.104	-0.086
-643.711	-25.826	0.103	0.061
-642.697	-200.000	0.008	-0.174
-641.682	-200.000	-0.023	0.240
-640.668	194.243	-0.107	0.164
-639.653	-140.839	0.043	-0.004
-638.638	-200.000	0.022	0.192
-637.624	-200.000	-0.013	0.110
-636.609	757.495	-0.174	0.476
-635.595	498.783	0.212	-0.494
-634.580	-155.999	-0.334	-0.021
-633.565	-87.457	0.230	-0.070
-632.551	-16.583	-0.325	-0.208
-631.536	662.182	-0.079	-0.204
-630.522	-200.000	-0.018	0.330
-629.507	91.948	0.185	-0.211
-628.492	297.487	-0.084	0.155
-627.478	-179.157	0.225	-0.005
-626.463	-101.446	-0.263	0.065
-625.449	446.143	0.080	0.178
-624.434	23.123	-0.218	0.180
-623.419	-200.000	-0.006	0.348
-622.405	242.218	-0.095	0.160
-621.390	-70.492	0.146	0.056
-620.376	-63.580	-0.177	0.073
-619.361	-107.904	0.164	0.036
-618.346	190.681	0.205	0.311
-617.332	4.809	-0.176	0.131
-616.317	478.676	0.052	0.119
-615.303	-200.000	-0.033	0.280
-614.288	162.920	0.195	0.276
-613.273	-149.345	-0.419	0.034
-612.259	-200.000	-0.051	-0.249
-611.244	511.590	-0.122	-0.287
-610.230	-200.000	0.019	-0.217
-609.215	-200.000	0.015	-0.384
-608.201	638.734	-0.017	0.043
-607.186	-200.000	0.045	0.643
-606.171	-50.017	0.147	-0.070
-605.157	357.350	-0.126	-0.253
-604.142	-200.000	-0.100	-0.522
-603.128	-200.000	-0.021	-0.182
-602.113	800.000	-0.044	0.169
-601.098	97.850	0.129	0.150
-600.084	-106.031	0.124	-0.028
-599.069	-32.901	-0.200	0.112
-598.055	-1.320	-0.191	0.136
-597.040	-66.219	-0.207	0.083
-596.025	548.924	-0.059	0.142
-595.011	-16.962	-0.011	0.007
-593.996	132.618	-0.137	-0.178
-592.982	-160.346	-0.271	-0.015
-591.967	36.800	0.038	-0.034
-590.952	-61.488	0.072	0.031
-589.938	-152.358	0.223	-0.016
-588.923	-200.000	-0.054	0.261
-587.909	-164.494	0.310	0.014
-586.894	-2.750	-0.050	0.035
-585.879	-200.000	-0.045	-0.244
-584.865	-5.314	-0.296	-0.205
-583.850	-51.913	-0.290	-0.136
-582.836	741.027	0.018	-0.049
-581.821	800.000	0.013	0.055
-580.806	188.924	0.171	0.258
-579.792	-63.334	0.434	0.180
-578.777	-85.641	-0.133	0.042
-577.763	800.000	-0.083	-0.241
-576.748	-19.876	0.161	0.100
-575.733	-77.748	0.138	0.048
-574.719	-200.000	0.021	-0.263
-573.704	34.361	-0.166	0.146
-572.690	-200.000	0.028	-0.233
-571.675	-200.000	-0.017	0.125
-570.661	-34.700	0.125	-0.069
-569.646	-85.452	-0.335	-0.105
-568.631	-115.997	-0.268	0.050
-567.617	-95.955	0.008	-0.002
-566.602	224.966	-0.176	0.288
-565.588	800.000	-0.030	0.111
-564.573	800.000	0.060	0.240
-563.558	-169.449	-0.181	0.007
-562.544	-86.080	0.130	-0.041
-561.529	-79.005	0.194	-0.066
-560.515	-200.000	0.007	-0.327
-559.500	800.000	0.135	-0.562
-558.485	800.000	0.060	-0.182
-557.471	-77.132	-0.457	0.160
-556.456	-200.000	-0.030	0.269
-555.442	-81.637	-0.223	0.074
-554.427	221.514	-0.135	-0.219
-553.412	133.137	-0.123	-0.160
-552.398	454.680	0.051	-0.115
-551.383	134.124	0.166	0.217
-550.369	-200.000	0.026	0.246
-549.354	-111.828	-0.400	0.081
-548.339	800.000	-0.101	-0.391
-547.325	-76.800	0.307	-0.108
-546.310	800.000	0.065	-0.198
-545.296	-39.786	0.057	0.030
-544.281	14.163	-0.300	-0.235
-543.266	800.000	-0.132	-0.499
-542.252	220.417	0.149	0.240
-541.237	-81.344	-0.347	-0.115
-540.223	-40.489	-0.326	-0.170
-539.208	59.210	0.256	-0.253
-538.193	-119.091	-0.241	-0.042
-537.179	222.156	-0.011	0.017
-536.164	704.776	-0.072	0.191
-535.150	-136.533	0.284	-0.033
-534.135	-86.508	-0.119	0.037
-533.121	147.088	-0.103	0.139
-532.106	-90.111	-0.252	0.074
-531.091	433.743	-0.070	0.153
-530.077	378.609	-0.135	-0.279
-529.062	-70.278	0.203	-0.077
-528.048	-111.193	-0.124	0.025
-527.033	194.060	0.188	0.286
-526.018	-200.000	-0.013	-0.401
-525.004	18.414	-0.076	-0.061
-523.989	24.254	-0.044	0.036
-522.975	-110.918	-0.156	-0.032
-521.960	-200.000	0.022	-0.294
-520.945	-17.674	-0.197	-0.124
-519.931	-103.633	-0.343	0.081
-518.916	-54.563	-0.169	-0.077
-517.902	335.179	0.085	0.166
-516.887	723.768	-0.069	-0.185
-515.872	-37.391	0.161	0.086
-514.858	-56.332	0.366	0.163
-513.843	263.819	-0.208	-0.364
-512.829	-180.146	-0.231	-0.005
-511.814	-30.194	0.227	0.129
-510.799	-133.297	-0.309	-0.039
-509.785	-44.287	-0.179	0.090
-508.770	-79.299	0.276	-0.094
-507.756	192.572	-0.129	-0.196
-506.741	-95.764	0.026	0.007
-505.726	87.442	-0.243	-0.271
-504.712	-193.998	-0.089	-0.001
-503.697	430.999	0.120	-0.262
-502.683	65.634	-0.042	-0.043
-501.668	-120.592	0.378	0.064
-500.653	800.000	0.055	-0.194
-499.639	478.287	-0.073	0.166
-498.624	800.000	-0.082	0.234
-497.610	100.752	-0.175	-0.204
-496.595	-95.495	-0.186	0.050
-495.581	-28.325	0.212	0.123
-494.566	701.418	-0.163	0.431
-493.551	-125.663	0.263	-0.040
-492.537	-185.409	0.251	-0.004
-491.522	-28.119	0.095	-0.055
-490.508	-54.052	0.299	0.136
-489.493	-161.428	0.274	0.014
-488.478	17.717	0.099	0.079
-487.464	-115.255	-0.102	0.019
-486.449	-200.000	-0.009	0.043
-485.435	347.393	0.053	-0.105
-484.420	-125.007	0.368	0.057
-483.405	65.363	-0.126	0.128
-482.391	-144.775	-0.124	0.011
-481.376	-200.000	0.004	-0.093
-480.362	148.378	0.076	-0.103
-479.347	-82.936	-0.116	0.038
-478.332	-86.947	-0.299	-0.091
-477.318	109.240	0.158	0.190
-476.303	37.481	-0.184	0.164
-475.289	-22.912	-0.386	-0.234
-474.274	-85.737	-0.138	-0.043
-473.259	45.488	-0.048	0.044
-472.245	-128.073	-0.249	-0.036
-471.230	-200.000	-0.006	0.197
-470.216	-31.601	-0.036	0.020
-469.201	253.875	0.036	0.062
-468.186	180.951	0.066	0.098
-467.172	-128.675	0.093	-0.013
-466.157	-38.553	0.069	0.036
-465.143	294.720	-0.032	0.059
-464.128	760.909	-0.141	-0.383
-463.113	78.701	-0.204	0.219
-462.099	-54.456	0.276	-0.126
-461.084	-200.000	0.034	-0.170
-460.070	-100.554	-0.112	0.028
-459.055	-11.798	-0.547	0.360
-458.040	64.661	-0.203	0.205
-457.026	-113.883	-0.296	0.058
-456.011	52.752	-0.219	-0.210
-454.997	800.000	0.048	-0.164
-453.982	-123.374	-0.492	-0.079
-452.968	7.381	0.107	-0.080
-451.953	-31.823	0.165	-0.093
-450.938	-0.932	0.095	0.067
-449.924	265.345	-0.148	0.259
-448.909	-35.628	-0.156	-0.085
-447.895	-10.012	-0.044	0.029
-446.880	120.848	0.083	-0.104
-445.865	175.162	-0.137	-0.199
-444.851	-200.000	0.016	0.460
-443.836	-76.351	0.212	0.075
-442.822	-72.715	0.256	-0.095
-441.807	-137.305	0.212	-0.024
-440.792	59.430	0.084	0.083
-439.778	-88.037	-0.199	0.060
-438.763	98.739	-0.133	0.154
-437.749	-200.000	-0.073	0.357
-436.734	-146.874	0.055	-0.005
-435.719	50.086	0.242	0.229
-434.705	-200.000	0.043	0.265
-433.690	-28.632	0.384	-0.222
-432.676	-122.690	0.417	0.068
-431.661	-113.339	0.408	-0.080
-430.646	239.214	0.271	0.452
-429.632	-200.000	-0.038	0.173
-428.617	-200.000	-0.019	-0.139
-427.603	800.000	-0.099	0.277
-426.588	350.677	-0.105	0.208
-425.573	58.960	0.070	0.069
-424.559	304.444	0.245	-0.456
-423.544	378.239	-0.036	-0.074
-422.530	800.000	0.083	-0.282
-421.515	32.289	-0.193	0.167
-420.500	-175.691	-0.406	0.011
-419.486	101.959	-0.105	-0.123
-418.471	42.144	0.151	-0.138
-417.457	5.366	0.189	-0.139
-416.442	63.211	-0.136	0.136
-415.428	-106.475	0.182	-0.041
-414.413	-24.693	-0.342	-0.204
-413.398	-97.739	-0.069	-0.018
-412.384	-200.000	0.027	0.165
-411.369	32.186	0.349	0.301
-410.355	64.502	-0.038	0.039
-409.340	-0.312	-0.256	0.182
-408.325	-200.000	0.045	-0.300
-407.311	-24.769	0.134	-0.080
-406.296	-62.806	-0.088	-0.037
-405.282	15.877	0.257	0.203
-404.267	4.389	0.146	-0.107
-403.252	155.386	-0.234	0.322
-402.238	-200.000	-0.032	0.143
-401.223	-179.875	0.069	-0.001
-400.209	24.652	-0.170	0.141
-399.194	-200.000	0.027	0.165
-398.179	-75.253	0.035	-0.013
-397.165	-200.000	-0.013	-0.291
-396.150	-32.061	-0.161	0.090
-395.136	457.274	-0.136	-0.302
-394.121	-200.000	0.004	-0.410
-393.106	-82.691	0.099	-0.032
-392.092	116.000	0.134	0.164
-391.077	800.000	0.067	-0.199
-390.063	-49.828	-0.110	0.052
-389.048	-98.503	-0.436	0.111
-388.033	5.965	0.076	-0.056
-387.019	11.306	0.143	-0.109
-386.004	-200.000	0.001	-0.324
-384.990	-29.518	-0.143	-0.082
-383.975	-1.771	-0.250	0.176
-382.960	-59.959	-0.280	0.120
-381.946	-200.000	-0.037	-0.300
-380.931	79.564	0.178	0.191
-379.917	-112.809	0.110	0.022
-378.902	41.130	-0.134	0.121
-377.888	25.594	-0.403	-0.335
-376.873	-130.669	-0.349	-0.047
-375.858	-200.000	0.055	-0.463
-374.844	-200.000	-0.001	-0.014
-373.829	-111.044	0.301	-0.062
-372.815	-16.209	0.058	-0.037
-371.800	117.384	-0.274	-0.337
-370.785	30.675	-0.012	-0.011
-369.771	800.000	0.040	-0.129
-368.756	-200.000	-0.014	-0.112
-367.742	311.855	0.067	-0.125
-366.727	-133.624	-0.390	0.049
-365.712	335.973	0.156	-0.303
-364.698	414.666	-0.125	-0.265
-363.683	101.081	0.140	0.162
-362.669	90.436	0.289	0.323
-361.654	159.001	-0.098	-0.136
-360.639	-131.896	0.192	-0.025
-359.625	68.886	-0.152	-0.156
-358.610	17.322	-0.218	-0.173
-357.596	-200.000	-0.031	-0.168
-356.581	-68.305	0.114	-0.044
-355.566	785.016	0.143	0.391
-354.552	-168.776	-0.134	0.005
-353.537	481.385	-0.130	0.295
-352.523	-65.059	-0.182	0.073
-351.508	-200.000	0.032	0.178
-350.493	-53.859	0.256	0.117
-349.479	-85.709	0.174	-0.054
-348.464	435.854	0.224	-0.487
-347.450	5.246	-0.154	-0.114
-346.435	-173.626	0.263	-0.008
-345.420	409.075	-0.045	0.096
-344.406	-58.530	-0.061	-0.027
-343.391	437.088	0.133	-0.288
-342.377	800.000	0.037	-0.105
-341.362	-200.000	0.015	0.189
-340.348	-200.000	-0.004	-0.060
-339.333	-93.960	0.464	-0.127
-338.318	800.000	0.127	0.486
-337.304	10.811	-0.091	-0.069
-336.289	-113.517	-0.167	-0.033
-335.275	-137.935	0.171	-0.019
-334.260	-200.000	0.015	-0.129
-333.245	155.629	-0.217	0.299
-332.231	392.285	0.065	0.136
-331.216	-101.771	0.196	0.047
-330.202	509.426	-0.098	-0.228
-329.187	-173.047	0.549	0.017
-328.172	249.201	-0.145	-0.245
-327.158	-200.000	-0.043	0.281
-326.143	52.316	-0.090	0.085
-325.129	800.000	-0.032	0.117
-324.114	-98.704	0.250	0.063
-323.099	0.575	-0.250	-0.179
-322.085	21.129	-0.061	-0.049
-321.070	116.895	0.073	0.089
-320.056	-200.000	0.017	0.336
-319.041	800.000	-0.089	-0.291
-318.026	-109.468	0.058	-0.012
-317.012	-200.000	-0.051	0.252
-315.997	119.227	0.102	-0.126
-314.983	-200.000	-0.012	0.225
-313.968	800.000	0.038	0.165
-312.953	223.421	0.221	-0.356
-311.939	-159.585	-0.359	0.020
-310.924	-200.000	0.071	0.332
-309.910	-200.000	-0.011	0.189
-308.895	228.857	0.150	0.244
-307.880	800.000	-0.018	0.063
-306.866	31.945	0.129	-0.111
-305.851	-34.589	0.183	0.100
-304.837	-119.525	0.064	-0.011
-303.822	-34.952	0.498	0.271
-302.807	800.000	-0.053	0.191
-301.793	217.815	-0.181	0.288
-300.778	-144.405	0.335	-0.031
-299.764	-200.000	0.030	-0.277
-298.749	489.686	0.061	-0.138
-297.735	-200.000	-0.312	0.000
-296.720	800.000	0.083	0.306
-295.705	-129.399	0.223	0.031
-294.691	-200.000	0.035	-0.155
-293.676	155.569	-0.053	-0.073
-292.662	373.414	-0.235	0.477
-291.647	71.934	0.101	0.105
-290.632	108.462	0.168	0.200
-289.618	-131.356	0.234	-0.031
-288.603	6.538	-0.234	-0.173
-287.589	-112.218	-0.162	0.032
-286.574	-134.378	-0.216	-0.026
-285.559	-122.524	0.183	0.030
-284.545	57.885	0.082	0.080
-283.530	-12.890	0.285	-0.185
-282.516	590.975	-0.038	0.094
-281.501	66.152	0.027	-0.027
-280.486	141.773	-0.316	-0.417
-279.472	-95.706	0.302	-0.080
-278.457	0.605	0.308	0.220
-277.443	-200.000	-0.001	0.271
-276.428	73.897	0.337	0.352
-275.413	342.389	0.043	-0.084
-274.399	51.311	0.166	0.157
-273.384	-83.327	0.355	-0.114
-272.370	-200.000	0.001	0.039
-271.355	187.050	-0.071	-0.105
-270.340	324.871	-0.089	0.169
-269.326	-40.789	-0.128	0.066
-268.311	31.344	-0.142	-0.122
-267.297	800.000	0.041	-0.137
-266.282	284.953	0.121	0.218
-265.267	-146.126	0.330	-0.029
-264.253	-130.784	-0.025	-0.003
-263.238	-13.688	0.219	0.141
-262.224	800.000	0.059	0.189
-261.209	-35.615	-0.146	0.079
-260.195	97.973	0.135	-0.155
-259.180	-84.961	0.138	0.043
-258.165	800.000	0.083	-0.331
-257.151	52.459	0.154	-0.146
-256.136	-123.602	-0.181	0.029
-255.122	521.312	0.128	-0.299
-254.107	-200.000	0.031	0.228
-253.092	41.255	0.226	-0.203
-252.078	184.170	-0.016	0.023
-251.063	200.781	0.101	0.154
-250.049	-82.759	-0.056	0.018
-249.034	-200.000	-0.024	-0.320
-248.019	0.912	-0.159	0.113
-247.005	-50.766	0.228	0.107
-245.990	274.621	-0.098	0.172
-244.976	53.715	-0.307	-0.294
-243.961	-34.255	-0.090	-0.049
-242.946	153.576	-0.178	-0.243
-241.932	-43.605	0.251	-0.126
-240.917	782.756	0.054	-0.146
-239.903	-32.781	0.200	0.111
-238.888	0.736	0.196	0.139
-237.873	0.550	-0.365	0.260
-236.859	-200.000	-0.016	0.234
-235.844	24.346	0.066	0.054
-234.830	800.000	-0.080	0.311
-233.815	224.670	0.101	0.162
-232.800	74.459	0.276	0.288
-231.786	734.036	0.086	0.228
-230.771	86.347	-0.349	-0.382
-229.757	800.000	-0.035	0.137
-228.742	-11.070	0.402	-0.263
-227.727	-50.471	-0.175	0.082
-226.713	-142.623	0.130	-0.013
-225.698	-99.016	0.336	-0.085
-224.684	-116.600	-0.169	0.031
-223.669	-83.613	0.127	0.040
-222.655	-182.414	0.194	0.004
-221.640	-166.668	0.094	-0.004
-220.625	-88.099	-0.049	0.015
-219.611	-200.000	-0.018	-0.151
-218.596	800.000	0.057	-0.176
-217.582	3.658	-0.133	0.096
-216.567	163.476	0.135	0.189
-215.552	86.057	-0.282	0.309
-214.538	-114.803	-0.029	0.005
-213.523	474.967	0.113	0.253
-212.509	-5.741	0.308	0.210
-211.494	50.726	-0.173	-0.162
-210.479	-133.986	0.143	-0.018
-209.465	-200.000	0.040	-0.214
-208.450	-200.000	-0.045	-0.225
-207.436	225.522	0.343	-0.551
-206.421	33.866	-0.039	0.034
-205.406	509.104	0.041	-0.096
-204.392	117.449	0.103	-0.126
-203.377	800.000	-0.101	-0.313
-202.363	40.577	0.274	0.245
-201.348	-49.367	0.122	0.058
-200.333	-200.000	0.000	0.052
-199.319	800.000	0.095	-0.308
-198.304	98.682	-0.150	0.172
-197.290	-18.498	0.154	0.096
-196.275	-15.644	0.280	-0.178
-195.260	800.000	-0.022	-0.093
-194.246	149.857	-0.117	0.157
-193.231	-85.735	0.092	-0.028
-192.217	76.600	-0.284	-0.299
-191.202	468.743	0.125	0.279
-190.187	-200.000	0.012	0.287
-189.173	-34.270	0.463	0.252
-188.158	156.866	-0.102	0.140
-187.144	126.726	-0.050	-0.063
-186.129	-200.000	0.012	0.285
-185.114	-159.015	0.166	0.009
-184.100	-82.050	0.203	0.066
-183.085	-26.341	0.075	-0.044
-182.071	-72.070	0.119	0.044
-181.056	321.949	0.136	0.258
-180.042	-73.190	-0.313	-0.114
-179.027	-102.465	0.141	0.033
-178.012	106.956	0.085	0.100
-176.998	800.000	0.147	0.506
-175.983	175.878	-0.172	-0.248
-174.969	-32.955	0.226	-0.125
-173.954	-51.264	0.223	-0.104
-172.939	230.601	-0.109	0.176
-171.925	-129.169	-0.289	-0.040
-170.910	-39.597	-0.370	-0.192
-169.896	-115.927	-0.400	-0.074
-168.881	297.513	-0.176	-0.320
-167.866	-40.315	0.089	-0.046
-166.852	409.309	-0.058	-0.123
-165.837	601.917	-0.036	-0.088
-164.823	-15.595	-0.080	-0.051
-163.808	-97.396	0.179	-0.046
-162.793	48.112	-0.164	0.152
-161.779	98.686	0.213	-0.244
-160.764	-70.171	0.080	-0.030
-159.750	209.709	-0.117	-0.182
-158.735	-152.501	0.146	0.010
-157.720	124.260	-0.298	-0.371
-156.706	710.242	0.206	-0.541
-155.691	-17.625	-0.346	-0.216
-154.677	-200.000	0.081	0.367
-153.662	-152.629	0.315	0.022
-152.647	-24.704	-0.240	-0.141
-151.633	-157.294	0.265	0.016
-150.618	800.000	-0.062	0.238
-149.604	106.724	-0.068	-0.080
-148.589	194.936	0.133	-0.201
-147.574	8.427	-0.167	-0.125
-146.560	-200.000	0.063	0.286
-145.545	-72.646	0.574	-0.210
-144.531	-130.624	0.201	0.027
-143.516	-200.000	-0.029	0.177
-142.502	0.604	0.166	0.118
-141.487	-200.000	-0.001	-0.035
-140.472	568.250	-0.115	0.277
-139.458	193.830	-0.072	-0.107
-138.443	186.017	-0.145	-0.214
-137.429	-3.824	-0.085	0.058
-136.414	-200.000	-0.011	0.472
-135.399	-200.000	0.039	-0.230
-134.385	-200.000	0.004	-0.176
-133.370	-200.000	0.009	0.246
-132.356	115.429	-0.208	0.251
-131.341	-159.466	-0.228	0.013
-130.326	-200.000	0.046	0.279
-129.312	101.919	0.153	0.176
-128.297	-139.411	-0.144	-0.015
-127.283	-117.585	-0.076	-0.014
-126.268	-200.000	-0.019	0.402
-125.253	169.886	-0.063	-0.089
-124.239	-33.271	0.174	-0.095
-123.224	-122.951	-0.355	0.057
-122.210	19.463	-0.083	0.066
-121.195	-200.000	0.012	0.076
