DTS Sentinel unit serial number:	SN413079Multiplexer serial number:	ORYXHardware model number:	OX4-SRSoftware version number:	ORYX F/W v4.00 Oryx Data Collector v3.7.2.0data status	okinstallation	princeton_trtdifferential loss correction	single-endedforward channel	channel 2reverse channel	N/Adate	2019/09/12time	19:01:48forward acquisition time	15.00reverse acquisition time	0.00gamma	496.2192k internal	0.2324k external	0.2324temperature offset calibration	1.0136default loss term (dB/km)	0.3790temperature slope calibration	1.0000multiplexer offset coefficient	1.0000multiplexer slope coefficient	1.0000fibre end	0.00T internal ref (°C)	32.75T ext. ref 1 (°C)	3.02T ext. ref 2 (°C)	27.26length (m)	temperature (°C)	Stokes	anti-Stokes-747.200	157.679	-0.284	0.397
-746.185	100.694	-0.234	0.275
-745.171	-159.940	-0.490	-0.027
-744.156	228.484	-0.265	0.436
-743.142	53.342	0.476	-0.461
-742.127	-38.493	-0.365	0.195
-741.112	553.515	0.105	-0.256
-740.098	-147.851	-0.195	-0.016
-739.083	346.960	0.149	0.296
-738.069	-117.819	-0.210	-0.038
-737.054	18.809	0.418	0.337
-736.039	-116.795	-0.795	-0.147
-735.025	800.000	0.137	-0.468
-734.010	15.847	-0.360	-0.285
-732.996	-200.000	-0.036	0.727
-731.981	-74.301	0.160	-0.058
-730.966	-200.000	-0.030	-0.493
-729.952	152.412	0.409	-0.564
-728.937	-200.000	-0.085	-0.451
-727.923	435.343	-0.177	0.389
-726.908	800.000	-0.068	0.252
-725.894	142.904	-0.646	-0.866
-724.879	63.935	0.369	-0.374
-723.864	390.994	-0.224	-0.468
-722.850	87.627	-0.552	-0.616
-721.835	-100.298	0.727	0.182
-720.821	14.398	0.111	-0.087
-719.806	185.106	-0.119	-0.178
-718.791	-146.661	0.848	-0.074
-717.777	800.000	-0.087	0.344
-716.762	-4.503	0.606	-0.422
-715.748	556.259	0.193	0.468
-714.733	448.626	-0.231	-0.513
-713.718	-49.648	0.256	0.123
-712.704	-200.000	0.098	-0.629
-711.689	4.918	0.386	0.286
-710.675	-41.498	0.340	0.177
-709.660	-6.196	0.531	0.366
-708.645	154.566	-0.148	-0.205
-707.631	800.000	0.188	0.658
-706.616	-55.736	0.264	-0.119
-705.602	-78.654	-0.512	0.176
-704.587	-70.582	0.274	0.105
-703.572	295.083	0.282	-0.521
-702.558	-46.962	0.305	0.150
-701.543	-200.000	0.047	0.217
-700.529	-29.217	-0.476	0.275
-699.514	83.279	-0.247	0.271
-698.499	-35.856	-0.662	-0.361
-697.485	-167.165	0.443	0.018
-696.470	-200.000	0.004	-0.028
-695.456	-200.000	-0.007	0.047
-694.441	800.000	0.069	-0.297
-693.426	398.824	0.289	-0.610
-692.412	-11.068	0.464	0.309
-691.397	21.792	0.290	-0.238
-690.383	800.000	0.087	0.370
-689.368	82.996	0.479	0.524
-688.354	202.251	0.308	-0.478
-687.339	-200.000	0.019	-0.632
-686.324	-53.146	-0.403	-0.186
-685.310	675.344	0.250	-0.654
-684.295	-200.000	-0.038	-0.279
-683.281	45.920	0.443	-0.413
-682.266	180.301	0.121	0.178
-681.251	800.000	0.297	-1.088
-680.237	263.327	0.485	-0.848
-679.222	-145.674	-0.304	-0.027
-678.208	-168.285	0.813	-0.032
-677.193	800.000	0.072	-0.223
-676.178	514.308	-0.254	-0.597
-675.164	310.941	-0.071	-0.134
-674.149	-112.434	0.302	-0.061
-673.135	-49.699	0.303	-0.145
-672.120	52.125	0.215	-0.206
-671.105	221.896	0.207	-0.335
-670.091	283.284	-0.125	0.225
-669.076	800.000	-0.300	-1.027
-668.062	800.000	0.160	0.561
-667.047	-1.968	0.359	-0.254
-666.032	-119.342	-0.228	0.040
-665.018	-115.485	0.238	0.045
-664.003	-186.113	0.832	0.012
-662.989	-200.000	0.052	-0.315
-661.974	-35.487	-0.595	-0.325
-660.959	800.000	-0.333	1.048
-659.945	-58.358	-0.440	0.193
-658.930	-75.510	0.416	-0.149
-657.916	800.000	-0.030	-0.102
-656.901	78.567	-0.533	-0.573
-655.886	-200.000	-0.004	0.120
-654.872	-200.000	0.060	1.098
-653.857	-127.652	-0.239	-0.035
-652.843	-131.641	-0.720	-0.095
-651.828	111.818	0.278	-0.338
-650.814	442.660	-0.539	-1.188
-649.799	-138.339	-0.074	0.008
-648.784	-84.384	-0.297	-0.094
-647.770	99.830	0.414	0.483
-646.755	-29.520	0.204	-0.117
-645.741	-48.716	0.222	0.107
-644.726	-200.000	0.012	-0.289
-643.711	-57.576	0.436	-0.192
-642.697	-46.189	0.284	0.141
-641.682	800.000	-0.166	-0.519
-640.668	22.415	-0.672	0.552
-639.653	-39.419	-0.359	-0.189
-638.638	-32.885	-0.599	0.335
-637.624	-89.476	0.622	0.184
-636.609	373.007	0.061	0.125
-635.595	339.913	0.160	0.314
-634.580	-12.278	-0.039	-0.026
-633.565	-200.000	0.069	-0.553
-632.551	-104.188	0.217	0.051
-631.536	800.000	-0.213	0.605
-630.522	-200.000	0.056	0.332
-629.507	-200.000	0.028	-0.277
-628.492	-151.076	-0.397	0.030
-627.478	-92.666	0.274	0.077
-626.463	-178.975	0.974	-0.022
-625.449	-133.803	-0.129	0.016
-624.434	259.735	-0.594	-1.031
-623.419	-200.000	0.015	0.209
-622.405	110.484	0.319	-0.385
-621.390	57.420	-0.428	-0.420
-620.376	68.404	-0.646	0.665
-619.361	-23.063	-0.390	-0.236
-618.346	-22.574	-0.846	-0.514
-617.332	106.635	0.292	-0.348
-616.317	800.000	0.220	0.635
-615.303	-200.000	0.064	0.976
-614.288	577.630	-0.224	0.549
-613.273	-200.000	-0.014	-0.514
-612.259	-68.920	0.314	-0.121
-611.244	-200.000	-0.053	0.381
-610.230	91.708	0.453	0.512
-609.215	275.186	-0.124	0.221
-608.201	105.027	0.061	0.072
-607.186	625.996	0.090	0.228
-606.171	-105.840	-0.219	0.050
-605.157	542.187	0.220	0.527
-604.142	-58.173	0.357	-0.156
-603.128	42.342	-0.553	-0.505
-602.113	-122.123	-0.511	0.084
-601.098	614.056	-0.202	-0.507
-600.084	800.000	0.105	0.411
-599.069	-161.093	-1.198	0.063
-598.055	-200.000	0.025	0.183
-597.040	-118.197	-0.266	-0.048
-596.025	-163.335	0.380	0.018
-595.011	-119.147	-0.827	-0.145
-593.996	62.190	0.476	-0.476
-592.982	272.291	-0.202	-0.357
-591.967	253.382	0.063	-0.107
-590.952	130.738	0.275	-0.354
-589.938	373.689	-0.424	-0.864
-588.923	800.000	-0.195	-0.577
-587.909	-94.372	0.114	0.031
-586.894	-200.000	-0.068	-0.504
-585.879	-56.977	0.044	-0.019
-584.865	-200.000	0.010	-0.588
-583.850	-200.000	0.053	0.380
-582.836	-145.801	0.226	0.020
-581.821	-56.901	0.222	0.098
-580.806	-8.593	-0.491	-0.331
-579.792	109.775	-0.344	0.414
-578.777	-163.342	-0.981	0.047
-577.763	-101.573	-0.380	0.093
-576.748	70.189	-0.304	-0.314
-575.733	-121.049	-0.757	-0.127
-574.719	366.916	0.084	0.169
-573.704	690.945	-0.109	-0.287
-572.690	-92.530	0.829	0.233
-571.675	-1.319	-0.634	0.449
-570.661	-118.641	0.683	0.121
-569.646	-34.789	0.351	0.192
-568.631	-16.221	0.581	0.370
-567.617	112.221	0.297	0.360
-566.602	240.912	-0.378	0.632
-565.588	165.496	0.249	-0.353
-564.573	800.000	-0.155	-0.515
-563.558	-110.664	-0.489	0.101
-562.544	81.105	-0.488	-0.528
-561.529	-200.000	-0.233	1.173
-560.515	556.974	0.276	-0.667
-559.500	763.488	-0.110	0.298
-558.485	-123.069	-0.710	0.114
-557.471	-61.998	0.446	-0.187
-556.456	275.484	0.487	-0.866
-555.442	-69.482	0.560	0.215
-554.427	800.000	0.102	-0.370
-553.412	261.822	0.244	-0.424
-552.398	217.266	-0.350	0.559
-551.383	-10.515	0.477	0.316
-550.369	-200.000	0.125	-0.577
-549.354	800.000	0.115	0.425
-548.339	-32.023	-0.500	-0.280
-547.325	-200.000	0.029	-0.292
-546.310	278.165	-0.229	0.408
-545.296	-66.550	-0.420	-0.167
-544.281	4.861	0.532	0.392
-543.266	276.819	0.234	0.416
-542.252	255.879	-0.362	-0.622
-541.237	40.339	-0.342	0.309
-540.223	86.076	-0.570	-0.629
-539.208	-82.686	0.773	0.250
-538.193	-166.763	-0.735	0.030
-537.179	89.053	0.232	-0.259
-536.164	11.937	-0.470	-0.362
-535.150	0.062	-0.439	-0.313
-534.135	193.014	-0.506	0.766
-533.121	409.869	-0.343	-0.728
-532.106	264.963	0.201	0.351
-531.091	-18.933	-0.696	-0.433
-530.077	-200.000	0.027	0.710
-529.062	49.064	0.633	-0.595
-528.048	-67.244	-0.349	0.137
-527.033	350.165	-0.165	-0.326
-526.018	46.057	-0.601	0.557
-525.004	-67.504	-0.903	0.354
-523.989	-168.089	-0.469	0.018
-522.975	-200.000	0.061	0.737
-521.960	412.934	0.207	-0.441
-520.945	800.000	0.170	-0.555
-519.931	667.834	0.134	0.346
-518.916	105.960	0.625	-0.740
-517.902	188.506	0.398	0.596
-516.887	-7.535	-0.422	0.285
-515.872	800.000	0.102	0.383
-514.858	24.133	0.346	0.286
-513.843	800.000	0.188	-0.696
-512.829	-65.210	-0.132	0.053
-511.814	54.614	0.236	-0.228
-510.799	163.996	0.654	-0.921
-509.785	30.295	0.439	-0.375
-508.770	-104.523	-0.545	0.126
-507.756	-53.544	0.121	0.055
-506.741	-26.991	0.483	0.282
-505.726	75.341	0.404	0.427
-504.712	-200.000	0.108	-0.608
-503.697	87.753	0.400	-0.443
-502.683	-200.000	-0.006	-0.148
-501.668	-87.380	-0.717	0.217
-500.653	-200.000	0.066	0.486
-499.639	105.497	0.324	0.383
-498.624	-5.633	0.841	0.576
-497.610	-48.341	0.219	0.105
-496.595	18.216	0.176	0.141
-495.581	30.017	-0.485	0.414
-494.566	800.000	0.171	0.541
-493.551	400.484	0.163	-0.342
-492.537	153.564	0.329	0.450
-491.522	-168.185	-0.939	-0.036
-490.508	97.978	0.194	-0.223
-489.493	800.000	-0.183	-0.547
-488.478	-160.490	0.507	0.027
-487.464	15.660	-0.330	0.260
-486.449	-56.112	-0.031	-0.014
-485.435	219.514	-0.273	0.436
-484.420	58.302	-0.330	0.323
-483.405	-54.067	-0.070	0.032
-482.391	800.000	0.296	-1.279
-481.376	-93.470	-0.689	-0.190
-480.362	-200.000	0.046	0.238
-479.347	-121.494	-0.953	-0.158
-478.332	447.861	0.224	0.493
-477.318	-78.462	-0.751	0.257
-476.303	-200.000	-0.152	0.761
-475.289	501.830	0.189	-0.436
-474.274	-115.169	0.322	0.061
-473.259	-200.000	0.003	-0.278
-472.245	800.000	-0.120	-0.338
-471.230	-124.110	-0.617	-0.097
-470.216	-50.593	0.836	-0.393
-469.201	574.883	0.290	-0.708
-468.186	-74.719	0.642	-0.230
-467.172	27.012	0.428	0.358
-466.157	-173.641	0.143	-0.004
-465.143	-143.519	0.250	0.024
-464.128	73.456	0.693	-0.724
-463.113	-200.000	-0.080	0.764
-462.099	61.295	-0.144	0.143
-461.084	800.000	0.045	0.163
-460.070	-99.422	0.392	-0.099
-459.055	-164.231	0.470	-0.022
-458.040	-51.830	0.412	-0.191
-457.026	-200.000	-0.020	0.165
-456.011	-153.196	0.644	-0.045
-454.997	-200.000	0.033	-0.336
-453.982	800.000	0.206	-0.703
-452.968	-23.633	-0.652	-0.390
-451.953	-84.957	0.432	-0.135
-450.938	-74.168	0.419	0.151
-449.924	-66.321	-0.079	0.031
-448.909	-200.000	0.113	0.641
-447.895	-35.482	-0.421	-0.228
-446.880	-139.678	0.972	-0.103
-445.865	160.166	-0.471	-0.655
-444.851	800.000	0.096	0.395
-443.836	-109.969	0.353	-0.074
-442.822	191.205	0.519	0.780
-441.807	59.096	0.400	-0.392
-440.792	99.008	-0.074	-0.086
-439.778	296.487	0.182	0.332
-438.763	237.658	0.127	-0.211
-437.749	-4.641	0.260	-0.179
-436.734	-200.000	0.005	-0.461
-435.719	52.844	-0.408	0.389
-434.705	-30.644	-0.736	-0.415
-433.690	-15.613	0.573	-0.364
-432.676	-126.068	-0.341	0.051
-431.661	-1.319	-0.298	0.210
-430.646	-136.559	0.390	-0.045
-429.632	-28.992	-0.079	-0.045
-428.617	14.410	-0.753	0.586
-427.603	756.816	0.048	0.129
-426.588	25.699	-0.762	-0.633
-425.573	488.223	-0.377	-0.858
-424.559	-176.767	-0.228	-0.006
-423.544	-97.249	-0.952	-0.247
-422.530	104.295	0.167	-0.196
-421.515	77.041	-0.359	-0.380
-420.500	800.000	-0.204	-0.682
-419.486	-19.920	0.641	-0.394
-418.471	322.819	0.344	-0.654
-417.457	-123.037	-0.187	-0.030
-416.442	19.510	0.359	0.287
-415.428	-108.770	-0.576	-0.123
-414.413	-156.192	0.419	0.026
-413.398	800.000	-0.083	0.335
-412.384	51.414	0.018	-0.017
-411.369	-200.000	-0.185	1.314
-410.355	764.050	-0.430	1.163
-409.340	-200.000	0.057	0.373
-408.325	102.393	-0.299	0.348
-407.311	-47.763	-0.159	-0.077
-406.296	60.716	0.433	0.428
-405.282	60.611	-0.349	-0.345
-404.267	595.546	0.056	0.139
-403.252	175.762	-0.207	0.300
-402.238	301.620	0.542	0.997
-401.223	386.479	0.202	-0.416
-400.209	-13.340	-0.159	-0.102
-399.194	800.000	0.249	0.980
-398.179	-200.000	-0.022	-0.867
-397.165	-20.502	0.693	0.424
-396.150	350.309	-0.208	0.409
-395.136	-183.550	-0.255	-0.004
-394.121	-116.872	0.101	-0.018
-393.106	-8.786	-0.442	0.295
-392.092	20.025	-0.286	0.229
-391.077	-102.258	-0.849	0.203
-390.063	78.974	-0.410	-0.437
-389.048	-200.000	0.104	0.517
-388.033	7.444	0.337	0.251
-387.019	-78.427	0.321	0.109
-386.004	-200.000	0.113	0.531
-384.990	-62.529	-0.321	-0.133
-383.975	549.949	-0.030	-0.070
-382.960	-84.666	0.924	-0.290
-381.946	92.226	0.528	0.591
-380.931	-86.093	-0.600	-0.184
-379.917	199.917	-0.180	-0.275
-378.902	-200.000	0.048	-0.511
-377.888	-83.845	0.164	0.052
-376.873	-200.000	0.043	0.900
-375.858	-86.948	0.323	0.098
-374.844	800.000	0.140	0.593
-373.829	48.512	0.374	0.348
-372.815	8.350	-0.510	0.381
-371.800	-9.426	0.183	0.122
-370.785	21.668	0.468	-0.379
-369.771	-1.245	0.906	0.637
-368.756	442.212	-0.427	-0.930
-367.742	-72.802	0.070	0.025
-366.727	800.000	0.124	0.514
-365.712	16.068	0.504	0.395
-364.698	800.000	-0.389	1.129
-363.683	547.191	0.127	-0.303
-362.669	-73.370	0.502	0.183
-361.654	34.982	-0.279	0.243
-360.639	83.970	0.167	-0.181
-359.625	800.000	0.217	-0.874
-358.610	157.226	0.352	0.484
-357.596	-116.492	-0.966	-0.177
-356.581	-54.781	-0.418	-0.187
-355.566	-200.000	0.025	-0.384
-354.552	-66.586	0.805	-0.317
-353.537	156.179	-0.282	-0.387
-352.523	154.916	-0.348	0.476
-351.508	-200.000	0.132	-1.562
-350.493	-68.489	0.485	0.187
-349.479	159.345	-0.337	-0.465
-348.464	9.311	-0.916	-0.688
-347.450	-32.765	0.820	-0.453
-346.435	216.463	-0.386	0.610
-345.420	-42.329	0.584	-0.296
-344.406	65.183	-0.347	0.348
-343.391	15.649	0.481	0.376
-342.377	294.088	0.304	-0.552
-341.362	-59.121	-0.445	-0.191
-340.348	-200.000	0.045	-1.223
-339.333	-161.909	0.480	0.024
-338.318	-38.051	0.032	-0.017
-337.304	229.371	-0.191	-0.310
-336.289	-200.000	0.086	-0.502
-335.275	-52.668	0.089	0.041
-334.260	-20.638	0.454	0.277
-333.245	80.761	-0.220	0.235
-332.231	-99.415	0.620	-0.155
-331.216	-155.463	-0.681	-0.044
-330.202	800.000	0.099	-0.292
-329.187	31.067	-0.255	-0.217
-328.172	183.303	-0.823	-1.208
-327.158	-125.005	0.993	-0.152
-326.143	-114.468	-0.255	-0.049
-325.129	-93.165	-1.124	0.310
-324.114	310.747	-0.172	0.319
-323.099	55.076	-0.408	-0.391
-322.085	16.707	-0.248	0.195
-321.070	-47.880	0.180	0.086
-320.056	153.595	0.543	0.739
-319.041	-200.000	-0.025	0.135
-318.026	800.000	0.145	0.409
-317.012	-107.072	-0.739	0.162
-315.997	71.509	-0.729	0.751
-314.983	-64.030	1.013	-0.411
-313.968	-200.000	-0.009	-0.408
-312.953	-200.000	-0.008	-0.147
-311.939	127.528	-0.316	0.399
-310.924	536.468	0.126	-0.296
-309.910	167.872	-0.254	-0.358
-308.895	179.230	0.286	0.415
-307.880	-150.984	-0.396	0.030
-306.866	-29.747	0.695	-0.394
-305.851	57.726	-1.109	1.076
-304.837	-75.719	-1.000	0.352
-303.822	18.293	1.078	0.854
-302.807	-129.035	0.587	0.081
-301.793	-200.000	-0.128	-0.756
-300.778	-20.838	0.744	-0.452
-299.764	602.954	-0.271	-0.669
-298.749	-141.028	-0.137	-0.014
-297.735	166.367	0.284	-0.399
-296.720	-44.027	-0.337	-0.168
-295.705	-109.435	0.231	0.048
-294.691	-41.798	0.270	0.137
-293.676	316.865	-0.360	0.675
-292.662	-200.000	0.082	0.387
-291.647	-71.245	0.461	0.171
-290.632	-200.000	-0.145	0.851
-289.618	-200.000	-0.163	0.886
-288.603	800.000	-0.208	0.685
-287.589	-200.000	-0.022	-0.677
-286.574	-200.000	-0.023	-0.830
-285.559	-1.773	0.494	0.345
-284.545	-70.173	0.479	-0.180
-283.530	385.675	0.066	0.135
-282.516	351.142	0.448	-0.878
-281.501	-61.849	0.159	-0.066
-280.486	-168.648	0.559	0.021
-279.472	491.838	0.478	-1.086
-278.457	800.000	-0.065	0.189
-277.443	-200.000	0.053	-0.653
-276.428	-129.446	-0.710	-0.098
-275.413	-200.000	0.116	0.853
-274.399	45.568	0.201	-0.184
-273.384	-200.000	0.036	1.142
-272.370	-88.638	0.364	0.107
-271.355	-200.000	0.029	-0.351
-270.340	81.001	0.251	-0.268
-269.326	-179.922	-0.203	0.004
-268.311	-28.376	0.235	-0.135
-267.297	-28.685	0.204	-0.117
-266.282	-47.948	-0.639	0.306
-265.267	800.000	-0.152	0.551
-264.253	800.000	-0.061	-0.183
-263.238	-200.000	-0.059	-0.525
-262.224	-40.969	0.354	0.181
-261.209	-72.215	-0.349	0.128
-260.195	-114.509	-0.310	0.059
-259.180	-200.000	0.065	0.294
-258.165	800.000	-0.178	-0.612
-257.151	-37.605	0.041	0.021
-256.136	-27.046	-1.111	0.642
-255.122	-107.908	-0.294	0.063
-254.107	35.008	0.733	-0.635
-253.092	22.345	0.531	-0.430
-252.078	-32.246	0.436	-0.241
-251.063	-160.390	0.763	0.041
-250.049	-200.000	-0.004	-0.093
-249.034	-200.000	0.017	-0.399
-248.019	63.673	0.292	0.290
-247.005	-200.000	0.037	-0.615
-245.990	800.000	-0.105	0.314
-244.976	-200.000	-0.044	-1.062
-243.961	173.499	0.178	-0.255
-242.946	353.632	0.244	0.479
-241.932	-200.000	0.001	1.092
-240.917	-200.000	0.063	0.326
-239.903	-41.898	0.078	-0.040
-238.888	-93.020	0.240	0.066
-237.873	800.000	0.152	0.609
-236.859	-86.010	-0.287	0.088
-235.844	-200.000	-0.141	0.638
-234.830	377.877	0.358	-0.723
-233.815	-55.993	-0.265	-0.117
-232.800	-200.000	0.076	0.440
-231.786	-134.847	0.579	-0.069
-230.771	-60.846	0.233	0.098
-229.757	81.277	0.315	0.336
-228.742	32.600	-0.613	-0.524
-227.727	800.000	0.256	0.782
-226.713	-41.630	-0.732	-0.372
-225.698	800.000	0.193	-0.563
-224.684	13.242	0.809	-0.620
-223.669	-63.823	0.354	0.143
-222.655	-49.929	0.488	-0.229
-221.640	-28.298	-0.401	0.229
-220.625	-44.828	-0.090	-0.044
-219.611	57.897	0.492	0.476
-218.596	-48.908	0.476	-0.225
-217.582	395.307	-0.155	0.320
-216.567	-111.490	-0.226	0.045
-215.552	512.468	-0.228	0.525
-214.538	-200.000	0.251	1.104
-213.523	-28.076	1.008	0.576
-212.509	125.589	-0.450	-0.562
-211.494	83.936	0.459	0.495
-210.479	797.931	0.132	0.359
-209.465	357.459	0.202	-0.399
-208.450	800.000	0.188	-0.554
-207.436	435.345	0.263	-0.565
-206.421	94.834	-0.121	0.137
-205.406	69.871	-0.552	0.562
-204.392	-200.000	0.016	0.755
-203.377	800.000	0.107	-0.312
-202.363	655.030	-0.150	0.382
-201.348	120.008	0.556	0.682
-200.333	-43.292	-0.308	0.154
-199.319	-200.000	0.016	-0.471
-198.304	-200.000	-0.009	-0.607
-197.290	239.036	-0.149	0.245
-196.275	800.000	-0.225	0.794
-195.260	-200.000	-0.030	0.304
-194.246	-200.000	0.012	-0.813
-193.231	28.638	0.343	-0.287
-192.217	-14.473	-0.487	0.309
-191.202	-200.000	-0.154	1.100
-190.187	800.000	0.213	0.698
-189.173	-89.809	0.090	0.026
-188.158	-32.080	-0.646	0.357
-187.144	180.058	0.186	-0.269
-186.129	-20.896	0.479	0.290
-185.114	356.382	0.083	0.162
-184.100	-72.249	-1.007	-0.368
-183.085	-27.077	0.854	-0.492
-182.071	354.845	0.122	-0.240
-181.056	-12.444	-0.243	-0.156
-180.042	-112.909	0.665	-0.130
-179.027	-200.000	-0.028	-0.448
-178.012	-2.092	-0.635	-0.440
-176.998	-170.806	-0.420	-0.014
-175.983	-37.947	-0.675	0.354
-174.969	-200.000	0.093	-0.681
-173.954	-200.000	0.012	-0.636
-172.939	-30.702	-0.276	-0.154
-171.925	39.696	-0.102	-0.090
-170.910	-200.000	-0.010	0.286
-169.896	800.000	-0.155	-0.425
-168.881	43.827	-0.720	-0.651
-167.866	-104.850	0.922	0.209
-166.852	-18.417	-0.232	0.143
-165.837	161.222	-0.817	-1.127
-164.823	613.103	0.170	-0.421
-163.808	-200.000	0.152	-0.761
-162.793	-167.844	0.392	-0.015
-161.779	-109.421	-0.371	-0.077
-160.764	800.000	-0.080	-0.283
-159.750	-85.253	-0.560	-0.173
-158.735	-200.000	0.211	1.356
-157.720	-165.787	-0.476	0.020
-156.706	-200.000	0.087	0.381
-155.691	-34.776	-0.370	0.199
-154.677	373.141	-0.093	-0.187
-153.662	-36.654	-0.207	0.110
-152.647	-116.192	0.192	-0.035
-151.633	294.208	-0.241	0.434
-150.618	-200.000	-0.014	0.488
-149.604	-200.000	0.102	0.648
-148.589	108.315	0.590	-0.695
-147.574	617.986	0.068	-0.169
-146.560	273.477	0.195	-0.341
-145.545	413.227	-0.247	0.519
-144.531	800.000	0.137	0.429
-143.516	-143.173	1.056	0.100
-142.502	44.613	-0.814	-0.738
-141.487	170.152	-0.193	0.272
-140.472	-59.157	-0.185	-0.079
-139.458	-86.527	0.501	-0.152
-138.443	103.954	0.790	-0.915
-137.429	-65.209	0.312	0.124
-136.414	200.088	-0.635	-0.961
-135.399	116.381	0.512	0.618
-134.385	162.276	0.432	-0.597
-133.370	-200.000	-0.005	0.241
-132.356	-28.322	0.638	0.363
-131.341	28.368	-0.254	0.212
-130.326	-95.669	0.434	0.115
-129.312	126.479	-0.234	-0.292
-128.297	-0.586	0.482	0.337
-127.283	-139.874	-0.203	0.021
-126.268	-64.554	-0.577	-0.231
-125.253	-103.557	0.591	-0.137
-124.239	249.055	0.259	0.432
-123.224	501.090	0.353	0.803
-122.210	-144.911	1.080	-0.097
-121.195	44.138	0.369	0.333
-120.180	149.508	0.310	-0.414
