DTS Sentinel unit serial number:	SN413079Multiplexer serial number:	ORYXHardware model number:	OX4-SRSoftware version number:	ORYX F/W v4.00 Oryx Data Collector v3.7.2.0data status	okinstallation	princeton_trtdifferential loss correction	single-endedforward channel	channel 2reverse channel	N/Adate	2019/09/16time	09:59:35forward acquisition time	60.00reverse acquisition time	0.00gamma	496.2192k internal	0.2321k external	0.2321temperature offset calibration	0.9962default loss term (dB/km)	0.3790temperature slope calibration	1.0000multiplexer offset coefficient	1.0000multiplexer slope coefficient	1.0000fibre end	0.00T internal ref (°C)	33.42T ext. ref 1 (°C)	12.37T ext. ref 2 (°C)	31.85length (m)	temperature (°C)	Stokes	anti-Stokes-747.200	-62.298	0.226	0.095
-746.185	-124.267	0.147	0.023
-745.171	-200.000	-0.030	-0.162
-744.156	-94.299	-0.180	-0.050
-743.142	-44.916	0.147	0.074
-742.127	-200.000	0.001	-0.211
-741.112	-200.000	-0.011	-0.119
-740.098	205.663	-0.384	0.603
-739.083	162.305	-0.116	0.164
-738.069	9.708	0.295	0.226
-737.054	-200.000	-0.017	-0.286
-736.039	-200.000	0.171	-0.001
-735.025	7.522	-0.193	0.146
-734.010	-147.230	0.166	0.014
-732.996	15.802	-0.182	-0.144
-731.981	-7.406	0.058	0.040
-730.966	-61.054	-0.217	0.093
-729.952	-20.906	-0.435	-0.269
-728.937	-46.214	-0.070	0.035
-727.923	577.879	0.047	-0.117
-726.908	-200.000	-0.016	-0.316
-725.894	-6.181	-0.604	-0.417
-724.879	83.404	-0.080	0.088
-723.864	-146.288	-0.237	0.021
-722.850	800.000	0.040	-0.151
-721.835	-91.900	0.205	-0.059
-720.821	-73.877	-0.267	-0.098
-719.806	76.645	0.094	-0.101
-718.791	-19.856	0.211	-0.132
-717.777	-59.512	0.306	-0.133
-716.762	328.552	-0.039	-0.076
-715.748	-200.000	0.013	-0.073
-714.733	680.518	0.077	-0.201
-713.718	75.744	-0.339	0.362
-712.704	257.533	-0.097	0.169
-711.689	141.565	-0.031	-0.042
-710.675	298.120	0.183	0.340
-709.660	-18.329	-0.346	-0.218
-708.645	-89.646	0.083	0.025
-707.631	-200.000	-0.013	0.063
-706.616	800.000	-0.038	-0.115
-705.602	95.455	-0.200	-0.230
-704.587	140.843	-0.101	-0.135
-703.572	-81.178	0.166	-0.055
-702.558	459.831	-0.174	0.391
-701.543	705.233	-0.099	0.263
-700.529	178.181	0.085	-0.125
-699.514	-7.042	-0.096	-0.066
-698.499	-42.129	0.064	-0.033
-697.485	233.589	0.054	0.090
-696.470	-108.559	-0.286	0.062
-695.456	-157.509	0.197	0.012
-694.441	-200.000	-0.041	-0.191
-693.426	-200.000	-0.039	0.262
-692.412	-156.133	-0.149	0.010
-691.397	-200.000	0.345	-0.001
-690.383	-12.823	0.387	-0.254
-689.368	112.086	-0.237	0.289
-688.354	800.000	-0.064	-0.182
-687.339	-91.340	-0.114	0.033
-686.324	-200.000	0.019	-0.121
-685.310	-22.912	-0.312	-0.190
-684.295	485.710	0.106	-0.243
-683.281	-58.883	-0.276	0.120
-682.266	-60.105	0.132	0.057
-681.251	134.798	0.271	-0.355
-680.237	800.000	0.070	-0.226
-679.222	117.255	0.086	-0.106
-678.208	800.000	0.111	-0.352
-677.193	80.919	0.239	-0.260
-676.178	-119.669	-0.074	0.013
-675.164	-150.267	-0.146	-0.011
-674.149	-107.103	-0.088	-0.020
-673.135	-56.292	0.190	-0.085
-672.120	-66.759	0.221	0.088
-671.105	-177.047	-0.115	-0.003
-670.091	-139.329	-0.240	-0.026
-669.076	-200.000	0.075	-0.453
-668.062	-200.000	-0.020	-0.103
-667.047	-152.287	0.089	0.006
-666.032	-200.000	-0.026	-0.177
-665.018	74.130	-0.058	0.062
-664.003	120.471	0.047	0.059
-662.989	-46.995	0.080	0.040
-661.974	800.000	0.031	-0.111
-660.959	-200.000	-0.010	0.136
-659.945	-71.043	-0.087	-0.033
-658.930	-52.252	0.113	-0.053
-657.916	-133.426	0.071	-0.009
-656.901	-55.534	0.398	0.180
-655.886	-105.773	-0.340	0.077
-654.872	440.910	0.039	-0.087
-653.857	-134.774	-0.139	0.017
-652.843	15.200	0.281	-0.222
-651.828	48.775	-0.191	-0.180
-650.814	75.030	0.124	-0.132
-649.799	22.724	-0.174	0.144
-648.784	-200.000	0.012	-0.381
-647.770	-200.000	-0.017	0.101
-646.755	299.273	-0.097	-0.181
-645.741	-200.000	-0.049	-0.239
-644.726	44.482	0.121	0.112
-643.711	112.666	0.109	-0.133
-642.697	-156.509	-0.330	0.021
-641.682	547.560	-0.055	-0.133
-640.668	800.000	0.052	-0.154
-639.653	-200.000	-0.042	0.412
-638.638	-200.000	-0.001	0.134
-637.624	-84.803	0.296	0.094
-636.609	396.312	-0.125	-0.262
-635.595	-53.952	0.307	0.141
-634.580	49.386	0.134	0.127
-633.565	-23.478	-0.162	-0.098
-632.551	88.411	0.264	-0.295
-631.536	-13.246	-0.119	0.078
-630.522	-81.336	-0.059	-0.020
-629.507	-111.901	-0.173	0.035
-628.492	130.416	0.026	0.034
-627.478	-200.000	-0.028	0.351
-626.463	103.451	-0.157	0.185
-625.449	-111.643	0.353	-0.072
-624.434	9.848	-0.176	0.134
-623.419	-172.825	0.146	-0.005
-622.405	800.000	0.111	-0.378
-621.390	-92.082	-0.501	0.143
-620.376	71.438	0.034	0.035
-619.361	-111.404	-0.251	-0.052
-618.346	69.397	0.118	0.122
-617.332	-22.604	-0.075	-0.046
-616.317	468.987	0.082	-0.184
-615.303	120.053	-0.257	-0.321
-614.288	153.798	-0.072	-0.099
-613.273	-200.000	0.005	0.086
-612.259	23.203	-0.051	-0.042
-611.244	-41.944	-0.006	0.003
-610.230	-73.003	0.342	0.126
-609.215	-2.898	-0.174	-0.122
-608.201	-48.601	0.135	-0.065
-607.186	0.751	0.166	-0.120
-606.171	544.100	0.117	-0.282
-605.157	-81.471	0.268	-0.089
-604.142	16.106	-0.292	-0.232
-603.128	23.160	0.037	-0.030
-602.113	19.147	0.107	0.086
-601.098	-174.965	0.074	0.002
-600.084	-87.860	-0.193	-0.058
-599.069	67.378	0.336	0.344
-598.055	-7.078	0.279	0.191
-597.040	-65.177	-0.206	0.083
-596.025	-78.296	-0.268	-0.092
-595.011	463.473	-0.121	0.271
-593.996	-12.526	0.239	0.157
-592.982	-85.174	0.153	0.048
-591.967	601.942	-0.064	0.160
-590.952	-75.804	0.040	-0.014
-589.938	-140.405	-0.362	0.038
-588.923	176.981	0.079	-0.115
-587.909	76.103	0.238	-0.253
-586.894	-138.334	-0.014	0.001
-585.879	-200.000	-0.025	-0.155
-584.865	800.000	-0.080	-0.238
-583.850	800.000	0.049	0.206
-582.836	-38.989	0.147	-0.077
-581.821	398.947	0.093	-0.196
-580.806	-126.632	0.171	-0.026
-579.792	462.104	0.085	0.190
-578.777	-127.930	-0.190	0.027
-577.763	800.000	-0.061	-0.181
-576.748	15.274	-0.307	0.242
-575.733	-79.671	-0.401	-0.136
-574.719	132.936	0.162	-0.210
-573.704	-34.169	0.158	-0.087
-572.690	85.874	0.243	0.268
-571.675	284.506	0.187	-0.338
-570.661	453.656	0.081	-0.181
-569.646	93.680	0.244	-0.277
-568.631	-200.000	-0.039	-0.275
-567.617	-22.160	-0.294	-0.179
-566.602	155.885	-0.226	0.313
-565.588	-42.116	0.157	0.081
-564.573	800.000	-0.076	-0.304
-563.558	278.872	0.123	-0.220
-562.544	-3.047	0.325	-0.227
-561.529	800.000	-0.053	0.158
-560.515	-44.898	0.100	0.050
-559.500	-71.904	-0.216	-0.081
-558.485	202.508	-0.051	-0.080
-557.471	-77.266	-0.368	0.129
-556.456	333.419	-0.012	0.023
-555.442	668.183	-0.038	-0.099
-554.427	-82.894	0.203	0.066
-553.412	105.955	0.197	0.234
-552.398	-27.707	0.089	-0.052
-551.383	-200.000	0.027	0.282
-550.369	-158.003	-0.257	0.015
-549.354	-102.934	0.166	0.040
-548.339	-139.255	0.215	0.023
-547.325	83.664	0.035	0.038
-546.310	12.042	0.064	0.050
-545.296	-117.560	0.043	0.008
-544.281	41.302	0.169	0.153
-543.266	302.882	-0.114	0.212
-542.252	258.604	-0.029	0.051
-541.237	-9.814	0.240	0.160
-540.223	-200.000	-0.067	-0.301
-539.208	-116.045	-0.037	-0.007
-538.193	-93.232	0.391	0.109
-537.179	84.646	-0.142	0.156
-536.164	-172.153	0.295	0.010
-535.150	78.740	-0.069	0.074
-534.135	-200.000	0.043	0.211
-533.121	-69.853	-0.278	-0.106
-532.106	35.564	0.252	0.222
-531.091	-153.732	-0.105	-0.007
-530.077	109.795	0.044	0.053
-529.062	-38.101	0.055	0.029
-528.048	447.473	-0.066	0.145
-527.033	147.352	0.146	-0.197
-526.018	64.696	-0.122	-0.123
-525.004	-116.200	-0.088	-0.016
-523.989	-200.000	0.014	-0.105
-522.975	8.600	0.264	-0.199
-521.960	-83.039	0.428	0.138
-520.945	-200.000	-0.037	0.334
-519.931	-135.954	0.628	0.074
-518.916	195.665	0.129	0.197
-517.902	800.000	-0.074	0.233
-516.887	800.000	0.062	-0.208
-515.872	-200.000	0.050	-0.281
-514.858	566.866	-0.037	0.090
-513.843	-200.000	-0.060	0.339
-512.829	-52.761	0.302	-0.140
-511.814	46.189	0.352	0.327
-510.799	-37.840	-0.388	0.207
-509.785	-190.503	-0.262	0.003
-508.770	-149.155	0.245	0.020
-507.756	-70.848	-0.227	0.086
-506.741	-76.982	0.223	0.078
-505.726	-66.085	-0.316	0.126
-504.712	316.938	-0.022	-0.041
-503.697	-39.098	0.131	-0.069
-502.683	325.323	-0.228	-0.436
-501.668	609.370	-0.097	0.243
-500.653	-70.740	0.162	0.061
-499.639	34.741	0.248	-0.217
-498.624	183.510	0.166	-0.246
-497.610	-23.418	-0.138	0.083
-496.595	683.820	0.181	-0.473
-495.581	224.922	-0.124	-0.201
-494.566	-160.533	0.249	-0.013
-493.551	20.190	0.124	-0.100
-492.537	-87.488	0.234	0.071
-491.522	-109.503	-0.457	0.097
-490.508	274.862	0.113	0.201
-489.493	-45.130	-0.127	-0.063
-488.478	-9.851	-0.160	0.107
-487.464	800.000	-0.010	0.035
-486.449	-7.627	0.207	0.140
-485.435	-23.107	0.083	-0.050
-484.420	161.473	0.088	0.123
-483.405	215.178	0.087	-0.138
-482.391	116.520	-0.065	0.080
-481.376	204.662	-0.141	0.219
-480.362	-200.000	-0.247	-0.001
-479.347	40.467	-0.201	-0.181
-478.332	31.552	0.033	0.028
-477.318	125.816	0.177	0.223
-476.303	800.000	0.088	-0.359
-475.289	0.396	0.067	0.048
-474.274	208.876	-0.061	0.096
-473.259	280.379	-0.042	-0.075
-472.245	-200.000	-0.025	-0.163
-471.230	51.621	0.136	-0.130
-470.216	-72.739	-0.099	-0.036
-469.201	-200.000	-0.001	0.177
-468.186	11.928	-0.093	-0.072
-467.172	26.781	0.255	0.214
-466.157	-37.130	0.159	0.085
-465.143	242.828	0.096	-0.161
-464.128	-200.000	0.006	0.201
-463.113	-12.718	-0.196	-0.128
-462.099	-200.000	-0.010	-0.313
-461.084	-179.003	0.112	-0.003
-460.070	-112.999	0.142	-0.028
-459.055	159.669	0.169	0.236
-458.040	-200.000	0.019	-0.319
-457.026	-200.000	0.058	0.286
-456.011	-200.000	0.004	-0.238
-454.997	-75.142	0.188	0.067
-453.982	-57.530	0.066	0.029
-452.968	-41.028	-0.226	-0.117
-451.953	423.749	0.180	0.386
-450.938	17.721	-0.080	-0.064
-449.924	-46.331	0.130	0.064
-448.909	672.975	0.080	0.208
-447.895	-168.004	0.192	0.007
-446.880	248.533	0.187	-0.316
-445.865	-200.000	0.004	-0.097
-444.851	-79.085	-0.185	-0.063
-443.836	295.467	0.049	-0.089
-442.822	800.000	0.099	-0.285
-441.807	-195.784	-0.530	-0.004
-440.792	-2.231	-0.309	0.217
-439.778	102.938	-0.093	0.109
-438.763	-108.979	-0.017	-0.004
-437.749	-85.145	0.348	-0.109
-436.734	446.556	-0.037	0.082
-435.719	105.072	0.006	0.007
-434.705	44.302	-0.124	0.114
-433.690	-134.427	0.074	-0.009
-432.676	62.338	-0.186	0.185
-431.661	5.693	-0.092	-0.068
-430.646	642.021	-0.056	-0.142
-429.632	29.424	-0.209	-0.177
-428.617	800.000	-0.074	-0.270
-427.603	101.161	0.054	0.063
-426.588	-13.717	-0.427	-0.276
-425.573	-122.145	0.225	0.037
-424.559	118.716	0.274	0.338
-423.544	-200.000	-0.034	-0.173
-422.530	-111.772	0.035	0.007
-421.515	800.000	-0.094	-0.358
-420.500	383.046	-0.104	-0.213
-419.486	-75.228	-0.187	-0.067
-418.471	45.659	-0.107	-0.099
-417.457	-200.000	-0.002	-0.195
-416.442	-157.759	-0.152	-0.009
-415.428	31.466	0.276	0.237
-414.413	-80.999	0.206	0.068
-413.398	113.355	-0.115	0.139
-412.384	218.543	-0.149	-0.238
-411.369	800.000	-0.054	0.213
-410.355	-147.015	0.191	-0.016
-409.340	-200.000	-0.013	0.110
-408.325	800.000	0.015	-0.061
-407.311	800.000	-0.046	-0.192
-406.296	-102.545	-0.149	-0.035
-405.282	218.435	0.104	0.165
-404.267	-200.000	-0.015	-0.166
-403.252	-45.337	0.111	0.055
-402.238	-13.518	0.052	-0.034
-401.223	97.906	0.084	0.096
-400.209	253.541	-0.186	0.316
-399.194	-200.000	-0.042	0.333
-398.179	-200.000	0.018	0.218
-397.165	283.379	0.153	-0.274
-396.150	-182.383	-0.226	0.004
-395.136	36.899	-0.162	-0.143
-394.121	238.171	0.095	-0.157
-393.106	-42.647	-0.319	0.162
-392.092	-83.743	-0.259	0.082
-391.077	113.651	0.139	-0.168
-390.063	374.627	-0.122	0.249
-389.048	476.407	0.063	0.142
-388.033	771.746	0.084	-0.230
-387.019	800.000	-0.052	0.151
-386.004	406.301	-0.079	-0.165
-384.990	-200.000	0.031	0.272
-383.975	82.471	0.149	0.161
-382.960	-19.745	0.097	0.060
-381.946	-200.000	-0.039	0.188
-380.931	800.000	-0.147	-0.407
-379.917	800.000	0.099	0.338
-378.902	268.916	0.136	-0.238
-377.888	-32.137	0.137	-0.077
-376.873	-61.621	0.245	-0.102
-375.858	222.766	-0.204	0.327
-374.844	-200.000	0.066	-0.365
-373.829	-95.412	0.117	-0.031
-372.815	82.793	-0.418	-0.452
-371.800	192.718	0.082	0.123
-370.785	-123.555	-0.118	-0.019
-369.771	28.815	0.179	0.151
-368.756	-82.555	0.320	-0.103
-367.742	-159.149	-0.246	-0.014
-366.727	800.000	-0.134	0.427
-365.712	-99.936	0.071	-0.018
-364.698	-200.000	0.015	-0.064
-363.683	13.320	-0.042	0.032
-362.669	-133.693	-0.255	0.032
-361.654	609.006	0.054	0.135
-360.639	-200.000	-0.055	0.263
-359.625	-76.424	-0.259	0.091
-358.610	-151.263	0.238	0.018
-357.596	222.638	0.202	-0.324
-356.581	-115.632	0.289	0.054
-355.566	-70.672	0.168	0.063
-354.552	200.275	-0.087	-0.133
-353.537	45.256	0.084	-0.077
-352.523	-82.681	0.186	-0.060
-351.508	82.954	0.273	-0.295
-350.493	-27.330	-0.145	0.084
-349.479	56.569	-0.084	0.081
-348.464	-53.703	0.152	-0.069
-347.450	-111.117	-0.378	-0.077
-346.435	133.893	0.065	-0.084
-345.420	-200.000	0.024	-0.468
-344.406	-200.000	0.002	0.101
-343.391	391.122	0.038	-0.078
-342.377	-135.976	-0.526	0.062
-341.362	-43.802	0.132	-0.066
-340.348	70.910	-0.270	0.279
-339.333	98.908	-0.196	0.225
-338.318	-200.000	-0.042	-0.243
-337.304	-10.380	0.321	0.212
-336.289	49.515	0.210	0.197
-335.275	800.000	0.096	-0.367
-334.260	-174.320	0.173	-0.005
-333.245	-43.262	-0.151	-0.076
-332.231	800.000	-0.065	0.269
-331.216	-200.000	0.017	0.265
-330.202	-200.000	0.028	0.308
-329.187	800.000	-0.121	0.361
-328.172	-19.206	-0.420	-0.259
-327.158	800.000	-0.048	0.156
-326.143	1.447	-0.040	0.028
-325.129	-43.865	0.149	-0.075
-324.114	-7.814	-0.194	-0.130
-323.099	-87.977	-0.217	-0.065
-322.085	-150.319	0.285	0.022
-321.070	-67.273	0.265	0.103
-320.056	-89.159	0.087	-0.025
-319.041	348.591	0.104	-0.203
-318.026	543.929	0.100	0.238
-317.012	800.000	0.067	0.283
-315.997	93.944	-0.194	0.218
-314.983	-85.424	-0.154	-0.048
-313.968	-159.206	-0.201	-0.011
-312.953	356.970	-0.142	0.282
-311.939	393.623	0.073	-0.151
-310.924	-50.141	-0.227	-0.107
-309.910	136.626	0.304	0.394
-308.895	54.042	-0.080	0.076
-307.880	-68.579	0.059	-0.023
-306.866	-113.782	-0.061	0.012
-305.851	-99.252	0.078	-0.020
-304.837	151.329	-0.189	0.256
-303.822	-121.999	0.243	-0.040
-302.807	224.469	0.183	-0.294
-301.793	-82.655	-0.221	-0.071
-300.778	260.754	-0.078	0.134
-299.764	69.559	-0.179	-0.184
-298.749	-83.306	-0.107	-0.034
-297.735	-70.860	-0.231	0.086
-296.720	-200.000	0.001	0.126
-295.705	-200.000	-0.050	0.263
-294.691	-26.063	0.261	-0.152
-293.676	240.471	0.159	-0.264
-292.662	800.000	-0.097	-0.406
-291.647	-200.000	0.019	0.255
-290.632	-200.000	-0.028	-0.131
-289.618	-175.057	-0.062	-0.002
-288.603	362.322	-0.077	0.154
-287.589	164.266	0.248	-0.347
-286.574	-200.000	-0.029	-0.491
-285.559	419.987	0.052	-0.110
-284.545	147.225	-0.280	-0.374
-283.530	-200.000	0.017	-0.139
-282.516	-200.000	0.002	-0.193
-281.501	214.299	0.119	-0.187
-280.486	63.765	0.169	-0.169
-279.472	800.000	-0.085	0.370
-278.457	-119.820	0.405	-0.069
-277.443	-200.000	0.046	-0.286
-276.428	-20.868	-0.149	-0.090
-275.413	302.507	0.090	-0.165
-274.399	-130.495	0.278	-0.037
-273.384	800.000	0.033	-0.105
-272.370	-112.013	-0.232	0.046
-271.355	-66.007	-0.213	0.084
-270.340	-29.082	-0.207	-0.118
-269.326	-2.470	-0.109	-0.076
-268.311	-200.000	-0.010	0.362
-267.297	163.060	0.069	-0.096
-266.282	177.792	-0.191	-0.277
-265.267	187.461	0.173	0.257
-264.253	800.000	0.101	-0.301
-263.238	489.264	-0.054	-0.121
-262.224	800.000	-0.045	0.156
-261.209	-200.000	-0.020	0.285
-260.195	374.066	0.117	0.237
-259.180	800.000	-0.068	-0.251
-258.165	-78.361	-0.190	0.065
-257.151	-200.000	0.008	0.070
-256.136	-196.405	-0.090	0.001
-255.122	160.253	-0.314	0.434
-254.107	-144.114	-0.221	0.021
-253.092	-98.837	0.156	-0.039
-252.078	207.156	0.051	-0.079
-251.063	-71.744	-0.365	0.135
-250.049	619.610	0.069	-0.171
-249.034	29.435	-0.191	-0.161
-248.019	800.000	-0.029	0.126
-247.005	19.107	0.252	0.200
-245.990	-80.072	-0.502	-0.167
-244.976	-145.871	-0.161	0.014
-243.961	52.218	0.168	-0.159
-242.946	-50.635	-0.174	-0.081
-241.932	221.278	0.026	-0.041
-240.917	97.518	-0.183	-0.209
-239.903	-4.612	0.197	0.135
-238.888	-200.000	-0.016	0.258
-237.873	4.285	0.324	-0.235
-236.859	219.099	-0.148	-0.234
-235.844	46.959	-0.007	0.007
-234.830	-103.310	-0.289	-0.067
-233.815	-200.000	0.016	0.524
-232.800	-53.602	-0.147	-0.067
-231.786	563.991	-0.122	-0.293
-230.771	-200.000	-0.029	0.260
-229.757	-200.000	0.072	-0.385
-228.742	-106.455	-0.153	0.034
-227.727	22.047	0.016	-0.013
-226.713	-200.000	0.010	0.222
-225.698	-200.000	0.029	-0.298
-224.684	800.000	0.071	0.260
-223.669	-176.713	0.228	-0.006
-222.655	178.185	0.086	0.124
-221.640	368.675	-0.052	-0.105
-220.625	-93.280	0.241	0.066
-219.611	-117.373	-0.011	0.002
-218.596	-92.837	0.410	-0.113
-217.582	-65.746	0.100	-0.040
-216.567	-200.000	-0.021	0.259
-215.552	-141.029	-0.123	0.012
-214.538	800.000	0.067	-0.214
-213.523	-159.979	0.077	-0.004
-212.509	92.333	0.359	0.400
-211.494	-200.000	0.034	0.516
-210.479	-109.588	-0.343	-0.072
-209.465	132.096	0.131	-0.167
-208.450	336.072	0.031	0.059
-207.436	-25.986	0.125	-0.073
-206.421	-20.434	0.183	0.112
-205.406	-102.902	-0.244	0.057
-204.392	-106.387	-0.266	-0.059
-203.377	4.008	-0.249	0.180
-202.363	23.405	-0.171	-0.139
-201.348	407.858	-0.068	0.142
-200.333	-60.881	-0.202	-0.085
-199.319	-200.000	0.014	-0.261
-198.304	-136.968	0.154	0.017
-197.290	-200.000	-0.014	-0.276
-196.275	16.788	-0.349	0.273
-195.260	481.604	-0.090	0.202
-194.246	267.282	0.117	0.203
-193.231	100.944	-0.116	-0.134
-192.217	-37.474	0.210	-0.111
-191.202	-200.000	0.003	0.305
-190.187	-200.000	0.017	0.183
-189.173	-164.295	0.153	-0.007
-188.158	-34.744	-0.269	0.145
-187.144	-16.988	0.251	-0.157
-186.129	800.000	0.079	-0.344
-185.114	22.101	0.274	-0.221
-184.100	-200.000	-0.117	0.001
-183.085	-200.000	-0.014	-0.131
-182.071	-200.000	0.002	0.097
-181.056	394.465	-0.054	-0.112
-180.042	-144.805	-0.197	-0.018
-179.027	346.555	-0.021	0.041
-178.012	-135.634	-0.192	-0.023
-176.998	-44.107	-0.307	-0.152
-175.983	-57.419	-0.116	0.050
-174.969	800.000	0.010	0.041
-173.954	800.000	-0.078	0.228
-172.939	-116.976	-0.275	0.050
-171.925	800.000	0.017	-0.061
-170.910	-147.105	-0.160	-0.013
-169.896	-106.919	-0.160	0.035
-168.881	632.453	-0.105	-0.262
-167.866	80.817	0.194	0.207
-166.852	-200.000	-0.005	-0.043
-165.837	-200.000	0.071	0.436
-164.823	-23.481	0.119	0.071
-163.808	-200.000	0.010	-0.148
-162.793	258.937	0.077	0.132
-161.779	270.050	-0.030	0.052
-160.764	800.000	-0.029	0.121
-159.750	-104.478	0.026	-0.006
-158.735	-32.114	0.059	-0.033
-157.720	-128.573	0.218	0.030
-156.706	74.055	-0.235	0.244
-155.691	800.000	0.051	0.166
-154.677	-45.960	0.243	0.119
-153.662	-58.627	-0.210	0.090
-152.647	800.000	0.075	0.216
-151.633	-188.876	0.252	0.003
-150.618	113.084	0.270	0.323
-149.604	-13.216	-0.243	0.156
-148.589	-48.814	0.300	0.142
-147.574	12.489	0.071	-0.054
-146.560	-200.000	-0.093	0.486
-145.545	-105.463	-0.117	0.026
-144.531	-2.879	-0.068	-0.047
-143.516	-96.543	0.444	-0.116
-142.502	-83.217	0.314	0.100
-141.487	210.363	0.075	0.116
-140.472	798.756	-0.057	0.156
-139.458	-27.386	-0.224	-0.129
-138.443	-82.185	-0.347	-0.112
-137.429	-200.000	-0.013	0.107
-136.414	543.997	0.022	-0.052
-135.399	297.067	-0.171	-0.311
-134.385	-56.226	0.079	-0.035
-133.370	16.859	-0.241	-0.188
-132.356	-200.000	0.026	-0.289
-131.341	-8.587	-0.365	0.242
-130.326	-10.492	-0.148	0.097
-129.312	754.912	0.110	-0.294
-128.297	-130.442	0.129	0.017
-127.283	78.351	-0.099	0.104
-126.268	131.546	0.190	0.241
-125.253	353.589	0.087	0.171
-124.239	158.529	0.173	-0.237
-123.224	-148.775	-0.270	0.022
-122.210	-38.015	-0.500	-0.262
-121.195	35.932	0.180	0.156
