DTS Sentinel unit serial number:	SN413079Multiplexer serial number:	ORYXHardware model number:	OX4-SRSoftware version number:	ORYX F/W v4.00 Oryx Data Collector v3.7.2.0data status	okinstallation	princeton_trtdifferential loss correction	single-endedforward channel	channel 2reverse channel	N/Adate	2019/09/15time	23:51:35forward acquisition time	60.00reverse acquisition time	0.00gamma	496.2192k internal	0.2336k external	0.2336temperature offset calibration	0.9961default loss term (dB/km)	0.3790temperature slope calibration	1.0000multiplexer offset coefficient	1.0000multiplexer slope coefficient	1.0000fibre end	0.00T internal ref (°C)	27.94T ext. ref 1 (°C)	9.32T ext. ref 2 (°C)	21.75length (m)	temperature (°C)	Stokes	anti-Stokes-747.200	-149.586	-0.086	-0.007
-746.185	-130.465	-0.056	0.008
-745.171	-200.000	0.038	0.177
-744.156	-200.000	0.002	-0.073
-743.142	-90.198	-0.109	0.032
-742.127	171.443	-0.232	0.335
-741.112	95.623	0.190	0.218
-740.098	-9.195	-0.136	0.091
-739.083	-43.517	-0.157	0.080
-738.069	-42.002	-0.365	0.188
-737.054	424.020	-0.057	0.123
-736.039	61.124	-0.237	-0.236
-735.025	-175.594	-0.201	-0.005
-734.010	-200.000	-0.060	-0.270
-732.996	199.386	-0.151	-0.233
-731.981	-168.145	0.032	0.001
-730.966	38.382	0.271	-0.242
-729.952	71.902	0.053	-0.055
-728.937	-35.398	-0.174	0.095
-727.923	-200.000	-0.014	0.477
-726.908	-52.248	-0.149	-0.069
-725.894	25.593	0.034	-0.028
-724.879	-179.817	0.310	0.007
-723.864	8.303	0.143	-0.108
-722.850	-109.859	-0.203	-0.043
-721.835	2.776	-0.078	0.057
-720.821	60.257	0.267	0.265
-719.806	800.000	-0.027	0.076
-718.791	134.798	0.222	0.289
-717.777	-200.000	-0.022	0.343
-716.762	142.556	-0.041	-0.055
-715.748	4.638	-0.263	0.194
-714.733	-85.234	-0.107	-0.034
-713.718	-47.091	0.259	-0.127
-712.704	123.323	-0.084	-0.105
-711.689	-132.556	-0.256	-0.033
-710.675	-170.233	0.209	-0.007
-709.660	-6.403	0.219	-0.150
-708.645	-121.276	0.227	-0.038
-707.631	-140.959	-0.211	0.022
-706.616	-127.243	0.279	-0.041
-705.602	-71.384	0.148	-0.056
-704.587	-125.625	0.211	0.032
-703.572	720.572	0.030	0.081
-702.558	-27.278	0.189	0.110
-701.543	-4.525	-0.167	-0.116
-700.529	-155.728	-0.381	-0.024
-699.514	-75.639	-0.150	-0.053
-698.499	800.000	0.120	-0.486
-697.485	800.000	-0.099	-0.278
-696.470	345.049	-0.124	-0.243
-695.456	-40.734	0.046	-0.024
-694.441	157.623	0.138	-0.191
-693.426	-79.827	0.212	0.072
-692.412	-118.880	0.125	0.022
-691.397	463.516	0.053	0.118
-690.383	-106.329	-0.196	0.044
-689.368	-200.000	0.003	0.173
-688.354	-6.060	-0.157	0.108
-687.339	616.595	0.184	-0.463
-686.324	-200.000	0.027	0.123
-685.310	31.318	-0.213	0.184
-684.295	-22.914	-0.199	-0.120
-683.281	163.032	-0.164	0.231
-682.266	-200.000	-0.065	0.421
-681.251	-200.000	0.013	0.189
-680.237	130.745	-0.174	-0.224
-679.222	7.959	0.266	-0.200
-678.208	764.800	-0.081	-0.221
-677.193	54.484	-0.225	0.217
-676.178	-100.158	-0.260	-0.065
-675.164	-200.000	0.018	-0.204
-674.149	-200.000	0.027	-0.137
-673.135	95.563	-0.076	-0.087
-672.120	596.713	-0.166	-0.411
-671.105	-200.000	-0.015	-0.197
-670.091	-141.605	-0.091	-0.009
-669.076	800.000	0.088	-0.357
-668.062	800.000	-0.038	-0.156
-667.047	-42.393	0.274	0.140
-666.032	-94.984	0.037	-0.010
-665.018	134.496	-0.126	0.164
-664.003	-71.603	-0.395	0.148
-662.989	-140.681	-0.175	-0.018
-661.974	800.000	0.092	-0.257
-660.959	25.447	-0.149	0.124
-659.945	37.089	-0.245	0.217
-658.930	222.593	0.042	0.068
-657.916	800.000	0.092	0.324
-656.901	-42.837	0.192	0.098
-655.886	170.403	-0.107	-0.153
-654.872	-81.646	0.097	0.032
-653.857	-150.981	-0.148	0.011
-652.843	-200.000	-0.024	-0.229
-651.828	-7.934	-0.159	-0.107
-650.814	-91.444	0.148	0.042
-649.799	800.000	0.022	0.087
-648.784	88.802	-0.177	-0.197
-647.770	-58.420	-0.155	0.067
-646.755	800.000	0.011	0.040
-645.741	-200.000	-0.044	0.261
-644.726	31.986	-0.169	-0.145
-643.711	-52.159	0.287	-0.133
-642.697	50.969	-0.039	-0.037
-641.682	195.185	-0.145	0.220
-640.668	-85.286	-0.296	0.092
-639.653	-25.556	-0.097	-0.058
-638.638	-96.325	0.280	-0.074
-637.624	-200.000	0.021	-0.107
-636.609	389.892	-0.089	-0.185
-635.595	-8.103	-0.159	0.107
-634.580	70.497	-0.219	0.226
-633.565	129.873	-0.219	-0.280
-632.551	-122.199	-0.177	-0.029
-631.536	259.262	-0.062	-0.107
-630.522	-200.000	-0.008	0.149
-629.507	199.690	0.085	0.130
-628.492	93.603	-0.092	0.104
-627.478	-10.598	-0.262	0.173
-626.463	-79.600	0.496	-0.167
-625.449	-200.000	-0.013	0.278
-624.434	539.769	-0.059	-0.142
-623.419	712.658	-0.089	0.235
-622.405	-21.749	-0.318	0.193
-621.390	-83.300	-0.151	0.048
-620.376	80.980	-0.151	-0.163
-619.361	-200.000	-0.019	0.256
-618.346	16.256	-0.134	-0.106
-617.332	-117.504	0.261	-0.047
-616.317	620.800	-0.109	-0.273
-615.303	116.727	0.062	0.076
-614.288	-200.000	-0.081	0.466
-613.273	-34.545	-0.030	-0.016
-612.259	-76.487	0.107	-0.038
-611.244	147.329	0.291	-0.392
-610.230	-28.838	-0.087	0.050
-609.215	-49.088	0.162	0.078
-608.201	-35.561	0.209	0.114
-607.186	-129.819	-0.270	-0.037
-606.171	-54.543	-0.028	-0.013
-605.157	734.107	0.132	0.354
-604.142	-50.917	-0.104	0.049
-603.128	-155.514	-0.311	0.020
-602.113	-200.000	0.069	-0.356
-601.098	800.000	-0.048	-0.188
-600.084	-106.709	0.304	-0.068
-599.069	-126.256	-0.321	-0.048
-598.055	438.276	-0.062	0.136
-597.040	-41.867	0.209	0.107
-596.025	88.366	-0.036	-0.040
-595.011	800.000	-0.016	0.052
-593.996	65.801	-0.299	-0.303
-592.982	-200.000	-0.005	-0.097
-591.967	140.195	0.054	-0.071
-590.952	74.860	-0.207	0.218
-589.938	123.102	0.166	0.208
-588.923	-200.000	0.044	-0.309
-587.909	-165.243	-0.194	-0.009
-586.894	-200.000	-0.000	0.179
-585.879	-107.371	0.118	-0.026
-584.865	-200.000	-0.005	0.071
-583.850	-16.303	0.305	-0.193
-582.836	157.055	0.210	-0.290
-581.821	546.248	-0.097	0.231
-580.806	-59.843	-0.185	0.079
-579.792	-135.227	0.072	0.009
-578.777	58.284	0.204	-0.199
-577.763	11.831	0.139	0.106
-576.748	-151.297	0.438	0.033
-575.733	586.885	-0.083	0.203
-574.719	-28.011	0.143	-0.082
-573.704	238.183	0.086	-0.142
-572.690	-200.000	-0.007	-0.223
-571.675	16.023	0.250	-0.197
-570.661	-111.065	0.501	-0.103
-569.646	-100.736	0.392	-0.096
-568.631	-186.431	0.323	0.005
-567.617	789.129	-0.093	-0.254
-566.602	303.082	-0.200	0.369
-565.588	23.733	-0.099	-0.081
-564.573	-103.305	0.056	-0.013
-563.558	-145.130	0.127	0.011
-562.544	521.998	0.089	-0.210
-561.529	-200.000	-0.002	0.054
-560.515	-133.261	0.154	-0.019
-559.500	60.252	-0.159	0.157
-558.485	-24.657	0.024	0.014
-557.471	-6.202	0.128	0.087
-556.456	-200.000	-0.011	-0.225
-555.442	290.670	-0.138	0.250
-554.427	-107.058	-0.079	-0.017
-553.412	395.509	0.137	-0.286
-552.398	-87.705	-0.482	0.145
-551.383	-34.106	-0.194	-0.107
-550.369	-30.196	-0.199	0.113
-549.354	-71.175	-0.077	-0.029
-548.339	81.863	0.082	0.088
-547.325	-81.121	0.176	-0.058
-546.310	-135.973	-0.163	-0.019
-545.296	-118.874	0.060	0.010
-544.281	-18.087	-0.087	0.054
-543.266	-5.206	-0.240	0.165
-542.252	37.606	-0.177	0.157
-541.237	800.000	0.055	0.230
-540.223	800.000	0.054	0.190
-539.208	-84.786	-0.293	0.092
-538.193	199.314	0.188	-0.288
-537.179	-200.000	0.043	-0.390
-536.164	-26.933	0.129	-0.075
-535.150	150.227	-0.126	-0.170
-534.135	-5.588	-0.262	-0.179
-533.121	-52.867	-0.308	0.141
-532.106	-27.216	-0.464	-0.269
-531.091	-108.427	0.430	0.092
-530.077	50.721	0.215	-0.203
-529.062	345.853	-0.112	-0.219
-528.048	194.359	-0.114	-0.172
-527.033	-106.010	0.114	0.026
-526.018	800.000	-0.095	0.280
-525.004	-96.689	-0.078	-0.021
-523.989	-128.613	-0.418	0.059
-522.975	-137.570	-0.142	-0.016
-521.960	-54.080	-0.133	0.060
-520.945	-12.406	-0.192	0.125
-519.931	-158.304	0.067	0.004
-518.916	-200.000	0.030	-0.225
-517.902	215.524	0.011	-0.018
-516.887	225.413	-0.043	-0.070
-515.872	204.728	0.106	-0.164
-514.858	-104.705	-0.263	-0.060
-513.843	690.559	0.023	0.060
-512.829	41.510	-0.329	0.297
-511.814	-135.000	0.190	-0.023
-510.799	-137.375	-0.194	-0.022
-509.785	69.950	0.015	0.015
-508.770	800.000	0.085	0.250
-507.756	-54.893	-0.076	0.034
-506.741	-183.857	-0.180	-0.003
-505.726	-99.754	-0.062	-0.015
-504.712	-14.822	0.168	0.107
-503.697	-200.000	0.018	0.097
-502.683	107.520	0.093	-0.110
-501.668	-200.000	0.082	0.471
-500.653	-63.665	0.378	0.154
-499.639	4.154	-0.245	-0.179
-498.624	52.926	-0.186	0.177
-497.610	-139.323	0.243	0.026
-496.595	143.773	0.077	-0.102
-495.581	-79.495	0.161	0.054
-494.566	53.740	0.166	0.159
-493.551	-200.000	0.015	-0.270
-492.537	498.801	0.109	-0.249
-491.522	-200.000	0.021	-0.215
-490.508	65.049	0.150	0.151
-489.493	80.316	-0.104	-0.111
-488.478	-61.473	0.238	-0.099
-487.464	-200.000	0.021	0.189
-486.449	-8.114	-0.315	-0.211
-485.435	60.999	0.153	-0.151
-484.420	195.702	-0.148	0.224
-483.405	-64.098	-0.185	0.075
-482.391	-200.000	0.006	-0.447
-481.376	152.530	0.082	-0.112
-480.362	75.763	0.301	0.317
-479.347	219.561	0.072	0.114
-478.332	373.997	0.179	-0.361
-477.318	-73.364	-0.349	0.127
-476.303	-115.898	0.116	-0.022
-475.289	-46.187	-0.036	0.017
-474.274	800.000	-0.085	-0.270
-473.259	-58.913	0.180	-0.077
-472.245	298.856	-0.216	-0.394
-471.230	-170.234	-0.283	-0.010
-470.216	545.968	0.095	0.227
-469.201	-62.349	-0.179	0.074
-468.186	-191.445	0.126	0.001
-467.172	-105.188	-0.093	-0.021
-466.157	594.606	-0.042	0.102
-465.143	104.830	-0.157	0.184
-464.128	-200.000	-0.002	0.151
-463.113	-64.750	-0.230	0.093
-462.099	-185.789	-0.284	-0.004
-461.084	-115.295	0.317	-0.060
-460.070	-19.306	-0.087	-0.054
-459.055	117.667	-0.248	-0.303
-458.040	90.797	0.175	0.195
-457.026	54.406	-0.009	-0.009
-456.011	198.615	-0.228	0.346
-454.997	129.252	-0.057	-0.072
-453.982	166.515	0.203	-0.286
-452.968	-180.664	-0.196	-0.004
-451.953	-200.000	0.022	-0.429
-450.938	-200.000	-0.001	-0.081
-449.924	538.727	0.110	-0.260
-448.909	95.604	0.082	0.093
-447.895	138.188	-0.130	-0.169
-446.880	-0.606	0.178	-0.125
-445.865	56.356	0.115	0.111
-444.851	-83.942	0.348	0.110
-443.836	-200.000	0.033	-0.245
-442.822	800.000	0.155	-0.601
-441.807	-78.177	-0.034	0.011
-440.792	-55.787	-0.285	0.127
-439.778	800.000	0.034	-0.127
-438.763	-200.000	0.062	0.327
-437.749	49.726	-0.326	-0.305
-436.734	-200.000	-0.063	-0.457
-435.719	265.183	-0.036	-0.062
-434.705	-200.000	-0.011	-0.290
-433.690	-185.157	0.235	-0.004
-432.676	-62.834	-0.058	-0.024
-431.661	-23.392	-0.048	-0.029
-430.646	1.349	-0.191	-0.136
-429.632	38.787	0.272	0.241
-428.617	467.465	0.048	-0.106
-427.603	-200.000	0.074	0.370
-426.588	553.426	-0.104	0.247
-425.573	277.356	0.137	0.243
-424.559	-59.088	0.138	0.059
-423.544	19.560	-0.080	0.064
-422.530	-64.597	-0.272	0.110
-421.515	474.584	-0.091	0.204
-420.500	-9.668	-0.185	0.122
-419.486	126.641	-0.094	0.118
-418.471	-126.009	-0.081	0.012
-417.457	-54.989	0.058	0.026
-416.442	8.473	-0.083	0.062
-415.428	-46.692	-0.176	0.086
-414.413	-15.791	0.115	-0.073
-413.398	-56.395	-0.274	0.121
-412.384	66.741	0.095	0.096
-411.369	800.000	-0.080	-0.298
-410.355	56.425	0.181	0.175
-409.340	-44.950	-0.025	0.012
-408.325	-153.430	0.257	0.018
-407.311	-101.323	0.128	-0.031
-406.296	34.718	-0.177	0.154
-405.282	-116.838	-0.273	0.050
-404.267	-67.092	0.099	-0.039
-403.252	361.696	0.155	-0.309
-402.238	-92.392	-0.207	-0.058
-401.223	-57.463	-0.274	0.119
-400.209	312.312	0.099	0.183
-399.194	-200.000	0.025	0.175
-398.179	-200.000	0.037	-0.183
-397.165	165.334	0.197	0.276
-396.150	158.956	0.101	0.139
-395.136	-200.000	-0.012	0.103
-394.121	565.617	0.121	0.291
-393.106	-80.445	-0.172	0.057
-392.092	-59.304	-0.072	0.031
-391.077	105.086	-0.115	-0.135
-390.063	-52.513	-0.085	0.039
-389.048	25.873	0.229	0.189
-388.033	-200.000	-0.007	-0.046
-387.019	374.562	-0.190	-0.383
-386.004	139.437	-0.151	-0.196
-384.990	25.027	-0.060	-0.049
-383.975	220.196	0.073	0.116
-382.960	125.168	0.268	-0.334
-381.946	-5.007	0.031	-0.021
-380.931	-200.000	-0.017	0.132
-379.917	-16.375	0.165	-0.104
-378.902	-130.263	-0.150	0.020
-377.888	-64.125	0.270	0.109
-376.873	800.000	0.112	0.389
-375.858	4.797	-0.223	-0.162
-374.844	363.050	0.106	-0.210
-373.829	-96.831	-0.100	0.026
-372.815	800.000	-0.055	-0.214
-371.800	-132.994	0.359	-0.045
-370.785	-105.768	0.387	0.087
-369.771	-133.038	0.151	-0.019
-368.756	-200.000	0.015	0.148
-367.742	-156.921	0.120	0.007
-366.727	-94.367	-0.203	0.055
-365.712	-95.452	-0.045	0.012
-364.698	203.542	0.116	0.177
-363.683	-128.759	-0.251	-0.035
-362.669	-200.000	0.022	-0.110
-361.654	-46.213	0.255	0.124
-360.639	653.309	0.166	0.421
-359.625	-12.423	-0.228	-0.147
-358.610	-150.503	-0.265	0.020
-357.596	-62.415	0.307	0.127
-356.581	66.548	0.117	-0.118
-355.566	-78.078	0.226	0.077
-354.552	-97.546	0.135	-0.035
-353.537	-21.303	0.038	0.023
-352.523	-116.546	-0.219	-0.040
-351.508	800.000	0.074	0.317
-350.493	-57.972	-0.192	-0.083
-349.479	139.427	-0.056	-0.072
-348.464	193.032	-0.146	0.218
-347.450	9.331	-0.210	-0.157
-346.435	114.888	-0.073	-0.088
-345.420	206.199	0.092	0.141
-344.406	341.852	-0.102	0.198
-343.391	-89.273	0.291	0.085
-342.377	-41.782	-0.211	0.107
-341.362	-165.078	-0.080	-0.004
-340.348	440.553	-0.101	-0.219
-339.333	17.271	0.244	0.191
-338.318	800.000	-0.035	0.111
-337.304	162.347	-0.115	0.159
-336.289	-200.000	-0.008	-0.051
-335.275	290.230	-0.160	-0.287
-334.260	159.007	0.181	-0.249
-333.245	14.938	0.117	0.090
-332.231	8.581	0.152	0.113
-331.216	270.169	-0.189	-0.328
-330.202	19.137	0.231	0.184
-329.187	324.550	-0.191	0.361
-328.172	462.960	0.115	-0.253
-327.158	525.190	0.100	-0.232
-326.143	159.061	-0.153	-0.211
-325.129	-173.785	0.248	0.007
-324.114	51.213	-0.175	0.164
-323.099	-44.664	0.504	-0.249
-322.085	-139.789	0.079	0.008
-321.070	18.406	0.179	0.141
-320.056	-139.746	0.183	-0.019
-319.041	497.345	0.114	-0.259
-318.026	149.605	0.234	0.313
-317.012	-200.000	0.015	0.146
-315.997	162.676	0.026	-0.037
-314.983	800.000	-0.086	0.261
-313.968	-5.458	0.245	-0.166
-312.953	-127.829	0.145	-0.021
-311.939	-200.000	-0.008	0.207
-310.924	-148.098	0.380	-0.031
-309.910	-60.575	0.101	0.042
-308.895	14.950	0.073	0.057
-307.880	78.984	0.196	-0.208
-306.866	-137.047	-0.293	-0.033
-305.851	-172.256	0.546	0.017
-304.837	147.212	-0.240	-0.319
-303.822	-200.000	-0.011	0.227
-302.807	386.264	0.143	-0.292
-301.793	50.797	0.053	-0.050
-300.778	-4.975	0.130	-0.088
-299.764	-23.053	-0.117	0.070
-298.749	791.796	0.134	0.365
-297.735	25.732	-0.181	-0.149
-296.720	1.662	-0.058	0.041
-295.705	269.707	-0.208	0.361
-294.691	160.528	-0.049	-0.067
-293.676	113.252	0.186	-0.223
-292.662	140.764	0.099	0.130
-291.647	-138.848	-0.142	0.015
-290.632	213.466	-0.202	-0.315
-289.618	-200.000	-0.016	0.086
-288.603	21.547	0.193	-0.155
-287.589	-62.527	-0.115	-0.047
-286.574	800.000	0.052	-0.179
-285.559	-23.561	-0.151	0.090
-284.545	393.959	0.096	0.197
-283.530	157.388	-0.137	0.186
-282.516	800.000	0.104	0.380
-281.501	59.990	-0.196	0.191
-280.486	65.319	-0.147	0.146
-279.472	-200.000	0.002	-0.285
-278.457	-200.000	-0.052	0.395
-277.443	800.000	0.070	0.201
-276.428	161.273	0.103	-0.142
-275.413	183.049	-0.112	0.163
-274.399	-77.623	-0.363	0.124
-273.384	20.646	0.146	0.116
-272.370	344.342	-0.110	0.214
-271.355	-4.866	0.050	0.034
-270.340	-55.493	0.313	0.138
-269.326	230.039	0.177	-0.285
-268.311	-102.937	0.244	0.057
-267.297	-200.000	-0.084	0.387
-266.282	-8.005	-0.040	0.026
-265.267	99.966	-0.135	0.154
-264.253	-49.732	-0.212	-0.099
-263.238	-200.000	-0.001	-0.367
-262.224	-107.274	-0.272	0.059
-261.209	-109.111	0.051	-0.011
-260.195	-200.000	-0.060	0.287
-259.180	-200.000	0.059	0.305
-258.165	47.175	-0.042	0.038
-257.151	-194.362	-0.289	-0.002
-256.136	-129.178	0.112	0.015
-255.122	-142.346	-0.220	-0.021
-254.107	277.989	0.098	0.173
-253.092	-103.398	-0.278	0.064
-252.078	-200.000	0.006	-0.117
-251.063	800.000	0.092	0.313
-250.049	4.193	-0.055	-0.039
-249.034	712.915	-0.041	0.106
-248.019	-116.106	-0.369	-0.068
-247.005	-146.945	0.160	-0.014
-245.990	646.006	-0.009	-0.024
-244.976	-162.487	0.324	0.016
-243.961	-114.478	-0.070	-0.013
-242.946	-7.244	-0.243	-0.162
-241.932	26.086	-0.192	-0.158
-240.917	-27.499	-0.097	-0.056
-239.903	-200.000	-0.040	-0.334
-238.888	800.000	-0.077	0.284
-237.873	39.030	-0.139	0.123
-236.859	-46.644	0.134	0.065
-235.844	-181.767	0.127	0.002
-234.830	800.000	-0.044	0.119
-233.815	800.000	0.095	0.263
-232.800	304.248	-0.120	-0.220
-231.786	-78.022	0.187	-0.063
-230.771	-200.000	0.045	-0.284
-229.757	-200.000	-0.093	0.466
-228.742	191.224	-0.098	0.146
-227.727	-200.000	0.004	0.205
-226.713	314.714	-0.143	0.266
-225.698	-76.047	0.280	-0.097
-224.684	53.580	-0.250	0.236
-223.669	311.596	0.034	-0.062
-222.655	497.520	0.049	-0.110
-221.640	54.630	-0.179	-0.170
-220.625	79.871	-0.076	-0.080
-219.611	263.147	0.020	-0.034
-218.596	21.777	-0.057	0.046
-217.582	-200.000	-0.034	-0.340
-216.567	-200.000	-0.024	-0.119
-215.552	14.846	0.092	-0.071
-214.538	754.466	0.035	0.093
-213.523	126.566	0.090	0.112
-212.509	-55.597	0.083	-0.037
-211.494	77.887	-0.319	-0.334
-210.479	800.000	0.059	-0.212
-209.465	-93.417	-0.193	0.053
-208.450	800.000	-0.081	-0.265
-207.436	-200.000	-0.228	-0.001
-206.421	68.051	-0.077	0.077
-205.406	800.000	-0.115	-0.360
-204.392	212.454	0.050	-0.078
-203.377	-12.010	-0.105	0.068
-202.363	-36.937	0.226	-0.119
-201.348	196.463	-0.224	-0.335
-200.333	-99.468	0.229	0.057
-199.319	-31.560	-0.294	-0.163
-198.304	800.000	-0.119	-0.336
-197.290	153.209	0.061	-0.082
-196.275	-6.490	0.145	-0.097
-195.260	171.620	0.076	0.108
-194.246	163.040	0.098	-0.135
-193.231	-200.000	0.018	-0.148
-192.217	800.000	0.027	0.111
-191.202	-200.000	-0.008	0.043
-190.187	-129.201	0.300	-0.041
-189.173	800.000	-0.041	-0.134
-188.158	-12.895	0.068	-0.044
-187.144	-26.194	0.333	-0.192
-186.129	-81.295	0.234	0.076
-185.114	636.500	0.123	-0.307
-184.100	-76.484	0.348	-0.120
-183.085	498.527	-0.085	-0.192
-182.071	-86.567	-0.032	0.010
-181.056	329.834	0.067	-0.126
-180.042	-64.462	0.124	0.050
-179.027	-105.469	0.192	0.043
-178.012	-58.093	-0.150	-0.064
-176.998	-3.924	0.369	0.252
-175.983	319.548	-0.066	0.123
-174.969	-145.890	0.114	0.010
-173.954	-200.000	0.001	-0.063
-172.939	-122.819	0.354	0.056
-171.925	33.530	0.273	0.233
-170.910	495.516	-0.079	0.178
-169.896	307.818	0.106	-0.194
-168.881	4.125	-0.329	0.237
-167.866	655.936	-0.100	-0.251
-166.852	-156.145	0.280	-0.017
-165.837	471.676	-0.108	-0.239
-164.823	193.911	-0.166	0.247
-163.808	-108.393	-0.300	-0.064
-162.793	-75.934	-0.098	0.034
-161.779	-151.643	0.058	0.004
-160.764	800.000	0.085	-0.235
-159.750	204.796	0.102	0.155
-158.735	-30.253	-0.406	0.226
-157.720	-200.000	-0.048	0.328
-156.706	-127.944	0.056	-0.008
-155.691	-82.248	0.221	0.071
-154.677	-75.208	0.229	-0.080
-153.662	53.028	0.277	0.260
-152.647	-139.020	0.222	0.024
-151.633	800.000	0.072	-0.263
-150.618	-113.065	-0.094	0.018
-149.604	223.518	-0.017	0.028
-148.589	89.716	0.097	-0.106
-147.574	-148.865	0.044	-0.003
-146.560	90.638	0.199	0.218
-145.545	-92.716	0.415	0.114
-144.531	4.861	0.248	-0.179
-143.516	-200.000	-0.018	-0.213
-142.502	-200.000	0.026	-0.190
-141.487	-200.000	-0.037	-0.374
-140.472	-200.000	-0.013	0.070
-139.458	-99.409	0.176	0.043
-138.443	37.955	-0.247	-0.215
-137.429	-174.198	-0.174	0.005
-136.414	2.214	-0.357	0.253
-135.399	-200.000	0.046	-0.376
-134.385	-155.309	0.287	0.018
-133.370	280.890	0.091	0.159
-132.356	-92.455	0.244	0.067
-131.341	-156.362	-0.127	0.008
-130.326	-200.000	-0.042	0.210
-129.312	-145.921	-0.110	0.010
-128.297	128.783	0.106	-0.132
-127.283	423.396	0.094	-0.198
-126.268	-123.312	0.173	-0.027
-125.253	-133.330	-0.224	0.028
-124.239	-200.000	-0.032	0.404
-123.224	-200.000	0.024	-0.155
-122.210	234.934	-0.265	-0.429
-121.195	-200.000	-0.003	-0.104
