DTS Sentinel unit serial number:	SN413079Multiplexer serial number:	ORYXHardware model number:	OX4-SRSoftware version number:	ORYX F/W v4.00 Oryx Data Collector v3.7.2.0data status	okinstallation	princeton_trtdifferential loss correction	single-endedforward channel	channel 2reverse channel	N/Adate	2019/09/15time	17:27:35forward acquisition time	60.00reverse acquisition time	0.00gamma	496.2192k internal	0.2284k external	0.2284temperature offset calibration	0.9927default loss term (dB/km)	0.3790temperature slope calibration	1.0000multiplexer offset coefficient	1.0000multiplexer slope coefficient	1.0000fibre end	0.00T internal ref (°C)	44.81T ext. ref 1 (°C)	6.11T ext. ref 2 (°C)	40.49length (m)	temperature (°C)	Stokes	anti-Stokes-747.200	62.415	0.137	-0.141
-746.185	32.770	0.021	-0.019
-745.171	280.560	-0.083	-0.152
-744.156	-114.446	0.460	0.091
-743.142	18.011	0.129	-0.106
-742.127	-10.915	-0.093	-0.063
-741.112	565.897	-0.101	0.251
-740.098	-70.962	-0.099	-0.038
-739.083	107.343	0.244	-0.298
-738.069	416.230	-0.074	0.162
-737.054	45.833	-0.045	-0.043
-736.039	231.632	0.212	0.357
-735.025	-65.043	0.270	-0.112
-734.010	-200.000	0.021	-0.264
-732.996	-200.000	0.074	0.350
-731.981	120.088	-0.108	-0.137
-730.966	-81.797	0.229	-0.077
-729.952	-200.000	-0.002	0.195
-728.937	316.298	-0.133	0.257
-727.923	180.530	-0.077	0.116
-726.908	401.721	-0.098	-0.210
-725.894	-51.237	-0.213	-0.103
-724.879	390.056	-0.039	-0.083
-723.864	123.917	-0.180	-0.232
-722.850	29.954	0.082	0.072
-721.835	-154.177	0.235	-0.016
-720.821	-200.000	-0.106	0.000
-719.806	-200.000	0.194	-0.000
-718.791	-200.000	0.017	-0.350
-717.777	-65.925	-0.173	-0.071
-716.762	-26.581	-0.184	0.110
-715.748	-81.697	-0.231	0.078
-714.733	88.280	0.063	0.072
-713.718	-68.768	0.058	-0.023
-712.704	-105.350	0.121	-0.028
-711.689	-58.535	-0.219	0.097
-710.675	-94.264	0.165	0.046
-709.660	-6.610	-0.151	0.105
-708.645	-200.000	-0.039	0.293
-707.631	287.262	0.089	0.165
-706.616	-85.849	0.324	0.103
-705.602	-124.713	0.182	-0.029
-704.587	-48.538	-0.210	0.103
-703.572	-97.510	0.286	-0.076
-702.558	-125.513	-0.355	0.055
-701.543	74.200	0.056	0.060
-700.529	362.960	0.046	-0.094
-699.514	800.000	0.106	0.311
-698.499	-200.000	0.008	-0.059
-697.485	-90.588	0.068	0.020
-696.470	-200.000	0.032	-0.420
-695.456	-46.082	0.020	0.010
-694.441	-200.000	0.004	0.271
-693.426	45.168	0.277	0.262
-692.412	-25.664	0.221	-0.134
-691.397	-49.148	0.332	-0.163
-690.383	98.047	-0.016	0.018
-689.368	800.000	-0.113	-0.351
-688.354	-200.000	-0.046	-0.228
-687.339	-64.925	0.236	0.098
-686.324	-8.977	0.188	-0.129
-685.310	-144.679	-0.306	0.029
-684.295	14.043	-0.242	-0.193
-683.281	-64.576	-0.204	-0.085
-682.266	-160.875	0.253	-0.014
-681.251	28.178	-0.375	-0.324
-680.237	26.365	0.050	0.043
-679.222	26.939	-0.108	0.093
-678.208	225.974	0.075	0.125
-677.193	-115.380	-0.166	-0.032
-676.178	49.202	0.030	-0.028
-675.164	157.241	-0.153	-0.217
-674.149	-163.889	-0.106	0.005
-673.135	548.579	0.135	0.331
-672.120	-109.128	0.271	0.059
-671.105	-200.000	-0.038	0.188
-670.091	-111.818	0.233	0.048
-669.076	-200.000	-0.024	-0.193
-668.062	-200.000	0.053	0.241
-667.047	3.437	0.161	-0.120
-666.032	-118.483	0.372	0.068
-665.018	800.000	0.065	0.248
-664.003	71.246	-0.202	0.214
-662.989	-97.847	-0.120	-0.032
-661.974	-200.000	-0.114	0.000
-660.959	-121.819	0.217	0.037
-659.945	-200.000	0.047	0.306
-658.930	-64.985	0.086	-0.035
-657.916	7.344	-0.125	0.096
-656.901	-32.011	0.172	-0.098
-655.886	-200.000	0.024	0.251
-654.872	-35.572	-0.074	-0.041
-653.857	-38.751	-0.162	0.087
-652.843	-149.469	-0.262	0.021
-651.828	-200.000	-0.023	-0.287
-650.814	-200.000	-0.020	0.219
-649.799	800.000	0.042	-0.174
-648.784	425.537	0.064	0.142
-647.770	-14.622	-0.271	0.178
-646.755	800.000	0.056	0.212
-645.741	183.744	0.106	0.160
-644.726	69.217	0.084	0.089
-643.711	141.984	-0.178	0.242
-642.697	17.764	0.090	-0.073
-641.682	800.000	0.085	-0.306
-640.668	-33.318	0.099	-0.056
-639.653	83.461	0.188	0.210
-638.638	141.559	-0.113	0.153
-637.624	7.629	-0.145	-0.111
-636.609	576.898	-0.082	0.206
-635.595	67.426	0.400	-0.418
-634.580	-120.663	0.376	0.065
-633.565	-200.000	-0.004	-0.039
-632.551	-200.000	-0.002	0.077
-631.536	212.989	-0.094	0.151
-630.522	-68.704	0.182	-0.072
-629.507	411.752	0.113	0.246
-628.492	-61.973	-0.166	-0.071
-627.478	-114.013	0.072	0.014
-626.463	-200.000	0.010	-0.268
-625.449	136.945	0.120	0.161
-624.434	-71.807	0.147	0.056
-623.419	87.261	-0.169	-0.191
-622.405	42.510	0.075	0.069
-621.390	138.599	0.083	0.112
-620.376	-114.984	0.278	-0.054
-619.361	800.000	-0.082	0.274
-618.346	154.413	-0.096	-0.135
-617.332	75.619	-0.063	0.068
-616.317	-161.871	-0.167	0.009
-615.303	-200.000	-0.037	-0.235
-614.288	47.318	0.255	-0.242
-613.273	-200.000	-0.014	0.143
-612.259	800.000	0.032	-0.129
-611.244	-122.532	-0.215	0.036
-610.230	-119.325	-0.283	-0.050
-609.215	-20.394	0.125	-0.078
-608.201	-200.000	0.002	0.312
-607.186	-26.538	-0.104	0.062
-606.171	125.902	-0.167	0.216
-605.157	-55.759	-0.368	-0.168
-604.142	559.969	-0.059	-0.146
-603.128	366.398	-0.090	0.184
-602.113	21.028	-0.235	0.195
-601.098	-106.034	-0.173	-0.040
-600.084	84.982	-0.096	0.108
-599.069	289.007	0.101	-0.187
-598.055	83.167	-0.210	0.234
-597.040	0.077	-0.075	-0.055
-596.025	0.248	-0.255	-0.186
-595.011	-51.609	0.209	0.099
-593.996	-176.446	-0.291	-0.008
-592.982	407.195	-0.046	-0.099
-591.967	118.003	0.275	-0.346
-590.952	-36.763	-0.288	-0.158
-589.938	-45.478	0.127	0.065
-588.923	-101.710	0.269	-0.067
-587.909	198.763	-0.225	-0.351
-586.894	702.335	0.180	0.484
-585.879	-23.921	0.260	0.159
-584.865	-14.204	0.093	0.061
-583.850	-187.955	-0.034	0.000
-582.836	100.287	-0.070	0.083
-581.821	-99.182	-0.104	0.027
-580.806	251.567	-0.084	-0.145
-579.792	18.572	0.129	0.105
-578.777	-200.000	0.020	0.163
-577.763	-53.232	0.342	-0.160
-576.748	800.000	-0.064	0.220
-575.733	800.000	-0.089	-0.319
-574.719	21.638	-0.319	-0.265
-573.704	-70.311	-0.060	-0.023
-572.690	524.467	0.046	-0.110
-571.675	-17.413	-0.107	0.069
-570.661	411.033	0.109	-0.236
-569.646	-200.000	-0.012	-0.234
-568.631	800.000	0.041	-0.162
-567.617	-200.000	0.047	-0.457
-566.602	-200.000	0.014	-0.139
-565.588	3.151	0.162	-0.120
-564.573	155.999	-0.120	0.168
-563.558	-200.000	0.033	0.254
-562.544	-200.000	-0.026	-0.154
-561.529	2.370	-0.114	0.084
-560.515	-27.478	-0.079	-0.047
-559.500	800.000	0.053	-0.230
-558.485	-200.000	0.013	-0.064
-557.471	604.802	-0.108	-0.274
-556.456	-200.000	0.011	-0.182
-555.442	541.975	-0.111	-0.270
-554.427	800.000	-0.048	0.201
-553.412	-27.413	0.126	-0.075
-552.398	-200.000	0.113	-0.000
-551.383	453.093	0.060	-0.135
-550.369	731.612	0.024	0.066
-549.354	-43.825	0.349	0.179
-548.339	65.085	0.047	-0.049
-547.325	72.780	0.174	0.185
-546.310	94.557	0.089	0.103
-545.296	-84.993	-0.225	-0.072
-544.281	-158.092	0.159	0.010
-543.266	-200.000	0.003	0.031
-542.252	71.124	0.218	0.230
-541.237	-117.421	0.345	0.064
-540.223	104.997	0.150	-0.181
-539.208	-23.139	0.135	-0.083
-538.193	-200.000	-0.010	0.171
-537.179	47.491	-0.145	0.138
-536.164	63.677	-0.112	-0.115
-535.150	20.180	0.259	-0.213
-534.135	-75.746	-0.128	0.046
-533.121	4.559	0.252	-0.188
-532.106	-68.389	-0.305	0.121
-531.091	-160.987	0.053	0.003
-530.077	128.344	0.144	-0.186
-529.062	-78.249	-0.197	0.069
-528.048	-87.826	0.230	-0.071
-527.033	93.204	0.091	-0.104
-526.018	38.276	-0.099	-0.090
-525.004	-42.195	0.087	-0.045
-523.989	-167.610	0.111	-0.005
-522.975	-61.697	0.235	0.100
-521.960	-175.669	-0.391	-0.011
-520.945	-25.248	-0.287	0.173
-519.931	518.571	0.039	-0.092
-518.916	-200.000	0.012	0.202
-517.902	-140.644	-0.125	0.013
-516.887	-44.020	0.098	0.050
-515.872	-37.800	0.376	-0.203
-514.858	383.484	0.177	-0.370
-513.843	-188.633	0.022	-0.000
-512.829	-168.344	0.176	-0.007
-511.814	-39.827	-0.162	0.086
-510.799	-73.982	0.118	-0.044
-509.785	63.386	-0.234	-0.239
-508.770	620.609	0.135	-0.346
-507.756	4.936	0.171	0.128
-506.741	-117.806	0.259	0.047
-505.726	5.700	-0.260	0.196
-504.712	70.986	-0.237	-0.250
-503.697	-66.825	0.153	0.062
-502.683	100.572	0.023	-0.027
-501.668	800.000	-0.037	-0.139
-500.653	-136.881	0.164	-0.019
-499.639	-1.237	-0.145	0.104
-498.624	-110.428	-0.113	-0.024
-497.610	358.902	0.160	-0.324
-496.595	-63.888	0.112	0.047
-495.581	112.397	0.250	-0.308
-494.566	-200.000	-0.045	-0.224
-493.551	14.821	-0.179	-0.142
-492.537	-72.325	-0.096	-0.036
-491.522	125.989	-0.078	0.100
-490.508	-117.887	-0.389	-0.071
-489.493	-79.209	0.100	0.034
-488.478	4.300	-0.123	0.091
-487.464	3.911	0.279	0.208
-486.449	788.741	0.036	-0.100
-485.435	-64.447	0.123	-0.051
-484.420	52.026	-0.165	0.160
-483.405	71.850	0.031	-0.033
-482.391	-89.078	-0.183	-0.055
-481.376	800.000	0.033	-0.118
-480.362	500.455	-0.033	0.077
-479.347	-200.000	-0.024	0.661
-478.332	384.057	-0.180	0.377
-477.318	501.756	0.040	0.094
-476.303	-200.000	0.057	-0.357
-475.289	210.681	0.234	-0.374
-474.274	-114.684	0.031	-0.006
-473.259	-173.422	-0.191	0.006
-472.245	-145.956	-0.266	-0.024
-471.230	90.122	-0.073	-0.083
-470.216	800.000	0.063	-0.179
-469.201	-200.000	-0.001	0.252
-468.186	145.133	0.128	0.174
-467.172	8.216	-0.117	0.089
-466.157	-105.896	-0.193	0.044
-465.143	-32.814	-0.141	-0.079
-464.128	473.476	0.099	0.227
-463.113	-120.436	0.115	0.020
-462.099	29.226	0.280	-0.242
-461.084	-43.104	0.089	0.046
-460.070	65.456	-0.224	-0.230
-459.055	800.000	0.079	-0.231
-458.040	-109.065	-0.081	-0.017
-457.026	-200.000	-0.024	-0.183
-456.011	364.307	-0.130	-0.266
-454.997	800.000	0.034	0.137
-453.982	111.241	0.189	-0.232
-452.968	430.081	-0.015	-0.033
-451.953	-200.000	-0.023	0.300
-450.938	-39.152	-0.196	0.105
-449.924	483.537	0.180	-0.415
-448.909	174.037	0.128	-0.188
-447.895	218.510	0.051	0.082
-446.880	619.768	-0.084	0.214
-445.865	-80.160	-0.277	-0.094
-444.851	-32.409	0.173	0.098
-443.836	-31.966	0.249	0.142
-442.822	-119.325	-0.160	0.028
-441.807	-96.840	-0.226	-0.060
-440.792	-64.574	0.394	0.162
-439.778	-200.000	-0.251	-0.000
-438.763	562.772	0.117	-0.289
-437.749	63.609	-0.157	0.160
-436.734	-200.000	-0.014	-0.148
-435.719	762.733	-0.073	-0.202
-434.705	-165.790	0.407	0.018
-433.690	397.540	0.124	0.263
-432.676	800.000	-0.031	0.120
-431.661	101.717	0.036	0.042
-430.646	-200.000	-0.013	0.126
-429.632	-115.856	0.158	0.030
-428.617	-19.775	-0.391	0.245
-427.603	96.618	0.078	-0.090
-426.588	-200.000	-0.052	-0.450
-425.573	402.117	0.087	-0.185
-424.559	-200.000	0.027	0.225
-423.544	-43.003	0.067	-0.034
-422.530	97.358	0.216	-0.252
-421.515	274.631	0.173	0.310
-420.500	134.801	0.249	0.329
-419.486	66.535	-0.197	0.203
-418.471	800.000	-0.035	-0.114
-417.457	12.563	0.055	0.043
-416.442	-200.000	0.010	-0.228
-415.428	28.074	0.210	0.180
-414.413	533.329	-0.107	-0.257
-413.398	66.158	-0.081	-0.084
-412.384	-47.995	-0.162	-0.080
-411.369	88.660	0.117	0.132
-410.355	100.800	-0.136	-0.161
-409.340	413.926	0.067	-0.145
-408.325	50.564	-0.172	0.165
-407.311	116.873	0.068	-0.084
-406.296	-130.826	-0.244	-0.033
-405.282	-200.000	0.034	0.158
-404.267	-200.000	0.008	0.155
-403.252	-200.000	0.013	0.063
-402.238	357.397	0.050	-0.101
-401.223	35.606	0.089	0.079
-400.209	35.862	0.103	0.092
-399.194	-150.217	-0.370	-0.029
-398.179	-12.652	-0.103	-0.068
-397.165	-200.000	0.032	-0.168
-396.150	156.361	-0.026	0.037
-395.136	50.653	-0.079	0.076
-394.121	149.913	0.178	-0.245
-393.106	210.943	0.025	0.039
-392.092	399.552	0.091	-0.194
-391.077	-172.192	0.121	0.004
-390.063	-92.889	-0.322	0.091
-389.048	-130.481	-0.249	-0.034
-388.033	-99.210	0.020	-0.005
-387.019	-6.481	0.214	0.148
-386.004	-120.325	0.196	0.034
-384.990	320.840	-0.206	-0.397
-383.975	-35.380	-0.247	0.136
-382.960	161.704	0.051	-0.072
-381.946	117.669	-0.127	-0.159
-380.931	-200.000	-0.019	-0.235
-379.917	270.697	-0.100	-0.178
-378.902	48.868	-0.317	-0.301
-377.888	-200.000	0.045	-0.218
-376.873	-95.526	-0.049	-0.013
-375.858	-144.036	0.097	0.009
-374.844	800.000	-0.124	0.398
-373.829	-200.000	0.048	0.265
-372.815	24.999	-0.072	-0.061
-371.800	488.239	-0.157	-0.362
-370.785	-200.000	0.080	0.382
-369.771	-131.450	-0.041	-0.006
-368.756	92.924	-0.194	0.222
-367.742	-94.156	0.590	0.164
-366.727	-51.466	-0.094	0.044
-365.712	-200.000	0.020	-0.131
-364.698	-200.000	-0.022	-0.175
-363.683	302.348	0.140	-0.262
-362.669	800.000	-0.063	0.196
-361.654	-200.000	0.026	-0.261
-360.639	-142.519	0.300	0.030
-359.625	611.475	-0.047	0.120
-358.610	49.584	0.246	-0.235
-357.596	-22.966	0.037	-0.023
-356.581	131.440	0.177	0.230
-355.566	-200.000	0.021	0.271
-354.552	-14.333	0.201	0.131
-353.537	-92.814	-0.266	0.075
-352.523	-50.092	-0.080	-0.038
-351.508	-83.566	0.182	0.059
-350.493	639.364	-0.022	0.056
-349.479	-81.312	-0.248	0.083
-348.464	36.296	-0.037	0.033
-347.450	-200.000	0.022	0.155
-346.435	-73.917	-0.174	-0.064
-345.420	-79.766	0.205	-0.070
-344.406	118.170	0.141	-0.176
-343.391	409.910	-0.049	-0.104
-342.377	21.564	-0.060	0.049
-341.362	143.138	0.081	-0.109
-340.348	-145.064	-0.236	-0.022
-339.333	221.819	0.030	0.049
-338.318	-83.770	0.220	-0.071
-337.304	-144.094	-0.525	-0.050
-336.289	-200.000	0.009	-0.113
-335.275	108.777	0.198	-0.239
-334.260	-200.000	0.011	-0.113
-333.245	377.883	0.014	-0.029
-332.231	160.887	-0.138	-0.195
-331.216	-9.737	0.195	0.132
-330.202	181.239	0.197	0.293
-329.187	-200.000	-0.024	0.236
-328.172	-200.000	-0.051	-0.267
-327.158	436.000	0.045	-0.099
-326.143	-18.385	-0.056	0.036
-325.129	116.657	0.066	0.081
-324.114	-200.000	-0.012	-0.229
-323.099	365.267	0.052	-0.106
-322.085	-27.119	0.174	0.103
-321.070	0.531	-0.080	0.058
-320.056	-156.112	-0.265	-0.017
-319.041	-152.894	0.346	0.025
-318.026	-32.792	-0.158	0.089
-317.012	188.424	0.154	0.232
-315.997	-200.000	-0.052	0.343
-314.983	-105.181	-0.446	0.103
-313.968	-165.232	-0.161	-0.007
-312.953	-21.772	-0.054	-0.033
-311.939	800.000	-0.052	0.223
-310.924	-200.000	-0.026	-0.173
-309.910	800.000	0.031	0.113
-308.895	800.000	-0.096	0.373
-307.880	146.003	0.221	0.299
-306.866	800.000	0.065	0.212
-305.851	51.342	-0.005	0.004
-304.837	-200.000	0.010	-0.198
-303.822	-40.806	0.183	-0.096
-302.807	-200.000	-0.047	0.302
-301.793	74.087	-0.323	0.342
-300.778	76.022	0.306	0.327
-299.764	-200.000	0.009	0.053
-298.749	-96.937	-0.309	-0.082
-297.735	-200.000	0.036	-0.349
-296.720	-67.035	-0.130	0.052
-295.705	-98.681	0.068	0.017
-294.691	114.744	-0.208	0.256
-293.676	-166.795	-0.009	-0.000
-292.662	-40.971	0.073	-0.038
-291.647	19.002	0.216	-0.175
-290.632	-164.018	0.131	-0.006
-289.618	-77.003	-0.141	-0.050
-288.603	-200.000	-0.003	-0.095
-287.589	95.983	-0.211	-0.243
-286.574	142.635	-0.125	-0.168
-285.559	30.989	0.135	-0.117
-284.545	-200.000	0.020	-0.350
-283.530	142.810	-0.100	-0.134
-282.516	7.778	-0.143	-0.108
-281.501	109.171	-0.061	-0.073
-280.486	800.000	0.055	0.222
-279.472	106.414	-0.248	0.296
-278.457	-200.000	0.014	0.183
-277.443	112.570	-0.173	0.212
-276.428	7.788	0.209	-0.158
-275.413	289.801	0.118	0.217
-274.399	285.948	0.061	0.110
-273.384	208.648	0.060	0.095
-272.370	416.786	-0.011	0.023
-271.355	412.479	-0.126	0.270
-270.340	188.763	0.116	0.175
-269.326	120.778	0.046	0.058
-268.311	-200.000	0.005	-0.096
-267.297	450.463	0.023	0.051
-266.282	449.232	0.146	0.325
-265.267	627.172	0.030	0.077
-264.253	-200.000	0.020	0.103
-263.238	-200.000	-0.025	0.196
-262.224	800.000	-0.081	0.229
-261.209	124.295	-0.096	-0.122
-260.195	-141.195	-0.262	-0.027
-259.180	-200.000	-0.022	-0.252
-258.165	-200.000	0.034	-0.197
-257.151	227.711	0.176	0.289
-256.136	800.000	-0.030	0.129
-255.122	-130.086	-0.136	-0.019
-254.107	252.415	-0.183	-0.314
-253.092	10.396	-0.050	0.038
-252.078	-40.517	-0.242	0.126
-251.063	-200.000	-0.019	0.105
-250.049	0.613	-0.197	0.142
-249.034	-200.000	0.035	0.198
-248.019	-132.787	0.365	-0.047
-247.005	-88.055	0.277	0.084
-245.990	-29.535	-0.204	0.117
-244.976	87.038	-0.009	0.010
-243.961	208.160	-0.104	0.163
-242.946	-141.070	-0.350	0.036
-241.932	800.000	-0.083	-0.244
-240.917	800.000	-0.068	-0.200
-239.903	-172.423	0.420	0.013
-238.888	-67.571	0.022	0.009
-237.873	79.086	-0.054	-0.058
-236.859	800.000	-0.126	-0.455
-235.844	-200.000	-0.005	0.243
-234.830	23.768	0.243	0.202
-233.815	800.000	0.047	-0.151
-232.800	173.569	0.188	0.272
-231.786	-70.729	0.151	-0.058
-230.771	800.000	-0.112	-0.413
-229.757	477.477	0.053	0.122
-228.742	265.445	0.155	0.273
-227.727	27.203	0.033	-0.028
-226.713	-200.000	0.066	-0.327
-225.698	-8.541	0.297	0.201
-224.684	-73.873	0.227	-0.083
-223.669	192.595	0.161	-0.244
-222.655	-10.289	-0.171	0.114
-221.640	34.834	0.075	-0.066
-220.625	238.881	0.127	0.213
-219.611	21.791	-0.223	0.183
-218.596	409.111	0.076	-0.162
-217.582	-200.000	-0.029	0.530
-216.567	116.722	0.100	-0.123
-215.552	-5.889	0.222	0.153
-214.538	353.820	-0.172	0.343
-213.523	87.814	0.122	-0.136
-212.509	423.808	0.123	0.265
-211.494	-200.000	-0.011	-0.131
-210.479	-69.375	-0.407	0.157
-209.465	90.698	0.220	0.248
-208.450	-74.988	-0.089	-0.032
-207.436	-126.618	0.158	-0.023
-206.421	18.425	0.457	-0.367
-205.406	-57.253	0.181	0.080
-204.392	-106.722	-0.104	0.023
-203.377	-67.701	0.074	-0.029
-202.363	410.206	0.097	0.206
-201.348	129.732	-0.140	-0.180
-200.333	-46.411	0.203	0.100
-199.319	800.000	0.034	0.097
-198.304	-91.295	-0.265	-0.076
-197.290	-88.000	-0.048	0.015
-196.275	-73.893	-0.145	0.053
-195.260	209.971	-0.093	0.146
-194.246	-200.000	-0.013	0.202
-193.231	-150.584	-0.091	0.007
-192.217	5.873	0.202	-0.150
-191.202	800.000	-0.080	-0.260
-190.187	46.562	0.231	-0.215
-189.173	-18.156	0.112	0.071
-188.158	800.000	-0.099	0.279
-187.144	7.339	0.110	0.082
-186.129	-75.373	-0.091	0.032
-185.114	800.000	0.018	-0.070
-184.100	-114.260	-0.284	0.055
-183.085	-70.901	0.153	-0.058
-182.071	-67.525	-0.148	-0.058
-181.056	-60.124	-0.264	-0.113
-180.042	-67.178	-0.080	-0.032
-179.027	35.881	-0.241	0.213
-178.012	100.197	0.353	0.411
-176.998	800.000	0.058	0.203
-175.983	-0.574	-0.242	0.173
-174.969	224.679	-0.080	0.129
-173.954	-118.278	0.099	-0.018
-172.939	-104.242	0.135	0.031
-171.925	192.013	-0.045	-0.068
-170.910	-200.000	0.035	-0.160
-169.896	800.000	-0.054	0.160
-168.881	-200.000	0.011	-0.292
-167.866	-17.884	0.165	-0.104
-166.852	-87.660	-0.355	0.108
-165.837	800.000	-0.011	-0.033
-164.823	64.099	-0.308	-0.311
-163.808	421.409	-0.072	-0.155
-162.793	-83.947	-0.229	-0.073
-161.779	-52.376	0.048	-0.022
-160.764	-32.259	0.071	-0.040
-159.750	17.928	-0.316	0.252
-158.735	-120.353	0.116	0.020
-157.720	-64.571	0.195	0.080
-156.706	269.880	0.252	-0.445
-155.691	273.624	-0.069	0.123
-154.677	-179.245	-0.124	0.003
-153.662	-200.000	0.003	0.098
-152.647	-161.473	-0.395	-0.020
-151.633	800.000	-0.116	-0.345
-150.618	-200.000	0.004	-0.127
-149.604	-194.020	0.322	0.003
-148.589	205.201	0.129	-0.201
-147.574	800.000	-0.063	0.213
-146.560	-171.591	-0.110	0.004
-145.545	52.963	0.150	0.144
-144.531	274.598	-0.070	0.124
-143.516	-53.963	-0.180	0.082
-142.502	-200.000	0.002	-0.034
-141.487	-95.977	0.217	0.058
-140.472	-200.000	0.003	-0.021
-139.458	-200.000	0.017	-0.092
-138.443	-112.943	-0.273	-0.054
-137.429	-200.000	-0.012	0.093
-136.414	-142.423	-0.127	-0.013
-135.399	-94.952	0.409	-0.111
-134.385	609.214	0.055	-0.138
-133.370	266.765	-0.146	-0.256
-132.356	456.458	-0.024	0.053
-131.341	-99.645	-0.034	-0.009
-130.326	-3.614	0.225	0.157
-129.312	26.039	-0.381	-0.319
-128.297	800.000	0.065	-0.268
-127.283	-115.274	0.086	0.016
-126.268	47.287	0.320	-0.298
-125.253	131.550	-0.150	-0.193
-124.239	-35.022	-0.100	-0.055
-123.224	-4.791	0.136	0.094
-122.210	50.581	0.102	-0.097
-121.195	800.000	0.033	0.136
-120.180	-68.625	0.281	0.109
