DTS Sentinel unit serial number:	SN413079Multiplexer serial number:	ORYXHardware model number:	OX4-SRSoftware version number:	ORYX F/W v4.00 Oryx Data Collector v3.7.2.0data status	okinstallation	princeton_trtdifferential loss correction	single-endedforward channel	channel 2reverse channel	N/Adate	2019/09/11time	21:17:10forward acquisition time	60.00reverse acquisition time	0.00gamma	496.2192k internal	0.2324k external	0.2324temperature offset calibration	1.0059default loss term (dB/km)	0.3790temperature slope calibration	1.0000multiplexer offset coefficient	1.0000multiplexer slope coefficient	1.0000fibre end	0.00T internal ref (°C)	36.31T ext. ref 1 (°C)	1.62T ext. ref 2 (°C)	30.36length (m)	temperature (°C)	Stokes	anti-Stokes-747.200	414.259	0.032	0.069
-746.185	-58.254	0.249	0.109
-745.171	-200.000	0.011	0.052
-744.156	800.000	-0.107	0.356
-743.142	-112.353	-0.185	0.037
-742.127	-175.839	0.029	-0.001
-741.112	-125.711	0.312	0.048
-740.098	354.666	-0.155	0.312
-739.083	-78.639	0.059	-0.020
-738.069	-200.000	0.007	0.331
-737.054	-159.560	0.254	0.014
-736.039	52.598	-0.301	-0.290
-735.025	800.000	0.065	0.195
-734.010	-200.000	-0.026	-0.193
-732.996	337.159	-0.116	-0.227
-731.981	220.438	-0.230	0.372
-730.966	6.179	0.062	0.046
-729.952	-200.000	-0.011	-0.056
-728.937	276.444	0.080	-0.143
-727.923	445.715	-0.160	-0.356
-726.908	-7.143	-0.148	0.102
-725.894	-200.000	-0.013	0.102
-724.879	-200.000	0.033	-0.219
-723.864	146.485	-0.093	0.126
-722.850	136.490	0.060	-0.079
-721.835	-200.000	-0.021	-0.155
-720.821	-17.574	-0.083	0.053
-719.806	-200.000	-0.032	0.247
-718.791	-128.978	0.116	-0.016
-717.777	-186.828	-0.287	-0.004
-716.762	105.805	-0.155	0.184
-715.748	181.420	0.027	0.040
-714.733	218.489	-0.141	-0.227
-713.718	271.083	-0.165	-0.294
-712.704	-150.328	-0.380	-0.030
-711.689	10.169	-0.227	0.174
-710.675	-34.379	-0.100	-0.055
-709.660	-200.000	0.009	0.142
-708.645	-33.317	0.119	0.066
-707.631	-100.393	0.379	-0.095
-706.616	-64.117	-0.271	0.111
-705.602	-47.109	0.233	-0.114
-704.587	163.013	-0.093	0.131
-703.572	-10.192	0.259	0.174
-702.558	-33.792	-0.234	0.130
-701.543	561.541	0.056	0.135
-700.529	-38.177	-0.239	0.128
-699.514	-200.000	-0.030	-0.208
-698.499	400.216	0.061	0.129
-697.485	-120.196	-0.263	0.045
-696.470	-51.794	-0.161	0.076
-695.456	669.228	0.110	-0.287
-694.441	-125.706	0.251	0.038
-693.426	-35.695	-0.244	-0.133
-692.412	125.739	-0.117	-0.148
-691.397	-26.879	-0.132	-0.078
-690.383	197.578	-0.153	-0.235
-689.368	-135.032	-0.146	0.018
-688.354	-33.171	-0.216	-0.120
-687.339	-82.643	0.233	0.076
-686.324	-46.771	-0.439	-0.216
-685.310	800.000	0.011	0.036
-684.295	220.279	-0.242	-0.391
-683.281	-79.100	0.511	0.175
-682.266	181.040	-0.133	-0.197
-681.251	-62.187	-0.248	0.104
-680.237	181.214	-0.069	-0.102
-679.222	-123.889	0.179	-0.028
-678.208	-180.301	-0.837	0.018
-677.193	-78.095	-0.263	-0.091
-676.178	-163.472	-0.263	0.013
-675.164	33.633	0.122	-0.106
-674.149	-17.017	-0.352	-0.224
-673.135	81.586	0.031	-0.034
-672.120	-200.000	0.034	-0.466
-671.105	-200.000	-0.017	0.116
-670.091	-83.307	-0.302	-0.098
-669.076	800.000	-0.037	0.120
-668.062	127.118	-0.255	-0.326
-667.047	-98.086	0.197	0.051
-666.032	193.086	0.088	-0.135
-665.018	-134.766	0.125	0.015
-664.003	188.986	-0.171	-0.258
-662.989	-55.046	0.027	0.012
-661.974	78.643	-0.151	0.162
-660.959	167.322	0.193	-0.275
-659.945	-98.675	-0.221	0.057
-658.930	26.713	-0.070	-0.059
-657.916	-168.619	0.291	-0.011
-656.901	-28.959	-0.304	-0.176
-655.886	-132.131	-0.298	0.039
-654.872	350.337	-0.062	-0.123
-653.857	-69.675	-0.232	0.089
-652.843	-200.000	0.032	0.180
-651.828	-8.890	-0.042	0.028
-650.814	800.000	-0.073	-0.203
-649.799	-84.950	-0.413	-0.130
-648.784	-142.697	0.496	-0.049
-647.770	-113.828	0.058	0.011
-646.755	-136.757	-0.492	0.057
-645.741	384.692	0.040	0.082
-644.726	-136.855	-0.420	-0.049
-643.711	240.817	0.097	-0.163
-642.697	-97.106	-0.119	-0.031
-641.682	218.047	0.092	-0.148
-640.668	-9.259	0.075	0.051
-639.653	-62.717	-0.202	0.084
-638.638	800.000	-0.059	0.232
-637.624	-109.549	0.108	0.023
-636.609	77.762	0.304	-0.326
-635.595	-66.664	-0.262	0.105
-634.580	-75.038	-0.152	0.055
-633.565	152.778	0.262	-0.360
-632.551	157.790	0.080	-0.111
-631.536	590.907	-0.110	-0.272
-630.522	595.250	0.018	0.045
-629.507	435.780	-0.115	0.251
-628.492	-9.722	0.191	-0.128
-627.478	-60.323	-0.251	0.108
-626.463	-200.000	0.048	-0.481
-625.449	-169.813	-0.070	-0.003
-624.434	-52.329	0.004	-0.002
-623.419	800.000	-0.028	0.082
-622.405	-126.603	-0.109	0.016
-621.390	212.056	-0.264	-0.418
-620.376	296.503	0.038	-0.071
-619.361	-6.002	0.087	-0.060
-618.346	-116.195	0.232	0.043
-617.332	364.133	-0.113	-0.228
-616.317	800.000	0.037	-0.109
-615.303	241.533	0.098	-0.164
-614.288	-200.000	0.009	-0.060
-613.273	-55.140	-0.234	-0.106
-612.259	-42.420	-0.410	0.210
-611.244	68.473	0.364	0.375
-610.230	10.066	0.126	0.096
-609.215	65.771	0.190	0.194
-608.201	-200.000	0.021	-0.203
-607.186	-130.209	0.157	0.021
-606.171	359.784	0.062	0.124
-605.157	-38.939	-0.323	-0.171
-604.142	69.353	-0.111	-0.115
-603.128	98.342	-0.084	0.098
-602.113	800.000	-0.123	-0.354
-601.098	332.072	0.203	-0.393
-600.084	800.000	0.031	-0.100
-599.069	642.911	0.115	-0.293
-598.055	800.000	-0.071	-0.213
-597.040	-118.868	0.070	0.012
-596.025	165.884	0.206	0.292
-595.011	-15.032	-0.106	-0.068
-593.996	476.470	0.117	0.265
-592.982	2.142	0.160	-0.116
-591.967	-200.000	0.016	0.148
-590.952	-79.346	-0.154	0.052
-589.938	64.589	0.199	-0.202
-588.923	-81.739	0.132	0.043
-587.909	232.716	-0.161	0.266
-586.894	-200.000	0.036	-0.202
-585.879	320.167	-0.044	0.084
-584.865	-200.000	0.027	0.141
-583.850	800.000	0.120	-0.428
-582.836	-200.000	0.040	-0.200
-581.821	800.000	-0.011	0.040
-580.806	-200.000	-0.059	0.350
-579.792	-200.000	-0.000	-0.327
-578.777	800.000	0.122	-0.402
-577.763	-70.238	-0.152	-0.058
-576.748	80.867	-0.292	0.316
-575.733	-30.647	-0.106	-0.060
-574.719	-148.492	-0.107	-0.009
-573.704	-48.405	0.140	-0.068
-572.690	302.528	-0.034	-0.064
-571.675	-75.906	-0.141	0.050
-570.661	800.000	-0.049	-0.145
-569.646	800.000	0.051	0.214
-568.631	57.632	0.180	-0.177
-567.617	224.412	-0.073	-0.119
-566.602	-200.000	-0.020	-0.128
-565.588	800.000	-0.088	0.313
-564.573	-200.000	-0.002	0.147
-563.558	800.000	0.028	-0.091
-562.544	13.689	-0.382	0.297
-561.529	-83.234	-0.308	0.099
-560.515	107.237	-0.087	0.104
-559.500	233.964	0.165	0.273
-558.485	-200.000	-0.011	0.213
-557.471	-74.162	-0.058	0.021
-556.456	-57.236	-0.128	0.056
-555.442	-99.372	0.122	-0.031
-554.427	800.000	-0.009	-0.024
-553.412	-200.000	0.025	0.218
-552.398	-200.000	0.038	0.382
-551.383	-63.372	0.206	-0.085
-550.369	800.000	0.037	-0.145
-549.354	-100.736	0.161	-0.040
-548.339	25.142	-0.078	0.065
-547.325	-93.455	-0.214	0.059
-546.310	166.020	0.175	-0.248
-545.296	-30.736	0.340	-0.193
-544.281	-74.659	0.110	-0.040
-543.266	-200.000	0.011	0.284
-542.252	800.000	0.047	-0.140
-541.237	109.454	-0.103	0.124
-540.223	45.254	0.169	0.156
-539.208	800.000	0.038	0.122
-538.193	292.302	-0.087	-0.158
-537.179	800.000	0.013	-0.043
-536.164	-102.837	-0.149	-0.035
-535.150	-140.629	0.123	-0.013
-534.135	385.999	0.162	-0.334
-533.121	-60.778	0.055	-0.023
-532.106	10.776	-0.208	-0.159
-531.091	-75.011	0.058	0.021
-530.077	-62.307	0.146	-0.061
-529.062	238.204	0.140	-0.233
-528.048	-95.388	0.212	0.057
-527.033	-200.000	0.048	-0.357
-526.018	251.733	0.090	-0.153
-525.004	73.795	0.199	0.209
-523.989	446.871	0.171	-0.377
-522.975	258.285	-0.147	-0.254
-521.960	338.840	-0.086	0.168
-520.945	-84.932	0.114	0.036
-519.931	568.748	0.160	0.389
-518.916	-47.973	0.265	-0.128
-517.902	-200.000	-0.035	-0.186
-516.887	-39.957	0.221	0.115
-515.872	800.000	0.081	-0.291
-514.858	-117.210	-0.141	-0.026
-513.843	-54.784	-0.286	-0.129
-512.829	72.357	-0.053	0.055
-511.814	750.956	0.105	0.283
-510.799	-200.000	-0.015	0.159
-509.785	259.241	0.095	0.164
-508.770	233.988	0.103	-0.169
-507.756	32.823	0.150	0.129
-506.741	-200.000	0.006	0.149
-505.726	68.615	0.169	0.174
-504.712	-128.803	-0.037	-0.005
-503.697	210.256	0.059	-0.092
-502.683	76.080	-0.140	-0.148
-501.668	675.997	0.037	-0.096
-500.653	147.995	-0.199	-0.269
-499.639	800.000	-0.044	0.124
-498.624	-64.567	-0.284	-0.115
-497.610	-118.342	-0.347	0.062
-496.595	-80.373	-0.112	-0.038
-495.581	-195.617	-0.123	-0.001
-494.566	43.038	0.229	0.208
-493.551	-200.000	-0.036	0.394
-492.537	-56.391	0.107	-0.047
-491.522	62.683	-0.192	-0.191
-490.508	142.285	-0.193	0.256
-489.493	-25.450	-0.112	-0.066
-488.478	221.779	-0.101	-0.163
-487.464	67.150	-0.230	-0.235
-486.449	46.806	0.239	-0.222
-485.435	-147.545	-0.053	-0.004
-484.420	13.159	-0.208	-0.161
-483.405	207.340	0.060	-0.093
-482.391	294.781	0.060	-0.110
-481.376	10.713	0.151	0.115
-480.362	-200.000	-0.061	-0.432
-479.347	-200.000	0.083	0.392
-478.332	-200.000	0.007	-0.086
-477.318	-167.594	-0.216	-0.009
-476.303	115.288	0.074	-0.090
-475.289	800.000	-0.052	0.179
-474.274	-200.000	-0.002	0.233
-473.259	372.369	0.109	0.222
-472.245	380.666	-0.154	0.315
-471.230	11.863	-0.145	-0.111
-470.216	-10.952	-0.074	0.049
-469.201	-56.252	-0.131	-0.058
-468.186	-83.834	-0.120	-0.038
-467.172	-18.435	0.156	-0.097
-466.157	-106.800	-0.141	-0.031
-465.143	95.185	-0.053	0.060
-464.128	-106.426	-0.228	-0.051
-463.113	-123.212	0.133	0.021
-462.099	-15.999	0.067	0.043
-461.084	-128.274	-0.273	0.039
-460.070	-53.837	-0.317	-0.144
-459.055	534.889	0.113	0.267
-458.040	553.886	0.096	-0.231
-457.026	-200.000	0.014	-0.224
-456.011	144.864	-0.138	0.185
-454.997	-49.260	0.078	0.037
-453.982	-200.000	-0.045	-0.413
-452.968	68.758	0.137	0.141
-451.953	-19.334	-0.027	0.017
-450.938	-146.161	-0.253	0.022
-449.924	-200.000	0.049	0.233
-448.909	-62.705	0.360	0.149
-447.895	-200.000	0.033	0.209
-446.880	-106.675	-0.106	-0.024
-445.865	187.978	0.063	-0.094
-444.851	30.409	0.144	0.123
-443.836	-110.949	0.105	0.021
-442.822	800.000	0.077	0.304
-441.807	328.161	-0.144	0.276
-440.792	-14.034	-0.218	0.140
-439.778	-78.937	0.160	-0.054
-438.763	-200.000	0.032	-0.376
-437.749	354.817	-0.020	0.039
-436.734	-88.387	0.240	-0.072
-435.719	-100.314	0.266	0.066
-434.705	700.593	-0.032	-0.084
-433.690	-96.557	-0.408	0.107
-432.676	-200.000	0.009	-0.246
-431.661	-94.454	0.045	0.012
-430.646	76.831	0.291	-0.308
-429.632	-200.000	-0.014	-0.087
-428.617	234.918	0.179	0.294
-427.603	-70.317	-0.173	0.066
-426.588	-200.000	-0.015	-0.201
-425.573	139.907	0.210	0.276
-424.559	-64.132	0.138	0.056
-423.544	-200.000	-0.047	-0.285
-422.530	-177.046	-0.339	-0.008
-421.515	-86.489	-0.344	0.105
-420.500	522.114	0.022	0.051
-419.486	-200.000	0.017	0.099
-418.471	-57.647	0.069	-0.030
-417.457	-51.325	0.324	0.151
-416.442	300.263	0.061	-0.112
-415.428	800.000	-0.052	-0.162
-414.413	653.741	-0.101	-0.259
-413.398	-126.436	-0.245	-0.036
-412.384	585.585	-0.145	-0.355
-411.369	18.847	0.228	0.182
-410.355	-154.607	0.444	0.030
-409.340	77.425	0.204	-0.216
-408.325	-200.000	-0.008	0.124
-407.311	-59.744	-0.146	0.062
-406.296	248.635	-0.175	-0.295
-405.282	-149.506	-0.225	0.018
-404.267	40.533	0.213	0.191
-403.252	800.000	-0.102	-0.398
-402.238	800.000	0.035	-0.135
-401.223	-200.000	0.043	-0.323
-400.209	-200.000	-0.003	0.093
-399.194	-134.200	0.231	-0.028
-398.179	-28.248	0.302	0.174
-397.165	642.268	0.141	-0.358
-396.150	-54.408	0.317	0.143
-395.136	800.000	0.025	-0.105
-394.121	-28.762	-0.288	0.165
-393.106	-98.923	0.186	0.047
-392.092	-200.000	-0.018	-0.154
-391.077	800.000	0.053	0.153
-390.063	454.226	-0.036	0.079
-389.048	-71.446	-0.084	0.031
-388.033	18.017	-0.341	0.271
-387.019	36.265	0.235	-0.206
-386.004	328.864	0.086	-0.164
-384.990	230.538	-0.079	-0.128
-383.975	-30.378	-0.137	0.078
-382.960	19.027	-0.254	-0.202
-381.946	142.465	0.112	-0.149
-380.931	-200.000	-0.003	0.307
-379.917	97.532	0.097	-0.111
-378.902	-113.968	0.198	-0.038
-377.888	185.047	0.024	-0.035
-376.873	800.000	-0.054	-0.158
-375.858	551.066	-0.041	-0.099
-374.844	-143.748	-0.227	-0.021
-373.829	-78.737	-0.158	0.054
-372.815	-200.000	-0.007	-0.282
-371.800	-70.634	-0.275	0.104
-370.785	-109.278	-0.271	-0.057
-369.771	-113.731	0.262	-0.051
-368.756	501.449	0.117	-0.269
-367.742	-200.000	0.057	0.344
-366.727	127.373	0.086	-0.109
-365.712	147.705	0.153	-0.205
-364.698	-187.964	-0.084	-0.001
-363.683	-200.000	0.028	0.423
-362.669	-82.579	0.224	0.072
-361.654	-200.000	0.019	-0.316
-360.639	-166.192	0.336	-0.014
-359.625	-76.131	-0.110	-0.039
-358.610	17.054	0.166	0.131
-357.596	60.646	0.254	-0.250
-356.581	-51.211	0.163	0.076
-355.566	-140.326	-0.181	-0.019
-354.552	-71.446	-0.212	0.079
-353.537	-87.905	-0.221	0.066
-352.523	-200.000	-0.015	-0.083
-351.508	800.000	-0.036	-0.107
-350.493	415.495	0.124	0.263
-349.479	92.990	-0.149	0.168
-348.464	137.780	-0.237	-0.308
-347.450	29.116	0.158	0.133
-346.435	-17.713	-0.027	-0.017
-345.420	385.670	0.028	-0.058
-344.406	218.646	-0.186	0.295
-343.391	-95.675	0.150	-0.040
-342.377	-181.816	-0.368	-0.007
-341.362	119.514	-0.151	-0.186
-340.348	401.053	0.146	-0.304
-339.333	336.500	0.146	0.281
-338.318	222.158	-0.102	-0.162
-337.304	-130.554	-0.229	0.031
-336.289	82.175	0.160	0.172
-335.275	-146.411	0.143	0.012
-334.260	204.071	0.175	0.269
-333.245	256.094	-0.085	0.145
-332.231	-200.000	0.009	0.057
-331.216	151.410	-0.093	-0.126
-330.202	-39.549	0.290	-0.151
-329.187	64.479	0.107	0.107
-328.172	-83.127	-0.114	-0.036
-327.158	269.118	0.015	0.027
-326.143	22.879	-0.475	0.387
-325.129	800.000	0.030	0.095
-324.114	90.816	0.213	0.237
-323.099	-200.000	0.019	-0.097
-322.085	43.886	-0.120	-0.109
-321.070	-46.729	0.076	-0.037
-320.056	-72.218	-0.161	0.059
-319.041	716.023	0.038	0.101
-318.026	129.304	0.159	0.202
-317.012	-200.000	-0.000	-0.037
-315.997	-200.000	-0.008	0.074
-314.983	-200.000	-0.040	-0.243
-313.968	553.183	-0.114	-0.273
-312.953	163.617	-0.300	-0.419
-311.939	460.383	-0.070	0.155
-310.924	-85.109	0.388	0.120
-309.910	-32.054	-0.181	0.101
-308.895	-200.000	-0.003	0.110
-307.880	-100.572	0.294	0.072
-306.866	2.224	-0.128	-0.092
-305.851	219.492	-0.098	-0.155
-304.837	-13.720	-0.122	0.078
-303.822	-200.000	-0.049	0.312
-302.807	24.708	0.027	0.022
-301.793	-166.175	0.242	0.010
-300.778	-121.203	0.121	0.020
-299.764	-68.387	-0.286	0.110
-298.749	-200.000	-0.009	0.069
-297.735	-101.694	-0.072	-0.017
-296.720	-125.118	-0.299	-0.046
-295.705	88.196	0.298	-0.328
-294.691	800.000	-0.058	0.165
-293.676	139.832	-0.110	0.144
-292.662	-83.069	0.232	0.074
-291.647	-102.739	-0.225	-0.053
-290.632	767.498	0.121	0.328
-289.618	-7.831	0.532	0.356
-288.603	800.000	0.052	0.163
-287.589	487.580	0.076	0.173
-286.574	-175.398	-0.164	0.004
-285.559	-136.763	-0.289	-0.033
-284.545	-200.000	-0.009	0.120
-283.530	-183.821	0.108	-0.002
-282.516	72.275	0.117	-0.120
-281.501	-200.000	0.069	0.404
-280.486	-94.613	-0.438	-0.118
-279.472	341.339	-0.079	-0.154
-278.457	-200.000	0.010	0.511
-277.443	-129.063	0.146	0.020
-276.428	-38.478	0.167	0.088
-275.413	-82.178	-0.008	-0.003
-274.399	-119.075	-0.377	0.065
-273.384	-57.376	-0.224	-0.098
-272.370	-33.315	0.402	-0.220
-271.355	-101.338	-0.251	0.061
-270.340	453.506	-0.055	-0.120
-269.326	800.000	0.104	0.306
-268.311	-158.068	-0.155	0.009
-267.297	636.411	0.077	0.195
-266.282	301.734	-0.175	-0.320
-265.267	-29.984	-0.133	0.075
-264.253	-58.751	-0.474	0.203
-263.238	36.063	0.195	0.170
-262.224	-109.665	-0.120	0.025
-261.209	-127.563	-0.200	-0.029
-260.195	375.928	-0.025	-0.051
-259.180	101.383	0.056	-0.064
-258.165	-200.000	0.012	0.120
-257.151	386.896	-0.159	0.326
-256.136	-71.810	0.217	0.080
-255.122	12.759	0.011	0.008
-254.107	-24.600	0.329	0.194
-253.092	-34.101	0.217	0.118
-252.078	-69.946	0.248	-0.093
-251.063	-64.121	0.307	0.124
-250.049	-200.000	-0.010	-0.119
-249.034	-200.000	-0.038	-0.194
-248.019	-200.000	-0.041	0.178
-247.005	233.483	-0.105	-0.170
-245.990	103.324	-0.221	-0.257
-244.976	172.368	0.054	0.077
-243.961	-200.000	0.010	0.199
-242.946	-200.000	-0.007	0.058
-241.932	-36.711	-0.367	-0.195
-240.917	800.000	-0.130	0.560
-239.903	87.040	0.178	0.195
-238.888	-103.813	0.139	0.032
-237.873	92.808	-0.163	-0.182
-236.859	-88.646	-0.072	-0.021
-235.844	374.726	-0.060	0.120
-234.830	-21.020	-0.050	-0.031
-233.815	75.424	-0.024	-0.026
-232.800	768.974	0.049	-0.133
-231.786	-200.000	-0.011	-0.088
-230.771	224.912	-0.100	0.160
-229.757	664.567	-0.167	0.426
-228.742	367.000	0.085	-0.170
-227.727	-200.000	-0.008	0.130
-226.713	211.460	0.133	-0.207
-225.698	-200.000	0.019	-0.237
-224.684	800.000	-0.047	0.130
-223.669	-80.731	0.088	-0.029
-222.655	-146.350	0.154	0.013
-221.640	-16.515	0.125	0.078
-220.625	-200.000	-0.050	0.229
-219.611	800.000	-0.033	0.109
-218.596	-122.008	0.167	-0.027
-217.582	8.487	-0.204	0.152
-216.567	185.988	0.075	0.111
-215.552	123.877	0.163	-0.203
-214.538	-125.833	-0.214	-0.032
-213.523	-17.261	0.271	0.169
-212.509	-200.000	-0.005	-0.250
-211.494	108.932	-0.032	-0.038
-210.479	-200.000	-0.056	-0.247
-209.465	-136.165	-0.135	-0.016
-208.450	37.676	-0.090	-0.079
-207.436	550.212	0.067	0.160
-206.421	-110.253	0.176	0.036
-205.406	89.194	-0.230	0.254
-204.392	-200.000	-0.015	0.254
-203.377	-111.449	-0.273	0.055
-202.363	-200.000	-0.029	0.270
-201.348	-111.871	-0.275	0.055
-200.333	246.595	-0.180	-0.299
-199.319	-59.612	0.289	-0.122
-198.304	636.848	0.103	0.258
-197.290	672.069	-0.074	-0.190
-196.275	-46.254	0.371	-0.180
-195.260	26.770	0.325	0.269
-194.246	-200.000	-0.011	0.099
-193.231	-22.755	-0.183	0.109
-192.217	-13.726	0.067	0.043
-191.202	-27.168	0.187	0.108
-190.187	19.266	-0.093	-0.074
-189.173	-170.906	0.523	-0.018
-188.158	-200.000	-0.004	-0.071
-187.144	-119.951	0.191	-0.032
-186.129	47.549	-0.217	0.200
-185.114	-100.174	0.237	0.058
-184.100	-115.505	-0.073	0.014
-183.085	-74.053	-0.067	-0.024
-182.071	-32.220	0.152	0.084
-181.056	-21.807	0.259	-0.156
-180.042	198.349	0.064	-0.096
-179.027	-200.000	-0.004	-0.121
-178.012	218.032	0.135	0.212
-176.998	30.186	0.267	-0.225
-175.983	-15.831	-0.153	0.096
-174.969	-200.000	-0.012	-0.122
-173.954	-12.375	-0.128	0.083
-172.939	-114.907	0.257	-0.048
-171.925	-200.000	0.016	-0.175
-170.910	558.733	-0.024	0.057
-169.896	-200.000	0.095	-0.616
-168.881	-98.985	0.095	-0.024
-167.866	216.468	-0.163	-0.256
-166.852	106.557	0.068	-0.079
-165.837	-59.707	-0.160	-0.068
-164.823	-200.000	-0.049	-0.379
-163.808	403.380	0.095	-0.198
-162.793	-117.156	-0.297	0.053
-161.779	17.354	0.089	0.070
-160.764	-200.000	-0.014	0.085
-159.750	10.006	-0.089	-0.067
-158.735	287.018	-0.100	0.178
-157.720	30.109	0.232	0.195
-156.706	-129.149	-0.247	0.034
-155.691	-117.012	-0.228	-0.041
-154.677	-178.768	0.165	-0.004
-153.662	-200.000	0.046	0.321
-152.647	-200.000	0.024	0.173
-151.633	311.172	0.179	0.331
-150.618	800.000	-0.053	-0.204
-149.604	-143.950	-0.151	0.014
-148.589	-38.033	-0.246	-0.129
-147.574	4.213	0.318	0.230
-146.560	251.140	-0.019	0.032
-145.545	-120.446	-0.160	-0.027
-144.531	170.338	-0.089	-0.125
-143.516	-160.001	0.287	-0.015
-142.502	204.892	-0.211	0.322
-141.487	170.784	0.074	0.105
-140.472	-200.000	0.006	0.044
-139.458	-200.000	-0.096	0.532
-138.443	-1.516	0.201	-0.139
-137.429	-176.912	0.165	0.004
-136.414	-200.000	-0.036	-0.201
-135.399	800.000	-0.016	-0.052
-134.385	29.175	0.199	-0.167
-133.370	675.385	-0.143	0.366
-132.356	432.422	0.162	0.347
-131.341	136.975	0.071	0.091
-130.326	-85.578	-0.206	0.063
-129.312	64.300	0.094	0.093
-128.297	349.815	0.116	-0.226
-127.283	379.655	-0.099	0.200
-126.268	-12.808	-0.192	-0.124
-125.253	-200.000	0.021	-0.111
-124.239	-33.105	-0.074	0.040
-123.224	258.396	0.272	-0.462
