DTS Sentinel unit serial number:	SN413079Multiplexer serial number:	ORYXHardware model number:	OX4-SRSoftware version number:	ORYX F/W v4.00 Oryx Data Collector v3.7.2.0data status	okinstallation	princeton_trtdifferential loss correction	single-endedforward channel	channel 2reverse channel	N/Adate	2019/09/15time	19:47:35forward acquisition time	60.00reverse acquisition time	0.00gamma	496.2192k internal	0.2324k external	0.2324temperature offset calibration	0.9932default loss term (dB/km)	0.3790temperature slope calibration	1.0000multiplexer offset coefficient	1.0000multiplexer slope coefficient	1.0000fibre end	0.00T internal ref (°C)	36.91T ext. ref 1 (°C)	7.44T ext. ref 2 (°C)	27.01length (m)	temperature (°C)	Stokes	anti-Stokes-747.200	-61.000	0.290	-0.124
-746.185	1.829	0.202	0.147
-745.171	362.622	-0.117	0.238
-744.156	800.000	0.043	0.152
-743.142	800.000	0.054	0.221
-742.127	-84.132	-0.301	0.096
-741.112	-96.390	-0.274	-0.073
-740.098	182.951	-0.115	0.172
-739.083	26.853	0.043	0.036
-738.069	-71.543	-0.192	0.072
-737.054	800.000	-0.027	0.094
-736.039	-200.000	-0.018	0.100
-735.025	-200.000	0.022	0.207
-734.010	735.713	-0.118	0.319
-732.996	254.496	-0.163	-0.281
-731.981	-200.000	-0.002	0.043
-730.966	-42.520	-0.092	0.047
-729.952	42.679	-0.053	0.049
-728.937	-85.618	0.017	0.005
-727.923	-200.000	-0.038	-0.197
-726.908	-200.000	0.008	-0.236
-725.894	-47.452	-0.168	0.082
-724.879	88.758	-0.221	-0.248
-723.864	96.875	0.216	-0.250
-722.850	800.000	-0.077	-0.248
-721.835	-132.295	0.023	0.003
-720.821	752.872	0.044	0.119
-719.806	-158.558	0.338	-0.020
-718.791	72.578	-0.166	0.175
-717.777	-83.785	-0.144	0.046
-716.762	493.390	-0.093	0.216
-715.748	-153.683	0.262	-0.018
-714.733	-144.043	-0.306	0.029
-713.718	-123.849	-0.167	-0.027
-712.704	149.172	0.035	-0.047
-711.689	-38.692	0.047	0.025
-710.675	-94.588	0.161	0.044
-709.660	-1.021	-0.223	-0.159
-708.645	-7.213	-0.213	0.146
-707.631	-71.546	0.160	0.060
-706.616	-41.590	-0.157	-0.081
-705.602	3.073	-0.150	-0.110
-704.587	10.295	-0.070	0.054
-703.572	-200.000	0.043	0.432
-702.558	800.000	0.039	-0.129
-701.543	84.640	0.194	-0.214
-700.529	-21.294	0.294	-0.181
-699.514	19.601	-0.304	-0.246
-698.499	-168.269	0.319	-0.012
-697.485	131.343	-0.198	0.256
-696.470	642.211	-0.046	-0.118
-695.456	-200.000	-0.041	-0.258
-694.441	137.476	0.207	0.273
-693.426	-173.219	-0.103	0.003
-692.412	4.182	-0.208	0.154
-691.397	-200.000	0.029	-0.243
-690.383	800.000	-0.089	0.276
-689.368	152.171	-0.270	0.371
-688.354	-94.566	0.186	0.051
-687.339	32.540	-0.309	-0.269
-686.324	-200.000	-0.184	-0.001
-685.310	43.963	-0.394	-0.364
-684.295	-200.000	-0.011	0.217
-683.281	-103.184	-0.196	0.047
-682.266	523.625	-0.119	-0.282
-681.251	154.929	-0.135	0.187
-680.237	800.000	0.093	-0.281
-679.222	-101.995	-0.258	-0.063
-678.208	-172.273	-0.195	0.006
-677.193	149.654	-0.117	0.160
-676.178	-200.000	-0.032	-0.220
-675.164	97.651	-0.170	-0.197
-674.149	-200.000	-0.015	0.187
-673.135	800.000	-0.082	-0.247
-672.120	-115.638	0.062	0.012
-671.105	-62.831	0.258	-0.107
-670.091	-88.352	-0.307	0.092
-669.076	-200.000	0.018	-0.476
-668.062	-97.646	0.171	0.045
-667.047	-200.000	-0.064	-0.533
-666.032	-99.212	0.024	-0.006
-665.018	694.737	0.116	0.305
-664.003	-50.714	0.035	-0.017
-662.989	32.633	-0.193	-0.168
-661.974	-132.973	-0.167	-0.021
-660.959	-143.845	-0.152	0.014
-659.945	-45.251	-0.173	-0.087
-658.930	-200.000	-0.029	0.264
-657.916	151.477	0.041	-0.056
-656.901	800.000	0.068	-0.211
-655.886	-115.983	-0.239	-0.045
-654.872	-54.350	-0.191	-0.087
-653.857	800.000	0.083	-0.300
-652.843	8.523	0.319	-0.241
-651.828	76.694	-0.298	-0.318
-650.814	800.000	0.041	0.123
-649.799	-112.340	-0.140	0.028
-648.784	25.361	-0.238	0.199
-647.770	-172.320	0.062	0.002
-646.755	800.000	-0.036	-0.118
-645.741	-78.518	0.429	-0.148
-644.726	30.003	-0.202	0.173
-643.711	-50.126	0.399	-0.190
-642.697	-200.000	0.019	0.173
-641.682	83.181	-0.084	0.091
-640.668	-81.687	-0.342	-0.113
-639.653	-65.078	-0.115	-0.047
-638.638	-25.490	-0.372	-0.221
-637.624	41.731	-0.301	0.275
-636.609	-200.000	0.003	-0.230
-635.595	20.019	-0.120	-0.097
-634.580	257.181	-0.193	-0.333
-633.565	42.284	0.158	0.145
-632.551	-96.190	-0.060	0.016
-631.536	23.609	0.118	-0.097
-630.522	151.159	0.065	-0.089
-629.507	63.924	-0.196	-0.198
-628.492	-186.546	-0.255	-0.004
-627.478	800.000	0.093	-0.357
-626.463	-40.692	0.137	0.071
-625.449	743.721	-0.069	-0.186
-624.434	800.000	0.017	0.059
-623.419	800.000	0.092	0.347
-622.405	38.558	0.126	0.113
-621.390	-39.777	0.254	0.133
-620.376	739.616	-0.101	0.272
-619.361	800.000	-0.050	-0.182
-618.346	-188.379	-0.254	-0.003
-617.332	437.791	-0.078	-0.170
-616.317	114.464	0.152	-0.186
-615.303	-84.254	-0.167	-0.053
-614.288	207.033	-0.195	-0.305
-613.273	18.833	-0.267	-0.215
-612.259	800.000	-0.067	-0.199
-611.244	-200.000	0.024	-0.176
-610.230	-53.364	-0.223	0.103
-609.215	-148.561	-0.239	0.020
-608.201	-200.000	-0.040	-0.384
-607.186	-48.019	0.278	-0.135
-606.171	209.809	0.012	-0.018
-605.157	800.000	0.024	0.076
-604.142	-50.866	0.236	-0.111
-603.128	720.437	0.090	0.241
-602.113	-8.059	0.148	-0.100
-601.098	-27.183	-0.158	0.092
-600.084	218.951	0.132	0.212
-599.069	-200.000	0.039	-0.274
-598.055	800.000	-0.091	-0.352
-597.040	-87.196	-0.192	0.059
-596.025	-117.080	-0.252	0.046
-595.011	592.189	0.074	0.183
-593.996	-80.098	0.278	-0.094
-592.982	-74.914	0.255	0.092
-591.967	-53.215	0.211	-0.097
-590.952	345.152	-0.115	0.227
-589.938	722.754	0.074	-0.199
-588.923	210.437	0.071	0.111
-587.909	-41.774	-0.344	-0.177
-586.894	-46.073	-0.141	-0.070
-585.879	175.892	0.028	0.041
-584.865	-122.194	-0.073	0.012
-583.850	432.356	0.137	-0.297
-582.836	0.246	-0.114	0.081
-581.821	32.134	-0.125	0.109
-580.806	-148.872	0.431	-0.035
-579.792	-3.349	0.343	-0.240
-578.777	708.285	-0.056	-0.147
-577.763	84.934	0.223	-0.245
-576.748	426.655	0.103	-0.223
-575.733	-95.625	-0.238	-0.064
-574.719	-200.000	-0.008	-0.290
-573.704	-200.000	0.045	-0.225
-572.690	208.921	0.118	-0.186
-571.675	-200.000	0.032	-0.279
-570.661	30.705	0.138	0.118
-569.646	91.795	-0.271	-0.305
-568.631	-49.561	0.189	-0.090
-567.617	-16.983	-0.119	0.075
-566.602	7.516	-0.015	0.011
-565.588	33.069	0.105	0.091
-564.573	-0.109	-0.054	-0.038
-563.558	13.099	-0.172	0.134
-562.544	-200.000	0.014	-0.178
-561.529	-5.904	0.430	-0.295
-560.515	800.000	-0.190	-0.645
-559.500	-106.902	-0.152	0.034
-558.485	78.521	0.112	0.120
-557.471	-177.085	0.205	-0.005
-556.456	36.025	0.186	0.164
-555.442	423.713	-0.069	-0.148
-554.427	100.988	0.142	0.166
-553.412	101.787	0.110	0.128
-552.398	800.000	0.081	-0.267
-551.383	-200.000	0.002	0.156
-550.369	459.168	0.127	0.284
-549.354	800.000	-0.104	-0.346
-548.339	-94.876	-0.079	-0.021
-547.325	83.840	-0.184	0.202
-546.310	-200.000	0.024	0.438
-545.296	-200.000	-0.022	0.254
-544.281	-167.845	-0.097	-0.004
-543.266	-7.447	-0.206	0.140
-542.252	-200.000	0.007	0.350
-541.237	5.505	-0.126	0.093
-540.223	-95.123	-0.151	0.041
-539.208	-200.000	0.013	0.278
-538.193	47.570	-0.244	0.228
-537.179	-200.000	-0.055	0.429
-536.164	-122.879	-0.148	0.024
-535.150	339.538	-0.143	0.280
-534.135	9.599	-0.036	-0.027
-533.121	-82.798	-0.255	0.083
-532.106	65.934	-0.132	-0.134
-531.091	-91.517	-0.115	0.033
-530.077	171.073	-0.078	0.112
-529.062	-116.979	-0.366	-0.067
-528.048	50.358	0.130	-0.123
-527.033	92.447	-0.054	0.061
-526.018	-200.000	0.061	0.355
-525.004	-60.311	0.039	0.017
-523.989	3.199	-0.186	0.135
-522.975	308.026	-0.133	0.249
-521.960	800.000	0.100	0.305
-520.945	-128.881	-0.218	0.031
-519.931	-130.288	-0.258	0.035
-518.916	632.600	-0.043	0.109
-517.902	10.242	-0.207	0.158
-516.887	-200.000	-0.000	0.017
-515.872	-68.764	0.170	0.066
-514.858	-52.747	-0.091	-0.042
-513.843	76.277	-0.219	-0.232
-512.829	-200.000	-0.029	-0.139
-511.814	-164.879	-0.094	0.004
-510.799	-200.000	0.012	0.173
-509.785	-29.472	0.283	0.162
-508.770	800.000	-0.104	-0.286
-507.756	106.181	0.169	-0.201
-506.741	-70.109	0.260	-0.099
-505.726	-38.083	-0.355	-0.189
-504.712	-0.938	0.144	-0.102
-503.697	-167.021	-0.107	0.004
-502.683	594.795	-0.105	-0.259
-501.668	7.084	-0.088	0.066
-500.653	75.386	0.138	-0.145
-499.639	-88.912	0.321	0.095
-498.624	335.454	-0.047	-0.091
-497.610	-200.000	-0.075	-0.409
-496.595	126.729	-0.126	-0.159
-495.581	-163.923	-0.128	0.006
-494.566	525.634	0.050	-0.118
-493.551	-51.617	-0.113	0.053
-492.537	86.279	0.070	0.077
-491.522	701.019	0.067	0.177
-490.508	800.000	-0.128	0.360
-489.493	-57.133	0.317	0.140
-488.478	-9.019	0.181	-0.121
-487.464	-200.000	0.047	-0.312
-486.449	-35.982	-0.073	-0.039
-485.435	433.273	0.030	0.066
-484.420	118.977	0.227	0.280
-483.405	382.815	0.048	0.098
-482.391	-200.000	0.008	0.272
-481.376	-141.701	-0.236	-0.024
-480.362	233.826	-0.088	-0.145
-479.347	-145.189	-0.199	-0.018
-478.332	308.415	-0.040	-0.075
-477.318	287.757	0.070	-0.126
-476.303	21.135	-0.042	0.034
-475.289	-88.497	-0.203	-0.060
-474.274	-63.979	0.062	0.025
-473.259	-200.000	-0.007	0.326
-472.245	6.007	0.291	-0.215
-471.230	108.462	0.133	-0.158
-470.216	-63.322	0.237	0.097
-469.201	-200.000	-0.016	-0.087
-468.186	302.998	0.153	-0.283
-467.172	-74.152	-0.316	0.114
-466.157	56.022	0.196	0.190
-465.143	-86.155	0.156	0.048
-464.128	-18.373	0.168	0.105
-463.113	-200.000	-0.004	0.066
-462.099	59.390	-0.338	0.332
-461.084	148.205	0.045	-0.060
-460.070	-102.674	-0.271	0.064
-459.055	458.036	-0.034	-0.076
-458.040	198.226	0.189	0.289
-457.026	-54.740	0.176	-0.079
-456.011	355.435	0.057	-0.114
-454.997	19.136	0.207	0.165
-453.982	297.104	0.046	-0.085
-452.968	800.000	0.157	-0.440
-451.953	-177.836	-0.293	0.007
-450.938	356.913	-0.041	0.082
-449.924	-27.455	-0.248	-0.144
-448.909	-6.097	0.076	-0.052
-447.895	612.150	0.088	0.219
-446.880	-101.726	-0.217	0.053
-445.865	113.182	0.135	-0.163
-444.851	69.231	-0.257	0.263
-443.836	187.012	0.253	0.377
-442.822	-188.460	0.198	-0.002
-441.807	350.791	0.158	-0.311
-440.792	-126.419	-0.515	0.076
-439.778	217.147	-0.060	-0.095
-438.763	114.307	0.036	0.044
-437.749	-92.466	0.295	-0.083
-436.734	-121.128	-0.355	0.059
-435.719	-200.000	-0.003	-0.346
-434.705	-93.261	0.373	0.103
-433.690	-36.952	0.209	0.111
-432.676	46.381	-0.191	0.176
-431.661	-48.668	-0.126	0.061
-430.646	-125.113	0.191	0.029
-429.632	-79.155	0.312	-0.106
-428.617	40.451	0.268	0.240
-427.603	638.678	-0.031	-0.078
-426.588	-23.055	-0.087	-0.052
-425.573	-45.032	0.255	-0.127
-424.559	-27.103	0.258	-0.150
-423.544	-79.835	-0.130	-0.044
-422.530	318.601	0.241	0.455
-421.515	-200.000	-0.001	-0.035
-420.500	147.822	0.008	-0.010
-419.486	-134.043	0.145	0.018
-418.471	573.277	-0.087	-0.212
-417.457	-143.357	0.412	0.039
-416.442	-104.114	0.013	-0.003
-415.428	-100.491	0.284	-0.070
-414.413	-200.000	-0.035	0.257
-413.398	-200.000	-0.021	0.255
-412.384	-34.706	-0.120	0.065
-411.369	360.516	-0.135	-0.269
-410.355	-161.120	-0.240	0.013
-409.340	-200.000	-0.157	-0.716
-408.325	-71.189	0.142	-0.053
-407.311	-152.116	0.055	-0.004
-406.296	428.305	0.085	-0.183
-405.282	-131.604	0.178	-0.023
-404.267	-52.387	0.249	-0.115
-403.252	132.466	-0.147	0.188
-402.238	22.684	0.123	0.100
-401.223	800.000	-0.060	0.192
-400.209	-200.000	0.001	-0.072
-399.194	-90.669	0.086	0.025
-398.179	126.445	0.115	-0.145
-397.165	-143.046	0.172	0.017
-396.150	-118.810	0.178	-0.031
-395.136	-167.309	0.209	-0.008
-394.121	-200.000	0.043	-0.434
-393.106	6.710	-0.061	-0.045
-392.092	-200.000	0.005	-0.175
-391.077	-200.000	-0.001	0.064
-390.063	-200.000	-0.009	-0.254
-389.048	247.077	-0.049	0.082
-388.033	730.674	-0.140	-0.373
-387.019	-167.630	-0.546	-0.022
-386.004	183.182	-0.095	-0.139
-384.990	-47.856	0.201	0.097
-383.975	93.346	0.065	0.073
-382.960	-200.000	-0.017	0.192
-381.946	-54.322	-0.234	0.106
-380.931	78.701	-0.041	0.044
-379.917	-73.477	0.032	0.011
-378.902	-200.000	-0.001	0.149
-377.888	325.673	-0.189	-0.360
-376.873	91.728	-0.279	0.312
-375.858	205.882	-0.100	-0.155
-374.844	37.310	0.165	-0.146
-373.829	-44.032	0.247	-0.124
-372.815	7.870	-0.113	-0.084
-371.800	745.597	0.082	0.219
-370.785	108.988	0.138	0.164
-369.771	-78.618	0.170	0.058
-368.756	-49.875	0.054	-0.026
-367.742	203.023	-0.044	0.068
-366.727	82.972	-0.120	-0.130
-365.712	178.090	-0.055	-0.079
-364.698	67.384	-0.198	0.201
-363.683	-119.160	0.142	-0.025
-362.669	-16.162	0.139	0.088
-361.654	52.417	0.289	-0.274
-360.639	-31.874	0.393	0.219
-359.625	-132.444	-0.247	0.032
-358.610	154.359	0.174	-0.238
-357.596	52.742	-0.155	0.147
-356.581	311.433	0.087	-0.162
-355.566	114.092	0.289	0.350
-354.552	-122.425	-0.104	-0.017
-353.537	371.644	0.055	0.112
-352.523	-150.577	0.454	0.034
-351.508	-155.726	-0.106	0.007
-350.493	-200.000	0.029	0.160
-349.479	164.412	-0.083	-0.117
-348.464	326.107	-0.138	-0.262
-347.450	800.000	-0.061	-0.266
-346.435	-70.465	-0.105	-0.039
-345.420	-189.873	0.136	0.002
-344.406	12.001	-0.328	0.251
-343.391	34.004	0.116	0.101
-342.377	-148.228	0.153	0.013
-341.362	800.000	0.015	0.049
-340.348	-29.232	0.138	-0.078
-339.333	-67.349	-0.386	-0.151
-338.318	-200.000	-0.040	0.443
-337.304	-200.000	-0.000	-0.106
-336.289	146.743	-0.084	0.113
-335.275	-108.070	0.398	0.086
-334.260	-50.846	0.039	-0.018
-333.245	800.000	-0.020	0.072
-332.231	27.893	-0.416	0.348
-331.216	800.000	-0.029	0.091
-330.202	800.000	0.040	0.128
-329.187	377.750	-0.134	-0.271
-328.172	-53.781	-0.157	-0.071
-327.158	11.331	0.202	-0.154
-326.143	194.808	0.104	-0.157
-325.129	-25.433	-0.189	0.111
-324.114	800.000	0.036	-0.103
-323.099	-200.000	-0.019	-0.089
-322.085	-200.000	-0.037	0.182
-321.070	-87.724	0.327	0.098
-320.056	-146.650	0.129	-0.011
-319.041	-122.979	-0.250	-0.040
-318.026	-24.133	0.231	-0.137
-317.012	172.585	0.102	-0.146
-315.997	197.547	0.089	-0.134
-314.983	-117.645	-0.119	-0.021
-313.968	149.832	-0.088	-0.118
-312.953	3.732	-0.235	0.170
-311.939	751.581	0.039	0.106
-310.924	-157.651	-0.161	0.010
-309.910	-72.995	-0.089	-0.033
-308.895	-20.482	-0.080	0.049
-307.880	26.337	0.098	-0.081
-306.866	-113.344	-0.356	0.069
-305.851	-200.000	0.064	0.370
-304.837	155.369	0.224	0.306
-303.822	252.764	-0.144	0.244
-302.807	-68.812	-0.234	0.090
-301.793	-129.808	0.476	-0.065
-300.778	-71.805	0.196	0.072
-299.764	-117.012	-0.086	0.015
-298.749	-36.451	0.062	-0.033
-297.735	149.415	0.119	-0.160
-296.720	-130.028	0.118	-0.016
-295.705	406.741	-0.148	0.310
-294.691	-109.091	0.100	-0.021
-293.676	306.095	0.166	0.307
-292.662	220.249	-0.084	-0.134
-291.647	800.000	0.091	0.321
-290.632	-200.000	0.008	0.102
-289.618	17.818	-0.328	-0.259
-288.603	152.446	-0.051	0.069
-287.589	-72.689	0.104	0.038
-286.574	-78.547	-0.216	-0.073
-285.559	-148.947	-0.276	-0.022
-284.545	110.470	0.066	-0.079
-283.530	-200.000	-0.012	-0.181
-282.516	411.427	-0.117	-0.247
-281.501	-29.716	-0.174	-0.098
-280.486	-129.942	-0.261	-0.035
-279.472	-200.000	0.022	0.294
-278.457	-121.121	0.156	-0.026
-277.443	256.082	0.134	0.228
-276.428	-131.028	0.282	-0.037
-275.413	-20.477	-0.240	-0.146
-274.399	283.768	-0.120	-0.214
-273.384	-79.866	0.132	0.044
-272.370	800.000	0.032	0.122
-271.355	800.000	0.032	-0.100
-270.340	-64.454	0.107	0.043
-269.326	81.540	0.060	0.064
-268.311	-200.000	0.004	-0.045
-267.297	-88.010	0.291	-0.087
-266.282	17.578	0.170	0.134
-265.267	-165.150	-0.181	0.008
-264.253	-47.850	0.265	0.127
-263.238	-63.054	0.144	0.059
-262.224	-200.000	-0.050	0.358
-261.209	279.754	-0.132	-0.233
-260.195	-54.464	-0.268	-0.120
-259.180	-62.240	0.191	-0.079
-258.165	800.000	-0.010	0.039
-257.151	-55.891	-0.040	-0.018
-256.136	-200.000	-0.034	-0.381
-255.122	-20.118	-0.047	0.028
-254.107	-200.000	0.021	0.101
-253.092	239.048	0.049	-0.080
-252.078	100.790	0.119	0.137
-251.063	-101.595	-0.344	0.083
-250.049	208.871	0.042	0.065
-249.034	-68.900	0.119	0.046
-248.019	-200.000	0.034	0.503
-247.005	-73.671	0.244	-0.088
-245.990	81.182	-0.211	0.225
-244.976	-110.026	0.266	-0.055
-243.961	386.593	0.107	-0.218
-242.946	-21.993	0.248	0.149
-241.932	100.487	0.126	-0.145
-240.917	-17.155	0.041	-0.026
-239.903	148.798	-0.168	0.225
-238.888	-135.179	0.133	-0.016
-237.873	-160.209	-0.256	0.014
-236.859	-200.000	0.011	0.057
-235.844	149.876	0.069	-0.093
-234.830	101.793	-0.147	-0.170
-233.815	27.653	0.138	-0.115
-232.800	-24.892	-0.230	0.135
-231.786	434.825	0.041	0.088
-230.771	-145.997	0.096	0.008
-229.757	72.083	0.154	-0.158
-228.742	236.591	-0.074	-0.122
-227.727	-200.000	-0.019	0.238
-226.713	-200.000	0.022	0.102
-225.698	45.278	-0.106	0.097
-224.684	-46.502	-0.201	0.098
-223.669	-50.279	0.331	0.155
-222.655	-200.000	-0.034	0.259
-221.640	235.898	-0.203	-0.333
-220.625	365.370	0.045	-0.090
-219.611	7.729	0.137	-0.101
-218.596	-117.006	0.112	-0.020
-217.582	800.000	0.028	0.098
-216.567	-129.175	-0.598	0.083
-215.552	800.000	-0.055	-0.189
-214.538	-39.932	0.006	0.003
-213.523	-86.358	-0.298	0.091
-212.509	46.357	0.126	0.116
-211.494	329.249	-0.030	0.057
-210.479	-200.000	0.050	0.238
-209.465	800.000	0.105	0.307
-208.450	-56.773	0.134	0.059
-207.436	-82.268	0.201	0.065
-206.421	7.832	0.274	-0.203
-205.406	194.773	-0.022	-0.034
-204.392	-115.206	0.190	0.036
-203.377	-16.608	-0.230	0.144
-202.363	587.625	-0.107	-0.260
-201.348	-58.450	0.184	-0.079
-200.333	-192.127	-0.163	0.002
-199.319	800.000	-0.124	-0.351
-198.304	-55.922	0.292	0.129
-197.290	-200.000	-0.029	0.173
-196.275	-97.361	-0.355	0.091
-195.260	275.507	0.044	-0.078
-194.246	800.000	0.028	0.113
-193.231	-160.374	-0.041	-0.002
-192.217	98.459	-0.093	0.106
-191.202	74.625	0.378	0.392
-190.187	-101.511	-0.138	-0.033
-189.173	-77.919	0.074	0.025
-188.158	-31.566	-0.335	-0.186
-187.144	-55.039	-0.191	-0.085
-186.129	-200.000	-0.021	0.151
-185.114	-38.750	0.143	-0.075
-184.100	-138.532	0.330	0.036
-183.085	-112.595	0.039	0.008
-182.071	-63.294	0.302	-0.123
-181.056	-36.024	-0.190	0.102
-180.042	-147.492	0.310	0.026
-179.027	800.000	0.055	-0.197
-178.012	-75.450	-0.239	-0.084
-176.998	-34.996	0.084	0.045
-175.983	800.000	0.066	-0.221
-174.969	345.927	0.056	0.108
-173.954	-200.000	-0.049	0.549
-172.939	-123.208	0.294	-0.047
-171.925	800.000	-0.086	-0.281
-170.910	-200.000	-0.062	0.389
-169.896	800.000	-0.146	-0.434
-168.881	251.161	0.129	-0.216
-167.866	433.831	0.141	0.303
-166.852	-138.629	-0.243	0.026
-165.837	-117.759	-0.186	-0.033
-164.823	-101.438	-0.555	-0.133
-163.808	-56.871	0.130	0.057
-162.793	-200.000	-0.020	-0.094
-161.779	79.036	0.141	0.149
-160.764	-200.000	0.026	-0.205
-159.750	19.518	-0.310	0.246
-158.735	800.000	-0.066	0.285
-157.720	-200.000	-0.058	-0.273
-156.706	34.884	-0.138	0.119
-155.691	-132.221	0.382	0.049
-154.677	-19.386	0.008	0.005
-153.662	-200.000	-0.039	0.201
-152.647	78.712	0.048	-0.051
-151.633	268.395	-0.196	-0.340
-150.618	6.744	-0.164	-0.120
-149.604	-127.686	-0.133	0.019
-148.589	-4.049	0.312	0.213
-147.574	224.901	0.090	0.144
-146.560	6.702	0.022	-0.016
-145.545	19.392	-0.223	0.177
-144.531	-46.699	-0.294	-0.142
-143.516	-200.000	0.042	-0.207
-142.502	276.829	0.176	-0.309
-141.487	198.310	0.210	0.316
-140.472	-200.000	-0.021	-0.202
-139.458	-152.277	0.107	-0.008
-138.443	-159.873	0.315	-0.017
-137.429	-0.064	0.124	0.087
-136.414	-69.912	0.190	-0.071
-135.399	-77.235	0.090	0.031
-134.385	-88.861	0.262	0.077
-133.370	1.049	-0.300	0.212
-132.356	800.000	0.066	-0.226
-131.341	-119.060	-0.106	0.018
-130.326	-200.000	-0.029	-0.195
-129.312	-118.544	0.177	0.031
-128.297	127.254	-0.165	0.207
-127.283	44.251	0.101	-0.091
-126.268	-200.000	0.050	-0.469
-125.253	533.414	0.089	-0.208
-124.239	-200.000	0.019	-0.103
-123.224	-200.000	0.060	-0.348
-122.210	-155.886	-0.200	-0.013
-121.195	-69.584	0.445	0.168
