DTS Sentinel unit serial number:	SN413079Multiplexer serial number:	ORYXHardware model number:	OX4-SRSoftware version number:	ORYX F/W v4.00 Oryx Data Collector v3.7.2.0data status	okinstallation	princeton_trtdifferential loss correction	single-endedforward channel	channel 2reverse channel	N/Adate	2019/09/17time	16:35:35forward acquisition time	60.00reverse acquisition time	0.00gamma	496.2192k internal	0.2292k external	0.2292temperature offset calibration	0.9984default loss term (dB/km)	0.3790temperature slope calibration	1.0000multiplexer offset coefficient	1.0000multiplexer slope coefficient	1.0000fibre end	0.00T internal ref (°C)	41.75T ext. ref 1 (°C)	0.36T ext. ref 2 (°C)	38.61length (m)	temperature (°C)	Stokes	anti-Stokes-747.200	800.000	-0.074	0.281
-746.185	757.143	0.101	0.280
-745.171	-100.232	-0.228	-0.058
-744.156	-126.554	-0.095	0.014
-743.142	-72.780	-0.148	0.056
-742.127	-118.145	0.235	-0.043
-741.112	-200.000	0.004	0.025
-740.098	0.254	-0.135	0.099
-739.083	414.411	0.169	0.369
-738.069	236.429	0.277	0.469
-737.054	194.470	-0.024	0.038
-736.039	-89.553	-0.066	-0.020
-735.025	57.400	-0.292	0.292
-734.010	-76.163	0.178	0.064
-732.996	-119.688	-0.241	0.043
-731.981	-110.056	-0.379	-0.081
-730.966	-110.981	0.185	-0.039
-729.952	-84.522	0.172	0.056
-728.937	415.560	-0.159	0.348
-727.923	-117.332	0.120	0.022
-726.908	136.567	-0.099	0.132
-725.894	-28.626	-0.373	0.220
-724.879	-62.753	0.182	-0.077
-723.864	174.411	-0.029	0.043
-722.850	-44.398	-0.114	0.058
-721.835	800.000	0.041	-0.141
-720.821	-200.000	0.391	0.001
-719.806	-200.000	-0.007	-0.198
-718.791	-127.912	-0.181	0.027
-717.777	359.551	-0.145	-0.297
-716.762	401.548	-0.027	-0.057
-715.748	225.235	-0.064	-0.106
-714.733	167.695	0.090	-0.131
-713.718	-165.566	-0.226	-0.010
-712.704	186.646	-0.194	0.295
-711.689	137.220	0.203	0.271
-710.675	-200.000	0.035	-0.171
-709.660	749.856	-0.071	-0.197
-708.645	800.000	-0.055	-0.191
-707.631	-190.897	-0.244	-0.003
-706.616	686.882	0.037	-0.099
-705.602	-16.932	0.217	-0.140
-704.587	800.000	-0.031	-0.105
-703.572	-101.760	0.150	-0.037
-702.558	210.796	-0.127	-0.204
-701.543	-61.484	0.151	-0.065
-700.529	-16.977	-0.197	0.127
-699.514	-181.192	0.458	-0.009
-698.499	109.035	-0.067	-0.082
-697.485	93.602	0.150	-0.174
-696.470	-84.425	0.476	0.154
-695.456	-71.053	0.144	-0.055
-694.441	800.000	0.023	0.082
-693.426	-200.000	0.003	-0.299
-692.412	-41.578	-0.115	-0.060
-691.397	116.997	-0.048	-0.061
-690.383	70.165	-0.056	-0.060
-689.368	800.000	-0.026	0.113
-688.354	15.174	-0.070	0.056
-687.339	148.119	0.182	-0.251
-686.324	360.376	-0.021	0.043
-685.310	-40.635	0.214	0.113
-684.295	-200.000	0.012	-0.060
-683.281	52.439	-0.041	-0.040
-682.266	329.619	-0.102	-0.200
-681.251	-182.212	-0.018	0.000
-680.237	-200.000	-0.004	-0.245
-679.222	-133.361	-0.227	-0.029
-678.208	-151.568	-0.305	-0.023
-677.193	79.835	0.200	-0.219
-676.178	716.207	-0.036	0.097
-675.164	94.041	0.075	0.087
-674.149	-88.506	-0.145	0.044
-673.135	-60.889	0.127	0.055
-672.120	-114.644	0.151	0.030
-671.105	56.090	0.125	-0.124
-670.091	-200.000	0.011	-0.058
-669.076	800.000	-0.081	-0.273
-668.062	-200.000	0.005	-0.532
-667.047	-141.140	0.173	0.018
-666.032	35.241	-0.102	-0.091
-665.018	800.000	-0.054	0.188
-664.003	171.444	-0.069	0.101
-662.989	-200.000	0.016	0.163
-661.974	51.528	0.106	-0.103
-660.959	71.361	0.197	-0.209
-659.945	-29.304	0.067	-0.039
-658.930	371.314	-0.058	-0.120
-657.916	547.822	0.136	0.331
-656.901	-28.252	-0.204	0.120
-655.886	250.491	-0.126	-0.219
-654.872	-200.000	-0.029	-0.230
-653.857	-29.672	-0.395	0.230
-652.843	537.810	-0.110	0.267
-651.828	144.134	-0.065	-0.089
-650.814	-26.272	0.198	-0.119
-649.799	-50.500	-0.093	0.045
-648.784	75.297	0.167	0.179
-647.770	-131.462	-0.446	-0.060
-646.755	-60.970	0.109	-0.047
-645.741	-19.910	0.185	-0.117
-644.726	120.421	-0.111	-0.141
-643.711	800.000	0.040	0.133
-642.697	800.000	0.032	-0.136
-641.682	-55.740	-0.081	-0.037
-640.668	-200.000	0.029	-0.345
-639.653	-200.000	-0.023	-0.118
-638.638	-200.000	0.017	0.157
-637.624	800.000	-0.039	0.128
-636.609	-200.000	0.077	-0.381
-635.595	-76.159	-0.377	-0.136
-634.580	-168.094	-0.032	-0.001
-633.565	-92.115	-0.404	-0.116
-632.551	-173.344	0.136	0.004
-631.536	800.000	-0.086	0.270
-630.522	-200.000	-0.013	0.098
-629.507	-137.142	0.207	0.024
-628.492	-200.000	-0.014	0.234
-627.478	-100.573	0.180	0.045
-626.463	-138.965	0.264	0.029
-625.449	-200.000	-0.065	-0.321
-624.434	-200.000	-0.053	0.376
-623.419	-16.100	0.214	0.138
-622.405	-200.000	0.018	-0.289
-621.390	-48.525	-0.169	0.083
-620.376	-128.289	-0.231	0.034
-619.361	800.000	0.058	-0.213
-618.346	46.140	0.033	-0.031
-617.332	134.973	0.177	0.234
-616.317	333.686	-0.060	0.118
-615.303	-18.470	-0.092	-0.059
-614.288	76.767	0.041	-0.044
-613.273	10.107	0.232	0.179
-612.259	-66.993	-0.140	0.056
-611.244	-137.954	-0.213	-0.024
-610.230	-178.752	0.264	0.006
-609.215	536.290	-0.064	-0.154
-608.201	800.000	-0.014	-0.039
-607.186	454.087	0.064	-0.145
-606.171	-122.064	0.026	-0.004
-605.157	-21.787	0.020	-0.012
-604.142	-200.000	0.014	-0.199
-603.128	267.614	0.178	0.317
-602.113	-119.594	-0.118	0.021
-601.098	-53.038	-0.188	-0.088
-600.084	800.000	-0.049	0.196
-599.069	-34.402	0.151	-0.084
-598.055	800.000	0.064	0.209
-597.040	-107.759	0.104	-0.023
-596.025	83.553	0.156	0.173
-595.011	-189.733	-0.167	-0.002
-593.996	-55.016	0.434	-0.199
-592.982	-128.897	0.083	0.012
-591.967	-200.000	0.001	-0.056
-590.952	-60.912	0.269	-0.116
-589.938	-39.893	-0.132	-0.070
-588.923	-112.938	-0.196	0.039
-587.909	311.281	-0.144	-0.274
-586.894	-76.981	-0.432	0.153
-585.879	209.623	0.202	0.323
-584.865	-78.388	-0.237	-0.083
-583.850	-200.000	0.005	-0.156
-582.836	-146.444	-0.196	-0.017
-581.821	-69.935	0.234	-0.091
-580.806	51.932	0.140	-0.135
-579.792	-200.000	0.011	-0.125
-578.777	32.924	0.117	0.103
-577.763	7.884	-0.248	0.189
-576.748	-200.000	-0.017	0.248
-575.733	39.094	-0.089	-0.081
-574.719	330.120	-0.103	-0.201
-573.704	422.641	-0.019	0.042
-572.690	-61.023	0.159	0.068
-571.675	-8.890	-0.107	0.073
-570.661	119.821	-0.174	-0.219
-569.646	-200.000	-0.034	-0.199
-568.631	137.138	-0.139	-0.185
-567.617	93.447	-0.087	-0.100
-566.602	-90.526	-0.144	-0.042
-565.588	-108.453	-0.105	0.023
-564.573	-200.000	-0.081	-0.470
-563.558	-87.591	-0.321	0.098
-562.544	215.492	-0.127	0.204
-561.529	800.000	0.040	0.148
-560.515	-200.000	-0.032	-0.202
-559.500	-75.901	-0.167	-0.060
-558.485	800.000	-0.081	0.277
-557.471	-134.420	0.093	0.012
-556.456	-200.000	-0.003	-0.108
-555.442	800.000	0.098	0.306
-554.427	-170.775	-0.485	-0.017
-553.412	238.709	-0.078	-0.131
-552.398	-100.462	0.329	-0.083
-551.383	-200.000	-0.013	-0.217
-550.369	-81.574	-0.181	-0.060
-549.354	141.871	-0.046	0.062
-548.339	800.000	-0.033	0.138
-547.325	63.880	-0.049	-0.050
-546.310	202.775	0.062	0.097
-545.296	-127.615	-0.104	-0.015
-544.281	-71.163	-0.035	0.013
-543.266	-200.000	-0.006	-0.109
-542.252	-200.000	0.068	-0.383
-541.237	-22.555	-0.286	0.176
-540.223	-109.199	-0.189	-0.041
-539.208	-200.000	-0.005	0.362
-538.193	-52.486	0.083	0.039
-537.179	0.291	-0.220	-0.159
-536.164	800.000	-0.080	0.254
-535.150	143.802	-0.028	-0.038
-534.135	-63.500	-0.475	0.198
-533.121	-200.000	0.049	0.314
-532.106	192.638	0.135	-0.207
-531.091	-54.400	-0.131	0.060
-530.077	248.342	-0.109	0.187
-529.062	121.847	-0.240	0.304
-528.048	361.009	-0.117	-0.237
-527.033	545.646	0.125	-0.303
-526.018	-26.106	-0.183	-0.109
-525.004	-68.766	-0.090	-0.035
-523.989	-200.000	-0.011	0.122
-522.975	133.288	-0.095	0.125
-521.960	76.862	-0.128	0.138
-520.945	-21.460	-0.045	-0.028
-519.931	800.000	0.028	0.083
-518.916	317.906	-0.061	-0.117
-517.902	-128.204	-0.230	-0.033
-516.887	-200.000	0.001	0.085
-515.872	-25.789	-0.154	-0.092
-514.858	327.158	0.046	-0.089
-513.843	140.363	-0.101	-0.135
-512.829	-35.028	-0.126	0.070
-511.814	179.475	0.154	-0.229
-510.799	-39.876	-0.193	0.102
-509.785	-200.000	-0.012	-0.144
-508.770	319.868	-0.108	-0.208
-507.756	-64.198	0.168	-0.069
-506.741	-64.814	-0.119	0.049
-505.726	-121.162	-0.248	0.042
-504.712	-85.463	0.098	-0.031
-503.697	-147.778	-0.320	-0.027
-502.683	800.000	-0.065	0.212
-501.668	367.424	0.063	0.130
-500.653	354.076	-0.076	-0.154
-499.639	9.718	-0.199	0.153
-498.624	229.716	0.077	0.128
-497.610	-29.743	0.201	0.116
-496.595	484.575	0.130	0.300
-495.581	570.517	-0.135	-0.332
-494.566	246.102	-0.163	0.278
-493.551	-44.262	-0.127	-0.064
-492.537	145.125	-0.185	-0.250
-491.522	-57.934	0.108	0.048
-490.508	151.399	0.179	-0.247
-489.493	-200.000	0.003	-0.280
-488.478	-31.128	-0.173	-0.099
-487.464	71.105	-0.257	0.270
-486.449	-200.000	0.016	0.137
-485.435	-66.159	0.083	0.034
-484.420	-151.244	0.479	0.036
-483.405	-154.821	-0.148	0.010
-482.391	-90.054	0.158	0.047
-481.376	-35.129	-0.327	-0.180
-480.362	-62.175	-0.030	-0.013
-479.347	-101.852	0.316	0.077
-478.332	479.860	0.045	-0.103
-477.318	-200.000	0.003	-0.159
-476.303	28.540	0.315	-0.270
-475.289	-120.038	-0.538	-0.093
-474.274	-148.075	-0.132	-0.011
-473.259	-150.692	0.273	-0.021
-472.245	-64.513	-0.186	0.077
-471.230	-154.539	0.340	-0.023
-470.216	-108.869	0.505	-0.109
-469.201	-114.807	-0.285	-0.055
-468.186	16.263	-0.123	-0.098
-467.172	-44.158	0.037	0.019
-466.157	-78.441	0.104	-0.036
-465.143	-120.723	0.100	-0.017
-464.128	-51.201	0.182	-0.086
-463.113	-200.000	0.036	-0.205
-462.099	800.000	-0.081	-0.292
-461.084	-101.324	-0.248	0.061
-460.070	341.169	-0.199	-0.393
-459.055	553.754	0.086	0.208
-458.040	-200.000	-0.011	-0.270
-457.026	122.204	-0.076	0.096
-456.011	469.030	-0.014	0.031
-454.997	-200.000	0.062	0.338
-453.982	-155.769	0.382	-0.025
-452.968	-74.364	-0.317	-0.116
-451.953	85.715	-0.186	0.206
-450.938	3.494	0.026	0.019
-449.924	800.000	0.020	0.079
-448.909	-200.000	0.018	0.090
-447.895	-60.068	0.130	-0.056
-446.880	-58.959	0.309	0.135
-445.865	-81.505	0.245	-0.081
-444.851	-200.000	0.002	0.027
-443.836	51.986	0.060	-0.058
-442.822	-189.556	0.128	-0.002
-441.807	131.248	0.138	-0.179
-440.792	218.793	-0.130	0.210
-439.778	-200.000	-0.034	0.291
-438.763	787.139	0.107	0.298
-437.749	7.503	-0.119	-0.090
-436.734	-200.000	0.022	-0.138
-435.719	-200.000	-0.018	0.188
-434.705	-78.508	-0.071	0.024
-433.690	-76.349	-0.225	-0.080
-432.676	-75.096	0.156	-0.056
-431.661	59.244	-0.072	-0.071
-430.646	150.333	-0.114	0.156
-429.632	-179.255	-0.143	-0.003
-428.617	-46.201	-0.230	0.115
-427.603	-123.508	0.191	0.031
-426.588	108.355	-0.109	0.132
-425.573	-73.358	0.117	-0.043
-424.559	22.138	-0.048	-0.039
-423.544	-139.260	0.128	-0.014
-422.530	84.300	-0.080	-0.089
-421.515	-66.450	0.087	-0.035
-420.500	800.000	0.014	-0.050
-419.486	59.212	-0.308	-0.306
-418.471	68.680	0.061	-0.064
-417.457	58.105	-0.170	0.168
-416.442	700.758	0.077	-0.206
-415.428	-200.000	0.044	0.223
-414.413	-121.685	0.108	0.018
-413.398	203.166	0.104	-0.163
-412.384	-11.771	0.171	0.114
-411.369	800.000	-0.048	0.173
-410.355	800.000	-0.025	-0.106
-409.340	125.605	0.212	-0.271
-408.325	-200.000	-0.039	-0.234
-407.311	-67.458	-0.295	0.117
-406.296	140.296	0.191	0.254
-405.282	68.727	-0.075	0.078
-404.267	24.323	-0.040	-0.033
-403.252	-200.000	0.034	0.297
-402.238	-170.983	0.600	-0.021
-401.223	-127.976	-0.192	0.028
-400.209	563.175	-0.146	-0.357
-399.194	66.354	0.212	-0.218
-398.179	-200.000	0.041	-0.237
-397.165	85.038	-0.110	0.122
-396.150	800.000	0.148	0.436
-395.136	-200.000	-0.020	0.383
-394.121	-28.676	0.349	-0.203
-393.106	33.617	0.096	-0.084
-392.092	-200.000	-0.046	-0.260
-391.077	545.132	0.228	-0.551
-390.063	-156.871	0.385	0.024
-389.048	70.219	0.310	0.323
-388.033	-41.212	0.303	-0.158
-387.019	-32.184	0.180	-0.102
-386.004	35.099	0.197	0.175
-384.990	-32.125	-0.330	0.186
-383.975	332.074	0.088	0.171
-382.960	-200.000	-0.011	-0.101
-381.946	86.861	-0.296	-0.329
-380.931	107.930	0.044	0.053
-379.917	-115.474	0.219	0.042
-378.902	-13.189	0.279	0.183
-377.888	800.000	-0.067	0.249
-376.873	661.821	0.048	-0.126
-375.858	-189.613	0.254	0.003
-374.844	-200.000	-0.035	-0.219
-373.829	-38.904	0.118	0.063
-372.815	800.000	0.013	-0.044
-371.800	16.053	-0.143	-0.113
-370.785	800.000	-0.055	0.224
-369.771	26.796	0.191	0.161
-368.756	-13.414	-0.228	-0.149
-367.742	37.612	-0.163	-0.146
-366.727	460.703	0.086	-0.193
-365.712	-31.055	0.081	0.046
-364.698	-200.000	-0.048	-0.394
-363.683	375.775	-0.079	0.163
-362.669	392.631	0.081	0.169
-361.654	326.392	0.036	0.069
-360.639	-108.437	-0.371	0.081
-359.625	-200.000	0.032	-0.159
-358.610	-1.878	0.082	-0.058
-357.596	-99.009	0.182	0.046
-356.581	192.269	0.106	-0.161
-355.566	-96.129	0.239	0.064
-354.552	192.918	0.169	-0.258
-353.537	-49.979	0.152	0.073
-352.523	609.515	-0.077	0.193
-351.508	-28.680	-0.258	0.149
-350.493	-91.357	0.136	0.039
-349.479	-98.483	-0.295	-0.076
-348.464	-167.578	0.098	-0.004
-347.450	-200.000	0.017	-0.077
-346.435	117.129	-0.211	0.262
-345.420	-36.806	-0.245	0.133
-344.406	-200.000	-0.014	-0.251
-343.391	-99.525	0.259	-0.066
-342.377	131.898	0.259	0.336
-341.362	417.336	-0.049	0.106
-340.348	-36.141	-0.180	0.098
-339.333	61.745	-0.298	0.299
-338.318	-200.000	-0.025	0.281
-337.304	-200.000	-0.044	0.246
-336.289	-200.000	0.068	-0.341
-335.275	237.108	-0.104	0.174
-334.260	574.446	0.082	-0.202
-333.245	584.975	-0.043	-0.106
-332.231	157.604	-0.015	-0.020
-331.216	-100.652	0.083	0.021
-330.202	-200.000	-0.005	-0.117
-329.187	6.689	-0.231	-0.173
-328.172	483.552	-0.063	-0.145
-327.158	723.853	0.140	-0.375
-326.143	-200.000	0.013	-0.201
-325.129	-88.053	-0.216	0.065
-324.114	2.278	0.201	-0.147
-323.099	-116.865	0.149	0.027
-322.085	-200.000	0.008	-0.077
-321.070	-62.072	0.140	0.059
-320.056	220.472	0.067	-0.108
-319.041	733.439	-0.118	0.318
-318.026	-200.000	0.029	-0.213
-317.012	152.244	0.101	0.139
-315.997	-200.000	-0.004	0.176
-314.983	-189.689	-0.297	-0.003
-313.968	-74.920	-0.238	-0.086
-312.953	260.431	0.052	-0.091
-311.939	27.829	0.133	-0.112
-310.924	241.095	0.091	0.153
-309.910	-138.204	-0.135	0.015
-308.895	646.779	0.108	-0.277
-307.880	157.762	0.150	-0.210
-306.866	-124.816	0.080	0.012
-305.851	-91.261	-0.250	0.072
-304.837	33.867	0.112	0.098
-303.822	-138.169	-0.098	-0.011
-302.807	-110.726	0.187	-0.039
-301.793	341.381	0.177	0.347
-300.778	-152.168	-0.086	-0.006
-299.764	-200.000	0.054	0.334
-298.749	46.339	0.054	-0.051
-297.735	800.000	0.060	0.245
-296.720	107.334	0.086	0.103
-295.705	-40.235	-0.349	-0.183
-294.691	-47.743	0.262	-0.128
-293.676	-90.392	-0.209	0.061
-292.662	-45.288	-0.112	-0.056
-291.647	800.000	-0.082	0.251
-290.632	63.056	-0.199	0.200
-289.618	-94.209	0.378	0.104
-288.603	-150.348	0.452	0.035
-287.589	-151.210	-0.185	-0.014
-286.574	102.840	-0.030	-0.035
-285.559	-200.000	0.009	-0.107
-284.545	-21.370	0.110	-0.067
-283.530	-15.870	0.113	0.073
-282.516	-200.000	0.015	0.289
-281.501	259.655	0.067	0.116
-280.486	-200.000	-0.071	0.359
-279.472	-99.553	0.128	0.032
-278.457	171.797	0.022	0.031
-277.443	-200.000	0.038	0.175
-276.428	-200.000	-0.011	-0.322
-275.413	-117.938	-0.048	-0.009
-274.399	69.164	0.294	0.304
-273.384	800.000	-0.083	0.235
-272.370	35.428	0.299	0.264
-271.355	-200.000	0.011	0.117
-270.340	177.306	0.109	-0.160
-269.326	217.978	0.178	0.285
-268.311	-200.000	0.001	-0.142
-267.297	-200.000	-0.049	-0.252
-266.282	-158.264	0.537	-0.031
-265.267	-169.610	-0.050	0.002
-264.253	-71.730	-0.326	0.122
-263.238	163.497	0.036	0.051
-262.224	-67.034	-0.098	0.039
-261.209	-7.629	-0.224	-0.152
-260.195	236.296	0.293	0.487
-259.180	800.000	0.086	0.250
-258.165	-55.107	-0.212	-0.096
-257.151	36.929	-0.198	-0.176
-256.136	-68.617	-0.062	0.024
-255.122	164.912	-0.105	0.149
-254.107	62.962	0.010	-0.010
-253.092	80.200	0.178	-0.192
-252.078	-114.417	-0.283	-0.055
-251.063	-200.000	-0.009	-0.117
-250.049	64.281	0.150	0.152
-249.034	564.563	-0.052	-0.127
-248.019	-200.000	0.019	0.212
-247.005	-200.000	-0.003	0.254
-245.990	-200.000	-0.150	-0.001
-244.976	-33.725	0.129	-0.071
-243.961	-7.674	-0.118	0.080
-242.946	-200.000	-0.009	0.180
-241.932	-29.997	-0.203	0.116
-240.917	0.127	0.128	-0.091
-239.903	-173.260	-0.122	-0.004
-238.888	-106.409	0.154	-0.035
-237.873	-21.641	0.312	-0.191
-236.859	800.000	0.053	0.213
-235.844	-200.000	0.254	-0.001
-234.830	-109.966	-0.405	-0.085
-233.815	-58.924	0.093	-0.041
-232.800	555.156	-0.093	0.225
-231.786	-200.000	0.015	0.243
-230.771	-115.263	-0.231	0.044
-229.757	-200.000	-0.041	0.264
-228.742	800.000	-0.102	-0.389
-227.727	-40.984	0.224	0.116
-226.713	-72.100	0.080	-0.030
-225.698	-41.413	0.286	-0.148
-224.684	141.574	-0.028	-0.038
-223.669	-116.715	0.136	0.025
-222.655	-152.364	-0.175	0.013
-221.640	-23.136	-0.250	-0.151
-220.625	-104.688	-0.231	-0.053
-219.611	322.577	-0.052	0.100
-218.596	-94.442	0.657	0.180
-217.582	3.444	0.170	0.124
-216.567	318.090	-0.046	-0.088
-215.552	183.874	-0.110	-0.164
-214.538	302.612	0.055	0.102
-213.523	17.813	-0.244	-0.195
-212.509	502.364	0.046	-0.106
-211.494	-200.000	0.059	-0.587
-210.479	35.214	0.083	-0.073
-209.465	107.450	-0.201	-0.240
-208.450	-146.439	-0.109	0.010
-207.436	-128.730	0.483	-0.068
-206.421	-21.206	0.128	-0.079
-205.406	-60.527	0.173	-0.074
-204.392	151.727	0.126	0.172
-203.377	373.003	-0.078	-0.158
-202.363	38.964	-0.091	-0.082
-201.348	800.000	0.082	-0.249
-200.333	476.176	0.030	0.067
-199.319	795.422	-0.059	-0.163
-198.304	-138.483	-0.091	-0.010
-197.290	743.988	-0.017	0.045
-196.275	465.381	-0.105	0.235
-195.260	-200.000	0.006	0.212
-194.246	153.901	0.207	0.284
-193.231	-14.615	-0.373	0.240
-192.217	-200.000	-0.012	0.202
-191.202	-200.000	0.028	-0.350
-190.187	163.312	-0.140	-0.198
-189.173	-172.224	0.212	0.007
-188.158	4.907	0.144	0.106
-187.144	-125.036	-0.136	0.021
-186.129	-23.579	-0.164	-0.099
-185.114	-191.224	0.273	0.003
-184.100	-200.000	0.004	0.157
-183.085	-200.000	0.010	0.182
-182.071	-112.014	-0.204	0.041
-181.056	74.509	0.110	0.116
-180.042	-200.000	0.041	0.345
-179.027	-94.996	-0.330	-0.089
-178.012	-131.974	-0.021	0.003
-176.998	-99.286	-0.086	0.022
-175.983	725.765	-0.045	-0.119
-174.969	800.000	-0.014	-0.042
-173.954	-200.000	0.005	0.163
-172.939	672.545	0.067	-0.174
-171.925	-200.000	-0.039	-0.182
-170.910	-51.719	-0.229	0.107
-169.896	-46.169	0.358	-0.176
-168.881	-200.000	0.012	0.144
-167.866	102.050	-0.093	-0.109
-166.852	-179.005	0.078	0.002
-165.837	421.148	0.055	-0.118
-164.823	-61.831	0.081	0.034
-163.808	205.290	-0.165	0.257
-162.793	690.444	0.094	-0.246
-161.779	-55.883	0.277	0.124
-160.764	56.151	0.208	0.202
-159.750	47.822	0.032	0.029
-158.735	195.535	-0.120	-0.182
-157.720	-200.000	0.043	-0.214
-156.706	-33.392	0.271	0.150
-155.691	49.072	-0.203	0.191
-154.677	322.111	0.209	-0.397
-153.662	90.863	0.229	-0.257
-152.647	33.846	0.153	0.134
-151.633	90.856	-0.099	-0.111
-150.618	158.898	0.115	0.159
-149.604	-200.000	0.022	0.286
-148.589	-39.483	0.404	0.212
-147.574	-146.511	-0.115	-0.010
-146.560	-200.000	-0.031	0.608
-145.545	-200.000	0.059	-0.350
-144.531	-154.632	0.121	-0.008
-143.516	-200.000	-0.011	-0.153
-142.502	40.794	0.146	-0.132
-141.487	-91.134	0.115	0.033
-140.472	-200.000	0.031	-0.244
-139.458	-174.512	0.028	0.001
-138.443	-40.725	0.095	0.049
-137.429	733.393	0.042	0.113
-136.414	-200.000	0.061	-0.377
-135.399	22.321	0.220	0.180
-134.385	-138.968	-0.285	-0.031
-133.370	-133.805	0.459	0.057
-132.356	800.000	-0.134	0.387
-131.341	-41.202	-0.210	0.108
-130.326	-1.805	0.216	0.152
-129.312	4.427	-0.146	-0.107
-128.297	-11.883	-0.194	-0.127
-127.283	12.700	-0.104	0.080
-126.268	-97.257	0.232	0.061
-125.253	212.228	-0.094	0.147
-124.239	800.000	0.104	0.324
-123.224	-53.754	0.167	-0.076
