DTS Sentinel unit serial number:	SN413079Multiplexer serial number:	ORYXHardware model number:	OX4-SRSoftware version number:	ORYX F/W v4.00 Oryx Data Collector v3.7.2.0data status	okinstallation	princeton_trtdifferential loss correction	single-endedforward channel	channel 2reverse channel	N/Adate	2019/09/14time	01:43:34forward acquisition time	60.00reverse acquisition time	0.00gamma	496.2192k internal	0.2338k external	0.2338temperature offset calibration	1.0124default loss term (dB/km)	0.3790temperature slope calibration	1.0000multiplexer offset coefficient	1.0000multiplexer slope coefficient	1.0000fibre end	0.00T internal ref (°C)	26.44T ext. ref 1 (°C)	3.21T ext. ref 2 (°C)	21.49length (m)	temperature (°C)	Stokes	anti-Stokes-747.200	800.000	0.053	0.166
-746.185	60.845	-0.229	0.228
-745.171	-39.523	0.323	-0.170
-744.156	230.638	0.168	0.275
-743.142	-200.000	-0.033	-0.217
-742.127	-50.197	-0.222	-0.106
-741.112	-122.077	-0.323	0.053
-740.098	127.265	-0.084	0.106
-739.083	-74.866	-0.333	-0.120
-738.069	-156.626	0.267	-0.017
-737.054	-148.213	-0.398	-0.033
-736.039	-4.780	-0.186	0.129
-735.025	-200.000	0.013	0.106
-734.010	-126.155	-0.191	-0.029
-732.996	800.000	-0.123	-0.368
-731.981	-200.000	0.036	-0.161
-730.966	-135.685	0.222	-0.026
-729.952	40.647	-0.181	-0.164
-728.937	228.162	0.254	-0.415
-727.923	-3.310	0.110	-0.077
-726.908	-73.834	-0.197	-0.072
-725.894	-115.836	0.172	0.032
-724.879	562.216	0.122	-0.296
-723.864	-200.000	0.030	-0.187
-722.850	123.864	-0.129	-0.163
-721.835	-200.000	-0.004	0.044
-720.821	-112.679	-0.456	-0.091
-719.806	-1.007	-0.085	-0.060
-718.791	-150.733	-0.125	-0.010
-717.777	-200.000	-0.018	0.325
-716.762	444.014	-0.051	-0.113
-715.748	-95.688	-0.233	0.063
-714.733	-200.000	-0.052	-0.324
-713.718	800.000	-0.079	-0.273
-712.704	154.910	-0.088	-0.121
-711.689	800.000	-0.036	0.127
-710.675	800.000	-0.156	-0.604
-709.660	-180.045	0.174	-0.004
-708.645	-76.153	-0.219	-0.078
-707.631	38.741	0.294	-0.263
-706.616	800.000	0.010	0.035
-705.602	539.217	0.109	-0.259
-704.587	-46.319	-0.247	-0.121
-703.572	54.613	0.030	-0.029
-702.558	63.708	-0.096	-0.097
-701.543	684.355	-0.029	-0.076
-700.529	-140.939	0.329	-0.034
-699.514	800.000	0.044	0.173
-698.499	-52.948	-0.222	-0.102
-697.485	771.392	-0.110	0.300
-696.470	-176.259	0.209	0.005
-695.456	-24.143	-0.278	-0.166
-694.441	-200.000	0.012	-0.106
-693.426	45.851	-0.115	0.106
-692.412	-150.646	0.113	-0.009
-691.397	-110.325	-0.243	0.051
-690.383	-200.000	-0.022	0.192
-689.368	800.000	-0.055	-0.184
-688.354	-4.668	-0.231	-0.160
-687.339	-200.000	-0.025	-0.326
-686.324	-179.342	0.289	-0.006
-685.310	667.099	-0.095	-0.246
-684.295	546.339	-0.049	0.117
-683.281	800.000	0.020	0.086
-682.266	-200.000	-0.010	0.226
-681.251	-97.080	0.093	-0.024
-680.237	8.182	-0.110	0.083
-679.222	-200.000	-0.016	-0.169
-678.208	226.457	-0.188	0.306
-677.193	33.737	0.226	0.196
-676.178	-31.241	0.157	-0.089
-675.164	234.417	-0.180	-0.297
-674.149	800.000	0.030	-0.116
-673.135	-114.069	-0.280	0.054
-672.120	800.000	-0.030	0.110
-671.105	-88.453	-0.336	0.100
-670.091	-39.037	0.074	-0.039
-669.076	52.078	-0.140	0.134
-668.062	-24.850	-0.396	-0.235
-667.047	-99.726	0.322	0.081
-666.032	-54.381	0.239	0.109
-665.018	-90.899	0.555	0.160
-664.003	-200.000	0.024	0.214
-662.989	219.963	-0.074	-0.119
-661.974	800.000	0.092	-0.293
-660.959	-87.937	-0.083	0.025
-659.945	318.200	-0.116	-0.219
-658.930	48.650	0.183	-0.172
-657.916	-0.155	-0.143	-0.102
-656.901	800.000	0.133	-0.372
-655.886	-200.000	-0.038	-0.202
-654.872	600.284	-0.055	0.136
-653.857	-127.949	-0.048	0.007
-652.843	14.002	-0.122	-0.095
-651.828	240.987	0.176	-0.294
-650.814	-200.000	0.031	0.247
-649.799	800.000	0.031	0.091
-648.784	66.772	-0.193	0.196
-647.770	-159.404	-0.133	-0.007
-646.755	297.802	-0.072	-0.133
-645.741	71.741	0.196	0.204
-644.726	81.525	-0.226	-0.244
-643.711	-200.000	0.043	0.249
-642.697	-133.481	-0.181	0.023
-641.682	153.297	-0.092	-0.125
-640.668	113.825	-0.148	-0.180
-639.653	-51.118	-0.207	-0.097
-638.638	33.420	0.196	-0.170
-637.624	310.495	-0.138	-0.259
-636.609	-200.000	0.008	-0.338
-635.595	-200.000	0.042	-0.275
-634.580	-155.190	-0.291	-0.019
-633.565	-200.000	0.009	0.274
-632.551	93.526	0.209	0.237
-631.536	-116.847	0.007	-0.001
-630.522	-200.000	-0.350	0.001
-629.507	698.998	-0.043	0.112
-628.492	800.000	0.014	-0.041
-627.478	800.000	0.106	-0.415
-626.463	-23.166	-0.218	0.131
-625.449	-33.367	-0.134	-0.074
-624.434	-4.483	0.093	0.064
-623.419	-200.000	-0.011	0.081
-622.405	800.000	0.137	-0.438
-621.390	-134.549	-0.318	-0.039
-620.376	-186.578	-0.273	0.004
-619.361	779.299	0.088	0.241
-618.346	13.472	-0.196	0.152
-617.332	-56.397	-0.140	-0.062
-616.317	-200.000	-0.028	-0.141
-615.303	72.579	-0.165	-0.171
-614.288	-106.243	-0.131	0.029
-613.273	-131.988	0.091	-0.012
-612.259	256.783	0.136	-0.234
-611.244	-146.553	0.176	-0.015
-610.230	-18.100	0.156	-0.097
-609.215	485.977	-0.090	0.204
-608.201	-200.000	0.020	0.099
-607.186	800.000	0.035	-0.137
-606.171	-18.934	0.145	-0.090
-605.157	800.000	-0.089	0.323
-604.142	401.890	-0.050	-0.105
-603.128	10.328	0.087	-0.066
-602.113	211.775	0.237	0.373
-601.098	35.143	-0.281	-0.246
-600.084	-144.853	0.193	-0.018
-599.069	-58.026	-0.273	0.119
-598.055	6.523	-0.184	-0.137
-597.040	-200.000	-0.055	0.351
-596.025	-44.831	0.289	0.144
-595.011	-200.000	0.018	0.435
-593.996	-200.000	-0.184	-0.000
-592.982	-36.630	0.065	0.035
-591.967	-157.575	-0.311	0.019
-590.952	-23.733	-0.201	0.120
-589.938	734.440	-0.048	-0.128
-588.923	572.246	0.095	-0.231
-587.909	-200.000	0.002	-0.194
-586.894	-56.521	-0.111	0.049
-585.879	-51.284	-0.004	0.002
-584.865	669.200	0.069	-0.178
-583.850	124.624	-0.147	0.184
-582.836	-135.512	0.151	-0.018
-581.821	-97.637	-0.140	-0.036
-580.806	800.000	0.064	-0.207
-579.792	170.621	0.050	-0.072
-578.777	-20.860	-0.307	0.188
-577.763	83.345	0.153	-0.167
-576.748	-48.921	0.265	0.127
-575.733	-60.242	-0.173	-0.073
-574.719	-3.760	-0.120	0.083
-573.704	-158.052	-0.511	0.030
-572.690	-105.492	-0.230	0.052
-571.675	800.000	-0.038	-0.160
-570.661	-86.841	-0.181	0.055
-569.646	-200.000	-0.066	0.327
-568.631	30.375	0.265	-0.225
-567.617	-200.000	-0.068	-0.305
-566.602	-62.360	-0.160	-0.066
-565.588	309.994	0.089	-0.165
-564.573	4.733	-0.187	0.137
-563.558	268.027	0.070	0.122
-562.544	-139.489	-0.248	-0.026
-561.529	-10.663	-0.074	0.049
-560.515	-200.000	0.063	0.000
-559.500	-18.227	0.031	-0.019
-558.485	117.655	-0.022	0.026
-557.471	50.129	0.182	0.171
-556.456	-138.575	0.140	0.015
-555.442	800.000	-0.023	0.065
-554.427	-200.000	0.047	0.255
-553.412	176.730	0.012	0.017
-552.398	20.765	-0.069	-0.056
-551.383	59.066	0.118	-0.116
-550.369	-112.811	0.121	0.024
-549.354	-14.562	-0.114	-0.073
-548.339	800.000	-0.099	0.411
-547.325	-55.874	-0.263	0.117
-546.310	-22.097	0.109	-0.066
-545.296	19.225	-0.149	0.119
-544.281	-157.049	-0.344	-0.021
-543.266	-51.970	-0.336	-0.156
-542.252	40.032	-0.224	0.200
-541.237	-60.637	0.282	0.119
-540.223	-85.566	-0.120	-0.037
-539.208	538.709	-0.062	0.148
-538.193	800.000	-0.050	-0.158
-537.179	-200.000	-0.040	-0.176
-536.164	-80.369	0.203	0.067
-535.150	-163.332	0.461	-0.022
-534.135	-86.079	-0.209	-0.064
-533.121	42.020	-0.144	0.130
-532.106	-142.531	0.504	0.049
-531.091	800.000	0.061	-0.235
-530.077	15.447	0.281	-0.220
-529.062	272.714	-0.076	0.133
-528.048	-98.108	-0.144	-0.037
-527.033	800.000	0.028	0.080
-526.018	-45.077	-0.070	-0.035
-525.004	26.832	-0.127	-0.106
-523.989	-83.240	-0.103	0.033
-522.975	29.782	0.135	-0.114
-521.960	516.198	-0.046	-0.106
-520.945	-200.000	-0.013	0.259
-519.931	-94.832	0.280	-0.076
-518.916	-143.946	-0.168	-0.016
-517.902	-32.563	-0.310	-0.172
-516.887	-13.710	0.204	-0.132
-515.872	13.710	0.375	0.290
-514.858	-200.000	0.003	-0.164
-513.843	-73.564	0.117	-0.042
-512.829	69.343	0.097	0.099
-511.814	800.000	-0.086	-0.304
-510.799	-200.000	0.059	-0.278
-509.785	-126.017	0.109	-0.016
-508.770	-200.000	0.068	0.307
-507.756	-200.000	0.010	0.208
-506.741	-200.000	0.006	-0.245
-505.726	-146.644	-0.180	0.016
-504.712	-95.625	0.116	-0.031
-503.697	341.159	0.228	-0.443
-502.683	-7.237	-0.161	0.109
-501.668	200.272	0.068	0.103
-500.653	-12.872	0.304	0.197
-499.639	17.544	0.161	0.127
-498.624	-29.676	-0.148	0.084
-497.610	800.000	0.143	-0.443
-496.595	-200.000	-0.009	-0.134
-495.581	100.787	-0.137	-0.158
-494.566	-34.817	-0.229	-0.124
-493.551	-116.726	-0.231	-0.042
-492.537	-200.000	-0.030	-0.269
-491.522	-79.694	0.331	0.111
-490.508	-112.089	0.150	0.030
-489.493	565.039	0.117	-0.283
-488.478	84.741	-0.228	-0.248
-487.464	-11.137	-0.084	-0.055
-486.449	-200.000	-0.010	0.049
-485.435	18.986	0.218	0.173
-484.420	-125.062	0.369	0.056
-483.405	-95.814	0.346	0.092
-482.391	-200.000	-0.011	0.184
-481.376	-200.000	0.011	0.168
-480.362	-149.340	0.064	-0.005
-479.347	380.167	-0.085	0.173
-478.332	-138.322	-0.166	-0.018
-477.318	-80.131	0.139	-0.046
-476.303	-100.780	-0.183	0.045
-475.289	261.838	0.079	-0.135
-474.274	-112.101	-0.206	0.041
-473.259	29.845	0.093	0.078
-472.245	738.559	0.079	-0.210
-471.230	49.867	0.221	-0.207
-470.216	-145.809	0.437	0.039
-469.201	-113.692	-0.184	-0.036
-468.186	22.595	-0.154	0.125
-467.172	345.424	0.144	0.280
-466.157	161.868	0.135	0.187
-465.143	-11.720	0.095	-0.062
-464.128	-149.553	-0.319	0.025
-463.113	-54.346	0.176	-0.079
-462.099	-131.344	0.296	-0.039
-461.084	-141.307	-0.241	-0.024
-460.070	-58.049	0.125	0.054
-459.055	39.811	-0.181	0.161
-458.040	-50.296	-0.248	-0.117
-457.026	186.520	-0.042	-0.062
-456.011	-200.000	-0.007	0.088
-454.997	-104.212	0.280	-0.065
-453.982	-21.982	-0.121	0.073
-452.968	289.345	-0.027	-0.048
-451.953	-98.849	0.162	-0.041
-450.938	-181.221	-0.233	0.005
-449.924	800.000	0.028	-0.105
-448.909	792.688	0.069	-0.188
-447.895	-81.150	-0.418	0.137
-446.880	-19.193	-0.285	-0.176
-445.865	-86.285	-0.048	0.015
-444.851	132.485	-0.131	-0.168
-443.836	9.489	0.235	-0.177
-442.822	44.382	0.128	0.117
-441.807	-3.583	0.190	-0.131
-440.792	-159.348	0.233	-0.013
-439.778	-154.940	-0.163	-0.011
-438.763	-15.486	-0.248	0.157
-437.749	-56.908	0.249	0.109
-436.734	-96.808	0.111	-0.029
-435.719	800.000	0.049	-0.142
-434.705	-134.861	0.023	0.003
-433.690	9.150	0.238	-0.178
-432.676	-165.193	-0.311	0.014
-431.661	-200.000	-0.000	-0.091
-430.646	376.140	-0.051	0.102
-429.632	800.000	-0.099	0.409
-428.617	-152.564	0.102	0.007
-427.603	553.638	0.105	0.251
-426.588	122.881	0.077	0.095
-425.573	-106.049	0.376	-0.084
-424.559	-200.000	0.012	0.099
-423.544	800.000	0.135	-0.394
-422.530	94.491	-0.153	0.172
-421.515	-183.133	0.101	-0.002
-420.500	345.718	-0.068	0.133
-419.486	-114.039	-0.158	-0.030
-418.471	-145.552	-0.069	-0.006
-417.457	-144.533	0.241	0.022
-416.442	274.324	0.065	-0.114
-415.428	-81.606	0.177	-0.058
-414.413	-101.350	0.246	-0.059
-413.398	-151.954	-0.145	-0.011
-412.384	-23.258	-0.415	-0.247
-411.369	33.377	0.256	-0.220
-410.355	-15.786	-0.224	-0.141
-409.340	21.082	0.075	-0.060
-408.325	180.602	-0.189	0.275
-407.311	297.838	-0.089	0.162
-406.296	-52.803	-0.147	0.067
-405.282	176.954	0.074	-0.106
-404.267	234.314	0.108	-0.176
-403.252	-64.128	0.191	0.077
-402.238	136.854	-0.105	-0.136
-401.223	-55.077	-0.103	-0.046
-400.209	20.515	-0.176	-0.141
-399.194	-200.000	-0.040	0.221
-398.179	-200.000	-0.014	-0.084
-397.165	60.866	0.082	-0.080
-396.150	-89.340	0.093	0.027
-395.136	-200.000	0.004	-0.178
-394.121	800.000	-0.017	0.069
-393.106	-120.028	-0.259	-0.044
-392.092	40.703	-0.123	0.110
-391.077	-10.141	-0.142	-0.093
-390.063	-79.721	-0.152	-0.051
-389.048	-186.517	0.243	0.003
-388.033	-61.802	0.342	-0.142
-387.019	-200.000	-0.005	-0.046
-386.004	-105.593	-0.281	0.063
-384.990	-93.004	0.241	0.066
-383.975	98.955	-0.162	0.185
-382.960	800.000	0.085	-0.244
-381.946	122.991	0.085	0.105
-380.931	25.623	0.167	0.138
-379.917	-183.061	-0.373	-0.007
-378.902	691.985	0.087	0.227
-377.888	800.000	0.095	0.316
-376.873	-100.549	-0.142	0.035
-375.858	-86.532	-0.422	-0.128
-374.844	653.549	-0.097	-0.247
-373.829	-95.282	0.090	-0.024
-372.815	800.000	0.019	0.076
-371.800	800.000	0.003	-0.009
-370.785	-200.000	-0.009	0.181
-369.771	-12.818	0.151	-0.097
-368.756	593.393	0.027	0.065
-367.742	-81.581	-0.393	0.128
-366.727	-157.298	0.494	0.030
-365.712	-90.956	0.161	0.046
-364.698	415.691	0.128	0.270
-363.683	-84.270	-0.519	-0.162
-362.669	-82.891	0.070	-0.022
-361.654	92.454	-0.349	-0.389
-360.639	56.559	-0.280	-0.269
-359.625	69.906	0.235	-0.239
-358.610	234.505	0.121	-0.198
-357.596	177.554	-0.080	0.115
-356.581	-200.000	-0.022	0.495
-355.566	3.904	0.045	0.032
-354.552	78.892	0.272	0.288
-353.537	-62.174	0.530	-0.218
-352.523	800.000	-0.111	-0.370
-351.508	-112.952	-0.400	0.078
-350.493	-101.382	0.397	-0.096
-349.479	-30.604	-0.151	-0.084
-348.464	-7.515	-0.298	0.199
-347.450	-98.722	0.077	-0.019
-346.435	-200.000	0.010	-0.076
-345.420	-200.000	-0.019	-0.304
-344.406	-164.918	-0.108	0.005
-343.391	700.860	0.050	0.130
-342.377	205.286	-0.063	-0.097
-341.362	57.770	0.230	0.222
-340.348	-93.172	-0.303	-0.083
-339.333	-132.051	0.117	-0.015
-338.318	800.000	0.067	0.203
-337.304	-78.627	-0.270	-0.091
-336.289	-200.000	0.041	0.266
-335.275	-83.389	0.066	0.021
-334.260	-200.000	0.016	-0.207
-333.245	-200.000	-0.012	0.209
-332.231	-95.021	-0.201	-0.054
-331.216	-64.289	0.060	0.024
-330.202	-117.533	0.198	-0.035
-329.187	400.016	-0.025	0.052
-328.172	-106.825	0.120	-0.026
-327.158	14.760	-0.144	-0.111
-326.143	-63.663	0.186	-0.075
-325.129	-149.896	0.162	-0.012
-324.114	800.000	0.034	0.125
-323.099	-123.172	0.416	-0.066
-322.085	-170.074	-0.460	-0.016
-321.070	-127.163	0.288	-0.042
-320.056	75.325	-0.151	0.157
-319.041	-112.297	-0.145	0.029
-318.026	-102.723	0.091	0.022
-317.012	70.832	-0.026	0.026
-315.997	-58.962	0.307	-0.131
-314.983	-93.692	-0.265	-0.072
-313.968	800.000	-0.048	0.165
-312.953	-200.000	-0.005	0.111
-311.939	203.682	-0.108	0.165
-310.924	-147.385	0.143	0.012
-309.910	99.849	0.116	0.133
-308.895	67.166	0.080	-0.080
-307.880	800.000	0.023	0.082
-306.866	446.093	0.021	0.046
-305.851	166.968	0.076	-0.106
-304.837	305.672	-0.117	-0.215
-303.822	-200.000	0.064	0.342
-302.807	533.593	-0.036	0.085
-301.793	-32.778	0.095	-0.052
-300.778	28.875	-0.274	0.229
-299.764	19.675	-0.073	0.058
-298.749	184.663	0.194	-0.283
-297.735	-126.586	0.355	-0.052
-296.720	46.487	0.525	0.480
-295.705	-200.000	-0.047	-0.210
-294.691	-200.000	0.006	-0.250
-293.676	49.540	0.072	0.067
-292.662	-113.283	0.100	0.019
-291.647	-40.097	0.225	-0.116
-290.632	106.906	0.208	0.244
-289.618	150.313	0.142	-0.191
-288.603	-57.549	0.045	-0.019
-287.589	4.873	-0.200	0.145
-286.574	-123.341	0.127	0.020
-285.559	-200.000	-0.018	-0.131
-284.545	458.224	-0.005	-0.012
-283.530	-200.000	0.134	-0.001
-282.516	-200.000	-0.017	-0.366
-281.501	-200.000	0.016	0.159
-280.486	-200.000	0.018	0.147
-279.472	-171.722	0.050	-0.002
-278.457	59.492	0.113	-0.110
-277.443	-67.113	-0.302	0.117
-276.428	-124.265	-0.356	-0.055
-275.413	516.780	0.085	-0.196
-274.399	-200.000	-0.003	-0.048
-273.384	42.873	0.064	0.057
-272.370	393.774	-0.031	0.064
-271.355	-111.210	-0.294	-0.059
-270.340	120.469	0.054	-0.066
-269.326	-98.444	-0.446	-0.113
-268.311	316.412	-0.051	0.095
-267.297	-73.217	0.137	-0.049
-266.282	428.496	0.030	-0.065
-265.267	47.653	0.069	-0.064
-264.253	345.821	0.050	-0.098
-263.238	-92.330	0.463	-0.128
-262.224	-87.869	0.063	0.019
-261.209	37.545	-0.282	0.246
-260.195	-133.098	0.201	0.025
-259.180	-172.503	-0.143	0.004
-258.165	-123.773	-0.081	0.013
-257.151	595.650	-0.153	0.373
-256.136	-148.760	-0.178	0.014
-255.122	-129.220	-0.644	0.088
-254.107	-200.000	0.046	0.214
-253.092	18.725	-0.089	-0.070
-252.078	-200.000	-0.008	-0.067
-251.063	-72.189	0.115	-0.042
-250.049	148.191	-0.288	-0.382
-249.034	-82.360	-0.309	0.099
-248.019	256.823	0.158	-0.267
-247.005	-0.698	-0.097	-0.068
-245.990	800.000	-0.011	-0.043
-244.976	800.000	-0.060	0.260
-243.961	-181.317	0.167	0.003
-242.946	121.529	-0.164	-0.201
-241.932	-125.729	-0.074	-0.011
-240.917	81.807	0.198	0.211
-239.903	-166.596	-0.191	0.008
-238.888	800.000	-0.063	-0.230
-237.873	-71.779	-0.271	0.099
-236.859	-146.484	-0.189	0.016
-235.844	81.983	0.229	0.244
-234.830	221.776	-0.136	0.215
-233.815	-60.932	0.062	0.026
-232.800	-146.323	-0.043	-0.004
-231.786	-200.000	0.016	-0.101
-230.771	-200.000	-0.028	0.167
-229.757	800.000	-0.070	0.224
-228.742	395.697	-0.116	0.237
-227.727	-16.129	0.350	0.219
-226.713	-99.129	0.141	-0.035
-225.698	-24.705	0.304	-0.178
-224.684	-39.956	0.220	-0.113
-223.669	-17.756	-0.132	0.081
-222.655	177.301	0.102	-0.146
-221.640	800.000	-0.028	-0.100
-220.625	263.980	0.052	-0.088
-219.611	-71.363	-0.325	-0.120
-218.596	-200.000	0.017	0.141
-217.582	25.069	-0.161	0.132
-216.567	658.673	-0.210	0.531
-215.552	-30.660	0.363	0.202
-214.538	218.434	-0.091	-0.142
-213.523	-94.282	-0.053	-0.014
-212.509	-5.612	0.095	-0.064
-211.494	-200.000	0.007	-0.217
-210.479	800.000	0.024	-0.089
-209.465	51.743	-0.176	0.165
-208.450	63.538	-0.250	0.247
-207.436	-136.448	0.261	0.030
-206.421	-50.728	0.156	-0.072
-205.406	-195.975	0.189	0.001
-204.392	-88.411	-0.041	-0.012
-203.377	800.000	0.131	0.441
-202.363	-5.765	-0.194	0.131
-201.348	-151.676	0.160	-0.012
-200.333	40.371	0.335	0.297
-199.319	-200.000	0.023	0.237
-198.304	-55.651	-0.109	0.048
-197.290	631.214	0.056	0.140
-196.275	-57.232	0.283	0.123
-195.260	-200.000	-0.003	-0.031
-194.246	-13.386	-0.483	-0.308
-193.231	-200.000	0.052	0.249
-192.217	-42.119	-0.156	0.079
-191.202	-118.741	0.404	0.070
-190.187	-102.816	0.026	0.006
-189.173	-12.592	-0.331	0.212
-188.158	-200.000	-0.033	0.165
-187.144	-200.000	-0.006	-0.131
-186.129	32.137	-0.102	0.086
-185.114	-200.000	-0.013	0.080
-184.100	-200.000	-0.041	-0.208
-183.085	-88.520	0.170	0.050
-182.071	15.379	0.100	-0.077
-181.056	-163.422	0.238	-0.011
-180.042	22.907	0.358	0.288
-179.027	345.033	0.126	-0.244
-178.012	-2.074	0.315	-0.217
-176.998	51.329	-0.257	-0.240
-175.983	274.246	0.166	-0.288
-174.969	200.026	0.230	-0.346
-173.954	800.000	0.069	0.213
-172.939	-200.000	-0.059	-0.294
-171.925	-12.950	0.173	0.111
-170.910	800.000	-0.044	-0.131
-169.896	-49.364	0.067	0.031
-168.881	-200.000	0.046	-0.246
-167.866	-200.000	0.001	-0.149
-166.852	-200.000	0.013	0.064
-165.837	-200.000	0.002	-0.252
-164.823	399.370	-0.168	0.345
-163.808	-200.000	-0.041	0.227
-162.793	-159.988	0.351	0.019
-161.779	-200.000	-0.022	-0.119
-160.764	41.418	0.139	0.123
-159.750	-200.000	-0.014	-0.061
-158.735	-200.000	0.001	0.190
-157.720	-95.376	0.091	0.024
-156.706	-124.610	0.247	0.038
-155.691	186.340	-0.072	0.105
-154.677	18.515	0.133	0.104
-153.662	34.191	-0.124	0.106
-152.647	176.594	-0.065	-0.092
-151.633	-62.139	0.299	-0.122
-150.618	81.425	0.368	0.390
-149.604	800.000	0.060	-0.206
-148.589	-200.000	-0.030	-0.181
-147.574	-2.504	0.257	0.177
-146.560	160.160	-0.052	-0.071
-145.545	79.603	0.075	0.078
-144.531	-100.091	-0.132	0.032
-143.516	-90.560	0.152	0.043
-142.502	800.000	0.081	-0.230
-141.487	-200.000	-0.032	0.244
-140.472	-200.000	0.041	0.250
-139.458	-200.000	-0.011	-0.253
-138.443	177.838	0.094	0.135
-137.429	68.307	-0.107	0.107
-136.414	73.565	-0.134	0.137
-135.399	-200.000	-0.007	0.078
-134.385	-82.469	-0.178	0.056
-133.370	-200.000	0.011	0.083
-132.356	-62.390	0.185	-0.076
-131.341	-88.705	-0.042	-0.012
-130.326	800.000	-0.121	-0.494
-129.312	28.999	0.184	-0.153
-128.297	-200.000	-0.031	0.340
-127.283	417.188	0.118	0.248
-126.268	-4.334	0.079	-0.053
-125.253	-149.838	0.124	-0.009
-124.239	-90.633	0.331	0.094
-123.224	255.330	-0.063	-0.106
-122.210	436.272	-0.027	-0.058
