DTS Sentinel unit serial number:	SN413079Multiplexer serial number:	ORYXHardware model number:	OX4-SRSoftware version number:	ORYX F/W v4.00 Oryx Data Collector v3.7.2.0data status	okinstallation	princeton_trtdifferential loss correction	single-endedforward channel	channel 2reverse channel	N/Adate	2019/09/13time	12:47:35forward acquisition time	60.00reverse acquisition time	0.00gamma	496.2192k internal	0.2315k external	0.2315temperature offset calibration	1.0211default loss term (dB/km)	0.3790temperature slope calibration	1.0000multiplexer offset coefficient	1.0000multiplexer slope coefficient	1.0000fibre end	0.00T internal ref (°C)	34.73T ext. ref 1 (°C)	4.59T ext. ref 2 (°C)	30.24length (m)	temperature (°C)	Stokes	anti-Stokes-747.200	-194.478	-0.154	0.001
-746.185	0.150	-0.303	0.219
-745.171	100.813	0.068	0.080
-744.156	-148.312	-0.480	-0.040
-743.142	106.322	0.086	-0.104
-742.127	778.737	0.060	0.166
-741.112	232.228	0.226	-0.376
-740.098	-200.000	-0.023	0.327
-739.083	317.431	0.071	0.136
-738.069	42.071	0.164	0.151
-737.054	4.409	-0.130	-0.096
-736.039	-200.000	-0.002	0.015
-735.025	-53.098	0.549	0.256
-734.010	147.770	0.140	0.191
-732.996	54.869	-0.188	0.184
-731.981	63.651	-0.060	0.061
-730.966	-83.042	-0.294	-0.096
-729.952	-66.672	-0.266	0.107
-728.937	-200.000	0.044	0.232
-727.923	-85.562	-0.380	0.120
-726.908	-104.771	-0.108	0.025
-725.894	-84.058	-0.313	0.101
-724.879	780.346	-0.123	-0.342
-723.864	-118.231	0.163	0.029
-722.850	-48.866	-0.049	0.024
-721.835	-200.000	0.021	0.255
-720.821	-42.133	-0.260	-0.135
-719.806	-79.532	-0.168	0.057
-718.791	48.088	0.092	0.088
-717.777	-112.502	-0.301	-0.061
-716.762	170.275	-0.091	-0.132
-715.748	-108.858	-0.322	-0.070
-714.733	91.425	-0.170	0.193
-713.718	486.248	0.109	0.252
-712.704	-173.339	0.156	0.005
-711.689	70.767	0.111	-0.117
-710.675	-200.000	0.026	-0.246
-709.660	-121.910	0.075	-0.012
-708.645	-78.309	-0.027	0.010
-707.631	-200.000	-0.005	-0.654
-706.616	82.086	0.258	-0.283
-705.602	31.333	-0.168	0.146
-704.587	75.283	0.182	0.194
-703.572	-87.465	0.237	-0.073
-702.558	261.260	-0.276	0.483
-701.543	-86.116	0.062	-0.019
-700.529	-55.925	0.235	0.106
-699.514	51.136	0.005	0.005
-698.499	-38.412	0.116	0.062
-697.485	262.299	0.096	0.168
-696.470	-146.569	0.154	-0.014
-695.456	-139.285	0.220	0.024
-694.441	800.000	0.030	-0.093
-693.426	13.794	-0.209	0.164
-692.412	-100.271	-0.213	-0.054
-691.397	800.000	0.083	-0.303
-690.383	337.505	0.189	-0.371
-689.368	523.703	0.063	-0.149
-688.354	-71.075	0.253	-0.096
-687.339	-200.000	0.022	0.145
-686.324	-200.000	-0.015	0.246
-685.310	304.791	-0.147	-0.276
-684.295	-181.817	0.133	0.003
-683.281	-80.941	0.254	-0.085
-682.266	-200.000	-0.002	-0.297
-681.251	145.408	0.127	-0.172
-680.237	800.000	0.067	-0.206
-679.222	-110.579	-0.016	0.003
-678.208	41.052	0.143	-0.131
-677.193	418.381	0.166	-0.359
-676.178	-161.557	-0.170	-0.009
-675.164	-130.520	-0.210	-0.029
-674.149	-189.640	0.196	0.002
-673.135	32.201	-0.135	-0.118
-672.120	-200.000	-0.007	0.257
-671.105	-200.000	0.045	0.204
-670.091	800.000	0.029	0.085
-669.076	345.852	-0.085	0.169
-668.062	800.000	0.098	-0.379
-667.047	1.682	0.083	-0.061
-666.032	-200.000	-0.033	-0.212
-665.018	782.852	0.052	0.145
-664.003	-24.736	0.143	-0.086
-662.989	-200.000	0.081	0.000
-661.974	15.616	-0.209	-0.166
-660.959	-200.000	0.028	0.233
-659.945	-80.944	0.331	-0.111
-658.930	-200.000	-0.116	-0.000
-657.916	32.198	-0.105	-0.091
-656.901	295.833	0.241	0.445
-655.886	-101.560	-0.371	-0.091
-654.872	-50.928	-0.370	-0.175
-653.857	-73.590	0.231	0.085
-652.843	800.000	-0.034	-0.118
-651.828	140.615	0.272	0.363
-650.814	-200.000	-0.055	0.249
-649.799	-161.765	-0.050	0.003
-648.784	24.375	-0.048	0.040
-647.770	107.861	0.062	-0.075
-646.755	-200.000	-0.004	-0.051
-645.741	-121.895	-0.241	0.040
-644.726	-42.677	-0.160	0.082
-643.711	85.370	-0.270	-0.299
-642.697	800.000	0.076	-0.293
-641.682	-148.227	-0.060	-0.005
-640.668	-48.309	-0.214	-0.104
-639.653	-200.000	-0.001	-0.111
-638.638	429.603	0.081	0.177
-637.624	-102.319	-0.266	-0.064
-636.609	-200.000	-0.046	0.256
-635.595	157.069	-0.136	0.190
-634.580	89.243	0.190	0.214
-633.565	800.000	0.087	0.250
-632.551	19.887	0.142	0.115
-631.536	-200.000	0.027	-0.165
-630.522	800.000	0.034	0.099
-629.507	-8.650	-0.279	-0.189
-628.492	181.330	0.055	0.082
-627.478	800.000	0.042	0.133
-626.463	69.871	-0.070	0.072
-625.449	800.000	-0.031	0.122
-624.434	-200.000	0.029	-0.214
-623.419	-69.235	-0.089	-0.035
-622.405	-88.523	-0.148	0.044
-621.390	8.797	-0.093	-0.071
-620.376	-132.919	0.380	0.049
-619.361	-200.000	0.001	-0.384
-618.346	-200.000	-0.023	-0.246
-617.332	-185.192	-0.051	0.001
-616.317	-200.000	-0.005	0.092
-615.303	1.500	-0.292	0.212
-614.288	800.000	-0.008	0.026
-613.273	-34.134	-0.277	0.154
-612.259	800.000	-0.057	-0.213
-611.244	351.316	0.068	0.135
-610.230	335.476	0.053	-0.104
-609.215	293.738	0.105	-0.193
-608.201	-200.000	-0.010	0.092
-607.186	-73.169	-0.153	0.057
-606.171	49.419	-0.146	-0.138
-605.157	5.481	0.201	0.149
-604.142	-78.192	0.279	-0.097
-603.128	81.058	0.118	-0.128
-602.113	800.000	0.063	0.220
-601.098	-87.202	-0.522	-0.160
-600.084	-200.000	-0.038	0.207
-599.069	348.612	-0.079	0.157
-598.055	-120.205	0.117	-0.020
-597.040	-55.817	0.220	0.099
-596.025	-2.075	0.048	-0.034
-595.011	18.297	-0.181	0.145
-593.996	-200.000	-0.004	0.200
-592.982	-200.000	-0.015	-0.245
-591.967	-7.110	-0.180	-0.123
-590.952	-200.000	0.009	0.045
-589.938	-68.860	0.131	0.051
-588.923	-200.000	-0.086	-0.478
-587.909	287.422	-0.083	-0.152
-586.894	800.000	-0.016	0.069
-585.879	151.449	0.241	-0.330
-584.865	267.412	-0.157	-0.276
-583.850	-187.888	-0.371	0.005
-582.836	-98.164	-0.275	0.071
-581.821	-80.674	-0.276	0.092
-580.806	-113.646	0.216	-0.042
-579.792	-89.710	0.091	-0.027
-578.777	-200.000	0.023	-0.109
-577.763	-140.081	0.312	0.033
-576.748	-43.490	0.228	0.116
-575.733	-10.196	-0.140	-0.094
-574.719	255.899	0.153	0.263
-573.704	186.597	-0.080	-0.120
-572.690	679.842	-0.036	-0.094
-571.675	-200.000	-0.047	0.249
-570.661	-117.168	0.400	-0.073
-569.646	-181.099	-0.234	0.005
-568.631	-39.133	-0.215	-0.114
-567.617	800.000	0.034	0.125
-566.602	-200.000	0.024	0.256
-565.588	-99.239	-0.140	-0.036
-564.573	126.344	0.161	0.206
-563.558	178.773	0.173	0.255
-562.544	-11.208	-0.125	0.083
-561.529	-122.089	0.201	0.033
-560.515	-200.000	0.024	0.236
-559.500	384.121	-0.043	0.090
-558.485	682.451	-0.101	-0.266
-557.471	-172.761	-0.272	0.009
-556.456	140.111	-0.202	0.268
-555.442	220.658	-0.072	-0.117
-554.427	140.358	0.095	-0.126
-553.412	-200.000	-0.021	-0.385
-552.398	-200.000	-0.039	-0.226
-551.383	-56.606	-0.051	0.023
-550.369	800.000	0.033	0.125
-549.354	800.000	-0.093	-0.334
-548.339	-50.949	-0.120	0.057
-547.325	252.332	0.205	0.352
-546.310	-200.000	-0.014	0.112
-545.296	126.462	0.154	-0.196
-544.281	-107.445	-0.142	0.031
-543.266	-95.648	-0.241	0.065
-542.252	-78.639	0.264	-0.091
-541.237	800.000	0.051	-0.165
-540.223	-200.000	0.002	0.031
-539.208	468.667	0.097	0.219
-538.193	155.285	-0.041	-0.056
-537.179	-13.057	-0.277	0.181
-536.164	-200.000	0.006	-0.234
-535.150	-66.506	-0.078	-0.031
-534.135	509.640	0.118	-0.275
-533.121	-119.560	0.223	-0.039
-532.106	547.548	-0.057	-0.136
-531.091	-14.795	-0.192	0.124
-530.077	54.779	-0.210	-0.204
-529.062	113.782	0.237	0.289
-528.048	-31.853	-0.232	-0.131
-527.033	-109.685	-0.287	0.061
-526.018	53.861	0.185	-0.179
-525.004	800.000	-0.040	0.169
-523.989	527.398	0.134	-0.316
-522.975	-168.080	-0.194	-0.008
-521.960	-72.537	0.522	0.194
-520.945	220.838	-0.072	-0.116
-519.931	-117.060	0.088	-0.016
-518.916	3.084	-0.036	0.027
-517.902	-28.776	-0.211	-0.122
-516.887	-91.143	0.080	-0.023
-515.872	-103.090	0.307	-0.073
-514.858	36.184	-0.097	-0.086
-513.843	137.196	-0.039	-0.051
-512.829	-200.000	0.003	-0.126
-511.814	603.364	0.122	0.304
-510.799	71.274	0.274	0.286
-509.785	267.002	0.042	-0.074
-508.770	-39.606	-0.158	-0.083
-507.756	-173.821	-0.371	-0.011
-506.741	-125.396	-0.143	-0.022
-505.726	-148.740	0.414	0.034
-504.712	73.499	-0.147	0.155
-503.697	-200.000	0.242	-0.001
-502.683	800.000	-0.079	-0.252
-501.668	800.000	0.121	-0.379
-500.653	-171.557	-0.233	-0.008
-499.639	-71.000	-0.139	0.052
-498.624	-46.401	-0.239	-0.118
-497.610	-34.513	-0.452	-0.248
-496.595	37.157	0.139	-0.123
-495.581	-56.714	-0.342	-0.152
-494.566	800.000	-0.018	-0.056
-493.551	37.766	-0.131	0.117
-492.537	-90.465	-0.188	-0.055
-491.522	235.786	-0.010	0.017
-490.508	800.000	-0.124	-0.388
-489.493	43.185	0.124	0.114
-488.478	-111.232	-0.308	0.063
-487.464	27.320	0.099	0.083
-486.449	800.000	-0.130	0.389
-485.435	-52.682	0.129	-0.060
-484.420	23.197	0.043	0.036
-483.405	65.932	-0.077	0.078
-482.391	147.252	0.290	-0.392
-481.376	-200.000	-0.001	-0.083
-480.362	407.435	0.141	0.299
-479.347	153.913	-0.160	0.220
-478.332	650.043	0.100	-0.257
-477.318	-86.349	-0.226	0.070
-476.303	127.697	-0.285	-0.363
-475.289	-200.000	-0.017	0.386
-474.274	800.000	0.077	0.227
-473.259	87.801	0.222	0.247
-472.245	41.031	0.128	0.116
-471.230	545.990	-0.030	0.071
-470.216	-160.204	-0.438	-0.024
-469.201	249.180	-0.097	-0.165
-468.186	-200.000	0.028	-0.320
-467.172	-200.000	0.039	-0.227
-466.157	-130.633	0.264	-0.036
-465.143	-118.239	0.125	0.022
-464.128	-200.000	-0.007	0.248
-463.113	-200.000	0.000	-0.167
-462.099	86.042	-0.151	-0.167
-461.084	-200.000	-0.010	-0.175
-460.070	570.825	-0.028	-0.067
-459.055	146.255	-0.077	0.104
-458.040	-200.000	0.048	0.389
-457.026	-138.932	-0.281	-0.031
-456.011	71.044	0.286	0.297
-454.997	-182.620	-0.435	-0.008
-453.982	-200.000	0.020	0.165
-452.968	-55.469	-0.230	-0.103
-451.953	484.991	0.066	0.152
-450.938	130.675	-0.027	-0.035
-449.924	-108.244	0.121	-0.026
-448.909	217.999	-0.233	-0.372
-447.895	-200.000	-0.030	-0.306
-446.880	51.352	0.302	-0.287
-445.865	44.088	0.260	-0.239
-444.851	293.485	0.180	-0.330
-443.836	7.276	-0.265	0.199
-442.822	134.426	0.052	-0.067
-441.807	31.876	0.214	0.185
-440.792	148.582	0.108	-0.146
-439.778	57.825	-0.192	0.189
-438.763	3.767	-0.154	-0.112
-437.749	82.919	0.075	-0.082
-436.734	-60.193	0.411	-0.176
-435.719	767.628	-0.100	-0.274
-434.705	800.000	-0.018	0.076
-433.690	-200.000	-0.023	0.253
-432.676	-35.860	0.264	-0.143
-431.661	800.000	0.069	-0.209
-430.646	-62.399	-0.119	-0.050
-429.632	-58.091	0.235	-0.102
-428.617	800.000	0.030	0.117
-427.603	23.605	0.190	-0.156
-426.588	-38.443	0.144	-0.076
-425.573	-7.683	-0.084	0.057
-424.559	800.000	0.065	0.244
-423.544	48.265	0.106	0.100
-422.530	-200.000	0.082	0.000
-421.515	288.497	0.068	-0.124
-420.500	41.601	-0.085	-0.077
-419.486	135.821	-0.034	0.045
-418.471	-19.819	0.222	0.138
-417.457	256.241	0.061	-0.105
-416.442	800.000	0.148	0.415
-415.428	276.028	0.125	0.222
-414.413	-22.711	-0.138	0.083
-413.398	-200.000	-0.001	-0.248
-412.384	-142.618	0.098	0.010
-411.369	102.086	0.080	0.093
-410.355	214.733	0.061	0.096
-409.340	-100.123	0.210	-0.052
-408.325	172.489	0.103	-0.148
-407.311	800.000	-0.120	-0.452
-406.296	471.527	-0.244	0.550
-405.282	182.071	-0.173	0.254
-404.267	55.323	-0.099	-0.096
-403.252	-148.587	0.300	-0.025
-402.238	25.851	0.339	0.282
-401.223	-94.647	0.179	0.049
-400.209	-200.000	-0.022	-0.170
-399.194	-131.515	0.167	-0.022
-398.179	77.311	0.198	0.211
-397.165	8.099	-0.125	0.094
-396.150	572.181	-0.032	-0.078
-395.136	-14.118	0.226	-0.146
-394.121	-175.996	-0.194	-0.005
-393.106	111.875	0.055	0.066
-392.092	186.630	0.112	0.167
-391.077	-61.894	0.190	-0.080
-390.063	2.202	0.182	0.132
-389.048	800.000	0.040	-0.132
-388.033	89.559	0.243	0.271
-387.019	800.000	0.013	0.040
-386.004	35.239	-0.363	0.318
-384.990	800.000	0.031	0.124
-383.975	41.135	0.170	0.154
-382.960	-167.338	-0.196	-0.008
-381.946	800.000	0.046	0.185
-380.931	-171.715	0.256	0.008
-379.917	-6.851	0.156	0.106
-378.902	-99.472	-0.135	0.034
-377.888	288.241	0.098	-0.178
-376.873	155.803	0.070	0.096
-375.858	-200.000	-0.021	-0.226
-374.844	68.347	0.010	0.010
-373.829	-200.000	0.026	-0.211
-372.815	91.362	0.135	-0.151
-371.800	-45.696	-0.167	0.083
-370.785	-44.672	0.359	-0.179
-369.771	800.000	-0.060	-0.242
-368.756	238.665	-0.168	-0.278
-367.742	-200.000	-0.017	-0.197
-366.727	94.496	-0.070	0.080
-365.712	-200.000	-0.000	-0.156
-364.698	-128.014	-0.091	-0.013
-363.683	-76.811	0.304	-0.106
-362.669	-3.669	-0.134	0.093
-361.654	-78.366	0.039	-0.013
-360.639	348.993	-0.047	-0.093
-359.625	-67.095	0.337	0.133
-358.610	228.624	0.170	-0.277
-357.596	-98.191	0.316	0.081
-356.581	88.263	-0.148	0.164
-355.566	-109.893	0.112	0.023
-354.552	113.501	-0.215	0.260
-353.537	-48.592	-0.030	-0.014
-352.523	-30.596	-0.273	-0.154
-351.508	44.858	0.123	0.113
-350.493	-60.021	0.350	0.149
-349.479	58.356	0.114	0.111
-348.464	-150.299	0.224	-0.017
-347.450	25.521	-0.187	-0.155
-346.435	-170.360	-0.242	-0.008
-345.420	-159.333	0.189	0.011
-344.406	800.000	-0.051	0.162
-343.391	363.231	-0.053	0.105
-342.377	-32.418	-0.140	0.078
-341.362	3.446	-0.072	0.052
-340.348	800.000	-0.140	0.422
-339.333	-87.213	0.086	-0.026
-338.318	-200.000	-0.066	-0.329
-337.304	-35.618	0.296	0.160
-336.289	228.937	0.138	-0.225
-335.275	800.000	0.113	-0.385
-334.260	800.000	-0.049	-0.198
-333.245	325.320	-0.041	0.077
-332.231	-131.448	0.319	0.042
-331.216	-51.854	0.151	0.070
-330.202	-108.418	0.282	-0.061
-329.187	548.357	0.089	-0.213
-328.172	-4.522	-0.122	-0.084
-327.158	-77.869	0.051	-0.017
-326.143	-12.536	-0.176	0.114
-325.129	-200.000	-0.002	0.181
-324.114	11.933	0.096	-0.073
-323.099	184.621	0.123	0.182
-322.085	800.000	0.034	0.139
-321.070	62.259	-0.146	0.145
-320.056	-101.346	0.094	-0.023
-319.041	-118.638	-0.260	-0.046
-318.026	-7.664	0.134	-0.090
-317.012	-200.000	-0.009	-0.094
-315.997	0.088	-0.155	-0.110
-314.983	-92.301	0.146	-0.041
-313.968	-9.766	0.119	0.079
-312.953	-7.132	-0.101	0.068
-311.939	-26.195	-0.227	-0.133
-310.924	-49.624	-0.242	-0.115
-309.910	-181.364	-0.172	0.003
-308.895	-200.000	0.026	-0.167
-307.880	-54.426	0.124	-0.056
-306.866	-76.865	-0.060	-0.021
-305.851	559.201	-0.103	-0.247
-304.837	-200.000	0.023	-0.148
-303.822	-200.000	-0.017	0.310
-302.807	-200.000	-0.041	-0.354
-301.793	-116.831	-0.205	-0.037
-300.778	-200.000	0.023	0.135
-299.764	68.873	0.139	0.142
-298.749	-200.000	0.006	-0.083
-297.735	-88.834	0.259	0.077
-296.720	-133.112	0.097	-0.012
-295.705	-85.129	0.235	0.073
-294.691	-200.000	-0.078	0.466
-293.676	554.906	-0.131	-0.315
-292.662	-200.000	0.041	0.420
-291.647	37.190	-0.132	0.116
-290.632	-142.131	0.355	0.035
-289.618	423.017	0.032	-0.068
-288.603	32.472	0.201	-0.173
-287.589	-146.897	0.405	-0.035
-286.574	-171.472	0.088	-0.003
-285.559	-70.556	-0.401	-0.151
-284.545	-200.000	0.078	0.385
-283.530	7.758	0.022	0.016
-282.516	800.000	0.006	-0.027
-281.501	-37.058	0.063	0.034
-280.486	800.000	0.018	0.072
-279.472	-82.605	0.246	-0.079
-278.457	-54.564	-0.224	0.101
-277.443	368.187	-0.232	0.468
-276.428	-70.713	-0.171	-0.064
-275.413	-161.762	0.103	-0.005
-274.399	-23.433	-0.054	0.032
-273.384	-200.000	-0.022	0.403
-272.370	-200.000	0.023	-0.261
-271.355	87.916	0.091	-0.100
-270.340	260.880	0.111	-0.190
-269.326	67.364	-0.185	0.188
-268.311	-93.402	-0.177	-0.049
-267.297	282.564	0.113	-0.202
-266.282	-53.990	0.304	0.138
-265.267	20.544	0.137	-0.110
-264.253	266.919	0.104	0.182
-263.238	-81.853	0.107	-0.035
-262.224	-153.605	-0.178	0.012
-261.209	-109.029	0.225	0.048
-260.195	-38.431	-0.064	0.033
-259.180	542.653	-0.057	0.136
-258.165	-41.952	0.145	-0.074
-257.151	-19.210	0.035	-0.022
-256.136	800.000	0.074	0.255
-255.122	-10.484	0.343	-0.226
-254.107	-74.896	-0.306	0.109
-253.092	62.727	0.091	0.090
-252.078	-77.585	-0.215	-0.074
-251.063	103.688	-0.036	0.042
-250.049	148.859	0.030	0.041
-249.034	52.977	-0.066	-0.062
-248.019	333.068	0.013	-0.024
-247.005	384.118	-0.123	0.252
-245.990	-200.000	-0.028	0.365
-244.976	102.365	-0.095	0.111
-243.961	-87.186	0.276	0.083
-242.946	530.320	-0.128	0.300
-241.932	-33.976	-0.130	0.071
-240.917	0.452	-0.138	0.098
-239.903	-190.528	-0.379	0.004
-238.888	-94.766	-0.246	0.066
-237.873	239.616	-0.096	-0.159
-236.859	-19.635	0.114	-0.070
-235.844	-200.000	-0.002	0.083
-234.830	6.733	0.390	-0.288
-233.815	-200.000	0.005	-0.134
-232.800	604.148	-0.014	0.036
-231.786	-156.200	-0.323	0.020
-230.771	50.964	-0.332	-0.312
-229.757	-200.000	0.005	-0.083
-228.742	-101.976	-0.270	0.065
-227.727	-107.288	0.506	-0.111
-226.713	-160.522	-0.327	-0.017
-225.698	-68.666	-0.477	0.183
-224.684	-200.000	-0.016	0.166
-223.669	471.741	0.107	0.238
-222.655	602.931	-0.057	0.141
-221.640	-200.000	0.037	-0.331
-220.625	-86.279	0.141	-0.043
-219.611	105.028	-0.071	0.083
-218.596	-200.000	0.124	-0.561
-217.582	-200.000	-0.010	-0.168
-216.567	474.794	0.093	0.207
-215.552	-22.570	-0.182	-0.109
-214.538	-126.177	-0.076	-0.011
-213.523	-77.364	-0.152	0.053
-212.509	48.050	0.167	-0.155
-211.494	800.000	0.095	0.369
-210.479	343.007	-0.021	0.040
-209.465	-107.371	-0.212	-0.046
-208.450	800.000	0.041	-0.152
-207.436	-46.465	-0.229	0.112
-206.421	73.730	-0.199	0.207
-205.406	-200.000	0.029	0.144
-204.392	-8.207	-0.214	0.143
-203.377	385.198	-0.114	0.234
-202.363	17.311	-0.205	0.162
-201.348	-200.000	0.031	-0.175
-200.333	733.941	0.100	-0.266
-199.319	35.289	0.192	0.167
-198.304	85.237	-0.163	-0.177
-197.290	-200.000	-0.059	-0.405
-196.275	-183.429	0.127	0.002
-195.260	-151.656	0.362	-0.026
-194.246	489.049	0.064	0.145
-193.231	-88.032	-0.283	0.084
-192.217	172.135	-0.089	0.127
-191.202	-13.153	0.127	0.082
-190.187	67.572	0.115	-0.116
-189.173	244.552	0.091	-0.152
-188.158	-200.000	-0.016	-0.106
-187.144	-200.000	0.063	-0.331
-186.129	75.666	-0.132	-0.139
-185.114	800.000	-0.054	-0.183
-184.100	-57.346	0.190	0.083
-183.085	46.116	-0.192	0.177
-182.071	548.644	0.043	-0.101
-181.056	-200.000	0.017	0.090
-180.042	663.166	-0.137	0.351
-179.027	-200.000	-0.015	0.125
-178.012	-90.695	0.487	-0.139
-176.998	-48.864	-0.118	-0.056
-175.983	288.114	-0.087	-0.156
-174.969	-181.439	0.219	-0.004
-173.954	-24.599	-0.303	0.179
-172.939	-140.278	0.212	-0.022
-171.925	236.766	0.083	0.136
-170.910	795.769	0.069	-0.189
-169.896	800.000	0.086	-0.301
-168.881	19.765	-0.184	-0.147
-167.866	-115.755	-0.183	0.034
-166.852	-105.800	-0.212	0.048
-165.837	70.129	0.074	0.076
-164.823	-157.969	0.196	0.011
-163.808	116.366	-0.215	-0.261
-162.793	800.000	-0.067	0.286
-161.779	800.000	0.081	0.234
-160.764	-88.535	0.384	-0.114
-159.750	-200.000	-0.001	0.248
-158.735	234.362	0.165	0.269
-157.720	-200.000	-0.014	-0.111
-156.706	-134.982	0.322	0.038
-155.691	800.000	0.043	0.163
-154.677	-31.272	-0.370	-0.206
-153.662	800.000	0.027	0.095
-152.647	800.000	-0.156	0.459
-151.633	-16.677	-0.023	0.014
-150.618	534.768	0.096	-0.227
-149.604	502.396	-0.034	-0.077
-148.589	800.000	-0.039	-0.116
-147.574	800.000	-0.040	0.167
-146.560	-94.115	-0.242	-0.066
-145.545	50.587	0.081	0.076
-144.531	221.024	-0.030	0.048
-143.516	-71.661	0.078	-0.029
-142.502	800.000	-0.048	-0.163
-141.487	-142.266	-0.204	0.020
-140.472	340.972	-0.157	0.303
-139.458	-200.000	0.021	-0.420
-138.443	66.751	0.056	0.056
-137.429	-14.201	0.226	0.144
-136.414	-26.197	0.077	0.045
-135.399	-72.287	0.163	0.060
-134.385	183.615	0.079	0.116
-133.370	633.176	0.096	0.240
-132.356	188.510	-0.113	0.167
-131.341	92.675	-0.205	-0.229
-130.326	362.803	0.193	0.383
-129.312	-142.119	-0.438	-0.043
-128.297	-77.028	0.110	0.038
-127.283	-92.538	-0.132	-0.037
-126.268	307.466	-0.084	0.155
-125.253	224.849	0.223	-0.358
-124.239	-200.000	-0.032	-0.205
-123.224	-113.640	-0.297	-0.057
-122.210	-100.980	-0.174	0.042
-121.195	-200.000	-0.035	0.199
