DTS Sentinel unit serial number:	SN413079Multiplexer serial number:	ORYXHardware model number:	OX4-SRSoftware version number:	ORYX F/W v4.00 Oryx Data Collector v3.7.2.0data status	okinstallation	princeton_trtdifferential loss correction	single-endedforward channel	channel 2reverse channel	N/Adate	2019/09/13time	23:43:35forward acquisition time	60.00reverse acquisition time	0.00gamma	496.2192k internal	0.2338k external	0.2338temperature offset calibration	1.0127default loss term (dB/km)	0.3790temperature slope calibration	1.0000multiplexer offset coefficient	1.0000multiplexer slope coefficient	1.0000fibre end	0.00T internal ref (°C)	26.69T ext. ref 1 (°C)	3.17T ext. ref 2 (°C)	20.97length (m)	temperature (°C)	Stokes	anti-Stokes-747.200	-168.787	-0.107	-0.004
-746.185	149.545	-0.255	0.346
-745.171	-95.738	0.102	-0.027
-744.156	-153.690	0.189	-0.013
-743.142	88.600	0.197	-0.220
-742.127	-70.026	-0.185	-0.071
-741.112	44.126	0.185	0.170
-740.098	-163.733	0.173	0.008
-739.083	113.631	-0.049	-0.059
-738.069	-200.000	-0.005	0.324
-737.054	-182.607	-0.208	0.004
-736.039	-56.267	-0.045	-0.020
-735.025	-101.012	0.175	0.043
-734.010	-140.653	-0.054	-0.006
-732.996	-18.903	-0.249	-0.155
-731.981	-125.636	-0.185	0.028
-730.966	87.649	-0.294	-0.327
-729.952	800.000	-0.049	-0.188
-728.937	-47.310	-0.063	-0.031
-727.923	-62.132	-0.272	0.114
-726.908	36.412	0.240	-0.212
-725.894	131.370	-0.181	0.233
-724.879	146.996	-0.166	-0.224
-723.864	-132.904	0.253	0.032
-722.850	-4.818	0.196	0.135
-721.835	-200.000	-0.051	-0.384
-720.821	-96.547	0.273	-0.072
-719.806	185.840	-0.120	-0.178
-718.791	-200.000	-0.010	-0.257
-717.777	301.166	0.221	-0.409
-716.762	161.169	0.058	0.082
-715.748	-172.139	-0.180	0.006
-714.733	-200.000	-0.044	-0.198
-713.718	-56.795	-0.300	0.133
-712.704	549.040	0.032	0.076
-711.689	-200.000	-0.028	-0.274
-710.675	-174.678	-0.529	-0.015
-709.660	-100.284	-0.205	-0.051
-708.645	-81.798	0.339	-0.111
-707.631	800.000	-0.009	0.032
-706.616	67.348	-0.124	-0.127
-705.602	-136.565	0.260	-0.030
-704.587	115.124	0.375	-0.459
-703.572	-11.760	0.089	0.058
-702.558	27.902	-0.201	0.170
-701.543	359.326	0.129	-0.258
-700.529	-200.000	0.035	-0.404
-699.514	-200.000	0.011	0.277
-698.499	800.000	0.078	-0.253
-697.485	-81.872	-0.239	-0.078
-696.470	-125.051	-0.144	0.022
-695.456	135.317	0.263	-0.342
-694.441	279.253	-0.039	0.069
-693.426	80.487	0.182	0.196
-692.412	-200.000	0.014	-0.298
-691.397	32.032	-0.151	-0.130
-690.383	-66.873	0.157	0.062
-689.368	-71.919	-0.135	-0.050
-688.354	353.635	0.197	-0.392
-687.339	-53.891	0.032	0.014
-686.324	17.816	0.208	-0.166
-685.310	-123.381	-0.300	0.048
-684.295	-123.636	0.264	-0.042
-683.281	-2.768	0.304	-0.213
-682.266	-200.000	0.019	-0.300
-681.251	560.098	0.082	0.197
-680.237	325.527	0.091	-0.174
-679.222	106.890	-0.216	-0.256
-678.208	-159.055	-0.366	0.021
-677.193	237.025	-0.107	-0.177
-676.178	182.622	-0.086	0.127
-675.164	-39.422	-0.167	-0.088
-674.149	800.000	-0.146	-0.513
-673.135	-69.645	0.363	-0.139
-672.120	523.603	0.210	0.493
-671.105	27.036	0.166	0.139
-670.091	10.194	0.220	-0.168
-669.076	12.719	0.224	-0.173
-668.062	-34.801	-0.202	0.110
-667.047	-28.561	0.119	-0.068
-666.032	-182.855	0.250	-0.005
-665.018	-127.418	-0.215	-0.031
-664.003	-129.205	-0.263	-0.037
-662.989	-164.158	0.283	0.013
-661.974	-200.000	0.347	0.001
-660.959	-73.954	0.085	-0.031
-659.945	-1.619	0.301	-0.212
-658.930	-68.913	-0.279	0.108
-657.916	176.938	-0.138	0.201
-656.901	98.685	0.120	-0.138
-655.886	42.543	0.211	-0.192
-654.872	-156.004	0.244	0.015
-653.857	-104.419	-0.244	0.056
-652.843	-68.280	-0.180	0.070
-651.828	121.277	0.081	0.101
-650.814	80.863	0.167	0.180
-649.799	-132.336	0.113	-0.015
-648.784	100.374	-0.142	0.165
-647.770	-5.549	-0.097	-0.067
-646.755	-200.000	0.054	-0.243
-645.741	194.327	0.023	-0.035
-644.726	-200.000	-0.002	-0.110
-643.711	-21.596	0.142	-0.086
-642.697	-122.521	-0.217	0.035
-641.682	-63.967	-0.208	-0.085
-640.668	224.354	-0.151	0.244
-639.653	800.000	0.055	-0.215
-638.638	-200.000	0.042	-0.299
-637.624	607.449	-0.055	-0.138
-636.609	-44.102	-0.114	-0.057
-635.595	101.581	0.258	0.301
-634.580	20.905	-0.264	-0.214
-633.565	231.307	-0.129	0.211
-632.551	331.389	0.170	-0.328
-631.536	253.457	-0.108	-0.184
-630.522	200.002	0.091	0.139
-629.507	-94.093	-0.140	0.038
-628.492	-200.000	-0.050	0.348
-627.478	-151.937	-0.087	0.006
-626.463	620.636	0.103	0.260
-625.449	800.000	-0.014	-0.040
-624.434	-153.524	-0.067	0.005
-623.419	-90.576	-0.110	0.032
-622.405	60.567	-0.046	-0.046
-621.390	615.289	-0.094	0.235
-620.376	-92.754	0.174	-0.049
-619.361	-200.000	-0.028	0.297
-618.346	-87.977	0.125	-0.037
-617.332	-42.117	-0.180	-0.092
-616.317	181.979	0.151	0.221
-615.303	3.384	0.256	0.186
-614.288	311.440	0.112	-0.209
-613.273	-108.267	0.101	-0.022
-612.259	-163.536	-0.188	-0.009
-611.244	467.933	-0.070	0.156
-610.230	-105.611	0.202	0.046
-609.215	-164.511	0.174	-0.008
-608.201	39.238	-0.069	-0.061
-607.186	-108.012	-0.287	-0.062
-606.171	-200.000	-0.058	-0.370
-605.157	258.888	0.069	0.119
-604.142	800.000	0.055	0.223
-603.128	-200.000	-0.021	-0.534
-602.113	-63.942	0.169	-0.069
-601.098	77.878	0.167	0.177
-600.084	142.072	0.131	0.174
-599.069	-25.586	-0.186	0.110
-598.055	-117.930	0.149	0.027
-597.040	-64.185	-0.326	-0.133
-596.025	-200.000	-0.003	0.022
-595.011	-0.996	-0.129	-0.091
-593.996	47.772	-0.134	0.125
-592.982	-23.802	0.133	0.080
-591.967	9.016	-0.140	0.106
-590.952	-140.826	0.072	0.007
-589.938	-200.000	0.036	-0.179
-588.923	-71.294	-0.157	-0.059
-587.909	-200.000	-0.055	-0.293
-586.894	-93.980	0.272	0.074
-585.879	-84.401	-0.269	0.085
-584.865	364.808	-0.067	0.134
-583.850	-28.226	-0.289	0.167
-582.836	-200.000	-0.003	0.156
-581.821	-125.081	0.325	0.050
-580.806	-200.000	0.032	-0.174
-579.792	-35.282	-0.131	0.071
-578.777	79.664	-0.082	0.088
-577.763	2.914	0.413	0.299
-576.748	28.720	-0.225	0.190
-575.733	-200.000	0.096	0.428
-574.719	699.577	-0.022	0.057
-573.704	365.912	0.060	0.120
-572.690	-94.558	-0.425	-0.115
-571.675	6.574	-0.209	-0.155
-570.661	-111.464	0.235	0.048
-569.646	297.263	0.094	0.173
-568.631	74.027	0.237	-0.248
-567.617	621.065	-0.144	-0.361
-566.602	227.018	-0.072	-0.117
-565.588	-157.467	0.429	-0.026
-564.573	-64.625	0.240	-0.097
-563.558	307.493	-0.116	-0.216
-562.544	161.613	-0.137	-0.190
-561.529	89.591	-0.210	0.233
-560.515	118.598	0.054	-0.067
-559.500	-140.743	0.127	-0.013
-558.485	-184.522	0.150	-0.002
-557.471	-181.561	-0.337	-0.007
-556.456	-13.451	0.232	-0.150
-555.442	-69.271	0.423	0.162
-554.427	-99.027	-0.104	0.026
-553.412	-6.213	0.195	0.132
-552.398	-200.000	0.000	0.002
-551.383	800.000	0.070	0.278
-550.369	-200.000	0.025	0.295
-549.354	-129.309	0.198	0.027
-548.339	-122.650	-0.120	0.019
-547.325	521.120	0.172	-0.402
-546.310	-200.000	0.010	-0.448
-545.296	-200.000	0.007	0.201
-544.281	-80.262	-0.106	0.035
-543.266	56.856	-0.222	0.216
-542.252	201.890	0.157	-0.242
-541.237	-65.302	-0.127	-0.051
-540.223	139.183	-0.053	0.069
-539.208	416.764	0.059	0.126
-538.193	-200.000	0.049	-0.268
-537.179	137.620	0.118	-0.153
-536.164	33.974	-0.111	0.097
-535.150	542.223	-0.135	0.321
-534.135	800.000	-0.054	0.231
-533.121	52.577	-0.169	0.160
-532.106	-84.824	0.155	0.048
-531.091	-64.298	-0.262	0.106
-530.077	402.280	0.073	-0.152
-529.062	-174.204	-0.123	0.004
-528.048	-96.066	0.154	0.041
-527.033	97.483	-0.188	0.215
-526.018	-62.889	0.204	0.084
-525.004	-200.000	0.009	-0.128
-523.989	-144.255	0.355	0.033
-522.975	-12.820	-0.092	-0.060
-521.960	-7.490	0.336	-0.226
-520.945	-75.315	-0.287	0.102
-519.931	800.000	0.113	0.386
-518.916	-174.476	-0.234	0.007
-517.902	-27.057	-0.295	0.171
-516.887	175.167	-0.029	-0.042
-515.872	-20.998	0.303	0.185
-514.858	800.000	-0.019	-0.067
-513.843	-90.161	0.258	0.075
-512.829	159.958	0.202	0.280
-511.814	-30.838	0.160	0.090
-510.799	-67.212	-0.069	-0.027
-509.785	-155.984	0.161	-0.010
-508.770	214.759	0.251	-0.396
-507.756	-200.000	0.044	-0.415
-506.741	800.000	0.037	0.136
-505.726	800.000	0.072	0.242
-504.712	-86.721	-0.220	-0.067
-503.697	800.000	-0.100	-0.367
-502.683	800.000	0.126	0.412
-501.668	-200.000	0.031	0.204
-500.653	0.725	-0.097	0.069
-499.639	157.465	-0.079	0.108
-498.624	59.282	-0.150	-0.146
-497.610	-200.000	0.050	-0.266
-496.595	-135.447	-0.253	0.030
-495.581	-119.711	0.226	0.039
-494.566	-166.595	-0.248	0.010
-493.551	-26.639	-0.100	0.058
-492.537	50.905	-0.077	0.072
-491.522	800.000	0.017	0.060
-490.508	74.197	-0.116	0.121
-489.493	130.052	0.099	0.125
-488.478	212.295	0.097	-0.152
-487.464	-128.412	-0.313	-0.044
-486.449	172.022	0.164	-0.233
-485.435	-200.000	0.000	-0.111
-484.420	32.133	-0.061	0.053
-483.405	-161.974	-0.286	0.014
-482.391	622.548	-0.143	0.357
-481.376	-57.233	0.203	-0.089
-480.362	-37.522	-0.119	-0.063
-479.347	-50.496	0.340	0.159
-478.332	730.967	0.107	0.285
-477.318	365.826	-0.103	-0.206
-476.303	642.941	-0.051	-0.128
-475.289	108.955	0.106	0.126
-474.274	-200.000	0.008	0.198
-473.259	113.231	0.138	0.167
-472.245	-124.191	-0.200	0.031
-471.230	47.482	-0.248	-0.229
-470.216	-200.000	0.012	-0.197
-469.201	-169.915	-0.189	-0.007
-468.186	-132.696	-0.260	-0.033
-467.172	-145.237	0.232	-0.021
-466.157	86.663	0.138	-0.151
-465.143	0.451	0.217	0.154
-464.128	-44.793	0.384	0.190
-463.113	66.957	0.191	-0.193
-462.099	-200.000	0.028	0.156
-461.084	-109.846	-0.473	-0.098
-460.070	-200.000	0.053	-0.293
-459.055	-200.000	0.010	-0.190
-458.040	800.000	0.136	-0.508
-457.026	-69.141	0.167	-0.064
-456.011	277.934	-0.165	-0.292
-454.997	42.191	0.163	0.147
-453.982	72.269	-0.087	-0.090
-452.968	-200.000	0.022	-0.183
-451.953	-200.000	0.015	0.184
-450.938	-104.746	-0.097	0.022
-449.924	257.273	0.201	0.343
-448.909	251.473	0.132	-0.223
-447.895	127.864	-0.023	0.029
-446.880	327.828	-0.107	-0.204
-445.865	400.680	0.098	-0.205
-444.851	-44.083	0.186	0.093
-443.836	-200.000	-0.000	-0.229
-442.822	800.000	-0.103	-0.363
-441.807	587.533	-0.027	-0.067
-440.792	-109.210	-0.174	-0.037
-439.778	-2.401	0.156	-0.109
-438.763	389.717	0.162	0.333
-437.749	-200.000	-0.010	-0.087
-436.734	-37.895	0.146	0.077
-435.719	68.213	0.148	-0.151
-434.705	-200.000	-0.003	0.186
-433.690	800.000	0.049	0.158
-432.676	-200.000	0.033	0.275
-431.661	20.037	0.257	-0.205
-430.646	-200.000	0.047	0.235
-429.632	-200.000	0.022	-0.123
-428.617	-159.015	0.231	-0.013
-427.603	34.898	0.299	0.260
-426.588	-5.609	-0.290	-0.197
-425.573	-69.749	0.381	-0.144
-424.559	-200.000	0.004	-0.021
-423.544	-98.742	-0.218	0.055
-422.530	-166.386	0.113	0.005
-421.515	141.295	-0.206	-0.271
-420.500	-200.000	0.106	-0.500
-419.486	-150.937	-0.202	0.015
-418.471	-200.000	0.031	-0.197
-417.457	28.275	0.121	0.101
-416.442	234.555	-0.008	-0.013
-415.428	126.265	-0.086	-0.108
-414.413	-200.000	-0.081	0.407
-413.398	248.758	-0.036	0.060
-412.384	87.577	0.063	-0.069
-411.369	-31.358	-0.131	-0.073
-410.355	-144.013	0.230	-0.021
-409.340	-200.000	-0.072	0.571
-408.325	92.282	0.136	-0.151
-407.311	800.000	0.052	0.149
-406.296	49.362	0.238	0.221
-405.282	451.020	0.056	0.123
-404.267	-88.330	0.055	-0.016
-403.252	328.484	-0.102	-0.194
-402.238	-82.420	-0.122	0.039
-401.223	-51.933	0.132	0.061
-400.209	-55.797	-0.142	-0.063
-399.194	134.940	-0.107	0.138
-398.179	-151.036	-0.291	-0.022
-397.165	-200.000	-0.022	-0.300
-396.150	-158.732	-0.150	-0.009
-395.136	-72.686	0.243	-0.089
-394.121	-200.000	0.029	-0.223
-393.106	-123.509	-0.093	0.015
-392.092	105.249	0.201	0.235
-391.077	41.742	-0.088	-0.079
-390.063	276.523	-0.118	0.208
-389.048	267.588	0.212	0.367
-388.033	-106.278	-0.069	-0.015
-387.019	527.917	-0.099	-0.232
-386.004	-200.000	0.006	-0.052
-384.990	87.516	-0.230	-0.252
-383.975	800.000	-0.101	0.296
-382.960	-106.198	-0.266	0.059
-381.946	11.434	0.059	0.044
-380.931	-149.919	-0.257	0.020
-379.917	-94.896	0.361	-0.097
-378.902	-61.520	0.151	0.063
-377.888	-160.253	-0.165	-0.009
-376.873	800.000	-0.039	-0.163
-375.858	-51.111	-0.193	0.090
-374.844	108.666	0.187	-0.221
-373.829	347.844	-0.151	-0.295
-372.815	-200.000	0.005	0.189
-371.800	174.982	-0.138	-0.197
-370.785	800.000	0.091	-0.264
-369.771	32.900	-0.427	0.365
-368.756	-200.000	0.050	0.253
-367.742	-58.298	-0.196	-0.084
-366.727	-2.918	0.208	-0.143
-365.712	-200.000	0.004	-0.123
-364.698	72.579	-0.108	-0.111
-363.683	800.000	0.045	0.176
-362.669	9.415	-0.161	-0.121
-361.654	32.906	-0.112	-0.096
-360.639	-200.000	-0.055	-0.341
-359.625	-170.625	0.105	-0.004
-358.610	-36.319	-0.121	0.065
-357.596	199.556	-0.081	0.123
-356.581	-89.635	-0.131	0.038
-355.566	-98.168	-0.137	0.035
-354.552	159.493	0.058	0.080
-353.537	130.237	0.124	-0.157
-352.523	-56.878	-0.164	-0.072
-351.508	58.028	0.413	-0.400
-350.493	-120.265	-0.218	0.037
-349.479	22.621	-0.166	-0.135
-348.464	-47.980	-0.071	0.034
-347.450	49.511	0.070	-0.065
-346.435	-106.075	-0.126	-0.028
-345.420	57.131	0.183	-0.176
-344.406	-48.823	-0.047	-0.022
-343.391	-50.764	-0.200	-0.093
-342.377	741.152	-0.112	-0.298
-341.362	-63.194	-0.157	-0.064
-340.348	97.344	-0.088	0.100
-339.333	800.000	-0.105	-0.357
-338.318	436.145	-0.064	-0.137
-337.304	-200.000	0.016	0.198
-336.289	-200.000	0.024	-0.160
-335.275	-200.000	-0.008	-0.389
-334.260	-40.522	-0.211	0.108
-333.245	177.830	-0.066	0.095
-332.231	800.000	0.122	0.390
-331.216	-48.037	-0.402	-0.192
-330.202	282.082	-0.163	-0.289
-329.187	55.505	-0.101	0.096
-328.172	-88.887	-0.190	-0.056
-327.158	-200.000	-0.051	0.234
-326.143	-200.000	0.085	-0.444
-325.129	148.884	-0.122	0.163
-324.114	800.000	0.086	-0.241
-323.099	36.633	-0.082	-0.072
-322.085	-143.398	0.234	0.022
-321.070	177.141	0.140	-0.201
-320.056	509.155	-0.080	0.184
-319.041	187.936	-0.141	-0.208
-318.026	-146.667	0.066	-0.006
-317.012	299.697	-0.072	0.130
-315.997	-144.851	0.113	-0.010
-314.983	315.160	0.163	-0.302
-313.968	800.000	0.101	0.374
-312.953	234.423	-0.090	-0.147
-311.939	39.060	0.156	-0.137
-310.924	-200.000	0.022	-0.201
-309.910	-85.729	0.226	0.069
-308.895	0.877	0.074	-0.053
-307.880	-200.000	-0.089	-0.386
-306.866	-28.931	-0.125	-0.071
-305.851	-86.945	-0.205	-0.062
-304.837	359.756	-0.197	0.389
-303.822	22.627	-0.163	0.131
-302.807	108.892	-0.335	-0.396
-301.793	800.000	0.046	0.132
-300.778	278.405	-0.015	0.025
-299.764	-200.000	0.051	0.245
-298.749	-200.000	-0.036	0.247
-297.735	-58.801	0.111	0.047
-296.720	-27.603	-0.098	-0.056
-295.705	27.975	-0.104	-0.087
-294.691	-149.446	-0.310	-0.024
-293.676	449.405	-0.051	-0.110
-292.662	-200.000	0.013	-0.121
-291.647	-20.435	-0.178	-0.108
-290.632	-109.478	-0.117	0.024
-289.618	-168.053	0.085	0.003
-288.603	135.384	-0.229	0.294
-287.589	-160.847	0.171	-0.009
-286.574	40.042	-0.354	-0.313
-285.559	-87.779	0.161	0.048
-284.545	-200.000	0.016	0.465
-283.530	99.651	0.115	-0.131
-282.516	-89.144	0.214	-0.062
-281.501	-68.219	-0.173	-0.066
-280.486	397.217	0.077	0.159
-279.472	36.930	0.220	0.192
-278.457	-68.825	-0.265	0.101
-277.443	278.979	-0.033	-0.058
-276.428	-30.343	-0.136	0.076
-275.413	306.975	-0.176	-0.323
-274.399	25.646	-0.104	0.085
-273.384	-152.426	-0.220	-0.016
-272.370	306.639	-0.115	-0.212
-271.355	475.223	-0.068	-0.152
-270.340	487.296	0.079	-0.178
-269.326	-188.062	0.328	-0.004
-268.311	-99.681	0.256	0.063
-267.297	223.090	-0.148	-0.235
-266.282	183.961	-0.032	-0.047
-265.267	346.780	-0.059	-0.115
-264.253	192.605	0.190	0.282
-263.238	-94.182	0.296	0.080
-262.224	313.512	0.053	0.098
-261.209	97.665	0.028	-0.032
-260.195	-131.538	0.146	-0.019
-259.180	90.531	0.272	0.300
-258.165	-200.000	-0.036	0.374
-257.151	-200.000	-0.040	-0.199
-256.136	79.827	0.117	0.124
-255.122	-200.000	-0.013	-0.104
-254.107	649.127	0.117	-0.295
-253.092	-200.000	-0.030	0.330
-252.078	144.206	-0.173	0.228
-251.063	-140.408	0.123	-0.013
-250.049	-154.001	-0.134	0.009
-249.034	187.873	0.182	-0.268
-248.019	-126.962	-0.245	-0.036
-247.005	-200.000	-0.001	0.425
-245.990	-200.000	-0.016	-0.071
-244.976	800.000	-0.132	0.555
-243.961	260.425	0.058	0.099
-242.946	116.017	-0.275	-0.332
-241.932	313.693	0.072	0.133
-240.917	-91.243	-0.183	0.052
-239.903	188.301	0.085	0.125
-238.888	-53.149	0.145	-0.065
-237.873	-109.264	-0.077	0.016
-236.859	-65.567	0.316	-0.125
-235.844	800.000	-0.075	0.305
-234.830	-200.000	-0.102	0.526
-233.815	9.330	-0.230	0.171
-232.800	6.440	-0.189	-0.138
-231.786	584.508	0.038	-0.092
-230.771	-173.892	0.081	-0.002
-229.757	50.877	0.078	-0.073
-228.742	-200.000	0.002	-0.224
-227.727	-200.000	-0.046	-0.299
-226.713	-86.179	0.369	-0.112
-225.698	-82.366	-0.046	-0.015
-224.684	-109.796	-0.160	-0.033
-223.669	91.713	0.113	0.125
-222.655	-99.742	0.251	-0.062
-221.640	-200.000	-0.030	-0.257
-220.625	-200.000	0.034	0.177
-219.611	16.439	-0.211	0.164
-218.596	302.922	0.221	0.403
-217.582	-59.540	0.221	-0.093
-216.567	800.000	-0.019	0.061
-215.552	-200.000	0.003	0.131
-214.538	111.315	-0.111	-0.131
-213.523	-200.000	-0.043	0.268
-212.509	72.021	0.192	0.196
-211.494	-10.650	0.274	0.178
-210.479	-93.343	0.274	-0.075
-209.465	-92.387	-0.211	0.058
-208.450	800.000	-0.055	-0.198
-207.436	165.498	-0.098	-0.136
-206.421	16.167	0.033	0.026
-205.406	-19.090	0.410	-0.250
-204.392	800.000	0.052	0.149
-203.377	198.517	0.107	-0.161
-202.363	-16.091	0.037	-0.023
-201.348	732.424	-0.113	0.296
-200.333	-106.351	-0.245	0.054
-199.319	-200.000	0.014	0.316
-198.304	-90.065	0.193	0.055
-197.290	343.847	0.164	-0.316
-196.275	-64.039	-0.373	0.150
-195.260	612.721	0.111	0.273
-194.246	800.000	-0.037	0.156
-193.231	800.000	-0.040	0.169
-192.217	611.460	0.120	0.296
-191.202	668.147	0.104	0.265
-190.187	-200.000	-0.075	-0.335
-189.173	151.840	-0.156	-0.209
-188.158	-200.000	0.045	-0.204
-187.144	250.029	-0.051	0.086
-186.129	-129.238	0.127	-0.017
-185.114	-91.302	0.305	-0.086
-184.100	9.200	0.008	0.006
-183.085	31.304	0.313	0.264
-182.071	89.280	-0.077	0.084
-181.056	304.312	0.179	-0.326
-180.042	-96.928	-0.115	0.030
-179.027	158.956	0.081	0.110
-178.012	-2.918	-0.125	0.086
-176.998	349.584	-0.108	0.209
-175.983	11.547	0.180	0.136
-174.969	421.222	0.036	0.075
-173.954	-200.000	0.002	-0.273
-172.939	-90.814	0.248	0.070
-171.925	-40.004	-0.224	-0.115
-170.910	403.202	0.015	-0.032
-169.896	-88.433	0.278	0.082
-168.881	-173.414	0.217	-0.006
-167.866	-200.000	0.026	-0.226
-166.852	260.838	-0.093	-0.158
-165.837	-172.470	-0.162	-0.005
-164.823	-23.015	0.238	0.141
-163.808	41.651	0.101	-0.090
-162.793	675.049	-0.059	0.150
-161.779	31.651	0.088	0.074
-160.764	-79.118	0.056	0.019
-159.750	-108.881	0.462	0.097
-158.735	397.220	-0.087	0.179
-157.720	135.351	-0.080	0.102
-156.706	-42.376	-0.184	-0.092
-155.691	0.625	0.209	-0.146
-154.677	-25.216	-0.238	-0.138
-153.662	800.000	0.063	0.211
-152.647	-138.657	0.084	0.009
-151.633	-163.992	-0.283	-0.013
-150.618	-57.355	-0.142	0.061
-149.604	104.428	-0.075	0.086
-148.589	460.291	-0.098	-0.214
-147.574	-49.565	-0.233	-0.109
-146.560	-148.167	-0.203	0.016
-145.545	277.367	0.105	0.183
-144.531	0.151	-0.041	0.029
-143.516	48.910	0.068	0.063
-142.502	-200.000	0.021	-0.154
-141.487	-200.000	0.074	-0.430
-140.472	-86.789	-0.145	0.043
-139.458	-200.000	0.054	0.261
-138.443	50.706	0.293	0.272
-137.429	-47.124	-0.361	-0.173
-136.414	799.451	0.124	-0.335
-135.399	91.177	0.091	0.101
-134.385	-200.000	0.024	0.154
-133.370	-122.211	-0.081	-0.013
-132.356	39.110	-0.093	-0.081
-131.341	-64.494	-0.043	-0.017
-130.326	-179.753	0.510	0.011
-129.312	-69.000	0.194	0.073
-128.297	-145.273	0.220	-0.019
-127.283	497.844	0.099	0.223
-126.268	424.712	-0.073	0.155
-125.253	800.000	-0.096	-0.311
-124.239	476.197	-0.088	0.195
-123.224	-175.178	0.258	0.007
-122.210	454.120	-0.011	-0.025
