DTS Sentinel unit serial number:	SN413079Multiplexer serial number:	ORYXHardware model number:	OX4-SRSoftware version number:	ORYX F/W v4.00 Oryx Data Collector v3.7.2.0data status	okinstallation	princeton_trtdifferential loss correction	single-endedforward channel	channel 2reverse channel	N/Adate	2019/09/11time	23:09:11forward acquisition time	60.00reverse acquisition time	0.00gamma	496.2192k internal	0.2325k external	0.2325temperature offset calibration	1.0081default loss term (dB/km)	0.3790temperature slope calibration	1.0000multiplexer offset coefficient	1.0000multiplexer slope coefficient	1.0000fibre end	0.00T internal ref (°C)	34.50T ext. ref 1 (°C)	1.86T ext. ref 2 (°C)	28.93length (m)	temperature (°C)	Stokes	anti-Stokes-747.200	-117.264	0.086	-0.016
-746.185	-28.486	-0.108	-0.063
-745.171	-19.909	0.409	-0.255
-744.156	-200.000	-0.028	-0.153
-743.142	800.000	0.109	0.384
-742.127	307.045	0.083	0.156
-741.112	-200.000	0.012	0.075
-740.098	-130.324	0.259	-0.035
-739.083	-28.663	0.131	-0.076
-738.069	-114.968	-0.301	-0.058
-737.054	57.928	0.194	-0.192
-736.039	118.898	-0.145	-0.180
-735.025	-39.681	-0.047	-0.025
-734.010	83.722	0.089	0.098
-732.996	274.474	0.107	0.190
-731.981	-200.000	-0.005	-0.174
-730.966	-126.559	-0.110	0.016
-729.952	-95.409	-0.226	-0.061
-728.937	-139.273	-0.383	-0.042
-727.923	-150.222	0.135	0.011
-726.908	800.000	0.077	0.224
-725.894	20.028	0.160	-0.130
-724.879	-200.000	-0.029	-0.224
-723.864	207.968	-0.120	0.189
-722.850	-85.381	0.242	-0.076
-721.835	-84.550	0.071	0.023
-720.821	410.007	0.061	-0.130
-719.806	-90.087	0.177	0.052
-718.791	-80.255	0.222	-0.075
-717.777	678.077	0.075	0.197
-716.762	53.792	-0.210	-0.204
-715.748	431.104	-0.023	-0.049
-714.733	-130.316	0.296	-0.041
-713.718	-86.793	-0.280	0.086
-712.704	-103.225	-0.158	-0.038
-711.689	-55.439	0.298	0.135
-710.675	-200.000	0.024	0.355
-709.660	-200.000	0.000	-0.170
-708.645	388.530	-0.129	0.269
-707.631	800.000	-0.091	-0.313
-706.616	-158.238	-0.112	0.007
-705.602	-132.507	-0.218	0.028
-704.587	-200.000	-0.028	-0.289
-703.572	-200.000	-0.010	0.085
-702.558	-150.757	-0.193	-0.015
-701.543	-200.000	-0.026	-0.233
-700.529	-200.000	-0.035	-0.299
-699.514	387.339	-0.086	0.179
-698.499	-121.246	-0.148	0.025
-697.485	-200.000	0.011	-0.124
-696.470	-200.000	-0.024	-0.115
-695.456	-147.968	0.398	0.033
-694.441	-119.278	-0.263	0.046
-693.426	-31.386	0.384	-0.218
-692.412	-200.000	-0.077	-0.379
-691.397	223.849	0.025	0.041
-690.383	77.424	-0.228	0.245
-689.368	-82.493	0.190	0.062
-688.354	-200.000	-0.055	-0.263
-687.339	-200.000	-0.002	-0.095
-686.324	-200.000	-0.085	-0.473
-685.310	-103.098	-0.320	0.076
-684.295	752.949	0.149	0.404
-683.281	-59.575	-0.134	-0.058
-682.266	-61.763	0.184	-0.077
-681.251	800.000	0.072	-0.213
-680.237	800.000	0.123	0.382
-679.222	-155.574	0.075	0.005
-678.208	-17.882	0.225	-0.142
-677.193	204.459	-0.296	0.463
-676.178	-62.646	0.182	-0.076
-675.164	-200.000	-0.026	0.130
-674.149	-149.426	0.441	0.035
-673.135	-81.701	-0.051	-0.017
-672.120	-33.432	0.129	0.072
-671.105	204.817	0.214	-0.334
-670.091	24.089	0.127	-0.106
-669.076	150.281	-0.047	-0.065
-668.062	800.000	0.051	0.168
-667.047	32.542	-0.211	0.184
-666.032	-39.546	-0.078	-0.041
-665.018	-200.000	-0.048	0.226
-664.003	-200.000	-0.005	0.153
-662.989	-156.830	-0.215	0.013
-661.974	19.459	0.053	0.043
-660.959	226.328	-0.033	0.054
-659.945	158.089	0.095	-0.132
-658.930	800.000	-0.023	0.075
-657.916	-200.000	0.040	0.193
-656.901	19.413	0.111	-0.090
-655.886	102.514	-0.210	-0.248
-654.872	800.000	0.031	0.094
-653.857	183.989	0.106	0.157
-652.843	-135.978	-0.273	-0.032
-651.828	199.679	0.120	0.185
-650.814	-118.037	0.142	-0.026
-649.799	-79.741	0.250	0.085
-648.784	-62.553	0.072	-0.030
-647.770	-48.516	0.464	0.224
-646.755	49.250	-0.223	-0.211
-645.741	-60.830	-0.113	-0.048
-644.726	88.747	-0.075	0.083
-643.711	-53.037	-0.138	-0.064
-642.697	21.409	-0.023	-0.019
-641.682	-118.547	-0.171	-0.030
-640.668	511.871	-0.105	0.245
-639.653	-200.000	0.004	-0.135
-638.638	90.003	-0.273	-0.307
-637.624	375.186	0.108	-0.221
-636.609	307.556	0.121	0.227
-635.595	268.624	-0.186	0.329
-634.580	185.354	-0.064	0.095
-633.565	-154.604	0.034	-0.002
-632.551	31.219	-0.184	-0.158
-631.536	800.000	-0.115	-0.352
-630.522	-200.000	-0.006	-0.195
-629.507	-115.345	0.115	0.022
-628.492	-25.805	0.371	0.220
-627.478	-200.000	-0.028	0.130
-626.463	-16.860	0.176	-0.112
-625.449	40.280	0.202	0.182
-624.434	67.993	0.173	0.178
-623.419	-200.000	-0.016	0.173
-622.405	-13.660	-0.186	-0.121
-621.390	209.480	-0.031	-0.048
-620.376	21.196	0.353	0.288
-619.361	-137.158	-0.154	0.018
-618.346	800.000	0.015	0.058
-617.332	330.729	-0.103	0.199
-616.317	-77.769	-0.250	-0.087
-615.303	800.000	-0.062	0.252
-614.288	174.779	-0.090	0.131
-613.273	533.647	-0.171	-0.408
-612.259	-110.152	0.131	-0.027
-611.244	193.513	-0.112	-0.170
-610.230	15.057	0.046	-0.036
-609.215	205.343	0.139	-0.216
-608.201	152.255	0.262	-0.359
-607.186	-36.084	0.279	-0.151
-606.171	99.237	-0.053	0.062
-605.157	-120.776	-0.092	-0.016
-604.142	-57.673	-0.329	-0.144
-603.128	-200.000	-0.009	-0.167
-602.113	800.000	-0.024	0.085
-601.098	-193.544	0.250	0.002
-600.084	-149.386	0.160	0.013
-599.069	-22.216	-0.344	-0.209
-598.055	-34.633	-0.167	-0.092
-597.040	-128.715	-0.089	-0.013
-596.025	-200.000	0.063	-0.356
-595.011	-200.000	0.025	-0.394
-593.996	-200.000	-0.002	-0.053
-592.982	-27.350	0.147	0.086
-591.967	-138.273	0.191	0.021
-590.952	-200.000	0.060	0.267
-589.938	-5.107	0.187	-0.129
-588.923	374.277	-0.101	0.206
-587.909	800.000	0.044	-0.187
-586.894	424.977	0.067	0.146
-585.879	302.059	0.053	-0.098
-584.865	-55.992	0.321	-0.144
-583.850	14.071	-0.195	-0.152
-582.836	-200.000	-0.001	-0.105
-581.821	-200.000	0.007	0.191
-580.806	491.765	0.077	0.176
-579.792	800.000	0.113	-0.361
-578.777	-108.522	-0.092	-0.020
-577.763	-88.233	-0.115	-0.035
-576.748	72.375	-0.149	0.156
-575.733	37.219	0.104	-0.092
-574.719	246.582	0.045	-0.077
-573.704	370.532	0.029	-0.059
-572.690	800.000	0.036	-0.139
-571.675	25.568	0.203	0.169
-570.661	135.277	-0.224	0.291
-569.646	-66.647	0.102	0.041
-568.631	-200.000	-0.002	-0.215
-567.617	-29.475	-0.113	0.065
-566.602	193.542	0.086	-0.130
-565.588	-200.000	-0.042	-0.227
-564.573	-163.817	0.267	0.013
-563.558	-38.061	0.206	-0.110
-562.544	467.099	0.196	-0.440
-561.529	-81.907	-0.404	0.133
-560.515	-37.878	-0.255	0.136
-559.500	-198.143	0.249	0.001
-558.485	-200.000	-0.088	-0.461
-557.471	141.485	0.117	0.155
-556.456	-147.684	-0.262	0.022
-555.442	283.976	-0.071	0.128
-554.427	21.743	0.206	0.168
-553.412	439.342	0.139	-0.305
-552.398	-111.468	-0.202	-0.041
-551.383	-11.801	0.249	0.164
-550.369	-91.376	0.185	-0.053
-549.354	800.000	0.075	0.299
-548.339	276.450	0.180	0.320
-547.325	503.371	0.079	0.183
-546.310	504.862	-0.082	0.191
-545.296	-117.582	0.111	0.020
-544.281	-183.706	-0.307	-0.005
-543.266	-108.547	-0.128	-0.028
-542.252	166.270	0.054	0.077
-541.237	-200.000	0.036	0.187
-540.223	-57.833	-0.297	0.130
-539.208	-89.693	0.197	0.058
-538.193	7.466	0.134	0.101
-537.179	-198.090	-0.223	0.001
-536.164	-103.418	-0.238	-0.056
-535.150	-98.792	0.275	0.070
-534.135	-182.631	-0.385	-0.007
-533.121	699.456	-0.075	-0.199
-532.106	-84.264	-0.190	0.060
-531.091	-17.110	0.400	0.253
-530.077	-200.000	-0.015	-0.202
-529.062	-70.289	0.325	-0.123
-528.048	-176.449	-0.214	-0.006
-527.033	800.000	-0.080	0.254
-526.018	-12.800	-0.138	0.090
-525.004	210.825	0.069	-0.109
-523.989	-200.000	0.022	0.129
-522.975	123.214	-0.313	-0.392
-521.960	422.414	0.090	-0.194
-520.945	-200.000	-0.012	0.071
-519.931	-125.035	0.127	0.020
-518.916	3.960	0.147	0.107
-517.902	237.787	-0.060	-0.100
-516.887	155.279	-0.163	-0.224
-515.872	-60.972	0.224	-0.095
-514.858	118.983	0.106	-0.131
-513.843	369.144	0.033	0.067
-512.829	-91.898	-0.386	-0.109
-511.814	44.866	0.228	0.210
-510.799	128.219	0.057	-0.073
-509.785	487.698	-0.060	-0.136
-508.770	-200.000	-0.008	0.101
-507.756	-200.000	-0.019	0.162
-506.741	76.656	0.239	0.253
-505.726	-126.271	0.309	-0.046
-504.712	103.428	0.087	0.102
-503.697	-112.589	-0.215	0.043
-502.683	127.724	-0.099	0.126
-501.668	-142.544	-0.281	0.028
-500.653	-91.880	0.242	0.069
-499.639	-200.000	0.036	0.304
-498.624	-72.249	-0.064	0.024
-497.610	-99.728	0.200	0.050
-496.595	-163.012	-0.367	0.018
-495.581	368.921	0.035	-0.071
-494.566	800.000	-0.052	-0.156
-493.551	-128.452	-0.142	-0.020
-492.537	-200.000	0.012	-0.074
-491.522	-131.893	-0.329	-0.043
-490.508	272.346	-0.041	-0.073
-489.493	-107.747	0.175	0.038
-488.478	98.427	-0.072	0.083
-487.464	39.605	-0.057	-0.051
-486.449	-109.020	-0.399	-0.085
-485.435	-200.000	0.030	-0.144
-484.420	-105.537	0.422	0.096
-483.405	800.000	0.070	0.232
-482.391	72.867	0.122	0.127
-481.376	183.359	0.107	0.159
-480.362	-120.427	-0.288	-0.049
-479.347	-102.370	0.142	0.034
-478.332	-117.477	0.108	-0.020
-477.318	65.448	-0.180	-0.182
-476.303	298.416	-0.099	-0.182
-475.289	138.356	0.226	-0.295
-474.274	200.599	-0.096	-0.147
-473.259	65.796	-0.247	0.250
-472.245	369.755	-0.112	0.227
-471.230	84.359	-0.029	-0.032
-470.216	292.955	0.148	-0.270
-469.201	216.146	0.068	0.107
-468.186	-32.501	-0.113	0.063
-467.172	-200.000	0.003	0.043
-466.157	243.242	0.122	0.204
-465.143	-93.867	0.123	-0.034
-464.128	-200.000	-0.018	-0.099
-463.113	92.144	0.237	0.267
-462.099	346.899	-0.030	0.060
-461.084	800.000	0.047	0.146
-460.070	-200.000	0.011	0.346
-459.055	82.234	0.208	-0.226
-458.040	-11.014	0.374	-0.246
-457.026	800.000	0.088	-0.265
-456.011	800.000	-0.018	0.075
-454.997	-200.000	0.018	0.313
-453.982	79.052	-0.150	-0.161
-452.968	158.376	0.182	-0.251
-451.953	-200.000	0.000	0.086
-450.938	119.807	-0.056	-0.069
-449.924	-77.455	-0.161	0.056
-448.909	181.635	-0.116	0.171
-447.895	800.000	-0.199	-0.655
-446.880	439.101	-0.108	-0.236
-445.865	-98.629	-0.180	-0.046
-444.851	-200.000	-0.001	0.077
-443.836	251.470	0.182	0.308
-442.822	118.354	0.157	0.193
-441.807	-126.689	-0.133	0.020
-440.792	561.552	0.114	0.275
-439.778	175.439	-0.066	-0.096
-438.763	-200.000	0.014	-0.196
-437.749	-48.980	0.223	-0.106
-436.734	-112.260	-0.149	-0.030
-435.719	-200.000	0.073	0.395
-434.705	723.974	0.078	-0.207
-433.690	203.354	0.107	-0.166
-432.676	25.442	-0.278	0.230
-431.661	-200.000	-0.018	-0.086
-430.646	131.898	0.141	-0.181
-429.632	-200.000	0.163	0.001
-428.617	-79.726	-0.336	-0.113
-427.603	-53.360	0.243	-0.111
-426.588	-97.768	0.111	0.029
-425.573	-200.000	0.001	-0.030
-424.559	-62.588	-0.322	0.133
-423.544	-121.708	0.176	-0.029
-422.530	-200.000	0.077	-0.467
-421.515	95.750	0.316	0.360
-420.500	800.000	-0.058	-0.212
-419.486	-82.324	-0.194	0.063
-418.471	488.682	-0.043	-0.097
-417.457	175.249	0.101	-0.147
-416.442	-200.000	-0.008	-0.163
-415.428	-200.000	-0.034	-0.220
-414.413	466.193	-0.177	-0.396
-413.398	-174.958	-0.095	0.003
-412.384	276.319	-0.161	0.285
-411.369	-50.477	0.076	0.036
-410.355	310.850	0.035	0.065
-409.340	-59.288	-0.047	0.020
-408.325	1.169	-0.253	0.181
-407.311	-125.530	0.173	-0.026
-406.296	88.768	-0.215	-0.238
-405.282	370.469	-0.102	0.206
-404.267	6.675	0.174	-0.129
-403.252	83.958	-0.142	-0.154
-402.238	800.000	0.091	-0.391
-401.223	800.000	-0.061	-0.189
-400.209	-111.803	-0.390	-0.079
-399.194	-45.603	0.069	0.034
-398.179	-7.944	0.386	-0.259
-397.165	-71.957	-0.278	-0.103
-396.150	-80.024	-0.263	-0.088
-395.136	-163.241	0.121	0.006
-394.121	800.000	-0.070	-0.214
-393.106	-173.080	-0.499	-0.015
-392.092	-155.741	-0.344	0.022
-391.077	-162.848	-0.308	0.015
-390.063	-200.000	-0.036	-0.260
-389.048	-200.000	-0.001	-0.101
-388.033	-31.926	-0.140	0.078
-387.019	292.358	-0.107	0.195
-386.004	11.721	0.282	-0.216
-384.990	155.847	-0.122	-0.167
-383.975	-30.920	-0.188	-0.106
-382.960	-200.000	-0.019	-0.108
-381.946	-145.506	-0.115	0.010
-380.931	775.019	0.064	0.173
-379.917	7.866	0.092	0.068
-378.902	-200.000	-0.045	-0.343
-377.888	-116.053	-0.108	-0.020
-376.873	-200.000	0.038	-0.406
-375.858	-200.000	0.036	-0.280
-374.844	55.679	-0.244	0.236
-373.829	800.000	0.061	0.258
-372.815	-13.873	0.143	-0.092
-371.800	-200.000	0.053	0.366
-370.785	800.000	0.034	0.100
-369.771	738.402	0.137	-0.365
-368.756	486.680	0.057	0.129
-367.742	271.276	0.063	-0.111
-366.727	800.000	-0.087	-0.252
-365.712	800.000	-0.052	0.202
-364.698	403.154	0.037	0.078
-363.683	-30.260	0.101	0.057
-362.669	-54.578	0.311	0.140
-361.654	800.000	0.059	-0.179
-360.639	-16.519	0.194	-0.122
-359.625	150.715	-0.076	0.102
-358.610	-200.000	-0.065	0.285
-357.596	-140.374	-0.332	-0.034
-356.581	800.000	-0.052	-0.159
-355.566	-200.000	0.016	-0.128
-354.552	45.964	-0.251	0.231
-353.537	489.793	-0.083	0.189
-352.523	-59.988	0.198	0.084
-351.508	-200.000	0.007	0.161
-350.493	56.856	-0.081	-0.078
-349.479	-92.676	0.057	0.016
-348.464	-152.884	-0.142	-0.010
-347.450	293.481	0.163	0.295
-346.435	51.619	-0.182	0.172
-345.420	1.624	-0.093	0.067
-344.406	-200.000	0.015	0.280
-343.391	800.000	0.022	-0.088
-342.377	-200.000	-0.047	-0.214
-341.362	27.472	0.166	0.139
-340.348	-126.991	-0.293	-0.043
-339.333	560.800	0.077	-0.185
-338.318	-65.714	0.281	-0.112
-337.304	-185.140	-0.082	0.001
-336.289	-87.008	-0.265	-0.080
-335.275	-200.000	0.012	0.216
-334.260	800.000	0.035	-0.096
-333.245	204.933	-0.063	0.097
-332.231	197.202	0.347	-0.526
-331.216	-80.896	-0.312	-0.103
-330.202	-133.785	0.119	-0.015
-329.187	-96.685	-0.196	-0.051
-328.172	-200.000	-0.016	0.106
-327.158	-200.000	-0.027	0.166
-326.143	800.000	-0.053	0.225
-325.129	109.300	0.114	0.135
-324.114	-74.101	-0.107	-0.038
-323.099	-163.494	0.169	0.008
-322.085	22.358	-0.307	0.249
-321.070	-72.117	0.193	0.071
-320.056	-200.000	0.047	0.213
-319.041	635.322	-0.135	0.340
-318.026	-177.322	0.471	0.012
-317.012	416.377	0.060	0.126
-315.997	-173.824	-0.116	-0.003
-314.983	800.000	-0.116	0.377
-313.968	800.000	0.120	-0.344
-312.953	62.121	0.075	-0.074
-311.939	-151.804	-0.240	0.017
-310.924	-51.508	0.291	0.135
-309.910	366.644	0.019	-0.039
-308.895	139.056	-0.161	-0.210
-307.880	-200.000	0.016	0.527
-306.866	-200.000	0.048	0.411
-305.851	55.744	0.228	-0.220
-304.837	-52.160	-0.221	0.102
-303.822	199.044	-0.010	-0.015
-302.807	246.530	-0.132	-0.221
-301.793	-200.000	-0.027	-0.257
-300.778	-46.362	0.085	0.041
-299.764	800.000	-0.088	0.368
-298.749	-200.000	-0.005	-0.170
-297.735	-63.528	0.115	0.047
-296.720	94.872	-0.187	-0.211
-295.705	-84.911	-0.074	0.023
-294.691	101.380	0.125	0.145
-293.676	-95.064	-0.289	0.077
-292.662	-113.370	0.314	0.061
-291.647	-115.937	-0.221	-0.041
-290.632	-22.129	0.237	0.143
-289.618	447.343	0.126	0.274
-288.603	-15.587	0.327	-0.207
-287.589	617.462	-0.048	-0.119
-286.574	-118.958	0.306	-0.053
-285.559	362.577	-0.122	0.243
-284.545	800.000	-0.025	0.080
-283.530	-43.930	-0.232	0.116
-282.516	294.702	0.136	0.246
-281.501	148.958	0.126	0.168
-280.486	-59.349	-0.300	0.128
-279.472	-124.910	-0.246	0.038
-278.457	224.902	0.106	0.169
-277.443	142.344	0.135	0.177
-276.428	-27.530	0.374	-0.215
-275.413	-83.373	-0.118	-0.038
-274.399	215.279	0.136	0.214
-273.384	800.000	-0.087	-0.364
-272.370	-200.000	-0.041	0.238
-271.355	755.943	-0.048	0.128
-270.340	100.665	-0.083	0.095
-269.326	-112.442	0.246	-0.049
-268.311	-200.000	-0.010	-0.194
-267.297	463.536	0.158	-0.350
-266.282	-141.781	-0.193	0.019
-265.267	43.034	-0.093	0.084
-264.253	-200.000	0.020	-0.099
-263.238	-200.000	-0.008	0.191
-262.224	-26.811	0.242	0.140
-261.209	-169.667	-0.422	-0.015
-260.195	800.000	-0.123	-0.519
-259.180	152.026	0.150	-0.203
-258.165	-64.994	-0.054	0.022
-257.151	-13.530	-0.202	0.130
-256.136	184.838	-0.115	-0.169
-255.122	396.015	0.098	-0.203
-254.107	40.362	0.053	-0.048
-253.092	-200.000	-0.050	0.252
-252.078	419.417	0.082	0.173
-251.063	-82.048	-0.132	0.043
-250.049	-20.662	0.262	-0.159
-249.034	131.463	-0.155	-0.198
-248.019	800.000	0.050	0.173
-247.005	-53.602	-0.164	0.074
-245.990	161.562	-0.122	0.169
-244.976	412.483	-0.086	-0.182
-243.961	56.430	-0.168	-0.162
-242.946	-200.000	-0.007	0.162
-241.932	119.895	0.040	0.049
-240.917	-138.763	0.449	0.048
-239.903	-17.780	0.155	-0.096
-238.888	20.062	0.050	-0.040
-237.873	31.273	-0.335	-0.284
-236.859	-38.937	0.075	0.039
-235.844	375.615	0.096	0.193
-234.830	68.038	-0.055	-0.055
-233.815	-30.897	-0.092	-0.052
-232.800	-13.345	0.158	0.101
-231.786	494.819	-0.060	0.136
-230.771	167.719	0.081	0.114
-229.757	800.000	0.072	0.207
-228.742	-200.000	-0.056	-0.248
-227.727	-128.593	0.158	-0.022
-226.713	-99.467	0.204	-0.051
-225.698	-200.000	0.004	0.328
-224.684	80.536	0.017	-0.019
-223.669	-85.965	-0.214	-0.065
-222.655	-150.814	0.042	-0.003
-221.640	70.634	0.064	0.065
-220.625	-55.374	-0.202	-0.090
-219.611	-80.794	0.123	-0.040
-218.596	800.000	-0.116	-0.381
-217.582	800.000	-0.042	0.176
-216.567	800.000	-0.017	-0.064
-215.552	350.323	0.067	0.131
-214.538	-59.127	-0.129	-0.055
-213.523	-136.190	0.147	-0.017
-212.509	-0.966	0.078	0.054
-211.494	165.071	-0.213	-0.297
-210.479	-79.153	0.180	-0.060
-209.465	-82.269	0.188	0.060
-208.450	-200.000	-0.029	-0.284
-207.436	-129.514	-0.229	-0.031
-206.421	800.000	0.138	0.571
-205.406	-96.886	0.305	0.079
-204.392	-200.000	0.053	0.497
-203.377	-200.000	-0.049	-0.288
-202.363	-56.994	-0.204	-0.089
-201.348	-30.935	-0.237	0.132
-200.333	800.000	-0.040	-0.137
-199.319	-200.000	0.009	-0.050
-198.304	384.192	-0.157	0.319
-197.290	-81.291	-0.144	0.047
-196.275	169.908	-0.076	-0.108
-195.260	299.644	-0.211	0.384
-194.246	800.000	-0.077	0.304
-193.231	-41.630	0.163	0.083
-192.217	45.589	0.111	0.101
-191.202	348.263	0.050	-0.097
-190.187	369.090	0.088	0.176
-189.173	-200.000	0.032	0.167
-188.158	-46.871	-0.230	-0.111
-187.144	19.623	-0.149	0.119
-186.129	151.453	-0.168	0.226
-185.114	800.000	0.112	-0.318
-184.100	-200.000	0.031	-0.213
-183.085	-101.160	-0.170	-0.041
-182.071	-200.000	0.011	-0.121
-181.056	114.724	0.097	-0.116
-180.042	-200.000	-0.057	-0.398
-179.027	-23.123	0.144	0.086
-178.012	41.356	0.167	0.149
-176.998	-121.596	0.041	-0.007
-175.983	129.871	0.128	0.161
-174.969	-159.937	0.131	0.007
-173.954	-138.756	0.095	-0.010
-172.939	395.981	0.107	0.221
-171.925	-30.470	-0.184	-0.103
-170.910	-91.512	0.160	-0.045
-169.896	-27.617	0.040	-0.023
-168.881	1.149	0.370	-0.262
-167.866	-184.898	-0.113	0.002
-166.852	-200.000	0.041	0.302
-165.837	-31.525	0.144	-0.080
-164.823	-40.653	0.156	-0.080
-163.808	419.086	-0.037	-0.079
-162.793	108.967	-0.166	0.196
-161.779	370.151	0.109	0.218
-160.764	237.871	0.053	-0.086
-159.750	-200.000	0.046	0.240
-158.735	136.636	0.160	0.206
-157.720	298.624	0.103	0.187
-156.706	158.327	-0.230	-0.315
-155.691	-111.919	0.160	0.032
-154.677	-200.000	-0.027	-0.170
-153.662	-194.642	0.288	-0.002
-152.647	55.901	0.021	-0.020
-151.633	800.000	-0.061	0.191
-150.618	800.000	-0.073	0.201
-149.604	-112.323	-0.143	0.028
-148.589	33.840	-0.111	-0.095
-147.574	-200.000	0.041	-0.342
-146.560	181.280	-0.061	-0.088
-145.545	-200.000	0.064	0.346
-144.531	-58.373	0.200	-0.086
-143.516	-73.192	0.202	-0.073
-142.502	22.660	-0.140	0.113
-141.487	-200.000	-0.003	-0.269
-140.472	146.046	-0.097	0.128
-139.458	-107.397	-0.071	-0.015
-138.443	-76.486	-0.375	-0.130
-137.429	-13.113	0.039	-0.025
-136.414	-82.092	0.359	0.115
-135.399	-200.000	0.017	-0.143
-134.385	-200.000	-0.031	-0.176
-133.370	800.000	0.052	-0.185
-132.356	-32.964	0.193	-0.106
-131.341	454.413	0.104	-0.227
-130.326	-38.119	0.217	0.113
-129.312	-200.000	-0.016	-0.238
-128.297	-140.752	-0.310	0.032
-127.283	-135.226	0.356	-0.042
-126.268	-101.518	-0.190	0.045
-125.253	537.051	-0.091	-0.214
-124.239	-200.000	-0.038	0.229
-123.224	-53.567	-0.092	0.042
