DTS Sentinel unit serial number:	SN413079Multiplexer serial number:	ORYXHardware model number:	OX4-SRSoftware version number:	ORYX F/W v4.00 Oryx Data Collector v3.7.2.0data status	okinstallation	princeton_trtdifferential loss correction	single-endedforward channel	channel 2reverse channel	N/Adate	2019/09/18time	09:43:34forward acquisition time	60.00reverse acquisition time	0.00gamma	496.2192k internal	0.2336k external	0.2336temperature offset calibration	0.9978default loss term (dB/km)	0.3790temperature slope calibration	1.0000multiplexer offset coefficient	1.0000multiplexer slope coefficient	1.0000fibre end	0.00T internal ref (°C)	26.86T ext. ref 1 (°C)	0.28T ext. ref 2 (°C)	23.46length (m)	temperature (°C)	Stokes	anti-Stokes-747.200	-200.000	0.071	0.412
-746.185	-78.943	-0.165	-0.056
-745.171	-200.000	0.004	0.331
-744.156	513.852	-0.185	0.434
-743.142	800.000	-0.019	-0.061
-742.127	-200.000	-0.046	0.338
-741.112	-200.000	-0.006	0.145
-740.098	40.852	-0.317	0.287
-739.083	57.838	-0.142	0.140
-738.069	-103.618	0.121	-0.029
-737.054	800.000	-0.033	-0.093
-736.039	-200.000	0.007	0.393
-735.025	1.984	-0.281	-0.203
-734.010	-111.147	-0.193	-0.040
-732.996	73.715	-0.137	0.145
-731.981	-200.000	0.009	0.062
-730.966	-137.929	-0.243	0.027
-729.952	-21.101	-0.222	0.136
-728.937	201.454	0.036	0.055
-727.923	-200.000	-0.025	0.222
-726.908	-94.772	-0.085	-0.023
-725.894	-64.773	-0.358	0.145
-724.879	-31.207	-0.331	-0.187
-723.864	800.000	-0.072	-0.282
-722.850	-76.242	-0.306	0.108
-721.835	43.405	-0.237	-0.217
-720.821	-107.618	-0.298	-0.065
-719.806	800.000	-0.082	-0.245
-718.791	-200.000	0.010	-0.181
-717.777	-28.507	0.060	-0.034
-716.762	-10.319	0.060	-0.040
-715.748	122.302	0.110	0.138
-714.733	709.834	-0.014	-0.036
-713.718	-200.000	0.054	-0.295
-712.704	390.744	-0.255	-0.531
-711.689	-7.326	-0.321	-0.219
-710.675	-142.061	0.160	-0.016
-709.660	19.730	-0.186	0.150
-708.645	-200.000	-0.043	0.282
-707.631	117.375	-0.153	-0.189
-706.616	-200.000	-0.049	0.322
-705.602	-56.233	0.157	-0.070
-704.587	-58.371	-0.124	0.054
-703.572	-8.976	0.115	-0.077
-702.558	122.396	0.049	0.061
-701.543	219.896	-0.153	-0.245
-700.529	-16.271	0.169	0.107
-699.514	-8.583	-0.143	0.096
-698.499	8.879	0.152	0.115
-697.485	-152.115	-0.158	-0.012
-696.470	226.582	0.072	-0.118
-695.456	-42.310	-0.182	-0.093
-694.441	136.336	-0.146	-0.191
-693.426	-32.464	0.151	-0.084
-692.412	800.000	-0.103	0.288
-691.397	-4.813	-0.310	0.214
-690.383	-200.000	-0.097	0.446
-689.368	-145.649	0.241	-0.022
-688.354	-178.304	-0.375	-0.009
-687.339	-163.459	-0.160	0.008
-686.324	-200.000	-0.007	0.274
-685.310	-85.963	-0.189	-0.059
-684.295	-200.000	-0.000	0.123
-683.281	22.572	-0.215	-0.177
-682.266	800.000	-0.096	-0.298
-681.251	800.000	-0.029	-0.083
-680.237	771.143	0.072	-0.196
-679.222	-152.913	0.127	-0.009
-678.208	141.318	0.104	-0.138
-677.193	458.438	0.089	-0.198
-676.178	-118.625	0.184	-0.033
-675.164	657.987	0.072	-0.185
-674.149	41.404	0.083	-0.075
-673.135	-200.000	-0.046	0.291
-672.120	-41.550	0.240	0.123
-671.105	-200.000	-0.025	-0.262
-670.091	278.201	-0.217	-0.387
-669.076	-150.438	0.142	-0.011
-668.062	-94.091	0.038	0.010
-667.047	800.000	-0.043	-0.165
-666.032	-22.765	0.197	0.119
-665.018	7.334	-0.233	-0.174
-664.003	-200.000	-0.259	0.001
-662.989	-37.585	-0.244	-0.130
-661.974	-42.069	-0.080	-0.041
-660.959	-200.000	0.013	-0.096
-659.945	312.961	-0.066	0.125
-658.930	-7.225	-0.215	-0.146
-657.916	603.417	-0.061	-0.152
-656.901	-22.955	0.071	-0.043
-655.886	-67.400	-0.124	0.049
-654.872	116.036	-0.142	0.174
-653.857	101.318	-0.075	0.087
-652.843	0.941	-0.184	-0.132
-651.828	-12.887	-0.169	-0.110
-650.814	-61.724	0.049	0.021
-649.799	-200.000	-0.003	0.098
-648.784	-62.119	-0.318	-0.133
-647.770	636.783	-0.039	-0.100
-646.755	-200.000	0.015	-0.144
-645.741	-45.350	0.126	-0.062
-644.726	-200.000	-0.020	-0.197
-643.711	-200.000	-0.049	0.000
-642.697	288.120	0.084	0.151
-641.682	50.118	0.126	0.119
-640.668	-19.293	0.186	-0.115
-639.653	27.471	-0.042	0.035
-638.638	64.183	-0.208	0.209
-637.624	579.446	0.096	0.236
-636.609	-143.420	-0.046	0.004
-635.595	-91.164	0.298	-0.085
-634.580	-200.000	0.049	0.250
-633.565	2.368	-0.175	0.126
-632.551	-23.191	0.135	-0.081
-631.536	-27.730	-0.075	-0.044
-630.522	-134.747	-0.389	-0.047
-629.507	714.420	0.172	0.456
-628.492	800.000	0.062	0.202
-627.478	-69.178	0.147	0.056
-626.463	71.974	-0.186	0.193
-625.449	138.299	-0.271	-0.355
-624.434	-200.000	-0.004	-0.075
-623.419	800.000	0.059	0.178
-622.405	-8.049	-0.106	0.071
-621.390	154.389	0.146	-0.201
-620.376	-168.588	0.532	-0.020
-619.361	-200.000	0.052	-0.377
-618.346	-107.635	-0.039	0.009
-617.332	-41.549	-0.076	-0.039
-616.317	800.000	0.014	-0.042
-615.303	-200.000	0.018	-0.138
-614.288	284.308	-0.069	-0.125
-613.273	-135.538	-0.244	-0.029
-612.259	-51.902	0.466	0.217
-611.244	-54.317	0.173	0.078
-610.230	-160.133	-0.286	-0.016
-609.215	-22.584	-0.275	0.166
-608.201	644.017	0.041	-0.104
-607.186	52.573	-0.128	0.122
-606.171	-169.321	0.111	-0.004
-605.157	467.350	-0.070	-0.158
-604.142	209.680	-0.046	0.072
-603.128	-200.000	0.005	0.055
-602.113	-200.000	-0.009	0.054
-601.098	64.995	-0.123	0.124
-600.084	34.356	-0.028	-0.025
-599.069	-200.000	-0.009	0.269
-598.055	800.000	-0.132	0.475
-597.040	-61.277	0.163	-0.068
-596.025	-190.886	-0.105	0.001
-595.011	4.878	0.326	0.239
-593.996	-200.000	-0.030	0.187
-592.982	-200.000	-0.008	0.134
-591.967	-26.859	-0.223	0.130
-590.952	-155.325	0.287	0.019
-589.938	-145.654	-0.187	-0.017
-588.923	47.667	0.228	-0.213
-587.909	-56.067	0.120	-0.053
-586.894	-156.612	-0.318	0.020
-585.879	372.108	-0.112	0.227
-584.865	800.000	-0.051	0.162
-583.850	-97.365	-0.432	0.112
-582.836	211.750	0.208	-0.327
-581.821	231.709	0.003	-0.004
-580.806	-91.312	-0.265	-0.076
-579.792	-9.089	0.151	-0.101
-578.777	-200.000	0.421	-0.001
-577.763	210.706	-0.091	-0.142
-576.748	12.049	-0.179	0.137
-575.733	800.000	0.016	0.049
-574.719	-101.195	0.207	-0.050
-573.704	-200.000	0.030	-0.318
-572.690	-52.715	0.204	0.094
-571.675	94.096	0.067	0.076
-570.661	-177.088	0.182	0.005
-569.646	-128.149	0.269	-0.038
-568.631	-200.000	0.001	0.104
-567.617	193.715	-0.054	-0.081
-566.602	328.595	0.014	-0.027
-565.588	34.352	0.020	-0.017
-564.573	-153.616	0.098	0.007
-563.558	-3.758	0.201	-0.139
-562.544	530.293	0.075	-0.177
-561.529	-9.249	-0.143	-0.096
-560.515	104.473	-0.194	0.228
-559.500	578.762	0.030	-0.073
-558.485	64.863	0.112	0.113
-557.471	68.644	0.131	0.134
-556.456	11.494	-0.090	0.069
-555.442	-200.000	-0.024	0.174
-554.427	-16.669	0.270	-0.171
-553.412	-31.490	-0.191	-0.107
-552.398	89.178	0.140	-0.156
-551.383	-41.123	-0.126	0.065
-550.369	-165.004	-0.082	0.004
-549.354	228.479	0.129	0.210
-548.339	284.762	-0.140	-0.251
-547.325	800.000	-0.113	-0.349
-546.310	-62.948	-0.250	0.103
-545.296	-200.000	-0.011	0.103
-544.281	3.218	0.123	-0.089
-543.266	800.000	-0.065	0.247
-542.252	800.000	-0.013	0.055
-541.237	-96.273	0.357	0.094
-540.223	-101.611	-0.184	0.044
-539.208	231.337	-0.123	0.201
-538.193	529.393	0.021	0.050
-537.179	24.963	0.129	0.107
-536.164	194.275	-0.263	-0.397
-535.150	15.901	-0.151	-0.118
-534.135	86.481	-0.386	-0.424
-533.121	42.133	-0.116	0.105
-532.106	507.250	0.051	0.117
-531.091	800.000	-0.039	-0.111
-530.077	165.381	0.150	-0.211
-529.062	-31.696	-0.411	-0.230
-528.048	144.781	-0.172	0.229
-527.033	-200.000	-0.062	-0.308
-526.018	479.622	-0.172	0.388
-525.004	-200.000	0.037	0.325
-523.989	507.845	0.188	-0.434
-522.975	-200.000	0.008	0.058
-521.960	800.000	0.061	0.173
-520.945	-2.415	0.042	0.029
-519.931	-200.000	-0.000	0.100
-518.916	166.799	-0.055	0.077
-517.902	4.824	-0.136	0.099
-516.887	202.521	-0.163	-0.251
-515.872	-67.383	-0.125	0.049
-514.858	399.007	-0.034	-0.072
-513.843	-200.000	0.078	-0.366
-512.829	-200.000	0.007	0.253
-511.814	-200.000	0.011	0.185
-510.799	-200.000	0.001	-0.130
-509.785	-83.822	0.112	-0.036
-508.770	800.000	-0.149	-0.517
-507.756	-200.000	0.015	0.084
-506.741	91.409	-0.086	-0.096
-505.726	-106.101	-0.016	0.004
-504.712	613.752	0.065	-0.163
-503.697	-149.320	-0.263	0.021
-502.683	-62.479	0.181	-0.075
-501.668	82.297	0.024	0.026
-500.653	-200.000	0.014	-0.219
-499.639	279.938	-0.048	-0.084
-498.624	800.000	0.040	0.145
-497.610	-172.713	0.246	0.008
-496.595	-158.792	-0.288	-0.016
-495.581	-65.554	0.187	-0.075
-494.566	-64.402	-0.110	-0.045
-493.551	-200.000	-0.019	0.354
-492.537	-73.723	-0.379	-0.137
-491.522	514.126	-0.168	0.390
-490.508	50.261	-0.217	-0.204
-489.493	-200.000	0.018	0.361
-488.478	144.529	0.086	0.114
-487.464	800.000	0.057	-0.220
-486.449	138.589	-0.209	0.273
-485.435	182.248	0.117	-0.171
-484.420	193.614	0.124	-0.187
-483.405	-69.673	0.196	0.075
-482.391	-97.229	-0.368	-0.096
-481.376	-200.000	-0.022	0.132
-480.362	36.067	-0.238	-0.209
-479.347	-200.000	0.033	-0.303
-478.332	73.709	-0.116	0.120
-477.318	-200.000	-0.071	0.343
-476.303	-200.000	-0.030	0.180
-475.289	-136.737	-0.225	0.026
-474.274	112.352	0.067	0.081
-473.259	8.154	-0.200	0.149
-472.245	-139.617	0.233	-0.025
-471.230	-200.000	0.020	-0.088
-470.216	380.125	0.149	-0.304
-469.201	-178.709	0.096	0.002
-468.186	262.455	-0.179	-0.308
-467.172	34.559	-0.126	-0.109
-466.157	116.731	0.088	0.107
-465.143	-91.538	0.023	0.007
-464.128	196.340	0.023	-0.034
-463.113	800.000	0.048	0.201
-462.099	-200.000	0.061	-0.297
-461.084	-83.317	0.128	0.041
-460.070	220.949	-0.165	0.263
-459.055	-76.607	-0.389	-0.136
-458.040	-128.290	0.317	0.045
-457.026	-200.000	-0.044	-0.363
-456.011	775.824	-0.041	-0.111
-454.997	-140.472	-0.145	-0.015
-453.982	-200.000	0.078	-0.433
-452.968	167.233	0.054	0.076
-451.953	588.734	0.163	-0.398
-450.938	800.000	0.068	-0.245
-449.924	-200.000	-0.071	-0.354
-448.909	171.121	0.216	-0.307
-447.895	55.768	-0.156	0.150
-446.880	-125.586	0.134	-0.020
-445.865	-68.836	-0.109	0.042
-444.851	-94.274	-0.327	0.089
-443.836	-200.000	0.031	-0.220
-442.822	-200.000	0.008	-0.150
-441.807	-18.051	-0.337	-0.210
-440.792	-39.185	-0.170	-0.088
-439.778	-118.308	0.342	-0.060
-438.763	-179.658	-0.307	0.007
-437.749	800.000	0.192	-0.590
-436.734	-200.000	-0.007	0.138
-435.719	-117.740	0.289	0.052
-434.705	-200.000	0.066	0.486
-433.690	461.009	-0.145	0.320
-432.676	-200.000	0.054	-0.447
-431.661	800.000	-0.037	-0.112
-430.646	161.680	-0.190	-0.263
-429.632	-124.104	-0.148	-0.023
-428.617	-129.014	0.085	-0.012
-427.603	-41.089	-0.176	-0.090
-426.588	-118.253	-0.164	-0.029
-425.573	-128.900	-0.096	0.013
-424.559	9.040	-0.093	-0.070
-423.544	-87.305	-0.268	0.081
-422.530	-5.496	-0.068	-0.046
-421.515	-7.235	0.116	-0.078
-420.500	-188.388	-0.230	-0.003
-419.486	418.345	0.082	-0.174
-418.471	-200.000	0.047	-0.321
-417.457	-19.056	0.144	0.089
-416.442	800.000	-0.027	-0.104
-415.428	-200.000	0.041	0.435
-414.413	109.264	0.212	-0.252
-413.398	-23.457	-0.129	0.077
-412.384	-154.339	-0.239	-0.016
-411.369	380.253	-0.138	0.281
-410.355	-200.000	-0.021	0.299
-409.340	-137.206	0.083	0.009
-408.325	-200.000	-0.016	-0.288
-407.311	-177.187	0.268	-0.007
-406.296	-134.879	0.169	0.020
-405.282	800.000	0.066	0.272
-404.267	-61.902	-0.208	0.086
-403.252	41.430	0.123	0.110
-402.238	-200.000	-0.026	0.124
-401.223	-200.000	0.021	0.123
-400.209	38.921	-0.204	0.181
-399.194	-85.496	0.423	-0.131
-398.179	121.478	-0.091	-0.112
-397.165	589.628	-0.059	0.145
-396.150	71.380	-0.143	0.147
-395.136	-200.000	0.005	0.052
-394.121	-72.880	-0.116	-0.042
-393.106	-28.256	-0.076	-0.044
-392.092	800.000	0.111	0.329
-391.077	-200.000	-0.008	0.107
-390.063	-157.013	-0.150	-0.009
-389.048	800.000	0.088	0.298
-388.033	-29.073	-0.194	0.110
-387.019	79.894	0.109	-0.116
-386.004	61.539	-0.182	-0.179
-384.990	10.640	-0.257	-0.194
-383.975	-14.405	0.201	-0.128
-382.960	-200.000	-0.023	0.127
-381.946	-154.978	-0.593	-0.039
-380.931	293.108	0.066	-0.118
-379.917	482.522	-0.161	-0.362
-378.902	172.410	0.153	-0.219
-377.888	33.122	0.255	0.219
-376.873	-200.000	0.004	0.162
-375.858	196.600	-0.119	-0.180
-374.844	215.288	0.098	0.154
-373.829	-200.000	0.029	0.345
-372.815	160.787	-0.141	0.194
-371.800	96.729	0.127	-0.144
-370.785	40.663	-0.192	-0.171
-369.771	375.339	0.149	-0.301
-368.756	84.679	-0.088	0.095
-367.742	394.046	0.124	0.255
-366.727	46.771	0.119	-0.109
-365.712	-185.290	0.171	0.003
-364.698	235.816	-0.085	0.139
-363.683	-142.384	0.287	0.028
-362.669	-131.987	0.072	-0.009
-361.654	-200.000	0.033	0.316
-360.639	214.712	0.196	0.308
-359.625	-113.021	-0.204	-0.040
-358.610	-12.575	-0.213	0.137
-357.596	-57.663	0.158	-0.069
-356.581	177.732	-0.222	0.320
-355.566	-6.358	0.215	0.145
-354.552	800.000	-0.046	0.139
-353.537	66.321	0.121	0.122
-352.523	135.778	0.114	-0.147
-351.508	-200.000	-0.014	-0.181
-350.493	139.076	-0.291	-0.378
-349.479	91.468	0.214	-0.238
-348.464	-108.800	-0.110	0.023
-347.450	-31.173	0.150	0.084
-346.435	375.917	0.020	0.040
-345.420	-89.883	-0.026	0.008
-344.406	75.909	-0.142	-0.148
-343.391	-130.609	-0.384	-0.051
-342.377	-106.110	0.192	0.043
-341.362	-200.000	-0.043	-0.282
-340.348	-61.752	0.056	0.023
-339.333	-5.078	-0.425	0.289
-338.318	-183.426	-0.332	0.006
-337.304	553.268	-0.063	0.150
-336.289	154.872	0.136	0.185
-335.275	453.853	-0.077	0.169
-334.260	-124.972	-0.094	0.014
-333.245	-72.246	-0.124	0.045
-332.231	41.901	-0.114	-0.102
-331.216	568.785	0.101	0.242
-330.202	64.915	0.321	0.320
-329.187	-146.622	0.139	-0.012
-328.172	-200.000	0.004	0.072
-327.158	534.099	-0.153	-0.357
-326.143	-76.992	0.201	-0.069
-325.129	-105.703	0.177	0.040
-324.114	-155.725	0.046	-0.003
-323.099	-55.020	-0.245	-0.109
-322.085	-2.566	0.133	-0.092
-321.070	231.467	0.062	-0.100
-320.056	-200.000	-0.043	0.290
-319.041	-76.560	-0.222	-0.077
-318.026	-188.075	0.275	-0.003
-317.012	167.419	-0.075	-0.105
-315.997	-185.833	-0.328	-0.005
-314.983	120.810	-0.065	-0.080
-313.968	144.193	0.275	-0.362
-312.953	98.219	-0.154	0.175
-311.939	-200.000	-0.025	0.429
-310.924	129.755	0.347	-0.439
-309.910	-65.702	-0.352	-0.139
-308.895	-55.995	0.179	-0.079
-307.880	8.700	0.368	-0.274
-306.866	8.568	0.420	-0.312
-305.851	-200.000	-0.013	-0.309
-304.837	-200.000	-0.003	-0.099
-303.822	162.570	0.124	0.172
-302.807	476.848	0.063	0.142
-301.793	-112.169	0.287	-0.057
-300.778	212.036	-0.145	0.225
-299.764	-104.162	0.261	0.060
-298.749	-39.064	-0.108	0.056
-297.735	-117.575	0.357	0.064
-296.720	146.324	-0.085	-0.112
-295.705	122.502	-0.069	0.085
-294.691	-46.795	0.518	0.250
-293.676	-49.235	-0.375	0.177
-292.662	-41.673	0.270	-0.137
-291.647	-69.682	-0.172	-0.065
-290.632	464.567	0.185	0.409
-289.618	-37.341	0.081	0.043
-288.603	285.932	0.026	-0.046
-287.589	800.000	0.033	-0.118
-286.574	66.557	-0.152	0.153
-285.559	327.196	0.138	0.260
-284.545	67.743	0.125	0.126
-283.530	-34.191	-0.014	0.008
-282.516	-117.920	-0.161	-0.028
-281.501	303.393	0.211	-0.385
-280.486	-156.831	-0.297	0.018
-279.472	214.679	0.066	-0.103
-278.457	-127.563	0.251	0.036
-277.443	-200.000	-0.050	0.297
-276.428	-67.806	0.072	0.028
-275.413	800.000	0.013	0.040
-274.399	70.168	0.121	0.124
-273.384	-200.000	0.061	-0.385
-272.370	-4.271	0.428	-0.292
-271.355	70.131	-0.144	0.147
-270.340	800.000	0.079	-0.254
-269.326	-200.000	0.009	0.053
-268.311	-200.000	-0.005	0.044
-267.297	146.509	-0.019	0.025
-266.282	-200.000	0.015	-0.146
-265.267	-80.535	-0.120	0.039
-264.253	800.000	-0.035	-0.127
-263.238	-200.000	0.028	-0.410
-262.224	-200.000	-0.038	0.379
-261.209	-200.000	0.019	-0.197
-260.195	75.164	0.280	-0.291
-259.180	449.356	0.144	0.314
-258.165	-199.425	-0.077	0.000
-257.151	-138.942	0.389	0.042
-256.136	144.933	0.145	0.191
-255.122	-74.605	-0.289	-0.102
-254.107	217.059	0.230	-0.360
-253.092	-200.000	0.048	0.209
-252.078	-108.314	-0.235	0.050
-251.063	610.961	0.103	0.253
-250.049	85.392	-0.117	0.126
-249.034	-17.070	-0.137	0.085
-248.019	-2.297	0.119	0.082
-247.005	-60.725	-0.460	-0.192
-245.990	-37.293	0.325	-0.171
-244.976	-200.000	0.016	0.207
-243.961	-169.836	0.181	-0.006
-242.946	336.372	0.137	-0.263
-241.932	-200.000	-0.017	-0.374
-240.917	-5.536	0.188	0.127
-239.903	42.171	0.061	-0.054
-238.888	32.808	-0.100	0.085
-237.873	-45.996	0.238	0.116
-236.859	-0.150	-0.278	0.195
-235.844	800.000	0.040	0.137
-234.830	800.000	-0.082	0.270
-233.815	-191.342	0.271	-0.003
-232.800	-83.840	-0.318	-0.100
-231.786	-200.000	0.076	0.362
-230.771	3.170	0.104	-0.074
-229.757	159.790	0.179	-0.245
-228.742	8.137	-0.142	0.105
-227.727	82.632	0.216	-0.231
-226.713	65.531	-0.186	-0.185
-225.698	-102.476	-0.080	-0.019
-224.684	66.960	0.138	0.139
-223.669	-200.000	-0.092	0.000
-222.655	156.685	-0.077	0.105
-221.640	-81.857	-0.148	-0.048
-220.625	-88.453	-0.142	0.042
-219.611	-31.274	-0.107	0.059
-218.596	-36.090	0.164	-0.087
-217.582	143.902	-0.316	-0.415
-216.567	800.000	0.073	0.313
-215.552	-200.000	-0.013	0.146
-214.538	312.820	0.014	-0.026
-213.523	386.921	-0.073	0.148
-212.509	247.968	0.226	0.376
-211.494	-54.031	-0.279	0.125
-210.479	221.097	-0.160	0.252
-209.465	-61.382	-0.178	-0.074
-208.450	-27.675	0.255	-0.146
-207.436	9.355	-0.060	-0.045
-206.421	-91.240	0.409	0.115
-205.406	280.300	-0.152	-0.268
-204.392	69.285	0.068	0.069
-203.377	384.351	0.048	0.096
-202.363	-12.233	-0.102	-0.066
-201.348	-113.285	-0.212	-0.041
-200.333	-101.648	0.295	0.070
-199.319	-89.349	0.273	0.079
-198.304	-106.301	-0.023	0.005
-197.290	-130.024	-0.224	0.030
-196.275	-200.000	0.117	-0.559
-195.260	-200.000	0.056	-0.348
-194.246	178.995	0.182	-0.261
-193.231	109.572	0.077	-0.091
-192.217	330.370	0.183	-0.347
-191.202	800.000	0.071	0.238
-190.187	49.963	-0.172	-0.160
-189.173	800.000	0.014	0.047
-188.158	-200.000	0.024	-0.108
-187.144	-156.542	-0.409	-0.025
-186.129	43.061	0.167	-0.150
-185.114	-147.996	0.110	0.009
-184.100	685.693	0.061	0.157
-183.085	19.908	0.132	-0.105
-182.071	70.750	0.029	0.030
-181.056	-200.000	0.068	0.369
-180.042	222.757	0.038	0.061
-179.027	-194.530	-0.291	-0.002
-178.012	-57.078	0.144	-0.062
-176.998	102.548	-0.103	-0.118
-175.983	-49.780	0.255	0.119
-174.969	-200.000	0.020	0.160
-173.954	511.940	0.066	-0.150
-172.939	780.234	-0.095	0.256
-171.925	24.997	0.022	0.018
-170.910	-200.000	-0.037	0.200
-169.896	-200.000	-0.046	0.538
-168.881	386.660	0.085	0.172
-167.866	67.390	-0.177	-0.178
-166.852	277.058	0.097	0.170
-165.837	-200.000	0.031	-0.249
-164.823	800.000	-0.086	0.294
-163.808	-200.000	0.074	0.333
-162.793	800.000	0.042	0.130
-161.779	800.000	-0.093	-0.305
-160.764	-32.749	0.200	-0.109
-159.750	-15.877	-0.197	-0.123
-158.735	-7.690	0.390	0.258
-157.720	304.510	0.074	0.135
-156.706	692.133	0.077	0.197
-155.691	44.447	-0.091	0.082
-154.677	215.466	-0.115	-0.179
-153.662	-105.359	0.106	-0.024
-152.647	-116.906	-0.306	-0.055
-151.633	-126.936	0.382	0.055
-150.618	-200.000	-0.002	-0.069
-149.604	505.017	-0.078	-0.178
-148.589	-200.000	0.053	0.301
-147.574	-72.222	0.341	0.124
-146.560	-125.650	0.263	-0.039
-145.545	-105.232	-0.351	0.079
-144.531	800.000	-0.094	0.359
-143.516	282.369	0.103	-0.181
-142.502	27.704	-0.146	-0.120
-141.487	-200.000	0.011	0.310
-140.472	385.164	-0.083	-0.167
-139.458	-142.440	0.257	0.025
-138.443	626.490	-0.118	0.292
-137.429	-110.703	0.196	0.040
-136.414	-71.283	0.267	0.098
-135.399	-71.570	0.247	0.091
-134.385	151.200	0.200	0.267
-133.370	800.000	0.044	0.142
-132.356	-124.770	0.256	0.039
-131.341	144.936	-0.129	0.169
-130.326	-87.287	-0.139	0.041
-129.312	-15.510	0.068	-0.042
-128.297	800.000	-0.092	-0.361
-127.283	-200.000	-0.034	-0.147
-126.268	346.613	0.048	-0.093
-125.253	138.803	-0.214	-0.276
-124.239	392.801	-0.178	0.364
-123.224	780.405	-0.083	0.222
-122.210	0.306	0.164	0.115
-121.195	-107.629	0.177	0.038
