DTS Sentinel unit serial number:	SN413079Multiplexer serial number:	ORYXHardware model number:	OX4-SRSoftware version number:	ORYX F/W v4.00 Oryx Data Collector v3.7.2.0data status	okinstallation	princeton_trtdifferential loss correction	single-endedforward channel	channel 2reverse channel	N/Adate	2019/09/17time	17:39:35forward acquisition time	60.00reverse acquisition time	0.00gamma	496.2192k internal	0.2289k external	0.2289temperature offset calibration	0.9982default loss term (dB/km)	0.3790temperature slope calibration	1.0000multiplexer offset coefficient	1.0000multiplexer slope coefficient	1.0000fibre end	0.00T internal ref (°C)	43.36T ext. ref 1 (°C)	0.34T ext. ref 2 (°C)	38.94length (m)	temperature (°C)	Stokes	anti-Stokes-747.200	73.684	0.185	-0.199
-746.185	358.286	-0.144	-0.295
-745.171	-86.846	0.254	-0.079
-744.156	-14.832	0.403	0.265
-743.142	-24.520	-0.174	-0.106
-742.127	631.748	-0.103	0.266
-741.112	-42.558	0.194	-0.101
-740.098	-59.596	0.164	0.072
-739.083	410.079	0.089	-0.193
-738.069	13.875	0.309	0.247
-737.054	-111.752	-0.304	-0.063
-736.039	-11.252	-0.268	0.181
-735.025	-3.588	-0.403	0.287
-734.010	-14.724	-0.145	0.095
-732.996	375.147	-0.173	-0.361
-731.981	8.523	-0.105	0.081
-730.966	-109.781	0.081	0.017
-729.952	-147.750	-0.227	0.020
-728.937	800.000	-0.052	-0.155
-727.923	-136.591	0.236	-0.028
-726.908	-200.000	0.000	-0.080
-725.894	367.648	0.092	-0.191
-724.879	800.000	0.013	-0.039
-723.864	452.346	-0.049	-0.111
-722.850	134.558	-0.186	-0.247
-721.835	800.000	-0.056	-0.231
-720.821	-15.196	-0.100	0.066
-719.806	108.075	-0.241	0.294
-718.791	-39.386	0.116	0.063
-717.777	-200.000	0.059	0.287
-716.762	182.716	-0.144	0.217
-715.748	-200.000	0.021	0.151
-714.733	-200.000	-0.064	0.293
-713.718	-15.972	-0.248	0.161
-712.704	225.124	0.106	0.176
-711.689	-200.000	0.012	0.121
-710.675	147.954	0.028	0.039
-709.660	-76.743	0.380	-0.136
-708.645	0.797	0.071	-0.052
-707.631	352.800	-0.123	-0.249
-706.616	-200.000	-0.007	-0.055
-705.602	-41.994	0.153	-0.080
-704.587	12.107	-0.399	0.314
-703.572	800.000	0.090	0.342
-702.558	166.621	-0.306	0.443
-701.543	164.333	-0.218	0.314
-700.529	-71.677	-0.241	-0.092
-699.514	114.678	-0.127	-0.158
-698.499	-40.755	0.140	-0.074
-697.485	87.928	0.096	-0.109
-696.470	-200.000	0.038	-0.204
-695.456	800.000	-0.083	-0.302
-694.441	443.712	0.097	-0.218
-693.426	-86.603	-0.231	-0.072
-692.412	-38.197	0.100	0.054
-691.397	290.576	-0.071	0.133
-690.383	800.000	0.041	-0.117
-689.368	69.061	-0.361	0.379
-688.354	800.000	-0.064	-0.240
-687.339	800.000	0.129	-0.446
-686.324	-163.616	0.359	0.017
-685.310	-200.000	0.030	-0.161
-684.295	-91.134	0.358	0.105
-683.281	48.273	0.075	-0.072
-682.266	209.159	0.130	-0.208
-681.251	177.396	-0.116	-0.172
-680.237	-124.124	0.176	-0.028
-679.222	-200.000	0.050	0.336
-678.208	-200.000	0.011	-0.098
-677.193	33.755	0.123	0.109
-676.178	-200.000	-0.015	-0.245
-675.164	-136.039	0.338	-0.041
-674.149	392.626	-0.042	-0.090
-673.135	-55.153	0.063	-0.029
-672.120	-52.064	0.326	-0.155
-671.105	45.123	0.089	0.083
-670.091	203.831	0.051	-0.081
-669.076	48.509	0.114	0.109
-668.062	-116.529	0.095	0.018
-667.047	354.933	0.037	-0.075
-666.032	-200.000	0.002	0.090
-665.018	-43.103	0.135	-0.070
-664.003	-200.000	-0.049	0.235
-662.989	-125.074	-0.475	0.075
-661.974	-88.422	-0.084	0.026
-660.959	-120.974	0.222	-0.038
-659.945	800.000	-0.030	0.096
-658.930	-126.832	0.143	-0.022
-657.916	-200.000	-0.019	-0.340
-656.901	800.000	-0.028	0.108
-655.886	-200.000	-0.044	-0.326
-654.872	-71.639	0.141	-0.054
-653.857	-93.205	-0.460	-0.131
-652.843	-139.843	-0.055	-0.006
-651.828	12.687	0.068	-0.053
-650.814	-200.000	-0.023	-0.137
-649.799	173.698	0.147	0.217
-648.784	654.061	-0.093	-0.244
-647.770	-112.723	-0.410	-0.083
-646.755	123.159	-0.255	0.326
-645.741	-47.821	-0.213	-0.106
-644.726	222.483	-0.080	-0.132
-643.711	-6.466	-0.036	0.025
-642.697	-81.145	-0.433	-0.146
-641.682	86.485	0.166	0.187
-640.668	0.300	-0.071	-0.052
-639.653	89.585	-0.087	0.099
-638.638	181.589	-0.123	-0.184
-637.624	-91.773	-0.220	-0.064
-636.609	800.000	-0.078	0.325
-635.595	116.591	-0.135	0.170
-634.580	230.118	-0.035	-0.058
-633.565	271.130	-0.110	-0.198
-632.551	-200.000	0.096	-0.481
-631.536	-200.000	0.016	-0.210
-630.522	800.000	0.085	-0.322
-629.507	130.596	0.235	-0.307
-628.492	-200.000	-0.008	0.069
-627.478	-131.750	-0.036	0.005
-626.463	-94.720	0.332	-0.092
-625.449	800.000	0.049	0.206
-624.434	-185.873	0.211	0.003
-623.419	-200.000	0.001	0.185
-622.405	-35.487	0.299	0.166
-621.390	-0.939	-0.153	-0.111
-620.376	-48.745	0.298	-0.146
-619.361	-200.000	0.009	-0.398
-618.346	-200.000	0.011	0.064
-617.332	-20.346	-0.167	0.105
-616.317	-61.406	0.223	-0.096
-615.303	97.138	-0.041	-0.047
-614.288	-10.627	-0.149	0.100
-613.273	-200.000	0.009	0.193
-612.259	-70.548	-0.158	-0.061
-611.244	-25.184	-0.258	-0.156
-610.230	-120.282	0.199	-0.035
-609.215	540.982	0.105	-0.255
-608.201	4.747	-0.170	-0.128
-607.186	-200.000	-0.019	-0.242
-606.171	24.784	-0.162	-0.137
-605.157	-55.083	0.303	0.139
-604.142	-157.272	-0.330	-0.020
-603.128	-200.000	-0.024	0.415
-602.113	-42.084	0.215	-0.112
-601.098	0.061	-0.227	0.165
-600.084	-200.000	-0.016	-0.111
-599.069	40.382	-0.421	-0.386
-598.055	-24.730	0.284	-0.172
-597.040	-200.000	-0.005	-0.062
-596.025	-177.900	-0.240	-0.006
-595.011	82.508	0.040	0.044
-593.996	800.000	0.010	-0.041
-592.982	-10.456	0.200	0.135
-591.967	69.293	0.044	0.046
-590.952	800.000	0.034	-0.147
-589.938	277.717	0.150	-0.273
-588.923	-108.424	0.486	-0.107
-587.909	-79.002	-0.352	0.122
-586.894	119.511	0.189	-0.238
-585.879	-124.943	-0.353	0.055
-584.865	-132.780	0.167	0.022
-583.850	800.000	0.117	0.401
-582.836	-17.023	-0.073	0.047
-581.821	-61.174	-0.187	0.080
-580.806	-142.627	-0.139	-0.014
-579.792	10.227	-0.178	0.138
-578.777	-54.525	-0.508	0.234
-577.763	789.000	0.018	0.051
-576.748	-200.000	0.037	-0.453
-575.733	-40.910	0.213	-0.112
-574.719	13.209	0.190	-0.150
-573.704	-173.161	-0.112	0.003
-572.690	144.630	0.141	-0.191
-571.675	-200.000	0.027	-0.251
-570.661	613.459	0.032	-0.082
-569.646	-200.000	0.006	-0.111
-568.631	145.955	0.156	-0.213
-567.617	-81.651	-0.251	-0.084
-566.602	751.092	-0.084	-0.232
-565.588	-48.309	-0.232	-0.114
-564.573	-95.905	-0.108	-0.029
-563.558	97.618	-0.185	-0.216
-562.544	76.256	0.087	0.093
-561.529	23.884	0.110	0.092
-560.515	-115.326	-0.188	0.036
-559.500	-200.000	0.045	-0.267
-558.485	-81.654	-0.192	0.064
-557.471	239.664	-0.058	-0.098
-556.456	-5.336	0.132	0.092
-555.442	-200.000	-0.031	-0.279
-554.427	373.289	0.149	-0.308
-553.412	22.939	0.225	-0.188
-552.398	-200.000	-0.027	-0.218
-551.383	-46.617	-0.205	0.102
-550.369	765.260	0.086	0.239
-549.354	311.175	-0.100	0.191
-548.339	-200.000	0.032	0.309
-547.325	800.000	0.016	0.046
-546.310	800.000	-0.123	0.377
-545.296	219.393	0.086	0.140
-544.281	-118.938	-0.143	-0.026
-543.266	-15.273	0.279	0.181
-542.252	-38.008	0.390	-0.211
-541.237	-200.000	-0.048	0.230
-540.223	-200.000	-0.211	0.001
-539.208	12.105	0.070	-0.055
-538.193	227.638	-0.282	-0.467
-537.179	152.798	-0.169	-0.235
-536.164	-200.000	0.063	0.455
-535.150	252.580	0.216	0.375
-534.135	-178.083	0.227	0.005
-533.121	-99.010	-0.273	0.070
-532.106	-104.341	-0.289	0.068
-531.091	144.172	0.293	-0.397
-530.077	-200.000	0.017	0.166
-529.062	-200.000	-0.054	0.259
-528.048	-27.089	0.125	-0.074
-527.033	-32.835	-0.276	0.156
-526.018	248.850	0.098	-0.169
-525.004	-88.469	0.211	0.064
-523.989	0.197	0.156	0.113
-522.975	-200.000	-0.011	0.145
-521.960	-77.412	0.142	-0.050
-520.945	-4.158	0.317	0.223
-519.931	-84.326	-0.232	-0.075
-518.916	-200.000	-0.037	-0.248
-517.902	164.360	0.108	0.154
-516.887	-106.139	0.191	0.044
-515.872	800.000	-0.016	0.069
-514.858	800.000	0.059	0.263
-513.843	-31.719	-0.021	-0.012
-512.829	333.176	-0.078	-0.153
-511.814	29.390	0.096	0.083
-510.799	-56.874	0.181	-0.081
-509.785	-133.630	0.202	-0.026
-508.770	-200.000	0.055	-0.259
-507.756	23.669	0.331	-0.277
-506.741	134.041	0.121	-0.159
-505.726	800.000	-0.065	-0.282
-504.712	800.000	-0.109	-0.391
-503.697	44.983	0.252	-0.236
-502.683	264.339	-0.112	0.197
-501.668	-11.649	-0.042	0.028
-500.653	-70.335	0.256	0.099
-499.639	-72.345	-0.178	-0.067
-498.624	142.762	-0.137	-0.185
-497.610	-36.288	-0.291	-0.160
-496.595	-163.673	0.014	0.001
-495.581	36.884	-0.373	0.335
-494.566	-152.714	0.190	0.014
-493.551	318.898	0.110	-0.212
-492.537	226.744	0.170	0.280
-491.522	79.280	0.232	0.252
-490.508	3.984	0.326	0.242
-489.493	-72.351	-0.213	0.080
-488.478	-48.014	-0.189	0.093
-487.464	800.000	-0.026	0.114
-486.449	-78.052	-0.081	-0.028
-485.435	-200.000	0.017	0.326
-484.420	-109.957	0.081	-0.017
-483.405	-136.618	-0.147	-0.017
-482.391	89.037	-0.156	0.177
-481.376	-104.117	0.104	0.024
-480.362	170.881	-0.215	-0.313
-479.347	-200.000	-0.012	-0.194
-478.332	262.926	-0.075	-0.132
-477.318	-77.992	0.215	-0.075
-476.303	398.536	-0.111	0.235
-475.289	-173.475	0.387	0.012
-474.274	800.000	-0.087	0.302
-473.259	-132.166	-0.255	-0.034
-472.245	-120.018	0.122	0.021
-471.230	510.688	-0.146	0.344
-470.216	-0.561	0.169	-0.121
-469.201	-107.234	-0.194	0.043
-468.186	800.000	-0.115	0.369
-467.172	-91.645	-0.114	-0.033
-466.157	-39.742	0.426	0.226
-465.143	174.739	0.167	-0.245
-464.128	-142.809	-0.082	0.008
-463.113	-83.121	-0.098	0.032
-462.099	-150.189	-0.386	-0.030
-461.084	-62.579	-0.344	0.145
-460.070	-144.081	0.304	0.029
-459.055	-47.293	-0.108	-0.053
-458.040	20.156	-0.024	0.020
-457.026	-54.373	0.214	-0.098
-456.011	520.916	-0.070	-0.167
-454.997	-151.116	0.236	-0.018
-453.982	154.192	0.113	-0.157
-452.968	78.758	-0.055	0.060
-451.953	-65.361	-0.175	0.071
-450.938	179.122	0.096	-0.142
-449.924	13.111	0.243	-0.191
-448.909	63.996	0.240	-0.245
-447.895	129.080	-0.086	0.112
-446.880	-60.419	0.280	-0.121
-445.865	800.000	0.067	-0.257
-444.851	-69.994	0.113	0.044
-443.836	-111.650	-0.211	-0.043
-442.822	712.335	-0.118	-0.316
-441.807	-200.000	0.037	0.231
-440.792	275.849	-0.078	0.140
-439.778	-133.183	-0.231	0.030
-438.763	58.775	-0.109	-0.109
-437.749	434.103	-0.082	0.181
-436.734	-31.423	-0.288	0.164
-435.719	-55.419	0.448	0.204
-434.705	-66.659	-0.079	-0.032
-433.690	-48.507	0.333	0.162
-432.676	209.411	0.205	-0.325
-431.661	324.354	-0.153	-0.295
-430.646	181.086	0.130	-0.194
-429.632	-200.000	-0.056	0.351
-428.617	-200.000	0.001	0.140
-427.603	394.520	-0.043	-0.091
-426.588	306.182	0.200	0.377
-425.573	367.429	0.131	-0.267
-424.559	800.000	0.064	-0.231
-423.544	-129.623	-0.110	0.015
-422.530	-57.127	0.157	-0.070
-421.515	82.381	-0.051	-0.056
-420.500	-200.000	0.049	0.376
-419.486	800.000	-0.066	0.205
-418.471	-3.729	-0.196	-0.138
-417.457	301.236	-0.078	-0.147
-416.442	-121.114	0.278	0.047
-415.428	-147.409	-0.323	-0.028
-414.413	238.871	0.081	-0.136
-413.398	-200.000	0.000	-0.122
-412.384	77.513	-0.249	0.268
-411.369	-78.567	-0.278	0.096
-410.355	20.101	0.207	0.169
-409.340	-153.790	-0.217	0.015
-408.325	6.620	0.071	-0.053
-407.311	-25.352	-0.439	0.263
-406.296	-118.107	-0.107	0.019
-405.282	349.522	0.055	0.109
-404.267	-119.993	0.120	0.021
-403.252	321.174	0.035	-0.066
-402.238	-200.000	0.047	-0.448
-401.223	-26.266	0.286	-0.170
-400.209	-63.764	-0.333	-0.138
-399.194	138.484	-0.096	0.128
-398.179	800.000	-0.023	-0.072
-397.165	108.534	0.080	-0.096
-396.150	141.125	0.107	0.144
-395.136	57.566	0.335	-0.331
-394.121	-58.400	-0.282	-0.124
-393.106	-110.105	0.513	0.108
-392.092	442.192	-0.025	0.055
-391.077	-87.348	0.183	-0.056
-390.063	317.956	-0.144	-0.275
-389.048	-66.229	0.203	-0.082
-388.033	-47.865	0.064	-0.031
-387.019	-142.165	-0.342	-0.034
-386.004	-120.988	-0.033	-0.006
-384.990	203.656	-0.045	0.070
-383.975	79.254	0.112	-0.121
-382.960	248.648	-0.051	0.087
-381.946	800.000	0.040	0.115
-380.931	-139.097	0.120	0.013
-379.917	-200.000	0.034	-0.361
-378.902	-113.965	0.116	0.023
-377.888	-112.017	0.115	0.023
-376.873	-162.396	-0.332	-0.017
-375.858	-36.935	0.208	0.113
-374.844	87.643	0.105	0.118
-373.829	52.474	0.257	0.248
-372.815	800.000	-0.052	-0.176
-371.800	39.392	-0.099	0.090
-370.785	-200.000	0.086	0.461
-369.771	111.100	-0.064	-0.078
-368.756	-173.767	0.215	0.006
-367.742	800.000	-0.027	-0.107
-366.727	-135.571	0.067	0.008
-365.712	-95.480	-0.160	-0.043
-364.698	230.754	0.179	0.295
-363.683	-200.000	-0.005	-0.085
-362.669	231.366	0.103	-0.171
-361.654	463.922	0.058	0.132
-360.639	83.727	-0.268	0.295
-359.625	-69.094	0.174	0.068
-358.610	38.218	0.181	0.163
-357.596	5.036	-0.173	0.129
-356.581	46.476	0.093	-0.087
-355.566	800.000	0.015	0.064
-354.552	-2.885	-0.127	-0.090
-353.537	-200.000	0.050	0.275
-352.523	-137.327	-0.139	-0.016
-351.508	-150.187	-0.482	-0.038
-350.493	239.825	-0.105	0.176
-349.479	-18.271	-0.200	-0.126
-348.464	357.319	-0.134	-0.270
-347.450	454.087	0.181	0.404
-346.435	-197.039	-0.078	-0.001
-345.420	283.310	-0.102	0.184
-344.406	-200.000	-0.016	-0.361
-343.391	31.683	0.120	0.104
-342.377	105.325	-0.117	-0.139
-341.362	-97.561	-0.148	0.039
-340.348	125.417	0.103	-0.131
-339.333	-37.836	0.162	0.087
-338.318	369.691	-0.093	0.190
-337.304	-54.403	0.139	0.063
-336.289	320.853	0.046	-0.089
-335.275	147.437	-0.269	0.366
-334.260	-70.946	-0.152	-0.058
-333.245	-126.294	0.135	-0.020
-332.231	-200.000	0.019	-0.136
-331.216	299.551	0.040	-0.075
-330.202	-200.000	-0.022	-0.174
-329.187	-200.000	0.011	-0.105
-328.172	527.615	0.012	-0.029
-327.158	-161.521	-0.134	0.007
-326.143	81.367	-0.136	0.149
-325.129	-54.966	0.321	0.146
-324.114	800.000	0.073	-0.267
-323.099	800.000	-0.055	-0.178
-322.085	800.000	0.025	-0.074
-321.070	42.005	0.105	-0.096
-320.056	800.000	0.131	0.379
-319.041	-32.321	-0.382	-0.215
-318.026	-12.482	0.171	-0.113
-317.012	-119.373	-0.105	0.018
-315.997	-112.776	0.308	0.062
-314.983	133.307	0.127	0.165
-313.968	-170.735	-0.339	-0.012
-312.953	13.553	0.017	-0.013
-311.939	55.190	0.200	0.195
-310.924	531.409	-0.044	-0.104
-309.910	286.649	-0.138	-0.252
-308.895	-200.000	0.014	0.087
-307.880	800.000	0.054	0.174
-306.866	-117.993	0.298	0.054
-305.851	-83.318	-0.246	-0.079
-304.837	326.741	-0.092	-0.178
-303.822	-146.758	-0.266	-0.023
-302.807	-28.922	-0.348	-0.201
-301.793	-200.000	-0.014	-0.087
-300.778	-126.710	0.401	0.060
-299.764	-200.000	0.261	0.001
-298.749	-37.031	-0.196	0.106
-297.735	11.592	0.330	0.255
-296.720	-46.696	0.313	-0.154
-295.705	5.595	-0.260	0.194
-294.691	-98.970	0.154	-0.039
-293.676	230.261	0.151	-0.249
-292.662	-44.089	-0.294	-0.149
-291.647	133.684	0.056	-0.073
-290.632	800.000	0.071	0.240
-289.618	-125.264	-0.109	-0.017
-288.603	-200.000	-0.039	-0.395
-287.589	441.173	-0.082	-0.180
-286.574	-14.634	-0.192	-0.124
-285.559	-39.891	0.297	0.156
-284.545	-18.728	0.122	0.077
-283.530	800.000	-0.052	-0.222
-282.516	800.000	0.020	0.085
-281.501	-200.000	0.018	0.309
-280.486	560.867	0.149	-0.362
-279.472	800.000	0.042	0.146
-278.457	-26.091	0.234	-0.139
-277.443	53.424	0.101	-0.097
-276.428	-37.093	0.138	0.074
-275.413	-57.048	-0.186	-0.083
-274.399	-165.508	-0.200	-0.009
-273.384	157.963	0.146	0.204
-272.370	420.205	-0.051	-0.111
-271.355	394.585	-0.116	-0.243
-270.340	-200.000	0.006	-0.225
-269.326	800.000	-0.040	0.121
-268.311	46.738	0.160	0.149
-267.297	-200.000	-0.022	-0.108
-266.282	799.152	-0.036	0.101
-265.267	51.547	-0.309	-0.296
-264.253	230.898	0.064	-0.106
-263.238	-200.000	0.004	0.069
-262.224	-200.000	0.066	0.376
-261.209	77.007	0.109	0.117
-260.195	12.135	-0.241	0.187
-259.180	320.780	-0.134	0.256
-258.165	194.830	0.035	0.054
-257.151	-200.000	0.069	0.310
-256.136	-200.000	-0.031	0.165
-255.122	608.540	-0.088	-0.222
-254.107	-19.504	0.347	-0.216
-253.092	211.531	0.161	-0.254
-252.078	-200.000	-0.009	-0.126
-251.063	151.369	-0.056	0.077
-250.049	466.825	0.099	-0.222
-249.034	-200.000	0.003	-0.014
-248.019	302.936	-0.158	0.294
-247.005	1.599	0.314	-0.228
-245.990	-107.412	0.187	0.041
-244.976	800.000	-0.026	-0.077
-243.961	-41.728	0.134	-0.069
-242.946	-160.094	-0.183	0.010
-241.932	80.516	-0.174	0.189
-240.917	109.390	-0.171	0.206
-239.903	139.276	0.107	-0.142
-238.888	-100.928	0.059	0.015
-237.873	-159.515	-0.167	0.009
-236.859	24.692	-0.102	0.085
-235.844	-50.808	0.549	0.259
-234.830	-104.177	-0.168	0.039
-233.815	335.674	-0.052	-0.102
-232.800	127.216	0.152	-0.194
-231.786	58.076	-0.135	-0.133
-230.771	-200.000	0.046	0.209
-229.757	-200.000	-0.044	0.328
-228.742	104.770	0.027	0.032
-227.727	673.622	0.013	-0.033
-226.713	-65.331	-0.306	-0.124
-225.698	343.025	0.044	-0.086
-224.684	-200.000	-0.006	-0.036
-223.669	-200.000	-0.014	0.339
-222.655	-200.000	-0.007	0.088
-221.640	107.743	-0.092	0.110
-220.625	-1.821	-0.114	-0.081
-219.611	40.654	-0.023	0.021
-218.596	-3.342	-0.205	-0.143
-217.582	228.470	-0.114	0.187
-216.567	-79.566	0.161	0.055
-215.552	-85.699	-0.478	-0.149
-214.538	48.101	-0.265	0.248
-213.523	382.174	0.036	-0.074
-212.509	-200.000	-0.041	-0.297
-211.494	-153.008	-0.086	0.006
-210.479	-115.561	0.278	-0.053
-209.465	-103.669	-0.119	-0.028
-208.450	149.494	0.141	0.192
-207.436	476.361	-0.060	-0.136
-206.421	-6.552	-0.281	0.192
-205.406	-200.000	0.010	0.200
-204.392	217.745	0.218	-0.349
-203.377	1.436	0.205	-0.148
-202.363	800.000	0.052	0.183
-201.348	69.186	-0.048	0.049
-200.333	-106.410	0.096	-0.021
-199.319	-18.570	0.084	0.053
-198.304	-71.037	-0.047	-0.018
-197.290	800.000	0.059	-0.259
-196.275	-88.296	0.420	0.126
-195.260	-200.000	0.009	0.243
-194.246	-91.758	0.282	-0.080
-193.231	474.227	0.134	0.302
-192.217	-92.521	-0.246	-0.069
-191.202	-90.383	0.166	0.048
-190.187	-138.857	-0.154	0.017
-189.173	-109.353	-0.283	-0.060
-188.158	20.106	0.220	-0.178
-187.144	-23.639	0.191	-0.115
-186.129	-78.221	-0.367	0.126
-185.114	146.585	-0.163	0.220
-184.100	-118.213	0.141	-0.025
-183.085	-200.000	-0.001	0.101
-182.071	48.037	-0.140	-0.132
-181.056	-48.000	0.195	0.095
-180.042	72.866	-0.270	-0.282
-179.027	113.779	0.129	-0.157
-178.012	-54.415	0.302	0.137
-176.998	206.292	0.117	0.183
-175.983	-31.981	0.301	-0.169
-174.969	0.852	-0.290	0.208
-173.954	-200.000	-0.059	0.272
-172.939	-200.000	0.025	0.193
-171.925	800.000	0.039	-0.111
-170.910	-80.516	-0.112	-0.038
-169.896	-147.922	-0.129	0.011
-168.881	-9.475	-0.327	-0.219
-167.866	-107.627	0.239	-0.052
-166.852	55.681	-0.137	0.133
-165.837	-142.661	0.281	0.028
-164.823	-200.000	0.001	-0.069
-163.808	-91.393	-0.183	0.052
-162.793	-68.789	0.157	0.061
-161.779	-200.000	0.020	0.269
-160.764	352.802	-0.118	0.235
-159.750	800.000	-0.117	0.390
-158.735	-200.000	-0.006	-0.123
-157.720	137.250	0.190	0.249
-156.706	-200.000	0.034	0.291
-155.691	64.923	0.069	0.070
-154.677	-95.944	-0.101	-0.027
-153.662	498.115	0.124	0.287
-152.647	538.763	0.120	0.286
-151.633	-100.119	-0.273	0.068
-150.618	128.755	0.011	-0.014
-149.604	-12.011	-0.151	0.099
-148.589	93.105	-0.232	0.262
-147.574	524.326	-0.043	0.101
-146.560	-200.000	-0.007	-0.180
-145.545	-23.793	0.168	-0.101
-144.531	-200.000	-0.009	-0.138
-143.516	-116.617	-0.161	-0.030
-142.502	-200.000	0.011	0.139
-141.487	-79.733	0.115	-0.039
-140.472	-200.000	0.025	0.348
-139.458	316.429	-0.216	0.408
-138.443	166.582	-0.047	-0.067
-137.429	-35.013	-0.154	0.084
-136.414	31.098	-0.114	-0.098
-135.399	800.000	0.064	-0.178
-134.385	-200.000	-0.022	-0.204
-133.370	44.680	-0.088	-0.081
-132.356	-108.823	-0.240	0.051
-131.341	544.751	0.083	0.199
-130.326	-104.034	0.238	0.055
-129.312	332.004	0.118	0.228
-128.297	282.787	-0.089	0.160
-127.283	115.911	-0.323	-0.396
-126.268	698.775	-0.109	0.288
-125.253	-200.000	-0.013	-0.145
-124.239	-10.232	0.155	0.103
-123.224	1.762	-0.390	0.281
-122.210	12.808	-0.233	-0.180
-121.195	-117.810	0.103	0.018
