DTS Sentinel unit serial number:	SN413079Multiplexer serial number:	ORYXHardware model number:	OX4-SRSoftware version number:	ORYX F/W v4.00 Oryx Data Collector v3.7.2.0data status	okinstallation	princeton_trtdifferential loss correction	single-endedforward channel	channel 2reverse channel	N/Adate	2019/09/14time	06:23:35forward acquisition time	60.00reverse acquisition time	0.00gamma	496.2192k internal	0.2337k external	0.2337temperature offset calibration	1.0130default loss term (dB/km)	0.3790temperature slope calibration	1.0000multiplexer offset coefficient	1.0000multiplexer slope coefficient	1.0000fibre end	0.00T internal ref (°C)	26.56T ext. ref 1 (°C)	3.41T ext. ref 2 (°C)	20.51length (m)	temperature (°C)	Stokes	anti-Stokes-747.200	137.655	-0.067	-0.088
-746.185	337.811	0.026	-0.051
-745.171	-166.874	0.131	0.005
-744.156	800.000	-0.012	-0.035
-743.142	-134.768	-0.179	0.022
-742.127	-11.271	0.291	0.193
-741.112	-43.485	-0.087	0.044
-740.098	-113.004	-0.457	-0.091
-739.083	-163.601	0.036	-0.002
-738.069	-200.000	0.070	0.315
-737.054	607.372	-0.053	0.133
-736.039	181.965	-0.190	-0.281
-735.025	800.000	0.132	0.459
-734.010	53.496	-0.150	-0.144
-732.996	759.346	0.157	-0.426
-731.981	279.139	-0.092	-0.164
-730.966	-200.000	-0.034	-0.383
-729.952	800.000	0.102	0.436
-728.937	-120.662	-0.448	-0.076
-727.923	800.000	0.077	-0.215
-726.908	-90.442	-0.262	-0.076
-725.894	-81.499	-0.473	-0.156
-724.879	147.830	-0.194	0.263
-723.864	-27.751	-0.110	0.064
-722.850	-200.000	-0.010	-0.122
-721.835	-200.000	-0.015	-0.144
-720.821	620.040	-0.107	-0.270
-719.806	-200.000	0.033	-0.158
-718.791	-52.995	0.179	-0.082
-717.777	-9.729	-0.183	0.123
-716.762	-200.000	0.050	0.319
-715.748	58.080	0.103	0.101
-714.733	-44.763	0.452	-0.226
-713.718	-200.000	0.077	0.000
-712.704	-43.268	0.291	-0.147
-711.689	-154.434	-0.117	0.008
-710.675	384.890	0.072	-0.149
-709.660	98.069	-0.177	-0.204
-708.645	64.898	0.128	-0.129
-707.631	-200.000	-0.041	-0.221
-706.616	48.348	0.040	0.037
-705.602	62.007	-0.193	0.193
-704.587	51.736	0.238	0.227
-703.572	-116.415	-0.137	-0.025
-702.558	-90.787	0.306	-0.088
-701.543	-178.448	0.554	0.013
-700.529	16.241	-0.124	-0.098
-699.514	-83.498	-0.370	-0.119
-698.499	-25.738	0.100	-0.059
-697.485	-19.860	-0.181	0.112
-696.470	-87.566	0.282	0.085
-695.456	725.996	0.041	0.108
-694.441	-200.000	0.005	-0.099
-693.426	194.475	0.167	0.254
-692.412	94.894	-0.226	0.258
-691.397	101.532	-0.099	0.116
-690.383	-120.573	-0.203	-0.035
-689.368	8.560	-0.155	0.117
-688.354	261.719	-0.119	0.206
-687.339	-4.715	0.173	0.119
-686.324	315.940	-0.116	-0.219
-685.310	36.537	-0.249	-0.220
-684.295	8.358	-0.299	-0.225
-683.281	-108.201	0.049	0.011
-682.266	800.000	0.006	-0.021
-681.251	-10.623	-0.337	-0.224
-680.237	800.000	-0.029	-0.119
-679.222	-200.000	0.030	-0.154
-678.208	-183.530	-0.314	-0.005
-677.193	-83.926	-0.153	-0.049
-676.178	-29.641	-0.271	0.155
-675.164	-24.934	-0.154	-0.092
-674.149	52.052	-0.101	-0.097
-673.135	228.996	0.145	-0.236
-672.120	98.702	-0.145	0.168
-671.105	-106.894	-0.413	-0.092
-670.091	-109.135	-0.398	0.085
-669.076	800.000	0.045	-0.127
-668.062	63.131	-0.083	0.084
-667.047	-71.817	-0.321	-0.120
-666.032	-42.087	-0.258	-0.132
-665.018	-86.584	0.147	-0.045
-664.003	-27.831	-0.192	-0.111
-662.989	14.091	-0.122	-0.095
-661.974	2.360	0.097	0.070
-660.959	-163.067	0.153	0.007
-659.945	21.195	-0.093	0.076
-658.930	68.429	0.075	-0.077
-657.916	-193.983	-0.492	0.004
-656.901	-200.000	-0.078	-0.392
-655.886	-0.393	-0.106	-0.075
-654.872	-104.328	-0.212	-0.049
-653.857	800.000	-0.057	0.183
-652.843	33.053	0.268	-0.232
-651.828	58.756	0.013	0.013
-650.814	-90.197	-0.211	-0.061
-649.799	800.000	0.110	-0.435
-648.784	243.114	0.047	0.078
-647.770	-200.000	0.006	0.119
-646.755	-152.654	-0.315	-0.022
-645.741	-200.000	-0.052	0.000
-644.726	473.871	0.138	-0.311
-643.711	-116.174	0.152	0.028
-642.697	36.439	0.224	-0.198
-641.682	-200.000	0.077	-0.398
-640.668	96.743	-0.191	-0.219
-639.653	-65.766	-0.156	0.063
-638.638	-200.000	-0.025	0.227
-637.624	-200.000	0.030	0.160
-636.609	523.825	0.127	0.300
-635.595	-200.000	-0.046	-0.219
-634.580	800.000	-0.103	0.363
-633.565	-114.668	0.505	0.097
-632.551	-127.270	-0.103	-0.015
-631.536	306.932	0.010	0.019
-630.522	-100.889	0.273	-0.067
-629.507	446.172	0.185	0.407
-628.492	-83.006	0.114	-0.037
-627.478	-182.582	-0.443	-0.008
-626.463	-166.962	0.374	-0.015
-625.449	28.483	-0.274	-0.231
-624.434	35.455	0.103	0.090
-623.419	-4.777	0.070	0.048
-622.405	-173.321	-0.219	0.007
-621.390	-5.523	0.379	-0.260
-620.376	547.340	0.131	-0.312
-619.361	-58.803	-0.207	0.090
-618.346	8.634	-0.271	0.204
-617.332	216.725	0.022	-0.035
-616.317	69.536	-0.357	0.367
-615.303	-8.460	-0.195	0.131
-614.288	128.839	0.267	0.340
-613.273	-35.327	-0.105	-0.057
-612.259	-200.000	-0.008	-0.433
-611.244	-133.788	0.329	-0.041
-610.230	168.748	0.032	0.045
-609.215	-200.000	0.031	-0.206
-608.201	40.109	-0.220	0.198
-607.186	-55.327	0.160	-0.072
-606.171	-108.795	0.372	-0.079
-605.157	480.354	-0.026	-0.059
-604.142	-65.792	-0.100	0.040
-603.128	-97.923	0.126	0.032
-602.113	9.339	-0.423	-0.320
-601.098	-167.900	0.165	0.006
-600.084	268.618	-0.096	0.168
-599.069	-131.624	0.062	-0.008
-598.055	8.212	0.011	-0.008
-597.040	538.018	-0.106	-0.252
-596.025	78.657	-0.126	0.135
-595.011	0.293	0.052	-0.037
-593.996	-97.528	-0.175	-0.045
-592.982	529.060	0.144	0.340
-591.967	-18.721	0.186	0.115
-590.952	-87.425	-0.229	-0.069
-589.938	-200.000	-0.064	0.309
-588.923	-108.204	-0.097	0.021
-587.909	-95.867	-0.176	-0.047
-586.894	606.153	-0.103	0.256
-585.879	107.115	0.151	-0.179
-584.865	800.000	-0.079	0.289
-583.850	800.000	-0.056	-0.243
-582.836	-121.081	-0.561	-0.094
-581.821	800.000	0.049	0.187
-580.806	-51.985	-0.245	-0.114
-579.792	800.000	0.036	0.135
-578.777	-200.000	-0.056	-0.297
-577.763	182.412	-0.125	0.184
-576.748	-184.292	-0.330	0.005
-575.733	140.704	-0.202	0.266
-574.719	-131.612	-0.201	-0.026
-573.704	800.000	-0.051	0.157
-572.690	285.458	-0.148	0.265
-571.675	-200.000	-0.065	-0.336
-570.661	800.000	-0.071	0.200
-569.646	57.019	-0.053	0.051
-568.631	800.000	-0.042	-0.117
-567.617	72.743	0.124	-0.129
-566.602	800.000	0.087	-0.363
-565.588	-110.717	0.346	0.071
-564.573	-200.000	0.042	-0.291
-563.558	570.313	-0.113	-0.275
-562.544	-57.843	-0.124	-0.054
-561.529	63.144	0.116	-0.116
-560.515	-108.834	-0.137	0.029
-559.500	-99.256	0.266	-0.067
-558.485	800.000	0.034	0.147
-557.471	62.259	0.145	0.145
-556.456	-177.008	0.074	0.002
-555.442	-21.141	0.175	-0.107
-554.427	15.293	0.119	0.093
-553.412	-200.000	0.086	-0.386
-552.398	-200.000	0.009	0.061
-551.383	-12.153	0.116	-0.076
-550.369	-12.021	-0.005	0.003
-549.354	-200.000	0.017	0.352
-548.339	-200.000	-0.013	-0.137
-547.325	25.758	0.191	0.158
-546.310	-177.435	-0.228	0.006
-545.296	110.753	0.103	-0.123
-544.281	31.530	-0.188	-0.161
-543.266	199.187	-0.150	0.229
-542.252	-80.373	-0.261	-0.087
-541.237	-200.000	0.021	-0.232
-540.223	-200.000	0.015	0.109
-539.208	431.942	-0.093	0.200
-538.193	127.651	-0.061	-0.078
-537.179	42.669	-0.092	0.084
-536.164	-192.420	-0.295	0.003
-535.150	-19.641	-0.467	0.288
-534.135	-67.902	-0.044	-0.017
-533.121	745.045	0.005	0.013
-532.106	-100.282	0.242	-0.060
-531.091	92.493	0.198	-0.222
-530.077	-26.801	0.141	-0.082
-529.062	-13.078	-0.170	0.110
-528.048	-151.732	-0.390	-0.029
-527.033	-148.816	0.190	-0.015
-526.018	-12.903	0.168	0.109
-525.004	477.965	-0.057	0.127
-523.989	-159.696	-0.285	-0.016
-522.975	-44.778	-0.204	-0.101
-521.960	800.000	0.048	0.181
-520.945	-200.000	-0.014	-0.244
-519.931	199.173	0.255	-0.389
-518.916	747.157	-0.127	-0.340
-517.902	-21.492	-0.161	0.098
-516.887	-14.219	0.078	0.050
-515.872	-56.097	0.098	0.043
-514.858	-196.393	-0.369	0.003
-513.843	-51.217	-0.098	-0.046
-512.829	402.574	0.100	-0.209
-511.814	60.798	-0.213	-0.210
-510.799	800.000	0.038	-0.129
-509.785	103.602	-0.117	-0.137
-508.770	800.000	-0.068	-0.229
-507.756	-118.301	0.162	-0.029
-506.741	-200.000	-0.053	-0.362
-505.726	-60.641	-0.124	0.053
-504.712	98.736	0.078	-0.090
-503.697	-200.000	0.034	0.182
-502.683	472.821	-0.016	-0.035
-501.668	76.902	-0.204	0.215
-500.653	-26.394	-0.282	0.164
-499.639	-200.000	-0.024	-0.325
-498.624	-138.426	0.170	-0.019
-497.610	-128.894	-0.402	-0.056
-496.595	-148.102	-0.258	0.021
-495.581	195.121	0.122	0.184
-494.566	-200.000	0.051	0.266
-493.551	800.000	-0.138	-0.455
-492.537	-200.000	0.011	0.360
-491.522	-159.225	0.225	0.013
-490.508	477.875	0.077	-0.174
-489.493	-137.315	0.269	-0.030
-488.478	-116.782	0.107	-0.019
-487.464	-200.000	-0.047	0.436
-486.449	124.883	0.097	0.122
-485.435	800.000	-0.037	0.124
-484.420	89.814	-0.026	-0.029
-483.405	800.000	0.045	-0.187
-482.391	120.103	-0.116	0.142
-481.376	223.805	-0.107	-0.172
-480.362	-31.269	0.154	-0.086
-479.347	-125.824	0.319	-0.048
-478.332	14.207	0.089	0.069
-477.318	-23.156	-0.284	0.170
-476.303	761.698	0.109	0.295
-475.289	-2.038	-0.216	0.151
-474.274	-115.550	-0.344	-0.064
-473.259	85.581	0.115	0.125
-472.245	800.000	0.043	-0.142
-471.230	-63.489	0.489	-0.200
-470.216	18.855	0.181	-0.144
-469.201	660.078	-0.048	0.124
-468.186	800.000	-0.042	0.135
-467.172	7.821	-0.214	-0.159
-466.157	195.492	0.174	-0.263
-465.143	94.444	-0.085	-0.096
-464.128	310.331	-0.069	0.129
-463.113	-59.357	0.172	-0.074
-462.099	-200.000	-0.011	-0.054
-461.084	-45.028	0.140	-0.069
-460.070	-128.779	-0.036	-0.005
-459.055	800.000	-0.065	-0.224
-458.040	-74.242	-0.225	-0.081
-457.026	121.718	-0.175	0.216
-456.011	-57.901	0.261	0.113
-454.997	-3.611	-0.071	0.049
-453.982	-200.000	0.012	-0.286
-452.968	-62.525	0.160	-0.066
-451.953	-200.000	0.008	0.459
-450.938	-94.550	-0.114	0.031
-449.924	707.166	-0.026	0.068
-448.909	9.328	0.122	0.091
-447.895	56.051	0.020	-0.020
-446.880	474.018	-0.092	-0.206
-445.865	68.320	-0.295	0.300
-444.851	724.697	-0.058	-0.153
-443.836	523.035	0.108	-0.253
-442.822	39.767	0.101	0.090
-441.807	-200.000	-0.058	0.402
-440.792	-156.249	-0.070	-0.004
-439.778	-85.775	0.254	-0.078
-438.763	256.837	-0.048	0.083
-437.749	206.844	0.238	-0.368
-436.734	5.353	-0.134	-0.098
-435.719	-59.749	-0.215	-0.091
-434.705	-42.533	0.028	0.014
-433.690	-200.000	0.048	0.216
-432.676	-200.000	0.008	-0.220
-431.661	-37.893	-0.188	0.099
-430.646	-12.983	0.197	0.127
-429.632	378.690	0.109	0.220
-428.617	800.000	0.052	0.202
-427.603	800.000	-0.053	0.224
-426.588	-15.183	0.179	0.113
-425.573	119.071	-0.216	-0.265
-424.559	800.000	-0.024	0.066
-423.544	800.000	0.061	-0.182
-422.530	800.000	-0.092	-0.307
-421.515	-95.400	-0.526	0.140
-420.500	39.522	-0.100	0.089
-419.486	-58.186	-0.296	-0.128
-418.471	-200.000	-0.072	-0.417
-417.457	-126.699	-0.173	-0.025
-416.442	-28.629	-0.373	0.213
-415.428	46.593	-0.122	-0.112
-414.413	-125.854	0.190	0.028
-413.398	704.694	-0.052	0.135
-412.384	-200.000	0.009	0.104
-411.369	-200.000	-0.021	0.199
-410.355	655.982	0.066	0.167
-409.340	-130.877	-0.085	0.011
-408.325	-200.000	-0.005	0.123
-407.311	-3.653	0.230	-0.159
-406.296	53.884	0.119	0.113
-405.282	142.107	-0.197	0.259
-404.267	-47.106	-0.115	-0.056
-403.252	-121.982	-0.232	-0.038
-402.238	-128.690	-0.111	-0.016
-401.223	380.333	0.080	-0.163
-400.209	800.000	0.168	0.505
-399.194	559.900	-0.055	0.131
-398.179	-160.640	-0.176	-0.009
-397.165	106.956	-0.218	-0.256
-396.150	103.821	0.139	0.162
-395.136	800.000	0.127	-0.350
-394.121	-106.570	0.091	-0.020
-393.106	-183.520	0.123	-0.002
-392.092	702.353	0.072	0.187
-391.077	-97.356	-0.149	-0.038
-390.063	800.000	-0.040	-0.113
-389.048	95.320	0.080	-0.090
-388.033	800.000	0.054	0.203
-387.019	-20.128	-0.265	0.162
-386.004	-200.000	0.060	-0.293
-384.990	73.636	0.115	0.119
-383.975	27.149	-0.209	-0.173
-382.960	-52.819	-0.166	0.076
-381.946	800.000	-0.092	-0.256
-380.931	-149.016	0.123	-0.010
-379.917	200.453	0.042	0.064
-378.902	201.614	-0.124	0.189
-377.888	59.482	-0.288	0.281
-376.873	477.548	0.120	0.268
-375.858	-64.200	-0.268	-0.108
-374.844	-14.802	-0.228	0.145
-373.829	800.000	0.051	0.216
-372.815	-135.707	-0.224	0.026
-371.800	-200.000	-0.031	0.184
-370.785	-30.515	0.233	-0.131
-369.771	159.312	0.180	0.248
-368.756	79.520	-0.255	-0.270
-367.742	-131.627	0.215	-0.028
-366.727	-200.000	0.047	-0.221
-365.712	800.000	0.026	-0.108
-364.698	-70.368	-0.121	0.045
-363.683	-174.504	0.390	-0.011
-362.669	216.999	0.045	-0.072
-361.654	800.000	0.027	0.079
-360.639	505.993	0.122	0.279
-359.625	100.631	0.033	0.038
-358.610	-27.745	0.044	0.025
-357.596	-200.000	-0.018	0.083
-356.581	442.900	-0.142	-0.308
-355.566	800.000	-0.170	-0.467
-354.552	-200.000	0.276	0.000
-353.537	-200.000	-0.004	-0.050
-352.523	-51.240	0.205	0.095
-351.508	-65.731	-0.152	-0.060
-350.493	236.844	0.231	-0.377
-349.479	-7.916	-0.245	0.163
-348.464	-135.960	0.091	-0.011
-347.450	-70.338	0.244	-0.092
-346.435	-200.000	-0.015	-0.115
-345.420	-122.767	-0.104	0.017
-344.406	-63.551	0.183	0.074
-343.391	69.225	-0.077	0.078
-342.377	-200.000	-0.004	-0.131
-341.362	-20.628	0.075	-0.046
-340.348	-200.000	-0.050	-0.227
-339.333	800.000	-0.089	-0.348
-338.318	-161.526	0.184	0.009
-337.304	-86.724	0.304	0.092
-336.289	-200.000	0.021	-0.142
-335.275	800.000	0.075	-0.253
-334.260	-200.000	0.023	-0.285
-333.245	-200.000	-0.052	0.297
-332.231	347.893	-0.147	0.287
-331.216	215.613	-0.026	0.041
-330.202	121.784	-0.090	-0.111
-329.187	-54.555	0.223	-0.100
-328.172	69.264	0.101	-0.103
-327.158	4.181	-0.185	-0.134
-326.143	-107.678	-0.068	-0.015
-325.129	-72.436	0.131	-0.048
-324.114	-102.568	0.028	-0.007
-323.099	58.002	-0.177	0.171
-322.085	651.776	-0.065	0.165
-321.070	241.715	-0.153	-0.253
-320.056	-146.735	0.069	0.006
-319.041	800.000	-0.108	0.319
-318.026	-200.000	0.044	0.602
-317.012	-59.986	0.346	0.146
-315.997	96.680	0.197	-0.222
-314.983	43.151	-0.068	0.061
-313.968	375.907	0.084	-0.169
-312.953	230.015	0.117	-0.188
-311.939	-9.560	-0.130	0.086
-310.924	-63.770	-0.168	-0.068
-309.910	-158.028	0.455	0.026
-308.895	-136.336	0.134	0.015
-307.880	-120.574	0.125	0.021
-306.866	-88.621	-0.232	-0.068
-305.851	-110.891	-0.292	0.059
-304.837	-33.336	0.092	-0.050
-303.822	128.392	0.107	0.134
-302.807	-172.816	0.268	0.008
-301.793	-200.000	0.012	-0.084
-300.778	7.545	0.223	-0.165
-299.764	-137.610	-0.215	-0.024
-298.749	-200.000	-0.007	-0.055
-297.735	-200.000	0.006	-0.130
-296.720	212.811	0.086	0.134
-295.705	800.000	0.117	-0.335
-294.691	92.285	0.235	-0.261
-293.676	-54.318	-0.245	-0.109
-292.662	-130.061	0.091	-0.012
-291.647	-134.169	-0.109	0.013
-290.632	37.170	0.323	-0.282
-289.618	187.928	0.223	0.328
-288.603	117.981	0.272	-0.330
-287.589	149.038	-0.085	-0.113
-286.574	-109.353	0.015	0.003
-285.559	-118.528	0.174	0.030
-284.545	388.364	0.181	0.369
-283.530	284.721	-0.111	-0.196
-282.516	-85.642	-0.318	0.097
-281.501	-120.343	-0.223	0.037
-280.486	-173.639	0.113	-0.003
-279.472	-7.409	-0.150	-0.100
-278.457	226.648	0.077	-0.123
-277.443	-200.000	-0.044	-0.262
-276.428	-95.652	0.172	-0.045
-275.413	-200.000	-0.006	-0.078
-274.399	800.000	0.051	-0.173
-273.384	-200.000	-0.050	0.225
-272.370	-120.501	0.070	-0.012
-271.355	383.836	0.106	-0.216
-270.340	-68.703	-0.054	0.021
-269.326	-104.080	0.068	-0.016
-268.311	-112.585	-0.136	-0.027
-267.297	-35.315	-0.215	0.115
-266.282	-108.475	0.099	-0.021
-265.267	187.287	0.216	0.317
-264.253	-3.744	-0.179	0.122
-263.238	64.871	0.197	0.196
-262.224	800.000	0.054	0.231
-261.209	-136.275	-0.150	0.017
-260.195	246.239	-0.245	-0.407
-259.180	-200.000	-0.004	0.032
-258.165	-78.598	-0.106	-0.036
-257.151	-42.835	-0.227	-0.114
-256.136	-200.000	-0.025	-0.180
-255.122	135.909	-0.141	-0.181
-254.107	-200.000	0.001	0.159
-253.092	-14.261	-0.130	0.083
-252.078	-200.000	0.020	0.345
-251.063	-200.000	-0.002	-0.059
-250.049	-68.892	-0.274	-0.104
-249.034	217.744	-0.310	0.486
-248.019	442.722	0.089	-0.193
-247.005	118.756	-0.148	-0.180
-245.990	421.056	0.136	0.287
-244.976	800.000	-0.115	0.446
-243.961	-31.725	0.182	0.100
-242.946	-108.407	0.291	-0.062
-241.932	-200.000	0.058	0.383
-240.917	-90.502	-0.120	-0.034
-239.903	57.768	0.062	-0.060
-238.888	-187.858	-0.219	0.003
-237.873	-111.153	0.423	-0.085
-236.859	-65.738	0.269	-0.106
-235.844	-136.377	-0.065	0.008
-234.830	-200.000	-0.019	0.205
-233.815	62.678	-0.226	-0.222
-232.800	-120.477	0.009	0.001
-231.786	358.568	0.097	-0.192
-230.771	82.486	-0.062	-0.066
-229.757	-25.097	-0.086	-0.050
-228.742	-200.000	-0.027	-0.229
-227.727	-26.176	-0.165	-0.095
-226.713	73.653	-0.103	-0.106
-225.698	800.000	0.022	0.069
-224.684	-200.000	0.028	-0.280
-223.669	31.517	-0.162	-0.137
-222.655	-200.000	0.008	-0.158
-221.640	-200.000	0.006	0.446
-220.625	-176.662	0.154	-0.004
-219.611	-110.124	-0.180	-0.037
-218.596	-51.220	0.120	0.055
-217.582	-97.107	0.254	0.065
-216.567	800.000	-0.049	0.204
-215.552	301.556	0.060	0.108
-214.538	412.517	0.044	-0.093
-213.523	-200.000	-0.037	0.185
-212.509	0.499	-0.155	-0.109
-211.494	-115.963	0.156	0.029
-210.479	800.000	-0.029	-0.081
-209.465	-200.000	-0.080	0.379
-208.450	377.630	0.056	0.112
-207.436	-2.787	0.234	0.161
-206.421	24.194	-0.266	-0.216
-205.406	1.695	-0.097	-0.069
-204.392	-125.019	0.176	-0.027
-203.377	664.132	0.038	-0.097
-202.363	-24.549	0.168	0.098
-201.348	-200.000	-0.030	0.234
-200.333	-132.355	0.124	-0.016
-199.319	-47.333	-0.247	0.118
-198.304	-91.329	0.197	0.055
-197.290	-200.000	0.080	0.383
-196.275	-200.000	-0.011	0.145
-195.260	37.578	0.312	-0.272
-194.246	543.869	0.099	-0.232
-193.231	800.000	0.056	-0.179
-192.217	-19.161	-0.256	0.156
-191.202	271.812	0.171	0.297
-190.187	-47.273	0.187	0.090
-189.173	-146.928	0.388	-0.033
-188.158	-38.187	0.334	0.174
-187.144	-200.000	-0.011	0.118
-186.129	-58.788	0.128	-0.054
-185.114	-124.587	-0.195	0.030
-184.100	-97.242	0.268	0.069
-183.085	103.763	-0.030	0.034
-182.071	448.065	0.066	0.143
-181.056	410.333	-0.104	0.217
-180.042	169.160	0.099	0.139
-179.027	-149.894	0.452	0.035
-178.012	19.613	0.261	0.206
-176.998	-131.703	-0.278	-0.036
-175.983	-48.974	0.272	-0.128
-174.969	38.341	-0.234	-0.205
-173.954	273.291	0.019	0.033
-172.939	-200.000	-0.012	0.197
-171.925	-74.233	0.110	-0.039
-170.910	88.198	0.208	0.227
-169.896	-102.704	0.134	-0.031
-168.881	-188.065	0.513	0.006
-167.866	-130.963	-0.369	-0.048
-166.852	-138.942	-0.211	-0.022
-165.837	285.981	0.139	0.246
-164.823	135.007	0.159	0.203
-163.808	-57.219	0.108	-0.047
-162.793	45.525	-0.181	-0.164
-161.779	335.576	0.106	0.202
-160.764	-200.000	0.002	0.127
-159.750	-200.000	-0.019	0.108
-158.735	594.157	-0.076	0.185
-157.720	-116.694	0.115	-0.021
-156.706	68.282	0.161	-0.162
-155.691	-200.000	0.056	-0.289
-154.677	-200.000	-0.037	-0.165
-153.662	-117.963	0.467	0.082
-152.647	-51.655	0.033	-0.015
-151.633	187.129	-0.184	-0.269
-150.618	78.380	-0.232	-0.243
-149.604	123.747	0.134	-0.165
-148.589	-147.071	-0.254	0.021
-147.574	-200.000	0.000	0.328
-146.560	-163.342	-0.236	0.011
-145.545	-167.012	-0.040	0.002
-144.531	-85.459	-0.169	0.052
-143.516	800.000	-0.032	0.088
-142.502	217.924	0.106	0.167
-141.487	-144.452	-0.166	0.015
-140.472	-200.000	-0.025	0.123
-139.458	-64.407	-0.190	0.076
-138.443	0.584	0.235	0.165
-137.429	-200.000	0.019	0.101
-136.414	-113.580	-0.172	-0.033
-135.399	141.575	0.104	0.136
-134.385	-174.232	0.336	-0.010
-133.370	-200.000	0.017	0.314
-132.356	11.139	0.128	0.096
-131.341	378.345	0.081	-0.161
-130.326	608.799	-0.071	-0.173
-129.312	55.488	0.075	-0.072
-128.297	-153.150	-0.116	0.008
-127.283	800.000	-0.016	-0.055
-126.268	800.000	-0.086	0.233
-125.253	-136.745	-0.207	-0.023
-124.239	-200.000	0.004	-0.315
-123.224	800.000	-0.050	0.212
-122.210	-74.983	0.352	0.124
