DTS Sentinel unit serial number:	SN413079Multiplexer serial number:	ORYXHardware model number:	OX4-SRSoftware version number:	ORYX F/W v4.00 Oryx Data Collector v3.7.2.0data status	okinstallation	princeton_trtdifferential loss correction	single-endedforward channel	channel 2reverse channel	N/Adate	2019/09/10time	16:13:11forward acquisition time	60.00reverse acquisition time	0.00gamma	496.2192k internal	0.2308k external	0.2308temperature offset calibration	0.9932default loss term (dB/km)	0.3790temperature slope calibration	1.0000multiplexer offset coefficient	1.0000multiplexer slope coefficient	1.0000fibre end	0.00T internal ref (°C)	38.28T ext. ref 1 (°C)	-0.29T ext. ref 2 (°C)	31.20length (m)	temperature (°C)	Stokes	anti-Stokes-747.200	-200.000	0.002	-0.054
-746.185	800.000	0.049	0.182
-745.171	-200.000	0.001	0.306
-744.156	800.000	0.045	0.132
-743.142	-200.000	0.054	-0.283
-742.127	27.692	0.195	0.167
-741.112	800.000	-0.140	0.432
-740.098	-40.666	-0.335	0.177
-739.083	800.000	0.059	0.263
-738.069	-38.329	0.403	0.217
-737.054	5.634	0.223	-0.167
-736.039	-119.192	-0.198	-0.035
-735.025	-76.415	0.286	-0.102
-734.010	52.258	-0.122	-0.119
-732.996	95.021	0.108	0.125
-731.981	41.448	0.115	0.106
-730.966	-30.892	0.174	-0.100
-729.952	9.063	-0.123	-0.095
-728.937	-125.222	-0.324	-0.050
-727.923	-88.903	-0.222	0.067
-726.908	257.385	-0.063	-0.111
-725.894	105.470	-0.249	-0.299
-724.879	-29.601	0.296	0.172
-723.864	137.008	0.137	-0.182
-722.850	-107.185	0.232	0.052
-721.835	800.000	-0.048	0.195
-720.821	-54.704	0.486	-0.223
-719.806	81.735	-0.245	-0.270
-718.791	-101.148	-0.238	-0.059
-717.777	-136.838	-0.269	0.031
-716.762	800.000	-0.046	0.169
-715.748	89.484	-0.149	-0.169
-714.733	800.000	-0.042	-0.155
-713.718	273.697	0.171	0.308
-712.704	-160.673	-0.166	-0.009
-711.689	111.786	-0.170	-0.209
-710.675	800.000	-0.018	-0.068
-709.660	119.584	-0.019	0.024
-708.645	-35.859	0.146	-0.080
-707.631	40.914	-0.160	-0.147
-706.616	288.200	-0.051	-0.094
-705.602	455.796	-0.050	-0.113
-704.587	293.899	-0.146	-0.271
-703.572	62.999	0.095	0.097
-702.558	-61.278	0.373	0.159
-701.543	734.911	0.069	0.187
-700.529	41.155	-0.182	-0.167
-699.514	-200.000	0.004	-0.182
-698.499	112.960	-0.109	0.134
-697.485	-46.311	0.289	0.144
-696.470	-59.346	-0.208	-0.091
-695.456	127.824	0.437	-0.563
-694.441	-174.723	-0.223	-0.006
-693.426	642.495	-0.059	-0.152
-692.412	800.000	-0.078	0.237
-691.397	-200.000	-0.060	-0.382
-690.383	-106.775	-0.244	0.055
-689.368	-143.150	-0.073	0.007
-688.354	-148.630	-0.410	-0.034
-687.339	-77.418	-0.325	-0.114
-686.324	-200.000	0.076	-0.451
-685.310	-200.000	0.017	0.530
-684.295	-200.000	-0.020	-0.281
-683.281	-200.000	0.008	0.189
-682.266	11.967	0.213	0.166
-681.251	-169.110	0.188	-0.007
-680.237	-200.000	0.019	-0.166
-679.222	-133.118	-0.390	0.050
-678.208	184.058	-0.174	0.261
-677.193	-200.000	-0.024	0.428
-676.178	82.814	-0.136	0.150
-675.164	2.964	-0.234	-0.173
-674.149	-200.000	0.044	0.366
-673.135	-200.000	0.071	0.521
-672.120	150.096	-0.023	0.032
-671.105	-200.000	-0.003	-0.086
-670.091	800.000	0.019	0.067
-669.076	-200.000	-0.005	-0.042
-668.062	-86.829	-0.201	-0.062
-667.047	40.843	-0.103	0.094
-666.032	69.525	-0.153	-0.160
-665.018	-43.956	-0.139	0.071
-664.003	800.000	0.052	-0.156
-662.989	47.099	-0.224	0.211
-661.974	198.669	-0.251	0.389
-660.959	311.692	-0.117	0.223
-659.945	800.000	0.042	-0.152
-658.930	-92.701	-0.144	-0.041
-657.916	99.185	0.117	-0.136
-656.901	800.000	0.029	-0.128
-655.886	-200.000	0.030	0.227
-654.872	118.516	-0.141	0.177
-653.857	-200.000	-0.033	0.171
-652.843	132.680	-0.176	0.230
-651.828	82.643	0.111	0.122
-650.814	-52.407	-0.163	-0.076
-649.799	48.579	-0.242	-0.230
-648.784	-56.846	0.382	-0.171
-647.770	114.351	-0.114	0.141
-646.755	-148.484	-0.333	-0.028
-645.741	-200.000	0.053	-0.270
-644.726	-21.730	-0.151	-0.093
-643.711	126.914	-0.081	0.104
-642.697	-123.962	-0.388	0.062
-641.682	800.000	0.033	0.135
-640.668	146.253	-0.098	0.133
-639.653	52.700	0.135	-0.131
-638.638	-200.000	0.014	0.204
-637.624	423.782	-0.066	-0.144
-636.609	800.000	-0.019	-0.068
-635.595	-165.726	0.155	0.007
-634.580	800.000	0.035	-0.106
-633.565	48.322	0.089	-0.085
-632.551	-200.000	0.007	-0.099
-631.536	800.000	0.045	0.148
-630.522	134.523	0.204	-0.268
-629.507	11.726	0.093	-0.072
-628.492	-141.732	-0.213	-0.022
-627.478	-107.910	0.113	-0.025
-626.463	189.808	-0.138	-0.209
-625.449	97.063	-0.128	-0.149
-624.434	-8.318	0.032	-0.022
-623.419	-139.243	0.362	-0.039
-622.405	131.033	-0.093	0.121
-621.390	-154.171	0.316	0.022
-620.376	-149.163	0.183	-0.015
-619.361	-105.682	-0.251	0.058
-618.346	-200.000	-0.003	0.316
-617.332	800.000	0.025	0.091
-616.317	-62.037	0.412	-0.174
-615.303	-58.307	-0.179	-0.079
-614.288	170.169	-0.192	0.277
-613.273	-105.401	0.320	0.074
-612.259	342.632	-0.072	-0.142
-611.244	-49.981	0.063	-0.030
-610.230	-70.497	0.269	0.103
-609.215	-42.340	0.314	-0.162
-608.201	581.013	-0.064	0.159
-607.186	-132.327	0.174	-0.023
-606.171	113.811	0.116	0.143
-605.157	29.818	-0.089	0.077
-604.142	-33.165	-0.115	0.065
-603.128	-100.158	-0.137	0.035
-602.113	87.332	0.156	0.174
-601.098	277.543	0.082	-0.148
-600.084	763.219	-0.047	0.129
-599.069	625.699	-0.134	0.341
-598.055	58.051	-0.197	0.195
-597.040	52.769	-0.101	-0.097
-596.025	-23.237	-0.217	-0.132
-595.011	-188.297	-0.148	0.002
-593.996	-117.477	-0.083	-0.015
-592.982	-81.496	0.185	-0.062
-591.967	-112.409	0.455	0.092
-590.952	621.384	0.191	-0.486
-589.938	-200.000	-0.053	-0.239
-588.923	800.000	0.078	-0.228
-587.909	800.000	-0.090	-0.389
-586.894	28.812	-0.157	0.134
-585.879	-200.000	0.006	-0.066
-584.865	292.835	0.041	0.076
-583.850	-200.000	0.034	0.209
-582.836	-200.000	0.016	0.236
-581.821	-54.563	-0.193	0.088
-580.806	-184.467	0.268	0.004
-579.792	103.768	0.023	0.027
-578.777	800.000	-0.019	0.073
-577.763	185.875	-0.064	0.096
-576.748	-124.866	0.222	-0.035
-575.733	-75.280	0.106	-0.038
-574.719	-49.908	-0.167	0.080
-573.704	-53.009	0.258	0.120
-572.690	262.533	0.080	0.140
-571.675	800.000	-0.018	0.074
-570.661	24.913	0.083	0.070
-569.646	-200.000	0.007	0.062
-568.631	133.039	0.075	0.097
-567.617	110.934	0.268	-0.326
-566.602	16.771	-0.112	-0.089
-565.588	800.000	-0.051	-0.203
-564.573	-114.359	-0.102	0.020
-563.558	-19.975	0.196	-0.122
-562.544	-17.942	0.132	-0.083
-561.529	-200.000	-0.159	0.000
-560.515	38.791	-0.251	0.227
-559.500	-200.000	0.028	0.414
-558.485	0.607	-0.321	0.231
-557.471	-76.941	-0.210	0.074
-556.456	-200.000	0.040	-0.354
-555.442	-18.840	0.131	0.083
-554.427	11.478	-0.129	-0.100
-553.412	-142.880	0.097	-0.009
-552.398	71.937	0.150	-0.158
-551.383	-19.966	0.164	-0.102
-550.369	57.172	-0.282	-0.277
-549.354	226.525	-0.269	-0.441
-548.339	-200.000	0.042	-0.217
-547.325	83.747	0.048	0.053
-546.310	63.732	-0.202	-0.204
-545.296	800.000	-0.078	0.294
-544.281	-77.992	0.407	-0.141
-543.266	-200.000	-0.028	-0.194
-542.252	-117.437	-0.229	-0.042
-541.237	27.468	-0.154	-0.130
-540.223	36.134	0.274	-0.244
-539.208	28.873	0.264	-0.226
-538.193	252.782	0.112	0.192
-537.179	-200.000	-0.044	0.445
-536.164	800.000	-0.083	-0.237
-535.150	-146.441	-0.082	-0.007
-534.135	-127.108	-0.289	0.043
-533.121	-64.743	-0.331	-0.135
-532.106	121.056	0.164	-0.206
-531.091	-64.917	-0.162	-0.066
-530.077	-109.525	-0.142	0.030
-529.062	-107.256	0.150	0.033
-528.048	2.200	0.247	0.180
-527.033	800.000	-0.019	0.064
-526.018	-200.000	-0.005	0.285
-525.004	-200.000	-0.054	0.363
-523.989	-200.000	0.033	-0.204
-522.975	654.353	-0.094	0.243
-521.960	212.632	-0.065	-0.104
-520.945	-18.970	-0.092	0.058
-519.931	-38.636	-0.146	0.078
-518.916	11.986	-0.497	-0.385
-517.902	-79.110	-0.117	0.040
-516.887	-74.881	-0.194	-0.070
-515.872	702.144	-0.191	-0.508
-514.858	-35.340	-0.211	-0.116
-513.843	-15.815	-0.234	-0.150
-512.829	800.000	-0.073	0.285
-511.814	-66.890	0.096	0.038
-510.799	16.446	-0.216	-0.172
-509.785	299.702	0.073	0.136
-508.770	-200.000	0.001	0.130
-507.756	585.033	0.057	-0.142
-506.741	277.298	-0.179	-0.320
-505.726	171.018	-0.083	0.120
-504.712	-70.707	0.313	-0.119
-503.697	-140.917	-0.238	-0.025
-502.683	-109.314	-0.154	-0.033
-501.668	800.000	-0.023	0.089
-500.653	-124.164	0.189	-0.030
-499.639	588.554	-0.124	0.306
-498.624	56.382	-0.043	0.042
-497.610	-48.757	0.420	-0.203
-496.595	245.089	0.119	-0.201
-495.581	-200.000	0.016	0.077
-494.566	-50.886	0.077	-0.036
-493.551	249.733	0.055	0.094
-492.537	9.796	0.230	-0.175
-491.522	150.272	0.158	-0.215
-490.508	98.142	-0.118	0.137
-489.493	-63.461	-0.178	0.074
-488.478	-50.598	0.194	-0.092
-487.464	44.074	0.323	0.298
-486.449	-200.000	0.000	-0.130
-485.435	37.041	-0.104	0.092
-484.420	-200.000	0.005	0.035
-483.405	-139.326	-0.097	0.010
-482.391	36.277	0.218	-0.193
-481.376	474.228	-0.093	-0.211
-480.362	-189.848	0.284	-0.003
-479.347	242.180	-0.062	0.104
-478.332	-23.739	0.222	0.134
-477.318	430.019	0.074	-0.162
-476.303	234.586	0.082	0.136
-475.289	-200.000	0.064	0.459
-474.274	87.162	0.063	0.070
-473.259	-116.899	0.134	0.025
-472.245	57.202	-0.107	-0.105
-471.230	-148.546	-0.316	-0.026
-470.216	-200.000	0.019	0.227
-469.201	-104.213	-0.229	-0.053
-468.186	-67.082	-0.315	-0.125
-467.172	-100.635	-0.153	0.038
-466.157	-200.000	0.002	0.147
-465.143	800.000	0.046	-0.165
-464.128	-133.057	-0.034	0.004
-463.113	800.000	-0.055	0.174
-462.099	-116.621	-0.155	-0.029
-461.084	-200.000	-0.015	-0.235
-460.070	800.000	-0.110	0.312
-459.055	218.202	-0.065	-0.105
-458.040	35.604	-0.131	0.116
-457.026	205.183	-0.207	-0.323
-456.011	63.546	-0.142	-0.143
-454.997	800.000	-0.136	-0.474
-453.982	145.678	-0.205	-0.276
-452.968	143.826	0.125	-0.167
-451.953	109.444	-0.163	-0.197
-450.938	800.000	-0.043	0.164
-449.924	52.122	0.098	-0.094
-448.909	-134.104	-0.328	0.041
-447.895	-23.300	0.177	0.107
-446.880	-75.764	-0.107	0.038
-445.865	96.735	-0.083	-0.095
-444.851	-200.000	0.067	0.333
-443.836	-18.168	-0.127	-0.080
-442.822	-7.200	-0.377	0.257
-441.807	-61.395	0.335	-0.142
-440.792	800.000	0.101	-0.369
-439.778	-193.287	0.036	0.000
-438.763	-174.516	0.300	-0.009
-437.749	800.000	-0.003	0.010
-436.734	-200.000	0.015	0.200
-435.719	-39.953	-0.336	-0.176
-434.705	-76.597	0.149	-0.053
-433.690	147.122	0.137	0.185
-432.676	416.346	0.037	-0.079
-431.661	-148.938	0.155	-0.013
-430.646	212.167	0.142	0.225
-429.632	-33.335	-0.162	0.090
-428.617	-138.571	0.152	-0.017
-427.603	-200.000	0.024	-0.110
-426.588	-15.474	-0.184	-0.118
-425.573	60.184	0.260	0.259
-424.559	-152.186	-0.179	0.013
-423.544	-77.529	0.150	-0.052
-422.530	-200.000	0.153	0.765
-421.515	800.000	-0.087	0.267
-420.500	-13.730	0.022	0.014
-419.486	404.839	0.143	-0.303
-418.471	22.548	0.280	-0.230
-417.457	-43.566	-0.079	0.040
-416.442	13.318	0.137	0.107
-415.428	-200.000	-0.022	-0.179
-414.413	800.000	0.028	-0.077
-413.398	-26.556	-0.107	-0.063
-412.384	25.557	0.145	0.121
-411.369	-97.954	-0.323	0.084
-410.355	-23.289	-0.076	-0.046
-409.340	-0.066	0.100	-0.071
-408.325	625.354	-0.084	-0.212
-407.311	-200.000	-0.024	-0.119
-406.296	-115.190	-0.154	-0.029
-405.282	800.000	0.055	0.192
-404.267	98.117	0.033	-0.038
-403.252	480.472	0.069	0.158
-402.238	-23.976	-0.124	-0.074
-401.223	-29.200	0.142	0.082
-400.209	-81.543	0.163	0.054
-399.194	-200.000	0.007	0.153
-398.179	-58.192	0.252	-0.110
-397.165	143.425	0.146	-0.196
-396.150	-200.000	-0.013	0.140
-395.136	-130.200	-0.038	-0.005
-394.121	-200.000	0.026	-0.183
-393.106	-57.332	-0.355	0.156
-392.092	-81.832	-0.244	-0.080
-391.077	431.240	-0.011	0.023
-390.063	-200.000	-0.037	-0.216
-389.048	222.815	0.047	0.076
-388.033	-14.532	0.283	-0.183
-387.019	78.614	0.186	-0.200
-386.004	461.114	0.155	0.347
-384.990	553.796	0.132	0.318
-383.975	-98.310	-0.135	0.035
-382.960	152.457	0.275	-0.376
-381.946	-92.391	-0.354	0.100
-380.931	-56.747	-0.087	-0.039
-379.917	800.000	0.035	-0.104
-378.902	15.912	0.171	-0.135
-377.888	731.797	0.104	0.279
-376.873	800.000	-0.019	-0.059
-375.858	145.534	0.134	-0.181
-374.844	31.648	0.345	0.298
-373.829	29.419	0.271	0.231
-372.815	-29.118	-0.293	0.168
-371.800	373.603	0.118	-0.241
-370.785	236.088	-0.173	0.286
-369.771	10.140	-0.066	-0.050
-368.756	-200.000	0.044	0.463
-367.742	-73.260	-0.171	0.063
-366.727	-156.093	-0.230	0.015
-365.712	168.686	0.060	0.085
-364.698	127.239	-0.338	0.429
-363.683	-200.000	-0.015	-0.127
-362.669	164.063	0.096	-0.136
-361.654	55.146	-0.122	0.118
-360.639	-200.000	0.004	0.166
-359.625	-85.396	-0.164	0.051
-358.610	-200.000	0.027	-0.251
-357.596	-7.039	-0.109	0.074
-356.581	306.435	-0.186	-0.347
-355.566	49.102	0.049	-0.046
-354.552	-200.000	-0.031	-0.304
-353.537	333.915	-0.299	0.579
-352.523	240.466	-0.087	-0.144
-351.508	-200.000	0.044	-0.298
-350.493	239.645	0.055	0.091
-349.479	478.695	-0.056	0.126
-348.464	-105.575	0.194	-0.044
-347.450	9.724	-0.077	-0.058
-346.435	2.021	-0.095	-0.069
-345.420	-117.422	-0.210	-0.038
-344.406	-136.551	0.351	0.041
-343.391	-46.528	-0.400	0.196
-342.377	72.369	-0.144	0.150
-341.362	51.302	-0.031	0.029
-340.348	363.909	-0.030	0.060
-339.333	-131.697	-0.399	0.052
-338.318	-149.306	-0.048	-0.004
-337.304	47.385	-0.176	0.164
-336.289	-125.574	-0.324	0.049
-335.275	-96.526	-0.239	-0.063
-334.260	-167.291	-0.150	-0.006
-333.245	-4.687	-0.220	-0.152
-332.231	-200.000	0.014	-0.187
-331.216	-200.000	0.052	0.461
-330.202	-5.783	-0.053	0.036
-329.187	234.737	0.147	0.243
-328.172	-22.404	-0.234	-0.142
-327.158	-78.110	-0.153	-0.053
-326.143	-200.000	-0.009	0.128
-325.129	-72.256	0.241	-0.089
-324.114	-124.441	0.197	0.031
-323.099	-110.771	-0.205	0.042
-322.085	-200.000	-0.004	0.144
-321.070	-64.665	0.103	0.042
-320.056	-31.414	-0.297	-0.167
-319.041	667.594	-0.055	0.141
-318.026	-62.400	0.114	-0.047
-317.012	-107.569	0.195	-0.043
-315.997	-200.000	-0.018	-0.174
-314.983	224.765	0.100	-0.162
-313.968	800.000	0.090	-0.373
-312.953	129.204	-0.080	-0.102
-311.939	-67.197	-0.099	-0.039
-310.924	-200.000	0.027	-0.191
-309.910	9.588	-0.069	0.052
-308.895	-140.012	0.209	-0.022
-307.880	-100.037	-0.219	0.055
-306.866	-54.628	0.311	-0.141
-305.851	72.324	0.209	-0.218
-304.837	-75.343	0.131	-0.047
-303.822	-200.000	0.029	0.194
-302.807	45.369	0.170	-0.157
-301.793	-200.000	0.001	-0.025
-300.778	-200.000	-0.019	0.127
-299.764	-162.040	-0.171	0.009
-298.749	474.016	-0.155	0.349
-297.735	133.582	-0.111	0.143
-296.720	-15.596	-0.134	0.085
-295.705	392.107	0.087	0.181
-294.691	-35.760	0.097	-0.052
-293.676	-200.000	0.043	-0.275
-292.662	-200.000	-0.047	0.237
-291.647	-181.042	0.132	-0.003
-290.632	-200.000	0.017	0.181
-289.618	43.753	-0.291	-0.266
-288.603	201.783	0.117	0.180
-287.589	7.199	-0.148	-0.110
-286.574	511.442	-0.061	0.143
-285.559	157.710	-0.163	-0.226
-284.545	-116.125	-0.387	-0.072
-283.530	-200.000	-0.011	0.059
-282.516	45.935	0.137	-0.127
-281.501	12.677	0.139	0.108
-280.486	-77.008	-0.264	0.092
-279.472	-200.000	0.029	-0.284
-278.457	-112.663	0.254	-0.050
-277.443	-58.974	-0.138	-0.059
-276.428	477.702	-0.012	-0.027
-275.413	-70.821	0.051	0.019
-274.399	-146.809	0.130	-0.011
-273.384	-200.000	0.006	0.224
-272.370	238.490	-0.209	0.346
-271.355	-200.000	-0.013	-0.126
-270.340	-200.000	0.020	0.156
-269.326	-71.259	-0.271	-0.102
-268.311	166.510	-0.310	-0.438
-267.297	-54.775	-0.317	0.143
-266.282	47.096	-0.208	0.193
-265.267	-65.173	0.093	-0.037
-264.253	219.414	-0.180	-0.287
-263.238	-200.000	-0.043	0.278
-262.224	179.738	-0.100	0.146
-261.209	800.000	0.035	0.108
-260.195	-49.597	-0.232	0.110
-259.180	0.903	0.294	-0.210
-258.165	4.606	-0.041	0.030
-257.151	800.000	0.065	0.192
-256.136	-200.000	-0.010	0.072
-255.122	712.624	-0.062	-0.163
-254.107	-80.191	0.076	-0.025
-253.092	22.882	0.228	-0.187
-252.078	113.417	-0.182	-0.220
-251.063	800.000	-0.010	-0.037
-250.049	12.811	0.230	-0.177
-249.034	-200.000	-0.009	-0.130
-248.019	50.240	0.132	-0.124
-247.005	-13.104	-0.141	-0.092
-245.990	541.235	-0.079	-0.187
-244.976	28.409	0.243	0.205
-243.961	136.834	0.063	-0.082
-242.946	-200.000	0.020	0.255
-241.932	54.580	0.247	0.238
-240.917	-200.000	-0.004	0.186
-239.903	107.397	0.362	0.429
-238.888	295.611	-0.058	0.106
-237.873	-132.795	-0.218	-0.028
-236.859	-200.000	0.012	0.093
-235.844	143.181	0.029	0.038
-234.830	455.254	0.041	-0.090
-233.815	-123.397	-0.059	-0.009
-232.800	31.727	0.057	-0.049
-231.786	-62.291	-0.298	-0.124
-230.771	-200.000	0.084	0.603
-229.757	-6.248	-0.120	0.082
-228.742	-116.656	0.270	0.050
-227.727	-18.938	0.132	0.082
-226.713	-104.368	0.336	-0.078
-225.698	134.967	0.139	-0.180
-224.684	-159.966	0.193	-0.011
-223.669	-128.236	0.254	-0.036
-222.655	-183.464	0.231	-0.004
-221.640	-127.144	0.313	0.046
-220.625	306.373	0.128	-0.238
-219.611	-200.000	0.022	-0.337
-218.596	-38.714	0.096	-0.050
-217.582	47.814	0.185	-0.172
-216.567	225.716	-0.041	0.065
-215.552	30.929	0.245	0.209
-214.538	-61.677	-0.050	-0.021
-213.523	73.167	-0.168	0.175
-212.509	800.000	-0.050	0.152
-211.494	107.867	0.233	0.277
-210.479	63.816	0.150	0.151
-209.465	-50.338	0.089	0.042
-208.450	568.875	0.085	0.206
-207.436	-177.907	0.098	0.002
-206.421	-200.000	-0.040	0.201
-205.406	511.572	0.122	0.282
-204.392	-75.535	-0.145	0.051
-203.377	-156.750	-0.170	-0.010
-202.363	10.928	-0.070	0.053
-201.348	-47.112	0.074	0.036
-200.333	-23.300	0.340	-0.204
-199.319	272.787	0.098	-0.172
-198.304	-2.648	0.152	-0.106
-197.290	-59.168	0.067	-0.029
-196.275	192.723	0.240	0.360
-195.260	307.145	-0.177	-0.328
-194.246	116.540	0.060	0.073
-193.231	72.333	0.177	0.184
-192.217	-109.343	0.239	0.050
-191.202	-106.943	0.109	-0.024
-190.187	-200.000	0.015	0.247
-189.173	-200.000	0.002	0.178
-188.158	337.946	-0.093	0.179
-187.144	5.442	-0.090	0.066
-186.129	-134.582	0.146	-0.018
-185.114	438.601	-0.065	-0.142
-184.100	41.307	-0.117	-0.105
-183.085	373.219	0.268	-0.542
-182.071	48.302	0.222	-0.207
-181.056	39.423	0.237	0.211
-180.042	67.220	-0.174	-0.176
-179.027	103.962	0.131	-0.153
-178.012	11.832	-0.042	0.032
-176.998	-176.140	0.067	0.002
-175.983	-145.636	-0.219	0.019
-174.969	-32.962	-0.096	0.053
-173.954	-26.819	0.313	0.182
-172.939	800.000	-0.072	0.271
-171.925	800.000	0.034	-0.121
-170.910	800.000	0.098	0.298
-169.896	70.100	0.154	-0.158
-168.881	-57.864	0.091	0.040
-167.866	-200.000	0.012	-0.127
-166.852	800.000	-0.077	-0.229
-165.837	-131.915	-0.447	-0.058
-164.823	800.000	-0.141	-0.547
-163.808	-200.000	0.049	-0.286
-162.793	620.966	-0.082	0.205
-161.779	-71.835	-0.185	0.069
-160.764	-38.487	0.081	-0.042
-159.750	-9.937	0.154	0.102
-158.735	34.624	0.193	-0.168
-157.720	217.257	0.189	-0.299
-156.706	69.115	-0.160	-0.164
-155.691	800.000	-0.017	-0.066
-154.677	-200.000	-0.107	0.535
-153.662	-12.521	0.174	0.113
-152.647	436.777	0.074	0.161
-151.633	672.475	0.037	0.096
-150.618	-44.216	0.096	-0.048
-149.604	82.532	0.184	0.199
-148.589	702.571	-0.137	0.358
-147.574	0.178	0.037	0.026
-146.560	-158.576	0.257	-0.015
-145.545	208.064	-0.231	-0.358
-144.531	800.000	0.033	-0.093
-143.516	46.563	0.213	0.196
-142.502	-186.963	-0.154	-0.002
-141.487	-50.268	-0.157	-0.074
-140.472	506.246	-0.071	0.165
-139.458	-138.421	-0.274	-0.030
-138.443	-108.777	0.409	0.087
-137.429	-200.000	-0.007	-0.464
-136.414	42.617	0.226	-0.204
-135.399	25.567	-0.178	0.147
-134.385	-118.134	-0.313	-0.056
-133.370	254.040	0.265	-0.450
-132.356	105.402	-0.108	-0.126
-131.341	-112.914	0.318	0.063
-130.326	5.289	-0.442	0.323
-129.312	-81.357	0.234	0.076
-128.297	-200.000	0.006	0.065
-127.283	23.431	-0.023	0.019
-126.268	-153.668	-0.379	0.026
-125.253	210.634	0.178	0.277
-124.239	19.180	0.352	0.280
-123.224	314.725	-0.193	-0.360
-122.210	-46.089	0.321	0.157
-121.195	277.709	-0.157	0.277
