DTS Sentinel unit serial number:	SN413079Multiplexer serial number:	ORYXHardware model number:	OX4-SRSoftware version number:	ORYX F/W v4.00 Oryx Data Collector v3.7.2.0data status	okinstallation	princeton_trtdifferential loss correction	single-endedforward channel	channel 2reverse channel	N/Adate	2019/09/17time	09:23:34forward acquisition time	60.00reverse acquisition time	0.00gamma	496.2192k internal	0.2329k external	0.2329temperature offset calibration	0.9970default loss term (dB/km)	0.3790temperature slope calibration	1.0000multiplexer offset coefficient	1.0000multiplexer slope coefficient	1.0000fibre end	0.00T internal ref (°C)	28.75T ext. ref 1 (°C)	0.14T ext. ref 2 (°C)	25.72length (m)	temperature (°C)	Stokes	anti-Stokes-747.200	29.351	0.044	-0.037
-746.185	367.453	-0.259	0.528
-745.171	80.952	0.131	-0.142
-744.156	-200.000	0.005	0.425
-743.142	-96.652	0.177	-0.047
-742.127	-35.432	-0.106	0.058
-741.112	37.302	0.228	-0.203
-740.098	-200.000	0.006	0.287
-739.083	-175.572	0.274	-0.007
-738.069	-53.490	-0.294	-0.135
-737.054	-200.000	0.032	-0.187
-736.039	289.587	-0.100	-0.184
-735.025	800.000	0.192	0.597
-734.010	-49.678	-0.149	0.071
-732.996	-130.120	-0.094	0.013
-731.981	39.837	-0.149	0.134
-730.966	-200.000	-0.001	0.011
-729.952	32.548	-0.262	0.228
-728.937	217.630	-0.112	0.180
-727.923	-113.158	-0.137	-0.027
-726.908	-82.508	-0.242	-0.079
-725.894	-65.055	-0.127	-0.051
-724.879	-88.214	-0.359	-0.108
-723.864	-99.612	-0.125	0.031
-722.850	7.287	0.321	-0.241
-721.835	103.824	-0.281	-0.332
-720.821	186.535	-0.110	-0.165
-719.806	8.095	-0.088	-0.066
-718.791	68.114	-0.090	-0.093
-717.777	-200.000	-0.024	-0.470
-716.762	-4.897	0.072	0.050
-715.748	-72.781	0.182	-0.068
-714.733	-73.142	-0.113	-0.042
-713.718	800.000	0.054	-0.192
-712.704	-126.246	-0.254	0.038
-711.689	3.709	0.110	-0.081
-710.675	-126.597	0.109	-0.016
-709.660	-200.000	0.008	-0.155
-708.645	59.774	0.152	-0.150
-707.631	800.000	0.045	0.148
-706.616	-131.252	-0.516	0.069
-705.602	-13.223	0.162	-0.106
-704.587	-16.202	-0.162	-0.103
-703.572	-122.220	0.097	-0.016
-702.558	-200.000	0.030	-0.302
-701.543	-65.206	0.252	-0.102
-700.529	-6.051	0.119	-0.082
-699.514	-200.000	-0.040	0.210
-698.499	176.587	-0.096	-0.140
-697.485	-200.000	-0.013	-0.101
-696.470	800.000	0.022	-0.074
-695.456	97.789	0.132	-0.153
-694.441	68.349	-0.184	0.189
-693.426	-150.654	0.479	-0.037
-692.412	356.785	-0.132	0.264
-691.397	173.661	-0.113	-0.164
-690.383	-200.000	0.004	-0.154
-689.368	800.000	-0.061	0.252
-688.354	-154.089	-0.192	-0.013
-687.339	-1.274	0.280	0.199
-686.324	-68.618	-0.285	-0.111
-685.310	-200.000	0.055	0.451
-684.295	-3.079	0.163	0.115
-683.281	0.045	-0.146	-0.104
-682.266	-200.000	-0.021	-0.257
-681.251	176.980	-0.089	0.130
-680.237	448.869	-0.093	0.206
-679.222	-86.382	-0.364	-0.113
-678.208	-49.232	-0.412	-0.198
-677.193	155.117	-0.093	-0.128
-676.178	80.876	-0.254	-0.275
-675.164	50.811	-0.065	0.062
-674.149	-8.653	0.098	0.066
-673.135	-73.103	0.217	-0.080
-672.120	72.588	0.024	0.025
-671.105	-200.000	-0.011	-0.050
-670.091	386.110	-0.134	-0.278
-669.076	-200.000	0.013	-0.233
-668.062	27.837	-0.221	0.187
-667.047	-139.921	-0.379	0.040
-666.032	-151.892	0.209	0.015
-665.018	106.946	-0.196	-0.234
-664.003	14.420	0.190	-0.149
-662.989	360.113	-0.077	0.155
-661.974	-200.000	-0.006	-0.545
-660.959	-200.000	-0.009	0.139
-659.945	-84.785	0.158	-0.050
-658.930	47.926	-0.135	-0.127
-657.916	-200.000	-0.002	-0.221
-656.901	100.815	0.244	-0.285
-655.886	-200.000	0.020	0.141
-654.872	-32.832	-0.227	0.126
-653.857	-153.275	-0.462	-0.032
-652.843	-81.773	-0.058	0.019
-651.828	78.834	0.148	0.159
-650.814	178.156	0.191	-0.280
-649.799	50.260	0.075	0.071
-648.784	-147.543	0.131	-0.011
-647.770	-44.802	-0.133	0.067
-646.755	-170.502	0.377	-0.013
-645.741	-31.854	0.157	0.088
-644.726	439.886	0.027	-0.059
-643.711	35.237	0.194	0.170
-642.697	-138.668	-0.389	0.043
-641.682	18.388	0.030	0.024
-640.668	-76.800	-0.127	-0.045
-639.653	-200.000	0.005	0.271
-638.638	-132.248	-0.076	-0.010
-637.624	-104.250	-0.240	0.056
-636.609	537.410	-0.067	-0.160
-635.595	83.362	0.081	0.089
-634.580	-99.325	-0.268	-0.068
-633.565	-134.141	-0.240	0.030
-632.551	-200.000	-0.038	-0.290
-631.536	580.380	0.048	-0.119
-630.522	-200.000	0.031	-0.287
-629.507	198.242	-0.048	0.073
-628.492	-12.373	-0.072	0.047
-627.478	-132.338	0.342	0.044
-626.463	-139.882	-0.109	-0.012
-625.449	-108.914	-0.174	0.037
-624.434	-133.614	0.458	0.057
-623.419	10.800	-0.201	0.154
-622.405	194.478	0.124	-0.188
-621.390	17.759	0.198	0.158
-620.376	73.694	-0.149	0.156
-619.361	800.000	0.035	-0.151
-618.346	-117.445	-0.196	0.035
-617.332	341.077	-0.056	-0.110
-616.317	-94.830	-0.169	0.046
-615.303	-143.060	-0.175	-0.017
-614.288	-99.086	-0.231	-0.059
-613.273	-90.023	0.177	-0.052
-612.259	240.730	-0.053	0.089
-611.244	4.621	0.351	-0.258
-610.230	105.552	-0.205	0.243
-609.215	-160.639	-0.349	-0.019
-608.201	-159.681	-0.329	-0.018
-607.186	-96.743	-0.043	-0.011
-606.171	-135.545	-0.301	-0.036
-605.157	205.539	0.163	-0.253
-604.142	800.000	-0.086	0.323
-603.128	116.645	-0.117	0.144
-602.113	-9.209	-0.005	-0.003
-601.098	718.357	-0.158	0.420
-600.084	452.093	0.118	-0.261
-599.069	137.375	-0.183	0.239
-598.055	-200.000	-0.041	-0.230
-597.040	-200.000	0.009	0.176
-596.025	800.000	0.040	-0.151
-595.011	-178.522	-0.189	-0.004
-593.996	-122.635	-0.026	-0.004
-592.982	132.597	0.085	-0.110
-591.967	187.422	0.173	-0.259
-590.952	-113.520	-0.439	-0.086
-589.938	-88.528	0.143	-0.043
-588.923	-19.827	0.044	-0.028
-587.909	-200.000	0.044	0.288
-586.894	800.000	-0.089	-0.266
-585.879	-59.339	0.289	0.124
-584.865	233.119	0.118	0.194
-583.850	-78.418	-0.233	0.080
-582.836	270.679	-0.016	0.028
-581.821	148.030	0.065	0.087
-580.806	800.000	-0.006	-0.021
-579.792	-42.170	0.383	-0.196
-578.777	68.366	-0.176	-0.180
-577.763	-200.000	-0.006	0.067
-576.748	-28.041	-0.372	0.216
-575.733	800.000	0.078	-0.290
-574.719	-200.000	-0.058	0.402
-573.704	329.133	-0.072	0.138
-572.690	800.000	0.082	-0.228
-571.675	-37.119	0.373	0.200
-570.661	246.834	-0.103	0.174
-569.646	394.110	0.118	0.245
-568.631	-105.911	-0.284	-0.064
-567.617	800.000	0.072	-0.227
-566.602	110.474	0.085	-0.102
-565.588	98.009	-0.050	0.057
-564.573	529.398	0.028	0.066
-563.558	800.000	0.030	-0.085
-562.544	-24.138	-0.011	0.006
-561.529	57.536	0.082	-0.080
-560.515	-41.574	0.075	0.038
-559.500	-147.721	-0.393	0.033
-558.485	-83.265	-0.234	-0.075
-557.471	-185.898	0.278	-0.004
-556.456	263.114	0.047	-0.081
-555.442	800.000	-0.061	-0.195
-554.427	132.400	0.112	-0.144
-553.412	800.000	0.122	0.347
-552.398	800.000	0.004	0.011
-551.383	-65.986	-0.054	0.022
-550.369	6.899	0.127	0.095
-549.354	-125.569	-0.278	-0.042
-548.339	337.789	0.128	-0.248
-547.325	-145.908	0.092	-0.008
-546.310	-42.561	-0.144	-0.073
-545.296	107.989	-0.203	-0.242
-544.281	-29.479	0.068	-0.039
-543.266	-78.310	0.251	0.086
-542.252	-4.590	0.160	-0.110
-541.237	-200.000	-0.046	-0.210
-540.223	800.000	0.115	-0.422
-539.208	153.270	0.152	-0.208
-538.193	251.168	-0.101	0.172
-537.179	-14.034	-0.029	0.019
-536.164	-59.992	-0.341	-0.145
-535.150	-200.000	0.018	-0.179
-534.135	-74.875	0.355	-0.127
-533.121	-12.169	0.143	-0.094
-532.106	100.531	0.304	0.352
-531.091	26.176	0.240	-0.200
-530.077	-200.000	-0.048	-0.264
-529.062	94.602	-0.249	0.283
-528.048	-38.975	0.205	0.108
-527.033	-50.203	-0.230	-0.109
-526.018	202.118	-0.107	-0.165
-525.004	-152.285	-0.170	-0.012
-523.989	800.000	0.061	0.254
-522.975	78.019	-0.172	-0.183
-521.960	800.000	0.033	0.099
-520.945	-200.000	-0.006	-0.033
-519.931	43.788	-0.046	-0.042
-518.916	518.410	-0.118	0.275
-517.902	130.789	0.054	-0.069
-516.887	164.939	0.045	0.063
-515.872	-92.854	-0.111	-0.031
-514.858	30.143	0.159	0.136
-513.843	107.388	-0.128	-0.152
-512.829	-164.142	-0.193	0.009
-511.814	131.641	-0.154	0.198
-510.799	-43.117	-0.039	-0.020
-509.785	-4.629	-0.045	0.031
-508.770	-200.000	0.063	-0.521
-507.756	-200.000	0.037	0.311
-506.741	-14.099	-0.215	0.138
-505.726	-200.000	-0.009	-0.041
-504.712	-102.324	-0.056	0.013
-503.697	85.851	0.045	0.050
-502.683	-19.488	0.205	0.127
-501.668	-200.000	0.000	-0.006
-500.653	-22.242	-0.119	0.072
-499.639	-200.000	0.003	-0.102
-498.624	-58.898	-0.250	-0.108
-497.610	350.330	0.032	0.064
-496.595	90.095	0.127	0.142
-495.581	-200.000	0.047	-0.220
-494.566	-200.000	-0.035	-0.351
-493.551	7.057	0.049	0.037
-492.537	198.581	0.155	0.236
-491.522	800.000	0.081	0.316
-490.508	-35.176	-0.244	-0.133
-489.493	-200.000	-0.018	-0.133
-488.478	-131.164	0.131	0.017
-487.464	-200.000	0.006	-0.125
-486.449	-95.528	0.222	-0.059
-485.435	-111.347	0.221	0.045
-484.420	-6.184	-0.395	0.269
-483.405	167.569	-0.054	-0.077
-482.391	770.368	-0.058	0.156
-481.376	2.348	0.126	-0.091
-480.362	-156.002	0.225	-0.014
-479.347	-53.567	0.264	-0.120
-478.332	-200.000	0.000	-0.113
-477.318	-54.256	-0.152	-0.069
-476.303	-200.000	-0.014	0.066
-475.289	-66.024	0.098	0.039
-474.274	203.790	0.206	-0.318
-473.259	254.810	-0.072	-0.123
-472.245	800.000	0.065	0.207
-471.230	-152.952	-0.330	0.023
-470.216	71.025	0.058	0.060
-469.201	21.451	0.323	-0.262
-468.186	-5.667	0.111	-0.076
-467.172	-200.000	0.019	0.139
-466.157	-67.348	-0.374	-0.146
-465.143	122.509	0.144	-0.179
-464.128	-111.717	-0.432	0.087
-463.113	-18.056	0.281	0.175
-462.099	800.000	-0.095	0.363
-461.084	800.000	-0.076	0.210
-460.070	75.594	0.093	0.098
-459.055	140.675	-0.164	-0.216
-458.040	177.907	0.029	-0.042
-457.026	-12.710	0.157	-0.102
-456.011	-69.806	0.139	-0.053
-454.997	116.257	-0.199	-0.243
-453.982	75.204	-0.134	-0.141
-452.968	-200.000	0.020	0.119
-451.953	800.000	0.071	0.280
-450.938	293.433	-0.082	0.149
-449.924	-164.362	-0.313	0.014
-448.909	333.331	0.131	-0.252
-447.895	-200.000	-0.014	-0.102
-446.880	-200.000	0.022	0.170
-445.865	-41.038	0.125	-0.064
-444.851	458.339	-0.172	-0.380
-443.836	179.514	0.184	-0.268
-442.822	227.704	0.069	0.111
-441.807	-79.793	-0.113	0.038
-440.792	52.614	0.215	0.204
-439.778	-108.116	-0.374	-0.081
-438.763	-200.000	0.041	0.211
-437.749	12.739	-0.116	-0.089
-436.734	-200.000	-0.042	0.197
-435.719	800.000	-0.092	-0.315
-434.705	-65.361	-0.221	0.088
-433.690	-71.223	0.250	-0.093
-432.676	652.799	-0.029	0.074
-431.661	-200.000	0.015	-0.240
-430.646	-58.583	-0.190	0.082
-429.632	-104.343	0.191	-0.044
-428.617	-29.337	0.100	-0.057
-427.603	53.491	0.080	-0.076
-426.588	800.000	-0.051	-0.146
-425.573	-10.436	0.243	-0.160
-424.559	33.632	-0.171	-0.148
-423.544	317.765	-0.096	-0.181
-422.530	-51.953	0.144	-0.067
-421.515	-121.070	-0.065	-0.011
-420.500	800.000	0.066	-0.211
-419.486	-200.000	0.009	-0.305
-418.471	-120.795	-0.243	0.041
-417.457	119.394	-0.038	0.046
-416.442	-134.637	0.070	0.009
-415.428	-29.775	-0.215	0.122
-414.413	-200.000	-0.016	-0.106
-413.398	4.208	0.319	0.232
-412.384	-200.000	0.021	0.123
-411.369	-20.498	-0.067	0.041
-410.355	41.565	0.069	0.062
-409.340	-111.412	0.202	-0.041
-408.325	800.000	0.057	0.184
-407.311	-200.000	-0.036	0.168
-406.296	-75.267	0.296	-0.105
-405.282	286.112	0.220	0.395
-404.267	800.000	0.048	0.205
-403.252	-200.000	-0.325	-0.001
-402.238	590.358	0.049	-0.120
-401.223	-88.347	0.208	0.062
-400.209	53.793	0.167	-0.160
-399.194	-41.232	-0.135	0.069
-398.179	800.000	0.082	0.285
-397.165	-108.060	-0.149	0.032
-396.150	154.881	0.143	-0.196
-395.136	800.000	-0.113	-0.383
-394.121	13.736	-0.295	0.228
-393.106	-200.000	0.032	-0.537
-392.092	-123.802	-0.089	0.014
-391.077	-93.924	0.067	-0.018
-390.063	11.761	0.068	-0.052
-389.048	-147.891	-0.244	0.020
-388.033	-132.616	0.339	0.043
-387.019	50.677	-0.167	0.157
-386.004	3.814	-0.156	-0.114
-384.990	-200.000	-0.015	-0.104
-383.975	-75.174	0.032	0.011
-382.960	100.982	0.194	-0.225
-381.946	-30.209	-0.153	0.086
-380.931	-63.309	-0.272	0.111
-379.917	32.008	0.051	0.043
-378.902	295.421	0.110	0.201
-377.888	-105.593	0.394	0.089
-376.873	-200.000	-0.028	0.239
-375.858	186.021	-0.090	-0.132
-374.844	800.000	0.074	0.306
-373.829	-37.430	0.043	0.023
-372.815	325.462	-0.056	0.106
-371.800	-91.189	0.147	-0.042
-370.785	-87.068	0.476	-0.144
-369.771	-25.320	-0.303	0.178
-368.756	332.734	0.030	-0.058
-367.742	800.000	-0.045	-0.181
-366.727	263.204	0.252	0.435
-365.712	98.723	-0.140	-0.161
-364.698	500.294	0.076	0.173
-363.683	-152.189	-0.032	-0.002
-362.669	-70.056	0.186	-0.070
-361.654	800.000	0.029	-0.097
-360.639	220.664	-0.146	0.232
-359.625	-200.000	-0.016	-0.290
-358.610	-44.572	0.202	0.100
-357.596	-56.230	-0.574	-0.253
-356.581	-32.302	0.212	0.117
-355.566	191.805	-0.221	0.331
-354.552	-200.000	-0.002	0.222
-353.537	-200.000	0.099	0.442
-352.523	318.634	-0.074	-0.139
-351.508	320.210	0.142	-0.268
-350.493	800.000	0.014	-0.056
-349.479	43.837	0.081	-0.074
-348.464	-74.085	-0.114	0.041
-347.450	-54.957	-0.313	-0.140
-346.435	228.449	0.050	0.081
-345.420	-200.000	-0.037	-0.169
-344.406	705.420	-0.014	0.037
-343.391	39.740	0.182	0.162
-342.377	418.727	0.088	0.186
-341.362	53.596	-0.158	0.150
-340.348	-200.000	-0.058	0.260
-339.333	196.023	-0.194	0.293
-338.318	-200.000	-0.079	0.493
-337.304	800.000	0.072	0.282
-336.289	800.000	0.033	-0.136
-335.275	-126.092	-0.204	0.030
-334.260	-44.761	0.083	0.041
-333.245	-44.996	-0.205	0.101
-332.231	800.000	-0.069	-0.211
-331.216	-3.611	-0.222	0.153
-330.202	-184.067	0.187	-0.003
-329.187	-27.839	0.050	-0.029
-328.172	-200.000	-0.035	-0.355
-327.158	-111.097	0.130	0.026
-326.143	-156.955	0.181	0.011
-325.129	42.353	-0.294	-0.265
-324.114	89.031	-0.127	-0.140
-323.099	112.808	0.200	-0.241
-322.085	83.925	0.096	0.104
-321.070	71.397	0.040	-0.041
-320.056	29.718	0.120	0.102
-319.041	-200.000	0.005	0.274
-318.026	-200.000	-0.011	0.072
-317.012	15.155	-0.102	-0.079
-315.997	-69.993	-0.094	-0.036
-314.983	77.019	0.281	-0.295
-313.968	-200.000	0.031	0.201
-312.953	63.522	0.324	0.322
-311.939	-142.721	0.119	-0.012
-310.924	307.866	0.119	-0.221
-309.910	360.201	0.122	0.241
-308.895	-79.667	-0.131	0.044
-307.880	119.941	-0.288	0.354
-306.866	-138.297	0.131	0.014
-305.851	-200.000	0.023	0.160
-304.837	4.732	-0.288	0.210
-303.822	407.591	0.086	-0.181
-302.807	-200.000	0.011	-0.155
-301.793	-15.064	-0.408	0.259
-300.778	-121.660	0.105	0.017
-299.764	-200.000	0.006	0.210
-298.749	245.216	-0.087	-0.145
-297.735	132.553	0.070	0.089
-296.720	31.459	0.105	-0.089
-295.705	-197.475	-0.213	-0.001
-294.691	111.758	0.053	-0.063
-293.676	800.000	-0.051	0.194
-292.662	-200.000	0.049	0.226
-291.647	-200.000	-0.034	0.215
-290.632	-36.637	0.121	0.064
-289.618	-67.182	0.091	-0.036
-288.603	800.000	-0.145	-0.471
-287.589	43.010	0.217	-0.195
-286.574	-80.206	-0.083	0.028
-285.559	-139.363	0.165	-0.017
-284.545	436.701	0.119	-0.256
-283.530	-146.736	0.300	-0.026
-282.516	-53.820	-0.177	-0.080
-281.501	-76.126	0.062	0.022
-280.486	-200.000	0.002	0.158
-279.472	34.085	-0.081	-0.070
-278.457	-41.474	0.135	0.069
-277.443	80.069	0.074	0.079
-276.428	459.786	-0.054	0.120
-275.413	-38.767	0.168	0.088
-274.399	800.000	0.034	-0.102
-273.384	-200.000	-0.035	-0.166
-272.370	-170.911	0.011	0.000
-271.355	-102.685	-0.207	-0.049
-270.340	321.263	-0.081	0.153
-269.326	7.466	-0.308	0.228
-268.311	135.258	0.153	0.197
-267.297	-200.000	-0.015	-0.098
-266.282	491.162	0.090	-0.203
-265.267	-39.078	0.414	-0.215
-264.253	218.987	-0.084	-0.133
-263.238	567.096	-0.136	-0.327
-262.224	52.601	0.160	-0.151
-261.209	397.502	-0.200	-0.413
-260.195	800.000	-0.016	-0.046
-259.180	-127.082	-0.237	-0.034
-258.165	70.188	-0.060	0.061
-257.151	-80.795	-0.503	-0.165
-256.136	685.131	0.127	-0.328
-255.122	-60.771	-0.302	0.126
-254.107	744.578	-0.064	-0.171
-253.092	-59.204	0.153	-0.065
-252.078	-92.147	-0.089	0.025
-251.063	639.424	-0.041	0.102
-250.049	-112.644	0.288	-0.057
-249.034	-57.285	-0.168	0.073
-248.019	-200.000	0.088	-0.447
-247.005	-116.766	0.070	0.013
-245.990	29.577	0.134	-0.113
-244.976	240.253	0.109	-0.179
-243.961	110.577	0.285	0.339
-242.946	135.165	0.147	-0.188
-241.932	-0.476	-0.102	0.071
-240.917	800.000	-0.050	-0.212
-239.903	-99.951	0.051	0.013
-238.888	43.121	-0.247	0.222
-237.873	-118.533	0.193	-0.034
-236.859	-126.216	-0.396	-0.059
-235.844	-103.736	0.154	0.036
-234.830	39.410	-0.162	0.143
-233.815	800.000	-0.063	-0.238
-232.800	171.511	-0.083	-0.117
-231.786	-49.359	0.133	0.063
-230.771	310.117	-0.125	-0.231
-229.757	-38.857	0.323	0.168
-228.742	-200.000	-0.031	-0.166
-227.727	99.939	0.087	0.100
-226.713	390.772	-0.048	-0.098
-225.698	-62.235	-0.173	0.071
-224.684	-23.332	-0.168	-0.099
-223.669	507.915	-0.063	0.144
-222.655	-200.000	0.052	0.751
-221.640	-200.000	0.020	0.154
-220.625	-200.000	-0.021	-0.148
-219.611	-108.547	0.216	-0.046
-218.596	-15.989	0.173	0.109
-217.582	158.643	-0.453	0.621
-216.567	488.570	0.098	-0.220
-215.552	43.602	0.060	0.054
-214.538	84.675	-0.230	0.249
-213.523	398.245	0.039	0.080
-212.509	-127.817	0.375	-0.053
-211.494	-200.000	0.028	-0.344
-210.479	-72.204	0.286	0.105
-209.465	-200.000	0.046	-0.253
-208.450	-59.276	0.241	-0.102
-207.436	-200.000	-0.014	-0.166
-206.421	177.057	0.077	-0.111
-205.406	77.118	-0.159	0.166
-204.392	-146.949	0.702	-0.059
-203.377	73.039	-0.254	0.262
-202.363	-56.866	0.166	-0.072
-201.348	-114.807	-0.055	-0.010
-200.333	-42.159	0.218	-0.110
-199.319	-133.673	-0.280	0.034
-198.304	-105.410	0.305	-0.068
-197.290	-200.000	-0.045	-0.317
-196.275	-79.992	-0.127	-0.042
-195.260	45.934	-0.217	-0.198
-194.246	-200.000	-0.026	-0.261
-193.231	-200.000	-0.017	0.105
-192.217	50.132	-0.283	0.264
-191.202	-10.060	0.090	-0.059
-190.187	-200.000	0.030	0.220
-189.173	130.191	0.127	0.161
-188.158	220.600	-0.098	-0.155
-187.144	-161.327	0.144	-0.007
-186.129	-116.396	-0.185	-0.034
-185.114	442.948	-0.052	0.113
-184.100	181.436	-0.168	0.243
-183.085	309.333	-0.112	-0.205
-182.071	-96.560	0.235	-0.061
-181.056	-35.923	0.269	-0.144
-180.042	800.000	-0.090	0.263
-179.027	800.000	0.105	0.339
-178.012	289.474	-0.077	0.137
-176.998	-119.555	0.295	0.050
-175.983	-165.814	0.469	0.020
-174.969	-143.043	-0.121	0.011
-173.954	-200.000	0.027	0.144
-172.939	44.132	-0.171	0.155
-171.925	35.928	0.071	0.062
-170.910	87.108	-0.057	-0.063
-169.896	-119.278	0.315	0.054
-168.881	-36.005	-0.311	0.165
-167.866	261.385	0.167	-0.284
-166.852	24.805	-0.207	-0.169
-165.837	-22.186	0.124	-0.074
-164.823	-163.443	0.423	-0.020
-163.808	-200.000	0.012	0.081
-162.793	31.054	0.228	-0.192
-161.779	140.222	0.212	-0.276
-160.764	55.295	0.051	-0.048
-159.750	-10.604	-0.216	0.141
-158.735	-37.805	-0.146	0.077
-157.720	-33.997	-0.108	0.059
-156.706	364.134	0.126	0.249
-155.691	-200.000	-0.017	0.275
-154.677	-52.405	-0.207	0.094
-153.662	-200.000	0.001	0.022
-152.647	95.504	-0.043	-0.048
-151.633	-29.486	-0.137	-0.077
-150.618	800.000	-0.071	-0.283
-149.604	150.765	-0.165	0.221
-148.589	-133.602	-0.054	-0.007
-147.574	-35.576	-0.130	0.070
-146.560	322.115	0.073	0.136
-145.545	-200.000	-0.009	0.123
-144.531	66.973	0.109	-0.109
-143.516	-155.444	0.195	-0.012
-142.502	-30.056	0.179	-0.100
-141.487	223.973	-0.092	0.146
-140.472	-29.236	-0.295	-0.166
-139.458	144.559	-0.089	0.117
-138.443	215.483	-0.156	0.243
-137.429	22.171	0.152	-0.122
-136.414	763.655	-0.165	-0.440
-135.399	800.000	-0.040	-0.130
-134.385	172.157	-0.127	-0.179
-133.370	800.000	-0.041	0.114
-132.356	-159.756	0.182	0.010
-131.341	191.280	-0.039	0.058
-130.326	-125.838	0.393	0.058
-129.312	-178.659	0.216	-0.005
-128.297	17.016	0.055	-0.043
-127.283	-58.032	-0.378	0.162
-126.268	-4.861	0.211	0.143
-125.253	245.593	-0.079	0.131
-124.239	-16.881	-0.117	-0.072
-123.224	192.352	0.182	-0.270
-122.210	-0.402	-0.306	-0.213
-121.195	-68.257	-0.172	0.066
