DTS Sentinel unit serial number:	SN413079Multiplexer serial number:	ORYXHardware model number:	OX4-SRSoftware version number:	ORYX F/W v4.00 Oryx Data Collector v3.7.2.0data status	okinstallation	princeton_trtdifferential loss correction	single-endedforward channel	channel 2reverse channel	N/Adate	2019/09/12time	09:57:10forward acquisition time	60.00reverse acquisition time	0.00gamma	496.2192k internal	0.2314k external	0.2314temperature offset calibration	1.0065default loss term (dB/km)	0.3790temperature slope calibration	1.0000multiplexer offset coefficient	1.0000multiplexer slope coefficient	1.0000fibre end	0.00T internal ref (°C)	36.14T ext. ref 1 (°C)	1.86T ext. ref 2 (°C)	32.64length (m)	temperature (°C)	Stokes	anti-Stokes-747.200	-164.471	-0.209	-0.010
-746.185	18.834	0.195	0.158
-745.171	119.596	0.267	-0.336
-744.156	-57.617	-0.361	-0.161
-743.142	-64.112	-0.058	0.024
-742.127	-91.984	-0.380	0.109
-741.112	-11.878	0.361	-0.240
-740.098	-156.773	-0.548	-0.034
-739.083	800.000	-0.036	-0.109
-738.069	-200.000	0.029	0.158
-737.054	103.730	0.196	0.233
-736.039	-2.786	-0.302	0.214
-735.025	226.176	-0.103	0.170
-734.010	-57.815	-0.198	-0.088
-732.996	21.643	-0.464	-0.383
-731.981	-200.000	0.017	-0.138
-730.966	-52.357	0.393	-0.185
-729.952	-9.578	-0.354	-0.239
-728.937	-69.247	0.080	0.031
-727.923	244.311	-0.074	-0.125
-726.908	-200.000	0.010	-0.062
-725.894	-114.070	-0.516	-0.101
-724.879	0.803	-0.137	0.099
-723.864	-200.000	0.018	-0.210
-722.850	-85.319	-0.259	-0.082
-721.835	18.590	-0.313	-0.254
-720.821	256.267	-0.031	0.054
-719.806	392.054	-0.085	-0.178
-718.791	800.000	-0.092	-0.257
-717.777	-200.000	0.023	0.205
-716.762	180.516	-0.158	0.235
-715.748	12.861	-0.284	0.223
-714.733	-14.687	-0.134	-0.087
-713.718	165.194	0.018	0.026
-712.704	800.000	0.029	-0.114
-711.689	14.307	0.125	0.099
-710.675	-200.000	0.004	0.192
-709.660	291.667	0.156	-0.287
-708.645	-42.075	0.137	-0.071
-707.631	-12.370	0.167	-0.110
-706.616	-145.468	0.290	-0.026
-705.602	-69.320	-0.183	0.071
-704.587	59.643	0.236	0.235
-703.572	96.921	-0.070	0.081
-702.558	-60.510	-0.356	0.153
-701.543	24.856	0.117	0.098
-700.529	-81.372	0.117	-0.039
-699.514	-90.456	-0.099	-0.029
-698.499	-87.319	-0.375	-0.115
-697.485	-200.000	-0.016	-0.129
-696.470	659.805	-0.025	-0.064
-695.456	381.912	0.207	-0.430
-694.441	-53.279	0.111	0.051
-693.426	206.733	0.014	-0.022
-692.412	-200.000	-0.028	-0.177
-691.397	-142.908	-0.125	0.012
-690.383	800.000	0.053	-0.196
-689.368	97.476	0.117	-0.136
-688.354	-114.626	0.331	-0.064
-687.339	-52.310	-0.143	0.067
-686.324	93.739	-0.079	0.091
-685.310	69.039	0.138	0.143
-684.295	800.000	-0.074	-0.244
-683.281	38.522	0.052	-0.047
-682.266	226.591	0.207	0.340
-681.251	-126.922	-0.240	0.036
-680.237	-3.134	-0.232	-0.164
-679.222	127.043	-0.088	0.113
-678.208	800.000	-0.121	-0.405
-677.193	366.527	-0.100	0.203
-676.178	800.000	-0.067	-0.269
-675.164	-110.176	-0.256	0.054
-674.149	36.743	0.121	0.109
-673.135	800.000	-0.037	-0.145
-672.120	-84.038	-0.224	-0.072
-671.105	-2.546	-0.223	0.158
-670.091	272.656	0.072	-0.129
-669.076	-78.343	-0.188	0.065
-668.062	-152.250	0.146	0.011
-667.047	21.283	0.066	0.054
-666.032	-64.160	-0.121	0.050
-665.018	-8.232	-0.451	-0.307
-664.003	-200.000	-0.034	0.152
-662.989	231.297	0.118	-0.195
-661.974	-40.434	-0.178	0.093
-660.959	48.211	-0.164	-0.155
-659.945	22.590	0.160	-0.132
-658.930	215.420	0.074	0.118
-657.916	-142.280	-0.300	0.030
-656.901	-83.402	0.188	-0.061
-655.886	-200.000	0.021	-0.185
-654.872	800.000	0.034	0.115
-653.857	-108.968	-0.485	-0.105
-652.843	246.350	0.119	-0.202
-651.828	47.574	-0.169	0.159
-650.814	261.909	0.208	0.364
-649.799	34.915	0.189	-0.167
-648.784	-200.000	-0.016	-0.079
-647.770	-133.793	-0.337	0.042
-646.755	-77.356	-0.156	-0.055
-645.741	-200.000	0.040	-0.287
-644.726	-184.552	0.253	0.004
-643.711	-37.461	0.201	0.108
-642.697	267.508	-0.176	-0.311
-641.682	-155.144	-0.290	-0.019
-640.668	800.000	0.060	0.177
-639.653	2.041	-0.241	0.175
-638.638	162.681	-0.221	-0.313
-637.624	-50.790	0.368	-0.175
-636.609	-200.000	0.018	-0.093
-635.595	155.349	-0.030	-0.042
-634.580	-200.000	-0.028	-0.326
-633.565	85.240	0.045	-0.050
-632.551	800.000	0.084	0.333
-631.536	-44.177	0.283	0.143
-630.522	-71.019	-0.096	-0.037
-629.507	258.387	0.033	-0.057
-628.492	-86.233	0.183	-0.057
-627.478	99.845	0.111	-0.130
-626.463	-200.000	0.050	-0.425
-625.449	-200.000	0.008	-0.142
-624.434	6.552	0.165	0.123
-623.419	1.921	-0.064	-0.047
-622.405	-63.544	0.340	0.141
-621.390	74.848	0.286	-0.304
-620.376	79.123	-0.300	0.324
-619.361	-88.819	-0.182	-0.055
-618.346	-200.000	0.038	0.296
-617.332	219.302	0.087	-0.141
-616.317	-146.691	-0.223	-0.019
-615.303	185.394	-0.048	0.072
-614.288	-22.189	0.190	0.116
-613.273	-173.026	0.139	-0.004
-612.259	-99.367	-0.228	0.058
-611.244	7.687	0.121	0.092
-610.230	655.680	0.076	0.198
-609.215	150.698	0.037	-0.050
-608.201	-73.891	-0.190	-0.070
-607.186	157.552	0.059	0.083
-606.171	800.000	-0.053	0.204
-605.157	622.662	0.098	-0.248
-604.142	-4.641	-0.185	0.129
-603.128	-23.574	-0.029	0.017
-602.113	-185.514	-0.368	-0.006
-601.098	-23.388	-0.186	-0.113
-600.084	608.787	-0.136	-0.342
-599.069	-200.000	0.028	-0.125
-598.055	-80.579	0.197	0.066
-597.040	-99.259	-0.100	-0.025
-596.025	-200.000	-0.005	0.244
-595.011	800.000	-0.054	0.172
-593.996	800.000	-0.056	0.239
-592.982	20.305	0.237	0.193
-591.967	-26.737	0.055	-0.032
-590.952	292.356	-0.074	0.136
-589.938	-158.984	-0.215	-0.012
-588.923	417.839	0.255	-0.548
-587.909	-120.262	-0.149	-0.026
-586.894	-135.694	-0.221	0.026
-585.879	230.704	-0.089	-0.146
-584.865	19.205	0.120	0.097
-583.850	-159.294	0.376	-0.021
-582.836	-41.806	-0.380	-0.196
-581.821	18.854	0.249	-0.201
-580.806	-200.000	0.026	0.215
-579.792	800.000	-0.053	-0.224
-578.777	68.149	-0.245	-0.253
-577.763	-40.232	0.173	0.091
-576.748	-170.975	-0.193	0.007
-575.733	292.507	-0.075	0.138
-574.719	-162.704	0.032	0.002
-573.704	-67.933	0.427	-0.168
-572.690	-28.452	-0.175	0.102
-571.675	483.653	-0.098	-0.224
-570.661	-51.954	0.116	0.054
-569.646	-152.638	-0.165	-0.012
-568.631	187.740	0.062	-0.093
-567.617	181.558	-0.265	0.392
-566.602	800.000	0.069	0.236
-565.588	619.134	-0.088	-0.222
-564.573	340.591	-0.181	0.355
-563.558	716.573	0.039	-0.105
-562.544	561.806	-0.091	0.222
-561.529	-106.645	0.197	0.044
-560.515	535.137	-0.080	0.191
-559.500	800.000	0.105	0.456
-558.485	800.000	0.052	0.192
-557.471	295.147	-0.143	0.263
-556.456	-200.000	-0.023	0.197
-555.442	131.693	-0.204	0.264
-554.427	-143.273	0.313	0.030
-553.412	-113.003	0.072	0.014
-552.398	-130.622	-0.027	0.004
-551.383	-120.788	-0.142	-0.024
-550.369	113.677	0.217	-0.265
-549.354	-61.262	0.255	0.108
-548.339	-200.000	0.062	0.311
-547.325	78.995	0.294	-0.317
-546.310	144.252	-0.041	0.055
-545.296	-163.745	-0.232	0.011
-544.281	-154.391	-0.228	0.015
-543.266	-69.336	-0.152	0.059
-542.252	-74.093	0.105	0.038
-541.237	699.001	-0.037	-0.098
-540.223	-125.619	0.187	-0.029
-539.208	-164.590	-0.231	-0.011
-538.193	-200.000	0.019	-0.176
-537.179	-120.873	-0.089	-0.015
-536.164	125.560	0.209	0.265
-535.150	800.000	-0.080	0.234
-534.135	84.295	0.294	-0.324
-533.121	705.439	0.066	-0.176
-532.106	24.518	-0.155	-0.129
-531.091	800.000	0.056	-0.168
-530.077	-200.000	-0.089	0.497
-529.062	-56.154	0.224	0.100
-528.048	-165.808	-0.153	0.007
-527.033	800.000	0.073	0.263
-526.018	-200.000	0.022	-0.220
-525.004	84.506	0.134	-0.147
-523.989	800.000	-0.088	-0.279
-522.975	620.700	0.069	-0.174
-521.960	-156.200	0.176	-0.011
-520.945	-17.554	-0.092	-0.058
-519.931	800.000	-0.045	0.131
-518.916	-200.000	-0.009	-0.085
-517.902	445.415	0.088	0.195
-516.887	33.223	0.201	0.175
-515.872	800.000	0.039	0.171
-514.858	-82.403	-0.278	-0.091
-513.843	-200.000	-0.123	0.597
-512.829	-146.584	0.394	0.034
-511.814	-46.769	-0.143	0.070
-510.799	318.571	0.101	-0.193
-509.785	-127.125	0.056	-0.008
-508.770	-106.067	0.271	-0.061
-507.756	-98.569	-0.327	0.084
-506.741	-96.282	-0.278	-0.074
-505.726	800.000	-0.077	0.291
-504.712	34.507	-0.356	-0.313
-503.697	-200.000	-0.027	-0.189
-502.683	-200.000	0.016	-0.239
-501.668	-96.406	0.031	0.008
-500.653	-200.000	0.015	-0.120
-499.639	-7.715	-0.287	-0.195
-498.624	76.018	0.257	-0.273
-497.610	163.173	0.066	0.093
-496.595	-200.000	-0.042	0.375
-495.581	-55.294	-0.247	0.111
-494.566	-200.000	0.048	-0.431
-493.551	525.582	-0.101	-0.238
-492.537	-200.000	-0.005	0.143
-491.522	-153.177	0.538	-0.038
-490.508	723.313	-0.014	-0.036
-489.493	-63.154	0.183	-0.076
-488.478	34.853	-0.187	-0.164
-487.464	-99.249	-0.204	-0.052
-486.449	-6.160	0.306	-0.210
-485.435	276.047	-0.136	0.242
-484.420	800.000	-0.055	-0.208
-483.405	41.140	-0.031	-0.028
-482.391	454.040	0.148	0.330
-481.376	-200.000	0.046	0.280
-480.362	153.964	0.146	0.200
-479.347	-200.000	-0.045	0.241
-478.332	-200.000	0.014	0.262
-477.318	800.000	-0.059	-0.236
-476.303	-72.372	-0.185	0.069
-475.289	-134.662	-0.246	-0.030
-474.274	15.295	-0.137	-0.108
-473.259	-63.889	0.369	0.152
-472.245	-200.000	-0.036	0.249
-471.230	-121.077	-0.384	-0.065
-470.216	8.586	-0.229	-0.173
-469.201	-200.000	0.003	0.191
-468.186	-200.000	-0.022	0.260
-467.172	480.829	0.035	0.079
-466.157	-9.246	-0.089	0.060
-465.143	-6.883	-0.054	-0.037
-464.128	32.635	0.169	-0.146
-463.113	-118.204	0.342	0.061
-462.099	-149.672	-0.447	-0.035
-461.084	-200.000	-0.043	-0.322
-460.070	-122.148	0.193	0.032
-459.055	351.250	-0.086	-0.170
-458.040	450.320	-0.144	0.319
-457.026	120.257	-0.244	0.304
-456.011	84.147	-0.099	-0.108
-454.997	91.990	-0.060	0.068
-453.982	-186.204	0.174	-0.003
-452.968	-117.402	-0.224	-0.041
-451.953	119.661	0.255	-0.317
-450.938	-200.000	-0.069	-0.306
-449.924	-43.817	-0.400	0.202
-448.909	-6.653	0.055	-0.037
-447.895	-124.822	0.310	0.048
-446.880	800.000	0.086	-0.257
-445.865	-200.000	-0.023	-0.158
-444.851	283.235	-0.065	-0.117
-443.836	477.069	-0.053	0.121
-442.822	51.198	0.036	-0.034
-441.807	-66.428	0.151	0.060
-440.792	-200.000	-0.000	0.054
-439.778	217.911	-0.083	-0.132
-438.763	800.000	0.103	0.320
-437.749	124.750	-0.090	-0.113
-436.734	-99.113	0.186	0.047
-435.719	139.949	-0.049	0.064
-434.705	-200.000	-0.111	-0.531
-433.690	-127.080	0.160	-0.023
-432.676	-163.308	-0.297	0.014
-431.661	-137.744	-0.312	-0.035
-430.646	168.520	0.161	-0.230
-429.632	-200.000	-0.047	-0.364
-428.617	-87.110	0.420	0.128
-427.603	-82.199	0.158	0.051
-426.588	-189.376	-0.268	-0.003
-425.573	183.246	-0.096	0.142
-424.559	-99.271	0.252	0.064
-423.544	-114.827	-0.263	-0.050
-422.530	-131.359	0.247	0.033
-421.515	-48.969	0.276	0.132
-420.500	-200.000	-0.045	0.198
-419.486	69.214	-0.158	0.162
-418.471	-148.599	0.184	-0.015
-417.457	65.988	-0.033	-0.034
-416.442	-53.096	0.101	0.047
-415.428	-102.337	-0.104	0.025
-414.413	27.511	-0.338	-0.284
-413.398	-21.296	-0.183	0.112
-412.384	543.627	-0.074	-0.176
-411.369	-200.000	0.025	0.164
-410.355	-200.000	-0.046	0.210
-409.340	-200.000	-0.002	0.443
-408.325	60.579	0.191	0.189
-407.311	-41.987	-0.159	-0.081
-406.296	-200.000	-0.038	-0.170
-405.282	-21.016	0.374	0.229
-404.267	-165.233	0.093	0.004
-403.252	-75.123	0.265	0.095
-402.238	7.324	0.191	-0.143
-401.223	800.000	0.062	0.207
-400.209	800.000	0.067	-0.236
-399.194	-89.688	0.206	0.060
-398.179	418.356	0.092	-0.197
-397.165	-200.000	0.007	0.051
-396.150	20.314	-0.303	-0.245
-395.136	-139.503	-0.309	0.033
-394.121	-68.768	-0.230	0.089
-393.106	38.914	-0.068	-0.060
-392.092	138.872	-0.105	0.138
-391.077	800.000	0.095	0.279
-390.063	8.040	0.079	0.059
-389.048	-61.668	-0.197	-0.083
-388.033	318.216	0.061	-0.116
-387.019	-78.623	-0.145	-0.050
-386.004	80.316	0.110	0.119
-384.990	-55.084	-0.205	-0.092
-383.975	-200.000	-0.027	-0.200
-382.960	52.417	0.235	-0.224
-381.946	519.928	-0.069	-0.162
-380.931	-29.694	0.223	0.127
-379.917	800.000	-0.080	-0.233
-378.902	762.577	0.047	0.128
-377.888	800.000	0.073	0.248
-376.873	-28.024	0.310	-0.179
-375.858	-114.131	0.265	0.051
-374.844	800.000	0.048	-0.147
-373.829	-13.946	-0.123	-0.079
-372.815	-200.000	-0.032	0.271
-371.800	-47.516	0.136	0.066
-370.785	290.529	-0.080	0.145
-369.771	-171.088	-0.207	-0.007
-368.756	136.759	-0.034	0.045
-367.742	-64.746	-0.328	0.133
-366.727	25.772	-0.245	0.204
-365.712	-148.174	-0.207	-0.017
-364.698	184.939	0.055	-0.081
-363.683	-43.527	-0.122	0.062
-362.669	800.000	-0.074	-0.314
-361.654	12.722	-0.169	0.130
-360.639	43.647	-0.152	0.139
-359.625	-142.801	0.383	-0.037
-358.610	-200.000	0.092	-0.572
-357.596	-84.407	0.257	0.081
-356.581	-151.110	-0.415	-0.031
-355.566	-167.634	0.307	-0.012
-354.552	800.000	-0.047	0.138
-353.537	-188.827	-0.356	-0.004
-352.523	-90.067	-0.337	0.098
-351.508	-200.000	-0.014	-0.067
-350.493	800.000	0.070	0.203
-349.479	110.957	-0.064	0.077
-348.464	0.798	-0.226	-0.162
-347.450	-68.677	0.186	-0.072
-346.435	800.000	0.052	-0.159
-345.420	800.000	-0.100	0.284
-344.406	457.262	-0.094	0.209
-343.391	800.000	0.034	-0.098
-342.377	-59.452	0.141	-0.060
-341.362	-11.720	-0.229	0.150
-340.348	-43.353	0.210	-0.106
-339.333	69.982	-0.171	0.176
-338.318	282.362	-0.157	-0.280
-337.304	33.594	0.212	-0.184
-336.289	40.370	-0.212	-0.190
-335.275	91.500	0.067	0.075
-334.260	647.971	-0.096	0.245
-333.245	438.039	0.104	0.227
-332.231	-183.391	0.189	-0.003
-331.216	-123.908	0.207	-0.033
-330.202	-57.287	0.344	0.151
-329.187	-4.714	0.177	0.122
-328.172	800.000	0.029	-0.117
-327.158	-129.206	0.269	0.037
-326.143	40.359	-0.246	0.221
-325.129	292.649	0.111	-0.202
-324.114	-191.026	-0.385	0.004
-323.099	162.103	-0.127	-0.177
-322.085	287.178	-0.049	0.088
-321.070	800.000	-0.057	-0.182
-320.056	25.649	0.128	0.106
-319.041	218.244	-0.126	0.201
-318.026	-46.184	0.195	0.095
-317.012	14.315	-0.228	0.177
-315.997	800.000	0.031	-0.111
-314.983	-200.000	0.009	0.059
-313.968	62.162	0.272	0.271
-312.953	312.590	0.234	0.438
-311.939	-28.855	0.181	-0.104
-310.924	-24.615	0.140	-0.083
-309.910	-36.352	-0.129	-0.069
-308.895	-125.725	-0.419	-0.063
-307.880	800.000	-0.056	0.241
-306.866	96.568	0.220	0.250
-305.851	-200.000	0.017	0.113
-304.837	-200.000	0.006	0.085
-303.822	53.865	0.213	0.204
-302.807	800.000	0.055	-0.160
-301.793	-46.338	0.216	-0.106
-300.778	27.236	-0.146	0.122
-299.764	233.878	0.084	-0.137
-298.749	497.049	0.077	-0.175
-297.735	-43.908	-0.222	0.111
-296.720	800.000	-0.013	0.055
-295.705	243.448	0.038	-0.063
-294.691	800.000	-0.071	-0.268
-293.676	403.953	-0.142	-0.297
-292.662	-32.159	-0.221	-0.123
-291.647	-102.227	0.242	0.058
-290.632	800.000	-0.047	-0.132
-289.618	-147.179	0.105	-0.009
-288.603	-200.000	0.026	-0.314
-287.589	108.652	-0.150	0.179
-286.574	-102.861	0.138	-0.033
-285.559	-200.000	0.066	0.300
-284.545	-140.470	0.186	0.019
-283.530	743.082	-0.087	0.233
-282.516	-200.000	0.014	0.252
-281.501	-100.748	-0.149	0.037
-280.486	72.537	0.144	-0.149
-279.472	-200.000	0.029	-0.319
-278.457	-200.000	0.037	-0.246
-277.443	-185.642	-0.394	0.006
-276.428	-200.000	-0.002	0.110
-275.413	-114.985	0.096	-0.018
-274.399	750.845	-0.082	-0.219
-273.384	45.635	0.074	0.068
-272.370	-14.780	0.124	-0.080
-271.355	800.000	-0.102	0.392
-270.340	33.370	-0.162	0.140
-269.326	-66.868	-0.290	-0.114
-268.311	253.240	-0.217	0.369
-267.297	-80.372	0.248	-0.082
-266.282	-98.119	-0.102	0.026
-265.267	591.787	0.072	-0.176
-264.253	-132.050	-0.203	0.026
-263.238	-61.401	-0.413	-0.173
-262.224	800.000	0.086	-0.282
-261.209	115.061	-0.283	0.343
-260.195	-15.296	0.154	0.098
-259.180	800.000	0.030	0.114
-258.165	-200.000	0.009	0.146
-257.151	-137.423	0.179	0.020
-256.136	71.332	-0.299	-0.309
-255.122	-15.576	0.178	0.113
-254.107	673.657	-0.119	0.306
-253.092	-77.469	0.217	0.075
-252.078	219.423	0.110	-0.174
-251.063	-72.400	-0.030	0.011
-250.049	-66.280	-0.206	0.081
-249.034	165.560	0.192	-0.270
-248.019	800.000	0.125	-0.419
-247.005	18.326	-0.068	0.054
-245.990	-200.000	-0.083	-0.383
-244.976	172.714	-0.107	-0.153
-243.961	-2.773	-0.154	-0.107
-242.946	800.000	0.155	-0.435
-241.932	800.000	0.077	0.266
-240.917	-123.162	-0.332	-0.053
-239.903	34.809	-0.211	-0.183
-238.888	-77.182	-0.166	0.058
-237.873	228.234	0.252	-0.409
-236.859	-200.000	0.070	-0.390
-235.844	-100.879	0.079	0.019
-234.830	-200.000	-0.020	0.317
-233.815	-200.000	0.038	0.219
-232.800	-34.031	0.294	0.161
-231.786	125.060	-0.061	0.077
-230.771	-200.000	0.107	-0.599
-229.757	781.754	0.114	0.309
-228.742	-86.271	0.105	-0.032
-227.727	-20.589	-0.110	-0.067
-226.713	108.564	0.133	-0.157
-225.698	-29.864	0.496	0.281
-224.684	75.931	-0.289	-0.304
-223.669	-67.455	0.365	0.142
-222.655	720.248	0.093	0.246
-221.640	527.640	-0.078	0.182
-220.625	-200.000	0.030	-0.154
-219.611	-200.000	0.015	0.106
-218.596	-200.000	-0.011	-0.101
-217.582	-114.693	0.190	0.036
-216.567	-102.469	-0.343	0.081
-215.552	278.892	0.149	0.265
-214.538	-44.977	-0.064	0.032
-213.523	276.620	-0.147	0.259
-212.509	800.000	0.059	0.198
-211.494	-78.608	0.155	0.052
-210.479	-7.972	-0.031	-0.021
-209.465	800.000	-0.106	-0.398
-208.450	62.914	-0.086	0.086
-207.436	-55.654	-0.331	0.147
-206.421	-47.982	0.095	0.046
-205.406	162.709	-0.228	-0.318
-204.392	37.664	0.040	0.036
-203.377	-93.746	0.286	0.078
-202.363	-1.263	0.188	-0.132
-201.348	800.000	0.075	0.246
-200.333	800.000	0.079	0.255
-199.319	52.891	-0.223	-0.212
-198.304	-200.000	0.113	-0.674
-197.290	-75.084	-0.301	-0.107
-196.275	25.120	-0.231	0.190
-195.260	748.568	-0.064	0.172
-194.246	800.000	0.028	0.086
-193.231	-24.686	-0.169	-0.100
-192.217	-66.496	-0.235	0.093
-191.202	-95.856	-0.041	-0.011
-190.187	-126.030	0.453	-0.067
-189.173	4.010	0.191	0.138
-188.158	800.000	0.071	0.211
-187.144	-93.105	0.244	0.067
-186.129	800.000	-0.029	0.098
-185.114	259.474	-0.159	0.272
-184.100	8.689	0.183	0.137
-183.085	-130.633	0.268	-0.036
-182.071	282.011	-0.084	-0.150
-181.056	653.414	-0.046	-0.117
-180.042	-200.000	0.002	0.225
-179.027	-93.919	-0.196	0.053
-178.012	219.289	0.070	-0.111
-176.998	-200.000	-0.000	-0.320
-175.983	-21.636	0.033	-0.020
-174.969	125.730	0.102	-0.127
-173.954	800.000	-0.060	-0.217
-172.939	319.646	0.077	-0.146
-171.925	15.826	0.148	-0.115
-170.910	800.000	0.020	0.055
-169.896	-66.855	0.249	-0.098
-168.881	219.568	-0.170	-0.270
-167.866	-171.771	0.361	-0.012
-166.852	8.930	0.163	-0.122
-165.837	-200.000	-0.036	-0.257
-164.823	-200.000	-0.008	-0.045
-163.808	-200.000	0.073	0.427
-162.793	172.816	0.101	-0.144
-161.779	459.644	0.077	-0.169
-160.764	-200.000	0.038	0.333
-159.750	332.580	-0.102	0.195
-158.735	-200.000	0.002	-0.018
-157.720	-200.000	-0.016	0.085
-156.706	800.000	-0.048	0.147
-155.691	43.741	0.369	-0.335
-154.677	-200.000	0.023	-0.156
-153.662	249.560	0.041	-0.068
-152.647	-59.151	-0.188	0.080
-151.633	713.517	0.085	-0.223
-150.618	-13.111	0.030	-0.019
-149.604	-116.324	0.160	-0.029
-148.589	-12.050	-0.108	0.070
-147.574	-200.000	-0.020	0.310
-146.560	-160.307	0.235	0.013
-145.545	199.013	0.194	-0.295
-144.531	254.458	0.130	0.221
-143.516	431.396	-0.138	0.297
-142.502	-200.000	0.106	-0.480
-141.487	-19.455	0.139	-0.085
-140.472	786.065	-0.056	0.153
-139.458	259.464	0.147	0.252
-138.443	2.115	-0.264	0.189
-137.429	36.637	0.081	0.070
-136.414	173.911	0.037	0.053
-135.399	98.484	0.214	-0.244
-134.385	-94.882	-0.375	-0.101
-133.370	800.000	0.040	0.151
-132.356	64.054	0.301	-0.300
-131.341	85.596	-0.051	0.056
-130.326	-200.000	0.012	0.128
-129.312	-59.244	-0.185	0.079
-128.297	800.000	0.123	0.511
-127.283	360.312	-0.112	0.222
-126.268	-5.687	0.327	0.222
-125.253	-89.502	0.225	-0.066
-124.239	170.548	-0.109	0.155
-123.224	-40.260	0.114	-0.059
-122.210	338.363	-0.032	-0.062
-121.195	-200.000	-0.026	0.140
