DTS Sentinel unit serial number:	SN413079Multiplexer serial number:	ORYXHardware model number:	OX4-SRSoftware version number:	ORYX F/W v4.00 Oryx Data Collector v3.7.2.0data status	okinstallation	princeton_trtdifferential loss correction	single-endedforward channel	channel 2reverse channel	N/Adate	2019/09/14time	15:35:35forward acquisition time	60.00reverse acquisition time	0.00gamma	496.2192k internal	0.2304k external	0.2304temperature offset calibration	1.0142default loss term (dB/km)	0.3790temperature slope calibration	1.0000multiplexer offset coefficient	1.0000multiplexer slope coefficient	1.0000fibre end	0.00T internal ref (°C)	38.81T ext. ref 1 (°C)	5.16T ext. ref 2 (°C)	33.92length (m)	temperature (°C)	Stokes	anti-Stokes-747.200	-109.116	0.359	0.078
-746.185	78.001	0.043	-0.047
-745.171	-16.046	0.302	-0.195
-744.156	-102.178	-0.088	-0.022
-743.142	45.876	0.353	-0.332
-742.127	342.200	-0.193	0.384
-741.112	-8.234	-0.149	-0.102
-740.098	62.476	-0.102	-0.104
-739.083	444.993	-0.108	0.242
-738.069	800.000	0.071	-0.254
-737.054	-4.225	-0.152	0.107
-736.039	60.360	-0.176	-0.178
-735.025	253.569	0.183	-0.318
-734.010	-128.183	-0.367	-0.053
-732.996	479.987	0.139	-0.320
-731.981	485.370	-0.133	-0.308
-730.966	1.499	-0.231	0.169
-729.952	-200.000	0.019	-0.270
-728.937	-44.801	0.159	-0.081
-727.923	800.000	0.018	-0.072
-726.908	-128.524	-0.379	-0.055
-725.894	-80.272	-0.259	-0.088
-724.879	-118.069	0.222	0.040
-723.864	-127.147	0.168	-0.025
-722.850	125.765	-0.035	0.045
-721.835	116.865	0.115	-0.144
-720.821	-200.000	-0.006	-0.182
-719.806	-75.730	-0.192	0.069
-718.791	-16.603	0.179	0.115
-717.777	-130.952	0.195	0.026
-716.762	45.771	-0.127	-0.120
-715.748	800.000	0.054	-0.219
-714.733	-77.941	-0.335	0.118
-713.718	-3.059	0.342	-0.243
-712.704	-200.000	0.064	-0.364
-711.689	-200.000	0.071	-0.340
-710.675	163.633	-0.260	-0.372
-709.660	-45.297	0.246	0.124
-708.645	-200.000	-0.012	0.095
-707.631	-200.000	-0.046	-0.205
-706.616	800.000	0.101	-0.435
-705.602	349.939	0.028	-0.056
-704.587	48.313	0.078	-0.074
-703.572	16.078	0.122	-0.097
-702.558	-192.798	0.459	-0.004
-701.543	509.356	-0.094	0.222
-700.529	-200.000	0.026	-0.186
-699.514	-200.000	0.011	-0.474
-698.499	743.947	-0.156	-0.427
-697.485	639.799	-0.009	0.024
-696.470	-200.000	0.019	-0.159
-695.456	48.729	-0.276	-0.263
-694.441	41.218	-0.159	-0.146
-693.426	260.150	0.068	0.119
-692.412	800.000	0.060	-0.230
-691.397	-200.000	0.014	0.150
-690.383	25.792	0.296	-0.251
-689.368	-11.411	0.186	-0.124
-688.354	-58.689	-0.563	0.248
-687.339	-111.270	-0.325	-0.067
-686.324	-88.048	0.232	0.071
-685.310	61.645	0.107	-0.109
-684.295	5.569	-0.082	0.062
-683.281	-59.089	0.074	-0.032
-682.266	-104.294	-0.060	-0.014
-681.251	-200.000	0.030	0.145
-680.237	-200.000	0.026	0.196
-679.222	-200.000	-0.025	0.275
-678.208	472.557	0.144	0.329
-677.193	-47.345	-0.148	0.073
-676.178	75.275	-0.064	-0.069
-675.164	62.565	-0.220	0.223
-674.149	205.741	0.292	-0.461
-673.135	-45.097	0.161	0.081
-672.120	208.715	-0.098	-0.155
-671.105	10.109	-0.187	0.144
-670.091	250.117	0.033	0.057
-669.076	-33.137	0.359	-0.202
-668.062	-150.976	-0.202	0.015
-667.047	-138.751	-0.252	-0.028
-666.032	-200.000	0.028	-0.193
-665.018	-29.636	0.297	-0.172
-664.003	-200.000	-0.073	-0.342
-662.989	6.741	-0.259	0.196
-661.974	-54.783	-0.271	0.124
-660.959	48.839	0.257	0.245
-659.945	-16.757	0.247	-0.159
-658.930	119.976	-0.057	0.072
-657.916	-20.008	-0.066	-0.041
-656.901	-104.007	-0.320	0.076
-655.886	-135.268	-0.129	-0.016
-654.872	198.732	-0.096	0.149
-653.857	25.711	-0.146	-0.123
-652.843	-63.768	0.242	0.100
-651.828	12.161	-0.282	0.220
-650.814	56.311	-0.065	-0.064
-649.799	800.000	0.112	-0.472
-648.784	94.600	0.091	-0.105
-647.770	626.173	0.137	0.351
-646.755	-200.000	-0.041	-0.213
-645.741	800.000	0.012	-0.040
-644.726	111.450	0.236	-0.289
-643.711	59.551	0.273	0.273
-642.697	-200.000	-0.026	-0.168
-641.682	386.833	-0.163	0.342
-640.668	2.461	-0.090	0.066
-639.653	800.000	-0.059	-0.217
-638.638	-17.791	0.286	-0.182
-637.624	87.337	0.268	-0.300
-636.609	345.522	-0.032	0.064
-635.595	289.090	0.159	0.293
-634.580	356.267	-0.025	0.051
-633.565	54.326	-0.171	0.167
-632.551	230.634	0.070	0.115
-631.536	3.282	-0.429	0.316
-630.522	100.131	0.154	0.181
-629.507	-24.401	0.227	0.137
-628.492	-200.000	0.007	0.089
-627.478	-200.000	0.008	-0.104
-626.463	15.209	-0.113	0.090
-625.449	35.654	-0.152	0.136
-624.434	49.299	0.050	0.047
-623.419	-34.752	0.131	-0.072
-622.405	-105.007	-0.175	0.041
-621.390	268.665	-0.207	-0.367
-620.376	129.016	0.059	-0.076
-619.361	-200.000	0.028	0.266
-618.346	-63.591	-0.158	0.066
-617.332	550.861	0.166	-0.404
-616.317	-1.835	0.075	-0.054
-615.303	376.454	-0.083	-0.171
-614.288	-200.000	-0.038	-0.356
-613.273	-11.287	-0.275	0.184
-612.259	-104.355	-0.383	-0.090
-611.244	-200.000	-0.034	0.166
-610.230	208.285	0.028	-0.045
-609.215	297.261	-0.068	0.126
-608.201	-163.216	0.245	-0.012
-607.186	61.111	-0.171	0.172
-606.171	238.011	-0.103	0.172
-605.157	-36.364	0.371	-0.203
-604.142	-200.000	0.022	-0.120
-603.128	85.577	0.091	0.101
-602.113	-58.895	0.347	-0.152
-601.098	-27.451	0.129	0.076
-600.084	365.887	-0.114	0.232
-599.069	-115.430	0.248	-0.047
-598.055	403.787	0.055	0.118
-597.040	-200.000	-0.034	-0.161
-596.025	-200.000	0.052	-0.248
-595.011	21.845	-0.198	-0.163
-593.996	238.857	-0.097	0.163
-592.982	-102.826	0.322	0.077
-591.967	-90.787	0.198	0.058
-590.952	-114.392	-0.114	0.022
-589.938	-20.112	-0.096	-0.060
-588.923	150.457	0.108	-0.148
-587.909	63.287	-0.099	-0.101
-586.894	-200.000	0.006	0.307
-585.879	481.144	0.076	-0.174
-584.865	44.663	-0.123	0.114
-583.850	-200.000	0.035	-0.417
-582.836	345.375	0.140	-0.277
-581.821	-48.184	-0.220	0.108
-580.806	294.671	-0.250	0.462
-579.792	503.275	0.077	-0.181
-578.777	-200.000	0.007	-0.309
-577.763	-87.890	0.136	0.041
-576.748	111.634	-0.144	-0.176
-575.733	-151.616	0.194	0.014
-574.719	800.000	-0.088	0.269
-573.704	-71.645	-0.196	-0.074
-572.690	800.000	-0.143	-0.399
-571.675	-132.263	0.250	0.033
-570.661	-103.256	0.195	0.047
-569.646	-111.593	-0.172	-0.035
-568.631	-94.136	-0.326	0.090
-567.617	55.673	-0.090	-0.088
-566.602	-200.000	-0.030	0.145
-565.588	-200.000	-0.009	0.286
-564.573	-74.126	0.107	-0.039
-563.558	800.000	0.012	-0.044
-562.544	300.529	0.070	0.131
-561.529	-179.398	-0.076	-0.002
-560.515	-36.757	-0.284	-0.154
-559.500	-200.000	-0.056	0.476
-558.485	-200.000	-0.055	0.272
-557.471	-200.000	0.005	0.037
-556.456	99.717	0.145	-0.170
-555.442	-111.036	0.293	-0.061
-554.427	-86.186	-0.227	0.071
-553.412	-44.459	-0.046	0.023
-552.398	-165.653	0.228	0.010
-551.383	-64.731	-0.009	0.004
-550.369	-156.153	0.325	-0.021
-549.354	-47.402	-0.156	-0.077
-548.339	-200.000	0.010	-0.079
-547.325	-200.000	-0.013	0.061
-546.310	-57.388	-0.042	-0.018
-545.296	-154.148	-0.082	0.006
-544.281	153.309	0.073	0.101
-543.266	-103.071	0.184	0.044
-542.252	-31.077	-0.163	-0.093
-541.237	89.498	-0.037	-0.042
-540.223	-87.396	-0.394	0.120
-539.208	96.689	0.066	-0.077
-538.193	15.121	0.209	-0.165
-537.179	81.975	-0.171	0.188
-536.164	38.373	0.085	-0.077
-535.150	112.758	-0.257	-0.314
-534.135	-200.000	-0.067	-0.307
-533.121	-200.000	0.046	-0.284
-532.106	-200.000	-0.024	-0.202
-531.091	16.680	-0.198	0.158
-530.077	83.036	-0.340	-0.373
-529.062	240.660	-0.111	0.187
-528.048	434.204	-0.086	0.188
-527.033	-15.566	0.290	-0.187
-526.018	-1.911	0.164	-0.116
-525.004	89.831	0.079	-0.089
-523.989	-157.977	-0.121	-0.007
-522.975	63.252	-0.100	0.101
-521.960	-73.987	0.074	-0.027
-520.945	397.680	0.056	-0.118
-519.931	45.852	-0.078	-0.073
-518.916	376.233	-0.162	-0.333
-517.902	-43.579	-0.191	0.097
-516.887	681.475	0.126	-0.331
-515.872	52.455	-0.166	-0.160
-514.858	800.000	-0.111	-0.336
-513.843	162.988	0.187	-0.266
-512.829	-25.428	-0.102	-0.061
-511.814	40.738	0.210	0.191
-510.799	-200.000	0.028	0.226
-509.785	51.562	0.137	0.131
-508.770	278.021	-0.229	-0.412
-507.756	-6.548	0.129	-0.088
-506.741	-139.100	0.122	0.013
-505.726	-200.000	-0.019	0.302
-504.712	-32.780	0.253	0.142
-503.697	611.977	-0.029	-0.074
-502.683	-131.532	0.070	-0.009
-501.668	291.271	-0.167	-0.306
-500.653	-175.282	0.216	-0.006
-499.639	-95.232	-0.271	0.074
-498.624	-200.000	-0.019	0.102
-497.610	-200.000	-0.021	-0.102
-496.595	69.476	0.113	-0.117
-495.581	315.551	0.047	0.089
-494.566	26.870	-0.283	0.239
-493.551	-79.506	0.228	-0.078
-492.537	-86.996	0.322	0.099
-491.522	800.000	0.065	0.193
-490.508	111.071	-0.324	0.393
-489.493	91.166	-0.168	0.190
-488.478	-21.144	0.435	-0.268
-487.464	-43.148	-0.295	-0.151
-486.449	-200.000	-0.016	-0.399
-485.435	-192.088	0.224	-0.002
-484.420	-123.088	0.389	0.063
-483.405	-154.985	0.201	-0.013
-482.391	141.346	0.215	0.287
-481.376	36.550	-0.131	0.116
-480.362	-200.000	0.051	0.237
-479.347	82.853	-0.082	-0.090
-478.332	570.221	-0.067	0.165
-477.318	-41.758	0.205	0.106
-476.303	-200.000	0.008	-0.078
-475.289	-39.976	-0.118	0.062
-474.274	-134.462	0.123	-0.015
-473.259	-200.000	0.005	0.117
-472.245	618.962	-0.007	0.018
-471.230	-104.093	0.193	0.045
-470.216	646.399	0.029	-0.076
-469.201	-165.646	0.147	0.006
-468.186	89.056	-0.052	-0.058
-467.172	-34.241	0.109	-0.060
-466.157	-17.380	0.110	-0.070
-465.143	190.086	-0.138	0.208
-464.128	-88.138	0.391	0.118
-463.113	4.926	-0.227	0.169
-462.099	765.134	0.073	0.201
-461.084	151.476	-0.054	0.074
-460.070	-121.547	0.248	-0.041
-459.055	-104.655	-0.189	0.044
-458.040	-200.000	-0.082	-0.385
-457.026	662.419	0.089	-0.232
-456.011	336.300	0.068	0.134
-454.997	-200.000	0.005	0.126
-453.982	52.812	-0.258	0.248
-452.968	98.017	-0.119	-0.137
-451.953	800.000	-0.034	0.130
-450.938	800.000	-0.037	-0.123
-449.924	-200.000	-0.019	0.159
-448.909	18.755	-0.021	-0.017
-447.895	-8.023	0.217	-0.147
-446.880	800.000	0.128	0.356
-445.865	-104.917	0.180	-0.042
-444.851	-56.045	0.095	-0.043
-443.836	189.827	0.070	0.105
-442.822	-72.577	-0.314	0.117
-441.807	-34.106	0.124	0.069
-440.792	256.244	-0.198	0.342
-439.778	-61.185	0.197	-0.084
-438.763	-25.525	0.119	0.071
-437.749	-35.953	0.175	-0.095
-436.734	-75.072	0.424	0.153
-435.719	131.379	0.128	-0.166
-434.705	223.209	-0.097	-0.157
-433.690	-53.832	0.318	-0.146
-432.676	85.870	0.073	-0.081
-431.661	582.713	-0.084	0.207
-430.646	-75.327	0.083	-0.030
-429.632	-32.520	-0.175	0.098
-428.617	-30.061	-0.278	0.159
-427.603	-9.650	-0.048	0.032
-426.588	-9.145	0.047	0.031
-425.573	125.275	0.034	-0.044
-424.559	28.145	-0.120	-0.102
-423.544	61.382	-0.104	-0.104
-422.530	153.684	0.246	0.339
-421.515	236.938	0.115	0.191
-420.500	-113.925	-0.251	-0.049
-419.486	115.310	0.139	-0.170
-418.471	-40.775	-0.121	0.063
-417.457	82.429	-0.169	-0.184
-416.442	171.781	0.043	0.063
-415.428	-200.000	0.040	0.254
-414.413	-149.449	-0.248	0.020
-413.398	-200.000	0.005	0.095
-412.384	309.153	0.090	-0.169
-411.369	178.604	-0.081	0.119
-410.355	33.936	0.054	-0.047
-409.340	167.992	-0.173	-0.248
-408.325	800.000	0.105	-0.380
-407.311	-70.720	-0.311	0.118
-406.296	-56.641	-0.189	0.084
-405.282	21.112	-0.284	-0.231
-404.267	-36.769	0.280	-0.151
-403.252	253.272	0.115	0.197
-402.238	51.562	-0.087	0.083
-401.223	-82.783	0.157	-0.051
-400.209	-130.885	0.071	0.010
-399.194	-200.000	0.008	-0.215
-398.179	30.242	0.077	-0.066
-397.165	791.811	-0.026	-0.072
-396.150	166.689	-0.185	0.264
-395.136	-137.957	-0.341	-0.038
-394.121	-200.000	0.016	0.317
-393.106	108.981	-0.113	-0.136
-392.092	-22.913	-0.238	0.144
-391.077	338.556	0.110	0.214
-390.063	303.758	0.118	-0.219
-389.048	389.247	0.150	0.311
-388.033	788.195	0.071	-0.196
-387.019	-133.208	-0.337	-0.043
-386.004	800.000	-0.045	0.148
-384.990	-200.000	0.062	-0.290
-383.975	569.027	0.019	-0.047
-382.960	800.000	-0.034	-0.112
-381.946	4.530	0.160	-0.118
-380.931	3.429	-0.156	0.114
-379.917	46.612	0.076	0.071
-378.902	58.762	0.073	0.072
-377.888	113.655	-0.246	-0.300
-376.873	8.242	0.244	-0.184
-375.858	-17.032	-0.103	0.065
-374.844	-200.000	-0.035	-0.231
-373.829	192.943	0.122	0.186
-372.815	-200.000	0.016	-0.098
-371.800	-200.000	-0.035	-0.292
-370.785	-200.000	0.037	-0.241
-369.771	8.188	-0.168	-0.127
-368.756	-129.457	0.170	0.024
-367.742	13.313	-0.130	0.101
-366.727	-99.386	-0.036	0.009
-365.712	-126.737	0.399	-0.059
-364.698	-103.882	0.146	-0.034
-363.683	326.977	-0.075	-0.144
-362.669	-200.000	-0.029	0.140
-361.654	-141.524	0.224	0.023
-360.639	39.657	-0.061	0.055
-359.625	11.752	-0.107	0.082
-358.610	-85.898	-0.331	0.103
-357.596	-112.851	-0.167	-0.033
-356.581	-8.584	-0.018	0.012
-355.566	525.713	-0.061	-0.144
-354.552	-65.582	0.203	-0.082
-353.537	-144.694	-0.434	0.040
-352.523	9.087	0.129	0.098
-351.508	800.000	-0.042	-0.154
-350.493	143.807	-0.099	0.133
-349.479	14.727	-0.312	-0.245
-348.464	107.150	-0.056	-0.066
-347.450	-106.899	0.245	-0.054
-346.435	705.882	-0.157	0.416
-345.420	32.889	0.202	-0.175
-344.406	-115.493	-0.091	0.017
-343.391	-200.000	-0.032	-0.165
-342.377	-200.000	0.008	-0.233
-341.362	-12.730	-0.280	0.183
-340.348	263.408	0.099	0.172
-339.333	722.147	-0.091	0.243
-338.318	-200.000	-0.045	0.254
-337.304	-200.000	-0.003	-0.269
-336.289	777.274	-0.090	-0.246
-335.275	64.447	-0.059	-0.059
-334.260	800.000	0.054	-0.201
-333.245	136.104	-0.284	-0.371
-332.231	-162.594	-0.200	-0.010
-331.216	575.246	0.131	-0.321
-330.202	-200.000	0.134	0.000
-329.187	800.000	-0.066	-0.232
-328.172	-190.999	-0.023	0.000
-327.158	-30.592	-0.086	0.049
-326.143	-133.204	-0.305	-0.039
-325.129	800.000	0.024	0.077
-324.114	-109.480	0.083	0.018
-323.099	263.526	0.065	0.113
-322.085	-173.606	-0.294	0.009
-321.070	-35.118	-0.384	-0.210
-320.056	-162.668	-0.381	-0.019
-319.041	-76.126	0.034	-0.012
-318.026	-104.646	-0.148	0.034
-317.012	91.980	-0.117	0.132
-315.997	800.000	0.054	0.150
-314.983	800.000	-0.046	0.172
-313.968	-77.344	-0.147	-0.051
-312.953	-50.699	-0.151	0.071
-311.939	-200.000	-0.071	0.393
-310.924	-41.286	0.127	0.066
-309.910	-9.216	-0.143	0.096
-308.895	-106.740	0.195	-0.043
-307.880	-135.532	-0.281	-0.033
-306.866	-200.000	-0.013	-0.168
-305.851	-200.000	-0.016	0.212
-304.837	286.850	-0.008	0.014
-303.822	-43.320	0.082	0.041
-302.807	-31.185	-0.092	0.052
-301.793	-200.000	0.001	0.250
-300.778	138.252	-0.103	0.135
-299.764	-200.000	0.001	0.211
-298.749	-174.782	0.198	-0.006
-297.735	381.380	0.063	0.129
-296.720	-200.000	0.011	0.114
-295.705	151.667	-0.229	-0.312
-294.691	59.186	-0.103	0.102
-293.676	-200.000	0.029	-0.176
-292.662	-74.473	-0.217	0.078
-291.647	12.854	-0.357	0.276
-290.632	800.000	-0.086	0.276
-289.618	-69.253	-0.025	0.010
-288.603	-83.733	0.179	0.057
-287.589	-70.114	0.167	-0.063
-286.574	-55.241	0.336	-0.151
-285.559	-200.000	0.011	0.363
-284.545	73.819	0.099	-0.104
-283.530	71.720	-0.086	-0.089
-282.516	800.000	0.098	0.337
-281.501	-168.158	0.158	-0.006
-280.486	579.447	-0.038	0.093
-279.472	-200.000	-0.008	-0.116
-278.457	-45.855	0.123	0.061
-277.443	106.056	-0.098	-0.116
-276.428	-151.330	-0.039	-0.003
-275.413	-53.646	-0.145	0.066
-274.399	-96.126	-0.161	0.043
-273.384	8.647	-0.044	0.033
-272.370	250.985	-0.146	-0.248
-271.355	277.494	-0.079	0.140
-270.340	29.297	0.147	0.125
-269.326	1.747	0.221	-0.159
-268.311	-118.164	0.197	0.035
-267.297	-105.130	0.148	0.034
-266.282	152.638	0.249	0.340
-265.267	-37.832	-0.312	0.166
-264.253	-109.956	0.173	-0.036
-263.238	-200.000	0.016	-0.173
-262.224	800.000	-0.044	0.132
-261.209	126.189	0.225	-0.284
-260.195	-200.000	0.038	0.255
-259.180	29.403	0.296	-0.251
-258.165	-200.000	0.013	0.238
-257.151	-57.301	-0.081	0.036
-256.136	222.153	0.110	-0.176
-255.122	-0.877	-0.151	0.107
-254.107	-170.654	-0.113	0.004
-253.092	-69.511	-0.097	-0.037
-252.078	-58.329	0.159	-0.069
-251.063	800.000	-0.054	0.222
-250.049	-20.000	0.098	0.061
-249.034	-19.488	-0.048	-0.029
-248.019	-141.466	0.498	0.050
-247.005	249.936	0.195	0.331
-245.990	52.545	-0.056	0.053
-244.976	97.859	-0.075	0.086
-243.961	-200.000	0.014	-0.124
-242.946	186.033	-0.072	0.106
-241.932	555.818	0.210	-0.506
-240.917	137.456	-0.245	-0.320
-239.903	-149.643	-0.165	-0.013
-238.888	84.437	0.162	0.176
-237.873	221.565	0.098	-0.157
-236.859	168.224	-0.061	-0.087
-235.844	-141.994	-0.072	0.007
-234.830	-1.561	0.138	0.097
-233.815	-139.004	0.041	-0.004
-232.800	49.332	0.057	0.054
-231.786	-200.000	0.024	0.116
-230.771	800.000	-0.139	-0.420
-229.757	-154.189	-0.207	0.014
-228.742	800.000	0.039	-0.128
-227.727	-36.241	0.140	-0.075
-226.713	104.186	-0.133	0.156
-225.698	-37.876	0.212	-0.112
-224.684	-78.067	0.361	0.124
-223.669	-104.025	0.353	-0.082
-222.655	-72.124	-0.150	-0.056
-221.640	690.058	0.033	0.085
-220.625	-56.360	-0.349	0.154
-219.611	-59.290	-0.330	-0.142
-218.596	327.092	0.128	0.246
-217.582	45.565	-0.157	-0.144
-216.567	-64.968	0.306	-0.123
-215.552	-77.318	0.349	-0.121
-214.538	7.944	-0.131	0.098
-213.523	-97.310	-0.081	-0.021
-212.509	800.000	0.026	0.088
-211.494	-70.663	0.316	0.119
-210.479	800.000	0.080	-0.256
-209.465	86.068	0.128	-0.141
-208.450	401.952	-0.072	-0.151
-207.436	-81.242	-0.187	-0.062
-206.421	-200.000	0.032	-0.208
-205.406	5.099	0.103	-0.076
-204.392	201.530	-0.029	-0.044
-203.377	26.859	-0.300	-0.251
-202.363	-32.784	0.079	-0.044
-201.348	-9.532	0.151	-0.101
-200.333	364.944	-0.154	-0.309
-199.319	-127.260	0.244	0.035
-198.304	-132.491	-0.154	0.020
-197.290	800.000	0.054	0.219
-196.275	-200.000	-0.004	-0.083
-195.260	-200.000	-0.018	0.087
-194.246	-200.000	0.024	0.167
-193.231	199.054	-0.080	-0.122
-192.217	53.795	-0.284	-0.272
-191.202	800.000	-0.051	-0.177
-190.187	-149.410	0.130	0.010
-189.173	91.948	-0.243	-0.272
-188.158	-111.915	0.017	-0.003
-187.144	-6.401	0.135	0.091
-186.129	-149.810	0.246	-0.019
-185.114	-107.030	-0.195	-0.043
-184.100	734.826	-0.064	0.172
-183.085	-44.108	0.135	-0.068
-182.071	312.582	0.110	0.206
-181.056	-26.217	0.086	-0.050
-180.042	-200.000	0.015	-0.069
-179.027	87.176	0.323	0.356
-178.012	-83.467	0.129	0.041
-176.998	-8.090	-0.170	0.114
-175.983	21.864	0.132	0.107
-174.969	117.071	0.324	-0.397
-173.954	-52.229	0.107	-0.050
-172.939	315.851	-0.116	0.217
-171.925	-167.109	-0.218	0.009
-170.910	-117.336	-0.187	-0.034
-169.896	41.398	0.197	0.177
-168.881	106.499	0.139	0.164
-167.866	14.867	-0.060	0.047
-166.852	800.000	-0.071	0.219
-165.837	96.745	-0.239	0.272
-164.823	183.457	-0.054	0.079
-163.808	-44.766	-0.141	0.070
-162.793	-29.371	0.234	-0.134
-161.779	-75.012	-0.210	0.075
-160.764	-100.537	-0.166	0.041
-159.750	157.128	0.146	0.200
-158.735	-200.000	0.013	0.120
-157.720	-135.743	0.202	0.024
-156.706	-200.000	-0.038	0.208
-155.691	33.188	0.095	0.082
-154.677	173.725	-0.018	-0.025
-153.662	-79.832	0.137	-0.046
-152.647	-200.000	0.003	0.273
-151.633	800.000	-0.025	0.097
-150.618	-200.000	-0.045	0.350
-149.604	40.685	-0.213	0.191
-148.589	82.825	0.327	-0.354
-147.574	-155.045	0.151	-0.010
-146.560	-55.988	0.258	0.115
-145.545	-41.308	0.217	0.111
-144.531	-200.000	0.038	-0.294
-143.516	57.239	-0.111	0.108
-142.502	16.503	0.093	0.073
-141.487	-73.255	-0.366	0.133
-140.472	-110.571	-0.138	-0.028
-139.458	48.943	-0.094	0.088
-138.443	-0.938	0.160	0.113
-137.429	92.046	-0.217	0.243
-136.414	-41.724	0.110	0.056
-135.399	35.182	0.146	0.127
-134.385	58.452	0.082	-0.080
-133.370	-64.943	0.133	-0.054
-132.356	4.907	0.154	-0.112
-131.341	123.173	0.091	0.114
-130.326	-20.872	0.189	0.115
-129.312	6.120	0.184	-0.136
-128.297	97.219	0.054	-0.062
-127.283	367.292	0.037	-0.074
-126.268	370.776	0.137	0.276
-125.253	391.042	-0.066	-0.136
-124.239	128.807	0.040	0.051
-123.224	-37.399	-0.097	-0.052
-122.210	-86.247	-0.152	0.047
-121.195	800.000	0.053	0.149
-120.180	-58.371	0.159	0.069
