DTS Sentinel unit serial number:	SN413079Multiplexer serial number:	ORYXHardware model number:	OX4-SRSoftware version number:	ORYX F/W v4.00 Oryx Data Collector v3.7.2.0data status	okinstallation	princeton_trtdifferential loss correction	single-endedforward channel	channel 2reverse channel	N/Adate	2019/09/16time	01:39:34forward acquisition time	60.00reverse acquisition time	0.00gamma	496.2192k internal	0.2336k external	0.2336temperature offset calibration	0.9966default loss term (dB/km)	0.3790temperature slope calibration	1.0000multiplexer offset coefficient	1.0000multiplexer slope coefficient	1.0000fibre end	0.00T internal ref (°C)	27.31T ext. ref 1 (°C)	9.98T ext. ref 2 (°C)	22.23length (m)	temperature (°C)	Stokes	anti-Stokes-747.200	523.453	0.043	-0.102
-746.185	-200.000	0.010	0.163
-745.171	-112.327	-0.340	0.068
-744.156	-163.784	-0.075	0.004
-743.142	800.000	-0.058	-0.168
-742.127	301.612	-0.033	0.060
-741.112	92.237	0.205	-0.232
-740.098	-12.878	0.260	0.170
-739.083	-119.221	0.244	-0.043
-738.069	459.617	0.093	-0.208
-737.054	-200.000	0.008	-0.162
-736.039	-53.919	0.070	0.032
-735.025	-8.239	0.201	-0.136
-734.010	177.375	-0.143	-0.209
-732.996	-117.865	-0.268	0.048
-731.981	-200.000	0.036	0.207
-730.966	-11.655	-0.377	-0.249
-729.952	-200.000	0.021	-0.154
-728.937	-164.669	-0.086	-0.004
-727.923	-200.000	0.013	-0.194
-726.908	-200.000	0.019	-0.239
-725.894	372.582	0.044	-0.091
-724.879	-200.000	-0.016	0.093
-723.864	800.000	-0.043	0.143
-722.850	-90.672	0.173	-0.050
-721.835	-78.553	-0.047	-0.016
-720.821	-89.183	-0.380	0.113
-719.806	172.107	-0.061	-0.088
-718.791	-112.147	0.220	0.044
-717.777	75.210	-0.164	-0.174
-716.762	-48.331	0.107	-0.052
-715.748	664.714	-0.067	0.173
-714.733	311.355	-0.105	-0.198
-713.718	800.000	0.054	-0.175
-712.704	125.679	-0.078	-0.099
-711.689	-200.000	0.002	0.404
-710.675	117.933	0.119	0.147
-709.660	-81.370	0.089	-0.030
-708.645	285.118	0.062	-0.112
-707.631	-72.289	0.135	-0.050
-706.616	524.854	-0.127	-0.299
-705.602	121.985	0.219	0.275
-704.587	124.856	0.096	-0.121
-703.572	-171.959	0.183	-0.006
-702.558	-200.000	-0.010	-0.265
-701.543	44.389	-0.111	0.102
-700.529	-200.000	0.002	-0.342
-699.514	69.308	-0.099	-0.102
-698.499	-200.000	0.052	0.242
-697.485	220.757	-0.077	0.123
-696.470	800.000	0.118	0.383
-695.456	-160.190	-0.401	0.022
-694.441	-91.169	0.180	0.052
-693.426	776.360	-0.066	0.180
-692.412	12.927	-0.223	0.173
-691.397	-200.000	-0.035	0.164
-690.383	45.397	0.195	0.180
-689.368	800.000	-0.166	-0.461
-688.354	-130.934	0.059	0.008
-687.339	800.000	0.037	-0.120
-686.324	-51.101	-0.136	0.064
-685.310	-58.720	0.127	0.055
-684.295	-80.455	0.193	0.065
-683.281	-200.000	-0.017	0.205
-682.266	-200.000	-0.021	0.110
-681.251	-200.000	-0.043	-0.375
-680.237	-200.000	0.008	-0.145
-679.222	-200.000	-0.031	0.141
-678.208	-37.201	-0.129	-0.069
-677.193	98.072	0.269	-0.310
-676.178	-200.000	-0.065	-0.315
-675.164	800.000	0.068	0.260
-674.149	82.505	-0.032	-0.035
-673.135	13.291	0.033	-0.026
-672.120	-75.880	-0.470	-0.167
-671.105	-27.244	0.218	0.127
-670.091	-200.000	-0.004	0.047
-669.076	104.974	0.149	0.176
-668.062	-198.769	-0.125	0.001
-667.047	1.402	0.057	0.041
-666.032	395.041	0.162	0.339
-665.018	-200.000	-0.004	-0.151
-664.003	26.903	-0.191	-0.160
-662.989	86.495	0.106	-0.117
-661.974	12.408	0.208	-0.160
-660.959	233.502	-0.092	-0.151
-659.945	-200.000	-0.014	0.146
-658.930	800.000	-0.055	-0.174
-657.916	23.337	0.174	-0.143
-656.901	131.573	-0.214	-0.275
-655.886	-107.173	-0.300	0.066
-654.872	117.430	-0.191	-0.236
-653.857	17.035	0.327	-0.259
-652.843	266.850	-0.074	-0.129
-651.828	-142.364	-0.124	-0.012
-650.814	-143.244	-0.328	0.032
-649.799	-51.410	0.227	-0.106
-648.784	-105.229	0.254	-0.058
-647.770	39.441	0.123	0.110
-646.755	-200.000	0.017	-0.246
-645.741	-155.235	-0.244	-0.016
-644.726	-200.000	0.024	0.328
-643.711	-156.373	-0.492	0.031
-642.697	185.252	-0.093	-0.138
-641.682	800.000	-0.069	-0.204
-640.668	-83.930	0.017	-0.005
-639.653	785.245	0.041	-0.112
-638.638	-12.875	-0.038	0.025
-637.624	800.000	0.065	0.205
-636.609	-135.648	0.145	0.017
-635.595	-38.517	-0.034	-0.018
-634.580	180.119	0.089	-0.131
-633.565	14.865	-0.328	-0.256
-632.551	-5.541	-0.278	-0.191
-631.536	-107.584	0.174	-0.038
-630.522	121.328	-0.114	0.142
-629.507	-200.000	-0.058	-0.311
-628.492	-8.575	-0.579	0.389
-627.478	-26.756	-0.244	-0.143
-626.463	271.718	-0.077	-0.135
-625.449	-88.054	-0.130	0.039
-624.434	-139.571	-0.317	0.034
-623.419	-200.000	0.035	0.178
-622.405	252.432	0.055	-0.093
-621.390	800.000	0.041	0.158
-620.376	167.781	0.141	-0.200
-619.361	-111.723	0.111	-0.022
-618.346	57.729	-0.274	-0.268
-617.332	-20.835	-0.193	-0.118
-616.317	-107.315	0.273	0.060
-615.303	-12.303	0.199	-0.130
-614.288	368.847	0.150	0.304
-613.273	-85.847	0.306	-0.095
-612.259	148.800	-0.152	-0.206
-611.244	-90.187	-0.277	-0.081
-610.230	-200.000	0.019	0.119
-609.215	219.976	-0.179	-0.286
-608.201	-96.505	0.292	-0.077
-607.186	185.156	0.157	-0.233
-606.171	275.140	0.120	0.212
-605.157	247.205	-0.109	-0.184
-604.142	-200.000	-0.083	-0.454
-603.128	-200.000	0.004	-0.080
-602.113	-100.821	-0.192	0.047
-601.098	-102.723	0.188	-0.045
-600.084	-117.924	-0.166	0.030
-599.069	73.121	0.079	0.082
-598.055	106.643	-0.074	0.087
-597.040	-39.814	0.075	0.039
-596.025	-59.793	0.256	0.109
-595.011	98.345	0.189	-0.218
-593.996	-200.000	-0.018	-0.104
-592.982	-186.246	0.171	0.002
-591.967	17.235	0.171	-0.135
-590.952	800.000	-0.070	0.245
-589.938	175.532	0.090	-0.130
-588.923	189.340	-0.050	-0.076
-587.909	-112.039	-0.234	-0.047
-586.894	113.751	-0.315	-0.382
-585.879	-31.420	0.349	-0.196
-584.865	-4.142	-0.247	0.171
-583.850	212.164	0.093	-0.146
-582.836	-200.000	0.062	-0.301
-581.821	-132.601	-0.128	0.016
-580.806	-200.000	0.015	0.275
-579.792	800.000	0.052	-0.167
-578.777	800.000	-0.149	0.438
-577.763	-25.480	-0.056	0.033
-576.748	-138.265	-0.193	0.021
-575.733	3.882	-0.318	0.231
-574.719	202.286	0.123	-0.190
-573.704	-200.000	-0.044	-0.220
-572.690	-63.088	0.264	-0.109
-571.675	223.971	-0.206	0.331
-570.661	-200.000	0.013	-0.187
-569.646	15.619	-0.316	-0.248
-568.631	-59.283	-0.250	0.107
-567.617	800.000	-0.019	-0.070
-566.602	-156.827	0.110	0.007
-565.588	800.000	-0.078	-0.256
-564.573	800.000	0.029	0.113
-563.558	-12.501	-0.157	-0.102
-562.544	50.964	0.215	0.204
-561.529	13.294	-0.339	-0.262
-560.515	658.742	0.116	0.299
-559.500	475.674	-0.016	-0.035
-558.485	800.000	0.047	0.175
-557.471	9.470	0.132	-0.099
-556.456	14.588	-0.235	-0.183
-555.442	37.148	0.193	-0.170
-554.427	155.367	0.130	0.178
-553.412	800.000	0.036	0.152
-552.398	-50.870	-0.134	0.063
-551.383	-137.917	-0.148	0.016
-550.369	315.348	0.184	0.347
-549.354	27.205	-0.202	0.169
-548.339	3.169	-0.248	0.180
-547.325	-24.710	-0.255	0.151
-546.310	-16.988	0.281	0.177
-545.296	-176.526	-0.400	-0.010
-544.281	-51.105	-0.115	-0.054
-543.266	28.333	-0.264	0.222
-542.252	-200.000	0.060	0.490
-541.237	254.941	0.203	0.346
-540.223	-31.215	0.056	-0.031
-539.208	-200.000	-0.002	0.095
-538.193	38.880	0.202	-0.180
-537.179	-123.677	0.147	-0.023
-536.164	800.000	-0.065	-0.276
-535.150	-200.000	0.005	-0.130
-534.135	-116.007	-0.286	0.053
-533.121	-200.000	-0.057	-0.325
-532.106	-68.923	0.351	-0.135
-531.091	-113.804	0.249	0.048
-530.077	74.869	-0.213	-0.224
-529.062	-139.315	0.331	0.035
-528.048	-79.788	-0.283	0.095
-527.033	-68.636	0.175	0.067
-526.018	19.128	0.060	0.048
-525.004	800.000	0.041	0.164
-523.989	-200.000	0.014	0.095
-522.975	-85.554	0.324	-0.100
-521.960	-32.447	-0.161	0.090
-520.945	261.581	0.086	-0.149
-519.931	-120.670	-0.093	-0.016
-518.916	-200.000	0.002	0.167
-517.902	-154.063	0.343	-0.023
-516.887	-52.396	-0.154	0.071
-515.872	-78.917	0.299	0.101
-514.858	105.747	-0.141	0.166
-513.843	361.059	0.090	-0.179
-512.829	-32.090	-0.112	0.062
-511.814	-68.693	-0.090	0.035
-510.799	-200.000	0.002	0.112
-509.785	116.370	0.175	0.213
-508.770	-11.856	0.234	0.152
-507.756	-59.527	0.072	0.031
-506.741	800.000	0.058	-0.176
-505.726	800.000	0.070	0.274
-504.712	-54.444	0.216	-0.097
-503.697	-48.101	0.295	0.142
-502.683	-67.773	0.534	0.208
-501.668	-200.000	0.014	0.281
-500.653	-200.000	0.024	0.398
-499.639	-10.964	-0.277	0.182
-498.624	158.153	0.097	0.134
-497.610	283.516	0.096	0.171
-496.595	-9.971	0.148	0.098
-495.581	-59.257	-0.210	-0.090
-494.566	-163.058	0.238	-0.011
-493.551	-65.090	0.255	-0.102
-492.537	-200.000	0.015	-0.242
-491.522	-126.917	0.098	0.014
-490.508	331.181	0.049	0.095
-489.493	-200.000	-0.002	-0.088
-488.478	249.270	-0.150	-0.252
-487.464	-77.321	-0.275	-0.095
-486.449	-108.059	-0.319	-0.069
-485.435	-25.114	0.379	0.223
-484.420	179.247	-0.220	0.319
-483.405	-23.723	0.138	0.082
-482.391	-105.165	0.158	-0.036
-481.376	-110.238	-0.252	-0.052
-480.362	800.000	0.125	-0.457
-479.347	-174.757	0.368	0.010
-478.332	183.787	0.118	-0.174
-477.318	-158.322	0.139	-0.008
-476.303	-25.933	0.294	-0.172
-475.289	54.499	0.053	-0.051
-474.274	-159.598	0.339	0.019
-473.259	683.199	0.116	-0.302
-472.245	800.000	-0.092	-0.285
-471.230	117.610	0.215	0.263
-470.216	-11.228	0.202	0.132
-469.201	30.896	-0.096	0.082
-468.186	-200.000	0.003	0.105
-467.172	-83.492	-0.082	0.026
-466.157	-200.000	-0.015	-0.174
-465.143	-200.000	-0.017	-0.281
-464.128	97.867	-0.016	0.019
-463.113	-5.583	-0.078	-0.053
-462.099	-200.000	-0.025	0.351
-461.084	800.000	0.119	0.467
-460.070	-14.374	-0.186	0.119
-459.055	-76.787	0.306	-0.106
-458.040	530.194	-0.062	-0.147
-457.026	-200.000	0.062	-0.282
-456.011	24.013	0.382	-0.313
-454.997	-40.210	-0.282	-0.146
-453.982	800.000	0.080	-0.235
-452.968	-200.000	-0.013	-0.103
-451.953	128.011	0.144	-0.181
-450.938	-95.546	0.267	-0.071
-449.924	165.719	-0.067	0.095
-448.909	-40.846	0.039	-0.020
-447.895	800.000	-0.044	-0.165
-446.880	-65.026	0.211	-0.084
-445.865	-200.000	-0.016	-0.166
-444.851	-44.220	-0.302	0.150
-443.836	24.882	0.154	0.127
-442.822	800.000	-0.161	-0.616
-441.807	-107.316	-0.072	-0.016
-440.792	95.171	0.169	-0.191
-439.778	98.670	0.168	0.192
-438.763	-157.926	-0.207	0.012
-437.749	-0.351	0.031	-0.022
-436.734	-109.440	-0.263	-0.055
-435.719	99.684	0.214	0.245
-434.705	0.260	0.103	-0.073
-433.690	70.597	0.048	-0.049
-432.676	-200.000	-0.044	0.286
-431.661	800.000	0.056	-0.182
-430.646	-119.606	-0.286	-0.049
-429.632	-200.000	-0.044	0.196
-428.617	139.311	-0.068	0.089
-427.603	478.325	-0.058	-0.131
-426.588	-57.921	0.116	-0.050
-425.573	-200.000	0.005	0.209
-424.559	-200.000	0.008	-0.095
-423.544	-51.551	-0.351	-0.163
-422.530	143.421	-0.144	-0.190
-421.515	-199.083	0.283	-0.002
-420.500	-61.993	0.215	-0.089
-419.486	-200.000	0.046	-0.267
-418.471	-200.000	0.000	0.058
-417.457	210.839	0.027	0.042
-416.442	-16.885	-0.168	0.105
-415.428	538.573	-0.102	-0.241
-414.413	800.000	-0.154	0.518
-413.398	-30.718	0.072	0.040
-412.384	-79.503	-0.359	0.120
-411.369	-131.852	-0.367	0.048
-410.355	-69.213	-0.030	-0.012
-409.340	800.000	-0.128	0.509
-408.325	16.760	-0.190	0.149
-407.311	800.000	0.049	-0.164
-406.296	-48.868	-0.323	0.153
-405.282	226.293	0.200	-0.322
-404.267	-47.694	0.175	-0.084
-403.252	-124.914	-0.162	0.025
-402.238	-83.219	0.174	-0.055
-401.223	22.639	0.132	-0.107
-400.209	-80.774	0.347	-0.114
-399.194	335.541	-0.262	0.504
-398.179	-80.307	-0.241	-0.080
-397.165	-32.608	0.300	0.165
-396.150	-200.000	-0.014	0.219
-395.136	-44.368	0.022	0.011
-394.121	336.394	0.112	0.215
-393.106	33.133	-0.160	0.137
-392.092	31.968	0.185	-0.158
-391.077	17.653	-0.118	0.093
-390.063	-50.352	-0.168	-0.079
-389.048	239.282	0.136	0.224
-388.033	-200.000	0.006	-0.221
-387.019	-200.000	0.054	-0.286
-386.004	-172.920	-0.214	-0.007
-384.990	-200.000	0.045	-0.329
-383.975	93.771	-0.013	-0.015
-382.960	-39.857	-0.080	0.041
-381.946	74.755	0.123	-0.128
-380.931	-49.052	-0.322	0.153
-379.917	-15.162	-0.173	0.110
-378.902	84.163	0.195	-0.211
-377.888	397.410	-0.129	-0.267
-376.873	-51.328	-0.188	0.087
-375.858	-200.000	0.015	-0.139
-374.844	-108.155	0.390	0.084
-373.829	18.564	-0.267	-0.212
-372.815	45.405	0.126	-0.115
-371.800	-104.995	-0.043	-0.010
-370.785	54.349	-0.099	0.094
-369.771	-65.894	-0.323	0.128
-368.756	-200.000	0.056	-0.263
-367.742	-200.000	0.482	-0.000
-366.727	253.542	-0.107	-0.181
-365.712	800.000	0.050	0.171
-364.698	663.339	0.059	-0.151
-363.683	139.190	-0.085	0.110
-362.669	185.453	-0.101	0.148
-361.654	193.687	-0.165	-0.247
-360.639	800.000	0.065	-0.275
-359.625	708.798	0.092	0.241
-358.610	-87.429	0.122	0.037
-357.596	17.714	-0.063	0.050
-356.581	121.748	-0.079	-0.098
-355.566	-4.477	0.162	-0.111
-354.552	-81.333	0.042	-0.014
-353.537	146.202	-0.064	0.086
-352.523	-200.000	-0.005	-0.121
-351.508	-5.817	-0.057	-0.038
-350.493	21.617	0.075	-0.060
-349.479	-200.000	0.005	0.498
-348.464	-119.512	-0.180	0.031
-347.450	-200.000	0.033	-0.159
-346.435	-45.685	-0.113	-0.055
-345.420	19.124	-0.282	-0.224
-344.406	63.120	0.061	0.060
-343.391	-59.757	0.187	0.079
-342.377	-77.217	0.219	-0.075
-341.362	119.229	-0.135	0.165
-340.348	-81.355	0.035	0.012
-339.333	800.000	-0.062	0.239
-338.318	-155.480	-0.127	0.008
-337.304	-66.008	-0.156	-0.062
-336.289	108.045	0.136	-0.160
-335.275	-136.064	0.056	0.006
-334.260	-2.118	0.215	-0.150
-333.245	124.443	-0.195	-0.243
-332.231	-200.000	-0.031	0.251
-331.216	-200.000	0.034	0.177
-330.202	-75.856	-0.368	-0.129
-329.187	-100.006	-0.211	-0.052
-328.172	-59.149	0.265	-0.113
-327.158	-2.156	-0.057	-0.039
-326.143	-82.254	-0.148	0.048
-325.129	-64.951	-0.066	0.026
-324.114	-200.000	-0.004	0.194
-323.099	483.749	-0.111	-0.249
-322.085	-200.000	-0.013	-0.296
-321.070	152.358	0.050	0.067
-320.056	257.365	-0.053	0.091
-319.041	-190.595	-0.205	0.002
-318.026	521.301	-0.077	0.178
-317.012	-134.581	-0.152	-0.018
-315.997	50.714	0.155	0.145
-314.983	253.829	-0.144	-0.243
-313.968	136.982	-0.094	-0.122
-312.953	-66.713	-0.273	0.107
-311.939	29.797	-0.146	0.123
-310.924	-104.847	-0.075	-0.017
-309.910	140.632	0.049	-0.065
-308.895	-55.606	-0.298	-0.132
-307.880	-129.440	-0.352	-0.048
-306.866	-107.691	-0.151	-0.033
-305.851	-34.127	-0.285	0.155
-304.837	-114.662	-0.310	-0.058
-303.822	-200.000	-0.029	0.339
-302.807	-109.159	0.245	-0.052
-301.793	-200.000	-0.023	-0.287
-300.778	800.000	-0.031	0.110
-299.764	792.107	0.111	0.302
-298.749	-58.374	0.135	-0.058
-297.735	800.000	0.137	0.507
-296.720	-200.000	-0.220	-0.001
-295.705	389.863	0.012	-0.024
-294.691	-34.760	0.119	0.064
-293.676	-125.591	0.285	-0.043
-292.662	-54.247	-0.087	-0.039
-291.647	-200.000	0.014	0.208
-290.632	-16.150	0.127	0.079
-289.618	-160.892	-0.459	0.024
-288.603	-200.000	0.030	-0.418
-287.589	316.710	-0.078	0.145
-286.574	151.454	0.383	-0.514
-285.559	-143.989	0.201	0.019
-284.545	-182.915	0.204	-0.004
-283.530	-200.000	0.007	0.078
-282.516	-200.000	0.060	0.332
-281.501	176.816	0.065	-0.094
-280.486	284.240	0.075	0.133
-279.472	-84.993	-0.088	0.027
-278.457	800.000	-0.102	0.293
-277.443	-51.638	0.259	-0.119
-276.428	800.000	-0.074	-0.247
-275.413	129.806	-0.057	-0.072
-274.399	800.000	0.057	-0.173
-273.384	222.031	-0.056	0.089
-272.370	136.760	0.045	0.058
-271.355	-114.382	0.359	-0.068
-270.340	-200.000	0.003	0.216
-269.326	0.640	-0.128	0.091
-268.311	-76.127	0.194	0.068
-267.297	-200.000	-0.084	-0.428
-266.282	-200.000	0.031	-0.300
-265.267	303.896	-0.129	0.237
-264.253	-200.000	-0.005	0.231
-263.238	65.038	0.197	0.196
-262.224	-200.000	-0.058	0.421
-261.209	-200.000	0.023	0.227
-260.195	200.236	0.137	0.207
-259.180	-200.000	-0.043	-0.209
-258.165	-69.613	0.245	0.092
-257.151	-115.071	0.409	-0.076
-256.136	-200.000	-0.009	0.220
-255.122	800.000	-0.083	0.255
-254.107	-115.874	-0.241	-0.044
-253.092	-200.000	-0.061	-0.286
-252.078	242.796	0.088	-0.146
-251.063	82.640	0.190	-0.203
-250.049	42.532	0.232	-0.208
-249.034	-136.285	0.125	-0.014
-248.019	-42.045	0.184	-0.093
-247.005	4.490	-0.068	-0.049
-245.990	23.595	0.247	0.200
-244.976	258.574	0.215	0.364
-243.961	-92.215	0.384	-0.107
-242.946	-200.000	0.041	0.399
-241.932	-122.950	0.077	0.012
-240.917	-18.936	0.242	-0.148
-239.903	-49.897	0.138	-0.064
-238.888	38.278	0.117	0.102
-237.873	-86.274	0.176	0.053
-236.859	126.829	-0.344	-0.429
-235.844	-76.334	-0.084	-0.029
-234.830	83.779	-0.140	-0.151
-233.815	45.815	0.279	-0.254
-232.800	-99.527	-0.343	-0.085
-231.786	-144.707	0.117	0.011
-230.771	-54.307	-0.044	-0.020
-229.757	286.778	0.119	0.211
-228.742	-200.000	-0.028	-0.300
-227.727	767.654	-0.028	-0.075
-226.713	30.119	-0.356	0.299
-225.698	21.449	-0.151	0.121
-224.684	-200.000	0.013	0.324
-223.669	-127.965	-0.332	0.047
-222.655	-60.410	-0.217	0.091
-221.640	-153.640	0.073	-0.005
-220.625	-200.000	0.026	-0.115
-219.611	636.069	-0.030	-0.074
-218.596	-95.858	0.384	0.101
-217.582	419.581	-0.092	0.194
-216.567	-52.615	-0.084	-0.038
-215.552	170.053	0.075	0.105
-214.538	-149.110	-0.278	0.022
-213.523	-107.101	-0.610	-0.132
-212.509	800.000	-0.131	-0.371
-211.494	-47.714	-0.122	-0.058
-210.479	280.476	-0.019	-0.033
-209.465	-18.646	-0.330	0.202
-208.450	103.315	0.257	-0.296
-207.436	-200.000	-0.045	-0.372
-206.421	-98.545	-0.079	-0.020
-205.406	-24.439	0.101	0.059
-204.392	249.498	0.246	-0.411
-203.377	114.834	-0.275	-0.330
-202.363	-200.000	-0.087	0.493
-201.348	228.609	-0.055	0.088
-200.333	-200.000	0.019	-0.152
-199.319	-25.726	0.360	-0.209
-198.304	800.000	-0.125	-0.361
-197.290	0.054	0.221	-0.155
-196.275	-102.761	-0.117	-0.027
-195.260	800.000	-0.107	0.372
-194.246	800.000	-0.023	0.079
-193.231	-66.093	-0.324	-0.127
-192.217	-127.113	-0.152	-0.022
-191.202	-94.242	-0.150	0.040
-190.187	93.237	-0.116	-0.129
-189.173	-148.293	0.272	0.022
-188.158	-154.350	-0.303	0.020
-187.144	-24.566	0.347	0.203
-186.129	-107.769	0.430	0.092
-185.114	-200.000	0.005	0.216
-184.100	-68.583	0.074	-0.028
-183.085	-200.000	-0.016	0.091
-182.071	599.914	0.156	0.381
-181.056	-45.306	0.464	-0.226
-180.042	-200.000	-0.057	0.305
-179.027	-127.150	0.450	0.065
-178.012	200.228	0.175	0.263
-176.998	-132.248	-0.267	-0.034
-175.983	-41.538	-0.108	0.055
-174.969	800.000	0.150	0.517
-173.954	-44.984	0.110	-0.054
-172.939	800.000	0.032	-0.119
-171.925	31.061	0.421	0.355
-170.910	-200.000	-0.016	-0.091
-169.896	-106.646	0.134	0.029
-168.881	-200.000	0.024	0.172
-167.866	175.574	-0.115	-0.163
-166.852	-200.000	-0.003	0.198
-165.837	-200.000	0.034	0.254
-164.823	-170.895	0.294	0.010
-163.808	800.000	-0.026	-0.083
-162.793	-200.000	-0.044	-0.232
-161.779	-200.000	0.047	0.440
-160.764	748.564	-0.140	-0.371
-159.750	800.000	-0.131	0.409
-158.735	-111.055	0.365	0.074
-157.720	-138.560	-0.177	-0.019
-156.706	-132.326	-0.155	-0.020
-155.691	-67.082	-0.355	-0.138
-154.677	-36.188	-0.102	0.054
-153.662	53.435	-0.159	0.150
-152.647	79.694	0.044	-0.046
-151.633	-97.752	-0.223	-0.057
-150.618	800.000	-0.014	-0.051
-149.604	-200.000	0.020	0.090
-148.589	-82.288	-0.249	-0.079
-147.574	-200.000	-0.024	0.000
-146.560	-200.000	-0.014	-0.319
-145.545	75.259	-0.013	-0.013
-144.531	-200.000	-0.096	-0.571
-143.516	28.713	-0.327	-0.272
-142.502	-200.000	-0.009	0.052
-141.487	-78.264	0.377	0.127
-140.472	347.443	-0.096	0.186
-139.458	-37.816	-0.114	0.059
-138.443	-181.556	0.169	0.003
-137.429	133.650	-0.088	-0.112
-136.414	-142.536	0.418	-0.040
-135.399	800.000	-0.051	0.183
-134.385	81.433	-0.218	0.231
-133.370	-83.374	-0.346	-0.109
-132.356	150.300	0.077	-0.103
-131.341	-53.325	-0.330	0.148
-130.326	183.644	0.228	0.331
-129.312	-92.289	-0.140	-0.039
-128.297	800.000	0.041	-0.113
-127.283	-21.110	0.025	-0.015
-126.268	11.951	-0.130	0.098
-125.253	-200.000	-0.005	0.119
-124.239	434.835	-0.093	-0.199
-123.224	344.980	0.194	-0.374
