DTS Sentinel unit serial number:	SN413079Multiplexer serial number:	ORYXHardware model number:	OX4-SRSoftware version number:	ORYX F/W v4.00 Oryx Data Collector v3.7.2.0data status	okinstallation	princeton_trtdifferential loss correction	single-endedforward channel	channel 2reverse channel	N/Adate	2019/09/12time	19:22:49forward acquisition time	15.00reverse acquisition time	0.00gamma	496.2192k internal	0.2325k external	0.2325temperature offset calibration	1.0150default loss term (dB/km)	0.3790temperature slope calibration	1.0000multiplexer offset coefficient	1.0000multiplexer slope coefficient	1.0000fibre end	0.00T internal ref (°C)	32.37T ext. ref 1 (°C)	3.24T ext. ref 2 (°C)	26.93length (m)	temperature (°C)	Stokes	anti-Stokes-747.200	-3.012	0.300	-0.211
-746.185	-69.288	0.684	0.265
-745.171	4.696	0.549	0.407
-744.156	-89.069	-0.172	0.051
-743.142	800.000	-0.113	-0.416
-742.127	34.114	-0.397	-0.349
-741.112	-200.000	0.205	1.044
-740.098	-200.000	-0.012	0.120
-739.083	-85.660	0.101	-0.032
-738.069	-200.000	0.092	0.807
-737.054	-125.942	0.441	-0.067
-736.039	-12.619	-0.263	0.173
-735.025	-169.299	-0.138	0.005
-734.010	21.986	0.700	-0.576
-732.996	281.180	-0.244	-0.441
-731.981	-187.096	0.597	0.008
-730.966	-86.191	0.673	-0.209
-729.952	-86.331	0.143	0.044
-728.937	124.404	-0.673	0.854
-727.923	-200.000	0.026	0.519
-726.908	-171.859	0.811	0.027
-725.894	-26.985	-0.218	0.128
-724.879	-78.556	0.341	0.118
-723.864	119.465	-0.063	-0.079
-722.850	-90.166	0.897	0.263
-721.835	800.000	-0.123	-0.391
-720.821	-26.077	-0.540	0.320
-719.806	-160.724	0.698	0.037
-718.791	-28.101	0.236	-0.137
-717.777	-22.276	0.176	-0.107
-716.762	351.872	-0.105	-0.210
-715.748	206.887	-0.214	0.336
-714.733	-36.886	0.416	-0.225
-713.718	-200.000	-0.066	-0.470
-712.704	-200.000	-0.024	-0.514
-711.689	-60.517	0.837	0.358
-710.675	6.385	-0.364	0.272
-709.660	-17.825	-0.367	0.232
-708.645	123.041	-0.411	0.519
-707.631	90.813	-0.477	0.539
-706.616	-32.175	0.453	-0.255
-705.602	-51.225	-0.807	-0.381
-704.587	-74.384	0.517	-0.188
-703.572	800.000	-0.158	0.551
-702.558	-114.566	0.504	-0.097
-701.543	-111.074	0.642	0.133
-700.529	750.588	0.151	0.411
-699.514	355.018	-0.307	-0.615
-698.499	-24.973	-0.784	0.468
-697.485	-200.000	0.029	-0.649
-696.470	-200.000	-0.033	0.277
-695.456	-16.171	-0.264	0.169
-694.441	-200.000	-0.061	-0.569
-693.426	-200.000	0.038	0.548
-692.412	-65.370	0.613	0.248
-691.397	232.480	0.450	0.744
-690.383	42.932	0.284	0.261
-689.368	-49.791	0.790	-0.378
-688.354	800.000	-0.217	0.701
-687.339	800.000	0.169	-0.476
-686.324	54.946	0.519	-0.504
-685.310	-151.052	-0.099	0.007
-684.295	-58.576	-0.496	0.216
-683.281	117.150	0.507	-0.627
-682.266	-9.300	-0.628	-0.422
-681.251	201.345	0.426	-0.661
-680.237	433.066	-0.380	-0.829
-679.222	175.526	-0.210	-0.307
-678.208	-27.616	0.379	-0.221
-677.193	321.827	-0.429	-0.821
-676.178	-125.668	-0.257	-0.039
-675.164	-200.000	0.026	-0.302
-674.149	402.097	0.147	-0.311
-673.135	-45.932	0.522	-0.259
-672.120	-61.832	-0.321	-0.135
-671.105	773.885	-0.140	-0.383
-670.091	-23.187	-0.263	-0.159
-669.076	-178.471	0.903	0.021
-668.062	-200.000	0.605	0.000
-667.047	-200.000	0.697	0.003
-666.032	29.747	0.249	-0.213
-665.018	800.000	-0.150	-0.462
-664.003	32.516	-0.578	0.503
-662.989	-200.000	-0.008	0.175
-661.974	71.941	0.162	0.170
-660.959	-100.440	0.741	0.184
-659.945	-136.229	-0.941	0.111
-658.930	-200.000	0.126	-0.813
-657.916	2.803	0.259	0.189
-656.901	165.978	0.195	0.277
-655.886	44.437	-0.293	-0.270
-654.872	36.913	-0.352	-0.313
-653.857	-67.454	0.316	0.125
-652.843	-200.000	-0.025	-0.360
-651.828	7.179	-0.239	-0.179
-650.814	1.228	0.572	0.413
-649.799	785.826	0.299	0.826
-648.784	32.899	0.508	0.442
-647.770	41.725	-0.456	-0.415
-646.755	283.821	-0.100	-0.181
-645.741	-200.000	-0.118	0.828
-644.726	-26.024	0.765	-0.452
-643.711	-200.000	0.015	-0.128
-642.697	517.750	0.266	0.626
-641.682	582.253	0.117	0.287
-640.668	42.736	0.600	-0.549
-639.653	-88.756	-0.195	0.058
-638.638	-181.747	-0.828	-0.016
-637.624	-33.631	-0.329	0.183
-636.609	-98.897	-0.499	0.127
-635.595	84.834	0.497	-0.547
-634.580	413.716	0.284	-0.606
-633.565	-200.000	0.007	0.185
-632.551	800.000	0.184	-0.703
-631.536	-119.230	-0.504	-0.088
-630.522	85.168	-0.223	-0.246
-629.507	-183.832	0.667	-0.011
-628.492	-200.000	0.004	0.281
-627.478	-200.000	0.029	0.254
-626.463	-1.231	0.763	-0.541
-625.449	-125.457	-1.253	0.192
-624.434	76.192	0.352	-0.374
-623.419	-5.717	0.118	-0.081
-622.405	-123.112	1.334	0.215
-621.390	-55.427	-0.311	-0.140
-620.376	37.914	0.485	0.433
-619.361	-104.427	-0.723	-0.168
-618.346	-200.000	0.136	0.615
-617.332	11.013	-0.465	-0.357
-616.317	656.133	0.090	0.232
-615.303	485.071	0.074	-0.170
-614.288	48.522	0.498	-0.468
-613.273	-200.000	-0.075	-0.414
-612.259	195.447	0.245	-0.374
-611.244	-74.052	-0.268	-0.098
-610.230	-55.023	-0.206	-0.093
-609.215	-44.384	0.806	-0.405
-608.201	-124.306	0.047	0.007
-607.186	275.873	0.371	-0.661
-606.171	340.833	-0.167	0.327
-605.157	68.896	0.300	0.309
-604.142	-84.856	-0.493	-0.155
-603.128	-7.534	1.098	0.745
-602.113	440.119	-0.058	-0.127
-601.098	-72.242	0.852	-0.317
-600.084	-200.000	0.004	-0.340
-599.069	-150.435	0.492	0.038
-598.055	-200.000	0.022	0.565
-597.040	108.323	0.305	0.366
-596.025	-93.929	-0.155	0.043
-595.011	-127.215	0.174	0.025
-593.996	272.593	0.193	0.342
-592.982	19.034	-0.446	-0.358
-591.967	-85.728	-0.832	-0.259
-590.952	117.974	-0.090	-0.111
-589.938	-84.271	0.248	-0.079
-588.923	-93.594	-0.460	-0.127
-587.909	-34.602	-0.705	0.387
-586.894	800.000	0.288	-0.969
-585.879	-140.591	0.454	-0.047
-584.865	124.434	-0.223	0.282
-583.850	126.370	0.403	0.511
-582.836	-6.926	0.384	-0.261
-581.821	126.279	0.401	-0.508
-580.806	-147.853	-0.418	0.035
-579.792	-172.177	-0.208	0.007
-578.777	-200.000	0.019	0.523
-577.763	88.499	-0.637	0.710
-576.748	-126.730	0.195	-0.029
-575.733	91.366	-0.320	-0.360
-574.719	800.000	-0.235	-0.756
-573.704	237.490	0.324	0.538
-572.690	-8.690	0.574	-0.386
-571.675	-76.902	-0.371	0.130
-570.661	-130.652	1.088	0.147
-569.646	-69.230	-0.853	-0.329
-568.631	-200.000	0.006	-0.821
-567.617	-6.353	-0.994	-0.680
-566.602	-24.342	0.411	0.246
-565.588	800.000	-0.141	-0.603
-564.573	-200.000	-0.020	0.124
-563.558	181.163	0.414	0.610
-562.544	-107.869	0.686	0.149
-561.529	6.726	0.285	0.212
-560.515	59.214	0.359	0.355
-559.500	800.000	0.113	0.437
-558.485	-126.128	0.179	0.027
-557.471	-200.000	-0.151	1.035
-556.456	5.341	0.437	0.323
-555.442	214.484	-0.351	0.557
-554.427	800.000	0.031	-0.124
-553.412	-149.062	-0.388	0.031
-552.398	-136.550	0.176	0.020
-551.383	200.010	-0.511	0.786
-550.369	-64.214	0.418	0.171
-549.354	135.333	0.192	0.249
-548.339	-131.723	-0.661	0.087
-547.325	-23.133	-0.114	-0.069
-546.310	-143.516	0.657	-0.063
-545.296	-200.000	-0.069	-0.385
-544.281	-200.000	0.003	0.157
-543.266	-53.162	0.454	0.209
-542.252	800.000	-0.070	0.305
-541.237	43.845	0.526	0.482
-540.223	270.822	-0.453	0.798
-539.208	800.000	-0.143	0.598
-538.193	-200.000	0.017	0.544
-537.179	26.552	-0.122	-0.102
-536.164	800.000	0.127	0.382
-535.150	-117.588	-0.275	-0.050
-534.135	61.846	0.471	-0.469
-533.121	43.397	0.741	-0.678
-532.106	-75.489	-0.514	0.183
-531.091	144.304	0.211	0.282
-530.077	632.550	0.262	0.665
-529.062	-83.295	0.569	0.183
-528.048	-57.586	-0.828	0.363
-527.033	-102.152	-0.831	-0.200
-526.018	-54.391	-0.188	-0.085
-525.004	-70.350	-0.157	-0.060
-523.989	-117.692	-1.122	0.202
-522.975	-38.870	0.317	-0.167
-521.960	20.537	0.973	0.787
-520.945	229.901	-0.105	0.171
-519.931	72.689	-0.124	-0.130
-518.916	41.557	0.262	-0.237
-517.902	-20.316	-0.298	-0.183
-516.887	196.306	-0.260	0.396
-515.872	800.000	0.055	-0.152
-514.858	8.188	0.554	0.416
-513.843	491.954	0.052	-0.118
-512.829	-200.000	-0.034	0.346
-511.814	800.000	0.105	-0.349
-510.799	-200.000	-0.130	0.640
-509.785	-200.000	0.149	0.774
-508.770	-146.152	0.776	-0.068
-507.756	-154.520	-1.095	-0.073
-506.741	-140.878	0.219	0.023
-505.726	45.221	0.773	0.712
-504.712	-200.000	0.035	-0.193
-503.697	-37.423	-0.447	0.239
-502.683	241.989	-0.117	0.196
-501.668	-153.461	-0.568	0.039
-500.653	129.047	0.454	0.578
-499.639	-27.553	0.948	-0.550
-498.624	-85.526	0.549	-0.171
-497.610	-31.376	-0.269	0.151
-496.595	146.615	-0.382	0.512
-495.581	193.287	-0.232	-0.350
-494.566	-38.046	0.577	-0.306
-493.551	112.636	-0.518	-0.626
-492.537	13.115	-0.672	-0.519
-491.522	800.000	-0.161	0.507
-490.508	498.746	-0.183	0.420
-489.493	-87.755	-0.240	0.072
-488.478	-60.753	0.279	-0.118
-487.464	117.467	-0.292	0.358
-486.449	-200.000	-0.084	0.598
-485.435	-200.000	0.101	-0.483
-484.420	-200.000	-0.075	0.377
-483.405	-16.168	0.137	0.087
-482.391	-60.536	-0.409	-0.173
-481.376	336.931	0.271	-0.525
-480.362	44.094	-1.029	-0.942
-479.347	-140.392	-0.200	0.021
-478.332	-45.540	-0.372	-0.184
-477.318	796.825	-0.206	-0.567
-476.303	-67.497	-0.731	0.286
-475.289	307.638	-0.217	-0.404
-474.274	-2.407	-0.537	0.376
-473.259	44.001	-0.523	0.479
-472.245	-200.000	-0.013	-0.433
-471.230	453.031	-0.256	-0.566
-470.216	-2.156	0.160	0.112
-469.201	-80.767	-0.156	0.052
-468.186	-8.985	-0.548	-0.366
-467.172	169.236	-0.215	0.306
-466.157	-88.986	-0.362	0.107
-465.143	800.000	0.307	-1.067
-464.128	-2.655	0.511	0.357
-463.113	-119.927	-0.631	0.108
-462.099	-88.351	0.366	0.109
-461.084	-25.934	-0.125	0.074
-460.070	-43.652	0.419	0.211
-459.055	156.448	-1.000	-1.377
-458.040	-200.000	0.061	-0.649
-457.026	429.428	-0.134	0.290
-456.011	329.264	-0.143	-0.274
-454.997	-115.227	0.318	-0.060
-453.982	-200.000	-0.033	0.407
-452.968	800.000	0.082	0.243
-451.953	243.311	0.216	-0.360
-450.938	-180.835	1.133	0.023
-449.924	-108.237	0.423	0.091
-448.909	216.019	0.483	0.765
-447.895	18.877	0.697	0.557
-446.880	-179.640	0.272	-0.006
-445.865	-6.291	-0.786	-0.535
-444.851	106.842	-0.166	-0.197
-443.836	-200.000	-0.014	0.246
-442.822	-130.720	0.262	0.035
-441.807	509.034	-0.238	0.552
-440.792	-200.000	-0.144	0.719
-439.778	-177.728	-0.269	0.006
-438.763	111.086	0.064	-0.077
-437.749	-58.895	0.869	-0.374
-436.734	102.236	-0.409	-0.476
-435.719	484.857	-0.158	-0.359
-434.705	21.577	0.534	0.433
-433.690	-99.182	0.628	0.158
-432.676	39.434	0.236	0.211
-431.661	-22.592	0.518	-0.312
-430.646	-106.825	0.679	0.150
-429.632	-53.523	-0.293	-0.134
-428.617	201.966	0.333	-0.511
-427.603	800.000	-0.118	0.467
-426.588	800.000	0.219	0.885
-425.573	474.625	-0.158	0.356
-424.559	-200.000	-0.014	-0.362
-423.544	-40.839	-0.643	-0.332
-422.530	194.231	0.768	1.160
-421.515	-66.421	-0.428	0.169
-420.500	32.540	-0.571	-0.492
-419.486	-200.000	0.176	-0.937
-418.471	-30.466	0.395	-0.223
-417.457	-37.373	-0.261	-0.139
-416.442	-200.000	-0.030	-0.290
-415.428	800.000	-0.215	-0.806
-414.413	-139.989	-0.314	-0.033
-413.398	234.488	0.241	0.396
-412.384	800.000	0.153	0.443
-411.369	-200.000	-0.010	-0.119
-410.355	800.000	0.133	0.371
-409.340	202.163	-0.161	0.247
-408.325	-101.067	0.916	0.223
-407.311	63.638	-0.772	0.772
-406.296	-200.000	-0.022	0.730
-405.282	119.456	-0.511	0.629
-404.267	88.875	0.339	0.376
-403.252	800.000	-0.154	-0.642
-402.238	800.000	0.098	0.293
-401.223	124.745	0.611	-0.766
-400.209	120.034	0.266	0.329
-399.194	800.000	0.209	0.640
-398.179	-200.000	0.020	0.396
-397.165	-16.554	0.675	-0.426
-396.150	-111.857	0.385	0.077
-395.136	-200.000	0.075	-1.133
-394.121	-22.534	-0.728	-0.438
-393.106	-54.790	0.258	0.116
-392.092	-159.179	-0.222	-0.012
-391.077	-200.000	0.031	-0.285
-390.063	-174.731	-0.522	-0.015
-389.048	-2.624	-1.013	-0.706
-388.033	49.138	-0.250	-0.234
-387.019	240.915	0.343	-0.570
-386.004	-146.259	0.235	-0.020
-384.990	201.587	0.198	0.304
-383.975	121.062	0.510	0.632
-382.960	312.029	0.392	-0.732
-381.946	-33.825	0.250	-0.137
-380.931	-48.034	-0.357	0.172
-379.917	-73.565	-0.303	-0.110
-378.902	-171.023	-0.330	0.011
-377.888	-200.000	0.082	0.568
-376.873	35.628	0.180	0.157
-375.858	419.253	0.530	-1.128
-374.844	-200.000	-0.114	-0.962
-373.829	-10.592	0.957	-0.630
-372.815	-160.933	-0.692	0.036
-371.800	-33.216	0.812	0.447
-370.785	-133.317	0.487	-0.061
-369.771	-45.978	-0.587	0.288
-368.756	800.000	-0.055	-0.197
-367.742	-132.232	-0.768	0.099
-366.727	8.856	0.283	-0.212
-365.712	368.768	0.238	-0.480
-364.698	-71.568	0.830	-0.308
-363.683	-198.590	0.238	-0.001
-362.669	480.064	0.231	-0.521
-361.654	-98.441	-0.540	0.137
-360.639	-93.723	-0.710	-0.195
-359.625	-45.073	-0.418	-0.207
-358.610	-200.000	-0.013	-0.398
-357.596	-36.212	0.311	-0.167
-356.581	800.000	0.066	0.265
-355.566	800.000	-0.190	0.780
-354.552	800.000	0.140	0.437
-353.537	800.000	-0.146	0.437
-352.523	197.299	-0.242	0.367
-351.508	-144.623	-0.983	0.090
-350.493	-124.364	0.353	-0.055
-349.479	522.965	-0.239	-0.558
-348.464	-76.942	0.727	-0.252
-347.450	121.528	-0.077	-0.095
-346.435	36.901	0.440	0.387
-345.420	-44.193	0.593	-0.295
-344.406	-200.000	0.008	-0.494
-343.391	-25.961	-0.287	-0.168
-342.377	-142.791	-0.454	0.044
-341.362	-46.839	0.719	0.349
-340.348	-17.349	-0.554	0.346
-339.333	208.528	-0.270	-0.419
-338.318	-200.000	-0.058	-0.577
-337.304	567.430	-0.087	-0.210
-336.289	-100.014	0.478	0.118
-335.275	-200.000	-0.017	-0.178
-334.260	112.314	-0.612	0.735
-333.245	-91.608	0.093	-0.026
-332.231	148.995	0.315	-0.424
-331.216	45.332	-0.355	0.325
-330.202	15.734	-0.787	0.614
-329.187	169.122	0.167	0.236
-328.172	-92.298	-0.141	-0.039
-327.158	-30.506	-0.537	0.302
-326.143	800.000	0.279	0.790
-325.129	239.396	-0.285	0.471
-324.114	-200.000	0.043	-0.313
-323.099	800.000	-0.019	-0.054
-322.085	-200.000	-0.020	0.377
-321.070	-80.025	-0.330	0.110
-320.056	-200.000	0.003	-0.149
-319.041	-63.583	-0.343	0.140
-318.026	-91.876	0.369	0.104
-317.012	-141.719	0.314	-0.031
-315.997	107.843	-0.472	-0.557
-314.983	739.993	-0.196	0.522
-313.968	-135.098	-0.113	-0.014
-312.953	800.000	0.190	-0.776
-311.939	300.789	0.210	-0.384
-310.924	-200.000	0.022	-0.529
-309.910	13.494	-0.553	-0.426
-308.895	203.026	-0.200	-0.307
-307.880	-138.431	-0.432	0.047
-306.866	-200.000	0.140	-1.096
-305.851	560.671	0.085	0.205
-304.837	32.242	-0.266	0.228
-303.822	-200.000	-0.087	-0.447
-302.807	3.979	0.206	-0.149
-301.793	-97.484	-0.917	0.236
-300.778	800.000	0.126	0.367
-299.764	75.731	0.332	-0.348
-298.749	-200.000	-0.027	-0.722
-297.735	800.000	0.129	-0.455
-296.720	-148.291	0.615	-0.050
-295.705	27.612	0.837	0.698
-294.691	-200.000	0.035	0.480
-293.676	321.225	0.215	0.405
-292.662	464.337	-0.400	-0.885
-291.647	-24.127	0.209	0.123
-290.632	177.362	-0.445	-0.642
-289.618	103.897	0.189	-0.220
-288.603	-52.097	0.450	0.207
-287.589	-200.000	-0.061	-0.269
-286.574	800.000	0.156	0.670
-285.559	-88.999	-0.231	-0.068
-284.545	152.592	-0.617	-0.835
-283.530	-74.217	0.600	0.215
-282.516	115.487	-0.217	-0.263
-281.501	-200.000	0.016	0.307
-280.486	-3.060	0.431	-0.298
-279.472	105.909	0.401	-0.470
-278.457	13.990	-0.658	-0.507
-277.443	186.980	-0.103	-0.153
-276.428	-200.000	0.129	0.748
-275.413	-68.185	0.299	-0.115
-274.399	-141.245	-0.976	-0.098
-273.384	11.226	-0.187	0.142
-272.370	-200.000	0.026	0.299
-271.355	182.511	-0.314	-0.458
-270.340	453.814	-0.076	0.168
-269.326	144.313	0.548	0.725
-268.311	289.225	-0.645	1.157
-267.297	70.583	-0.412	0.422
-266.282	-149.730	-0.778	-0.061
-265.267	-157.998	-0.923	-0.054
-264.253	42.877	0.032	-0.028
-263.238	-0.246	-0.344	0.242
-262.224	-154.004	-0.786	0.053
-261.209	77.920	-0.270	-0.285
-260.195	-101.906	0.579	0.139
-259.180	451.986	-0.175	-0.382
-258.165	-95.177	-0.299	0.080
-257.151	536.036	-0.283	-0.664
-256.136	-200.000	0.043	0.400
-255.122	101.349	-0.288	0.332
-254.107	-20.348	0.591	-0.360
-253.092	-3.647	0.779	-0.536
-252.078	33.442	0.160	-0.138
-251.063	333.268	0.538	-1.028
-250.049	88.924	0.296	-0.326
-249.034	-200.000	0.162	-0.806
-248.019	-144.317	0.418	-0.039
-247.005	64.307	1.129	1.125
-245.990	-200.000	0.030	-0.624
-244.976	-128.894	0.501	0.070
-243.961	154.408	0.273	0.371
-242.946	-200.000	0.036	0.323
-241.932	606.487	0.093	0.230
-240.917	-155.332	0.045	0.003
-239.903	-200.000	-0.036	-0.345
-238.888	472.596	0.566	-1.262
-237.873	-52.829	-0.341	0.155
-236.859	111.196	0.225	0.268
-235.844	176.158	0.181	-0.260
-234.830	-136.876	0.152	0.017
-233.815	88.200	-0.277	0.304
-232.800	34.352	-0.300	-0.259
-231.786	43.312	0.118	-0.107
-230.771	255.068	0.367	0.621
-229.757	459.531	-0.357	0.786
-228.742	-58.763	-0.420	0.180
-227.727	28.484	-0.374	-0.312
-226.713	-21.773	0.439	-0.264
-225.698	579.507	-0.235	-0.569
-224.684	-137.695	0.166	0.018
-223.669	77.408	0.595	-0.626
-222.655	132.032	-0.309	0.394
-221.640	22.856	-0.658	-0.533
-220.625	-58.889	0.859	-0.367
-219.611	800.000	0.208	-0.605
-218.596	300.697	-0.519	0.946
-217.582	-200.000	0.050	-0.390
-216.567	-169.890	0.736	0.026
-215.552	-123.281	0.844	-0.133
-214.538	4.770	-0.539	0.391
-213.523	-200.000	0.075	0.467
-212.509	800.000	-0.220	0.849
-211.494	-200.000	0.121	-0.001
-210.479	84.693	-0.306	-0.331
-209.465	-181.802	-0.558	0.011
-208.450	-39.739	-0.779	-0.402
-207.436	240.947	-0.247	0.408
-206.421	-182.993	-0.418	0.007
-205.406	43.854	-0.018	-0.016
-204.392	-171.144	-0.437	0.015
-203.377	164.299	-0.475	-0.661
-202.363	156.510	-0.256	0.349
-201.348	39.478	0.567	-0.501
-200.333	-128.474	0.490	0.069
-199.319	800.000	-0.280	-0.907
-198.304	273.391	-0.290	-0.506
-197.290	140.045	-0.628	-0.818
-196.275	800.000	0.139	0.556
-195.260	-15.570	1.214	0.765
-194.246	104.828	0.021	-0.024
-193.231	-57.931	0.216	-0.093
-192.217	-44.491	-0.599	0.296
-191.202	-51.355	0.532	0.246
-190.187	-186.526	0.983	0.014
-189.173	-135.533	-1.272	0.149
-188.158	223.762	-0.035	-0.055
-187.144	-89.828	-0.275	-0.079
-186.129	-159.856	0.201	-0.011
-185.114	800.000	-0.120	-0.510
-184.100	-37.154	-0.283	-0.149
-183.085	576.920	-0.070	0.169
-182.071	34.622	-0.426	0.368
-181.056	167.596	-0.339	0.475
-180.042	-18.121	0.444	-0.274
-179.027	150.541	-0.326	-0.437
-178.012	372.165	-0.147	0.294
-176.998	-61.151	0.822	0.342
-175.983	800.000	0.082	-0.328
-174.969	-148.835	0.204	-0.016
-173.954	176.378	-0.096	-0.138
-172.939	89.096	-0.355	0.390
-171.925	401.902	-0.224	0.465
-170.910	507.570	-0.385	0.882
-169.896	134.355	-0.286	0.365
-168.881	118.175	0.203	-0.246
-167.866	-57.632	-0.207	-0.089
-166.852	800.000	-0.186	-0.522
-165.837	800.000	-0.076	-0.326
-164.823	-35.521	-0.384	-0.206
-163.808	-173.447	-0.653	-0.019
-162.793	-12.959	0.304	0.195
-161.779	-107.204	0.845	0.183
-160.764	-61.324	0.288	0.119
-159.750	-132.303	-0.948	-0.121
-158.735	-116.734	0.416	0.075
-157.720	-100.998	0.439	-0.106
-156.706	-200.000	-0.023	0.974
-155.691	-200.000	-0.035	0.869
-154.677	77.937	0.469	0.493
-153.662	262.336	-0.130	0.222
-152.647	81.190	-0.175	-0.186
-151.633	236.128	-0.299	-0.488
-150.618	134.051	-0.360	-0.460
-149.604	-32.953	-0.279	0.153
-148.589	101.783	-0.198	0.228
-147.574	800.000	0.354	1.081
-146.560	-92.320	0.292	-0.081
-145.545	-58.242	-0.497	0.213
-144.531	800.000	0.110	-0.402
-143.516	26.476	0.461	0.380
-142.502	-144.008	-0.637	-0.059
-141.487	458.263	0.152	-0.333
-140.472	800.000	-0.067	0.286
-139.458	-200.000	0.065	0.558
-138.443	62.490	-0.278	0.273
-137.429	-46.048	-0.212	0.103
-136.414	-22.810	0.440	0.262
-135.399	-91.315	-0.373	-0.105
-134.385	92.295	-0.616	0.684
-133.370	-200.000	0.079	0.395
-132.356	-200.000	0.041	0.421
-131.341	-200.000	-0.005	0.228
-130.326	91.886	-0.470	0.521
-129.312	237.758	0.166	-0.272
-128.297	715.049	-0.206	0.538
-127.283	649.737	-0.314	0.790
-126.268	-36.212	-0.801	0.425
-125.253	-50.150	0.718	0.334
-124.239	28.841	0.593	0.495
-123.224	-63.838	-0.134	0.054
-122.210	-22.299	-0.747	-0.446
-121.195	-116.373	-0.126	-0.023
