DTS Sentinel unit serial number:	SN413079Multiplexer serial number:	ORYXHardware model number:	OX4-SRSoftware version number:	ORYX F/W v4.00 Oryx Data Collector v3.7.2.0data status	okinstallation	princeton_trtdifferential loss correction	single-endedforward channel	channel 2reverse channel	N/Adate	2019/09/16time	21:15:35forward acquisition time	60.00reverse acquisition time	0.00gamma	496.2192k internal	0.2329k external	0.2329temperature offset calibration	0.9965default loss term (dB/km)	0.3790temperature slope calibration	1.0000multiplexer offset coefficient	1.0000multiplexer slope coefficient	1.0000fibre end	0.00T internal ref (°C)	31.73T ext. ref 1 (°C)	0.05T ext. ref 2 (°C)	25.51length (m)	temperature (°C)	Stokes	anti-Stokes-747.200	-109.626	-0.346	-0.073
-746.185	-200.000	0.131	-0.661
-745.171	83.589	-0.180	-0.197
-744.156	-114.261	-0.138	0.027
-743.142	284.616	0.104	-0.189
-742.127	630.920	-0.146	0.373
-741.112	-200.000	-0.031	0.264
-740.098	468.878	0.075	0.169
-739.083	62.916	-0.226	0.228
-738.069	-46.048	0.173	-0.086
-737.054	-127.759	-0.074	0.011
-736.039	-104.659	-0.511	0.119
-735.025	44.100	0.258	0.238
-734.010	800.000	-0.088	-0.308
-732.996	800.000	-0.102	-0.299
-731.981	24.648	0.210	0.175
-730.966	218.620	-0.055	-0.088
-729.952	12.027	-0.158	-0.123
-728.937	800.000	-0.084	0.247
-727.923	-44.168	-0.167	-0.085
-726.908	-43.148	-0.079	-0.040
-725.894	-34.182	-0.442	-0.244
-724.879	-200.000	0.020	-0.257
-723.864	-189.783	-0.549	0.006
-722.850	144.865	0.072	-0.097
-721.835	183.339	-0.090	0.134
-720.821	37.721	0.163	-0.145
-719.806	18.388	-0.225	0.181
-718.791	-129.416	0.198	-0.028
-717.777	800.000	-0.072	0.314
-716.762	-200.000	-0.019	0.189
-715.748	800.000	0.129	0.482
-714.733	-49.458	-0.352	-0.169
-713.718	800.000	-0.075	-0.210
-712.704	47.360	0.027	0.025
-711.689	-133.148	-0.379	-0.048
-710.675	-154.848	-0.496	-0.033
-709.660	-87.043	-0.227	-0.070
-708.645	-104.502	0.206	-0.048
-707.631	-154.645	-0.070	0.005
-706.616	-22.331	0.132	0.080
-705.602	-100.568	-0.046	0.011
-704.587	-97.691	-0.257	-0.067
-703.572	800.000	-0.132	-0.462
-702.558	-200.000	0.001	-0.103
-701.543	-99.618	0.397	-0.100
-700.529	-200.000	0.000	0.129
-699.514	800.000	0.062	0.258
-698.499	-103.411	-0.174	0.041
-697.485	26.603	-0.087	0.073
-696.470	275.160	0.057	0.101
-695.456	2.511	0.286	-0.209
-694.441	245.488	0.104	-0.176
-693.426	-50.274	0.086	-0.041
-692.412	-37.205	-0.202	0.109
-691.397	-95.041	0.104	-0.028
-690.383	-200.000	-0.002	-0.247
-689.368	2.633	-0.286	-0.209
-688.354	-110.946	0.275	0.057
-687.339	-45.431	-0.162	0.081
-686.324	800.000	-0.080	-0.230
-685.310	-8.884	-0.096	0.065
-684.295	-200.000	0.028	0.342
-683.281	386.462	0.087	-0.181
-682.266	-76.783	0.076	-0.027
-681.251	57.775	0.176	0.173
-680.237	-200.000	0.004	0.258
-679.222	-85.091	-0.155	-0.049
-678.208	-104.091	-0.077	-0.018
-677.193	4.725	-0.157	-0.116
-676.178	75.277	-0.182	-0.193
-675.164	-18.059	0.084	0.053
-674.149	-51.028	0.184	-0.087
-673.135	595.126	-0.058	-0.144
-672.120	-46.171	0.158	0.078
-671.105	-157.732	0.331	0.020
-670.091	-62.660	-0.081	0.034
-669.076	-51.732	-0.096	-0.045
-668.062	-200.000	0.066	-0.289
-667.047	800.000	-0.015	0.054
-666.032	800.000	-0.066	-0.269
-665.018	-21.819	-0.071	-0.044
-664.003	800.000	-0.096	-0.359
-662.989	800.000	0.076	-0.264
-661.974	163.317	-0.042	0.060
-660.959	800.000	-0.064	-0.229
-659.945	59.701	0.103	-0.102
-658.930	-110.701	0.126	-0.026
-657.916	271.091	0.048	-0.085
-656.901	203.486	-0.147	0.228
-655.886	19.544	-0.178	-0.144
-654.872	591.985	0.048	-0.118
-653.857	-1.887	-0.129	0.091
-652.843	-50.131	-0.071	0.034
-651.828	-95.377	0.165	-0.044
-650.814	20.983	0.193	-0.157
-649.799	-103.543	-0.478	-0.113
-648.784	569.199	0.086	-0.210
-647.770	800.000	0.093	-0.341
-646.755	-126.806	0.316	-0.047
-645.741	248.266	0.182	0.309
-644.726	-167.902	-0.438	0.017
-643.711	-200.000	-0.008	-0.155
-642.697	37.312	-0.246	-0.219
-641.682	178.120	0.094	-0.138
-640.668	115.650	-0.038	0.046
-639.653	11.899	0.091	0.071
-638.638	89.400	-0.185	-0.207
-637.624	800.000	-0.130	-0.405
-636.609	-200.000	-0.007	-0.078
-635.595	800.000	-0.047	-0.134
-634.580	-100.877	0.163	0.040
-633.565	-103.066	-0.126	0.030
-632.551	14.806	0.050	-0.039
-631.536	-38.672	0.139	0.074
-630.522	-200.000	-0.019	-0.370
-629.507	-108.594	-0.079	-0.017
-628.492	774.409	0.124	-0.340
-627.478	-16.392	-0.089	-0.057
-626.463	-30.997	-0.207	0.117
-625.449	-200.000	-0.029	0.165
-624.434	-200.000	0.002	-0.102
-623.419	800.000	0.072	-0.203
-622.405	-200.000	-0.005	0.119
-621.390	-63.385	0.518	0.214
-620.376	103.898	-0.151	0.178
-619.361	310.831	-0.070	-0.132
-618.346	26.042	0.125	-0.105
-617.332	18.688	0.135	-0.108
-616.317	-144.837	0.264	-0.024
-615.303	49.873	0.179	0.169
-614.288	175.448	-0.103	-0.149
-613.273	-135.573	-0.273	-0.033
-612.259	-200.000	0.030	0.137
-611.244	-2.857	0.358	0.251
-610.230	-7.197	0.058	0.039
-609.215	258.902	0.140	0.242
-608.201	800.000	-0.068	-0.276
-607.186	215.964	0.128	0.204
-606.171	800.000	-0.030	-0.109
-605.157	-177.751	0.218	0.005
-604.142	-164.524	-0.142	-0.006
-603.128	53.637	0.190	0.183
-602.113	800.000	0.049	0.177
-601.098	45.210	-0.425	-0.392
-600.084	661.738	0.102	0.263
-599.069	-159.439	0.089	0.005
-598.055	-44.243	0.184	-0.092
-597.040	-200.000	-0.025	0.192
-596.025	160.771	0.079	0.110
-595.011	638.467	0.068	-0.174
-593.996	-8.504	0.138	-0.093
-592.982	-33.597	0.107	0.059
-591.967	3.456	-0.148	0.108
-590.952	777.097	0.089	-0.243
-589.938	44.258	-0.119	-0.109
-588.923	137.818	0.110	-0.144
-587.909	-96.107	-0.131	-0.035
-586.894	-99.025	0.159	0.040
-585.879	385.932	0.151	0.311
-584.865	163.644	-0.155	-0.219
-583.850	-144.153	-0.048	-0.005
-582.836	-200.000	-0.015	0.179
-581.821	401.116	0.112	0.235
-580.806	105.082	0.209	-0.247
-579.792	800.000	-0.045	0.160
-578.777	-99.232	0.345	-0.087
-577.763	-100.616	0.207	0.051
-576.748	800.000	-0.137	-0.420
-575.733	60.296	-0.149	-0.147
-574.719	-34.331	-0.260	0.143
-573.704	278.417	0.076	0.136
-572.690	800.000	-0.077	-0.221
-571.675	-77.035	-0.107	-0.037
-570.661	166.814	0.313	0.444
-569.646	-20.774	0.223	-0.137
-568.631	349.000	-0.163	-0.323
-567.617	800.000	0.052	0.158
-566.602	-31.327	-0.198	-0.111
-565.588	-200.000	0.001	-0.157
-564.573	26.223	0.344	0.287
-563.558	486.300	0.092	0.210
-562.544	24.120	0.148	-0.122
-561.529	800.000	0.069	0.276
-560.515	-200.000	0.035	-0.221
-559.500	-200.000	-0.031	-0.194
-558.485	-120.449	-0.545	0.093
-557.471	-200.000	-0.011	-0.137
-556.456	-77.087	-0.158	-0.055
-555.442	-72.612	0.099	0.037
-554.427	-123.745	-0.437	0.069
-553.412	476.322	0.154	0.347
-552.398	-134.315	-0.281	0.034
-551.383	800.000	-0.133	0.566
-550.369	539.153	0.045	0.107
-549.354	-73.502	-0.274	0.100
-548.339	333.612	0.152	-0.294
-547.325	-14.399	-0.039	-0.025
-546.310	-38.252	-0.110	0.058
-545.296	-14.429	-0.299	-0.192
-544.281	161.764	-0.217	-0.303
-543.266	-200.000	0.008	-0.105
-542.252	-94.155	-0.269	0.074
-541.237	369.721	0.028	-0.056
-540.223	-3.343	0.285	-0.198
-539.208	-1.214	-0.126	0.089
-538.193	800.000	0.021	0.072
-537.179	-79.205	0.374	0.127
-536.164	-47.220	-0.097	0.047
-535.150	32.160	0.204	-0.176
-534.135	34.609	-0.151	0.132
-533.121	-163.356	-0.235	0.011
-532.106	800.000	0.036	-0.155
-531.091	-65.474	0.196	0.079
-530.077	800.000	0.019	-0.083
-529.062	338.393	-0.092	0.179
-528.048	165.615	0.017	-0.025
-527.033	427.596	-0.157	0.339
-526.018	-200.000	-0.031	-0.215
-525.004	45.638	-0.094	-0.087
-523.989	-19.938	-0.189	0.117
-522.975	-112.462	0.266	0.053
-521.960	639.523	-0.057	0.144
-520.945	165.041	-0.022	-0.032
-519.931	-200.000	0.006	-0.099
-518.916	277.738	0.158	-0.280
-517.902	-200.000	-0.080	-0.357
-516.887	800.000	0.079	-0.239
-515.872	510.251	0.028	-0.066
-514.858	-62.615	-0.337	-0.140
-513.843	222.774	-0.234	0.377
-512.829	98.938	-0.199	0.229
-511.814	86.152	-0.160	0.176
-510.799	800.000	-0.057	0.235
-509.785	45.954	-0.062	-0.057
-508.770	-200.000	-0.084	-0.432
-507.756	172.664	0.224	-0.322
-506.741	391.580	-0.123	0.254
-505.726	-200.000	0.024	-0.123
-504.712	698.578	-0.027	-0.070
-503.697	-200.000	-0.020	0.160
-502.683	800.000	-0.047	0.136
-501.668	800.000	0.106	0.299
-500.653	-127.703	0.255	-0.037
-499.639	-103.624	0.197	-0.046
-498.624	109.321	-0.235	0.281
-497.610	-85.025	0.139	0.044
-496.595	-114.126	-0.111	0.021
-495.581	800.000	-0.030	-0.104
-494.566	-200.000	-0.004	-0.161
-493.551	-114.259	-0.390	0.075
-492.537	-137.332	-0.265	-0.030
-491.522	81.226	0.177	0.191
-490.508	800.000	0.026	-0.101
-489.493	349.620	-0.134	-0.263
-488.478	-73.680	-0.212	0.077
-487.464	-64.829	0.253	0.102
-486.449	534.977	0.027	0.065
-485.435	-200.000	0.014	-0.151
-484.420	-200.000	-0.079	0.346
-483.405	83.299	-0.137	-0.148
-482.391	-92.878	-0.142	-0.040
-481.376	-53.932	-0.168	-0.076
-480.362	186.188	-0.063	-0.093
-479.347	23.797	0.156	0.129
-478.332	619.516	-0.060	0.150
-477.318	368.547	0.100	-0.202
-476.303	616.312	-0.090	0.225
-475.289	107.416	-0.086	-0.101
-474.274	-7.679	0.137	-0.092
-473.259	-200.000	-0.025	0.284
-472.245	-61.362	-0.219	-0.092
-471.230	-105.487	-0.266	-0.060
-470.216	367.562	-0.019	-0.038
-469.201	-200.000	0.092	-0.440
-468.186	-95.723	-0.165	-0.044
-467.172	-61.869	0.175	-0.073
-466.157	-200.000	-0.038	-0.177
-465.143	-12.264	0.149	0.097
-464.128	279.480	-0.254	0.451
-463.113	222.721	0.161	0.258
-462.099	800.000	0.063	-0.257
-461.084	-106.300	-0.204	-0.046
-460.070	653.809	0.028	-0.073
-459.055	-7.621	0.197	-0.133
-458.040	50.579	-0.137	-0.129
-457.026	134.288	-0.050	-0.065
-456.011	36.191	0.203	0.178
-454.997	-141.708	-0.183	-0.018
-453.982	281.218	0.069	-0.123
-452.968	-200.000	-0.024	0.156
-451.953	-200.000	-0.007	0.163
-450.938	-33.395	-0.233	0.129
-449.924	320.505	-0.050	-0.094
-448.909	800.000	0.099	0.310
-447.895	-113.301	-0.197	0.038
-446.880	-164.217	-0.202	0.009
-445.865	-25.752	0.303	-0.178
-444.851	-200.000	0.060	0.371
-443.836	13.913	-0.056	-0.043
-442.822	-16.386	0.159	0.100
-441.807	336.376	0.220	0.424
-440.792	267.693	0.177	0.309
-439.778	70.550	-0.056	-0.057
-438.763	-100.309	0.222	0.055
-437.749	-173.107	-0.264	0.008
-436.734	-92.745	-0.265	0.074
-435.719	-40.153	0.328	-0.170
-434.705	-200.000	0.017	-0.206
-433.690	723.384	0.153	0.406
-432.676	-46.161	0.042	0.021
-431.661	-82.087	0.170	0.055
-430.646	277.119	-0.079	0.140
-429.632	-24.310	-0.325	-0.193
-428.617	80.479	-0.180	-0.193
-427.603	-84.428	0.048	0.015
-426.588	-32.100	0.109	0.061
-425.573	-91.081	0.268	0.076
-424.559	240.271	0.094	-0.156
-423.544	591.820	-0.114	-0.279
-422.530	419.356	-0.146	0.311
-421.515	790.834	0.102	0.278
-420.500	257.227	-0.099	0.169
-419.486	-12.491	-0.151	0.098
-418.471	-48.121	-0.100	-0.048
-417.457	398.011	-0.186	0.388
-416.442	28.956	-0.151	0.127
-415.428	-116.230	-0.261	-0.048
-414.413	-149.351	-0.261	0.021
-413.398	587.630	-0.095	0.234
-412.384	-37.989	-0.191	-0.101
-411.369	301.965	0.228	0.418
-410.355	-173.395	0.258	-0.008
-409.340	-200.000	0.003	0.035
-408.325	-172.280	-0.216	-0.007
-407.311	292.384	-0.122	0.222
-406.296	-200.000	-0.003	0.071
-405.282	45.833	0.087	0.080
-404.267	-48.243	0.115	0.055
-403.252	-101.120	0.283	-0.069
-402.238	-68.711	0.440	0.169
-401.223	800.000	-0.061	0.183
-400.209	-88.829	0.366	-0.108
-399.194	800.000	0.049	0.174
-398.179	-111.317	0.115	-0.023
-397.165	-200.000	0.041	0.209
-396.150	-95.745	-0.210	0.056
-395.136	306.333	-0.030	0.056
-394.121	-33.422	-0.238	0.131
-393.106	800.000	0.095	0.320
-392.092	-39.367	-0.100	-0.052
-391.077	97.139	-0.105	-0.120
-390.063	-40.640	-0.174	-0.090
-389.048	-53.069	-0.040	0.018
-388.033	-31.666	0.039	0.022
-387.019	-183.625	-0.204	0.003
-386.004	-104.505	0.274	-0.063
-384.990	79.985	-0.175	-0.187
-383.975	141.130	0.203	-0.267
-382.960	800.000	0.099	-0.295
-381.946	-59.679	-0.193	-0.082
-380.931	-29.205	0.307	-0.175
-379.917	535.404	0.079	0.186
-378.902	109.626	0.056	-0.067
-377.888	15.844	-0.078	-0.061
-376.873	133.116	0.358	0.459
-375.858	143.971	0.097	-0.129
-374.844	-122.060	0.278	0.045
-373.829	-200.000	0.048	-0.227
-372.815	-76.793	0.150	-0.052
-371.800	-95.485	0.295	0.079
-370.785	800.000	-0.072	0.268
-369.771	-78.062	-0.204	-0.070
-368.756	157.741	-0.205	0.282
-367.742	695.815	0.120	0.312
-366.727	-200.000	0.017	0.095
-365.712	-200.000	0.006	0.238
-364.698	-120.650	0.242	-0.041
-363.683	-200.000	-0.013	0.272
-362.669	-200.000	-0.012	-0.246
-361.654	-87.843	0.471	0.141
-360.639	400.100	0.054	-0.112
-359.625	-35.156	0.121	-0.065
-358.610	-125.499	0.119	-0.018
-357.596	333.431	-0.126	-0.241
-356.581	800.000	-0.037	0.153
-355.566	-4.082	-0.351	0.241
-354.552	6.958	0.136	0.101
-353.537	195.477	-0.119	0.179
-352.523	133.848	0.129	-0.165
-351.508	10.802	0.140	-0.106
-350.493	178.792	0.018	-0.027
-349.479	-200.000	0.010	0.268
-348.464	12.386	-0.413	-0.316
-347.450	-28.910	-0.388	-0.221
-346.435	-14.701	-0.256	0.163
-345.420	75.806	-0.142	-0.149
-344.406	167.810	-0.215	-0.304
-343.391	-160.985	0.343	0.018
-342.377	41.040	-0.135	0.121
-341.362	53.617	-0.125	0.119
-340.348	97.981	0.186	-0.212
-339.333	-69.862	0.261	-0.099
-338.318	-164.609	0.190	-0.009
-337.304	222.516	0.048	0.077
-336.289	177.906	-0.032	0.047
-335.275	-200.000	0.013	-0.069
-334.260	44.353	0.243	0.221
-333.245	-40.657	0.203	0.104
-332.231	62.472	0.185	0.183
-331.216	189.102	0.051	-0.076
-330.202	236.123	-0.151	-0.248
-329.187	-30.931	0.133	-0.074
-328.172	-99.794	-0.270	0.067
-327.158	46.345	-0.113	-0.104
-326.143	800.000	0.062	-0.263
-325.129	-35.761	0.068	-0.037
-324.114	8.444	0.280	-0.208
-323.099	382.012	0.115	-0.233
-322.085	800.000	0.125	-0.432
-321.070	-51.815	0.245	0.113
-320.056	-33.237	0.201	0.110
-319.041	-200.000	-0.020	0.116
-318.026	208.942	0.145	-0.225
-317.012	-200.000	0.048	-0.239
-315.997	-200.000	0.010	0.550
-314.983	113.712	-0.176	0.212
-313.968	153.012	-0.141	-0.190
-312.953	143.270	0.104	0.137
-311.939	-200.000	0.068	-0.452
-310.924	800.000	-0.070	-0.275
-309.910	-200.000	0.032	-0.244
-308.895	434.553	0.107	-0.230
-307.880	624.984	0.104	-0.261
-306.866	-78.962	-0.155	0.052
-305.851	-200.000	0.002	-0.110
-304.837	-39.657	-0.068	-0.035
-303.822	19.177	0.299	0.238
-302.807	800.000	-0.034	-0.097
-301.793	-164.098	0.247	0.011
-300.778	305.259	0.138	0.254
-299.764	800.000	0.091	-0.251
-298.749	778.852	0.116	-0.313
-297.735	75.395	0.162	0.170
-296.720	800.000	-0.037	0.143
-295.705	-28.969	0.178	0.101
-294.691	10.882	-0.236	0.178
-293.676	310.449	-0.163	-0.302
-292.662	56.058	-0.120	-0.115
-291.647	-166.487	0.292	-0.012
-290.632	-18.356	0.182	0.112
-289.618	250.070	-0.186	-0.313
-288.603	-200.000	0.052	0.281
-287.589	800.000	0.082	-0.331
-286.574	96.697	-0.134	-0.151
-285.559	312.619	-0.125	-0.232
-284.545	40.302	0.137	0.122
-283.530	-200.000	0.004	-0.337
-282.516	-200.000	-0.030	-0.248
-281.501	235.986	-0.125	0.204
-280.486	-200.000	0.015	-0.084
-279.472	-130.628	-0.165	-0.022
-278.457	-156.333	0.358	0.022
-277.443	-96.926	-0.298	-0.077
-276.428	-81.648	-0.308	0.100
-275.413	800.000	-0.059	-0.168
-274.399	-25.938	-0.311	0.181
-273.384	574.313	0.183	0.442
-272.370	190.484	0.173	-0.257
-271.355	-31.047	-0.174	0.097
-270.340	800.000	-0.132	0.401
-269.326	-148.582	0.264	-0.021
-268.311	-41.048	-0.102	0.052
-267.297	150.699	0.110	0.148
-266.282	33.723	0.181	-0.156
-265.267	646.199	-0.114	-0.288
-264.253	-200.000	-0.043	0.406
-263.238	102.653	-0.223	-0.258
-262.224	-82.453	0.075	-0.024
-261.209	-52.114	-0.116	-0.053
-260.195	-55.882	0.107	-0.047
-259.180	-112.553	0.028	-0.005
-258.165	110.569	-0.151	-0.180
-257.151	800.000	0.071	-0.205
-256.136	208.125	0.051	0.079
-255.122	372.321	0.104	0.209
-254.107	98.658	0.154	0.176
-253.092	-200.000	-0.010	0.157
-252.078	-200.000	-0.012	0.273
-251.063	-12.144	-0.315	-0.204
-250.049	110.873	0.085	-0.101
-249.034	-200.000	-0.044	-0.311
-248.019	-72.048	0.251	0.092
-247.005	21.224	-0.208	-0.167
-245.990	224.353	0.237	-0.378
-244.976	111.389	-0.162	0.193
-243.961	-200.000	-0.007	0.215
-242.946	182.272	0.189	-0.276
-241.932	-79.715	0.151	-0.050
-240.917	575.390	-0.079	-0.191
-239.903	48.599	-0.129	-0.120
-238.888	259.653	0.060	-0.103
-237.873	-44.228	-0.336	-0.166
-236.859	-200.000	0.060	0.446
-235.844	797.234	0.120	-0.325
-234.830	800.000	0.059	0.177
-233.815	800.000	-0.163	0.485
-232.800	70.097	-0.115	0.117
-231.786	127.014	-0.264	0.330
-230.771	60.627	-0.293	-0.287
-229.757	800.000	-0.074	0.205
-228.742	-39.151	0.396	0.206
-227.727	298.325	-0.208	0.378
-226.713	-10.122	0.178	-0.117
-225.698	-68.925	-0.059	-0.023
-224.684	79.981	-0.044	-0.047
-223.669	-152.170	0.256	-0.018
-222.655	218.379	-0.092	-0.146
-221.640	-200.000	0.008	-0.192
-220.625	-20.295	-0.230	-0.140
-219.611	-29.949	-0.309	-0.174
-218.596	58.981	-0.025	0.025
-217.582	-146.837	-0.189	0.016
-216.567	-200.000	0.014	-0.231
-215.552	22.752	-0.151	-0.122
-214.538	-123.400	0.100	0.016
-213.523	-75.744	-0.010	0.004
-212.509	-141.052	0.148	-0.015
-211.494	30.545	-0.256	0.216
-210.479	-68.557	0.237	0.091
-209.465	-22.838	-0.102	0.061
-208.450	-53.006	-0.113	0.051
-207.436	14.295	0.084	-0.064
-206.421	-105.898	0.207	0.046
-205.406	-20.676	0.222	0.135
-204.392	-125.099	-0.178	-0.027
-203.377	-200.000	0.048	-0.433
-202.363	-12.823	0.072	-0.046
-201.348	-200.000	0.017	0.261
-200.333	800.000	0.132	0.435
-199.319	-111.229	-0.264	-0.053
-198.304	-30.327	0.088	0.049
-197.290	176.505	0.064	0.091
-196.275	-54.554	-0.364	-0.162
-195.260	-98.337	0.265	-0.067
-194.246	-26.836	0.074	0.043
-193.231	62.553	0.093	0.092
-192.217	277.540	-0.250	-0.439
-191.202	55.923	-0.073	0.070
-190.187	800.000	-0.061	-0.199
-189.173	-184.712	-0.351	-0.006
-188.158	-71.986	-0.188	-0.069
-187.144	-137.274	-0.120	-0.013
-186.129	-200.000	-0.048	0.212
-185.114	422.220	-0.045	-0.095
-184.100	235.768	-0.118	-0.193
-183.085	-173.677	-0.088	-0.003
-182.071	2.070	0.281	0.200
-181.056	139.721	0.103	0.134
-180.042	34.038	-0.036	0.031
-179.027	-50.983	-0.213	-0.099
-178.012	-62.922	0.083	0.034
-176.998	-200.000	-0.024	-0.219
-175.983	-83.297	0.044	0.014
-174.969	254.940	-0.203	-0.343
-173.954	-63.796	-0.174	0.070
-172.939	-94.570	0.460	0.123
-171.925	-156.797	0.287	0.017
-170.910	-54.903	0.135	0.060
-169.896	800.000	0.030	0.105
-168.881	800.000	-0.094	-0.255
-167.866	125.366	0.150	-0.187
-166.852	-27.574	0.260	0.149
-165.837	-200.000	0.038	0.369
-164.823	-200.000	-0.032	0.176
-163.808	-200.000	0.038	0.332
-162.793	202.785	-0.149	0.227
-161.779	741.888	0.117	0.310
-160.764	219.212	-0.074	-0.116
-159.750	206.513	-0.051	-0.078
-158.735	-79.605	0.185	0.062
-157.720	-18.191	-0.274	-0.169
-156.706	5.681	-0.105	0.077
-155.691	-9.576	-0.147	-0.096
-154.677	-45.329	0.194	-0.095
-153.662	277.583	0.055	0.097
-152.647	-11.026	0.291	-0.189
-151.633	-30.322	0.117	-0.065
-150.618	157.312	0.046	0.062
-149.604	800.000	0.112	0.403
-148.589	-200.000	-0.017	0.078
-147.574	798.010	-0.100	-0.272
-146.560	-114.783	-0.202	0.038
-145.545	448.815	-0.033	0.072
-144.531	-129.680	0.334	0.045
-143.516	-53.895	-0.081	0.037
-142.502	-200.000	-0.010	-0.224
-141.487	250.780	0.041	0.068
-140.472	27.379	0.162	-0.134
-139.458	-82.913	-0.227	-0.072
-138.443	-200.000	-0.018	0.212
-137.429	-111.131	0.176	-0.036
-136.414	-154.594	0.476	0.031
-135.399	-61.506	0.198	-0.082
-134.385	-200.000	-0.008	-0.104
-133.370	-21.764	-0.257	0.154
-132.356	49.635	-0.072	0.067
-131.341	393.343	0.096	-0.197
-130.326	246.315	-0.077	-0.128
-129.312	-200.000	0.001	-0.133
-128.297	-200.000	-0.000	-0.037
-127.283	0.202	-0.144	0.101
-126.268	-47.625	-0.173	0.083
-125.253	-200.000	-0.004	-0.144
-124.239	27.238	-0.230	0.190
-123.224	-74.396	-0.185	-0.065
-122.210	-22.517	-0.194	-0.116
