DTS Sentinel unit serial number:	SN413079Multiplexer serial number:	ORYXHardware model number:	OX4-SRSoftware version number:	ORYX F/W v4.00 Oryx Data Collector v3.7.2.0data status	okinstallation	princeton_trtdifferential loss correction	single-endedforward channel	channel 2reverse channel	N/Adate	2019/09/18time	13:19:35forward acquisition time	60.00reverse acquisition time	0.00gamma	496.2192k internal	0.2319k external	0.2319temperature offset calibration	0.9994default loss term (dB/km)	0.3790temperature slope calibration	1.0000multiplexer offset coefficient	1.0000multiplexer slope coefficient	1.0000fibre end	0.00T internal ref (°C)	34.08T ext. ref 1 (°C)	0.60T ext. ref 2 (°C)	29.60length (m)	temperature (°C)	Stokes	anti-Stokes-747.200	-110.333	-0.089	0.019
-746.185	-43.742	-0.150	0.077
-745.171	-122.128	0.184	0.031
-744.156	229.623	0.033	0.054
-743.142	-28.023	0.385	-0.225
-742.127	465.688	-0.098	0.221
-741.112	73.278	-0.162	0.172
-740.098	603.684	-0.116	0.293
-739.083	-200.000	-0.000	0.208
-738.069	-171.752	0.174	-0.006
-737.054	160.679	-0.081	-0.114
-736.039	-200.000	-0.063	-0.349
-735.025	-200.000	-0.021	-0.231
-734.010	208.705	-0.032	0.051
-732.996	646.796	-0.103	0.266
-731.981	-157.682	0.328	-0.020
-730.966	-63.409	-0.209	-0.087
-729.952	-155.105	-0.202	-0.013
-728.937	800.000	-0.066	-0.231
-727.923	-200.000	-0.040	-0.235
-726.908	-200.000	0.037	0.272
-725.894	800.000	0.084	0.238
-724.879	-200.000	-0.015	0.084
-723.864	-93.037	0.074	0.021
-722.850	-81.798	-0.140	-0.046
-721.835	-82.556	-0.528	-0.173
-720.821	-71.432	0.528	0.200
-719.806	-200.000	-0.026	0.165
-718.791	-200.000	-0.014	0.142
-717.777	406.077	-0.025	-0.054
-716.762	25.638	-0.062	-0.052
-715.748	-63.582	0.272	0.113
-714.733	-74.611	0.090	0.033
-713.718	-200.000	-0.023	0.172
-712.704	568.102	0.144	-0.353
-711.689	-93.995	-0.269	0.075
-710.675	46.916	0.363	0.341
-709.660	18.468	0.103	-0.083
-708.645	-136.129	0.132	-0.016
-707.631	-74.146	-0.306	0.112
-706.616	11.560	-0.055	-0.042
-705.602	-200.000	-0.049	-0.354
-704.587	210.049	0.076	0.120
-703.572	51.259	-0.125	-0.120
-702.558	-132.081	-0.071	0.009
-701.543	-18.771	-0.395	0.248
-700.529	-41.196	0.137	-0.071
-699.514	-200.000	-0.021	-0.170
-698.499	185.821	-0.194	-0.291
-697.485	112.290	-0.249	-0.305
-696.470	-200.000	-0.016	0.089
-695.456	-12.427	0.073	0.048
-694.441	397.042	0.040	-0.084
-693.426	-81.289	-0.268	0.089
-692.412	-8.594	-0.092	-0.062
-691.397	-100.442	0.085	-0.021
-690.383	-200.000	0.003	-0.063
-689.368	-191.799	-0.511	0.005
-688.354	-200.000	0.002	-0.084
-687.339	-165.401	-0.063	-0.003
-686.324	-200.000	-0.008	-0.054
-685.310	-200.000	-0.019	-0.246
-684.295	-40.122	-0.090	0.047
-683.281	-110.382	0.108	0.023
-682.266	334.290	-0.091	0.179
-681.251	-18.869	-0.225	-0.141
-680.237	108.772	-0.181	-0.219
-679.222	-200.000	0.009	0.255
-678.208	-23.037	-0.466	0.283
-677.193	701.205	-0.083	0.221
-676.178	-82.906	-0.180	-0.059
-675.164	-200.000	0.052	0.257
-674.149	197.416	-0.258	0.398
-673.135	-110.600	0.257	-0.054
-672.120	-200.000	0.041	-0.213
-671.105	800.000	-0.045	0.144
-670.091	-200.000	0.014	-0.142
-669.076	800.000	-0.029	0.120
-668.062	160.555	-0.133	-0.187
-667.047	122.103	-0.065	-0.082
-666.032	48.932	0.208	-0.197
-665.018	74.228	-0.215	0.227
-664.003	-130.078	0.159	0.022
-662.989	4.381	-0.333	-0.246
-661.974	637.502	0.123	-0.314
-660.959	-99.654	0.322	0.082
-659.945	67.482	0.123	-0.127
-658.930	23.764	-0.076	0.063
-657.916	181.978	-0.146	-0.216
-656.901	270.374	-0.215	0.382
-655.886	-200.000	-0.002	-0.012
-654.872	-103.173	0.041	0.010
-653.857	-106.094	-0.083	0.019
-652.843	800.000	-0.095	0.404
-651.828	-165.074	0.168	0.008
-650.814	74.267	0.214	0.227
-649.799	-200.000	-0.007	-0.103
-648.784	800.000	-0.080	-0.243
-647.770	-200.000	0.043	-0.315
-646.755	800.000	-0.047	-0.144
-645.741	201.008	-0.081	0.125
-644.726	800.000	-0.041	0.126
-643.711	66.281	0.087	0.089
-642.697	-200.000	0.055	-0.244
-641.682	71.758	0.196	-0.205
-640.668	69.953	-0.129	-0.134
-639.653	-200.000	0.036	0.284
-638.638	52.938	0.130	-0.125
-637.624	-70.940	-0.204	-0.077
-636.609	407.396	0.079	0.167
-635.595	-200.000	0.000	0.279
-634.580	800.000	0.082	0.266
-633.565	-183.936	0.225	0.004
-632.551	-122.791	-0.508	-0.083
-631.536	40.671	-0.372	-0.338
-630.522	317.066	-0.159	0.303
-629.507	-1.707	-0.194	0.138
-628.492	182.774	-0.190	0.282
-627.478	-48.142	0.243	0.118
-626.463	404.692	0.062	-0.132
-625.449	-134.497	-0.248	0.031
-624.434	23.706	0.047	-0.039
-623.419	16.106	-0.200	0.158
-622.405	-200.000	-0.003	-0.088
-621.390	216.229	-0.090	-0.144
-620.376	81.873	0.078	-0.085
-619.361	800.000	-0.019	-0.073
-618.346	800.000	0.072	-0.219
-617.332	16.619	0.281	0.224
-616.317	-200.000	-0.032	-0.315
-615.303	800.000	-0.098	-0.291
-614.288	-141.071	0.368	-0.038
-613.273	78.458	-0.016	-0.018
-612.259	8.891	-0.124	-0.094
-611.244	77.523	0.054	0.057
-610.230	41.878	-0.178	0.162
-609.215	-200.000	-0.002	0.215
-608.201	-200.000	0.030	0.319
-607.186	585.708	-0.124	0.307
-606.171	24.223	0.361	-0.300
-605.157	-82.176	0.398	-0.131
-604.142	111.912	-0.223	-0.270
-603.128	-36.527	-0.159	-0.086
-602.113	-103.805	0.223	-0.052
-601.098	38.402	-0.363	-0.325
-600.084	749.032	-0.074	-0.201
-599.069	-128.611	0.481	0.068
-598.055	-110.910	-0.268	-0.055
-597.040	593.021	0.091	-0.226
-596.025	-71.324	0.197	-0.074
-595.011	-144.954	0.214	-0.020
-593.996	129.883	-0.118	-0.152
-592.982	-39.880	0.342	-0.180
-591.967	107.962	0.159	-0.191
-590.952	-9.071	0.212	-0.143
-589.938	419.641	-0.096	0.207
-588.923	-91.324	-0.249	0.072
-587.909	-27.250	-0.323	0.189
-586.894	-200.000	0.015	-0.295
-585.879	800.000	-0.087	-0.248
-584.865	112.334	0.037	-0.046
-583.850	18.686	-0.212	-0.170
-582.836	-159.338	0.027	-0.002
-581.821	-200.000	-0.016	0.150
-580.806	-103.795	-0.412	0.097
-579.792	-171.075	-0.062	0.002
-578.777	-186.679	0.153	0.002
-577.763	455.831	-0.127	0.284
-576.748	-44.126	-0.086	0.043
-575.733	-97.350	0.388	0.101
-574.719	47.461	-0.157	-0.147
-573.704	161.604	0.107	0.151
-572.690	440.598	0.051	0.112
-571.675	463.215	0.054	-0.120
-570.661	59.793	-0.173	0.171
-569.646	-200.000	0.026	0.279
-568.631	-200.000	0.064	-0.510
-567.617	-122.959	0.249	0.040
-566.602	800.000	0.037	0.129
-565.588	102.662	0.055	-0.064
-564.573	800.000	0.019	-0.080
-563.558	75.996	-0.119	-0.127
-562.544	-200.000	-0.039	-0.215
-561.529	-200.000	-0.050	0.239
-560.515	726.235	0.170	0.456
-559.500	160.925	0.131	-0.184
-558.485	45.289	-0.142	0.132
-557.471	-200.000	0.006	-0.095
-556.456	-200.000	0.021	-0.248
-555.442	-109.784	-0.207	-0.044
-554.427	-81.553	-0.540	-0.178
-553.412	-152.315	0.257	0.019
-552.398	800.000	-0.052	-0.147
-551.383	6.035	0.022	0.017
-550.369	88.389	-0.121	0.135
-549.354	-25.397	0.145	-0.086
-548.339	-200.000	0.040	0.291
-547.325	-4.737	-0.108	0.074
-546.310	-150.111	0.083	0.006
-545.296	-78.856	-0.198	-0.068
-544.281	56.901	0.124	0.121
-543.266	55.672	-0.155	-0.151
-542.252	800.000	0.122	-0.365
-541.237	31.601	-0.157	-0.136
-540.223	800.000	0.056	-0.243
-539.208	-107.649	-0.323	0.071
-538.193	-200.000	0.006	0.043
-537.179	-128.605	0.008	-0.001
-536.164	2.759	-0.141	0.102
-535.150	15.656	0.124	0.098
-534.135	800.000	-0.091	-0.262
-533.121	311.581	-0.097	-0.183
-532.106	-131.945	0.300	0.039
-531.091	-200.000	0.015	0.197
-530.077	800.000	-0.053	-0.194
-529.062	-83.045	0.082	-0.026
-528.048	618.956	-0.055	0.139
-527.033	-200.000	0.057	-0.269
-526.018	182.376	0.124	0.183
-525.004	-59.889	-0.110	0.047
-523.989	-81.289	-0.350	0.116
-522.975	68.124	0.186	-0.191
-521.960	-200.000	-0.029	-0.309
-520.945	-144.512	0.277	0.026
-519.931	-108.834	0.314	-0.067
-518.916	-109.534	0.259	-0.055
-517.902	269.431	-0.046	0.081
-516.887	-77.315	-0.191	-0.067
-515.872	463.223	-0.018	-0.041
-514.858	202.750	-0.137	0.212
-513.843	59.065	0.368	-0.363
-512.829	524.453	0.041	0.097
-511.814	-125.805	-0.279	-0.042
-510.799	94.740	-0.166	-0.189
-509.785	22.991	0.182	-0.150
-508.770	-95.172	0.181	0.049
-507.756	-82.640	-0.304	-0.099
-506.741	-125.655	-0.337	0.051
-505.726	630.187	-0.068	-0.172
-504.712	115.521	-0.185	0.227
-503.697	121.183	-0.141	-0.175
-502.683	-65.195	0.187	-0.075
-501.668	-88.397	0.093	0.028
-500.653	800.000	0.072	-0.305
-499.639	-106.183	-0.316	0.071
-498.624	-151.950	-0.189	0.014
-497.610	-200.000	0.014	-0.145
-496.595	143.908	0.119	-0.159
-495.581	485.034	-0.058	0.132
-494.566	51.093	0.177	0.168
-493.551	67.544	-0.152	0.156
-492.537	-97.015	-0.258	-0.068
-491.522	-57.723	-0.245	0.108
-490.508	51.497	-0.283	-0.269
-489.493	41.790	0.141	-0.128
-488.478	-200.000	0.021	-0.165
-487.464	286.152	0.065	0.117
-486.449	-161.303	0.441	0.023
-485.435	303.727	-0.164	0.305
-484.420	355.653	-0.154	0.307
-483.405	-55.892	0.103	0.046
-482.391	-38.092	0.241	0.128
-481.376	-122.652	-0.052	0.008
-480.362	-9.458	0.088	-0.059
-479.347	431.103	-0.104	0.225
-478.332	-200.000	-0.010	0.085
-477.318	6.621	-0.078	0.058
-476.303	276.378	0.125	0.222
-475.289	-107.443	0.104	-0.023
-474.274	194.295	0.054	-0.082
-473.259	348.361	-0.084	-0.166
-472.245	53.315	0.209	0.200
-471.230	-146.494	-0.285	-0.025
-470.216	-68.463	-0.137	-0.053
-469.201	-37.152	-0.188	0.101
-468.186	42.587	-0.302	0.275
-467.172	800.000	0.092	0.401
-466.157	-200.000	0.047	-0.226
-465.143	-200.000	0.057	-0.328
-464.128	-200.000	0.008	0.303
-463.113	-97.545	0.335	0.087
-462.099	800.000	-0.028	0.084
-461.084	800.000	0.060	0.238
-460.070	-109.650	0.063	-0.013
-459.055	-182.188	0.417	0.008
-458.040	-162.569	-0.253	-0.012
-457.026	-199.347	0.103	0.001
-456.011	-38.144	0.222	-0.118
-454.997	6.790	-0.122	0.091
-453.982	79.607	0.183	-0.196
-452.968	185.839	-0.081	-0.120
-451.953	392.114	-0.047	-0.097
-450.938	-162.953	-0.158	0.008
-449.924	561.967	-0.091	-0.220
-448.909	709.923	0.042	-0.112
-447.895	64.729	-0.189	-0.190
-446.880	-200.000	-0.018	-0.112
-445.865	-108.571	0.413	-0.089
-444.851	800.000	0.105	-0.322
-443.836	800.000	0.063	-0.242
-442.822	-200.000	0.034	-0.197
-441.807	-41.263	-0.183	-0.094
-440.792	-122.387	-0.113	-0.018
-439.778	-120.968	0.123	-0.021
-438.763	-134.418	-0.095	0.012
-437.749	423.888	-0.062	-0.134
-436.734	-85.921	0.200	-0.062
-435.719	-60.713	-0.120	0.051
-434.705	235.933	0.186	-0.307
-433.690	-191.358	-0.261	-0.003
-432.676	90.267	-0.184	-0.206
-431.661	339.395	0.144	0.281
-430.646	96.634	0.125	-0.143
-429.632	-200.000	-0.008	-0.123
-428.617	800.000	-0.072	0.274
-427.603	502.294	-0.072	-0.166
-426.588	-42.649	0.055	0.028
-425.573	-58.663	-0.196	-0.085
-424.559	800.000	-0.107	-0.362
-423.544	147.239	0.043	0.058
-422.530	435.339	-0.045	-0.098
-421.515	-99.281	0.138	0.035
-420.500	800.000	-0.085	-0.332
-419.486	-119.945	-0.197	0.034
-418.471	-161.352	-0.470	0.024
-417.457	75.047	0.178	0.187
-416.442	114.507	-0.078	0.095
-415.428	-75.263	-0.186	0.066
-414.413	-64.223	-0.098	0.040
-413.398	-128.074	0.143	0.021
-412.384	-149.980	-0.257	0.020
-411.369	800.000	0.063	-0.202
-410.355	-47.125	0.141	0.069
-409.340	282.500	-0.227	-0.407
-408.325	-200.000	0.008	-0.298
-407.311	170.520	-0.080	-0.115
-406.296	172.563	0.216	0.311
-405.282	-137.752	-0.102	0.011
-404.267	-14.208	0.114	0.073
-403.252	33.628	-0.090	0.078
-402.238	-83.560	-0.304	0.097
-401.223	-91.709	0.262	0.074
-400.209	-73.453	-0.125	0.046
-399.194	-100.911	-0.079	0.019
-398.179	313.986	0.034	0.065
-397.165	800.000	-0.067	-0.204
-396.150	-200.000	0.043	0.229
-395.136	-200.000	0.044	-0.231
-394.121	800.000	0.096	0.348
-393.106	-200.000	-0.006	-0.122
-392.092	-138.021	-0.062	-0.007
-391.077	-71.912	-0.361	-0.134
-390.063	-45.019	-0.082	0.041
-389.048	-133.061	-0.158	-0.020
-388.033	-59.124	-0.144	0.062
-387.019	259.728	0.059	0.101
-386.004	800.000	0.073	-0.209
-384.990	178.811	-0.128	0.187
-383.975	-2.381	0.255	-0.178
-382.960	71.471	0.085	-0.088
-381.946	583.648	-0.172	0.422
-380.931	-105.216	0.129	0.029
-379.917	-51.292	-0.294	-0.137
-378.902	-200.000	0.000	-0.093
-377.888	-200.000	-0.034	0.287
-376.873	49.506	-0.147	0.138
-375.858	155.625	-0.192	-0.264
-374.844	-12.077	0.139	-0.091
-373.829	-111.790	-0.358	0.072
-372.815	475.839	0.122	-0.275
-371.800	294.364	0.044	0.080
-370.785	-94.151	0.106	0.029
-369.771	37.248	-0.297	-0.262
-368.756	-83.459	0.276	0.088
-367.742	-200.000	-0.026	0.289
-366.727	-65.519	0.212	0.085
-365.712	800.000	-0.003	0.010
-364.698	-81.387	0.159	-0.052
-363.683	-15.838	-0.187	-0.119
-362.669	800.000	0.097	-0.361
-361.654	800.000	0.057	-0.230
-360.639	-200.000	-0.037	0.327
-359.625	800.000	0.083	-0.311
-358.610	-200.000	-0.001	0.106
-357.596	154.136	0.081	0.111
-356.581	-117.992	-0.083	0.015
-355.566	472.407	0.148	0.333
-354.552	800.000	-0.032	-0.137
-353.537	-21.706	-0.253	0.153
-352.523	-66.053	0.272	0.108
-351.508	7.115	-0.069	-0.051
-350.493	194.348	-0.413	0.624
-349.479	-195.449	-0.518	0.004
-348.464	800.000	0.067	0.240
-347.450	327.084	-0.070	0.133
-346.435	-200.000	0.025	-0.336
-345.420	-143.068	-0.273	0.026
-344.406	125.087	-0.172	-0.216
-343.391	522.810	0.116	-0.272
-342.377	-45.271	-0.025	-0.012
-341.362	-64.023	-0.044	0.018
-340.348	-200.000	0.009	0.074
-339.333	-15.490	0.398	-0.253
-338.318	-5.203	0.178	-0.122
-337.304	-115.604	-0.184	-0.034
-336.289	-112.948	0.128	0.025
-335.275	228.874	0.081	-0.132
-334.260	800.000	0.065	0.276
-333.245	55.385	0.094	0.091
-332.231	98.010	0.081	0.093
-331.216	-200.000	-0.007	-0.294
-330.202	-86.100	-0.154	0.047
-329.187	-200.000	-0.035	0.155
-328.172	195.995	-0.141	0.214
-327.158	-89.363	0.324	0.095
-326.143	-106.387	-0.164	-0.036
-325.129	16.249	-0.188	-0.147
-324.114	800.000	0.032	0.121
-323.099	-46.069	0.220	0.108
-322.085	32.528	-0.195	0.167
-321.070	-16.480	0.181	-0.114
-320.056	143.393	-0.142	-0.188
-319.041	-200.000	0.033	-0.272
-318.026	-200.000	-0.013	0.281
-317.012	-136.030	0.275	-0.032
-315.997	438.394	0.170	0.370
-314.983	-47.932	0.293	-0.141
-313.968	207.280	0.140	-0.217
-312.953	99.654	-0.107	-0.123
-311.939	103.021	-0.229	0.267
-310.924	506.044	0.033	-0.076
-309.910	-183.468	0.148	0.003
-308.895	-200.000	-0.077	0.346
-307.880	-83.003	-0.062	-0.020
-306.866	-200.000	-0.027	-0.324
-305.851	-200.000	-0.007	-0.310
-304.837	-200.000	-0.047	0.246
-303.822	227.542	-0.079	0.127
-302.807	-18.273	0.050	0.031
-301.793	-200.000	-0.015	0.123
-300.778	-102.320	0.320	0.076
-299.764	800.000	-0.043	0.182
-298.749	594.404	-0.031	0.075
-297.735	-81.168	0.216	0.071
-296.720	194.559	0.265	0.400
-295.705	800.000	0.059	-0.173
-294.691	-24.354	-0.143	0.085
-293.676	800.000	-0.119	0.332
-292.662	-98.842	-0.032	-0.008
-291.647	19.793	0.266	0.213
-290.632	54.406	-0.061	0.058
-289.618	-187.361	0.409	-0.005
-288.603	587.148	-0.151	0.370
-287.589	77.094	0.137	0.145
-286.574	-38.357	-0.064	-0.034
-285.559	100.597	0.183	0.211
-284.545	-57.797	-0.168	0.073
-283.530	107.475	-0.070	0.082
-282.516	96.961	0.023	-0.026
-281.501	475.097	-0.125	0.280
-280.486	595.714	-0.016	-0.038
-279.472	-108.956	-0.055	0.012
-278.457	357.124	-0.066	0.130
-277.443	-79.914	0.122	-0.041
-276.428	-47.059	0.270	-0.131
-275.413	-109.923	0.210	-0.044
-274.399	12.580	-0.102	-0.078
-273.384	-60.196	0.086	-0.036
-272.370	800.000	0.012	0.044
-271.355	90.329	-0.283	-0.314
-270.340	-43.373	0.158	0.079
-269.326	-101.046	0.136	0.033
-268.311	56.233	-0.162	-0.157
-267.297	180.473	0.234	0.341
-266.282	800.000	0.074	0.212
-265.267	-142.450	-0.120	-0.012
-264.253	148.136	0.199	-0.266
-263.238	135.110	0.187	0.242
-262.224	110.120	-0.199	-0.237
-261.209	-60.307	0.337	0.143
-260.195	-90.186	-0.188	-0.054
-259.180	211.146	-0.120	0.187
-258.165	-46.944	0.330	0.160
-257.151	-200.000	0.000	0.288
-256.136	199.272	-0.061	-0.093
-255.122	-105.411	-0.352	0.080
-254.107	-200.000	0.027	0.264
-253.092	-164.631	0.043	-0.002
-252.078	415.079	-0.185	-0.391
-251.063	-200.000	0.046	0.482
-250.049	61.814	0.068	0.067
-249.034	-4.645	-0.134	-0.092
-248.019	-200.000	0.040	0.237
-247.005	-16.914	-0.226	0.142
-245.990	535.307	0.128	0.302
-244.976	-116.821	-0.355	0.065
-243.961	-159.356	-0.298	-0.017
-242.946	45.054	-0.113	0.103
-241.932	-126.220	-0.116	-0.017
-240.917	-200.000	0.037	0.172
-239.903	390.766	-0.093	0.191
-238.888	-131.411	-0.296	0.039
-237.873	-94.435	0.423	0.114
-236.859	127.356	-0.124	0.156
-235.844	77.563	0.148	0.157
-234.830	-200.000	0.015	-0.111
-233.815	29.980	0.075	-0.063
-232.800	-73.762	-0.069	-0.025
-231.786	202.329	0.181	0.277
-230.771	-200.000	-0.015	0.085
-229.757	-110.403	-0.340	0.070
-228.742	-13.858	0.198	-0.127
-227.727	79.919	0.119	-0.127
-226.713	185.180	0.074	-0.108
-225.698	800.000	-0.044	-0.179
-224.684	800.000	-0.128	0.417
-223.669	-110.917	-0.278	-0.057
-222.655	800.000	-0.110	-0.338
-221.640	222.263	-0.081	0.130
-220.625	-62.929	0.236	-0.097
-219.611	2.806	0.212	0.153
-218.596	-200.000	0.026	0.145
-217.582	-200.000	-0.007	0.056
-216.567	800.000	-0.103	-0.328
-215.552	-59.828	0.263	-0.111
-214.538	-200.000	-0.075	0.385
-213.523	-40.566	0.214	-0.110
-212.509	-14.779	0.142	-0.090
-211.494	75.963	-0.373	-0.391
-210.479	-39.229	0.076	0.040
-209.465	-93.556	0.172	0.047
-208.450	-104.419	0.218	0.050
-207.436	-200.000	-0.013	-0.093
-206.421	581.904	0.103	-0.251
-205.406	33.369	0.259	-0.223
-204.392	-85.132	-0.276	-0.085
-203.377	-200.000	-0.036	-0.256
-202.363	-101.321	-0.216	-0.052
-201.348	-195.326	0.249	-0.002
-200.333	-45.164	0.486	-0.239
-199.319	-200.000	-0.024	-0.154
-198.304	236.747	0.091	-0.149
-197.290	234.791	0.164	0.268
-196.275	177.932	0.086	-0.124
-195.260	161.114	-0.137	0.189
-194.246	-24.059	0.387	-0.229
-193.231	-12.923	0.078	-0.050
-192.217	-91.703	-0.145	-0.041
-191.202	-200.000	-0.007	-0.236
-190.187	176.252	-0.091	-0.131
-189.173	63.145	0.187	0.185
-188.158	-200.000	-0.024	-0.189
-187.144	-118.261	0.316	0.056
-186.129	657.422	0.056	-0.143
-185.114	56.645	0.082	0.079
-184.100	25.976	0.225	0.186
-183.085	800.000	0.054	0.159
-182.071	-30.233	-0.306	0.172
-181.056	506.929	0.142	0.325
-180.042	-200.000	-0.034	-0.364
-179.027	-200.000	-0.071	0.488
-178.012	400.174	0.165	0.343
-176.998	95.751	-0.070	0.079
-175.983	-200.000	-0.005	-0.060
-174.969	441.526	0.032	-0.069
-173.954	393.587	-0.027	0.056
-172.939	-156.839	0.226	0.014
-171.925	800.000	-0.117	-0.432
-170.910	800.000	0.048	0.183
-169.896	-48.110	0.225	0.108
-168.881	63.997	0.149	0.148
-167.866	-65.482	0.157	0.062
-166.852	480.364	0.005	0.011
-165.837	74.839	-0.045	0.047
-164.823	155.317	0.156	0.212
-163.808	-200.000	-0.002	0.109
-162.793	-158.353	0.182	-0.010
-161.779	-200.000	0.061	-0.329
-160.764	800.000	-0.056	0.236
-159.750	-138.937	-0.314	0.034
-158.735	334.265	-0.175	0.336
-157.720	-112.241	-0.088	0.018
-156.706	106.593	0.128	0.150
-155.691	-120.556	-0.257	0.043
-154.677	148.346	0.231	-0.308
-153.662	800.000	0.065	-0.240
-152.647	-200.000	0.009	-0.044
-151.633	65.978	0.267	0.267
-150.618	587.355	-0.040	0.097
-149.604	365.161	-0.173	0.344
-148.589	68.521	-0.205	0.207
-147.574	116.489	-0.208	0.252
-146.560	-200.000	-0.045	-0.296
-145.545	-200.000	-0.078	-0.418
-144.531	37.652	0.373	0.327
-143.516	12.228	0.175	-0.133
-142.502	-5.558	-0.119	0.081
-141.487	120.880	0.159	-0.196
-140.472	-44.974	-0.248	0.122
-139.458	-200.000	0.020	0.124
-138.443	-161.906	-0.355	-0.018
-137.429	282.990	0.054	-0.097
-136.414	120.393	0.058	-0.071
-135.399	-200.000	-0.028	0.182
-134.385	-108.184	0.413	0.088
-133.370	-63.758	0.099	-0.040
-132.356	-200.000	0.004	0.150
-131.341	-41.698	-0.276	0.140
-130.326	83.489	-0.240	0.259
-129.312	-81.850	-0.482	-0.156
-128.297	-46.099	-0.035	-0.017
-127.283	-200.000	-0.022	0.145
-126.268	-42.089	-0.060	0.030
-125.253	-200.000	-0.014	0.076
-124.239	-200.000	0.034	-0.438
-123.224	-37.946	-0.112	-0.059
-122.210	74.646	-0.214	0.222
