DTS Sentinel unit serial number:	SN413079Multiplexer serial number:	ORYXHardware model number:	OX4-SRSoftware version number:	ORYX F/W v4.00 Oryx Data Collector v3.7.2.0data status	okinstallation	princeton_trtdifferential loss correction	single-endedforward channel	channel 2reverse channel	N/Adate	2019/09/16time	08:27:34forward acquisition time	60.00reverse acquisition time	0.00gamma	496.2192k internal	0.2328k external	0.2328temperature offset calibration	0.9978default loss term (dB/km)	0.3790temperature slope calibration	1.0000multiplexer offset coefficient	1.0000multiplexer slope coefficient	1.0000fibre end	0.00T internal ref (°C)	29.20T ext. ref 1 (°C)	11.89T ext. ref 2 (°C)	25.72length (m)	temperature (°C)	Stokes	anti-Stokes-747.200	107.377	0.038	-0.045
-746.185	-37.367	0.144	0.077
-745.171	-165.207	0.185	0.008
-744.156	-21.359	-0.303	0.186
-743.142	82.734	0.170	0.186
-742.127	-97.159	-0.262	0.069
-741.112	142.377	-0.024	0.032
-740.098	-200.000	0.011	0.229
-739.083	-200.000	0.030	0.242
-738.069	-91.410	-0.215	0.062
-737.054	-138.900	-0.065	-0.007
-736.039	315.249	-0.041	-0.078
-735.025	-194.665	0.287	-0.002
-734.010	-107.974	-0.131	0.029
-732.996	-150.877	-0.465	-0.035
-731.981	800.000	0.019	-0.065
-730.966	171.619	0.064	0.093
-729.952	331.375	-0.087	-0.168
-728.937	228.929	-0.116	-0.190
-727.923	-200.000	0.034	-0.236
-726.908	310.289	0.055	-0.104
-725.894	21.524	0.242	0.198
-724.879	-90.156	-0.105	-0.031
-723.864	311.086	-0.115	-0.218
-722.850	-49.220	-0.050	-0.024
-721.835	-70.608	-0.071	0.027
-720.821	-128.484	-0.121	-0.017
-719.806	-66.945	-0.016	-0.006
-718.791	-152.475	0.239	0.017
-717.777	619.894	-0.144	-0.364
-716.762	800.000	0.038	-0.121
-715.748	-126.535	0.197	-0.029
-714.733	-154.895	-0.146	-0.010
-713.718	184.861	0.208	0.310
-712.704	115.852	0.059	-0.073
-711.689	-71.799	0.156	0.058
-710.675	-200.000	0.009	-0.376
-709.660	-128.963	0.033	0.005
-708.645	60.024	0.160	0.159
-707.631	222.632	-0.175	0.283
-706.616	-35.706	-0.434	-0.237
-705.602	-200.000	0.020	0.203
-704.587	270.132	0.060	-0.106
-703.572	-11.142	-0.049	0.032
-702.558	800.000	-0.062	0.188
-701.543	-56.379	-0.192	-0.086
-700.529	-104.031	0.457	0.107
-699.514	296.849	-0.106	-0.195
-698.499	-59.319	-0.451	0.195
-697.485	175.819	-0.075	-0.109
-696.470	-34.547	-0.171	-0.094
-695.456	-200.000	0.025	-0.307
-694.441	-200.000	0.030	-0.210
-693.426	-53.340	-0.191	-0.088
-692.412	-116.658	0.180	0.033
-691.397	79.129	-0.243	0.262
-690.383	-200.000	-0.031	0.184
-689.368	71.069	0.050	-0.052
-688.354	-42.284	-0.291	-0.149
-687.339	27.193	-0.292	-0.246
-686.324	239.752	-0.156	0.261
-685.310	2.188	0.297	-0.216
-684.295	-200.000	-0.006	-0.109
-683.281	-200.000	0.008	-0.311
-682.266	408.580	0.072	0.152
-681.251	-200.000	0.007	0.291
-680.237	19.954	0.164	-0.133
-679.222	212.548	0.037	0.059
-678.208	-107.787	-0.157	-0.034
-677.193	195.779	-0.154	0.236
-676.178	-200.000	0.016	0.198
-675.164	-58.193	-0.170	-0.074
-674.149	800.000	-0.082	-0.248
-673.135	800.000	0.031	0.091
-672.120	-55.756	-0.477	-0.214
-671.105	-181.448	-0.208	-0.004
-670.091	-43.078	0.261	-0.133
-669.076	-17.962	-0.075	0.048
-668.062	-18.214	-0.187	0.118
-667.047	-77.430	0.342	-0.119
-666.032	-200.000	0.028	-0.405
-665.018	-124.890	-0.114	0.018
-664.003	-200.000	0.016	-0.290
-662.989	-200.000	-0.047	-0.253
-661.974	217.236	-0.182	-0.291
-660.959	-29.400	0.240	-0.138
-659.945	-83.292	-0.203	0.065
-658.930	-200.000	0.025	-0.223
-657.916	588.279	-0.056	-0.137
-656.901	800.000	0.119	0.330
-655.886	491.277	-0.165	-0.379
-654.872	-200.000	0.076	-0.426
-653.857	-104.924	0.072	0.017
-652.843	13.997	-0.099	0.078
-651.828	-168.765	0.300	0.011
-650.814	-200.000	-0.024	-0.235
-649.799	463.451	-0.019	0.042
-648.784	-58.501	-0.231	-0.101
-647.770	-71.911	0.405	-0.151
-646.755	-200.000	0.022	-0.155
-645.741	-112.569	0.132	0.026
-644.726	40.543	0.200	-0.181
-643.711	-126.422	0.291	-0.044
-642.697	-200.000	0.018	0.250
-641.682	-16.214	-0.274	0.174
-640.668	-50.313	0.253	-0.120
-639.653	-2.222	-0.284	-0.200
-638.638	566.579	-0.171	0.416
-637.624	163.487	0.199	-0.281
-636.609	800.000	-0.065	0.219
-635.595	342.015	0.066	0.129
-634.580	-176.629	-0.031	0.001
-633.565	-129.100	-0.124	-0.017
-632.551	-71.867	-0.261	0.097
-631.536	288.826	-0.109	-0.198
-630.522	-144.672	-0.484	-0.045
-629.507	57.239	-0.064	-0.063
-628.492	-119.859	0.379	0.065
-627.478	-60.933	0.223	-0.095
-626.463	153.969	-0.132	0.181
-625.449	124.951	0.090	-0.114
-624.434	612.896	0.021	0.054
-623.419	274.800	0.098	-0.175
-622.405	800.000	0.058	0.173
-621.390	-200.000	-0.029	0.202
-620.376	35.690	0.081	0.072
-619.361	-200.000	-0.058	0.272
-618.346	800.000	-0.017	0.060
-617.332	-69.152	0.378	0.146
-616.317	104.180	0.108	-0.127
-615.303	-86.521	0.233	0.072
-614.288	32.978	-0.224	0.194
-613.273	-99.634	0.178	0.045
-612.259	800.000	-0.013	-0.043
-611.244	-200.000	0.051	0.247
-610.230	55.322	-0.217	0.211
-609.215	-56.795	-0.175	-0.077
-608.201	-113.881	0.288	-0.056
-607.186	127.459	-0.140	-0.178
-606.171	86.614	-0.071	-0.079
-605.157	427.442	0.085	0.184
-604.142	-94.544	0.236	-0.064
-603.128	-104.672	0.203	-0.047
-602.113	-10.293	-0.116	0.077
-601.098	-32.236	-0.280	-0.157
-600.084	800.000	-0.083	0.355
-599.069	800.000	0.086	0.350
-598.055	-71.855	-0.063	-0.024
-597.040	134.362	0.135	-0.176
-596.025	263.722	0.081	-0.141
-595.011	-15.466	-0.144	-0.092
-593.996	-77.278	-0.226	0.079
-592.982	-200.000	-0.023	-0.339
-591.967	175.926	-0.214	-0.311
-590.952	583.687	-0.083	0.204
-589.938	-20.989	-0.313	0.192
-588.923	-200.000	0.049	-0.345
-587.909	102.471	-0.038	-0.045
-586.894	416.394	-0.056	-0.119
-585.879	-27.981	-0.178	0.103
-584.865	-200.000	0.013	0.091
-583.850	-89.521	0.297	-0.087
-582.836	-100.440	-0.357	-0.089
-581.821	-200.000	-0.017	0.371
-580.806	108.103	-0.118	-0.140
-579.792	-44.415	-0.206	-0.103
-578.777	-93.786	-0.229	-0.063
-577.763	-200.000	0.028	-0.125
-576.748	-200.000	-0.044	0.286
-575.733	-129.919	-0.318	0.044
-574.719	800.000	0.068	-0.219
-573.704	197.061	0.094	-0.144
-572.690	800.000	-0.025	0.086
-571.675	-22.720	0.226	-0.137
-570.661	-131.069	0.207	-0.028
-569.646	800.000	-0.053	0.173
-568.631	50.726	-0.051	-0.049
-567.617	-150.864	-0.241	0.018
-566.602	-91.319	-0.274	0.078
-565.588	157.412	-0.129	0.178
-564.573	116.161	0.069	-0.085
-563.558	-150.243	-0.210	-0.016
-562.544	103.699	-0.108	-0.127
-561.529	149.311	-0.075	-0.101
-560.515	94.021	-0.201	-0.228
-559.500	-65.473	-0.161	-0.065
-558.485	800.000	-0.070	0.226
-557.471	251.516	0.291	0.495
-556.456	166.028	0.086	0.122
-555.442	-128.336	0.058	-0.008
-554.427	10.405	-0.209	-0.159
-553.412	-200.000	0.004	0.073
-552.398	-75.293	0.240	0.086
-551.383	-200.000	0.019	0.212
-550.369	-37.993	0.100	-0.053
-549.354	-200.000	-0.076	-0.400
-548.339	24.102	-0.360	-0.297
-547.325	800.000	-0.142	-0.528
-546.310	-108.814	0.086	0.018
-545.296	-104.322	0.483	0.112
-544.281	800.000	-0.086	-0.331
-543.266	-27.278	-0.254	0.148
-542.252	251.371	0.115	0.195
-541.237	633.870	0.085	0.215
-540.223	-200.000	-0.025	-0.136
-539.208	214.771	-0.299	0.474
-538.193	145.441	-0.058	-0.077
-537.179	38.131	0.039	-0.034
-536.164	-102.432	0.249	0.060
-535.150	237.353	0.065	0.107
-534.135	-200.000	0.057	-0.301
-533.121	800.000	-0.059	0.171
-532.106	-16.810	-0.261	0.165
-531.091	-82.542	-0.296	-0.096
-530.077	-91.571	-0.125	-0.035
-529.062	56.290	0.209	0.203
-528.048	-34.639	-0.206	0.113
-527.033	-200.000	0.015	-0.298
-526.018	108.727	-0.037	0.044
-525.004	-176.491	-0.113	-0.003
-523.989	163.158	-0.075	0.105
-522.975	800.000	0.062	-0.269
-521.960	800.000	0.085	0.273
-520.945	538.970	-0.211	-0.502
-519.931	338.255	0.148	-0.288
-518.916	-200.000	0.030	-0.274
-517.902	-131.241	-0.101	-0.013
-516.887	51.010	0.151	0.143
-515.872	-68.930	0.118	-0.046
-514.858	29.882	0.103	0.087
-513.843	-66.763	0.189	0.075
-512.829	-200.000	-0.005	-0.172
-511.814	-169.010	-0.181	0.007
-510.799	-151.366	-0.071	-0.005
-509.785	-49.597	-0.183	-0.087
-508.770	-46.942	-0.181	-0.088
-507.756	-51.561	-0.268	-0.125
-506.741	-115.243	0.193	0.037
-505.726	-59.615	0.249	-0.107
-504.712	778.773	0.177	-0.483
-503.697	-89.955	-0.467	0.136
-502.683	631.106	-0.114	0.288
-501.668	442.757	0.112	-0.245
-500.653	-142.606	-0.313	0.031
-499.639	722.581	0.008	0.022
-498.624	412.317	-0.022	-0.048
-497.610	131.195	-0.087	0.112
-496.595	179.809	-0.065	0.096
-495.581	-104.577	-0.209	-0.048
-494.566	-111.410	0.014	0.003
-493.551	369.360	-0.144	-0.291
-492.537	41.579	0.172	-0.156
-491.522	400.472	-0.091	-0.191
-490.508	217.860	-0.029	0.046
-489.493	800.000	0.127	0.372
-488.478	-64.994	-0.306	0.123
-487.464	188.664	0.072	-0.108
-486.449	110.788	-0.066	0.079
-485.435	-200.000	-0.025	-0.205
-484.420	231.488	0.133	-0.218
-483.405	800.000	-0.065	0.200
-482.391	-200.000	0.006	0.067
-481.376	125.772	-0.147	0.185
-480.362	-145.818	0.339	-0.030
-479.347	-18.968	-0.171	0.106
-478.332	-3.521	0.058	-0.041
-477.318	-200.000	0.140	0.000
-476.303	80.252	0.086	-0.092
-475.289	48.209	0.162	-0.151
-474.274	-80.106	-0.061	-0.021
-473.259	-82.860	0.393	0.126
-472.245	-200.000	-0.018	0.484
-471.230	-82.956	-0.554	0.178
-470.216	21.200	-0.073	0.059
-469.201	800.000	-0.079	0.237
-468.186	-71.666	-0.380	0.141
-467.172	670.986	0.054	-0.139
-466.157	-52.880	0.337	0.155
-465.143	403.795	-0.062	-0.131
-464.128	800.000	-0.088	-0.370
-463.113	800.000	-0.053	-0.148
-462.099	-200.000	-0.006	-0.308
-461.084	194.001	-0.091	0.137
-460.070	-99.059	-0.114	-0.029
-459.055	-200.000	-0.002	-0.299
-458.040	26.723	-0.247	-0.206
-457.026	-28.750	0.297	0.170
-456.011	-8.270	-0.055	-0.037
-454.997	74.408	0.207	0.217
-453.982	47.507	0.116	-0.108
-452.968	218.636	-0.092	-0.147
-451.953	-108.220	0.084	0.018
-450.938	167.244	-0.100	0.142
-449.924	-34.862	0.129	-0.070
-448.909	-200.000	-0.009	0.263
-447.895	-200.000	0.005	-0.023
-446.880	-125.669	-0.121	-0.018
-445.865	256.162	0.210	0.360
-444.851	-128.806	-0.131	0.018
-443.836	110.088	-0.040	-0.048
-442.822	29.264	-0.291	0.246
-441.807	227.866	0.125	-0.203
-440.792	-36.621	-0.237	-0.127
-439.778	200.346	0.215	-0.328
-438.763	-78.842	-0.433	0.147
-437.749	402.308	-0.087	-0.181
-436.734	-200.000	0.045	-0.268
-435.719	-200.000	-0.010	0.148
-434.705	-200.000	0.039	0.363
-433.690	76.479	-0.074	0.079
-432.676	-23.926	0.033	-0.020
-431.661	417.921	-0.143	-0.305
-430.646	351.825	0.071	0.140
-429.632	-48.301	-0.011	0.005
-428.617	-34.457	0.118	0.065
-427.603	-123.632	-0.219	-0.035
-426.588	-57.380	0.298	0.130
-425.573	-87.556	-0.080	0.024
-424.559	82.140	0.204	-0.220
-423.544	-28.670	-0.150	-0.086
-422.530	138.832	-0.151	0.198
-421.515	-200.000	-0.091	-0.000
-420.500	-53.469	0.269	0.123
-419.486	109.838	-0.041	-0.048
-418.471	-16.674	-0.129	-0.081
-417.457	800.000	-0.057	0.202
-416.442	12.339	-0.076	0.058
-415.428	-83.056	-0.217	0.069
-414.413	-200.000	-0.017	0.082
-413.398	-35.616	-0.122	-0.066
-412.384	22.820	-0.077	0.063
-411.369	-200.000	-0.064	0.418
-410.355	800.000	0.064	-0.250
-409.340	-106.765	-0.373	0.082
-408.325	-86.705	0.365	0.111
-407.311	323.492	0.156	-0.296
-406.296	-27.328	0.371	-0.215
-405.282	397.937	-0.179	0.373
-404.267	95.821	-0.265	0.301
-403.252	-90.064	-0.187	0.054
-402.238	403.183	0.305	0.638
-401.223	-152.558	0.218	0.015
-400.209	800.000	-0.022	-0.086
-399.194	35.473	0.285	-0.249
-398.179	131.931	0.128	0.164
-397.165	-26.152	0.189	-0.110
-396.150	227.124	0.070	0.113
-395.136	-200.000	-0.044	-0.301
-394.121	-75.796	0.337	0.119
-393.106	230.034	-0.118	-0.192
-392.092	-109.070	0.164	-0.035
-391.077	-64.215	-0.427	0.173
-390.063	-73.577	0.166	0.060
-389.048	-80.034	0.299	0.100
-388.033	414.962	0.293	0.619
-387.019	-29.415	-0.259	0.147
-386.004	207.590	0.114	0.177
-384.990	-142.096	0.289	0.029
-383.975	23.203	-0.133	-0.109
-382.960	110.437	-0.092	-0.109
-381.946	-18.028	-0.138	-0.086
-380.931	6.171	0.133	0.098
-379.917	118.445	-0.190	-0.233
-378.902	-189.344	0.335	0.004
-377.888	-200.000	-0.067	-0.849
-376.873	21.479	0.078	-0.063
-375.858	293.790	-0.144	0.261
-374.844	7.584	0.287	-0.213
-373.829	253.237	0.224	-0.380
-372.815	-200.000	0.012	0.074
-371.800	24.926	-0.197	0.162
-370.785	-190.095	-0.220	0.002
-369.771	-200.000	-0.042	0.203
-368.756	-170.016	0.178	0.006
-367.742	-14.794	-0.057	-0.037
-366.727	-77.668	-0.265	0.091
-365.712	-200.000	-0.045	-0.203
-364.698	-114.498	-0.170	-0.032
-363.683	51.773	0.134	0.127
-362.669	67.537	-0.064	-0.064
-361.654	-200.000	0.045	0.214
-360.639	4.059	0.196	0.142
-359.625	-200.000	0.012	-0.322
-358.610	271.616	-0.061	0.108
-357.596	256.336	0.121	-0.206
-356.581	26.921	-0.137	0.114
-355.566	11.809	0.104	-0.080
-354.552	539.335	0.112	0.265
-353.537	195.194	0.040	-0.061
-352.523	177.476	0.123	-0.178
-351.508	81.988	0.189	0.203
-350.493	-89.150	-0.189	0.055
-349.479	-200.000	0.000	0.177
-348.464	597.239	0.033	-0.082
-347.450	800.000	0.036	-0.132
-346.435	-125.366	0.233	0.035
-345.420	-59.436	-0.129	0.055
-344.406	-189.223	-0.109	-0.001
-343.391	-80.878	0.173	0.057
-342.377	-200.000	0.068	0.403
-341.362	160.282	-0.090	0.124
-340.348	406.793	0.075	-0.156
-339.333	800.000	0.116	-0.418
-338.318	160.669	-0.174	-0.241
-337.304	189.509	-0.272	-0.405
-336.289	50.779	-0.018	0.017
-335.275	11.744	0.035	-0.027
-334.260	638.718	-0.067	-0.170
-333.245	46.905	0.330	0.305
-332.231	800.000	0.018	-0.074
-331.216	-167.190	-0.043	0.002
-330.202	-200.000	-0.018	-0.173
-329.187	800.000	0.056	0.202
-328.172	-200.000	0.076	0.363
-327.158	6.618	-0.268	-0.198
-326.143	-200.000	-0.009	-0.207
-325.129	-123.495	0.214	-0.034
-324.114	-67.522	0.395	-0.154
-323.099	-200.000	0.025	-0.277
-322.085	-90.239	-0.245	0.070
-321.070	18.938	-0.236	0.187
-320.056	-200.000	0.000	-0.117
-319.041	29.731	0.136	0.115
-318.026	386.949	0.278	0.568
-317.012	49.646	0.187	0.175
-315.997	-105.921	0.195	0.044
-314.983	-139.580	-0.096	-0.010
-313.968	-108.977	0.195	-0.041
-312.953	15.413	0.292	0.227
-311.939	72.168	-0.064	0.066
-310.924	-162.094	-0.111	-0.006
-309.910	301.352	-0.057	0.104
-308.895	-30.068	-0.128	0.072
-307.880	800.000	0.065	-0.241
-306.866	-200.000	-0.031	-0.275
-305.851	-171.054	-0.019	0.001
-304.837	-41.289	-0.320	0.163
-303.822	80.979	0.172	-0.184
-302.807	645.416	0.094	0.237
-301.793	613.452	0.100	0.247
-300.778	318.768	-0.096	-0.180
-299.764	79.112	-0.136	-0.144
-298.749	5.006	-0.260	0.190
-297.735	5.327	0.071	0.052
-296.720	800.000	-0.057	-0.166
-295.705	-110.349	0.179	-0.037
-294.691	-200.000	-0.033	-0.163
-293.676	800.000	0.042	0.135
-292.662	652.210	-0.165	0.418
-291.647	800.000	0.005	0.020
-290.632	-200.000	0.140	0.663
-289.618	-91.914	-0.167	0.047
-288.603	-163.929	-0.355	-0.016
-287.589	-25.104	0.220	-0.129
-286.574	800.000	-0.127	-0.391
-285.559	-75.482	0.349	-0.123
-284.545	-106.437	0.208	0.046
-283.530	-59.400	0.258	0.110
-282.516	-120.097	0.116	0.020
-281.501	-45.103	0.163	-0.080
-280.486	-51.584	0.196	-0.091
-279.472	303.071	0.193	0.353
-278.457	-72.435	-0.117	0.043
-277.443	-200.000	-0.078	0.495
-276.428	-83.299	-0.232	0.074
-275.413	800.000	-0.091	-0.329
-274.399	-31.592	0.069	0.038
-273.384	-62.243	-0.209	0.086
-272.370	565.538	0.053	0.128
-271.355	800.000	0.050	0.213
-270.340	722.412	-0.099	-0.260
-269.326	329.250	-0.136	-0.258
-268.311	148.943	0.186	0.248
-267.297	365.728	0.143	0.285
-266.282	133.147	0.186	-0.237
-265.267	24.353	-0.366	-0.299
-264.253	85.214	-0.287	0.312
-263.238	-200.000	0.019	-0.082
-262.224	39.255	-0.303	0.268
-261.209	326.745	0.147	-0.278
-260.195	800.000	-0.028	0.105
-259.180	-90.745	0.077	-0.022
-258.165	-35.129	-0.114	-0.061
-257.151	151.459	0.198	0.266
-256.136	-200.000	0.051	0.289
-255.122	-200.000	-0.040	0.180
-254.107	-200.000	-0.027	-0.413
-253.092	-137.535	-0.277	0.031
-252.078	-200.000	0.049	0.366
-251.063	223.418	0.109	0.175
-250.049	125.338	0.134	0.167
-249.034	96.161	0.139	-0.158
-248.019	192.653	-0.157	-0.234
-247.005	634.656	-0.030	-0.076
-245.990	-69.402	-0.021	0.008
-244.976	-148.704	-0.145	-0.012
-243.961	58.897	0.357	-0.347
-242.946	800.000	-0.087	-0.271
-241.932	121.030	0.250	0.307
-240.917	71.877	0.221	-0.227
-239.903	208.360	-0.134	-0.208
-238.888	-200.000	-0.009	0.046
-237.873	-194.442	0.087	0.001
-236.859	-42.883	0.434	0.218
-235.844	-200.000	0.024	-0.134
-234.830	-19.031	-0.158	0.097
-233.815	-65.299	-0.154	-0.061
-232.800	-190.038	-0.196	-0.002
-231.786	-145.270	-0.211	-0.019
-230.771	-200.000	-0.001	0.237
-229.757	-109.591	-0.181	0.038
-228.742	336.461	0.123	-0.235
-227.727	82.143	0.170	0.182
-226.713	-19.206	0.193	-0.118
-225.698	-104.841	-0.143	-0.032
-224.684	-200.000	0.022	0.157
-223.669	9.722	0.214	-0.161
-222.655	-186.062	-0.362	0.005
-221.640	-151.254	0.509	0.038
-220.625	800.000	0.123	0.380
-219.611	-57.992	-0.087	0.038
-218.596	126.646	0.143	-0.179
-217.582	66.234	0.165	-0.166
-216.567	-15.214	0.246	-0.156
-215.552	-82.936	0.205	-0.065
-214.538	-48.076	0.108	0.052
-213.523	64.035	-0.064	-0.063
-212.509	134.890	0.135	0.173
-211.494	75.426	0.143	0.149
-210.479	388.036	0.084	0.171
-209.465	-32.689	-0.242	0.133
-208.450	-200.000	-0.005	-0.244
-207.436	-44.923	-0.397	-0.195
-206.421	187.214	-0.145	-0.214
-205.406	273.142	-0.032	-0.055
-204.392	800.000	0.094	-0.353
-203.377	-142.089	-0.244	-0.024
-202.363	-200.000	0.023	0.196
-201.348	-200.000	-0.005	0.033
-200.333	130.412	-0.098	-0.123
-199.319	21.019	-0.070	0.056
-198.304	-85.556	0.345	-0.106
-197.290	57.383	-0.084	0.081
-196.275	204.984	-0.097	0.149
-195.260	-6.050	0.200	-0.135
-194.246	-82.639	0.277	-0.089
-193.231	238.991	0.161	-0.265
-192.217	-40.363	-0.245	0.126
-191.202	-200.000	0.033	-0.252
-190.187	-65.450	-0.340	-0.135
-189.173	-117.280	-0.146	0.026
-188.158	-90.831	-0.157	0.045
-187.144	-146.219	0.052	0.005
-186.129	-200.000	0.023	-0.370
-185.114	-200.000	-0.007	-0.103
-184.100	-133.515	0.293	-0.036
-183.085	320.032	-0.014	-0.027
-182.071	289.696	0.250	0.447
-181.056	-200.000	0.027	0.179
-180.042	-97.233	0.158	-0.041
-179.027	-129.169	-0.198	-0.027
-178.012	-100.624	-0.242	-0.059
-176.998	232.870	-0.103	-0.167
-175.983	-77.397	-0.056	-0.019
-174.969	116.255	0.208	-0.251
-173.954	64.604	0.161	-0.160
-172.939	-78.397	0.419	-0.142
-171.925	-194.121	-0.044	0.000
-170.910	800.000	0.083	-0.277
-169.896	264.028	0.057	-0.098
-168.881	529.986	0.088	0.204
-167.866	-59.654	-0.282	-0.119
-166.852	-88.654	-0.257	0.075
-165.837	166.048	0.140	0.196
-164.823	-94.332	-0.141	-0.038
-163.808	123.665	0.207	-0.256
-162.793	48.474	0.324	0.299
-161.779	-200.000	-0.066	-0.336
-160.764	109.502	0.081	-0.096
-159.750	800.000	0.107	0.404
-158.735	-7.764	0.303	0.202
-157.720	-25.995	0.154	0.089
-156.706	485.722	-0.080	-0.181
-155.691	13.969	-0.324	-0.249
-154.677	-95.231	-0.090	-0.024
-153.662	612.809	0.095	-0.235
-152.647	-26.870	0.152	0.088
-151.633	-200.000	0.011	0.151
-150.618	-4.447	-0.085	0.058
-149.604	-67.250	0.222	0.086
-148.589	89.161	0.167	0.183
-147.574	42.648	-0.263	-0.236
-146.560	-112.256	-0.483	-0.095
-145.545	21.196	-0.324	0.259
-144.531	95.839	-0.079	0.089
-143.516	534.172	-0.040	0.094
-142.502	800.000	-0.062	0.187
-141.487	-8.776	0.211	-0.139
-140.472	91.917	0.054	0.060
-139.458	-120.706	-0.595	-0.099
-138.443	345.201	-0.087	0.168
-137.429	-118.795	0.239	-0.041
-136.414	-200.000	0.021	0.327
-135.399	-200.000	0.025	0.240
-134.385	-154.862	-0.182	0.012
-133.370	-200.000	0.056	-0.389
-132.356	236.224	0.083	0.136
-131.341	800.000	0.052	0.154
-130.326	120.024	-0.160	0.195
-129.312	-75.719	0.208	-0.072
-128.297	800.000	0.116	-0.382
-127.283	684.038	0.030	0.077
-126.268	-179.304	0.678	0.015
-125.253	409.779	0.061	-0.128
-124.239	170.596	0.163	0.230
-123.224	800.000	0.011	0.035
-122.210	-86.088	0.338	0.103
