DTS Sentinel unit serial number:	SN413079Multiplexer serial number:	ORYXHardware model number:	OX4-SRSoftware version number:	ORYX F/W v4.00 Oryx Data Collector v3.7.2.0data status	okinstallation	princeton_trtdifferential loss correction	single-endedforward channel	channel 2reverse channel	N/Adate	2019/09/10time	20:45:11forward acquisition time	60.00reverse acquisition time	0.00gamma	496.2192k internal	0.2330k external	0.2330temperature offset calibration	0.9947default loss term (dB/km)	0.3790temperature slope calibration	1.0000multiplexer offset coefficient	1.0000multiplexer slope coefficient	1.0000fibre end	0.00T internal ref (°C)	31.81T ext. ref 1 (°C)	-0.31T ext. ref 2 (°C)	25.21length (m)	temperature (°C)	Stokes	anti-Stokes-747.200	731.367	-0.048	0.129
-746.185	-47.459	-0.256	0.126
-745.171	800.000	0.040	-0.123
-744.156	800.000	-0.009	0.027
-743.142	-2.066	-0.014	-0.010
-742.127	730.594	0.041	0.111
-741.112	-200.000	-0.016	-0.228
-740.098	32.346	-0.123	-0.107
-739.083	-138.385	-0.213	0.024
-738.069	108.962	-0.153	-0.184
-737.054	84.454	0.109	-0.121
-736.039	19.526	-0.368	-0.298
-735.025	-118.072	-0.105	-0.019
-734.010	553.513	-0.169	-0.409
-732.996	-200.000	-0.054	-0.447
-731.981	-71.630	-0.134	0.050
-730.966	-41.471	0.108	0.056
-729.952	-53.258	-0.176	-0.081
-728.937	-200.000	-0.014	-0.486
-727.923	-52.809	0.129	-0.060
-726.908	-200.000	-0.018	0.098
-725.894	-107.504	-0.482	0.106
-724.879	307.655	-0.043	-0.080
-723.864	-176.236	-0.322	0.008
-722.850	82.776	-0.181	-0.198
-721.835	50.270	-0.157	-0.149
-720.821	-132.839	0.147	0.019
-719.806	176.148	0.152	0.221
-718.791	27.756	-0.281	-0.238
-717.777	-38.096	0.087	0.046
-716.762	161.856	0.186	0.262
-715.748	-74.415	-0.211	0.077
-714.733	29.781	-0.154	-0.132
-713.718	800.000	0.046	-0.146
-712.704	-199.968	0.329	0.002
-711.689	-24.648	0.146	0.087
-710.675	659.680	-0.155	-0.401
-709.660	-200.000	0.006	-0.135
-708.645	52.325	0.092	0.088
-707.631	22.442	-0.250	0.205
-706.616	800.000	0.081	0.232
-705.602	-89.431	-0.075	-0.022
-704.587	799.850	-0.081	0.225
-703.572	164.071	-0.128	0.181
-702.558	4.293	0.070	0.052
-701.543	31.025	0.051	-0.044
-700.529	215.074	0.152	-0.243
-699.514	101.233	0.117	-0.137
-698.499	-200.000	0.014	0.138
-697.485	-200.000	-0.011	-0.206
-696.470	-62.752	-0.049	0.020
-695.456	50.640	0.218	0.207
-694.441	285.935	-0.099	-0.179
-693.426	-111.993	-0.133	0.027
-692.412	62.964	0.045	0.046
-691.397	-86.738	0.121	0.037
-690.383	414.935	-0.079	-0.168
-689.368	417.351	-0.103	-0.221
-688.354	105.673	-0.135	0.160
-687.339	-55.008	-0.307	0.139
-686.324	174.968	-0.186	-0.270
-685.310	-69.003	0.116	0.045
-684.295	-200.000	-0.038	-0.340
-683.281	722.476	-0.096	0.258
-682.266	-91.008	-0.483	-0.140
-681.251	-200.000	-0.014	0.353
-680.237	-26.332	-0.180	0.106
-679.222	-101.980	-0.175	-0.042
-678.208	-200.000	-0.020	-0.159
-677.193	-94.986	0.142	-0.039
-676.178	-200.000	0.019	0.299
-675.164	13.360	-0.341	-0.265
-674.149	-200.000	-0.010	0.060
-673.135	32.161	0.208	0.180
-672.120	-174.255	0.128	0.004
-671.105	-200.000	0.047	-0.267
-670.091	-78.445	-0.176	-0.061
-669.076	76.188	-0.226	-0.240
-668.062	229.113	-0.070	0.115
-667.047	490.582	0.106	0.244
-666.032	146.440	-0.123	-0.166
-665.018	-128.559	-0.262	-0.037
-664.003	-7.659	0.330	-0.224
-662.989	800.000	-0.089	0.296
-661.974	99.141	-0.170	-0.197
-660.959	-149.236	-0.195	0.016
-659.945	345.103	0.124	0.245
-658.930	800.000	0.021	0.071
-657.916	-58.693	-0.072	-0.031
-656.901	22.891	-0.372	0.306
-655.886	18.619	-0.336	0.270
-654.872	134.549	0.225	-0.293
-653.857	2.707	-0.230	-0.167
-652.843	-200.000	-0.020	0.288
-651.828	21.852	0.082	0.067
-650.814	-138.182	0.212	-0.024
-649.799	6.986	-0.116	0.087
-648.784	-96.546	0.166	0.044
-647.770	-200.000	0.011	0.058
-646.755	37.182	0.242	-0.215
-645.741	-72.797	0.034	-0.012
-644.726	194.938	-0.164	-0.250
-643.711	67.129	0.217	0.222
-642.697	-10.857	0.126	0.083
-641.682	118.193	-0.075	-0.093
-640.668	-200.000	0.016	-0.158
-639.653	191.706	-0.111	-0.167
-638.638	49.300	0.461	-0.435
-637.624	236.417	-0.021	-0.034
-636.609	-48.008	-0.098	0.048
-635.595	752.356	0.072	0.195
-634.580	598.966	-0.115	0.286
-633.565	-67.634	0.124	0.049
-632.551	41.852	-0.405	0.369
-631.536	-113.613	0.077	0.015
-630.522	800.000	-0.040	0.125
-629.507	-200.000	0.047	-0.271
-628.492	-32.552	0.088	0.049
-627.478	53.192	-0.104	-0.099
-626.463	474.045	0.031	0.069
-625.449	646.443	-0.054	-0.139
-624.434	-148.735	-0.385	-0.031
-623.419	-77.498	-0.180	-0.063
-622.405	37.700	-0.099	-0.088
-621.390	-12.178	0.362	0.237
-620.376	-80.043	-0.319	-0.107
-619.361	-43.794	0.291	0.147
-618.346	-129.007	0.251	0.035
-617.332	-62.254	0.087	-0.036
-616.317	119.375	0.106	0.131
-615.303	-128.843	-0.507	-0.071
-614.288	80.996	-0.167	-0.181
-613.273	414.367	0.127	-0.270
-612.259	-200.000	0.004	0.145
-611.244	-62.300	-0.173	-0.072
-610.230	79.450	-0.193	-0.207
-609.215	-127.203	-0.105	0.015
-608.201	252.920	-0.078	0.133
-607.186	-200.000	0.030	0.253
-606.171	186.972	-0.095	0.142
-605.157	-200.000	-0.017	-0.138
-604.142	-200.000	0.013	-0.137
-603.128	-200.000	-0.011	-0.126
-602.113	-200.000	0.027	0.135
-601.098	-182.420	0.088	-0.002
-600.084	9.942	-0.256	0.195
-599.069	800.000	0.076	-0.230
-598.055	156.907	0.033	-0.046
-597.040	-162.766	-0.243	0.012
-596.025	-85.499	0.170	-0.053
-595.011	-148.178	0.379	-0.031
-593.996	-200.000	0.047	0.255
-592.982	-83.247	0.057	-0.018
-591.967	-21.843	0.058	0.036
-590.952	-59.474	-0.237	0.102
-589.938	-200.000	0.000	0.123
-588.923	-1.930	-0.258	-0.181
-587.909	-48.681	-0.235	0.113
-586.894	229.006	0.171	-0.279
-585.879	-200.000	0.017	-0.110
-584.865	-6.684	-0.171	0.116
-583.850	-200.000	-0.000	0.081
-582.836	-178.791	-0.391	0.009
-581.821	-127.068	0.077	0.011
-580.806	-200.000	-0.011	-0.210
-579.792	138.249	-0.114	-0.150
-578.777	800.000	-0.045	0.193
-577.763	-133.964	0.074	-0.009
-576.748	-101.723	-0.121	0.029
-575.733	-188.557	0.348	0.004
-574.719	-4.231	0.136	0.094
-573.704	290.177	-0.175	0.318
-572.690	-200.000	-0.005	0.154
-571.675	-78.863	-0.141	-0.048
-570.661	-34.629	0.234	0.128
-569.646	132.166	-0.065	-0.084
-568.631	-200.000	0.051	-0.392
-567.617	288.303	-0.199	-0.360
-566.602	-132.876	0.198	-0.025
-565.588	-19.658	-0.187	-0.116
-564.573	-111.349	-0.168	-0.034
-563.558	66.030	-0.068	-0.069
-562.544	-200.000	-0.026	-0.259
-561.529	51.444	-0.365	-0.347
-560.515	-200.000	-0.011	-0.437
-559.500	-200.000	-0.006	-0.117
-558.485	-200.000	-0.002	-0.198
-557.471	75.462	0.093	0.098
-556.456	-81.082	0.188	0.062
-555.442	-200.000	-0.020	-0.105
-554.427	167.742	0.074	-0.106
-553.412	-91.309	-0.135	0.038
-552.398	800.000	-0.061	-0.186
-551.383	-98.301	0.168	0.043
-550.369	-43.963	-0.186	-0.094
-549.354	-110.169	-0.256	-0.053
-548.339	102.581	0.088	-0.102
-547.325	123.227	-0.078	0.097
-546.310	428.006	-0.066	0.142
-545.296	485.706	-0.012	0.026
-544.281	-64.509	-0.142	0.057
-543.266	-74.276	-0.311	-0.112
-542.252	11.427	-0.204	-0.157
-541.237	257.143	0.123	-0.212
-540.223	-91.452	0.245	-0.070
-539.208	800.000	0.039	0.171
-538.193	-86.652	0.059	-0.018
-537.179	-146.630	0.048	0.004
-536.164	-200.000	-0.252	0.001
-535.150	-119.800	0.210	0.036
-534.135	-147.973	0.207	-0.017
-533.121	-200.000	-0.043	-0.285
-532.106	239.842	-0.176	-0.292
-531.091	-15.812	-0.026	-0.016
-530.077	-200.000	-0.046	0.229
-529.062	800.000	0.020	0.081
-528.048	130.121	0.242	-0.309
-527.033	800.000	-0.165	0.550
-526.018	-99.100	-0.184	-0.047
-525.004	468.192	-0.062	-0.139
-523.989	125.301	0.047	-0.059
-522.975	51.484	0.078	-0.074
-521.960	800.000	-0.031	0.123
-520.945	9.766	0.174	-0.132
-519.931	42.320	-0.173	-0.157
-518.916	-25.341	0.224	-0.132
-517.902	800.000	-0.071	-0.217
-516.887	-200.000	-0.033	-0.188
-515.872	-176.752	-0.192	-0.005
-514.858	2.474	0.344	-0.248
-513.843	-25.500	-0.142	-0.084
-512.829	-200.000	0.026	-0.121
-511.814	174.135	-0.110	-0.159
-510.799	16.806	-0.280	0.221
-509.785	-133.741	0.277	-0.034
-508.770	-16.826	0.240	0.152
-507.756	420.507	-0.063	-0.135
-506.741	426.389	0.098	-0.211
-505.726	-6.686	0.200	0.136
-504.712	-95.170	0.136	0.037
-503.697	-100.635	0.405	0.100
-502.683	29.754	-0.094	-0.080
-501.668	15.711	0.094	0.074
-500.653	-200.000	0.089	-0.479
-499.639	-12.826	-0.156	-0.102
-498.624	-70.070	-0.304	-0.116
-497.610	-49.282	0.203	0.097
-496.595	-124.561	0.081	-0.013
-495.581	-81.600	-0.174	-0.057
-494.566	55.377	0.227	-0.219
-493.551	188.661	0.014	0.021
-492.537	490.193	0.144	0.328
-491.522	23.016	0.271	-0.222
-490.508	495.446	-0.056	-0.128
-489.493	-71.089	-0.330	0.124
-488.478	-102.192	0.139	-0.033
-487.464	274.367	-0.064	-0.112
-486.449	-34.540	-0.182	-0.099
-485.435	800.000	-0.055	-0.223
-484.420	593.706	-0.131	-0.323
-483.405	-200.000	0.008	-0.047
-482.391	-200.000	-0.041	-0.233
-481.376	-200.000	0.024	0.114
-480.362	-63.645	-0.060	-0.024
-479.347	800.000	-0.018	0.059
-478.332	800.000	0.021	0.083
-477.318	166.326	0.090	0.128
-476.303	-200.000	-0.037	0.231
-475.289	9.822	-0.164	-0.124
-474.274	800.000	-0.086	-0.255
-473.259	-106.271	-0.448	0.100
-472.245	525.571	0.107	0.251
-471.230	-24.332	0.149	0.089
-470.216	-117.895	-0.498	0.089
-469.201	5.404	0.118	0.087
-468.186	-31.833	0.213	0.119
-467.172	163.401	0.096	0.134
-466.157	-30.945	0.136	-0.077
-465.143	-97.331	-0.177	0.046
-464.128	276.604	0.038	0.068
-463.113	230.050	0.108	0.176
-462.099	142.259	0.086	-0.114
-461.084	109.028	-0.151	-0.180
-460.070	55.342	0.133	-0.128
-459.055	169.440	0.144	0.205
-458.040	800.000	0.076	-0.239
-457.026	15.225	-0.230	0.180
-456.011	-26.433	-0.274	-0.160
-454.997	452.538	0.014	0.030
-453.982	665.555	-0.073	0.188
-452.968	-72.286	-0.044	0.016
-451.953	140.755	-0.031	-0.041
-450.938	800.000	0.187	-0.567
-449.924	136.048	-0.190	0.246
-448.909	173.848	0.104	0.149
-447.895	287.790	-0.192	0.347
-446.880	326.414	-0.108	0.207
-445.865	-200.000	-0.019	0.131
-444.851	477.752	-0.117	0.263
-443.836	37.553	-0.165	-0.146
-442.822	-159.827	0.130	-0.007
-441.807	-143.400	-0.228	0.022
-440.792	-200.000	0.017	-0.188
-439.778	-106.438	-0.310	-0.069
-438.763	800.000	0.145	0.410
-437.749	800.000	-0.097	-0.342
-436.734	-5.899	-0.187	0.128
-435.719	667.131	-0.038	-0.097
-434.705	530.911	0.194	-0.457
-433.690	260.484	0.177	0.304
-432.676	-200.000	0.036	0.241
-431.661	-108.329	0.120	-0.026
-430.646	800.000	0.056	-0.173
-429.632	211.812	0.114	0.178
-428.617	259.124	0.187	0.321
-427.603	576.874	0.172	0.419
-426.588	-34.101	0.189	0.103
-425.573	-71.592	0.263	-0.098
-424.559	-200.000	-0.034	-0.159
-423.544	363.877	0.099	0.199
-422.530	-0.718	-0.099	-0.069
-421.515	94.923	0.331	-0.374
-420.500	10.144	-0.274	-0.207
-419.486	-156.952	0.100	0.006
-418.471	-51.436	-0.094	0.044
-417.457	-200.000	-0.010	-0.310
-416.442	-87.049	0.303	0.092
-415.428	-65.903	-0.271	0.108
-414.413	800.000	-0.027	-0.077
-413.398	-117.052	-0.194	-0.035
-412.384	800.000	0.041	-0.128
-411.369	87.058	0.165	0.181
-410.355	-23.468	0.201	0.120
-409.340	800.000	0.023	0.088
-408.325	52.301	0.337	0.319
-407.311	265.811	0.053	-0.093
-406.296	41.479	-0.097	-0.087
-405.282	53.365	-0.219	0.209
-404.267	194.966	-0.102	-0.154
-403.252	21.843	-0.114	-0.092
-402.238	-55.065	-0.237	-0.106
-401.223	-200.000	-0.024	0.280
-400.209	648.912	0.060	-0.153
-399.194	-137.980	0.102	-0.011
-398.179	800.000	0.054	0.187
-397.165	-63.848	0.295	0.120
-396.150	206.938	-0.085	-0.132
-395.136	27.510	-0.234	0.195
-394.121	-137.737	0.240	0.027
-393.106	-200.000	-0.012	0.142
-392.092	800.000	-0.073	0.251
-391.077	-145.111	0.130	0.012
-390.063	104.696	0.095	0.111
-389.048	25.787	0.291	-0.241
-388.033	327.798	-0.104	0.199
-387.019	-116.721	-0.275	0.050
-386.004	-78.216	-0.141	0.048
-384.990	484.150	0.126	-0.284
-383.975	117.624	0.114	0.139
-382.960	-35.058	0.307	0.166
-381.946	-60.853	-0.047	0.020
-380.931	-81.869	-0.070	0.023
-379.917	800.000	-0.052	-0.173
-378.902	-67.027	-0.035	0.014
-377.888	-200.000	-0.057	0.293
-376.873	-115.239	0.201	-0.038
-375.858	-63.613	0.208	-0.085
-374.844	-105.475	0.181	0.041
-373.829	-67.877	-0.232	-0.090
-372.815	-200.000	-0.017	-0.106
-371.800	91.624	0.191	-0.213
-370.785	66.354	-0.107	0.108
-369.771	14.094	-0.351	0.271
-368.756	-200.000	0.018	0.154
-367.742	-32.768	-0.170	0.094
-366.727	206.880	0.027	0.042
-365.712	-194.503	0.205	-0.002
-364.698	-44.091	0.449	-0.223
-363.683	204.448	-0.218	0.336
-362.669	179.106	-0.097	-0.141
-361.654	3.258	0.212	0.153
-360.639	160.011	-0.049	0.068
-359.625	-178.930	-0.080	0.002
-358.610	-200.000	0.007	0.305
-357.596	-200.000	0.023	0.123
-356.581	-102.028	0.271	0.065
-355.566	-25.301	-0.162	-0.095
-354.552	-4.427	-0.290	-0.199
-353.537	-74.699	0.176	-0.063
-352.523	39.544	0.314	-0.279
-351.508	33.094	0.159	0.136
-350.493	-200.000	0.072	-0.365
-349.479	623.590	0.098	-0.245
-348.464	800.000	-0.110	-0.315
-347.450	-200.000	0.002	0.149
-346.435	-28.076	-0.172	-0.099
-345.420	392.140	-0.102	0.210
-344.406	89.011	-0.106	0.117
-343.391	448.156	0.128	-0.281
-342.377	152.397	-0.145	-0.196
-341.362	32.623	-0.074	-0.063
-340.348	-138.613	0.280	-0.030
-339.333	-200.000	0.007	-0.033
-338.318	-78.595	0.219	0.074
-337.304	134.781	-0.150	-0.193
-336.289	-85.448	-0.410	0.127
-335.275	-66.159	0.284	0.112
-334.260	324.187	0.138	-0.262
-333.245	81.232	0.025	0.027
-332.231	93.118	0.130	-0.146
-331.216	-82.377	-0.397	-0.128
-330.202	800.000	0.011	-0.041
-329.187	0.182	0.132	-0.093
-328.172	-65.868	-0.221	-0.087
-327.158	542.345	-0.118	0.279
-326.143	-46.285	0.271	-0.132
-325.129	158.879	0.152	-0.209
-324.114	-120.902	0.036	0.006
-323.099	800.000	0.023	0.084
-322.085	-102.469	-0.255	-0.060
-321.070	800.000	0.099	0.320
-320.056	153.792	0.150	-0.203
-319.041	-200.000	-0.037	0.342
-318.026	-138.151	-0.497	0.055
-317.012	-196.714	-0.292	-0.002
-315.997	-54.479	-0.156	0.070
-314.983	-200.000	-0.014	-0.072
-313.968	-33.030	0.087	0.048
-312.953	48.572	0.072	0.067
-311.939	800.000	0.039	0.111
-310.924	34.942	0.101	0.088
-309.910	-141.588	0.266	-0.027
-308.895	-52.273	-0.215	0.099
-307.880	-164.094	-0.124	0.006
-306.866	-95.593	0.424	0.112
-305.851	-200.000	-0.011	0.386
-304.837	-72.540	-0.176	0.064
-303.822	11.338	0.229	-0.173
-302.807	-144.066	0.168	-0.016
-301.793	-88.087	-0.455	0.135
-300.778	80.435	0.201	0.214
-299.764	800.000	-0.063	0.225
-298.749	-200.000	0.022	0.212
-297.735	-200.000	-0.017	0.088
-296.720	-37.313	0.089	-0.047
-295.705	-42.345	-0.228	-0.115
-294.691	107.127	0.087	-0.102
-293.676	-93.131	-0.308	-0.085
-292.662	-200.000	-0.079	-0.388
-291.647	-135.077	-0.138	-0.016
-290.632	193.260	0.082	0.123
-289.618	32.159	-0.057	-0.049
-288.603	-147.376	-0.103	0.009
-287.589	68.036	-0.120	0.122
-286.574	196.620	0.162	0.244
-285.559	800.000	-0.041	0.168
-284.545	-171.201	0.183	0.006
-283.530	-200.000	0.021	0.255
-282.516	-130.640	0.266	-0.035
-281.501	-16.457	0.076	-0.048
-280.486	800.000	0.069	0.238
-279.472	-200.000	0.078	0.347
-278.457	-200.000	0.020	0.247
-277.443	-169.776	-0.329	-0.012
-276.428	-150.886	-0.086	0.006
-275.413	640.409	0.090	-0.226
-274.399	66.889	-0.070	-0.070
-273.384	364.047	0.221	-0.440
-272.370	92.544	0.140	0.157
-271.355	800.000	0.044	0.165
-270.340	-71.822	-0.162	0.060
-269.326	-154.336	0.324	0.022
-268.311	-200.000	0.041	-0.230
-267.297	6.050	0.383	0.281
-266.282	800.000	0.084	0.283
-265.267	-145.813	-0.352	0.031
-264.253	494.876	0.012	0.027
-263.238	-38.080	-0.219	0.115
-262.224	-31.865	0.113	0.063
-261.209	55.127	0.069	-0.066
-260.195	-114.004	-0.195	0.037
-259.180	-104.206	0.296	0.068
-258.165	242.391	-0.068	-0.112
-257.151	800.000	-0.125	0.368
-256.136	-111.543	-0.129	0.026
-255.122	-26.522	0.095	0.055
-254.107	119.865	-0.009	0.012
-253.092	-200.000	0.019	0.096
-252.078	800.000	-0.074	0.245
-251.063	-200.000	0.005	-0.148
-250.049	316.905	0.022	0.040
-249.034	-200.000	0.015	0.128
-248.019	697.764	-0.102	0.264
-247.005	29.364	0.365	-0.306
-245.990	238.750	0.107	0.176
-244.976	259.793	-0.059	0.101
-243.961	85.506	0.159	0.173
-242.946	236.174	0.062	0.102
-241.932	-45.043	-0.176	0.087
-240.917	-101.227	-0.277	-0.067
-239.903	15.739	0.265	-0.206
-238.888	-23.810	0.205	0.121
-237.873	800.000	0.060	-0.250
-236.859	-200.000	0.005	-0.038
-235.844	-200.000	-0.009	-0.047
-234.830	11.140	0.202	0.153
-233.815	491.161	0.016	0.037
-232.800	-44.032	0.153	0.076
-231.786	-76.878	-0.267	0.092
-230.771	-85.933	0.163	0.050
-229.757	108.753	-0.359	0.423
-228.742	7.434	-0.181	0.133
-227.727	398.656	0.163	-0.338
-226.713	-101.898	0.223	0.053
-225.698	309.510	-0.135	0.248
-224.684	110.064	0.101	-0.119
-223.669	1.482	0.279	0.198
-222.655	-2.643	0.071	-0.049
-221.640	-200.000	0.013	-0.069
-220.625	-133.376	0.304	-0.038
-219.611	-200.000	0.006	-0.186
-218.596	153.164	-0.281	-0.379
-217.582	800.000	-0.031	-0.120
-216.567	-108.971	-0.227	0.048
-215.552	38.747	0.178	-0.157
-214.538	686.966	-0.079	0.203
-213.523	34.930	-0.146	0.126
-212.509	53.738	0.232	-0.220
-211.494	-61.745	-0.372	-0.154
-210.479	-73.338	0.382	0.138
-209.465	-120.023	0.506	0.086
-208.450	-200.000	0.034	0.309
-207.436	562.079	-0.171	-0.409
-206.421	59.014	-0.104	0.101
-205.406	523.881	-0.122	-0.282
-204.392	19.036	0.208	0.165
-203.377	53.273	0.317	0.299
-202.363	-99.656	0.172	-0.043
-201.348	347.988	0.069	0.134
-200.333	30.984	-0.347	-0.293
-199.319	778.056	-0.173	-0.467
-198.304	-200.000	0.060	-0.372
-197.290	86.353	-0.069	-0.075
-196.275	-200.000	0.022	-0.127
-195.260	326.455	0.103	-0.193
-194.246	-200.000	0.077	0.355
-193.231	-128.706	-0.273	-0.038
-192.217	188.967	-0.168	0.248
-191.202	-200.000	0.006	0.030
-190.187	-200.000	0.045	-0.311
-189.173	56.867	-0.010	0.010
-188.158	729.168	-0.160	0.421
-187.144	22.005	0.291	0.234
-186.129	800.000	0.056	0.165
-185.114	800.000	0.028	-0.106
-184.100	27.296	-0.188	-0.156
-183.085	800.000	-0.100	-0.353
-182.071	-200.000	0.042	-0.186
-181.056	-29.954	-0.377	0.211
-180.042	127.840	0.244	0.306
-179.027	90.605	0.099	-0.109
-178.012	-33.483	0.214	-0.117
-176.998	-74.146	0.314	0.112
-175.983	239.393	0.027	0.045
-174.969	-200.000	0.009	-0.177
-173.954	281.124	0.050	-0.089
-172.939	353.059	-0.171	0.333
-171.925	155.680	0.250	-0.339
-170.910	77.152	0.236	-0.246
-169.896	-96.887	-0.232	0.060
-168.881	-17.348	0.092	0.057
-167.866	34.356	-0.189	0.162
-166.852	-121.061	0.224	0.037
-165.837	280.820	-0.032	-0.057
-164.823	-42.120	-0.347	0.175
-163.808	-200.000	-0.078	0.346
-162.793	-105.870	-0.188	0.042
-161.779	-25.847	0.251	-0.146
-160.764	72.688	-0.368	-0.378
-159.750	-127.287	0.088	0.013
-158.735	82.603	-0.098	0.104
-157.720	47.836	-0.176	0.162
-156.706	333.387	0.112	0.213
-155.691	300.101	-0.075	0.137
-154.677	800.000	0.078	-0.289
-153.662	-61.253	-0.021	0.009
-152.647	-106.941	-0.103	0.022
-151.633	203.348	-0.129	0.196
-150.618	71.659	0.052	0.053
-149.604	800.000	-0.096	0.290
-148.589	-200.000	-0.046	0.267
-147.574	119.101	-0.339	0.412
-146.560	80.602	0.195	0.207
-145.545	-111.804	-0.045	0.009
-144.531	-47.780	0.287	0.137
-143.516	800.000	0.024	0.096
-142.502	-71.508	-0.237	-0.087
-141.487	23.913	0.234	0.190
-140.472	-22.569	-0.187	-0.111
-139.458	800.000	0.077	-0.241
-138.443	-37.686	0.240	0.126
-137.429	50.205	-0.136	0.126
-136.414	-200.000	0.028	-0.208
-135.399	168.701	-0.032	-0.044
-134.385	85.004	0.206	0.222
-133.370	-56.455	0.076	0.033
-132.356	-34.783	0.316	-0.170
-131.341	533.527	-0.097	0.226
-130.326	-200.000	-0.013	-0.074
-129.312	-59.045	0.150	-0.064
-128.297	-37.828	0.334	0.175
-127.283	-75.346	-0.125	-0.044
-126.268	-31.956	-0.239	0.132
-125.253	-176.662	0.355	0.009
-124.239	800.000	0.010	-0.039
-123.224	68.305	-0.208	-0.210
-122.210	462.412	0.089	-0.196
-121.195	-139.357	0.298	-0.031
-120.180	390.438	0.056	0.115
