DTS Sentinel unit serial number:	SN413079Multiplexer serial number:	ORYXHardware model number:	OX4-SRSoftware version number:	ORYX F/W v4.00 Oryx Data Collector v3.7.2.0data status	okinstallation	princeton_trtdifferential loss correction	single-endedforward channel	channel 2reverse channel	N/Adate	2019/09/16time	01:15:34forward acquisition time	60.00reverse acquisition time	0.00gamma	496.2192k internal	0.2337k external	0.2337temperature offset calibration	0.9966default loss term (dB/km)	0.3790temperature slope calibration	1.0000multiplexer offset coefficient	1.0000multiplexer slope coefficient	1.0000fibre end	0.00T internal ref (°C)	27.28T ext. ref 1 (°C)	9.83T ext. ref 2 (°C)	21.77length (m)	temperature (°C)	Stokes	anti-Stokes-747.200	635.865	-0.115	0.294
-746.185	-155.761	-0.357	-0.023
-745.171	-92.619	-0.162	-0.046
-744.156	91.570	0.104	-0.117
-743.142	-23.729	-0.105	0.063
-742.127	-162.046	-0.183	0.009
-741.112	-200.000	0.021	0.219
-740.098	-200.000	0.008	0.115
-739.083	-200.000	-0.032	-0.182
-738.069	-200.000	0.048	0.307
-737.054	-99.690	0.288	0.072
-736.039	-127.904	-0.238	-0.034
-735.025	-200.000	0.044	0.231
-734.010	-62.840	0.201	0.083
-732.996	-92.143	-0.319	-0.091
-731.981	-68.944	0.094	0.036
-730.966	399.804	-0.154	0.323
-729.952	-59.170	-0.510	0.221
-728.937	65.068	0.102	-0.103
-727.923	189.094	-0.109	-0.163
-726.908	-200.000	-0.030	-0.274
-725.894	16.296	0.200	0.158
-724.879	-124.465	0.040	-0.006
-723.864	-200.000	-0.007	0.034
-722.850	96.256	-0.285	-0.327
-721.835	280.999	-0.150	0.269
-720.821	-133.607	0.379	-0.048
-719.806	36.896	0.079	-0.070
-718.791	67.611	-0.077	0.079
-717.777	244.683	-0.043	0.073
-716.762	-107.383	0.314	0.069
-715.748	-41.242	-0.205	0.106
-714.733	-200.000	0.011	-0.087
-713.718	-5.784	-0.150	-0.103
-712.704	160.366	-0.242	0.339
-711.689	800.000	-0.026	0.095
-710.675	-200.000	-0.000	-0.324
-709.660	-156.221	0.062	0.004
-708.645	529.659	0.073	-0.172
-707.631	48.102	-0.064	0.060
-706.616	-200.000	-0.038	-0.200
-705.602	-67.221	0.159	0.063
-704.587	800.000	-0.086	0.252
-703.572	-158.794	0.258	-0.015
-702.558	-200.000	0.011	0.180
-701.543	-158.528	0.076	-0.004
-700.529	468.263	-0.008	0.018
-699.514	575.596	0.045	-0.110
-698.499	436.115	-0.050	0.108
-697.485	-196.564	-0.258	-0.002
-696.470	-71.424	0.083	-0.031
-695.456	800.000	0.067	-0.226
-694.441	-117.208	-0.245	-0.045
-693.426	-41.067	-0.320	0.166
-692.412	-92.599	0.227	-0.064
-691.397	-200.000	-0.000	-0.008
-690.383	800.000	0.090	-0.382
-689.368	-73.223	0.251	0.092
-688.354	-60.201	-0.100	-0.043
-687.339	138.578	-0.021	-0.028
-686.324	-95.858	0.156	-0.042
-685.310	35.521	-0.157	0.138
-684.295	84.830	-0.376	-0.412
-683.281	-124.523	0.167	0.026
-682.266	-167.281	0.043	0.002
-681.251	-200.000	0.045	-0.213
-680.237	-81.076	-0.414	-0.137
-679.222	-5.584	0.106	-0.072
-678.208	-148.201	0.194	-0.016
-677.193	497.503	0.097	0.223
-676.178	46.286	0.131	-0.122
-675.164	-93.988	-0.267	-0.073
-674.149	-200.000	-0.207	-0.000
-673.135	181.530	0.097	-0.143
-672.120	167.028	-0.134	0.191
-671.105	-64.875	0.371	-0.150
-670.091	800.000	0.073	-0.262
-669.076	800.000	-0.020	0.071
-668.062	-200.000	0.014	0.120
-667.047	-28.072	0.203	0.117
-666.032	-69.881	-0.191	0.073
-665.018	800.000	-0.036	0.104
-664.003	45.102	-0.096	0.088
-662.989	-200.000	-0.058	0.361
-661.974	-200.000	0.041	-0.370
-660.959	-94.620	-0.154	0.042
-659.945	-200.000	0.000	-0.348
-658.930	-171.276	0.297	0.010
-657.916	-77.026	-0.162	-0.057
-656.901	-200.000	-0.031	0.239
-655.886	-153.187	-0.217	0.015
-654.872	546.437	-0.030	-0.072
-653.857	-140.273	-0.136	-0.014
-652.843	-61.312	0.274	-0.115
-651.828	-15.320	0.133	-0.085
-650.814	-200.000	-0.020	0.190
-649.799	284.859	-0.118	-0.213
-648.784	-25.142	-0.161	0.096
-647.770	-96.402	-0.107	0.028
-646.755	-200.000	0.007	0.132
-645.741	181.780	-0.038	-0.056
-644.726	-74.781	-0.078	0.028
-643.711	-170.312	0.113	0.004
-642.697	136.329	-0.097	0.126
-641.682	-200.000	0.024	-0.164
-640.668	1.013	-0.195	0.140
-639.653	-124.473	0.246	0.038
-638.638	-75.844	0.140	0.050
-637.624	-59.492	0.085	-0.037
-636.609	-200.000	-0.011	-0.076
-635.595	47.029	0.309	0.287
-634.580	-117.662	0.096	0.017
-633.565	-200.000	-0.005	0.057
-632.551	-200.000	0.054	-0.357
-631.536	800.000	0.058	0.221
-630.522	-162.189	0.254	-0.013
-629.507	800.000	0.108	0.382
-628.492	-200.000	0.020	0.159
-627.478	-200.000	-0.399	-0.001
-626.463	800.000	-0.075	0.236
-625.449	10.812	0.227	0.173
-624.434	-53.042	-0.133	0.061
-623.419	800.000	-0.225	0.654
-622.405	-200.000	0.003	0.208
-621.390	-0.873	-0.040	-0.028
-620.376	-200.000	-0.011	0.107
-619.361	20.317	0.041	-0.033
-618.346	82.921	0.287	-0.312
-617.332	-200.000	-0.058	0.285
-616.317	-135.426	-0.265	-0.032
-615.303	10.865	-0.040	0.031
-614.288	-4.316	0.187	-0.129
-613.273	438.064	-0.059	0.128
-612.259	139.575	-0.056	-0.074
-611.244	45.584	-0.112	-0.103
-610.230	21.364	-0.166	-0.135
-609.215	339.903	0.101	-0.196
-608.201	-200.000	0.028	0.128
-607.186	-58.202	0.117	0.051
-606.171	9.014	0.130	0.098
-605.157	-73.774	-0.141	-0.051
-604.142	114.875	-0.107	0.130
-603.128	-23.001	-0.304	-0.183
-602.113	272.240	0.037	-0.065
-601.098	-200.000	0.018	0.221
-600.084	-45.950	-0.359	-0.177
-599.069	-103.266	-0.462	-0.109
-598.055	309.498	-0.282	0.526
-597.040	-75.946	-0.135	0.048
-596.025	-9.202	-0.050	-0.033
-595.011	-104.682	0.356	-0.082
-593.996	390.868	-0.117	-0.243
-592.982	-139.545	0.318	-0.034
-591.967	54.858	0.298	-0.287
-590.952	19.207	-0.322	0.258
-589.938	368.378	-0.023	0.047
-588.923	6.667	-0.084	-0.062
-587.909	93.337	-0.119	-0.134
-586.894	-120.065	-0.347	0.059
-585.879	-55.514	-0.395	0.177
-584.865	29.609	-0.088	-0.075
-583.850	800.000	0.067	0.185
-582.836	-200.000	0.042	-0.502
-581.821	-200.000	-0.206	0.000
-580.806	-200.000	-0.037	0.282
-579.792	342.603	0.092	-0.180
-578.777	48.846	0.055	-0.051
-577.763	-103.301	-0.405	-0.095
-576.748	36.081	0.105	0.092
-575.733	800.000	0.103	0.296
-574.719	249.867	-0.082	-0.139
-573.704	-113.266	-0.356	-0.070
-572.690	452.547	0.027	0.059
-571.675	-41.228	0.328	0.169
-570.661	-200.000	-0.040	-0.221
-569.646	-200.000	0.022	-0.318
-568.631	-200.000	-0.042	-0.469
-567.617	-200.000	0.107	-0.612
-566.602	-98.921	-0.115	0.029
-565.588	-56.070	0.075	0.033
-564.573	448.171	-0.096	-0.211
-563.558	94.093	0.167	0.189
-562.544	375.750	-0.170	0.346
-561.529	29.004	0.254	0.215
-560.515	-4.490	0.406	0.280
-559.500	-19.217	-0.361	-0.223
-558.485	-104.563	0.269	-0.062
-557.471	203.654	-0.070	0.108
-556.456	-200.000	0.004	-0.030
-555.442	-200.000	-0.041	-0.215
-554.427	-108.291	-0.188	-0.041
-553.412	90.134	0.210	0.234
-552.398	46.160	0.143	0.132
-551.383	800.000	-0.076	0.256
-550.369	30.512	-0.243	-0.207
-549.354	-120.906	0.238	-0.040
-548.339	369.373	-0.142	0.287
-547.325	77.210	-0.034	-0.036
-546.310	273.211	0.111	0.196
-545.296	-109.556	0.160	-0.034
-544.281	-27.993	-0.265	-0.153
-543.266	269.079	-0.154	-0.269
-542.252	-3.827	-0.341	0.236
-541.237	590.129	-0.013	0.033
-540.223	-69.604	-0.304	-0.116
-539.208	-200.000	-0.013	-0.059
-538.193	-200.000	-0.034	0.184
-537.179	13.647	-0.153	-0.118
-536.164	-200.000	0.009	-0.224
-535.150	-109.108	0.588	0.124
-534.135	-94.000	0.394	0.108
-533.121	86.435	0.120	-0.132
-532.106	65.466	0.105	-0.106
-531.091	54.953	-0.113	-0.109
-530.077	-136.979	-0.084	-0.010
-529.062	-108.097	0.214	0.046
-528.048	800.000	-0.012	-0.043
-527.033	691.720	0.066	0.172
-526.018	243.395	-0.146	0.243
-525.004	143.417	-0.229	0.303
-523.989	-18.692	0.157	-0.097
-522.975	800.000	0.046	-0.169
-521.960	-200.000	-0.008	0.045
-520.945	152.866	0.056	-0.076
-519.931	-200.000	0.043	-0.223
-518.916	74.484	0.006	-0.007
-517.902	-107.456	-0.197	-0.043
-516.887	-129.287	-0.196	0.027
-515.872	539.377	-0.096	0.226
-514.858	1.171	0.087	-0.062
-513.843	800.000	0.090	0.294
-512.829	-200.000	-0.043	0.212
-511.814	-87.551	-0.121	-0.037
-510.799	319.871	-0.165	-0.311
-509.785	-97.962	0.228	-0.058
-508.770	87.700	0.110	0.121
-507.756	175.936	0.149	-0.214
-506.741	11.973	-0.023	-0.018
-505.726	78.288	-0.295	0.313
-504.712	615.319	0.132	0.329
-503.697	-62.241	-0.197	-0.082
-502.683	-200.000	-0.004	-0.211
-501.668	83.144	0.142	0.154
-500.653	-60.662	0.123	0.052
-499.639	-11.686	0.470	0.307
-498.624	24.177	-0.164	-0.134
-497.610	-179.918	0.200	0.004
-496.595	800.000	0.045	0.135
-495.581	800.000	-0.051	-0.164
-494.566	640.191	0.074	0.188
-493.551	18.588	0.278	-0.221
-492.537	-40.545	0.420	0.217
-491.522	227.878	0.176	-0.285
-490.508	62.123	0.093	0.092
-489.493	-200.000	0.002	-0.058
-488.478	265.454	0.169	-0.293
-487.464	-49.896	-0.326	-0.154
-486.449	-14.173	0.057	0.036
-485.435	-118.352	-0.232	0.041
-484.420	-200.000	0.055	0.410
-483.405	197.974	0.114	-0.174
-482.391	-200.000	-0.044	-0.398
-481.376	179.124	-0.058	-0.084
-480.362	-53.407	0.286	0.130
-479.347	-200.000	-0.004	0.064
-478.332	233.600	-0.125	-0.204
-477.318	107.129	0.163	0.193
-476.303	-200.000	0.076	-0.359
-475.289	-54.929	-0.143	-0.064
-474.274	-122.921	-0.219	-0.035
-473.259	-200.000	0.029	-0.429
-472.245	265.101	-0.144	-0.250
-471.230	88.943	-0.111	0.122
-470.216	30.745	0.222	0.189
-469.201	800.000	0.091	0.288
-468.186	398.002	0.121	0.250
-467.172	-166.628	-0.100	0.004
-466.157	65.639	0.105	-0.105
-465.143	66.560	0.220	-0.222
-464.128	33.351	-0.083	-0.072
-463.113	800.000	-0.056	-0.196
-462.099	24.901	0.194	-0.159
-461.084	-155.609	0.306	0.020
-460.070	-53.324	0.129	0.059
-459.055	231.494	0.077	0.126
-458.040	218.270	0.165	0.262
-457.026	-14.228	0.186	-0.119
-456.011	-123.336	0.398	-0.063
-454.997	-160.448	-0.310	-0.017
-453.982	51.145	-0.236	0.222
-452.968	800.000	-0.038	0.110
-451.953	51.797	0.301	-0.284
-450.938	753.685	0.098	0.263
-449.924	133.452	0.235	0.302
-448.909	-200.000	0.014	0.099
-447.895	-187.553	-0.323	-0.004
-446.880	800.000	0.113	-0.448
-445.865	-200.000	0.009	-0.082
-444.851	87.128	-0.086	-0.095
-443.836	394.869	-0.140	-0.289
-442.822	-200.000	0.035	-0.188
-441.807	-141.268	0.182	-0.018
-440.792	-36.312	-0.191	-0.102
-439.778	32.560	-0.113	-0.097
-438.763	-69.501	-0.199	-0.076
-437.749	0.674	-0.383	-0.272
-436.734	164.108	0.136	0.190
-435.719	-127.453	-0.122	0.018
-434.705	187.088	-0.056	-0.083
-433.690	-46.075	0.060	-0.029
-432.676	7.591	0.114	-0.084
-431.661	48.395	0.106	-0.098
-430.646	237.863	0.060	0.099
-429.632	-200.000	-0.059	-0.284
-428.617	34.079	0.116	-0.100
-427.603	144.177	-0.129	0.171
-426.588	-200.000	0.046	-0.264
-425.573	-7.653	0.223	-0.150
-424.559	-26.448	-0.310	0.180
-423.544	304.434	0.120	-0.221
-422.530	-148.980	-0.235	-0.019
-421.515	-200.000	-0.007	0.233
-420.500	51.147	0.130	0.122
-419.486	407.357	-0.094	-0.198
-418.471	-96.781	0.231	0.060
-417.457	-200.000	-0.047	0.225
-416.442	800.000	0.037	-0.133
-415.428	230.550	-0.194	-0.315
-414.413	-200.000	-0.012	0.064
-413.398	-77.329	-0.324	-0.111
-412.384	3.521	-0.217	-0.156
-411.369	134.202	0.111	0.143
-410.355	-200.000	0.007	-0.203
-409.340	-67.304	0.215	0.084
-408.325	2.045	0.111	-0.079
-407.311	-200.000	-0.048	-0.396
-406.296	245.828	-0.168	-0.281
-405.282	34.141	0.147	0.127
-404.267	-19.123	0.121	-0.074
-403.252	-7.401	-0.257	0.173
-402.238	-0.876	-0.050	0.035
-401.223	-115.756	-0.257	0.048
-400.209	-200.000	-0.002	0.010
-399.194	-108.798	-0.138	-0.029
-398.179	-200.000	-0.009	-0.130
-397.165	-61.592	0.218	-0.091
-396.150	447.795	-0.124	-0.270
-395.136	-35.419	0.077	-0.042
-394.121	-53.793	-0.162	-0.073
-393.106	186.826	-0.120	0.177
-392.092	-60.046	-0.137	-0.058
-391.077	-96.922	0.131	-0.034
-390.063	-200.000	-0.091	0.394
-389.048	-121.996	0.203	0.033
-388.033	-200.000	-0.047	-0.280
-387.019	-200.000	0.044	-0.198
-386.004	57.923	-0.127	-0.123
-384.990	-200.000	-0.054	-0.243
-383.975	685.029	-0.041	-0.107
-382.960	164.523	0.165	-0.230
-381.946	-80.766	0.143	-0.047
-380.931	-56.326	0.117	0.051
-379.917	28.295	-0.178	0.149
-378.902	3.037	0.080	0.058
-377.888	74.557	-0.346	0.360
-376.873	324.211	0.060	0.114
-375.858	-44.596	0.205	-0.101
-374.844	-50.405	-0.074	0.035
-373.829	541.429	-0.125	0.295
-372.815	-200.000	0.026	-0.234
-371.800	800.000	-0.072	-0.260
-370.785	-200.000	-0.055	0.384
-369.771	-45.407	-0.138	0.068
-368.756	-200.000	0.102	-0.545
-367.742	-164.854	0.300	0.013
-366.727	-200.000	-0.014	0.187
-365.712	-110.556	0.210	0.043
-364.698	215.145	-0.148	-0.232
-363.683	24.295	0.255	0.208
-362.669	800.000	0.088	-0.331
-361.654	-23.795	-0.140	-0.083
-360.639	-200.000	-0.030	-0.209
-359.625	402.630	-0.081	-0.169
-358.610	-79.545	0.215	-0.072
-357.596	-57.500	0.049	-0.021
-356.581	-76.725	-0.272	-0.094
-355.566	-2.531	0.031	-0.021
-354.552	-3.523	-0.258	-0.177
-353.537	-200.000	-0.009	0.213
-352.523	-200.000	-0.033	0.162
-351.508	57.118	0.160	-0.154
-350.493	-77.500	-0.153	0.053
-349.479	800.000	-0.086	0.281
-348.464	-67.465	0.341	0.132
-347.450	503.166	-0.130	0.297
-346.435	800.000	0.056	-0.202
-345.420	23.749	-0.100	-0.082
-344.406	712.304	0.028	-0.074
-343.391	-9.852	-0.099	-0.065
-342.377	-132.420	-0.263	0.034
-341.362	96.159	0.185	0.209
-340.348	-38.279	-0.048	0.025
-339.333	128.131	0.049	-0.061
-338.318	232.347	0.108	0.176
-337.304	-200.000	0.011	0.158
-336.289	-87.729	-0.304	-0.091
-335.275	-200.000	-0.041	-0.237
-334.260	-27.588	0.055	0.032
-333.245	592.920	0.054	-0.132
-332.231	800.000	0.035	0.125
-331.216	-120.693	0.213	-0.036
-330.202	-200.000	0.010	0.152
-329.187	754.797	-0.115	-0.306
-328.172	-200.000	-0.039	0.258
-327.158	-22.211	-0.215	-0.129
-326.143	-66.476	0.374	-0.146
-325.129	800.000	0.095	0.289
-324.114	-30.554	-0.191	0.107
-323.099	359.510	-0.086	-0.170
-322.085	13.662	-0.114	-0.088
-321.070	61.051	0.079	-0.078
-320.056	89.193	-0.078	-0.086
-319.041	-200.000	-0.008	-0.078
-318.026	-21.684	-0.233	-0.140
-317.012	-166.744	-0.132	-0.005
-315.997	-66.411	-0.382	0.150
-314.983	31.497	-0.095	0.081
-313.968	-41.552	0.224	-0.114
-312.953	59.991	-0.082	-0.080
-311.939	-108.901	-0.355	-0.075
-310.924	78.067	0.127	-0.134
-309.910	-85.149	0.169	0.052
-308.895	252.532	0.122	0.206
-307.880	-58.829	0.157	0.067
-306.866	421.166	0.134	-0.283
-305.851	259.082	-0.163	0.278
-304.837	-117.933	0.012	-0.002
-303.822	241.219	-0.012	0.020
-302.807	92.090	0.075	-0.084
-301.793	-200.000	-0.013	0.137
-300.778	-200.000	-0.012	0.273
-299.764	-86.678	-0.142	-0.043
-298.749	217.610	-0.100	-0.157
-297.735	264.646	-0.099	-0.170
-296.720	255.841	-0.065	-0.110
-295.705	264.061	-0.043	0.075
-294.691	-117.388	0.454	-0.081
-293.676	800.000	-0.119	0.437
-292.662	242.207	-0.153	0.252
-291.647	-200.000	-0.001	0.029
-290.632	-145.514	-0.060	0.005
-289.618	14.697	0.220	-0.169
-288.603	-156.824	0.041	0.002
-287.589	-118.375	-0.168	-0.029
-286.574	-88.809	-0.178	0.052
-285.559	800.000	-0.030	-0.112
-284.545	29.669	0.138	0.115
-283.530	-13.747	0.075	0.048
-282.516	-121.514	-0.266	-0.043
-281.501	94.426	-0.170	-0.191
-280.486	199.617	0.131	0.199
-279.472	-91.429	-0.355	0.100
-278.457	800.000	-0.125	0.359
-277.443	-7.155	-0.133	0.089
-276.428	-74.098	0.194	0.069
-275.413	-200.000	-0.008	0.158
-274.399	-4.617	-0.179	-0.122
-273.384	426.326	-0.084	0.179
-272.370	-200.000	0.014	0.140
-271.355	-142.231	-0.187	-0.018
-270.340	-104.698	0.039	0.009
-269.326	-97.430	0.184	0.047
-268.311	354.546	0.030	0.058
-267.297	540.061	0.047	-0.109
-266.282	113.327	-0.089	-0.106
-265.267	-200.000	0.036	0.238
-264.253	-103.289	0.151	0.035
-263.238	363.332	-0.175	0.346
-262.224	-144.111	-0.334	0.031
-261.209	-23.519	-0.358	0.212
-260.195	-200.000	0.031	0.170
-259.180	-162.717	0.171	-0.008
-258.165	800.000	0.063	0.237
-257.151	318.270	0.116	-0.216
-256.136	-73.551	-0.174	-0.062
-255.122	95.941	-0.183	0.206
-254.107	-196.572	-0.486	0.003
-253.092	44.061	-0.095	-0.086
-252.078	212.482	0.198	-0.308
-251.063	504.303	-0.042	-0.095
-250.049	-128.978	0.347	0.048
-249.034	629.559	0.079	0.197
-248.019	239.714	0.090	0.148
-247.005	-74.948	0.260	-0.092
-245.990	-200.000	0.001	0.038
-244.976	-168.736	-0.126	-0.005
-243.961	-75.056	0.178	0.063
-242.946	-129.571	-0.070	0.010
-241.932	110.627	-0.226	-0.267
-240.917	-108.234	0.567	0.121
-239.903	-105.391	0.153	-0.034
-238.888	82.032	0.087	-0.093
-237.873	507.197	-0.059	0.135
-236.859	-125.597	0.194	-0.029
-235.844	785.223	-0.022	-0.059
-234.830	230.494	-0.089	0.143
-233.815	30.756	0.304	0.256
-232.800	-200.000	-0.042	0.259
-231.786	800.000	-0.075	0.274
-230.771	499.592	-0.105	-0.237
-229.757	47.991	0.045	-0.042
-228.742	429.398	0.051	-0.107
-227.727	-99.952	0.441	0.108
-226.713	76.388	-0.107	-0.111
-225.698	197.083	0.090	0.135
-224.684	-60.641	0.093	-0.039
-223.669	13.019	-0.149	-0.114
-222.655	-171.104	0.199	-0.007
-221.640	167.775	-0.071	0.099
-220.625	-108.366	-0.214	-0.045
-219.611	-200.000	0.055	0.421
-218.596	-200.000	-0.035	0.194
-217.582	-116.365	-0.273	0.050
-216.567	53.299	-0.128	0.121
-215.552	-69.919	0.260	-0.098
-214.538	-200.000	-0.007	0.116
-213.523	138.603	0.231	-0.298
-212.509	-200.000	-0.046	-0.222
-211.494	-83.632	0.170	0.053
-210.479	164.982	0.129	0.179
-209.465	251.386	0.026	0.044
-208.450	25.832	-0.085	0.070
-207.436	800.000	-0.047	0.138
-206.421	-165.565	0.179	-0.008
-205.406	-14.371	-0.242	0.153
-204.392	51.756	-0.139	0.130
-203.377	-139.095	-0.076	-0.008
-202.363	-68.459	-0.127	-0.048
-201.348	-200.000	0.016	-0.185
-200.333	148.323	0.320	-0.424
-199.319	-50.408	-0.264	-0.123
-198.304	800.000	0.010	0.043
-197.290	-87.252	-0.218	0.065
-196.275	800.000	-0.064	-0.249
-195.260	45.422	0.124	-0.112
-194.246	-60.054	0.109	-0.046
-193.231	-110.162	0.170	-0.035
-192.217	-83.163	-0.243	0.077
-191.202	-115.851	0.240	0.044
-190.187	48.818	0.039	0.036
-189.173	32.601	0.220	0.187
-188.158	800.000	0.068	0.283
-187.144	-42.798	0.126	-0.063
-186.129	-200.000	0.033	0.330
-185.114	119.204	0.287	-0.348
-184.100	10.222	-0.287	-0.215
-183.085	-95.188	-0.040	0.010
-182.071	-119.315	-0.175	0.030
-181.056	-200.000	0.029	-0.156
-180.042	800.000	0.080	-0.247
-179.027	-91.385	0.215	0.060
-178.012	-97.026	0.269	0.069
-176.998	45.369	0.232	0.210
-175.983	-200.000	0.020	0.128
-174.969	-67.820	0.134	0.052
-173.954	-126.967	0.074	0.011
-172.939	800.000	0.076	-0.236
-171.925	-156.211	-0.248	0.015
-170.910	-200.000	0.003	-0.221
-169.896	92.218	0.146	0.162
-168.881	-94.834	-0.092	0.024
-167.866	-40.412	0.185	0.094
-166.852	294.664	-0.122	0.219
-165.837	-200.000	0.069	-0.351
-164.823	-10.211	0.104	-0.068
-163.808	7.411	0.107	-0.079
-162.793	800.000	0.039	-0.110
-161.779	86.060	0.220	0.237
-160.764	800.000	-0.093	-0.265
-159.750	456.024	0.064	0.140
-158.735	-68.403	-0.370	-0.141
-157.720	401.445	0.077	-0.159
-156.706	61.186	0.158	0.154
-155.691	316.657	-0.189	0.350
-154.677	42.692	0.188	0.168
-153.662	241.791	0.120	-0.196
-152.647	-200.000	-0.062	-0.290
-151.633	121.375	0.323	0.395
-150.618	-93.964	0.197	-0.053
-149.604	-200.000	0.098	0.000
-148.589	-93.618	0.268	0.072
-147.574	320.777	-0.072	0.134
-146.560	-200.000	0.024	-0.195
-145.545	-29.872	0.141	-0.079
-144.531	-178.213	0.409	0.009
-143.516	-88.570	0.177	0.052
-142.502	47.709	-0.156	-0.143
-141.487	377.134	-0.141	0.283
-140.472	-189.868	-0.089	0.001
-139.458	-109.123	-0.064	-0.013
-138.443	-133.387	-0.139	0.017
-137.429	-200.000	0.009	-0.038
-136.414	300.018	-0.145	-0.262
-135.399	-132.006	-0.136	-0.017
-134.385	480.969	0.029	0.064
-133.370	106.920	-0.076	-0.088
-132.356	-149.064	-0.201	0.016
-131.341	800.000	0.062	-0.242
-130.326	-110.809	-0.289	-0.058
-129.312	3.312	-0.197	-0.141
-128.297	140.289	0.097	0.125
-127.283	92.445	0.154	-0.170
-126.268	-54.068	0.250	0.111
-125.253	341.562	0.132	-0.253
-124.239	343.053	0.032	0.061
-123.224	-21.865	-0.174	0.104
-122.210	-81.638	0.187	0.060
-121.195	115.885	-0.103	-0.123
