DTS Sentinel unit serial number:	SN413079Multiplexer serial number:	ORYXHardware model number:	OX4-SRSoftware version number:	ORYX F/W v4.00 Oryx Data Collector v3.7.2.0data status	okinstallation	princeton_trtdifferential loss correction	single-endedforward channel	channel 2reverse channel	N/Adate	2019/09/14time	16:27:34forward acquisition time	60.00reverse acquisition time	0.00gamma	496.2192k internal	0.2308k external	0.2308temperature offset calibration	1.0128default loss term (dB/km)	0.3790temperature slope calibration	1.0000multiplexer offset coefficient	1.0000multiplexer slope coefficient	1.0000fibre end	0.00T internal ref (°C)	38.02T ext. ref 1 (°C)	5.07T ext. ref 2 (°C)	33.30length (m)	temperature (°C)	Stokes	anti-Stokes-747.200	-98.647	0.281	-0.073
-746.185	800.000	-0.077	0.261
-745.171	-5.893	0.292	0.203
-744.156	7.463	-0.273	0.208
-743.142	231.762	0.132	0.221
-742.127	353.061	0.048	0.097
-741.112	-121.469	0.311	0.053
-740.098	4.376	0.081	-0.060
-739.083	-81.057	0.196	-0.066
-738.069	298.440	0.062	0.116
-737.054	-105.219	-0.099	0.023
-736.039	-78.618	-0.234	-0.081
-735.025	-200.000	-0.003	0.110
-734.010	-118.208	0.137	0.025
-732.996	800.000	-0.059	0.175
-731.981	-7.736	-0.115	0.079
-730.966	800.000	-0.016	-0.054
-729.952	-200.000	-0.030	0.201
-728.937	-44.552	-0.190	-0.096
-727.923	104.012	-0.131	-0.156
-726.908	-200.000	0.042	-0.214
-725.894	-4.204	-0.104	0.073
-724.879	800.000	-0.040	-0.158
-723.864	39.932	-0.080	0.073
-722.850	-117.326	-0.203	-0.037
-721.835	533.747	-0.108	-0.260
-720.821	-14.777	0.151	0.098
-719.806	422.216	-0.064	0.139
-718.791	-200.000	0.027	-0.126
-717.777	46.904	-0.272	-0.257
-716.762	-200.000	0.009	0.134
-715.748	354.413	0.064	-0.129
-714.733	107.681	-0.214	-0.259
-713.718	541.289	-0.096	0.232
-712.704	-70.400	-0.039	0.015
-711.689	64.005	0.334	-0.341
-710.675	-200.000	0.026	-0.236
-709.660	800.000	-0.025	-0.089
-708.645	-114.700	0.322	0.062
-707.631	-200.000	-0.019	0.129
-706.616	193.676	-0.106	-0.163
-705.602	56.699	-0.109	-0.107
-704.587	94.155	-0.075	0.086
-703.572	5.923	0.245	0.184
-702.558	42.573	0.092	-0.085
-701.543	800.000	-0.188	-0.532
-700.529	-93.152	-0.183	0.052
-699.514	391.577	-0.080	-0.168
-698.499	124.221	-0.105	-0.134
-697.485	-66.669	-0.182	-0.073
-696.470	82.963	0.097	-0.107
-695.456	68.774	-0.119	-0.124
-694.441	11.668	0.234	0.182
-693.426	-200.000	0.001	-0.101
-692.412	800.000	0.044	0.152
-691.397	-12.124	-0.153	0.101
-690.383	285.337	-0.111	0.203
-689.368	-56.548	0.206	0.093
-688.354	-200.000	0.039	0.251
-687.339	-114.486	-0.347	-0.068
-686.324	-186.463	-0.045	0.001
-685.310	-31.488	0.240	0.137
-684.295	-22.374	-0.087	0.053
-683.281	-76.729	-0.301	0.107
-682.266	-164.055	-0.020	0.001
-681.251	-32.522	-0.191	0.108
-680.237	-92.513	-0.304	0.087
-679.222	0.880	0.088	0.064
-678.208	-25.988	0.411	-0.245
-677.193	-8.776	-0.164	-0.112
-676.178	157.447	0.156	-0.219
-675.164	50.359	0.145	-0.139
-674.149	-52.475	-0.347	0.163
-673.135	469.910	0.066	0.151
-672.120	800.000	-0.071	-0.306
-671.105	-123.546	0.337	0.054
-670.091	-200.000	-0.013	-0.068
-669.076	-200.000	-0.024	0.236
-668.062	173.396	0.024	-0.036
-667.047	-152.283	-0.125	-0.009
-666.032	800.000	0.032	0.090
-665.018	-55.672	0.079	0.036
-664.003	800.000	-0.077	-0.220
-662.989	800.000	-0.117	0.344
-661.974	289.548	-0.192	0.353
-660.959	-60.654	-0.169	0.072
-659.945	800.000	0.043	-0.178
-658.930	280.978	0.139	-0.252
-657.916	135.813	-0.232	0.305
-656.901	-46.144	0.258	-0.129
-655.886	26.296	-0.164	-0.138
-654.872	-151.466	-0.192	0.014
-653.857	47.421	-0.157	-0.149
-652.843	-4.280	-0.101	-0.071
-651.828	530.516	-0.089	0.214
-650.814	144.258	-0.165	-0.223
-649.799	-91.006	-0.222	-0.065
-648.784	85.854	-0.157	-0.174
-647.770	800.000	-0.078	-0.287
-646.755	-200.000	-0.008	0.205
-645.741	564.618	0.140	-0.344
-644.726	800.000	0.096	0.344
-643.711	-8.595	-0.219	-0.149
-642.697	-22.181	0.290	0.178
-641.682	-58.310	-0.185	0.081
-640.668	290.358	0.028	-0.051
-639.653	800.000	0.052	0.203
-638.638	-200.000	0.047	-0.263
-637.624	-64.516	0.046	-0.019
-636.609	-57.081	-0.219	0.098
-635.595	-32.158	0.206	0.117
-634.580	143.572	-0.127	0.172
-633.565	71.674	-0.090	0.095
-632.551	-54.183	0.129	0.059
-631.536	347.180	0.109	0.218
-630.522	-200.000	0.027	0.358
-629.507	-200.000	-0.043	0.316
-628.492	-4.642	0.090	-0.063
-627.478	800.000	0.071	-0.238
-626.463	270.477	0.044	0.077
-625.449	800.000	0.054	-0.168
-624.434	-114.479	0.387	-0.075
-623.419	-143.396	0.359	-0.035
-622.405	-200.000	-0.030	0.223
-621.390	-7.824	0.127	-0.087
-620.376	-79.831	-0.224	0.076
-619.361	-86.263	0.153	0.048
-618.346	-86.095	-0.294	-0.092
-617.332	-200.000	-0.011	0.219
-616.317	303.030	-0.186	-0.348
-615.303	-200.000	-0.049	-0.429
-614.288	43.036	0.148	0.136
-613.273	11.617	-0.123	0.095
-612.259	464.599	0.126	-0.286
-611.244	29.682	0.117	-0.101
-610.230	622.576	-0.029	0.075
-609.215	-200.000	-0.031	0.210
-608.201	-101.760	0.131	-0.032
-607.186	-59.439	0.286	-0.124
-606.171	-157.006	-0.039	0.002
-605.157	800.000	-0.124	-0.518
-604.142	-200.000	0.250	-0.001
-603.128	-5.389	0.271	-0.188
-602.113	84.243	-0.173	-0.191
-601.098	-130.317	0.121	0.017
-600.084	800.000	0.055	0.232
-599.069	-200.000	-0.076	0.684
-598.055	-200.000	0.008	-0.160
-597.040	-200.000	0.052	0.260
-596.025	-120.958	0.157	0.027
-595.011	-39.138	0.172	-0.091
-593.996	-128.655	-0.037	0.005
-592.982	46.259	0.122	-0.114
-591.967	60.010	0.108	0.108
-590.952	-200.000	-0.016	-0.237
-589.938	333.430	-0.087	-0.170
-588.923	65.588	0.080	0.082
-587.909	800.000	0.064	-0.277
-586.894	800.000	-0.058	-0.230
-585.879	-57.386	0.310	0.138
-584.865	445.137	-0.095	-0.210
-583.850	52.756	-0.315	0.304
-582.836	-16.540	-0.323	-0.207
-581.821	-200.000	0.012	0.104
-580.806	113.431	-0.238	0.291
-579.792	136.498	-0.092	0.122
-578.777	-55.431	-0.243	0.110
-577.763	158.284	-0.032	-0.044
-576.748	228.101	-0.148	0.243
-575.733	-35.821	0.442	-0.242
-574.719	159.881	0.140	-0.197
-573.704	151.784	0.265	-0.365
-572.690	-176.198	0.569	-0.015
-571.675	381.597	-0.140	0.291
-570.661	14.024	-0.051	0.040
-569.646	622.591	0.106	0.269
-568.631	91.954	-0.139	0.157
-567.617	-200.000	0.027	-0.246
-566.602	-79.729	0.421	0.143
-565.588	67.706	0.147	-0.151
-564.573	172.903	-0.197	0.287
-563.558	-200.000	0.008	-0.126
-562.544	-74.266	0.158	-0.058
-561.529	800.000	0.058	-0.172
-560.515	118.992	-0.118	0.147
-559.500	-200.000	-0.007	0.043
-558.485	-110.618	-0.159	-0.033
-557.471	29.007	-0.216	-0.185
-556.456	37.750	-0.095	-0.085
-555.442	-127.168	-0.224	0.033
-554.427	-72.353	-0.304	0.114
-553.412	36.623	0.292	0.260
-552.398	-125.611	0.256	-0.039
-551.383	-15.748	0.222	-0.143
-550.369	-200.000	-0.035	-0.232
-549.354	-120.338	0.188	-0.032
-548.339	800.000	-0.059	0.212
-547.325	63.486	-0.346	-0.350
-546.310	43.403	-0.323	-0.298
-545.296	-22.514	-0.237	0.145
-544.281	146.365	0.244	0.331
-543.266	800.000	-0.052	0.202
-542.252	-166.101	-0.105	0.005
-541.237	42.580	-0.041	-0.038
-540.223	7.599	-0.225	0.170
-539.208	140.230	-0.063	-0.084
-538.193	-200.000	-0.041	0.398
-537.179	-66.623	-0.069	-0.028
-536.164	-166.632	-0.126	-0.005
-535.150	-200.000	0.005	0.088
-534.135	-100.436	-0.302	0.075
-533.121	53.622	0.302	0.292
-532.106	-2.393	-0.218	0.154
-531.091	70.127	0.117	-0.122
-530.077	146.996	-0.192	0.260
-529.062	-200.000	0.032	-0.238
-528.048	-200.000	0.012	-0.173
-527.033	800.000	0.061	0.185
-526.018	-5.113	0.078	0.054
-525.004	150.101	0.093	0.127
-523.989	353.683	-0.049	0.098
-522.975	-25.242	0.282	-0.168
-521.960	-51.959	-0.052	0.025
-520.945	-105.562	0.249	-0.057
-519.931	-85.296	0.272	-0.086
-518.916	488.983	0.023	0.053
-517.902	373.502	-0.037	-0.077
-516.887	11.279	-0.264	-0.203
-515.872	-124.000	-0.324	-0.051
-514.858	-97.200	0.074	-0.020
-513.843	-200.000	0.067	-0.355
-512.829	342.764	-0.108	-0.212
-511.814	800.000	-0.033	-0.102
-510.799	-200.000	0.037	-0.165
-509.785	800.000	0.052	0.210
-508.770	-200.000	0.027	-0.126
-507.756	-141.622	0.144	0.015
-506.741	-200.000	-0.006	0.387
-505.726	-6.387	0.167	-0.115
-504.712	233.519	-0.105	-0.174
-503.697	-108.369	-0.385	-0.084
-502.683	87.957	0.206	0.230
-501.668	339.473	0.136	-0.267
-500.653	-4.593	0.131	-0.091
-499.639	-145.204	-0.100	-0.009
-498.624	87.052	0.046	-0.052
-497.610	-114.650	-0.378	-0.073
-496.595	-93.035	-0.043	-0.012
-495.581	-93.201	-0.417	0.117
-494.566	800.000	-0.048	0.155
-493.551	-73.727	0.096	-0.035
-492.537	287.969	0.167	0.303
-491.522	302.910	-0.060	-0.112
-490.508	-200.000	0.028	0.323
-489.493	800.000	-0.057	-0.181
-488.478	-72.217	-0.260	-0.097
-487.464	120.984	-0.155	0.194
-486.449	46.515	-0.147	-0.137
-485.435	-200.000	-0.003	-0.018
-484.420	-128.590	-0.282	-0.040
-483.405	83.122	0.119	0.131
-482.391	-200.000	-0.004	-0.235
-481.376	-6.239	-0.364	-0.250
-480.362	-84.416	-0.134	0.042
-479.347	84.434	-0.075	-0.082
-478.332	800.000	-0.062	-0.230
-477.318	177.061	-0.097	-0.142
-476.303	-200.000	0.000	0.179
-475.289	31.887	-0.397	-0.344
-474.274	-43.686	-0.236	0.120
-473.259	191.099	0.128	0.194
-472.245	26.095	-0.109	-0.091
-471.230	624.446	0.107	-0.270
-470.216	383.311	0.094	-0.193
-469.201	-13.471	0.228	-0.148
-468.186	800.000	0.069	0.214
-467.172	-29.690	0.361	-0.207
-466.157	-106.865	0.053	0.012
-465.143	36.141	-0.099	0.088
-464.128	77.846	0.054	-0.058
-463.113	800.000	0.091	0.294
-462.099	87.847	-0.043	-0.048
-461.084	40.923	0.165	-0.150
-460.070	-200.000	-0.005	-0.183
-459.055	-4.047	0.170	0.118
-458.040	-140.857	-0.243	-0.025
-457.026	61.316	-0.065	-0.065
-456.011	-19.942	0.220	-0.136
-454.997	50.189	0.123	-0.117
-453.982	-156.868	-0.205	0.013
-452.968	103.675	-0.200	0.236
-451.953	-200.000	-0.007	0.263
-450.938	73.219	0.238	-0.250
-449.924	-150.951	-0.276	0.021
-448.909	380.014	-0.152	0.314
-447.895	-200.000	-0.021	0.211
-446.880	335.801	-0.127	0.247
-445.865	-200.000	0.022	0.167
-444.851	221.146	0.164	-0.265
-443.836	-154.728	-0.277	0.018
-442.822	-42.003	-0.164	0.084
-441.807	3.899	-0.102	-0.075
-440.792	135.988	0.059	0.078
-439.778	40.113	-0.244	-0.220
-438.763	436.125	0.085	0.185
-437.749	-10.481	-0.350	0.233
-436.734	-19.718	-0.174	-0.108
-435.719	543.124	0.118	-0.282
-434.705	22.115	-0.113	-0.093
-433.690	261.724	-0.058	-0.102
-432.676	7.846	0.157	-0.118
-431.661	-200.000	-0.027	0.126
-430.646	178.458	0.133	-0.195
-429.632	-79.471	-0.102	0.035
-428.617	800.000	0.165	0.488
-427.603	724.453	0.058	0.155
-426.588	-23.265	-0.284	0.171
-425.573	800.000	0.072	0.252
-424.559	800.000	0.029	0.107
-423.544	-47.886	-0.064	-0.031
-422.530	-60.826	-0.199	0.084
-421.515	-200.000	0.041	0.342
-420.500	-45.156	-0.086	0.043
-419.486	-84.116	-0.272	0.087
-418.471	800.000	0.059	0.205
-417.457	60.855	0.186	-0.185
-416.442	117.085	-0.119	0.146
-415.428	800.000	-0.019	-0.074
-414.413	-125.515	0.050	0.008
-413.398	800.000	-0.078	0.302
-412.384	-92.785	0.318	0.089
-411.369	86.316	-0.043	0.048
-410.355	-100.267	0.388	-0.097
-409.340	-200.000	0.004	-0.286
-408.325	393.484	0.052	-0.108
-407.311	138.898	-0.134	0.177
-406.296	580.215	0.062	-0.151
-405.282	-200.000	-0.084	0.513
-404.267	253.303	-0.102	0.175
-403.252	-86.809	0.207	0.064
-402.238	-200.000	-0.038	-0.168
-401.223	-55.129	0.385	-0.174
-400.209	64.030	-0.040	0.040
-399.194	25.432	-0.248	0.207
-398.179	-14.491	0.381	0.246
-397.165	-79.834	-0.205	0.069
-396.150	-200.000	-0.199	-0.001
-395.136	-200.000	-0.012	-0.127
-394.121	226.917	0.049	-0.080
-393.106	91.226	0.159	0.179
-392.092	1.083	-0.171	0.123
-391.077	-28.878	0.187	0.108
-390.063	-200.000	0.012	-0.176
-389.048	-51.198	0.075	0.035
-388.033	-19.214	0.177	0.110
-387.019	31.699	0.221	-0.191
-386.004	-20.953	0.445	-0.273
-384.990	212.039	0.064	-0.102
-383.975	-138.729	-0.037	-0.004
-382.960	110.849	-0.019	0.022
-381.946	-80.214	0.148	0.050
-380.931	-93.595	-0.186	-0.052
-379.917	-107.832	0.063	0.014
-378.902	-98.322	0.059	-0.015
-377.888	-33.722	-0.309	-0.171
-376.873	-140.055	-0.111	-0.012
-375.858	178.481	-0.030	-0.044
-374.844	-23.913	0.200	-0.120
-373.829	5.890	-0.109	-0.081
-372.815	-32.916	0.212	0.118
-371.800	-4.335	0.115	0.080
-370.785	-8.834	-0.265	-0.178
-369.771	-79.821	0.244	0.082
-368.756	-78.601	0.127	-0.043
-367.742	800.000	-0.066	0.215
-366.727	800.000	-0.086	0.358
-365.712	800.000	-0.124	0.351
-364.698	117.995	0.049	0.061
-363.683	75.090	0.095	0.100
-362.669	-158.644	-0.158	0.009
-361.654	-52.250	0.241	-0.112
-360.639	-80.676	0.100	0.033
-359.625	-200.000	0.013	-0.074
-358.610	-200.000	0.074	-0.558
-357.596	-125.466	-0.096	-0.015
-356.581	800.000	0.089	0.380
-355.566	-83.564	-0.312	0.100
-354.552	50.135	0.257	0.243
-353.537	103.237	0.075	-0.088
-352.523	-13.542	-0.350	-0.227
-351.508	-68.672	0.416	0.161
-350.493	111.236	-0.101	0.121
-349.479	59.673	-0.316	0.312
-348.464	93.494	-0.154	0.174
-347.450	342.573	-0.067	0.132
-346.435	-105.941	0.217	0.049
-345.420	126.661	0.053	0.067
-344.406	84.073	-0.113	-0.124
-343.391	-23.494	0.122	-0.073
-342.377	169.719	0.154	-0.220
-341.362	-144.871	-0.219	0.020
-340.348	800.000	0.034	0.123
-339.333	449.044	-0.126	-0.278
-338.318	52.661	0.141	-0.134
-337.304	54.011	0.172	-0.166
-336.289	208.440	-0.121	0.190
-335.275	-42.464	-0.109	0.056
-334.260	800.000	0.020	0.075
-333.245	-161.926	0.259	0.013
-332.231	-72.838	0.184	-0.068
-331.216	56.538	0.140	0.136
-330.202	-200.000	-0.043	-0.357
-329.187	681.951	-0.152	0.397
-328.172	185.162	0.092	0.137
-327.158	684.612	0.047	0.123
-326.143	800.000	-0.043	0.174
-325.129	101.553	0.175	-0.203
-324.114	-200.000	-0.282	0.000
-323.099	-162.330	-0.162	0.008
-322.085	800.000	-0.084	-0.329
-321.070	38.781	0.172	-0.153
-320.056	12.541	-0.072	-0.055
-319.041	-200.000	0.000	0.198
-318.026	-200.000	0.237	0.001
-317.012	728.748	0.054	0.145
-315.997	-61.708	-0.213	0.089
-314.983	-71.053	-0.093	-0.035
-313.968	-200.000	-0.007	-0.064
-312.953	191.771	-0.103	0.155
-311.939	458.541	0.023	-0.051
-310.924	194.804	0.072	0.109
-309.910	800.000	0.020	0.071
-308.895	-200.000	0.014	-0.442
-307.880	-20.071	-0.022	-0.013
-306.866	-200.000	-0.012	-0.084
-305.851	70.604	-0.070	0.072
-304.837	394.388	-0.127	0.265
-303.822	14.129	0.283	-0.220
-302.807	-37.581	-0.116	-0.062
-301.793	210.153	0.212	0.332
-300.778	-113.766	0.186	0.036
-299.764	-85.471	0.201	0.063
-298.749	800.000	0.083	-0.292
-297.735	-83.452	0.120	-0.039
-296.720	63.292	0.183	-0.183
-295.705	602.337	0.092	-0.229
-294.691	-23.325	0.082	-0.049
-293.676	57.820	-0.103	-0.100
-292.662	75.611	-0.066	-0.070
-291.647	580.239	-0.055	-0.135
-290.632	-200.000	-0.021	0.192
-289.618	213.476	0.062	0.097
-288.603	-101.364	0.338	0.082
-287.589	-200.000	0.030	-0.202
-286.574	1.607	-0.131	-0.094
-285.559	-200.000	-0.022	-0.169
-284.545	-103.873	-0.223	-0.052
-283.530	-200.000	0.054	0.321
-282.516	800.000	0.114	-0.491
-281.501	-200.000	0.025	-0.446
-280.486	72.004	0.068	-0.070
-279.472	-200.000	-0.036	0.357
-278.457	252.328	-0.084	-0.143
-277.443	-153.926	-0.469	0.032
-276.428	12.941	-0.089	-0.068
-275.413	281.410	-0.192	-0.343
-274.399	86.723	-0.103	-0.114
-273.384	800.000	0.040	0.151
-272.370	800.000	-0.115	0.473
-271.355	447.963	0.086	-0.189
-270.340	53.781	0.268	-0.257
-269.326	-50.482	0.279	0.131
-268.311	-200.000	0.031	-0.185
-267.297	144.549	-0.060	0.080
-266.282	-90.483	0.489	0.141
-265.267	-200.000	-0.027	0.308
-264.253	221.933	0.011	-0.018
-263.238	-82.887	-0.312	0.101
-262.224	-46.627	-0.265	-0.130
-261.209	-11.202	0.219	-0.144
-260.195	-114.965	0.060	0.011
-259.180	-92.978	0.174	-0.048
-258.165	800.000	0.067	-0.213
-257.151	409.932	-0.087	-0.184
-256.136	-80.213	-0.339	0.113
-255.122	29.697	-0.149	0.127
-254.107	-26.160	-0.218	-0.128
-253.092	291.753	0.162	-0.295
-252.078	800.000	0.083	-0.270
-251.063	-27.765	0.138	-0.080
-250.049	-84.275	0.382	0.120
-249.034	-8.838	-0.092	0.062
-248.019	130.133	-0.137	-0.175
-247.005	-55.776	-0.169	0.075
-245.990	25.134	0.163	0.135
-244.976	-45.818	-0.347	0.171
-243.961	326.909	0.136	0.260
-242.946	49.587	0.150	0.141
-241.932	-200.000	-0.018	0.215
-240.917	-200.000	0.006	0.159
-239.903	69.340	-0.200	0.205
-238.888	31.362	-0.202	0.173
-237.873	-200.000	-0.071	-0.339
-236.859	120.848	-0.123	-0.152
-235.844	-72.618	0.120	0.044
-234.830	-200.000	0.003	-0.185
-233.815	84.229	-0.090	0.099
-232.800	-5.890	-0.202	-0.138
-231.786	97.152	-0.078	-0.090
-230.771	-8.012	-0.069	0.046
-229.757	-117.356	0.072	0.013
-228.742	-81.907	-0.210	-0.068
-227.727	-61.403	0.205	-0.086
-226.713	-13.016	-0.121	0.078
-225.698	370.113	0.072	-0.146
-224.684	-86.413	0.104	0.032
-223.669	800.000	0.056	-0.212
-222.655	545.927	-0.074	-0.177
-221.640	518.944	0.014	0.033
-220.625	-200.000	0.045	0.349
-219.611	699.728	-0.111	-0.291
-218.596	-170.798	-0.124	-0.004
-217.582	-53.001	-0.140	0.064
-216.567	36.295	0.152	0.133
-215.552	-136.575	0.164	0.019
-214.538	-200.000	-0.009	0.057
-213.523	95.465	0.121	0.138
-212.509	-92.902	0.242	0.067
-211.494	311.670	-0.136	-0.253
-210.479	603.694	-0.067	-0.167
-209.465	-41.228	-0.104	0.053
-208.450	-200.000	-0.003	0.014
-207.436	6.736	0.096	0.071
-206.421	-93.944	0.321	-0.088
-205.406	-200.000	0.014	0.131
-204.392	273.951	0.126	-0.222
-203.377	-157.454	-0.019	-0.001
-202.363	-148.245	0.151	0.012
-201.348	4.191	-0.321	0.234
-200.333	-47.347	-0.098	0.048
-199.319	-152.180	0.287	-0.021
-198.304	-200.000	-0.021	-0.232
-197.290	27.009	0.074	0.062
-196.275	75.649	-0.303	-0.319
-195.260	-200.000	0.017	-0.156
-194.246	800.000	-0.092	0.334
-193.231	-96.291	0.056	-0.015
-192.217	800.000	-0.083	-0.293
-191.202	-117.816	0.201	0.036
-190.187	12.380	-0.053	0.041
-189.173	19.523	-0.308	0.246
-188.158	-98.096	0.123	0.031
-187.144	16.738	-0.194	0.153
-186.129	255.302	0.075	-0.127
-185.114	-200.000	0.002	0.027
-184.100	-3.676	-0.095	-0.066
-183.085	314.692	-0.162	-0.304
-182.071	-39.624	-0.520	0.271
-181.056	-136.308	0.117	-0.014
-180.042	188.880	0.174	-0.259
-179.027	-31.327	0.221	-0.124
-178.012	579.004	0.063	0.154
-176.998	-111.609	0.145	0.029
-175.983	-122.203	0.190	0.031
-174.969	800.000	0.043	0.131
-173.954	800.000	0.072	-0.266
-172.939	135.901	-0.133	-0.172
-171.925	-60.825	-0.298	0.126
-170.910	-28.814	-0.278	0.159
-169.896	-131.677	0.271	-0.035
-168.881	28.187	-0.194	0.163
-167.866	6.776	0.173	-0.128
-166.852	-94.811	-0.111	0.030
-165.837	25.778	-0.216	0.178
-164.823	50.601	-0.143	0.135
-163.808	-200.000	0.035	-0.314
-162.793	-20.686	-0.281	-0.172
-161.779	96.476	0.113	-0.128
-160.764	-99.375	-0.132	0.033
-159.750	79.469	0.171	0.182
-158.735	-96.704	0.347	-0.091
-157.720	-200.000	-0.013	-0.114
-156.706	-130.183	-0.188	-0.025
-155.691	101.633	0.113	0.131
-154.677	-60.654	0.261	0.110
-153.662	72.306	0.178	0.184
-152.647	-167.135	0.251	0.010
-151.633	-200.000	0.034	-0.230
-150.618	-161.175	-0.394	0.020
-149.604	80.217	0.151	0.162
-148.589	800.000	-0.051	-0.156
-147.574	385.737	0.037	0.076
-146.560	-200.000	0.023	0.115
-145.545	252.117	0.166	0.280
-144.531	-47.226	0.077	-0.037
-143.516	-128.865	0.326	-0.045
-142.502	8.855	0.127	-0.095
-141.487	3.433	-0.357	0.258
-140.472	166.296	-0.191	0.269
-139.458	129.768	-0.105	0.133
-138.443	-200.000	-0.024	-0.155
-137.429	-87.897	0.163	0.049
-136.414	267.424	0.023	-0.039
-135.399	233.543	-0.128	0.209
-134.385	800.000	-0.071	0.239
-133.370	37.021	-0.165	-0.145
-132.356	52.511	-0.055	-0.052
-131.341	-200.000	0.040	0.370
-130.326	-30.561	-0.206	-0.116
-129.312	10.139	-0.359	0.271
-128.297	159.525	-0.041	0.057
-127.283	-125.602	-0.361	-0.054
-126.268	253.755	-0.032	-0.054
-125.253	32.376	0.249	-0.214
-124.239	-99.020	0.230	-0.058
-123.224	-137.440	0.179	-0.020
-122.210	-163.953	-0.310	-0.014
-121.195	-200.000	0.044	0.218
-120.180	-200.000	0.001	0.117
-119.166	164.859	-0.234	0.327
