DTS Sentinel unit serial number:	SN413079Multiplexer serial number:	ORYXHardware model number:	OX4-SRSoftware version number:	ORYX F/W v4.00 Oryx Data Collector v3.7.2.0data status	okinstallation	princeton_trtdifferential loss correction	single-endedforward channel	channel 2reverse channel	N/Adate	2019/09/17time	04:59:34forward acquisition time	60.00reverse acquisition time	0.00gamma	496.2192k internal	0.2328k external	0.2328temperature offset calibration	0.9978default loss term (dB/km)	0.3790temperature slope calibration	1.0000multiplexer offset coefficient	1.0000multiplexer slope coefficient	1.0000fibre end	0.00T internal ref (°C)	29.50T ext. ref 1 (°C)	0.14T ext. ref 2 (°C)	23.95length (m)	temperature (°C)	Stokes	anti-Stokes-747.200	3.566	-0.120	0.088
-746.185	43.513	0.422	0.389
-745.171	-200.000	0.009	-0.119
-744.156	-18.294	0.139	0.088
-743.142	45.827	-0.059	0.055
-742.127	489.404	-0.154	0.354
-741.112	-49.074	-0.261	0.126
-740.098	140.360	0.047	0.063
-739.083	800.000	0.088	-0.258
-738.069	14.149	-0.232	-0.182
-737.054	228.248	-0.083	0.136
-736.039	-30.706	-0.121	0.069
-735.025	556.048	-0.066	0.159
-734.010	263.559	0.156	0.273
-732.996	81.085	-0.163	-0.177
-731.981	40.023	0.102	-0.092
-730.966	-200.000	0.004	-0.101
-729.952	98.045	0.035	0.040
-728.937	-200.000	0.036	0.263
-727.923	800.000	-0.035	-0.146
-726.908	20.930	0.310	-0.253
-725.894	-112.972	-0.279	-0.056
-724.879	-200.000	-0.000	-0.084
-723.864	800.000	0.119	0.438
-722.850	-24.483	0.115	0.069
-721.835	-200.000	0.004	-0.235
-720.821	-200.000	-0.045	-0.239
-719.806	12.871	-0.028	0.022
-718.791	-200.000	-0.025	-0.142
-717.777	621.812	0.007	-0.017
-716.762	-39.172	0.160	0.084
-715.748	24.009	-0.127	-0.105
-714.733	639.454	-0.121	-0.309
-713.718	-200.000	0.067	-0.633
-712.704	-47.710	-0.007	0.003
-711.689	363.563	0.170	-0.344
-710.675	129.332	0.096	0.124
-709.660	800.000	0.101	0.307
-708.645	-56.358	0.061	-0.027
-707.631	-91.946	0.218	0.062
-706.616	159.053	0.130	0.181
-705.602	-200.000	0.001	0.065
-704.587	-150.960	0.322	-0.024
-703.572	396.706	0.029	-0.061
-702.558	800.000	0.061	-0.195
-701.543	790.246	0.061	0.169
-700.529	80.701	0.060	-0.065
-699.514	-148.982	-0.232	0.019
-698.499	-8.499	0.224	0.151
-697.485	-200.000	0.018	0.120
-696.470	180.856	0.109	0.160
-695.456	524.648	-0.010	-0.025
-694.441	-26.275	0.026	0.015
-693.426	-200.000	0.009	0.148
-692.412	800.000	-0.094	-0.414
-691.397	27.910	-0.097	-0.082
-690.383	45.801	-0.196	0.183
-689.368	91.244	0.133	0.150
-688.354	-191.493	0.307	-0.003
-687.339	8.352	-0.135	0.102
-686.324	-76.654	0.111	0.039
-685.310	-200.000	-0.001	-0.088
-684.295	616.533	-0.053	0.132
-683.281	152.471	-0.093	-0.127
-682.266	85.359	-0.107	-0.118
-681.251	-58.303	-0.121	-0.053
-680.237	-119.680	-0.349	0.061
-679.222	-124.102	-0.082	-0.013
-678.208	-72.166	-0.465	-0.173
-677.193	-200.000	0.029	0.302
-676.178	-36.176	-0.302	-0.164
-675.164	-200.000	-0.187	-0.000
-674.149	800.000	-0.071	0.224
-673.135	-107.107	-0.302	-0.067
-672.120	35.057	0.268	-0.236
-671.105	-91.934	-0.054	0.015
-670.091	-200.000	-0.020	-0.182
-669.076	149.901	-0.204	0.278
-668.062	87.164	-0.060	0.067
-667.047	-39.379	-0.136	-0.072
-666.032	149.166	-0.226	-0.307
-665.018	-69.380	0.120	0.046
-664.003	800.000	0.030	0.128
-662.989	-200.000	0.064	-0.295
-661.974	800.000	0.007	-0.025
-660.959	-28.647	-0.161	-0.093
-659.945	-49.353	0.235	-0.113
-658.930	-119.661	0.304	0.053
-657.916	13.368	-0.131	0.102
-656.901	-84.531	0.258	-0.082
-655.886	125.719	0.189	0.240
-654.872	160.541	-0.292	-0.409
-653.857	128.230	-0.353	-0.451
-652.843	-129.010	0.076	-0.011
-651.828	-200.000	-0.031	0.431
-650.814	-34.442	-0.015	0.008
-649.799	91.064	0.112	-0.126
-648.784	189.818	-0.134	-0.201
-647.770	-110.250	-0.228	0.048
-646.755	733.911	-0.121	-0.324
-645.741	-200.000	-0.037	-0.270
-644.726	0.301	0.200	0.143
-643.711	-200.000	-0.002	-0.221
-642.697	-122.006	0.333	-0.055
-641.682	572.380	-0.046	0.111
-640.668	800.000	0.073	0.253
-639.653	296.687	0.101	-0.186
-638.638	24.603	-0.332	-0.275
-637.624	163.756	0.173	0.245
-636.609	-6.153	0.129	0.088
-635.595	-166.550	-0.305	0.013
-634.580	148.777	-0.106	-0.143
-633.565	712.136	0.028	-0.075
-632.551	373.757	-0.031	-0.064
-631.536	-200.000	0.017	-0.295
-630.522	-200.000	0.049	-0.293
-629.507	6.455	0.141	-0.105
-628.492	-85.036	-0.180	-0.057
-627.478	800.000	-0.030	0.133
-626.463	-140.700	0.018	0.002
-625.449	-140.091	-0.111	0.012
-624.434	-120.182	-0.089	0.015
-623.419	91.841	0.209	-0.236
-622.405	575.225	-0.193	0.472
-621.390	56.176	0.169	-0.164
-620.376	-4.357	0.198	0.138
-619.361	231.692	0.109	0.180
-618.346	800.000	-0.038	-0.145
-617.332	-200.000	0.004	-0.042
-616.317	800.000	-0.112	-0.402
-615.303	-200.000	-0.033	-0.217
-614.288	-61.859	0.223	-0.094
-613.273	-138.154	-0.024	0.003
-612.259	-200.000	-0.006	-0.038
-611.244	602.143	-0.111	-0.277
-610.230	-150.191	-0.151	-0.012
-609.215	387.231	0.196	0.405
-608.201	800.000	-0.048	-0.205
-607.186	-200.000	-0.006	0.350
-606.171	-107.769	0.405	-0.088
-605.157	166.750	0.063	0.090
-604.142	800.000	-0.042	-0.164
-603.128	-104.819	-0.095	-0.022
-602.113	8.082	-0.225	0.169
-601.098	728.184	-0.018	0.047
-600.084	-98.720	0.382	0.098
-599.069	-200.000	0.007	-0.295
-598.055	-200.000	-0.022	-0.599
-597.040	193.103	-0.091	0.138
-596.025	-47.409	-0.086	-0.042
-595.011	-200.000	-0.002	-0.332
-593.996	209.146	-0.214	0.336
-592.982	-177.900	0.081	0.002
-591.967	-122.917	-0.106	-0.017
-590.952	8.169	0.275	-0.207
-589.938	55.389	-0.055	0.054
-588.923	-31.467	-0.366	-0.206
-587.909	287.377	-0.068	-0.122
-586.894	-200.000	0.025	0.112
-585.879	274.262	-0.051	0.091
-584.865	56.383	-0.090	-0.087
-583.850	-112.839	0.125	0.025
-582.836	24.478	-0.152	-0.126
-581.821	244.364	-0.124	-0.208
-580.806	-186.253	-0.174	0.003
-579.792	800.000	-0.040	0.174
-578.777	-30.954	-0.210	0.119
-577.763	24.087	0.182	-0.150
-576.748	456.222	0.157	-0.349
-575.733	36.091	-0.268	-0.236
-574.719	311.265	0.058	0.109
-573.704	341.249	-0.104	-0.204
-572.690	44.079	-0.295	0.271
-571.675	-141.697	-0.050	0.005
-570.661	-84.239	0.079	-0.025
-569.646	466.145	-0.023	-0.051
-568.631	137.514	-0.144	-0.188
-567.617	800.000	-0.111	-0.400
-566.602	32.874	-0.228	-0.197
-565.588	192.185	-0.166	-0.251
-564.573	-200.000	-0.090	-0.425
-563.558	-140.322	-0.151	-0.016
-562.544	-1.078	-0.066	-0.047
-561.529	246.475	0.180	0.304
-560.515	-200.000	-0.045	-0.246
-559.500	-120.540	-0.158	-0.027
-558.485	537.366	0.122	0.289
-557.471	0.714	-0.169	0.121
-556.456	-189.336	0.303	0.004
-555.442	91.562	0.076	0.086
-554.427	-73.281	-0.263	0.096
-553.412	800.000	0.073	-0.249
-552.398	800.000	-0.123	0.346
-551.383	-33.420	0.057	0.032
-550.369	71.766	0.132	0.137
-549.354	3.942	-0.266	0.194
-548.339	-8.352	0.196	0.132
-547.325	183.344	-0.191	-0.282
-546.310	800.000	-0.042	0.162
-545.296	-33.344	0.111	0.062
-544.281	177.938	0.174	-0.254
-543.266	115.337	0.160	-0.195
-542.252	189.634	0.045	-0.068
-541.237	36.413	0.144	0.127
-540.223	-139.606	0.166	0.018
-539.208	-18.994	0.285	-0.177
-538.193	156.590	0.158	0.218
-537.179	120.642	0.194	0.241
-536.164	-46.465	-0.071	0.035
-535.150	-48.450	-0.204	-0.098
-534.135	-102.915	0.023	0.005
-533.121	-14.222	-0.357	0.230
-532.106	713.160	0.048	-0.128
-531.091	679.087	0.102	-0.266
-530.077	800.000	0.207	0.614
-529.062	513.598	-0.112	0.262
-528.048	250.801	-0.177	-0.300
-527.033	-128.725	0.187	-0.026
-526.018	51.468	0.157	0.149
-525.004	800.000	-0.029	-0.093
-523.989	25.854	0.178	-0.148
-522.975	-98.743	0.231	-0.059
-521.960	202.956	-0.062	-0.096
-520.945	-106.257	0.096	0.021
-519.931	-100.121	-0.231	-0.058
-518.916	-91.631	-0.209	0.059
-517.902	16.899	-0.209	-0.165
-516.887	77.269	-0.062	-0.066
-515.872	169.666	0.037	0.053
-514.858	-200.000	0.013	0.246
-513.843	432.689	0.073	0.157
-512.829	-109.954	0.227	0.047
-511.814	-61.541	-0.217	-0.091
-510.799	-18.715	-0.299	0.186
-509.785	-200.000	0.027	0.260
-508.770	23.422	-0.154	0.127
-507.756	27.818	-0.046	0.039
-506.741	-11.206	-0.106	-0.070
-505.726	98.904	0.207	-0.239
-504.712	-200.000	0.005	0.028
-503.697	-98.229	-0.062	-0.016
-502.683	-130.974	-0.110	0.015
-501.668	-105.527	0.275	-0.062
-500.653	336.928	-0.054	-0.105
-499.639	-81.924	0.012	0.004
-498.624	419.515	-0.076	-0.162
-497.610	-31.908	-0.242	0.136
-496.595	-121.003	-0.214	0.036
-495.581	364.990	-0.175	-0.352
-494.566	-104.814	0.116	-0.027
-493.551	-72.669	0.169	-0.062
-492.537	800.000	0.026	0.077
-491.522	-33.785	0.213	0.117
-490.508	-142.024	-0.156	0.016
-489.493	-68.349	0.169	-0.065
-488.478	92.680	0.095	0.107
-487.464	-118.325	-0.035	0.006
-486.449	210.718	0.231	-0.362
-485.435	-66.567	-0.199	0.079
-484.420	-138.194	-0.270	-0.030
-483.405	-200.000	-0.008	0.094
-482.391	-116.932	0.186	-0.034
-481.376	-92.059	0.229	-0.065
-480.362	-140.769	0.059	0.006
-479.347	327.066	-0.046	0.087
-478.332	-53.485	-0.129	0.059
-477.318	-200.000	-0.034	-0.354
-476.303	125.374	-0.203	0.255
-475.289	59.545	0.095	0.093
-474.274	455.331	0.156	-0.345
-473.259	-103.392	-0.376	-0.088
-472.245	-1.623	0.165	0.116
-471.230	75.762	0.264	-0.278
-470.216	800.000	0.087	-0.273
-469.201	-200.000	-0.031	0.183
-468.186	-76.182	-0.263	-0.093
-467.172	86.309	0.195	0.214
-466.157	103.204	-0.039	-0.045
-465.143	7.695	0.286	-0.213
-464.128	800.000	0.193	0.573
-463.113	-200.000	-0.017	0.260
-462.099	-65.722	0.138	0.055
-461.084	314.857	0.084	0.158
-460.070	-102.607	-0.194	-0.046
-459.055	15.637	-0.156	-0.122
-458.040	-136.848	0.076	0.009
-457.026	-27.986	-0.333	-0.192
-456.011	-57.777	-0.191	-0.083
-454.997	800.000	-0.069	-0.290
-453.982	153.988	-0.142	-0.194
-452.968	56.745	-0.286	-0.278
-451.953	-200.000	-0.003	-0.049
-450.938	28.463	0.028	0.024
-449.924	-81.555	-0.068	0.022
-448.909	-124.211	-0.143	0.022
-447.895	-111.347	0.162	-0.033
-446.880	800.000	-0.076	0.283
-445.865	-170.689	-0.510	-0.018
-444.851	-146.813	-0.131	0.011
-443.836	800.000	0.022	0.079
-442.822	167.487	-0.125	-0.177
-441.807	89.197	-0.047	-0.053
-440.792	-170.437	0.238	-0.008
-439.778	-81.133	0.457	0.150
-438.763	114.336	-0.110	0.134
-437.749	-152.529	0.073	-0.005
-436.734	-200.000	-0.004	-0.058
-435.719	-16.385	0.276	-0.174
-434.705	-41.352	0.041	-0.021
-433.690	-110.060	0.381	0.079
-432.676	-24.819	0.231	-0.136
-431.661	-49.000	-0.107	0.051
-430.646	-92.783	0.559	0.156
-429.632	-97.823	0.251	0.064
-428.617	-11.219	0.131	-0.086
-427.603	-168.482	0.085	0.003
-426.588	306.216	0.108	-0.199
-425.573	800.000	-0.058	0.161
-424.559	-110.418	0.091	0.019
-423.544	3.638	-0.500	0.363
-422.530	-113.554	-0.370	-0.072
-421.515	-200.000	-0.239	0.000
-420.500	-200.000	0.060	-0.365
-419.486	-200.000	0.041	-0.214
-418.471	88.044	-0.384	-0.424
-417.457	800.000	0.176	0.492
-416.442	-200.000	0.009	0.350
-415.428	-200.000	0.023	-0.259
-414.413	800.000	0.055	-0.219
-413.398	-83.617	-0.110	-0.035
-412.384	78.566	-0.131	-0.140
-411.369	-144.830	-0.038	-0.003
-410.355	-26.793	-0.393	0.228
-409.340	800.000	0.110	0.433
-408.325	126.441	-0.039	-0.049
-407.311	-152.438	0.169	-0.012
-406.296	-136.997	-0.129	-0.015
-405.282	195.238	0.126	-0.190
-404.267	50.977	0.144	-0.136
-403.252	306.570	0.136	0.252
-402.238	39.892	0.069	0.061
-401.223	-174.694	-0.077	0.002
-400.209	222.375	0.094	0.151
-399.194	-107.602	-0.302	-0.066
-398.179	-54.067	-0.351	-0.159
-397.165	-53.480	0.046	-0.021
-396.150	-119.865	-0.133	-0.023
-395.136	152.593	-0.156	0.212
-394.121	212.768	-0.029	-0.045
-393.106	-102.100	0.093	0.022
-392.092	183.338	-0.210	0.308
-391.077	178.521	-0.049	-0.072
-390.063	-200.000	0.009	0.177
-389.048	38.698	0.299	-0.265
-388.033	-3.325	0.283	0.196
-387.019	-200.000	0.028	0.310
-386.004	283.430	-0.077	0.138
-384.990	800.000	0.054	-0.149
-383.975	-200.000	0.012	-0.105
-382.960	-154.819	0.497	-0.033
-381.946	-200.000	0.011	-0.229
-380.931	389.423	0.172	0.353
-379.917	-103.811	-0.264	0.061
-378.902	-49.433	-0.334	0.158
-377.888	-118.015	0.155	-0.028
-376.873	44.091	0.093	0.085
-375.858	-196.962	-0.024	0.000
-374.844	107.642	0.058	-0.069
-373.829	-136.277	-0.221	-0.026
-372.815	50.590	-0.109	0.103
-371.800	544.962	-0.060	0.141
-370.785	588.550	0.128	0.313
-369.771	-77.696	-0.344	0.118
-368.756	-200.000	-0.011	0.121
-367.742	-155.371	-0.219	0.014
-366.727	-98.773	0.210	-0.053
-365.712	-200.000	0.002	0.135
-364.698	-58.406	-0.172	0.074
-363.683	-200.000	-0.014	0.186
-362.669	19.244	-0.109	0.087
-361.654	159.855	0.015	0.020
-360.639	-88.349	0.303	-0.090
-359.625	-72.071	-0.179	0.066
-358.610	-40.053	-0.120	0.062
-357.596	-200.000	0.009	-0.058
-356.581	220.435	-0.140	0.222
-355.566	800.000	-0.106	-0.360
-354.552	129.327	0.141	-0.179
-353.537	-123.680	-0.065	0.010
-352.523	-121.381	-0.290	0.048
-351.508	-16.849	-0.133	-0.084
-350.493	-72.769	-0.239	0.087
-349.479	-80.645	0.105	0.035
-348.464	-182.967	0.257	0.005
-347.450	214.209	0.158	-0.248
-346.435	-200.000	0.037	-0.230
-345.420	-200.000	0.136	0.000
-344.406	25.140	0.098	0.081
-343.391	213.240	-0.146	0.229
-342.377	154.161	0.140	0.190
-341.362	-200.000	0.001	-0.145
-340.348	443.041	0.249	0.541
-339.333	161.084	0.133	-0.184
-338.318	-11.629	-0.201	0.131
-337.304	73.424	-0.175	-0.182
-336.289	800.000	0.069	0.235
-335.275	324.673	0.049	-0.092
-334.260	-200.000	0.011	-0.190
-333.245	-31.940	-0.413	0.229
-332.231	-27.641	0.326	0.188
-331.216	104.426	-0.129	-0.151
-330.202	38.393	0.102	-0.090
-329.187	800.000	0.033	0.122
-328.172	-200.000	-0.077	0.405
-327.158	-200.000	0.032	-0.220
-326.143	-38.762	0.168	-0.088
-325.129	800.000	-0.063	0.228
-324.114	-32.411	0.243	-0.134
-323.099	-0.206	0.274	0.193
-322.085	139.419	-0.106	-0.139
-321.070	-138.322	0.417	-0.046
-320.056	-102.071	-0.120	0.029
-319.041	-10.453	0.091	0.060
-318.026	16.756	0.147	-0.115
-317.012	800.000	0.091	-0.292
-315.997	-200.000	0.025	-0.424
-314.983	-19.331	0.225	-0.138
-313.968	-200.000	-0.046	-0.215
-312.953	152.102	-0.099	-0.133
-311.939	800.000	-0.041	-0.173
-310.924	-63.055	-0.160	0.065
-309.910	36.589	-0.221	-0.193
-308.895	36.198	-0.104	0.091
-307.880	578.007	0.066	-0.160
-306.866	800.000	-0.104	0.429
-305.851	-131.572	-0.259	0.034
-304.837	-67.885	-0.075	0.029
-303.822	-81.825	0.279	0.090
-302.807	414.091	-0.147	-0.309
-301.793	-192.582	0.505	-0.005
-300.778	43.813	0.141	0.128
-299.764	-30.954	0.072	0.040
-298.749	216.432	0.068	0.107
-297.735	23.226	0.123	-0.100
-296.720	-200.000	-0.047	-0.222
-295.705	-43.444	-0.079	0.039
-294.691	-93.665	-0.202	-0.055
-293.676	-54.692	0.091	0.041
-292.662	52.506	0.075	-0.071
-291.647	-200.000	-0.024	-0.171
-290.632	12.423	0.285	-0.217
-289.618	-200.000	0.041	-0.434
-288.603	-37.440	-0.104	-0.055
-287.589	-200.000	-0.018	-0.511
-286.574	594.343	-0.142	0.348
-285.559	-46.026	-0.139	0.068
-284.545	-157.500	0.262	0.016
-283.530	-106.674	0.222	0.049
-282.516	-58.722	-0.264	-0.113
-281.501	131.131	0.136	0.173
-280.486	-200.000	0.012	0.060
-279.472	132.819	0.093	0.118
-278.457	59.591	0.262	-0.256
-277.443	-99.674	-0.167	0.041
-276.428	-175.320	0.158	-0.004
-275.413	-136.582	-0.126	-0.014
-274.399	609.016	-0.151	0.373
-273.384	318.011	-0.030	0.056
-272.370	-134.624	-0.165	-0.020
-271.355	399.844	-0.126	0.261
-270.340	14.885	0.123	-0.095
-269.326	-58.225	-0.124	0.053
-268.311	-200.000	-0.024	0.198
-267.297	41.685	-0.149	0.134
-266.282	117.744	-0.173	0.211
-265.267	-200.000	-0.034	-0.207
-264.253	-84.567	0.218	0.068
-263.238	-111.344	-0.106	0.021
-262.224	-124.080	0.144	0.022
-261.209	151.041	-0.235	-0.316
-260.195	-74.629	0.186	0.066
-259.180	-11.974	-0.062	0.040
-258.165	-43.621	0.418	-0.208
-257.151	-74.579	0.241	-0.086
-256.136	-73.515	-0.092	-0.033
-255.122	120.082	0.280	0.343
-254.107	-62.743	-0.167	0.068
-253.092	-108.386	-0.195	0.042
-252.078	-200.000	0.034	0.465
-251.063	711.547	0.123	0.322
-250.049	800.000	-0.059	0.213
-249.034	-108.740	-0.266	-0.056
-248.019	118.978	-0.104	0.127
-247.005	800.000	-0.115	-0.360
-245.990	800.000	-0.054	-0.192
-244.976	800.000	0.087	-0.274
-243.961	626.018	0.046	-0.114
-242.946	105.936	0.128	0.150
-241.932	731.765	-0.135	-0.356
-240.917	767.385	-0.043	-0.115
-239.903	-200.000	-0.011	0.436
-238.888	185.807	0.022	-0.033
-237.873	800.000	0.074	0.233
-236.859	-11.138	0.030	0.019
-235.844	-76.946	0.160	-0.055
-234.830	-102.255	-0.237	0.056
-233.815	-200.000	0.027	0.210
-232.800	-39.539	-0.374	0.193
-231.786	366.668	-0.164	-0.326
-230.771	427.919	0.105	0.223
-229.757	120.613	0.126	0.155
-228.742	800.000	0.055	0.188
-227.727	92.776	0.063	-0.071
-226.713	591.985	-0.173	0.422
-225.698	53.245	0.057	-0.054
-224.684	-9.410	-0.075	0.049
-223.669	-200.000	-0.002	0.025
-222.655	-134.071	0.060	-0.007
-221.640	-77.720	0.130	0.044
-220.625	-44.844	-0.140	0.069
-219.611	-111.565	0.019	0.004
-218.596	800.000	0.059	-0.194
-217.582	-200.000	-0.170	0.000
-216.567	191.068	0.043	0.064
-215.552	800.000	0.036	0.101
-214.538	-100.071	0.116	0.029
-213.523	-200.000	-0.005	-0.192
-212.509	-39.998	0.327	-0.168
-211.494	-20.965	0.056	-0.034
-210.479	187.330	-0.135	0.199
-209.465	-200.000	-0.029	-0.255
-208.450	223.031	0.133	-0.211
-207.436	800.000	0.058	0.202
-206.421	730.211	-0.033	-0.088
-205.406	-115.300	0.260	-0.048
-204.392	-54.786	-0.197	0.088
-203.377	800.000	0.059	-0.218
-202.363	-172.455	0.150	0.005
-201.348	1.240	0.215	-0.152
-200.333	-5.004	-0.105	0.071
-199.319	800.000	-0.050	0.196
-198.304	-200.000	0.027	0.161
-197.290	-200.000	0.019	0.148
-196.275	-126.259	0.272	0.040
-195.260	-200.000	-0.002	-0.051
-194.246	-200.000	0.033	0.269
-193.231	92.057	0.257	0.285
-192.217	75.149	-0.162	-0.168
-191.202	128.325	-0.165	0.207
-190.187	-28.555	0.121	-0.069
-189.173	-17.951	0.120	0.074
-188.158	-147.177	0.075	-0.006
-187.144	-134.773	0.260	0.031
-186.129	-69.526	-0.178	-0.067
-185.114	255.523	-0.158	0.267
-184.100	27.299	-0.224	-0.185
-183.085	89.612	0.179	-0.196
-182.071	9.123	0.198	-0.147
-181.056	416.019	-0.132	0.277
-180.042	797.387	0.068	-0.186
-179.027	458.569	-0.120	0.264
-178.012	266.815	0.160	0.275
-176.998	-40.431	0.391	-0.200
-175.983	-133.279	0.105	0.013
-174.969	-55.433	0.147	0.065
-173.954	-69.187	0.235	0.089
-172.939	102.578	0.067	0.078
-171.925	596.987	-0.065	0.159
-170.910	-200.000	-0.031	0.289
-169.896	-200.000	-0.011	-0.169
-168.881	419.966	0.221	0.466
-167.866	-200.000	0.003	0.281
-166.852	-98.497	0.197	-0.050
-165.837	82.109	0.244	-0.261
-164.823	-84.109	-0.323	-0.101
-163.808	800.000	0.060	0.197
-162.793	-77.781	0.227	0.077
-161.779	-139.511	-0.288	0.030
-160.764	800.000	0.128	0.518
-159.750	-96.086	-0.207	0.054
-158.735	56.204	-0.024	-0.023
-157.720	-41.661	0.175	0.089
-156.706	150.932	-0.207	0.278
-155.691	-101.499	-0.239	0.057
-154.677	-151.290	-0.022	0.002
-153.662	-10.857	-0.302	-0.197
-152.647	129.925	-0.242	-0.304
-151.633	-200.000	0.016	-0.222
-150.618	-20.101	0.189	0.115
-149.604	-22.718	-0.108	-0.064
-148.589	-4.112	-0.284	0.193
-147.574	42.761	-0.071	0.064
-146.560	-200.000	0.013	-0.144
-145.545	-12.274	-0.048	0.031
-144.531	-114.420	-0.091	0.017
-143.516	-200.000	-0.037	-0.302
-142.502	-56.194	0.316	-0.139
-141.487	236.242	-0.115	-0.188
-140.472	800.000	-0.105	0.330
-139.458	315.509	-0.090	0.168
-138.443	-24.280	-0.273	0.160
-137.429	235.381	0.017	-0.028
-136.414	515.239	-0.132	0.303
-135.399	-200.000	0.052	0.235
-134.385	-74.121	0.091	0.032
-133.370	-200.000	0.032	-0.222
-132.356	-32.992	-0.279	-0.152
-131.341	800.000	-0.061	0.197
-130.326	-148.827	0.138	-0.011
-129.312	-110.624	-0.294	0.060
-128.297	-66.600	-0.208	0.081
-127.283	187.853	-0.148	0.218
-126.268	-200.000	0.033	0.345
-125.253	-63.372	0.197	-0.080
-124.239	-122.855	0.265	0.042
-123.224	-181.950	0.034	-0.001
-122.210	20.321	-0.062	-0.049
-121.195	-200.000	0.020	-0.149
