DTS Sentinel unit serial number:	SN413079Multiplexer serial number:	ORYXHardware model number:	OX4-SRSoftware version number:	ORYX F/W v4.00 Oryx Data Collector v3.7.2.0data status	okinstallation	princeton_trtdifferential loss correction	single-endedforward channel	channel 2reverse channel	N/Adate	2019/09/16time	19:19:35forward acquisition time	60.00reverse acquisition time	0.00gamma	496.2192k internal	0.2322k external	0.2322temperature offset calibration	0.9969default loss term (dB/km)	0.3790temperature slope calibration	1.0000multiplexer offset coefficient	1.0000multiplexer slope coefficient	1.0000fibre end	0.00T internal ref (°C)	34.87T ext. ref 1 (°C)	0.06T ext. ref 2 (°C)	28.07length (m)	temperature (°C)	Stokes	anti-Stokes-747.200	795.619	0.102	0.285
-746.185	-78.913	-0.313	0.108
-745.171	102.976	-0.223	0.264
-744.156	24.390	-0.215	0.179
-743.142	-133.239	0.160	0.020
-742.127	250.594	-0.083	0.143
-741.112	-43.019	0.200	-0.102
-740.098	-61.222	-0.239	-0.102
-739.083	-200.000	-0.042	-0.282
-738.069	-86.687	-0.299	0.093
-737.054	-200.000	0.041	0.211
-736.039	-94.789	-0.216	-0.059
-735.025	126.543	0.230	0.294
-734.010	20.546	-0.129	-0.105
-732.996	22.591	-0.132	-0.109
-731.981	58.884	0.023	-0.023
-730.966	-200.000	0.014	0.122
-729.952	105.885	-0.238	0.284
-728.937	-112.262	-0.274	-0.056
-727.923	622.331	-0.085	-0.216
-726.908	-17.879	-0.261	0.166
-725.894	390.346	-0.073	-0.154
-724.879	-197.282	-0.063	-0.000
-723.864	494.748	0.090	0.209
-722.850	-155.673	0.244	-0.016
-721.835	352.445	-0.089	-0.177
-720.821	-200.000	0.019	0.208
-719.806	-200.000	0.014	-0.527
-718.791	205.397	-0.121	-0.190
-717.777	29.838	-0.292	-0.251
-716.762	800.000	-0.038	-0.164
-715.748	146.324	0.259	-0.351
-714.733	678.649	0.069	0.182
-713.718	29.292	-0.319	-0.273
-712.704	-191.578	0.210	0.002
-711.689	-200.000	0.013	0.244
-710.675	175.585	0.032	0.046
-709.660	36.401	0.316	-0.282
-708.645	-177.282	-0.331	-0.008
-707.631	149.032	-0.297	-0.406
-706.616	-200.000	0.015	-0.361
-705.602	-139.887	-0.202	0.022
-704.587	531.729	0.111	-0.265
-703.572	-74.989	0.147	0.053
-702.558	398.321	-0.176	-0.371
-701.543	-200.000	0.022	-0.207
-700.529	-107.163	-0.267	-0.059
-699.514	-22.546	-0.367	-0.224
-698.499	-10.982	0.261	-0.174
-697.485	-37.523	0.277	-0.149
-696.470	-124.138	-0.024	0.004
-695.456	75.697	-0.087	0.092
-694.441	-190.479	0.221	0.002
-693.426	-27.978	-0.170	0.099
-692.412	-140.759	-0.146	-0.015
-691.397	52.394	-0.081	0.078
-690.383	-165.243	0.381	0.017
-689.368	800.000	-0.113	-0.322
-688.354	-200.000	0.098	-0.456
-687.339	-0.383	-0.195	-0.139
-686.324	291.283	0.036	0.065
-685.310	155.860	-0.118	-0.163
-684.295	756.377	-0.039	-0.105
-683.281	-83.567	-0.444	-0.143
-682.266	-15.262	0.223	-0.144
-681.251	61.889	-0.131	-0.131
-680.237	24.408	0.055	-0.045
-679.222	226.896	-0.056	0.092
-678.208	18.530	0.292	0.235
-677.193	215.599	0.154	-0.246
-676.178	-200.000	0.015	-0.101
-675.164	-148.945	0.226	-0.018
-674.149	10.130	-0.055	-0.042
-673.135	-117.156	-0.170	-0.031
-672.120	49.114	-0.206	-0.195
-671.105	340.174	0.086	-0.169
-670.091	800.000	0.175	-0.581
-669.076	-200.000	0.001	-0.140
-668.062	109.404	-0.162	0.195
-667.047	-70.723	-0.364	-0.138
-666.032	12.681	-0.064	0.050
-665.018	-140.769	0.171	-0.018
-664.003	614.711	-0.108	-0.273
-662.989	-41.680	0.378	-0.195
-661.974	151.517	0.036	-0.049
-660.959	-108.606	0.160	-0.035
-659.945	129.361	-0.175	0.225
-658.930	82.406	0.182	-0.199
-657.916	-200.000	-0.012	-0.391
-656.901	-160.823	0.309	-0.016
-655.886	283.598	-0.173	-0.314
-654.872	-200.000	0.029	-0.421
-653.857	43.668	0.281	-0.259
-652.843	-85.346	-0.238	-0.075
-651.828	89.838	0.090	-0.102
-650.814	800.000	0.078	-0.319
-649.799	-200.000	-0.007	0.046
-648.784	800.000	0.132	0.397
-647.770	-200.000	0.057	-0.323
-646.755	479.662	-0.077	-0.176
-645.741	800.000	0.048	0.185
-644.726	290.017	0.024	-0.044
-643.711	-155.781	0.403	-0.026
-642.697	763.268	-0.039	-0.107
-641.682	-200.000	-0.015	0.103
-640.668	416.132	0.108	0.232
-639.653	-39.899	0.086	-0.045
-638.638	-200.000	-0.019	-0.257
-637.624	-70.767	-0.022	0.008
-636.609	-102.740	-0.295	-0.071
-635.595	800.000	0.093	-0.307
-634.580	774.010	0.067	0.183
-633.565	-200.000	0.043	0.202
-632.551	50.187	-0.349	0.331
-631.536	-49.072	0.038	-0.018
-630.522	-93.691	-0.238	0.066
-629.507	-200.000	-0.063	-0.308
-628.492	301.189	0.070	0.130
-627.478	-166.079	0.193	-0.008
-626.463	187.910	-0.045	0.067
-625.449	-102.280	-0.286	-0.069
-624.434	-123.471	0.353	-0.056
-623.419	-4.577	0.194	0.134
-622.405	14.607	0.272	-0.213
-621.390	-34.933	-0.299	-0.164
-620.376	-184.466	-0.329	0.005
-619.361	511.303	-0.043	0.100
-618.346	326.429	0.079	-0.153
-617.332	182.698	0.144	-0.214
-616.317	292.194	0.120	0.219
-615.303	-64.813	0.053	-0.022
-614.288	-58.843	-0.090	0.039
-613.273	124.297	0.118	0.149
-612.259	8.769	0.090	-0.068
-611.244	734.346	0.045	-0.121
-610.230	-200.000	-0.008	-0.355
-609.215	54.810	-0.216	-0.210
-608.201	-106.002	0.174	-0.039
-607.186	-200.000	-0.049	-0.283
-606.171	800.000	-0.101	-0.321
-605.157	81.987	0.050	0.055
-604.142	-25.512	-0.165	0.098
-603.128	-172.975	0.135	0.004
-602.113	-55.469	-0.236	0.106
-601.098	625.741	0.032	-0.080
-600.084	-200.000	-0.002	0.010
-599.069	-112.177	-0.433	-0.087
-598.055	-74.564	-0.167	0.060
-597.040	31.172	0.010	-0.009
-596.025	21.444	-0.225	0.183
-595.011	-200.000	-0.046	0.355
-593.996	-173.104	-0.270	0.008
-592.982	-47.556	0.241	-0.117
-591.967	-27.444	-0.354	0.206
-590.952	212.338	-0.072	0.114
-589.938	-25.789	-0.116	-0.068
-588.923	800.000	-0.033	0.118
-587.909	121.237	-0.058	-0.072
-586.894	155.280	-0.077	-0.106
-585.879	51.865	0.163	0.155
-584.865	-122.705	-0.331	-0.054
-583.850	800.000	0.078	0.309
-582.836	378.893	0.092	0.188
-581.821	800.000	-0.096	0.283
-580.806	457.904	-0.161	0.360
-579.792	800.000	-0.054	0.238
-578.777	-123.455	-0.309	-0.049
-577.763	161.127	0.213	0.299
-576.748	-200.000	-0.011	-0.096
-575.733	800.000	0.076	0.235
-574.719	-200.000	0.032	-0.207
-573.704	393.223	0.040	-0.084
-572.690	105.209	-0.106	0.125
-571.675	419.950	0.144	0.309
-570.661	-79.853	-0.291	-0.098
-569.646	-94.191	0.131	0.036
-568.631	60.700	-0.323	-0.321
-567.617	20.052	0.145	-0.118
-566.602	-81.600	-0.331	0.109
-565.588	-135.380	-0.145	0.017
-564.573	-35.088	0.267	-0.146
-563.558	800.000	0.102	0.426
-562.544	800.000	-0.117	0.348
-561.529	17.888	-0.210	-0.168
-560.515	277.566	-0.036	-0.064
-559.500	-132.558	0.189	0.024
-558.485	43.305	-0.141	0.129
-557.471	-63.254	-0.046	-0.019
-556.456	645.048	0.112	0.286
-555.442	-200.000	-0.026	-0.184
-554.427	124.422	-0.121	-0.152
-553.412	-135.997	-0.144	0.017
-552.398	752.403	0.130	0.351
-551.383	-57.966	-0.082	-0.036
-550.369	168.414	-0.202	-0.288
-549.354	589.320	-0.044	0.108
-548.339	-89.160	-0.394	-0.117
-547.325	-37.794	0.119	0.064
-546.310	77.690	0.202	0.216
-545.296	-20.355	-0.088	-0.055
-544.281	612.440	0.072	-0.181
-543.266	-115.435	0.140	-0.026
-542.252	-200.000	0.005	-0.068
-541.237	800.000	0.076	0.235
-540.223	-148.341	-0.611	-0.050
-539.208	-200.000	0.009	0.095
-538.193	118.293	0.131	0.162
-537.179	49.161	-0.073	0.069
-536.164	-22.449	-0.183	0.111
-535.150	261.531	0.129	0.224
-534.135	181.957	0.124	0.183
-533.121	-71.310	0.188	0.071
-532.106	243.559	-0.089	0.149
-531.091	-163.763	-0.378	-0.018
-530.077	96.216	0.032	-0.037
-529.062	800.000	0.099	-0.365
-528.048	-107.358	-0.169	0.037
-527.033	385.570	0.169	0.348
-526.018	-132.769	0.445	0.057
-525.004	-200.000	0.027	0.270
-523.989	571.772	-0.117	-0.286
-522.975	-147.629	-0.085	0.007
-521.960	-52.096	-0.138	-0.064
-520.945	69.298	-0.032	-0.033
-519.931	239.954	0.197	0.328
-518.916	-13.612	-0.068	-0.044
-517.902	800.000	-0.092	-0.338
-516.887	329.507	-0.115	-0.221
-515.872	-31.769	-0.187	-0.105
-514.858	-200.000	-0.005	0.157
-513.843	-31.689	-0.034	-0.019
-512.829	31.893	-0.178	-0.154
-511.814	-7.846	0.155	0.104
-510.799	214.122	-0.189	-0.300
-509.785	193.993	-0.040	-0.061
-508.770	25.402	-0.241	0.201
-507.756	-24.770	0.086	0.051
-506.741	-30.297	-0.129	0.074
-505.726	22.307	0.164	-0.134
-504.712	-71.068	0.100	-0.038
-503.697	-94.872	-0.088	0.024
-502.683	-35.515	-0.223	-0.121
-501.668	-47.546	-0.151	0.073
-500.653	-87.087	0.453	-0.138
-499.639	-83.445	0.159	-0.051
-498.624	-200.000	0.013	-0.103
-497.610	-200.000	0.033	0.176
-496.595	800.000	0.118	0.401
-495.581	595.617	0.075	0.186
-494.566	642.193	0.086	0.220
-493.551	-106.306	0.231	-0.052
-492.537	88.505	0.072	0.080
-491.522	188.906	0.058	-0.087
-490.508	557.758	-0.041	0.100
-489.493	-46.234	0.147	-0.072
-488.478	-200.000	0.007	0.042
-487.464	-22.719	-0.098	0.059
-486.449	-48.124	-0.305	-0.147
-485.435	-200.000	-0.011	-0.156
-484.420	-112.950	-0.264	0.052
-483.405	800.000	0.125	0.407
-482.391	-37.673	0.156	0.083
-481.376	-161.936	0.203	0.010
-480.362	134.460	0.027	0.035
-479.347	-99.218	-0.434	0.110
-478.332	273.937	-0.024	-0.043
-477.318	30.875	0.173	0.148
-476.303	800.000	0.038	0.159
-475.289	800.000	0.069	0.195
-474.274	-138.469	0.284	-0.031
-473.259	-200.000	0.165	-0.000
-472.245	-102.052	-0.209	0.050
-471.230	546.517	-0.085	-0.202
-470.216	-23.945	-0.067	-0.040
-469.201	-11.833	0.091	-0.059
-468.186	370.724	-0.144	-0.293
-467.172	161.981	0.141	0.197
-466.157	-169.295	-0.271	0.010
-465.143	800.000	0.033	0.138
-464.128	-27.402	-0.144	-0.083
-463.113	800.000	-0.057	-0.175
-462.099	-57.542	0.043	-0.019
-461.084	64.067	-0.113	-0.114
-460.070	-120.104	0.066	0.011
-459.055	-27.032	-0.071	-0.041
-458.040	-200.000	-0.035	-0.429
-457.026	498.122	0.073	-0.168
-456.011	-200.000	-0.088	-0.429
-454.997	-200.000	-0.004	0.134
-453.982	72.958	-0.094	-0.098
-452.968	-133.177	0.421	0.053
-451.953	586.794	0.033	0.081
-450.938	104.366	0.124	-0.146
-449.924	686.189	0.059	-0.153
-448.909	-12.172	0.220	0.144
-447.895	166.207	-0.194	0.275
-446.880	800.000	-0.053	-0.168
-445.865	-132.503	-0.043	0.006
-444.851	-174.034	0.166	-0.005
-443.836	635.958	0.114	0.289
-442.822	-1.798	0.277	0.194
-441.807	-200.000	0.011	0.242
-440.792	-200.000	-0.060	-0.318
-439.778	49.286	-0.019	0.018
-438.763	800.000	-0.036	-0.134
-437.749	-200.000	0.011	0.235
-436.734	253.021	0.062	0.106
-435.719	800.000	-0.034	0.115
-434.705	-61.614	-0.110	-0.046
-433.690	655.990	-0.057	-0.146
-432.676	-48.934	0.138	0.066
-431.661	608.233	-0.070	-0.174
-430.646	800.000	-0.125	-0.400
-429.632	-6.455	-0.213	0.145
-428.617	800.000	0.013	-0.051
-427.603	72.031	0.222	0.230
-426.588	-200.000	-0.008	-0.144
-425.573	-40.993	0.268	-0.138
-424.559	15.170	-0.100	0.078
-423.544	800.000	0.078	0.293
-422.530	-200.000	0.005	0.084
-421.515	-20.885	-0.157	-0.096
-420.500	2.593	-0.208	-0.150
-419.486	-34.816	-0.118	-0.064
-418.471	-70.537	-0.173	-0.065
-417.457	454.707	0.023	-0.051
-416.442	574.995	0.150	0.364
-415.428	-87.539	0.075	0.023
-414.413	-121.462	-0.263	-0.044
-413.398	617.022	-0.092	0.230
-412.384	337.161	0.088	0.171
-411.369	-33.723	-0.136	0.075
-410.355	800.000	0.063	-0.191
-409.340	243.330	0.120	-0.200
-408.325	-200.000	0.054	-0.245
-407.311	5.944	0.169	-0.125
-406.296	19.480	-0.125	-0.100
-405.282	-200.000	0.021	-0.190
-404.267	800.000	-0.063	0.263
-403.252	165.446	-0.174	-0.245
-402.238	-58.519	-0.099	0.043
-401.223	10.783	0.229	-0.174
-400.209	-5.073	0.130	-0.089
-399.194	-17.349	-0.113	-0.071
-398.179	-116.699	0.154	0.028
-397.165	-200.000	0.008	-0.152
-396.150	88.960	-0.149	0.165
-395.136	800.000	0.073	-0.242
-394.121	-200.000	-0.015	-0.279
-393.106	800.000	-0.050	-0.207
-392.092	-135.355	-0.124	-0.015
-391.077	-64.540	0.045	-0.018
-390.063	150.369	0.106	-0.144
-389.048	46.054	-0.236	-0.217
-388.033	121.794	0.033	0.041
-387.019	-122.646	-0.080	-0.013
-386.004	100.923	-0.061	0.071
-384.990	1.886	0.210	0.151
-383.975	399.730	-0.025	0.051
-382.960	61.348	-0.051	-0.050
-381.946	-63.561	-0.085	0.035
-380.931	210.293	-0.036	0.057
-379.917	577.347	-0.044	-0.108
-378.902	-200.000	0.075	-0.380
-377.888	140.282	-0.078	0.103
-376.873	-123.118	0.098	-0.016
-375.858	-66.560	0.190	-0.075
-374.844	800.000	-0.028	0.085
-373.829	-200.000	-0.032	-0.463
-372.815	-114.994	0.145	-0.027
-371.800	800.000	-0.025	0.070
-370.785	-73.965	-0.333	-0.120
-369.771	-70.354	0.109	-0.041
-368.756	-200.000	-0.001	0.154
-367.742	-88.592	0.165	-0.049
-366.727	-23.870	0.117	0.069
-365.712	-53.726	0.089	0.040
-364.698	-115.319	-0.006	-0.001
-363.683	-9.174	0.113	0.075
-362.669	87.764	0.146	0.161
-361.654	-200.000	-0.063	-0.279
-360.639	185.797	-0.201	-0.298
-359.625	-200.000	-0.063	-0.295
-358.610	-181.471	0.185	0.004
-357.596	554.243	-0.067	-0.161
-356.581	800.000	0.093	-0.327
-355.566	-81.225	-0.245	-0.080
-354.552	-64.009	0.046	-0.018
-353.537	800.000	-0.084	0.355
-352.523	-8.460	0.366	0.245
-351.508	114.544	0.102	0.124
-350.493	41.607	-0.174	-0.157
-349.479	12.423	0.162	0.124
-348.464	-200.000	0.000	0.194
-347.450	-121.543	0.282	0.047
-346.435	23.027	0.098	0.080
-345.420	28.742	0.286	0.241
-344.406	-124.170	-0.024	0.004
-343.391	-200.000	0.015	-0.208
-342.377	-200.000	0.015	-0.141
-341.362	-88.761	-0.138	-0.041
-340.348	19.165	-0.127	-0.101
-339.333	15.398	-0.109	0.085
-338.318	185.479	-0.178	-0.262
-337.304	-128.608	0.146	-0.021
-336.289	29.553	-0.229	0.193
-335.275	-81.173	-0.247	0.081
-334.260	94.471	-0.157	0.177
-333.245	8.548	0.119	-0.089
-332.231	-40.018	0.204	0.106
-331.216	-48.683	0.193	-0.092
-330.202	-78.504	-0.161	0.055
-329.187	-200.000	-0.044	0.677
-328.172	549.563	-0.035	-0.084
-327.158	-135.028	0.397	0.048
-326.143	58.693	0.322	0.314
-325.129	-20.175	0.258	-0.158
-324.114	-73.730	0.111	-0.040
-323.099	-76.671	-0.062	0.022
-322.085	23.602	0.124	0.102
-321.070	121.288	-0.046	-0.056
-320.056	-200.000	-0.014	-0.332
-319.041	402.352	0.028	-0.058
-318.026	-200.000	-0.009	-0.200
-317.012	-169.689	-0.170	0.006
-315.997	219.145	0.197	-0.313
-314.983	136.580	0.259	-0.336
-313.968	800.000	0.053	-0.202
-312.953	3.692	0.110	-0.080
-311.939	-11.828	0.316	-0.206
-310.924	382.790	-0.131	0.268
-309.910	-50.153	-0.365	0.171
-308.895	-150.640	0.155	0.012
-307.880	689.127	0.055	0.143
-306.866	108.811	-0.276	0.328
-305.851	57.648	0.280	-0.272
-304.837	-7.381	-0.009	0.006
-303.822	-135.598	-0.231	-0.027
-302.807	209.535	-0.165	0.256
-301.793	-97.739	-0.194	-0.050
-300.778	-193.779	0.030	-0.000
-299.764	800.000	0.063	0.186
-298.749	469.765	-0.081	0.182
-297.735	-115.063	0.506	0.095
-296.720	-200.000	0.048	0.215
-295.705	-97.326	0.342	-0.088
-294.691	-74.664	-0.101	-0.036
-293.676	51.938	0.237	0.224
-292.662	155.814	-0.311	-0.426
-291.647	800.000	-0.060	-0.243
-290.632	-27.115	0.293	-0.170
-289.618	25.387	-0.226	0.187
-288.603	-4.372	0.165	0.113
-287.589	214.783	-0.078	0.122
-286.574	800.000	-0.060	0.227
-285.559	800.000	0.054	0.159
-284.545	-31.397	0.280	-0.157
-283.530	800.000	-0.074	-0.263
-282.516	568.179	0.132	-0.319
-281.501	61.875	-0.236	-0.233
-280.486	80.882	0.234	-0.250
-279.472	800.000	-0.057	-0.161
-278.457	-52.394	0.215	-0.099
-277.443	86.034	0.156	0.170
-276.428	-42.106	0.133	-0.067
-275.413	-51.819	-0.191	0.088
-274.399	-200.000	-0.003	-0.145
-273.384	223.535	0.089	-0.143
-272.370	26.536	-0.183	0.152
-271.355	168.678	-0.134	-0.190
-270.340	-141.997	-0.152	0.015
-269.326	10.626	0.166	-0.126
-268.311	800.000	-0.058	-0.195
-267.297	174.684	-0.289	-0.415
-266.282	-200.000	-0.004	0.333
-265.267	-74.523	0.277	0.099
-264.253	107.866	0.176	-0.208
-263.238	800.000	-0.021	-0.062
-262.224	368.520	0.065	0.131
-261.209	-58.574	0.103	0.044
-260.195	368.133	0.086	0.171
-259.180	97.843	0.251	-0.286
-258.165	-200.000	-0.006	0.105
-257.151	39.207	0.264	-0.234
-256.136	-81.513	-0.072	-0.024
-255.122	-160.795	0.245	-0.013
-254.107	-131.834	-0.205	0.027
-253.092	-58.635	0.149	-0.064
-252.078	130.678	-0.182	-0.231
-251.063	-120.888	0.339	-0.057
-250.049	92.080	-0.131	0.146
-249.034	-75.473	0.171	-0.060
-248.019	93.242	-0.087	0.097
-247.005	47.704	0.030	-0.028
-245.990	-158.251	-0.344	0.020
-244.976	-137.193	0.197	-0.022
-243.961	-157.966	0.304	-0.018
-242.946	-200.000	0.052	-0.253
-241.932	-9.050	0.114	0.076
-240.917	-93.603	0.075	0.021
-239.903	57.641	-0.288	0.279
-238.888	459.487	0.050	0.109
-237.873	-156.335	-0.304	0.019
-236.859	800.000	-0.141	0.468
-235.844	-20.504	-0.200	-0.122
-234.830	-112.158	-0.361	-0.072
-233.815	108.636	0.082	-0.096
-232.800	408.678	-0.041	-0.086
-231.786	212.821	-0.149	0.232
-230.771	643.607	0.006	0.016
-229.757	101.092	-0.060	0.069
-228.742	-86.921	0.199	-0.060
-227.727	44.739	0.226	-0.206
-226.713	-200.000	-0.022	-0.290
-225.698	713.445	0.035	0.093
-224.684	-200.000	0.253	-0.000
-223.669	-153.608	-0.193	-0.013
-222.655	-1.267	0.111	0.078
-221.640	-2.227	-0.162	-0.112
-220.625	-130.140	0.303	-0.041
-219.611	-109.964	-0.218	0.045
-218.596	138.097	-0.214	-0.278
-217.582	-90.167	-0.179	0.052
-216.567	362.742	-0.091	0.181
-215.552	-200.000	0.108	-0.000
-214.538	-200.000	-0.017	0.295
-213.523	-19.906	0.266	0.163
-212.509	-200.000	-0.003	-0.159
-211.494	222.147	-0.097	0.154
-210.479	-200.000	0.075	0.400
-209.465	214.351	0.134	0.210
-208.450	-141.935	0.222	-0.022
-207.436	28.617	-0.262	0.219
-206.421	800.000	-0.037	-0.146
-205.406	800.000	-0.115	0.361
-204.392	800.000	-0.095	-0.323
-203.377	-200.000	-0.114	0.518
-202.363	-158.923	0.233	0.013
-201.348	-200.000	-0.016	0.158
-200.333	22.181	0.266	0.215
-199.319	-37.172	-0.188	0.099
-198.304	67.779	-0.098	0.099
-197.290	-200.000	0.009	-0.043
-196.275	-19.036	-0.184	-0.113
-195.260	462.322	0.072	0.158
-194.246	111.629	-0.099	0.118
-193.231	800.000	0.052	-0.186
-192.217	176.969	0.199	-0.286
-191.202	-10.246	0.290	-0.190
-190.187	-80.028	-0.058	-0.019
-189.173	181.832	0.096	0.140
-188.158	14.034	-0.055	0.042
-187.144	26.028	-0.302	-0.249
-186.129	-200.000	-0.036	0.189
-185.114	-200.000	0.017	-0.342
-184.100	-119.991	-0.078	-0.013
-183.085	100.683	0.089	0.102
-182.071	4.766	-0.300	0.218
-181.056	346.847	0.055	-0.108
-180.042	-200.000	0.006	0.134
-179.027	314.332	-0.137	-0.255
-178.012	-126.730	-0.110	0.016
-176.998	-102.384	0.155	0.037
-175.983	181.915	-0.182	0.265
-174.969	-200.000	0.046	0.211
-173.954	800.000	0.020	0.058
-172.939	800.000	-0.098	-0.284
-171.925	20.083	0.261	0.208
-170.910	-2.789	0.309	0.213
-169.896	-40.110	-0.335	0.173
-168.881	-129.012	0.425	0.059
-167.866	-200.000	0.020	-0.154
-166.852	-200.000	-0.007	0.121
-165.837	59.578	-0.224	-0.219
-164.823	-200.000	0.026	-0.249
-163.808	-74.223	-0.089	0.032
-162.793	-200.000	-0.023	-0.220
-161.779	-11.527	0.093	-0.060
-160.764	-42.998	0.103	-0.051
-159.750	72.672	-0.042	-0.043
-158.735	-30.797	0.366	-0.205
-157.720	-110.014	-0.327	-0.068
-156.706	800.000	0.038	0.138
-155.691	-200.000	-0.040	0.273
-154.677	134.208	-0.275	-0.352
-153.662	-113.495	0.178	-0.034
-152.647	-200.000	-0.006	0.173
-151.633	-182.690	0.246	-0.004
-150.618	-200.000	-0.069	0.401
-149.604	-200.000	0.017	-0.283
-148.589	273.014	-0.056	-0.098
-147.574	130.586	-0.147	-0.187
-146.560	-127.725	0.152	-0.022
-145.545	-70.624	0.082	0.031
-144.531	-200.000	0.038	0.165
-143.516	24.274	-0.014	-0.011
-142.502	77.879	0.205	-0.216
-141.487	24.392	0.168	-0.137
-140.472	156.354	0.172	0.234
-139.458	-176.141	0.176	-0.005
-138.443	-77.335	-0.340	0.116
-137.429	58.493	0.145	-0.140
-136.414	-134.887	0.392	0.047
-135.399	-150.765	-0.294	-0.022
-134.385	800.000	-0.042	0.153
-133.370	-200.000	0.013	0.222
-132.356	375.930	0.042	-0.085
-131.341	191.460	-0.075	-0.111
-130.326	-80.967	0.499	-0.163
-129.312	31.180	0.140	-0.118
-128.297	800.000	0.044	0.137
-127.283	-131.378	-0.166	0.022
-126.268	-176.192	0.096	-0.002
-125.253	36.820	-0.194	-0.169
-124.239	-67.248	0.186	0.072
-123.224	135.520	-0.054	0.069
-122.210	-133.370	-0.145	-0.018
