DTS Sentinel unit serial number:	SN413079Multiplexer serial number:	ORYXHardware model number:	OX4-SRSoftware version number:	ORYX F/W v4.00 Oryx Data Collector v3.7.2.0data status	okinstallation	princeton_trtdifferential loss correction	single-endedforward channel	channel 2reverse channel	N/Adate	2019/09/12time	08:01:11forward acquisition time	60.00reverse acquisition time	0.00gamma	496.2192k internal	0.2320k external	0.2320temperature offset calibration	1.0069default loss term (dB/km)	0.3790temperature slope calibration	1.0000multiplexer offset coefficient	1.0000multiplexer slope coefficient	1.0000fibre end	0.00T internal ref (°C)	33.06T ext. ref 1 (°C)	1.67T ext. ref 2 (°C)	29.61length (m)	temperature (°C)	Stokes	anti-Stokes-747.200	211.073	0.047	-0.074
-746.185	-200.000	-0.041	-0.192
-745.171	75.195	0.344	-0.367
-744.156	364.575	-0.147	0.299
-743.142	-41.014	-0.229	-0.120
-742.127	340.581	0.097	0.191
-741.112	143.881	-0.306	0.413
-740.098	54.320	-0.234	0.228
-739.083	800.000	0.106	0.301
-738.069	-69.943	-0.236	0.091
-737.054	-174.936	0.366	-0.010
-736.039	-200.000	0.030	0.188
-735.025	68.141	0.045	0.046
-734.010	17.418	-0.153	-0.123
-732.996	-173.809	-0.119	0.004
-731.981	-25.086	0.066	0.039
-730.966	-28.615	-0.308	-0.179
-729.952	159.480	0.143	0.200
-728.937	-33.065	-0.308	-0.173
-727.923	130.744	0.067	-0.087
-726.908	-99.425	-0.093	-0.024
-725.894	-73.879	0.102	0.038
-724.879	800.000	-0.056	-0.226
-723.864	-46.112	-0.289	0.144
-722.850	-25.689	-0.291	-0.173
-721.835	-44.085	0.145	-0.074
-720.821	-99.907	-0.031	0.008
-719.806	-82.906	0.071	0.023
-718.791	-48.490	-0.142	-0.069
-717.777	108.581	-0.103	0.124
-716.762	-116.911	-0.398	-0.073
-715.748	146.672	0.150	-0.204
-714.733	-151.779	-0.360	0.027
-713.718	30.332	-0.143	-0.123
-712.704	145.817	0.148	-0.201
-711.689	800.000	-0.123	0.423
-710.675	800.000	-0.077	-0.220
-709.660	-190.752	0.217	0.002
-708.645	390.254	0.086	0.181
-707.631	-92.942	0.224	0.063
-706.616	800.000	-0.025	-0.087
-705.602	-117.665	-0.152	-0.028
-704.587	555.179	-0.108	0.262
-703.572	-7.563	-0.375	0.256
-702.558	318.122	-0.176	0.337
-701.543	800.000	-0.095	-0.335
-700.529	158.198	-0.047	0.065
-699.514	139.542	-0.227	-0.302
-698.499	-126.070	0.260	0.039
-697.485	-85.751	-0.119	0.037
-696.470	-107.517	-0.128	0.028
-695.456	-109.654	0.292	0.062
-694.441	-200.000	-0.090	-0.477
-693.426	-146.836	0.035	0.003
-692.412	355.977	0.059	-0.118
-691.397	232.414	-0.186	0.309
-690.383	105.523	-0.340	0.405
-689.368	514.290	-0.133	-0.313
-688.354	-200.000	-0.030	0.200
-687.339	86.181	0.076	-0.085
-686.324	131.906	0.184	-0.239
-685.310	-200.000	0.017	0.085
-684.295	14.935	-0.096	-0.076
-683.281	-78.517	0.097	0.034
-682.266	-200.000	0.054	-0.289
-681.251	-134.926	-0.183	-0.022
-680.237	98.403	0.063	-0.074
-679.222	-26.618	0.123	-0.073
-678.208	-200.000	-0.021	0.126
-677.193	71.726	-0.135	-0.141
-676.178	-200.000	0.012	-0.217
-675.164	-154.771	0.054	-0.004
-674.149	800.000	-0.112	-0.349
-673.135	-200.000	-0.007	-0.333
-672.120	74.890	0.193	0.205
-671.105	-196.357	-0.136	-0.001
-670.091	800.000	-0.043	0.159
-669.076	-22.278	0.110	-0.067
-668.062	-116.832	0.068	0.013
-667.047	13.130	-0.080	-0.062
-666.032	141.195	0.047	-0.062
-665.018	-77.159	0.176	0.062
-664.003	-200.000	0.072	0.321
-662.989	-99.773	-0.291	-0.074
-661.974	682.114	0.085	-0.224
-660.959	106.754	-0.212	-0.253
-659.945	-200.000	-0.011	-0.112
-658.930	-23.596	0.338	0.205
-657.916	-120.929	0.397	0.067
-656.901	-27.135	0.333	-0.196
-655.886	-28.404	0.250	-0.145
-654.872	-200.000	-0.042	-0.250
-653.857	622.947	0.039	-0.099
-652.843	800.000	-0.036	0.122
-651.828	-46.145	-0.105	-0.052
-650.814	-63.933	-0.226	-0.093
-649.799	-19.734	-0.248	-0.154
-648.784	127.080	-0.103	-0.132
-647.770	-136.891	0.348	0.040
-646.755	-200.000	0.058	-0.308
-645.741	800.000	0.128	-0.540
-644.726	227.316	0.200	-0.327
-643.711	35.570	-0.124	0.109
-642.697	42.657	-0.175	0.160
-641.682	-200.000	-0.003	-0.080
-640.668	12.177	-0.115	0.089
-639.653	-88.050	0.182	0.055
-638.638	106.049	-0.243	0.290
-637.624	800.000	-0.027	0.093
-636.609	-200.000	-0.002	-0.168
-635.595	-147.098	-0.124	0.011
-634.580	96.851	-0.089	-0.102
-633.565	181.265	0.128	-0.189
-632.551	-200.000	0.015	0.325
-631.536	238.243	0.056	-0.094
-630.522	274.533	0.175	-0.312
-629.507	161.229	-0.061	-0.086
-628.492	262.526	-0.050	-0.087
-627.478	-90.099	-0.022	0.007
-626.463	-13.317	0.261	0.170
-625.449	-96.844	0.511	0.135
-624.434	50.573	-0.131	-0.125
-623.419	71.870	-0.127	0.132
-622.405	800.000	0.067	-0.274
-621.390	-156.893	-0.099	0.006
-620.376	-15.106	-0.152	0.098
-619.361	-44.031	0.182	0.092
-618.346	-200.000	0.037	-0.281
-617.332	-200.000	-0.013	0.286
-616.317	-200.000	0.014	-0.089
-615.303	-200.000	-0.050	-0.270
-614.288	-200.000	-0.005	-0.230
-613.273	-16.630	-0.302	0.193
-612.259	-200.000	0.039	0.218
-611.244	-126.848	0.268	0.040
-610.230	-200.000	0.033	-0.171
-609.215	186.121	-0.226	-0.339
-608.201	55.044	-0.121	-0.118
-607.186	42.035	-0.132	-0.120
-606.171	-113.532	-0.132	0.026
-605.157	-128.775	0.241	0.034
-604.142	205.408	0.254	-0.398
-603.128	209.056	0.045	-0.070
-602.113	283.057	-0.022	0.041
-601.098	-54.937	-0.324	-0.147
-600.084	-57.378	-0.277	-0.122
-599.069	-136.297	-0.055	0.006
-598.055	-110.660	-0.372	-0.077
-597.040	7.737	-0.149	-0.112
-596.025	-200.000	0.016	-0.096
-595.011	321.067	0.057	-0.109
-593.996	413.410	-0.118	0.252
-592.982	-56.503	-0.052	0.023
-591.967	20.724	0.173	0.141
-590.952	297.385	0.182	0.335
-589.938	-117.341	-0.142	-0.026
-588.923	-106.811	-0.277	-0.062
-587.909	-200.000	0.013	-0.286
-586.894	-200.000	-0.042	-0.235
-585.879	317.312	-0.078	0.148
-584.865	-68.533	0.107	0.042
-583.850	309.520	-0.110	-0.207
-582.836	130.552	0.164	0.211
-581.821	611.475	-0.053	-0.133
-580.806	-200.000	-0.013	-0.195
-579.792	110.989	-0.263	-0.318
-578.777	-200.000	0.007	0.297
-577.763	608.689	0.081	0.203
-576.748	-157.686	0.208	-0.012
-575.733	179.341	0.054	0.080
-574.719	-22.211	0.028	0.017
-573.704	194.164	-0.066	0.101
-572.690	283.097	0.195	0.352
-571.675	-200.000	-0.009	-0.061
-570.661	-6.673	0.261	0.178
-569.646	-200.000	0.066	0.291
-568.631	-73.314	-0.396	-0.146
-567.617	160.086	-0.275	-0.385
-566.602	111.431	-0.053	-0.064
-565.588	-145.706	-0.130	0.012
-564.573	-71.813	0.154	0.057
-563.558	314.628	-0.230	0.435
-562.544	-200.000	0.002	0.229
-561.529	54.027	-0.074	-0.071
-560.515	100.231	-0.141	-0.164
-559.500	-25.331	-0.342	0.203
-558.485	153.103	0.096	-0.132
-557.471	-200.000	0.017	0.079
-556.456	35.170	0.134	0.118
-555.442	-45.238	0.287	-0.143
-554.427	-91.002	-0.130	0.038
-553.412	-200.000	0.014	0.153
-552.398	-111.434	0.192	0.039
-551.383	-116.520	-0.406	0.075
-550.369	-200.000	-0.035	0.494
-549.354	-43.088	-0.006	0.003
-548.339	11.626	0.245	0.188
-547.325	800.000	-0.119	-0.380
-546.310	-154.580	-0.038	0.003
-545.296	-95.934	-0.302	0.081
-544.281	-26.796	-0.107	0.063
-543.266	360.040	0.054	0.109
-542.252	12.543	0.092	0.071
-541.237	467.592	-0.097	0.219
-540.223	-200.000	-0.012	0.151
-539.208	800.000	-0.067	-0.270
-538.193	-89.031	-0.177	-0.053
-537.179	-118.963	0.168	0.029
-536.164	-200.000	0.001	0.060
-535.150	-2.919	0.045	0.032
-534.135	-98.911	-0.467	-0.119
-533.121	800.000	-0.048	-0.144
-532.106	-200.000	0.056	0.332
-531.091	-200.000	-0.004	-0.064
-530.077	-141.820	-0.128	-0.013
-529.062	40.755	0.342	0.309
-528.048	352.202	0.115	0.228
-527.033	24.698	0.179	0.149
-526.018	-200.000	-0.057	0.335
-525.004	5.109	-0.166	0.122
-523.989	800.000	-0.029	0.109
-522.975	800.000	0.035	0.140
-521.960	-200.000	-0.016	-0.347
-520.945	-93.244	0.168	-0.047
-519.931	180.992	-0.232	-0.341
-518.916	-21.790	-0.463	0.282
-517.902	242.269	-0.148	0.248
-516.887	65.426	0.083	-0.085
-515.872	-200.000	0.009	0.087
-514.858	48.197	-0.182	0.171
-513.843	-200.000	-0.059	-0.317
-512.829	-200.000	-0.023	-0.164
-511.814	800.000	0.035	-0.124
-510.799	-169.934	-0.262	-0.009
-509.785	800.000	0.054	0.151
-508.770	-200.000	-0.004	0.303
-507.756	224.377	-0.133	0.215
-506.741	800.000	-0.038	0.140
-505.726	-74.942	-0.162	-0.058
-504.712	65.280	-0.020	-0.021
-503.697	-70.450	-0.168	0.064
-502.683	-200.000	0.007	0.094
-501.668	40.682	0.181	-0.164
-500.653	275.568	0.142	0.253
-499.639	-167.428	-0.085	-0.003
-498.624	800.000	0.128	-0.467
-497.610	123.223	-0.255	-0.320
-496.595	-200.000	-0.036	-0.181
-495.581	-136.806	0.174	-0.020
-494.566	-51.416	0.270	0.126
-493.551	-200.000	-0.004	-0.282
-492.537	17.041	-0.385	-0.306
-491.522	-181.055	0.282	0.006
-490.508	-53.704	0.281	0.128
-489.493	800.000	-0.037	0.154
-488.478	13.472	0.247	-0.192
-487.464	-28.187	0.161	0.093
-486.449	470.172	0.094	-0.212
-485.435	-68.898	0.073	0.028
-484.420	-200.000	0.007	0.096
-483.405	100.552	0.045	0.053
-482.391	-200.000	0.045	-0.341
-481.376	-88.014	-0.234	-0.070
-480.362	69.858	0.097	-0.100
-479.347	88.629	-0.254	0.283
-478.332	264.376	0.244	-0.425
-477.318	-160.563	-0.097	-0.005
-476.303	84.180	-0.244	-0.267
-475.289	254.277	0.095	-0.163
-474.274	59.384	0.440	-0.434
-473.259	30.406	0.145	-0.124
-472.245	-28.816	-0.237	-0.136
-471.230	-50.413	-0.229	0.108
-470.216	-200.000	-0.005	0.116
-469.201	-51.051	-0.079	-0.037
-468.186	-200.000	-0.009	-0.088
-467.172	-156.917	-0.189	-0.012
-466.157	-200.000	0.009	0.221
-465.143	-92.630	0.214	-0.060
-464.128	-90.129	0.130	-0.038
-463.113	645.179	-0.126	0.321
-462.099	9.415	-0.016	0.012
-461.084	51.375	0.244	-0.232
-460.070	718.548	-0.095	-0.253
-459.055	-53.181	-0.179	-0.082
-458.040	534.000	0.133	0.314
-457.026	69.421	0.252	0.259
-456.011	230.156	-0.100	0.163
-454.997	202.845	0.137	0.212
-453.982	718.130	0.041	-0.109
-452.968	39.761	0.211	0.189
-451.953	0.674	0.251	0.179
-450.938	-104.383	-0.176	0.041
-449.924	235.830	0.021	0.035
-448.909	-164.030	0.103	0.005
-447.895	66.929	-0.125	0.127
-446.880	-174.722	0.121	0.003
-445.865	11.558	0.147	-0.113
-444.851	25.993	0.037	0.031
-443.836	23.066	-0.089	0.073
-442.822	800.000	0.060	-0.244
-441.807	-38.374	0.030	0.016
-440.792	-0.020	-0.181	-0.129
-439.778	-200.000	0.064	-0.293
-438.763	126.061	-0.115	0.145
-437.749	726.977	-0.103	0.274
-436.734	-99.172	-0.209	0.053
-435.719	321.710	0.046	-0.087
-434.705	-169.691	0.238	-0.009
-433.690	-77.234	0.195	0.068
-432.676	120.252	-0.071	0.088
-431.661	-45.482	-0.254	0.126
-430.646	-35.844	-0.207	-0.112
-429.632	84.095	-0.068	-0.074
-428.617	28.114	-0.204	-0.172
-427.603	-111.845	-0.002	-0.000
-426.588	-64.914	-0.210	0.085
-425.573	39.732	-0.353	0.317
-424.559	-94.091	-0.220	-0.060
-423.544	-23.090	0.196	-0.118
-422.530	-141.874	-0.251	0.025
-421.515	-200.000	-0.010	-0.077
-420.500	800.000	-0.046	-0.179
-419.486	-108.494	0.375	-0.080
-418.471	111.669	0.242	-0.292
-417.457	61.032	0.143	0.142
-416.442	-106.638	0.249	-0.055
-415.428	-200.000	0.026	0.182
-414.413	-200.000	0.042	0.192
-413.398	216.697	0.180	0.286
-412.384	-42.048	0.268	-0.137
-411.369	6.847	0.179	0.133
-410.355	-87.783	-0.217	0.065
-409.340	800.000	-0.080	0.256
-408.325	-200.000	0.035	-0.352
-407.311	244.439	0.081	-0.136
-406.296	-57.218	-0.037	0.016
-405.282	124.978	0.184	0.231
-404.267	800.000	0.050	-0.173
-403.252	800.000	-0.005	-0.021
-402.238	-50.891	0.177	0.083
-401.223	302.593	-0.106	0.195
-400.209	-21.612	-0.136	-0.083
-399.194	-200.000	-0.018	0.090
-398.179	-200.000	0.069	0.396
-397.165	-52.526	0.262	-0.121
-396.150	107.577	0.088	0.105
-395.136	-152.323	0.135	-0.010
-394.121	-77.502	0.161	-0.056
-393.106	393.550	-0.093	0.192
-392.092	-191.892	0.245	0.002
-391.077	-49.098	-0.292	0.139
-390.063	25.774	0.074	0.062
-389.048	-200.000	-0.002	-0.180
-388.033	-200.000	0.088	-0.408
-387.019	161.786	-0.136	-0.190
-386.004	17.927	-0.135	-0.107
-384.990	13.937	-0.095	0.074
-383.975	-77.471	0.275	-0.095
-382.960	-17.564	-0.164	-0.103
-381.946	-102.832	0.309	0.073
-380.931	-73.562	0.329	-0.120
-379.917	800.000	-0.019	0.074
-378.902	800.000	-0.042	0.144
-377.888	800.000	0.095	0.326
-376.873	-111.934	0.208	0.042
-375.858	800.000	0.123	0.367
-374.844	109.569	0.158	-0.189
-373.829	-3.966	0.302	-0.209
-372.815	18.263	0.137	-0.109
-371.800	-1.762	-0.074	-0.052
-370.785	89.913	-0.185	0.206
-369.771	-121.480	0.150	-0.025
-368.756	-26.531	0.172	0.100
-367.742	-9.425	0.158	0.105
-366.727	-141.944	-0.108	-0.011
-365.712	34.768	0.233	-0.203
-364.698	569.156	-0.108	0.261
-363.683	-115.965	0.215	-0.040
-362.669	-3.480	0.325	0.226
-361.654	-86.575	0.179	-0.055
-360.639	-122.870	0.071	-0.011
-359.625	-31.065	-0.085	0.048
-358.610	-200.000	0.032	-0.155
-357.596	800.000	0.045	-0.161
-356.581	-200.000	0.034	-0.273
-355.566	20.538	-0.103	-0.083
-354.552	-41.594	-0.255	0.131
-353.537	82.588	0.054	0.058
-352.523	-141.842	-0.136	0.014
-351.508	-112.142	0.223	-0.045
-350.493	202.728	0.087	-0.134
-349.479	127.137	-0.120	0.151
-348.464	-200.000	0.015	0.123
-347.450	-122.604	0.318	-0.051
-346.435	-48.222	-0.198	0.095
-345.420	629.262	-0.089	0.225
-344.406	38.711	-0.089	-0.079
-343.391	249.767	-0.100	0.170
-342.377	211.906	0.117	-0.184
-341.362	3.189	-0.053	-0.039
-340.348	8.606	-0.084	-0.063
-339.333	602.662	-0.076	-0.188
-338.318	-84.880	0.446	-0.139
-337.304	-154.504	-0.319	-0.021
-336.289	707.734	-0.055	0.144
-335.275	800.000	0.078	0.259
-334.260	726.717	-0.070	0.187
-333.245	-81.431	0.290	0.095
-332.231	-120.788	-0.030	-0.005
-331.216	-55.200	-0.157	-0.070
-330.202	-73.171	0.147	-0.053
-329.187	-126.193	-0.136	-0.020
-328.172	-200.000	0.059	0.375
-327.158	-200.000	0.009	-0.289
-326.143	800.000	-0.070	-0.248
-325.129	105.649	-0.222	0.262
-324.114	-200.000	-0.006	0.230
-323.099	-200.000	0.004	-0.244
-322.085	-9.081	-0.273	0.182
-321.070	-35.716	-0.164	-0.089
-320.056	-200.000	-0.014	-0.174
-319.041	-47.108	-0.177	-0.086
-318.026	-179.439	0.267	-0.006
-317.012	127.530	0.019	-0.024
-315.997	-67.115	0.260	0.102
-314.983	800.000	-0.065	0.208
-313.968	-200.000	0.039	0.195
-312.953	366.031	-0.110	-0.220
-311.939	800.000	0.041	0.145
-310.924	800.000	0.024	0.065
-309.910	-49.631	-0.184	-0.087
-308.895	-200.000	0.017	0.208
-307.880	62.911	-0.142	0.142
-306.866	284.976	-0.132	-0.237
-305.851	-103.908	0.097	-0.023
-304.837	-200.000	-0.003	0.531
-303.822	-200.000	-0.016	-0.284
-302.807	290.604	0.157	-0.283
-301.793	232.048	-0.036	0.058
-300.778	-200.000	0.015	0.207
-299.764	-36.397	-0.197	0.105
-298.749	-153.708	0.367	0.025
-297.735	-73.309	-0.296	-0.108
-296.720	-92.070	0.130	-0.037
-295.705	-74.740	-0.298	-0.106
-294.691	94.551	0.021	-0.024
-293.676	-200.000	0.218	0.000
-292.662	-10.086	-0.026	0.017
-291.647	800.000	0.010	0.029
-290.632	670.293	0.077	-0.197
-289.618	75.557	-0.180	0.188
-288.603	138.463	0.102	0.133
-287.589	206.216	-0.112	-0.173
-286.574	-200.000	0.025	-0.118
-285.559	-92.990	-0.070	-0.019
-284.545	395.396	-0.129	-0.267
-283.530	374.745	-0.027	-0.055
-282.516	-200.000	-0.017	0.340
-281.501	-114.661	-0.186	0.035
-280.486	800.000	0.105	0.296
-279.472	-130.380	-0.190	0.026
-278.457	60.163	-0.091	0.090
-277.443	67.156	0.162	0.164
-276.428	-200.000	-0.002	0.082
-275.413	-48.248	0.129	-0.062
-274.399	-200.000	0.000	-0.435
-273.384	800.000	0.037	0.146
-272.370	697.558	-0.088	0.229
-271.355	-144.085	0.230	-0.021
-270.340	114.729	0.144	-0.175
-269.326	552.905	0.091	0.217
-268.311	800.000	0.033	0.129
-267.297	-128.235	-0.214	-0.030
-266.282	-82.736	0.179	0.057
-265.267	-200.000	0.001	-0.173
-264.253	-79.513	-0.101	0.034
-263.238	-44.301	-0.034	0.017
-262.224	-34.724	-0.160	0.087
-261.209	-72.418	0.344	-0.126
-260.195	-46.925	-0.174	-0.084
-259.180	370.238	0.022	-0.043
-258.165	12.016	0.290	-0.221
-257.151	-200.000	-0.006	-0.194
-256.136	174.760	0.053	0.076
-255.122	84.589	-0.156	0.169
-254.107	-114.676	0.027	0.005
-253.092	34.291	-0.296	0.256
-252.078	78.844	-0.147	-0.156
-251.063	-200.000	0.041	-0.236
-250.049	-82.544	0.212	-0.068
-249.034	-51.690	0.059	0.027
-248.019	175.878	0.154	0.222
-247.005	69.243	0.326	-0.333
-245.990	-52.911	0.176	-0.080
-244.976	-47.008	0.149	-0.072
-243.961	114.220	-0.195	-0.235
-242.946	94.847	0.083	0.093
-241.932	-200.000	0.022	-0.218
-240.917	-27.925	0.262	-0.151
-239.903	-1.466	0.216	-0.151
-238.888	328.828	-0.087	-0.166
-237.873	-197.430	-0.362	0.002
-236.859	-109.966	-0.071	-0.015
-235.844	282.876	-0.130	-0.231
-234.830	-118.184	0.182	0.032
-233.815	-200.000	-0.474	-0.002
-232.800	-2.015	-0.134	0.093
-231.786	800.000	-0.078	-0.220
-230.771	198.694	0.137	-0.208
-229.757	-200.000	-0.012	-0.159
-228.742	800.000	0.103	0.397
-227.727	438.252	-0.034	0.074
-226.713	800.000	-0.056	0.187
-225.698	-34.770	0.193	-0.105
-224.684	800.000	-0.033	0.138
-223.669	-200.000	0.001	0.100
-222.655	800.000	0.027	0.107
-221.640	130.530	0.262	0.332
-220.625	81.230	0.163	0.175
-219.611	-200.000	0.004	0.081
-218.596	-200.000	-0.002	-0.131
-217.582	800.000	-0.070	-0.270
-216.567	-89.347	0.221	0.064
-215.552	-109.064	0.065	0.014
-214.538	371.839	0.077	-0.155
-213.523	-200.000	-0.023	0.113
-212.509	147.903	-0.192	-0.256
-211.494	-93.967	-0.229	-0.062
-210.479	-65.716	0.086	0.034
-209.465	291.772	-0.037	0.066
-208.450	-33.136	0.360	0.198
-207.436	-103.557	-0.223	-0.052
-206.421	800.000	-0.059	-0.169
-205.406	800.000	0.090	0.348
-204.392	262.604	0.105	0.180
-203.377	800.000	0.054	-0.181
-202.363	43.188	0.199	-0.180
-201.348	800.000	-0.092	-0.322
-200.333	35.265	0.170	-0.147
-199.319	-17.337	-0.346	0.216
-198.304	-46.669	-0.034	-0.016
-197.290	-136.802	-0.108	0.012
-196.275	-144.990	0.478	0.043
-195.260	-93.681	-0.285	-0.078
-194.246	-77.040	0.180	0.062
-193.231	-200.000	0.037	0.233
-192.217	800.000	-0.011	0.042
-191.202	800.000	-0.049	0.178
-190.187	154.063	-0.158	0.214
-189.173	234.294	-0.075	-0.123
-188.158	-47.097	0.127	-0.061
-187.144	-27.014	0.137	0.079
-186.129	102.608	-0.155	-0.180
-185.114	533.830	-0.046	0.109
-184.100	-118.171	-0.192	0.034
-183.085	378.360	0.092	-0.186
-182.071	602.671	-0.048	-0.118
-181.056	51.442	0.132	-0.124
-180.042	-200.000	-0.008	-0.070
-179.027	-200.000	0.018	-0.162
-178.012	-101.603	-0.152	-0.037
-176.998	208.667	0.186	-0.287
-175.983	193.281	-0.088	0.131
-174.969	-98.192	0.253	-0.064
-173.954	-110.878	-0.134	-0.027
-172.939	-52.759	-0.214	0.098
-171.925	800.000	-0.149	0.428
-170.910	321.825	0.124	0.234
-169.896	438.887	0.038	0.083
-168.881	-113.232	-0.272	-0.053
-167.866	-200.000	0.017	-0.207
-166.852	-66.992	0.145	0.057
-165.837	-200.000	-0.043	-0.216
-164.823	55.442	0.143	-0.137
-163.808	101.912	-0.060	0.069
-162.793	118.799	-0.117	0.143
-161.779	360.386	0.157	-0.311
-160.764	53.382	-0.295	-0.279
-159.750	800.000	-0.046	-0.131
-158.735	98.401	-0.077	0.087
-157.720	-23.987	-0.222	0.131
-156.706	163.617	-0.103	0.143
-155.691	-89.117	0.113	0.033
-154.677	-200.000	-0.006	0.032
-153.662	267.402	0.146	0.252
-152.647	32.435	-0.169	0.145
-151.633	87.172	-0.359	0.392
-150.618	458.902	0.137	0.302
-149.604	-83.894	0.172	-0.054
-148.589	313.108	0.079	-0.147
-147.574	-45.072	0.179	-0.088
-146.560	800.000	-0.062	0.197
-145.545	29.389	-0.013	-0.011
-144.531	-98.457	-0.232	0.059
-143.516	-88.147	-0.388	-0.115
-142.502	154.629	0.089	0.121
-141.487	202.593	0.162	0.246
-140.472	-72.165	0.218	0.080
-139.458	-147.435	-0.322	-0.027
-138.443	-50.698	-0.147	-0.068
-137.429	-91.107	-0.247	0.070
-136.414	800.000	-0.101	0.279
-135.399	-200.000	-0.002	-0.294
-134.385	-59.948	-0.236	0.100
-133.370	-55.592	0.173	0.077
-132.356	83.157	-0.272	0.293
-131.341	337.446	-0.165	-0.316
-130.326	164.809	0.118	-0.164
-129.312	21.214	0.341	-0.273
-128.297	-85.556	-0.198	0.061
-127.283	94.831	-0.185	-0.207
-126.268	-152.096	0.074	-0.005
-125.253	-200.000	0.013	-0.169
-124.239	373.282	-0.072	0.144
-123.224	211.464	0.014	0.022
-122.210	124.943	0.162	0.201
