DTS Sentinel unit serial number:	SN413079Multiplexer serial number:	ORYXHardware model number:	OX4-SRSoftware version number:	ORYX F/W v4.00 Oryx Data Collector v3.7.2.0data status	okinstallation	princeton_trtdifferential loss correction	single-endedforward channel	channel 2reverse channel	N/Adate	2019/09/15time	11:19:34forward acquisition time	60.00reverse acquisition time	0.00gamma	496.2192k internal	0.2315k external	0.2315temperature offset calibration	1.0015default loss term (dB/km)	0.3790temperature slope calibration	1.0000multiplexer offset coefficient	1.0000multiplexer slope coefficient	1.0000fibre end	0.00T internal ref (°C)	34.31T ext. ref 1 (°C)	5.01T ext. ref 2 (°C)	29.58length (m)	temperature (°C)	Stokes	anti-Stokes-747.200	719.697	0.173	-0.467
-746.185	800.000	-0.038	0.147
-745.171	24.770	0.210	-0.176
-744.156	-41.073	0.260	-0.136
-743.142	800.000	0.058	-0.246
-742.127	800.000	0.015	-0.048
-741.112	-23.627	0.345	0.210
-740.098	-82.336	-0.221	0.073
-739.083	-200.000	0.022	-0.099
-738.069	109.978	-0.197	0.239
-737.054	-200.000	0.002	-0.264
-736.039	-149.624	-0.286	0.023
-735.025	-200.000	0.023	0.247
-734.010	-200.000	0.029	0.297
-732.996	0.076	0.077	-0.056
-731.981	396.100	-0.092	0.194
-730.966	-200.000	-0.020	0.157
-729.952	-165.145	-0.228	-0.010
-728.937	100.878	-0.145	0.171
-727.923	-172.610	0.376	-0.012
-726.908	-39.292	0.157	0.084
-725.894	-183.877	-0.235	0.004
-724.879	800.000	-0.035	-0.113
-723.864	-200.000	0.020	0.135
-722.850	-70.132	0.261	-0.100
-721.835	620.752	-0.078	0.198
-720.821	-30.389	-0.106	0.061
-719.806	-144.898	-0.229	0.021
-718.791	-200.000	-0.002	-0.055
-717.777	800.000	0.026	0.108
-716.762	800.000	0.083	-0.351
-715.748	59.888	0.366	0.366
-714.733	-128.367	-0.183	-0.026
-713.718	222.707	-0.052	0.084
-712.704	800.000	-0.098	-0.356
-711.689	-150.519	-0.199	-0.015
-710.675	-94.133	-0.292	-0.081
-709.660	-52.160	-0.319	-0.150
-708.645	-93.692	-0.212	0.059
-707.631	800.000	-0.081	-0.257
-706.616	-128.861	0.318	-0.045
-705.602	-102.916	0.208	-0.050
-704.587	343.863	-0.173	-0.342
-703.572	-166.577	-0.116	-0.005
-702.558	316.242	0.089	0.170
-701.543	-200.000	-0.005	-0.099
-700.529	-200.000	0.003	0.087
-699.514	-200.000	-0.015	0.098
-698.499	800.000	-0.087	-0.265
-697.485	-114.920	-0.359	-0.069
-696.470	224.993	0.199	0.326
-695.456	148.285	0.143	0.195
-694.441	228.306	0.040	-0.066
-693.426	78.853	-0.018	0.020
-692.412	-48.475	0.174	0.085
-691.397	550.282	-0.100	0.242
-690.383	-200.000	0.008	0.146
-689.368	800.000	0.015	0.050
-688.354	247.949	-0.088	-0.150
-687.339	92.275	-0.207	0.236
-686.324	-106.427	0.131	0.030
-685.310	-67.980	0.326	0.129
-684.295	-53.331	0.321	0.149
-683.281	622.842	0.035	0.088
-682.266	800.000	0.030	0.091
-681.251	-98.166	0.183	-0.047
-680.237	-65.754	0.271	-0.110
-679.222	-64.093	-0.280	-0.116
-678.208	175.280	-0.134	0.197
-677.193	-132.797	0.156	-0.020
-676.178	-200.000	-0.139	-0.645
-675.164	87.134	0.139	-0.156
-674.149	109.817	-0.196	-0.238
-673.135	-134.606	-0.370	0.046
-672.120	-51.615	-0.404	0.190
-671.105	29.798	0.301	-0.259
-670.091	43.885	0.026	-0.024
-669.076	-101.356	0.225	0.055
-668.062	-77.840	-0.230	-0.080
-667.047	-129.590	-0.219	0.031
-666.032	-200.000	0.506	-0.000
-665.018	-148.286	0.178	0.015
-664.003	-200.000	-0.040	-0.201
-662.989	-12.876	-0.140	-0.092
-661.974	39.460	0.198	-0.180
-660.959	-145.359	-0.058	-0.005
-659.945	-125.320	0.098	0.015
-658.930	-145.101	-0.131	-0.012
-657.916	113.745	-0.215	0.264
-656.901	-200.000	0.003	-0.156
-655.886	-15.551	0.064	0.041
-654.872	145.274	0.097	-0.131
-653.857	-29.674	0.297	-0.171
-652.843	-131.832	-0.316	-0.042
-651.828	-139.198	0.321	-0.035
-650.814	800.000	-0.076	0.216
-649.799	394.791	0.091	-0.192
-648.784	-200.000	0.031	0.253
-647.770	-200.000	0.022	0.264
-646.755	-200.000	-0.004	0.108
-645.741	-118.086	-0.040	0.007
-644.726	-88.206	-0.133	-0.040
-643.711	-29.611	0.103	0.059
-642.697	-200.000	-0.027	0.131
-641.682	232.109	-0.027	-0.044
-640.668	81.462	-0.085	0.092
-639.653	-37.908	0.239	-0.128
-638.638	40.070	-0.201	-0.182
-637.624	-141.374	-0.262	-0.027
-636.609	8.726	-0.037	-0.028
-635.595	-200.000	-0.004	0.127
-634.580	78.217	-0.117	-0.126
-633.565	-97.058	-0.398	0.105
-632.551	463.365	-0.137	-0.308
-631.536	800.000	-0.084	-0.313
-630.522	-200.000	-0.034	0.230
-629.507	49.731	-0.243	0.231
-628.492	800.000	-0.019	0.067
-627.478	800.000	0.072	0.264
-626.463	254.079	0.083	0.144
-625.449	-49.047	0.435	0.210
-624.434	-130.226	0.211	-0.029
-623.419	-123.259	-0.053	-0.009
-622.405	-200.000	-0.018	-0.122
-621.390	-200.000	0.034	-0.355
-620.376	-200.000	-0.046	-0.343
-619.361	17.282	-0.164	-0.131
-618.346	-135.145	0.318	0.039
-617.332	-200.000	0.010	-0.114
-616.317	462.229	-0.085	-0.191
-615.303	-200.000	0.004	-0.149
-614.288	113.341	-0.053	0.065
-613.273	252.065	-0.073	-0.126
-612.259	-200.000	0.021	-0.205
-611.244	-200.000	-0.071	0.378
-610.230	169.690	0.184	0.265
-609.215	800.000	0.065	0.271
-608.201	800.000	0.073	-0.223
-607.186	716.633	-0.043	-0.116
-606.171	-200.000	0.002	-0.011
-605.157	171.758	-0.155	0.224
-604.142	-87.709	-0.235	-0.071
-603.128	38.210	0.169	-0.152
-602.113	-134.093	0.375	-0.047
-601.098	-77.406	0.369	-0.129
-600.084	40.603	0.019	-0.018
-599.069	-23.347	0.214	-0.129
-598.055	411.214	0.058	-0.124
-597.040	24.806	0.035	-0.029
-596.025	-40.469	-0.201	0.105
-595.011	106.665	0.020	-0.024
-593.996	117.858	-0.205	-0.254
-592.982	7.489	-0.109	0.082
-591.967	-122.455	0.353	-0.058
-590.952	233.831	-0.053	-0.087
-589.938	-20.620	-0.059	0.037
-588.923	-200.000	-0.006	0.084
-587.909	-200.000	-0.034	0.170
-586.894	-43.821	-0.152	0.077
-585.879	-71.266	-0.050	0.019
-584.865	-111.575	-0.436	-0.089
-583.850	-150.904	0.323	-0.025
-582.836	-200.000	0.032	-0.153
-581.821	-105.365	-0.172	-0.039
-580.806	641.230	-0.085	-0.218
-579.792	-200.000	0.005	0.211
-578.777	58.258	-0.171	0.169
-577.763	-199.844	0.290	-0.001
-576.748	24.388	0.138	-0.115
-575.733	89.773	0.176	0.198
-574.719	124.190	-0.278	-0.351
-573.704	170.089	-0.064	0.092
-572.690	-119.243	-0.127	-0.022
-571.675	160.662	0.219	-0.308
-570.661	-138.263	-0.126	0.014
-569.646	433.662	0.088	-0.192
-568.631	151.127	-0.082	-0.112
-567.617	-200.000	0.039	-0.301
-566.602	-111.492	0.081	0.017
-565.588	-133.072	-0.214	-0.027
-564.573	-200.000	-0.010	-0.197
-563.558	-108.667	0.254	0.055
-562.544	209.814	-0.068	-0.107
-561.529	308.710	-0.091	0.171
-560.515	-58.235	0.195	-0.085
-559.500	-200.000	-0.012	0.297
-558.485	-152.714	0.260	-0.019
-557.471	-37.906	0.209	-0.112
-556.456	-68.604	0.115	-0.045
-555.442	-200.000	-0.043	0.194
-554.427	-19.566	0.132	0.082
-553.412	800.000	-0.068	-0.197
-552.398	-31.384	-0.111	0.063
-551.383	93.496	-0.249	-0.284
-550.369	-121.555	0.140	0.023
-549.354	32.386	0.231	0.201
-548.339	120.126	-0.064	-0.080
-547.325	-108.544	0.303	-0.066
-546.310	110.152	-0.065	0.079
-545.296	-122.817	-0.285	0.046
-544.281	41.148	-0.097	0.088
-543.266	384.543	0.027	0.057
-542.252	-132.277	-0.061	-0.008
-541.237	300.961	0.121	-0.224
-540.223	-68.976	-0.394	0.153
-539.208	800.000	0.057	0.209
-538.193	252.640	-0.017	-0.029
-537.179	-200.000	-0.021	-0.233
-536.164	-157.214	0.300	0.018
-535.150	723.246	0.021	-0.055
-534.135	264.184	0.126	-0.221
-533.121	-39.636	0.169	0.089
-532.106	800.000	0.144	0.456
-531.091	-62.112	-0.134	-0.056
-530.077	-62.494	0.119	-0.050
-529.062	-200.000	0.003	-0.151
-528.048	-188.164	0.120	0.002
-527.033	-200.000	0.049	-0.244
-526.018	-0.043	-0.088	0.063
-525.004	-200.000	-0.015	-0.140
-523.989	-200.000	0.000	-0.339
-522.975	-200.000	0.044	-0.200
-521.960	-147.878	-0.360	0.030
-520.945	-118.399	0.351	0.063
-519.931	9.542	-0.191	-0.145
-518.916	800.000	0.050	0.161
-517.902	-3.999	0.139	0.097
-516.887	-200.000	-0.025	0.207
-515.872	-39.252	0.034	-0.018
-514.858	800.000	0.044	0.163
-513.843	278.101	0.145	0.259
-512.829	800.000	0.063	-0.236
-511.814	2.461	-0.185	0.134
-510.799	-52.046	0.243	-0.113
-509.785	139.154	-0.067	-0.088
-508.770	-119.212	-0.367	0.064
-507.756	-200.000	-0.027	-0.124
-506.741	-51.416	-0.146	-0.068
-505.726	-200.000	-0.039	0.190
-504.712	800.000	0.036	-0.116
-503.697	-104.131	0.225	-0.053
-502.683	800.000	-0.083	-0.312
-501.668	156.469	-0.070	-0.098
-500.653	-200.000	0.013	0.244
-499.639	-119.124	0.130	-0.023
-498.624	800.000	-0.145	-0.410
-497.610	-200.000	0.004	-0.189
-496.595	-200.000	0.024	-0.247
-495.581	119.121	-0.017	0.021
-494.566	-57.981	0.143	-0.063
-493.551	255.701	-0.200	-0.343
-492.537	-150.113	-0.187	0.015
-491.522	-88.911	0.433	0.129
-490.508	-161.590	0.225	0.012
-489.493	47.844	-0.110	-0.103
-488.478	661.381	-0.096	0.248
-487.464	-124.517	0.083	-0.013
-486.449	33.248	0.057	-0.050
-485.435	-200.000	0.065	0.288
-484.420	-200.000	-0.008	-0.180
-483.405	-200.000	0.003	-0.052
-482.391	153.330	-0.263	0.361
-481.376	-92.252	-0.045	0.013
-480.362	-57.748	-0.255	0.112
-479.347	288.009	-0.068	0.123
-478.332	64.866	0.263	-0.266
-477.318	628.257	-0.063	-0.159
-476.303	-200.000	0.029	-0.166
-475.289	-58.052	-0.056	0.025
-474.274	-148.822	0.144	-0.012
-473.259	90.722	-0.057	0.064
-472.245	-123.416	-0.275	0.044
-471.230	390.324	0.099	0.205
-470.216	406.079	-0.031	0.065
-469.201	-200.000	0.009	-0.213
-468.186	-200.000	-0.012	0.120
-467.172	-59.682	-0.332	0.143
-466.157	-14.810	-0.255	0.164
-465.143	-107.986	-0.222	-0.048
-464.128	-200.000	-0.030	0.192
-463.113	-137.217	-0.223	-0.025
-462.099	-92.492	0.228	-0.064
-461.084	518.961	0.126	0.295
-460.070	-119.233	0.227	-0.040
-459.055	672.154	0.058	0.150
-458.040	77.839	-0.111	-0.118
-457.026	-109.555	0.402	-0.085
-456.011	-8.995	-0.099	-0.067
-454.997	-134.219	0.287	-0.035
-453.982	-100.754	0.066	0.016
-452.968	521.427	0.047	-0.111
-451.953	-28.829	-0.127	-0.073
-450.938	800.000	0.069	-0.237
-449.924	282.839	-0.140	0.252
-448.909	138.222	-0.183	-0.240
-447.895	67.698	-0.112	-0.115
-446.880	-31.695	-0.095	0.053
-445.865	91.334	-0.083	0.094
-444.851	-200.000	0.022	-0.115
-443.836	800.000	0.081	0.234
-442.822	-164.453	-0.118	0.005
-441.807	-200.000	-0.022	0.237
-440.792	122.938	-0.142	-0.178
-439.778	179.278	-0.083	0.122
-438.763	-76.960	-0.433	0.151
-437.749	169.229	-0.206	0.294
-436.734	454.051	-0.155	-0.343
-435.719	800.000	-0.040	-0.142
-434.705	95.434	0.207	-0.237
-433.690	105.289	0.172	-0.203
-432.676	-27.318	-0.317	0.185
-431.661	90.093	0.164	-0.184
-430.646	-69.805	0.074	0.028
-429.632	-17.463	-0.098	0.062
-428.617	-81.231	0.641	-0.212
-427.603	94.836	-0.178	-0.203
-426.588	-5.081	0.269	-0.185
-425.573	578.374	0.106	0.260
-424.559	201.085	-0.061	0.093
-423.544	184.229	-0.022	-0.032
-422.530	-105.551	-0.198	-0.045
-421.515	745.775	0.048	0.129
-420.500	800.000	0.071	0.251
-419.486	800.000	0.056	0.214
-418.471	-200.000	0.006	0.110
-417.457	145.736	0.199	0.267
-416.442	800.000	-0.096	0.288
-415.428	-113.327	0.021	0.004
-414.413	-157.799	-0.199	-0.012
-413.398	400.050	-0.097	0.204
-412.384	119.430	0.041	0.051
-411.369	-200.000	-0.066	-0.420
-410.355	800.000	0.018	-0.055
-409.340	-124.440	-0.147	0.023
-408.325	172.036	0.072	0.103
-407.311	267.292	-0.161	-0.281
-406.296	-200.000	-0.070	-0.325
-405.282	-151.782	-0.077	-0.006
-404.267	-200.000	0.008	-0.178
-403.252	194.540	0.204	0.309
-402.238	-200.000	-0.006	0.094
-401.223	-200.000	-0.288	0.001
-400.209	190.526	-0.224	-0.336
-399.194	17.818	0.239	0.190
-398.179	-131.691	0.232	-0.030
-397.165	-6.169	0.136	0.093
-396.150	-161.841	-0.092	-0.005
-395.136	-200.000	0.022	0.488
-394.121	-200.000	0.019	-0.312
-393.106	258.428	-0.116	-0.200
-392.092	-145.624	-0.342	0.031
-391.077	53.463	0.082	0.078
-390.063	-30.920	0.181	-0.102
-389.048	-126.284	0.249	0.037
-388.033	-200.000	0.006	0.064
-387.019	51.316	0.037	0.035
-386.004	-80.929	-0.034	-0.011
-384.990	800.000	0.029	0.097
-383.975	146.839	-0.132	-0.178
-382.960	-200.000	-0.013	0.235
-381.946	-106.565	-0.466	0.104
-380.931	248.399	0.149	-0.251
-379.917	-200.000	0.011	-0.154
-378.902	-91.097	-0.425	-0.122
-377.888	181.627	-0.118	-0.173
-376.873	-200.000	-0.005	0.083
-375.858	-22.455	0.150	0.091
-374.844	-200.000	0.004	0.202
-373.829	-200.000	0.052	0.363
-372.815	-90.319	-0.112	0.032
-371.800	-66.676	-0.266	0.105
-370.785	530.942	0.085	-0.200
-369.771	8.295	0.180	-0.135
-368.756	121.871	0.101	-0.125
-367.742	800.000	-0.027	0.102
-366.727	-13.083	-0.120	-0.078
-365.712	48.522	0.247	0.231
-364.698	800.000	0.104	0.433
-363.683	-65.630	0.369	-0.148
-362.669	-200.000	0.000	0.149
-361.654	28.802	-0.125	-0.105
-360.639	-70.983	-0.134	0.050
-359.625	18.196	0.057	-0.045
-358.610	-106.216	-0.264	0.059
-357.596	-156.925	-0.157	-0.010
-356.581	-200.000	0.018	0.084
-355.566	127.252	0.191	0.242
-354.552	-200.000	-0.011	-0.146
-353.537	-200.000	0.033	0.184
-352.523	800.000	0.080	0.342
-351.508	-200.000	0.006	0.068
-350.493	-19.999	0.073	0.045
-349.479	-37.949	-0.256	0.136
-348.464	102.924	0.114	-0.134
-347.450	32.981	-0.289	0.249
-346.435	-0.842	0.276	-0.195
-345.420	-161.828	0.186	-0.009
-344.406	3.737	-0.151	-0.110
-343.391	-200.000	-0.005	-0.028
-342.377	167.382	-0.174	-0.246
-341.362	89.147	-0.125	-0.138
-340.348	-0.909	-0.189	0.133
-339.333	800.000	-0.060	0.216
-338.318	-94.552	-0.546	0.148
-337.304	-100.724	0.225	0.055
-336.289	451.654	-0.071	0.156
-335.275	325.109	0.100	0.191
-334.260	-200.000	-0.004	0.043
-333.245	-89.979	0.292	-0.085
-332.231	-200.000	-0.008	-0.092
-331.216	764.039	0.128	0.346
-330.202	-152.960	-0.392	-0.028
-329.187	758.691	-0.125	0.338
-328.172	-43.998	0.060	-0.030
-327.158	0.825	0.300	0.214
-326.143	-200.000	-0.039	0.430
-325.129	-40.316	0.099	-0.051
-324.114	304.032	0.072	-0.132
-323.099	-47.890	-0.211	0.102
-322.085	-53.134	0.070	0.032
-321.070	-4.180	0.031	0.021
-320.056	313.001	-0.039	0.072
-319.041	-14.422	0.277	0.177
-318.026	-129.878	0.217	0.030
-317.012	-32.456	0.335	-0.186
-315.997	94.260	0.260	-0.294
-314.983	-0.600	0.253	0.179
-313.968	512.242	-0.027	-0.063
-312.953	119.626	-0.144	-0.178
-311.939	81.121	0.067	0.072
-310.924	-76.477	-0.257	-0.090
-309.910	278.223	0.043	0.076
-308.895	-69.376	-0.167	-0.064
-307.880	445.229	-0.044	-0.096
-306.866	379.397	0.110	0.224
-305.851	800.000	-0.072	-0.211
-304.837	-48.110	0.061	-0.029
-303.822	708.986	0.056	-0.148
-302.807	800.000	-0.127	0.354
-301.793	-30.910	-0.150	-0.084
-300.778	158.675	-0.117	0.162
-299.764	424.386	-0.062	0.134
-298.749	-161.085	0.332	-0.017
-297.735	17.197	-0.285	-0.225
-296.720	43.714	-0.118	-0.108
-295.705	-10.481	-0.344	-0.227
-294.691	-18.594	-0.233	0.145
-293.676	30.955	0.168	-0.143
-292.662	-166.230	0.196	-0.008
-291.647	-37.380	0.068	0.036
-290.632	-97.536	0.337	-0.087
-289.618	43.698	0.245	0.223
-288.603	-200.000	0.033	0.227
-287.589	-53.402	0.169	-0.077
-286.574	179.756	-0.105	0.153
-285.559	-75.120	-0.093	-0.033
-284.545	800.000	-0.026	-0.074
-283.530	-200.000	0.053	0.431
-282.516	278.514	0.055	0.098
-281.501	67.337	-0.095	-0.097
-280.486	-200.000	0.065	-0.357
-279.472	77.662	0.193	-0.205
-278.457	25.042	0.163	-0.135
-277.443	-48.256	-0.196	0.094
-276.428	-124.848	-0.143	-0.022
-275.413	800.000	0.106	-0.352
-274.399	800.000	0.056	0.210
-273.384	62.448	0.095	-0.095
-272.370	-67.097	-0.105	-0.041
-271.355	307.601	0.034	0.062
-270.340	-146.491	-0.256	0.022
-269.326	-200.000	0.028	0.263
-268.311	69.884	0.206	-0.211
-267.297	-179.619	-0.267	-0.006
-266.282	563.590	0.153	-0.367
-265.267	-93.926	-0.170	0.046
-264.253	-51.764	-0.080	0.037
-263.238	57.078	0.211	-0.204
-262.224	-138.790	-0.062	0.007
-261.209	-200.000	0.034	-0.215
-260.195	-200.000	0.008	0.037
-259.180	-108.675	0.430	0.092
-258.165	-79.159	0.205	-0.069
-257.151	-134.348	-0.241	0.029
-256.136	294.493	0.041	0.075
-255.122	-120.485	-0.074	0.012
-254.107	711.439	0.116	0.306
-253.092	-200.000	0.040	0.324
-252.078	71.764	0.047	0.049
-251.063	800.000	0.073	0.314
-250.049	-4.637	0.230	0.158
-249.034	92.912	0.173	0.194
-248.019	800.000	0.061	-0.170
-247.005	-158.839	0.126	0.007
-245.990	-169.185	-0.160	-0.006
-244.976	-144.329	0.207	-0.019
-243.961	362.195	0.242	-0.482
-242.946	278.355	-0.129	-0.229
-241.932	124.979	-0.171	0.214
-240.917	-94.672	0.294	-0.079
-239.903	800.000	-0.016	-0.061
-238.888	-156.188	-0.221	0.014
-237.873	-26.771	0.327	0.190
-236.859	-133.610	0.082	0.010
-235.844	-81.442	0.125	-0.041
-234.830	-140.174	0.087	0.009
-233.815	-28.259	-0.246	-0.141
-232.800	800.000	-0.081	-0.324
-231.786	-63.294	-0.138	0.057
-230.771	20.181	0.048	-0.038
-229.757	55.517	-0.220	0.211
-228.742	-114.674	-0.049	-0.009
-227.727	67.207	-0.106	0.108
-226.713	-76.743	-0.149	-0.052
-225.698	-28.800	-0.145	-0.083
-224.684	-31.277	-0.114	0.064
-223.669	127.840	0.203	-0.256
-222.655	-145.947	-0.202	0.018
-221.640	800.000	-0.074	0.236
-220.625	8.201	-0.159	-0.119
-219.611	-34.362	0.148	-0.080
-218.596	-3.912	-0.066	-0.046
-217.582	594.874	-0.136	-0.335
-216.567	16.203	-0.063	0.050
-215.552	-28.216	0.087	0.050
-214.538	540.825	-0.018	-0.043
-213.523	1.376	0.321	0.229
-212.509	-31.072	-0.186	0.104
-211.494	83.418	-0.161	0.174
-210.479	20.325	-0.057	-0.046
-209.465	-87.301	-0.228	-0.069
-208.450	-43.874	0.124	-0.062
-207.436	124.514	-0.119	0.148
-206.421	-84.649	-0.169	0.053
-205.406	-200.000	0.075	0.378
-204.392	359.382	0.109	0.217
-203.377	800.000	0.090	-0.283
-202.363	800.000	-0.139	-0.401
-201.348	-200.000	-0.079	-0.498
-200.333	756.606	0.167	-0.449
-199.319	-72.031	-0.225	0.083
-198.304	-90.932	-0.122	-0.035
-197.290	102.990	-0.153	-0.178
-196.275	-200.000	0.034	-0.204
-195.260	800.000	0.092	0.253
-194.246	119.511	-0.108	-0.132
-193.231	800.000	-0.013	0.051
-192.217	-69.565	0.324	0.123
-191.202	-200.000	-0.032	-0.381
-190.187	411.402	-0.041	-0.086
-189.173	-200.000	0.065	0.333
-188.158	-200.000	0.023	-0.117
-187.144	-147.233	-0.138	0.012
-186.129	-64.833	0.250	-0.100
-185.114	-200.000	-0.034	-0.277
-184.100	-200.000	0.021	-0.225
-183.085	-14.709	0.383	-0.244
-182.071	-200.000	0.025	0.235
-181.056	-141.084	-0.205	0.021
-180.042	-135.509	0.157	-0.019
-179.027	107.637	-0.223	0.264
-178.012	-200.000	0.008	-0.110
-176.998	-81.708	-0.208	-0.068
-175.983	800.000	-0.113	0.395
-174.969	-200.000	-0.031	0.258
-173.954	175.469	0.268	0.385
-172.939	588.532	-0.073	0.178
-171.925	-200.000	0.030	0.320
-170.910	-96.243	-0.205	0.054
-169.896	800.000	-0.142	0.392
-168.881	-69.140	0.181	-0.069
-167.866	-48.304	0.285	0.136
-166.852	0.148	0.224	-0.158
-165.837	-200.000	0.017	0.134
-164.823	-131.178	0.072	0.010
-163.808	-200.000	0.016	-0.188
-162.793	-111.831	-0.194	-0.039
-161.779	272.679	0.007	0.012
-160.764	16.570	0.204	0.159
-159.750	31.813	-0.129	0.110
-158.735	-65.614	0.241	-0.096
-157.720	-200.000	0.021	0.150
-156.706	-30.472	0.205	0.115
-155.691	4.628	-0.202	-0.147
-154.677	-200.000	0.005	0.194
-153.662	-174.679	-0.301	0.008
-152.647	-200.000	0.050	-0.340
-151.633	-102.675	0.269	-0.063
-150.618	-92.401	-0.222	0.062
-149.604	171.030	-0.322	0.458
-148.589	-49.880	0.133	0.063
-147.574	110.566	0.254	0.303
-146.560	-35.167	0.202	-0.109
-145.545	-111.346	0.052	0.011
-144.531	-127.834	-0.177	-0.025
-143.516	111.250	0.096	0.115
-142.502	104.307	0.143	0.166
-141.487	76.327	0.056	0.058
-140.472	-9.735	-0.151	-0.099
-139.458	-102.198	-0.125	-0.030
-138.443	-51.502	0.272	-0.126
-137.429	82.581	0.101	-0.109
-136.414	-58.307	-0.254	-0.109
-135.399	-200.000	-0.040	-0.232
-134.385	800.000	0.018	0.061
-133.370	-200.000	-0.002	-0.066
-132.356	221.025	-0.127	-0.202
-131.341	-65.209	0.257	0.103
-130.326	-200.000	-0.020	0.172
-129.312	-118.953	-0.207	-0.036
-128.297	-40.588	0.160	-0.082
-127.283	-121.212	0.145	0.024
-126.268	-124.560	0.272	-0.042
-125.253	98.835	-0.114	-0.130
-124.239	800.000	0.044	-0.133
-123.224	800.000	0.140	0.391
