DTS Sentinel unit serial number:	SN413079Multiplexer serial number:	ORYXHardware model number:	OX4-SRSoftware version number:	ORYX F/W v4.00 Oryx Data Collector v3.7.2.0data status	okinstallation	princeton_trtdifferential loss correction	single-endedforward channel	channel 2reverse channel	N/Adate	2019/09/18time	07:43:34forward acquisition time	60.00reverse acquisition time	0.00gamma	496.2192k internal	0.2349k external	0.2349temperature offset calibration	0.9980default loss term (dB/km)	0.3790temperature slope calibration	1.0000multiplexer offset coefficient	1.0000multiplexer slope coefficient	1.0000fibre end	0.00T internal ref (°C)	23.28T ext. ref 1 (°C)	0.20T ext. ref 2 (°C)	18.19length (m)	temperature (°C)	Stokes	anti-Stokes-747.200	-69.058	0.357	0.137
-746.185	-70.493	-0.188	-0.071
-745.171	-200.000	-0.017	0.187
-744.156	-107.054	0.116	-0.026
-743.142	800.000	0.015	0.052
-742.127	220.765	-0.123	0.197
-741.112	-200.000	0.025	-0.161
-740.098	-0.943	0.150	0.106
-739.083	-51.441	-0.135	-0.063
-738.069	446.880	-0.128	0.281
-737.054	-162.379	0.434	-0.022
-736.039	-94.383	-0.278	-0.076
-735.025	-63.242	0.376	-0.155
-734.010	-200.000	0.026	-0.435
-732.996	-200.000	-0.009	0.154
-731.981	-200.000	-0.019	-0.240
-730.966	240.683	0.171	-0.284
-729.952	800.000	-0.087	0.342
-728.937	95.250	-0.235	0.267
-727.923	-68.079	-0.100	-0.039
-726.908	-36.187	-0.247	-0.133
-725.894	-138.595	-0.128	-0.014
-724.879	12.905	0.177	-0.136
-723.864	-14.285	-0.111	0.071
-722.850	128.843	-0.041	0.053
-721.835	-156.234	-0.235	-0.015
-720.821	130.121	0.216	-0.276
-719.806	-50.696	0.050	0.023
-718.791	105.137	-0.143	-0.169
-717.777	-39.070	0.364	-0.191
-716.762	-51.958	-0.225	-0.104
-715.748	-92.724	-0.014	0.004
-714.733	740.370	0.051	0.137
-713.718	-98.533	-0.157	-0.040
-712.704	-200.000	0.022	0.149
-711.689	-105.147	-0.319	0.073
-710.675	-174.349	0.300	-0.009
-709.660	-42.737	-0.394	-0.200
-708.645	113.693	-0.140	0.170
-707.631	800.000	0.003	0.013
-706.616	-41.772	-0.215	-0.110
-705.602	528.585	0.087	0.205
-704.587	86.621	0.212	0.234
-703.572	-85.350	-0.149	0.046
-702.558	-102.585	-0.214	-0.051
-701.543	800.000	-0.054	-0.183
-700.529	-40.886	0.108	0.056
-699.514	800.000	0.109	0.456
-698.499	54.108	-0.075	0.072
-697.485	25.147	-0.206	-0.170
-696.470	-22.882	0.152	0.091
-695.456	-145.195	-0.187	-0.017
-694.441	-31.732	-0.305	0.171
-693.426	-46.909	-0.345	0.168
-692.412	-200.000	0.040	0.365
-691.397	-105.091	0.249	-0.057
-690.383	163.283	-0.098	0.137
-689.368	248.595	-0.121	-0.205
-688.354	-108.594	0.321	-0.069
-687.339	-158.036	0.331	0.019
-686.324	-83.141	0.029	-0.009
-685.310	-131.679	0.238	-0.031
-684.295	137.916	0.185	0.241
-683.281	-200.000	-0.007	-0.169
-682.266	-161.074	0.157	-0.008
-681.251	128.946	0.132	-0.168
-680.237	-36.149	0.343	-0.184
-679.222	-119.984	0.284	0.049
-678.208	-61.823	-0.154	0.064
-677.193	-96.945	0.213	0.056
-676.178	413.544	0.105	-0.223
-675.164	307.056	-0.118	-0.219
-674.149	111.981	-0.161	0.194
-673.135	800.000	0.064	0.233
-672.120	-147.784	0.129	0.011
-671.105	-181.965	-0.065	-0.001
-670.091	800.000	0.055	-0.177
-669.076	67.288	-0.062	0.063
-668.062	61.490	0.273	0.270
-667.047	197.347	-0.049	-0.074
-666.032	38.542	0.083	0.074
-665.018	769.710	0.059	0.161
-664.003	-200.000	-0.002	-0.097
-662.989	800.000	-0.092	-0.357
-661.974	-39.585	-0.279	0.146
-660.959	-49.092	0.126	-0.060
-659.945	800.000	0.066	0.207
-658.930	23.051	0.288	-0.235
-657.916	-200.000	-0.036	0.219
-656.901	-55.418	-0.332	-0.148
-655.886	-64.807	-0.383	0.154
-654.872	529.916	-0.106	-0.249
-653.857	218.956	0.136	-0.216
-652.843	-66.688	-0.211	-0.083
-651.828	-200.000	0.011	0.069
-650.814	-125.957	0.199	-0.030
-649.799	-200.000	0.021	-0.185
-648.784	-109.563	0.034	-0.007
-647.770	-200.000	0.019	-0.102
-646.755	-128.209	-0.291	-0.041
-645.741	-94.181	-0.065	-0.018
-644.726	103.042	-0.151	-0.177
-643.711	319.089	0.127	0.240
-642.697	-200.000	0.011	-0.062
-641.682	-200.000	0.069	-0.432
-640.668	-59.261	-0.189	0.081
-639.653	-16.991	-0.034	-0.021
-638.638	86.715	-0.077	0.084
-637.624	-57.377	-0.199	-0.087
-636.609	54.662	-0.242	-0.233
-635.595	-200.000	0.065	-0.308
-634.580	-66.100	0.425	-0.168
-633.565	-87.494	0.194	0.058
-632.551	22.501	0.064	0.052
-631.536	34.868	-0.334	-0.291
-630.522	-63.342	-0.037	0.015
-629.507	-44.016	-0.349	-0.174
-628.492	574.902	0.057	0.138
-627.478	-45.150	-0.153	-0.076
-626.463	292.109	0.101	-0.182
-625.449	81.440	0.010	0.011
-624.434	-200.000	0.047	-0.376
-623.419	203.972	0.091	0.139
-622.405	157.287	0.181	0.249
-621.390	42.725	-0.157	-0.142
-620.376	34.450	-0.036	0.032
-619.361	-46.239	-0.195	0.095
-618.346	200.448	-0.084	0.129
-617.332	-138.915	0.127	-0.014
-616.317	-51.991	-0.192	0.088
-615.303	137.825	-0.119	-0.155
-614.288	114.166	-0.149	0.180
-613.273	194.101	0.101	-0.152
-612.259	-200.000	-0.048	-0.300
-611.244	137.813	0.135	-0.175
-610.230	-56.822	-0.235	-0.103
-609.215	84.175	0.194	-0.210
-608.201	-132.491	0.315	0.040
-607.186	-72.873	-0.248	0.091
-606.171	-200.000	0.023	-0.246
-605.157	800.000	0.067	0.258
-604.142	800.000	-0.079	0.218
-603.128	-125.433	0.243	0.037
-602.113	103.598	0.126	0.147
-601.098	800.000	0.060	0.224
-600.084	126.622	-0.126	-0.159
-599.069	-139.694	-0.049	0.005
-598.055	-195.002	-0.405	0.003
-597.040	800.000	-0.054	-0.214
-596.025	636.260	-0.097	0.244
-595.011	110.667	0.037	-0.044
-593.996	338.499	-0.038	-0.073
-592.982	800.000	-0.041	0.115
-591.967	189.546	0.108	0.161
-590.952	40.147	0.073	-0.065
-589.938	-200.000	0.012	-0.243
-588.923	14.508	-0.171	0.133
-587.909	-114.856	0.035	-0.007
-586.894	748.829	-0.039	0.105
-585.879	-61.883	-0.510	0.212
-584.865	-200.000	0.018	0.221
-583.850	186.987	0.113	0.168
-582.836	203.249	-0.030	-0.046
-581.821	-184.158	0.232	0.004
-580.806	222.104	-0.142	0.227
-579.792	-146.962	-0.151	0.013
-578.777	-200.000	-0.026	-0.166
-577.763	512.145	0.087	-0.200
-576.748	-67.179	-0.259	0.101
-575.733	-120.654	0.215	-0.036
-574.719	-200.000	0.015	-0.371
-573.704	-149.757	-0.307	-0.024
-572.690	133.999	0.176	0.226
-571.675	-28.795	0.161	-0.092
-570.661	-87.879	0.091	0.027
-569.646	73.047	-0.142	-0.147
-568.631	-70.751	-0.134	-0.050
-567.617	-200.000	0.037	-0.356
-566.602	800.000	-0.057	-0.243
-565.588	-45.795	-0.153	-0.075
-564.573	800.000	0.039	0.114
-563.558	535.049	-0.127	0.299
-562.544	116.406	-0.120	-0.146
-561.529	117.191	0.143	0.174
-560.515	111.105	0.079	0.094
-559.500	-153.242	-0.196	0.014
-558.485	-200.000	-0.037	0.286
-557.471	115.688	-0.041	-0.049
-556.456	-200.000	0.041	0.294
-555.442	-108.076	0.391	-0.084
-554.427	-200.000	-0.032	-0.260
-553.412	-200.000	-0.009	0.114
-552.398	-60.239	-0.212	-0.089
-551.383	-63.212	0.101	0.041
-550.369	-107.296	0.099	0.022
-549.354	70.975	0.138	0.141
-548.339	800.000	-0.067	0.223
-547.325	800.000	-0.140	-0.476
-546.310	-0.087	0.169	-0.119
-545.296	224.218	-0.232	0.371
-544.281	113.232	-0.204	0.245
-543.266	-200.000	0.466	0.002
-542.252	-101.070	-0.293	0.071
-541.237	390.928	0.083	-0.171
-540.223	71.884	0.186	0.192
-539.208	-71.224	0.202	-0.075
-538.193	-36.459	0.392	0.209
-537.179	-36.596	-0.268	0.143
-536.164	-22.958	0.130	-0.077
-535.150	93.947	0.256	-0.287
-534.135	-200.000	0.001	0.011
-533.121	-19.503	-0.078	-0.048
-532.106	413.001	-0.095	0.200
-531.091	-97.541	-0.128	0.033
-530.077	108.169	0.036	0.043
-529.062	800.000	-0.002	-0.008
-528.048	800.000	0.063	0.233
-527.033	-95.384	-0.131	-0.035
-526.018	-118.480	0.093	0.016
-525.004	232.934	0.033	-0.054
-523.989	-142.080	0.251	-0.025
-522.975	-200.000	0.018	0.156
-521.960	-133.382	-0.126	0.016
-520.945	440.359	0.154	0.333
-519.931	-141.422	0.125	-0.013
-518.916	-200.000	0.068	0.305
-517.902	-113.910	0.077	-0.015
-516.887	-200.000	-0.005	-0.097
-515.872	-200.000	0.037	0.326
-514.858	-96.417	-0.307	0.080
-513.843	80.597	-0.028	-0.030
-512.829	-111.368	-0.327	0.066
-511.814	800.000	-0.057	0.233
-510.799	37.748	-0.055	-0.048
-509.785	-96.613	-0.262	-0.068
-508.770	800.000	-0.024	0.085
-507.756	-110.419	-0.309	0.063
-506.741	134.094	0.226	-0.290
-505.726	253.143	0.105	0.178
-504.712	800.000	-0.084	0.273
-503.697	653.751	-0.052	0.132
-502.683	30.725	0.129	-0.109
-501.668	-69.579	0.144	-0.055
-500.653	-200.000	0.029	0.305
-499.639	-52.679	-0.338	0.154
-498.624	-200.000	-0.019	0.188
-497.610	-142.675	-0.365	0.035
-496.595	45.612	0.037	-0.034
-495.581	800.000	0.037	-0.121
-494.566	50.789	0.096	0.090
-493.551	-127.548	0.199	-0.029
-492.537	-85.880	0.096	0.029
-491.522	-23.454	-0.181	-0.107
-490.508	-159.583	0.098	-0.005
-489.493	-186.364	-0.149	-0.002
-488.478	-66.483	0.174	-0.068
-487.464	800.000	0.031	0.094
-486.449	-200.000	-0.020	-0.395
-485.435	119.973	-0.242	-0.297
-484.420	-55.429	0.429	-0.190
-483.405	-200.000	-0.082	-0.384
-482.391	-48.196	0.105	0.050
-481.376	118.370	0.178	0.217
-480.362	-31.165	-0.168	0.093
-479.347	-37.107	-0.104	-0.055
-478.332	110.518	0.084	-0.100
-477.318	-102.269	0.251	0.060
-476.303	8.276	-0.028	0.021
-475.289	800.000	-0.072	0.238
-474.274	-200.000	0.065	-0.373
-473.259	-66.579	-0.245	0.096
-472.245	18.255	0.109	0.086
-471.230	-200.000	-0.048	-0.322
-470.216	-51.218	-0.125	0.058
-469.201	684.174	0.071	-0.182
-468.186	383.340	0.028	0.056
-467.172	-200.000	-0.048	-0.212
-466.157	67.734	0.123	0.124
-465.143	-146.370	-0.205	0.018
-464.128	405.580	0.110	0.230
-463.113	800.000	-0.145	0.439
-462.099	-200.000	-0.002	0.265
-461.084	-49.259	-0.116	0.055
-460.070	-31.299	0.136	0.075
-459.055	-43.484	-0.177	-0.088
-458.040	-17.103	0.127	-0.079
-457.026	-130.638	0.353	0.047
-456.011	800.000	-0.059	0.208
-454.997	-188.625	-0.076	-0.001
-453.982	283.280	0.163	-0.288
-452.968	201.000	0.182	0.276
-451.953	-73.722	-0.351	-0.126
-450.938	800.000	-0.045	0.164
-449.924	-33.934	0.276	-0.150
-448.909	-200.000	0.019	0.238
-447.895	170.337	0.175	0.248
-446.880	-200.000	0.022	-0.385
-445.865	-53.619	-0.089	-0.040
-444.851	-63.826	0.252	-0.102
-443.836	-200.000	0.056	0.299
-442.822	64.100	0.143	0.142
-441.807	-200.000	0.095	0.420
-440.792	294.503	-0.103	0.186
-439.778	-200.000	-0.001	0.053
-438.763	-23.901	0.160	0.094
-437.749	101.665	0.253	0.291
-436.734	729.626	0.057	-0.151
-435.719	-200.000	-0.021	0.242
-434.705	246.531	-0.119	0.199
-433.690	282.477	0.042	0.074
-432.676	98.045	0.181	-0.206
-431.661	354.800	0.044	-0.086
-430.646	167.932	-0.156	-0.219
-429.632	-13.701	0.037	0.024
-428.617	113.981	0.239	0.286
-427.603	154.668	0.250	0.339
-426.588	800.000	-0.088	0.275
-425.573	-3.620	-0.076	-0.052
-424.559	100.608	-0.164	-0.187
-423.544	-46.190	-0.024	-0.012
-422.530	-102.521	-0.078	0.018
-421.515	-130.592	-0.238	-0.032
-420.500	153.250	0.041	0.055
-419.486	-65.331	-0.126	0.050
-418.471	-102.215	0.233	0.055
-417.457	-51.911	-0.068	0.031
-416.442	-99.058	0.332	0.083
-415.428	-200.000	-0.002	-0.294
-414.413	-108.222	-0.204	0.044
-413.398	-200.000	0.005	-0.050
-412.384	-26.242	-0.237	0.137
-411.369	-70.494	-0.060	-0.022
-410.355	147.097	-0.237	-0.314
-409.340	-37.775	0.105	-0.055
-408.325	-200.000	-0.000	0.371
-407.311	-25.788	0.112	-0.065
-406.296	-41.709	0.184	0.093
-405.282	800.000	-0.024	-0.100
-404.267	-74.843	-0.302	-0.107
-403.252	-200.000	-0.006	0.107
-402.238	-51.732	-0.103	-0.047
-401.223	-130.223	0.125	0.017
-400.209	-4.885	0.217	0.147
-399.194	77.220	0.195	-0.204
-398.179	210.313	0.105	-0.162
-397.165	5.423	0.049	-0.036
-396.150	800.000	-0.036	-0.118
-395.136	290.951	-0.146	0.261
-394.121	800.000	0.063	-0.215
-393.106	195.052	-0.154	0.231
-392.092	474.324	0.106	-0.236
-391.077	-200.000	0.064	-0.369
-390.063	800.000	-0.028	-0.087
-389.048	7.361	0.069	0.051
-388.033	-111.317	-0.246	0.049
-387.019	-85.267	0.170	0.052
-386.004	-159.836	-0.314	0.017
-384.990	313.063	0.158	-0.293
-383.975	-9.907	0.174	0.114
-382.960	-30.868	0.091	-0.051
-381.946	-73.307	-0.135	0.049
-380.931	82.229	0.186	0.198
-379.917	-11.367	0.050	0.032
-378.902	92.318	-0.094	0.104
-377.888	95.573	0.240	-0.269
-376.873	-159.862	-0.160	-0.009
-375.858	800.000	0.048	-0.146
-374.844	251.107	0.070	0.117
-373.829	132.139	0.168	0.213
-372.815	97.157	0.103	0.117
-371.800	800.000	0.095	-0.259
-370.785	371.510	-0.197	0.394
-369.771	218.999	-0.031	0.049
-368.756	262.884	0.034	-0.058
-367.742	-200.000	-0.005	-0.034
-366.727	-173.430	-0.255	-0.008
-365.712	91.333	-0.114	-0.126
-364.698	800.000	0.071	-0.304
-363.683	274.002	0.049	0.086
-362.669	9.770	-0.320	0.239
-361.654	-73.878	-0.204	-0.073
-360.639	15.409	-0.062	-0.048
-359.625	46.762	0.149	0.137
-358.610	800.000	0.068	0.226
-357.596	-200.000	0.028	-0.136
-356.581	-196.706	-0.164	-0.001
-355.566	54.136	0.235	-0.222
-354.552	-136.583	0.348	-0.040
-353.537	-153.003	0.266	-0.018
-352.523	-200.000	0.009	-0.277
-351.508	-200.000	-0.032	-0.296
-350.493	-73.948	-0.110	-0.039
-349.479	42.631	0.120	-0.108
-348.464	-17.243	0.085	-0.053
-347.450	236.718	0.095	-0.155
-346.435	-182.506	0.097	0.002
-345.420	-122.431	0.337	0.054
-344.406	378.979	-0.183	-0.368
-343.391	686.184	0.052	-0.132
-342.377	-200.000	-0.020	0.131
-341.362	160.660	-0.322	0.442
-340.348	-139.762	0.274	0.029
-339.333	-37.000	-0.382	-0.201
-338.318	-169.218	0.280	0.010
-337.304	-113.365	0.357	0.069
-336.289	78.343	-0.081	-0.085
-335.275	-200.000	-0.010	-0.061
-334.260	701.978	-0.107	-0.278
-333.245	-200.000	-0.048	-0.316
-332.231	-97.688	0.115	0.029
-331.216	-124.661	0.057	0.009
-330.202	-21.872	-0.164	-0.098
-329.187	800.000	-0.047	-0.176
-328.172	-200.000	0.025	-0.293
-327.158	-49.101	0.442	-0.208
-326.143	48.860	-0.376	-0.347
-325.129	143.071	0.104	-0.136
-324.114	541.834	0.091	-0.212
-323.099	237.816	-0.197	-0.322
-322.085	-122.175	-0.246	0.040
-321.070	-74.674	0.518	0.183
-320.056	-125.886	-0.313	0.046
-319.041	-107.499	-0.082	0.018
-318.026	-86.740	0.073	0.022
-317.012	-30.688	-0.318	0.177
-315.997	-25.477	0.122	-0.071
-314.983	800.000	0.050	-0.147
-313.968	296.671	0.160	0.287
-312.953	296.366	0.054	0.096
-311.939	749.732	0.162	-0.430
-310.924	13.534	0.297	-0.227
-309.910	-33.961	0.143	0.077
-308.895	-106.052	-0.308	0.068
-307.880	728.101	0.087	-0.228
-306.866	-33.229	0.187	-0.101
-305.851	-200.000	0.081	0.364
-304.837	140.533	-0.028	-0.037
-303.822	12.354	-0.054	-0.041
-302.807	-200.000	-0.041	0.177
-301.793	-20.047	0.180	0.109
-300.778	25.893	-0.210	-0.172
-299.764	-200.000	0.024	-0.124
-298.749	-127.609	-0.168	-0.024
-297.735	151.362	-0.125	-0.167
-296.720	444.901	0.137	0.295
-295.705	-189.001	0.066	-0.001
-294.691	-84.619	-0.133	-0.041
-293.676	-200.000	0.005	-0.067
-292.662	-200.000	0.029	-0.133
-291.647	23.186	-0.178	0.144
-290.632	202.864	-0.060	0.091
-289.618	19.472	0.099	-0.078
-288.603	-61.534	0.147	-0.060
-287.589	250.408	0.111	-0.185
-286.574	239.879	-0.140	0.229
-285.559	499.095	0.048	-0.109
-284.545	8.545	0.103	0.076
-283.530	354.900	-0.260	-0.508
-282.516	31.163	-0.282	0.238
-281.501	59.002	0.080	0.077
-280.486	800.000	-0.055	-0.189
-279.472	-133.181	-0.288	0.036
-278.457	86.136	0.131	0.141
-277.443	126.787	-0.188	-0.233
-276.428	20.218	-0.291	-0.230
-275.413	-13.441	-0.180	-0.115
-274.399	-200.000	0.003	0.285
-273.384	800.000	0.036	0.109
-272.370	-66.310	0.166	-0.065
-271.355	800.000	-0.034	0.143
-270.340	-53.501	-0.178	0.080
-269.326	-200.000	0.052	0.421
-268.311	39.543	-0.013	-0.011
-267.297	-58.939	-0.072	-0.030
-266.282	-200.000	0.008	-0.047
-265.267	-39.331	0.066	-0.034
-264.253	615.533	0.089	0.220
-263.238	-37.864	-0.064	-0.033
-262.224	-60.161	0.134	-0.056
-261.209	-200.000	-0.050	-0.321
-260.195	-200.000	-0.005	0.059
-259.180	-85.719	0.144	-0.044
-258.165	-53.516	0.353	0.158
-257.151	-43.376	0.164	-0.081
-256.136	-200.000	-0.023	-0.257
-255.122	-99.823	-0.131	-0.032
-254.107	-200.000	-0.000	0.505
-253.092	144.155	0.188	0.246
-252.078	-68.997	0.253	0.095
-251.063	-21.498	-0.175	0.105
-250.049	800.000	-0.038	0.138
-249.034	-200.000	-0.027	-0.157
-248.019	101.264	0.144	0.164
-247.005	135.519	0.033	0.043
-245.990	-179.131	0.259	-0.006
-244.976	-193.936	-0.259	-0.002
-243.961	-67.733	0.215	0.082
-242.946	800.000	-0.081	0.275
-241.932	800.000	0.065	-0.261
-240.917	-141.437	0.219	-0.022
-239.903	-175.334	-0.151	-0.004
-238.888	-77.056	-0.402	0.137
-237.873	-2.040	0.226	0.155
-236.859	-200.000	0.008	0.144
-235.844	124.248	0.037	-0.045
-234.830	-127.318	-0.127	-0.018
-233.815	229.317	0.079	0.126
-232.800	-67.439	-0.109	0.042
-231.786	-86.229	-0.105	0.032
-230.771	381.060	-0.099	-0.198
-229.757	800.000	-0.195	0.622
-228.742	77.373	0.252	0.263
-227.727	12.170	-0.091	0.068
-226.713	62.188	-0.128	0.125
-225.698	-186.198	0.236	0.003
-224.684	-142.241	-0.238	-0.023
-223.669	-147.080	0.579	0.048
-222.655	-0.507	-0.077	0.054
-221.640	-20.590	-0.135	-0.081
-220.625	370.373	-0.088	-0.174
-219.611	115.317	-0.035	0.042
-218.596	800.000	0.092	0.277
-217.582	243.566	0.084	0.138
-216.567	-110.743	0.084	-0.017
-215.552	-16.829	-0.126	-0.078
-214.538	665.172	0.067	0.170
-213.523	-47.383	0.203	0.097
-212.509	-69.430	-0.063	0.024
-211.494	-27.557	0.238	0.135
-210.479	259.653	0.061	0.104
-209.465	-153.992	-0.152	-0.010
-208.450	28.710	0.147	-0.122
-207.436	-106.156	0.379	-0.083
-206.421	800.000	-0.115	-0.327
-205.406	-200.000	0.453	-0.002
-204.392	-97.318	-0.098	-0.025
-203.377	-200.000	-0.022	-0.167
-202.363	-88.061	0.224	0.066
-201.348	14.298	0.119	0.091
-200.333	585.452	0.061	0.147
-199.319	157.096	-0.141	0.191
-198.304	-200.000	-0.009	-0.074
-197.290	107.548	-0.334	-0.388
-196.275	-200.000	-0.020	0.219
-195.260	-200.000	-0.001	0.062
-194.246	-92.238	0.156	0.043
-193.231	-41.324	-0.079	0.040
-192.217	30.073	0.035	-0.029
-191.202	-121.420	0.126	0.020
-190.187	-165.616	-0.310	0.013
-189.173	800.000	0.040	-0.146
-188.158	-200.000	-0.068	-0.387
-187.144	357.878	-0.116	-0.226
-186.129	218.724	-0.056	0.087
-185.114	-200.000	-0.221	0.000
-184.100	86.618	0.173	0.187
-183.085	-22.072	-0.097	0.057
-182.071	800.000	0.071	-0.214
-181.056	353.864	-0.115	0.223
-180.042	-160.394	-0.242	0.013
-179.027	-153.723	-0.206	-0.014
-178.012	182.639	-0.045	0.065
-176.998	250.287	0.069	-0.114
-175.983	-107.261	-0.241	0.052
-174.969	-200.000	0.009	0.119
-173.954	87.656	0.270	0.293
-172.939	-45.118	-0.103	-0.050
-171.925	-43.169	0.143	-0.071
-170.910	352.211	-0.056	0.108
-169.896	-200.000	0.014	0.331
-168.881	309.026	0.139	-0.254
-167.866	-167.059	0.083	-0.003
-166.852	213.075	-0.115	0.177
-165.837	-172.480	-0.210	0.006
-164.823	64.785	-0.403	-0.397
-163.808	800.000	0.134	-0.369
-162.793	-14.693	-0.368	0.231
-161.779	-72.891	-0.271	-0.097
-160.764	-200.000	0.007	-0.308
-159.750	-86.491	0.282	0.085
-158.735	49.253	-0.151	0.139
-157.720	116.875	-0.209	-0.250
-156.706	-200.000	0.047	-0.376
-155.691	-111.619	0.411	0.081
-154.677	354.337	0.072	-0.140
-153.662	36.038	0.180	0.155
-152.647	-200.000	0.023	-0.334
-151.633	-67.817	-0.373	-0.142
-150.618	-24.436	0.108	-0.063
-149.604	-200.000	-0.032	-0.232
-148.589	91.542	-0.086	0.095
-147.574	-132.502	0.255	-0.032
-146.560	115.586	0.103	0.122
-145.545	-7.106	-0.060	-0.040
-144.531	-112.627	0.248	-0.048
-143.516	20.072	-0.167	0.132
-142.502	167.269	0.182	0.252
-141.487	-46.289	0.238	-0.114
-140.472	800.000	0.080	-0.306
-139.458	549.557	0.028	0.065
-138.443	-128.443	0.257	0.036
-137.429	241.907	0.157	-0.256
-136.414	99.626	0.148	0.167
-135.399	489.531	-0.037	0.083
-134.385	100.680	0.117	0.133
-133.370	-200.000	0.001	0.208
-132.356	-200.000	0.049	-0.330
-131.341	85.969	0.118	0.126
-130.326	-71.534	-0.023	0.008
-129.312	51.814	0.123	0.114
-128.297	61.812	0.149	-0.145
-127.283	-200.000	0.055	-0.365
-126.268	160.764	0.096	-0.131
-125.253	-32.181	-0.252	-0.137
-124.239	277.932	0.049	-0.085
-123.224	79.053	-0.166	-0.173
-122.210	468.874	0.046	-0.101
