DTS Sentinel unit serial number:	SN413079Multiplexer serial number:	ORYXHardware model number:	OX4-SRSoftware version number:	ORYX F/W v4.00 Oryx Data Collector v3.7.2.0data status	okinstallation	princeton_trtdifferential loss correction	single-endedforward channel	channel 2reverse channel	N/Adate	2019/09/15time	14:43:35forward acquisition time	60.00reverse acquisition time	0.00gamma	496.2192k internal	0.2298k external	0.2298temperature offset calibration	0.9976default loss term (dB/km)	0.3790temperature slope calibration	1.0000multiplexer offset coefficient	1.0000multiplexer slope coefficient	1.0000fibre end	0.00T internal ref (°C)	39.69T ext. ref 1 (°C)	4.84T ext. ref 2 (°C)	36.46length (m)	temperature (°C)	Stokes	anti-Stokes-747.200	-197.635	-0.136	-0.001
-746.185	-66.160	0.188	0.076
-745.171	265.774	-0.041	0.073
-744.156	-54.776	-0.103	-0.047
-743.142	-200.000	-0.014	0.182
-742.127	800.000	0.059	0.222
-741.112	800.000	-0.051	-0.190
-740.098	-200.000	-0.051	0.425
-739.083	-161.080	0.243	0.013
-738.069	25.481	-0.157	-0.133
-737.054	-106.308	-0.243	-0.056
-736.039	-200.000	-0.024	0.412
-735.025	11.608	-0.111	0.087
-734.010	-141.581	0.167	-0.017
-732.996	159.786	0.182	0.258
-731.981	381.122	-0.147	0.308
-730.966	62.098	0.109	0.111
-729.952	43.419	0.029	0.027
-728.937	-147.733	0.293	-0.025
-727.923	-200.000	-0.000	0.115
-726.908	-55.673	-0.354	-0.161
-725.894	447.668	-0.065	-0.147
-724.879	228.515	0.097	-0.161
-723.864	-200.000	0.002	-0.094
-722.850	22.057	0.097	-0.081
-721.835	-200.000	0.005	0.210
-720.821	-95.141	0.140	0.038
-719.806	-200.000	-0.046	-0.356
-718.791	-93.643	-0.209	-0.059
-717.777	-61.278	-0.210	0.090
-716.762	-139.281	0.224	0.025
-715.748	-102.238	0.209	-0.051
-714.733	-200.000	-0.037	-0.239
-713.718	-200.000	-0.054	0.258
-712.704	-81.282	-0.387	-0.130
-711.689	-56.228	-0.111	-0.051
-710.675	655.345	-0.087	0.227
-709.660	-13.189	0.226	-0.150
-708.645	-137.161	-0.269	-0.031
-707.631	800.000	-0.078	-0.225
-706.616	-200.000	-0.019	-0.144
-705.602	628.217	-0.067	0.172
-704.587	-119.907	0.049	-0.009
-703.572	58.025	-0.116	-0.116
-702.558	-200.000	0.065	-0.333
-701.543	-4.524	0.196	0.138
-700.529	-84.997	0.411	-0.131
-699.514	116.919	0.227	-0.284
-698.499	32.984	0.146	-0.129
-697.485	245.146	-0.051	-0.088
-696.470	-0.205	-0.343	-0.248
-695.456	-200.000	0.058	0.279
-694.441	-200.000	-0.011	0.160
-693.426	301.374	0.122	0.229
-692.412	-200.000	0.080	-0.365
-691.397	-31.180	-0.169	-0.097
-690.383	-200.000	-0.002	0.184
-689.368	-77.112	-0.243	0.086
-688.354	177.955	-0.041	0.061
-687.339	-200.000	0.039	0.482
-686.324	102.361	-0.152	0.181
-685.310	21.162	0.252	0.208
-684.295	-104.587	0.090	0.021
-683.281	589.086	0.063	0.158
-682.266	-200.000	0.012	-0.071
-681.251	-80.822	0.328	-0.111
-680.237	-63.730	-0.328	-0.137
-679.222	-114.245	-0.028	0.006
-678.208	16.623	-0.108	-0.087
-677.193	355.302	-0.007	-0.014
-676.178	-171.115	0.333	0.011
-675.164	800.000	0.046	-0.174
-674.149	2.618	-0.351	-0.259
-673.135	-200.000	-0.008	-0.148
-672.120	-5.787	0.176	-0.123
-671.105	-86.922	0.134	-0.042
-670.091	-36.351	0.124	-0.068
-669.076	45.858	-0.197	0.185
-668.062	-122.466	-0.136	0.023
-667.047	-55.793	-0.062	-0.028
-666.032	560.429	-0.170	0.418
-665.018	-200.000	0.010	-0.103
-664.003	123.802	-0.281	-0.359
-662.989	95.178	-0.150	-0.174
-661.974	800.000	-0.024	-0.078
-660.959	-115.921	0.186	-0.035
-659.945	56.144	0.070	-0.069
-658.930	748.461	-0.088	-0.242
-657.916	-184.335	0.322	0.005
-656.901	-200.000	-0.008	0.132
-655.886	-33.660	0.098	0.055
-654.872	-145.769	-0.053	0.005
-653.857	-173.581	-0.400	0.012
-652.843	62.896	-0.217	0.221
-651.828	289.811	0.068	-0.126
-650.814	-118.060	0.190	0.034
-649.799	-108.980	0.116	0.025
-648.784	-200.000	-0.024	0.136
-647.770	-153.589	0.180	0.013
-646.755	-125.709	0.138	-0.021
-645.741	-200.000	0.022	0.366
-644.726	164.224	-0.064	-0.092
-643.711	-142.186	0.083	0.008
-642.697	51.139	0.134	-0.129
-641.682	74.588	0.103	-0.111
-640.668	250.492	0.183	-0.316
-639.653	80.429	0.107	-0.117
-638.638	-120.878	-0.145	-0.025
-637.624	-115.897	-0.247	-0.047
-636.609	66.166	0.138	0.143
-635.595	16.922	0.137	-0.111
-634.580	-27.743	-0.070	-0.041
-633.565	-23.064	-0.250	-0.153
-632.551	295.583	-0.095	0.177
-631.536	-29.119	0.091	0.053
-630.522	-14.703	-0.211	0.138
-629.507	-200.000	-0.011	0.183
-628.492	-200.000	-0.004	0.231
-627.478	-33.435	-0.112	-0.063
-626.463	-200.000	-0.069	0.417
-625.449	-180.584	-0.175	-0.004
-624.434	800.000	-0.083	-0.362
-623.419	-200.000	-0.008	0.125
-622.405	53.967	-0.269	-0.262
-621.390	-200.000	-0.008	-0.216
-620.376	-72.775	0.026	0.010
-619.361	108.963	0.040	-0.049
-618.346	-45.150	-0.053	0.027
-617.332	-157.718	-0.300	0.018
-616.317	800.000	0.080	-0.274
-615.303	-141.126	0.123	0.013
-614.288	30.776	-0.133	-0.115
-613.273	171.219	-0.077	0.112
-612.259	-66.609	0.223	-0.090
-611.244	-55.433	0.176	-0.080
-610.230	-200.000	0.040	0.279
-609.215	137.681	0.052	0.069
-608.201	-116.493	-0.188	0.035
-607.186	-73.793	0.181	0.067
-606.171	-94.208	0.041	-0.011
-605.157	-31.271	0.267	0.153
-604.142	196.519	-0.048	0.074
-603.128	244.444	-0.173	-0.295
-602.113	-200.000	-0.002	0.105
-601.098	-72.367	-0.181	-0.068
-600.084	234.013	0.138	-0.231
-599.069	34.618	-0.262	-0.232
-598.055	800.000	-0.080	0.318
-597.040	25.322	-0.098	-0.083
-596.025	659.714	0.061	0.159
-595.011	-200.000	-0.029	0.470
-593.996	306.060	-0.135	0.254
-592.982	-156.146	0.448	0.029
-591.967	-141.178	-0.171	0.018
-590.952	739.066	0.077	0.209
-589.938	-172.702	-0.176	-0.006
-588.923	800.000	0.163	-0.472
-587.909	14.130	0.097	0.077
-586.894	800.000	0.073	-0.217
-585.879	51.947	-0.085	-0.082
-584.865	176.837	0.154	-0.227
-583.850	281.154	-0.118	-0.214
-582.836	249.100	0.251	-0.431
-581.821	570.761	0.054	0.134
-580.806	235.809	0.206	-0.346
-579.792	164.208	-0.164	0.234
-578.777	-31.146	-0.318	-0.182
-577.763	82.474	-0.070	-0.077
-576.748	-105.527	-0.132	0.030
-575.733	-200.000	-0.065	-0.358
-574.719	-200.000	-0.029	-0.443
-573.704	347.880	-0.144	-0.287
-572.690	-74.210	0.201	-0.074
-571.675	178.804	-0.109	0.162
-570.661	30.078	-0.243	0.210
-569.646	44.578	0.113	-0.106
-568.631	-114.888	0.414	-0.080
-567.617	-84.118	0.062	0.020
-566.602	247.288	0.203	0.347
-565.588	175.775	0.052	0.076
-564.573	-89.904	0.067	0.020
-563.558	-164.455	0.310	-0.014
-562.544	-93.284	-0.245	0.069
-561.529	26.113	-0.216	-0.183
-560.515	-200.000	-0.020	0.091
-559.500	-200.000	-0.013	-0.089
-558.485	-200.000	-0.023	-0.185
-557.471	-54.466	0.268	0.123
-556.456	558.562	0.061	0.150
-555.442	-39.903	0.046	0.024
-554.427	-111.807	-0.107	0.022
-553.412	-163.091	-0.092	0.005
-552.398	172.072	0.156	0.227
-551.383	-200.000	0.003	0.330
-550.369	-200.000	-0.086	-0.502
-549.354	-200.000	-0.025	-0.140
-548.339	-200.000	-0.025	0.125
-547.325	-200.000	-0.009	0.186
-546.310	-73.301	0.292	0.108
-545.296	15.434	0.115	0.091
-544.281	-200.000	0.059	-0.292
-543.266	211.786	-0.069	0.110
-542.252	22.999	0.262	0.218
-541.237	-132.440	0.191	-0.025
-540.223	186.472	-0.203	-0.306
-539.208	-21.285	-0.215	-0.133
-538.193	-120.535	-0.368	-0.063
-537.179	-51.280	0.141	-0.067
-536.164	800.000	0.049	0.196
-535.150	-200.000	0.016	-0.121
-534.135	-11.924	-0.238	0.158
-533.121	-68.751	-0.115	-0.045
-532.106	-200.000	-0.050	0.290
-531.091	-117.119	0.102	0.019
-530.077	-200.000	-0.001	-0.348
-529.062	-200.000	-0.019	0.136
-528.048	2.719	-0.066	-0.049
-527.033	201.103	-0.190	-0.297
-526.018	203.612	0.072	0.113
-525.004	51.546	-0.181	-0.174
-523.989	800.000	0.028	-0.107
-522.975	52.649	-0.297	-0.287
-521.960	-169.126	-0.088	0.003
-520.945	551.200	-0.124	0.300
-519.931	-200.000	0.039	0.196
-518.916	800.000	0.082	-0.324
-517.902	447.600	0.033	-0.073
-516.887	17.162	0.113	0.091
-515.872	-200.000	-0.013	0.095
-514.858	-21.738	0.345	-0.212
-513.843	-158.343	0.158	-0.009
-512.829	76.148	-0.145	0.156
-511.814	22.211	-0.157	0.130
-510.799	130.619	-0.148	0.192
-509.785	101.649	-0.079	-0.093
-508.770	34.008	-0.200	-0.176
-507.756	-200.000	0.006	-0.093
-506.741	-200.000	0.022	-0.126
-505.726	-200.000	0.006	-0.209
-504.712	-154.192	0.062	-0.004
-503.697	67.729	-0.034	0.036
-502.683	-98.130	-0.170	-0.044
-501.668	-154.327	-0.220	-0.015
-500.653	728.127	-0.116	-0.312
-499.639	800.000	-0.034	-0.128
-498.624	-38.478	-0.052	-0.028
-497.610	125.931	-0.068	-0.087
-496.595	-118.708	0.047	-0.008
-495.581	-111.864	0.146	0.030
-494.566	286.297	-0.117	0.214
-493.551	-88.269	0.380	0.115
-492.537	-63.935	0.313	-0.129
-491.522	-90.777	0.107	0.031
-490.508	800.000	0.013	-0.045
-489.493	-174.905	-0.237	0.007
-488.478	-46.758	0.241	-0.119
-487.464	-200.000	-0.007	-0.033
-486.449	42.013	0.238	0.219
-485.435	152.076	0.131	0.180
-484.420	249.868	-0.167	-0.286
-483.405	-153.637	0.135	0.009
-482.391	-177.700	0.544	-0.013
-481.376	-200.000	-0.024	0.144
-480.362	-159.697	-0.264	0.015
-479.347	158.087	-0.055	-0.077
-478.332	-200.000	-0.058	0.401
-477.318	-200.000	-0.030	-0.221
-476.303	-200.000	0.049	-0.242
-475.289	-27.938	0.313	-0.183
-474.274	800.000	-0.071	-0.243
-473.259	-89.046	0.185	-0.055
-472.245	-90.480	0.186	-0.055
-471.230	-148.841	-0.336	0.027
-470.216	-135.181	-0.041	-0.005
-469.201	73.672	-0.095	-0.101
-468.186	66.651	-0.181	0.186
-467.172	-200.000	0.030	-0.462
-466.157	-200.000	-0.008	-0.331
-465.143	198.890	-0.122	0.189
-464.128	-152.494	0.314	0.023
-463.113	40.924	-0.149	0.136
-462.099	15.542	0.098	0.078
-461.084	-93.754	-0.057	0.016
-460.070	-95.878	-0.480	-0.129
-459.055	-200.000	-0.017	0.332
-458.040	-120.856	-0.277	0.047
-457.026	-200.000	-0.016	0.168
-456.011	-96.206	-0.164	0.044
-454.997	262.884	-0.093	0.162
-453.982	-83.692	-0.245	0.079
-452.968	64.770	0.121	0.123
-451.953	-200.000	0.002	-0.121
-450.938	-60.892	-0.127	-0.054
-449.924	341.540	-0.048	0.095
-448.909	243.111	-0.072	0.122
-447.895	-132.316	0.722	-0.094
-446.880	-200.000	0.008	0.049
-445.865	58.487	0.184	0.182
-444.851	-99.810	0.266	0.067
-443.836	800.000	0.009	-0.028
-442.822	800.000	0.038	-0.136
-441.807	800.000	0.070	0.291
-440.792	37.753	-0.046	0.041
-439.778	-118.395	-0.263	0.047
-438.763	12.676	-0.233	-0.182
-437.749	-67.862	0.236	-0.093
-436.734	-134.411	-0.189	0.023
-435.719	-165.165	-0.125	-0.006
-434.705	-200.000	0.000	0.326
-433.690	-200.000	0.002	0.105
-432.676	-200.000	0.010	-0.145
-431.661	800.000	0.106	-0.342
-430.646	36.237	-0.105	-0.093
-429.632	103.408	0.168	0.198
-428.617	444.300	-0.137	0.304
-427.603	-103.011	0.198	0.047
-426.588	97.450	-0.048	-0.056
-425.573	-200.000	-0.033	0.231
-424.559	-200.000	0.028	-0.320
-423.544	-130.270	0.317	0.043
-422.530	95.291	-0.115	-0.132
-421.515	-200.000	0.011	0.141
-420.500	-139.403	-0.152	-0.016
-419.486	800.000	0.063	0.253
-418.471	28.866	0.171	-0.146
-417.457	-157.948	-0.203	0.012
-416.442	631.517	0.089	0.226
-415.428	-96.960	0.367	0.097
-414.413	185.276	-0.051	0.077
-413.398	112.816	-0.117	-0.142
-412.384	67.894	0.138	-0.142
-411.369	-13.875	-0.222	-0.144
-410.355	-107.664	0.104	-0.023
-409.340	-12.304	0.194	0.128
-408.325	-127.105	-0.255	-0.038
-407.311	51.887	-0.197	-0.189
-406.296	-47.444	0.297	-0.146
-405.282	-77.278	-0.159	-0.056
-404.267	800.000	0.026	-0.103
-403.252	-1.344	-0.089	-0.063
-402.238	711.613	0.054	-0.144
-401.223	-95.671	0.059	-0.016
-400.209	-200.000	0.002	-0.168
-399.194	36.320	-0.163	-0.145
-398.179	133.911	-0.117	-0.153
-397.165	-8.143	0.223	0.152
-396.150	-200.000	-0.007	-0.387
-395.136	8.899	-0.476	-0.362
-394.121	-200.000	0.018	-0.265
-393.106	3.261	-0.178	0.130
-392.092	800.000	0.074	0.313
-391.077	800.000	0.097	0.417
-390.063	-38.862	-0.151	-0.080
-389.048	-84.364	-0.170	-0.054
-388.033	-87.437	-0.162	-0.049
-387.019	25.350	-0.338	0.282
-386.004	-129.983	-0.270	0.037
-384.990	118.861	-0.102	0.127
-383.975	61.817	0.139	-0.139
-382.960	-200.000	-0.018	0.234
-381.946	273.553	0.039	-0.070
-380.931	-50.120	0.269	0.128
-379.917	-112.400	-0.051	-0.010
-378.902	10.644	-0.251	-0.193
-377.888	-94.270	-0.192	-0.053
-376.873	738.334	-0.069	-0.185
-375.858	-7.637	0.252	0.172
-374.844	-56.959	0.261	-0.116
-373.829	745.943	-0.164	0.445
-372.815	-134.810	0.285	0.035
-371.800	151.319	0.107	0.147
-370.785	-150.204	0.102	-0.008
-369.771	564.366	0.055	0.134
-368.756	259.693	-0.225	-0.390
-367.742	-51.309	0.139	0.065
-366.727	-73.716	0.083	-0.031
-365.712	15.250	0.220	0.173
-364.698	453.485	0.041	0.090
-363.683	82.287	0.098	-0.107
-362.669	-200.000	0.015	0.067
-361.654	800.000	-0.080	-0.339
-360.639	-200.000	-0.028	-0.179
-359.625	800.000	-0.036	-0.117
-358.610	93.709	0.110	-0.125
-357.596	-200.000	0.007	0.132
-356.581	-200.000	0.023	0.136
-355.566	-133.494	-0.340	0.043
-354.552	800.000	0.065	0.225
-353.537	28.845	-0.296	0.252
-352.523	-26.044	-0.337	-0.199
-351.508	-111.760	0.180	-0.037
-350.493	130.278	0.193	0.248
-349.479	-200.000	0.008	-0.195
-348.464	-158.598	0.152	0.009
-347.450	-200.000	0.049	0.250
-346.435	-169.010	-0.053	0.002
-345.420	46.993	0.117	-0.110
-344.406	107.159	-0.103	-0.124
-343.391	-118.557	0.311	-0.055
-342.377	-56.656	-0.050	0.022
-341.362	67.697	0.266	0.273
-340.348	65.606	0.033	-0.033
-339.333	-200.000	-0.006	-0.093
-338.318	-98.313	-0.642	-0.165
-337.304	-0.543	-0.171	-0.122
-336.289	-147.762	-0.100	-0.008
-335.275	200.456	0.112	0.173
-334.260	279.136	-0.076	0.136
-333.245	-200.000	-0.096	-0.444
-332.231	800.000	0.061	-0.242
-331.216	-148.032	0.186	0.015
-330.202	-200.000	-0.011	0.091
-329.187	429.920	0.087	0.189
-328.172	-51.862	0.129	0.060
-327.158	210.695	-0.108	0.170
-326.143	-42.285	-0.055	0.028
-325.129	-77.342	-0.353	-0.123
-324.114	-52.879	-0.103	-0.047
-323.099	-61.556	0.059	-0.025
-322.085	125.742	-0.048	0.061
-321.070	-122.959	0.093	-0.015
-320.056	251.396	0.093	0.158
-319.041	282.686	-0.083	0.149
-318.026	-200.000	-0.026	0.281
-317.012	168.385	0.144	-0.206
-315.997	-200.000	-0.051	0.461
-314.983	186.435	-0.073	0.109
-313.968	-49.781	-0.170	-0.081
-312.953	-6.235	-0.056	-0.039
-311.939	700.721	0.089	0.236
-310.924	-82.792	-0.264	0.086
-309.910	-153.137	-0.176	-0.012
-308.895	86.782	-0.046	-0.051
-307.880	-14.092	0.078	0.051
-306.866	-200.000	0.024	0.506
-305.851	71.818	0.113	-0.118
-304.837	-74.790	0.212	0.076
-303.822	-6.637	-0.013	-0.009
-302.807	-200.000	-0.021	-0.118
-301.793	189.979	-0.250	-0.376
-300.778	232.344	0.256	-0.421
-299.764	-180.581	0.127	-0.003
-298.749	215.041	0.112	-0.179
-297.735	-159.952	0.307	-0.017
-296.720	800.000	-0.063	-0.210
-295.705	34.800	0.225	-0.197
-294.691	-58.517	0.205	0.089
-293.676	63.761	0.251	0.253
-292.662	78.326	0.135	-0.144
-291.647	-49.923	0.144	0.069
-290.632	158.040	-0.135	0.188
-289.618	-84.739	0.096	0.030
-288.603	800.000	0.078	0.245
-287.589	323.790	0.212	0.406
-286.574	-169.159	0.079	-0.003
-285.559	-117.271	-0.312	0.057
-284.545	-43.432	0.069	0.035
-283.530	514.998	0.062	0.146
-282.516	-48.839	-0.058	0.028
-281.501	-200.000	-0.061	0.267
-280.486	-62.022	0.287	-0.120
-279.472	30.636	0.119	0.102
-278.457	70.132	-0.146	-0.151
-277.443	23.704	0.232	-0.191
-276.428	586.870	-0.035	0.087
-275.413	195.405	-0.119	-0.182
-274.399	286.950	-0.218	0.395
-273.384	-31.739	0.149	0.084
-272.370	-45.121	0.294	-0.147
-271.355	-111.283	-0.092	0.019
-270.340	-3.477	-0.424	0.296
-269.326	-109.845	0.196	0.041
-268.311	-5.254	-0.085	0.058
-267.297	-200.000	-0.031	0.167
-266.282	57.301	-0.202	0.198
-265.267	-98.679	-0.133	-0.034
-264.253	44.653	-0.285	-0.263
-263.238	800.000	0.060	-0.207
-262.224	-133.203	-0.410	-0.052
-261.209	-32.374	0.058	0.032
-260.195	-43.104	-0.078	0.040
-259.180	-177.549	-0.148	0.004
-258.165	-95.145	-0.327	-0.088
-257.151	-200.000	0.046	-0.213
-256.136	-80.541	-0.088	-0.029
-255.122	58.097	0.190	0.186
-254.107	-70.819	0.096	0.036
-253.092	372.055	0.048	0.099
-252.078	-200.000	-0.039	0.269
-251.063	89.869	0.030	0.033
-250.049	-16.186	0.208	0.133
-249.034	-200.000	0.060	0.521
-248.019	172.978	0.148	0.213
-247.005	676.831	-0.017	0.043
-245.990	-72.616	0.190	0.070
-244.976	37.566	-0.067	-0.060
-243.961	-115.957	-0.281	0.052
-242.946	2.558	0.165	-0.119
-241.932	-111.821	0.260	0.053
-240.917	800.000	-0.114	-0.421
-239.903	212.381	0.170	0.269
-238.888	800.000	-0.035	-0.147
-237.873	-200.000	-0.027	0.382
-236.859	-31.284	0.009	0.005
-235.844	31.628	-0.215	-0.185
-234.830	40.712	0.084	0.076
-233.815	183.942	-0.156	-0.231
-232.800	-58.242	-0.248	0.108
-231.786	-7.615	0.090	0.061
-230.771	624.982	0.065	0.165
-229.757	603.091	-0.044	0.108
-228.742	800.000	0.035	-0.114
-227.727	-71.929	-0.049	0.018
-226.713	648.551	0.052	-0.132
-225.698	-119.497	0.106	0.018
-224.684	508.135	0.172	-0.400
-223.669	-1.003	0.447	-0.316
-222.655	-200.000	0.007	0.192
-221.640	98.974	-0.065	0.075
-220.625	-65.580	-0.065	-0.026
-219.611	179.963	-0.164	0.240
-218.596	-200.000	-0.002	-0.338
-217.582	-200.000	0.063	0.278
-216.567	91.762	-0.273	0.307
-215.552	390.145	0.050	-0.104
-214.538	91.340	0.072	-0.081
-213.523	-84.229	0.384	-0.122
-212.509	96.635	-0.031	0.035
-211.494	586.677	-0.104	0.257
-210.479	105.204	-0.204	0.240
-209.465	-200.000	-0.009	-0.089
-208.450	275.230	0.095	0.168
-207.436	26.656	0.152	-0.128
-206.421	-119.424	0.089	-0.016
-205.406	0.433	0.017	-0.012
-204.392	-129.262	0.361	-0.050
-203.377	-100.399	-0.244	0.060
-202.363	800.000	0.140	0.410
-201.348	-110.899	-0.263	0.054
-200.333	-200.000	0.011	-0.105
-199.319	123.670	-0.053	-0.067
-198.304	267.427	0.079	-0.139
-197.290	-126.922	-0.194	0.029
-196.275	-80.669	-0.157	0.052
-195.260	-200.000	-0.031	-0.164
-194.246	-42.327	0.182	-0.093
-193.231	402.819	-0.075	-0.157
-192.217	48.409	-0.116	-0.109
-191.202	-200.000	-0.006	-0.248
-190.187	-17.649	-0.108	-0.068
-189.173	549.578	-0.091	0.218
-188.158	800.000	0.027	-0.087
-187.144	-116.473	0.113	-0.021
-186.129	-98.332	0.072	-0.018
-185.114	94.766	-0.034	0.038
-184.100	-80.384	0.048	-0.016
-183.085	-42.006	-0.296	0.152
-182.071	-23.919	0.129	-0.077
-181.056	-110.794	-0.294	-0.060
-180.042	191.947	-0.080	-0.120
-179.027	-200.000	0.002	-0.096
-178.012	506.203	0.135	0.311
-176.998	800.000	-0.036	-0.152
-175.983	735.353	-0.100	-0.267
-174.969	-200.000	0.007	0.388
-173.954	30.224	0.188	0.160
-172.939	-200.000	0.076	-0.403
-171.925	-200.000	0.091	-0.453
-170.910	650.287	-0.023	0.058
-169.896	88.482	0.080	0.089
-168.881	-75.264	0.258	0.092
-167.866	290.148	-0.047	-0.086
-166.852	69.569	0.095	0.098
-165.837	12.090	-0.216	0.166
-164.823	112.162	0.163	0.197
-163.808	311.264	-0.112	-0.209
-162.793	53.046	-0.082	-0.078
-161.779	348.141	-0.044	-0.086
-160.764	-71.963	0.191	-0.071
-159.750	-200.000	-0.003	-0.195
-158.735	800.000	-0.035	0.100
-157.720	-200.000	-0.015	-0.303
-156.706	108.085	0.197	0.234
-155.691	-136.768	-0.061	0.007
-154.677	-200.000	0.033	0.231
-153.662	23.209	0.296	0.242
-152.647	-103.186	0.189	0.045
-151.633	400.336	0.029	0.060
-150.618	-154.084	-0.200	0.014
-149.604	-25.828	0.079	-0.047
-148.589	-105.339	-0.168	-0.038
-147.574	612.825	-0.047	-0.117
-146.560	384.179	0.092	0.189
-145.545	472.813	0.073	0.165
-144.531	-44.866	0.219	-0.109
-143.516	32.692	-0.150	-0.130
-142.502	118.157	-0.205	-0.252
-141.487	-90.877	-0.065	0.019
-140.472	-200.000	0.030	0.256
-139.458	800.000	-0.020	0.063
-138.443	9.053	-0.146	-0.110
-137.429	-200.000	0.020	-0.206
-136.414	-200.000	0.047	0.206
-135.399	-41.183	0.107	-0.055
-134.385	-200.000	-0.004	-0.049
-133.370	-81.491	-0.110	0.036
-132.356	-200.000	-0.001	0.063
-131.341	-1.856	-0.171	0.120
-130.326	-164.366	0.110	-0.005
-129.312	-200.000	0.001	0.442
-128.297	115.407	0.136	0.165
-127.283	69.319	-0.208	0.213
-126.268	-200.000	0.045	0.445
-125.253	-51.624	0.182	-0.085
-124.239	-200.000	0.003	-0.253
-123.224	330.721	-0.132	0.254
-122.210	-200.000	0.029	0.213
