DTS Sentinel unit serial number:	SN413079Multiplexer serial number:	ORYXHardware model number:	OX4-SRSoftware version number:	ORYX F/W v4.00 Oryx Data Collector v3.7.2.0data status	okinstallation	princeton_trtdifferential loss correction	single-endedforward channel	channel 2reverse channel	N/Adate	2019/09/15time	19:31:35forward acquisition time	60.00reverse acquisition time	0.00gamma	496.2192k internal	0.2315k external	0.2315temperature offset calibration	0.9935default loss term (dB/km)	0.3790temperature slope calibration	1.0000multiplexer offset coefficient	1.0000multiplexer slope coefficient	1.0000fibre end	0.00T internal ref (°C)	38.58T ext. ref 1 (°C)	7.31T ext. ref 2 (°C)	28.08length (m)	temperature (°C)	Stokes	anti-Stokes-747.200	-126.073	-0.587	0.089
-746.185	-200.000	-0.017	0.131
-745.171	256.208	0.112	-0.195
-744.156	610.441	-0.122	0.309
-743.142	-149.046	-0.222	0.018
-742.127	-54.269	-0.373	0.172
-741.112	-42.447	-0.270	0.140
-740.098	19.374	-0.208	0.170
-739.083	800.000	0.058	0.236
-738.069	40.979	-0.147	0.134
-737.054	361.362	0.197	-0.399
-736.039	776.354	-0.093	0.258
-735.025	282.025	0.041	0.074
-734.010	-24.450	-0.193	-0.116
-732.996	-142.893	0.107	0.010
-731.981	-42.556	-0.282	0.146
-730.966	-200.000	0.026	-0.271
-729.952	-188.043	0.378	0.005
-728.937	-163.778	-0.263	-0.012
-727.923	61.173	-0.309	-0.311
-726.908	71.909	0.076	0.080
-725.894	-111.661	-0.133	-0.027
-724.879	137.648	0.085	0.113
-723.864	-200.000	-0.007	0.351
-722.850	-200.000	-0.033	-0.154
-721.835	754.429	0.050	-0.136
-720.821	-200.000	-0.064	0.367
-719.806	-200.000	0.024	-0.352
-718.791	312.095	0.082	-0.156
-717.777	432.003	0.088	0.193
-716.762	55.189	0.122	0.119
-715.748	-37.629	-0.197	0.106
-714.733	259.555	0.016	-0.028
-713.718	-174.025	0.294	-0.009
-712.704	69.688	-0.066	0.069
-711.689	-121.590	-0.459	-0.077
-710.675	800.000	-0.077	-0.217
-709.660	-140.635	0.162	0.017
-708.645	15.400	-0.226	0.179
-707.631	33.231	0.037	0.032
-706.616	635.167	-0.055	-0.142
-705.602	100.285	-0.119	-0.139
-704.587	800.000	0.068	-0.236
-703.572	624.193	0.043	0.109
-702.558	413.386	-0.093	0.201
-701.543	77.492	0.239	-0.257
-700.529	-200.000	0.036	-0.252
-699.514	-28.603	-0.164	0.096
-698.499	0.229	0.188	-0.136
-697.485	21.856	-0.077	0.064
-696.470	-139.695	0.182	-0.020
-695.456	328.060	0.087	0.169
-694.441	-77.013	0.054	-0.019
-693.426	800.000	-0.077	-0.257
-692.412	-98.821	-0.202	-0.052
-691.397	141.432	-0.072	0.097
-690.383	-200.000	-0.008	-0.229
-689.368	-200.000	-0.004	0.049
-688.354	260.799	0.103	-0.179
-687.339	146.799	-0.166	-0.226
-686.324	161.367	0.062	-0.087
-685.310	135.312	-0.151	-0.199
-684.295	117.882	-0.206	-0.256
-683.281	-69.320	-0.044	-0.017
-682.266	374.394	0.061	0.126
-681.251	-106.923	-0.255	0.057
-680.237	-200.000	-0.012	-0.098
-679.222	800.000	0.065	-0.218
-678.208	513.089	-0.197	0.465
-677.193	-128.189	-0.215	-0.031
-676.178	-164.568	-0.376	-0.017
-675.164	-200.000	0.023	-0.423
-674.149	112.724	-0.009	-0.011
-673.135	-200.000	-0.079	0.399
-672.120	-78.127	0.283	0.098
-671.105	-139.661	-0.093	0.010
-670.091	-36.803	-0.185	0.100
-669.076	-81.104	-0.100	-0.033
-668.062	56.378	-0.102	-0.101
-667.047	-173.745	-0.068	-0.002
-666.032	-144.643	0.151	0.014
-665.018	393.876	-0.097	0.204
-664.003	183.620	0.075	0.112
-662.989	580.696	-0.018	0.045
-661.974	800.000	-0.062	-0.232
-660.959	-43.642	0.336	-0.171
-659.945	-127.862	-0.264	-0.038
-658.930	-98.441	0.238	0.062
-657.916	-143.559	0.276	-0.027
-656.901	504.749	-0.110	0.258
-655.886	586.895	-0.029	0.072
-654.872	59.124	0.228	-0.226
-653.857	171.624	-0.118	0.171
-652.843	-47.976	0.326	0.159
-651.828	-45.402	0.232	-0.116
-650.814	-79.681	-0.414	-0.141
-649.799	-200.000	0.041	-0.197
-648.784	-29.602	-0.121	-0.070
-647.770	667.091	0.022	-0.058
-646.755	-62.548	0.105	0.044
-645.741	205.287	-0.079	-0.124
-644.726	-58.376	0.059	-0.026
-643.711	-200.000	0.017	-0.176
-642.697	274.548	-0.112	0.201
-641.682	50.773	-0.233	-0.222
-640.668	42.801	0.088	-0.080
-639.653	42.298	-0.266	-0.244
-638.638	800.000	0.020	0.075
-637.624	800.000	0.034	-0.129
-636.609	-200.000	0.012	-0.170
-635.595	-125.112	0.354	0.055
-634.580	800.000	-0.064	-0.241
-633.565	-200.000	0.007	-0.298
-632.551	-101.294	0.217	0.053
-631.536	177.537	-0.048	0.071
-630.522	93.156	-0.247	0.282
-629.507	-200.000	0.314	-0.001
-628.492	-200.000	-0.059	0.266
-627.478	-13.070	-0.499	0.327
-626.463	-200.000	0.000	0.201
-625.449	-158.258	0.158	0.009
-624.434	86.264	-0.095	0.106
-623.419	-138.880	0.151	0.017
-622.405	-90.660	0.158	-0.046
-621.390	-127.163	0.044	0.006
-620.376	-200.000	-0.027	0.485
-619.361	-130.317	-0.128	-0.018
-618.346	-200.000	0.008	0.141
-617.332	-88.146	-0.048	0.015
-616.317	-200.000	0.041	0.241
-615.303	-61.279	0.178	0.076
-614.288	-182.166	-0.320	-0.006
-613.273	429.614	0.129	0.282
-612.259	-92.953	0.213	-0.060
-611.244	-35.289	0.155	0.085
-610.230	671.423	-0.159	0.415
-609.215	800.000	0.066	-0.246
-608.201	800.000	-0.036	-0.153
-607.186	800.000	-0.059	-0.218
-606.171	-200.000	0.050	-0.229
-605.157	482.365	0.082	-0.188
-604.142	-75.421	0.349	-0.125
-603.128	-51.318	-0.066	0.031
-602.113	161.711	-0.204	-0.288
-601.098	-200.000	-0.002	-0.098
-600.084	-34.385	-0.189	0.104
-599.069	-35.946	0.336	-0.183
-598.055	800.000	-0.018	0.059
-597.040	237.105	0.022	-0.036
-596.025	-200.000	-0.038	-0.216
-595.011	-92.567	-0.106	-0.030
-593.996	-200.000	0.029	0.229
-592.982	174.195	0.031	-0.045
-591.967	-105.352	-0.127	-0.029
-590.952	-200.000	-0.002	0.410
-589.938	-125.206	0.084	-0.013
-588.923	217.643	-0.257	0.413
-587.909	-155.100	0.387	0.026
-586.894	-200.000	0.031	-0.198
-585.879	-69.407	-0.101	0.039
-584.865	-146.162	-0.385	-0.034
-583.850	451.845	-0.123	0.273
-582.836	475.392	0.039	0.089
-581.821	-143.447	0.199	0.019
-580.806	-73.138	-0.330	-0.122
-579.792	322.417	0.195	0.374
-578.777	332.989	-0.173	0.337
-577.763	-102.550	0.056	-0.013
-576.748	-185.808	0.081	-0.001
-575.733	-55.076	-0.160	-0.073
-574.719	37.569	-0.069	-0.061
-573.704	38.501	-0.088	-0.079
-572.690	-62.187	-0.258	0.108
-571.675	-63.936	0.418	0.172
-570.661	25.487	-0.123	-0.103
-569.646	-103.663	-0.724	-0.171
-568.631	458.909	-0.060	0.135
-567.617	110.072	0.247	-0.298
-566.602	800.000	-0.126	-0.528
-565.588	-200.000	0.002	0.143
-564.573	-147.596	0.248	0.021
-563.558	-200.000	0.003	0.088
-562.544	-97.035	-0.167	-0.044
-561.529	-115.759	0.049	-0.009
-560.515	-200.000	0.054	0.513
-559.500	80.864	-0.223	-0.242
-558.485	33.363	-0.192	0.168
-557.471	-62.040	0.142	-0.060
-556.456	800.000	-0.084	-0.257
-555.442	-9.882	0.222	-0.149
-554.427	529.894	-0.094	0.223
-553.412	390.454	0.119	-0.248
-552.398	-200.000	0.000	-0.125
-551.383	350.738	-0.071	0.142
-550.369	261.931	0.225	0.393
-549.354	-118.631	0.138	0.024
-548.339	-67.007	0.180	0.071
-547.325	116.545	0.160	-0.197
-546.310	-2.362	-0.115	-0.081
-545.296	154.755	0.263	-0.364
-544.281	-200.000	-0.006	0.149
-543.266	682.659	0.109	0.285
-542.252	-138.551	0.037	0.004
-541.237	69.595	-0.296	-0.307
-540.223	-81.860	0.264	-0.087
-539.208	605.141	-0.131	-0.329
-538.193	63.408	0.223	0.225
-537.179	-64.971	-0.114	-0.046
-536.164	71.094	-0.117	0.122
-535.150	309.549	-0.177	0.333
-534.135	-146.863	-0.436	0.038
-533.121	800.000	0.043	-0.146
-532.106	-184.226	0.123	0.002
-531.091	-55.875	-0.305	0.137
-530.077	800.000	-0.108	-0.321
-529.062	-15.657	-0.044	-0.028
-528.048	406.619	-0.043	-0.090
-527.033	-50.001	-0.283	-0.135
-526.018	24.040	-0.130	-0.107
-525.004	277.223	-0.139	-0.248
-523.989	-9.368	-0.377	-0.253
-522.975	-65.468	-0.391	-0.158
-521.960	582.756	-0.119	0.293
-520.945	-171.677	-0.095	0.003
-519.931	-148.299	0.217	-0.018
-518.916	249.327	-0.090	0.153
-517.902	-68.083	0.167	-0.065
-516.887	634.463	0.056	-0.144
-515.872	91.664	0.175	-0.198
-514.858	-114.259	-0.117	0.023
-513.843	800.000	-0.118	0.397
-512.829	-91.943	-0.200	-0.057
-511.814	800.000	-0.090	0.357
-510.799	107.038	0.265	0.316
-509.785	-200.000	0.024	-0.347
-508.770	800.000	-0.079	-0.247
-507.756	800.000	0.071	0.197
-506.741	-156.924	0.135	0.008
-505.726	-200.000	-0.011	0.049
-504.712	26.335	-0.149	0.125
-503.697	15.395	0.215	-0.169
-502.683	-200.000	-0.040	-0.224
-501.668	146.769	0.120	-0.162
-500.653	124.452	-0.168	-0.212
-499.639	-41.422	-0.208	0.107
-498.624	248.710	-0.115	0.196
-497.610	114.689	-0.416	0.509
-496.595	37.220	0.297	-0.264
-495.581	144.648	-0.143	0.191
-494.566	800.000	0.061	-0.179
-493.551	166.107	-0.034	0.049
-492.537	-130.774	-0.288	0.039
-491.522	-118.916	-0.068	-0.012
-490.508	676.472	-0.042	-0.110
-489.493	6.922	-0.193	0.144
-488.478	329.238	0.134	0.259
-487.464	161.589	0.073	0.102
-486.449	-88.815	-0.121	0.036
-485.435	174.276	0.091	-0.132
-484.420	210.116	-0.258	-0.405
-483.405	-12.938	0.318	0.208
-482.391	-86.504	0.238	-0.073
-481.376	29.355	-0.146	-0.124
-480.362	-88.601	-0.321	-0.096
-479.347	79.790	-0.164	-0.177
-478.332	2.756	0.317	0.231
-477.318	800.000	0.046	0.173
-476.303	-114.053	0.248	-0.048
-475.289	-200.000	0.006	0.081
-474.274	800.000	0.085	-0.300
-473.259	214.355	0.066	0.106
-472.245	-139.721	0.252	0.027
-471.230	43.837	-0.158	-0.145
-470.216	800.000	0.071	0.298
-469.201	-53.119	0.240	-0.111
-468.186	282.405	-0.092	0.165
-467.172	-125.481	-0.154	-0.023
-466.157	33.590	0.259	0.226
-465.143	-200.000	0.043	0.223
-464.128	800.000	-0.057	0.160
-463.113	-4.879	-0.248	0.172
-462.099	-126.950	-0.139	-0.020
-461.084	-200.000	0.051	0.259
-460.070	122.996	-0.050	0.062
-459.055	15.844	-0.044	0.035
-458.040	-38.761	0.024	0.012
-457.026	800.000	0.144	0.457
-456.011	419.457	0.143	0.307
-454.997	739.625	-0.078	-0.210
-453.982	-200.000	0.031	0.357
-452.968	-129.167	-0.301	0.042
-451.953	-34.957	0.314	-0.172
-450.938	-22.416	0.138	0.084
-449.924	-111.785	0.193	-0.039
-448.909	800.000	0.070	0.257
-447.895	-200.000	-0.005	-0.037
-446.880	-200.000	-0.032	-0.189
-445.865	56.070	-0.026	-0.025
-444.851	-91.668	0.248	0.071
-443.836	-159.815	-0.336	-0.019
-442.822	-19.419	0.178	0.111
-441.807	800.000	0.075	0.296
-440.792	-92.847	-0.299	0.084
-439.778	-69.474	0.106	-0.041
-438.763	-11.872	0.273	-0.179
-437.749	-200.000	-0.047	-0.320
-436.734	-134.144	-0.186	-0.023
-435.719	81.613	-0.165	0.179
-434.705	284.427	0.136	0.245
-433.690	-47.627	-0.185	0.090
-432.676	712.165	0.113	0.301
-431.661	-200.000	-0.067	0.338
-430.646	-13.982	0.102	-0.066
-429.632	-102.998	-0.184	-0.044
-428.617	-154.867	0.075	-0.005
-427.603	286.944	0.142	0.256
-426.588	-200.000	-0.008	-0.203
-425.573	-92.548	0.369	-0.104
-424.559	-200.000	-0.049	-0.355
-423.544	-200.000	0.304	-0.001
-422.530	197.912	0.027	-0.041
-421.515	-94.234	0.183	0.050
-420.500	162.004	0.123	-0.173
-419.486	-56.298	-0.203	-0.090
-418.471	559.455	-0.068	0.163
-417.457	202.314	-0.141	0.218
-416.442	800.000	0.050	-0.178
-415.428	379.321	0.084	0.171
-414.413	47.404	0.218	0.203
-413.398	47.522	0.142	-0.133
-412.384	-200.000	-0.012	-0.058
-411.369	-32.608	0.145	0.081
-410.355	-72.537	0.158	-0.058
-409.340	-200.000	0.086	0.466
-408.325	599.858	-0.108	-0.267
-407.311	-104.305	-0.142	-0.033
-406.296	800.000	-0.082	-0.264
-405.282	-121.058	-0.182	-0.031
-404.267	-200.000	0.027	-0.207
-403.252	-200.000	-0.031	0.297
-402.238	125.745	0.239	0.302
-401.223	180.784	-0.079	0.116
-400.209	124.382	-0.216	-0.272
-399.194	-107.144	0.278	-0.061
-398.179	81.084	-0.058	0.063
-397.165	543.434	0.032	-0.077
-396.150	-40.074	0.053	0.028
-395.136	-102.119	0.153	0.037
-394.121	-64.388	0.262	0.106
-393.106	-200.000	-0.028	-0.199
-392.092	-91.119	-0.138	0.040
-391.077	-96.864	-0.243	0.064
-390.063	29.788	-0.260	0.221
-389.048	800.000	0.051	0.147
-388.033	62.527	0.154	0.154
-387.019	152.992	0.094	-0.129
-386.004	-43.473	0.305	-0.154
-384.990	-200.000	-0.036	0.160
-383.975	-112.744	0.477	-0.095
-382.960	-49.575	-0.291	0.138
-381.946	-200.000	0.061	0.267
-380.931	45.184	0.130	0.119
-379.917	-94.014	-0.141	0.039
-378.902	332.697	0.046	-0.089
-377.888	-76.013	0.203	-0.072
-376.873	202.195	0.056	-0.086
-375.858	800.000	0.058	0.170
-374.844	-74.955	-0.296	0.106
-373.829	-25.682	-0.207	0.122
-372.815	470.961	0.090	0.202
-371.800	800.000	-0.068	-0.195
-370.785	-156.383	0.148	0.009
-369.771	-73.483	0.334	-0.122
-368.756	147.190	0.149	0.200
-367.742	62.877	-0.080	-0.080
-366.727	-27.223	-0.256	-0.149
-365.712	65.885	-0.193	0.196
-364.698	226.326	0.111	-0.180
-363.683	-50.717	0.340	0.160
-362.669	62.922	-0.171	-0.171
-361.654	59.847	0.047	0.047
-360.639	212.370	-0.212	0.333
-359.625	800.000	0.062	-0.231
-358.610	125.037	-0.174	-0.219
-357.596	-12.562	0.263	0.171
-356.581	304.277	-0.152	-0.281
-355.566	-200.000	-0.009	-0.232
-354.552	64.988	-0.207	-0.209
-353.537	107.452	-0.103	0.122
-352.523	800.000	0.138	0.411
-351.508	110.310	0.144	0.173
-350.493	-200.000	0.107	0.480
-349.479	-69.929	-0.113	0.043
-348.464	800.000	-0.063	0.183
-347.450	153.814	0.035	-0.049
-346.435	-56.552	0.275	0.121
-345.420	5.079	-0.361	0.266
-344.406	800.000	-0.087	-0.305
-343.391	-200.000	-0.018	0.173
-342.377	84.417	-0.239	-0.261
-341.362	141.303	0.093	0.123
-340.348	-58.926	0.157	0.068
-339.333	47.249	0.132	0.123
-338.318	800.000	-0.094	0.347
-337.304	-200.000	-0.024	-0.126
-336.289	88.908	0.099	-0.110
-335.275	135.593	0.146	0.190
-334.260	-200.000	-0.001	0.179
-333.245	156.405	-0.151	-0.208
-332.231	800.000	0.077	0.246
-331.216	-196.868	0.266	0.002
-330.202	-64.110	-0.302	0.123
-329.187	-48.941	0.412	0.197
-328.172	95.144	0.124	0.140
-327.158	800.000	-0.089	0.289
-326.143	-93.338	0.158	-0.044
-325.129	473.262	0.100	-0.225
-324.114	61.656	-0.225	-0.223
-323.099	-21.037	0.223	-0.136
-322.085	-44.374	-0.096	-0.048
-321.070	-103.784	-0.216	0.050
-320.056	-104.869	-0.094	-0.021
-319.041	-200.000	0.059	-0.444
-318.026	-121.829	0.338	-0.056
-317.012	-92.636	-0.215	-0.060
-315.997	155.471	0.071	0.097
-314.983	-50.113	-0.125	-0.059
-313.968	12.440	-0.153	-0.117
-312.953	-118.994	-0.413	-0.072
-311.939	-74.894	0.277	0.099
-310.924	-93.305	0.174	0.048
-309.910	-148.677	-0.119	0.010
-308.895	29.819	-0.190	0.161
-307.880	-80.927	-0.274	0.091
-306.866	-83.070	-0.307	-0.098
-305.851	800.000	-0.069	-0.199
-304.837	-46.476	-0.375	0.183
-303.822	800.000	0.048	0.144
-302.807	88.999	-0.065	-0.072
-301.793	-124.870	0.218	0.034
-300.778	491.273	0.057	-0.130
-299.764	-200.000	-0.025	-0.160
-298.749	61.441	0.115	0.114
-297.735	-200.000	0.000	-0.250
-296.720	-107.617	-0.168	-0.037
-295.705	-108.674	-0.189	-0.040
-294.691	800.000	0.097	-0.272
-293.676	800.000	0.071	-0.285
-292.662	171.617	-0.160	-0.229
-291.647	800.000	-0.007	-0.025
-290.632	-200.000	-0.000	-0.063
-289.618	135.036	-0.040	0.051
-288.603	-57.542	-0.237	0.103
-287.589	232.219	0.092	0.150
-286.574	30.680	-0.362	0.308
-285.559	-149.496	-0.193	-0.015
-284.545	-38.461	0.071	0.037
-283.530	50.967	0.200	-0.189
-282.516	800.000	0.041	0.128
-281.501	-124.281	-0.278	-0.043
-280.486	-102.883	-0.180	0.043
-279.472	18.240	0.190	0.151
-278.457	-200.000	0.106	-0.492
-277.443	-28.085	-0.323	0.186
-276.428	111.592	-0.131	0.157
-275.413	-0.473	-0.181	-0.128
-274.399	103.634	0.116	-0.135
-273.384	46.853	-0.076	-0.071
-272.370	129.875	0.020	0.026
-271.355	16.988	0.096	-0.075
-270.340	-52.796	-0.047	0.021
-269.326	-67.481	0.162	0.063
-268.311	28.793	0.073	-0.061
-267.297	800.000	0.052	-0.156
-266.282	242.671	-0.076	0.127
-265.267	800.000	-0.054	0.187
-264.253	800.000	-0.063	-0.220
-263.238	50.679	-0.174	-0.164
-262.224	-200.000	-0.030	-0.271
-261.209	196.978	-0.111	0.168
-260.195	-200.000	-0.012	-0.172
-259.180	-132.053	0.034	-0.004
-258.165	88.853	0.315	0.348
-257.151	-29.767	-0.075	0.042
-256.136	57.798	0.141	-0.137
-255.122	168.969	-0.048	0.069
-254.107	7.637	0.191	0.142
-253.092	-200.000	-0.026	-0.141
-252.078	-143.495	0.489	0.046
-251.063	-200.000	-0.026	0.194
-250.049	-200.000	0.107	-0.476
-249.034	800.000	0.090	-0.272
-248.019	800.000	-0.083	-0.231
-247.005	-54.372	-0.059	-0.027
-245.990	-200.000	-0.064	-0.291
-244.976	-46.866	0.503	-0.245
-243.961	25.853	-0.106	0.088
-242.946	-105.020	0.235	0.054
-241.932	800.000	-0.038	0.106
-240.917	-130.124	-0.285	0.039
-239.903	-83.973	0.091	0.029
-238.888	223.636	-0.140	-0.225
-237.873	269.248	-0.157	-0.273
-236.859	-22.373	0.186	-0.112
-235.844	-129.089	-0.187	0.026
-234.830	125.600	-0.391	-0.490
-233.815	-72.758	0.101	-0.037
-232.800	604.042	-0.195	0.482
-231.786	-15.235	-0.045	-0.029
-230.771	-200.000	-0.011	0.205
-229.757	-72.745	-0.417	0.153
-228.742	800.000	0.076	-0.243
-227.727	-147.309	-0.414	0.035
-226.713	-156.032	0.202	-0.013
-225.698	-30.481	-0.374	0.211
-224.684	54.288	-0.146	0.140
-223.669	-152.358	0.460	0.033
-222.655	-200.000	-0.002	-0.324
-221.640	264.856	-0.098	-0.169
-220.625	11.987	-0.183	0.140
-219.611	-177.725	-0.351	0.008
-218.596	261.070	0.158	-0.272
-217.582	-200.000	-0.059	-0.467
-216.567	79.345	-0.063	-0.067
-215.552	-90.185	0.198	0.057
-214.538	38.616	-0.103	0.091
-213.523	29.278	0.170	0.143
-212.509	-113.988	-0.078	-0.015
-211.494	210.677	-0.089	0.139
-210.479	-200.000	0.002	0.457
-209.465	-200.000	0.002	-0.049
-208.450	249.590	0.027	-0.045
-207.436	43.301	-0.240	-0.217
-206.421	443.413	0.169	-0.368
-205.406	-22.701	0.235	0.141
-204.392	11.742	-0.169	-0.128
-203.377	11.911	-0.194	-0.148
-202.363	169.151	0.140	-0.198
-201.348	800.000	-0.121	-0.413
-200.333	146.871	-0.078	-0.104
-199.319	-134.054	-0.109	-0.013
-198.304	-29.428	0.188	0.107
-197.290	135.047	-0.092	0.119
-196.275	24.611	0.381	-0.313
-195.260	-145.301	-0.248	0.022
-194.246	215.799	0.217	-0.342
-193.231	14.008	0.337	0.260
-192.217	35.313	0.094	-0.082
-191.202	26.268	0.196	-0.163
-190.187	-98.877	0.140	0.035
-189.173	-171.020	0.212	-0.007
-188.158	14.732	-0.313	0.242
-187.144	65.098	0.034	0.034
-186.129	71.067	0.164	-0.168
-185.114	90.186	0.107	0.119
-184.100	180.442	-0.134	0.194
-183.085	-17.774	-0.104	-0.065
-182.071	339.498	0.002	-0.004
-181.056	520.929	-0.111	0.257
-180.042	-198.036	-0.283	0.002
-179.027	-68.829	0.287	0.110
-178.012	480.231	-0.078	-0.174
-176.998	-117.340	0.154	-0.028
-175.983	145.610	0.069	-0.092
-174.969	-96.430	0.377	-0.099
-173.954	424.094	-0.027	0.057
-172.939	-134.990	0.105	0.013
-171.925	-200.000	0.022	-0.115
-170.910	-15.384	0.206	0.131
-169.896	-90.408	0.237	0.068
-168.881	486.724	-0.090	-0.203
-167.866	-200.000	0.037	-0.321
-166.852	800.000	0.129	-0.378
-165.837	265.400	-0.128	-0.220
-164.823	-96.294	-0.091	-0.024
-163.808	-49.082	0.339	0.160
-162.793	384.903	0.087	-0.178
-161.779	228.714	0.126	0.204
-160.764	26.160	-0.366	-0.303
-159.750	-118.536	0.478	0.084
-158.735	67.298	0.194	0.196
-157.720	-106.604	0.299	0.066
-156.706	-51.817	0.287	-0.132
-155.691	-196.565	0.352	-0.002
-154.677	800.000	0.062	0.243
-153.662	-50.427	-0.379	-0.177
-152.647	-58.468	0.307	0.132
-151.633	210.385	0.151	-0.235
-150.618	-5.439	0.213	-0.145
-149.604	-128.584	0.085	0.012
-148.589	142.981	0.299	-0.394
-147.574	-34.151	0.157	0.085
-146.560	-200.000	0.005	0.055
-145.545	123.728	-0.190	0.236
-144.531	-151.856	-0.200	0.014
-143.516	-54.387	-0.141	-0.063
-142.502	-101.112	0.240	-0.058
-141.487	800.000	-0.125	0.509
-140.472	800.000	0.123	-0.345
-139.458	-129.285	-0.117	-0.016
-138.443	-46.271	0.127	0.062
-137.429	800.000	0.044	0.186
-136.414	-200.000	-0.021	0.097
-135.399	-14.375	-0.325	0.207
-134.385	-102.434	-0.209	0.050
-133.370	800.000	0.081	0.241
-132.356	-200.000	-0.062	-0.363
-131.341	800.000	-0.177	-0.520
-130.326	440.698	0.026	0.055
-129.312	-200.000	-0.001	0.085
-128.297	-115.877	0.324	-0.060
-127.283	30.611	-0.370	0.313
-126.268	-184.856	-0.305	-0.005
-125.253	147.015	0.143	0.190
-124.239	-112.422	-0.117	0.023
-123.224	-200.000	0.032	0.227
-122.210	-113.876	0.050	-0.010
