DTS Sentinel unit serial number:	SN413079Multiplexer serial number:	ORYXHardware model number:	OX4-SRSoftware version number:	ORYX F/W v4.00 Oryx Data Collector v3.7.2.0data status	okinstallation	princeton_trtdifferential loss correction	single-endedforward channel	channel 2reverse channel	N/Adate	2019/09/17time	13:03:34forward acquisition time	60.00reverse acquisition time	0.00gamma	496.2192k internal	0.2318k external	0.2318temperature offset calibration	0.9983default loss term (dB/km)	0.3790temperature slope calibration	1.0000multiplexer offset coefficient	1.0000multiplexer slope coefficient	1.0000fibre end	0.00T internal ref (°C)	33.48T ext. ref 1 (°C)	0.41T ext. ref 2 (°C)	31.52length (m)	temperature (°C)	Stokes	anti-Stokes-747.200	357.559	0.202	0.408
-746.185	800.000	0.052	0.193
-745.171	5.614	0.307	0.229
-744.156	-200.000	0.017	0.949
-743.142	110.476	-0.121	0.147
-742.127	-3.600	-0.246	0.173
-741.112	37.048	0.364	0.326
-740.098	112.540	-0.309	-0.378
-739.083	-200.000	-0.009	-0.102
-738.069	117.522	-0.132	-0.165
-737.054	-65.971	0.228	-0.092
-736.039	800.000	0.035	-0.134
-735.025	-108.555	-0.176	0.038
-734.010	-164.942	-0.379	-0.017
-732.996	-101.029	-0.160	-0.040
-731.981	800.000	0.155	0.523
-730.966	20.189	-0.395	-0.322
-729.952	68.394	-0.290	-0.300
-728.937	-200.000	0.004	-0.241
-727.923	-96.303	-0.098	-0.026
-726.908	-200.000	-0.048	0.267
-725.894	182.611	0.185	-0.275
-724.879	-139.734	-0.302	0.032
-723.864	-200.000	0.076	-0.344
-722.850	-102.221	-0.060	-0.015
-721.835	-175.600	0.301	-0.008
-720.821	-141.752	-0.479	0.049
-719.806	-91.472	0.223	0.064
-718.791	800.000	-0.026	0.072
-717.777	279.404	0.115	-0.208
-716.762	6.360	-0.417	0.313
-715.748	555.702	0.037	-0.090
-714.733	-12.653	-0.353	-0.233
-713.718	-10.774	-0.052	0.035
-712.704	-41.615	-0.206	0.107
-711.689	-184.895	-0.079	-0.001
-710.675	459.907	0.178	-0.401
-709.660	360.473	-0.105	-0.212
-708.645	413.471	-0.105	-0.227
-707.631	-6.234	-0.099	-0.068
-706.616	-49.793	-0.328	0.158
-705.602	625.907	-0.072	0.185
-704.587	-134.163	0.128	0.016
-703.572	158.688	0.078	-0.109
-702.558	-200.000	0.021	0.182
-701.543	-32.949	-0.138	-0.077
-700.529	-162.229	-0.368	-0.019
-699.514	272.528	0.035	-0.062
-698.499	-200.000	-0.008	0.051
-697.485	-200.000	-0.001	0.227
-696.470	-104.096	0.420	0.099
-695.456	-157.145	-0.383	-0.024
-694.441	7.686	0.168	0.127
-693.426	10.331	0.301	0.232
-692.412	117.782	-0.202	-0.251
-691.397	562.343	-0.061	-0.149
-690.383	-74.280	-0.381	-0.139
-689.368	51.301	0.067	-0.064
-688.354	-81.362	-0.069	-0.023
-687.339	61.682	0.122	0.123
-686.324	-200.000	-0.010	-0.162
-685.310	-62.598	-0.105	-0.044
-684.295	-200.000	0.004	-0.128
-683.281	800.000	-0.035	-0.139
-682.266	424.076	0.052	0.114
-681.251	181.264	-0.136	-0.201
-680.237	99.554	-0.252	-0.295
-679.222	-200.000	-0.008	0.292
-678.208	-197.668	-0.274	-0.002
-677.193	800.000	0.101	-0.415
-676.178	-110.142	-0.183	0.038
-675.164	-40.652	-0.093	0.048
-674.149	-200.000	0.074	0.346
-673.135	-74.484	0.075	-0.027
-672.120	102.901	-0.070	-0.082
-671.105	-91.495	0.240	0.069
-670.091	-63.118	-0.052	0.022
-669.076	92.619	0.101	0.115
-668.062	-102.112	-0.056	0.014
-667.047	-107.272	0.211	-0.047
-666.032	-45.724	0.329	-0.164
-665.018	173.897	-0.070	0.102
-664.003	-89.306	-0.282	0.084
-662.989	77.170	-0.108	0.116
-661.974	227.744	0.128	0.211
-660.959	9.016	0.272	-0.207
-659.945	-200.000	-0.010	0.049
-658.930	255.975	0.140	-0.242
-657.916	84.331	-0.126	0.139
-656.901	77.880	-0.116	-0.124
-655.886	-27.445	-0.153	-0.090
-654.872	92.374	-0.318	0.361
-653.857	334.154	-0.115	0.225
-652.843	-32.129	-0.129	0.073
-651.828	57.706	-0.154	0.152
-650.814	-200.000	-0.002	-0.116
-649.799	-165.321	-0.122	0.005
-648.784	-200.000	-0.007	0.157
-647.770	-98.067	0.241	-0.063
-646.755	-100.046	-0.085	0.021
-645.741	-200.000	0.023	-0.230
-644.726	-131.236	0.018	0.002
-643.711	-129.730	-0.143	0.020
-642.697	-200.000	0.034	0.246
-641.682	253.770	-0.046	-0.079
-640.668	742.508	0.034	-0.091
-639.653	-104.257	-0.229	-0.054
-638.638	191.865	0.137	0.208
-637.624	-200.000	0.026	-0.222
-636.609	34.902	0.157	-0.138
-635.595	800.000	-0.040	-0.114
-634.580	-142.494	-0.348	-0.034
-633.565	88.324	-0.098	0.110
-632.551	-103.841	0.147	0.035
-631.536	800.000	0.056	0.182
-630.522	54.563	0.194	-0.189
-629.507	-30.547	-0.225	0.128
-628.492	-71.054	0.088	-0.033
-627.478	-60.033	0.361	0.155
-626.463	800.000	0.074	0.230
-625.449	800.000	0.098	0.334
-624.434	66.975	-0.083	0.085
-623.419	104.755	-0.304	-0.361
-622.405	-48.448	-0.148	0.072
-621.390	157.765	0.172	-0.239
-620.376	-59.655	-0.328	-0.142
-619.361	-200.000	-0.001	0.431
-618.346	-190.466	-0.170	-0.002
-617.332	67.185	0.113	-0.116
-616.317	247.569	-0.095	-0.162
-615.303	35.328	-0.214	0.189
-614.288	-200.000	0.037	-0.364
-613.273	-200.000	-0.021	-0.139
-612.259	190.806	0.141	-0.213
-611.244	800.000	-0.087	0.312
-610.230	800.000	-0.034	0.147
-609.215	-181.493	-0.139	-0.003
-608.201	-66.280	-0.116	0.046
-607.186	3.921	0.134	-0.099
-606.171	-200.000	0.020	0.117
-605.157	-156.033	0.066	-0.004
-604.142	-200.000	-0.030	-0.252
-603.128	33.917	-0.153	-0.134
-602.113	-132.554	0.192	0.025
-601.098	-176.632	-0.124	0.003
-600.084	374.460	0.073	-0.149
-599.069	-200.000	0.047	0.275
-598.055	-200.000	0.003	-0.074
-597.040	-61.867	-0.258	-0.108
-596.025	17.481	0.195	-0.156
-595.011	-200.000	-0.044	0.430
-593.996	-200.000	0.015	0.143
-592.982	-112.878	0.248	0.049
-591.967	53.868	0.136	0.132
-590.952	64.986	0.125	0.127
-589.938	44.834	-0.207	-0.191
-588.923	28.685	-0.110	0.094
-587.909	-53.846	0.131	0.060
-586.894	15.259	-0.196	0.155
-585.879	108.096	-0.021	-0.025
-584.865	45.159	-0.306	-0.284
-583.850	-11.183	-0.136	-0.090
-582.836	-200.000	0.022	-0.300
-581.821	-133.527	0.341	0.043
-580.806	-200.000	-0.038	-0.203
-579.792	-183.927	0.101	-0.002
-578.777	-56.858	0.168	-0.075
-577.763	800.000	0.041	-0.156
-576.748	800.000	0.035	0.117
-575.733	-58.697	-0.283	-0.123
-574.719	-200.000	0.089	-0.406
-573.704	-131.778	0.282	-0.037
-572.690	55.445	0.201	-0.196
-571.675	356.300	0.011	0.022
-570.661	90.899	-0.214	0.242
-569.646	-81.047	0.218	0.072
-568.631	-174.791	-0.149	0.004
-567.617	-43.695	-0.126	-0.064
-566.602	676.932	0.044	0.115
-565.588	-200.000	-0.021	0.202
-564.573	-91.822	0.434	-0.124
-563.558	-96.803	-0.374	-0.099
-562.544	-200.000	0.001	-0.093
-561.529	33.418	0.101	0.088
-560.515	800.000	-0.049	0.137
-559.500	-83.960	0.158	0.050
-558.485	114.528	-0.176	-0.216
-557.471	-7.604	-0.189	0.128
-556.456	800.000	-0.084	0.238
-555.442	42.017	0.067	-0.061
-554.427	-20.861	0.278	-0.171
-553.412	214.054	0.145	0.231
-552.398	800.000	-0.063	-0.240
-551.383	79.879	-0.169	0.183
-550.369	-70.285	0.178	-0.068
-549.354	77.048	0.244	0.260
-548.339	800.000	-0.051	-0.181
-547.325	-142.206	0.171	-0.017
-546.310	-132.100	0.173	0.023
-545.296	-200.000	0.016	0.439
-544.281	145.538	0.149	0.201
-543.266	218.265	-0.059	-0.094
-542.252	-130.537	-0.076	-0.010
-541.237	184.256	0.144	0.214
-540.223	-16.997	0.248	-0.157
-539.208	-200.000	-0.043	-0.300
-538.193	267.921	0.097	-0.170
-537.179	-39.906	-0.305	0.160
-536.164	116.121	-0.051	-0.062
-535.150	36.301	-0.204	-0.181
-534.135	-113.587	0.062	-0.012
-533.121	-112.548	-0.121	-0.024
-532.106	-159.594	0.233	-0.013
-531.091	-55.086	0.105	-0.047
-530.077	-135.483	0.226	-0.027
-529.062	800.000	-0.052	0.157
-528.048	67.042	0.272	0.278
-527.033	652.630	0.047	-0.121
-526.018	-200.000	0.020	-0.165
-525.004	-60.673	-0.097	0.041
-523.989	67.845	-0.203	0.209
-522.975	164.512	0.303	0.428
-521.960	800.000	0.072	-0.208
-520.945	36.169	-0.166	-0.147
-519.931	153.002	-0.242	-0.332
-518.916	800.000	0.090	0.276
-517.902	-76.991	-0.109	-0.038
-516.887	-200.000	-0.177	-0.001
-515.872	14.719	-0.251	-0.197
-514.858	800.000	-0.081	-0.225
-513.843	434.824	-0.166	-0.363
-512.829	27.380	-0.168	-0.141
-511.814	44.873	-0.144	-0.133
-510.799	-134.753	0.076	-0.009
-509.785	-108.821	-0.054	-0.011
-508.770	-49.901	0.263	0.125
-507.756	634.673	0.049	-0.124
-506.741	800.000	-0.102	0.311
-505.726	-5.051	0.250	-0.173
-504.712	51.700	-0.132	0.126
-503.697	-100.413	0.289	-0.072
-502.683	32.350	0.266	-0.230
-501.668	28.772	-0.208	-0.177
-500.653	-31.546	-0.183	0.103
-499.639	462.391	0.034	-0.076
-498.624	-41.095	0.307	-0.159
-497.610	-35.846	-0.116	-0.063
-496.595	23.871	-0.206	-0.170
-495.581	32.295	0.184	-0.159
-494.566	-200.000	-0.010	-0.086
-493.551	-200.000	0.000	0.036
-492.537	-200.000	-0.035	-0.156
-491.522	8.808	-0.223	0.169
-490.508	-143.022	0.421	0.041
-489.493	-200.000	0.016	0.289
-488.478	-87.077	-0.237	0.072
-487.464	-200.000	0.078	0.412
-486.449	73.702	-0.079	-0.083
-485.435	-98.069	-0.073	-0.019
-484.420	785.980	-0.056	0.155
-483.405	-58.673	0.391	0.170
-482.391	-144.053	0.212	-0.020
-481.376	296.269	-0.100	0.184
-480.362	-49.070	-0.258	-0.124
-479.347	-170.667	0.683	-0.024
-478.332	-75.954	-0.292	0.104
-477.318	-95.914	-0.096	-0.026
-476.303	59.522	0.126	-0.124
-475.289	127.364	0.229	0.291
-474.274	66.761	-0.082	0.084
-473.259	-157.221	-0.114	0.007
-472.245	-9.989	0.267	-0.177
-471.230	800.000	-0.048	0.152
-470.216	-13.981	0.088	-0.057
-469.201	308.080	0.120	0.224
-468.186	117.329	-0.126	-0.155
-467.172	-84.226	-0.168	-0.053
-466.157	39.687	-0.043	0.038
-465.143	438.140	0.051	0.112
-464.128	304.504	-0.066	-0.123
-463.113	373.086	0.090	-0.183
-462.099	-200.000	0.003	-0.276
-461.084	-89.486	0.161	-0.048
-460.070	467.173	0.019	-0.043
-459.055	800.000	-0.060	0.238
-458.040	-200.000	-0.022	0.118
-457.026	-20.839	-0.415	0.255
-456.011	-20.463	0.236	0.145
-454.997	800.000	0.035	-0.116
-453.982	-200.000	0.038	-0.312
-452.968	-9.123	-0.169	-0.113
-451.953	273.022	0.152	-0.268
-450.938	-56.603	-0.197	0.087
-449.924	-80.711	-0.103	0.034
-448.909	48.979	0.124	-0.116
-447.895	-200.000	-0.033	-0.286
-446.880	120.583	0.031	0.039
-445.865	-200.000	-0.008	0.087
-444.851	-200.000	-0.002	-0.059
-443.836	-17.542	-0.179	0.112
-442.822	391.192	-0.123	-0.255
-441.807	2.731	0.255	-0.185
-440.792	347.946	0.117	-0.230
-439.778	-174.828	-0.308	-0.009
-438.763	-200.000	0.003	0.212
-437.749	-32.107	0.150	0.084
-436.734	-200.000	-0.036	-0.178
-435.719	-85.577	-0.127	-0.039
-434.705	-112.069	-0.028	-0.006
-433.690	-200.000	0.419	-0.001
-432.676	-49.512	0.062	0.030
-431.661	800.000	-0.097	-0.386
-430.646	-60.131	-0.158	-0.068
-429.632	-200.000	-0.006	0.038
-428.617	-127.022	-0.274	-0.040
-427.603	109.822	0.217	-0.260
-426.588	553.464	0.023	0.055
-425.573	31.739	-0.241	0.208
-424.559	241.196	0.097	0.162
-423.544	-44.628	0.128	0.064
-422.530	-34.503	-0.110	0.060
-421.515	-89.859	-0.107	0.031
-420.500	212.814	0.067	0.106
-419.486	315.124	0.131	0.247
-418.471	-121.688	0.105	-0.017
-417.457	-124.678	-0.281	-0.044
-416.442	59.244	0.079	-0.078
-415.428	-187.503	-0.217	0.003
-414.413	6.679	0.153	0.114
-413.398	-200.000	-0.040	0.245
-412.384	226.618	-0.118	0.192
-411.369	-200.000	-0.027	0.131
-410.355	-25.985	-0.442	-0.260
-409.340	277.287	-0.171	0.304
-408.325	-154.546	-0.159	0.011
-407.311	-74.193	-0.371	0.134
-406.296	176.250	0.282	-0.409
-405.282	-196.159	0.032	-0.000
-404.267	-50.959	0.271	-0.127
-403.252	206.723	0.104	0.162
-402.238	800.000	0.072	-0.201
-401.223	-71.898	-0.145	0.054
-400.209	-200.000	-0.008	-0.272
-399.194	25.829	0.138	-0.115
-398.179	205.797	0.058	-0.089
-397.165	14.581	0.165	0.128
-396.150	-33.741	-0.200	0.110
-395.136	-200.000	0.034	0.222
-394.121	-100.117	0.139	-0.034
-393.106	137.297	-0.166	-0.217
-392.092	47.089	0.061	0.057
-391.077	-200.000	0.002	0.064
-390.063	800.000	0.120	0.453
-389.048	800.000	0.080	-0.317
-388.033	-25.688	-0.497	0.293
-387.019	0.274	-0.079	-0.056
-386.004	-151.613	0.101	-0.007
-384.990	64.892	-0.191	-0.192
-383.975	-98.495	0.169	-0.043
-382.960	-200.000	0.012	-0.118
-381.946	46.084	-0.145	0.134
-380.931	254.273	-0.126	-0.215
-379.917	800.000	-0.071	0.247
-378.902	75.633	0.161	0.169
-377.888	-99.151	0.334	-0.084
-376.873	-15.482	-0.207	0.132
-375.858	100.212	0.164	-0.189
-374.844	123.191	0.184	0.229
-373.829	-200.000	-0.079	0.387
-372.815	800.000	-0.136	0.489
-371.800	-69.330	-0.115	-0.044
-370.785	-108.154	0.184	0.040
-369.771	800.000	-0.103	0.304
-368.756	-200.000	0.011	0.111
-367.742	219.109	-0.121	-0.192
-366.727	-100.581	0.147	0.036
-365.712	410.073	-0.113	-0.239
-364.698	800.000	0.011	-0.043
-363.683	-71.695	-0.341	-0.127
-362.669	69.771	0.113	0.117
-361.654	102.853	0.275	0.321
-360.639	-18.213	0.235	-0.146
-359.625	8.699	0.201	0.151
-358.610	-200.000	0.010	-0.081
-357.596	-200.000	0.087	-0.381
-356.581	371.699	0.090	-0.182
-355.566	-9.872	0.085	-0.057
-354.552	45.526	-0.103	0.095
-353.537	54.566	0.260	-0.249
-352.523	-69.595	-0.360	0.137
-351.508	-145.552	0.396	0.035
-350.493	-20.586	0.097	0.059
-349.479	-200.000	0.016	-0.170
-348.464	78.604	0.071	-0.076
-347.450	-124.537	0.289	0.045
-346.435	-169.157	0.251	-0.009
-345.420	-33.947	-0.107	-0.059
-344.406	189.347	0.092	-0.137
-343.391	183.682	-0.133	0.196
-342.377	-200.000	0.170	0.000
-341.362	-36.288	0.111	-0.060
-340.348	-135.761	-0.247	0.029
-339.333	-200.000	-0.029	0.292
-338.318	-7.485	-0.137	-0.092
-337.304	-200.000	-0.036	-0.255
-336.289	199.776	-0.116	0.177
-335.275	-200.000	-0.019	-0.137
-334.260	-80.909	0.204	-0.067
-333.245	-200.000	0.038	0.254
-332.231	52.601	0.108	-0.103
-331.216	-200.000	-0.001	-0.094
-330.202	91.672	0.231	0.258
-329.187	-142.755	0.308	-0.030
-328.172	-200.000	-0.051	0.244
-327.158	-122.587	-0.407	-0.066
-326.143	-110.869	-0.324	-0.066
-325.129	-200.000	-0.001	-0.004
-324.114	-13.051	0.256	-0.166
-323.099	-109.621	-0.097	-0.020
-322.085	-25.249	0.209	0.123
-321.070	-67.118	0.070	-0.027
-320.056	408.938	0.049	0.103
-319.041	-92.005	-0.228	0.064
-318.026	241.398	-0.132	-0.219
-317.012	-200.000	-0.047	0.205
-315.997	68.455	-0.078	0.079
-314.983	-93.927	-0.105	-0.029
-313.968	499.381	0.087	-0.200
-312.953	-82.355	0.363	0.117
-311.939	-156.100	0.131	-0.008
-310.924	147.497	-0.039	-0.052
-309.910	-126.209	-0.160	0.024
-308.895	275.852	0.093	-0.164
-307.880	-200.000	-0.019	-0.203
-306.866	-135.871	-0.074	0.009
-305.851	30.688	-0.106	0.090
-304.837	24.112	-0.303	-0.249
-303.822	-200.000	-0.015	-0.442
-302.807	-112.141	-0.055	0.011
-301.793	800.000	-0.086	0.305
-300.778	295.892	-0.168	0.306
-299.764	42.404	-0.089	-0.080
-298.749	1.543	0.084	-0.060
-297.735	-87.278	-0.464	0.140
-296.720	-101.106	0.103	0.025
-295.705	800.000	0.096	-0.288
-294.691	348.437	0.033	-0.065
-293.676	-104.483	0.170	0.039
-292.662	218.695	0.308	0.489
-291.647	-14.477	0.178	-0.114
-290.632	800.000	-0.032	0.114
-289.618	-200.000	-0.004	0.152
-288.603	47.796	0.264	-0.245
-287.589	123.532	-0.026	-0.033
-286.574	-200.000	0.057	0.262
-285.559	354.779	-0.039	-0.077
-284.545	-38.470	0.043	-0.022
-283.530	-156.120	-0.486	0.030
-282.516	140.481	0.173	-0.227
-281.501	139.428	0.089	0.116
-280.486	-200.000	-0.058	-0.387
-279.472	-71.902	-0.195	-0.072
-278.457	451.632	-0.025	-0.054
-277.443	-52.701	0.224	-0.103
-276.428	-5.334	-0.038	-0.026
-275.413	-200.000	-0.026	0.140
-274.399	-200.000	0.029	-0.179
-273.384	1.574	0.225	0.161
-272.370	94.693	-0.342	0.387
-271.355	-200.000	-0.042	0.185
-270.340	-200.000	-0.060	0.298
-269.326	182.049	0.119	0.173
-268.311	21.118	-0.259	0.209
-267.297	127.433	0.286	-0.360
-266.282	27.013	0.291	0.243
-265.267	493.456	0.103	0.235
-264.253	123.033	-0.147	0.183
-263.238	539.051	0.125	-0.295
-262.224	800.000	-0.045	-0.134
-261.209	-11.215	-0.147	0.096
-260.195	-170.048	-0.044	0.002
-259.180	-40.085	0.122	-0.063
-258.165	193.876	-0.060	-0.090
-257.151	435.846	0.059	-0.128
-256.136	289.854	0.089	0.160
-255.122	-170.868	-0.063	-0.002
-254.107	-131.376	-0.208	-0.027
-253.092	-144.098	-0.512	0.048
-252.078	-181.224	0.110	0.002
-251.063	800.000	-0.052	0.179
-250.049	172.395	0.127	0.181
-249.034	-22.783	0.134	-0.080
-248.019	42.008	-0.031	-0.028
-247.005	588.942	0.038	-0.093
-245.990	40.704	-0.296	-0.264
-244.976	70.238	0.096	-0.099
-243.961	0.384	-0.215	0.152
-242.946	761.484	0.042	-0.113
-241.932	-26.007	-0.182	-0.106
-240.917	162.671	0.143	-0.198
-239.903	39.084	0.194	0.172
-238.888	-47.556	0.013	0.006
-237.873	186.587	0.102	0.150
-236.859	-139.507	-0.182	0.019
-235.844	800.000	-0.062	0.204
-234.830	-6.933	0.175	-0.118
-233.815	-44.448	0.109	-0.054
-232.800	-168.116	-0.405	0.016
-231.786	-136.212	0.044	0.005
-230.771	404.874	-0.091	0.191
-229.757	254.231	-0.134	-0.228
-228.742	141.652	0.161	0.211
-227.727	-93.910	-0.273	0.074
-226.713	-200.000	-0.011	-0.274
-225.698	-200.000	0.018	0.147
-224.684	-17.660	-0.165	-0.103
-223.669	800.000	-0.061	0.217
-222.655	-136.607	0.238	-0.027
-221.640	342.796	0.133	-0.259
-220.625	-200.000	-0.010	-0.198
-219.611	0.056	-0.139	-0.098
-218.596	582.030	0.130	-0.317
-217.582	-134.773	-0.226	0.027
-216.567	103.067	0.099	0.115
-215.552	8.140	-0.407	0.303
-214.538	639.126	0.015	-0.037
-213.523	596.940	0.112	0.275
-212.509	-140.157	-0.179	-0.019
-211.494	20.494	0.092	0.073
-210.479	800.000	-0.106	0.311
-209.465	-45.304	0.350	0.172
-208.450	734.174	0.123	-0.326
-207.436	321.323	-0.040	-0.076
-206.421	-107.779	0.053	-0.011
-205.406	800.000	0.040	-0.131
-204.392	-163.862	-0.107	0.005
-203.377	-103.984	-0.255	-0.059
-202.363	145.062	-0.162	-0.214
-201.348	-109.381	-0.215	0.045
-200.333	-24.709	-0.218	0.128
-199.319	-48.367	-0.132	-0.063
-198.304	-200.000	-0.000	0.154
-197.290	800.000	-0.087	-0.346
-196.275	-117.555	-0.097	0.017
-195.260	-200.000	-0.040	0.476
-194.246	-200.000	0.008	0.369
-193.231	-131.717	0.414	-0.054
-192.217	800.000	0.056	0.166
-191.202	476.188	-0.012	-0.027
-190.187	284.682	0.045	0.080
-189.173	59.991	-0.271	0.265
-188.158	800.000	0.055	-0.214
-187.144	91.142	0.162	0.180
-186.129	800.000	-0.094	-0.311
-185.114	-154.481	-0.290	-0.019
-184.100	-24.412	0.265	0.156
-183.085	-200.000	0.004	-0.213
-182.071	140.734	0.037	-0.049
-181.056	-184.284	-0.177	-0.003
-180.042	143.327	-0.184	0.242
-179.027	91.768	0.229	0.255
-178.012	-167.318	0.176	0.007
-176.998	-8.361	0.137	0.091
-175.983	-10.027	-0.115	0.075
-174.969	-200.000	-0.054	-0.321
-173.954	91.692	0.243	0.271
-172.939	-24.591	0.370	-0.218
-171.925	-200.000	0.030	0.331
-170.910	315.550	-0.055	0.102
-169.896	156.965	-0.085	-0.116
-168.881	-77.720	-0.198	0.068
-167.866	-101.996	-0.039	-0.009
-166.852	-200.000	0.082	-0.374
-165.837	-126.467	-0.190	-0.028
-164.823	-200.000	0.024	0.124
-163.808	21.697	0.143	0.115
-162.793	345.484	-0.075	-0.146
-161.779	269.210	0.100	-0.174
-160.764	-200.000	0.039	-0.427
-159.750	800.000	-0.020	0.057
-158.735	-22.342	0.133	-0.080
-157.720	110.647	-0.079	0.094
-156.706	800.000	-0.074	-0.254
-155.691	768.697	0.050	0.135
-154.677	800.000	-0.109	0.384
-153.662	800.000	-0.037	-0.125
-152.647	-200.000	0.400	0.001
-151.633	800.000	0.077	-0.246
-150.618	-200.000	0.001	-0.041
-149.604	284.915	-0.095	-0.170
-148.589	-85.574	0.093	-0.029
-147.574	800.000	-0.089	0.278
-146.560	500.160	0.112	-0.256
-145.545	241.411	-0.087	0.144
-144.531	342.608	-0.108	0.209
-143.516	-82.455	0.051	0.016
-142.502	101.541	0.240	-0.277
-141.487	-200.000	0.005	-0.216
-140.472	800.000	0.166	-0.487
-139.458	-10.828	-0.262	0.171
-138.443	-14.071	0.270	0.173
-137.429	253.654	-0.055	-0.093
-136.414	-200.000	-0.007	0.093
-135.399	-118.566	0.250	0.044
-134.385	36.576	0.140	0.122
-133.370	190.032	-0.047	-0.069
-132.356	-105.064	0.110	0.025
-131.341	414.617	-0.244	0.514
-130.326	57.131	-0.117	-0.112
-129.312	800.000	-0.118	-0.468
-128.297	466.211	-0.078	-0.174
-127.283	-140.510	0.136	-0.014
-126.268	80.507	0.205	0.218
-125.253	-174.003	-0.038	0.001
-124.239	-113.074	-0.245	0.048
-123.224	270.821	-0.086	-0.149
-122.210	433.450	0.142	0.305
