DTS Sentinel unit serial number:	SN413079Multiplexer serial number:	ORYXHardware model number:	OX4-SRSoftware version number:	ORYX F/W v4.00 Oryx Data Collector v3.7.2.0data status	okinstallation	princeton_trtdifferential loss correction	single-endedforward channel	channel 2reverse channel	N/Adate	2019/09/15time	17:15:35forward acquisition time	60.00reverse acquisition time	0.00gamma	496.2192k internal	0.2284k external	0.2284temperature offset calibration	0.9928default loss term (dB/km)	0.3790temperature slope calibration	1.0000multiplexer offset coefficient	1.0000multiplexer slope coefficient	1.0000fibre end	0.00T internal ref (°C)	44.69T ext. ref 1 (°C)	6.02T ext. ref 2 (°C)	40.24length (m)	temperature (°C)	Stokes	anti-Stokes-747.200	240.297	-0.040	0.068
-746.185	-200.000	-0.055	0.466
-745.171	-129.723	-0.142	-0.020
-744.156	227.924	0.207	0.346
-743.142	243.675	-0.036	-0.063
-742.127	-44.057	-0.299	0.154
-741.112	-92.404	-0.190	-0.055
-740.098	-200.000	-0.013	0.094
-739.083	36.798	0.166	0.151
-738.069	800.000	0.089	0.263
-737.054	633.100	-0.064	-0.166
-736.039	-200.000	0.018	0.122
-735.025	-19.437	0.118	0.075
-734.010	-45.651	-0.257	-0.131
-732.996	-32.951	-0.297	-0.169
-731.981	112.304	0.051	-0.063
-730.966	-200.000	-0.059	0.294
-729.952	-200.000	0.042	0.255
-728.937	162.355	0.143	-0.206
-727.923	663.758	-0.045	-0.119
-726.908	-200.000	0.043	0.275
-725.894	-200.000	0.037	0.291
-724.879	106.769	-0.140	0.171
-723.864	33.522	0.124	-0.111
-722.850	800.000	-0.041	-0.141
-721.835	-51.381	0.159	0.076
-720.821	31.697	0.228	-0.201
-719.806	-14.084	0.048	-0.032
-718.791	-51.387	-0.085	0.041
-717.777	-77.670	-0.212	-0.075
-716.762	65.533	-0.228	-0.237
-715.748	17.637	0.195	-0.159
-714.733	-200.000	0.031	0.216
-713.718	-200.000	-0.000	-0.108
-712.704	-130.201	0.341	0.048
-711.689	-192.399	-0.490	-0.005
-710.675	-200.000	0.071	0.348
-709.660	97.294	-0.315	0.371
-708.645	331.415	-0.111	-0.220
-707.631	-65.991	-0.339	-0.139
-706.616	33.911	-0.147	0.131
-705.602	250.261	0.131	0.228
-704.587	-149.639	0.244	-0.020
-703.572	538.305	0.057	0.139
-702.558	800.000	-0.064	0.263
-701.543	-85.739	0.227	-0.072
-700.529	-200.000	-0.015	-0.143
-699.514	1.454	0.167	0.123
-698.499	-59.242	-0.143	-0.063
-697.485	439.067	0.136	-0.303
-696.470	-200.000	0.005	-0.071
-695.456	-70.344	0.179	0.070
-694.441	197.532	0.166	-0.260
-693.426	85.289	0.202	0.227
-692.412	55.754	-0.215	-0.214
-691.397	-100.808	0.322	0.081
-690.383	-135.560	0.310	-0.038
-689.368	695.756	0.067	-0.179
-688.354	77.180	-0.172	-0.187
-687.339	-200.000	0.047	0.221
-686.324	800.000	0.017	-0.074
-685.310	-96.094	0.136	0.037
-684.295	-200.000	0.029	-0.184
-683.281	-93.735	-0.151	0.043
-682.266	436.881	0.092	0.205
-681.251	96.309	0.159	-0.187
-680.237	-200.000	0.005	0.247
-679.222	-200.000	-0.011	-0.144
-678.208	493.891	-0.109	-0.257
-677.193	58.411	-0.273	-0.274
-676.178	102.579	0.133	0.160
-675.164	-8.453	0.178	0.122
-674.149	329.071	-0.055	-0.108
-673.135	800.000	0.012	-0.040
-672.120	-122.632	-0.279	-0.046
-671.105	38.974	-0.096	-0.088
-670.091	340.834	0.133	-0.265
-669.076	27.047	-0.362	-0.311
-668.062	-102.808	-0.339	-0.083
-667.047	-66.184	0.050	-0.020
-666.032	22.951	-0.070	0.059
-665.018	-56.816	-0.279	-0.126
-664.003	120.677	0.065	0.082
-662.989	-73.112	0.267	0.100
-661.974	-124.340	-0.178	0.028
-660.959	87.867	0.209	-0.237
-659.945	-152.346	0.039	0.003
-658.930	290.387	0.021	-0.039
-657.916	-200.000	-0.004	0.083
-656.901	-17.022	-0.316	0.204
-655.886	800.000	0.011	-0.048
-654.872	-64.490	-0.196	0.082
-653.857	728.760	0.083	0.228
-652.843	-200.000	-0.010	-0.173
-651.828	-118.653	0.085	-0.015
-650.814	-200.000	-0.029	0.188
-649.799	-162.901	-0.276	0.014
-648.784	-192.870	-0.230	-0.002
-647.770	-117.730	0.335	-0.062
-646.755	539.945	0.104	-0.253
-645.741	-200.000	-0.011	-0.163
-644.726	-143.863	0.321	-0.031
-643.711	79.921	0.128	-0.141
-642.697	98.658	-0.302	-0.357
-641.682	800.000	-0.128	-0.438
-640.668	-200.000	0.268	-0.000
-639.653	87.015	0.052	-0.059
-638.638	800.000	-0.027	0.111
-637.624	-111.942	0.270	0.056
-636.609	375.616	-0.150	-0.313
-635.595	27.422	0.130	0.111
-634.580	-200.000	0.014	-0.089
-633.565	194.702	0.174	0.270
-632.551	-65.329	-0.251	-0.103
-631.536	150.393	-0.127	-0.176
-630.522	49.729	-0.227	-0.219
-629.507	492.433	0.056	0.130
-628.492	-49.436	-0.105	0.051
-627.478	-34.757	-0.094	-0.053
-626.463	237.922	0.049	0.084
-625.449	298.356	0.181	0.341
-624.434	-50.318	-0.231	-0.112
-623.419	-55.422	0.086	0.039
-622.405	-93.713	0.222	-0.062
-621.390	800.000	0.023	-0.074
-620.376	26.602	-0.015	-0.013
-619.361	134.364	0.029	-0.038
-618.346	-8.448	0.209	0.143
-617.332	-200.000	0.012	0.230
-616.317	-60.417	0.263	0.114
-615.303	-155.937	-0.390	-0.025
-614.288	-10.331	-0.063	-0.043
-613.273	313.799	-0.085	0.164
-612.259	174.747	-0.036	0.054
-611.244	99.990	0.052	-0.062
-610.230	-124.918	0.226	-0.036
-609.215	49.926	-0.200	-0.193
-608.201	-52.204	-0.246	0.116
-607.186	-25.464	0.017	0.010
-606.171	-176.653	0.186	-0.005
-605.157	-130.182	-0.268	-0.037
-604.142	-6.187	-0.098	0.068
-603.128	-134.634	-0.429	0.053
-602.113	638.586	-0.115	0.298
-601.098	-200.000	-0.008	0.208
-600.084	318.624	0.083	-0.161
-599.069	612.477	-0.068	0.174
-598.055	-72.264	-0.086	-0.033
-597.040	-200.000	-0.041	-0.253
-596.025	-160.941	-0.096	-0.005
-595.011	-54.034	-0.384	0.178
-593.996	332.202	0.072	-0.143
-592.982	20.050	0.127	-0.105
-591.967	168.762	-0.162	-0.236
-590.952	421.211	-0.109	0.238
-589.938	-200.000	-0.040	0.465
-588.923	181.901	-0.138	0.207
-587.909	-108.159	-0.163	-0.036
-586.894	154.336	0.073	-0.102
-585.879	-105.541	0.054	-0.013
-584.865	800.000	-0.032	-0.136
-583.850	115.794	0.185	-0.231
-582.836	119.611	-0.208	-0.263
-581.821	85.167	0.245	-0.274
-580.806	264.232	-0.066	0.118
-579.792	395.955	-0.113	-0.241
-578.777	-200.000	-0.013	-0.169
-577.763	-200.000	0.023	0.116
-576.748	800.000	0.087	-0.269
-575.733	120.437	-0.208	0.264
-574.719	419.720	0.155	-0.340
-573.704	-200.000	0.022	0.235
-572.690	-18.475	0.261	0.166
-571.675	32.829	0.136	-0.120
-570.661	22.500	-0.127	0.106
-569.646	-19.606	-0.220	-0.139
-568.631	390.644	0.119	-0.252
-567.617	-93.609	-0.182	-0.051
-566.602	183.067	-0.074	-0.112
-565.588	-14.728	-0.162	-0.106
-564.573	-179.620	-0.163	-0.004
-563.558	-56.724	-0.434	0.196
-562.544	115.889	0.270	-0.337
-561.529	211.399	0.195	-0.313
-560.515	253.598	0.189	0.330
-559.500	-200.000	-0.010	-0.085
-558.485	467.439	0.082	-0.188
-557.471	1.071	-0.200	-0.146
-556.456	678.285	-0.106	-0.280
-555.442	130.804	-0.110	0.144
-554.427	-107.391	0.181	0.041
-553.412	38.611	0.095	-0.086
-552.398	-200.000	0.010	-0.126
-551.383	147.252	-0.114	-0.156
-550.369	-59.102	0.463	-0.204
-549.354	1.614	-0.297	0.218
-548.339	-130.139	0.214	-0.030
-547.325	-174.029	0.230	-0.007
-546.310	800.000	-0.101	-0.396
-545.296	800.000	0.053	0.226
-544.281	110.113	-0.164	0.201
-543.266	-15.684	0.167	0.109
-542.252	110.989	0.202	0.247
-541.237	-32.494	0.241	0.137
-540.223	800.000	-0.038	-0.160
-539.208	-27.080	-0.158	0.094
-538.193	800.000	-0.086	0.251
-537.179	356.474	0.065	0.133
-536.164	-86.637	0.334	0.104
-535.150	228.247	-0.273	0.453
-534.135	-200.000	0.014	-0.205
-533.121	-200.000	0.020	-0.138
-532.106	116.323	-0.155	-0.193
-531.091	-63.887	0.205	-0.086
-530.077	-35.671	0.146	-0.081
-529.062	97.000	-0.066	0.077
-528.048	-92.815	0.348	0.099
-527.033	719.891	0.064	0.174
-526.018	-200.000	0.023	-0.214
-525.004	-117.496	-0.049	-0.009
-523.989	33.718	-0.135	0.119
-522.975	-102.348	0.160	-0.039
-521.960	-41.128	-0.273	-0.144
-520.945	800.000	-0.129	-0.396
-519.931	721.383	0.117	0.316
-518.916	-130.682	-0.253	-0.035
-517.902	560.885	-0.112	0.275
-516.887	-200.000	0.012	-0.092
-515.872	197.300	0.179	0.278
-514.858	-200.000	0.004	0.181
-513.843	342.754	-0.221	0.440
-512.829	-38.999	0.237	-0.127
-511.814	-87.886	-0.162	-0.050
-510.799	-43.156	0.173	-0.089
-509.785	-22.551	-0.325	0.200
-508.770	114.381	0.078	0.097
-507.756	259.688	0.225	0.396
-506.741	167.855	0.058	-0.083
-505.726	46.173	-0.167	0.158
-504.712	-200.000	0.033	0.224
-503.697	282.308	-0.063	-0.114
-502.683	-200.000	0.002	-0.144
-501.668	376.824	-0.194	-0.403
-500.653	-200.000	0.015	-0.105
-499.639	544.506	-0.038	0.092
-498.624	795.927	0.092	0.258
-497.610	-200.000	-0.001	-0.062
-496.595	800.000	-0.034	0.129
-495.581	-46.484	0.293	0.146
-494.566	501.432	0.052	0.122
-493.551	-30.542	-0.301	-0.174
-492.537	-170.571	0.215	0.008
-491.522	-80.989	0.120	0.040
-490.508	11.358	-0.125	0.097
-489.493	-200.000	-0.003	0.318
-488.478	133.319	-0.113	0.148
-487.464	800.000	0.126	0.413
-486.449	368.270	0.131	0.270
-485.435	800.000	-0.206	0.595
-484.420	148.841	-0.150	-0.206
-483.405	68.842	-0.065	0.068
-482.391	800.000	-0.020	0.087
-481.376	-18.491	-0.176	-0.112
-480.362	-40.446	0.298	0.157
-479.347	743.493	0.023	-0.062
-478.332	57.823	-0.077	0.076
-477.318	800.000	0.044	-0.124
-476.303	-45.218	-0.160	-0.081
-475.289	-87.027	0.153	0.047
-474.274	-65.726	-0.223	0.091
-473.259	-52.504	-0.373	-0.175
-472.245	800.000	0.071	0.219
-471.230	800.000	-0.067	-0.248
-470.216	-149.667	-0.137	0.011
-469.201	548.614	0.019	-0.045
-468.186	102.874	0.184	-0.218
-467.172	-147.852	0.183	-0.016
-466.157	-200.000	0.014	-0.324
-465.143	800.000	0.077	-0.227
-464.128	-200.000	-0.057	-0.366
-463.113	117.306	-0.122	0.152
-462.099	452.719	-0.017	-0.039
-461.084	-148.989	-0.038	-0.003
-460.070	91.175	-0.227	0.258
-459.055	800.000	0.144	0.460
-458.040	800.000	-0.066	0.203
-457.026	65.920	0.109	0.113
-456.011	-200.000	-0.019	0.266
-454.997	-148.556	0.231	0.019
-453.982	-50.930	0.157	-0.075
-452.968	-78.541	0.243	0.084
-451.953	552.508	0.092	0.224
-450.938	-153.110	-0.143	-0.010
-449.924	-200.000	0.040	-0.283
-448.909	715.004	0.092	-0.248
-447.895	-200.000	0.034	-0.359
-446.880	123.592	-0.123	-0.157
-445.865	800.000	0.029	0.117
-444.851	-69.578	-0.211	0.082
-443.836	4.757	0.075	-0.056
-442.822	9.053	-0.093	0.071
-441.807	-88.905	-0.183	-0.055
-440.792	-76.203	0.176	0.063
-439.778	49.452	-0.467	0.446
-438.763	-200.000	-0.026	-0.276
-437.749	-124.656	-0.051	0.008
-436.734	-200.000	0.022	0.107
-435.719	109.074	0.234	-0.284
-434.705	-162.156	-0.153	-0.008
-433.690	-116.230	0.254	-0.048
-432.676	800.000	0.053	-0.202
-431.661	11.744	-0.116	-0.090
-430.646	-23.204	-0.291	-0.178
-429.632	115.072	-0.350	0.434
-428.617	-46.660	-0.183	0.091
-427.603	17.718	0.241	-0.195
-426.588	-200.000	0.000	0.082
-425.573	-200.000	-0.036	-0.207
-424.559	-171.448	0.210	-0.007
-423.544	-200.000	-0.009	0.119
-422.530	46.831	-0.306	0.288
-421.515	-68.694	-0.164	0.064
-420.500	-101.590	-0.221	-0.055
-419.486	-18.722	0.328	0.208
-418.471	667.880	0.039	-0.102
-417.457	406.270	0.046	0.099
-416.442	-118.226	0.113	-0.020
-415.428	-159.358	0.064	0.004
-414.413	-9.683	-0.192	0.130
-413.398	174.651	0.081	-0.118
-412.384	-86.074	-0.239	-0.075
-411.369	-153.980	0.293	0.020
-410.355	800.000	0.074	-0.252
-409.340	-116.348	0.289	0.054
-408.325	107.551	0.059	-0.072
-407.311	276.904	0.116	-0.209
-406.296	98.554	0.129	0.150
-405.282	33.611	-0.303	0.267
-404.267	800.000	0.030	-0.102
-403.252	-200.000	0.006	-0.285
-402.238	139.265	-0.085	-0.113
-401.223	-62.351	0.158	-0.067
-400.209	800.000	-0.029	0.116
-399.194	-200.000	0.033	0.162
-398.179	4.741	0.485	-0.361
-397.165	-33.419	-0.144	0.081
-396.150	-88.973	0.311	-0.093
-395.136	167.125	0.085	0.122
-394.121	-43.858	0.240	0.123
-393.106	-70.176	0.074	0.029
-392.092	-74.044	-0.118	0.043
-391.077	-84.189	-0.131	0.042
-390.063	-200.000	0.007	-0.105
-389.048	-200.000	-0.042	-0.239
-388.033	800.000	-0.137	-0.455
-387.019	1.217	0.238	-0.173
-386.004	-200.000	-0.078	0.500
-384.990	-49.769	0.378	0.182
-383.975	-200.000	-0.019	-0.306
-382.960	800.000	-0.026	-0.074
-381.946	389.335	0.041	0.086
-380.931	-16.067	0.153	-0.099
-379.917	800.000	0.081	0.318
-378.902	800.000	-0.037	0.137
-377.888	-116.583	-0.350	0.065
-376.873	198.333	0.182	-0.283
-375.858	800.000	0.050	-0.156
-374.844	-200.000	-0.036	0.361
-373.829	-104.029	0.389	0.092
-372.815	-200.000	-0.015	-0.171
-371.800	-200.000	-0.003	-0.080
-370.785	-82.423	0.081	0.027
-369.771	531.761	-0.106	0.254
-368.756	-200.000	0.051	0.284
-367.742	680.198	0.053	-0.141
-366.727	50.377	0.138	-0.132
-365.712	331.774	0.033	0.065
-364.698	-169.797	0.047	0.002
-363.683	143.530	-0.293	-0.395
-362.669	197.986	0.093	0.144
-361.654	718.587	0.070	0.189
-360.639	-17.518	-0.053	-0.033
-359.625	-118.101	0.303	0.055
-358.610	-200.000	-0.047	-0.305
-357.596	-11.465	0.076	0.051
-356.581	400.547	0.019	-0.041
-355.566	114.453	-0.212	-0.262
-354.552	800.000	0.041	-0.131
-353.537	800.000	0.064	0.190
-352.523	-102.932	-0.153	-0.037
-351.508	-138.508	-0.142	0.016
-350.493	591.989	-0.086	-0.214
-349.479	800.000	-0.051	0.180
-348.464	406.039	-0.180	0.384
-347.450	-69.218	-0.230	0.090
-346.435	177.786	-0.176	0.260
-345.420	192.252	-0.182	0.278
-344.406	223.565	-0.123	-0.201
-343.391	215.313	0.112	-0.179
-342.377	-24.733	-0.233	-0.140
-341.362	92.446	0.118	0.135
-340.348	800.000	0.098	-0.290
-339.333	800.000	-0.027	-0.083
-338.318	-54.264	0.342	0.157
-337.304	800.000	-0.080	-0.235
-336.289	-96.202	0.066	0.018
-335.275	-200.000	-0.006	0.128
-334.260	317.288	-0.066	0.125
-333.245	15.216	-0.231	0.183
-332.231	-145.153	-0.334	-0.031
-331.216	164.513	0.124	0.176
-330.202	-200.000	0.000	0.181
-329.187	-126.795	0.475	-0.071
-328.172	-85.382	-0.097	0.030
-327.158	-200.000	-0.006	-0.127
-326.143	-200.000	-0.027	-0.261
-325.129	-200.000	-0.016	0.109
-324.114	-200.000	0.031	0.454
-323.099	-81.656	-0.055	-0.018
-322.085	800.000	-0.031	0.129
-321.070	-200.000	-0.034	0.300
-320.056	-52.527	-0.281	-0.131
-319.041	-200.000	-0.024	0.204
-318.026	139.378	-0.137	0.182
-317.012	83.048	-0.110	-0.121
-315.997	-166.387	0.220	-0.009
-314.983	-200.000	0.036	-0.293
-313.968	560.084	0.074	-0.181
-312.953	-200.000	0.006	-0.583
-311.939	800.000	0.046	-0.143
-310.924	3.836	0.241	0.178
-309.910	-197.674	0.045	-0.000
-308.895	-61.158	0.230	-0.098
-307.880	185.635	0.167	0.251
-306.866	271.321	0.124	-0.220
-305.851	45.950	-0.177	-0.166
-304.837	-133.717	0.180	0.023
-303.822	387.161	0.046	0.096
-302.807	15.470	-0.169	0.134
-301.793	619.713	-0.046	-0.117
-300.778	39.364	-0.076	0.069
-299.764	481.702	0.059	0.135
-298.749	174.337	0.047	0.068
-297.735	32.459	-0.066	-0.057
-296.720	716.208	0.068	-0.183
-295.705	486.516	-0.143	-0.330
-294.691	800.000	0.022	0.069
-293.676	183.538	0.227	0.339
-292.662	760.153	0.081	-0.221
-291.647	599.951	0.087	-0.219
-290.632	-175.527	-0.227	0.006
-289.618	-108.382	-0.120	-0.026
-288.603	-39.762	0.189	-0.100
-287.589	800.000	0.015	-0.063
-286.574	46.917	-0.107	-0.100
-285.559	-200.000	0.031	0.244
-284.545	-79.377	-0.150	-0.051
-283.530	-14.714	-0.126	0.082
-282.516	800.000	0.061	-0.174
-281.501	8.101	-0.132	-0.100
-280.486	-114.953	-0.226	-0.043
-279.472	-19.108	0.095	0.060
-278.457	309.385	-0.054	0.101
-277.443	9.245	0.086	0.065
-276.428	-100.900	-0.300	0.074
-275.413	-115.670	0.389	-0.074
-274.399	800.000	-0.067	0.239
-273.384	800.000	0.072	0.222
-272.370	-200.000	0.046	-0.219
-271.355	35.229	0.119	0.105
-270.340	5.713	-0.237	0.177
-269.326	-71.611	-0.413	0.156
-268.311	641.598	0.029	-0.074
-267.297	119.924	0.144	0.180
-266.282	-80.983	0.288	-0.096
-265.267	311.151	-0.177	0.335
-264.253	59.066	-0.316	0.313
-263.238	-138.317	-0.229	-0.025
-262.224	800.000	-0.021	0.071
-261.209	-8.182	-0.324	0.220
-260.195	-200.000	-0.061	-0.322
-259.180	-200.000	0.007	0.069
-258.165	-151.754	0.074	0.005
-257.151	-200.000	-0.028	-0.426
-256.136	32.626	-0.078	0.068
-255.122	-200.000	-0.007	0.000
-254.107	34.843	0.102	-0.090
-253.092	-44.909	0.196	-0.099
-252.078	800.000	-0.045	-0.145
-251.063	-64.842	0.103	-0.042
-250.049	-50.190	-0.151	-0.072
-249.034	-200.000	0.042	0.260
-248.019	-200.000	0.050	-0.514
-247.005	-200.000	0.011	-0.337
-245.990	-200.000	-0.015	-0.194
-244.976	133.039	-0.239	-0.311
-243.961	229.252	0.172	0.283
-242.946	-83.622	0.164	0.053
-241.932	92.189	0.120	0.136
-240.917	-5.860	0.136	-0.094
-239.903	-118.461	-0.241	0.043
-238.888	718.945	0.112	0.299
-237.873	-17.679	-0.203	-0.128
-236.859	-77.796	-0.080	-0.028
-235.844	68.553	0.116	0.120
-234.830	379.922	0.071	-0.146
-233.815	330.340	0.172	0.333
-232.800	-200.000	-0.037	0.264
-231.786	-43.762	-0.142	-0.072
-230.771	800.000	0.077	0.287
-229.757	-40.337	-0.091	-0.047
-228.742	-116.208	-0.184	0.034
-227.727	-85.682	0.086	-0.027
-226.713	-200.000	-0.010	0.089
-225.698	252.091	0.071	-0.122
-224.684	86.447	0.229	-0.254
-223.669	301.099	-0.063	-0.118
-222.655	27.388	0.058	0.049
-221.640	472.300	0.026	0.058
-220.625	-200.000	0.044	-0.391
-219.611	-53.390	0.286	-0.132
-218.596	-200.000	0.040	-0.207
-217.582	-200.000	-0.043	0.312
-216.567	-12.685	-0.147	0.096
-215.552	125.873	0.195	-0.248
-214.538	-44.584	0.245	-0.123
-213.523	-200.000	0.006	-0.137
-212.509	-68.321	-0.243	0.095
-211.494	-62.256	0.410	0.172
-210.479	-200.000	0.050	-0.264
-209.465	-96.938	-0.066	-0.017
-208.450	-18.373	-0.163	-0.102
-207.436	576.519	0.085	0.209
-206.421	-149.306	0.175	-0.014
-205.406	197.483	0.149	-0.228
-204.392	-200.000	0.011	-0.100
-203.377	-44.808	-0.173	-0.087
-202.363	-200.000	-0.081	0.396
-201.348	-176.651	0.066	-0.002
-200.333	355.342	-0.075	0.151
-199.319	-145.045	-0.117	-0.011
-198.304	407.541	-0.115	-0.244
-197.290	39.517	-0.142	0.128
-196.275	-127.360	-0.343	0.050
-195.260	331.128	0.191	-0.370
-194.246	-168.382	0.237	-0.009
-193.231	-142.305	-0.097	-0.010
-192.217	-14.658	-0.251	-0.162
-191.202	23.284	0.151	0.124
-190.187	-200.000	-0.025	0.334
-189.173	-79.267	0.153	0.052
-188.158	-58.046	-0.209	-0.092
-187.144	64.196	0.153	-0.155
-186.129	-79.210	0.129	0.044
-185.114	39.792	0.125	0.113
-184.100	251.181	0.219	-0.374
-183.085	-200.000	0.009	-0.315
-182.071	-84.872	0.235	0.074
-181.056	707.144	-0.149	0.396
-180.042	-63.016	-0.046	0.019
-179.027	92.644	0.146	0.166
-178.012	-200.000	-0.029	-0.197
-176.998	-200.000	0.043	0.257
-175.983	113.671	-0.073	0.089
-174.969	800.000	-0.083	0.322
-173.954	15.784	0.065	0.052
-172.939	-112.818	0.045	-0.009
-171.925	87.574	0.129	0.144
-170.910	263.629	-0.143	-0.250
-169.896	-98.536	0.141	0.036
-168.881	10.777	-0.263	0.202
-167.866	-32.682	-0.244	-0.136
-166.852	73.579	0.134	-0.141
-165.837	32.327	0.133	-0.115
-164.823	14.839	-0.157	0.123
-163.808	273.905	0.121	0.216
-162.793	3.356	0.134	-0.098
-161.779	-56.568	0.259	0.115
-160.764	127.190	-0.076	-0.097
-159.750	-46.988	-0.147	-0.072
-158.735	-200.000	0.034	0.170
-157.720	366.235	-0.152	-0.308
-156.706	519.059	0.064	-0.151
-155.691	-200.000	0.001	-0.164
-154.677	315.824	-0.103	0.196
-153.662	-73.139	0.266	0.098
-152.647	290.534	0.213	0.388
-151.633	-200.000	-0.110	-0.000
-150.618	-70.521	-0.237	-0.090
-149.604	800.000	0.066	0.195
-148.589	-59.942	-0.190	-0.082
-147.574	95.031	0.114	-0.130
-146.560	474.675	-0.062	-0.140
-145.545	182.189	0.039	0.057
-144.531	559.691	0.137	0.333
-143.516	64.497	-0.115	0.117
-142.502	167.211	0.087	-0.124
-141.487	-15.995	0.203	-0.130
-140.472	492.293	0.089	-0.206
-139.458	109.310	-0.156	0.188
-138.443	-33.904	0.303	0.167
-137.429	-200.000	-0.010	-0.356
-136.414	242.768	-0.207	-0.347
-135.399	800.000	-0.083	-0.264
-134.385	688.043	-0.030	-0.079
-133.370	-200.000	-0.005	0.056
-132.356	134.870	0.211	0.275
-131.341	-88.065	-0.120	-0.036
-130.326	-25.545	0.254	-0.150
-129.312	-200.000	-0.000	-0.040
-128.297	-186.913	-0.303	-0.004
-127.283	-53.148	-0.247	0.114
-126.268	-200.000	-0.031	-0.272
-125.253	-65.466	-0.149	0.060
-124.239	644.467	0.090	-0.230
-123.224	419.588	-0.171	0.366
-122.210	800.000	-0.117	0.384
