DTS Sentinel unit serial number:	SN413079Multiplexer serial number:	ORYXHardware model number:	OX4-SRSoftware version number:	ORYX F/W v4.00 Oryx Data Collector v3.7.2.0data status	okinstallation	princeton_trtdifferential loss correction	single-endedforward channel	channel 2reverse channel	N/Adate	2019/09/18time	00:11:34forward acquisition time	60.00reverse acquisition time	0.00gamma	496.2192k internal	0.2349k external	0.2349temperature offset calibration	0.9981default loss term (dB/km)	0.3790temperature slope calibration	1.0000multiplexer offset coefficient	1.0000multiplexer slope coefficient	1.0000fibre end	0.00T internal ref (°C)	23.75T ext. ref 1 (°C)	0.16T ext. ref 2 (°C)	17.30length (m)	temperature (°C)	Stokes	anti-Stokes-747.200	353.014	-0.036	0.071
-746.185	239.959	0.167	0.277
-745.171	-200.000	-0.015	-0.168
-744.156	38.603	-0.176	-0.157
-743.142	-127.191	0.375	-0.055
-742.127	-57.468	-0.457	-0.200
-741.112	569.997	0.083	0.202
-740.098	113.220	-0.075	0.090
-739.083	-118.576	0.063	-0.011
-738.069	124.772	-0.152	0.191
-737.054	160.708	0.011	0.015
-736.039	-139.494	-0.313	0.033
-735.025	-200.000	-0.025	0.162
-734.010	305.811	-0.077	-0.143
-732.996	-43.385	-0.332	-0.167
-731.981	-128.209	-0.160	0.023
-730.966	160.409	0.101	0.141
-729.952	-153.365	-0.417	0.029
-728.937	284.945	-0.125	0.224
-727.923	-151.539	0.060	0.004
-726.908	-88.243	0.183	-0.055
-725.894	800.000	-0.050	-0.139
-724.879	332.345	-0.169	-0.326
-723.864	-200.000	0.020	0.136
-722.850	-200.000	-0.003	-0.015
-721.835	130.677	0.055	-0.070
-720.821	-200.000	0.022	-0.149
-719.806	-125.905	0.412	-0.062
-718.791	-200.000	-0.017	-0.081
-717.777	800.000	0.081	-0.284
-716.762	174.623	0.077	-0.112
-715.748	315.073	0.224	0.421
-714.733	114.330	-0.175	-0.212
-713.718	-200.000	0.010	-0.075
-712.704	-180.419	-0.254	0.005
-711.689	-139.569	0.191	-0.020
-710.675	-43.947	-0.337	0.169
-709.660	-200.000	0.020	-0.119
-708.645	-200.000	0.037	0.330
-707.631	292.464	-0.134	-0.243
-706.616	-1.541	0.340	-0.239
-705.602	-172.248	-0.153	-0.005
-704.587	-114.330	-0.421	0.081
-703.572	-84.684	0.369	0.116
-702.558	-80.892	-0.110	0.036
-701.543	800.000	0.090	-0.251
-700.529	371.038	-0.023	0.047
-699.514	-200.000	0.001	0.114
-698.499	33.472	0.202	-0.175
-697.485	800.000	0.017	0.049
-696.470	-33.407	0.076	0.042
-695.456	133.656	-0.172	0.222
-694.441	800.000	-0.099	0.276
-693.426	-135.271	0.259	-0.031
-692.412	1.169	-0.384	0.275
-691.397	-119.174	-0.204	-0.036
-690.383	-38.227	-0.088	-0.046
-689.368	-32.953	-0.055	0.030
-688.354	800.000	0.034	0.107
-687.339	389.013	0.147	-0.302
-686.324	800.000	0.011	-0.038
-685.310	188.098	-0.115	0.171
-684.295	508.469	0.084	-0.195
-683.281	800.000	-0.081	-0.253
-682.266	-112.650	-0.237	0.047
-681.251	-200.000	-0.006	-0.082
-680.237	-200.000	-0.019	-0.187
-679.222	-21.008	0.088	-0.054
-678.208	-43.187	-0.161	0.081
-677.193	-14.933	0.222	-0.142
-676.178	-64.460	-0.330	-0.134
-675.164	213.984	-0.163	-0.257
-674.149	694.380	-0.087	0.227
-673.135	161.117	-0.068	-0.094
-672.120	-200.000	0.206	0.001
-671.105	58.105	-0.169	-0.165
-670.091	46.008	-0.146	-0.134
-669.076	335.261	-0.112	-0.216
-668.062	173.117	0.100	-0.143
-667.047	34.338	-0.182	-0.158
-666.032	49.903	0.138	0.130
-665.018	800.000	0.078	-0.226
-664.003	141.773	-0.124	0.163
-662.989	-200.000	-0.036	-0.159
-661.974	-170.297	0.146	-0.005
-660.959	6.779	-0.258	0.191
-659.945	650.676	-0.104	-0.264
-658.930	-2.555	-0.368	-0.256
-657.916	672.602	-0.140	0.362
-656.901	-42.446	0.318	0.161
-655.886	632.660	-0.039	0.099
-654.872	-144.346	0.188	0.017
-653.857	-15.894	0.306	0.194
-652.843	-143.183	-0.166	0.016
-651.828	-200.000	-0.015	-0.090
-650.814	51.201	0.048	0.045
-649.799	100.591	-0.119	-0.138
-648.784	350.290	0.104	-0.204
-647.770	292.472	0.143	-0.259
-646.755	-200.000	-0.005	0.131
-645.741	789.732	0.049	-0.135
-644.726	224.909	-0.208	-0.334
-643.711	-106.113	0.219	0.049
-642.697	63.924	0.279	-0.279
-641.682	-121.714	0.112	-0.018
-640.668	-140.907	0.152	-0.016
-639.653	117.703	-0.199	-0.244
-638.638	-200.000	-0.045	0.357
-637.624	-200.000	0.014	0.133
-636.609	800.000	0.178	-0.527
-635.595	40.034	-0.280	-0.250
-634.580	506.873	-0.068	-0.158
-633.565	800.000	-0.021	0.090
-632.551	751.853	0.157	-0.422
-631.536	-33.115	0.144	-0.079
-630.522	-100.228	-0.426	0.105
-629.507	-38.468	-0.329	-0.173
-628.492	-34.342	-0.216	-0.118
-627.478	-91.462	0.137	-0.039
-626.463	-58.733	0.358	-0.154
-625.449	-124.300	-0.242	0.038
-624.434	-200.000	0.074	-0.384
-623.419	0.960	-0.290	-0.207
-622.405	378.363	0.106	-0.216
-621.390	-21.921	0.021	-0.013
-620.376	129.662	-0.122	-0.155
-619.361	-75.058	0.182	-0.065
-618.346	67.558	0.372	0.377
-617.332	419.956	0.060	-0.127
-616.317	-126.796	0.129	-0.019
-615.303	297.447	-0.156	-0.285
-614.288	-200.000	0.002	0.036
-613.273	623.514	0.167	-0.418
-612.259	-108.601	0.585	0.125
-611.244	-28.392	0.477	0.273
-610.230	101.617	-0.042	0.049
-609.215	-171.284	-0.260	0.009
-608.201	-200.000	0.009	-0.265
-607.186	-141.361	-0.111	0.011
-606.171	117.473	-0.132	-0.162
-605.157	192.211	0.213	0.319
-604.142	-173.920	-0.070	-0.002
-603.128	593.621	-0.046	-0.112
-602.113	-61.645	-0.210	0.088
-601.098	25.662	0.311	-0.257
-600.084	388.136	0.171	0.352
-599.069	258.254	-0.100	-0.170
-598.055	-51.121	-0.315	0.147
-597.040	-48.958	-0.282	-0.134
-596.025	300.494	0.063	0.116
-595.011	-113.079	-0.190	0.037
-593.996	-69.511	-0.259	0.098
-592.982	-200.000	-0.011	0.053
-591.967	-166.829	-0.305	0.012
-590.952	-168.135	-0.202	-0.008
-589.938	800.000	0.053	-0.163
-588.923	158.313	0.122	0.169
-587.909	800.000	0.092	0.284
-586.894	-59.224	0.294	0.126
-585.879	539.691	-0.037	-0.088
-584.865	312.136	-0.076	0.142
-583.850	-79.799	0.166	0.055
-582.836	35.633	0.165	-0.144
-581.821	-80.325	0.313	0.104
-580.806	390.139	-0.163	-0.336
-579.792	703.221	-0.063	0.166
-578.777	363.529	-0.116	-0.232
-577.763	800.000	0.050	0.148
-576.748	-113.516	0.090	0.017
-575.733	274.745	-0.191	-0.336
-574.719	-20.813	0.145	0.088
-573.704	-25.024	-0.198	0.117
-572.690	222.265	0.245	0.391
-571.675	429.717	-0.166	0.355
-570.661	18.135	-0.082	0.065
-569.646	217.305	0.066	0.104
-568.631	-40.419	-0.283	-0.146
-567.617	800.000	-0.060	0.187
-566.602	-7.180	0.288	-0.194
-565.588	-200.000	-0.002	0.067
-564.573	-129.993	-0.081	-0.011
-563.558	-200.000	-0.004	-0.165
-562.544	-44.969	-0.194	0.096
-561.529	172.259	0.153	-0.219
-560.515	-166.013	-0.153	0.006
-559.500	486.955	0.088	-0.199
-558.485	-200.000	-0.027	0.139
-557.471	-200.000	-0.008	0.230
-556.456	246.713	-0.058	-0.097
-555.442	-45.197	-0.166	0.082
-554.427	-71.236	-0.275	-0.102
-553.412	-57.915	0.210	0.091
-552.398	25.643	0.185	-0.153
-551.383	-23.445	0.055	0.033
-550.369	800.000	-0.131	-0.378
-549.354	-200.000	-0.010	0.266
-548.339	-200.000	0.027	-0.165
-547.325	54.811	0.380	-0.364
-546.310	-72.874	0.238	-0.087
-545.296	-9.163	-0.094	0.062
-544.281	111.381	0.215	0.257
-543.266	-75.068	0.319	-0.113
-542.252	-200.000	-0.069	-0.324
-541.237	-155.274	-0.210	0.014
-540.223	-11.846	0.027	0.018
-539.208	708.656	0.082	0.216
-538.193	-72.468	0.033	-0.012
-537.179	-173.599	-0.109	-0.003
-536.164	-4.743	0.264	-0.180
-535.150	-133.827	-0.169	0.021
-534.135	800.000	-0.029	0.089
-533.121	-200.000	-0.027	0.213
-532.106	32.250	-0.179	-0.153
-531.091	25.794	-0.235	0.194
-530.077	-22.419	-0.229	0.137
-529.062	-61.670	0.181	0.075
-528.048	35.758	-0.042	0.037
-527.033	67.372	0.186	0.188
-526.018	-143.575	0.182	0.017
-525.004	-130.272	-0.328	0.044
-523.989	-200.000	-0.019	0.106
-522.975	-200.000	0.045	0.270
-521.960	94.488	-0.044	-0.049
-520.945	-135.090	0.092	-0.011
-519.931	180.931	-0.118	-0.171
-518.916	30.268	-0.010	0.009
-517.902	-21.347	-0.293	-0.177
-516.887	118.565	0.167	0.204
-515.872	8.350	0.329	0.245
-514.858	-200.000	-0.005	0.167
-513.843	-200.000	0.085	0.441
-512.829	13.836	-0.058	0.045
-511.814	-51.112	-0.273	-0.127
-510.799	259.303	-0.229	0.392
-509.785	800.000	0.119	0.338
-508.770	-96.130	0.152	-0.040
-507.756	580.193	0.099	-0.241
-506.741	202.379	0.174	0.265
-505.726	-164.615	0.279	-0.013
-504.712	72.569	-0.187	0.193
-503.697	51.223	-0.206	0.193
-502.683	-52.463	0.053	-0.024
-501.668	-200.000	-0.030	-0.169
-500.653	276.834	0.101	-0.177
-499.639	-200.000	-0.029	-0.175
-498.624	207.822	0.235	0.363
-497.610	-200.000	-0.035	0.328
-496.595	-48.372	0.073	-0.035
-495.581	-200.000	0.010	-0.300
-494.566	-90.638	0.570	0.163
-493.551	-116.240	0.373	-0.068
-492.537	13.788	-0.004	-0.003
-491.522	-110.286	0.167	-0.034
-490.508	294.101	-0.030	-0.054
-489.493	-183.551	0.213	-0.004
-488.478	-106.077	0.288	-0.064
-487.464	-85.863	-0.167	0.051
-486.449	-200.000	0.003	0.187
-485.435	-39.018	-0.152	0.079
-484.420	318.012	-0.087	0.163
-483.405	232.748	-0.139	0.227
-482.391	29.013	0.091	-0.076
-481.376	286.239	0.132	0.236
-480.362	18.086	-0.120	-0.094
-479.347	-200.000	-0.000	0.089
-478.332	45.717	-0.163	-0.149
-477.318	-54.787	0.067	0.030
-476.303	-130.237	-0.384	-0.052
-475.289	7.567	0.048	0.036
-474.274	800.000	-0.035	0.117
-473.259	-115.285	0.229	-0.043
-472.245	56.187	-0.160	0.154
-471.230	323.289	-0.228	-0.430
-470.216	264.371	0.171	0.295
-469.201	-113.786	-0.290	0.056
-468.186	276.121	-0.138	-0.243
-467.172	111.277	0.173	-0.206
-466.157	30.363	-0.223	-0.188
-465.143	-101.775	0.236	-0.056
-464.128	-200.000	-0.039	0.503
-463.113	-111.153	0.167	-0.034
-462.099	82.077	-0.286	-0.307
-461.084	-180.533	-0.331	0.007
-460.070	132.147	-0.188	-0.239
-459.055	74.065	0.122	-0.127
-458.040	800.000	0.056	0.190
-457.026	211.076	-0.209	0.324
-456.011	-121.779	0.239	0.039
-454.997	51.835	-0.162	0.153
-453.982	-90.745	0.069	-0.020
-452.968	49.795	-0.201	0.187
-451.953	800.000	0.025	0.103
-450.938	719.485	-0.071	0.187
-449.924	320.599	-0.067	0.127
-448.909	-200.000	0.025	0.160
-447.895	-82.254	0.265	0.085
-446.880	800.000	-0.136	-0.529
-445.865	39.833	-0.190	-0.168
-444.851	-149.938	0.263	-0.020
-443.836	-178.564	0.176	0.004
-442.822	194.676	0.132	0.198
-441.807	-106.225	-0.460	-0.102
-440.792	-200.000	-0.001	-0.074
-439.778	-89.871	0.307	-0.089
-438.763	297.517	-0.070	0.127
-437.749	-34.526	-0.187	-0.101
-436.734	-3.475	-0.254	-0.174
-435.719	-200.000	-0.002	-0.258
-434.705	33.174	0.195	0.167
-433.690	800.000	-0.031	0.126
-432.676	87.370	0.270	0.294
-431.661	-6.533	0.019	0.013
-430.646	-92.605	-0.377	-0.104
-429.632	-200.000	-0.020	-0.259
-428.617	-200.000	-0.280	-0.001
-427.603	102.484	0.144	0.166
-426.588	-54.801	-0.265	0.118
-425.573	-200.000	0.026	-0.294
-424.559	-195.153	0.446	-0.003
-423.544	-200.000	0.038	0.179
-422.530	3.417	-0.302	0.217
-421.515	734.750	-0.014	-0.038
-420.500	-200.000	0.016	0.147
-419.486	179.565	-0.146	-0.211
-418.471	-200.000	0.010	-0.126
-417.457	-78.358	0.216	0.073
-416.442	131.190	0.153	-0.194
-415.428	-164.091	0.345	0.016
-414.413	236.236	-0.139	-0.227
-413.398	49.564	-0.088	0.082
-412.384	226.026	0.170	0.272
-411.369	26.499	-0.312	0.258
-410.355	800.000	-0.089	-0.349
-409.340	11.534	-0.202	-0.153
-408.325	110.413	-0.101	0.120
-407.311	-200.000	0.015	-0.173
-406.296	-89.498	0.261	-0.076
-405.282	48.399	-0.199	0.184
-404.267	-39.126	0.096	-0.050
-403.252	230.092	-0.118	0.189
-402.238	-200.000	-0.005	0.106
-401.223	-65.629	0.119	-0.047
-400.209	-200.000	-0.022	0.325
-399.194	206.206	-0.130	-0.199
-398.179	-200.000	-0.004	0.160
-397.165	-115.048	-0.228	-0.043
-396.150	-17.114	-0.279	-0.173
-395.136	144.066	0.218	-0.286
-394.121	-100.616	-0.139	0.034
-393.106	-18.779	-0.188	0.115
-392.092	-48.069	0.118	0.056
-391.077	195.704	0.104	-0.156
-390.063	-200.000	-0.004	0.468
-389.048	-200.000	-0.003	0.117
-388.033	800.000	0.045	-0.143
-387.019	186.457	0.046	-0.068
-386.004	-45.899	0.379	-0.184
-384.990	3.978	-0.037	-0.027
-383.975	800.000	-0.060	-0.223
-382.960	800.000	-0.066	-0.245
-381.946	-124.188	-0.183	0.028
-380.931	800.000	-0.090	0.281
-379.917	-103.067	-0.256	-0.060
-378.902	72.372	-0.276	0.283
-377.888	-162.562	0.130	-0.006
-376.873	-97.435	0.210	0.054
-375.858	-108.241	-0.318	0.068
-374.844	117.820	-0.176	0.214
-373.829	529.461	-0.096	0.224
-372.815	519.139	-0.134	0.308
-371.800	-100.487	0.104	0.025
-370.785	-169.620	-0.166	-0.006
-369.771	269.703	0.086	0.149
-368.756	800.000	0.023	0.077
-367.742	63.773	-0.143	0.141
-366.727	150.221	0.146	0.195
-365.712	-68.088	-0.204	0.078
-364.698	-10.203	-0.212	-0.138
-363.683	12.269	-0.099	0.075
-362.669	106.278	-0.094	-0.110
-361.654	-120.087	-0.069	-0.012
-360.639	-200.000	-0.052	-0.238
-359.625	-11.607	-0.078	-0.050
-358.610	-61.936	0.337	0.139
-357.596	-200.000	0.007	0.386
-356.581	-200.000	-0.003	0.034
-355.566	800.000	0.010	-0.037
-354.552	93.509	0.050	0.055
-353.537	-92.584	0.070	0.019
-352.523	-9.218	0.297	-0.195
-351.508	-75.658	-0.227	0.079
-350.493	-88.269	0.085	-0.025
-349.479	-156.628	-0.021	-0.001
-348.464	460.676	-0.119	-0.261
-347.450	-29.867	0.426	-0.239
-346.435	476.566	0.053	-0.117
-345.420	84.600	-0.066	0.071
-344.406	-189.776	0.092	-0.001
-343.391	390.744	-0.046	-0.093
-342.377	800.000	-0.066	0.186
-341.362	-106.924	-0.252	-0.055
-340.348	449.754	-0.051	0.112
-339.333	-4.552	0.278	0.189
-338.318	213.087	-0.093	-0.144
-337.304	-200.000	0.032	-0.208
-336.289	225.190	0.046	-0.073
-335.275	800.000	0.082	-0.268
-334.260	-88.362	0.054	-0.016
-333.245	127.524	-0.196	-0.245
-332.231	-200.000	0.053	-0.350
-331.216	-114.706	0.218	-0.041
-330.202	800.000	0.050	0.153
-329.187	800.000	0.046	0.166
-328.172	800.000	0.056	-0.212
-327.158	-124.620	0.347	0.053
-326.143	-85.324	-0.411	-0.126
-325.129	-34.329	0.165	-0.089
-324.114	76.668	0.166	0.173
-323.099	800.000	-0.072	-0.233
-322.085	16.378	-0.176	0.137
-321.070	-200.000	-0.054	0.245
-320.056	258.698	0.155	0.262
-319.041	-32.533	-0.166	0.091
-318.026	-53.994	-0.038	0.017
-317.012	-115.832	0.265	0.049
-315.997	207.279	0.149	-0.228
-314.983	319.491	-0.042	0.077
-313.968	-99.854	-0.080	0.020
-312.953	52.472	0.139	-0.131
-311.939	800.000	-0.089	-0.315
-310.924	296.286	0.071	-0.128
-309.910	202.011	-0.221	0.334
-308.895	124.360	0.125	-0.155
-307.880	-61.834	-0.275	0.113
-306.866	90.025	-0.067	0.074
-305.851	-149.500	-0.124	-0.010
-304.837	-127.151	-0.162	-0.023
-303.822	-76.453	0.154	-0.053
-302.807	-20.005	-0.106	0.064
-301.793	800.000	0.045	-0.182
-300.778	21.771	-0.074	0.059
-299.764	800.000	0.026	-0.097
-298.749	7.926	0.206	0.151
-297.735	-186.386	-0.306	0.004
-296.720	-58.460	0.145	-0.062
-295.705	-22.189	0.185	0.110
-294.691	-200.000	-0.080	0.360
-293.676	-200.000	-0.068	-0.316
-292.662	40.205	0.139	-0.122
-291.647	190.263	-0.250	-0.368
-290.632	-129.652	-0.152	0.021
-289.618	-67.486	0.205	0.079
-288.603	-200.000	0.043	-0.281
-287.589	600.993	-0.068	-0.167
-286.574	-200.000	-0.032	0.259
-285.559	27.972	0.451	-0.373
-284.545	-116.835	-0.210	0.038
-283.530	800.000	-0.081	0.268
-282.516	800.000	0.037	0.131
-281.501	43.061	0.250	0.224
-280.486	279.621	-0.086	0.150
-279.472	-109.669	0.075	-0.016
-278.457	3.282	0.253	-0.180
-277.443	598.460	-0.078	0.190
-276.428	229.145	0.021	-0.034
-275.413	800.000	0.110	-0.462
-274.399	-16.496	-0.048	-0.030
-273.384	-61.747	-0.142	0.058
-272.370	800.000	-0.068	0.271
-271.355	-35.122	-0.283	-0.151
-270.340	18.165	-0.293	-0.229
-269.326	-151.972	0.070	-0.005
-268.311	193.741	-0.177	-0.263
-267.297	-142.975	-0.198	-0.019
-266.282	219.489	-0.176	0.276
-265.267	-117.242	0.185	0.033
-264.253	202.460	-0.189	0.286
-263.238	-200.000	-0.001	-0.073
-262.224	462.822	-0.115	-0.251
-261.209	312.078	-0.178	-0.327
-260.195	10.148	-0.217	-0.162
-259.180	100.530	-0.108	0.123
-258.165	-200.000	0.029	-0.238
-257.151	-200.000	0.004	0.172
-256.136	-200.000	-0.011	-0.108
-255.122	-117.980	0.283	0.050
-254.107	-33.782	-0.122	0.066
-253.092	-200.000	0.034	-0.200
-252.078	800.000	0.065	0.182
-251.063	800.000	-0.038	0.149
-250.049	136.309	-0.097	0.124
-249.034	-63.055	0.175	0.071
-248.019	-200.000	0.054	0.264
-247.005	-3.205	-0.301	-0.206
-245.990	-107.949	-0.429	-0.091
-244.976	-200.000	0.034	0.182
-243.961	-65.043	-0.241	-0.095
-242.946	-32.775	0.117	0.064
-241.932	647.245	-0.129	-0.323
-240.917	800.000	-0.059	-0.161
-239.903	-200.000	-0.016	0.300
-238.888	-26.215	0.210	-0.121
-237.873	157.033	0.245	0.332
-236.859	-200.000	-0.021	0.110
-235.844	150.204	0.112	0.148
-234.830	400.060	-0.052	0.106
-233.815	753.002	-0.067	-0.178
-232.800	68.903	0.414	-0.417
-231.786	-200.000	-0.007	0.406
-230.771	138.624	0.153	-0.197
-229.757	-60.960	-0.213	-0.088
-228.742	-125.409	0.160	0.024
-227.727	-39.659	-0.331	0.169
-226.713	103.392	0.096	0.110
-225.698	124.805	0.055	-0.068
-224.684	79.795	-0.190	0.199
-223.669	-200.000	0.018	0.111
-222.655	528.588	0.145	0.335
-221.640	703.388	0.179	-0.461
-220.625	258.689	-0.133	0.225
-219.611	192.176	0.129	-0.190
-218.596	-169.146	-0.265	-0.010
-217.582	-10.067	0.230	-0.150
-216.567	-92.530	0.260	0.071
-215.552	680.003	-0.038	-0.098
-214.538	800.000	0.046	-0.124
-213.523	458.865	-0.218	0.474
-212.509	172.232	0.055	-0.077
-211.494	123.591	0.073	-0.089
-210.479	800.000	0.108	-0.332
-209.465	-92.131	0.205	0.057
-208.450	-150.956	0.207	0.015
-207.436	31.845	0.177	0.149
-206.421	-35.589	0.366	-0.194
-205.406	-166.396	0.186	0.008
-204.392	-200.000	0.006	0.026
-203.377	111.681	-0.142	-0.167
-202.363	94.240	-0.292	-0.324
-201.348	800.000	0.048	-0.155
-200.333	-200.000	0.012	-0.189
-199.319	129.886	0.227	-0.284
-198.304	-129.916	0.131	0.018
-197.290	-200.000	-0.003	-0.242
-196.275	80.178	-0.101	0.107
-195.260	-0.806	-0.009	0.006
-194.246	44.757	-0.411	-0.370
-193.231	-74.878	0.124	0.044
-192.217	797.382	0.122	0.329
-191.202	215.934	0.078	0.120
-190.187	-14.633	-0.239	0.150
-189.173	398.491	0.071	0.146
-188.158	140.586	-0.070	-0.090
-187.144	-101.009	0.161	-0.038
-186.129	101.123	0.065	0.074
-185.114	-200.000	0.018	0.078
-184.100	-200.000	0.000	-0.082
-183.085	-121.236	-0.278	0.045
-182.071	-97.003	-0.238	-0.061
-181.056	216.072	-0.176	-0.274
-180.042	800.000	0.081	0.256
-179.027	-114.914	0.162	0.030
-178.012	-168.169	0.285	-0.011
-176.998	-60.739	0.319	0.132
-175.983	-57.230	-0.096	-0.041
-174.969	-200.000	-0.001	-0.114
-173.954	119.066	0.119	-0.144
-172.939	-200.000	-0.013	0.421
-171.925	469.245	-0.094	0.206
-170.910	-32.400	0.338	0.184
-169.896	397.286	-0.062	-0.126
-168.881	240.450	0.142	0.232
-167.866	-99.825	0.341	0.083
-166.852	150.636	0.416	0.552
-165.837	300.318	-0.245	-0.440
-164.823	-104.881	0.377	0.084
-163.808	-23.658	0.221	-0.130
-162.793	-75.334	-0.173	-0.060
-161.779	-101.050	-0.102	0.024
-160.764	-96.577	0.139	0.036
-159.750	-128.726	-0.112	0.015
-158.735	466.690	0.105	0.229
-157.720	85.834	-0.053	0.057
-156.706	-200.000	0.024	-0.240
-155.691	7.361	-0.330	0.241
-154.677	-200.000	-0.020	-0.179
-153.662	-200.000	0.025	0.258
-152.647	59.527	-0.028	-0.027
-151.633	301.757	-0.080	0.144
-150.618	-12.050	0.064	-0.041
-149.604	-77.518	0.319	0.108
-148.589	-142.011	0.147	-0.014
-147.574	800.000	-0.032	-0.111
-146.560	253.494	0.102	0.170
-145.545	354.964	-0.059	-0.114
-144.531	38.139	0.355	0.308
-143.516	227.163	0.077	0.121
-142.502	-73.190	0.303	-0.108
-141.487	800.000	-0.072	0.288
-140.472	800.000	0.092	0.274
-139.458	-23.193	-0.216	0.127
-138.443	800.000	0.069	-0.226
-137.429	-84.766	-0.089	0.027
-136.414	-200.000	0.036	0.264
-135.399	209.028	-0.073	-0.111
-134.385	35.963	-0.062	0.053
-133.370	136.850	0.060	0.076
-132.356	519.220	-0.086	-0.197
-131.341	-200.000	0.055	0.350
-130.326	23.855	0.110	0.088
-129.312	-118.457	-0.144	0.025
-128.297	-29.262	-0.246	-0.137
-127.283	-171.988	-0.182	-0.006
-126.268	-126.939	0.217	-0.031
-125.253	620.352	-0.046	0.112
-124.239	365.904	0.185	0.364
-123.224	800.000	-0.116	0.468
-122.210	658.958	0.098	0.245
