DTS Sentinel unit serial number:	SN413079Multiplexer serial number:	ORYXHardware model number:	OX4-SRSoftware version number:	ORYX F/W v4.00 Oryx Data Collector v3.7.2.0data status	okinstallation	princeton_trtdifferential loss correction	single-endedforward channel	channel 2reverse channel	N/Adate	2019/09/14time	06:11:35forward acquisition time	60.00reverse acquisition time	0.00gamma	496.2192k internal	0.2337k external	0.2337temperature offset calibration	1.0131default loss term (dB/km)	0.3790temperature slope calibration	1.0000multiplexer offset coefficient	1.0000multiplexer slope coefficient	1.0000fibre end	0.00T internal ref (°C)	26.72T ext. ref 1 (°C)	3.42T ext. ref 2 (°C)	20.82length (m)	temperature (°C)	Stokes	anti-Stokes-747.200	-165.072	0.313	0.014
-746.185	-57.433	-0.433	-0.191
-745.171	497.493	-0.042	0.098
-744.156	26.849	-0.104	0.088
-743.142	800.000	0.062	-0.215
-742.127	-87.947	-0.156	-0.047
-741.112	-200.000	0.009	0.065
-740.098	-147.211	-0.540	0.046
-739.083	800.000	0.045	0.135
-738.069	800.000	0.023	-0.093
-737.054	-27.377	0.334	0.195
-736.039	155.716	-0.090	0.124
-735.025	-0.819	0.263	0.187
-734.010	101.833	-0.237	-0.277
-732.996	157.677	0.112	-0.156
-731.981	-185.186	0.062	0.001
-730.966	-79.743	-0.383	-0.129
-729.952	-133.971	0.208	0.026
-728.937	-200.000	0.012	-0.207
-727.923	335.107	-0.156	-0.304
-726.908	250.378	0.062	-0.106
-725.894	-67.215	-0.121	-0.048
-724.879	-200.000	0.028	0.491
-723.864	-140.284	0.423	-0.044
-722.850	-35.496	0.304	0.166
-721.835	12.209	-0.460	0.355
-720.821	800.000	0.158	0.449
-719.806	-106.007	-0.339	0.077
-718.791	-52.740	0.153	0.071
-717.777	800.000	0.079	0.242
-716.762	40.181	-0.203	-0.183
-715.748	144.646	-0.162	-0.217
-714.733	-48.825	0.291	0.140
-713.718	-64.464	-0.136	-0.055
-712.704	152.116	0.166	0.227
-711.689	-48.668	-0.309	0.149
-710.675	104.737	-0.058	0.068
-709.660	-29.570	-0.216	0.124
-708.645	-110.313	-0.523	0.109
-707.631	-200.000	0.039	-0.175
-706.616	29.618	0.077	-0.065
-705.602	152.005	0.148	-0.202
-704.587	318.190	0.194	-0.369
-703.572	80.247	-0.144	-0.156
-702.558	-18.394	0.295	0.185
-701.543	159.873	-0.122	0.171
-700.529	-90.373	0.363	0.105
-699.514	734.044	-0.143	-0.382
-698.499	-58.383	-0.053	-0.023
-697.485	87.415	-0.069	-0.076
-696.470	313.234	-0.099	0.186
-695.456	-138.511	-0.057	0.006
-694.441	301.892	0.047	0.086
-693.426	514.035	0.118	-0.277
-692.412	211.556	0.202	-0.319
-691.397	-200.000	0.004	0.020
-690.383	800.000	0.135	0.397
-689.368	-137.186	-0.307	-0.035
-688.354	-84.382	0.150	0.047
-687.339	45.552	-0.211	-0.195
-686.324	-89.364	-0.139	-0.041
-685.310	800.000	0.082	0.345
-684.295	263.187	0.104	-0.181
-683.281	-99.305	0.160	-0.040
-682.266	-109.481	-0.076	-0.016
-681.251	-18.473	0.093	0.058
-680.237	-108.317	-0.287	-0.062
-679.222	800.000	0.006	0.025
-678.208	-44.047	-0.104	-0.052
-677.193	-50.789	-0.159	-0.075
-676.178	-80.005	0.106	0.035
-675.164	-200.000	0.010	0.217
-674.149	311.339	0.239	-0.448
-673.135	47.108	0.177	-0.165
-672.120	-199.676	-0.110	-0.001
-671.105	800.000	0.053	-0.212
-670.091	-31.391	-0.355	0.200
-669.076	-62.844	-0.197	0.082
-668.062	95.769	0.051	-0.058
-667.047	-82.405	0.550	-0.179
-666.032	502.525	0.088	-0.204
-665.018	-82.966	0.185	-0.060
-664.003	417.714	-0.136	-0.292
-662.989	-200.000	0.025	0.185
-661.974	-77.196	-0.438	0.152
-660.959	-106.707	0.253	-0.056
-659.945	42.670	-0.102	0.093
-658.930	-148.179	0.252	0.021
-657.916	-22.250	0.299	-0.181
-656.901	-200.000	-0.032	-0.178
-655.886	35.385	0.283	-0.248
-654.872	17.906	-0.179	0.143
-653.857	192.966	-0.179	0.270
-652.843	-72.802	0.271	0.100
-651.828	-109.793	0.406	-0.085
-650.814	-130.642	-0.287	-0.039
-649.799	800.000	0.015	-0.056
-648.784	210.218	-0.176	-0.276
-647.770	309.949	0.080	-0.150
-646.755	800.000	0.016	-0.064
-645.741	-90.092	-0.396	-0.115
-644.726	-123.389	0.199	0.032
-643.711	-42.401	-0.437	0.223
-642.697	387.837	-0.075	-0.155
-641.682	32.179	-0.161	0.139
-640.668	-125.084	0.053	0.008
-639.653	-200.000	0.077	-0.502
-638.638	-90.590	-0.096	-0.028
-637.624	16.606	-0.121	-0.095
-636.609	413.312	-0.014	0.029
-635.595	711.494	-0.031	-0.083
-634.580	-82.917	-0.205	0.066
-633.565	52.604	0.276	-0.263
-632.551	-1.036	0.094	0.067
-631.536	109.987	0.144	-0.173
-630.522	207.278	0.150	0.234
-629.507	-124.056	0.130	0.020
-628.492	161.799	-0.219	-0.306
-627.478	115.485	0.335	-0.409
-626.463	-157.680	-0.427	0.025
-625.449	159.818	-0.118	-0.165
-624.434	430.193	0.116	0.251
-623.419	800.000	-0.052	0.152
-622.405	-200.000	-0.041	0.329
-621.390	800.000	-0.038	0.160
-620.376	-33.919	0.154	0.085
-619.361	509.768	-0.064	-0.148
-618.346	2.023	-0.200	-0.144
-617.332	-200.000	-0.043	-0.245
-616.317	-16.257	-0.094	0.060
-615.303	-62.801	0.163	-0.068
-614.288	191.187	0.216	0.325
-613.273	-105.731	-0.118	0.027
-612.259	-85.163	0.318	0.099
-611.244	184.931	-0.153	-0.226
-610.230	-48.439	-0.140	-0.067
-609.215	566.010	0.042	-0.102
-608.201	-27.280	-0.322	-0.187
-607.186	5.448	0.083	-0.062
-606.171	-200.000	-0.065	-0.324
-605.157	-45.617	-0.251	-0.124
-604.142	224.391	0.064	0.104
-603.128	491.110	0.069	-0.158
-602.113	726.743	0.029	0.078
-601.098	-200.000	-0.033	-0.280
-600.084	-130.269	-0.239	0.032
-599.069	-120.584	0.406	0.069
-598.055	-200.000	0.044	0.357
-597.040	-108.014	-0.136	0.030
-596.025	67.668	0.145	-0.148
-595.011	632.977	0.090	0.228
-593.996	-16.048	-0.105	-0.066
-592.982	-200.000	-0.011	0.107
-591.967	118.664	0.255	-0.314
-590.952	-91.162	-0.185	0.053
-589.938	-14.976	0.102	-0.065
-588.923	-53.306	-0.185	0.085
-587.909	-149.058	-0.156	0.013
-586.894	-97.010	0.197	-0.052
-585.879	-114.737	-0.415	0.079
-584.865	-200.000	-0.036	0.376
-583.850	-70.955	-0.295	-0.111
-582.836	428.175	0.090	-0.193
-581.821	43.107	-0.085	-0.077
-580.806	105.553	0.258	-0.304
-579.792	-104.056	-0.201	0.047
-578.777	120.459	0.052	-0.065
-577.763	800.000	-0.071	0.206
-576.748	349.388	-0.065	0.128
-575.733	83.440	0.074	-0.081
-574.719	-149.300	-0.138	0.011
-573.704	48.667	-0.076	0.071
-572.690	606.774	0.094	0.233
-571.675	111.475	-0.063	-0.076
-570.661	732.718	-0.124	0.330
-569.646	344.548	-0.132	0.258
-568.631	-29.605	-0.279	-0.159
-567.617	-20.103	-0.267	-0.164
-566.602	-117.901	0.131	-0.023
-565.588	-183.317	0.311	0.005
-564.573	-1.958	0.191	0.134
-563.558	-141.028	0.256	0.026
-562.544	131.137	-0.026	0.034
-561.529	253.831	0.059	-0.101
-560.515	-65.565	-0.233	-0.093
-559.500	7.897	-0.199	0.148
-558.485	234.057	-0.081	0.133
-557.471	-200.000	0.035	-0.239
-556.456	-200.000	-0.002	-0.156
-555.442	800.000	-0.090	-0.268
-554.427	-200.000	0.010	0.230
-553.412	-93.176	-0.206	0.057
-552.398	79.363	0.235	0.251
-551.383	800.000	0.037	-0.117
-550.369	-58.193	-0.412	-0.179
-549.354	-182.698	-0.274	-0.005
-548.339	-200.000	-0.007	-0.199
-547.325	-200.000	0.026	-0.134
-546.310	-200.000	-0.015	-0.112
-545.296	-200.000	-0.034	0.349
-544.281	225.629	-0.092	-0.149
-543.266	-164.386	-0.187	-0.009
-542.252	-135.580	0.181	0.021
-541.237	-76.653	-0.305	0.107
-540.223	263.081	-0.188	-0.326
-539.208	-200.000	0.060	-0.288
-538.193	-170.820	0.155	-0.005
-537.179	21.833	0.266	-0.216
-536.164	800.000	-0.052	0.155
-535.150	-194.464	-0.046	-0.000
-534.135	-112.486	0.219	0.044
-533.121	0.352	0.171	0.122
-532.106	-22.723	0.213	-0.128
-531.091	-30.789	-0.214	0.120
-530.077	800.000	0.061	-0.259
-529.062	-189.979	0.205	-0.002
-528.048	34.946	-0.288	0.251
-527.033	-163.690	-0.147	-0.007
-526.018	268.937	0.061	-0.106
-525.004	-200.000	-0.009	-0.114
-523.989	-200.000	0.046	0.243
-522.975	-104.081	0.217	-0.050
-521.960	-8.115	-0.076	0.051
-520.945	-119.790	-0.300	0.051
-519.931	319.402	-0.128	0.242
-518.916	726.424	-0.057	-0.151
-517.902	-37.110	-0.229	0.122
-516.887	93.912	0.071	0.080
-515.872	800.000	-0.084	-0.323
-514.858	-99.967	0.093	-0.023
-513.843	-18.568	-0.267	-0.165
-512.829	-180.790	0.355	0.007
-511.814	800.000	0.069	-0.221
-510.799	251.324	0.077	-0.130
-509.785	-174.469	-0.113	-0.003
-508.770	-197.120	0.174	-0.001
-507.756	800.000	0.063	0.237
-506.741	-200.000	-0.001	0.186
-505.726	-74.864	0.172	-0.061
-504.712	-24.230	-0.321	-0.191
-503.697	800.000	-0.095	0.337
-502.683	-90.971	0.111	0.032
-501.668	28.148	0.219	0.184
-500.653	-105.105	0.166	-0.038
-499.639	-5.992	-0.269	0.183
-498.624	187.913	0.096	0.143
-497.610	800.000	0.035	-0.131
-496.595	229.943	0.119	-0.194
-495.581	-50.699	-0.186	-0.087
-494.566	-61.733	-0.099	-0.041
-493.551	-110.566	-0.357	0.073
-492.537	800.000	0.080	-0.232
-491.522	-200.000	0.007	-0.139
-490.508	72.830	0.310	0.322
-489.493	-58.868	0.278	0.120
-488.478	-200.000	0.015	0.355
-487.464	-181.998	-0.101	-0.002
-486.449	20.309	0.034	-0.027
-485.435	-45.995	-0.231	0.113
-484.420	167.348	0.142	-0.201
-483.405	-133.622	0.443	0.055
-482.391	286.624	0.147	-0.264
-481.376	572.771	0.022	0.053
-480.362	185.491	-0.104	0.153
-479.347	-200.000	-0.379	0.000
-478.332	-122.639	-0.173	-0.028
-477.318	417.484	-0.083	0.177
-476.303	-200.000	0.012	0.172
-475.289	-200.000	0.056	-0.457
-474.274	52.910	0.211	-0.200
-473.259	-200.000	0.019	0.156
-472.245	76.633	0.115	0.121
-471.230	-139.603	0.238	-0.025
-470.216	-85.532	0.050	-0.015
-469.201	-133.809	-0.121	-0.015
-468.186	-66.911	-0.272	-0.107
-467.172	78.318	0.211	-0.224
-466.157	-114.118	0.307	-0.059
-465.143	110.388	-0.011	0.014
-464.128	238.222	-0.143	-0.236
-463.113	318.512	0.179	-0.337
-462.099	-24.019	-0.120	-0.071
-461.084	-59.411	-0.281	-0.120
-460.070	-134.986	-0.061	0.007
-459.055	-200.000	0.027	0.271
-458.040	197.566	-0.154	0.233
-457.026	-200.000	0.013	0.185
-456.011	-14.842	0.116	0.074
-454.997	129.701	0.197	0.251
-453.982	-200.000	0.051	0.278
-452.968	-134.230	0.200	0.025
-451.953	627.937	-0.080	-0.201
-450.938	-69.304	-0.434	-0.166
-449.924	-200.000	0.003	-0.243
-448.909	-200.000	0.026	0.128
-447.895	-173.752	0.495	0.015
-446.880	172.586	-0.166	-0.237
-445.865	154.169	0.143	0.195
-444.851	-57.501	0.412	0.179
-443.836	-73.586	-0.217	-0.078
-442.822	755.450	0.023	0.060
-441.807	53.957	-0.210	-0.200
-440.792	-59.434	0.345	-0.147
-439.778	-100.291	0.122	-0.030
-438.763	21.393	0.108	0.087
-437.749	-200.000	0.051	0.284
-436.734	157.895	-0.160	-0.221
-435.719	-200.000	0.003	-0.151
-434.705	-104.132	-0.249	0.057
-433.690	35.774	-0.182	0.159
-432.676	-35.906	0.395	0.212
-431.661	41.966	-0.186	0.167
-430.646	208.289	-0.219	0.339
-429.632	107.535	0.074	0.088
-428.617	-61.177	0.114	0.047
-427.603	-22.007	-0.032	-0.019
-426.588	-200.000	0.021	-0.221
-425.573	-26.419	0.076	-0.044
-424.559	229.338	0.078	0.126
-423.544	-0.554	-0.146	-0.103
-422.530	393.698	-0.139	-0.287
-421.515	46.684	0.143	-0.132
-420.500	-200.000	-0.028	-0.133
-419.486	58.108	0.126	0.123
-418.471	-24.878	0.071	-0.042
-417.457	800.000	-0.045	0.131
-416.442	-200.000	0.040	-0.527
-415.428	-69.605	-0.103	-0.039
-414.413	-48.083	-0.252	-0.121
-413.398	-200.000	-0.004	0.124
-412.384	474.789	-0.144	0.323
-411.369	18.211	0.112	-0.089
-410.355	197.241	0.187	-0.282
-409.340	298.806	-0.082	-0.149
-408.325	-200.000	-0.026	-0.246
-407.311	-185.822	-0.176	0.003
-406.296	-9.320	-0.323	0.214
-405.282	-117.878	-0.083	0.015
-404.267	-32.991	-0.234	0.128
-403.252	545.570	-0.050	0.118
-402.238	-200.000	-0.017	0.228
-401.223	9.822	0.274	-0.206
-400.209	307.459	-0.121	-0.223
-399.194	-40.264	0.226	-0.116
-398.179	20.950	0.108	0.087
-397.165	-200.000	-0.019	-0.201
-396.150	168.387	-0.081	-0.115
-395.136	800.000	-0.094	-0.311
-394.121	800.000	-0.058	-0.184
-393.106	800.000	-0.152	-0.450
-392.092	-99.770	0.399	-0.099
-391.077	125.027	-0.098	0.122
-390.063	-18.503	0.176	-0.109
-389.048	241.193	0.103	0.170
-388.033	253.525	-0.116	-0.195
-387.019	295.642	-0.079	0.143
-386.004	-57.166	-0.388	0.169
-384.990	126.133	0.293	-0.367
-383.975	-84.851	0.306	-0.095
-382.960	542.764	0.130	-0.307
-381.946	51.439	0.089	-0.084
-380.931	132.012	-0.216	0.275
-379.917	140.018	0.222	0.290
-378.902	-200.000	0.057	-0.440
-377.888	169.889	0.063	0.090
-376.873	-200.000	-0.042	0.285
-375.858	-178.822	-0.159	0.004
-374.844	-200.000	-0.000	0.102
-373.829	168.872	0.075	0.106
-372.815	634.948	-0.023	0.058
-371.800	252.560	-0.182	-0.307
-370.785	41.784	0.162	-0.145
-369.771	-170.128	0.363	-0.013
-368.756	-70.177	0.586	-0.220
-367.742	-138.858	0.385	-0.041
-366.727	123.780	-0.297	-0.368
-365.712	17.742	0.179	-0.141
-364.698	-122.351	-0.402	-0.065
-363.683	726.159	-0.046	0.121
-362.669	800.000	0.042	-0.161
-361.654	-145.901	0.203	0.018
-360.639	73.092	0.186	0.192
-359.625	800.000	0.107	-0.341
-358.610	800.000	-0.109	0.297
-357.596	-200.000	0.024	-0.121
-356.581	392.663	-0.120	-0.246
-355.566	545.851	0.151	0.356
-354.552	-93.219	0.188	-0.052
-353.537	-89.969	-0.250	-0.072
-352.523	377.472	-0.062	0.125
-351.508	-93.793	-0.289	0.079
-350.493	-64.882	0.162	0.065
-349.479	-62.301	0.450	0.185
-348.464	-200.000	-0.060	0.299
-347.450	-63.473	-0.191	0.077
-346.435	341.078	0.016	0.032
-345.420	-1.301	-0.211	-0.147
-344.406	-3.753	-0.281	0.193
-343.391	-9.463	-0.247	-0.163
-342.377	18.472	0.137	-0.108
-341.362	-200.000	-0.004	0.299
-340.348	800.000	-0.050	-0.194
-339.333	-200.000	-0.012	-0.099
-338.318	-200.000	-0.003	-0.069
-337.304	171.316	-0.163	-0.232
-336.289	-200.000	0.011	0.231
-335.275	371.479	-0.107	0.215
-334.260	-68.688	-0.188	0.072
-333.245	-169.447	0.274	-0.010
-332.231	-97.014	-0.110	-0.029
-331.216	75.990	0.219	0.229
-330.202	138.877	-0.153	-0.199
-329.187	-200.000	0.016	-0.136
-328.172	576.627	-0.105	-0.253
-327.158	-50.596	0.106	0.049
-326.143	-200.000	0.016	-0.253
-325.129	564.939	-0.076	0.181
-324.114	-200.000	0.012	0.056
-323.099	-97.914	-0.217	-0.055
-322.085	-80.039	0.088	-0.029
-321.070	-124.050	-0.246	-0.038
-320.056	-76.371	-0.426	-0.148
-319.041	-79.831	0.222	0.074
-318.026	-191.911	0.116	0.001
-317.012	-120.675	0.214	-0.036
-315.997	-91.461	0.129	-0.036
-314.983	-14.424	0.040	-0.025
-313.968	-200.000	0.003	0.233
-312.953	586.723	-0.126	0.307
-311.939	583.417	-0.104	0.251
-310.924	233.878	0.212	-0.344
-309.910	336.974	0.098	-0.189
-308.895	-139.024	0.341	0.037
-307.880	277.650	0.080	0.141
-306.866	200.220	0.024	0.037
-305.851	-65.467	0.287	0.114
-304.837	800.000	-0.088	-0.243
-303.822	215.777	-0.081	-0.126
-302.807	-191.091	-0.032	0.000
-301.793	800.000	0.058	0.162
-300.778	140.772	-0.130	-0.170
-299.764	-149.717	-0.091	-0.007
-298.749	76.408	-0.041	-0.043
-297.735	800.000	0.022	-0.091
-296.720	-39.795	0.285	-0.147
-295.705	-61.638	-0.172	0.071
-294.691	250.950	0.109	0.183
-293.676	139.226	-0.212	-0.275
-292.662	131.686	-0.173	0.219
-291.647	-200.000	0.063	-0.310
-290.632	-3.523	-0.120	0.082
-289.618	-200.000	-0.083	-0.372
-288.603	111.793	0.065	0.077
-287.589	58.559	0.105	0.102
-286.574	438.636	0.129	0.277
-285.559	5.828	-0.238	0.174
-284.545	759.799	-0.092	-0.246
-283.530	93.726	0.150	-0.167
-282.516	238.316	0.377	0.617
-281.501	665.441	0.046	0.117
-280.486	347.686	-0.105	-0.205
-279.472	446.929	-0.090	-0.196
-278.457	109.408	-0.175	0.206
-277.443	-45.419	0.312	0.152
-276.428	800.000	-0.112	0.337
-275.413	52.566	0.262	-0.247
-274.399	31.812	0.107	0.091
-273.384	-200.000	0.033	0.211
-272.370	-200.000	-0.003	-0.087
-271.355	-50.431	0.173	0.081
-270.340	157.476	0.099	0.135
-269.326	-6.054	0.129	-0.087
-268.311	111.149	0.172	0.205
-267.297	121.810	0.131	0.161
-266.282	800.000	0.073	0.259
-265.267	213.081	0.083	-0.129
-264.253	-71.239	-0.248	0.092
-263.238	-147.580	-0.278	0.023
-262.224	-200.000	-0.015	-0.122
-261.209	-161.817	0.135	0.007
-260.195	98.850	0.235	-0.267
-259.180	-142.781	0.162	0.015
-258.165	-200.000	-0.034	0.199
-257.151	234.333	0.072	-0.117
-256.136	74.438	-0.254	-0.263
-255.122	-16.636	-0.244	0.152
-254.107	93.723	0.044	-0.049
-253.092	-200.000	-0.002	-0.022
-252.078	-80.738	-0.360	0.118
-251.063	-137.652	0.244	-0.027
-250.049	-200.000	-0.029	0.307
-249.034	2.381	0.343	0.244
-248.019	800.000	0.119	0.366
-247.005	800.000	-0.082	0.318
-245.990	-43.871	0.149	-0.074
-244.976	-107.302	0.279	-0.060
-243.961	65.471	0.148	0.147
-242.946	53.065	0.123	-0.115
-241.932	-200.000	0.086	-0.380
-240.917	-70.832	-0.340	-0.126
-239.903	-15.083	0.132	-0.083
-238.888	-200.000	0.036	0.156
-237.873	202.377	0.090	0.137
-236.859	-200.000	0.039	-0.226
-235.844	257.076	-0.107	0.182
-234.830	-200.000	-0.057	0.398
-233.815	-200.000	0.035	-0.156
-232.800	79.645	0.372	0.393
-231.786	-146.173	-0.221	-0.019
-230.771	725.121	0.036	0.095
-229.757	-200.000	0.037	-0.298
-228.742	37.674	-0.112	-0.098
-227.727	-200.000	-0.034	0.296
-226.713	-122.180	-0.133	0.021
-225.698	-134.362	-0.150	0.018
-224.684	291.390	-0.047	0.084
-223.669	-134.364	0.188	-0.023
-222.655	800.000	0.073	0.265
-221.640	-137.149	-0.271	0.030
-220.625	48.139	0.144	0.132
-219.611	-64.684	0.036	-0.014
-218.596	-157.161	-0.440	0.026
-217.582	48.280	0.203	-0.187
-216.567	223.114	0.143	0.227
-215.552	-88.975	0.202	0.059
-214.538	322.740	-0.035	0.065
-213.523	-29.834	0.346	0.194
-212.509	-91.104	-0.045	-0.013
-211.494	-98.985	-0.208	-0.052
-210.479	52.209	-0.108	-0.101
-209.465	153.841	0.180	-0.243
-208.450	214.670	0.241	0.375
-207.436	800.000	-0.161	0.448
-206.421	-94.311	0.119	-0.032
-205.406	-140.744	-0.066	0.007
-204.392	325.130	-0.020	-0.038
-203.377	-193.511	0.249	0.002
-202.363	-70.380	0.608	0.227
-201.348	233.586	0.141	-0.229
-200.333	-15.912	-0.214	0.134
-199.319	119.544	0.039	0.048
-198.304	-185.480	-0.035	0.001
-197.290	-65.790	-0.406	-0.160
-196.275	800.000	0.157	-0.489
-195.260	-200.000	-0.031	0.140
-194.246	800.000	0.026	-0.076
-193.231	-140.099	-0.467	-0.048
-192.217	115.900	-0.272	0.327
-191.202	-137.224	0.171	-0.019
-190.187	-170.964	-0.188	0.006
-189.173	-200.000	0.058	0.262
-188.158	800.000	-0.011	0.034
-187.144	-134.589	-0.154	-0.019
-186.129	9.592	-0.275	0.205
-185.114	577.102	-0.091	-0.219
-184.100	404.079	0.139	-0.288
-183.085	-200.000	0.017	0.210
-182.071	321.655	0.066	0.124
-181.056	210.126	0.142	-0.220
-180.042	139.978	0.118	0.153
-179.027	289.060	-0.099	0.177
-178.012	-0.533	0.212	0.148
-176.998	74.025	-0.073	0.075
-175.983	-6.975	-0.275	-0.183
-174.969	-200.000	0.019	-0.115
-173.954	-123.531	-0.147	0.023
-172.939	-125.842	-0.321	0.047
-171.925	-151.529	-0.187	-0.014
-170.910	-200.000	0.012	0.255
-169.896	-123.870	-0.272	0.042
-168.881	-153.764	0.355	0.024
-167.866	450.549	0.093	0.201
-166.852	683.328	0.084	-0.214
-165.837	-76.100	0.065	0.022
-164.823	800.000	0.018	0.070
-163.808	119.177	0.070	0.085
-162.793	-200.000	-0.069	0.435
-161.779	-200.000	0.085	0.476
-160.764	-127.201	0.348	-0.050
-159.750	35.170	-0.200	-0.172
-158.735	170.934	0.045	0.063
-157.720	800.000	0.028	-0.120
-156.706	-32.256	-0.198	0.108
-155.691	-61.591	0.134	0.055
-154.677	800.000	-0.074	0.213
-153.662	446.727	0.107	-0.230
-152.647	195.892	-0.206	-0.308
-151.633	227.093	0.150	0.240
-150.618	15.931	0.393	0.303
-149.604	-70.160	0.404	0.151
-148.589	-48.308	-0.158	0.075
-147.574	-106.952	-0.307	0.067
-146.560	69.883	0.244	-0.247
-145.545	800.000	0.071	0.199
-144.531	800.000	-0.033	-0.120
-143.516	99.248	0.194	-0.219
-142.502	122.115	-0.117	0.143
-141.487	-78.814	-0.220	0.074
-140.472	98.541	-0.138	0.156
-139.458	326.205	-0.100	-0.187
-138.443	31.026	-0.198	-0.166
-137.429	-77.055	0.405	0.139
-136.414	-200.000	-0.007	0.041
-135.399	-29.466	-0.042	0.023
-134.385	-200.000	-0.043	-0.288
-133.370	-19.383	0.153	-0.093
-132.356	-200.000	-0.208	-0.001
-131.341	158.747	-0.091	-0.124
-130.326	511.730	-0.031	-0.070
-129.312	-118.533	0.047	0.008
-128.297	-200.000	0.030	-0.245
-127.283	-11.094	-0.233	-0.151
-126.268	-124.788	-0.424	-0.064
-125.253	800.000	0.030	0.101
-124.239	-200.000	-0.014	0.121
-123.224	800.000	0.017	-0.061
-122.210	-126.811	-0.100	0.014
-121.195	7.956	0.115	0.084
