DTS Sentinel unit serial number:	SN413079Multiplexer serial number:	ORYXHardware model number:	OX4-SRSoftware version number:	ORYX F/W v4.00 Oryx Data Collector v3.7.2.0data status	okinstallation	princeton_trtdifferential loss correction	single-endedforward channel	channel 2reverse channel	N/Adate	2019/09/18time	09:55:35forward acquisition time	60.00reverse acquisition time	0.00gamma	496.2192k internal	0.2334k external	0.2334temperature offset calibration	0.9980default loss term (dB/km)	0.3790temperature slope calibration	1.0000multiplexer offset coefficient	1.0000multiplexer slope coefficient	1.0000fibre end	0.00T internal ref (°C)	27.28T ext. ref 1 (°C)	0.30T ext. ref 2 (°C)	24.00length (m)	temperature (°C)	Stokes	anti-Stokes-747.200	-122.182	-0.334	-0.055
-746.185	800.000	0.117	0.409
-745.171	-200.000	-0.003	-0.264
-744.156	-49.182	-0.165	-0.079
-743.142	-106.023	-0.117	0.027
-742.127	-200.000	0.006	0.237
-741.112	-158.740	-0.229	0.013
-740.098	-21.278	0.084	-0.051
-739.083	-90.002	0.148	0.043
-738.069	31.615	-0.256	0.221
-737.054	43.899	0.045	-0.042
-736.039	415.074	-0.049	0.106
-735.025	69.627	-0.242	0.250
-734.010	-200.000	-0.072	0.441
-732.996	-128.953	-0.152	0.021
-731.981	-36.622	0.428	-0.231
-730.966	11.707	-0.061	-0.047
-729.952	23.982	-0.288	-0.239
-728.937	88.767	0.144	-0.161
-727.923	-38.070	0.225	0.120
-726.908	800.000	-0.056	-0.192
-725.894	-193.884	0.497	0.004
-724.879	135.921	-0.233	-0.305
-723.864	800.000	0.015	-0.059
-722.850	342.529	-0.097	0.190
-721.835	-17.459	-0.147	0.093
-720.821	-49.358	0.139	0.067
-719.806	-80.279	0.253	-0.085
-718.791	800.000	-0.047	0.157
-717.777	-32.789	-0.209	0.117
-716.762	-106.682	-0.112	-0.025
-715.748	-123.113	0.123	-0.020
-714.733	-200.000	-0.043	-0.441
-713.718	498.823	0.167	0.385
-712.704	15.092	-0.076	0.060
-711.689	34.595	-0.169	-0.148
-710.675	49.495	0.183	-0.173
-709.660	496.878	0.056	-0.129
-708.645	800.000	-0.038	0.136
-707.631	135.190	0.108	0.141
-706.616	280.157	-0.096	0.172
-705.602	-200.000	-0.060	-0.338
-704.587	16.023	-0.169	0.134
-703.572	21.108	0.324	0.264
-702.558	-144.595	-0.295	0.027
-701.543	-67.776	-0.116	0.045
-700.529	-4.870	0.146	-0.101
-699.514	800.000	-0.067	-0.191
-698.499	-45.830	0.154	-0.076
-697.485	-39.194	-0.430	0.226
-696.470	335.648	0.012	0.023
-695.456	6.520	0.151	-0.113
-694.441	173.970	-0.059	-0.085
-693.426	159.718	-0.139	0.195
-692.412	-112.338	0.210	0.042
-691.397	209.352	0.078	-0.122
-690.383	506.421	0.054	-0.127
-689.368	-200.000	-0.263	0.001
-688.354	161.183	-0.160	-0.224
-687.339	127.275	0.140	0.178
-686.324	55.096	-0.133	0.129
-685.310	-25.143	0.319	0.189
-684.295	-130.926	0.315	-0.042
-683.281	-82.075	0.216	-0.071
-682.266	-200.000	-0.036	0.191
-681.251	800.000	-0.042	-0.161
-680.237	-63.466	0.134	0.055
-679.222	679.364	0.071	-0.185
-678.208	-62.664	-0.134	-0.056
-677.193	-74.417	0.080	0.029
-676.178	800.000	0.062	-0.209
-675.164	-61.285	-0.057	0.024
-674.149	150.631	0.068	0.093
-673.135	-96.417	-0.173	-0.046
-672.120	-200.000	-0.003	-0.343
-671.105	438.662	0.091	0.198
-670.091	-27.186	0.270	0.158
-669.076	-12.933	-0.232	0.151
-668.062	29.523	-0.017	-0.014
-667.047	314.006	0.051	-0.095
-666.032	800.000	0.087	-0.289
-665.018	800.000	-0.087	0.241
-664.003	32.335	0.210	-0.182
-662.989	-200.000	0.083	0.537
-661.974	92.081	-0.050	-0.056
-660.959	114.015	0.071	-0.086
-659.945	-200.000	0.037	-0.214
-658.930	-178.812	-0.105	0.002
-657.916	-200.000	-0.049	-0.238
-656.901	-113.234	0.310	0.061
-655.886	57.185	0.028	-0.027
-654.872	97.685	-0.037	-0.043
-653.857	-122.050	0.275	-0.045
-652.843	-200.000	0.019	-0.312
-651.828	214.546	-0.037	0.058
-650.814	199.835	-0.063	-0.097
-649.799	800.000	-0.079	-0.335
-648.784	-1.259	0.296	-0.210
-647.770	386.239	0.081	0.167
-646.755	-143.352	-0.129	0.012
-645.741	156.321	0.143	0.197
-644.726	-140.894	-0.228	0.023
-643.711	-131.008	-0.153	0.020
-642.697	302.532	0.061	0.113
-641.682	-200.000	-0.015	-0.322
-640.668	344.107	-0.101	0.198
-639.653	-60.201	0.103	0.044
-638.638	-3.790	-0.203	0.141
-637.624	800.000	-0.076	0.267
-636.609	800.000	0.066	0.215
-635.595	-10.913	-0.598	0.395
-634.580	-90.610	-0.407	-0.118
-633.565	-38.285	-0.204	-0.108
-632.551	-61.981	0.187	0.078
-631.536	587.050	0.030	-0.075
-630.522	800.000	-0.045	-0.144
-629.507	83.390	-0.162	-0.176
-628.492	352.305	-0.091	-0.181
-627.478	-164.390	-0.415	0.019
-626.463	-200.000	-0.010	0.134
-625.449	89.623	-0.148	0.166
-624.434	313.734	-0.142	0.267
-623.419	442.361	0.150	0.328
-622.405	-200.000	0.027	-0.241
-621.390	-69.363	-0.241	0.092
-620.376	800.000	-0.101	-0.294
-619.361	-1.561	-0.150	-0.106
-618.346	13.522	0.078	0.061
-617.332	-17.277	-0.174	0.110
-616.317	90.906	0.116	-0.130
-615.303	-200.000	0.055	-0.247
-614.288	800.000	-0.047	0.152
-613.273	70.891	-0.125	-0.130
-612.259	345.859	-0.112	0.220
-611.244	-200.000	-0.002	0.064
-610.230	-107.668	0.231	-0.050
-609.215	-79.565	-0.463	0.156
-608.201	-34.751	-0.372	0.203
-607.186	-200.000	-0.049	0.251
-606.171	-200.000	0.018	0.311
-605.157	28.013	-0.229	-0.193
-604.142	-200.000	-0.032	0.151
-603.128	-200.000	0.005	-0.088
-602.113	800.000	0.052	-0.162
-601.098	-67.906	-0.229	-0.089
-600.084	800.000	-0.038	-0.151
-599.069	113.819	-0.086	0.104
-598.055	-81.201	-0.116	0.038
-597.040	319.094	-0.169	-0.321
-596.025	278.271	-0.053	-0.094
-595.011	45.881	-0.150	-0.139
-593.996	-121.777	-0.064	-0.011
-592.982	-112.020	0.276	0.056
-591.967	-93.400	0.155	0.043
-590.952	800.000	0.061	0.228
-589.938	16.935	-0.056	-0.044
-588.923	800.000	0.056	-0.165
-587.909	-200.000	-0.026	0.351
-586.894	125.586	-0.109	0.138
-585.879	-80.451	0.324	0.108
-584.865	-60.498	0.266	-0.113
-583.850	135.879	0.111	-0.145
-582.836	77.870	0.128	-0.136
-581.821	89.670	0.042	0.047
-580.806	9.598	0.185	-0.140
-579.792	7.742	0.016	0.012
-578.777	684.135	-0.062	-0.161
-577.763	31.236	-0.203	0.174
-576.748	-88.009	0.199	-0.060
-575.733	-200.000	-0.062	-0.276
-574.719	-89.254	-0.274	0.081
-573.704	556.515	-0.191	0.459
-572.690	488.813	-0.101	0.231
-571.675	-200.000	-0.007	-0.087
-570.661	800.000	-0.066	-0.186
-569.646	-200.000	0.025	-0.245
-568.631	55.610	-0.066	-0.064
-567.617	-189.050	-0.184	-0.002
-566.602	-200.000	0.067	0.299
-565.588	-200.000	0.041	0.315
-564.573	-200.000	-0.023	0.145
-563.558	-71.552	-0.250	0.093
-562.544	-1.742	0.263	-0.185
-561.529	800.000	-0.011	0.032
-560.515	165.193	-0.125	-0.176
-559.500	11.542	-0.174	-0.133
-558.485	245.164	-0.190	0.319
-557.471	731.666	-0.085	0.226
-556.456	-200.000	-0.031	0.213
-555.442	-200.000	-0.021	0.238
-554.427	2.562	0.234	-0.169
-553.412	-5.579	-0.102	-0.070
-552.398	-200.000	0.036	0.431
-551.383	-9.049	-0.251	-0.168
-550.369	99.509	0.219	-0.253
-549.354	800.000	-0.042	0.146
-548.339	18.879	0.113	0.090
-547.325	-200.000	0.005	-0.140
-546.310	-200.000	0.058	-0.285
-545.296	153.246	-0.131	0.178
-544.281	-200.000	0.004	0.175
-543.266	-46.829	-0.258	-0.126
-542.252	800.000	-0.094	0.339
-541.237	369.100	-0.080	-0.162
-540.223	-200.000	0.008	0.108
-539.208	-120.567	0.148	0.025
-538.193	-94.877	-0.172	0.047
-537.179	-94.609	-0.109	-0.029
-536.164	-150.345	0.286	0.022
-535.150	85.951	-0.111	-0.122
-534.135	-40.930	0.147	0.076
-533.121	-11.828	-0.108	0.071
-532.106	83.558	0.017	0.018
-531.091	800.000	-0.052	0.180
-530.077	10.954	-0.227	-0.173
-529.062	-161.529	-0.341	-0.017
-528.048	-200.000	0.022	-0.172
-527.033	81.620	-0.123	-0.132
-526.018	-75.673	0.050	0.018
-525.004	582.137	0.082	-0.201
-523.989	-161.496	-0.336	0.017
-522.975	120.161	0.013	0.016
-521.960	-93.630	0.317	-0.087
-520.945	-71.518	0.247	-0.092
-519.931	49.304	0.094	0.089
-518.916	224.635	-0.250	0.404
-517.902	-35.493	-0.304	0.165
-516.887	-200.000	0.070	-0.316
-515.872	-64.337	0.286	-0.116
-514.858	111.355	0.168	0.202
-513.843	252.191	0.240	0.408
-512.829	-75.454	0.184	0.065
-511.814	498.849	0.102	-0.235
-510.799	425.900	-0.063	-0.134
-509.785	-48.313	0.128	-0.062
-508.770	800.000	0.051	-0.169
-507.756	-200.000	-0.010	0.145
-506.741	-200.000	-0.027	0.204
-505.726	-155.817	-0.005	-0.000
-504.712	-153.828	-0.081	0.006
-503.697	198.487	-0.154	-0.234
-502.683	-118.516	0.093	-0.016
-501.668	-24.984	-0.188	0.111
-500.653	800.000	0.019	-0.072
-499.639	140.949	0.120	0.157
-498.624	-159.499	0.152	-0.008
-497.610	-93.774	-0.385	0.106
-496.595	-73.273	0.197	-0.072
-495.581	800.000	-0.070	-0.228
-494.566	-161.056	-0.392	-0.020
-493.551	-19.055	0.096	0.059
-492.537	-38.339	0.214	-0.113
-491.522	-200.000	0.005	0.206
-490.508	-71.229	0.307	0.115
-489.493	800.000	-0.081	-0.229
-488.478	-138.521	0.198	0.022
-487.464	-132.399	0.233	0.030
-486.449	242.647	-0.077	0.129
-485.435	36.689	-0.255	0.225
-484.420	725.033	0.035	0.092
-483.405	411.557	-0.103	-0.217
-482.391	-200.000	-0.031	0.207
-481.376	-85.222	-0.228	0.071
-480.362	292.974	0.098	0.178
-479.347	-200.000	0.027	0.166
-478.332	800.000	-0.060	0.225
-477.318	10.951	0.346	0.263
-476.303	-21.927	-0.003	0.002
-475.289	-87.829	0.274	-0.082
-474.274	-200.000	0.031	-0.143
-473.259	22.476	-0.093	-0.075
-472.245	800.000	-0.036	-0.123
-471.230	-99.197	0.186	0.047
-470.216	-200.000	-0.035	0.288
-469.201	126.499	0.072	0.091
-468.186	-143.585	-0.259	0.024
-467.172	-200.000	0.008	-0.172
-466.157	-200.000	0.048	0.322
-465.143	-94.490	0.205	0.056
-464.128	-40.668	-0.262	0.135
-463.113	78.552	-0.231	0.245
-462.099	121.016	0.257	-0.317
-461.084	51.850	-0.206	0.195
-460.070	-4.916	0.181	0.124
-459.055	51.237	0.349	-0.329
-458.040	-20.239	0.271	0.166
-457.026	-40.342	-0.280	0.145
-456.011	-89.502	0.244	-0.071
-454.997	14.559	-0.180	-0.140
-453.982	596.649	-0.052	-0.127
-452.968	800.000	-0.083	0.351
-451.953	-1.621	0.051	0.036
-450.938	82.785	0.280	-0.302
-449.924	58.134	-0.209	-0.203
-448.909	-200.000	-0.111	-0.530
-447.895	-200.000	0.035	0.165
-446.880	-50.224	0.146	0.069
-445.865	-200.000	0.009	-0.072
-444.851	-124.449	0.278	-0.043
-443.836	371.742	-0.090	0.181
-442.822	119.090	-0.211	0.260
-441.807	456.320	-0.168	-0.370
-440.792	-200.000	-0.022	0.188
-439.778	800.000	-0.016	0.047
-438.763	35.198	-0.253	-0.220
-437.749	93.915	-0.190	0.213
-436.734	226.735	-0.079	-0.128
-435.719	-33.270	0.201	-0.110
-434.705	-85.493	-0.198	0.061
-433.690	-134.561	0.091	0.011
-432.676	-75.047	-0.232	0.082
-431.661	-87.330	0.246	0.074
-430.646	-200.000	-0.004	-0.048
-429.632	1.064	-0.147	0.105
-428.617	-112.373	-0.110	-0.022
-427.603	-32.721	-0.245	-0.135
-426.588	-200.000	0.035	-0.272
-425.573	440.720	-0.087	-0.188
-424.559	92.797	0.156	-0.174
-423.544	-200.000	0.047	0.298
-422.530	112.120	0.242	-0.290
-421.515	-64.082	0.064	0.026
-420.500	-200.000	-0.003	-0.305
-419.486	188.627	-0.160	0.238
-418.471	-46.605	-0.322	-0.157
-417.457	152.199	0.231	0.313
-416.442	-84.041	0.080	-0.025
-415.428	-200.000	0.025	0.155
-414.413	-198.873	-0.518	0.003
-413.398	-60.057	0.251	0.106
-412.384	800.000	-0.093	0.295
-411.369	95.551	0.019	-0.022
-410.355	-28.723	0.183	-0.104
-409.340	80.662	0.064	-0.069
-408.325	800.000	-0.072	0.311
-407.311	-68.482	0.299	-0.115
-406.296	-23.186	-0.408	-0.244
-405.282	56.326	-0.169	-0.163
-404.267	222.003	-0.082	0.130
-403.252	-200.000	0.008	0.050
-402.238	-200.000	0.045	0.287
-401.223	13.084	0.179	-0.137
-400.209	65.054	-0.015	-0.015
-399.194	-76.798	-0.106	0.037
-398.179	-115.020	0.261	0.049
-397.165	800.000	-0.045	0.184
-396.150	-82.586	0.191	0.061
-395.136	95.430	0.072	-0.081
-394.121	-200.000	0.014	0.263
-393.106	44.459	0.106	-0.097
-392.092	-57.085	-0.125	-0.054
-391.077	-81.396	0.164	0.053
-390.063	-200.000	-0.275	0.001
-389.048	67.968	-0.293	-0.297
-388.033	61.362	-0.210	-0.207
-387.019	-123.827	-0.276	-0.043
-386.004	-43.728	0.368	0.184
-384.990	-200.000	0.030	-0.403
-383.975	691.036	-0.080	-0.208
-382.960	-47.735	0.289	-0.139
-381.946	255.334	-0.089	0.151
-380.931	-63.458	0.296	0.120
-379.917	-200.000	-0.022	0.124
-378.902	-137.432	0.236	0.026
-377.888	-200.000	-0.010	-0.429
-376.873	-4.144	0.148	0.102
-375.858	-200.000	-0.022	0.108
-374.844	774.088	-0.041	0.109
-373.829	-200.000	-0.079	0.440
-372.815	-187.734	0.123	-0.002
-371.800	30.357	0.239	-0.203
-370.785	26.747	-0.187	-0.155
-369.771	298.124	0.136	0.248
-368.756	800.000	0.078	-0.217
-367.742	39.599	0.060	0.053
-366.727	-77.490	0.201	-0.069
-365.712	-143.548	-0.296	0.028
-364.698	-139.654	0.220	0.023
-363.683	480.977	0.117	-0.262
-362.669	-120.253	-0.104	-0.018
-361.654	70.860	0.179	-0.184
-360.639	-200.000	0.008	0.091
-359.625	226.167	-0.081	0.130
-358.610	-70.692	-0.073	0.027
-357.596	-41.343	0.176	0.090
-356.581	-55.259	0.206	0.092
-355.566	-126.403	-0.425	0.063
-354.552	107.558	0.015	-0.018
-353.537	-156.638	0.532	-0.033
-352.523	-68.837	-0.086	0.033
-351.508	-200.000	-0.007	0.169
-350.493	-200.000	-0.010	-0.140
-349.479	-104.185	0.074	0.017
-348.464	-0.996	-0.178	-0.125
-347.450	-34.022	0.160	0.087
-346.435	46.884	-0.092	0.085
-345.420	263.253	-0.063	-0.109
-344.406	-200.000	-0.022	-0.398
-343.391	-108.664	0.324	0.069
-342.377	-60.017	-0.376	-0.159
-341.362	-200.000	0.037	-0.308
-340.348	-3.442	-0.093	-0.064
-339.333	-200.000	-0.004	0.027
-338.318	16.352	0.154	-0.120
-337.304	-200.000	0.002	0.279
-336.289	225.584	0.153	-0.246
-335.275	86.230	-0.252	-0.275
-334.260	800.000	0.033	0.091
-333.245	-122.589	-0.139	0.022
-332.231	-3.859	0.087	-0.060
-331.216	416.732	0.056	0.117
-330.202	209.426	0.145	-0.224
-329.187	-200.000	-0.044	0.236
-328.172	-96.395	0.359	0.094
-327.158	800.000	0.029	0.119
-326.143	-20.982	0.169	-0.102
-325.129	214.293	0.175	0.274
-324.114	-141.147	-0.034	-0.003
-323.099	-200.000	0.048	-0.211
-322.085	-91.378	-0.083	-0.024
-321.070	-95.585	-0.113	-0.030
-320.056	-35.340	-0.078	-0.042
-319.041	70.981	0.139	-0.143
-318.026	472.185	0.034	0.075
-317.012	-130.459	0.401	-0.054
-315.997	8.984	-0.127	0.094
-314.983	-48.237	0.167	0.080
-313.968	52.609	0.116	0.109
-312.953	37.310	-0.151	0.132
-311.939	-0.262	0.230	-0.162
-310.924	-72.583	-0.150	-0.055
-309.910	-121.726	0.219	0.036
-308.895	-200.000	0.016	-0.461
-307.880	-200.000	0.006	-0.412
-306.866	53.719	0.304	0.288
-305.851	4.910	0.318	0.231
-304.837	-127.803	0.135	-0.019
-303.822	-200.000	-0.017	0.370
-302.807	58.939	-0.393	0.382
-301.793	506.739	-0.065	-0.148
-300.778	-200.000	-0.054	-0.250
-299.764	-14.490	-0.130	0.082
-298.749	-200.000	0.031	-0.210
-297.735	540.090	-0.135	-0.318
-296.720	107.953	-0.076	0.090
-295.705	-200.000	-0.030	-0.158
-294.691	184.503	0.100	-0.147
-293.676	-75.002	-0.220	-0.078
-292.662	-200.000	0.009	0.186
-291.647	83.497	-0.295	-0.318
-290.632	-200.000	-0.010	-0.109
-289.618	-124.030	-0.266	0.041
-288.603	-61.128	-0.160	-0.067
-287.589	52.173	0.436	-0.410
-286.574	800.000	0.019	-0.075
-285.559	-166.734	-0.112	-0.005
-284.545	2.273	0.262	0.187
-283.530	6.607	0.059	-0.043
-282.516	-200.000	0.006	0.065
-281.501	214.800	0.171	0.268
-280.486	-71.795	0.279	0.103
-279.472	800.000	-0.101	-0.302
-278.457	800.000	0.012	-0.038
-277.443	158.551	-0.077	-0.105
-276.428	-137.392	0.080	-0.009
-275.413	33.110	0.274	-0.234
-274.399	259.667	0.030	-0.052
-273.384	446.853	-0.129	0.279
-272.370	62.646	-0.085	-0.084
-271.355	132.534	-0.065	0.082
-270.340	800.000	0.062	-0.192
-269.326	-113.738	0.363	-0.070
-268.311	-200.000	0.008	0.057
-267.297	-28.386	-0.157	0.089
-266.282	209.070	-0.074	-0.114
-265.267	-200.000	-0.028	-0.363
-264.253	57.929	0.143	0.138
-263.238	543.418	0.047	-0.111
-262.224	800.000	0.033	-0.125
-261.209	100.491	-0.139	0.159
-260.195	-29.279	-0.231	0.131
-259.180	-200.000	0.037	0.234
-258.165	35.068	-0.138	-0.119
-257.151	30.372	0.253	-0.213
-256.136	-118.140	0.185	0.032
-255.122	-57.503	0.232	-0.100
-254.107	-1.044	-0.310	-0.216
-253.092	-89.894	-0.219	-0.063
-252.078	527.110	0.138	-0.321
-251.063	25.593	0.201	0.165
-250.049	-55.016	-0.126	-0.056
-249.034	-200.000	-0.046	-0.222
-248.019	-149.133	0.231	0.018
-247.005	-85.439	0.178	-0.055
-245.990	201.847	-0.064	0.097
-244.976	529.428	0.086	0.201
-243.961	-30.563	0.150	0.083
-242.946	-140.209	-0.260	0.027
-241.932	438.760	-0.205	0.441
-240.917	682.931	0.074	-0.189
-239.903	555.812	-0.059	0.141
-238.888	576.510	-0.096	0.231
-237.873	-33.011	-0.079	-0.043
-236.859	258.764	-0.080	-0.137
-235.844	140.168	0.196	-0.255
-234.830	-154.902	-0.068	-0.004
-233.815	-26.944	0.054	-0.031
-232.800	-200.000	0.002	0.024
-231.786	17.478	0.348	-0.272
-230.771	17.025	0.100	-0.078
-229.757	278.946	0.104	0.183
-228.742	-120.634	-0.231	-0.039
-227.727	44.370	-0.376	0.340
-226.713	800.000	-0.099	0.294
-225.698	512.084	-0.045	-0.102
-224.684	-97.688	-0.088	-0.022
-223.669	-84.645	-0.147	0.046
-222.655	-21.571	0.216	0.130
-221.640	87.804	0.147	-0.161
-220.625	215.554	0.049	0.077
-219.611	-93.040	0.349	0.096
-218.596	19.045	-0.092	-0.072
-217.582	-100.785	0.354	0.086
-216.567	-12.727	-0.224	-0.144
-215.552	-115.681	-0.105	0.019
-214.538	-25.387	-0.241	-0.141
-213.523	-200.000	0.006	0.036
-212.509	57.947	0.101	0.097
-211.494	-141.348	0.183	0.018
-210.479	-200.000	-0.017	0.095
-209.465	-134.740	0.220	0.026
-208.450	-200.000	-0.038	-0.249
-207.436	-200.000	0.041	-0.340
-206.421	-161.837	-0.380	0.019
-205.406	-13.959	0.101	0.064
-204.392	-110.767	0.285	0.058
-203.377	-0.290	0.193	-0.135
-202.363	-161.731	0.118	-0.006
-201.348	-10.975	0.232	0.151
-200.333	20.023	-0.129	-0.102
-199.319	-51.699	0.287	0.132
-198.304	173.600	0.108	0.154
-197.290	16.935	-0.162	0.127
-196.275	-200.000	-0.017	0.188
-195.260	800.000	0.057	0.206
-194.246	-36.590	0.117	-0.062
-193.231	364.234	-0.170	0.337
-192.217	-160.897	0.164	0.008
-191.202	-53.836	-0.194	-0.087
-190.187	7.043	0.062	0.046
-189.173	-52.674	0.139	-0.063
-188.158	127.795	0.087	-0.108
-187.144	-64.146	0.232	0.093
-186.129	-84.744	0.211	0.065
-185.114	411.789	-0.041	-0.086
-184.100	-37.252	0.164	-0.086
-183.085	227.678	0.158	-0.253
-182.071	65.962	-0.070	-0.070
-181.056	-38.009	0.133	-0.069
-180.042	-37.333	-0.485	0.255
-179.027	12.897	0.221	-0.168
-178.012	800.000	-0.043	0.153
-176.998	-200.000	-0.054	-0.248
-175.983	26.790	0.241	-0.199
-174.969	-143.224	-0.220	-0.021
-173.954	2.527	-0.132	-0.094
-172.939	143.789	0.127	-0.167
-171.925	-55.028	-0.200	-0.089
-170.910	353.016	-0.066	-0.129
-169.896	790.012	-0.132	0.357
-168.881	-116.639	-0.026	-0.005
-167.866	800.000	-0.028	-0.121
-166.852	800.000	-0.047	-0.140
-165.837	-160.607	-0.351	-0.018
-164.823	191.927	0.102	-0.151
-163.808	254.258	0.190	0.319
-162.793	-132.404	-0.205	-0.026
-161.779	7.145	0.172	0.126
-160.764	442.868	0.035	0.074
-159.750	-63.953	0.008	-0.003
-158.735	-26.105	-0.280	-0.162
-157.720	27.179	0.050	-0.041
-156.706	-200.000	-0.002	-0.017
-155.691	-39.825	0.206	0.106
-154.677	-94.643	0.308	-0.082
-153.662	-2.938	0.192	0.132
-152.647	800.000	-0.018	-0.050
-151.633	800.000	-0.041	-0.136
-150.618	60.536	-0.258	0.251
-149.604	-106.736	-0.088	0.019
-148.589	-99.986	-0.134	-0.033
-147.574	-126.725	-0.128	0.019
-146.560	-92.142	0.161	0.045
-145.545	-9.044	0.168	-0.111
-144.531	152.033	0.097	0.129
-143.516	800.000	-0.036	0.122
-142.502	-52.873	-0.103	0.047
-141.487	-200.000	-0.030	0.199
-140.472	800.000	-0.132	0.482
-139.458	466.954	-0.097	0.214
-138.443	-65.531	0.308	-0.121
-137.429	-107.509	0.225	0.048
-136.414	-57.399	0.119	0.051
-135.399	-8.664	0.281	0.185
-134.385	-70.147	-0.292	0.109
-133.370	198.242	0.179	0.268
-132.356	-85.646	0.240	-0.073
-131.341	-99.904	-0.350	0.086
-130.326	-64.406	0.070	0.028
-129.312	247.331	-0.047	-0.078
-128.297	749.331	-0.055	0.147
-127.283	-125.374	0.387	-0.058
-126.268	-7.683	0.155	0.103
-125.253	295.962	0.011	0.020
-124.239	516.928	0.031	0.070
-123.224	-46.069	0.050	-0.024
-122.210	-154.867	0.311	-0.020
-121.195	30.631	0.168	-0.141
-120.180	-54.586	-0.179	-0.080
