DTS Sentinel unit serial number:	SN413079Multiplexer serial number:	ORYXHardware model number:	OX4-SRSoftware version number:	ORYX F/W v4.00 Oryx Data Collector v3.7.2.0data status	okinstallation	princeton_trtdifferential loss correction	single-endedforward channel	channel 2reverse channel	N/Adate	2019/09/16time	03:35:35forward acquisition time	60.00reverse acquisition time	0.00gamma	496.2192k internal	0.2334k external	0.2334temperature offset calibration	0.9971default loss term (dB/km)	0.3790temperature slope calibration	1.0000multiplexer offset coefficient	1.0000multiplexer slope coefficient	1.0000fibre end	0.00T internal ref (°C)	27.64T ext. ref 1 (°C)	10.60T ext. ref 2 (°C)	21.72length (m)	temperature (°C)	Stokes	anti-Stokes-747.200	4.579	-0.340	0.251
-746.185	465.320	-0.187	0.420
-745.171	451.201	-0.084	-0.186
-744.156	73.670	0.148	0.156
-743.142	-69.189	-0.260	0.101
-742.127	-200.000	-0.009	0.143
-741.112	800.000	-0.115	-0.343
-740.098	-200.000	-0.031	0.418
-739.083	-200.000	-0.026	0.116
-738.069	-200.000	0.193	-0.000
-737.054	800.000	-0.015	0.043
-736.039	34.317	-0.205	0.180
-735.025	-27.911	0.162	0.094
-734.010	-124.550	0.106	0.017
-732.996	-41.061	-0.310	-0.161
-731.981	-56.148	0.442	0.198
-730.966	72.435	-0.144	0.151
-729.952	241.897	-0.233	0.392
-728.937	146.462	-0.125	0.168
-727.923	800.000	-0.127	-0.371
-726.908	171.175	0.262	-0.377
-725.894	800.000	0.018	-0.065
-724.879	591.461	0.052	0.128
-723.864	800.000	-0.052	0.151
-722.850	-103.910	-0.190	0.045
-721.835	-200.000	-0.093	0.460
-720.821	25.440	-0.088	0.074
-719.806	800.000	-0.049	-0.212
-718.791	38.906	-0.127	-0.114
-717.777	-17.592	0.242	0.153
-716.762	640.551	-0.102	-0.261
-715.748	-1.537	-0.151	0.107
-714.733	165.856	-0.112	-0.160
-713.718	170.417	0.138	0.198
-712.704	713.931	0.053	0.142
-711.689	121.173	-0.161	-0.201
-710.675	-13.211	-0.296	-0.193
-709.660	800.000	-0.048	-0.192
-708.645	-80.710	-0.088	0.029
-707.631	-80.937	0.352	-0.117
-706.616	36.221	-0.091	-0.081
-705.602	-14.263	-0.258	0.167
-704.587	59.472	0.218	-0.215
-703.572	170.948	0.089	0.128
-702.558	784.834	0.015	-0.042
-701.543	229.150	0.130	0.212
-700.529	13.703	0.197	0.154
-699.514	158.358	0.218	-0.304
-698.499	-72.302	-0.120	0.045
-697.485	-169.270	-0.253	-0.009
-696.470	-29.252	-0.265	-0.153
-695.456	-14.927	-0.123	0.079
-694.441	800.000	0.059	0.191
-693.426	-49.529	0.146	-0.070
-692.412	-200.000	0.011	0.104
-691.397	-62.863	-0.390	-0.162
-690.383	130.339	-0.146	-0.188
-689.368	63.177	-0.170	0.171
-688.354	-119.951	-0.086	0.015
-687.339	181.104	-0.041	-0.060
-686.324	-56.189	-0.066	-0.030
-685.310	-89.616	-0.227	0.067
-684.295	179.469	-0.063	-0.092
-683.281	544.678	-0.011	0.027
-682.266	-89.160	-0.023	0.007
-681.251	80.728	-0.159	0.172
-680.237	78.648	0.204	0.219
-679.222	800.000	0.129	0.357
-678.208	-97.902	0.338	-0.087
-677.193	-200.000	0.039	-0.255
-676.178	800.000	-0.074	-0.245
-675.164	800.000	-0.085	-0.272
-674.149	-162.705	-0.202	0.010
-673.135	-54.762	0.097	0.044
-672.120	-189.366	-0.152	-0.002
-671.105	-200.000	-0.060	-0.463
-670.091	-60.492	-0.182	-0.078
-669.076	323.245	0.116	0.222
-668.062	-79.890	0.195	0.066
-667.047	-32.441	-0.276	0.154
-666.032	-100.917	-0.218	0.054
-665.018	-57.968	-0.050	-0.022
-664.003	186.224	0.091	-0.136
-662.989	470.531	-0.079	-0.177
-661.974	-200.000	0.022	-0.167
-660.959	462.863	-0.037	0.083
-659.945	800.000	-0.019	-0.081
-658.930	-8.211	0.472	-0.318
-657.916	-200.000	-0.015	0.282
-656.901	-54.381	0.397	-0.180
-655.886	96.154	-0.304	-0.348
-654.872	14.699	0.122	-0.096
-653.857	19.550	0.286	-0.230
-652.843	-200.000	0.017	-0.216
-651.828	-179.703	0.213	-0.005
-650.814	-25.419	0.261	0.154
-649.799	-21.271	-0.275	-0.169
-648.784	800.000	0.075	0.222
-647.770	41.216	0.159	-0.144
-646.755	195.537	0.147	0.224
-645.741	800.000	-0.044	-0.134
-644.726	228.832	0.029	0.048
-643.711	-61.814	0.326	0.137
-642.697	-114.940	0.089	0.017
-641.682	115.851	0.118	0.145
-640.668	347.438	-0.080	-0.158
-639.653	79.211	-0.141	0.151
-638.638	12.470	0.058	-0.045
-637.624	-200.000	-0.038	-0.226
-636.609	-144.482	-0.216	-0.020
-635.595	-200.000	-0.026	0.158
-634.580	-56.215	-0.197	0.088
-633.565	566.480	0.075	-0.182
-632.551	19.032	0.215	-0.173
-631.536	-200.000	-0.036	0.158
-630.522	-8.389	0.291	-0.196
-629.507	309.587	-0.080	0.149
-628.492	-200.000	0.010	-0.219
-627.478	121.452	0.211	-0.264
-626.463	583.584	0.110	-0.271
-625.449	-53.667	0.217	-0.099
-624.434	800.000	-0.022	-0.073
-623.419	-200.000	-0.009	0.377
-622.405	-200.000	-0.066	0.394
-621.390	178.472	0.017	0.024
-620.376	200.582	0.145	0.223
-619.361	58.704	-0.112	0.110
-618.346	56.753	-0.069	-0.067
-617.332	31.377	-0.210	-0.180
-616.317	3.848	-0.303	-0.221
-615.303	232.764	-0.184	-0.302
-614.288	-23.313	0.216	0.130
-613.273	-31.541	0.190	-0.107
-612.259	-200.000	-0.015	-0.083
-611.244	130.185	-0.075	-0.096
-610.230	450.956	0.056	-0.124
-609.215	800.000	-0.075	-0.247
-608.201	-200.000	0.051	-0.253
-607.186	-95.642	0.240	0.064
-606.171	-200.000	-0.002	0.035
-605.157	640.040	-0.072	0.183
-604.142	9.304	0.095	0.072
-603.128	105.945	0.138	-0.163
-602.113	-64.163	-0.137	0.056
-601.098	800.000	0.029	-0.109
-600.084	132.174	-0.194	0.250
-599.069	204.283	-0.335	0.520
-598.055	41.881	-0.064	-0.058
-597.040	-200.000	0.001	-0.337
-596.025	-77.194	-0.198	0.069
-595.011	-200.000	-0.031	0.222
-593.996	109.596	-0.112	0.134
-592.982	-35.374	-0.180	0.098
-591.967	67.715	0.179	-0.183
-590.952	-200.000	0.015	-0.130
-589.938	-49.903	-0.142	0.067
-588.923	82.884	0.160	0.174
-587.909	-19.331	-0.193	0.120
-586.894	73.573	0.109	0.114
-585.879	-129.958	-0.225	0.031
-584.865	314.578	-0.059	-0.111
-583.850	-200.000	0.012	-0.066
-582.836	96.300	0.155	-0.177
-581.821	-200.000	-0.004	0.046
-580.806	191.618	-0.113	-0.170
-579.792	39.635	0.169	0.151
-578.777	800.000	0.004	0.014
-577.763	-200.000	0.005	-0.057
-576.748	-28.542	-0.086	-0.049
-575.733	-31.071	0.195	-0.110
-574.719	-68.995	-0.360	0.138
-573.704	16.823	0.161	-0.127
-572.690	-70.825	0.193	-0.073
-571.675	269.411	-0.027	-0.047
-570.661	-200.000	0.080	-0.387
-569.646	-36.938	-0.249	-0.133
-568.631	-6.927	-0.195	0.132
-567.617	605.466	-0.103	-0.256
-566.602	-98.372	-0.311	-0.080
-565.588	-200.000	0.053	-0.308
-564.573	188.395	-0.089	-0.133
-563.558	-181.700	-0.225	-0.004
-562.544	-24.457	0.198	0.118
-561.529	-200.000	0.020	0.226
-560.515	800.000	0.122	-0.438
-559.500	-118.329	-0.238	-0.042
-558.485	800.000	0.028	0.120
-557.471	-79.284	0.202	-0.068
-556.456	-135.785	0.194	-0.023
-555.442	390.566	0.079	0.164
-554.427	-63.486	-0.141	0.058
-553.412	-155.638	-0.125	0.008
-552.398	-131.834	-0.224	0.029
-551.383	-200.000	-0.057	0.283
-550.369	-200.000	-0.033	0.208
-549.354	-76.351	0.093	-0.033
-548.339	-200.000	0.003	-0.094
-547.325	-144.973	-0.095	-0.009
-546.310	43.814	0.185	-0.169
-545.296	125.565	-0.346	-0.435
-544.281	-88.668	-0.173	-0.051
-543.266	-44.623	0.083	0.041
-542.252	13.807	0.229	-0.178
-541.237	-49.360	0.144	0.069
-540.223	61.965	-0.100	0.099
-539.208	-200.000	0.012	-0.133
-538.193	-200.000	-0.050	-0.372
-537.179	-56.489	-0.180	-0.080
-536.164	-49.652	0.214	0.102
-535.150	-76.915	-0.105	-0.037
-534.135	443.619	-0.164	0.359
-533.121	-200.000	0.033	-0.150
-532.106	121.289	0.065	-0.081
-531.091	-102.253	-0.105	-0.025
-530.077	-20.475	-0.131	0.080
-529.062	-200.000	-0.019	-0.530
-528.048	800.000	-0.050	-0.198
-527.033	-200.000	0.025	-0.175
-526.018	800.000	0.080	-0.303
-525.004	800.000	0.106	0.372
-523.989	-120.594	-0.085	0.014
-522.975	248.611	-0.114	-0.192
-521.960	83.526	-0.045	0.048
-520.945	-24.589	0.317	0.188
-519.931	800.000	-0.041	0.150
-518.916	-200.000	-0.030	-0.168
-517.902	800.000	-0.097	-0.361
-516.887	-200.000	-0.062	0.361
-515.872	14.907	-0.270	0.210
-514.858	-155.660	0.037	-0.002
-513.843	-9.311	0.249	0.166
-512.829	256.806	-0.032	-0.054
-511.814	80.160	0.110	0.118
-510.799	173.220	0.048	0.069
-509.785	-200.000	0.007	0.103
-508.770	-6.709	0.233	-0.158
-507.756	-189.642	0.195	-0.002
-506.741	595.163	0.068	0.168
-505.726	-169.057	0.320	0.012
-504.712	-200.000	0.038	0.293
-503.697	32.228	-0.074	0.064
-502.683	-200.000	-0.003	0.067
-501.668	10.944	0.152	-0.116
-500.653	-73.024	0.087	-0.032
-499.639	633.590	0.130	0.328
-498.624	169.640	-0.230	-0.327
-497.610	-200.000	-0.084	-0.609
-496.595	-144.819	-0.249	0.023
-495.581	9.219	-0.086	0.065
-494.566	13.552	-0.100	-0.077
-493.551	-200.000	-0.057	-0.362
-492.537	170.443	-0.258	0.367
-491.522	-187.214	0.306	0.004
-490.508	425.091	-0.079	0.169
-489.493	114.403	-0.178	0.216
-488.478	-38.283	-0.407	-0.215
-487.464	344.476	-0.169	0.330
-486.449	462.771	-0.082	0.182
-485.435	-103.207	-0.075	-0.018
-484.420	-19.664	0.386	-0.237
-483.405	-200.000	0.042	-0.000
-482.391	-125.698	0.224	-0.034
-481.376	-180.984	0.319	0.006
-480.362	169.333	-0.037	0.053
-479.347	10.093	0.212	0.160
-478.332	307.258	0.132	-0.245
-477.318	-144.070	-0.200	0.019
-476.303	-9.876	0.223	0.148
-475.289	300.062	-0.179	-0.328
-474.274	-143.899	-0.252	-0.024
-473.259	264.515	0.030	-0.052
-472.245	-200.000	0.004	-0.056
-471.230	800.000	-0.035	0.135
-470.216	621.837	-0.106	0.264
-469.201	-83.768	0.524	-0.166
-468.186	800.000	-0.059	0.193
-467.172	-200.000	0.033	-0.153
-466.157	163.990	-0.072	-0.100
-465.143	-47.424	-0.158	0.077
-464.128	-200.000	0.001	-0.126
-463.113	21.236	-0.237	-0.191
-462.099	-200.000	0.053	0.430
-461.084	59.936	0.123	0.120
-460.070	790.303	-0.172	0.471
-459.055	-67.762	-0.341	0.133
-458.040	573.734	-0.133	0.322
-457.026	-200.000	0.018	-0.097
-456.011	-200.000	0.050	-0.248
-454.997	1.543	-0.292	0.208
-453.982	-200.000	-0.008	0.243
-452.968	-117.883	-0.200	-0.036
-451.953	-200.000	0.002	-0.303
-450.938	81.028	0.102	0.110
-449.924	-82.559	0.176	-0.057
-448.909	-178.354	0.236	0.005
-447.895	-148.728	-0.272	0.022
-446.880	160.193	0.107	0.148
-445.865	-200.000	0.009	-0.149
-444.851	-111.843	0.127	-0.026
-443.836	318.324	0.106	0.199
-442.822	-200.000	-0.027	0.259
-441.807	569.063	0.028	-0.069
-440.792	-50.134	0.122	-0.057
-439.778	-51.179	0.323	-0.150
-438.763	51.140	0.197	-0.186
-437.749	-74.576	-0.207	0.074
-436.734	-144.974	-0.192	0.017
-435.719	-73.456	-0.351	0.127
-434.705	-200.000	-0.036	0.200
-433.690	51.362	-0.100	0.094
-432.676	263.960	0.138	-0.239
-431.661	138.765	0.202	0.263
-430.646	-86.081	0.307	0.094
-429.632	800.000	-0.102	-0.369
-428.617	-200.000	0.016	-0.163
-427.603	-92.070	0.098	-0.028
-426.588	-200.000	-0.019	0.309
-425.573	-33.486	0.186	0.102
-424.559	800.000	0.054	0.150
-423.544	19.752	-0.155	-0.124
-422.530	-97.466	0.322	0.083
-421.515	-69.794	-0.017	0.006
-420.500	-200.000	0.023	0.277
-419.486	800.000	0.051	0.141
-418.471	563.961	0.028	-0.067
-417.457	66.787	0.061	0.061
-416.442	-131.528	-0.020	0.003
-415.428	-55.503	0.109	0.048
-414.413	179.058	-0.063	0.091
-413.398	-53.492	-0.148	0.067
-412.384	800.000	-0.111	0.448
-411.369	-2.568	0.186	0.129
-410.355	-200.000	0.005	0.040
-409.340	433.597	-0.070	-0.151
-408.325	-147.573	-0.039	-0.003
-407.311	599.330	-0.053	-0.131
-406.296	38.653	-0.124	-0.110
-405.282	-87.594	0.118	0.035
-404.267	177.312	-0.113	0.163
-403.252	-107.899	0.241	0.052
-402.238	336.263	0.126	-0.243
-401.223	-69.057	-0.165	0.063
-400.209	-141.036	0.399	0.041
-399.194	169.791	0.074	-0.105
-398.179	-176.852	-0.201	-0.005
-397.165	393.745	-0.079	0.164
-396.150	-200.000	-0.002	-0.032
-395.136	307.858	-0.128	0.236
-394.121	-200.000	0.051	0.318
-393.106	-200.000	-0.023	-0.114
-392.092	31.634	0.086	-0.073
-391.077	-200.000	-0.000	-0.007
-390.063	800.000	0.116	-0.327
-389.048	620.164	-0.030	0.076
-388.033	-100.370	0.338	-0.083
-387.019	-29.094	0.107	-0.061
-386.004	-60.295	-0.245	-0.103
-384.990	-200.000	-0.007	-0.117
-383.975	58.019	-0.071	-0.068
-382.960	-200.000	-0.034	0.195
-381.946	-200.000	-0.023	-0.247
-380.931	-152.227	-0.046	-0.003
-379.917	-28.622	-0.102	-0.058
-378.902	-190.238	-0.137	-0.001
-377.888	-200.000	0.005	0.040
-376.873	242.216	-0.099	0.163
-375.858	619.900	-0.067	0.166
-374.844	-64.856	0.321	-0.129
-373.829	-85.536	-0.243	0.075
-372.815	-143.552	0.317	-0.030
-371.800	37.140	-0.297	0.261
-370.785	396.991	-0.189	-0.391
-369.771	317.945	-0.126	0.236
-368.756	157.961	-0.012	-0.016
-367.742	-200.000	0.017	-0.077
-366.727	800.000	-0.102	-0.331
-365.712	121.389	0.128	-0.158
-364.698	800.000	0.091	0.303
-363.683	6.185	-0.129	0.095
-362.669	800.000	0.035	-0.101
-361.654	-29.141	-0.352	-0.200
-360.639	-59.206	-0.252	0.108
-359.625	-54.446	0.217	0.097
-358.610	-55.498	0.155	-0.069
-357.596	-123.164	0.165	0.026
-356.581	-106.708	-0.155	-0.034
-355.566	130.723	-0.049	-0.062
-354.552	153.536	-0.172	-0.233
-353.537	800.000	-0.124	-0.384
-352.523	46.687	-0.138	-0.127
-351.508	196.524	0.164	0.247
-350.493	214.112	-0.079	0.123
-349.479	-200.000	0.014	0.257
-348.464	-110.814	0.318	-0.065
-347.450	-63.800	-0.228	-0.092
-346.435	211.676	0.032	0.051
-345.420	-33.056	-0.225	-0.123
-344.406	74.635	-0.141	-0.147
-343.391	-59.394	0.356	0.151
-342.377	290.014	-0.088	-0.159
-341.362	134.236	0.030	-0.038
-340.348	-104.579	0.211	-0.048
-339.333	87.325	-0.042	-0.046
-338.318	-115.881	0.412	-0.076
-337.304	294.298	0.145	-0.262
-336.289	800.000	0.074	0.204
-335.275	530.369	-0.071	-0.166
-334.260	294.718	0.143	-0.259
-333.245	-62.631	-0.361	-0.148
-332.231	-88.070	0.113	-0.034
-331.216	51.730	-0.219	0.206
-330.202	-112.919	0.300	-0.059
-329.187	-6.433	-0.259	0.175
-328.172	-165.883	-0.213	0.009
-327.158	-90.328	0.167	0.048
-326.143	217.743	-0.083	-0.131
-325.129	246.089	-0.101	-0.168
-324.114	-186.997	0.077	-0.001
-323.099	431.617	0.161	0.344
-322.085	800.000	-0.015	-0.048
-321.070	195.340	0.043	0.065
-320.056	12.131	0.076	-0.058
-319.041	657.127	0.104	0.265
-318.026	122.160	0.139	0.171
-317.012	-28.588	0.291	-0.166
-315.997	-200.000	-0.018	0.146
-314.983	-200.000	0.033	0.243
-313.968	-200.000	-0.060	0.507
-312.953	-111.538	-0.200	-0.040
-311.939	-200.000	0.032	0.184
-310.924	65.990	-0.052	0.052
-309.910	29.097	0.158	0.132
-308.895	-163.003	0.378	0.018
-307.880	-200.000	-0.002	0.092
-306.866	800.000	-0.053	-0.146
-305.851	-24.280	0.129	0.076
-304.837	78.612	-0.079	0.083
-303.822	-98.066	-0.112	-0.028
-302.807	266.016	-0.057	-0.099
-301.793	-200.000	-0.025	0.159
-300.778	800.000	-0.017	0.057
-299.764	-106.042	-0.083	0.019
-298.749	652.249	-0.027	0.068
-297.735	-200.000	-0.036	0.189
-296.720	-200.000	-0.013	0.104
-295.705	-37.429	-0.025	-0.013
-294.691	688.219	-0.093	-0.241
-293.676	-156.723	-0.524	-0.032
-292.662	-132.274	0.199	-0.025
-291.647	222.939	0.180	-0.287
-290.632	-58.969	0.044	-0.019
-289.618	-200.000	-0.017	-0.213
-288.603	-60.796	0.142	-0.059
-287.589	800.000	0.049	-0.184
-286.574	396.394	0.082	0.170
-285.559	-13.906	-0.168	0.107
-284.545	323.831	-0.040	0.075
-283.530	666.849	0.025	-0.064
-282.516	-29.748	-0.033	-0.019
-281.501	41.706	0.175	-0.157
-280.486	-90.049	-0.360	-0.104
-279.472	800.000	-0.030	0.124
-278.457	-72.549	0.352	-0.128
-277.443	-200.000	-0.027	0.207
-276.428	-118.705	-0.463	-0.081
-275.413	-200.000	0.053	0.233
-274.399	33.484	0.292	0.250
-273.384	94.490	0.313	0.351
-272.370	137.696	0.078	0.101
-271.355	-200.000	0.041	-0.336
-270.340	423.531	0.106	0.225
-269.326	-200.000	-0.061	-0.301
-268.311	-30.313	0.258	-0.145
-267.297	-200.000	-0.017	0.128
-266.282	-131.846	-0.261	0.034
-265.267	-82.922	0.094	-0.030
-264.253	-200.000	0.034	0.391
-263.238	334.071	0.037	-0.070
-262.224	-1.734	-0.333	-0.231
-261.209	204.619	-0.117	-0.179
-260.195	-200.000	-0.071	-0.384
-259.180	-200.000	0.015	0.222
-258.165	190.096	-0.148	-0.220
-257.151	-40.327	0.037	-0.019
-256.136	65.596	-0.207	-0.207
-255.122	-200.000	0.021	0.187
-254.107	21.823	0.184	0.148
-253.092	100.805	-0.106	-0.121
-252.078	172.197	0.065	-0.093
-251.063	241.151	-0.009	-0.015
-250.049	-200.000	0.006	0.159
-249.034	-68.457	0.178	0.068
-248.019	36.122	-0.164	0.142
-247.005	800.000	0.024	-0.068
-245.990	47.180	0.245	0.225
-244.976	1.384	0.157	-0.111
-243.961	-33.995	-0.427	-0.231
-242.946	774.699	0.171	-0.461
-241.932	-34.507	-0.175	-0.095
-240.917	-82.370	0.180	0.058
-239.903	-200.000	-0.018	-0.161
-238.888	800.000	0.101	-0.380
-237.873	186.658	-0.064	-0.094
-236.859	332.918	0.132	-0.252
-235.844	-53.454	-0.097	-0.044
-234.830	-69.729	-0.405	-0.152
-233.815	800.000	-0.014	-0.061
-232.800	-74.456	-0.111	-0.039
-231.786	-126.481	0.394	-0.058
-230.771	-200.000	0.011	0.061
-229.757	-172.457	-0.266	-0.008
-228.742	-71.957	-0.206	0.075
-227.727	-200.000	0.001	0.365
-226.713	-112.435	-0.120	-0.024
-225.698	-111.553	0.119	0.024
-224.684	52.709	-0.087	0.082
-223.669	3.009	-0.236	-0.169
-222.655	-16.996	-0.113	-0.070
-221.640	143.818	0.108	-0.142
-220.625	284.553	0.138	-0.244
-219.611	5.077	-0.258	0.187
-218.596	399.770	0.052	0.107
-217.582	32.401	-0.228	-0.194
-216.567	-64.927	0.182	-0.072
-215.552	132.648	-0.126	-0.160
-214.538	-172.658	0.399	-0.012
-213.523	84.043	-0.111	-0.119
-212.509	145.986	-0.102	0.135
-211.494	-5.543	0.149	0.101
-210.479	602.212	-0.048	0.117
-209.465	25.306	-0.096	-0.079
-208.450	-104.645	-0.162	0.037
-207.436	309.079	0.067	-0.123
-206.421	-200.000	0.028	0.174
-205.406	-200.000	0.022	-0.164
-204.392	-41.423	0.337	0.171
-203.377	-7.412	0.089	-0.059
-202.363	-194.259	-0.184	0.001
-201.348	-137.029	-0.017	-0.002
-200.333	294.397	0.013	-0.023
-199.319	-150.495	0.336	0.025
-198.304	101.095	-0.291	0.333
-197.290	-121.644	-0.540	0.088
-196.275	420.933	-0.093	0.197
-195.260	-108.800	0.106	-0.022
-194.246	464.386	-0.038	-0.083
-193.231	-200.000	-0.060	-0.266
-192.217	221.567	-0.066	0.105
-191.202	800.000	-0.064	-0.190
-190.187	-52.710	0.154	0.070
-189.173	52.465	0.201	0.189
-188.158	-200.000	-0.031	0.219
-187.144	-6.672	0.128	0.086
-186.129	-109.348	0.206	-0.043
-185.114	266.213	-0.101	0.174
-184.100	110.562	0.154	0.182
-183.085	-22.261	0.300	0.179
-182.071	3.120	0.059	-0.042
-181.056	509.347	0.133	0.305
-180.042	-200.000	0.003	-0.070
-179.027	235.837	0.172	0.279
-178.012	340.435	0.085	-0.163
-176.998	206.984	0.092	0.141
-175.983	-147.321	-0.338	0.028
-174.969	-40.875	-0.484	-0.246
-173.954	65.312	0.119	-0.118
-172.939	-200.000	-0.006	-0.068
-171.925	-119.940	-0.411	-0.069
-170.910	57.322	0.328	-0.315
-169.896	800.000	-0.028	0.099
-168.881	169.029	-0.081	0.113
-167.866	7.460	0.082	-0.060
-166.852	-200.000	0.010	0.059
-165.837	-88.655	0.322	-0.094
-164.823	312.568	-0.042	0.078
-163.808	295.161	-0.063	-0.114
-162.793	133.191	0.146	0.185
-161.779	108.122	0.175	0.205
-160.764	87.492	0.204	0.222
-159.750	-122.316	-0.306	0.049
-158.735	298.656	0.166	0.301
-157.720	15.772	0.259	0.200
-156.706	800.000	-0.064	-0.247
-155.691	-139.578	-0.169	-0.018
-154.677	-17.648	0.328	0.202
-153.662	85.815	0.067	0.072
-152.647	30.890	0.098	-0.083
-151.633	92.360	0.156	-0.172
-150.618	-8.278	0.430	0.284
-149.604	114.521	-0.312	0.373
-148.589	800.000	0.062	0.247
-147.574	-200.000	0.071	-0.436
-146.560	413.756	-0.096	0.201
-145.545	65.499	0.190	0.188
-144.531	70.129	0.482	-0.488
-143.516	-143.239	0.350	-0.033
-142.502	61.674	-0.150	-0.147
-141.487	-200.000	0.034	-0.270
-140.472	-44.181	0.126	-0.062
-139.458	-26.363	-0.112	0.065
-138.443	800.000	-0.068	0.214
-137.429	-182.940	0.346	0.006
-136.414	800.000	0.080	0.271
-135.399	-58.380	0.041	-0.018
-134.385	-107.595	0.145	-0.031
-133.370	-200.000	0.022	0.252
-132.356	547.083	-0.034	0.080
-131.341	15.922	-0.163	-0.126
-130.326	-118.021	-0.518	-0.091
-129.312	51.827	0.215	-0.200
-128.297	241.884	0.008	-0.013
-127.283	-200.000	0.057	0.605
-126.268	94.713	-0.060	0.067
-125.253	-129.216	0.131	0.018
-124.239	-56.393	0.129	0.056
-123.224	-78.444	-0.027	0.009
-122.210	-5.430	-0.157	0.106
