DTS Sentinel unit serial number:	SN413079Multiplexer serial number:	ORYXHardware model number:	OX4-SRSoftware version number:	ORYX F/W v4.00 Oryx Data Collector v3.7.2.0data status	okinstallation	princeton_trtdifferential loss correction	single-endedforward channel	channel 2reverse channel	N/Adate	2019/09/13time	08:19:35forward acquisition time	60.00reverse acquisition time	0.00gamma	496.2192k internal	0.2333k external	0.2333temperature offset calibration	1.0194default loss term (dB/km)	0.3790temperature slope calibration	1.0000multiplexer offset coefficient	1.0000multiplexer slope coefficient	1.0000fibre end	0.00T internal ref (°C)	27.25T ext. ref 1 (°C)	4.28T ext. ref 2 (°C)	23.22length (m)	temperature (°C)	Stokes	anti-Stokes-747.200	800.000	-0.086	0.303
-746.185	23.877	0.244	0.202
-745.171	800.000	-0.074	0.221
-744.156	800.000	-0.035	0.099
-743.142	-143.650	-0.083	0.008
-742.127	5.382	-0.145	0.107
-741.112	-143.978	0.195	0.018
-740.098	-200.000	-0.008	0.185
-739.083	773.292	0.153	0.420
-738.069	82.919	-0.100	0.109
-737.054	-136.892	-0.107	0.012
-736.039	8.816	-0.219	-0.166
-735.025	-200.000	-0.001	0.119
-734.010	-129.359	-0.190	-0.027
-732.996	69.432	-0.300	-0.310
-731.981	170.320	-0.088	0.127
-730.966	-129.821	-0.231	0.032
-729.952	-2.129	-0.259	0.182
-728.937	-163.153	0.140	0.007
-727.923	-144.966	0.165	0.015
-726.908	-139.676	0.451	0.048
-725.894	16.732	-0.247	0.197
-724.879	96.696	-0.297	-0.342
-723.864	-153.304	0.138	0.010
-722.850	141.854	-0.010	-0.013
-721.835	-200.000	-0.026	0.210
-720.821	-85.698	0.349	0.109
-719.806	-133.186	0.182	0.023
-718.791	-11.398	-0.341	0.225
-717.777	20.238	-0.013	-0.010
-716.762	-200.000	0.003	0.246
-715.748	-77.025	-0.258	-0.090
-714.733	800.000	-0.027	-0.097
-713.718	67.505	0.171	-0.176
-712.704	800.000	-0.064	-0.233
-711.689	125.580	-0.126	-0.160
-710.675	-200.000	0.019	-0.146
-709.660	-200.000	-0.025	0.182
-708.645	34.343	0.208	-0.182
-707.631	-137.106	-0.255	0.029
-706.616	-60.233	-0.275	-0.118
-705.602	800.000	0.069	0.222
-704.587	-200.000	0.019	0.152
-703.572	48.116	-0.112	-0.105
-702.558	-69.345	-0.150	-0.058
-701.543	-104.324	0.063	0.015
-700.529	155.486	-0.053	0.073
-699.514	38.500	0.052	0.046
-698.499	-189.309	0.270	0.003
-697.485	70.981	0.101	-0.105
-696.470	20.968	0.203	0.165
-695.456	-94.294	-0.145	0.040
-694.441	620.501	-0.078	-0.196
-693.426	-72.470	0.323	0.120
-692.412	172.308	-0.048	-0.070
-691.397	-132.900	-0.400	0.051
-690.383	86.355	0.165	-0.182
-689.368	-55.238	-0.192	-0.087
-688.354	-33.302	0.136	-0.076
-687.339	-178.302	0.221	0.005
-686.324	-200.000	0.037	-0.248
-685.310	800.000	-0.064	-0.243
-684.295	592.124	0.037	-0.092
-683.281	-200.000	0.044	-0.230
-682.266	-100.926	-0.293	0.072
-681.251	-11.436	0.209	-0.138
-680.237	-83.859	-0.104	-0.033
-679.222	-119.253	-0.171	0.030
-678.208	227.039	0.094	-0.153
-677.193	-11.828	-0.246	-0.162
-676.178	-80.256	-0.139	0.046
-675.164	-200.000	0.080	-0.387
-674.149	31.011	-0.226	0.194
-673.135	-6.529	0.064	-0.044
-672.120	-119.575	0.117	0.020
-671.105	159.934	-0.187	0.261
-670.091	-125.488	-0.307	-0.047
-669.076	-107.163	-0.119	0.026
-668.062	166.355	0.171	-0.243
-667.047	-159.519	-0.120	-0.007
-666.032	21.775	0.015	0.012
-665.018	13.632	0.179	-0.139
-664.003	387.125	0.019	0.038
-662.989	-200.000	0.054	0.321
-661.974	21.953	0.165	-0.134
-660.959	-200.000	-0.002	0.033
-659.945	114.593	-0.029	0.035
-658.930	101.046	0.101	-0.118
-657.916	-43.735	-0.158	-0.080
-656.901	349.546	-0.122	0.241
-655.886	-55.694	-0.291	0.131
-654.872	762.302	0.075	0.205
-653.857	-200.000	-0.002	0.142
-652.843	317.695	0.107	0.203
-651.828	-200.000	0.010	-0.143
-650.814	800.000	-0.069	0.221
-649.799	-183.107	-0.146	0.003
-648.784	800.000	-0.017	-0.057
-647.770	246.167	-0.121	-0.204
-646.755	-114.738	-0.456	-0.087
-645.741	-113.362	-0.073	-0.014
-644.726	-139.905	-0.094	0.010
-643.711	488.542	0.173	-0.395
-642.697	800.000	0.058	0.159
-641.682	-73.059	-0.256	-0.094
-640.668	670.105	0.175	-0.452
-639.653	239.520	0.103	-0.171
-638.638	-108.754	-0.171	-0.037
-637.624	160.964	0.058	0.082
-636.609	-43.293	-0.326	-0.165
-635.595	-72.346	0.282	0.104
-634.580	-200.000	-0.001	0.155
-633.565	289.787	0.169	0.307
-632.551	105.643	-0.187	0.221
-631.536	195.368	-0.185	0.281
-630.522	-101.824	-0.264	-0.064
-629.507	-171.455	-0.122	0.004
-628.492	340.207	-0.114	0.223
-627.478	-157.792	-0.468	-0.028
-626.463	19.753	0.320	0.258
-625.449	-200.000	0.016	0.332
-624.434	395.854	0.095	0.198
-623.419	-162.490	-0.103	-0.005
-622.405	-109.814	0.307	-0.064
-621.390	42.620	-0.042	-0.038
-620.376	-200.000	-0.053	0.349
-619.361	149.359	0.143	-0.193
-618.346	8.341	-0.226	0.170
-617.332	-71.577	-0.160	0.060
-616.317	-98.047	-0.085	-0.022
-615.303	-200.000	0.007	0.074
-614.288	287.849	-0.067	0.122
-613.273	-200.000	0.034	0.203
-612.259	-20.847	0.119	0.073
-611.244	-45.605	0.303	-0.150
-610.230	-35.555	-0.060	0.033
-609.215	74.199	0.060	-0.063
-608.201	-200.000	-0.119	0.000
-607.186	-200.000	-0.020	0.716
-606.171	-149.337	-0.177	-0.014
-605.157	-66.516	-0.182	-0.072
-604.142	-200.000	0.006	-0.047
-603.128	-196.764	0.191	0.001
-602.113	-55.405	-0.062	0.028
-601.098	433.597	-0.089	-0.192
-600.084	168.352	-0.155	0.221
-599.069	-105.777	0.054	0.012
-598.055	439.676	0.058	0.126
-597.040	-117.271	0.228	0.041
-596.025	-135.620	0.331	-0.039
-595.011	103.633	-0.102	0.120
-593.996	-56.226	-0.051	-0.023
-592.982	147.799	-0.158	-0.213
-591.967	224.593	0.103	0.166
-590.952	103.979	-0.209	-0.245
-589.938	668.140	-0.100	-0.257
-588.923	9.022	0.051	-0.038
-587.909	800.000	-0.052	0.177
-586.894	469.163	-0.175	0.392
-585.879	-200.000	0.048	0.298
-584.865	-20.742	-0.286	-0.175
-583.850	792.829	0.038	-0.104
-582.836	-200.000	0.059	0.460
-581.821	-66.279	0.161	-0.064
-580.806	-200.000	-0.031	0.189
-579.792	-57.383	-0.300	-0.132
-578.777	50.174	0.206	-0.194
-577.763	242.452	0.145	-0.243
-576.748	248.531	0.070	0.119
-575.733	758.942	0.043	-0.115
-574.719	800.000	-0.045	-0.173
-573.704	800.000	0.036	0.134
-572.690	-102.134	-0.045	0.011
-571.675	-39.521	0.242	0.126
-570.661	639.755	0.065	0.164
-569.646	208.712	-0.166	-0.259
-568.631	-24.672	0.138	-0.082
-567.617	-161.780	-0.184	0.009
-566.602	-171.831	-0.266	-0.009
-565.588	800.000	-0.037	-0.144
-564.573	3.613	0.170	-0.124
-563.558	170.961	-0.087	-0.124
-562.544	301.233	-0.163	0.301
-561.529	31.462	0.062	-0.054
-560.515	-55.491	-0.191	0.086
-559.500	-96.825	-0.170	0.045
-558.485	-73.355	0.165	0.060
-557.471	-200.000	-0.002	-0.008
-556.456	-84.102	-0.417	-0.132
-555.442	-114.207	0.249	-0.048
-554.427	-169.511	0.165	-0.006
-553.412	640.984	0.085	-0.217
-552.398	800.000	0.038	-0.159
-551.383	170.880	-0.170	0.244
-550.369	-113.498	0.260	0.051
-549.354	-5.174	-0.062	0.043
-548.339	800.000	0.037	0.153
-547.325	-38.400	-0.153	-0.081
-546.310	-200.000	0.014	0.153
-545.296	800.000	-0.148	0.414
-544.281	800.000	-0.034	-0.096
-543.266	10.391	0.123	-0.094
-542.252	800.000	-0.105	0.367
-541.237	-22.626	0.312	-0.188
-540.223	-64.683	-0.116	-0.047
-539.208	29.659	-0.132	-0.112
-538.193	-200.000	0.018	0.190
-537.179	-200.000	0.039	-0.250
-536.164	-200.000	0.017	-0.140
-535.150	-38.900	0.103	-0.054
-534.135	-78.246	0.312	-0.107
-533.121	-200.000	0.012	0.155
-532.106	149.286	0.034	0.046
-531.091	81.694	0.246	0.266
-530.077	-200.000	0.387	-0.000
-529.062	-129.181	-0.243	-0.034
-528.048	-200.000	-0.073	-0.512
-527.033	236.900	-0.138	-0.227
-526.018	-92.462	0.155	0.044
-525.004	-75.197	0.191	-0.068
-523.989	-200.000	0.003	-0.229
-522.975	389.114	-0.119	0.245
-521.960	397.254	0.116	-0.241
-520.945	38.765	0.314	0.280
-519.931	-9.468	-0.216	-0.144
-518.916	301.249	-0.081	-0.150
-517.902	-103.530	0.099	0.023
-516.887	800.000	0.079	-0.243
-515.872	-51.197	-0.133	0.062
-514.858	-111.772	-0.378	-0.076
-513.843	-118.215	-0.245	-0.044
-512.829	236.456	0.040	0.066
-511.814	355.805	-0.079	0.156
-510.799	247.557	0.182	-0.307
-509.785	-134.642	0.135	-0.016
-508.770	-85.588	-0.252	-0.078
-507.756	-20.765	0.418	0.255
-506.741	262.872	0.167	0.289
-505.726	-70.736	0.182	0.068
-504.712	-79.951	-0.121	0.040
-503.697	168.965	0.161	0.229
-502.683	-3.459	-0.132	-0.091
-501.668	147.214	0.138	0.185
-500.653	299.586	0.129	0.236
-499.639	-5.005	-0.073	0.050
-498.624	-74.516	-0.273	-0.098
-497.610	-111.666	-0.253	-0.051
-496.595	-39.007	0.222	-0.117
-495.581	800.000	-0.030	-0.103
-494.566	-128.462	-0.262	-0.037
-493.551	-125.918	-0.142	-0.021
-492.537	390.801	-0.033	-0.067
-491.522	20.181	-0.159	0.127
-490.508	277.249	0.048	-0.084
-489.493	473.173	0.165	-0.370
-488.478	-114.879	-0.304	0.058
-487.464	-77.628	-0.526	-0.181
-486.449	-200.000	0.028	-0.219
-485.435	-200.000	0.022	-0.163
-484.420	-35.299	0.230	-0.124
-483.405	-200.000	-0.007	-0.042
-482.391	800.000	-0.067	0.273
-481.376	181.863	0.257	-0.377
-480.362	-200.000	0.044	-0.235
-479.347	-106.247	0.328	0.073
-478.332	56.227	0.237	0.229
-477.318	800.000	-0.109	-0.414
-476.303	-200.000	-0.017	-0.211
-475.289	64.685	-0.292	0.293
-474.274	-71.496	0.264	-0.098
-473.259	-58.044	-0.459	-0.199
-472.245	800.000	-0.014	-0.054
-471.230	-78.921	-0.285	0.097
-470.216	-200.000	-0.073	-0.480
-469.201	-14.039	0.300	-0.193
-468.186	-82.670	-0.285	0.092
-467.172	81.396	-0.128	0.138
-466.157	-92.389	0.369	-0.103
-465.143	800.000	0.088	-0.285
-464.128	-93.157	0.215	0.059
-463.113	-200.000	0.025	0.219
-462.099	89.241	-0.107	0.118
-461.084	51.227	0.176	0.166
-460.070	19.089	-0.238	-0.190
-459.055	-85.405	-0.277	-0.086
-458.040	-200.000	0.054	0.400
-457.026	240.372	0.081	-0.134
-456.011	-30.605	0.250	0.141
-454.997	-52.057	-0.141	0.065
-453.982	-17.447	0.270	-0.169
-452.968	-191.968	0.269	-0.003
-451.953	512.564	-0.011	-0.025
-450.938	-48.785	-0.166	-0.079
-449.924	-50.351	0.121	0.057
-448.909	-106.784	0.478	-0.106
-447.895	64.943	0.013	0.013
-446.880	-200.000	0.010	0.086
-445.865	14.015	-0.032	-0.024
-444.851	4.175	0.222	-0.161
-443.836	-98.605	0.077	0.019
-442.822	-136.407	0.112	0.013
-441.807	242.358	-0.139	-0.231
-440.792	234.406	-0.017	-0.028
-439.778	800.000	-0.023	-0.075
-438.763	-113.590	-0.184	-0.036
-437.749	-94.528	0.094	-0.025
-436.734	-200.000	0.006	0.362
-435.719	122.865	0.186	-0.231
-434.705	151.130	0.146	-0.197
-433.690	-200.000	-0.037	0.303
-432.676	21.250	-0.366	-0.295
-431.661	-108.231	-0.192	-0.041
-430.646	-200.000	-0.043	0.231
-429.632	7.244	0.110	-0.082
-428.617	11.124	0.145	0.110
-427.603	-51.848	0.196	-0.090
-426.588	124.385	0.041	0.052
-425.573	-200.000	-0.000	0.004
-424.559	-91.221	0.154	-0.044
-423.544	355.668	-0.046	0.091
-422.530	-131.746	-0.212	-0.028
-421.515	-47.394	0.152	-0.073
-420.500	49.616	-0.153	0.143
-419.486	406.155	-0.077	0.162
-418.471	-200.000	-0.004	-0.154
-417.457	-200.000	-0.001	-0.005
-416.442	62.630	0.110	0.109
-415.428	76.001	0.128	-0.135
-414.413	-149.770	0.199	0.016
-413.398	800.000	-0.032	0.116
-412.384	-20.271	0.109	0.066
-411.369	-92.192	0.191	-0.053
-410.355	36.329	0.211	-0.184
-409.340	-4.643	0.166	0.114
-408.325	800.000	-0.023	-0.085
-407.311	-0.112	-0.118	-0.083
-406.296	-22.743	-0.019	0.011
-405.282	-62.908	0.108	0.044
-404.267	57.415	0.190	-0.184
-403.252	-14.360	-0.322	-0.206
-402.238	-200.000	-0.024	-0.330
-401.223	165.808	0.095	0.133
-400.209	209.875	-0.137	-0.212
-399.194	-200.000	-0.016	-0.384
-398.179	-97.590	0.164	-0.042
-397.165	142.017	0.185	0.243
-396.150	800.000	0.080	0.279
-395.136	-109.312	0.267	-0.056
-394.121	54.252	-0.216	0.206
-393.106	716.946	0.112	0.295
-392.092	-200.000	-0.066	0.372
-391.077	-135.153	-0.188	0.022
-390.063	222.691	0.089	0.143
-389.048	180.289	0.236	0.343
-388.033	110.915	-0.075	0.089
-387.019	-200.000	-0.000	0.022
-386.004	800.000	-0.105	0.320
-384.990	248.118	-0.109	0.183
-383.975	-200.000	-0.015	-0.164
-382.960	89.914	0.121	0.134
-381.946	-200.000	-0.007	-0.147
-380.931	15.447	-0.347	0.270
-379.917	-200.000	0.103	0.460
-378.902	800.000	-0.067	-0.255
-377.888	26.945	0.147	-0.122
-376.873	-37.654	0.310	-0.164
-375.858	-200.000	0.001	-0.168
-374.844	800.000	0.073	-0.218
-373.829	-147.289	0.228	-0.019
-372.815	-70.043	0.349	-0.132
-371.800	-59.871	0.248	0.105
-370.785	540.275	-0.077	0.181
-369.771	-124.048	0.307	-0.048
-368.756	-171.311	0.259	-0.009
-367.742	322.794	0.172	0.325
-366.727	-103.209	-0.053	-0.012
-365.712	800.000	-0.031	0.121
-364.698	5.637	-0.124	-0.090
-363.683	329.969	0.111	-0.212
-362.669	34.223	0.090	0.078
-361.654	-41.444	0.278	-0.142
-360.639	450.476	-0.051	-0.111
-359.625	9.154	0.124	0.093
-358.610	137.318	-0.213	0.276
-357.596	-172.286	0.171	-0.005
-356.581	-143.687	-0.488	-0.046
-355.566	0.587	-0.171	0.121
-354.552	163.200	0.093	-0.129
-353.537	130.432	0.055	0.069
-352.523	800.000	-0.062	-0.192
-351.508	-156.330	0.056	0.003
-350.493	-200.000	-0.011	0.063
-349.479	-34.871	0.113	0.061
-348.464	-66.217	0.230	0.091
-347.450	-16.473	0.134	-0.084
-346.435	265.440	-0.133	0.229
-345.420	129.069	-0.093	0.117
-344.406	-200.000	0.006	-0.170
-343.391	50.698	0.068	0.063
-342.377	-14.624	-0.297	0.189
-341.362	-6.550	0.255	-0.172
-340.348	-48.375	-0.014	-0.007
-339.333	439.443	-0.119	0.257
-338.318	50.384	-0.111	-0.104
-337.304	800.000	-0.040	0.171
-336.289	107.608	0.212	0.250
-335.275	109.285	-0.093	-0.110
-334.260	396.635	0.063	-0.131
-333.245	-200.000	-0.033	0.447
-332.231	47.210	0.185	0.171
-331.216	85.921	-0.070	-0.076
-330.202	374.465	0.117	-0.235
-329.187	-200.000	0.003	0.066
-328.172	-102.422	0.155	0.037
-327.158	63.403	-0.117	-0.116
-326.143	-28.700	0.282	-0.160
-325.129	-49.591	0.222	0.104
-324.114	-200.000	0.023	0.197
-323.099	70.179	-0.062	0.063
-322.085	800.000	-0.024	0.068
-321.070	0.753	-0.126	0.089
-320.056	-200.000	0.003	-0.025
-319.041	-200.000	0.101	-0.479
-318.026	-107.755	-0.080	-0.017
-317.012	-133.235	0.211	-0.026
-315.997	-166.592	-0.090	0.004
-314.983	-160.370	-0.255	0.014
-313.968	-200.000	-0.038	-0.194
-312.953	84.947	0.187	-0.202
-311.939	-61.379	0.107	-0.044
-310.924	-43.476	-0.063	0.031
-309.910	574.072	-0.042	-0.101
-308.895	-39.939	-0.184	0.095
-307.880	-33.537	0.423	0.231
-306.866	-27.342	0.298	-0.172
-305.851	-174.774	0.085	-0.002
-304.837	255.605	0.085	0.144
-303.822	-32.437	-0.212	0.117
-302.807	-37.323	-0.138	-0.073
-301.793	35.542	-0.154	0.133
-300.778	-104.628	-0.071	0.016
-299.764	164.698	-0.097	-0.135
-298.749	-63.852	-0.323	0.131
-297.735	800.000	-0.088	-0.284
-296.720	784.980	-0.050	-0.134
-295.705	471.638	0.064	-0.142
-294.691	293.098	0.179	0.323
-293.676	-97.413	0.194	-0.050
-292.662	-109.553	-0.523	0.109
-291.647	450.979	-0.057	0.124
-290.632	-200.000	-0.023	0.157
-289.618	-30.182	-0.187	0.105
-288.603	116.852	0.247	-0.300
-287.589	-200.000	-0.043	0.336
-286.574	-200.000	-0.001	0.078
-285.559	800.000	-0.044	0.136
-284.545	-142.445	0.031	0.003
-283.530	67.531	-0.156	-0.157
-282.516	74.152	-0.137	-0.142
-281.501	-154.385	0.295	-0.020
-280.486	130.180	-0.027	-0.035
-279.472	527.582	-0.120	0.279
-278.457	-34.079	-0.058	0.031
-277.443	-24.621	0.180	-0.106
-276.428	-18.722	-0.362	-0.223
-275.413	-25.260	-0.165	0.097
-274.399	800.000	0.091	-0.324
-273.384	126.562	0.295	-0.369
-272.370	-70.679	0.103	0.038
-271.355	-133.040	0.262	-0.033
-270.340	-70.510	-0.111	-0.042
-269.326	-184.486	-0.064	-0.001
-268.311	-20.501	0.053	0.032
-267.297	98.286	-0.322	0.366
-266.282	66.422	-0.147	-0.148
-265.267	95.072	-0.120	-0.134
-264.253	-200.000	-0.022	0.202
-263.238	-51.614	-0.178	0.082
-262.224	-98.995	-0.221	0.055
-261.209	-50.176	-0.487	0.227
-260.195	-155.569	-0.090	-0.006
-259.180	-200.000	0.021	-0.140
-258.165	-200.000	-0.017	-0.097
-257.151	-80.605	-0.519	-0.170
-256.136	83.356	0.006	0.007
-255.122	-92.862	-0.537	-0.148
-254.107	-16.296	-0.230	-0.144
-253.092	304.486	0.216	-0.396
-252.078	-139.180	-0.180	-0.019
-251.063	-200.000	0.050	-0.417
-250.049	-200.000	-0.044	-0.242
-249.034	498.578	0.083	-0.188
-248.019	-59.555	-0.165	0.070
-247.005	-88.039	-0.154	-0.046
-245.990	-200.000	-0.012	-0.166
-244.976	-128.118	-0.095	0.013
-243.961	-200.000	-0.017	0.145
-242.946	-200.000	-0.032	0.356
-241.932	-175.716	0.221	-0.006
-240.917	237.921	-0.069	0.113
-239.903	522.597	0.113	-0.262
-238.888	-19.656	0.135	0.082
-237.873	-200.000	-0.034	0.233
-236.859	800.000	-0.099	0.316
-235.844	800.000	0.077	-0.235
-234.830	800.000	-0.102	-0.281
-233.815	-200.000	-0.020	-0.223
-232.800	-200.000	-0.015	0.096
-231.786	-76.714	-0.024	0.008
-230.771	379.270	0.243	0.490
-229.757	159.619	-0.104	0.143
-228.742	-55.622	-0.159	-0.070
-227.727	-46.139	-0.199	-0.096
-226.713	-200.000	-0.024	-0.157
-225.698	-7.254	-0.176	0.117
-224.684	-200.000	-0.068	0.347
-223.669	-198.457	0.198	0.001
-222.655	-13.612	0.276	-0.176
-221.640	282.155	-0.187	-0.330
-220.625	800.000	-0.031	-0.133
-219.611	127.617	0.236	0.295
-218.596	-200.000	-0.059	0.273
-217.582	-200.000	0.052	0.299
-216.567	4.395	-0.182	0.131
-215.552	-42.212	-0.076	0.038
-214.538	58.046	-0.105	0.101
-213.523	-48.344	-0.186	-0.088
-212.509	-200.000	-0.064	-0.422
-211.494	-175.258	0.281	-0.008
-210.479	-45.225	0.183	-0.089
-209.465	-23.227	0.127	-0.075
-208.450	800.000	-0.019	0.063
-207.436	-4.791	0.092	-0.063
-206.421	-33.953	0.295	0.160
-205.406	31.353	-0.079	0.067
-204.392	-144.876	-0.143	0.013
-203.377	293.660	-0.061	-0.109
-202.363	21.997	0.056	0.045
-201.348	63.975	0.084	-0.083
-200.333	547.035	0.029	0.069
-199.319	232.177	0.113	-0.182
-198.304	800.000	-0.044	-0.129
-197.290	209.853	0.138	0.214
-196.275	-99.506	0.364	0.090
-195.260	-80.340	-0.089	0.029
-194.246	-70.495	0.220	-0.082
-193.231	426.411	0.175	-0.371
-192.217	400.342	-0.055	-0.113
-191.202	5.837	0.198	0.144
-190.187	792.409	0.136	0.369
-189.173	-69.992	0.167	-0.063
-188.158	-80.539	-0.139	-0.046
-187.144	207.410	0.132	0.203
-186.129	-174.627	-0.133	0.004
-185.114	261.819	-0.086	-0.146
-184.100	356.103	0.153	0.299
-183.085	6.755	-0.153	-0.112
-182.071	-177.815	0.194	-0.005
-181.056	-38.917	-0.187	0.097
-180.042	-102.950	0.280	-0.065
-179.027	425.095	0.082	-0.174
-178.012	-200.000	-0.028	0.273
-176.998	728.605	0.077	0.201
-175.983	-61.697	-0.114	-0.047
-174.969	26.248	-0.359	-0.295
-173.954	146.891	-0.149	-0.196
-172.939	-70.367	0.173	-0.064
-171.925	576.168	-0.081	0.194
-170.910	-120.563	-0.261	-0.044
-169.896	-24.012	0.271	0.160
-168.881	39.076	0.141	0.124
-167.866	-11.576	-0.134	-0.086
-166.852	130.220	-0.101	0.128
-165.837	-200.000	-0.004	-0.112
-164.823	-121.327	-0.143	-0.024
-163.808	20.017	-0.050	0.040
-162.793	-69.296	-0.145	-0.055
-161.779	-200.000	0.059	-0.436
-160.764	-59.274	-0.269	0.114
-159.750	303.231	0.140	-0.255
-158.735	-200.000	0.009	0.298
-157.720	800.000	-0.077	-0.220
-156.706	-159.711	0.291	0.016
-155.691	112.286	0.040	-0.047
-154.677	-40.957	-0.115	0.059
-153.662	-65.685	-0.199	0.078
-152.647	-109.350	0.074	0.016
-151.633	-43.581	0.219	-0.109
-150.618	-63.761	-0.319	-0.128
-149.604	123.170	-0.089	-0.109
-148.589	-102.546	0.240	-0.056
-147.574	738.293	-0.136	-0.357
-146.560	-92.592	0.136	0.037
-145.545	-200.000	0.006	0.082
-144.531	196.957	0.173	0.259
-143.516	-9.246	-0.272	-0.179
-142.502	163.895	0.077	0.106
-141.487	-120.344	0.356	0.059
-140.472	-144.630	-0.130	-0.012
-139.458	-199.661	0.264	-0.001
-138.443	-167.229	-0.144	0.006
-137.429	-85.179	-0.134	-0.041
-136.414	-152.793	0.284	0.020
-135.399	800.000	0.062	-0.179
-134.385	-137.608	0.202	0.022
-133.370	-200.000	-0.003	0.260
-132.356	800.000	0.158	0.519
-131.341	-33.133	0.331	-0.180
-130.326	86.593	-0.043	-0.046
-129.312	369.267	-0.147	-0.293
-128.297	-144.736	-0.116	0.010
-127.283	800.000	0.029	0.106
-126.268	-200.000	0.030	0.144
-125.253	100.012	-0.045	0.051
-124.239	108.626	-0.189	0.221
-123.224	32.848	0.191	0.162
-122.210	-168.771	-0.234	0.009
