DTS Sentinel unit serial number:	SN413079Multiplexer serial number:	ORYXHardware model number:	OX4-SRSoftware version number:	ORYX F/W v4.00 Oryx Data Collector v3.7.2.0data status	okinstallation	princeton_trtdifferential loss correction	single-endedforward channel	channel 2reverse channel	N/Adate	2019/09/14time	12:03:35forward acquisition time	60.00reverse acquisition time	0.00gamma	496.2192k internal	0.2308k external	0.2308temperature offset calibration	1.0155default loss term (dB/km)	0.3790temperature slope calibration	1.0000multiplexer offset coefficient	1.0000multiplexer slope coefficient	1.0000fibre end	0.00T internal ref (°C)	37.50T ext. ref 1 (°C)	4.68T ext. ref 2 (°C)	34.38length (m)	temperature (°C)	Stokes	anti-Stokes-747.200	433.137	0.017	-0.036
-746.185	133.131	-0.010	-0.014
-745.171	800.000	0.133	0.379
-744.156	-61.620	-0.094	0.040
-743.142	229.153	-0.168	0.279
-742.127	-200.000	-0.013	0.245
-741.112	35.170	0.048	0.042
-740.098	58.295	-0.120	-0.119
-739.083	426.522	-0.120	0.262
-738.069	99.612	-0.434	0.510
-737.054	-11.113	0.103	0.069
-736.039	287.525	-0.210	-0.387
-735.025	-34.609	-0.115	0.064
-734.010	-200.000	-0.036	-0.195
-732.996	125.722	-0.234	-0.300
-731.981	800.000	-0.022	-0.092
-730.966	14.869	-0.114	0.091
-729.952	721.216	-0.049	0.133
-728.937	-62.019	-0.089	0.038
-727.923	800.000	-0.044	-0.172
-726.908	52.510	-0.147	-0.143
-725.894	-159.354	-0.268	-0.015
-724.879	718.734	-0.090	-0.242
-723.864	52.900	-0.233	-0.226
-722.850	360.336	0.061	0.124
-721.835	-200.000	0.029	-0.129
-720.821	-116.414	0.101	-0.019
-719.806	-200.000	0.023	-0.389
-718.791	800.000	0.089	-0.253
-717.777	-66.056	-0.122	0.049
-716.762	-16.055	-0.107	-0.069
-715.748	52.546	-0.253	-0.245
-714.733	-34.126	0.123	0.069
-713.718	-155.622	-0.034	-0.002
-712.704	571.686	0.098	-0.241
-711.689	-127.751	0.239	-0.035
-710.675	-112.113	-0.134	-0.027
-709.660	-163.496	0.098	-0.005
-708.645	-200.000	0.011	-0.117
-707.631	111.902	0.158	-0.194
-706.616	-44.244	-0.397	-0.202
-705.602	-13.449	-0.178	0.117
-704.587	-3.784	-0.136	-0.096
-703.572	606.489	0.115	0.291
-702.558	-200.000	0.037	0.375
-701.543	-57.617	-0.250	-0.111
-700.529	-34.064	-0.202	0.113
-699.514	-200.000	0.030	-0.196
-698.499	-160.720	-0.219	-0.012
-697.485	800.000	0.043	-0.139
-696.470	54.903	-0.217	-0.212
-695.456	-133.827	0.269	-0.034
-694.441	-200.000	-0.005	-0.406
-693.426	-147.233	0.098	-0.008
-692.412	-68.441	-0.414	0.163
-691.397	-92.168	-0.185	0.053
-690.383	-9.394	0.183	0.124
-689.368	607.982	-0.097	-0.246
-688.354	8.158	-0.259	-0.198
-687.339	-97.995	0.260	0.068
-686.324	-127.599	-0.538	0.079
-685.310	118.196	-0.172	-0.215
-684.295	138.403	0.083	0.110
-683.281	-200.000	0.003	0.030
-682.266	199.589	-0.069	0.108
-681.251	91.450	-0.119	0.135
-680.237	-78.805	-0.244	0.084
-679.222	-200.000	-0.001	0.056
-678.208	33.441	-0.197	-0.174
-677.193	-2.903	0.148	-0.105
-676.178	200.667	0.113	-0.176
-675.164	-200.000	0.079	-0.399
-674.149	-118.617	-0.252	0.045
-673.135	22.180	0.104	-0.086
-672.120	800.000	-0.075	-0.254
-671.105	-28.278	-0.382	-0.224
-670.091	209.312	0.079	-0.125
-669.076	-64.960	0.105	-0.043
-668.062	-64.670	-0.385	0.158
-667.047	-112.016	-0.306	0.062
-666.032	800.000	0.048	-0.151
-665.018	44.068	0.078	0.072
-664.003	90.286	-0.190	-0.215
-662.989	-145.857	0.135	-0.012
-661.974	-143.792	-0.132	0.013
-660.959	83.999	-0.178	0.197
-659.945	42.422	-0.214	0.197
-658.930	800.000	0.024	0.081
-657.916	-99.124	0.208	0.053
-656.901	-55.942	-0.125	-0.056
-655.886	-29.998	-0.164	0.095
-654.872	-136.813	-0.142	-0.017
-653.857	-57.470	-0.115	0.051
-652.843	800.000	-0.020	0.059
-651.828	-138.462	0.261	0.029
-650.814	-152.756	0.289	0.021
-649.799	-133.429	0.319	-0.041
-648.784	-96.658	-0.183	-0.049
-647.770	-130.425	0.173	-0.024
-646.755	-5.146	-0.321	-0.224
-645.741	-156.483	-0.131	-0.008
-644.726	-31.010	0.190	-0.109
-643.711	-90.198	0.132	0.039
-642.697	43.268	0.302	-0.279
-641.682	-45.644	0.025	0.013
-640.668	10.086	-0.152	-0.117
-639.653	292.518	-0.104	0.192
-638.638	6.674	0.207	0.156
-637.624	56.371	0.211	0.208
-636.609	177.674	-0.070	-0.104
-635.595	461.880	-0.047	-0.106
-634.580	-5.154	-0.201	0.140
-633.565	54.509	0.318	0.310
-632.551	-30.844	0.197	-0.113
-631.536	380.124	0.125	-0.260
-630.522	-73.233	-0.340	0.126
-629.507	-106.588	-0.295	-0.067
-628.492	-101.446	0.185	-0.046
-627.478	-36.799	-0.067	0.036
-626.463	197.540	-0.269	-0.416
-625.449	-79.345	-0.232	-0.080
-624.434	-200.000	0.015	0.226
-623.419	-200.000	-0.001	-0.481
-622.405	-200.000	0.038	-0.259
-621.390	-112.433	0.109	-0.022
-620.376	-200.000	-0.007	0.074
-619.361	13.194	-0.276	0.216
-618.346	163.853	0.128	0.182
-617.332	-93.166	-0.150	0.042
-616.317	800.000	0.102	-0.346
-615.303	129.403	-0.108	-0.139
-614.288	-12.865	-0.176	0.116
-613.273	-200.000	0.019	-0.162
-612.259	-124.827	-0.380	-0.059
-611.244	-113.598	-0.460	-0.091
-610.230	193.386	-0.236	-0.361
-609.215	800.000	0.045	0.197
-608.201	-136.477	0.201	-0.024
-607.186	78.266	-0.260	-0.281
-606.171	439.361	0.145	-0.319
-605.157	80.144	-0.161	0.175
-604.142	-36.279	0.580	-0.316
-603.128	800.000	-0.022	-0.066
-602.113	33.916	-0.240	-0.211
-601.098	16.671	-0.084	0.068
-600.084	255.226	0.119	0.206
-599.069	392.282	0.146	0.308
-598.055	-200.000	0.033	0.221
-597.040	-200.000	0.015	0.341
-596.025	186.115	-0.150	0.225
-595.011	-54.103	-0.330	0.152
-593.996	-82.206	0.108	0.035
-592.982	-200.000	-0.005	-0.075
-591.967	800.000	-0.080	-0.341
-590.952	-200.000	0.019	-0.293
-589.938	-200.000	-0.005	0.036
-588.923	-128.987	-0.287	0.041
-587.909	-200.000	-0.012	-0.118
-586.894	119.345	-0.075	-0.094
-585.879	208.774	0.013	0.021
-584.865	-50.315	-0.129	-0.062
-583.850	800.000	0.065	-0.190
-582.836	-200.000	0.027	-0.583
-581.821	800.000	0.095	-0.303
-580.806	-98.261	-0.133	-0.034
-579.792	-118.813	0.260	-0.046
-578.777	-200.000	0.001	0.116
-577.763	-200.000	-0.027	0.328
-576.748	479.973	0.162	0.370
-575.733	-51.216	0.359	0.170
-574.719	187.590	0.077	-0.117
-573.704	522.922	-0.091	-0.217
-572.690	27.414	-0.327	0.278
-571.675	170.388	-0.092	0.133
-570.661	48.806	0.076	0.072
-569.646	800.000	0.027	0.111
-568.631	-133.923	0.083	0.010
-567.617	54.647	-0.165	0.161
-566.602	-100.891	-0.176	-0.044
-565.588	-43.428	-0.245	-0.125
-564.573	-200.000	-0.102	-0.556
-563.558	149.342	0.113	-0.154
-562.544	-76.229	0.133	0.047
-561.529	-31.748	0.192	0.109
-560.515	45.593	-0.112	0.105
-559.500	71.525	-0.068	-0.072
-558.485	-146.761	0.159	0.014
-557.471	-132.536	-0.304	-0.039
-556.456	-200.000	-0.017	0.119
-555.442	337.124	-0.065	0.128
-554.427	-200.000	0.023	0.332
-553.412	-200.000	-0.022	-0.162
-552.398	704.663	0.052	-0.139
-551.383	-200.000	-0.003	0.187
-550.369	-17.937	0.241	-0.152
-549.354	-200.000	0.027	-0.222
-548.339	115.417	-0.066	0.081
-547.325	114.738	-0.172	-0.211
-546.310	-200.000	-0.033	0.315
-545.296	-153.264	0.173	0.012
-544.281	-200.000	-0.025	-0.197
-543.266	19.189	-0.331	-0.268
-542.252	-40.069	0.229	0.120
-541.237	-110.135	0.283	0.060
-540.223	-104.910	0.314	-0.073
-539.208	21.793	-0.232	-0.190
-538.193	122.772	-0.152	-0.192
-537.179	-108.653	-0.036	-0.008
-536.164	557.145	0.232	-0.564
-535.150	-200.000	-0.043	-0.271
-534.135	-200.000	-0.042	-0.322
-533.121	-128.204	-0.322	-0.046
-532.106	-119.877	-0.276	0.048
-531.091	142.637	-0.040	0.053
-530.077	-200.000	-0.016	-0.187
-529.062	-200.000	-0.001	-0.265
-528.048	-39.245	-0.215	0.114
-527.033	800.000	0.088	-0.268
-526.018	231.123	-0.155	-0.256
-525.004	-200.000	-0.023	-0.136
-523.989	-41.449	0.144	0.075
-522.975	169.167	-0.106	-0.152
-521.960	96.873	0.152	0.176
-520.945	-200.000	-0.064	0.365
-519.931	-3.949	0.131	0.092
-518.916	-200.000	-0.026	-0.181
-517.902	-27.412	-0.342	0.201
-516.887	-172.416	-0.106	-0.003
-515.872	81.126	-0.170	0.185
-514.858	68.228	0.126	0.130
-513.843	-74.804	0.135	0.049
-512.829	800.000	0.053	0.157
-511.814	800.000	0.060	0.219
-510.799	-131.331	0.333	0.044
-509.785	-200.000	-0.003	0.445
-508.770	247.688	-0.196	-0.333
-507.756	-52.150	0.206	-0.096
-506.741	125.650	0.102	0.130
-505.726	-115.748	-0.126	-0.024
-504.712	-200.000	0.024	0.227
-503.697	35.037	-0.226	0.200
-502.683	-200.000	-0.065	-0.324
-501.668	-200.000	-0.023	-0.306
-500.653	18.011	-0.197	-0.158
-499.639	-57.308	0.205	0.091
-498.624	76.121	-0.021	-0.022
-497.610	41.208	-0.052	0.047
-496.595	-9.842	-0.060	0.040
-495.581	-95.707	0.500	-0.135
-494.566	-200.000	0.003	-0.040
-493.551	424.374	0.098	-0.212
-492.537	800.000	-0.025	0.082
-491.522	-139.080	-0.250	-0.027
-490.508	-3.098	0.130	0.091
-489.493	389.818	0.134	0.279
-488.478	800.000	0.031	-0.118
-487.464	26.432	0.108	0.091
-486.449	100.605	-0.025	-0.029
-485.435	800.000	-0.041	-0.117
-484.420	-134.205	0.146	0.018
-483.405	-200.000	0.013	-0.075
-482.391	-175.528	0.272	0.007
-481.376	-45.736	0.083	-0.041
-480.362	118.817	0.120	0.149
-479.347	-200.000	0.008	0.379
-478.332	32.201	-0.166	0.144
-477.318	-19.268	0.199	0.124
-476.303	506.859	-0.058	0.136
-475.289	78.569	0.093	-0.101
-474.274	-200.000	-0.010	-0.190
-473.259	132.106	0.279	-0.362
-472.245	-18.199	0.229	-0.144
-471.230	157.069	0.118	0.164
-470.216	66.706	0.061	-0.063
-469.201	-118.976	-0.529	0.093
-468.186	33.104	-0.211	0.184
-467.172	466.074	-0.127	0.287
-466.157	-75.811	0.093	-0.033
-465.143	125.622	0.159	-0.202
-464.128	800.000	-0.034	0.134
-463.113	624.869	0.142	0.360
-462.099	62.387	0.110	0.111
-461.084	-100.656	0.166	-0.041
-460.070	-90.969	0.136	-0.039
-459.055	-51.399	-0.104	0.049
-458.040	-200.000	0.041	0.378
-457.026	-55.456	-0.090	0.041
-456.011	-50.715	0.168	0.080
-454.997	462.561	-0.020	0.044
-453.982	800.000	-0.047	0.138
-452.968	-200.000	0.051	0.299
-451.953	-62.345	0.263	0.110
-450.938	-200.000	-0.058	0.267
-449.924	553.193	-0.187	0.452
-448.909	5.309	-0.194	-0.143
-447.895	-128.544	-0.202	-0.029
-446.880	-91.559	0.150	0.043
-445.865	60.355	-0.270	0.269
-444.851	-200.000	-0.007	-0.309
-443.836	-200.000	-0.077	-0.405
-442.822	-200.000	-0.012	0.281
-441.807	-200.000	-0.041	0.372
-440.792	-29.584	-0.192	0.110
-439.778	800.000	-0.095	-0.316
-438.763	131.686	0.254	-0.328
-437.749	31.553	-0.109	0.094
-436.734	-200.000	-0.036	0.196
-435.719	416.534	0.130	-0.279
-434.705	-101.259	0.386	-0.095
-433.690	150.448	0.180	-0.246
-432.676	-190.809	-0.102	0.001
-431.661	-200.000	-0.059	0.289
-430.646	45.493	-0.335	-0.311
-429.632	27.932	-0.181	0.153
-428.617	401.042	0.170	0.357
-427.603	-75.545	-0.253	0.090
-426.588	31.372	-0.105	0.090
-425.573	-107.395	0.240	-0.053
-424.559	27.083	-0.194	-0.163
-423.544	144.669	0.091	-0.122
-422.530	-50.581	-0.321	-0.152
-421.515	-200.000	0.019	-0.209
-420.500	151.112	-0.110	-0.150
-419.486	142.227	0.198	0.263
-418.471	194.379	-0.120	0.183
-417.457	-200.000	0.014	-0.218
-416.442	224.762	0.156	-0.254
-415.428	-34.932	0.192	0.105
-414.413	45.909	-0.147	-0.136
-413.398	30.384	0.045	-0.039
-412.384	-6.728	0.353	0.241
-411.369	324.510	-0.052	-0.101
-410.355	134.651	0.130	-0.169
-409.340	223.580	-0.085	-0.137
-408.325	741.634	0.144	-0.388
-407.311	-114.725	-0.208	0.040
-406.296	-61.236	0.189	-0.080
-405.282	-200.000	-0.034	-0.151
-404.267	-171.394	0.317	-0.011
-403.252	800.000	0.141	-0.437
-402.238	85.649	-0.083	-0.091
-401.223	81.324	0.210	-0.228
-400.209	377.919	-0.113	-0.231
-399.194	-42.064	-0.132	0.068
-398.179	72.963	-0.212	-0.222
-397.165	-91.094	0.095	0.027
-396.150	-200.000	0.016	-0.448
-395.136	-70.166	-0.078	0.030
-394.121	355.793	0.193	0.385
-393.106	-102.501	-0.063	-0.015
-392.092	-92.060	0.100	-0.028
-391.077	166.089	-0.090	0.128
-390.063	14.771	-0.110	-0.087
-389.048	-67.414	-0.259	0.102
-388.033	-3.621	0.150	0.104
-387.019	66.838	0.214	-0.219
-386.004	-81.922	-0.241	0.079
-384.990	157.499	0.204	-0.283
-383.975	713.273	-0.097	-0.259
-382.960	39.439	-0.119	-0.107
-381.946	663.754	-0.117	0.301
-380.931	67.530	0.165	0.169
-379.917	-79.105	0.195	-0.066
-378.902	341.713	-0.059	0.115
-377.888	-145.437	0.054	-0.005
-376.873	187.363	0.240	0.359
-375.858	21.277	-0.241	0.196
-374.844	-140.651	0.239	-0.025
-373.829	59.112	-0.389	-0.383
-372.815	-2.801	0.129	-0.091
-371.800	-44.644	0.199	-0.100
-370.785	-200.000	0.019	-0.287
-369.771	-41.028	-0.211	0.109
-368.756	-37.020	0.190	0.102
-367.742	7.987	0.156	0.117
-366.727	26.191	0.234	0.196
-365.712	-200.000	-0.056	-0.261
-364.698	-150.556	-0.333	-0.025
-363.683	-100.308	-0.292	0.073
-362.669	80.617	-0.140	0.151
-361.654	-19.066	-0.288	0.180
-360.639	-200.000	0.029	0.337
-359.625	-10.848	0.153	-0.101
-358.610	356.250	0.044	-0.088
-357.596	420.128	-0.022	0.046
-356.581	73.947	0.090	-0.095
-355.566	800.000	0.052	0.186
-354.552	-200.000	-0.032	0.150
-353.537	-200.000	-0.002	0.014
-352.523	-104.497	0.262	-0.061
-351.508	-4.739	0.081	0.056
-350.493	-200.000	0.018	-0.329
-349.479	6.348	-0.304	0.226
-348.464	-79.611	0.275	0.093
-347.450	-200.000	0.002	-0.190
-346.435	579.370	0.061	0.150
-345.420	-24.106	0.301	0.180
-344.406	102.941	0.078	0.092
-343.391	155.093	-0.100	0.137
-342.377	-200.000	-0.027	0.289
-341.362	-57.822	0.083	0.036
-340.348	12.047	0.187	0.144
-339.333	-115.887	-0.102	-0.019
-338.318	359.834	-0.068	0.136
-337.304	259.111	0.072	-0.125
-336.289	-200.000	0.048	-0.366
-335.275	-75.899	-0.214	-0.076
-334.260	554.284	-0.091	-0.220
-333.245	-84.601	0.212	-0.067
-332.231	245.562	0.105	-0.177
-331.216	-60.860	0.189	0.080
-330.202	-200.000	0.031	-0.188
-329.187	-159.894	-0.020	0.001
-328.172	167.657	-0.152	-0.216
-327.158	-123.159	0.434	0.070
-326.143	339.545	0.107	0.208
-325.129	-31.326	-0.481	0.271
-324.114	-146.309	-0.303	0.027
-323.099	48.159	-0.112	-0.105
-322.085	115.948	0.216	0.264
-321.070	-159.268	0.223	0.013
-320.056	56.575	0.261	0.253
-319.041	-200.000	0.011	0.171
-318.026	-28.968	0.105	0.060
-317.012	-55.398	0.144	-0.065
-315.997	-68.949	0.093	-0.036
-314.983	133.828	0.187	-0.242
-313.968	18.100	0.179	-0.143
-312.953	182.811	-0.167	-0.246
-311.939	179.897	-0.100	0.147
-310.924	-97.936	0.148	-0.038
-309.910	20.290	0.232	0.187
-308.895	-50.696	0.251	0.118
-307.880	-31.009	0.127	-0.071
-306.866	366.756	0.116	0.234
-305.851	362.069	-0.210	-0.421
-304.837	-176.980	0.228	-0.006
-303.822	-43.399	0.096	-0.049
-302.807	-200.000	-0.023	-0.218
-301.793	459.523	-0.039	-0.088
-300.778	-172.363	-0.155	0.005
-299.764	47.369	0.240	0.223
-298.749	800.000	-0.085	-0.278
-297.735	169.018	-0.074	0.105
-296.720	-11.926	0.174	-0.114
-295.705	703.963	-0.045	-0.119
-294.691	311.661	-0.250	-0.468
-293.676	10.527	0.130	-0.099
-292.662	56.248	0.208	0.202
-291.647	-67.003	0.257	0.101
-290.632	-163.203	0.193	0.009
-289.618	800.000	0.058	-0.230
-288.603	332.778	0.055	0.106
-287.589	-200.000	-0.014	0.151
-286.574	800.000	0.049	-0.145
-285.559	-123.556	-0.322	0.051
-284.545	30.388	-0.382	-0.326
-283.530	800.000	0.054	0.215
-282.516	12.975	-0.250	0.193
-281.501	68.693	0.219	0.224
-280.486	115.436	0.210	0.256
-279.472	65.370	0.282	-0.285
-278.457	-108.050	-0.258	0.056
-277.443	577.896	-0.024	-0.058
-276.428	192.556	0.247	-0.372
-275.413	800.000	-0.090	0.343
-274.399	422.946	-0.179	0.383
-273.384	367.355	-0.146	0.294
-272.370	68.035	-0.134	-0.137
-271.355	-100.760	-0.285	-0.070
-270.340	-200.000	-0.028	-0.376
-269.326	240.183	-0.078	0.130
-268.311	-200.000	-0.019	0.097
-267.297	224.987	0.191	0.308
-266.282	-200.000	-0.026	0.143
-265.267	499.455	0.040	-0.093
-264.253	-200.000	0.043	0.243
-263.238	43.057	-0.085	0.077
-262.224	-54.448	0.241	0.109
-261.209	-200.000	0.081	0.000
-260.195	175.869	-0.137	-0.199
-259.180	21.487	-0.201	0.163
-258.165	197.416	-0.081	-0.124
-257.151	95.277	0.308	0.350
-256.136	800.000	-0.037	-0.120
-255.122	-200.000	-0.052	-0.246
-254.107	3.072	-0.149	0.108
-253.092	-200.000	-0.006	0.143
-252.078	-200.000	-0.006	0.126
-251.063	-24.341	0.137	0.082
-250.049	52.464	0.248	-0.236
-249.034	-200.000	-0.005	0.176
-248.019	62.245	-0.085	-0.085
-247.005	-133.976	0.286	-0.035
-245.990	-200.000	0.058	-0.416
-244.976	116.734	-0.158	0.193
-243.961	483.474	-0.134	0.304
-242.946	-200.000	-0.020	0.350
-241.932	-86.744	0.258	0.079
-240.917	159.986	-0.086	-0.120
-239.903	306.056	0.067	0.125
-238.888	187.818	-0.005	0.008
-237.873	-200.000	0.021	0.133
-236.859	95.096	-0.020	-0.023
-235.844	8.902	0.205	0.154
-234.830	491.031	-0.044	-0.099
-233.815	-200.000	-0.014	0.089
-232.800	-200.000	0.016	-0.339
-231.786	597.856	0.086	-0.212
-230.771	400.908	-0.047	0.098
-229.757	116.940	-0.045	-0.055
-228.742	271.093	0.073	0.127
-227.727	124.535	0.067	-0.084
-226.713	-87.760	0.158	-0.047
-225.698	-125.836	-0.083	-0.012
-224.684	-200.000	-0.012	-0.222
-223.669	-166.737	-0.138	0.006
-222.655	-38.781	-0.060	0.032
-221.640	269.189	-0.136	0.238
-220.625	81.551	-0.299	0.322
-219.611	-112.082	0.022	0.004
-218.596	-200.000	-0.036	0.224
-217.582	62.201	0.220	-0.218
-216.567	-82.494	0.227	-0.073
-215.552	-200.000	0.011	0.101
-214.538	-200.000	-0.046	0.240
-213.523	0.845	-0.047	-0.033
-212.509	283.551	-0.128	-0.229
-211.494	196.769	0.083	-0.125
-210.479	126.505	-0.186	0.235
-209.465	-25.819	0.136	0.080
-208.450	800.000	-0.077	0.236
-207.436	10.409	0.274	0.208
-206.421	-40.387	0.306	-0.159
-205.406	-145.304	-0.072	-0.006
-204.392	-153.814	-0.322	0.022
-203.377	-98.135	0.317	0.081
-202.363	194.767	-0.158	0.239
-201.348	310.491	0.142	0.265
-200.333	4.952	0.218	-0.160
-199.319	46.681	0.180	0.166
-198.304	48.964	-0.229	-0.214
-197.290	23.109	-0.387	-0.316
-196.275	-16.222	0.031	0.020
-195.260	-81.841	0.107	0.035
-194.246	-31.344	-0.157	0.088
-193.231	-132.889	0.214	-0.027
-192.217	-200.000	-0.252	0.001
-191.202	-121.150	-0.122	-0.020
-190.187	34.976	-0.267	0.232
-189.173	316.574	0.126	0.238
-188.158	-17.295	-0.252	0.158
-187.144	-67.108	-0.190	-0.074
-186.129	800.000	-0.080	0.259
-185.114	-83.332	0.168	-0.053
-184.100	-50.303	-0.236	0.111
-183.085	-43.543	-0.224	-0.112
-182.071	800.000	0.088	0.363
-181.056	-131.626	-0.203	-0.027
-180.042	-200.000	-0.004	-0.262
-179.027	-79.017	0.194	0.065
-178.012	-200.000	0.008	-0.121
-176.998	73.051	-0.124	0.129
-175.983	167.181	0.062	0.087
-174.969	55.864	-0.284	-0.273
-173.954	377.172	-0.070	-0.141
-172.939	800.000	-0.021	0.061
-171.925	36.858	-0.165	-0.145
-170.910	-68.414	-0.190	0.073
-169.896	-120.623	-0.280	-0.047
-168.881	-200.000	0.043	0.194
-167.866	274.601	-0.144	0.254
-166.852	-89.423	0.262	0.077
-165.837	310.478	-0.097	-0.181
-164.823	87.625	-0.065	-0.072
-163.808	37.693	0.103	-0.090
-162.793	-115.584	-0.399	0.075
-161.779	144.795	-0.115	0.153
-160.764	-151.801	0.249	0.018
-159.750	-163.182	-0.063	0.003
-158.735	-28.233	0.193	0.111
-157.720	-126.637	0.116	0.017
-156.706	217.011	-0.147	0.233
-155.691	312.769	-0.104	0.195
-154.677	-200.000	-0.008	0.170
-153.662	105.601	0.144	-0.169
-152.647	67.407	0.178	-0.180
-151.633	800.000	-0.038	-0.106
-150.618	113.064	-0.189	0.227
-149.604	225.363	-0.047	0.076
-148.589	552.505	0.057	-0.137
-147.574	-164.166	0.278	-0.013
-146.560	110.176	0.286	-0.342
-145.545	24.632	-0.136	-0.112
-144.531	-200.000	0.012	-0.118
-143.516	800.000	-0.070	-0.239
-142.502	-170.932	0.121	-0.004
-141.487	271.766	-0.132	-0.231
-140.472	98.112	-0.110	0.125
-139.458	-200.000	0.013	-0.067
-138.443	-124.169	0.110	0.017
-137.429	-87.407	-0.087	0.026
-136.414	800.000	-0.102	0.300
-135.399	-200.000	0.009	0.092
-134.385	-27.950	-0.222	0.128
-133.370	800.000	0.045	-0.138
-132.356	-78.580	0.184	-0.063
-131.341	34.289	0.329	-0.285
-130.326	800.000	0.052	0.149
-129.312	-6.020	0.246	0.167
-128.297	-137.568	0.185	-0.021
-127.283	90.935	0.105	0.117
-126.268	303.113	-0.196	-0.360
-125.253	-134.618	0.206	0.025
-124.239	165.615	-0.155	0.217
-123.224	-200.000	0.035	0.184
-122.210	325.451	0.160	-0.304
-121.195	444.778	-0.093	0.201
