DTS Sentinel unit serial number:	SN413079Multiplexer serial number:	ORYXHardware model number:	OX4-SRSoftware version number:	ORYX F/W v4.00 Oryx Data Collector v3.7.2.0data status	okinstallation	princeton_trtdifferential loss correction	single-endedforward channel	channel 2reverse channel	N/Adate	2019/09/13time	16:15:35forward acquisition time	60.00reverse acquisition time	0.00gamma	496.2192k internal	0.2314k external	0.2314temperature offset calibration	1.0209default loss term (dB/km)	0.3790temperature slope calibration	1.0000multiplexer offset coefficient	1.0000multiplexer slope coefficient	1.0000fibre end	0.00T internal ref (°C)	34.86T ext. ref 1 (°C)	4.86T ext. ref 2 (°C)	31.64length (m)	temperature (°C)	Stokes	anti-Stokes-747.200	-200.000	-0.005	-0.051
-746.185	-121.036	0.168	0.029
-745.171	-118.343	0.121	-0.022
-744.156	-157.243	0.207	0.013
-743.142	25.550	-0.193	-0.163
-742.127	-109.954	0.190	-0.040
-741.112	-77.462	-0.263	0.092
-740.098	-200.000	0.002	0.266
-739.083	-200.000	0.063	0.315
-738.069	-200.000	-0.014	0.187
-737.054	80.667	0.079	-0.086
-736.039	201.693	0.133	-0.208
-735.025	-200.000	0.006	0.146
-734.010	508.355	0.137	-0.323
-732.996	-0.158	-0.111	-0.080
-731.981	286.361	0.108	-0.198
-730.966	800.000	-0.078	-0.238
-729.952	-48.009	-0.427	-0.209
-728.937	578.964	0.054	-0.133
-727.923	-61.420	0.343	0.146
-726.908	-200.000	-0.050	0.282
-725.894	-88.041	-0.271	-0.082
-724.879	103.343	-0.112	-0.133
-723.864	-38.536	-0.183	0.098
-722.850	-25.471	-0.203	-0.121
-721.835	800.000	-0.110	0.392
-720.821	-200.000	-0.045	-0.280
-719.806	-39.275	0.302	-0.161
-718.791	-164.770	0.404	-0.018
-717.777	106.007	-0.100	0.120
-716.762	800.000	0.007	-0.029
-715.748	94.266	0.110	0.126
-714.733	-35.332	0.138	0.076
-713.718	800.000	0.106	0.309
-712.704	-191.986	0.062	0.001
-711.689	-40.229	-0.229	-0.121
-710.675	-84.822	0.062	-0.020
-709.660	-138.157	-0.062	-0.007
-708.645	-102.202	-0.073	0.018
-707.631	-61.003	-0.247	-0.106
-706.616	-66.935	0.178	-0.071
-705.602	71.581	0.208	-0.219
-704.587	-200.000	-0.002	0.143
-703.572	-200.000	0.011	0.373
-702.558	49.908	-0.200	0.191
-701.543	-109.606	0.233	-0.050
-700.529	168.990	-0.206	-0.297
-699.514	86.779	0.197	-0.220
-698.499	800.000	-0.096	-0.273
-697.485	-165.167	-0.147	-0.007
-696.470	-17.839	-0.411	-0.261
-695.456	-10.469	0.164	0.110
-694.441	-166.999	-0.165	0.007
-693.426	104.596	-0.164	-0.196
-692.412	-51.619	-0.080	0.038
-691.397	-113.307	0.099	0.020
-690.383	397.816	-0.040	-0.085
-689.368	-91.273	-0.232	0.067
-688.354	-24.805	0.273	0.164
-687.339	284.454	0.105	0.191
-686.324	176.809	-0.135	-0.198
-685.310	133.855	-0.048	-0.062
-684.295	-138.969	0.142	-0.016
-683.281	-103.575	0.253	-0.060
-682.266	-200.000	-0.017	-0.270
-681.251	166.462	0.066	-0.094
-680.237	174.461	0.165	0.242
-679.222	-27.333	-0.347	-0.204
-678.208	37.051	0.231	-0.207
-677.193	4.196	0.150	-0.111
-676.178	-32.510	0.481	-0.271
-675.164	8.115	-0.202	0.153
-674.149	244.183	0.123	0.209
-673.135	800.000	0.020	-0.069
-672.120	-77.356	-0.111	-0.039
-671.105	414.287	-0.099	-0.214
-670.091	-48.688	0.126	0.061
-669.076	97.299	-0.059	0.068
-668.062	-200.000	-0.009	0.304
-667.047	-200.000	0.000	-0.158
-666.032	312.058	-0.166	0.315
-665.018	92.022	-0.179	-0.203
-664.003	-50.781	-0.234	-0.111
-662.989	-32.895	-0.232	0.130
-661.974	533.084	-0.068	-0.164
-660.959	168.601	0.161	-0.232
-659.945	800.000	0.025	0.081
-658.930	-200.000	-0.007	-0.142
-657.916	7.789	0.270	0.204
-656.901	-63.755	0.213	0.088
-655.886	800.000	-0.135	0.488
-654.872	4.530	0.181	0.134
-653.857	-35.873	0.160	-0.088
-652.843	-38.935	-0.198	-0.105
-651.828	-29.294	0.114	0.066
-650.814	273.524	-0.019	-0.033
-649.799	-134.874	0.286	-0.035
-648.784	-170.060	0.307	-0.011
-647.770	14.735	0.029	-0.023
-646.755	-79.070	-0.247	0.085
-645.741	-87.708	0.153	0.046
-644.726	-100.350	-0.387	0.097
-643.711	32.249	0.338	-0.295
-642.697	359.603	-0.082	-0.166
-641.682	-90.089	-0.204	-0.060
-640.668	800.000	0.155	-0.489
-639.653	-68.036	0.032	0.013
-638.638	-59.059	0.216	0.094
-637.624	-200.000	-0.003	0.176
-636.609	-200.000	0.107	-0.547
-635.595	-200.000	-0.014	-0.094
-634.580	1.046	-0.145	0.105
-633.565	-62.615	-0.321	0.135
-632.551	-28.480	0.374	0.217
-631.536	68.934	-0.208	-0.215
-630.522	643.238	-0.142	-0.366
-629.507	44.039	0.176	-0.163
-628.492	74.296	-0.174	0.185
-627.478	-3.478	-0.189	0.132
-626.463	-200.000	0.025	0.282
-625.449	40.965	-0.089	-0.081
-624.434	-56.958	0.126	-0.056
-623.419	42.908	0.101	0.093
-622.405	764.967	0.053	0.146
-621.390	301.589	-0.032	0.060
-620.376	-154.653	0.222	-0.015
-619.361	-63.851	-0.156	0.064
-618.346	-106.722	0.296	-0.066
-617.332	-200.000	0.002	0.286
-616.317	58.299	-0.067	-0.066
-615.303	-31.156	-0.070	-0.040
-614.288	800.000	-0.100	-0.284
-613.273	-187.249	0.259	-0.004
-612.259	-92.323	-0.175	0.050
-611.244	15.816	0.060	-0.048
-610.230	800.000	0.034	-0.097
-609.215	-120.598	0.211	-0.036
-608.201	773.094	-0.029	0.081
-607.186	139.034	-0.231	-0.306
-606.171	368.782	-0.174	0.356
-605.157	800.000	-0.092	-0.263
-604.142	-106.926	0.317	0.071
-603.128	-67.613	-0.207	-0.082
-602.113	112.916	0.129	0.158
-601.098	-97.474	-0.084	-0.022
-600.084	800.000	-0.054	-0.180
-599.069	-200.000	0.053	-0.246
-598.055	329.838	-0.077	0.150
-597.040	800.000	0.084	0.297
-596.025	-27.927	0.060	0.035
-595.011	-200.000	0.052	0.306
-593.996	-200.000	-0.015	0.171
-592.982	-34.598	0.116	0.064
-591.967	159.237	-0.041	0.058
-590.952	208.015	-0.104	-0.163
-589.938	-36.201	-0.038	-0.021
-588.923	11.572	0.056	0.043
-587.909	58.392	-0.230	-0.227
-586.894	-14.204	-0.073	-0.047
-585.879	104.476	0.095	0.112
-584.865	281.561	-0.161	0.290
-583.850	569.044	0.130	-0.318
-582.836	-182.388	-0.279	0.005
-581.821	-83.793	-0.230	-0.074
-580.806	226.779	-0.185	-0.303
-579.792	-63.982	0.263	-0.108
-578.777	800.000	0.013	-0.050
-577.763	91.478	-0.232	-0.263
-576.748	-200.000	0.044	-0.384
-575.733	-86.725	0.329	-0.101
-574.719	3.079	0.235	-0.172
-573.704	-38.222	-0.106	-0.057
-572.690	-2.631	-0.228	0.161
-571.675	-58.785	-0.169	-0.074
-570.661	-118.838	0.038	0.007
-569.646	800.000	0.116	-0.376
-568.631	800.000	-0.038	0.131
-567.617	-185.309	0.174	-0.003
-566.602	96.224	0.261	-0.301
-565.588	-156.246	0.218	0.014
-564.573	-200.000	-0.017	-0.131
-563.558	800.000	-0.058	-0.189
-562.544	-200.000	0.049	-0.645
-561.529	91.095	-0.106	0.120
-560.515	89.070	-0.105	-0.118
-559.500	277.265	0.228	-0.408
-558.485	-102.232	0.093	0.022
-557.471	112.514	-0.185	-0.226
-556.456	-31.568	0.286	-0.162
-555.442	214.864	-0.251	0.401
-554.427	8.944	-0.272	0.206
-553.412	-10.774	-0.309	-0.205
-552.398	-95.023	-0.088	-0.024
-551.383	-181.614	-0.474	-0.009
-550.369	-189.057	0.346	0.004
-549.354	-200.000	0.013	-0.208
-548.339	148.195	-0.224	-0.304
-547.325	-200.000	0.014	0.150
-546.310	-168.206	0.210	0.008
-545.296	-177.606	0.153	-0.004
-544.281	62.942	-0.016	0.016
-543.266	-200.000	0.015	0.187
-542.252	143.643	0.059	-0.080
-541.237	-39.411	0.091	-0.048
-540.223	800.000	-0.053	0.175
-539.208	-200.000	0.013	0.071
-538.193	374.062	-0.058	-0.118
-537.179	-95.900	-0.333	0.089
-536.164	25.390	0.058	0.048
-535.150	-141.809	0.240	-0.024
-534.135	-200.000	0.055	0.265
-533.121	-57.071	-0.250	-0.111
-532.106	-68.232	-0.208	-0.081
-531.091	54.810	-0.199	-0.193
-530.077	140.466	0.339	-0.451
-529.062	-200.000	0.014	0.159
-528.048	94.387	-0.181	0.207
-527.033	-107.808	-0.266	-0.058
-526.018	42.887	-0.022	-0.020
-525.004	800.000	0.062	-0.226
-523.989	136.798	0.097	0.127
-522.975	155.114	0.024	0.033
-521.960	-79.845	-0.020	0.007
-520.945	266.894	0.110	-0.193
-519.931	-200.000	-0.009	-0.098
-518.916	-7.998	0.192	0.130
-517.902	-96.748	0.311	0.082
-516.887	140.680	-0.166	0.221
-515.872	436.319	-0.044	0.096
-514.858	-118.361	0.245	-0.044
-513.843	-61.921	0.115	0.048
-512.829	415.078	-0.165	0.354
-511.814	-200.000	0.044	-0.237
-510.799	212.893	0.118	0.186
-509.785	-31.594	-0.129	0.073
-508.770	122.712	0.138	0.174
-507.756	270.029	-0.130	0.230
-506.741	-200.000	-0.009	-0.071
-505.726	-8.349	0.239	-0.162
-504.712	634.258	-0.132	-0.337
-503.697	-97.926	0.120	0.031
-502.683	-200.000	-0.009	0.100
-501.668	-200.000	-0.029	0.238
-500.653	-200.000	-0.071	0.367
-499.639	-200.000	0.026	0.389
-498.624	37.981	0.108	0.097
-497.610	800.000	-0.097	0.274
-496.595	31.998	-0.288	0.249
-495.581	-48.009	0.407	0.197
-494.566	242.533	-0.082	-0.138
-493.551	-71.343	-0.427	0.160
-492.537	-12.818	0.052	0.034
-491.522	-137.483	-0.109	0.012
-490.508	58.221	0.158	0.155
-489.493	-85.391	-0.274	-0.086
-488.478	-108.518	-0.196	0.042
-487.464	-12.996	-0.059	0.039
-486.449	-91.174	0.209	0.060
-485.435	-111.769	-0.209	-0.042
-484.420	-200.000	0.054	-0.258
-483.405	-125.258	-0.371	0.057
-482.391	-126.783	0.146	0.022
-481.376	-24.791	-0.273	-0.163
-480.362	-41.402	-0.375	-0.194
-479.347	-200.000	-0.069	0.305
-478.332	800.000	-0.105	0.340
-477.318	11.303	-0.103	-0.079
-476.303	-200.000	-0.010	0.090
-475.289	-200.000	-0.030	0.224
-474.274	129.902	-0.084	0.108
-473.259	800.000	0.088	0.326
-472.245	89.349	0.103	-0.116
-471.230	112.590	0.064	-0.078
-470.216	-64.886	-0.098	0.040
-469.201	284.666	0.106	-0.191
-468.186	47.672	-0.193	0.180
-467.172	800.000	-0.088	0.373
-466.157	800.000	0.040	0.133
-465.143	432.334	0.142	0.308
-464.128	-200.000	0.031	0.265
-463.113	-200.000	-0.011	0.133
-462.099	342.861	0.067	-0.131
-461.084	800.000	-0.034	-0.117
-460.070	12.945	0.209	-0.162
-459.055	788.868	-0.122	0.336
-458.040	-120.317	0.164	0.028
-457.026	6.387	-0.037	0.028
-456.011	800.000	0.019	0.074
-454.997	-200.000	-0.066	0.425
-453.982	17.931	0.157	-0.125
-452.968	800.000	-0.044	0.179
-451.953	117.454	0.181	-0.223
-450.938	55.710	0.127	0.123
-449.924	-192.987	0.376	0.003
-448.909	-30.702	-0.189	-0.107
-447.895	130.086	0.302	-0.388
-446.880	-71.150	-0.073	0.028
-445.865	160.753	-0.280	-0.392
-444.851	325.219	0.068	-0.130
-443.836	-200.000	0.011	-0.243
-442.822	-200.000	-0.019	-0.415
-441.807	386.164	0.157	-0.326
-440.792	800.000	-0.065	0.203
-439.778	800.000	0.050	-0.179
-438.763	800.000	-0.064	0.195
-437.749	60.824	0.060	-0.060
-436.734	-69.446	-0.124	0.048
-435.719	-140.895	0.139	-0.014
-434.705	552.122	0.067	-0.162
-433.690	385.827	-0.033	-0.069
-432.676	27.149	-0.289	-0.243
-431.661	290.974	0.095	0.174
-430.646	99.971	0.112	-0.130
-429.632	-85.083	-0.370	-0.116
-428.617	-200.000	-0.024	-0.166
-427.603	-34.231	-0.227	-0.125
-426.588	-87.248	0.175	0.053
-425.573	60.868	-0.236	-0.234
-424.559	357.558	-0.105	-0.210
-423.544	-23.463	0.221	-0.133
-422.530	-200.000	-0.001	0.077
-421.515	427.629	0.120	0.259
-420.500	163.328	0.097	0.137
-419.486	-200.000	0.009	-0.092
-418.471	-49.364	-0.217	-0.104
-417.457	448.420	-0.053	0.116
-416.442	-200.000	-0.005	-0.098
-415.428	-41.490	-0.291	0.150
-414.413	-157.809	-0.178	0.011
-413.398	361.878	-0.161	-0.323
-412.384	91.764	0.106	0.119
-411.369	-200.000	-0.015	0.304
-410.355	59.579	-0.285	0.281
-409.340	800.000	0.057	0.185
-408.325	-80.517	-0.088	-0.029
-407.311	-8.921	0.306	0.205
-406.296	-76.849	0.231	0.081
-405.282	-200.000	-0.000	0.344
-404.267	-155.371	0.378	0.025
-403.252	5.192	0.276	0.204
-402.238	-200.000	-0.025	-0.161
-401.223	-91.538	-0.241	-0.069
-400.209	-80.651	0.198	-0.066
-399.194	-9.058	0.313	0.209
-398.179	-93.532	-0.272	0.075
-397.165	800.000	0.069	0.273
-396.150	800.000	0.091	0.256
-395.136	184.580	0.278	-0.412
-394.121	322.200	0.134	-0.255
-393.106	-200.000	-0.014	-0.063
-392.092	208.250	-0.039	-0.060
-391.077	800.000	-0.045	0.158
-390.063	321.968	-0.089	-0.168
-389.048	-16.918	-0.403	0.255
-388.033	192.782	0.140	0.211
-387.019	800.000	-0.017	0.071
-386.004	123.982	-0.175	0.220
-384.990	-1.851	-0.157	0.110
-383.975	800.000	0.064	0.208
-382.960	-200.000	0.010	-0.286
-381.946	84.759	0.049	-0.054
-380.931	-55.945	0.193	-0.086
-379.917	214.027	0.085	-0.134
-378.902	415.076	0.080	0.171
-377.888	-24.512	0.322	-0.192
-376.873	132.982	0.074	-0.095
-375.858	72.307	0.134	-0.140
-374.844	-84.969	-0.158	-0.049
-373.829	796.670	0.069	-0.189
-372.815	800.000	-0.042	0.141
-371.800	73.204	-0.260	0.272
-370.785	329.765	-0.158	0.303
-369.771	800.000	0.058	-0.209
-368.756	454.545	-0.032	0.072
-367.742	224.804	0.164	0.265
-366.727	450.066	0.224	0.494
-365.712	155.396	0.077	-0.106
-364.698	-200.000	0.069	-0.308
-363.683	670.585	0.121	-0.312
-362.669	-163.410	0.171	0.008
-361.654	-90.703	0.113	-0.033
-360.639	-200.000	0.008	-0.188
-359.625	-94.172	0.137	0.037
-358.610	23.097	-0.111	0.091
-357.596	-200.000	-0.064	-0.393
-356.581	-200.000	-0.007	0.155
-355.566	-139.199	-0.140	-0.015
-354.552	-106.829	0.183	0.040
-353.537	415.980	-0.058	-0.123
-352.523	222.025	0.168	0.270
-351.508	-122.989	0.332	-0.053
-350.493	76.935	-0.079	-0.084
-349.479	800.000	0.097	-0.342
-348.464	-18.435	-0.173	0.108
-347.450	623.450	-0.111	-0.279
-346.435	-110.440	-0.433	-0.090
-345.420	800.000	-0.144	0.413
-344.406	22.030	0.072	0.059
-343.391	437.856	0.033	-0.073
-342.377	-158.249	-0.174	-0.010
-341.362	800.000	0.037	-0.103
-340.348	-64.294	0.085	-0.035
-339.333	479.929	0.067	0.152
-338.318	-58.791	0.376	-0.163
-337.304	-60.338	0.127	0.054
-336.289	-40.208	-0.269	0.140
-335.275	94.993	0.262	-0.297
-334.260	36.999	-0.242	-0.213
-333.245	-135.366	0.194	0.023
-332.231	-200.000	-0.051	-0.285
-331.216	-32.598	0.112	-0.062
-330.202	-41.408	0.068	-0.035
-329.187	-200.000	-0.009	-0.107
-328.172	37.897	0.044	-0.039
-327.158	98.683	-0.140	-0.162
-326.143	-200.000	0.383	-0.001
-325.129	14.449	0.155	0.121
-324.114	-143.392	-0.156	-0.015
-323.099	-24.523	-0.185	-0.110
-322.085	236.607	-0.125	0.206
-321.070	-200.000	0.007	-0.167
-320.056	42.372	-0.161	0.146
-319.041	79.446	0.240	-0.256
-318.026	4.962	-0.121	0.088
-317.012	800.000	0.056	-0.158
-315.997	-87.700	-0.182	-0.055
-314.983	-55.025	0.374	0.168
-313.968	-14.707	-0.082	-0.053
-312.953	-10.298	-0.540	0.357
-311.939	-43.632	-0.227	-0.114
-310.924	-87.165	-0.112	-0.034
-309.910	800.000	0.024	-0.067
-308.895	472.702	0.129	-0.289
-307.880	-120.541	0.081	0.014
-306.866	-149.719	-0.108	0.008
-305.851	80.257	-0.079	0.085
-304.837	-8.014	-0.315	0.212
-303.822	193.630	-0.112	0.169
-302.807	65.055	0.032	0.032
-301.793	76.498	0.098	0.103
-300.778	-57.598	0.231	0.101
-299.764	-121.630	-0.268	-0.044
-298.749	-146.027	0.074	0.007
-297.735	139.436	-0.103	0.136
-296.720	265.231	-0.070	0.121
-295.705	800.000	-0.016	-0.043
-294.691	-200.000	-0.013	-0.081
-293.676	-141.688	-0.190	-0.019
-292.662	143.745	-0.101	0.134
-291.647	46.269	0.150	-0.138
-290.632	-139.029	0.085	-0.009
-289.618	-6.895	0.228	-0.154
-288.603	-52.771	0.241	0.111
-287.589	-200.000	0.026	0.174
-286.574	-200.000	-0.037	0.207
-285.559	164.693	-0.291	0.409
-284.545	31.067	0.219	-0.187
-283.530	13.650	0.261	-0.202
-282.516	135.286	-0.058	-0.075
-281.501	-200.000	-0.046	-0.222
-280.486	-180.860	-0.163	0.003
-279.472	-133.717	-0.227	0.028
-278.457	593.242	0.027	-0.066
-277.443	800.000	0.123	-0.368
-276.428	-200.000	0.031	0.238
-275.413	120.059	-0.122	0.151
-274.399	59.552	-0.194	0.191
-273.384	-200.000	0.027	-0.131
-272.370	26.761	-0.421	-0.351
-271.355	-200.000	-0.059	0.365
-270.340	-125.268	-0.208	-0.032
-269.326	225.160	0.240	0.386
-268.311	-43.055	0.294	-0.149
-267.297	-118.507	-0.055	-0.010
-266.282	121.046	0.128	-0.158
-265.267	-5.478	-0.154	-0.105
-264.253	-99.915	-0.278	-0.069
-263.238	106.418	0.106	0.125
-262.224	52.923	0.057	0.054
-261.209	-149.174	-0.150	-0.012
-260.195	-123.328	-0.211	0.034
-259.180	32.110	0.319	-0.274
-258.165	800.000	0.016	0.062
-257.151	-79.681	0.320	-0.107
-256.136	128.336	0.123	0.156
-255.122	5.774	-0.063	-0.047
-254.107	-200.000	-0.013	-0.119
-253.092	-142.706	0.306	0.030
-252.078	26.567	0.209	0.174
-251.063	-22.766	-0.095	-0.057
-250.049	678.223	0.059	0.153
-249.034	-121.613	0.069	0.011
-248.019	-82.723	-0.388	0.125
-247.005	28.924	0.129	0.108
-245.990	308.502	-0.113	0.210
-244.976	54.153	-0.239	-0.228
-243.961	381.364	-0.128	0.262
-242.946	59.934	-0.221	-0.217
-241.932	800.000	-0.102	-0.298
-240.917	34.128	-0.169	0.147
-239.903	71.202	-0.220	0.227
-238.888	351.708	0.170	0.334
-237.873	-2.049	0.323	0.226
-236.859	-17.599	0.072	0.045
-235.844	-85.382	-0.044	-0.013
-234.830	68.255	0.226	-0.230
-233.815	-43.921	0.328	-0.164
-232.800	208.155	0.078	0.122
-231.786	-96.761	0.331	0.086
-230.771	-140.372	0.121	-0.013
-229.757	68.485	0.137	-0.139
-228.742	-18.745	0.214	0.132
-227.727	480.166	0.067	0.152
-226.713	-65.393	-0.074	0.030
-225.698	-165.241	-0.030	-0.001
-224.684	265.823	0.135	0.235
-223.669	-107.689	-0.356	-0.077
-222.655	404.223	-0.077	0.160
-221.640	-157.659	0.178	-0.011
-220.625	-74.770	-0.125	0.045
-219.611	-102.722	0.154	0.037
-218.596	-200.000	-0.005	-0.057
-217.582	-18.082	0.226	-0.141
-216.567	-117.456	-0.208	-0.037
-215.552	367.651	-0.135	0.271
-214.538	800.000	-0.055	0.206
-213.523	724.158	0.084	0.223
-212.509	-200.000	0.021	0.159
-211.494	-73.850	0.135	-0.049
-210.479	-155.142	-0.221	0.014
-209.465	-42.365	0.117	0.059
-208.450	800.000	0.038	-0.107
-207.436	-149.408	-0.384	-0.030
-206.421	-24.267	-0.122	0.072
-205.406	-35.491	-0.246	0.133
-204.392	34.500	0.081	-0.070
-203.377	-200.000	-0.025	0.280
-202.363	101.053	0.239	-0.276
-201.348	-179.534	0.424	-0.009
-200.333	-200.000	0.021	-0.184
-199.319	218.257	-0.158	0.250
-198.304	-200.000	0.003	0.165
-197.290	-26.799	-0.198	0.115
-196.275	16.342	-0.040	-0.031
-195.260	86.553	0.043	0.047
-194.246	-190.056	0.265	0.003
-193.231	156.978	0.179	-0.245
-192.217	-200.000	-0.014	-0.069
-191.202	800.000	-0.040	-0.134
-190.187	233.539	0.074	-0.120
-189.173	-120.084	-0.419	0.071
-188.158	-73.844	0.249	-0.090
-187.144	-103.107	-0.154	-0.036
-186.129	-35.274	0.573	0.309
-185.114	-121.139	0.278	-0.046
-184.100	-153.445	-0.279	-0.019
-183.085	-98.861	0.175	-0.044
-182.071	-200.000	-0.022	-0.099
-181.056	572.796	0.027	0.065
-180.042	-113.349	0.293	0.057
-179.027	-146.624	0.216	0.019
-178.012	10.116	-0.115	-0.087
-176.998	9.468	0.078	0.059
-175.983	287.938	-0.266	0.477
-174.969	-118.400	-0.169	-0.030
-173.954	611.535	-0.057	0.142
-172.939	800.000	-0.089	-0.247
-171.925	-200.000	-0.020	0.113
-170.910	373.778	-0.028	-0.056
-169.896	-200.000	-0.030	-0.367
-168.881	251.165	-0.141	0.238
-167.866	-119.721	-0.160	0.027
-166.852	568.852	0.185	-0.446
-165.837	417.092	0.095	0.200
-164.823	800.000	0.103	-0.415
-163.808	800.000	-0.036	0.120
-162.793	800.000	0.014	0.050
-161.779	33.718	0.172	0.148
-160.764	-200.000	0.042	-0.337
-159.750	800.000	-0.098	-0.315
-158.735	800.000	-0.017	0.063
-157.720	101.697	0.210	-0.243
-156.706	800.000	-0.066	0.269
-155.691	519.449	-0.103	-0.238
-154.677	193.208	-0.065	0.098
-153.662	-33.083	0.084	0.046
-152.647	696.022	-0.068	0.178
-151.633	-149.994	-0.456	-0.035
-150.618	-75.504	-0.268	0.095
-149.604	94.607	0.196	-0.221
-148.589	-17.690	-0.184	-0.115
-147.574	-99.469	-0.317	-0.079
-146.560	800.000	-0.058	-0.184
-145.545	151.242	-0.096	-0.129
-144.531	-200.000	0.027	-0.126
-143.516	-105.875	0.254	-0.057
-142.502	-2.519	-0.238	-0.165
-141.487	-173.649	-0.064	0.002
-140.472	159.897	-0.004	0.006
-139.458	349.104	-0.079	0.155
-138.443	-27.438	-0.207	0.119
-137.429	-118.508	-0.153	-0.027
-136.414	-89.386	0.345	0.101
-135.399	-142.691	-0.198	0.019
-134.385	-200.000	-0.061	0.391
-133.370	-200.000	-0.029	0.198
-132.356	326.007	0.051	-0.097
-131.341	-200.000	0.007	0.368
-130.326	404.841	-0.159	-0.332
-129.312	-27.756	-0.306	-0.176
-128.297	-39.239	0.109	-0.057
-127.283	24.766	-0.304	-0.249
-126.268	138.455	-0.163	0.212
-125.253	-105.614	-0.274	0.061
-124.239	-200.000	-0.022	0.235
-123.224	-45.906	0.067	-0.033
-122.210	-18.040	0.366	0.227
-121.195	45.475	0.111	-0.101
