DTS Sentinel unit serial number:	SN413079Multiplexer serial number:	ORYXHardware model number:	OX4-SRSoftware version number:	ORYX F/W v4.00 Oryx Data Collector v3.7.2.0data status	okinstallation	princeton_trtdifferential loss correction	single-endedforward channel	channel 2reverse channel	N/Adate	2019/09/18time	16:31:35forward acquisition time	60.00reverse acquisition time	0.00gamma	496.2192k internal	0.2300k external	0.2300temperature offset calibration	1.0009default loss term (dB/km)	0.3790temperature slope calibration	1.0000multiplexer offset coefficient	1.0000multiplexer slope coefficient	1.0000fibre end	0.00T internal ref (°C)	39.28T ext. ref 1 (°C)	0.84T ext. ref 2 (°C)	36.43length (m)	temperature (°C)	Stokes	anti-Stokes-747.200	800.000	0.056	0.182
-746.185	130.597	0.024	-0.031
-745.171	167.034	0.171	0.247
-744.156	658.798	-0.161	0.423
-743.142	-200.000	0.005	0.264
-742.127	-113.450	-0.164	-0.033
-741.112	800.000	0.119	-0.345
-740.098	141.777	0.197	0.266
-739.083	80.434	0.106	0.117
-738.069	-200.000	0.055	0.349
-737.054	-70.394	-0.201	-0.078
-736.039	-13.522	0.067	-0.044
-735.025	-200.000	-0.013	0.157
-734.010	-16.978	-0.206	0.133
-732.996	113.211	0.077	-0.095
-731.981	37.678	-0.181	0.163
-730.966	-71.435	0.177	-0.067
-729.952	800.000	0.053	-0.195
-728.937	-79.329	0.243	-0.084
-727.923	622.092	-0.095	-0.245
-726.908	108.156	-0.162	0.198
-725.894	277.535	0.082	0.149
-724.879	462.374	0.142	0.322
-723.864	-174.233	-0.156	0.005
-722.850	800.000	-0.141	-0.442
-721.835	-114.283	-0.134	0.026
-720.821	800.000	0.083	0.294
-719.806	-200.000	0.014	0.261
-718.791	-200.000	-0.014	-0.175
-717.777	-200.000	-0.011	-0.203
-716.762	-106.447	0.124	0.028
-715.748	17.750	-0.170	-0.138
-714.733	-200.000	0.037	-0.208
-713.718	-90.500	-0.196	-0.058
-712.704	-200.000	-0.032	-0.162
-711.689	-200.000	-0.064	0.289
-710.675	0.232	-0.148	-0.107
-709.660	174.751	-0.096	-0.142
-708.645	-130.905	0.245	-0.033
-707.631	320.140	0.039	-0.076
-706.616	-147.721	-0.175	0.015
-705.602	-99.331	-0.207	-0.053
-704.587	-21.273	-0.089	0.055
-703.572	-154.982	-0.304	0.020
-702.558	-190.611	0.227	0.002
-701.543	-144.460	-0.129	0.012
-700.529	171.531	-0.121	0.177
-699.514	-200.000	0.029	0.226
-698.499	455.924	-0.022	0.050
-697.485	192.809	-0.063	-0.097
-696.470	-76.470	-0.022	-0.008
-695.456	147.243	-0.210	0.288
-694.441	455.815	-0.038	-0.086
-693.426	-17.186	0.068	-0.043
-692.412	111.269	-0.148	-0.182
-691.397	800.000	0.048	-0.181
-690.383	-197.671	0.078	-0.000
-689.368	317.039	-0.017	-0.033
-688.354	-53.498	0.123	0.057
-687.339	436.314	-0.008	-0.019
-686.324	9.128	-0.162	0.125
-685.310	-45.660	0.332	0.167
-684.295	335.273	0.129	0.254
-683.281	-22.646	-0.352	0.217
-682.266	90.321	-0.112	0.127
-681.251	800.000	-0.042	0.148
-680.237	-200.000	-0.030	0.357
-679.222	800.000	0.074	-0.257
-678.208	800.000	0.018	0.053
-677.193	169.338	-0.129	-0.187
-676.178	-79.725	0.266	-0.091
-675.164	-56.593	-0.380	0.171
-674.149	539.914	-0.075	-0.181
-673.135	187.289	0.086	0.131
-672.120	-31.127	-0.314	-0.180
-671.105	-200.000	-0.042	-0.229
-670.091	-101.366	0.119	0.029
-669.076	33.284	0.077	-0.068
-668.062	-22.648	0.179	-0.110
-667.047	800.000	0.146	-0.470
-666.032	736.707	0.070	-0.191
-665.018	-135.930	-0.264	-0.032
-664.003	538.994	0.066	0.159
-662.989	202.932	-0.016	0.025
-661.974	-4.467	-0.128	0.090
-660.959	-131.524	-0.236	0.032
-659.945	-200.000	0.063	-0.308
-658.930	-145.459	-0.164	0.015
-657.916	-200.000	0.000	-0.036
-656.901	-99.800	-0.301	0.077
-655.886	29.409	-0.089	0.077
-654.872	262.495	-0.089	0.156
-653.857	-71.687	-0.182	-0.069
-652.843	-122.322	-0.086	0.014
-651.828	-82.325	-0.099	0.033
-650.814	-86.806	-0.129	0.040
-649.799	800.000	-0.146	-0.539
-648.784	117.335	-0.075	0.093
-647.770	-200.000	-0.008	0.247
-646.755	-153.639	-0.238	0.017
-645.741	-5.827	-0.139	-0.097
-644.726	69.825	0.159	0.166
-643.711	-189.124	0.260	-0.003
-642.697	-104.791	-0.227	-0.053
-641.682	-200.000	-0.026	-0.283
-640.668	-60.809	0.261	0.112
-639.653	-193.932	0.127	-0.001
-638.638	-81.960	0.184	0.061
-637.624	-200.000	-0.047	0.250
-636.609	106.347	0.109	0.131
-635.595	-200.000	0.045	-0.236
-634.580	-200.000	-0.023	0.157
-633.565	-18.044	-0.237	0.151
-632.551	-138.841	0.029	-0.003
-631.536	411.208	-0.091	-0.196
-630.522	-41.474	0.159	0.083
-629.507	-200.000	-0.004	-0.045
-628.492	-34.656	-0.095	-0.053
-627.478	-200.000	0.012	0.058
-626.463	-106.906	0.114	0.026
-625.449	-171.593	0.246	0.008
-624.434	18.037	-0.230	0.186
-623.419	57.526	-0.080	-0.079
-622.405	-200.000	0.077	-0.359
-621.390	610.828	0.071	-0.181
-620.376	-82.319	-0.179	0.059
-619.361	-118.803	-0.105	0.019
-618.346	104.133	-0.083	0.099
-617.332	-36.591	-0.178	-0.097
-616.317	-133.506	0.245	0.031
-615.303	-115.746	-0.054	0.010
-614.288	-200.000	-0.041	0.224
-613.273	170.563	0.121	0.176
-612.259	-200.000	-0.004	-0.215
-611.244	-200.000	-0.018	0.398
-610.230	-83.871	0.066	0.021
-609.215	-200.000	0.021	-0.416
-608.201	79.622	-0.205	-0.223
-607.186	-18.338	0.245	0.155
-606.171	462.093	0.064	-0.146
-605.157	580.769	-0.098	-0.244
-604.142	800.000	-0.025	0.109
-603.128	16.260	0.324	-0.259
-602.113	52.303	-0.264	-0.256
-601.098	-200.000	-0.006	-0.249
-600.084	123.406	-0.181	-0.231
-599.069	536.660	-0.051	-0.123
-598.055	651.596	-0.058	0.150
-597.040	-66.085	-0.094	0.038
-596.025	800.000	-0.015	-0.055
-595.011	163.731	0.087	-0.124
-593.996	404.299	0.057	0.121
-592.982	-120.408	-0.318	0.055
-591.967	714.048	0.023	-0.062
-590.952	476.968	0.125	0.287
-589.938	96.489	-0.100	-0.116
-588.923	-6.007	0.215	0.149
-587.909	98.733	-0.202	0.237
-586.894	-96.573	0.095	0.025
-585.879	-198.779	0.127	-0.001
-584.865	-200.000	-0.254	-0.001
-583.850	-148.150	-0.305	0.026
-582.836	-48.967	0.357	0.173
-581.821	-36.895	0.200	-0.109
-580.806	-56.787	-0.097	-0.044
-579.792	20.507	0.021	0.018
-578.777	-157.993	-0.137	-0.008
-577.763	800.000	0.042	-0.180
-576.748	282.002	0.115	-0.209
-575.733	56.351	0.136	0.134
-574.719	3.478	0.295	0.218
-573.704	258.673	-0.135	0.236
-572.690	-164.387	0.252	0.012
-571.675	16.641	0.151	0.121
-570.661	-65.519	-0.162	-0.066
-569.646	-58.090	0.304	-0.134
-568.631	3.730	0.147	-0.109
-567.617	-109.486	0.042	0.009
-566.602	-11.395	-0.146	0.097
-565.588	129.962	0.082	-0.107
-564.573	-95.181	-0.407	-0.111
-563.558	-55.932	-0.157	-0.071
-562.544	-200.000	0.032	0.235
-561.529	353.509	-0.121	-0.243
-560.515	-190.274	0.217	-0.002
-559.500	-164.787	0.411	0.019
-558.485	134.067	0.131	0.172
-557.471	301.229	-0.050	0.093
-556.456	-26.251	-0.101	-0.060
-555.442	-88.785	0.136	0.041
-554.427	800.000	0.034	-0.103
-553.412	53.041	-0.261	0.253
-552.398	-200.000	0.002	-0.322
-551.383	800.000	-0.087	-0.266
-550.369	141.579	0.039	0.053
-549.354	-92.765	-0.068	-0.019
-548.339	188.467	0.181	-0.274
-547.325	-3.218	0.033	0.023
-546.310	-87.983	0.399	0.121
-545.296	-100.885	-0.032	0.008
-544.281	66.601	-0.267	-0.275
-543.266	-200.000	-0.017	-0.334
-542.252	-200.000	0.007	0.054
-541.237	-186.582	-0.353	0.005
-540.223	142.545	-0.228	-0.306
-539.208	-96.111	-0.157	-0.042
-538.193	-200.000	-0.062	-0.283
-537.179	394.833	-0.025	0.053
-536.164	146.763	0.204	-0.278
-535.150	-12.799	0.272	-0.180
-534.135	-87.880	0.263	0.080
-533.121	27.261	0.193	0.164
-532.106	58.076	0.179	-0.177
-531.091	-90.134	0.203	-0.060
-530.077	-200.000	-0.003	0.235
-529.062	-17.091	0.160	-0.102
-528.048	769.578	-0.053	0.146
-527.033	55.807	-0.151	-0.148
-526.018	416.150	0.055	0.118
-525.004	242.932	0.167	-0.283
-523.989	259.452	0.066	0.116
-522.975	-8.602	0.064	-0.044
-521.960	-1.520	0.026	0.019
-520.945	-86.800	0.300	0.093
-519.931	346.740	0.099	0.197
-518.916	471.876	-0.081	-0.184
-517.902	-200.000	-0.005	0.109
-516.887	-186.038	-0.058	-0.001
-515.872	49.378	-0.270	-0.257
-514.858	12.178	-0.306	-0.238
-513.843	389.107	0.075	0.156
-512.829	159.804	0.166	0.233
-511.814	-72.288	0.168	0.063
-510.799	-53.778	-0.203	0.094
-509.785	-42.211	-0.247	-0.127
-508.770	0.585	0.125	-0.091
-507.756	-200.000	0.027	0.138
-506.741	183.145	0.147	-0.219
-505.726	-38.077	-0.063	0.034
-504.712	435.935	-0.051	0.112
-503.697	-13.593	-0.194	0.127
-502.683	17.186	-0.165	0.132
-501.668	800.000	0.089	0.286
-500.653	-50.898	-0.335	-0.159
-499.639	-200.000	0.036	0.216
-498.624	5.766	-0.265	0.198
-497.610	-200.000	0.017	-0.230
-496.595	20.655	0.212	-0.173
-495.581	-200.000	-0.003	0.019
-494.566	-200.000	0.028	0.173
-493.551	-40.308	-0.073	-0.038
-492.537	-68.262	-0.309	-0.121
-491.522	-79.428	0.281	0.096
-490.508	54.272	-0.128	-0.124
-489.493	60.255	-0.314	-0.314
-488.478	-91.462	0.193	0.055
-487.464	-200.000	0.038	-0.302
-486.449	4.460	-0.210	0.156
-485.435	-177.759	0.172	-0.004
-484.420	-171.806	-0.062	-0.002
-483.405	-122.179	0.109	0.018
-482.391	-68.486	0.111	0.043
-481.376	-69.575	-0.589	-0.228
-480.362	-175.710	0.195	-0.005
-479.347	-120.624	0.180	0.031
-478.332	-200.000	-0.084	0.454
-477.318	-1.804	-0.367	0.260
-476.303	-200.000	0.051	-0.382
-475.289	-70.033	0.186	-0.071
-474.274	-65.357	-0.235	0.095
-473.259	-128.457	-0.403	-0.058
-472.245	-144.903	0.162	-0.015
-471.230	-200.000	-0.002	0.249
-470.216	-3.640	0.115	-0.081
-469.201	-200.000	-0.003	0.098
-468.186	462.017	0.062	0.141
-467.172	-25.770	-0.257	0.153
-466.157	7.080	-0.105	-0.079
-465.143	-79.853	-0.101	-0.034
-464.128	106.036	-0.155	-0.185
-463.113	21.851	0.051	0.042
-462.099	148.054	-0.168	-0.229
-461.084	408.629	-0.176	-0.376
-460.070	-200.000	-0.022	-0.102
-459.055	224.577	-0.086	-0.140
-458.040	-200.000	0.003	-0.195
-457.026	198.721	0.153	0.235
-456.011	-200.000	0.037	0.420
-454.997	310.696	0.167	-0.316
-453.982	6.504	-0.033	0.025
-452.968	754.136	-0.100	0.272
-451.953	-6.082	0.059	-0.041
-450.938	-200.000	0.018	-0.149
-449.924	163.650	-0.229	0.325
-448.909	800.000	-0.043	0.181
-447.895	530.546	0.028	-0.067
-446.880	-93.358	-0.479	-0.134
-445.865	-200.000	-0.041	0.376
-444.851	-200.000	0.009	0.226
-443.836	732.499	0.042	-0.114
-442.822	-25.691	0.255	0.152
-441.807	177.467	0.038	-0.055
-440.792	88.370	-0.012	-0.013
-439.778	-200.000	-0.000	-0.245
-438.763	-145.150	-0.264	0.024
-437.749	-113.687	0.438	0.086
-436.734	-200.000	0.003	0.280
-435.719	-200.000	0.065	-0.353
-434.705	800.000	0.075	-0.249
-433.690	-55.232	0.273	-0.124
-432.676	-26.395	-0.265	-0.156
-431.661	-70.089	-0.381	0.146
-430.646	8.948	-0.058	-0.044
-429.632	-181.304	-0.207	-0.004
-428.617	-19.966	0.402	-0.250
-427.603	-200.000	0.015	0.261
-426.588	-200.000	0.027	0.247
-425.573	-200.000	0.017	0.298
-424.559	27.364	0.177	-0.150
-423.544	800.000	0.076	-0.222
-422.530	-87.982	0.291	-0.088
-421.515	-35.233	0.245	0.134
-420.500	-49.101	0.138	-0.066
-419.486	800.000	-0.036	0.151
-418.471	-109.953	0.389	0.082
-417.457	-9.448	0.173	-0.116
-416.442	-122.243	-0.163	0.027
-415.428	-200.000	-0.008	0.360
-414.413	237.408	0.135	-0.226
-413.398	800.000	0.065	0.244
-412.384	-200.000	-0.016	0.196
-411.369	271.494	0.136	0.242
-410.355	-57.908	0.201	0.088
-409.340	51.046	0.275	-0.263
-408.325	-200.000	0.035	-0.246
-407.311	288.506	0.177	-0.322
-406.296	-40.056	-0.149	0.078
-405.282	-81.240	0.224	-0.075
-404.267	419.404	-0.071	0.152
-403.252	-27.666	0.187	0.109
-402.238	160.191	0.017	-0.024
-401.223	-4.245	0.106	-0.074
-400.209	-200.000	-0.007	-0.057
-399.194	84.717	-0.070	0.078
-398.179	203.627	0.068	0.106
-397.165	-98.474	-0.150	0.039
-396.150	66.360	0.173	-0.177
-395.136	-78.484	0.186	-0.064
-394.121	-200.000	0.033	0.335
-393.106	-200.000	0.053	-0.426
-392.092	-200.000	0.011	0.061
-391.077	-200.000	-0.045	0.232
-390.063	99.290	0.148	0.172
-389.048	-140.585	0.129	-0.013
-388.033	98.944	-0.326	-0.378
-387.019	800.000	-0.012	0.034
-386.004	645.540	-0.177	-0.453
-384.990	240.113	-0.030	-0.050
-383.975	-51.905	0.066	-0.031
-382.960	87.755	0.073	0.081
-381.946	-84.973	0.422	0.133
-380.931	479.659	0.068	0.156
-379.917	643.378	-0.190	-0.486
-378.902	-200.000	0.033	-0.322
-377.888	16.674	-0.132	0.105
-376.873	288.053	0.182	0.331
-375.858	-144.553	-0.210	0.020
-374.844	248.438	-0.092	-0.157
-373.829	303.285	-0.080	0.150
-372.815	800.000	-0.044	-0.170
-371.800	18.563	0.196	-0.157
-370.785	-28.679	-0.373	-0.216
-369.771	-41.739	-0.246	0.127
-368.756	-73.143	-0.203	0.075
-367.742	-131.691	0.154	-0.020
-366.727	-22.621	-0.280	0.170
-365.712	-59.107	-0.173	-0.075
-364.698	-200.000	-0.038	-0.184
-363.683	-169.487	-0.047	0.002
-362.669	-75.005	0.377	-0.136
-361.654	118.197	0.157	0.194
-360.639	-124.218	-0.268	0.042
-359.625	-200.000	-0.077	0.530
-358.610	196.417	-0.107	-0.163
-357.596	-128.436	-0.219	0.031
-356.581	124.190	-0.262	0.330
-355.566	-38.348	-0.149	-0.079
-354.552	-200.000	-0.012	0.285
-353.537	301.197	0.026	0.047
-352.523	-80.123	0.323	0.109
-351.508	145.198	-0.179	0.240
-350.493	-57.447	-0.319	0.140
-349.479	-200.000	-0.002	-0.058
-348.464	160.875	0.115	0.161
-347.450	-200.000	-0.064	0.313
-346.435	638.476	0.074	0.190
-345.420	184.449	-0.099	0.147
-344.406	-126.789	0.322	0.048
-343.391	-87.816	-0.156	0.047
-342.377	199.617	0.085	-0.131
-341.362	-87.723	-0.103	0.031
-340.348	252.034	-0.201	0.344
-339.333	800.000	0.057	-0.223
-338.318	-37.188	-0.282	-0.151
-337.304	107.163	-0.143	-0.170
-336.289	800.000	-0.065	-0.250
-335.275	140.508	0.117	0.156
-334.260	139.523	0.113	0.149
-333.245	-24.704	-0.141	0.084
-332.231	213.447	0.081	0.128
-331.216	800.000	-0.061	0.184
-330.202	499.212	-0.066	-0.152
-329.187	18.298	-0.152	0.122
-328.172	-200.000	-0.045	-0.336
-327.158	-142.373	-0.231	-0.023
-326.143	-41.214	-0.125	0.065
-325.129	-122.550	-0.115	0.019
-324.114	-200.000	-0.019	-0.089
-323.099	800.000	0.086	0.260
-322.085	185.896	0.234	0.349
-321.070	800.000	0.028	-0.089
-320.056	-200.000	0.064	0.345
-319.041	606.474	-0.074	-0.185
-318.026	-51.569	0.128	0.060
-317.012	71.152	0.174	-0.181
-315.997	-72.841	-0.251	-0.093
-314.983	-71.035	-0.148	-0.056
-313.968	800.000	0.047	-0.193
-312.953	800.000	-0.020	-0.081
-311.939	535.589	-0.159	-0.378
-310.924	-151.701	0.226	0.017
-309.910	-125.980	-0.429	0.065
-308.895	-84.336	0.217	-0.069
-307.880	716.110	0.081	0.216
-306.866	40.040	0.216	-0.194
-305.851	-76.379	-0.192	0.068
-304.837	67.185	0.210	0.214
-303.822	88.396	-0.046	-0.051
-302.807	113.708	-0.103	0.126
-301.793	58.121	0.100	0.098
-300.778	800.000	-0.039	0.113
-299.764	-200.000	-0.004	0.132
-298.749	-125.063	-0.249	0.038
-297.735	470.069	-0.076	-0.172
-296.720	800.000	-0.074	-0.314
-295.705	191.789	0.134	0.202
-294.691	62.765	-0.131	0.131
-293.676	53.771	-0.215	0.207
-292.662	-200.000	0.044	-0.319
-291.647	502.817	-0.085	-0.196
-290.632	329.660	-0.032	0.061
-289.618	-56.776	-0.153	0.068
-288.603	364.562	-0.105	0.211
-287.589	-56.739	0.057	0.025
-286.574	-200.000	0.052	0.274
-285.559	-130.144	-0.129	-0.018
-284.545	-200.000	0.056	0.250
-283.530	76.272	0.119	0.127
-282.516	81.266	-0.046	-0.050
-281.501	-28.220	0.075	-0.043
-280.486	-70.817	0.454	-0.172
-279.472	800.000	0.063	0.261
-278.457	137.749	-0.099	0.130
-277.443	760.672	0.050	-0.137
-276.428	-56.871	-0.419	-0.185
-275.413	-131.947	-0.144	-0.019
-274.399	297.912	-0.110	-0.203
-273.384	-20.624	-0.188	-0.116
-272.370	285.700	0.050	-0.090
-271.355	-27.460	-0.265	0.154
-270.340	117.647	-0.099	-0.122
-269.326	175.966	-0.082	-0.119
-268.311	33.673	0.206	-0.179
-267.297	800.000	-0.145	-0.414
-266.282	-113.825	-0.081	-0.016
-265.267	-200.000	0.000	-0.058
-264.253	-108.566	-0.125	-0.027
-263.238	-200.000	-0.013	-0.117
-262.224	94.880	0.253	-0.288
-261.209	-145.510	-0.373	0.034
-260.195	-15.761	-0.160	0.102
-259.180	-200.000	0.032	-0.174
-258.165	-73.098	0.161	-0.059
-257.151	-32.933	0.037	-0.020
-256.136	76.199	0.211	0.223
-255.122	-49.885	0.180	0.086
-254.107	-31.988	-0.074	0.041
-253.092	279.416	0.101	-0.180
-252.078	800.000	-0.088	-0.315
-251.063	174.449	0.148	0.214
-250.049	227.658	0.049	-0.080
-249.034	800.000	0.123	-0.374
-248.019	410.029	0.127	0.270
-247.005	-56.229	0.117	-0.052
-245.990	-29.310	0.153	-0.088
-244.976	76.126	0.113	-0.120
-243.961	-200.000	-0.039	-0.202
-242.946	-80.464	0.221	0.074
-241.932	-18.911	0.188	0.117
-240.917	-70.369	-0.149	-0.057
-239.903	-200.000	0.057	0.280
-238.888	-12.695	0.044	-0.028
-237.873	-200.000	-0.008	0.096
-236.859	458.754	0.071	-0.158
-235.844	-200.000	0.012	0.122
-234.830	41.478	-0.187	0.169
-233.815	46.303	-0.271	0.251
-232.800	-200.000	0.016	0.131
-231.786	-122.873	0.346	0.056
-230.771	19.134	-0.088	-0.070
-229.757	312.794	0.047	0.089
-228.742	-20.268	-0.081	0.050
-227.727	471.359	0.077	-0.172
-226.713	61.344	-0.150	0.149
-225.698	-113.241	-0.169	0.033
-224.684	-200.000	-0.046	-0.204
-223.669	393.262	-0.080	-0.166
-222.655	22.777	-0.162	0.132
-221.640	-127.020	-0.017	-0.003
-220.625	12.869	-0.159	0.123
-219.611	-200.000	-0.032	0.490
-218.596	50.917	0.233	-0.220
-217.582	-54.752	0.231	-0.104
-216.567	332.004	0.057	-0.110
-215.552	800.000	-0.034	0.124
-214.538	-200.000	-0.022	0.206
-213.523	-165.559	0.247	-0.011
-212.509	800.000	0.053	-0.147
-211.494	-116.029	0.603	-0.112
-210.479	473.328	0.035	-0.079
-209.465	542.156	0.087	-0.207
-208.450	245.083	0.167	-0.280
-207.436	-153.981	0.142	-0.010
-206.421	35.625	0.154	-0.135
-205.406	-24.599	-0.076	-0.045
-204.392	-21.244	-0.204	-0.124
-203.377	128.867	-0.321	0.409
-202.363	-143.407	0.340	0.033
-201.348	800.000	0.060	0.170
-200.333	208.454	0.140	-0.219
-199.319	69.010	-0.244	-0.250
-198.304	-200.000	0.038	-0.224
-197.290	1.607	0.382	0.275
-196.275	-200.000	0.021	-0.264
-195.260	-200.000	0.000	-0.232
-194.246	595.303	0.063	-0.156
-193.231	-200.000	-0.133	0.688
-192.217	182.440	0.111	0.163
-191.202	6.086	-0.025	-0.018
-190.187	800.000	0.050	0.207
-189.173	-99.649	-0.207	-0.052
-188.158	-200.000	-0.023	0.121
-187.144	-71.470	0.105	-0.039
-186.129	-105.811	0.106	0.024
-185.114	6.079	-0.204	-0.151
-184.100	199.990	0.041	0.063
-183.085	28.525	-0.164	-0.138
-182.071	154.035	0.299	0.409
-181.056	54.139	-0.094	-0.090
-180.042	64.753	-0.068	-0.068
-179.027	65.917	-0.218	0.220
-178.012	-200.000	-0.002	0.187
-176.998	78.560	0.038	-0.040
-175.983	309.379	0.100	-0.187
-174.969	-200.000	0.426	0.000
-173.954	800.000	-0.075	0.282
-172.939	736.718	-0.057	0.152
-171.925	-200.000	0.075	0.355
-170.910	-200.000	-0.020	-0.113
-169.896	37.426	-0.271	0.240
-168.881	-200.000	-0.018	-0.348
-167.866	633.470	0.127	-0.322
-166.852	-108.380	0.247	0.053
-165.837	-32.049	0.279	0.156
-164.823	-33.260	-0.122	0.067
-163.808	-44.037	-0.070	-0.035
-162.793	-200.000	0.020	0.246
-161.779	-80.205	-0.346	0.115
-160.764	-117.076	-0.347	-0.063
-159.750	-74.556	-0.155	0.056
-158.735	-17.952	-0.190	-0.119
-157.720	-55.091	0.164	-0.074
-156.706	-142.516	-0.041	-0.004
-155.691	-200.000	0.019	-0.124
-154.677	230.531	0.231	0.376
-153.662	777.521	0.125	0.341
-152.647	-177.360	0.110	-0.003
-151.633	-102.362	0.148	-0.035
-150.618	-18.173	-0.249	0.156
-149.604	-76.412	0.294	-0.103
-148.589	406.337	0.149	0.314
-147.574	189.318	-0.032	0.048
-146.560	-200.000	0.041	0.200
-145.545	33.736	-0.121	-0.105
-144.531	-49.505	0.190	0.090
-143.516	-11.444	-0.190	0.124
-142.502	759.904	0.097	0.261
-141.487	-200.000	-0.023	-0.145
-140.472	-70.489	0.485	0.183
-139.458	-104.123	-0.398	0.092
-138.443	-200.000	-0.025	-0.123
-137.429	-53.159	-0.213	-0.097
-136.414	-49.519	0.319	0.152
-135.399	-153.563	-0.153	-0.011
-134.385	-60.446	0.428	0.181
-133.370	-8.116	-0.124	-0.083
-132.356	-9.964	0.309	-0.204
-131.341	-70.453	-0.432	0.163
-130.326	-106.815	0.223	0.049
-129.312	310.931	-0.102	-0.191
-128.297	9.066	0.238	0.179
-127.283	100.540	-0.119	0.138
-126.268	356.001	0.143	0.283
-125.253	-31.187	0.020	0.011
-124.239	119.565	-0.163	0.201
-123.224	566.731	-0.085	0.206
-122.210	440.267	-0.175	0.381
-121.195	-188.404	-0.228	0.003
