DTS Sentinel unit serial number:	SN413079Multiplexer serial number:	ORYXHardware model number:	OX4-SRSoftware version number:	ORYX F/W v4.00 Oryx Data Collector v3.7.2.0data status	okinstallation	princeton_trtdifferential loss correction	single-endedforward channel	channel 2reverse channel	N/Adate	2019/09/17time	20:11:35forward acquisition time	60.00reverse acquisition time	0.00gamma	496.2192k internal	0.2334k external	0.2334temperature offset calibration	0.9985default loss term (dB/km)	0.3790temperature slope calibration	1.0000multiplexer offset coefficient	1.0000multiplexer slope coefficient	1.0000fibre end	0.00T internal ref (°C)	32.20T ext. ref 1 (°C)	0.22T ext. ref 2 (°C)	22.35length (m)	temperature (°C)	Stokes	anti-Stokes-747.200	33.238	-0.184	-0.160
-746.185	11.744	0.118	0.091
-745.171	11.231	-0.384	0.295
-744.156	5.492	0.136	-0.101
-743.142	-75.936	0.197	-0.070
-742.127	-120.643	-0.122	0.021
-741.112	97.619	-0.216	0.249
-740.098	-200.000	0.031	0.221
-739.083	-90.612	0.250	-0.073
-738.069	209.381	-0.227	0.357
-737.054	312.820	0.193	-0.364
-736.039	56.863	-0.174	-0.171
-735.025	-200.000	-0.011	0.236
-734.010	93.115	0.158	-0.179
-732.996	-200.000	-0.065	-0.434
-731.981	-94.141	-0.276	-0.076
-730.966	-65.831	0.147	0.059
-729.952	595.888	-0.114	-0.283
-728.937	35.756	-0.128	0.113
-727.923	-200.000	0.032	0.210
-726.908	6.500	-0.215	0.160
-725.894	-200.000	0.021	0.242
-724.879	-122.681	0.066	0.011
-723.864	-125.103	0.160	-0.025
-722.850	-80.087	0.027	0.009
-721.835	-167.578	-0.236	-0.009
-720.821	-200.000	-0.090	-0.000
-719.806	-65.126	-0.314	-0.127
-718.791	-200.000	0.011	0.216
-717.777	133.252	-0.191	0.247
-716.762	110.040	0.120	-0.144
-715.748	-94.729	0.194	-0.053
-714.733	185.841	-0.082	0.122
-713.718	-29.307	0.043	0.025
-712.704	39.773	0.086	0.078
-711.689	172.857	-0.242	-0.349
-710.675	-17.396	0.075	0.048
-709.660	-110.835	-0.129	0.027
-708.645	147.929	0.240	-0.325
-707.631	-200.000	0.020	0.183
-706.616	-37.143	0.094	-0.050
-705.602	-87.880	-0.198	0.060
-704.587	-178.175	0.183	0.004
-703.572	57.076	-0.144	-0.141
-702.558	-200.000	-0.011	-0.188
-701.543	-136.513	-0.188	0.022
-700.529	695.212	0.103	0.272
-699.514	408.914	-0.032	-0.068
-698.499	436.927	-0.150	0.328
-697.485	-125.184	0.311	0.048
-696.470	-82.331	-0.161	-0.053
-695.456	-100.938	0.420	0.104
-694.441	43.253	-0.082	0.075
-693.426	-107.122	0.149	0.033
-692.412	-136.834	-0.293	0.034
-691.397	-108.385	-0.070	0.015
-690.383	-96.457	-0.089	-0.024
-689.368	-54.333	0.165	0.075
-688.354	-200.000	-0.033	-0.203
-687.339	8.729	-0.214	-0.162
-686.324	52.398	0.154	0.147
-685.310	-100.946	-0.051	-0.013
-684.295	-200.000	0.024	-0.443
-683.281	320.864	-0.130	0.248
-682.266	-79.688	0.277	-0.094
-681.251	93.264	-0.174	0.197
-680.237	-42.890	-0.187	0.095
-679.222	-22.795	-0.195	-0.118
-678.208	-13.105	0.131	-0.086
-677.193	-200.000	0.013	0.249
-676.178	24.116	-0.086	-0.072
-675.164	301.125	-0.140	-0.259
-674.149	408.980	-0.137	-0.290
-673.135	184.829	-0.133	0.198
-672.120	-46.492	-0.243	-0.119
-671.105	790.065	-0.091	0.251
-670.091	-64.339	-0.175	-0.072
-669.076	283.022	0.212	-0.381
-668.062	576.625	-0.116	-0.284
-667.047	106.620	0.281	-0.334
-666.032	-31.924	0.076	0.043
-665.018	-71.099	-0.156	0.059
-664.003	-137.736	-0.124	0.014
-662.989	126.239	-0.069	0.087
-661.974	565.303	-0.149	0.361
-660.959	336.073	-0.047	0.091
-659.945	-21.391	-0.186	-0.114
-658.930	12.609	-0.159	0.123
-657.916	377.808	0.114	0.234
-656.901	-157.416	0.354	-0.021
-655.886	463.973	0.097	-0.218
-654.872	-45.429	-0.231	0.115
-653.857	-160.482	0.215	-0.012
-652.843	-40.410	-0.148	-0.077
-651.828	800.000	-0.113	-0.400
-650.814	800.000	0.016	0.071
-649.799	781.515	0.050	-0.137
-648.784	19.859	-0.110	-0.089
-647.770	612.602	0.044	-0.109
-646.755	-45.178	-0.237	0.118
-645.741	56.158	-0.172	0.167
-644.726	800.000	-0.043	-0.174
-643.711	-112.352	0.179	-0.036
-642.697	185.069	-0.088	-0.130
-641.682	19.599	0.176	-0.142
-640.668	580.879	-0.024	-0.060
-639.653	4.216	-0.060	-0.044
-638.638	-115.652	-0.143	0.027
-637.624	-95.997	-0.070	-0.019
-636.609	800.000	-0.125	0.422
-635.595	606.821	0.165	-0.411
-634.580	-35.674	-0.227	0.123
-633.565	-34.776	0.177	0.097
-632.551	-48.777	-0.016	-0.008
-631.536	-99.236	-0.212	-0.054
-630.522	-82.253	-0.273	0.089
-629.507	-152.544	0.094	0.007
-628.492	135.952	0.106	0.138
-627.478	800.000	0.103	0.343
-626.463	800.000	-0.134	-0.379
-625.449	-60.586	0.320	0.136
-624.434	152.477	0.028	-0.039
-623.419	-84.500	-0.243	-0.077
-622.405	206.399	0.035	0.055
-621.390	26.616	0.334	-0.280
-620.376	-139.170	0.079	-0.009
-619.361	2.047	-0.244	0.176
-618.346	84.269	-0.091	0.099
-617.332	-162.242	-0.325	0.016
-616.317	-96.802	-0.467	-0.123
-615.303	52.552	0.325	0.310
-614.288	-111.639	-0.158	0.032
-613.273	800.000	-0.016	0.052
-612.259	-200.000	-0.031	0.175
-611.244	-12.828	-0.180	0.117
-610.230	52.354	0.190	0.182
-609.215	-111.363	-0.267	0.055
-608.201	-200.000	-0.051	-0.247
-607.186	-12.415	-0.242	0.158
-606.171	-200.000	-0.032	-0.175
-605.157	12.434	-0.071	0.055
-604.142	95.238	0.084	-0.095
-603.128	-62.463	-0.252	-0.105
-602.113	-114.750	-0.156	-0.030
-601.098	-84.452	-0.036	-0.011
-600.084	220.709	0.019	0.030
-599.069	123.882	-0.059	-0.074
-598.055	13.495	-0.245	0.190
-597.040	-130.879	0.218	0.029
-596.025	21.428	-0.226	-0.183
-595.011	55.031	-0.099	0.096
-593.996	82.749	-0.311	0.338
-592.982	-58.485	0.175	-0.076
-591.967	218.866	-0.103	0.164
-590.952	716.002	-0.081	0.215
-589.938	-200.000	-0.000	0.125
-588.923	-16.824	-0.342	-0.216
-587.909	-200.000	0.017	0.212
-586.894	542.213	0.063	0.151
-585.879	346.715	0.089	0.174
-584.865	800.000	-0.013	0.041
-583.850	-27.845	0.096	0.056
-582.836	-121.775	0.217	-0.036
-581.821	63.259	0.014	-0.014
-580.806	-175.787	0.240	0.006
-579.792	-200.000	-0.013	0.074
-578.777	79.460	-0.093	-0.099
-577.763	-59.262	-0.189	-0.081
-576.748	70.372	-0.212	-0.218
-575.733	-200.000	-0.011	-0.130
-574.719	-162.521	0.208	0.010
-573.704	-200.000	-0.004	-0.079
-572.690	-65.065	-0.162	0.065
-571.675	-200.000	0.020	-0.166
-570.661	-118.223	-0.120	0.021
-569.646	-200.000	-0.023	-0.188
-568.631	9.652	0.135	0.102
-567.617	800.000	0.103	-0.388
-566.602	198.394	-0.123	0.187
-565.588	30.902	0.201	0.172
-564.573	244.629	-0.131	0.220
-563.558	-200.000	-0.006	-0.159
-562.544	-200.000	0.008	0.050
-561.529	177.471	-0.153	-0.223
-560.515	-16.925	0.082	0.052
-559.500	-111.322	-0.172	0.035
-558.485	800.000	0.126	-0.351
-557.471	-97.344	0.201	-0.052
-556.456	-200.000	0.077	-0.370
-555.442	800.000	0.031	-0.088
-554.427	-110.590	-0.208	0.043
-553.412	392.664	-0.047	0.097
-552.398	610.833	-0.082	0.205
-551.383	266.281	-0.075	0.130
-550.369	128.994	0.145	-0.185
-549.354	-200.000	-0.043	0.329
-548.339	-200.000	0.030	0.380
-547.325	78.275	0.142	-0.152
-546.310	800.000	-0.126	-0.397
-545.296	274.783	0.112	0.197
-544.281	800.000	0.068	0.212
-543.266	146.547	0.090	0.121
-542.252	800.000	-0.045	-0.188
-541.237	800.000	0.040	0.121
-540.223	-71.853	0.109	-0.041
-539.208	63.640	0.258	0.258
-538.193	58.988	-0.300	0.294
-537.179	2.151	-0.219	0.158
-536.164	-128.704	0.184	0.026
-535.150	58.711	-0.387	-0.379
-534.135	75.107	-0.122	-0.128
-533.121	152.951	-0.047	0.064
-532.106	-190.807	0.251	-0.003
-531.091	800.000	0.093	-0.392
-530.077	319.383	0.037	-0.070
-529.062	-49.695	0.139	0.066
-528.048	800.000	0.034	-0.125
-527.033	120.125	0.065	0.081
-526.018	389.220	0.087	0.180
-525.004	-73.701	0.484	0.176
-523.989	-119.126	-0.075	-0.013
-522.975	53.523	0.134	-0.128
-521.960	223.730	0.100	-0.161
-520.945	-200.000	0.037	0.164
-519.931	-149.362	0.127	-0.010
-518.916	-200.000	0.007	-0.051
-517.902	14.013	-0.061	0.047
-516.887	-200.000	-0.041	0.317
-515.872	2.044	0.068	0.049
-514.858	-63.377	0.139	0.057
-513.843	-93.559	-0.279	-0.077
-512.829	89.790	-0.106	-0.118
-511.814	-200.000	0.027	-0.210
-510.799	-200.000	-0.019	0.150
-509.785	400.359	0.084	-0.176
-508.770	192.952	-0.143	0.215
-507.756	-79.090	-0.370	0.125
-506.741	-37.350	0.352	0.187
-505.726	286.005	-0.048	0.087
-504.712	472.305	-0.130	-0.292
-503.697	-200.000	0.012	0.122
-502.683	494.726	0.142	-0.325
-501.668	-40.473	0.205	-0.106
-500.653	298.145	-0.110	0.201
-499.639	-200.000	-0.010	0.109
-498.624	141.653	0.139	-0.183
-497.610	-200.000	-0.024	0.189
-496.595	-6.969	0.230	-0.155
-495.581	-87.772	-0.274	0.082
-494.566	-136.170	-0.015	-0.002
-493.551	800.000	-0.029	0.099
-492.537	-200.000	-0.039	0.490
-491.522	-104.274	-0.154	-0.035
-490.508	63.616	0.147	-0.147
-489.493	-106.186	0.196	0.044
-488.478	-200.000	0.056	0.250
-487.464	-110.348	0.282	-0.058
-486.449	-126.002	0.244	0.036
-485.435	-16.759	-0.352	-0.222
-484.420	108.539	0.223	-0.265
-483.405	-78.678	-0.276	-0.094
-482.391	-154.597	-0.185	-0.012
-481.376	800.000	0.067	-0.265
-480.362	-200.000	0.021	-0.178
-479.347	349.919	-0.140	0.275
-478.332	-200.000	0.024	-0.218
-477.318	-71.643	0.277	0.103
-476.303	49.993	-0.101	-0.095
-475.289	455.622	0.080	-0.177
-474.274	-200.000	-0.019	0.208
-473.259	-200.000	0.000	0.016
-472.245	716.233	-0.042	0.112
-471.230	-83.063	0.307	0.098
-470.216	800.000	-0.008	0.033
-469.201	-35.355	-0.092	-0.050
-468.186	137.101	0.179	0.233
-467.172	-200.000	-0.008	0.149
-466.157	-124.636	-0.125	-0.019
-465.143	180.549	-0.207	0.302
-464.128	172.055	-0.158	-0.226
-463.113	-71.958	0.267	-0.099
-462.099	-200.000	-0.082	-0.404
-461.084	-200.000	-0.035	-0.192
-460.070	281.211	-0.053	-0.094
-459.055	-50.026	0.168	0.079
-458.040	800.000	-0.030	0.087
-457.026	-200.000	0.019	0.215
-456.011	-129.110	0.225	0.031
-454.997	46.687	-0.135	0.125
-453.982	62.248	-0.159	-0.158
-452.968	25.727	-0.107	0.089
-451.953	98.102	0.165	-0.189
-450.938	-200.000	-0.022	-0.205
-449.924	185.424	0.031	-0.046
-448.909	-78.477	0.227	0.077
-447.895	-52.298	-0.487	0.224
-446.880	409.233	-0.121	0.255
-445.865	-160.817	0.502	-0.026
-444.851	138.911	-0.124	0.162
-443.836	-30.850	-0.154	0.086
-442.822	-200.000	-0.043	0.218
-441.807	275.841	0.044	-0.078
-440.792	800.000	-0.046	-0.138
-439.778	227.610	0.119	-0.192
-438.763	800.000	-0.022	0.075
-437.749	-134.859	-0.181	-0.022
-436.734	-117.005	0.369	0.067
-435.719	-110.851	-0.252	0.052
-434.705	-93.920	0.098	-0.027
-433.690	-200.000	0.001	-0.059
-432.676	20.398	-0.096	-0.077
-431.661	9.202	-0.178	-0.134
-430.646	-84.097	-0.136	-0.043
-429.632	51.822	-0.234	0.222
-428.617	-24.710	0.095	0.056
-427.603	-200.000	0.013	-0.091
-426.588	83.337	-0.226	-0.244
-425.573	-200.000	0.020	-0.212
-424.559	-38.363	-0.077	-0.040
-423.544	800.000	0.069	-0.216
-422.530	102.177	-0.145	0.168
-421.515	487.215	-0.103	-0.234
-420.500	-200.000	0.020	0.154
-419.486	22.634	0.219	0.178
-418.471	219.475	-0.157	-0.249
-417.457	-200.000	0.043	0.413
-416.442	429.064	-0.115	0.248
-415.428	258.752	0.038	0.065
-414.413	-96.336	0.211	0.055
-413.398	-41.162	-0.215	-0.110
-412.384	800.000	-0.043	-0.174
-411.369	672.387	-0.111	-0.286
-410.355	-35.313	0.313	-0.169
-409.340	800.000	0.001	-0.004
-408.325	-77.698	0.049	-0.017
-407.311	-167.130	-0.337	0.014
-406.296	7.213	0.368	-0.273
-405.282	432.170	0.162	0.349
-404.267	800.000	-0.118	-0.325
-403.252	-15.189	-0.095	-0.060
-402.238	-200.000	0.026	-0.465
-401.223	244.945	0.083	-0.138
-400.209	-110.330	-0.064	0.013
-399.194	109.262	-0.039	-0.046
-398.179	-200.000	0.050	0.245
-397.165	-13.186	0.129	0.083
-396.150	558.174	0.164	-0.391
-395.136	-130.223	-0.111	-0.015
-394.121	207.763	-0.107	0.166
-393.106	86.263	-0.126	0.137
-392.092	-200.000	0.048	-0.366
-391.077	186.524	-0.244	0.361
-390.063	-166.424	-0.387	0.016
-389.048	267.359	0.096	0.166
-388.033	800.000	0.044	0.164
-387.019	349.073	0.154	-0.301
-386.004	-53.763	-0.277	-0.125
-384.990	800.000	-0.018	-0.062
-383.975	-131.808	-0.327	0.042
-382.960	-69.116	0.298	-0.114
-381.946	601.275	-0.070	0.173
-380.931	-139.039	-0.104	0.011
-379.917	-200.000	0.023	0.221
-378.902	96.039	0.163	0.184
-377.888	16.010	-0.225	-0.176
-376.873	767.069	0.141	0.380
-375.858	82.781	0.345	0.372
-374.844	-75.949	-0.507	-0.178
-373.829	13.946	0.188	-0.145
-372.815	59.548	-0.376	-0.368
-371.800	513.748	0.249	-0.575
-370.785	-200.000	0.007	-0.269
-369.771	-95.124	-0.183	-0.049
-368.756	-85.459	-0.303	-0.093
-367.742	800.000	-0.092	0.281
-366.727	30.436	-0.106	-0.090
-365.712	197.006	0.055	-0.084
-364.698	121.760	-0.104	0.129
-363.683	4.897	-0.073	-0.053
-362.669	-200.000	-0.013	0.195
-361.654	627.520	-0.073	0.182
-360.639	291.140	-0.163	-0.294
-359.625	-35.938	0.035	-0.019
-358.610	-80.344	-0.249	-0.082
-357.596	-200.000	-0.362	-0.002
-356.581	-107.875	-0.303	0.065
-355.566	-97.970	0.288	0.073
-354.552	352.316	0.165	-0.324
-353.537	28.388	0.118	-0.099
-352.523	223.455	-0.137	-0.219
-351.508	91.964	0.257	-0.286
-350.493	-88.083	-0.227	-0.067
-349.479	-93.427	-0.392	-0.107
-348.464	490.597	-0.085	-0.192
-347.450	35.037	0.065	0.056
-346.435	102.283	0.257	0.298
-345.420	528.474	0.100	0.234
-344.406	800.000	0.072	0.222
-343.391	800.000	-0.079	-0.292
-342.377	-28.576	0.233	-0.133
-341.362	-6.093	0.220	0.149
-340.348	87.704	-0.147	0.161
-339.333	79.219	-0.080	-0.085
-338.318	-110.900	-0.012	-0.002
-337.304	800.000	0.058	0.161
-336.289	-183.002	-0.163	0.003
-335.275	-81.854	0.142	0.046
-334.260	-89.712	-0.307	0.089
-333.245	800.000	-0.086	-0.308
-332.231	-141.241	0.154	-0.016
-331.216	438.271	0.100	-0.215
-330.202	-17.604	0.210	-0.130
-329.187	-190.231	0.066	-0.001
-328.172	-200.000	-0.024	0.161
-327.158	-151.218	-0.197	0.015
-326.143	-14.132	0.261	0.166
-325.129	554.478	0.094	0.223
-324.114	-48.093	0.102	0.049
-323.099	-200.000	-0.026	-0.657
-322.085	-35.216	-0.120	-0.065
-321.070	-152.894	0.121	0.008
-320.056	-71.177	0.156	-0.058
-319.041	-42.591	-0.197	0.099
-318.026	-200.000	0.006	0.135
-317.012	800.000	-0.112	0.456
-315.997	-45.228	0.350	0.172
-314.983	431.338	0.054	-0.116
-313.968	800.000	0.109	-0.310
-312.953	50.590	0.011	-0.010
-311.939	53.970	0.353	-0.335
-310.924	-5.200	0.085	-0.058
-309.910	191.283	-0.235	0.350
-308.895	-50.810	0.179	-0.083
-307.880	-56.062	-0.335	-0.147
-306.866	-200.000	-0.007	-0.202
-305.851	-1.254	-0.343	0.239
-304.837	-102.063	0.154	-0.037
-303.822	60.635	0.113	0.111
-302.807	800.000	0.088	-0.338
-301.793	-81.831	0.324	0.105
-300.778	123.270	-0.223	0.277
-299.764	19.197	0.335	0.266
-298.749	-200.000	0.008	-0.065
-297.735	225.098	-0.208	0.333
-296.720	268.908	0.106	0.184
-295.705	71.103	0.269	-0.275
-294.691	-5.942	-0.204	-0.138
-293.676	82.969	-0.124	0.133
-292.662	71.963	0.128	0.131
-291.647	380.982	-0.105	-0.213
-290.632	-200.000	0.054	-0.395
-289.618	-110.629	-0.039	0.008
-288.603	-87.169	-0.346	0.104
-287.589	800.000	0.025	0.076
-286.574	101.765	0.019	0.022
-285.559	-129.090	0.140	0.019
-284.545	-68.445	0.174	-0.067
-283.530	-200.000	-0.033	0.196
-282.516	800.000	-0.028	0.119
-281.501	-200.000	-0.097	0.436
-280.486	-95.352	-0.053	-0.014
-279.472	800.000	0.082	0.258
-278.457	-95.762	0.176	-0.046
-277.443	29.140	-0.130	-0.109
-276.428	800.000	0.031	0.093
-275.413	129.581	0.150	-0.189
-274.399	-142.175	0.438	0.043
-273.384	138.388	0.117	-0.151
-272.370	362.621	-0.074	0.146
-271.355	311.024	0.072	-0.133
-270.340	-200.000	-0.008	-0.068
-269.326	-200.000	-0.014	-0.320
-268.311	-8.007	0.236	-0.157
-267.297	53.419	0.104	0.099
-266.282	800.000	0.084	-0.319
-265.267	492.654	0.159	-0.360
-264.253	155.810	-0.119	-0.162
-263.238	491.575	-0.114	-0.257
-262.224	-148.679	-0.260	0.021
-261.209	206.060	-0.158	0.243
-260.195	-200.000	-0.059	0.308
-259.180	-200.000	0.041	0.230
-258.165	16.725	-0.137	-0.107
-257.151	483.226	0.094	-0.210
-256.136	441.268	-0.011	0.023
-255.122	-200.000	0.067	-0.290
-254.107	-3.500	-0.246	-0.169
-253.092	-10.813	0.304	-0.198
-252.078	-86.159	-0.150	-0.046
-251.063	132.697	-0.128	-0.163
-250.049	-113.811	-0.223	-0.043
-249.034	-30.847	0.270	0.151
-248.019	-200.000	-0.028	0.156
-247.005	42.270	-0.192	-0.172
-245.990	421.283	-0.086	0.181
-244.976	-4.868	-0.200	0.136
-243.961	800.000	-0.045	0.192
-242.946	59.142	-0.124	0.121
-241.932	157.632	-0.063	0.087
-240.917	2.643	0.361	0.258
-239.903	800.000	0.067	0.204
-238.888	6.100	-0.151	-0.111
-237.873	189.742	-0.174	0.258
-236.859	162.428	-0.091	0.126
-235.844	-200.000	0.019	0.211
-234.830	-8.318	-0.148	-0.098
-233.815	230.183	-0.104	0.167
-232.800	-200.000	-0.018	0.210
-231.786	326.891	0.052	-0.099
-230.771	59.382	-0.060	-0.058
-229.757	308.026	-0.031	0.056
-228.742	-200.000	0.030	0.150
-227.727	-44.594	-0.178	-0.088
-226.713	-71.960	0.446	-0.163
-225.698	-121.445	0.376	0.062
-224.684	-200.000	-0.047	-0.375
-223.669	8.281	0.154	0.114
-222.655	-176.326	-0.131	-0.003
-221.640	800.000	0.053	0.213
-220.625	153.483	-0.147	-0.198
-219.611	423.276	0.040	-0.085
-218.596	-200.000	-0.025	0.228
-217.582	20.363	-0.121	-0.096
-216.567	179.642	0.268	0.386
-215.552	-130.719	-0.333	-0.044
-214.538	-43.938	0.094	-0.047
-213.523	111.233	-0.131	-0.156
-212.509	-182.685	0.103	0.002
-211.494	800.000	0.006	0.021
-210.479	-29.566	0.181	-0.102
-209.465	171.916	0.139	0.197
-208.450	-200.000	0.060	0.305
-207.436	-12.317	-0.143	-0.092
-206.421	-155.627	0.391	0.025
-205.406	-60.309	-0.154	0.064
-204.392	-145.214	0.341	0.030
-203.377	366.614	-0.038	-0.076
-202.363	-200.000	0.060	0.268
-201.348	-131.681	0.278	-0.036
-200.333	262.666	-0.016	-0.027
-199.319	499.123	-0.142	0.323
-198.304	709.640	-0.132	-0.343
-197.290	241.220	-0.133	0.218
-196.275	-119.308	0.134	0.023
-195.260	30.512	0.031	-0.026
-194.246	383.358	0.132	0.267
-193.231	-9.277	-0.038	0.025
-192.217	-200.000	-0.010	-0.087
-191.202	201.715	0.074	-0.112
-190.187	-200.000	0.016	-0.428
-189.173	182.137	0.122	0.177
-188.158	-77.593	0.092	0.031
-187.144	-9.357	-0.186	-0.122
-186.129	-24.779	0.102	0.059
-185.114	-19.762	0.195	-0.119
-184.100	800.000	-0.066	-0.235
-183.085	-94.703	0.138	-0.037
-182.071	-200.000	0.004	-0.194
-181.056	-200.000	0.032	0.258
-180.042	-79.109	0.147	0.049
-179.027	-56.798	0.358	-0.156
-178.012	-15.928	0.057	-0.036
-176.998	-168.224	-0.040	0.002
-175.983	-71.506	0.099	0.036
-174.969	232.239	0.100	0.162
-173.954	800.000	0.052	0.175
-172.939	-200.000	0.001	0.033
-171.925	-56.879	-0.217	0.094
-170.910	-70.905	0.218	-0.081
-169.896	-200.000	0.077	0.462
-168.881	-97.680	0.161	0.041
-167.866	491.301	0.169	-0.379
-166.852	362.581	-0.042	-0.084
-165.837	100.289	0.335	0.382
-164.823	36.235	0.148	-0.128
-163.808	39.807	-0.122	0.108
-162.793	219.933	0.142	0.223
-161.779	34.123	-0.116	-0.099
-160.764	703.288	0.108	0.279
-159.750	31.532	0.111	0.094
-158.735	-200.000	0.006	-0.205
-157.720	800.000	-0.049	-0.211
-156.706	-5.393	0.328	-0.221
-155.691	-200.000	-0.007	-0.217
-154.677	-195.097	-0.176	-0.001
-153.662	800.000	0.083	-0.264
-152.647	146.829	0.092	0.121
-151.633	792.351	0.141	0.380
-150.618	-200.000	-0.048	0.315
-149.604	-200.000	-0.052	-0.537
-148.589	240.971	-0.077	-0.126
-147.574	-124.676	0.182	-0.028
-146.560	-172.283	0.080	-0.002
-145.545	-200.000	0.007	0.425
-144.531	-121.915	-0.181	-0.029
-143.516	-200.000	0.023	0.364
-142.502	-200.000	-0.032	-0.184
-141.487	-169.275	0.043	-0.002
-140.472	800.000	0.110	0.369
-139.458	800.000	0.102	0.276
-138.443	48.449	-0.078	-0.072
-137.429	56.279	-0.109	-0.103
-136.414	-152.596	0.214	0.015
-135.399	64.808	-0.154	-0.153
-134.385	121.135	-0.145	0.177
-133.370	103.599	0.265	0.305
-132.356	403.349	0.095	-0.196
-131.341	-171.349	-0.129	-0.004
-130.326	519.113	-0.103	-0.236
-129.312	113.759	-0.117	0.139
-128.297	-50.998	-0.297	-0.137
-127.283	-200.000	0.009	0.140
-126.268	21.123	0.302	0.240
-125.253	326.877	0.051	0.097
-124.239	-24.899	0.140	0.082
-123.224	201.687	-0.107	-0.161
-122.210	-200.000	0.039	-0.419
-121.195	11.626	0.107	0.080
