DTS Sentinel unit serial number:	SN413079Multiplexer serial number:	ORYXHardware model number:	OX4-SRSoftware version number:	ORYX F/W v4.00 Oryx Data Collector v3.7.2.0data status	okinstallation	princeton_trtdifferential loss correction	single-endedforward channel	channel 2reverse channel	N/Adate	2019/09/12time	10:13:11forward acquisition time	60.00reverse acquisition time	0.00gamma	496.2192k internal	0.2313k external	0.2313temperature offset calibration	1.0066default loss term (dB/km)	0.3790temperature slope calibration	1.0000multiplexer offset coefficient	1.0000multiplexer slope coefficient	1.0000fibre end	0.00T internal ref (°C)	36.47T ext. ref 1 (°C)	1.85T ext. ref 2 (°C)	33.51length (m)	temperature (°C)	Stokes	anti-Stokes-747.200	-148.824	0.241	-0.020
-746.185	-72.774	-0.160	0.060
-745.171	199.577	-0.145	-0.225
-744.156	-200.000	-0.039	0.509
-743.142	117.991	-0.101	-0.127
-742.127	55.157	0.100	-0.098
-741.112	62.355	0.182	0.184
-740.098	-69.929	-0.208	0.080
-739.083	-200.000	0.060	0.352
-738.069	800.000	0.047	0.138
-737.054	-121.125	-0.319	-0.054
-736.039	119.875	-0.086	0.108
-735.025	800.000	-0.025	0.103
-734.010	127.384	0.110	0.141
-732.996	-8.729	0.137	-0.093
-731.981	29.075	-0.128	0.110
-730.966	52.442	-0.228	0.221
-729.952	-38.731	-0.493	0.264
-728.937	-144.355	-0.319	0.030
-727.923	15.072	-0.065	0.052
-726.908	256.400	-0.048	-0.084
-725.894	-200.000	0.023	-0.109
-724.879	-78.461	0.163	-0.057
-723.864	-113.176	0.058	0.011
-722.850	-29.279	0.332	-0.193
-721.835	-119.246	-0.192	0.034
-720.821	-200.000	-0.011	0.053
-719.806	240.905	-0.065	-0.110
-718.791	145.261	0.116	-0.158
-717.777	-74.934	0.329	0.119
-716.762	800.000	-0.051	0.203
-715.748	-8.019	0.066	-0.045
-714.733	470.300	-0.050	-0.113
-713.718	605.619	0.052	0.131
-712.704	-130.582	0.151	-0.021
-711.689	27.183	0.144	-0.123
-710.675	-59.024	0.200	-0.087
-709.660	-200.000	-0.003	0.103
-708.645	-136.171	0.382	-0.045
-707.631	201.902	-0.250	-0.390
-706.616	-55.694	0.101	-0.046
-705.602	-200.000	-0.060	-0.277
-704.587	-200.000	0.003	-0.122
-703.572	-147.140	0.039	-0.003
-702.558	68.609	-0.141	-0.146
-701.543	342.160	-0.121	0.240
-700.529	182.518	0.198	-0.296
-699.514	-164.083	-0.286	-0.013
-698.499	330.539	0.119	0.231
-697.485	-104.392	-0.247	-0.058
-696.470	-200.000	-0.021	-0.182
-695.456	-134.500	-0.207	-0.026
-694.441	-84.302	0.255	-0.082
-693.426	-132.151	-0.240	0.032
-692.412	-68.510	-0.491	-0.193
-691.397	693.347	0.069	0.182
-690.383	-95.983	-0.339	-0.091
-689.368	-142.629	-0.329	0.033
-688.354	-200.000	0.025	0.148
-687.339	68.094	-0.146	0.151
-686.324	326.005	0.100	-0.193
-685.310	-200.000	0.013	0.172
-684.295	-200.000	-0.020	0.121
-683.281	420.209	-0.172	-0.373
-682.266	-124.473	0.158	-0.025
-681.251	-148.582	-0.132	-0.011
-680.237	-200.000	0.039	-0.281
-679.222	366.135	-0.076	-0.155
-678.208	646.773	-0.030	-0.078
-677.193	-152.118	0.114	-0.008
-676.178	-77.530	-0.171	-0.060
-675.164	-67.063	-0.069	-0.028
-674.149	-60.114	0.137	-0.059
-673.135	-125.830	0.115	0.018
-672.120	187.667	-0.088	0.133
-671.105	-36.646	0.107	0.058
-670.091	800.000	-0.030	-0.113
-669.076	112.319	-0.119	-0.145
-668.062	-140.916	0.032	0.003
-667.047	376.539	-0.095	0.196
-666.032	524.594	0.040	-0.095
-665.018	800.000	-0.043	0.136
-664.003	238.554	-0.119	-0.201
-662.989	124.784	-0.189	0.240
-661.974	-200.000	-0.013	-0.111
-660.959	-59.210	-0.333	0.145
-659.945	-4.136	0.279	-0.195
-658.930	13.364	-0.288	0.226
-657.916	219.907	0.117	-0.189
-656.901	-61.974	0.158	0.067
-655.886	-200.000	0.018	-0.135
-654.872	109.141	-0.118	-0.143
-653.857	184.268	-0.093	-0.140
-652.843	2.346	-0.275	-0.201
-651.828	-2.083	-0.063	-0.044
-650.814	-187.155	0.595	0.008
-649.799	497.184	-0.149	0.347
-648.784	14.249	0.094	0.074
-647.770	104.110	-0.205	-0.243
-646.755	-161.492	-0.207	-0.011
-645.741	-200.000	0.014	-0.202
-644.726	-200.000	0.024	-0.418
-643.711	143.745	0.102	0.137
-642.697	-200.000	-0.045	0.199
-641.682	800.000	-0.064	-0.199
-640.668	34.559	0.129	-0.114
-639.653	800.000	-0.012	-0.050
-638.638	2.906	0.035	0.026
-637.624	-200.000	0.038	-0.204
-636.609	-57.576	0.264	-0.117
-635.595	0.525	-0.197	0.142
-634.580	119.858	0.235	-0.295
-633.565	-20.772	-0.169	-0.105
-632.551	-102.254	-0.129	-0.031
-631.536	150.794	0.034	0.046
-630.522	-200.000	-0.016	-0.175
-629.507	-75.803	0.158	0.057
-628.492	-20.431	0.339	-0.210
-627.478	-55.974	-0.059	0.026
-626.463	800.000	-0.043	0.168
-625.449	-93.699	0.132	0.037
-624.434	-65.628	-0.233	0.094
-623.419	-35.220	0.014	-0.008
-622.405	172.802	-0.122	0.178
-621.390	1.360	-0.444	-0.322
-620.376	-12.660	-0.150	-0.098
-619.361	159.128	-0.140	0.196
-618.346	-200.000	-0.001	-0.121
-617.332	89.462	-0.177	-0.199
-616.317	-42.558	-0.137	-0.070
-615.303	54.962	-0.029	0.028
-614.288	239.678	-0.083	0.140
-613.273	-152.719	0.228	-0.016
-612.259	307.605	-0.128	-0.241
-611.244	-168.743	-0.244	0.009
-610.230	-26.426	0.044	0.026
-609.215	440.272	-0.206	-0.453
-608.201	-121.244	-0.132	-0.022
-607.186	-149.634	-0.093	0.007
-606.171	207.535	0.194	0.305
-605.157	800.000	-0.066	-0.197
-604.142	-200.000	-0.054	-0.257
-603.128	800.000	-0.073	-0.267
-602.113	-97.770	0.198	-0.052
-601.098	162.567	-0.066	-0.093
-600.084	-15.003	-0.241	0.156
-599.069	107.124	0.067	-0.081
-598.055	132.134	-0.103	-0.134
-597.040	254.183	-0.137	-0.236
-596.025	-118.036	0.023	-0.004
-595.011	-154.180	0.232	0.016
-593.996	-104.699	-0.343	0.080
-592.982	-200.000	0.066	-0.361
-591.967	-96.600	0.190	0.050
-590.952	10.109	-0.142	-0.109
-589.938	-200.000	0.007	0.074
-588.923	144.896	-0.197	0.265
-587.909	-172.396	0.215	0.007
-586.894	117.696	0.182	0.226
-585.879	-200.000	0.030	-0.147
-584.865	-48.253	0.274	0.133
-583.850	-40.934	-0.227	-0.118
-582.836	-48.971	0.553	-0.267
-581.821	30.117	0.198	0.170
-580.806	-63.192	-0.090	-0.038
-579.792	212.677	0.041	0.065
-578.777	109.965	-0.228	0.275
-577.763	-120.076	0.311	0.054
-576.748	28.580	0.151	-0.129
-575.733	800.000	0.129	-0.398
-574.719	800.000	-0.095	-0.271
-573.704	-116.537	0.226	-0.042
-572.690	32.589	-0.137	-0.119
-571.675	10.193	-0.043	-0.033
-570.661	-123.575	0.651	0.104
-569.646	292.505	0.052	0.095
-568.631	800.000	-0.070	-0.266
-567.617	-35.609	0.109	-0.060
-566.602	0.289	-0.101	0.073
-565.588	-80.415	0.043	0.014
-564.573	271.274	-0.032	0.056
-563.558	-55.252	-0.115	0.052
-562.544	-78.521	0.211	-0.073
-561.529	-94.673	0.226	-0.062
-560.515	271.984	0.037	-0.066
-559.500	-162.079	-0.224	-0.011
-558.485	89.730	0.134	0.151
-557.471	742.238	0.101	-0.273
-556.456	210.194	0.164	-0.259
-555.442	-31.900	0.064	0.036
-554.427	3.774	-0.071	-0.052
-553.412	-200.000	-0.086	0.388
-552.398	-81.790	-0.193	0.064
-551.383	155.493	-0.167	-0.231
-550.369	124.671	-0.151	-0.191
-549.354	-149.839	-0.332	-0.026
-548.339	-40.980	-0.138	0.072
-547.325	800.000	-0.114	-0.336
-546.310	800.000	-0.131	0.423
-545.296	471.490	-0.037	0.084
-544.281	-200.000	-0.026	-0.124
-543.266	-78.197	0.242	0.084
-542.252	62.916	0.145	-0.146
-541.237	180.464	-0.156	0.231
-540.223	92.692	0.147	0.167
-539.208	-137.941	-0.094	-0.011
-538.193	-129.339	0.293	-0.041
-537.179	77.699	0.101	0.108
-536.164	-153.338	-0.023	0.002
-535.150	-200.000	-0.005	0.079
-534.135	800.000	-0.029	-0.080
-533.121	30.354	-0.101	-0.087
-532.106	41.510	-0.199	-0.182
-531.091	146.808	-0.074	-0.100
-530.077	-111.943	0.276	0.056
-529.062	-171.053	0.106	0.004
-528.048	-87.777	-0.174	-0.053
-527.033	-105.184	0.236	-0.054
-526.018	-200.000	-0.010	0.332
-525.004	-76.753	0.256	0.090
-523.989	-137.288	0.176	-0.020
-522.975	-56.875	0.226	0.100
-521.960	73.176	-0.094	-0.099
-520.945	-87.207	-0.438	0.134
-519.931	-200.000	-0.044	0.245
-518.916	-101.026	-0.165	0.041
-517.902	-147.938	0.236	-0.020
-516.887	22.285	-0.062	-0.051
-515.872	-5.193	0.209	-0.145
-514.858	-200.000	0.041	0.300
-513.843	-15.651	-0.091	0.059
-512.829	-68.440	-0.402	0.157
-511.814	384.371	0.164	0.340
-510.799	131.192	0.145	-0.187
-509.785	-138.621	0.068	0.008
-508.770	124.501	0.167	-0.211
-507.756	764.818	0.018	-0.049
-506.741	-200.000	-0.040	0.178
-505.726	-200.000	-0.020	-0.099
-504.712	122.433	-0.189	-0.237
-503.697	-108.579	-0.267	0.058
-502.683	800.000	-0.110	0.321
-501.668	495.407	-0.060	-0.138
-500.653	69.979	0.169	-0.176
-499.639	-200.000	0.013	0.077
-498.624	39.646	-0.168	0.152
-497.610	-23.315	0.417	0.252
-496.595	8.856	0.231	-0.175
-495.581	-76.877	0.286	-0.101
-494.566	-132.244	-0.093	-0.012
-493.551	-13.014	-0.255	0.167
-492.537	-122.470	0.313	0.051
-491.522	-200.000	-0.046	0.440
-490.508	-50.696	-0.033	-0.016
-489.493	2.273	-0.179	-0.130
-488.478	171.202	-0.097	-0.140
-487.464	48.120	0.209	-0.196
-486.449	-148.203	0.192	0.016
-485.435	124.430	0.192	-0.243
-484.420	-200.000	-0.002	-0.103
-483.405	-200.000	-0.032	-0.182
-482.391	-100.923	0.084	-0.021
-481.376	-32.317	0.089	-0.050
-480.362	-200.000	-0.068	-0.601
-479.347	-49.701	-0.249	0.119
-478.332	-139.884	0.346	0.037
-477.318	800.000	-0.023	-0.067
-476.303	-64.288	-0.332	-0.136
-475.289	-85.504	-0.119	0.037
-474.274	-114.579	0.294	0.057
-473.259	-187.855	0.087	0.001
-472.245	115.749	-0.165	-0.203
-471.230	-200.000	-0.029	-0.444
-470.216	44.937	0.127	-0.118
-469.201	449.130	-0.082	0.182
-468.186	-200.000	-0.031	-0.284
-467.172	-139.642	-0.328	0.035
-466.157	-40.485	0.067	0.035
-465.143	-6.544	0.233	-0.159
-464.128	566.807	0.098	0.239
-463.113	-200.000	0.048	0.429
-462.099	247.265	-0.043	0.073
-461.084	25.060	-0.280	-0.233
-460.070	-83.722	-0.182	0.058
-459.055	50.387	-0.061	-0.058
-458.040	160.488	-0.035	0.049
-457.026	800.000	-0.013	-0.054
-456.011	-77.430	0.036	-0.013
-454.997	-200.000	0.025	0.149
-453.982	-81.516	0.274	0.091
-452.968	-18.663	-0.364	0.227
-451.953	-5.230	0.008	0.005
-450.938	800.000	-0.096	-0.279
-449.924	466.927	0.019	-0.042
-448.909	-200.000	0.017	-0.220
-447.895	533.767	-0.076	0.181
-446.880	134.133	0.151	0.197
-445.865	105.329	0.070	0.083
-444.851	-59.279	0.192	-0.083
-443.836	1.162	-0.207	-0.149
-442.822	112.517	-0.059	0.071
-441.807	-20.643	-0.254	0.156
-440.792	-200.000	0.005	-0.112
-439.778	-3.322	-0.207	-0.144
-438.763	-136.983	-0.231	0.027
-437.749	-4.092	-0.250	0.173
-436.734	248.175	0.119	-0.201
-435.719	-71.504	0.281	0.105
-434.705	24.341	0.022	0.018
-433.690	34.836	-0.127	-0.111
-432.676	-127.304	0.139	-0.020
-431.661	123.090	-0.127	-0.160
-430.646	274.634	-0.147	0.261
-429.632	655.028	-0.076	-0.195
-428.617	-200.000	-0.120	0.603
-427.603	-200.000	0.008	0.047
-426.588	800.000	0.097	-0.379
-425.573	-113.119	0.385	0.076
-424.559	800.000	0.022	-0.093
-423.544	-82.408	0.141	0.046
-422.530	-14.223	0.089	0.057
-421.515	45.863	-0.217	0.201
-420.500	185.388	0.089	0.132
-419.486	6.879	0.422	0.314
-418.471	-51.397	-0.229	0.107
-417.457	168.869	-0.096	-0.137
-416.442	93.174	-0.129	-0.146
-415.428	-200.000	-0.047	-0.407
-414.413	-7.096	0.356	-0.242
-413.398	127.183	0.073	0.092
-412.384	34.846	-0.304	-0.266
-411.369	-52.883	-0.046	0.021
-410.355	-62.725	-0.154	0.064
-409.340	-77.220	-0.266	-0.093
-408.325	447.567	-0.154	0.340
-407.311	-55.234	0.117	-0.052
-406.296	-52.830	0.304	0.140
-405.282	183.729	0.084	-0.125
-404.267	-107.095	-0.187	0.041
-403.252	-118.569	-0.092	-0.016
-402.238	-200.000	0.043	0.221
-401.223	-24.580	-0.133	-0.079
-400.209	91.868	0.005	0.006
-399.194	398.163	0.057	-0.119
-398.179	3.830	-0.286	-0.209
-397.165	800.000	-0.110	-0.384
-396.150	-125.819	0.125	0.019
-395.136	118.022	0.089	-0.110
-394.121	-47.589	0.077	-0.037
-393.106	-73.661	0.404	0.147
-392.092	800.000	0.037	-0.126
-391.077	-51.161	-0.100	-0.047
-390.063	-57.037	-0.103	-0.046
-389.048	536.720	0.116	0.275
-388.033	193.492	-0.126	0.191
-387.019	-200.000	0.017	-0.347
-386.004	-158.650	0.355	0.020
-384.990	-130.459	-0.037	0.005
-383.975	54.071	-0.059	-0.057
-382.960	72.196	0.063	0.066
-381.946	-58.410	0.078	-0.034
-380.931	162.370	0.144	0.203
-379.917	-132.962	0.096	0.012
-378.902	286.601	-0.053	-0.096
-377.888	-200.000	0.018	0.165
-376.873	0.750	0.253	0.181
-375.858	-36.560	-0.306	-0.165
-374.844	-46.625	0.204	-0.100
-373.829	-184.486	-0.244	0.004
-372.815	-200.000	-0.032	0.169
-371.800	-49.787	0.313	-0.149
-370.785	-200.000	0.011	0.272
-369.771	154.802	0.207	-0.285
-368.756	334.941	0.201	-0.389
-367.742	219.763	-0.079	-0.126
-366.727	-200.000	0.013	-0.091
-365.712	-146.635	-0.220	0.019
-364.698	-118.131	0.071	-0.013
-363.683	-76.032	0.221	0.078
-362.669	-200.000	-0.001	0.237
-361.654	-90.758	0.181	-0.052
-360.639	-99.856	0.394	-0.098
-359.625	83.276	0.077	-0.084
-358.610	-200.000	0.000	-0.194
-357.596	-117.159	-0.296	0.054
-356.581	-200.000	-0.011	0.155
-355.566	-113.728	-0.057	0.011
-354.552	-49.132	-0.150	0.072
-353.537	42.635	0.132	-0.120
-352.523	-4.073	-0.035	0.024
-351.508	-200.000	-0.017	0.378
-350.493	-55.612	0.231	-0.103
-349.479	-200.000	-0.029	0.159
-348.464	-70.920	-0.377	-0.142
-347.450	-200.000	-0.002	-0.022
-346.435	-161.077	0.129	-0.007
-345.420	-108.040	-0.133	0.029
-344.406	97.094	-0.173	-0.198
-343.391	336.409	0.054	-0.104
-342.377	28.881	0.165	0.140
-341.362	800.000	-0.019	-0.060
-340.348	29.002	0.215	0.182
-339.333	-54.346	-0.263	-0.119
-338.318	63.555	0.277	0.277
-337.304	-101.254	-0.093	-0.023
-336.289	33.635	-0.100	-0.087
-335.275	-155.060	-0.057	-0.004
-334.260	-185.005	0.393	-0.006
-333.245	-200.000	0.003	0.356
-332.231	-14.027	-0.305	0.197
-331.216	-51.364	-0.286	0.133
-330.202	-7.587	-0.045	-0.030
-329.187	-200.000	0.045	-0.393
-328.172	800.000	0.058	0.207
-327.158	173.190	-0.051	0.074
-326.143	-104.665	0.377	0.087
-325.129	-64.342	0.136	-0.055
-324.114	-9.235	-0.222	0.148
-323.099	233.320	0.104	-0.170
-322.085	-83.089	-0.112	-0.036
-321.070	800.000	0.047	0.136
-320.056	89.923	-0.055	-0.061
-319.041	-71.123	-0.144	0.054
-318.026	-23.665	-0.266	-0.159
-317.012	800.000	0.033	-0.103
-315.997	309.967	0.185	-0.345
-314.983	-57.054	0.257	0.113
-313.968	-161.746	0.209	0.011
-312.953	800.000	0.049	0.204
-311.939	38.977	-0.148	-0.132
-310.924	21.290	0.353	0.286
-309.910	5.265	-0.145	-0.106
-308.895	800.000	-0.084	-0.325
-307.880	136.709	-0.080	-0.104
-306.866	74.024	-0.064	0.067
-305.851	800.000	-0.045	0.143
-304.837	-200.000	0.021	0.237
-303.822	-150.804	-0.440	-0.033
-302.807	126.569	0.138	-0.174
-301.793	-200.000	-0.026	-0.547
-300.778	100.106	0.259	0.300
-299.764	65.265	-0.064	-0.065
-298.749	-20.727	-0.096	-0.059
-297.735	233.282	-0.069	-0.112
-296.720	-17.864	-0.159	0.099
-295.705	-200.000	-0.007	0.218
-294.691	-200.000	0.030	0.161
-293.676	800.000	0.079	-0.275
-292.662	335.723	-0.130	-0.251
-291.647	37.499	0.178	0.157
-290.632	304.719	-0.102	-0.188
-289.618	52.928	-0.179	0.171
-288.603	-15.248	-0.230	-0.147
-287.589	439.023	0.154	0.335
-286.574	800.000	-0.105	0.305
-285.559	800.000	-0.047	-0.135
-284.545	639.380	-0.070	0.178
-283.530	-81.761	0.198	-0.065
-282.516	-200.000	0.016	0.210
-281.501	14.509	-0.074	0.058
-280.486	-200.000	-0.030	0.187
-279.472	800.000	0.040	0.159
-278.457	800.000	-0.149	0.491
-277.443	493.023	0.096	-0.220
-276.428	-41.483	0.162	0.083
-275.413	800.000	0.016	-0.051
-274.399	800.000	0.055	0.173
-273.384	197.583	-0.155	-0.236
-272.370	-200.000	0.029	-0.135
-271.355	211.235	-0.094	0.147
-270.340	-12.551	-0.226	-0.147
-269.326	-44.827	0.185	0.092
-268.311	-49.697	-0.209	-0.099
-267.297	-200.000	-0.031	0.184
-266.282	-91.168	-0.026	0.008
-265.267	432.289	-0.058	-0.126
-264.253	424.545	-0.109	0.234
-263.238	-34.009	0.153	-0.084
-262.224	26.005	-0.146	-0.121
-261.209	-200.000	-0.002	-0.237
-260.195	-87.885	0.241	-0.072
-259.180	-58.403	-0.213	0.092
-258.165	82.444	-0.176	0.190
-257.151	-34.999	-0.236	-0.128
-256.136	-50.024	0.186	0.088
-255.122	-10.232	-0.256	-0.169
-254.107	-200.000	-0.087	-0.411
-253.092	-89.187	-0.493	-0.145
-252.078	94.409	-0.331	0.374
-251.063	-8.824	-0.546	0.364
-250.049	198.066	-0.049	-0.075
-249.034	-69.876	0.103	0.039
-248.019	-105.901	-0.391	0.088
-247.005	-46.780	-0.280	-0.136
-245.990	82.088	0.274	0.296
-244.976	386.453	0.101	0.208
-243.961	-85.850	0.330	0.102
-242.946	5.161	-0.140	-0.102
-241.932	-200.000	-0.043	-0.232
-240.917	-200.000	-0.010	-0.184
-239.903	341.569	-0.137	-0.266
-238.888	-73.542	0.166	0.060
-237.873	-33.061	0.352	-0.194
-236.859	-35.535	0.112	0.060
-235.844	-8.348	-0.038	-0.026
-234.830	580.507	-0.066	0.160
-233.815	72.469	0.233	0.242
-232.800	800.000	-0.072	-0.209
-231.786	800.000	-0.065	-0.260
-230.771	55.902	0.208	-0.200
-229.757	800.000	0.068	-0.270
-228.742	800.000	-0.023	-0.067
-227.727	41.716	0.332	0.299
-226.713	243.906	-0.025	0.042
-225.698	-128.164	0.117	-0.017
-224.684	-200.000	-0.032	0.249
-223.669	25.203	0.073	0.060
-222.655	312.846	-0.110	0.206
-221.640	-11.710	-0.350	0.228
-220.625	-176.991	0.359	0.009
-219.611	-200.000	-0.045	0.223
-218.596	800.000	-0.065	0.225
-217.582	71.071	0.129	-0.133
-216.567	281.534	-0.196	0.349
-215.552	800.000	-0.097	-0.352
-214.538	77.860	-0.296	-0.314
-213.523	-35.533	-0.332	0.179
-212.509	447.299	-0.128	0.279
-211.494	388.207	-0.025	0.052
-210.479	800.000	-0.033	0.104
-209.465	-8.353	0.256	0.171
-208.450	800.000	0.164	-0.488
-207.436	-153.328	-0.078	-0.005
-206.421	-200.000	0.015	0.103
-205.406	581.745	-0.091	-0.222
-204.392	-200.000	0.004	-0.288
-203.377	-200.000	-0.009	0.129
-202.363	800.000	0.122	0.375
-201.348	-57.780	0.138	-0.060
-200.333	495.393	0.084	0.191
-199.319	2.455	0.133	0.096
-198.304	17.580	0.109	0.086
-197.290	347.120	0.005	-0.009
-196.275	-45.472	-0.258	-0.127
-195.260	90.417	0.178	-0.197
-194.246	-200.000	-0.028	0.283
-193.231	-200.000	-0.040	-0.341
-192.217	71.054	0.225	0.232
-191.202	-120.164	0.234	0.040
-190.187	455.272	0.123	0.271
-189.173	-200.000	0.036	0.158
-188.158	4.546	-0.151	0.110
-187.144	-108.974	0.214	-0.045
-186.129	-200.000	-0.016	-0.212
-185.114	-46.677	-0.438	0.213
-184.100	295.698	0.072	-0.131
-183.085	800.000	0.089	0.351
-182.071	-107.723	0.233	-0.051
-181.056	-200.000	0.046	-0.208
-180.042	800.000	-0.029	0.119
-179.027	143.954	-0.139	-0.184
-178.012	-13.431	-0.266	0.171
-176.998	-21.395	0.277	-0.168
-175.983	-200.000	0.032	-0.177
-174.969	-200.000	-0.022	0.221
-173.954	134.235	0.195	0.250
-172.939	-200.000	0.018	-0.347
-171.925	3.683	0.168	0.121
-170.910	-41.133	0.218	0.112
-169.896	-200.000	-0.008	0.061
-168.881	-76.428	0.252	-0.088
-167.866	-97.660	-0.286	-0.073
-166.852	94.380	0.069	0.077
-165.837	212.620	0.385	0.602
-164.823	388.834	-0.133	0.273
-163.808	-200.000	-0.022	0.252
-162.793	-139.904	0.140	0.015
-161.779	-56.221	-0.170	-0.075
-160.764	133.457	0.091	0.116
-159.750	728.897	0.093	0.245
-158.735	800.000	0.056	0.241
-157.720	-45.745	-0.311	0.152
-156.706	-141.729	0.141	0.014
-155.691	119.701	-0.130	0.159
-154.677	40.331	-0.118	0.105
-153.662	-75.240	0.165	0.058
-152.647	-79.631	0.196	0.065
-151.633	-129.992	0.076	-0.010
-150.618	-46.938	0.121	-0.058
-149.604	146.696	0.220	-0.293
-148.589	84.115	0.171	-0.185
-147.574	-111.567	-0.326	-0.066
-146.560	43.135	0.159	0.144
-145.545	166.406	0.067	-0.095
-144.531	-122.486	0.240	-0.039
-143.516	-133.058	0.099	-0.012
-142.502	-74.880	-0.206	0.073
-141.487	-35.962	0.233	-0.125
-140.472	-200.000	-0.012	-0.217
-139.458	62.532	-0.139	0.138
-138.443	92.782	-0.161	0.180
-137.429	200.420	-0.073	-0.112
-136.414	-200.000	-0.003	0.030
-135.399	183.404	-0.145	0.213
-134.385	-145.347	-0.256	-0.023
-133.370	-45.927	0.176	0.086
-132.356	378.372	0.044	-0.088
-131.341	800.000	0.073	-0.207
-130.326	-19.460	0.224	0.137
-129.312	-39.644	-0.155	0.080
-128.297	-200.000	-0.010	-0.272
-127.283	120.978	-0.222	0.274
-126.268	800.000	0.044	0.173
-125.253	-120.454	0.123	0.021
-124.239	-200.000	0.005	0.212
-123.224	-200.000	-0.064	0.354
-122.210	-113.807	0.161	0.031
