DTS Sentinel unit serial number:	SN413079Multiplexer serial number:	ORYXHardware model number:	OX4-SRSoftware version number:	ORYX F/W v4.00 Oryx Data Collector v3.7.2.0data status	okinstallation	princeton_trtdifferential loss correction	single-endedforward channel	channel 2reverse channel	N/Adate	2019/09/17time	14:11:34forward acquisition time	60.00reverse acquisition time	0.00gamma	496.2192k internal	0.2315k external	0.2315temperature offset calibration	0.9987default loss term (dB/km)	0.3790temperature slope calibration	1.0000multiplexer offset coefficient	1.0000multiplexer slope coefficient	1.0000fibre end	0.00T internal ref (°C)	35.92T ext. ref 1 (°C)	0.41T ext. ref 2 (°C)	32.76length (m)	temperature (°C)	Stokes	anti-Stokes-747.200	-31.269	0.345	0.197
-746.185	-64.592	0.110	0.045
-745.171	498.834	-0.049	-0.115
-744.156	91.188	0.122	0.138
-743.142	-200.000	-0.050	0.323
-742.127	-200.000	-0.074	0.354
-741.112	-28.630	0.486	0.284
-740.098	-200.000	0.035	0.214
-739.083	-70.730	-0.214	-0.082
-738.069	783.929	0.079	0.220
-737.054	166.579	0.045	-0.065
-736.039	-59.803	0.223	0.097
-735.025	-48.956	0.180	-0.088
-734.010	-71.536	0.226	-0.086
-732.996	15.022	-0.264	-0.209
-731.981	-200.000	-0.015	-0.073
-730.966	-187.728	-0.377	0.005
-729.952	471.917	0.153	0.348
-728.937	14.235	-0.183	-0.145
-727.923	800.000	-0.032	0.095
-726.908	800.000	-0.066	-0.235
-725.894	-48.885	0.200	-0.097
-724.879	168.725	-0.092	-0.133
-723.864	-52.071	0.387	-0.182
-722.850	63.073	-0.070	-0.071
-721.835	-26.736	0.068	-0.041
-720.821	800.000	-0.072	-0.208
-719.806	279.963	-0.131	0.236
-718.791	271.598	0.143	0.256
-717.777	-40.045	0.314	-0.166
-716.762	-200.000	0.053	-0.289
-715.748	-200.000	0.030	-0.280
-714.733	37.350	0.013	0.011
-713.718	238.585	-0.073	-0.123
-712.704	-200.000	-0.043	-0.227
-711.689	1.567	0.036	-0.026
-710.675	-134.072	0.158	-0.020
-709.660	-101.887	-0.240	-0.059
-708.645	-151.577	0.068	-0.005
-707.631	90.761	0.235	0.267
-706.616	-200.000	-0.032	0.224
-705.602	800.000	0.110	0.432
-704.587	32.751	0.058	-0.051
-703.572	-24.166	-0.189	0.114
-702.558	-79.200	0.268	0.092
-701.543	800.000	0.140	-0.514
-700.529	-112.626	-0.241	0.048
-699.514	497.725	0.063	-0.147
-698.499	-158.816	-0.113	-0.007
-697.485	396.664	0.092	0.195
-696.470	9.203	0.123	-0.094
-695.456	-200.000	-0.149	0.000
-694.441	-10.524	-0.261	-0.175
-693.426	-5.365	-0.200	0.139
-692.412	-129.809	-0.279	0.039
-691.397	800.000	-0.042	0.178
-690.383	218.995	0.220	-0.356
-689.368	-110.762	0.330	-0.069
-688.354	-144.029	-0.128	0.012
-687.339	-121.027	-0.209	0.035
-686.324	-82.568	0.350	-0.115
-685.310	688.305	0.053	-0.139
-684.295	-173.667	0.153	-0.005
-683.281	267.271	-0.151	0.268
-682.266	800.000	0.039	0.172
-681.251	-109.047	0.326	0.070
-680.237	800.000	0.129	-0.404
-679.222	140.909	0.112	-0.150
-678.208	800.000	0.028	0.103
-677.193	-91.320	-0.215	-0.062
-676.178	-121.360	0.175	-0.030
-675.164	-146.278	-0.254	0.023
-674.149	32.009	-0.411	-0.358
-673.135	-148.170	-0.140	0.012
-672.120	-200.000	0.033	0.293
-671.105	54.903	0.220	-0.215
-670.091	197.899	0.092	-0.142
-669.076	-189.769	-0.153	0.002
-668.062	-123.460	0.240	-0.039
-667.047	-191.664	-0.091	-0.001
-666.032	109.556	0.168	0.204
-665.018	32.196	-0.139	0.121
-664.003	362.618	0.055	0.111
-662.989	390.921	0.149	0.313
-661.974	-20.774	0.178	-0.110
-660.959	-200.000	-0.006	-0.270
-659.945	-45.603	0.183	0.091
-658.930	165.537	0.156	-0.223
-657.916	86.844	0.129	0.144
-656.901	-162.167	-0.334	0.017
-655.886	190.873	-0.104	0.158
-654.872	128.365	-0.229	-0.295
-653.857	-200.000	0.027	-0.307
-652.843	-132.312	0.246	0.032
-651.828	215.071	-0.192	0.308
-650.814	376.116	0.048	0.099
-649.799	-200.000	0.057	0.355
-648.784	-136.034	0.178	-0.021
-647.770	201.897	0.088	-0.137
-646.755	-174.951	0.022	-0.001
-645.741	-33.617	-0.112	-0.063
-644.726	112.063	-0.324	-0.396
-643.711	-166.118	0.200	0.009
-642.697	-86.664	-0.212	-0.065
-641.682	152.422	0.138	-0.190
-640.668	-131.829	-0.312	0.041
-639.653	-89.240	-0.441	0.131
-638.638	-21.360	0.254	0.157
-637.624	-123.867	0.165	0.026
-636.609	-173.407	0.093	-0.003
-635.595	800.000	0.008	-0.029
-634.580	800.000	0.074	0.236
-633.565	-63.848	-0.341	0.141
-632.551	0.085	-0.205	-0.148
-631.536	-61.215	0.344	-0.146
-630.522	-200.000	-0.008	-0.300
-629.507	89.715	0.234	-0.264
-628.492	-47.569	-0.276	0.135
-627.478	-15.034	0.153	-0.099
-626.463	156.505	0.089	-0.124
-625.449	85.757	0.325	-0.361
-624.434	-200.000	0.019	-0.213
-623.419	-144.499	-0.389	-0.036
-622.405	49.181	0.101	0.096
-621.390	795.559	-0.067	0.186
-620.376	-200.000	0.036	-0.215
-619.361	329.197	0.120	-0.233
-618.346	223.498	0.104	-0.170
-617.332	-9.530	0.267	-0.180
-616.317	166.770	0.103	0.147
-615.303	-200.000	-0.019	-0.114
-614.288	-80.425	-0.330	0.111
-613.273	-26.712	0.364	-0.215
-612.259	39.346	0.136	0.123
-611.244	-115.332	0.153	0.029
-610.230	-200.000	0.008	-0.035
-609.215	99.940	-0.001	0.002
-608.201	-200.000	-0.003	-0.564
-607.186	77.676	-0.108	0.116
-606.171	-82.799	0.216	-0.070
-605.157	-200.000	-0.009	-0.175
-604.142	419.205	-0.167	-0.361
-603.128	-141.304	0.333	-0.034
-602.113	-200.000	-0.017	-0.250
-601.098	-70.500	0.030	-0.012
-600.084	-68.628	-0.299	-0.117
-599.069	188.626	0.224	0.338
-598.055	-144.290	-0.134	0.013
-597.040	800.000	0.085	-0.368
-596.025	-200.000	0.024	0.130
-595.011	-147.580	-0.115	0.010
-593.996	-55.772	-0.165	0.074
-592.982	800.000	-0.129	-0.372
-591.967	800.000	0.063	-0.248
-590.952	-120.041	-0.257	0.044
-589.938	29.796	-0.062	0.053
-588.923	-61.698	0.143	0.061
-587.909	800.000	0.050	0.203
-586.894	-162.629	0.048	0.002
-585.879	336.732	0.062	-0.120
-584.865	-200.000	-0.051	-0.378
-583.850	-200.000	-0.020	0.107
-582.836	595.629	0.028	0.069
-581.821	-72.945	0.161	0.059
-580.806	-38.603	-0.014	-0.007
-579.792	-200.000	-0.035	0.213
-578.777	-91.671	0.248	0.071
-577.763	-71.536	-0.090	-0.034
-576.748	11.055	-0.121	-0.093
-575.733	11.031	0.217	-0.167
-574.719	-37.827	0.362	-0.194
-573.704	550.815	0.039	0.095
-572.690	-77.148	0.305	0.107
-571.675	109.468	-0.163	0.197
-570.661	-200.000	0.030	0.345
-569.646	-200.000	-0.043	0.203
-568.631	-143.542	-0.116	-0.011
-567.617	800.000	0.082	-0.350
-566.602	800.000	0.068	-0.190
-565.588	123.138	0.068	-0.086
-564.573	-200.000	-0.004	0.073
-563.558	800.000	-0.032	0.132
-562.544	157.803	-0.123	-0.172
-561.529	-132.668	-0.170	-0.022
-560.515	376.046	-0.073	0.150
-559.500	-107.814	0.279	0.061
-558.485	-106.487	-0.180	-0.041
-557.471	-48.828	0.038	-0.018
-556.456	-30.215	0.064	-0.036
-555.442	-67.953	0.203	0.080
-554.427	287.448	0.064	-0.117
-553.412	285.845	0.089	0.162
-552.398	-21.531	0.118	0.072
-551.383	343.706	-0.126	0.249
-550.369	4.856	-0.303	-0.224
-549.354	306.643	0.135	-0.254
-548.339	568.071	0.116	-0.283
-547.325	-49.420	-0.112	-0.054
-546.310	-140.722	-0.449	0.047
-545.296	-200.000	0.018	0.139
-544.281	800.000	0.077	0.266
-543.266	-34.331	-0.080	0.044
-542.252	800.000	-0.039	-0.143
-541.237	-200.000	-0.029	-0.358
-540.223	-17.905	-0.403	-0.254
-539.208	-65.866	0.034	-0.014
-538.193	800.000	0.138	0.392
-537.179	800.000	0.084	-0.318
-536.164	-200.000	0.044	-0.305
-535.150	-32.492	-0.340	0.191
-534.135	-68.260	-0.122	0.048
-533.121	-200.000	0.033	-0.454
-532.106	-116.790	-0.288	0.053
-531.091	-8.492	-0.194	-0.131
-530.077	-93.479	-0.113	-0.031
-529.062	91.906	0.235	-0.266
-528.048	307.872	0.083	-0.156
-527.033	-86.447	-0.209	0.065
-526.018	30.748	-0.234	0.201
-525.004	156.762	0.180	0.250
-523.989	-200.000	-0.007	-0.154
-522.975	800.000	-0.073	0.254
-521.960	153.958	0.111	-0.153
-520.945	181.442	-0.087	0.129
-519.931	-125.964	-0.229	0.035
-518.916	60.586	0.031	-0.031
-517.902	80.574	-0.171	-0.185
-516.887	444.693	0.162	0.358
-515.872	211.681	0.083	-0.131
-514.858	-125.458	0.208	0.032
-513.843	297.288	-0.129	0.238
-512.829	800.000	-0.122	0.479
-511.814	311.665	0.102	0.191
-510.799	-200.000	0.027	-0.253
-509.785	-200.000	0.068	-0.532
-508.770	284.238	0.248	-0.448
-507.756	180.665	0.189	0.279
-506.741	-149.892	0.221	0.017
-505.726	59.700	0.321	0.318
-504.712	148.974	0.184	-0.250
-503.697	-45.512	0.358	-0.178
-502.683	-118.220	-0.208	0.037
-501.668	-84.547	-0.296	-0.094
-500.653	-200.000	0.007	-0.053
-499.639	-200.000	-0.029	0.170
-498.624	800.000	0.055	-0.196
-497.610	-79.487	0.150	0.051
-496.595	124.835	0.052	-0.066
-495.581	-200.000	-0.014	0.234
-494.566	-109.107	0.322	-0.069
-493.551	92.545	-0.044	-0.049
-492.537	151.136	0.077	0.105
-491.522	-200.000	-0.044	0.259
-490.508	18.708	0.124	-0.099
-489.493	61.039	0.262	0.261
-488.478	378.879	-0.110	0.225
-487.464	800.000	-0.067	-0.243
-486.449	426.844	-0.164	0.354
-485.435	-1.588	-0.201	0.142
-484.420	252.398	-0.112	-0.192
-483.405	-18.481	-0.083	-0.052
-482.391	52.927	0.129	-0.124
-481.376	414.770	-0.049	-0.105
-480.362	-101.404	0.387	-0.095
-479.347	-30.353	-0.105	0.060
-478.332	-200.000	-0.015	-0.133
-477.318	-200.000	-0.018	0.239
-476.303	800.000	-0.061	0.221
-475.289	-90.579	-0.095	0.027
-474.274	-97.889	-0.270	0.070
-473.259	-86.084	-0.164	0.051
-472.245	800.000	-0.060	0.184
-471.230	-24.034	-0.083	-0.050
-470.216	109.013	-0.217	-0.260
-469.201	-200.000	0.002	0.028
-468.186	-173.364	0.240	-0.007
-467.172	-36.919	-0.086	0.046
-466.157	-200.000	-0.089	-0.478
-465.143	173.524	-0.081	-0.118
-464.128	-130.363	-0.401	-0.054
-463.113	-200.000	-0.014	0.192
-462.099	311.270	-0.153	0.288
-461.084	-200.000	0.043	0.588
-460.070	40.221	0.162	0.146
-459.055	800.000	0.113	0.482
-458.040	270.049	0.095	0.167
-457.026	179.184	-0.188	-0.276
-456.011	-60.484	0.136	-0.058
-454.997	-96.835	0.336	-0.088
-453.982	270.981	-0.053	-0.094
-452.968	600.780	0.086	-0.215
-451.953	-52.613	0.164	0.076
-450.938	284.093	-0.104	0.188
-449.924	-107.364	-0.116	0.026
-448.909	379.748	-0.211	-0.433
-447.895	-29.837	0.288	-0.164
-446.880	-200.000	-0.020	-0.213
-445.865	-67.687	-0.177	-0.069
-444.851	675.383	0.072	-0.188
-443.836	-109.307	0.360	0.077
-442.822	160.921	-0.295	0.413
-441.807	242.114	-0.135	-0.226
-440.792	46.416	-0.066	0.061
-439.778	800.000	-0.093	-0.314
-438.763	-105.813	-0.218	-0.049
-437.749	98.120	0.042	-0.048
-436.734	189.373	-0.187	-0.280
-435.719	84.086	-0.030	0.033
-434.705	-33.327	0.149	-0.082
-433.690	-98.395	-0.284	0.073
-432.676	-35.941	0.042	-0.023
-431.661	78.040	-0.059	0.063
-430.646	-200.000	-0.013	-0.256
-429.632	800.000	-0.032	-0.112
-428.617	-83.426	-0.366	0.117
-427.603	-148.581	-0.550	0.045
-426.588	716.053	-0.103	0.274
-425.573	99.222	0.084	0.097
-424.559	290.738	0.050	0.090
-423.544	555.444	-0.105	0.253
-422.530	-200.000	0.007	0.432
-421.515	-13.492	0.057	-0.037
-420.500	-177.249	0.131	0.003
-419.486	-59.384	-0.353	-0.152
-418.471	123.266	0.090	-0.113
-417.457	130.613	-0.224	0.287
-416.442	800.000	-0.050	0.179
-415.428	-72.363	-0.207	0.077
-414.413	-200.000	0.009	-0.103
-413.398	31.107	-0.111	-0.095
-412.384	800.000	-0.103	-0.317
-411.369	-27.790	-0.096	0.056
-410.355	-108.971	-0.138	-0.029
-409.340	-68.801	0.057	0.022
-408.325	-8.815	-0.172	0.115
-407.311	-96.768	0.112	-0.030
-406.296	-170.424	0.254	0.009
-405.282	197.145	0.027	0.041
-404.267	129.183	-0.158	-0.202
-403.252	-47.130	0.227	0.111
-402.238	-171.776	-0.064	-0.002
-401.223	-200.000	-0.022	-0.253
-400.209	-200.000	-0.025	0.112
-399.194	84.142	-0.168	0.184
-398.179	-74.001	0.263	0.095
-397.165	219.713	-0.206	0.330
-396.150	-40.826	-0.158	0.082
-395.136	222.216	0.139	-0.223
-394.121	-55.251	0.167	0.075
-393.106	354.057	-0.104	0.207
-392.092	800.000	-0.025	0.097
-391.077	-200.000	0.005	0.076
-390.063	-200.000	-0.013	-0.079
-389.048	104.873	-0.047	0.056
-388.033	-200.000	-0.008	0.257
-387.019	-173.952	0.046	-0.001
-386.004	169.499	0.129	0.184
-384.990	-1.072	0.218	0.154
-383.975	166.360	0.150	-0.212
-382.960	-151.322	0.305	-0.023
-381.946	-16.455	-0.305	0.193
-380.931	-61.525	-0.028	-0.012
-379.917	-200.000	-0.007	-0.167
-378.902	439.206	-0.207	-0.452
-377.888	-165.362	0.278	-0.012
-376.873	-24.737	-0.095	0.056
-375.858	-200.000	0.040	-0.229
-374.844	-72.680	0.354	-0.130
-373.829	-57.040	-0.069	0.031
-372.815	124.744	0.058	-0.072
-371.800	-70.487	-0.323	0.122
-370.785	-200.000	-0.102	0.455
-369.771	-89.647	0.288	0.084
-368.756	-32.797	0.338	0.188
-367.742	780.907	-0.086	0.234
-366.727	-164.681	0.355	0.016
-365.712	800.000	-0.042	-0.129
-364.698	-200.000	-0.062	0.438
-363.683	800.000	0.030	0.095
-362.669	-24.133	-0.229	-0.136
-361.654	800.000	0.025	0.103
-360.639	-200.000	-0.018	0.165
-359.625	13.949	0.159	0.124
-358.610	-90.252	0.283	-0.082
-357.596	-44.914	-0.146	-0.073
-356.581	223.583	-0.077	-0.125
-355.566	-200.000	0.015	0.291
-354.552	22.364	0.256	0.209
-353.537	-41.535	0.250	0.128
-352.523	440.785	-0.133	-0.289
-351.508	366.633	-0.014	0.027
-350.493	-1.015	-0.090	0.063
-349.479	158.401	0.186	0.257
-348.464	-69.317	-0.267	0.102
-347.450	-200.000	-0.166	-0.000
-346.435	800.000	0.053	0.192
-345.420	-104.694	-0.105	-0.024
-344.406	692.374	-0.074	-0.193
-343.391	261.539	0.102	0.176
-342.377	223.397	0.165	0.266
-341.362	-200.000	0.041	0.294
-340.348	-96.744	0.246	-0.065
-339.333	-67.287	-0.256	-0.100
-338.318	-97.570	-0.193	0.050
-337.304	-50.436	0.115	0.054
-336.289	-106.637	0.152	-0.034
-335.275	800.000	-0.054	0.161
-334.260	151.540	0.062	-0.085
-333.245	5.256	-0.142	-0.105
-332.231	-200.000	-0.052	-0.268
-331.216	-200.000	-0.008	0.094
-330.202	0.074	0.165	0.117
-329.187	105.730	0.188	-0.222
-328.172	89.711	-0.159	-0.177
-327.158	-200.000	0.009	-0.266
-326.143	157.681	-0.090	-0.124
-325.129	366.887	-0.076	0.152
-324.114	54.868	-0.062	-0.060
-323.099	238.829	0.038	-0.063
-322.085	-200.000	0.008	0.098
-321.070	-97.059	0.244	-0.064
-320.056	-115.829	0.265	-0.049
-319.041	-149.595	0.177	0.014
-318.026	-31.390	-0.046	-0.026
-317.012	-98.376	0.143	-0.037
-315.997	-4.934	0.174	0.119
-314.983	29.114	0.231	-0.196
-313.968	63.787	0.217	-0.218
-312.953	-61.560	-0.130	0.054
-311.939	-26.956	-0.082	0.048
-310.924	-2.494	-0.102	-0.071
-309.910	-110.301	-0.102	0.021
-308.895	-146.293	0.260	-0.023
-307.880	-127.784	0.333	0.048
-306.866	-23.614	0.070	-0.042
-305.851	800.000	0.082	-0.249
-304.837	-200.000	-0.010	0.186
-303.822	-45.728	0.306	-0.151
-302.807	-200.000	0.083	-0.364
-301.793	-125.218	-0.188	0.029
-300.778	-14.295	0.125	0.080
-299.764	35.064	0.379	-0.331
-298.749	800.000	-0.098	-0.319
-297.735	487.108	0.096	-0.218
-296.720	44.790	-0.090	0.082
-295.705	-116.711	0.110	-0.020
-294.691	-169.575	-0.119	-0.004
-293.676	-98.544	0.103	-0.026
-292.662	-200.000	0.010	-0.167
-291.647	-96.472	-0.076	0.020
-290.632	158.079	-0.212	0.293
-289.618	191.613	-0.205	0.308
-288.603	-88.619	-0.066	-0.019
-287.589	35.940	-0.279	0.244
-286.574	81.648	-0.189	0.204
-285.559	-200.000	-0.015	0.382
-284.545	40.868	0.185	0.166
-283.530	-108.177	0.203	-0.044
-282.516	31.479	0.038	0.032
-281.501	-200.000	-0.037	-0.230
-280.486	800.000	-0.119	-0.484
-279.472	-200.000	0.018	-0.144
-278.457	28.612	0.050	0.042
-277.443	101.798	-0.310	-0.360
-276.428	7.090	0.228	-0.169
-275.413	-0.059	0.286	0.203
-274.399	635.426	-0.063	-0.159
-273.384	800.000	-0.086	-0.244
-272.370	56.503	-0.227	0.220
-271.355	33.624	0.175	-0.151
-270.340	363.268	-0.124	0.249
-269.326	800.000	-0.062	-0.268
-268.311	-20.709	-0.145	-0.088
-267.297	257.925	0.094	0.161
-266.282	264.054	-0.030	0.052
-265.267	92.839	0.258	0.290
-264.253	25.494	0.154	-0.128
-263.238	800.000	0.047	-0.158
-262.224	-138.939	-0.276	0.030
-261.209	-200.000	-0.079	0.422
-260.195	-121.924	0.435	-0.071
-259.180	20.102	0.152	-0.122
-258.165	4.245	-0.142	-0.103
-257.151	79.909	-0.251	-0.268
-256.136	-200.000	-0.008	0.128
-255.122	199.512	0.304	0.464
-254.107	-53.853	-0.221	0.100
-253.092	-155.928	-0.119	0.008
-252.078	-200.000	0.030	-0.289
-251.063	11.189	-0.252	0.192
-250.049	536.646	-0.071	-0.169
-249.034	225.131	0.071	-0.114
-248.019	434.563	0.082	-0.177
-247.005	-143.447	-0.178	-0.017
-245.990	-158.874	0.116	-0.007
-244.976	-39.657	0.156	-0.081
-243.961	370.424	0.039	-0.078
-242.946	624.692	-0.116	0.291
-241.932	220.857	-0.065	0.103
-240.917	-124.270	0.118	0.018
-239.903	-104.463	0.151	0.035
-238.888	86.357	-0.075	-0.082
-237.873	-87.633	-0.599	0.180
-236.859	237.619	-0.087	0.144
-235.844	-200.000	-0.000	0.051
-234.830	-173.049	-0.169	0.005
-233.815	-131.228	0.156	0.021
-232.800	24.088	0.064	-0.053
-231.786	-200.000	-0.063	0.370
-230.771	800.000	0.079	0.222
-229.757	247.083	0.165	0.276
-228.742	-200.000	0.026	0.249
-227.727	202.085	0.108	0.166
-226.713	40.087	0.270	0.241
-225.698	-70.094	0.209	-0.079
-224.684	82.749	0.037	0.040
-223.669	7.267	-0.125	-0.093
-222.655	-78.394	-0.176	-0.060
-221.640	-166.020	-0.190	-0.008
-220.625	-70.277	-0.512	-0.193
-219.611	-121.739	-0.135	-0.022
-218.596	-32.432	-0.122	-0.068
-217.582	-25.191	-0.136	-0.080
-216.567	-82.500	0.279	0.090
-215.552	-200.000	-0.003	-0.042
-214.538	800.000	0.144	0.413
-213.523	48.664	-0.142	0.132
-212.509	-200.000	-0.014	0.270
-211.494	1.965	0.331	-0.237
-210.479	0.398	0.042	-0.030
-209.465	-121.861	-0.412	0.067
-208.450	-72.743	-0.394	-0.144
-207.436	-128.285	-0.127	0.018
-206.421	130.971	0.137	-0.175
-205.406	-57.132	0.355	0.155
-204.392	0.081	-0.098	0.070
-203.377	27.432	-0.017	0.015
-202.363	-122.860	-0.330	0.053
-201.348	-37.532	0.156	-0.083
-200.333	346.386	-0.015	0.030
-199.319	224.051	0.081	0.130
-198.304	-101.632	0.145	0.035
-197.290	-200.000	-0.012	-0.171
-196.275	715.527	0.033	0.086
-195.260	-110.240	0.061	0.013
-194.246	41.716	0.107	-0.096
-193.231	-124.177	-0.294	-0.046
-192.217	-188.823	0.186	-0.002
-191.202	111.065	0.108	0.129
-190.187	32.647	-0.025	0.021
-189.173	-91.041	0.212	0.061
-188.158	-36.769	0.165	0.088
-187.144	-151.003	-0.105	0.008
-186.129	105.716	0.038	0.045
-185.114	150.361	-0.059	0.079
-184.100	667.215	0.166	0.426
-183.085	-49.526	0.121	0.057
-182.071	10.560	0.092	0.069
-181.056	184.165	-0.225	0.330
-180.042	-200.000	0.017	0.197
-179.027	52.816	-0.254	-0.241
-178.012	636.469	-0.018	0.046
-176.998	-155.656	0.168	0.011
-175.983	578.617	-0.047	-0.114
-174.969	-135.181	0.423	-0.050
-173.954	-103.164	-0.413	-0.097
-172.939	-84.333	0.078	0.024
-171.925	-1.827	-0.215	-0.150
-170.910	-81.408	-0.201	-0.066
-169.896	-78.820	0.092	0.031
-168.881	13.177	0.081	-0.062
-167.866	102.916	0.141	-0.164
-166.852	-200.000	-0.006	-0.031
-165.837	-122.957	-0.272	0.043
-164.823	-200.000	-0.014	-0.255
-163.808	147.685	-0.151	-0.202
-162.793	-41.982	0.065	-0.033
-161.779	-109.180	0.184	0.039
-160.764	254.072	0.224	0.379
-159.750	-71.328	0.047	0.018
-158.735	800.000	0.067	-0.248
-157.720	-104.830	-0.168	0.038
-156.706	53.799	-0.098	-0.094
-155.691	-200.000	0.020	-0.115
-154.677	-200.000	-0.021	0.118
-153.662	445.795	-0.135	0.293
-152.647	-11.498	0.116	-0.076
-151.633	-104.885	-0.148	0.034
-150.618	43.016	0.160	-0.145
-149.604	-200.000	-0.009	-0.283
-148.589	-25.098	0.188	0.110
-147.574	-104.803	-0.026	-0.006
-146.560	-66.249	-0.418	-0.165
-145.545	289.910	0.081	0.145
-144.531	249.913	0.055	-0.093
-143.516	-200.000	-0.003	-0.093
-142.502	37.975	0.123	-0.109
-141.487	239.525	-0.092	-0.152
-140.472	19.165	0.217	0.172
-139.458	83.928	-0.298	0.322
-138.443	-163.610	-0.203	0.009
-137.429	-110.741	-0.176	0.036
-136.414	165.101	-0.051	0.071
-135.399	800.000	0.053	-0.219
-134.385	-109.150	-0.183	0.038
-133.370	43.092	0.187	-0.168
-132.356	-137.588	0.169	0.019
-131.341	800.000	-0.122	-0.365
-130.326	56.935	0.094	-0.090
-129.312	-144.554	0.081	-0.007
-128.297	113.631	0.068	0.081
-127.283	-32.412	0.243	-0.134
-126.268	-200.000	0.015	-0.100
-125.253	-116.104	0.109	0.020
-124.239	-200.000	-0.027	0.150
-123.224	-117.118	-0.170	0.031
-122.210	-200.000	0.018	-0.203
