DTS Sentinel unit serial number:	SN413079Multiplexer serial number:	ORYXHardware model number:	OX4-SRSoftware version number:	ORYX F/W v4.00 Oryx Data Collector v3.7.2.0data status	okinstallation	princeton_trtdifferential loss correction	single-endedforward channel	channel 2reverse channel	N/Adate	2019/09/11time	03:05:11forward acquisition time	60.00reverse acquisition time	0.00gamma	496.2192k internal	0.2330k external	0.2330temperature offset calibration	0.9942default loss term (dB/km)	0.3790temperature slope calibration	1.0000multiplexer offset coefficient	1.0000multiplexer slope coefficient	1.0000fibre end	0.00T internal ref (°C)	29.31T ext. ref 1 (°C)	-0.29T ext. ref 2 (°C)	23.77length (m)	temperature (°C)	Stokes	anti-Stokes-747.200	20.823	-0.197	-0.161
-746.185	-200.000	0.006	-0.073
-745.171	-200.000	-0.045	-0.289
-744.156	74.649	0.047	0.050
-743.142	61.918	0.083	-0.083
-742.127	512.274	-0.148	-0.346
-741.112	106.188	-0.040	0.047
-740.098	-74.709	0.023	-0.008
-739.083	-22.732	0.036	-0.022
-738.069	-23.461	-0.223	-0.135
-737.054	-145.582	0.324	-0.029
-736.039	800.000	0.074	0.267
-735.025	-200.000	-0.026	0.183
-734.010	800.000	-0.080	-0.330
-732.996	327.425	-0.183	-0.354
-731.981	-34.941	-0.131	0.072
-730.966	217.855	-0.108	-0.173
-729.952	-16.408	-0.142	-0.091
-728.937	-106.227	0.142	0.032
-727.923	-147.801	-0.182	-0.015
-726.908	169.809	-0.185	-0.266
-725.894	-29.204	0.130	-0.075
-724.879	-99.641	-0.204	0.051
-723.864	-29.969	0.157	0.090
-722.850	296.500	-0.042	0.078
-721.835	-197.341	-0.191	-0.001
-720.821	-200.000	-0.017	-0.135
-719.806	-140.892	-0.244	-0.025
-718.791	-149.949	0.224	0.018
-717.777	151.538	0.188	-0.258
-716.762	191.238	-0.142	-0.214
-715.748	-180.989	0.116	0.002
-714.733	2.137	-0.212	0.154
-713.718	-153.585	0.182	-0.013
-712.704	-200.000	-0.036	-0.219
-711.689	-75.197	0.031	0.011
-710.675	109.539	-0.082	0.099
-709.660	-83.863	-0.182	0.058
-708.645	483.135	-0.141	-0.323
-707.631	4.382	-0.028	-0.021
-706.616	-109.073	-0.158	-0.034
-705.602	-93.564	0.191	-0.053
-704.587	-123.056	-0.124	0.020
-703.572	-142.013	0.295	-0.030
-702.558	-68.461	-0.394	-0.154
-701.543	-200.000	-0.007	-0.167
-700.529	800.000	0.033	0.120
-699.514	800.000	0.037	0.130
-698.499	-63.115	-0.236	0.098
-697.485	800.000	-0.035	0.108
-696.470	5.712	-0.112	-0.083
-695.456	204.984	-0.136	-0.211
-694.441	344.617	-0.051	-0.101
-693.426	-121.339	0.105	-0.018
-692.412	-66.137	0.092	0.037
-691.397	800.000	0.040	-0.148
-690.383	-112.291	-0.182	0.037
-689.368	-200.000	0.014	0.120
-688.354	104.451	-0.053	-0.062
-687.339	-39.623	0.144	-0.076
-686.324	-43.522	0.241	-0.122
-685.310	178.632	-0.116	-0.171
-684.295	375.086	-0.202	0.413
-683.281	557.537	-0.036	-0.086
-682.266	488.084	-0.111	-0.255
-681.251	-71.403	0.398	0.150
-680.237	-71.671	-0.181	0.068
-679.222	-87.540	-0.122	0.037
-678.208	10.396	0.287	0.219
-677.193	-200.000	-0.027	-0.154
-676.178	94.428	-0.156	-0.178
-675.164	637.286	0.037	-0.095
-674.149	343.026	-0.154	0.303
-673.135	-34.735	-0.171	-0.094
-672.120	164.436	0.128	-0.181
-671.105	165.114	0.262	-0.372
-670.091	-200.000	-0.040	0.183
-669.076	-200.000	0.021	-0.313
-668.062	-71.653	-0.172	-0.065
-667.047	423.222	-0.063	0.135
-666.032	-179.252	-0.231	0.005
-665.018	-96.902	0.152	-0.040
-664.003	218.024	-0.191	-0.306
-662.989	-86.180	0.516	-0.160
-661.974	220.677	0.026	0.042
-660.959	104.453	0.026	-0.031
-659.945	228.502	0.134	-0.219
-658.930	800.000	0.037	-0.161
-657.916	52.642	-0.165	-0.158
-656.901	488.316	-0.054	-0.124
-655.886	-142.062	-0.339	-0.034
-654.872	213.944	-0.111	0.176
-653.857	273.790	-0.139	-0.247
-652.843	-200.000	0.022	0.240
-651.828	-172.978	-0.365	-0.011
-650.814	-93.361	0.265	0.074
-649.799	-200.000	-0.001	-0.103
-648.784	-200.000	0.078	0.343
-647.770	800.000	0.091	0.305
-646.755	-10.971	0.215	-0.142
-645.741	-88.564	-0.306	-0.091
-644.726	-200.000	0.027	0.127
-643.711	127.813	0.130	0.166
-642.697	121.128	0.006	-0.007
-641.682	222.798	0.073	0.117
-640.668	364.427	-0.079	0.159
-639.653	-57.543	0.337	0.148
-638.638	-154.086	-0.118	-0.008
-637.624	-200.000	-0.072	-0.395
-636.609	234.950	-0.026	-0.044
-635.595	-127.935	0.370	0.053
-634.580	-168.779	-0.360	0.014
-633.565	-129.487	-0.364	-0.051
-632.551	-121.705	0.297	0.049
-631.536	389.234	0.041	-0.086
-630.522	-200.000	-0.031	0.355
-629.507	-113.259	-0.354	-0.070
-628.492	800.000	0.081	-0.300
-627.478	-94.180	-0.090	-0.025
-626.463	800.000	0.061	0.251
-625.449	-43.293	0.160	0.081
-624.434	-170.834	0.091	-0.003
-623.419	189.186	-0.076	0.115
-622.405	11.572	-0.153	-0.118
-621.390	102.034	0.132	-0.154
-620.376	800.000	0.022	0.076
-619.361	103.361	-0.142	0.166
-618.346	79.054	-0.185	0.199
-617.332	-86.206	0.254	0.078
-616.317	-175.779	0.310	-0.008
-615.303	-49.724	-0.383	-0.183
-614.288	534.161	0.084	0.199
-613.273	-195.649	-0.270	-0.002
-612.259	-102.940	-0.211	0.050
-611.244	312.775	-0.085	0.161
-610.230	-200.000	-0.001	-0.222
-609.215	-200.000	0.015	-0.243
-608.201	26.373	-0.174	0.145
-607.186	-116.686	0.447	0.082
-606.171	160.756	-0.023	0.032
-605.157	800.000	-0.111	0.329
-604.142	-21.508	0.077	0.047
-603.128	800.000	-0.107	0.354
-602.113	-140.495	-0.185	-0.019
-601.098	440.013	0.122	0.268
-600.084	-200.000	0.017	0.269
-599.069	-1.254	-0.098	0.069
-598.055	-78.705	-0.262	0.089
-597.040	-23.421	0.109	-0.066
-596.025	-200.000	0.016	-0.271
-595.011	426.687	-0.130	-0.280
-593.996	-200.000	0.021	-0.131
-592.982	-81.636	0.281	-0.092
-591.967	-26.696	-0.323	-0.189
-590.952	800.000	-0.061	-0.213
-589.938	524.605	0.104	-0.244
-588.923	637.264	-0.056	-0.143
-587.909	352.215	0.183	-0.363
-586.894	-200.000	-0.013	0.173
-585.879	-155.139	0.265	0.017
-584.865	800.000	-0.058	0.211
-583.850	-67.807	-0.402	-0.157
-582.836	-121.250	0.317	-0.053
-581.821	-200.000	0.007	-0.162
-580.806	221.029	0.070	0.113
-579.792	-182.475	-0.227	-0.004
-578.777	-109.377	-0.189	-0.040
-577.763	-200.000	-0.016	-0.273
-576.748	800.000	0.096	-0.270
-575.733	800.000	-0.094	0.269
-574.719	-13.916	0.239	-0.155
-573.704	-200.000	0.013	0.199
-572.690	-77.519	-0.189	-0.065
-571.675	-90.466	0.433	0.126
-570.661	108.468	-0.190	-0.227
-569.646	-65.519	-0.294	0.118
-568.631	-132.118	0.246	-0.032
-567.617	-58.613	-0.185	0.080
-566.602	-67.997	0.216	-0.084
-565.588	-18.262	-0.066	0.041
-564.573	-200.000	0.028	-0.288
-563.558	-139.146	0.228	0.025
-562.544	46.557	0.178	0.165
-561.529	514.810	-0.091	-0.213
-560.515	33.675	0.236	-0.205
-559.500	-49.568	-0.159	-0.076
-558.485	-200.000	0.008	-0.104
-557.471	693.860	-0.091	-0.237
-556.456	-21.871	0.014	-0.009
-555.442	-24.116	-0.007	-0.004
-554.427	44.902	-0.242	0.223
-553.412	-200.000	-0.024	0.152
-552.398	-150.891	-0.097	-0.007
-551.383	637.497	-0.039	0.100
-550.369	-160.733	-0.120	0.006
-549.354	-66.713	-0.142	-0.056
-548.339	-200.000	-0.013	0.131
-547.325	-200.000	-0.027	-0.209
-546.310	-128.684	-0.377	-0.053
-545.296	-200.000	0.049	-0.363
-544.281	461.189	-0.034	-0.076
-543.266	800.000	-0.048	-0.141
-542.252	0.959	0.131	0.094
-541.237	800.000	0.096	-0.275
-540.223	-9.094	-0.180	-0.120
-539.208	65.612	0.191	0.194
-538.193	-113.514	-0.417	0.082
-537.179	-96.058	0.170	-0.045
-536.164	-116.217	0.336	-0.062
-535.150	-200.000	-0.021	0.141
-534.135	-200.000	-0.047	-0.247
-533.121	-200.000	-0.003	0.028
-532.106	-200.000	0.014	0.074
-531.091	800.000	-0.046	-0.139
-530.077	-160.930	-0.227	-0.012
-529.062	-200.000	0.011	-0.195
-528.048	21.634	-0.105	-0.086
-527.033	-100.524	-0.180	-0.045
-526.018	282.977	-0.054	0.097
-525.004	-62.757	-0.322	-0.133
-523.989	12.456	-0.156	0.120
-522.975	169.811	-0.064	0.092
-521.960	12.896	-0.193	0.149
-520.945	1.059	0.108	0.077
-519.931	135.315	0.217	0.281
-518.916	-200.000	0.069	0.302
-517.902	-17.076	-0.322	-0.203
-516.887	42.006	0.084	0.076
-515.872	116.050	0.126	-0.154
-514.858	-79.442	-0.166	-0.056
-513.843	98.968	-0.145	0.166
-512.829	-57.812	0.118	0.052
-511.814	329.410	0.099	0.189
-510.799	695.076	-0.086	0.224
-509.785	-200.000	0.011	0.166
-508.770	-77.793	0.237	0.082
-507.756	-200.000	0.084	0.491
-506.741	-88.537	0.153	0.046
-505.726	-145.372	-0.171	0.015
-504.712	387.764	-0.093	0.192
-503.697	-200.000	-0.004	0.262
-502.683	153.868	-0.149	0.203
-501.668	-62.760	-0.075	-0.031
-500.653	151.660	0.165	-0.225
-499.639	-148.528	0.137	-0.011
-498.624	645.037	0.038	0.096
-497.610	-49.975	0.322	0.152
-496.595	79.269	0.136	-0.145
-495.581	8.235	0.055	0.041
-494.566	-117.607	0.167	0.030
-493.551	-96.791	-0.356	0.093
-492.537	-16.207	0.217	0.137
-491.522	-200.000	-0.013	0.080
-490.508	-47.001	0.313	-0.152
-489.493	1.774	-0.158	-0.113
-488.478	-130.510	0.245	-0.033
-487.464	678.025	-0.043	0.111
-486.449	-20.440	-0.081	-0.050
-485.435	469.952	0.206	0.461
-484.420	123.872	0.170	0.212
-483.405	-59.211	0.258	-0.111
-482.391	-32.112	-0.135	0.075
-481.376	387.260	-0.057	0.117
-480.362	-200.000	0.002	-0.252
-479.347	800.000	0.012	0.033
-478.332	-200.000	-0.009	0.244
-477.318	428.735	0.132	-0.285
-476.303	582.678	-0.141	-0.345
-475.289	-8.100	-0.249	0.167
-474.274	1.077	-0.283	-0.202
-473.259	78.043	-0.240	0.255
-472.245	-83.208	-0.286	0.091
-471.230	-3.823	0.171	-0.118
-470.216	328.474	-0.018	0.035
-469.201	79.969	0.217	0.232
-468.186	-110.203	0.342	0.071
-467.172	79.625	-0.152	-0.163
-466.157	202.709	-0.053	0.082
-465.143	89.440	0.073	0.081
-464.128	-167.173	0.139	0.006
-463.113	-200.000	-0.022	-0.220
-462.099	38.373	0.062	0.055
-461.084	562.625	0.106	-0.256
-460.070	800.000	0.080	0.251
-459.055	-6.679	-0.253	-0.171
-458.040	76.873	-0.031	0.033
-457.026	97.442	0.158	0.180
-456.011	800.000	0.089	0.273
-454.997	800.000	-0.067	-0.196
-453.982	-200.000	-0.009	0.374
-452.968	-200.000	0.003	0.067
-451.953	-42.729	0.253	-0.128
-450.938	432.349	0.121	0.260
-449.924	544.427	-0.157	-0.374
-448.909	-200.000	0.030	-0.396
-447.895	-61.675	0.200	0.084
-446.880	-92.340	-0.042	0.012
-445.865	800.000	-0.032	0.136
-444.851	-85.790	0.163	-0.050
-443.836	8.693	0.097	0.073
-442.822	-78.377	0.124	0.042
-441.807	-200.000	0.035	0.175
-440.792	47.277	-0.096	0.089
-439.778	33.307	-0.055	0.048
-438.763	541.879	0.092	-0.218
-437.749	112.383	-0.226	-0.272
-436.734	-200.000	-0.053	0.349
-435.719	75.671	0.193	-0.203
-434.705	800.000	-0.045	0.151
-433.690	31.542	-0.069	-0.059
-432.676	-51.992	-0.331	0.153
-431.661	5.798	0.414	0.304
-430.646	-200.000	0.047	-0.227
-429.632	159.192	0.130	-0.179
-428.617	83.862	-0.036	-0.039
-427.603	375.529	0.091	-0.184
-426.588	273.662	-0.127	-0.223
-425.573	-63.910	0.217	-0.088
-424.559	94.462	-0.102	-0.115
-423.544	672.841	0.099	0.254
-422.530	41.816	0.067	0.061
-421.515	251.182	0.090	-0.152
-420.500	800.000	-0.082	-0.309
-419.486	330.663	0.068	-0.131
-418.471	-200.000	-0.013	-0.244
-417.457	-200.000	0.007	-0.105
-416.442	473.649	0.022	-0.050
-415.428	800.000	0.044	-0.128
-414.413	406.794	0.042	-0.089
-413.398	-200.000	0.037	0.261
-412.384	-200.000	0.039	-0.482
-411.369	-200.000	-0.005	-0.448
-410.355	800.000	0.024	-0.067
-409.340	-39.300	-0.198	-0.103
-408.325	-43.180	0.348	-0.175
-407.311	-101.341	0.208	0.050
-406.296	-200.000	0.037	-0.223
-405.282	-92.215	-0.129	-0.036
-404.267	204.810	0.066	0.102
-403.252	-148.239	-0.257	-0.021
-402.238	800.000	0.154	0.426
-401.223	45.156	0.112	-0.103
-400.209	26.256	-0.286	0.238
-399.194	236.476	0.169	-0.277
-398.179	36.012	-0.282	-0.247
-397.165	247.069	-0.173	-0.291
-396.150	461.648	0.066	0.146
-395.136	175.472	0.046	0.067
-394.121	402.891	-0.063	-0.131
-393.106	-8.485	-0.148	0.099
-392.092	-69.098	0.120	-0.046
-391.077	-121.008	0.274	0.046
-390.063	116.323	0.063	0.077
-389.048	78.948	0.082	0.087
-388.033	-83.499	0.251	-0.080
-387.019	-76.268	-0.236	0.082
-386.004	313.281	0.052	0.098
-384.990	35.007	-0.116	-0.101
-383.975	499.685	-0.087	-0.199
-382.960	-111.182	-0.410	-0.083
-381.946	-67.914	-0.193	-0.075
-380.931	-68.068	-0.361	-0.140
-379.917	-200.000	0.017	-0.229
-378.902	-111.175	0.282	0.057
-377.888	-15.670	-0.182	-0.115
-376.873	502.971	-0.129	-0.297
-375.858	193.298	-0.118	0.177
-374.844	51.150	-0.182	0.171
-373.829	713.423	0.114	-0.299
-372.815	-66.588	0.124	0.049
-371.800	-59.942	-0.385	-0.163
-370.785	800.000	-0.082	0.294
-369.771	-67.609	0.219	-0.085
-368.756	36.692	-0.177	0.155
-367.742	-200.000	0.029	0.157
-366.727	-177.746	0.255	-0.006
-365.712	-43.292	-0.204	-0.102
-364.698	-200.000	-0.008	0.252
-363.683	-200.000	0.021	-0.231
-362.669	800.000	0.043	-0.157
-361.654	46.399	-0.207	-0.191
-360.639	-15.855	-0.230	-0.145
-359.625	-200.000	-0.047	-0.240
-358.610	213.168	-0.094	-0.147
-357.596	23.140	0.173	0.141
-356.581	-1.087	-0.144	-0.101
-355.566	123.613	-0.197	-0.245
-354.552	-200.000	0.022	-0.146
-353.537	-84.933	0.125	0.039
-352.523	414.769	0.218	-0.459
-351.508	-58.124	0.256	-0.111
-350.493	-148.225	-0.227	-0.019
-349.479	46.061	-0.178	0.163
-348.464	-200.000	-0.001	-0.147
-347.450	139.050	-0.104	0.136
-346.435	-99.989	0.243	-0.060
-345.420	-108.464	0.359	0.077
-344.406	800.000	0.089	0.282
-343.391	-55.249	0.041	-0.018
-342.377	-39.947	-0.281	0.145
-341.362	-76.937	0.208	-0.072
-340.348	-67.425	0.213	-0.083
-339.333	7.246	0.085	-0.063
-338.318	-200.000	-0.018	0.133
-337.304	28.070	-0.178	0.149
-336.289	557.007	0.113	0.269
-335.275	-200.000	-0.018	0.134
-334.260	-82.769	-0.211	-0.067
-333.245	367.091	-0.116	0.233
-332.231	-111.154	-0.273	0.055
-331.216	33.848	0.198	0.170
-330.202	-122.896	-0.102	-0.016
-329.187	228.183	0.157	0.253
-328.172	-200.000	-0.024	0.262
-327.158	100.399	-0.120	0.138
-326.143	-200.000	-0.027	0.116
-325.129	-114.705	-0.181	0.034
-324.114	46.806	0.176	-0.162
-323.099	-115.874	0.072	-0.013
-322.085	-86.365	0.197	-0.060
-321.070	-200.000	0.009	0.165
-320.056	90.601	-0.206	-0.229
-319.041	-22.695	-0.113	0.068
-318.026	-74.402	-0.249	0.089
-317.012	800.000	-0.131	0.462
-315.997	800.000	0.010	-0.035
-314.983	26.120	-0.046	0.038
-313.968	212.440	0.068	-0.106
-312.953	-49.262	0.109	-0.051
-311.939	-200.000	0.007	-0.234
-310.924	669.684	0.119	0.305
-309.910	800.000	0.017	0.056
-308.895	5.149	-0.357	0.261
-307.880	25.923	0.252	-0.208
-306.866	447.785	-0.077	-0.167
-305.851	-81.831	0.314	-0.102
-304.837	605.422	0.021	-0.052
-303.822	-89.795	0.081	0.023
-302.807	79.019	-0.185	0.196
-301.793	-52.727	-0.126	0.058
-300.778	800.000	-0.046	-0.163
-299.764	703.687	-0.021	-0.056
-298.749	-200.000	0.032	0.175
-297.735	-200.000	0.025	-0.174
-296.720	59.885	0.197	0.193
-295.705	-200.000	-0.030	0.301
-294.691	147.654	0.082	0.109
-293.676	106.217	-0.149	0.174
-292.662	21.931	-0.099	-0.080
-291.647	-200.000	-0.028	-0.148
-290.632	76.139	0.082	-0.085
-289.618	432.613	-0.087	-0.187
-288.603	800.000	-0.175	-0.632
-287.589	-200.000	-0.012	0.168
-286.574	-200.000	0.029	0.185
-285.559	367.842	-0.100	-0.199
-284.545	-151.201	0.326	0.024
-283.530	22.446	-0.161	0.130
-282.516	312.804	-0.127	0.236
-281.501	-120.455	0.091	0.015
-280.486	499.250	-0.194	0.442
-279.472	-99.067	-0.304	0.076
-278.457	714.342	-0.081	-0.211
-277.443	123.315	0.129	0.160
-276.428	73.704	-0.076	0.078
-275.413	-81.766	0.353	0.114
-274.399	-62.076	-0.161	0.067
-273.384	-157.043	0.206	0.012
-272.370	311.637	0.091	0.169
-271.355	-6.414	0.268	-0.181
-270.340	157.562	0.110	-0.151
-269.326	94.140	0.221	0.248
-268.311	-200.000	0.011	-0.084
-267.297	-34.946	0.074	-0.040
-266.282	-137.346	-0.037	0.004
-265.267	388.456	0.041	0.084
-264.253	77.798	0.127	0.134
-263.238	-200.000	0.064	-0.372
-262.224	-150.855	0.341	-0.026
-261.209	800.000	0.078	0.254
-260.195	57.014	0.265	-0.255
-259.180	-126.840	-0.242	0.035
-258.165	-159.728	-0.285	0.016
-257.151	-200.000	-0.010	0.210
-256.136	546.250	-0.131	0.310
-255.122	272.864	0.178	0.311
-254.107	-13.298	-0.389	0.249
-253.092	598.465	-0.118	-0.290
-252.078	-200.000	0.006	0.194
-251.063	-58.108	0.328	0.141
-250.049	-125.937	-0.093	0.014
-249.034	800.000	-0.056	0.238
-248.019	-6.576	-0.121	0.081
-247.005	30.591	-0.253	0.213
-245.990	-156.007	0.325	-0.020
-244.976	313.815	-0.103	-0.192
-243.961	-161.474	-0.107	0.005
-242.946	-6.428	0.086	-0.058
-241.932	-17.858	0.178	-0.111
-240.917	101.792	-0.187	0.215
-239.903	-166.308	-0.206	0.009
-238.888	352.620	-0.071	-0.138
-237.873	-200.000	0.054	0.489
-236.859	-97.447	-0.142	0.036
-235.844	800.000	-0.079	-0.271
-234.830	-6.482	-0.125	0.084
-233.815	-85.284	0.193	0.059
-232.800	-200.000	0.001	-0.174
-231.786	51.184	0.098	-0.092
-230.771	-22.783	0.134	0.080
-229.757	244.619	-0.221	-0.366
-228.742	-80.179	-0.289	0.095
-227.727	-52.389	0.364	0.166
-226.713	800.000	0.071	-0.271
-225.698	64.512	0.343	-0.341
-224.684	-112.542	0.491	0.097
-223.669	800.000	0.103	0.305
-222.655	194.321	-0.048	-0.072
-221.640	800.000	-0.018	-0.059
-220.625	800.000	-0.049	0.166
-219.611	-29.371	-0.176	-0.099
-218.596	-85.756	0.216	0.066
-217.582	436.273	0.048	-0.102
-216.567	-38.626	-0.167	0.087
-215.552	-164.084	-0.087	0.004
-214.538	-200.000	-0.014	0.067
-213.523	-26.307	0.362	-0.209
-212.509	140.704	-0.117	-0.152
-211.494	-110.266	0.174	0.036
-210.479	55.374	0.081	0.078
-209.465	-50.745	0.031	0.014
-208.450	-171.854	0.157	-0.005
-207.436	-200.000	-0.005	0.113
-206.421	-39.693	-0.147	0.076
-205.406	800.000	0.133	0.499
-204.392	-49.628	-0.058	0.027
-203.377	2.523	0.285	-0.203
-202.363	208.320	0.174	-0.268
-201.348	-56.614	0.106	-0.046
-200.333	-200.000	0.029	-0.137
-199.319	104.962	0.017	-0.020
-198.304	242.576	-0.191	-0.315
-197.290	-200.000	0.004	-0.191
-196.275	-200.000	-0.042	0.250
-195.260	-114.356	-0.233	0.044
-194.246	1.273	0.061	-0.043
-193.231	-200.000	0.043	-0.330
-192.217	180.673	0.135	0.196
-191.202	101.608	0.301	-0.345
-190.187	409.425	-0.110	0.230
-189.173	178.062	-0.262	-0.376
-188.158	121.176	0.050	-0.062
-187.144	-200.000	-0.076	-0.337
-186.129	-98.197	-0.321	-0.081
-185.114	-200.000	0.033	-0.167
-184.100	32.566	0.231	0.196
-183.085	-150.129	0.227	0.017
-182.071	411.686	-0.032	-0.067
-181.056	-35.055	0.070	0.038
-180.042	-113.029	-0.167	0.032
-179.027	-45.684	0.194	-0.094
-178.012	-200.000	0.023	-0.200
-176.998	-0.684	0.066	0.046
-175.983	498.590	0.094	0.214
-174.969	-5.154	0.324	0.219
-173.954	-105.188	-0.215	-0.048
-172.939	-126.193	-0.328	0.048
-171.925	750.025	0.040	0.107
-170.910	86.719	0.242	-0.263
-169.896	-38.421	0.087	0.046
-168.881	-200.000	-0.072	0.345
-167.866	800.000	-0.100	-0.373
-166.852	-200.000	0.110	-0.520
-165.837	533.842	-0.065	0.152
-164.823	-81.008	-0.502	0.164
-163.808	-189.229	-0.189	0.002
-162.793	-52.444	0.071	0.032
-161.779	279.518	0.155	0.272
-160.764	800.000	-0.048	0.137
-159.750	-32.588	-0.162	0.089
-158.735	-200.000	0.002	0.026
-157.720	197.241	0.047	-0.070
-156.706	-144.119	0.115	-0.011
-155.691	-111.338	0.174	-0.035
-154.677	335.354	-0.178	-0.340
-153.662	-173.442	0.135	-0.004
-152.647	178.742	-0.127	0.182
-151.633	37.402	-0.141	-0.123
-150.618	800.000	-0.014	-0.049
-149.604	49.833	0.141	0.131
-148.589	-67.529	0.282	0.109
-147.574	75.952	-0.126	0.131
-146.560	128.368	-0.197	0.246
-145.545	110.077	0.073	-0.086
-144.531	-200.000	0.043	0.209
-143.516	333.576	-0.104	0.197
-142.502	-200.000	0.005	0.259
-141.487	-39.208	-0.222	-0.115
-140.472	800.000	-0.092	0.273
-139.458	-7.888	0.218	-0.144
-138.443	38.233	0.333	-0.292
-137.429	-175.471	0.331	0.009
-136.414	34.394	0.118	-0.101
-135.399	-173.428	-0.294	0.009
-134.385	-80.682	-0.095	0.031
-133.370	-35.704	0.172	-0.092
-132.356	496.408	-0.191	-0.432
-131.341	-6.822	0.129	0.086
-130.326	141.168	0.154	0.201
-129.312	800.000	0.061	0.209
-128.297	441.567	0.031	-0.066
-127.283	-200.000	0.017	-0.201
-126.268	30.524	-0.151	-0.127
-125.253	-95.482	0.074	-0.020
-124.239	272.089	0.124	0.216
-123.224	17.078	-0.091	0.071
-122.210	-69.197	-0.236	0.089
-121.195	-121.023	0.116	0.019
