DTS Sentinel unit serial number:	SN413079Multiplexer serial number:	ORYXHardware model number:	OX4-SRSoftware version number:	ORYX F/W v4.00 Oryx Data Collector v3.7.2.0data status	okinstallation	princeton_trtdifferential loss correction	single-endedforward channel	channel 2reverse channel	N/Adate	2019/09/17time	19:47:34forward acquisition time	60.00reverse acquisition time	0.00gamma	496.2192k internal	0.2325k external	0.2325temperature offset calibration	0.9989default loss term (dB/km)	0.3790temperature slope calibration	1.0000multiplexer offset coefficient	1.0000multiplexer slope coefficient	1.0000fibre end	0.00T internal ref (°C)	34.61T ext. ref 1 (°C)	0.24T ext. ref 2 (°C)	24.00length (m)	temperature (°C)	Stokes	anti-Stokes-747.200	-200.000	-0.016	0.110
-746.185	-159.751	-0.218	0.012
-745.171	205.177	0.064	-0.101
-744.156	729.437	0.055	-0.150
-743.142	-200.000	0.053	-0.437
-742.127	-100.446	-0.457	0.114
-741.112	182.436	0.191	-0.285
-740.098	284.778	0.075	0.136
-739.083	-141.721	0.475	0.048
-738.069	800.000	-0.088	0.335
-737.054	800.000	-0.059	-0.175
-736.039	45.726	0.232	0.216
-735.025	-65.888	-0.241	-0.097
-734.010	63.744	0.148	-0.150
-732.996	800.000	-0.079	-0.273
-731.981	-68.539	0.046	-0.018
-730.966	-200.000	-0.008	-0.330
-729.952	241.364	0.129	-0.217
-728.937	195.431	0.151	0.232
-727.923	-200.000	-0.007	-0.219
-726.908	551.039	-0.106	-0.258
-725.894	-69.178	0.239	0.093
-724.879	144.598	-0.185	-0.250
-723.864	169.702	-0.173	-0.249
-722.850	-4.974	0.152	-0.105
-721.835	800.000	-0.099	-0.397
-720.821	68.837	0.233	-0.241
-719.806	-185.342	-0.120	0.002
-718.791	145.695	-0.178	-0.241
-717.777	-200.000	-0.012	-0.164
-716.762	362.016	0.079	-0.161
-715.748	39.695	-0.590	0.534
-714.733	-9.812	0.310	-0.208
-713.718	298.936	-0.080	-0.149
-712.704	-78.033	-0.269	-0.093
-711.689	40.303	0.133	-0.121
-710.675	-200.000	0.026	0.209
-709.660	150.081	0.073	-0.100
-708.645	-79.565	-0.383	-0.130
-707.631	284.868	-0.116	-0.211
-706.616	-22.505	-0.065	-0.040
-705.602	372.005	0.055	-0.114
-704.587	-59.946	0.158	-0.068
-703.572	120.062	-0.136	-0.170
-702.558	146.649	-0.190	-0.258
-701.543	800.000	-0.072	0.217
-700.529	16.574	0.188	-0.150
-699.514	-83.391	-0.315	0.102
-698.499	56.862	0.093	-0.091
-697.485	800.000	-0.040	-0.126
-696.470	26.790	-0.222	-0.188
-695.456	-47.864	-0.357	-0.174
-694.441	-22.987	-0.141	0.085
-693.426	-176.411	-0.094	0.002
-692.412	-36.793	-0.465	0.251
-691.397	-200.000	-0.046	0.527
-690.383	-17.635	0.111	-0.070
-689.368	127.613	-0.168	-0.215
-688.354	-80.018	0.266	-0.090
-687.339	-87.269	0.175	-0.053
-686.324	800.000	0.037	0.144
-685.310	-200.000	0.026	0.220
-684.295	-114.358	0.212	-0.041
-683.281	81.522	-0.008	0.009
-682.266	-200.000	0.030	-0.250
-681.251	-200.000	-0.035	-0.192
-680.237	-39.057	-0.240	-0.127
-679.222	145.344	-0.144	0.194
-678.208	-200.000	-0.028	-0.139
-677.193	-78.414	0.264	-0.091
-676.178	-35.823	-0.257	0.140
-675.164	-200.000	-0.078	-0.396
-674.149	383.227	-0.144	-0.298
-673.135	-200.000	0.017	0.159
-672.120	800.000	-0.086	0.287
-671.105	800.000	-0.064	-0.255
-670.091	210.309	-0.111	0.176
-669.076	-149.658	-0.143	0.011
-668.062	-200.000	0.015	-0.241
-667.047	87.898	-0.066	-0.074
-666.032	-200.000	0.011	-0.233
-665.018	275.307	0.055	0.097
-664.003	158.796	0.195	-0.272
-662.989	-140.115	0.030	0.003
-661.974	318.184	-0.108	-0.205
-660.959	-81.718	-0.191	0.063
-659.945	-200.000	-0.068	-0.362
-658.930	800.000	-0.076	0.231
-657.916	-102.053	0.189	-0.046
-656.901	-125.261	0.105	0.016
-655.886	-23.139	-0.035	-0.021
-654.872	800.000	-0.085	-0.240
-653.857	800.000	-0.063	-0.227
-652.843	206.041	-0.132	0.207
-651.828	-129.938	-0.399	0.055
-650.814	-200.000	0.019	-0.310
-649.799	63.273	-0.095	-0.096
-648.784	-111.051	-0.123	-0.025
-647.770	247.707	-0.110	0.187
-646.755	215.600	-0.173	-0.277
-645.741	800.000	0.013	0.050
-644.726	-200.000	-0.024	-0.119
-643.711	800.000	0.091	-0.381
-642.697	-36.387	0.084	0.045
-641.682	-84.401	-0.173	0.055
-640.668	177.185	-0.267	-0.391
-639.653	428.994	-0.054	-0.117
-638.638	406.693	0.181	-0.384
-637.624	-20.888	-0.205	-0.126
-636.609	-200.000	-0.023	0.000
-635.595	289.248	-0.317	0.577
-634.580	346.965	-0.043	-0.084
-633.565	-158.541	-0.170	-0.010
-632.551	-111.442	0.140	-0.029
-631.536	-200.000	0.049	-0.243
-630.522	219.678	0.203	0.327
-629.507	40.167	0.244	0.220
-628.492	142.470	-0.019	0.025
-627.478	740.191	-0.148	0.400
-626.463	-166.559	0.349	0.015
-625.449	-76.069	-0.205	-0.073
-624.434	-36.341	-0.218	-0.118
-623.419	-73.114	0.220	0.081
-622.405	20.831	-0.070	-0.057
-621.390	7.417	-0.180	-0.135
-620.376	-200.000	0.004	0.030
-619.361	-166.421	0.066	-0.003
-618.346	11.865	-0.094	0.073
-617.332	-200.000	0.059	-0.454
-616.317	72.422	-0.157	-0.165
-615.303	-200.000	-0.029	0.175
-614.288	286.356	-0.148	0.268
-613.273	478.135	0.144	0.328
-612.259	83.967	-0.186	-0.204
-611.244	73.308	-0.086	-0.090
-610.230	-200.000	0.004	-0.028
-609.215	-12.231	-0.150	0.098
-608.201	-200.000	0.001	-0.183
-607.186	800.000	-0.069	-0.216
-606.171	800.000	0.065	-0.221
-605.157	97.938	-0.038	0.044
-604.142	181.551	-0.161	-0.238
-603.128	19.034	0.090	0.072
-602.113	800.000	0.047	0.166
-601.098	125.939	-0.089	-0.113
-600.084	85.861	-0.045	-0.050
-599.069	5.459	0.244	-0.181
-598.055	800.000	-0.077	0.226
-597.040	86.213	0.158	-0.175
-596.025	76.136	-0.275	0.292
-595.011	-36.841	0.280	-0.151
-593.996	-200.000	0.002	0.127
-592.982	249.129	-0.157	0.266
-591.967	-7.961	-0.255	-0.173
-590.952	-63.345	-0.173	-0.071
-589.938	-145.559	0.271	-0.024
-588.923	147.734	0.159	-0.215
-587.909	264.267	0.078	0.137
-586.894	-61.088	-0.220	0.093
-585.879	225.171	0.223	0.362
-584.865	-160.917	-0.221	-0.012
-583.850	-200.000	-0.082	-0.424
-582.836	-143.110	-0.182	-0.018
-581.821	19.910	0.207	0.167
-580.806	163.379	-0.150	0.212
-579.792	22.358	0.102	-0.083
-578.777	-89.960	0.256	-0.075
-577.763	-41.393	0.365	0.188
-576.748	245.957	0.156	0.264
-575.733	-68.277	-0.177	0.069
-574.719	-9.041	-0.133	-0.090
-573.704	-169.568	-0.087	-0.003
-572.690	-30.649	-0.235	0.133
-571.675	103.323	0.282	-0.331
-570.661	103.211	0.185	-0.217
-569.646	-101.263	0.206	0.051
-568.631	800.000	-0.035	0.137
-567.617	16.791	-0.263	-0.209
-566.602	-70.420	0.068	0.026
-565.588	19.066	0.241	-0.193
-564.573	-152.603	0.293	0.021
-563.558	-200.000	-0.015	-0.210
-562.544	284.637	-0.050	0.090
-561.529	-200.000	0.004	-0.077
-560.515	800.000	-0.028	0.095
-559.500	36.575	-0.215	-0.190
-558.485	-95.145	0.280	0.076
-557.471	800.000	-0.131	0.444
-556.456	-105.191	0.127	0.029
-555.442	-143.746	-0.009	0.001
-554.427	-200.000	0.009	0.408
-553.412	10.980	0.401	-0.307
-552.398	-107.842	-0.185	0.040
-551.383	-77.511	0.276	-0.096
-550.369	218.361	-0.191	-0.306
-549.354	315.402	-0.036	0.068
-548.339	-200.000	-0.020	-0.122
-547.325	68.046	-0.225	-0.230
-546.310	2.204	-0.098	-0.071
-545.296	-47.650	0.269	-0.131
-544.281	-68.127	0.055	-0.021
-543.266	159.830	-0.249	0.347
-542.252	230.080	0.057	-0.094
-541.237	451.974	0.204	-0.451
-540.223	35.581	-0.054	0.048
-539.208	470.350	-0.135	0.304
-538.193	538.992	-0.084	-0.200
-537.179	-50.217	-0.155	-0.073
-536.164	113.256	-0.279	0.339
-535.150	-75.327	-0.290	0.104
-534.135	-136.537	-0.193	-0.022
-533.121	32.033	-0.331	-0.286
-532.106	210.647	0.108	-0.170
-531.091	-7.863	-0.300	-0.202
-530.077	800.000	0.032	-0.129
-529.062	-14.905	-0.219	0.141
-528.048	44.108	-0.098	0.090
-527.033	-46.646	0.132	-0.065
-526.018	123.505	-0.164	0.206
-525.004	-200.000	-0.055	0.399
-523.989	130.786	-0.123	-0.158
-522.975	209.255	0.050	0.078
-521.960	-117.655	0.027	0.005
-520.945	260.759	0.108	-0.187
-519.931	-152.226	-0.134	0.010
-518.916	67.302	0.418	0.427
-517.902	-174.027	-0.234	0.007
-516.887	2.703	-0.312	-0.226
-515.872	12.891	-0.204	0.157
-514.858	-133.799	0.105	-0.013
-513.843	-20.550	0.160	-0.098
-512.829	800.000	-0.070	0.212
-511.814	358.848	0.092	-0.184
-510.799	-37.141	-0.159	0.085
-509.785	98.402	0.093	-0.107
-508.770	21.809	-0.100	-0.082
-507.756	-73.018	-0.267	0.098
-506.741	-200.000	-0.055	0.311
-505.726	299.328	-0.142	-0.262
-504.712	-5.608	0.302	-0.207
-503.697	-106.161	-0.167	0.037
-502.683	-156.842	-0.344	0.021
-501.668	-200.000	0.030	0.195
-500.653	-112.283	0.320	0.064
-499.639	-200.000	-0.010	-0.065
-498.624	-145.966	0.205	-0.018
-497.610	-200.000	0.025	0.138
-496.595	163.622	-0.213	-0.299
-495.581	-200.000	0.024	0.122
-494.566	-200.000	-0.006	0.050
-493.551	-118.957	-0.182	0.032
-492.537	38.468	0.075	0.067
-491.522	-200.000	-0.005	-0.039
-490.508	800.000	-0.070	0.292
-489.493	648.669	-0.109	0.278
-488.478	50.251	0.279	-0.263
-487.464	-27.365	0.306	0.178
-486.449	-128.344	-0.301	-0.043
-485.435	-151.092	0.142	-0.011
-484.420	800.000	-0.002	-0.008
-483.405	-200.000	-0.037	-0.192
-482.391	-108.166	0.122	-0.026
-481.376	409.303	0.109	-0.231
-480.362	-200.000	0.034	0.239
-479.347	6.244	-0.127	-0.094
-478.332	-66.051	-0.260	-0.103
-477.318	-123.685	0.235	0.037
-476.303	-200.000	-0.021	0.228
-475.289	571.554	-0.036	-0.086
-474.274	119.104	-0.049	0.061
-473.259	203.660	0.092	-0.142
-472.245	-90.234	-0.257	0.075
-471.230	800.000	-0.017	-0.069
-470.216	110.537	0.166	0.200
-469.201	-98.821	-0.327	0.083
-468.186	482.797	-0.059	0.135
-467.172	-103.771	-0.249	-0.058
-466.157	-112.120	-0.257	-0.052
-465.143	0.600	0.259	-0.185
-464.128	11.168	0.197	-0.151
-463.113	800.000	-0.066	-0.208
-462.099	451.046	0.109	0.239
-461.084	-14.277	-0.066	-0.042
-460.070	-200.000	-0.022	-0.294
-459.055	800.000	-0.038	-0.117
-458.040	800.000	-0.044	0.152
-457.026	-52.895	0.037	-0.017
-456.011	-200.000	-0.003	-0.029
-454.997	-200.000	0.074	0.374
-453.982	164.043	-0.176	0.248
-452.968	60.069	0.071	-0.070
-451.953	-78.795	-0.335	0.114
-450.938	-200.000	0.028	0.255
-449.924	220.276	0.196	0.314
-448.909	-92.674	0.190	-0.053
-447.895	800.000	-0.059	-0.163
-446.880	70.978	0.289	-0.299
-445.865	92.936	0.169	-0.190
-444.851	16.399	-0.293	0.230
-443.836	199.444	0.268	0.410
-442.822	439.053	-0.159	-0.345
-441.807	-200.000	-0.035	0.292
-440.792	23.781	-0.324	0.267
-439.778	-3.110	0.196	0.136
-438.763	800.000	0.030	-0.105
-437.749	-200.000	0.027	0.510
-436.734	-200.000	-0.006	0.052
-435.719	-200.000	-0.024	0.144
-434.705	187.573	0.048	-0.071
-433.690	-46.075	0.210	0.103
-432.676	-47.032	0.178	-0.087
-431.661	-199.494	0.298	-0.002
-430.646	24.103	0.191	-0.157
-429.632	800.000	0.031	-0.122
-428.617	-73.166	-0.197	-0.072
-427.603	-200.000	0.004	-0.045
-426.588	-78.032	-0.180	-0.062
-425.573	-120.291	0.438	-0.075
-424.559	108.955	-0.143	0.170
-423.544	-151.577	-0.367	-0.027
-422.530	-128.249	0.244	-0.035
-421.515	-200.000	0.010	0.296
-420.500	-29.459	-0.250	-0.143
-419.486	39.568	-0.309	0.276
-418.471	124.559	-0.123	0.154
-417.457	-200.000	-0.000	-0.002
-416.442	154.782	-0.092	-0.126
-415.428	-84.929	0.272	-0.085
-414.413	800.000	-0.092	-0.278
-413.398	-72.944	-0.317	0.116
-412.384	534.601	0.165	-0.390
-411.369	-200.000	-0.025	0.197
-410.355	264.413	0.003	0.005
-409.340	-200.000	0.073	0.431
-408.325	546.228	-0.161	-0.384
-407.311	-82.516	0.060	0.019
-406.296	-119.150	-0.235	-0.041
-405.282	-200.000	-0.066	-0.409
-404.267	-164.898	-0.258	-0.012
-403.252	-200.000	-0.011	-0.310
-402.238	-50.646	0.237	0.111
-401.223	-20.645	0.323	0.197
-400.209	456.816	0.035	0.077
-399.194	-92.789	-0.144	0.040
-398.179	-137.532	-0.084	0.009
-397.165	-169.611	-0.158	0.006
-396.150	373.248	-0.015	-0.030
-395.136	-200.000	0.034	-0.184
-394.121	588.054	-0.044	-0.107
-393.106	431.304	0.035	0.076
-392.092	-8.774	0.073	-0.049
-391.077	175.109	-0.160	0.231
-390.063	130.819	0.186	0.238
-389.048	32.863	0.181	-0.156
-388.033	-94.783	0.097	-0.026
-387.019	-200.000	-0.045	-0.443
-386.004	-31.598	-0.296	-0.165
-384.990	800.000	-0.082	0.314
-383.975	-146.786	0.267	-0.023
-382.960	60.734	0.148	-0.146
-381.946	-105.343	-0.280	-0.063
-380.931	-32.120	0.092	-0.051
-379.917	142.616	-0.027	0.036
-378.902	169.050	-0.133	-0.189
-377.888	153.231	0.081	-0.110
-376.873	-200.000	-0.025	-0.405
-375.858	-28.749	0.112	-0.064
-374.844	800.000	0.030	0.106
-373.829	639.537	0.132	0.333
-372.815	114.764	0.179	-0.218
-371.800	-60.102	0.320	0.136
-370.785	-200.000	-0.000	0.108
-369.771	73.032	0.183	-0.190
-368.756	158.447	0.133	-0.184
-367.742	-95.258	0.095	-0.025
-366.727	301.792	-0.073	-0.134
-365.712	800.000	-0.050	0.185
-364.698	57.731	-0.109	0.106
-363.683	-136.373	0.237	-0.027
-362.669	-108.005	-0.042	-0.009
-361.654	17.595	0.127	0.100
-360.639	140.415	-0.078	-0.102
-359.625	800.000	0.074	0.318
-358.610	157.680	-0.095	-0.131
-357.596	-200.000	0.025	0.191
-356.581	-46.052	-0.107	0.053
-355.566	-200.000	-0.004	-0.199
-354.552	-120.299	-0.182	-0.031
-353.537	-161.378	-0.027	0.001
-352.523	-109.121	0.424	-0.090
-351.508	-115.806	-0.177	0.033
-350.493	107.020	0.057	0.067
-349.479	-200.000	0.000	0.175
-348.464	414.962	0.174	0.369
-347.450	-17.415	0.130	0.081
-346.435	8.824	0.127	0.095
-345.420	-153.526	0.098	0.007
-344.406	800.000	0.055	-0.160
-343.391	-200.000	-0.012	-0.671
-342.377	-154.469	0.190	-0.013
-341.362	-109.340	0.096	-0.020
-340.348	64.451	0.249	0.249
-339.333	-62.286	0.200	-0.083
-338.318	-28.308	-0.286	0.164
-337.304	-171.546	0.363	-0.012
-336.289	89.408	0.135	-0.149
-335.275	618.324	0.077	0.192
-334.260	152.562	0.049	-0.066
-333.245	9.781	-0.075	0.056
-332.231	198.635	0.222	-0.338
-331.216	215.493	-0.159	-0.250
-330.202	83.169	0.080	0.086
-329.187	12.296	0.291	0.222
-328.172	-45.171	0.112	0.055
-327.158	800.000	0.059	0.185
-326.143	6.852	0.163	0.121
-325.129	-161.728	0.194	0.010
-324.114	420.664	-0.057	-0.120
-323.099	-134.392	0.303	0.037
-322.085	-4.578	-0.150	0.103
-321.070	-150.250	0.225	0.017
-320.056	63.665	-0.066	-0.065
-319.041	-151.474	-0.174	-0.013
-318.026	800.000	-0.036	-0.117
-317.012	309.655	-0.081	0.151
-315.997	-97.782	0.112	0.029
-314.983	-20.421	-0.096	-0.059
-313.968	-70.891	0.294	-0.110
-312.953	205.960	-0.090	-0.139
-311.939	31.057	-0.108	0.092
-310.924	4.425	0.376	0.273
-309.910	-130.578	0.311	0.042
-308.895	800.000	-0.068	-0.228
-307.880	-173.417	-0.175	-0.005
-306.866	213.464	0.133	0.208
-305.851	136.354	-0.078	-0.101
-304.837	-118.301	-0.207	-0.037
-303.822	-162.034	0.278	0.014
-302.807	800.000	-0.038	0.105
-301.793	-200.000	-0.021	-0.208
-300.778	489.179	0.121	0.274
-299.764	302.377	-0.165	-0.302
-298.749	36.238	0.220	0.192
-297.735	66.350	0.188	0.190
-296.720	49.421	-0.056	0.052
-295.705	-60.384	0.141	0.060
-294.691	-106.054	-0.282	-0.063
-293.676	229.284	-0.133	-0.215
-292.662	42.427	0.045	0.041
-291.647	-33.278	-0.087	0.048
-290.632	-23.212	0.056	0.033
-289.618	74.083	0.019	-0.020
-288.603	800.000	-0.005	0.019
-287.589	61.066	-0.135	-0.132
-286.574	-200.000	0.028	-0.194
-285.559	-200.000	-0.001	0.100
-284.545	-67.857	0.106	-0.041
-283.530	-50.043	-0.190	0.089
-282.516	-200.000	0.004	0.197
-281.501	514.177	-0.030	-0.070
-280.486	234.732	-0.180	-0.294
-279.472	-153.190	-0.501	-0.035
-278.457	17.984	0.282	-0.223
-277.443	-200.000	0.060	-0.534
-276.428	550.679	-0.110	-0.262
-275.413	24.119	-0.183	0.150
-274.399	-135.351	0.088	-0.010
-273.384	-200.000	0.030	0.162
-272.370	-104.992	0.492	0.112
-271.355	-183.880	-0.129	0.002
-270.340	59.308	0.104	0.101
-269.326	-5.786	-0.242	-0.164
-268.311	-200.000	0.070	-0.351
-267.297	-53.473	0.210	-0.095
-266.282	-165.605	-0.305	0.013
-265.267	647.723	0.104	0.264
-264.253	28.551	0.240	0.201
-263.238	-200.000	0.046	0.352
-262.224	-200.000	0.039	-0.272
-261.209	141.594	0.136	-0.179
-260.195	-12.348	0.088	0.057
-259.180	-70.948	0.153	0.057
-258.165	100.350	-0.169	0.194
-257.151	800.000	-0.054	-0.154
-256.136	-160.404	0.322	-0.017
-255.122	800.000	0.023	-0.087
-254.107	-163.352	0.067	0.003
-253.092	-200.000	0.021	-0.354
-252.078	-200.000	0.001	0.135
-251.063	193.040	0.040	0.060
-250.049	9.286	0.035	-0.026
-249.034	705.949	-0.083	0.218
-248.019	283.857	0.190	0.339
-247.005	-35.732	-0.122	-0.066
-245.990	-200.000	0.053	0.263
-244.976	107.111	0.144	0.169
-243.961	-200.000	0.034	0.248
-242.946	-137.013	-0.313	-0.036
-241.932	-174.989	0.229	-0.006
-240.917	739.876	-0.074	0.197
-239.903	300.539	0.076	-0.138
-238.888	182.597	-0.097	0.142
-237.873	116.111	-0.118	0.142
-236.859	385.729	-0.049	-0.100
-235.844	7.936	0.246	0.183
-234.830	-200.000	0.019	0.229
-233.815	-200.000	0.004	0.311
-232.800	69.537	0.195	0.198
-231.786	-200.000	-0.030	-0.144
-230.771	-100.220	-0.290	0.071
-229.757	-20.135	-0.245	0.149
-228.742	-200.000	-0.017	0.205
-227.727	-107.795	-0.267	-0.057
-226.713	800.000	0.070	-0.219
-225.698	-200.000	-0.052	-0.362
-224.684	219.269	0.141	0.222
-223.669	-103.452	0.178	0.041
-222.655	11.215	-0.420	-0.318
-221.640	-200.000	0.035	-0.251
-220.625	-56.266	0.199	-0.088
-219.611	800.000	0.052	0.179
-218.596	4.672	0.091	-0.066
-217.582	150.524	0.092	-0.124
-216.567	377.986	0.079	0.159
-215.552	78.942	-0.265	0.280
-214.538	-4.041	-0.276	0.189
-213.523	19.896	-0.192	0.153
-212.509	-26.091	0.178	-0.103
-211.494	-40.266	0.193	-0.099
-210.479	-109.662	0.171	0.036
-209.465	-90.852	0.151	0.043
-208.450	-200.000	0.010	0.094
-207.436	-200.000	0.013	-0.107
-206.421	-143.511	0.230	-0.022
-205.406	-105.350	0.109	-0.025
-204.392	-200.000	0.035	-0.450
-203.377	335.256	0.190	-0.365
-202.363	-200.000	0.007	-0.094
-201.348	96.326	-0.262	0.296
-200.333	-200.000	0.008	-0.372
-199.319	-68.762	-0.279	0.107
-198.304	715.222	-0.091	-0.237
-197.290	-200.000	-0.027	-0.147
-196.275	-200.000	-0.033	-0.287
-195.260	-42.955	-0.216	-0.109
-194.246	247.554	-0.044	-0.074
-193.231	22.600	0.281	0.227
-192.217	567.118	0.059	-0.142
-191.202	-114.867	-0.036	-0.007
-190.187	-97.489	-0.030	0.008
-189.173	-200.000	-0.002	-0.272
-188.158	-200.000	0.071	0.421
-187.144	-190.233	0.145	-0.002
-186.129	295.642	0.044	0.079
-185.114	-200.000	0.050	-0.287
-184.100	-137.879	-0.083	0.009
-183.085	-200.000	-0.015	-0.262
-182.071	232.252	-0.174	0.282
-181.056	13.166	0.224	0.171
-180.042	192.641	-0.116	-0.173
-179.027	-168.976	-0.407	0.015
-178.012	800.000	-0.045	0.146
-176.998	-200.000	-0.014	-0.110
-175.983	256.862	0.114	-0.193
-174.969	-17.596	-0.230	-0.142
-173.954	556.423	0.049	0.117
-172.939	-200.000	0.084	0.417
-171.925	25.919	-0.084	-0.069
-170.910	-124.774	0.213	-0.032
-169.896	-200.000	0.033	0.252
-168.881	35.376	-0.119	0.103
-167.866	-200.000	-0.021	0.145
-166.852	-30.756	-0.019	-0.010
-165.837	-24.010	-0.155	0.091
-164.823	-200.000	0.080	0.406
-163.808	-200.000	0.017	0.102
-162.793	309.474	-0.259	-0.477
-161.779	-107.315	-0.277	-0.060
-160.764	-98.956	-0.117	-0.029
-159.750	-111.685	0.187	0.037
-158.735	-156.675	0.191	-0.012
-157.720	9.298	0.141	0.106
-156.706	-66.566	-0.324	-0.127
-155.691	129.751	-0.051	-0.065
-154.677	-200.000	-0.086	0.397
-153.662	270.822	-0.053	0.092
-152.647	251.786	-0.122	0.205
-151.633	-66.680	0.184	0.072
-150.618	-127.927	0.302	-0.043
-149.604	506.315	-0.075	-0.170
-148.589	59.747	0.295	-0.287
-147.574	793.986	0.026	-0.070
-146.560	8.077	0.093	-0.069
-145.545	36.400	-0.262	-0.228
-144.531	-177.384	0.350	0.009
-143.516	-27.696	-0.313	-0.179
-142.502	-140.482	0.332	-0.034
-141.487	28.128	-0.281	-0.234
-140.472	-118.576	0.136	-0.024
-139.458	189.613	0.201	0.297
-138.443	-18.850	0.219	-0.135
-137.429	-146.084	-0.188	-0.016
-136.414	78.759	0.156	0.165
-135.399	-200.000	-0.023	-0.231
-134.385	70.576	0.025	-0.026
-133.370	-200.000	-0.017	0.206
-132.356	-35.561	-0.113	0.061
-131.341	-23.141	0.123	0.073
-130.326	800.000	-0.048	-0.165
-129.312	800.000	0.070	-0.218
-128.297	-105.021	-0.477	-0.108
-127.283	-82.612	-0.184	-0.059
-126.268	634.609	0.078	-0.194
-125.253	74.519	-0.186	0.193
-124.239	59.937	-0.191	-0.186
-123.224	-90.643	0.210	0.060
