DTS Sentinel unit serial number:	SN413079Multiplexer serial number:	ORYXHardware model number:	OX4-SRSoftware version number:	ORYX F/W v4.00 Oryx Data Collector v3.7.2.0data status	okinstallation	princeton_trtdifferential loss correction	single-endedforward channel	channel 2reverse channel	N/Adate	2019/09/13time	06:03:35forward acquisition time	60.00reverse acquisition time	0.00gamma	496.2192k internal	0.2337k external	0.2337temperature offset calibration	1.0195default loss term (dB/km)	0.3790temperature slope calibration	1.0000multiplexer offset coefficient	1.0000multiplexer slope coefficient	1.0000fibre end	0.00T internal ref (°C)	26.12T ext. ref 1 (°C)	4.08T ext. ref 2 (°C)	20.93length (m)	temperature (°C)	Stokes	anti-Stokes-747.200	351.919	-0.105	0.209
-746.185	491.702	-0.170	0.392
-745.171	-30.825	0.128	0.073
-744.156	-200.000	0.042	-0.246
-743.142	-135.236	-0.315	0.038
-742.127	199.920	0.193	0.298
-741.112	-76.089	0.078	-0.028
-740.098	-200.000	-0.013	0.386
-739.083	24.528	-0.307	-0.255
-738.069	106.209	-0.238	0.283
-737.054	-36.523	-0.284	-0.153
-736.039	-121.407	-0.379	-0.063
-735.025	-137.747	0.071	0.008
-734.010	80.906	-0.212	-0.229
-732.996	-92.949	0.241	-0.067
-731.981	49.123	-0.046	0.043
-730.966	86.930	0.145	-0.161
-729.952	-132.034	-0.163	-0.021
-728.937	-144.653	0.150	-0.014
-727.923	27.039	-0.464	0.391
-726.908	-200.000	0.008	-0.159
-725.894	-200.000	0.013	-0.106
-724.879	678.997	0.050	-0.131
-723.864	234.299	-0.106	-0.175
-722.850	57.979	0.205	0.201
-721.835	-200.000	-0.035	-0.288
-720.821	-146.605	-0.389	-0.034
-719.806	800.000	0.071	0.270
-718.791	-97.555	0.074	-0.019
-717.777	421.048	-0.104	-0.224
-716.762	-200.000	-0.000	0.028
-715.748	-45.956	-0.231	-0.114
-714.733	782.398	-0.055	-0.150
-713.718	93.996	0.203	-0.231
-712.704	262.273	-0.030	0.051
-711.689	129.024	0.165	-0.211
-710.675	-200.000	0.004	-0.036
-709.660	-28.814	-0.159	0.092
-708.645	-1.892	-0.062	0.044
-707.631	-200.000	0.009	0.297
-706.616	47.696	-0.084	0.079
-705.602	800.000	0.122	-0.378
-704.587	-105.724	-0.396	-0.090
-703.572	-65.870	-0.137	-0.055
-702.558	-119.757	-0.299	-0.052
-701.543	-96.934	-0.210	0.055
-700.529	452.792	-0.076	0.168
-699.514	212.158	-0.034	0.053
-698.499	-89.293	0.123	-0.036
-697.485	-11.775	-0.245	0.161
-696.470	-39.079	0.173	-0.091
-695.456	-144.873	0.115	-0.011
-694.441	-154.392	-0.277	0.019
-693.426	-200.000	-0.002	0.389
-692.412	23.965	0.083	-0.069
-691.397	800.000	-0.074	-0.262
-690.383	-200.000	0.055	-0.284
-689.368	800.000	-0.040	-0.146
-688.354	-200.000	-0.043	-0.274
-687.339	28.035	0.048	-0.041
-686.324	-89.244	-0.324	-0.096
-685.310	41.366	-0.178	-0.162
-684.295	-22.365	-0.177	-0.107
-683.281	-101.424	-0.057	-0.014
-682.266	373.542	0.090	0.184
-681.251	63.726	-0.290	0.292
-680.237	800.000	0.061	-0.225
-679.222	-138.535	-0.148	0.016
-678.208	37.219	-0.306	0.271
-677.193	424.957	0.085	-0.184
-676.178	800.000	0.130	-0.364
-675.164	137.284	-0.244	0.320
-674.149	-144.157	0.268	-0.025
-673.135	-200.000	-0.019	0.101
-672.120	-75.278	-0.266	-0.095
-671.105	-200.000	0.025	0.111
-670.091	800.000	0.043	-0.178
-669.076	61.870	-0.111	-0.111
-668.062	92.375	0.160	0.180
-667.047	-125.386	0.136	0.021
-666.032	-43.267	0.152	-0.077
-665.018	-133.734	0.166	0.021
-664.003	-27.456	0.414	-0.241
-662.989	-164.137	-0.118	0.005
-661.974	800.000	-0.068	-0.249
-660.959	654.122	-0.126	-0.324
-659.945	-101.067	0.395	-0.097
-658.930	-200.000	-0.001	0.017
-657.916	44.343	0.166	-0.152
-656.901	180.296	-0.104	-0.153
-655.886	44.531	-0.138	-0.127
-654.872	-200.000	0.024	0.128
-653.857	-0.900	-0.312	-0.221
-652.843	-118.770	-0.232	0.041
-651.828	-62.643	0.134	-0.056
-650.814	800.000	-0.099	0.350
-649.799	253.682	-0.131	-0.225
-648.784	405.971	0.151	-0.319
-647.770	151.697	0.106	0.144
-646.755	10.765	0.015	0.011
-645.741	-200.000	-0.055	0.239
-644.726	0.941	-0.077	-0.055
-643.711	711.551	0.104	-0.275
-642.697	-200.000	0.064	-0.381
-641.682	-7.557	0.143	-0.097
-640.668	-200.000	-0.009	0.124
-639.653	-123.225	-0.526	0.084
-638.638	-77.701	-0.026	0.009
-637.624	349.358	0.067	-0.132
-636.609	29.516	-0.207	-0.176
-635.595	-51.951	0.591	0.274
-634.580	-127.770	0.160	0.023
-633.565	77.168	-0.236	-0.251
-632.551	-170.981	-0.099	0.003
-631.536	-115.677	-0.228	-0.043
-630.522	-187.099	-0.224	0.003
-629.507	-57.466	-0.084	-0.037
-628.492	183.118	-0.162	0.238
-627.478	-115.867	-0.088	-0.017
-626.463	38.389	0.200	-0.178
-625.449	322.447	0.030	0.057
-624.434	-200.000	-0.029	0.153
-623.419	-4.730	-0.055	-0.038
-622.405	-148.561	-0.085	0.007
-621.390	-84.086	-0.234	-0.074
-620.376	-200.000	0.049	-0.352
-619.361	40.069	0.107	0.096
-618.346	-63.113	-0.308	-0.127
-617.332	375.641	-0.169	0.344
-616.317	186.405	-0.252	0.375
-615.303	-109.220	0.250	0.053
-614.288	-200.000	0.063	-0.355
-613.273	-200.000	-0.075	-0.377
-612.259	555.909	-0.108	-0.260
-611.244	76.199	0.147	-0.156
-610.230	37.239	0.176	-0.156
-609.215	-200.000	0.031	0.138
-608.201	-117.824	-0.097	0.017
-607.186	800.000	0.040	0.173
-606.171	-68.455	-0.290	0.112
-605.157	208.210	0.095	0.149
-604.142	-38.335	0.130	-0.069
-603.128	-69.790	0.119	-0.045
-602.113	-76.382	-0.037	0.013
-601.098	-200.000	0.037	0.214
-600.084	-131.471	-0.077	-0.010
-599.069	-48.147	-0.197	0.095
-598.055	-135.906	0.257	0.030
-597.040	-28.809	-0.063	0.036
-596.025	-61.582	0.100	-0.042
-595.011	297.802	0.024	0.043
-593.996	800.000	0.099	-0.403
-592.982	7.212	-0.067	0.050
-591.967	137.517	-0.187	0.244
-590.952	175.868	0.083	-0.120
-589.938	-90.679	0.333	-0.096
-588.923	-200.000	0.012	-0.437
-587.909	469.440	-0.071	0.160
-586.894	-200.000	-0.023	0.368
-585.879	-1.082	0.316	0.223
-584.865	-167.782	0.242	-0.010
-583.850	-139.121	-0.191	0.021
-582.836	-200.000	0.018	0.387
-581.821	112.029	0.231	-0.279
-580.806	-11.084	0.272	-0.179
-579.792	558.709	0.042	0.102
-578.777	-119.951	0.295	-0.051
-577.763	-200.000	-0.068	-0.409
-576.748	-134.309	0.285	-0.035
-575.733	-91.821	-0.122	0.035
-574.719	-19.273	0.254	-0.157
-573.704	-125.719	-0.188	0.028
-572.690	80.184	-0.055	-0.059
-571.675	-67.396	-0.112	-0.044
-570.661	800.000	-0.203	0.587
-569.646	-106.042	0.187	-0.042
-568.631	370.021	-0.130	0.262
-567.617	-41.229	-0.411	-0.211
-566.602	34.016	0.098	-0.085
-565.588	29.370	0.106	-0.090
-564.573	800.000	-0.040	0.174
-563.558	367.114	0.058	0.117
-562.544	-200.000	-0.020	-0.094
-561.529	376.354	0.090	0.183
-560.515	-200.000	-0.013	0.350
-559.500	112.597	-0.106	-0.128
-558.485	-54.859	0.109	0.049
-557.471	372.137	0.111	0.225
-556.456	161.847	-0.138	-0.192
-555.442	-200.000	0.030	-0.255
-554.427	-153.168	0.250	0.017
-553.412	-38.239	0.214	0.113
-552.398	296.980	0.052	-0.095
-551.383	-200.000	-0.349	-0.002
-550.369	220.454	-0.029	0.047
-549.354	60.364	0.165	0.163
-548.339	63.582	-0.054	-0.054
-547.325	-134.029	0.290	0.036
-546.310	-40.069	0.281	0.146
-545.296	-80.690	0.223	0.074
-544.281	-200.000	-0.028	0.138
-543.266	-61.862	-0.229	0.095
-542.252	102.578	-0.117	-0.136
-541.237	164.526	-0.135	-0.189
-540.223	-71.497	0.392	-0.146
-539.208	-200.000	-0.015	-0.177
-538.193	193.381	-0.150	0.226
-537.179	304.906	-0.105	-0.194
-536.164	-83.882	0.211	-0.067
-535.150	-58.002	-0.112	-0.049
-534.135	-200.000	0.004	0.217
-533.121	-200.000	0.010	0.337
-532.106	-159.958	0.135	0.007
-531.091	-140.079	-0.567	-0.059
-530.077	800.000	0.007	0.020
-529.062	-126.763	0.322	-0.047
-528.048	95.706	-0.184	0.209
-527.033	75.193	0.207	-0.217
-526.018	-200.000	-0.004	-0.106
-525.004	-200.000	0.008	0.132
-523.989	549.829	0.148	0.353
-522.975	-34.621	-0.256	0.140
-521.960	23.556	-0.305	-0.250
-520.945	-43.634	0.244	0.123
-519.931	178.592	-0.083	0.120
-518.916	-40.273	0.235	0.122
-517.902	733.183	-0.104	-0.277
-516.887	53.656	-0.129	-0.123
-515.872	-116.433	-0.344	0.063
-514.858	299.145	-0.044	0.081
-513.843	159.610	0.099	-0.136
-512.829	160.039	0.110	-0.153
-511.814	-133.992	-0.091	-0.011
-510.799	392.009	0.041	0.086
-509.785	314.372	0.071	-0.133
-508.770	-200.000	-0.023	0.160
-507.756	20.831	0.243	0.196
-506.741	167.958	0.089	-0.125
-505.726	800.000	0.066	-0.208
-504.712	-137.909	0.336	0.037
-503.697	-200.000	0.012	-0.192
-502.683	800.000	-0.049	-0.167
-501.668	800.000	0.048	-0.177
-500.653	223.630	-0.031	-0.049
-499.639	-111.954	0.150	0.030
-498.624	110.081	0.207	0.246
-497.610	-200.000	0.006	-0.067
-496.595	-79.858	0.328	-0.110
-495.581	10.989	-0.209	-0.159
-494.566	-86.181	0.028	0.009
-493.551	385.895	0.036	0.074
-492.537	146.599	-0.154	0.206
-491.522	339.632	0.201	0.390
-490.508	56.876	-0.200	0.193
-489.493	-68.765	-0.403	-0.155
-488.478	-12.461	0.269	-0.174
-487.464	-108.620	-0.196	-0.042
-486.449	320.268	0.168	0.317
-485.435	54.629	0.217	-0.208
-484.420	126.624	-0.189	0.238
-483.405	800.000	-0.065	-0.190
-482.391	172.086	-0.161	-0.230
-481.376	-81.397	-0.257	-0.084
-480.362	3.061	-0.228	0.164
-479.347	-200.000	0.006	-0.116
-478.332	-12.685	0.172	0.111
-477.318	267.409	-0.146	0.253
-476.303	412.963	0.136	-0.287
-475.289	125.085	0.086	-0.107
-474.274	-200.000	0.002	-0.088
-473.259	-11.917	-0.117	-0.076
-472.245	-29.620	0.383	-0.217
-471.230	-54.136	0.280	-0.126
-470.216	-146.092	-0.082	-0.007
-469.201	-159.858	-0.424	0.023
-468.186	-38.434	0.079	-0.042
-467.172	-55.417	-0.257	0.114
-466.157	-200.000	0.017	0.258
-465.143	-145.390	-0.265	0.024
-464.128	-23.731	-0.123	0.073
-463.113	26.666	-0.022	0.018
-462.099	64.872	0.126	-0.126
-461.084	122.625	0.277	-0.344
-460.070	-61.092	-0.112	0.047
-459.055	188.677	-0.124	0.184
-458.040	637.969	-0.078	0.197
-457.026	-200.000	0.012	-0.137
-456.011	-89.718	0.102	-0.030
-454.997	-39.678	0.410	-0.213
-453.982	-79.914	-0.438	-0.146
-452.968	354.012	0.133	-0.261
-451.953	-89.017	0.145	0.043
-450.938	143.554	-0.142	0.187
-449.924	-200.000	0.125	0.607
-448.909	-123.362	-0.217	0.034
-447.895	-200.000	-0.012	0.065
-446.880	-73.817	0.080	-0.029
-445.865	83.122	-0.152	-0.164
-444.851	-110.877	0.175	-0.036
-443.836	-11.124	-0.143	-0.093
-442.822	-200.000	-0.012	0.067
-441.807	-133.318	0.039	0.005
-440.792	-4.454	0.323	-0.222
-439.778	180.155	-0.047	-0.068
-438.763	800.000	-0.079	-0.225
-437.749	-128.321	-0.250	0.035
-436.734	-147.102	0.216	-0.018
-435.719	-108.295	-0.117	-0.025
-434.705	-116.344	0.128	0.024
-433.690	-64.620	-0.098	-0.039
-432.676	632.164	-0.109	-0.273
-431.661	-47.809	0.310	-0.149
-430.646	205.002	-0.062	-0.095
-429.632	-58.300	-0.140	-0.061
-428.617	154.131	-0.201	0.274
-427.603	-34.659	0.438	-0.238
-426.588	-14.123	-0.147	-0.094
-425.573	-200.000	-0.022	0.136
-424.559	-144.288	-0.102	0.009
-423.544	-126.423	0.270	0.040
-422.530	-39.021	0.038	-0.020
-421.515	-112.806	-0.108	0.021
-420.500	-125.243	0.274	0.041
-419.486	-200.000	0.018	-0.219
-418.471	-132.813	0.206	0.026
-417.457	-200.000	0.026	-0.200
-416.442	-11.102	-0.128	-0.083
-415.428	-200.000	0.001	0.093
-414.413	-67.844	-0.128	-0.050
-413.398	-156.214	-0.196	-0.012
-412.384	3.860	0.461	0.334
-411.369	-200.000	-0.006	0.143
-410.355	23.236	0.130	-0.106
-409.340	-72.008	-0.121	0.045
-408.325	-200.000	-0.002	0.347
-407.311	75.103	0.122	0.127
-406.296	-200.000	0.013	0.180
-405.282	-77.979	0.473	0.161
-404.267	219.479	-0.051	0.080
-403.252	95.750	-0.060	0.068
-402.238	-200.000	0.035	0.211
-401.223	-200.000	-0.002	0.075
-400.209	-20.092	-0.195	0.119
-399.194	-200.000	-0.012	0.270
-398.179	-29.857	-0.093	0.053
-397.165	-97.102	-0.109	0.028
-396.150	371.986	-0.121	-0.244
-395.136	-149.977	0.446	-0.034
-394.121	-29.116	-0.219	-0.124
-393.106	-113.633	0.192	0.037
-392.092	11.474	-0.091	0.069
-391.077	-46.170	-0.204	-0.099
-390.063	-200.000	-0.015	0.280
-389.048	-173.191	0.233	0.007
-388.033	-96.828	0.108	0.028
-387.019	137.518	-0.038	0.049
-386.004	655.572	0.086	-0.219
-384.990	-123.896	0.134	-0.021
-383.975	185.302	-0.335	-0.493
-382.960	-200.000	-0.034	0.181
-381.946	800.000	0.121	-0.503
-380.931	800.000	0.076	-0.221
-379.917	-126.114	0.213	-0.032
-378.902	-15.382	0.092	0.058
-377.888	-200.000	0.017	0.209
-376.873	618.461	-0.050	0.124
-375.858	800.000	-0.077	0.325
-374.844	-143.419	0.070	0.007
-373.829	568.878	0.080	-0.191
-372.815	253.346	-0.114	-0.192
-371.800	51.037	-0.353	0.331
-370.785	84.940	0.193	-0.210
-369.771	457.948	-0.077	0.169
-368.756	-139.454	-0.307	-0.033
-367.742	800.000	0.014	0.045
-366.727	-56.801	0.181	0.079
-365.712	-32.132	0.191	-0.105
-364.698	-93.174	0.175	0.048
-363.683	-120.109	-0.053	-0.009
-362.669	-200.000	-0.076	-0.351
-361.654	162.852	-0.063	-0.088
-360.639	-200.000	0.001	-0.306
-359.625	-121.649	0.108	-0.018
-358.610	34.964	0.241	-0.208
-357.596	-200.000	-0.011	-0.092
-356.581	-188.256	0.091	0.001
-355.566	321.074	0.104	0.195
-354.552	36.979	0.110	-0.096
-353.537	-79.166	0.238	0.080
-352.523	-164.836	-0.340	0.015
-351.508	243.086	0.096	-0.159
-350.493	-10.484	-0.091	0.060
-349.479	-76.295	-0.149	0.052
-348.464	800.000	-0.015	0.051
-347.450	52.070	0.008	0.007
-346.435	800.000	-0.080	0.251
-345.420	-200.000	0.059	0.294
-344.406	-200.000	-0.033	0.197
-343.391	798.315	-0.084	0.230
-342.377	-24.768	0.255	-0.150
-341.362	-100.043	0.094	-0.023
-340.348	26.115	-0.158	0.130
-339.333	-200.000	0.003	0.148
-338.318	517.090	-0.108	0.249
-337.304	-26.892	-0.116	-0.067
-336.289	12.641	0.358	0.273
-335.275	-200.000	0.026	0.288
-334.260	-130.462	-0.167	0.022
-333.245	110.617	0.201	-0.239
-332.231	-200.000	-0.017	0.136
-331.216	-128.268	-0.255	-0.036
-330.202	-73.721	-0.033	0.012
-329.187	-19.819	-0.041	0.025
-328.172	-160.858	0.226	-0.012
-327.158	-200.000	0.045	-0.251
-326.143	-166.908	-0.043	0.002
-325.129	800.000	0.131	-0.453
-324.114	29.773	0.250	0.210
-323.099	-200.000	0.029	0.231
-322.085	-91.014	-0.157	-0.045
-321.070	-78.033	-0.070	0.024
-320.056	-105.314	-0.481	-0.108
-319.041	-200.000	-0.099	-0.486
-318.026	290.593	-0.038	0.067
-317.012	-9.550	-0.153	0.101
-315.997	33.741	0.138	-0.118
-314.983	-121.477	-0.496	-0.081
-313.968	-60.284	-0.194	0.081
-312.953	-122.911	-0.348	-0.055
-311.939	-10.538	-0.094	0.061
-310.924	581.761	0.007	0.017
-309.910	-107.540	-0.066	0.014
-308.895	-61.671	-0.493	-0.204
-307.880	65.632	0.195	0.195
-306.866	229.718	-0.030	-0.048
-305.851	242.964	-0.009	0.014
-304.837	57.419	0.102	0.098
-303.822	102.452	-0.149	0.172
-302.807	-99.381	-0.138	-0.034
-301.793	75.047	-0.074	-0.077
-300.778	233.694	0.090	0.146
-299.764	60.936	-0.196	-0.192
-298.749	92.959	-0.100	0.112
-297.735	-83.908	-0.185	-0.058
-296.720	443.521	0.119	0.257
-295.705	-200.000	-0.037	-0.212
-294.691	7.903	-0.210	0.156
-293.676	326.147	0.054	-0.102
-292.662	-200.000	-0.078	-0.455
-291.647	800.000	0.074	0.209
-290.632	-29.474	-0.318	0.179
-289.618	-200.000	-0.034	0.147
-288.603	-200.000	0.035	0.302
-287.589	84.232	-0.090	0.097
-286.574	-200.000	-0.011	-0.072
-285.559	-2.074	0.105	-0.073
-284.545	-61.690	0.153	0.063
-283.530	-88.493	-0.294	-0.086
-282.516	-200.000	0.014	0.078
-281.501	-86.220	-0.081	-0.025
-280.486	-200.000	-0.017	0.481
-279.472	117.921	0.174	0.211
-278.457	611.730	0.103	0.254
-277.443	-161.361	0.146	-0.007
-276.428	800.000	0.030	-0.084
-275.413	-166.683	-0.195	0.008
-274.399	-108.014	0.298	-0.064
-273.384	800.000	-0.075	0.235
-272.370	800.000	0.031	0.118
-271.355	50.098	-0.238	-0.221
-270.340	143.780	0.099	-0.130
-269.326	800.000	-0.025	-0.071
-268.311	611.420	0.087	0.214
-267.297	25.713	-0.350	-0.287
-266.282	107.134	-0.057	-0.067
-265.267	-17.838	0.276	-0.170
-264.253	-102.662	-0.373	-0.088
-263.238	-54.992	-0.148	-0.066
-262.224	639.998	-0.077	-0.193
-261.209	-163.824	0.085	-0.004
-260.195	-135.155	0.202	-0.024
-259.180	-70.292	0.206	0.077
-258.165	-30.197	0.272	-0.152
-257.151	601.786	0.018	0.045
-256.136	-119.408	0.192	-0.033
-255.122	800.000	0.056	-0.187
-254.107	-18.198	0.164	-0.101
-253.092	-200.000	-0.044	0.371
-252.078	65.268	-0.160	0.159
-251.063	409.592	0.074	0.154
-250.049	119.427	0.180	0.219
-249.034	-176.435	0.510	0.013
-248.019	580.966	0.045	-0.108
-247.005	78.147	-0.288	-0.302
-245.990	-59.359	-0.117	0.050
-244.976	405.162	0.154	-0.320
-243.961	-200.000	0.091	0.527
-242.946	-77.411	0.084	-0.029
-241.932	800.000	-0.040	-0.136
-240.917	-200.000	-0.009	-0.200
-239.903	-170.989	0.065	0.002
-238.888	-200.000	-0.029	0.240
-237.873	-200.000	-0.001	-0.245
-236.859	-107.315	0.461	0.100
-235.844	-140.207	0.294	0.030
-234.830	461.575	0.093	-0.205
-233.815	-112.941	-0.062	0.012
-232.800	8.772	-0.228	0.169
-231.786	-91.667	-0.372	0.104
-230.771	-39.257	0.299	0.154
-229.757	-155.385	0.336	-0.021
-228.742	265.187	-0.167	-0.287
-227.727	87.446	-0.182	-0.199
-226.713	-200.000	0.022	0.137
-225.698	-53.704	0.208	0.093
-224.684	-91.971	-0.041	-0.011
-223.669	-22.457	0.487	-0.290
-222.655	182.128	0.076	0.110
-221.640	225.869	0.044	0.070
-220.625	624.001	-0.129	-0.321
-219.611	-173.918	0.208	0.006
-218.596	-98.949	-0.023	-0.006
-217.582	-110.330	-0.350	-0.072
-216.567	-72.928	-0.295	0.107
-215.552	-68.785	-0.329	-0.125
-214.538	103.594	-0.255	-0.294
-213.523	-200.000	-0.025	-0.153
-212.509	800.000	-0.097	0.281
-211.494	800.000	-0.059	0.179
-210.479	-98.247	-0.160	0.040
-209.465	3.958	-0.245	0.176
-208.450	-200.000	0.022	0.225
-207.436	800.000	0.075	0.312
-206.421	189.592	-0.096	0.142
-205.406	70.511	-0.173	-0.175
-204.392	328.436	-0.189	0.356
-203.377	-34.579	-0.068	0.037
-202.363	-163.866	-0.217	-0.010
-201.348	-200.000	0.045	-0.203
-200.333	138.057	0.138	0.177
-199.319	-71.944	0.509	0.186
-198.304	231.818	-0.100	0.161
-197.290	-54.612	-0.288	0.128
-196.275	-37.192	-0.357	-0.188
-195.260	-85.177	0.227	-0.070
-194.246	-140.994	0.151	-0.015
-193.231	-200.000	0.047	-0.229
-192.217	-36.296	0.055	-0.029
-191.202	34.412	0.168	0.144
-190.187	28.214	0.227	0.188
-189.173	68.744	-0.072	-0.073
-188.158	-44.610	0.183	-0.090
-187.144	-84.591	-0.053	0.016
-186.129	-90.714	0.361	0.102
-185.114	-65.679	-0.278	-0.109
-184.100	147.510	-0.254	0.336
-183.085	-200.000	0.009	-0.109
-182.071	-200.000	-0.000	0.038
-181.056	61.328	0.049	0.048
-180.042	800.000	0.035	-0.136
-179.027	-200.000	0.015	-0.138
-178.012	197.837	-0.199	0.299
-176.998	-66.648	0.260	0.101
-175.983	-74.339	-0.148	0.053
-174.969	-10.634	-0.072	0.047
-173.954	100.368	0.135	0.154
-172.939	800.000	0.060	-0.256
-171.925	335.462	-0.087	-0.165
-170.910	18.874	0.196	0.154
-169.896	115.986	-0.178	-0.214
-168.881	44.340	0.232	0.209
-167.866	27.787	0.182	-0.150
-166.852	800.000	-0.037	-0.139
-165.837	421.432	-0.066	0.139
-164.823	-89.293	0.062	0.018
-163.808	-116.274	0.353	-0.064
-162.793	57.443	-0.191	0.183
-161.779	-200.000	-0.022	0.112
-160.764	111.437	0.175	-0.207
-159.750	-200.000	0.004	-0.146
-158.735	-59.399	-0.056	-0.023
-157.720	-200.000	0.037	-0.265
-156.706	14.239	-0.181	-0.139
-155.691	-200.000	-0.030	0.340
-154.677	95.072	-0.228	-0.255
-153.662	93.748	-0.314	-0.349
-152.647	-41.175	-0.285	-0.144
-151.633	100.675	0.137	-0.156
-150.618	198.745	0.202	-0.304
-149.604	269.873	0.090	-0.155
-148.589	800.000	0.043	-0.128
-147.574	4.004	-0.026	0.018
-146.560	217.187	0.215	-0.335
-145.545	-43.418	0.342	-0.169
-144.531	-162.129	0.104	0.005
-143.516	-21.294	-0.223	-0.133
-142.502	59.519	0.143	-0.138
-141.487	-49.317	0.195	0.091
-140.472	322.709	0.066	-0.123
-139.458	-31.692	-0.077	0.042
-138.443	143.812	-0.244	0.319
-137.429	-1.472	0.092	0.064
-136.414	-62.559	0.324	-0.132
-135.399	-200.000	0.009	0.173
-134.385	-113.594	0.131	0.025
-133.370	-111.235	-0.224	-0.045
-132.356	497.462	-0.092	0.208
-131.341	56.341	0.099	0.094
-130.326	-3.629	0.071	-0.048
-129.312	-117.969	-0.222	0.039
-128.297	47.690	0.423	-0.387
-127.283	204.652	-0.196	0.298
-126.268	-98.708	0.032	-0.008
-125.253	-50.987	-0.237	-0.109
-124.239	704.429	-0.154	0.398
-123.224	177.705	0.181	0.259
-122.210	-200.000	0.065	-0.299
