DTS Sentinel unit serial number:	SN413079Multiplexer serial number:	ORYXHardware model number:	OX4-SRSoftware version number:	ORYX F/W v4.00 Oryx Data Collector v3.7.2.0data status	okinstallation	princeton_trtdifferential loss correction	single-endedforward channel	channel 2reverse channel	N/Adate	2019/09/15time	03:59:35forward acquisition time	60.00reverse acquisition time	0.00gamma	496.2192k internal	0.2325k external	0.2325temperature offset calibration	1.0029default loss term (dB/km)	0.3790temperature slope calibration	1.0000multiplexer offset coefficient	1.0000multiplexer slope coefficient	1.0000fibre end	0.00T internal ref (°C)	30.94T ext. ref 1 (°C)	4.61T ext. ref 2 (°C)	25.87length (m)	temperature (°C)	Stokes	anti-Stokes-747.200	531.895	0.072	0.172
-746.185	-73.986	-0.463	0.169
-745.171	-11.969	0.087	0.057
-744.156	-81.773	-0.151	0.050
-743.142	-92.834	0.116	0.033
-742.127	127.797	-0.179	0.229
-741.112	-58.854	-0.188	-0.082
-740.098	-81.835	-0.232	-0.077
-739.083	791.461	-0.057	0.158
-738.069	-200.000	0.049	0.248
-737.054	475.460	0.038	0.086
-736.039	293.365	0.040	-0.073
-735.025	-186.502	0.228	-0.003
-734.010	800.000	-0.080	-0.225
-732.996	105.694	0.088	-0.105
-731.981	-26.664	0.300	0.177
-730.966	675.789	-0.061	-0.160
-729.952	138.299	-0.089	-0.118
-728.937	-200.000	-0.049	-0.231
-727.923	195.472	-0.276	-0.423
-726.908	13.075	-0.247	0.193
-725.894	28.032	-0.314	-0.267
-724.879	-0.714	-0.128	0.091
-723.864	174.571	0.178	0.260
-722.850	0.139	-0.141	0.101
-721.835	-148.145	-0.197	0.016
-720.821	462.284	-0.075	-0.168
-719.806	-84.696	-0.098	-0.031
-718.791	-45.883	0.375	-0.186
-717.777	800.000	-0.034	-0.096
-716.762	36.679	0.164	-0.146
-715.748	220.908	-0.076	-0.123
-714.733	133.900	-0.094	-0.123
-713.718	-61.127	-0.356	-0.151
-712.704	-38.628	0.247	0.131
-711.689	45.335	-0.274	-0.255
-710.675	-178.453	0.102	-0.002
-709.660	62.865	0.121	0.122
-708.645	-179.906	-0.359	-0.008
-707.631	100.827	0.155	0.181
-706.616	-28.634	-0.205	-0.119
-705.602	498.132	0.118	-0.275
-704.587	124.740	0.073	0.093
-703.572	481.672	-0.075	-0.172
-702.558	-136.903	0.271	0.031
-701.543	102.575	0.106	-0.124
-700.529	-26.287	0.229	0.136
-699.514	-200.000	0.038	0.000
-698.499	-77.493	0.129	-0.045
-697.485	180.247	0.247	-0.365
-696.470	-116.685	-0.158	0.029
-695.456	800.000	-0.031	0.094
-694.441	-200.000	-0.035	-0.338
-693.426	-200.000	-0.012	0.119
-692.412	39.547	0.332	0.299
-691.397	-200.000	-0.008	0.351
-690.383	-79.674	-0.380	0.129
-689.368	-38.803	0.128	0.068
-688.354	-200.000	-0.079	0.412
-687.339	-191.167	0.208	-0.002
-686.324	-200.000	-0.036	0.247
-685.310	-105.994	-0.300	-0.068
-684.295	-44.593	-0.137	-0.069
-683.281	259.769	0.212	0.369
-682.266	78.346	-0.080	0.086
-681.251	-83.282	-0.160	-0.052
-680.237	800.000	-0.074	-0.244
-679.222	37.428	0.050	-0.044
-678.208	-13.268	-0.252	0.165
-677.193	465.203	-0.081	-0.183
-676.178	67.286	-0.237	0.243
-675.164	73.790	-0.217	-0.229
-674.149	45.874	0.190	0.177
-673.135	-113.848	-0.275	0.054
-672.120	800.000	-0.049	0.173
-671.105	-83.847	0.294	-0.094
-670.091	-200.000	0.021	-0.268
-669.076	-200.000	-0.002	-0.147
-668.062	-200.000	-0.020	-0.171
-667.047	-5.598	-0.207	-0.143
-666.032	640.177	-0.074	0.189
-665.018	800.000	0.067	0.219
-664.003	800.000	0.024	-0.076
-662.989	-200.000	0.005	-0.238
-661.974	394.201	0.156	0.327
-660.959	-200.000	0.054	-0.331
-659.945	60.484	0.091	0.091
-658.930	-200.000	-0.001	-0.335
-657.916	-117.343	0.065	-0.012
-656.901	-82.528	-0.124	-0.040
-655.886	800.000	0.091	0.297
-654.872	261.843	0.019	0.033
-653.857	-112.857	0.181	0.036
-652.843	26.141	-0.329	0.276
-651.828	-200.000	0.047	-0.414
-650.814	-200.000	0.005	0.152
-649.799	148.495	0.016	0.022
-648.784	-18.226	-0.147	-0.092
-647.770	-54.363	0.167	-0.076
-646.755	-59.297	-0.040	-0.017
-645.741	-111.116	0.303	-0.062
-644.726	-90.897	-0.126	0.036
-643.711	447.139	0.155	-0.342
-642.697	8.090	-0.216	-0.163
-641.682	-187.965	-0.307	0.004
-640.668	496.435	-0.090	0.208
-639.653	-200.000	0.005	0.025
-638.638	109.470	0.246	-0.296
-637.624	-39.482	0.034	0.018
-636.609	-141.708	0.137	0.014
-635.595	187.263	0.120	0.180
-634.580	-154.242	-0.246	0.017
-633.565	98.168	0.101	0.117
-632.551	800.000	0.055	-0.236
-631.536	37.925	-0.260	0.233
-630.522	-144.715	-0.285	-0.026
-629.507	-200.000	0.142	-0.000
-628.492	-44.480	-0.228	-0.114
-627.478	-66.551	0.044	-0.018
-626.463	-172.321	0.358	0.011
-625.449	-200.000	-0.019	-0.086
-624.434	-145.034	0.330	0.030
-623.419	36.539	-0.117	0.104
-622.405	-7.839	0.154	0.104
-621.390	8.183	-0.178	-0.134
-620.376	-40.629	0.191	-0.100
-619.361	27.981	0.099	0.084
-618.346	-91.433	-0.345	0.099
-617.332	-86.331	0.251	-0.078
-616.317	-5.341	-0.231	0.159
-615.303	-200.000	0.051	0.277
-614.288	27.099	0.168	0.142
-613.273	-82.458	-0.323	0.105
-612.259	-107.062	-0.241	0.053
-611.244	230.935	-0.240	0.394
-610.230	-88.678	0.242	0.072
-609.215	181.646	0.107	-0.158
-608.201	693.498	0.031	0.082
-607.186	-120.896	0.187	-0.032
-606.171	-200.000	-0.001	0.038
-605.157	-200.000	-0.017	-0.218
-604.142	-152.416	-0.149	0.011
-603.128	138.593	-0.127	0.168
-602.113	34.128	0.233	-0.204
-601.098	800.000	-0.081	-0.324
-600.084	-32.390	-0.224	-0.126
-599.069	-155.339	0.249	-0.016
-598.055	-20.918	-0.030	-0.018
-597.040	-22.011	0.061	-0.037
-596.025	231.393	0.096	0.158
-595.011	800.000	0.054	0.209
-593.996	90.316	0.102	0.114
-592.982	800.000	-0.039	-0.146
-591.967	-148.126	0.047	0.004
-590.952	-71.734	-0.367	-0.137
-589.938	688.673	-0.094	-0.247
-588.923	104.380	-0.180	-0.212
-587.909	747.899	0.086	0.233
-586.894	-48.748	0.260	-0.125
-585.879	15.101	0.303	0.238
-584.865	651.665	-0.093	0.239
-583.850	-126.729	0.144	0.021
-582.836	-64.141	-0.170	-0.069
-581.821	-175.220	-0.250	-0.007
-580.806	32.907	0.047	0.041
-579.792	109.176	0.073	0.087
-578.777	-110.416	0.533	0.111
-577.763	-102.636	0.268	-0.064
-576.748	800.000	-0.020	0.083
-575.733	-113.849	-0.624	-0.122
-574.719	-200.000	-0.044	0.410
-573.704	800.000	0.039	0.130
-572.690	-80.109	0.136	0.046
-571.675	-81.220	0.215	0.071
-570.661	-200.000	0.010	0.471
-569.646	326.792	0.167	-0.321
-568.631	-29.110	-0.093	-0.053
-567.617	800.000	-0.010	0.038
-566.602	-75.856	0.124	0.044
-565.588	-138.214	-0.041	0.005
-564.573	100.064	-0.088	0.102
-563.558	439.801	-0.075	-0.163
-562.544	95.642	-0.024	-0.028
-561.529	-200.000	-0.024	-0.365
-560.515	-200.000	0.049	-0.221
-559.500	-2.896	0.369	-0.258
-558.485	-200.000	-0.029	-0.234
-557.471	-200.000	-0.012	0.152
-556.456	800.000	0.026	0.092
-555.442	-200.000	0.014	0.082
-554.427	800.000	0.062	0.214
-553.412	-108.546	-0.088	-0.019
-552.398	358.339	-0.103	-0.206
-551.383	-64.506	0.281	-0.114
-550.369	224.584	-0.131	0.213
-549.354	-200.000	-0.026	0.178
-548.339	-141.234	-0.080	-0.008
-547.325	-15.710	0.253	-0.162
-546.310	363.952	0.078	0.156
-545.296	800.000	-0.040	-0.144
-544.281	-19.735	0.123	0.076
-543.266	39.825	0.194	0.174
-542.252	470.554	-0.101	0.227
-541.237	103.796	0.231	-0.272
-540.223	-200.000	-0.073	-0.406
-539.208	292.518	0.064	0.117
-538.193	-16.321	-0.286	0.182
-537.179	-200.000	0.038	0.255
-536.164	-32.114	0.043	0.024
-535.150	-54.747	-0.055	-0.025
-534.135	634.014	-0.028	-0.072
-533.121	86.604	0.043	-0.047
-532.106	61.014	-0.125	0.124
-531.091	-151.914	0.182	-0.013
-530.077	-92.433	-0.394	0.111
-529.062	-79.280	-0.250	0.085
-528.048	-100.154	-0.148	0.037
-527.033	800.000	0.058	-0.199
-526.018	-153.014	-0.071	0.005
-525.004	-200.000	0.033	-0.221
-523.989	-33.952	0.302	0.167
-522.975	83.120	0.114	0.124
-521.960	-200.000	-0.021	-0.264
-520.945	60.220	0.058	0.057
-519.931	-10.486	-0.083	-0.055
-518.916	800.000	0.078	-0.240
-517.902	-200.000	-0.015	0.107
-516.887	-200.000	0.002	-0.218
-515.872	-200.000	-0.002	-0.016
-514.858	238.633	-0.212	-0.353
-513.843	-90.678	0.097	-0.028
-512.829	25.811	0.141	0.117
-511.814	-131.836	0.155	0.020
-510.799	739.358	0.019	-0.050
-509.785	-56.495	-0.214	0.095
-508.770	-200.000	-0.012	0.133
-507.756	51.869	-0.210	-0.200
-506.741	651.767	-0.016	-0.041
-505.726	283.892	0.039	0.070
-504.712	-35.930	0.066	-0.036
-503.697	509.095	-0.112	0.260
-502.683	-25.403	-0.349	0.206
-501.668	411.084	0.100	0.211
-500.653	407.788	-0.143	0.302
-499.639	-37.634	-0.450	0.239
-498.624	-168.614	0.646	0.025
-497.610	418.606	-0.065	0.138
-496.595	-200.000	-0.002	0.113
-495.581	66.920	-0.147	-0.150
-494.566	800.000	-0.063	-0.273
-493.551	-169.876	-0.307	-0.011
-492.537	800.000	-0.080	0.252
-491.522	-38.271	0.150	0.079
-490.508	552.094	-0.068	-0.164
-489.493	800.000	0.039	0.124
-488.478	-48.171	-0.102	-0.049
-487.464	-200.000	0.001	0.150
-486.449	54.464	-0.201	0.193
-485.435	91.175	0.108	-0.121
-484.420	-35.790	-0.195	0.105
-483.405	-12.063	0.220	-0.144
-482.391	-53.573	0.440	0.201
-481.376	0.437	-0.126	0.090
-480.362	800.000	-0.045	-0.136
-479.347	-156.017	-0.127	-0.008
-478.332	29.675	0.033	-0.028
-477.318	424.905	-0.044	0.096
-476.303	592.367	0.103	-0.255
-475.289	-140.742	0.214	0.022
-474.274	142.812	0.088	0.117
-473.259	197.590	-0.089	-0.136
-472.245	188.399	0.063	0.093
-471.230	-200.000	-0.026	-0.334
-470.216	-109.961	0.139	0.029
-469.201	-4.637	-0.135	0.093
-468.186	27.477	-0.324	-0.272
-467.172	-35.147	0.016	0.009
-466.157	58.997	0.212	-0.208
-465.143	-33.458	-0.235	-0.130
-464.128	21.133	0.181	-0.147
-463.113	204.881	0.119	-0.184
-462.099	9.041	-0.179	0.135
-461.084	60.265	-0.097	-0.096
-460.070	71.756	-0.064	-0.067
-459.055	800.000	-0.039	0.138
-458.040	26.305	0.030	0.025
-457.026	93.512	-0.153	0.172
-456.011	-200.000	0.046	0.247
-454.997	83.850	0.290	0.315
-453.982	-35.451	-0.187	0.101
-452.968	26.138	0.136	0.114
-451.953	598.258	-0.121	-0.300
-450.938	-9.450	-0.031	0.020
-449.924	568.049	0.028	-0.068
-448.909	-132.908	0.337	-0.043
-447.895	176.332	0.147	-0.213
-446.880	-125.513	0.011	-0.002
-445.865	-200.000	-0.019	0.209
-444.851	-21.791	0.170	-0.103
-443.836	-200.000	0.033	-0.497
-442.822	-123.395	-0.340	0.054
-441.807	18.013	0.236	0.188
-440.792	-122.131	-0.098	-0.016
-439.778	-164.902	-0.068	-0.003
-438.763	129.874	-0.181	0.231
-437.749	263.672	-0.023	-0.040
-436.734	800.000	0.108	-0.318
-435.719	-19.319	-0.300	0.185
-434.705	258.177	-0.097	-0.167
-433.690	-76.970	0.083	-0.029
-432.676	26.396	-0.241	-0.201
-431.661	800.000	0.030	0.112
-430.646	-16.561	-0.196	-0.124
-429.632	640.106	-0.117	-0.296
-428.617	-200.000	0.062	0.295
-427.603	800.000	0.048	0.178
-426.588	-127.878	-0.373	-0.053
-425.573	386.838	-0.040	0.082
-424.559	610.823	0.147	0.367
-423.544	607.277	-0.024	0.059
-422.530	515.840	-0.121	-0.282
-421.515	-85.997	-0.127	0.039
-420.500	229.787	-0.153	-0.249
-419.486	81.069	-0.377	0.406
-418.471	535.822	-0.098	-0.231
-417.457	-118.327	0.060	0.011
-416.442	272.709	-0.114	-0.200
-415.428	128.442	0.129	-0.164
-414.413	-40.470	-0.217	-0.112
-413.398	271.061	0.229	0.401
-412.384	-200.000	-0.002	0.175
-411.369	-2.774	-0.008	-0.006
-410.355	800.000	-0.093	0.278
-409.340	106.700	0.080	-0.094
-408.325	-82.438	0.090	-0.029
-407.311	198.732	-0.036	0.055
-406.296	384.336	-0.029	-0.059
-405.282	-200.000	0.031	0.230
-404.267	35.812	0.040	-0.035
-403.252	679.844	-0.063	0.164
-402.238	15.709	-0.072	-0.056
-401.223	-200.000	0.012	-0.324
-400.209	800.000	0.054	-0.181
-399.194	185.874	-0.265	0.392
-398.179	-37.060	-0.266	-0.142
-397.165	0.108	-0.268	0.190
-396.150	800.000	-0.040	0.112
-395.136	-200.000	0.196	0.001
-394.121	-71.666	-0.106	0.039
-393.106	800.000	0.022	-0.073
-392.092	141.454	-0.018	0.024
-391.077	245.525	-0.144	0.241
-390.063	-200.000	0.043	0.188
-389.048	-190.675	-0.216	0.002
-388.033	-200.000	0.004	0.204
-387.019	-47.536	-0.212	0.102
-386.004	274.311	0.243	-0.428
-384.990	-91.905	-0.082	-0.023
-383.975	5.491	-0.039	-0.029
-382.960	800.000	0.037	-0.129
-381.946	35.493	0.173	-0.151
-380.931	-75.430	-0.266	0.094
-379.917	-173.114	0.038	0.001
-378.902	-86.675	0.122	-0.037
-377.888	-200.000	-0.047	-0.284
-376.873	232.959	0.120	0.196
-375.858	-85.838	-0.122	0.038
-374.844	694.335	0.023	-0.060
-373.829	569.720	-0.098	0.236
-372.815	-200.000	0.014	0.252
-371.800	-67.727	-0.046	0.018
-370.785	50.818	-0.107	-0.101
-369.771	800.000	0.093	0.268
-368.756	800.000	0.105	-0.334
-367.742	-94.308	0.038	0.010
-366.727	-131.607	-0.186	-0.024
-365.712	136.491	0.132	-0.171
-364.698	-52.880	0.121	-0.055
-363.683	-118.046	0.050	-0.009
-362.669	-200.000	-0.004	0.040
-361.654	-70.232	-0.066	0.025
-360.639	-94.316	0.123	-0.033
-359.625	-13.515	-0.138	-0.089
-358.610	-107.572	-0.157	-0.034
-357.596	-200.000	-0.008	-0.137
-356.581	-200.000	0.044	-0.361
-355.566	-172.938	-0.338	-0.010
-354.552	-140.852	0.268	0.027
-353.537	-0.595	0.136	-0.096
-352.523	265.973	-0.035	0.060
-351.508	-67.675	0.213	-0.083
-350.493	-123.198	-0.133	0.021
-349.479	53.372	0.070	0.067
-348.464	102.539	-0.172	0.200
-347.450	-67.787	-0.309	-0.120
-346.435	-54.433	-0.182	-0.082
-345.420	800.000	0.065	0.237
-344.406	-38.142	-0.269	-0.142
-343.391	-54.553	0.435	-0.196
-342.377	222.497	-0.126	-0.202
-341.362	9.680	-0.253	-0.190
-340.348	38.838	0.196	0.174
-339.333	-90.708	0.087	-0.025
-338.318	-200.000	0.006	0.075
-337.304	241.834	0.290	-0.481
-336.289	406.604	-0.182	0.381
-335.275	714.483	0.095	-0.249
-334.260	191.485	0.226	-0.337
-333.245	-200.000	-0.060	0.309
-332.231	800.000	-0.042	-0.133
-331.216	35.788	-0.061	-0.053
-330.202	401.649	-0.157	-0.326
-329.187	87.767	0.246	0.270
-328.172	332.588	0.113	-0.216
-327.158	-200.000	-0.034	-0.224
-326.143	-86.035	-0.028	0.009
-325.129	160.363	0.214	-0.296
-324.114	65.834	-0.267	0.269
-323.099	365.922	0.061	-0.123
-322.085	-200.000	0.044	-0.326
-321.070	-106.566	0.424	-0.094
-320.056	-76.821	0.067	-0.023
-319.041	-127.618	-0.083	-0.012
-318.026	-158.187	-0.058	-0.003
-317.012	-200.000	0.017	0.130
-315.997	-128.114	0.424	0.060
-314.983	-153.995	0.464	-0.031
-313.968	71.567	-0.249	-0.256
-312.953	80.787	-0.067	-0.072
-311.939	800.000	0.110	0.326
-310.924	61.072	-0.095	0.094
-309.910	754.400	-0.045	-0.121
-308.895	800.000	-0.039	0.119
-307.880	196.190	-0.142	-0.214
-306.866	800.000	0.045	-0.196
-305.851	-200.000	-0.002	-0.340
-304.837	-117.746	0.147	-0.026
-303.822	-107.846	-0.186	0.040
-302.807	-37.024	0.072	0.038
-301.793	742.536	0.060	0.161
-300.778	2.660	-0.121	0.087
-299.764	-59.796	0.258	-0.110
-298.749	629.094	0.083	0.207
-297.735	800.000	-0.031	0.125
-296.720	-60.923	0.395	0.166
-295.705	800.000	0.157	0.440
-294.691	50.258	0.188	-0.176
-293.676	71.733	-0.132	0.136
-292.662	-89.152	-0.190	-0.056
-291.647	800.000	0.023	0.087
-290.632	-100.241	-0.262	-0.065
-289.618	-200.000	0.050	0.000
-288.603	-19.191	0.242	-0.149
-287.589	-200.000	-0.041	0.318
-286.574	9.350	0.125	0.094
-285.559	37.132	-0.198	-0.174
-284.545	-87.465	0.399	0.120
-283.530	-200.000	0.025	0.126
-282.516	-153.913	-0.263	0.018
-281.501	-117.157	-0.316	-0.057
-280.486	626.127	-0.130	0.325
-279.472	28.329	0.244	-0.204
-278.457	-148.854	-0.198	0.016
-277.443	120.325	0.055	0.067
-276.428	4.597	-0.245	-0.178
-275.413	-52.759	-0.102	-0.047
-274.399	-125.566	0.385	-0.058
-273.384	-200.000	-0.031	0.235
-272.370	-64.657	-0.289	-0.116
-271.355	-91.546	0.249	0.070
-270.340	-92.452	0.082	0.023
-269.326	-200.000	0.016	0.174
-268.311	503.944	-0.075	0.172
-267.297	-146.344	0.117	-0.010
-266.282	800.000	0.052	0.221
-265.267	-200.000	0.022	-0.097
-264.253	-1.493	0.095	0.066
-263.238	-200.000	-0.037	-0.473
-262.224	-13.827	-0.114	-0.073
-261.209	-128.724	0.388	-0.054
-260.195	-113.666	0.152	-0.029
-259.180	-148.708	0.331	0.027
-258.165	-58.008	0.250	0.108
-257.151	10.857	-0.258	-0.195
-256.136	-200.000	0.041	0.200
-255.122	-153.892	-0.036	0.002
-254.107	-10.060	0.029	0.019
-253.092	-200.000	-0.002	0.240
-252.078	800.000	0.046	0.195
-251.063	-140.473	-0.168	-0.017
-250.049	543.614	0.058	0.137
-249.034	189.411	-0.156	0.232
-248.019	800.000	-0.009	0.035
-247.005	-127.775	-0.171	-0.024
-245.990	-200.000	-0.026	0.390
-244.976	800.000	0.036	0.125
-243.961	602.697	0.051	0.126
-242.946	-200.000	-0.267	0.001
-241.932	-140.951	0.133	0.013
-240.917	-164.344	0.306	-0.014
-239.903	49.755	-0.102	-0.095
-238.888	-36.907	0.312	-0.165
-237.873	13.322	0.266	0.204
-236.859	31.328	0.203	0.173
-235.844	223.546	-0.066	-0.106
-234.830	-143.400	-0.250	0.024
-233.815	31.095	-0.301	-0.255
-232.800	87.281	-0.037	0.040
-231.786	-200.000	-0.024	-0.126
-230.771	148.132	0.084	0.112
-229.757	234.506	-0.129	0.210
-228.742	-200.000	-0.054	0.249
-227.727	513.782	0.169	0.390
-226.713	-8.235	-0.254	-0.169
-225.698	88.432	0.124	0.137
-224.684	800.000	0.052	-0.148
-223.669	35.331	-0.071	-0.061
-222.655	-142.369	0.293	0.029
-221.640	-118.951	0.203	-0.035
-220.625	-15.079	-0.372	0.236
-219.611	500.245	-0.067	0.152
-218.596	26.133	-0.297	0.245
-217.582	-200.000	0.051	-0.320
-216.567	800.000	-0.076	-0.249
-215.552	141.571	0.275	-0.360
-214.538	-104.681	0.334	0.076
-213.523	-52.229	0.105	-0.048
-212.509	-200.000	0.048	-0.210
-211.494	159.250	-0.157	0.216
-210.479	10.845	-0.175	-0.132
-209.465	59.501	-0.119	0.116
-208.450	251.062	0.096	0.161
-207.436	800.000	0.087	0.258
-206.421	-158.491	0.142	-0.008
-205.406	-20.758	0.255	-0.155
-204.392	-159.739	0.238	0.013
-203.377	-17.521	0.066	-0.041
-202.363	-112.491	-0.140	0.028
-201.348	-187.493	-0.223	0.003
-200.333	33.307	-0.328	0.282
-199.319	-90.153	0.228	0.065
-198.304	800.000	0.008	0.023
-197.290	101.236	0.218	-0.250
-196.275	59.194	0.097	0.095
-195.260	-72.256	-0.070	0.026
-194.246	191.321	0.038	-0.057
-193.231	-61.663	-0.374	-0.155
-192.217	37.467	0.256	0.224
-191.202	91.255	-0.136	0.150
-190.187	-41.496	-0.052	0.026
-189.173	-200.000	0.007	0.037
-188.158	-89.866	-0.055	0.016
-187.144	-138.324	-0.401	0.044
-186.129	-51.839	-0.085	0.039
-185.114	2.248	0.040	0.028
-184.100	138.449	0.206	0.267
-183.085	241.562	0.142	0.234
-182.071	1.573	0.095	0.067
-181.056	689.781	-0.101	-0.261
-180.042	800.000	-0.050	-0.160
-179.027	-172.974	-0.239	-0.007
-178.012	176.727	0.125	0.179
-176.998	347.765	-0.118	-0.229
-175.983	-200.000	-0.081	-0.398
-174.969	42.770	0.422	-0.379
-173.954	256.821	0.145	-0.245
-172.939	-95.587	-0.044	0.012
-171.925	-101.139	0.025	0.006
-170.910	328.672	0.055	-0.104
-169.896	-20.036	-0.067	-0.041
-168.881	-38.025	0.292	-0.153
-167.866	-200.000	-0.038	-0.374
-166.852	-76.987	-0.177	-0.061
-165.837	-91.349	0.287	-0.081
-164.823	53.584	0.085	0.080
-163.808	-200.000	-0.012	0.337
-162.793	79.928	0.101	-0.107
-161.779	-91.796	0.047	-0.013
-160.764	-200.000	-0.011	-0.114
-159.750	57.241	-0.106	-0.102
-158.735	2.570	-0.131	0.093
-157.720	-142.200	-0.315	-0.031
-156.706	297.276	0.206	-0.372
-155.691	-186.271	-0.265	-0.004
-154.677	-122.319	-0.045	0.007
-153.662	146.168	-0.133	-0.176
-152.647	95.724	0.136	-0.153
-151.633	10.636	0.228	0.171
-150.618	-42.874	-0.117	0.059
-149.604	182.460	0.049	-0.072
-148.589	-154.835	0.298	0.019
-147.574	-72.191	0.153	0.056
-146.560	-200.000	-0.009	0.200
-145.545	-200.000	0.042	0.501
-144.531	114.879	-0.121	0.145
-143.516	-139.193	0.037	-0.004
-142.502	-200.000	0.016	0.123
-141.487	800.000	0.036	0.142
-140.472	-200.000	-0.070	0.414
-139.458	-200.000	-0.063	-0.299
-138.443	-11.492	0.148	-0.096
-137.429	-200.000	-0.042	-0.309
-136.414	-60.734	0.152	-0.064
-135.399	76.793	0.250	0.261
-134.385	800.000	-0.064	-0.223
-133.370	-200.000	-0.051	0.320
-132.356	-100.324	-0.228	-0.056
-131.341	-14.131	0.185	-0.118
-130.326	18.508	0.161	-0.127
-129.312	-74.840	-0.158	-0.056
-128.297	-200.000	-0.027	0.186
-127.283	367.584	0.068	0.135
-126.268	64.707	-0.223	0.222
-125.253	800.000	0.191	0.579
-124.239	111.078	-0.197	0.234
-123.224	-200.000	0.039	0.172
-122.210	-16.628	-0.164	-0.102
-121.195	-22.749	-0.308	0.183
