DTS Sentinel unit serial number:	SN413079Multiplexer serial number:	ORYXHardware model number:	OX4-SRSoftware version number:	ORYX F/W v4.00 Oryx Data Collector v3.7.2.0data status	okinstallation	princeton_trtdifferential loss correction	single-endedforward channel	channel 2reverse channel	N/Adate	2019/09/18time	21:19:35forward acquisition time	60.00reverse acquisition time	0.00gamma	496.2192k internal	0.2344k external	0.2344temperature offset calibration	1.0023default loss term (dB/km)	0.3790temperature slope calibration	1.0000multiplexer offset coefficient	1.0000multiplexer slope coefficient	1.0000fibre end	0.00T internal ref (°C)	25.67T ext. ref 1 (°C)	0.84T ext. ref 2 (°C)	18.04length (m)	temperature (°C)	Stokes	anti-Stokes-747.200	-117.156	-0.280	-0.051
-746.185	-182.409	0.121	-0.002
-745.171	37.798	-0.104	-0.093
-744.156	-74.868	0.269	-0.097
-743.142	800.000	-0.111	-0.311
-742.127	344.406	-0.065	-0.127
-741.112	678.145	-0.133	0.345
-740.098	-200.000	0.000	0.678
-739.083	409.372	-0.061	0.130
-738.069	236.624	0.203	0.336
-737.054	220.166	0.088	0.142
-736.039	-66.112	0.081	0.032
-735.025	185.295	0.098	-0.146
-734.010	-200.000	0.083	-0.535
-732.996	-34.944	-0.210	0.115
-731.981	-21.985	0.193	0.117
-730.966	293.860	0.116	0.212
-729.952	-39.788	0.118	-0.062
-728.937	-52.101	0.078	0.036
-727.923	-42.543	-0.240	-0.122
-726.908	800.000	0.049	-0.193
-725.894	-200.000	-0.051	-0.292
-724.879	318.325	0.099	-0.187
-723.864	-200.000	-0.008	-0.136
-722.850	-24.408	0.251	0.150
-721.835	-151.185	0.037	0.003
-720.821	13.892	-0.232	-0.181
-719.806	-118.943	0.144	0.025
-718.791	-130.757	0.077	-0.010
-717.777	10.143	-0.199	0.151
-716.762	-54.208	0.398	-0.181
-715.748	251.571	-0.116	-0.198
-714.733	-27.894	0.156	0.090
-713.718	-83.962	-0.215	-0.068
-712.704	-8.449	-0.299	-0.201
-711.689	800.000	0.050	0.184
-710.675	14.105	-0.146	0.114
-709.660	800.000	-0.125	-0.445
-708.645	-47.471	0.213	0.103
-707.631	-200.000	0.007	0.209
-706.616	206.207	-0.145	-0.225
-705.602	-200.000	0.011	0.108
-704.587	-163.161	-0.220	0.011
-703.572	376.766	0.070	-0.142
-702.558	88.103	0.090	0.100
-701.543	-200.000	-0.038	0.227
-700.529	-200.000	0.080	-0.000
-699.514	-123.012	0.150	-0.024
-698.499	-50.665	-0.163	-0.077
-697.485	-15.559	-0.066	0.042
-696.470	304.203	-0.061	0.114
-695.456	212.997	0.148	-0.233
-694.441	-22.643	0.124	-0.075
-693.426	256.418	0.023	-0.039
-692.412	410.122	-0.121	-0.255
-691.397	631.825	0.071	-0.179
-690.383	-130.715	-0.196	-0.026
-689.368	367.925	0.131	-0.264
-688.354	191.532	0.300	0.451
-687.339	270.184	0.093	-0.163
-686.324	-61.712	-0.203	-0.085
-685.310	-26.648	-0.158	-0.092
-684.295	23.176	0.184	0.151
-683.281	730.625	-0.052	-0.139
-682.266	-173.415	0.434	0.013
-681.251	-121.083	0.108	0.018
-680.237	-26.027	-0.452	0.265
-679.222	217.872	-0.085	0.135
-678.208	359.903	-0.099	-0.198
-677.193	-172.737	-0.205	-0.006
-676.178	-134.710	-0.091	0.011
-675.164	223.840	0.103	0.166
-674.149	-127.107	0.067	0.010
-673.135	168.084	-0.015	0.021
-672.120	-70.059	0.363	-0.138
-671.105	416.219	0.071	0.151
-670.091	800.000	0.163	0.488
-669.076	519.253	0.061	0.142
-668.062	-111.737	-0.193	0.039
-667.047	485.591	-0.020	-0.045
-666.032	-77.741	-0.207	-0.071
-665.018	-200.000	0.040	0.405
-664.003	-11.520	0.138	0.091
-662.989	34.735	-0.028	0.024
-661.974	-153.856	-0.166	0.011
-660.959	306.673	0.080	0.149
-659.945	-200.000	0.002	-0.268
-658.930	-82.318	-0.200	0.065
-657.916	171.819	0.032	0.045
-656.901	36.823	-0.159	-0.140
-655.886	-200.000	-0.025	-0.137
-654.872	145.812	0.109	-0.145
-653.857	-61.833	0.053	-0.022
-652.843	703.624	0.020	-0.051
-651.828	-200.000	0.032	-0.288
-650.814	800.000	-0.032	-0.126
-649.799	-22.987	-0.099	-0.060
-648.784	-119.537	-0.211	0.036
-647.770	58.482	-0.166	-0.163
-646.755	-200.000	-0.030	0.152
-645.741	117.545	0.299	0.367
-644.726	-200.000	-0.027	-0.157
-643.711	13.580	-0.371	-0.287
-642.697	-111.596	-0.270	-0.055
-641.682	800.000	-0.003	-0.009
-640.668	-200.000	-0.017	0.129
-639.653	116.195	-0.104	0.127
-638.638	-200.000	0.001	0.161
-637.624	315.275	-0.029	0.054
-636.609	-83.576	0.361	0.115
-635.595	144.612	-0.157	-0.210
-634.580	-166.971	0.069	0.003
-633.565	0.907	0.256	-0.183
-632.551	-144.130	-0.115	-0.011
-631.536	141.308	0.120	0.159
-630.522	79.320	-0.316	0.338
-629.507	800.000	-0.075	-0.258
-628.492	274.844	0.191	-0.338
-627.478	-133.376	-0.262	-0.033
-626.463	-95.686	0.291	0.078
-625.449	65.065	-0.246	-0.248
-624.434	-153.546	0.207	-0.014
-623.419	15.705	-0.192	0.150
-622.405	396.692	0.051	-0.107
-621.390	-200.000	-0.005	0.218
-620.376	800.000	-0.031	-0.098
-619.361	-59.581	0.090	-0.039
-618.346	723.540	0.135	-0.357
-617.332	-200.000	0.044	-0.272
-616.317	-159.317	0.385	0.021
-615.303	-91.437	-0.266	0.076
-614.288	-44.684	-0.142	0.070
-613.273	147.226	0.190	0.254
-612.259	800.000	-0.035	0.118
-611.244	11.500	-0.107	0.081
-610.230	800.000	0.020	-0.081
-609.215	-143.966	-0.172	-0.016
-608.201	-110.592	-0.193	-0.040
-607.186	148.515	-0.178	-0.240
-606.171	-73.497	0.106	0.039
-605.157	303.549	0.111	-0.206
-604.142	-85.503	0.286	-0.089
-603.128	-200.000	-0.016	-0.137
-602.113	-99.660	0.064	0.016
-601.098	-56.637	-0.260	0.115
-600.084	-39.843	0.174	0.091
-599.069	-200.000	-0.036	-0.315
-598.055	-27.881	0.257	-0.148
-597.040	-114.964	-0.181	-0.034
-596.025	800.000	0.060	-0.169
-595.011	-80.756	0.166	-0.055
-593.996	-200.000	-0.013	-0.128
-592.982	75.419	-0.092	0.096
-591.967	88.955	-0.213	-0.236
-590.952	-135.587	0.230	0.027
-589.938	68.586	-0.095	-0.097
-588.923	-200.000	-0.069	-0.507
-587.909	445.913	0.079	-0.172
-586.894	-80.536	-0.304	-0.101
-585.879	-58.871	0.344	0.148
-584.865	-139.292	0.145	0.015
-583.850	-70.691	-0.125	0.047
-582.836	800.000	-0.142	0.448
-581.821	-200.000	0.047	0.214
-580.806	634.993	0.040	0.101
-579.792	-180.629	-0.466	-0.010
-578.777	-200.000	0.020	0.302
-577.763	437.449	-0.096	0.209
-576.748	728.076	-0.048	-0.127
-575.733	30.182	0.120	0.102
-574.719	-106.640	-0.287	-0.064
-573.704	-109.834	0.297	-0.062
-572.690	-70.611	-0.161	0.061
-571.675	232.315	0.166	-0.271
-570.661	-3.325	0.080	-0.055
-569.646	-65.827	0.032	-0.013
-568.631	-43.223	0.103	-0.052
-567.617	66.265	-0.153	0.155
-566.602	66.943	-0.166	0.168
-565.588	800.000	0.112	0.358
-564.573	800.000	0.101	-0.296
-563.558	81.133	-0.261	0.280
-562.544	-200.000	0.015	-0.122
-561.529	-69.550	-0.155	0.059
-560.515	-13.067	0.170	-0.110
-559.500	-200.000	-0.019	-0.181
-558.485	-156.090	0.242	-0.015
-557.471	-50.543	0.398	-0.187
-556.456	-200.000	0.005	-0.292
-555.442	-167.647	0.353	0.014
-554.427	25.016	-0.378	-0.312
-553.412	-112.533	0.190	0.038
-552.398	-91.538	-0.177	-0.050
-551.383	55.432	-0.177	0.171
-550.369	-189.742	-0.320	-0.004
-549.354	345.774	-0.116	0.226
-548.339	800.000	0.049	-0.180
-547.325	-10.057	0.020	-0.013
-546.310	20.488	0.119	0.096
-545.296	51.646	-0.126	0.119
-544.281	800.000	0.077	-0.268
-543.266	87.964	0.196	-0.216
-542.252	-90.731	0.133	0.038
-541.237	402.306	-0.041	0.085
-540.223	-200.000	-0.018	0.213
-539.208	198.088	-0.110	0.168
-538.193	213.175	-0.159	-0.249
-537.179	212.730	0.047	-0.073
-536.164	-200.000	0.010	0.203
-535.150	487.589	0.029	-0.066
-534.135	-48.422	0.222	0.106
-533.121	95.158	0.213	-0.241
-532.106	-200.000	-0.007	-0.149
-531.091	515.621	0.099	0.229
-530.077	101.071	-0.102	-0.118
-529.062	800.000	-0.047	0.145
-528.048	-200.000	0.044	-0.220
-527.033	-79.604	0.326	-0.109
-526.018	-132.578	0.195	-0.025
-525.004	45.159	-0.152	0.139
-523.989	56.018	0.168	0.162
-522.975	-60.699	-0.222	0.093
-521.960	223.228	-0.157	-0.251
-520.945	25.090	0.017	0.014
-519.931	-87.734	-0.107	0.032
-518.916	-96.442	0.301	-0.079
-517.902	800.000	-0.029	0.096
-516.887	-23.325	-0.305	-0.182
-515.872	124.100	0.152	0.190
-514.858	-108.199	-0.137	0.029
-513.843	-200.000	0.023	-0.110
-512.829	50.634	-0.147	-0.138
-511.814	-83.758	-0.543	-0.172
-510.799	-8.732	0.170	0.113
-509.785	590.252	0.091	-0.223
-508.770	-36.039	-0.269	0.144
-507.756	-25.456	-0.146	0.085
-506.741	744.288	0.052	0.140
-505.726	-70.956	-0.122	-0.046
-504.712	36.771	-0.089	0.078
-503.697	-119.052	-0.245	0.042
-502.683	-122.827	-0.200	-0.032
-501.668	-133.003	-0.262	-0.033
-500.653	-2.567	-0.258	0.179
-499.639	-25.264	-0.474	-0.278
-498.624	-200.000	0.072	-0.347
-497.610	33.887	-0.281	0.243
-496.595	-200.000	0.011	0.183
-495.581	-200.000	0.011	-0.245
-494.566	-45.998	-0.206	0.101
-493.551	800.000	0.046	-0.127
-492.537	800.000	0.067	0.230
-491.522	427.690	0.026	-0.056
-490.508	-135.951	-0.281	-0.033
-489.493	107.690	0.141	-0.166
-488.478	-165.792	0.104	0.004
-487.464	423.757	0.028	-0.060
-486.449	606.973	0.107	0.265
-485.435	-200.000	-0.057	0.401
-484.420	-5.954	0.078	0.053
-483.405	-72.832	-0.269	0.098
-482.391	-150.207	-0.218	0.017
-481.376	-185.532	0.428	0.006
-480.362	800.000	-0.083	-0.266
-479.347	-123.419	-0.209	-0.033
-478.332	-200.000	-0.040	-0.309
-477.318	314.859	-0.022	-0.041
-476.303	-52.699	-0.153	-0.070
-475.289	-43.979	0.333	0.166
-474.274	-54.894	-0.043	-0.019
-473.259	-41.180	-0.265	0.136
-472.245	148.452	-0.127	0.170
-471.230	87.617	0.157	0.172
-470.216	-200.000	0.003	0.035
-469.201	800.000	0.027	-0.082
-468.186	247.277	0.030	-0.050
-467.172	-30.167	0.090	-0.051
-466.157	38.334	-0.077	-0.067
-465.143	-90.682	0.047	0.013
-464.128	-200.000	0.022	-0.155
-463.113	-34.875	-0.187	0.101
-462.099	-63.515	0.131	-0.053
-461.084	281.068	0.161	-0.286
-460.070	-181.890	0.024	-0.000
-459.055	-152.678	0.192	-0.014
-458.040	-200.000	0.000	-0.128
-457.026	-79.449	0.224	-0.075
-456.011	-132.134	0.069	0.009
-454.997	138.556	-0.081	-0.105
-453.982	146.416	0.142	-0.188
-452.968	178.942	0.167	-0.241
-451.953	7.966	0.121	-0.090
-450.938	-200.000	-0.006	-0.040
-449.924	-200.000	-0.018	0.192
-448.909	-200.000	0.004	-0.058
-447.895	-72.321	-0.157	-0.058
-446.880	601.865	0.193	-0.475
-445.865	-133.315	0.302	0.038
-444.851	-94.998	0.118	-0.032
-443.836	620.408	0.061	0.153
-442.822	1.428	-0.204	0.145
-441.807	800.000	-0.141	0.558
-440.792	354.486	-0.176	-0.346
-439.778	-113.830	-0.271	-0.052
-438.763	164.622	-0.128	-0.178
-437.749	-200.000	-0.051	0.313
-436.734	-29.849	0.131	0.074
-435.719	50.573	0.097	-0.090
-434.705	-110.151	0.116	0.024
-433.690	-200.000	0.003	0.120
-432.676	-200.000	0.060	0.303
-431.661	258.158	0.229	0.389
-430.646	-107.673	0.178	0.038
-429.632	-200.000	0.007	0.193
-428.617	-200.000	0.047	0.481
-427.603	-68.283	-0.360	0.138
-426.588	250.179	0.103	0.172
-425.573	109.835	0.145	-0.172
-424.559	800.000	0.067	-0.231
-423.544	-145.692	0.336	-0.030
-422.530	-54.800	-0.324	-0.145
-421.515	55.068	0.182	0.173
-420.500	-200.000	-0.015	-0.144
-419.486	7.940	-0.189	0.140
-418.471	176.643	-0.157	-0.225
-417.457	530.059	0.052	-0.122
-416.442	163.961	0.055	0.076
-415.428	-27.810	-0.312	-0.179
-414.413	-83.674	-0.017	-0.005
-413.398	132.283	0.117	-0.149
-412.384	232.689	0.117	-0.190
-411.369	767.307	0.069	0.186
-410.355	-200.000	-0.071	0.426
-409.340	-23.867	-0.064	0.038
-408.325	-87.273	-0.201	-0.060
-407.311	-119.119	0.295	-0.051
-406.296	-97.836	-0.178	-0.045
-405.282	-97.250	0.161	0.042
-404.267	710.975	-0.071	-0.186
-403.252	-82.517	-0.060	-0.019
-402.238	1.364	0.155	0.110
-401.223	-200.000	-0.026	-0.157
-400.209	-177.232	0.330	-0.008
-399.194	187.420	0.163	-0.241
-398.179	-200.000	-0.033	-0.192
-397.165	-90.939	-0.158	-0.045
-396.150	281.974	0.067	0.118
-395.136	-14.768	-0.165	0.105
-394.121	242.110	0.035	-0.058
-393.106	218.889	0.051	-0.080
-392.092	-8.314	0.175	0.116
-391.077	800.000	-0.066	0.207
-390.063	219.255	0.140	0.222
-389.048	-200.000	-0.035	-0.412
-388.033	-200.000	-0.021	-0.107
-387.019	-89.881	-0.071	0.020
-386.004	397.664	-0.073	0.150
-384.990	107.368	-0.137	-0.160
-383.975	211.238	-0.130	-0.203
-382.960	16.066	-0.276	0.214
-381.946	69.345	0.105	0.107
-380.931	-22.433	-0.218	-0.131
-379.917	-113.458	-0.282	0.054
-378.902	151.726	0.141	0.190
-377.888	75.332	-0.177	0.185
-376.873	-200.000	-0.054	-0.360
-375.858	30.047	-0.297	-0.250
-374.844	-127.296	-0.323	-0.046
-373.829	47.776	0.297	-0.273
-372.815	143.737	-0.070	0.092
-371.800	13.494	-0.169	0.129
-370.785	800.000	0.112	-0.318
-369.771	1.189	0.292	0.207
-368.756	-119.220	0.217	0.037
-367.742	-104.882	-0.245	-0.055
-366.727	432.652	-0.160	-0.341
-365.712	-37.325	0.188	-0.099
-364.698	-200.000	0.002	-0.121
-363.683	-80.791	-0.145	-0.048
-362.669	-70.427	-0.116	-0.043
-361.654	-180.237	-0.175	0.004
-360.639	-200.000	0.002	0.054
-359.625	-200.000	0.071	0.321
-358.610	390.598	0.111	-0.227
-357.596	-20.400	0.255	-0.155
-356.581	-21.272	0.104	0.063
-355.566	18.724	0.174	-0.138
-354.552	330.214	-0.092	0.174
-353.537	278.454	-0.006	0.011
-352.523	800.000	0.024	-0.105
-351.508	800.000	-0.053	0.177
-350.493	106.734	-0.084	0.098
-349.479	97.137	0.025	0.028
-348.464	800.000	-0.069	-0.211
-347.450	-143.479	-0.133	-0.013
-346.435	630.139	0.072	-0.180
-345.420	-181.514	0.537	-0.010
-344.406	541.487	-0.035	-0.081
-343.391	-200.000	0.009	-0.085
-342.377	-60.576	-0.399	-0.167
-341.362	-50.546	0.209	0.097
-340.348	535.439	-0.100	0.234
-339.333	59.906	-0.231	0.225
-338.318	-14.492	-0.245	0.155
-337.304	-77.875	-0.227	0.077
-336.289	-6.092	0.183	-0.123
-335.275	-151.576	0.168	-0.012
-334.260	148.558	-0.154	0.205
-333.245	-77.420	0.290	0.099
-332.231	-20.549	-0.168	-0.102
-331.216	274.379	-0.074	-0.129
-330.202	-200.000	-0.030	-0.258
-329.187	-96.627	0.321	-0.083
-328.172	-200.000	-0.012	0.177
-327.158	-200.000	0.027	0.223
-326.143	-200.000	0.016	0.243
-325.129	56.562	-0.113	0.108
-324.114	-39.185	0.182	0.094
-323.099	-7.966	0.046	-0.031
-322.085	57.878	0.150	-0.145
-321.070	-200.000	-0.069	-0.348
-320.056	-200.000	-0.023	-0.171
-319.041	-26.432	0.236	0.136
-318.026	144.000	-0.119	0.156
-317.012	13.455	0.200	0.153
-315.997	-74.077	-0.418	-0.149
-314.983	19.244	0.279	-0.221
-313.968	-200.000	-0.003	-0.228
-312.953	107.720	0.176	0.206
-311.939	800.000	-0.037	0.155
-310.924	51.563	0.218	0.204
-309.910	800.000	-0.063	0.257
-308.895	93.906	0.176	-0.196
-307.880	800.000	-0.068	-0.248
-306.866	-5.852	0.190	-0.128
-305.851	186.140	-0.124	-0.181
-304.837	47.178	-0.136	-0.124
-303.822	-58.243	0.210	-0.090
-302.807	-95.266	-0.088	0.023
-301.793	-22.006	0.260	0.156
-300.778	-200.000	-0.007	0.458
-299.764	228.034	-0.173	-0.278
-298.749	-109.777	0.239	-0.049
-297.735	800.000	0.052	0.177
-296.720	-200.000	-0.003	0.158
-295.705	311.548	0.252	0.464
-294.691	-64.333	-0.333	-0.133
-293.676	217.386	0.096	0.150
-292.662	-80.756	0.242	0.079
-291.647	448.318	-0.147	0.319
-290.632	20.911	0.165	-0.132
-289.618	800.000	-0.053	0.200
-288.603	-115.753	0.196	-0.036
-287.589	-134.277	-0.509	-0.062
-286.574	122.001	-0.191	-0.235
-285.559	3.475	0.265	-0.190
-284.545	90.012	-0.135	-0.149
-283.530	-67.974	0.211	-0.081
-282.516	422.518	0.111	0.233
-281.501	-114.457	-0.148	0.028
-280.486	8.546	-0.145	-0.107
-279.472	43.740	0.201	-0.181
-278.457	99.332	0.104	-0.119
-277.443	-200.000	0.005	-0.063
-276.428	475.212	0.090	0.199
-275.413	144.055	0.103	-0.135
-274.399	274.371	0.102	-0.177
-273.384	-92.460	0.212	-0.059
-272.370	-98.684	-0.104	0.026
-271.355	-200.000	0.044	0.259
-270.340	52.940	-0.067	-0.063
-269.326	-200.000	0.042	0.202
-268.311	50.051	0.161	0.149
-267.297	-22.630	0.231	-0.137
-266.282	-27.509	-0.178	0.102
-265.267	800.000	0.019	-0.057
-264.253	10.087	-0.145	-0.108
-263.238	790.439	0.050	-0.136
-262.224	-200.000	-0.022	0.143
-261.209	800.000	-0.046	-0.156
-260.195	-49.276	0.258	0.121
-259.180	-48.072	-0.223	0.106
-258.165	-23.572	0.080	0.047
-257.151	-200.000	-0.021	0.172
-256.136	402.808	0.106	0.219
-255.122	328.097	-0.253	0.477
-254.107	-160.206	-0.191	-0.010
-253.092	183.413	0.247	-0.358
-252.078	-200.000	-0.028	0.154
-251.063	-53.474	-0.122	0.055
-250.049	-200.000	-0.007	0.035
-249.034	-200.000	0.006	-0.158
-248.019	312.628	0.129	-0.237
-247.005	800.000	-0.049	-0.205
-245.990	-178.924	-0.351	0.008
-244.976	137.903	0.142	0.183
-243.961	800.000	0.047	0.136
-242.946	197.368	-0.046	0.070
-241.932	-200.000	0.009	-0.207
-240.917	-173.557	-0.106	-0.003
-239.903	-200.000	-0.012	-0.087
-238.888	800.000	-0.098	-0.322
-237.873	-39.582	0.325	-0.167
-236.859	-200.000	-0.015	0.167
-235.844	-200.000	0.080	0.434
-234.830	-200.000	-0.005	-0.314
-233.815	-188.320	-0.221	0.003
-232.800	-96.446	0.321	0.083
-231.786	-200.000	-0.028	0.139
-230.771	-117.247	-0.284	0.051
-229.757	-56.545	-0.146	0.064
-228.742	45.926	0.130	0.118
-227.727	-200.000	0.049	-0.255
-226.713	205.364	0.144	-0.220
-225.698	-86.838	-0.221	0.066
-224.684	-7.500	0.378	0.251
-223.669	-56.741	-0.353	0.153
-222.655	88.208	0.085	0.093
-221.640	-29.461	0.541	-0.303
-220.625	76.258	-0.051	-0.053
-219.611	-200.000	-0.025	-0.378
-218.596	-200.000	0.001	-0.370
-217.582	-109.735	0.105	0.022
-216.567	-87.897	-0.142	0.042
-215.552	178.311	0.154	0.220
-214.538	130.700	-0.120	0.151
-213.523	-137.499	0.272	-0.030
-212.509	-200.000	-0.044	0.302
-211.494	274.563	-0.187	0.325
-210.479	-200.000	-0.000	0.037
-209.465	722.135	0.095	0.248
-208.450	-65.373	0.297	0.117
-207.436	751.500	0.092	-0.244
-206.421	-173.761	-0.330	0.010
-205.406	22.334	-0.240	0.192
-204.392	191.679	0.058	0.085
-203.377	-200.000	0.012	-0.078
-202.363	297.727	-0.039	0.071
-201.348	-116.431	-0.249	0.045
-200.333	354.391	0.090	-0.174
-199.319	-25.124	-0.147	0.086
-198.304	-53.531	-0.113	-0.051
-197.290	59.302	0.106	-0.102
-196.275	-185.517	0.260	-0.004
-195.260	275.947	-0.192	0.334
-194.246	24.602	-0.029	-0.023
-193.231	12.030	-0.235	-0.177
-192.217	-56.809	0.353	-0.153
-191.202	11.233	0.049	0.036
-190.187	-60.147	0.120	-0.050
-189.173	-197.396	0.182	-0.001
-188.158	-200.000	0.030	0.166
-187.144	67.477	-0.042	0.042
-186.129	800.000	-0.179	-0.652
-185.114	94.294	0.121	0.134
-184.100	410.447	0.068	-0.142
-183.085	-135.868	0.123	0.014
-182.071	506.071	-0.084	-0.191
-181.056	-200.000	-0.037	0.348
-180.042	-73.321	-0.037	0.013
-179.027	-19.169	0.125	0.076
-178.012	86.740	-0.090	-0.098
-176.998	55.375	0.298	0.282
-175.983	71.128	0.009	0.009
-174.969	27.328	-0.155	-0.128
-173.954	-45.291	0.291	0.142
-172.939	800.000	-0.060	0.204
-171.925	97.388	-0.153	0.172
-170.910	549.094	0.135	0.318
-169.896	-117.777	0.030	0.005
-168.881	-200.000	0.005	0.396
-167.866	55.761	-0.191	0.181
-166.852	-160.940	0.169	-0.009
-165.837	587.299	-0.053	-0.129
-164.823	272.293	-0.067	0.116
-163.808	-59.279	-0.331	-0.140
-162.793	-18.712	0.406	-0.247
-161.779	800.000	0.107	-0.314
-160.764	-64.028	0.257	0.103
-159.750	271.874	-0.049	0.085
-158.735	590.649	0.046	-0.112
-157.720	13.217	0.359	0.272
-156.706	231.398	-0.300	0.481
-155.691	633.263	0.036	0.090
-154.677	-16.632	0.054	0.033
-153.662	-4.423	0.066	0.044
-152.647	567.813	-0.144	0.342
-151.633	800.000	-0.038	0.140
-150.618	-63.416	0.436	-0.176
-149.604	-120.896	0.284	-0.047
-148.589	-200.000	-0.032	0.174
-147.574	-118.241	0.321	0.056
-146.560	800.000	0.059	0.242
-145.545	-76.023	0.235	0.081
-144.531	92.897	-0.145	-0.160
-143.516	-200.000	-0.055	-0.318
-142.502	382.673	-0.210	0.422
-141.487	-21.561	0.279	0.166
-140.472	-200.000	-0.044	-0.387
-139.458	218.485	0.139	-0.216
-138.443	122.114	0.095	0.116
-137.429	-200.000	-0.004	0.136
-136.414	74.703	0.099	0.102
-135.399	248.040	0.176	0.292
-134.385	-200.000	-0.025	-0.214
-133.370	69.869	0.148	0.149
-132.356	-81.900	0.153	-0.049
-131.341	258.668	-0.161	-0.271
-130.326	715.653	-0.102	0.265
-129.312	-37.993	0.054	0.028
-128.297	800.000	0.044	0.162
-127.283	-76.466	-0.285	-0.098
-126.268	-31.089	0.130	-0.072
-125.253	-200.000	0.001	0.116
-124.239	49.618	-0.132	0.121
-123.224	-36.686	0.358	0.188
-122.210	-1.671	0.142	0.098
-121.195	783.501	-0.203	-0.544
