DTS Sentinel unit serial number:	SN413079Multiplexer serial number:	ORYXHardware model number:	OX4-SRSoftware version number:	ORYX F/W v4.00 Oryx Data Collector v3.7.2.0data status	okinstallation	princeton_trtdifferential loss correction	single-endedforward channel	channel 2reverse channel	N/Adate	2019/09/18time	10:43:35forward acquisition time	60.00reverse acquisition time	0.00gamma	496.2192k internal	0.2331k external	0.2331temperature offset calibration	0.9982default loss term (dB/km)	0.3790temperature slope calibration	1.0000multiplexer offset coefficient	1.0000multiplexer slope coefficient	1.0000fibre end	0.00T internal ref (°C)	28.80T ext. ref 1 (°C)	0.37T ext. ref 2 (°C)	25.45length (m)	temperature (°C)	Stokes	anti-Stokes-747.200	-31.886	0.034	0.019
-746.185	142.339	-0.076	0.102
-745.171	429.563	0.109	-0.238
-744.156	-118.644	-0.063	0.011
-743.142	-114.049	0.245	-0.048
-742.127	132.378	0.206	0.268
-741.112	233.089	-0.086	0.142
-740.098	39.449	-0.216	-0.195
-739.083	97.156	0.263	-0.304
-738.069	-200.000	0.002	-0.046
-737.054	-200.000	-0.004	0.040
-736.039	-71.401	-0.164	-0.062
-735.025	1.839	0.222	0.161
-734.010	-131.371	0.268	0.036
-732.996	800.000	0.074	-0.308
-731.981	-121.195	-0.243	0.041
-730.966	-87.165	-0.174	-0.053
-729.952	-146.995	-0.325	-0.028
-728.937	-165.007	0.316	0.014
-727.923	-86.959	-0.416	-0.128
-726.908	-75.073	-0.349	-0.125
-725.894	-124.600	-0.377	0.059
-724.879	-89.415	-0.166	-0.049
-723.864	-200.000	0.054	-0.241
-722.850	183.678	-0.211	0.314
-721.835	130.998	-0.186	-0.240
-720.821	-200.000	-0.042	0.198
-719.806	-75.417	0.263	0.094
-718.791	-200.000	-0.012	-0.074
-717.777	-130.137	-0.235	-0.032
-716.762	68.382	-0.200	0.206
-715.748	134.576	-0.139	-0.181
-714.733	29.510	-0.156	-0.134
-713.718	-200.000	0.035	-0.370
-712.704	-1.053	-0.151	-0.108
-711.689	-63.398	-0.170	0.071
-710.675	540.564	-0.092	-0.220
-709.660	25.575	0.164	0.137
-708.645	114.942	0.203	-0.249
-707.631	264.285	0.054	0.094
-706.616	140.254	-0.124	0.164
-705.602	-57.580	0.137	0.060
-704.587	279.802	-0.183	-0.328
-703.572	35.810	-0.114	-0.101
-702.558	-159.246	0.259	0.015
-701.543	-65.682	0.227	0.091
-700.529	-132.202	-0.098	0.013
-699.514	207.852	-0.113	0.177
-698.499	-200.000	-0.008	-0.277
-697.485	-140.211	-0.139	-0.015
-696.470	-24.552	0.079	-0.047
-695.456	95.012	0.269	0.307
-694.441	-200.000	-0.023	-0.190
-693.426	54.514	-0.234	-0.226
-692.412	16.700	-0.252	-0.200
-691.397	59.071	0.244	-0.241
-690.383	-6.141	-0.223	-0.153
-689.368	-140.428	0.334	-0.035
-688.354	-200.000	0.004	-0.054
-687.339	-138.867	-0.336	-0.037
-686.324	1.099	0.267	-0.193
-685.310	-19.192	-0.304	0.189
-684.295	297.464	-0.109	-0.200
-683.281	-97.640	0.302	-0.079
-682.266	112.620	-0.244	-0.297
-681.251	82.395	0.157	-0.171
-680.237	-126.902	0.280	0.041
-679.222	138.236	0.181	0.238
-678.208	74.624	-0.191	0.201
-677.193	-56.008	0.161	0.072
-676.178	92.849	0.068	0.078
-675.164	-80.094	0.147	-0.049
-674.149	800.000	0.043	-0.162
-673.135	279.968	0.015	-0.027
-672.120	-200.000	-0.020	-0.567
-671.105	-25.757	-0.144	-0.085
-670.091	29.850	-0.132	-0.113
-669.076	-200.000	-0.023	0.140
-668.062	-84.930	-0.109	-0.034
-667.047	-125.732	-0.426	0.065
-666.032	-28.093	-0.300	-0.174
-665.018	772.422	-0.096	-0.261
-664.003	483.697	-0.133	0.304
-662.989	-0.964	0.018	0.013
-661.974	-60.123	0.043	0.018
-660.959	-52.023	-0.093	-0.043
-659.945	800.000	0.098	0.359
-658.930	253.364	-0.140	-0.240
-657.916	254.826	-0.157	0.269
-656.901	271.255	-0.143	0.253
-655.886	-200.000	-0.006	-0.109
-654.872	-21.823	-0.080	0.049
-653.857	-189.907	0.231	-0.003
-652.843	800.000	-0.045	0.184
-651.828	44.933	0.076	0.070
-650.814	-87.441	-0.056	-0.017
-649.799	105.630	0.192	0.227
-648.784	800.000	-0.082	0.291
-647.770	-160.013	0.256	0.014
-646.755	234.582	-0.235	-0.389
-645.741	-51.976	0.041	0.019
-644.726	98.543	0.180	0.208
-643.711	49.124	-0.150	-0.142
-642.697	-200.000	0.065	0.287
-641.682	800.000	0.035	0.105
-640.668	-200.000	-0.025	0.167
-639.653	447.869	0.050	0.109
-638.638	50.276	-0.120	0.114
-637.624	-184.415	0.112	0.002
-636.609	207.486	0.018	0.028
-635.595	-103.445	-0.131	0.031
-634.580	-200.000	0.023	0.202
-633.565	205.237	0.062	-0.097
-632.551	104.309	-0.154	-0.182
-631.536	-200.000	-0.038	-0.314
-630.522	21.136	-0.285	-0.232
-629.507	32.721	0.135	-0.117
-628.492	-78.724	0.049	0.017
-627.478	-47.096	0.352	0.172
-626.463	-86.024	-0.239	-0.074
-625.449	71.118	-0.112	-0.116
-624.434	-90.693	0.130	-0.038
-623.419	-200.000	-0.017	0.149
-622.405	338.061	-0.140	0.272
-621.390	-25.457	-0.127	-0.075
-620.376	218.830	0.150	0.240
-619.361	-35.868	-0.068	-0.037
-618.346	-200.000	0.026	-0.212
-617.332	113.772	-0.077	-0.094
-616.317	59.738	-0.165	0.163
-615.303	279.857	-0.151	0.271
-614.288	-85.064	-0.361	0.113
-613.273	33.812	0.286	-0.249
-612.259	-114.328	-0.126	0.024
-611.244	-200.000	-0.037	0.310
-610.230	-96.498	0.112	-0.029
-609.215	286.375	-0.104	0.188
-608.201	111.601	-0.092	-0.111
-607.186	-200.000	0.006	-0.132
-606.171	121.417	-0.213	0.266
-605.157	186.499	-0.114	-0.170
-604.142	-51.850	0.221	0.103
-603.128	-150.574	0.212	-0.016
-602.113	800.000	-0.115	0.321
-601.098	-3.523	0.230	0.160
-600.084	800.000	0.054	-0.164
-599.069	368.220	0.148	0.300
-598.055	83.535	0.103	0.112
-597.040	-106.300	-0.113	-0.025
-596.025	-129.478	0.120	0.017
-595.011	-27.437	-0.286	0.167
-593.996	768.274	-0.068	0.185
-592.982	-92.562	-0.128	0.036
-591.967	362.566	-0.097	-0.196
-590.952	25.711	-0.153	-0.127
-589.938	-16.347	-0.185	-0.117
-588.923	135.765	0.130	-0.170
-587.909	-122.603	0.289	0.047
-586.894	229.312	-0.202	0.330
-585.879	-127.999	0.096	0.014
-584.865	-87.317	0.218	-0.066
-583.850	-139.308	0.248	-0.027
-582.836	-32.613	-0.352	0.196
-581.821	-139.090	-0.110	0.012
-580.806	-26.049	0.142	-0.083
-579.792	260.668	-0.160	-0.277
-578.777	-200.000	-0.011	-0.070
-577.763	-110.868	0.055	0.011
-576.748	389.714	-0.020	0.041
-575.733	220.287	-0.070	-0.112
-574.719	175.702	0.205	-0.297
-573.704	74.437	0.309	0.325
-572.690	-135.574	-0.257	-0.031
-571.675	-138.987	-0.402	-0.044
-570.661	175.712	0.043	-0.062
-569.646	-32.774	-0.102	-0.057
-568.631	800.000	0.055	-0.171
-567.617	-0.230	0.148	-0.105
-566.602	292.948	0.186	-0.339
-565.588	-16.909	0.089	0.056
-564.573	-78.073	-0.185	-0.064
-563.558	800.000	0.018	-0.064
-562.544	299.911	0.112	0.206
-561.529	75.783	-0.179	-0.189
-560.515	-195.374	-0.172	-0.001
-559.500	-200.000	0.030	0.161
-558.485	119.156	0.097	-0.120
-557.471	-74.821	-0.448	0.161
-556.456	-63.277	0.271	-0.111
-555.442	173.379	-0.216	0.311
-554.427	-200.000	0.007	-0.163
-553.412	13.728	-0.011	-0.009
-552.398	-74.633	-0.495	-0.178
-551.383	126.906	-0.046	-0.058
-550.369	173.224	-0.050	0.072
-549.354	405.757	-0.048	-0.101
-548.339	39.743	0.270	-0.242
-547.325	142.309	0.066	-0.088
-546.310	-139.855	0.204	0.022
-545.296	-10.453	-0.089	-0.059
-544.281	432.717	-0.121	-0.262
-543.266	444.799	-0.119	-0.260
-542.252	2.804	0.029	-0.021
-541.237	-200.000	-0.057	-0.283
-540.223	800.000	-0.071	-0.204
-539.208	800.000	-0.033	0.141
-538.193	-77.172	-0.121	-0.042
-537.179	0.162	-0.130	0.093
-536.164	83.292	-0.051	-0.056
-535.150	76.132	-0.176	0.186
-534.135	481.726	0.074	0.168
-533.121	509.751	0.178	-0.414
-532.106	-96.426	-0.299	-0.079
-531.091	-200.000	0.022	-0.098
-530.077	-137.727	-0.227	0.025
-529.062	-200.000	-0.036	0.454
-528.048	-31.945	0.478	-0.267
-527.033	-200.000	0.015	-0.409
-526.018	27.312	0.397	0.333
-525.004	10.852	0.130	0.099
-523.989	-82.789	-0.215	-0.069
-522.975	-14.147	-0.266	-0.171
-521.960	19.392	0.224	-0.179
-520.945	-154.618	-0.308	0.021
-519.931	-68.421	0.110	0.043
-518.916	-200.000	-0.045	-0.247
-517.902	-51.917	-0.230	0.107
-516.887	-103.724	-0.121	0.028
-515.872	374.791	-0.036	-0.073
-514.858	-60.385	0.254	0.108
-513.843	514.422	-0.190	0.443
-512.829	55.456	-0.064	0.062
-511.814	492.468	0.133	0.304
-510.799	-3.825	0.139	-0.097
-509.785	-86.214	0.235	0.072
-508.770	145.419	0.086	-0.115
-507.756	1.426	-0.096	0.069
-506.741	800.000	-0.083	0.297
-505.726	-11.025	-0.159	0.105
-504.712	-85.816	-0.079	-0.024
-503.697	-97.518	0.192	-0.050
-502.683	189.915	0.187	0.280
-501.668	-200.000	-0.011	0.131
-500.653	-200.000	0.035	0.300
-499.639	-48.394	-0.205	0.099
-498.624	-111.663	0.216	-0.044
-497.610	-200.000	-0.029	-0.272
-496.595	132.019	0.031	0.040
-495.581	800.000	-0.091	-0.301
-494.566	-97.756	-0.138	0.036
-493.551	-103.874	0.126	0.029
-492.537	-200.000	0.001	0.011
-491.522	347.186	0.134	0.263
-490.508	29.517	-0.276	0.234
-489.493	21.023	0.180	-0.145
-488.478	219.341	0.092	0.146
-487.464	-200.000	0.055	-0.274
-486.449	-115.221	-0.252	-0.048
-485.435	-97.680	-0.142	0.037
-484.420	-96.351	-0.345	0.091
-483.405	3.406	0.271	-0.196
-482.391	394.627	0.278	0.577
-481.376	-165.637	0.177	0.008
-480.362	-64.533	-0.299	-0.121
-479.347	202.494	0.160	0.247
-478.332	-200.000	0.007	0.129
-477.318	482.801	0.134	0.304
-476.303	-82.212	0.183	-0.059
-475.289	-108.782	-0.073	0.016
-474.274	-200.000	-0.010	0.263
-473.259	-48.213	0.454	-0.218
-472.245	800.000	0.138	-0.554
-471.230	-200.000	-0.003	0.277
-470.216	683.353	-0.108	-0.282
-469.201	248.548	-0.227	0.382
-468.186	-131.631	0.177	0.023
-467.172	208.132	-0.123	-0.192
-466.157	-200.000	0.238	-0.000
-465.143	-200.000	-0.026	-0.365
-464.128	32.736	0.175	-0.150
-463.113	-36.994	0.140	0.075
-462.099	-137.605	0.278	-0.031
-461.084	-200.000	0.003	-0.053
-460.070	63.969	0.295	-0.295
-459.055	-96.964	0.463	0.121
-458.040	800.000	-0.114	-0.452
-457.026	-84.724	0.247	0.078
-456.011	646.517	0.141	0.358
-454.997	117.928	0.065	-0.080
-453.982	-87.104	0.127	-0.039
-452.968	206.865	0.105	0.162
-451.953	-200.000	-0.056	0.277
-450.938	-48.318	-0.222	0.106
-449.924	-96.633	0.324	-0.085
-448.909	170.279	-0.038	-0.054
-447.895	45.020	0.165	0.151
-446.880	800.000	0.081	-0.243
-445.865	147.893	0.113	-0.152
-444.851	6.258	-0.208	-0.153
-443.836	180.072	0.162	0.236
-442.822	-48.454	-0.157	0.075
-441.807	-200.000	0.020	-0.373
-440.792	177.490	0.105	-0.152
-439.778	-200.000	-0.017	0.243
-438.763	-200.000	0.112	0.494
-437.749	158.184	-0.236	0.325
-436.734	-55.365	-0.261	0.117
-435.719	480.277	-0.033	-0.074
-434.705	-200.000	-0.032	-0.194
-433.690	800.000	0.088	-0.272
-432.676	186.859	-0.049	0.073
-431.661	-97.765	-0.105	0.027
-430.646	-125.880	0.326	-0.049
-429.632	54.123	-0.031	-0.030
-428.617	-86.734	0.497	0.151
-427.603	16.876	-0.368	-0.289
-426.588	520.830	0.040	0.093
-425.573	-200.000	0.008	0.079
-424.559	303.042	-0.096	-0.177
-423.544	-9.801	0.318	0.210
-422.530	-200.000	-0.309	-0.001
-421.515	-200.000	-0.042	-0.231
-420.500	-99.713	-0.203	0.051
-419.486	346.490	0.146	-0.285
-418.471	-18.421	-0.215	-0.134
-417.457	7.956	0.236	0.176
-416.442	447.575	-0.100	0.219
-415.428	800.000	-0.087	-0.299
-414.413	-46.871	0.249	-0.121
-413.398	126.773	-0.187	-0.235
-412.384	66.752	-0.215	-0.218
-411.369	-109.747	0.263	-0.055
-410.355	491.245	-0.079	0.180
-409.340	-133.442	0.352	0.044
-408.325	110.827	0.255	0.305
-407.311	-200.000	-0.010	-0.095
-406.296	689.639	-0.054	-0.140
-405.282	800.000	-0.046	-0.181
-404.267	-5.964	-0.320	0.217
-403.252	92.136	0.047	-0.053
-402.238	800.000	0.036	0.139
-401.223	-97.458	-0.073	-0.019
-400.209	290.889	-0.092	0.167
-399.194	34.223	-0.103	0.089
-398.179	-200.000	-0.036	0.263
-397.165	-200.000	0.018	0.192
-396.150	-200.000	-0.014	0.204
-395.136	-119.708	0.208	-0.036
-394.121	-200.000	-0.037	-0.179
-393.106	800.000	-0.020	-0.064
-392.092	-113.219	0.128	0.025
-391.077	-2.573	-0.199	-0.138
-390.063	-89.474	0.188	0.055
-389.048	-200.000	0.045	-0.416
-388.033	-23.007	-0.261	0.156
-387.019	245.737	-0.033	0.056
-386.004	-83.881	-0.116	-0.037
-384.990	-139.175	-0.374	-0.040
-383.975	5.613	0.155	-0.113
-382.960	-139.989	-0.287	-0.030
-381.946	-9.999	0.126	-0.083
-380.931	-200.000	0.073	-0.442
-379.917	18.475	0.222	-0.176
-378.902	436.448	0.095	0.206
-377.888	86.032	-0.157	-0.171
-376.873	-50.072	-0.245	0.115
-375.858	7.809	-0.065	-0.048
-374.844	471.052	0.048	0.108
-373.829	-126.995	0.229	-0.033
-372.815	-102.653	0.243	0.058
-371.800	-172.181	-0.253	0.008
-370.785	20.434	-0.043	0.034
-369.771	-200.000	-0.016	0.103
-368.756	244.278	0.010	0.017
-367.742	192.974	-0.342	0.513
-366.727	-29.124	0.113	-0.064
-365.712	-99.599	-0.038	-0.010
-364.698	99.488	-0.157	0.180
-363.683	-200.000	0.034	-0.274
-362.669	-52.290	0.376	0.173
-361.654	-133.384	-0.169	0.021
-360.639	-200.000	-0.019	-0.088
-359.625	-66.567	0.237	-0.093
-358.610	212.457	-0.072	0.113
-357.596	-200.000	0.010	0.179
-356.581	-9.237	-0.234	-0.155
-355.566	708.435	-0.059	0.155
-354.552	-47.172	-0.180	-0.087
-353.537	116.396	-0.162	-0.197
-352.523	-126.497	-0.131	-0.019
-351.508	-1.681	0.299	-0.209
-350.493	554.643	0.179	0.428
-349.479	-200.000	0.024	-0.185
-348.464	800.000	-0.059	0.235
-347.450	-200.000	0.028	0.161
-346.435	350.274	0.024	0.048
-345.420	-51.972	-0.234	-0.108
-344.406	-200.000	0.043	-0.386
-343.391	-100.522	-0.218	-0.054
-342.377	-200.000	0.007	0.105
-341.362	-35.744	-0.167	-0.089
-340.348	69.385	-0.054	0.055
-339.333	800.000	0.104	0.423
-338.318	-82.499	-0.220	0.071
-337.304	-200.000	-0.034	-0.218
-336.289	-170.654	0.177	-0.006
-335.275	152.936	-0.219	-0.296
-334.260	-128.974	-0.236	0.033
-333.245	-117.350	-0.008	0.001
-332.231	10.024	0.237	-0.179
-331.216	-200.000	0.005	0.090
-330.202	100.855	0.217	-0.250
-329.187	-61.848	0.277	-0.115
-328.172	-88.790	0.260	-0.077
-327.158	-154.148	-0.141	-0.009
-326.143	-200.000	-0.044	-0.263
-325.129	-156.425	-0.080	0.005
-324.114	-116.317	-0.274	0.050
-323.099	71.340	-0.082	-0.085
-322.085	-140.046	-0.028	-0.003
-321.070	336.767	-0.143	0.275
-320.056	-154.136	-0.286	0.019
-319.041	-23.535	0.127	-0.076
-318.026	-93.558	-0.356	0.098
-317.012	108.909	0.113	-0.134
-315.997	448.363	-0.078	-0.170
-314.983	195.165	-0.186	-0.280
-313.968	69.573	0.230	0.235
-312.953	-200.000	0.027	0.123
-311.939	-42.903	0.283	-0.142
-310.924	-86.392	-0.207	-0.063
-309.910	-200.000	-0.026	-0.123
-308.895	-3.363	-0.238	-0.164
-307.880	14.471	-0.105	0.081
-306.866	-77.815	0.166	0.057
-305.851	800.000	-0.077	0.212
-304.837	-196.040	0.137	0.001
-303.822	47.177	0.319	0.294
-302.807	-55.781	0.265	0.117
-301.793	-138.348	-0.102	-0.011
-300.778	471.100	-0.134	-0.297
-299.764	253.605	-0.056	-0.095
-298.749	-73.379	0.239	0.087
-297.735	-79.404	0.319	-0.107
-296.720	224.581	-0.072	-0.115
-295.705	-67.253	0.400	0.156
-294.691	-128.929	0.280	0.039
-293.676	800.000	0.076	-0.209
-292.662	-82.368	0.343	-0.110
-291.647	-127.889	0.162	-0.023
-290.632	-200.000	-0.000	0.031
-289.618	48.697	-0.181	0.168
-288.603	-19.790	0.165	0.101
-287.589	30.783	-0.180	-0.152
-286.574	-4.841	0.214	-0.146
-285.559	584.696	0.093	0.225
-284.545	77.222	-0.218	0.229
-283.530	-105.546	-0.380	-0.085
-282.516	419.211	0.028	0.060
-281.501	591.411	-0.042	0.102
-280.486	154.536	-0.301	0.409
-279.472	14.421	-0.202	0.156
-278.457	389.955	-0.033	-0.067
-277.443	-59.495	-0.102	-0.043
-276.428	205.729	-0.116	-0.179
-275.413	124.041	0.083	0.103
-274.399	800.000	-0.044	0.134
-273.384	-44.923	-0.267	0.131
-272.370	4.770	-0.278	-0.202
-271.355	800.000	-0.069	0.259
-270.340	19.644	0.245	-0.195
-269.326	800.000	-0.099	-0.291
-268.311	-32.302	-0.444	-0.245
-267.297	-77.346	-0.017	-0.006
-266.282	-86.642	0.074	-0.022
-265.267	209.597	0.163	0.252
-264.253	-200.000	-0.016	-0.237
-263.238	-19.125	-0.182	-0.112
-262.224	-136.663	-0.241	-0.028
-261.209	479.192	-0.154	-0.344
-260.195	-156.525	0.306	-0.019
-259.180	93.734	0.203	-0.227
-258.165	22.364	-0.205	0.165
-257.151	-73.940	-0.092	0.033
-256.136	91.948	-0.188	0.209
-255.122	-108.048	0.073	0.016
-254.107	800.000	0.048	-0.172
-253.092	176.861	-0.041	-0.059
-252.078	-112.778	-0.610	0.119
-251.063	-76.090	0.297	-0.104
-250.049	-200.000	-0.015	-0.077
-249.034	-77.588	0.117	0.040
-248.019	-26.210	0.241	0.140
-247.005	-52.615	0.104	0.047
-245.990	-42.708	-0.097	-0.049
-244.976	-200.000	-0.038	-0.338
-243.961	192.451	-0.036	-0.053
-242.946	-63.118	-0.443	-0.180
-241.932	65.606	0.075	0.075
-240.917	-53.166	0.411	-0.186
-239.903	243.821	-0.181	-0.299
-238.888	-200.000	0.004	0.145
-237.873	484.219	-0.039	0.088
-236.859	-103.134	0.082	-0.019
-235.844	-200.000	0.042	-0.257
-234.830	-200.000	-0.017	0.277
-233.815	-1.907	-0.121	0.084
-232.800	-18.166	0.190	-0.118
-231.786	-4.422	-0.096	-0.066
-230.771	794.880	0.080	-0.216
-229.757	-68.226	0.078	-0.030
-228.742	547.894	-0.080	-0.189
-227.727	129.350	0.153	0.193
-226.713	103.190	-0.087	0.100
-225.698	800.000	0.061	-0.214
-224.684	567.541	0.116	-0.278
-223.669	37.320	-0.315	-0.276
-222.655	-65.839	-0.420	0.166
-221.640	-70.339	-0.273	0.102
-220.625	328.888	-0.094	-0.178
-219.611	-2.996	-0.094	0.065
-218.596	6.499	0.090	0.066
-217.582	98.188	-0.104	0.118
-216.567	800.000	-0.038	-0.119
-215.552	-45.895	0.232	0.113
-214.538	-200.000	0.010	0.147
-213.523	-200.000	-0.012	0.186
-212.509	85.596	0.234	0.253
-211.494	-130.301	0.302	-0.040
-210.479	-36.498	-0.396	0.210
-209.465	-200.000	-0.014	0.350
-208.450	-18.895	-0.114	0.070
-207.436	-78.064	0.396	0.134
-206.421	217.891	0.139	-0.218
-205.406	115.853	-0.133	0.161
-204.392	-200.000	-0.424	0.002
-203.377	1.196	0.201	0.142
-202.363	800.000	0.054	0.152
-201.348	-136.664	0.283	0.032
-200.333	-17.834	-0.131	-0.081
-199.319	800.000	0.035	0.148
-198.304	554.748	0.079	0.187
-197.290	172.029	-0.102	0.144
-196.275	-53.811	0.258	0.116
-195.260	-200.000	-0.001	-0.238
-194.246	37.585	-0.115	0.101
-193.231	27.796	0.113	-0.094
-192.217	-66.392	-0.064	0.025
-191.202	481.318	0.120	-0.268
-190.187	-90.168	0.398	0.114
-189.173	-162.554	0.197	0.010
-188.158	-124.936	0.207	0.031
-187.144	-200.000	0.005	0.055
-186.129	156.892	0.080	-0.108
-185.114	-187.646	0.201	-0.003
-184.100	-109.036	0.103	0.022
-183.085	-136.337	-0.078	0.009
-182.071	114.145	0.123	0.147
-181.056	7.748	-0.234	0.173
-180.042	-20.407	0.090	-0.055
-179.027	-21.700	0.270	0.162
-178.012	126.223	-0.180	-0.224
-176.998	-41.822	-0.417	-0.210
-175.983	-52.244	0.228	-0.104
-174.969	-126.219	-0.220	-0.032
-173.954	-146.207	0.101	0.009
-172.939	-110.489	0.139	0.028
-171.925	-88.770	0.387	-0.113
-170.910	-146.172	0.251	-0.022
-169.896	19.635	0.168	-0.133
-168.881	-161.416	-0.352	-0.018
-167.866	-200.000	0.083	-0.358
-166.852	90.007	-0.172	-0.189
-165.837	55.704	0.175	0.167
-164.823	107.234	-0.039	0.046
-163.808	-12.783	-0.164	-0.105
-162.793	-68.758	0.072	-0.027
-161.779	-200.000	-0.032	0.245
-160.764	103.147	-0.215	-0.248
-159.750	-200.000	0.021	-0.111
-158.735	-200.000	-0.023	0.230
-157.720	800.000	0.159	0.447
-156.706	-120.941	0.183	-0.030
-155.691	-34.775	0.271	0.146
-154.677	-200.000	0.074	0.000
-153.662	-76.647	0.032	0.011
-152.647	-200.000	0.006	0.269
-151.633	-110.569	-0.055	0.011
-150.618	-184.113	0.203	0.003
-149.604	155.062	0.188	0.255
-148.589	-12.667	0.143	-0.092
-147.574	15.663	0.177	-0.136
-146.560	800.000	0.103	-0.312
-145.545	56.647	-0.276	-0.264
-144.531	-141.759	-0.335	-0.033
-143.516	-134.218	0.182	-0.022
-142.502	124.780	0.159	0.197
-141.487	800.000	0.145	0.534
-140.472	-90.655	0.206	0.059
-139.458	294.014	0.156	-0.281
-138.443	52.003	-0.486	-0.455
-137.429	138.051	-0.085	-0.109
-136.414	69.645	0.137	0.139
-135.399	179.964	0.068	-0.097
-134.385	800.000	0.026	0.098
-133.370	-30.909	-0.191	0.106
-132.356	2.605	0.181	-0.129
-131.341	60.894	-0.123	0.120
-130.326	800.000	0.038	0.129
-129.312	-137.087	-0.396	-0.044
-128.297	-84.698	0.257	0.079
-127.283	111.624	0.082	0.097
-126.268	653.628	-0.064	-0.160
-125.253	290.239	0.103	-0.183
-124.239	-200.000	-0.012	-0.081
-123.224	-74.919	-0.051	0.018
-122.210	310.241	-0.053	-0.098
-121.195	-191.575	0.526	-0.005
