DTS Sentinel unit serial number:	SN413079Multiplexer serial number:	ORYXHardware model number:	OX4-SRSoftware version number:	ORYX F/W v4.00 Oryx Data Collector v3.7.2.0data status	okinstallation	princeton_trtdifferential loss correction	single-endedforward channel	channel 2reverse channel	N/Adate	2019/09/12time	05:37:11forward acquisition time	60.00reverse acquisition time	0.00gamma	496.2192k internal	0.2325k external	0.2325temperature offset calibration	1.0064default loss term (dB/km)	0.3790temperature slope calibration	1.0000multiplexer offset coefficient	1.0000multiplexer slope coefficient	1.0000fibre end	0.00T internal ref (°C)	31.98T ext. ref 1 (°C)	1.60T ext. ref 2 (°C)	27.51length (m)	temperature (°C)	Stokes	anti-Stokes-747.200	162.940	0.046	-0.065
-746.185	-89.150	-0.572	-0.171
-745.171	350.277	-0.046	0.092
-744.156	-115.957	-0.067	0.013
-743.142	-200.000	-0.028	-0.398
-742.127	72.173	0.090	-0.095
-741.112	-200.000	0.021	-0.325
-740.098	150.735	-0.251	0.345
-739.083	89.354	-0.326	0.367
-738.069	800.000	-0.039	0.153
-737.054	-200.000	-0.019	-0.260
-736.039	47.773	-0.247	-0.233
-735.025	172.061	0.109	0.159
-734.010	-129.852	-0.497	0.069
-732.996	388.638	-0.071	-0.149
-731.981	89.923	0.014	-0.016
-730.966	303.622	0.040	0.075
-729.952	-96.637	0.209	-0.055
-728.937	-19.610	-0.055	-0.034
-727.923	14.666	-0.119	-0.094
-726.908	-118.429	0.125	-0.022
-725.894	43.812	0.078	-0.072
-724.879	-159.018	-0.240	0.014
-723.864	800.000	-0.049	-0.184
-722.850	-200.000	0.035	-0.159
-721.835	-136.935	-0.115	0.013
-720.821	-23.828	0.193	0.116
-719.806	-200.000	-0.036	-0.243
-718.791	-113.531	0.135	0.027
-717.777	60.978	-0.111	0.111
-716.762	286.836	0.017	-0.031
-715.748	9.137	-0.277	0.211
-714.733	-91.946	-0.348	-0.099
-713.718	-98.322	0.226	-0.058
-712.704	-200.000	-0.000	-0.067
-711.689	137.714	-0.144	-0.190
-710.675	3.995	0.119	-0.088
-709.660	-178.904	-0.454	0.010
-708.645	800.000	-0.150	0.447
-707.631	-104.637	-0.131	0.030
-706.616	439.087	0.084	0.184
-705.602	84.971	-0.181	-0.200
-704.587	-18.508	-0.031	0.019
-703.572	-134.553	0.074	0.009
-702.558	-69.790	-0.034	0.013
-701.543	-200.000	0.036	0.184
-700.529	-200.000	-0.004	-0.114
-699.514	33.945	-0.239	-0.210
-698.499	-90.294	-0.198	-0.058
-697.485	212.008	-0.219	-0.347
-696.470	-165.439	0.106	0.005
-695.456	-18.310	0.253	-0.160
-694.441	800.000	-0.045	-0.156
-693.426	785.821	0.061	0.167
-692.412	51.340	-0.189	0.181
-691.397	-16.614	0.096	0.061
-690.383	15.990	0.133	-0.106
-689.368	-37.477	0.414	-0.222
-688.354	800.000	-0.039	-0.158
-687.339	800.000	-0.018	-0.057
-686.324	-200.000	0.009	0.213
-685.310	-98.484	-0.529	0.136
-684.295	-37.480	-0.098	-0.053
-683.281	2.498	-0.300	0.219
-682.266	-28.162	-0.476	0.277
-681.251	615.560	-0.126	0.317
-680.237	-72.674	-0.130	0.048
-679.222	-158.994	-0.561	-0.032
-678.208	-200.000	-0.000	-0.177
-677.193	-11.445	-0.224	-0.148
-676.178	-109.650	0.133	-0.028
-675.164	74.708	0.161	-0.170
-674.149	-200.000	-0.033	-0.320
-673.135	57.992	-0.058	0.058
-672.120	134.044	-0.113	0.148
-671.105	-114.495	-0.403	0.078
-670.091	-104.080	0.106	0.025
-669.076	-173.149	-0.335	0.010
-668.062	397.743	-0.088	0.184
-667.047	20.402	0.181	0.147
-666.032	-200.000	-0.046	-0.271
-665.018	47.184	0.219	-0.205
-664.003	-82.498	0.106	0.034
-662.989	12.138	-0.436	0.337
-661.974	800.000	0.014	-0.060
-660.959	126.534	0.082	0.104
-659.945	-200.000	-0.017	-0.076
-658.930	-115.591	-0.513	-0.097
-657.916	800.000	0.048	-0.158
-656.901	-135.010	0.186	-0.023
-655.886	193.276	-0.166	-0.253
-654.872	156.632	0.150	-0.209
-653.857	28.478	0.166	0.141
-652.843	339.583	-0.076	0.149
-651.828	29.600	0.251	0.215
-650.814	-64.206	-0.078	-0.032
-649.799	-153.643	-0.393	-0.027
-648.784	5.298	-0.212	-0.157
-647.770	800.000	-0.111	-0.374
-646.755	44.557	0.117	-0.108
-645.741	-200.000	0.048	-0.328
-644.726	54.966	-0.280	-0.271
-643.711	234.191	0.269	0.446
-642.697	247.999	-0.175	-0.297
-641.682	-200.000	0.009	-0.244
-640.668	638.641	0.108	0.277
-639.653	800.000	-0.078	0.248
-638.638	800.000	0.054	0.208
-637.624	159.261	-0.094	-0.131
-636.609	-80.859	0.146	-0.049
-635.595	355.274	0.040	-0.079
-634.580	-136.297	0.083	0.010
-633.565	526.945	0.119	-0.282
-632.551	-200.000	0.442	-0.001
-631.536	6.430	-0.110	0.082
-630.522	-132.066	-0.115	-0.015
-629.507	460.998	-0.018	0.039
-628.492	-83.104	-0.222	-0.072
-627.478	-182.991	-0.245	0.004
-626.463	640.544	-0.045	0.115
-625.449	-118.843	0.123	-0.022
-624.434	-128.207	-0.248	-0.036
-623.419	36.799	-0.303	-0.269
-622.405	-126.753	-0.436	0.065
-621.390	-200.000	0.019	-0.086
-620.376	103.417	-0.233	0.274
-619.361	-66.365	0.078	0.031
-618.346	67.405	-0.223	0.229
-617.332	-200.000	-0.020	-0.211
-616.317	46.232	0.238	-0.222
-615.303	150.242	-0.088	-0.120
-614.288	-104.060	-0.128	-0.030
-613.273	-200.000	0.034	0.363
-612.259	-200.000	-0.007	0.206
-611.244	328.527	-0.166	0.320
-610.230	629.369	0.025	0.063
-609.215	36.310	-0.294	-0.260
-608.201	-200.000	0.053	-0.252
-607.186	14.582	0.175	-0.137
-606.171	73.588	-0.064	0.068
-605.157	291.729	-0.057	0.104
-604.142	766.260	0.032	0.087
-603.128	-200.000	0.035	0.456
-602.113	-12.407	0.157	0.103
-601.098	148.749	0.215	0.291
-600.084	58.048	-0.123	-0.121
-599.069	-3.925	-0.047	-0.033
-598.055	441.858	-0.157	-0.344
-597.040	396.584	0.161	-0.338
-596.025	-42.033	0.439	-0.225
-595.011	-200.000	0.004	-0.025
-593.996	-61.109	-0.275	-0.116
-592.982	588.456	0.081	-0.201
-591.967	-200.000	0.012	-0.396
-590.952	800.000	0.015	-0.046
-589.938	-155.794	-0.301	-0.019
-588.923	19.615	-0.110	0.089
-587.909	-10.700	0.125	0.083
-586.894	800.000	0.058	-0.188
-585.879	800.000	-0.026	-0.099
-584.865	-74.864	0.171	0.061
-583.850	-200.000	0.007	-0.240
-582.836	-31.423	-0.309	0.174
-581.821	-173.415	0.370	0.011
-580.806	-82.505	-0.297	0.097
-579.792	8.813	0.137	-0.104
-578.777	80.561	0.126	0.136
-577.763	761.524	-0.026	0.070
-576.748	38.931	-0.348	-0.312
-575.733	28.808	0.209	-0.177
-574.719	-76.857	0.106	-0.037
-573.704	47.113	0.158	0.147
-572.690	160.560	-0.149	0.209
-571.675	47.540	0.203	0.190
-570.661	-21.772	-0.230	0.140
-569.646	147.895	0.053	-0.071
-568.631	-188.942	0.250	-0.003
-567.617	174.756	-0.103	0.149
-566.602	431.441	0.112	-0.244
-565.588	143.691	-0.233	-0.312
-564.573	-17.967	-0.472	-0.296
-563.558	0.985	0.244	0.175
-562.544	246.376	-0.016	-0.027
-561.529	-77.858	0.336	-0.116
-560.515	-200.000	0.013	0.299
-559.500	-200.000	-0.010	-0.243
-558.485	-121.561	-0.131	0.022
-557.471	125.262	-0.399	0.503
-556.456	-71.176	-0.224	-0.084
-555.442	-92.994	0.084	-0.023
-554.427	-42.285	-0.311	-0.159
-553.412	800.000	0.019	0.053
-552.398	26.120	-0.158	-0.132
-551.383	-30.854	-0.336	0.190
-550.369	800.000	0.057	0.228
-549.354	-67.377	-0.228	-0.090
-548.339	-19.656	-0.114	0.071
-547.325	96.807	-0.328	0.377
-546.310	-55.247	-0.059	0.026
-545.296	-173.743	0.198	0.006
-544.281	-158.703	0.368	0.021
-543.266	-111.230	-0.266	0.054
-542.252	30.729	0.098	-0.084
-541.237	38.510	-0.114	-0.101
-540.223	330.525	-0.129	0.248
-539.208	-200.000	-0.085	0.392
-538.193	178.774	-0.115	-0.169
-537.179	-200.000	-0.057	0.287
-536.164	-200.000	-0.016	-0.089
-535.150	109.847	0.067	-0.081
-534.135	301.050	-0.178	-0.329
-533.121	-200.000	-0.009	0.055
-532.106	149.187	-0.196	0.265
-531.091	-200.000	-0.046	-0.256
-530.077	315.757	-0.124	0.234
-529.062	-161.376	0.160	0.008
-528.048	-200.000	-0.013	0.439
-527.033	120.481	-0.042	-0.052
-526.018	-143.929	0.161	-0.015
-525.004	213.539	-0.008	-0.012
-523.989	-143.037	-0.127	0.012
-522.975	-113.361	-0.340	0.067
-521.960	-119.562	-0.278	0.048
-520.945	800.000	0.048	-0.139
-519.931	-8.846	-0.054	-0.036
-518.916	800.000	0.118	0.359
-517.902	31.015	-0.299	0.257
-516.887	33.324	-0.186	-0.161
-515.872	-200.000	0.009	-0.158
-514.858	190.750	-0.142	-0.213
-513.843	800.000	0.027	-0.110
-512.829	312.539	0.112	-0.211
-511.814	-33.551	-0.100	0.055
-510.799	-84.142	-0.282	-0.090
-509.785	800.000	-0.043	0.157
-508.770	510.134	0.019	0.045
-507.756	-55.596	0.203	-0.091
-506.741	196.514	-0.197	0.301
-505.726	-117.113	0.093	-0.017
-504.712	726.047	-0.057	-0.153
-503.697	603.357	0.081	0.201
-502.683	-200.000	0.008	-0.288
-501.668	147.684	0.015	0.020
-500.653	68.770	0.119	-0.122
-499.639	-57.834	-0.236	0.103
-498.624	-101.993	-0.049	-0.012
-497.610	800.000	0.058	-0.227
-496.595	-179.617	-0.101	0.002
-495.581	43.642	-0.081	-0.074
-494.566	-200.000	0.065	0.341
-493.551	405.113	-0.243	0.512
-492.537	-54.835	-0.067	-0.030
-491.522	-31.884	-0.168	-0.094
-490.508	-111.837	0.205	0.041
-489.493	-134.610	-0.313	-0.038
-488.478	-200.000	-0.044	-0.191
-487.464	53.681	-0.188	0.180
-486.449	-200.000	0.055	0.266
-485.435	-80.223	0.278	0.093
-484.420	-72.995	0.142	0.052
-483.405	-81.108	-0.054	-0.018
-482.391	-28.272	-0.193	-0.111
-481.376	-141.590	-0.192	0.019
-480.362	212.895	0.151	-0.238
-479.347	-200.000	-0.003	-0.061
-478.332	309.009	0.093	-0.174
-477.318	-92.564	0.183	-0.051
-476.303	-86.902	-0.284	0.086
-475.289	-166.903	-0.135	-0.006
-474.274	239.525	-0.130	0.216
-473.259	-29.813	0.315	-0.179
-472.245	800.000	-0.061	-0.218
-471.230	98.410	-0.158	-0.182
-470.216	113.597	0.116	-0.141
-469.201	18.025	0.170	0.135
-468.186	-131.407	-0.304	-0.040
-467.172	-19.522	0.132	-0.082
-466.157	211.074	0.018	0.028
-465.143	-71.472	-0.255	0.095
-464.128	-100.111	0.289	-0.072
-463.113	67.061	0.202	0.206
-462.099	-7.233	-0.305	0.207
-461.084	11.162	0.049	-0.037
-460.070	-106.387	-0.018	0.004
-459.055	-67.682	0.102	0.040
-458.040	-121.372	0.254	-0.042
-457.026	800.000	-0.061	-0.244
-456.011	-103.061	0.112	0.027
-454.997	229.083	-0.108	0.175
-453.982	-63.171	-0.392	0.161
-452.968	654.264	0.066	0.169
-451.953	125.150	-0.159	0.200
-450.938	156.266	-0.057	0.078
-449.924	357.089	0.026	0.052
-448.909	-17.895	-0.194	0.121
-447.895	311.424	0.063	-0.119
-446.880	519.348	-0.098	-0.229
-445.865	94.906	0.160	-0.182
-444.851	63.964	-0.155	-0.155
-443.836	-107.605	0.183	-0.040
-442.822	-127.102	0.043	-0.006
-441.807	-29.460	0.193	0.110
-440.792	-200.000	-0.027	-0.130
-439.778	-200.000	-0.003	-0.018
-438.763	-200.000	0.022	-0.162
-437.749	-200.000	-0.003	-0.125
-436.734	-200.000	0.006	-0.070
-435.719	-80.484	-0.298	0.099
-434.705	-162.383	0.397	0.020
-433.690	65.009	0.399	0.401
-432.676	-20.966	0.124	-0.076
-431.661	-200.000	-0.004	0.031
-430.646	565.776	0.087	-0.210
-429.632	97.174	-0.078	-0.089
-428.617	177.533	-0.069	0.100
-427.603	-100.043	-0.518	-0.129
-426.588	471.535	-0.121	0.271
-425.573	-200.000	0.002	0.051
-424.559	71.118	0.216	-0.223
-423.544	-30.048	0.106	-0.060
-422.530	175.521	-0.124	0.179
-421.515	-200.000	0.011	0.133
-420.500	-200.000	0.023	0.136
-419.486	800.000	-0.024	-0.088
-418.471	-200.000	0.001	-0.241
-417.457	-50.067	-0.127	0.060
-416.442	800.000	-0.068	0.271
-415.428	-56.778	0.173	0.076
-414.413	-72.402	0.349	-0.128
-413.398	-163.313	-0.087	0.004
-412.384	-28.290	0.247	0.142
-411.369	-148.982	0.031	0.002
-410.355	85.938	0.191	0.209
-409.340	165.935	-0.182	-0.257
-408.325	-23.655	0.164	-0.098
-407.311	-200.000	0.035	-0.237
-406.296	-9.038	0.178	-0.119
-405.282	-0.612	0.017	0.012
-404.267	-121.807	-0.142	0.023
-403.252	45.310	-0.206	-0.189
-402.238	800.000	-0.125	-0.377
-401.223	102.412	0.103	0.119
-400.209	800.000	-0.022	0.068
-399.194	800.000	0.016	-0.056
-398.179	92.305	-0.120	0.135
-397.165	800.000	0.041	-0.119
-396.150	-133.789	0.192	0.024
-395.136	235.401	0.171	0.282
-394.121	-31.991	-0.115	-0.064
-393.106	540.611	0.076	-0.179
-392.092	-2.608	0.158	-0.110
-391.077	-200.000	0.017	-0.168
-390.063	292.794	0.014	-0.025
-389.048	-91.035	0.269	0.077
-388.033	-64.069	0.139	0.056
-387.019	16.810	0.257	-0.202
-386.004	-25.861	-0.304	-0.178
-384.990	-74.507	-0.059	-0.021
-383.975	528.710	0.071	-0.166
-382.960	-5.492	0.246	-0.168
-381.946	-68.490	-0.092	-0.036
-380.931	-200.000	0.022	-0.225
-379.917	51.349	-0.054	0.051
-378.902	15.661	-0.235	-0.184
-377.888	-92.976	0.289	-0.080
-376.873	-200.000	0.003	-0.021
-375.858	-134.338	-0.040	0.005
-374.844	118.388	0.220	0.270
-373.829	40.349	0.246	-0.220
-372.815	-153.815	0.079	-0.005
-371.800	-200.000	-0.008	0.220
-370.785	281.872	0.146	0.259
-369.771	-200.000	-0.072	0.460
-368.756	-130.694	0.251	0.034
-367.742	84.724	0.204	-0.222
-366.727	-109.697	0.076	0.016
-365.712	-200.000	0.023	-0.139
-364.698	-72.231	0.031	0.011
-363.683	-91.997	0.219	0.062
-362.669	41.671	0.042	-0.038
-361.654	800.000	-0.049	-0.152
-360.639	86.354	-0.114	-0.125
-359.625	48.588	-0.098	0.091
-358.610	180.578	0.126	-0.183
-357.596	800.000	-0.041	-0.123
-356.581	800.000	-0.047	-0.146
-355.566	482.378	-0.111	-0.250
-354.552	-117.290	0.265	0.048
-353.537	88.715	0.096	0.106
-352.523	-142.718	-0.292	0.028
-351.508	-200.000	-0.041	0.330
-350.493	-200.000	0.031	-0.138
-349.479	-106.795	-0.267	0.059
-348.464	281.016	-0.116	0.207
-347.450	118.286	0.106	0.130
-346.435	-109.514	0.174	0.037
-345.420	272.199	0.126	0.221
-344.406	-118.185	0.297	-0.053
-343.391	-31.296	-0.118	-0.066
-342.377	-200.000	-0.087	-0.413
-341.362	22.341	-0.154	0.125
-340.348	117.599	0.064	0.078
-339.333	206.157	0.111	-0.171
-338.318	-200.000	0.044	0.294
-337.304	-200.000	-0.007	0.098
-336.289	-77.852	0.198	-0.068
-335.275	-115.503	0.334	0.062
-334.260	-110.510	0.242	-0.050
-333.245	193.337	0.087	0.131
-332.231	800.000	0.039	-0.135
-331.216	800.000	0.081	-0.253
-330.202	17.182	-0.098	-0.077
-329.187	-200.000	0.071	0.332
-328.172	-4.477	0.025	-0.017
-327.158	16.238	-0.056	-0.044
-326.143	-91.449	-0.188	0.053
-325.129	187.523	0.080	-0.118
-324.114	98.570	0.042	-0.048
-323.099	-84.378	-0.229	-0.072
-322.085	-43.290	0.176	-0.088
-321.070	12.944	0.083	0.064
-320.056	-3.178	0.381	0.263
-319.041	-174.502	0.316	0.009
-318.026	724.222	-0.087	-0.230
-317.012	-58.407	0.245	-0.106
-315.997	202.212	-0.107	-0.164
-314.983	70.293	-0.106	-0.108
-313.968	-25.763	0.374	-0.219
-312.953	-200.000	-0.032	0.154
-311.939	800.000	-0.044	0.176
-310.924	203.088	0.139	-0.214
-309.910	-8.772	0.041	-0.027
-308.895	-93.395	-0.099	0.027
-307.880	505.836	-0.131	0.301
-306.866	-56.627	0.082	-0.036
-305.851	-186.384	-0.206	0.003
-304.837	-175.071	-0.191	0.005
-303.822	-26.712	-0.102	-0.059
-302.807	166.308	0.106	-0.149
-301.793	-200.000	-0.019	0.145
-300.778	64.999	-0.172	-0.172
-299.764	-70.816	-0.177	0.066
-298.749	410.792	0.015	-0.032
-297.735	75.422	-0.264	-0.276
-296.720	-167.053	0.475	0.019
-295.705	800.000	-0.028	-0.082
-294.691	-200.000	0.073	-0.329
-293.676	72.053	-0.281	0.290
-292.662	98.037	0.215	0.245
-291.647	-200.000	0.048	0.374
-290.632	800.000	-0.073	0.263
-289.618	-137.445	-0.259	-0.029
-288.603	-200.000	-0.003	-0.247
-287.589	-148.816	-0.431	-0.035
-286.574	-5.258	-0.146	-0.100
-285.559	-82.589	-0.324	0.104
-284.545	-200.000	-0.056	0.624
-283.530	-67.818	0.221	-0.085
-282.516	800.000	0.041	-0.114
-281.501	-184.811	0.261	0.004
-280.486	800.000	0.059	-0.182
-279.472	29.444	0.317	-0.267
-278.457	30.778	-0.224	-0.190
-277.443	486.990	0.010	0.023
-276.428	-32.899	0.184	0.101
-275.413	437.091	-0.155	-0.335
-274.399	-27.353	0.043	0.025
-273.384	37.778	-0.137	0.120
-272.370	-122.687	0.485	-0.078
-271.355	-185.421	0.119	-0.002
-270.340	800.000	0.026	-0.090
-269.326	16.945	0.077	0.061
-268.311	517.792	0.060	-0.138
-267.297	-200.000	-0.032	0.206
-266.282	28.374	0.122	-0.102
-265.267	-26.617	0.163	0.094
-264.253	-200.000	0.053	-0.312
-263.238	-200.000	0.011	0.249
-262.224	-19.650	0.276	0.169
-261.209	-200.000	-0.024	0.166
-260.195	-114.158	-0.166	-0.032
-259.180	-133.909	0.024	-0.003
-258.165	-200.000	0.025	-0.252
-257.151	90.588	-0.178	0.197
-256.136	800.000	0.056	-0.206
-255.122	-200.000	-0.025	-0.375
-254.107	178.579	-0.001	0.001
-253.092	-6.489	0.162	-0.109
-252.078	142.584	-0.142	0.186
-251.063	-144.219	0.284	0.026
-250.049	-96.275	0.151	0.040
-249.034	-200.000	-0.051	0.262
-248.019	45.852	0.040	0.037
-247.005	-112.257	-0.031	0.006
-245.990	-3.758	-0.222	0.153
-244.976	330.782	-0.068	-0.130
-243.961	-20.564	-0.184	0.112
-242.946	173.310	0.037	-0.053
-241.932	261.506	-0.080	0.136
-240.917	-200.000	0.019	-0.107
-239.903	-122.658	-0.048	0.008
-238.888	-77.597	-0.067	0.023
-237.873	74.726	0.091	0.095
-236.859	34.464	0.131	-0.113
-235.844	-200.000	0.060	-0.366
-234.830	-200.000	0.070	-0.312
-233.815	416.078	0.127	-0.268
-232.800	59.678	-0.321	-0.313
-231.786	-89.963	0.318	-0.092
-230.771	-16.515	-0.277	-0.173
-229.757	-103.109	-0.264	0.062
-228.742	-67.417	-0.282	0.109
-227.727	-117.011	-0.199	0.036
-226.713	90.324	-0.060	0.067
-225.698	196.051	0.048	0.072
-224.684	292.552	-0.157	0.283
-223.669	54.020	0.138	0.131
-222.655	-200.000	0.005	0.106
-221.640	19.305	0.167	-0.132
-220.625	22.628	-0.229	-0.185
-219.611	4.363	0.314	0.228
-218.596	-109.297	-0.227	0.048
-217.582	-200.000	-0.011	0.279
-216.567	-56.830	0.311	0.136
-215.552	-164.031	0.238	0.011
-214.538	-107.118	0.318	0.069
-213.523	800.000	-0.028	0.114
-212.509	800.000	-0.075	0.275
-211.494	387.991	-0.108	-0.221
-210.479	76.363	0.182	0.190
-209.465	262.633	-0.152	-0.261
-208.450	-171.041	-0.394	-0.013
-207.436	97.886	0.148	-0.168
-206.421	2.120	-0.198	-0.141
-205.406	495.909	0.078	-0.176
-204.392	-31.603	0.338	0.188
-203.377	-101.148	-0.101	0.024
-202.363	-132.516	0.248	-0.031
-201.348	106.468	0.251	0.294
-200.333	-103.280	0.212	0.049
-199.319	86.050	0.107	0.117
-198.304	-23.387	0.438	0.260
-197.290	-200.000	0.018	-0.221
-196.275	800.000	-0.027	0.089
-195.260	-158.247	-0.184	0.011
-194.246	-74.086	-0.168	-0.060
-193.231	83.058	0.096	0.103
-192.217	-72.425	-0.420	0.153
-191.202	-128.035	-0.029	0.004
-190.187	42.225	0.262	-0.235
-189.173	-31.307	0.331	0.184
-188.158	56.052	-0.045	0.044
-187.144	-79.798	0.142	-0.047
-186.129	290.621	-0.114	-0.204
-185.114	14.633	-0.250	-0.193
-184.100	-200.000	-0.013	0.146
-183.085	-149.045	-0.328	0.026
-182.071	-41.771	0.527	0.267
-181.056	-172.950	-0.259	-0.008
-180.042	112.890	-0.099	0.119
-179.027	182.579	-0.043	0.063
-178.012	-200.000	-0.001	-0.011
-176.998	800.000	-0.007	-0.021
-175.983	-153.548	0.180	0.012
-174.969	-179.043	-0.244	0.005
-173.954	84.018	0.263	0.283
-172.939	229.876	0.117	-0.189
-171.925	-26.940	0.230	-0.132
-170.910	800.000	-0.065	-0.212
-169.896	144.018	0.116	0.152
-168.881	94.443	0.194	0.218
-167.866	-165.343	0.129	0.006
-166.852	280.235	0.168	0.296
-165.837	92.014	0.088	-0.098
-164.823	-200.000	-0.025	0.264
-163.808	-124.142	-0.224	0.035
-162.793	567.328	-0.130	0.312
-161.779	180.270	0.061	-0.088
-160.764	34.221	0.095	-0.082
-159.750	-200.000	0.004	-0.035
-158.735	-200.000	-0.016	0.281
-157.720	800.000	0.098	0.331
-156.706	-17.773	-0.060	-0.037
-155.691	-200.000	-0.011	-0.067
-154.677	83.830	-0.193	0.208
-153.662	800.000	0.089	0.251
-152.647	-119.685	0.397	-0.068
-151.633	582.880	-0.034	0.083
-150.618	76.695	0.256	0.268
-149.604	182.464	-0.227	0.330
-148.589	-116.788	0.152	0.028
-147.574	-145.229	-0.098	0.009
-146.560	-200.000	-0.038	0.294
-145.545	-200.000	-0.037	-0.394
-144.531	800.000	0.103	-0.284
-143.516	-135.699	0.364	0.043
-142.502	-88.856	-0.263	-0.077
-141.487	-158.062	0.056	0.003
-140.472	177.508	0.125	0.179
-139.458	-200.000	0.013	0.058
-138.443	-111.326	0.191	0.038
-137.429	428.879	0.205	0.437
-136.414	71.743	-0.196	-0.200
-135.399	-67.371	0.323	-0.125
-134.385	800.000	-0.078	-0.219
-133.370	-136.536	0.120	-0.014
-132.356	0.432	-0.065	0.045
-131.341	-200.000	-0.030	0.177
-130.326	50.107	-0.201	0.187
-129.312	689.774	0.083	0.215
-128.297	77.777	0.120	0.126
-127.283	-102.355	0.028	-0.007
-126.268	-58.259	-0.186	-0.080
-125.253	181.554	-0.057	-0.083
-124.239	-84.270	0.279	-0.087
-123.224	-59.685	0.058	-0.024
-122.210	74.057	-0.222	0.229
-121.195	-57.465	-0.095	0.041
