DTS Sentinel unit serial number:	SN413079Multiplexer serial number:	ORYXHardware model number:	OX4-SRSoftware version number:	ORYX F/W v4.00 Oryx Data Collector v3.7.2.0data status	okinstallation	princeton_trtdifferential loss correction	single-endedforward channel	channel 2reverse channel	N/Adate	2019/09/10time	23:13:11forward acquisition time	60.00reverse acquisition time	0.00gamma	496.2192k internal	0.2330k external	0.2330temperature offset calibration	0.9944default loss term (dB/km)	0.3790temperature slope calibration	1.0000multiplexer offset coefficient	1.0000multiplexer slope coefficient	1.0000fibre end	0.00T internal ref (°C)	29.87T ext. ref 1 (°C)	-0.30T ext. ref 2 (°C)	23.36length (m)	temperature (°C)	Stokes	anti-Stokes-747.200	-200.000	-0.010	0.114
-746.185	-155.339	0.279	-0.018
-745.171	46.414	0.159	-0.149
-744.156	-90.166	-0.082	-0.024
-743.142	-200.000	0.047	0.208
-742.127	-137.748	-0.191	-0.022
-741.112	-200.000	-0.056	-0.265
-740.098	756.189	0.096	0.261
-739.083	-73.598	-0.255	-0.093
-738.069	-63.964	-0.224	0.092
-737.054	800.000	0.067	-0.257
-736.039	266.327	-0.107	0.188
-735.025	435.475	-0.089	-0.194
-734.010	-101.471	-0.519	-0.127
-732.996	800.000	-0.096	-0.269
-731.981	327.703	0.052	0.101
-730.966	103.863	-0.098	0.116
-729.952	56.452	0.198	-0.194
-728.937	800.000	0.016	0.067
-727.923	-100.913	-0.035	0.009
-726.908	-110.643	0.069	-0.014
-725.894	-54.643	-0.320	0.146
-724.879	201.532	-0.241	-0.374
-723.864	800.000	0.107	-0.399
-722.850	-200.000	0.001	0.261
-721.835	-200.000	-0.021	-0.168
-720.821	-103.812	-0.181	-0.043
-719.806	710.656	0.145	-0.386
-718.791	-200.000	-0.006	-0.117
-717.777	-51.988	-0.006	0.003
-716.762	-200.000	0.004	-0.065
-715.748	-95.822	0.284	-0.076
-714.733	800.000	-0.024	-0.087
-713.718	233.471	-0.022	-0.036
-712.704	800.000	0.065	-0.206
-711.689	164.822	0.034	0.048
-710.675	337.133	-0.082	0.160
-709.660	-5.886	0.077	0.053
-708.645	504.306	-0.056	0.130
-707.631	201.519	0.181	-0.280
-706.616	-200.000	-0.067	-0.429
-705.602	-98.312	0.171	0.044
-704.587	180.920	-0.033	-0.048
-703.572	-156.049	-0.231	0.015
-702.558	-39.150	-0.097	0.051
-701.543	259.485	0.063	0.109
-700.529	-26.796	0.163	-0.096
-699.514	-19.737	-0.096	0.059
-698.499	-59.711	-0.152	0.065
-697.485	-200.000	0.028	0.358
-696.470	800.000	0.087	-0.286
-695.456	314.072	0.147	-0.278
-694.441	-104.053	0.366	-0.086
-693.426	-159.173	0.176	-0.010
-692.412	-128.892	0.137	-0.019
-691.397	-200.000	-0.115	-0.000
-690.383	-122.955	0.202	-0.033
-689.368	132.157	0.160	-0.207
-688.354	800.000	-0.012	-0.049
-687.339	262.359	-0.123	0.214
-686.324	-141.825	-0.423	-0.043
-685.310	8.552	0.220	0.167
-684.295	800.000	0.063	0.178
-683.281	-122.123	-0.463	0.076
-682.266	800.000	0.030	0.103
-681.251	-111.835	0.390	-0.079
-680.237	800.000	-0.046	0.180
-679.222	53.182	0.053	-0.051
-678.208	134.539	0.172	-0.224
-677.193	40.954	-0.305	-0.276
-676.178	202.577	-0.080	-0.125
-675.164	464.599	-0.064	-0.144
-674.149	800.000	0.025	-0.070
-673.135	-200.000	0.008	-0.243
-672.120	36.276	0.384	0.340
-671.105	-158.589	-0.169	0.010
-670.091	-200.000	-0.029	-0.271
-669.076	-200.000	-0.001	-0.077
-668.062	435.118	0.026	0.057
-667.047	800.000	0.094	0.325
-666.032	14.256	-0.041	-0.032
-665.018	-106.197	-0.183	0.041
-664.003	-160.143	0.067	0.004
-662.989	173.925	-0.086	-0.125
-661.974	112.213	0.218	0.265
-660.959	-200.000	0.038	-0.209
-659.945	-142.641	-0.286	-0.028
-658.930	122.635	0.129	-0.162
-657.916	800.000	0.095	-0.280
-656.901	-200.000	-0.039	0.182
-655.886	-200.000	0.020	0.178
-654.872	178.839	0.250	-0.366
-653.857	144.962	-0.157	0.210
-652.843	-128.896	0.210	-0.030
-651.828	-200.000	0.003	-0.260
-650.814	-70.776	0.335	-0.127
-649.799	-200.000	-0.017	-0.236
-648.784	-25.814	0.169	0.100
-647.770	-3.785	0.120	0.084
-646.755	-200.000	-0.072	-0.318
-645.741	315.860	-0.080	-0.151
-644.726	388.451	0.010	-0.020
-643.711	-32.178	0.161	0.090
-642.697	-102.941	-0.446	0.106
-641.682	800.000	0.051	0.150
-640.668	-65.399	-0.147	-0.059
-639.653	-35.688	-0.121	0.066
-638.638	-23.779	0.291	-0.175
-637.624	686.096	-0.049	-0.127
-636.609	143.335	-0.071	0.094
-635.595	-200.000	-0.018	0.213
-634.580	192.567	-0.244	0.369
-633.565	42.522	-0.407	0.371
-632.551	-81.019	-0.056	0.019
-631.536	488.705	-0.112	0.257
-630.522	-78.276	-0.098	-0.034
-629.507	-200.000	0.031	-0.153
-628.492	-37.977	0.378	-0.201
-627.478	260.015	-0.129	-0.223
-626.463	-200.000	-0.000	0.297
-625.449	800.000	0.080	-0.295
-624.434	-200.000	0.000	0.063
-623.419	-200.000	-0.055	-0.344
-622.405	-45.243	0.151	-0.075
-621.390	800.000	-0.080	0.275
-620.376	-84.071	-0.265	0.084
-619.361	14.881	-0.139	0.109
-618.346	-118.936	-0.150	-0.026
-617.332	800.000	0.057	-0.162
-616.317	256.015	-0.145	-0.249
-615.303	82.903	-0.285	0.310
-614.288	800.000	-0.062	0.235
-613.273	208.015	0.087	-0.136
-612.259	667.403	-0.123	-0.317
-611.244	-50.091	0.188	-0.089
-610.230	800.000	-0.037	0.122
-609.215	191.082	0.026	-0.039
-608.201	-82.049	-0.011	-0.004
-607.186	-53.008	0.161	-0.074
-606.171	190.362	0.119	0.179
-605.157	78.631	-0.307	-0.329
-604.142	-151.511	-0.226	-0.017
-603.128	-22.242	-0.212	-0.129
-602.113	115.565	-0.254	-0.311
-601.098	-89.068	0.037	-0.011
-600.084	800.000	0.085	-0.268
-599.069	-50.804	-0.318	-0.150
-598.055	-110.433	0.149	-0.031
-597.040	-200.000	-0.034	0.432
-596.025	-65.270	-0.077	-0.031
-595.011	-97.344	-0.293	-0.077
-593.996	-200.000	-0.039	0.238
-592.982	497.753	0.161	0.370
-591.967	-200.000	0.000	-0.342
-590.952	-200.000	-0.016	0.086
-589.938	-103.726	0.250	0.059
-588.923	29.990	0.259	-0.221
-587.909	-66.672	-0.251	0.099
-586.894	-126.116	-0.430	0.065
-585.879	185.372	0.157	0.233
-584.865	-12.962	0.125	-0.081
-583.850	55.464	-0.073	0.071
-582.836	-111.852	0.314	-0.063
-581.821	103.586	-0.148	0.174
-580.806	800.000	0.107	-0.373
-579.792	-19.608	-0.324	-0.201
-578.777	-200.000	-0.018	-0.169
-577.763	-164.243	-0.316	-0.015
-576.748	-45.995	0.093	-0.046
-575.733	-0.451	0.218	0.155
-574.719	-163.927	0.113	0.005
-573.704	-112.299	-0.175	-0.035
-572.690	-83.296	-0.052	-0.017
-571.675	292.433	-0.028	-0.050
-570.661	-164.829	0.293	0.013
-569.646	151.289	0.084	-0.115
-568.631	167.963	-0.162	-0.230
-567.617	-115.464	-0.099	0.019
-566.602	82.415	0.105	-0.114
-565.588	386.330	0.156	0.321
-564.573	-101.339	0.194	0.047
-563.558	360.147	-0.228	-0.457
-562.544	-156.382	-0.106	0.007
-561.529	800.000	-0.093	-0.359
-560.515	103.602	0.090	-0.106
-559.500	-62.632	-0.238	0.099
-558.485	-26.821	0.194	-0.113
-557.471	-37.844	-0.242	0.129
-556.456	27.786	-0.294	-0.248
-555.442	-43.846	0.084	-0.042
-554.427	65.441	-0.202	0.204
-553.412	-137.492	0.417	0.047
-552.398	93.834	-0.147	-0.166
-551.383	27.321	-0.174	0.146
-550.369	-171.158	0.253	0.009
-549.354	-59.026	0.097	0.042
-548.339	-61.035	0.127	0.053
-547.325	570.814	-0.103	-0.251
-546.310	-54.467	-0.132	-0.060
-545.296	754.202	-0.169	0.455
-544.281	-80.463	-0.185	0.062
-543.266	-65.281	-0.288	-0.116
-542.252	430.324	-0.151	-0.327
-541.237	-24.674	-0.294	0.175
-540.223	-127.802	0.324	0.047
-539.208	-52.812	-0.256	-0.118
-538.193	-26.934	0.087	0.051
-537.179	275.485	-0.091	-0.161
-536.164	423.846	0.107	0.230
-535.150	-86.655	-0.122	0.037
-534.135	96.187	0.135	-0.154
-533.121	-200.000	-0.006	0.386
-532.106	364.240	-0.091	-0.183
-531.091	240.944	0.148	-0.247
-530.077	-142.500	-0.241	-0.024
-529.062	-141.021	-0.110	0.011
-528.048	69.757	0.165	0.170
-527.033	-200.000	0.019	0.109
-526.018	-78.388	0.060	-0.021
-525.004	-77.776	0.410	0.141
-523.989	622.901	-0.060	0.151
-522.975	168.664	-0.054	0.077
-521.960	44.914	-0.252	0.232
-520.945	-33.341	0.073	0.040
-519.931	-105.755	-0.107	-0.024
-518.916	-53.792	-0.137	-0.063
-517.902	78.837	0.044	-0.047
-516.887	387.397	-0.192	0.397
-515.872	-200.000	-0.016	0.292
-514.858	-200.000	-0.014	0.076
-513.843	550.004	-0.091	0.217
-512.829	-200.000	-0.000	0.282
-511.814	-200.000	0.013	-0.141
-510.799	100.774	0.152	0.176
-509.785	-110.029	0.275	-0.057
-508.770	-200.000	0.020	-0.278
-507.756	-63.427	-0.222	-0.091
-506.741	-58.229	0.363	-0.158
-505.726	57.504	-0.209	-0.204
-504.712	42.372	-0.073	-0.066
-503.697	118.681	-0.192	0.236
-502.683	-129.961	0.323	0.044
-501.668	104.138	-0.222	-0.261
-500.653	538.800	-0.079	-0.188
-499.639	-55.622	0.234	0.105
-498.624	-200.000	-0.027	-0.204
-497.610	-115.866	-0.072	-0.013
-496.595	41.849	-0.103	-0.093
-495.581	-110.569	-0.161	0.033
-494.566	-28.339	-0.332	0.191
-493.551	-181.386	-0.170	-0.003
-492.537	-200.000	-0.027	0.146
-491.522	-171.051	0.159	-0.005
-490.508	-86.352	-0.051	-0.016
-489.493	-200.000	0.024	-0.348
-488.478	114.441	0.082	0.100
-487.464	-200.000	0.031	0.347
-486.449	-8.040	0.099	0.067
-485.435	-14.443	-0.312	-0.200
-484.420	-176.225	0.125	0.003
-483.405	31.034	-0.094	0.081
-482.391	-200.000	0.038	-0.487
-481.376	734.581	0.065	0.173
-480.362	677.478	-0.098	0.254
-479.347	245.607	0.184	-0.308
-478.332	-99.715	0.125	0.031
-477.318	474.762	-0.073	0.165
-476.303	-133.792	0.048	-0.006
-475.289	-200.000	0.004	-0.102
-474.274	-200.000	0.028	0.446
-473.259	800.000	0.059	0.177
-472.245	276.602	-0.120	-0.213
-471.230	-57.040	0.185	0.081
-470.216	75.855	0.252	-0.265
-469.201	-200.000	0.034	0.225
-468.186	-4.674	-0.285	-0.196
-467.172	-101.638	-0.365	0.088
-466.157	-91.495	-0.234	-0.067
-465.143	800.000	0.049	-0.164
-464.128	-91.212	0.060	-0.017
-463.113	-129.560	0.082	0.011
-462.099	-170.143	-0.219	0.008
-461.084	39.715	-0.143	0.127
-460.070	0.342	0.266	0.189
-459.055	55.426	0.040	-0.038
-458.040	-200.000	-0.027	0.221
-457.026	-72.088	-0.167	0.062
-456.011	-34.085	0.057	0.031
-454.997	-200.000	-0.010	0.273
-453.982	87.899	-0.201	0.222
-452.968	800.000	-0.048	0.142
-451.953	7.504	0.221	0.164
-450.938	87.131	-0.122	0.135
-449.924	55.153	0.167	0.161
-448.909	-113.939	-0.319	0.062
-447.895	151.690	-0.061	-0.082
-446.880	-84.132	-0.252	0.080
-445.865	729.472	-0.085	0.227
-444.851	234.866	-0.126	0.207
-443.836	-108.126	0.324	-0.070
-442.822	-96.019	-0.277	0.073
-441.807	-137.700	-0.320	-0.036
-440.792	443.869	0.120	-0.261
-439.778	555.352	-0.128	-0.307
-438.763	800.000	0.062	0.196
-437.749	-135.284	0.152	-0.018
-436.734	-46.707	-0.097	0.047
-435.719	155.005	0.161	-0.220
-434.705	15.638	-0.133	-0.104
-433.690	800.000	0.052	-0.163
-432.676	599.224	-0.100	-0.246
-431.661	800.000	0.054	0.181
-430.646	-131.463	-0.343	-0.045
-429.632	-2.708	0.211	-0.147
-428.617	-160.634	0.139	0.007
-427.603	-200.000	0.008	-0.208
-426.588	-200.000	0.018	0.109
-425.573	185.604	-0.222	0.328
-424.559	22.081	0.174	-0.141
-423.544	-162.101	-0.166	0.008
-422.530	-9.925	-0.026	-0.017
-421.515	-200.000	0.012	0.297
-420.500	110.481	0.255	0.305
-419.486	-105.142	0.203	0.046
-418.471	-64.672	0.310	-0.125
-417.457	19.989	0.140	0.112
-416.442	31.744	0.142	-0.121
-415.428	-200.000	-0.044	-0.347
-414.413	-200.000	0.021	-0.130
-413.398	-19.481	0.238	-0.147
-412.384	153.631	-0.163	-0.222
-411.369	80.501	0.299	-0.320
-410.355	-144.082	0.332	0.031
-409.340	-37.393	-0.004	0.002
-408.325	800.000	0.054	-0.156
-407.311	-58.463	-0.033	-0.014
-406.296	310.046	-0.099	0.183
-405.282	-200.000	-0.035	-0.219
-404.267	420.573	0.036	-0.076
-403.252	461.006	-0.094	-0.208
-402.238	-92.181	0.299	-0.084
-401.223	800.000	-0.055	-0.170
-400.209	74.850	0.063	0.066
-399.194	648.064	-0.101	-0.256
-398.179	-96.235	-0.261	-0.069
-397.165	-200.000	0.002	0.150
-396.150	-44.100	0.265	-0.132
-395.136	161.280	0.158	-0.220
-394.121	105.176	0.172	-0.202
-393.106	155.669	-0.102	0.140
-392.092	-29.549	0.099	0.056
-391.077	800.000	0.028	-0.092
-390.063	481.723	0.126	-0.285
-389.048	-200.000	0.016	-0.280
-388.033	-75.035	-0.252	0.090
-387.019	-200.000	0.017	-0.282
-386.004	-200.000	0.001	-0.251
-384.990	37.327	-0.090	-0.079
-383.975	321.168	0.179	0.339
-382.960	-83.738	-0.268	-0.085
-381.946	184.735	0.107	-0.158
-380.931	-110.721	-0.335	0.069
-379.917	-200.000	0.033	-0.240
-378.902	104.689	0.133	0.156
-377.888	291.583	-0.066	-0.119
-376.873	315.181	-0.166	0.311
-375.858	25.495	-0.167	-0.138
-374.844	-200.000	-0.037	-0.276
-373.829	-34.272	0.216	-0.118
-372.815	129.307	-0.096	-0.121
-371.800	82.237	-0.118	0.127
-370.785	800.000	0.094	0.337
-369.771	800.000	0.015	0.050
-368.756	-200.000	0.005	-0.209
-367.742	-46.943	0.173	-0.084
-366.727	-97.758	0.380	-0.098
-365.712	-48.214	-0.264	-0.126
-364.698	25.523	-0.187	0.154
-363.683	619.540	0.088	-0.219
-362.669	-7.096	0.269	-0.181
-361.654	183.023	0.257	0.376
-360.639	19.453	0.151	0.120
-359.625	56.901	0.176	-0.170
-358.610	208.148	0.282	0.437
-357.596	-165.569	-0.123	0.005
-356.581	-162.787	-0.101	-0.005
-355.566	230.252	-0.012	-0.019
-354.552	219.972	-0.206	-0.328
-353.537	-156.955	-0.156	0.009
-352.523	27.745	-0.205	-0.171
-351.508	-91.077	0.414	0.118
-350.493	-36.872	0.140	0.075
-349.479	-50.431	-0.310	-0.145
-348.464	-26.286	0.046	-0.027
-347.450	385.206	0.125	0.255
-346.435	129.323	-0.163	0.206
-345.420	4.042	-0.360	-0.261
-344.406	442.691	0.078	0.170
-343.391	746.872	-0.058	0.154
-342.377	423.455	-0.164	0.349
-341.362	-182.564	-0.242	0.004
-340.348	800.000	0.005	-0.020
-339.333	68.304	0.197	0.200
-338.318	84.222	0.170	-0.184
-337.304	-157.072	-0.193	-0.012
-336.289	800.000	-0.033	-0.094
-335.275	-99.348	-0.205	-0.051
-334.260	-200.000	-0.012	0.193
-333.245	-0.606	-0.098	-0.069
-332.231	-101.347	0.111	0.027
-331.216	48.379	0.112	-0.104
-330.202	-200.000	-0.018	-0.292
-329.187	63.223	-0.225	-0.223
-328.172	-28.979	0.258	-0.147
-327.158	-200.000	0.078	-0.402
-326.143	800.000	-0.022	-0.081
-325.129	-200.000	-0.003	-0.060
-324.114	-200.000	-0.010	-0.195
-323.099	-9.715	-0.261	-0.172
-322.085	137.296	-0.015	-0.020
-321.070	711.363	0.050	0.132
-320.056	-200.000	-0.015	0.162
-319.041	-131.584	0.276	-0.036
-318.026	-115.032	-0.047	0.009
-317.012	675.368	0.131	0.338
-315.997	196.762	-0.045	-0.068
-314.983	777.727	0.138	-0.373
-313.968	-133.899	0.244	0.030
-312.953	-200.000	-0.018	0.415
-311.939	393.689	0.077	-0.159
-310.924	117.778	-0.061	0.075
-309.910	237.287	0.134	-0.221
-308.895	-47.583	0.292	0.140
-307.880	0.479	0.223	0.158
-306.866	236.441	-0.048	0.079
-305.851	28.093	-0.285	-0.238
-304.837	-30.323	-0.268	-0.151
-303.822	-169.051	0.326	0.012
-302.807	-53.348	-0.163	0.074
-301.793	83.863	0.115	0.125
-300.778	117.320	-0.175	-0.213
-299.764	-156.583	-0.087	-0.005
-298.749	4.510	-0.382	0.277
-297.735	562.286	0.099	-0.236
-296.720	121.650	0.059	-0.073
-295.705	78.592	-0.243	0.257
-294.691	73.989	0.345	0.358
-293.676	-105.813	0.211	0.047
-292.662	46.763	0.069	0.063
-291.647	-70.743	-0.167	0.062
-290.632	221.731	0.026	0.042
-289.618	-42.803	0.304	-0.153
-288.603	-100.540	0.306	-0.075
-287.589	45.510	0.119	-0.109
-286.574	800.000	-0.150	-0.413
-285.559	-172.956	0.330	-0.010
-284.545	-200.000	0.041	0.248
-283.530	-200.000	-0.028	0.243
-282.516	263.570	-0.084	0.145
-281.501	570.674	0.028	-0.068
-280.486	-200.000	0.029	0.302
-279.472	-27.309	0.448	-0.258
-278.457	-140.766	-0.249	-0.025
-277.443	116.769	-0.103	0.125
-276.428	-99.782	0.375	-0.093
-275.413	175.442	0.192	0.275
-274.399	-51.920	-0.124	-0.057
-273.384	-60.687	-0.132	0.055
-272.370	-131.640	0.221	0.029
-271.355	-59.277	0.207	0.088
-270.340	-151.150	0.119	0.009
-269.326	-151.035	0.186	-0.014
-268.311	-200.000	0.012	0.248
-267.297	-143.710	-0.157	0.015
-266.282	-200.000	0.083	0.433
-265.267	63.307	-0.170	-0.169
-264.253	-150.207	-0.111	-0.009
-263.238	-200.000	-0.013	-0.102
-262.224	-200.000	0.029	0.327
-261.209	88.353	0.050	-0.054
-260.195	-46.400	-0.378	0.184
-259.180	-97.683	0.170	-0.044
-258.165	-200.000	-0.012	-0.367
-257.151	-135.093	0.340	-0.040
-256.136	47.718	0.127	-0.117
-255.122	-140.736	0.199	-0.020
-254.107	-200.000	0.004	-0.156
-253.092	-200.000	-0.005	0.021
-252.078	-23.275	0.240	-0.142
-251.063	-141.361	-0.078	0.008
-250.049	-116.046	0.103	0.019
-249.034	800.000	0.028	-0.083
-248.019	-138.149	0.143	-0.016
-247.005	-45.779	-0.108	0.053
-245.990	-200.000	0.042	0.263
-244.976	-200.000	0.019	0.307
-243.961	800.000	-0.136	0.463
-242.946	-200.000	0.022	0.176
-241.932	13.322	-0.062	0.048
-240.917	210.717	0.159	0.247
-239.903	74.151	0.112	0.116
-238.888	649.161	0.157	-0.398
-237.873	90.959	-0.150	-0.166
-236.859	-200.000	0.066	0.327
-235.844	-117.592	0.357	-0.064
-234.830	-82.619	-0.167	-0.053
-233.815	-200.000	-0.020	-0.143
-232.800	-200.000	0.035	-0.322
-231.786	-189.115	0.206	-0.002
-230.771	-200.000	0.036	0.322
-229.757	2.606	0.228	0.163
-228.742	-200.000	0.046	-0.401
-227.727	-200.000	-0.018	-0.206
-226.713	399.607	0.067	0.139
-225.698	-31.909	0.156	-0.086
-224.684	12.398	0.029	0.022
-223.669	109.452	-0.175	-0.207
-222.655	-200.000	-0.007	-0.202
-221.640	-200.000	0.006	-0.269
-220.625	326.289	0.071	0.135
-219.611	-113.758	0.334	0.064
-218.596	-148.985	-0.406	-0.032
-217.582	-200.000	-0.019	0.193
-216.567	-137.065	-0.119	-0.013
-215.552	227.335	-0.142	-0.227
-214.538	2.620	-0.108	-0.077
-213.523	800.000	-0.081	-0.260
-212.509	84.981	0.167	-0.181
-211.494	260.453	0.075	-0.129
-210.479	543.383	-0.333	0.783
-209.465	104.817	0.082	-0.095
-208.450	163.015	0.016	0.022
-207.436	800.000	-0.100	0.308
-206.421	-46.653	0.113	0.054
-205.406	-200.000	-0.007	-0.230
-204.392	67.295	0.217	-0.219
-203.377	-200.000	0.005	0.081
-202.363	-116.370	-0.147	0.027
-201.348	-40.693	-0.145	0.074
-200.333	-200.000	-0.001	0.211
-199.319	-74.306	-0.115	0.041
-198.304	-105.959	0.212	0.047
-197.290	3.602	0.100	0.072
-196.275	-163.363	0.098	0.005
-195.260	800.000	0.055	0.159
-194.246	-115.242	0.313	0.058
-193.231	198.703	0.034	0.052
-192.217	-68.244	-0.107	-0.041
-191.202	-71.744	-0.144	-0.053
-190.187	-44.177	0.340	0.168
-189.173	9.141	0.280	-0.208
-188.158	-92.406	0.171	-0.047
-187.144	800.000	-0.016	-0.065
-186.129	-17.127	-0.190	0.118
-185.114	0.365	-0.317	-0.223
-184.100	-63.112	0.058	0.023
-183.085	-200.000	-0.023	0.161
-182.071	800.000	-0.094	0.266
-181.056	121.500	-0.174	0.214
-180.042	-200.000	0.054	-0.267
-179.027	-41.344	-0.247	-0.125
-178.012	59.396	-0.285	-0.276
-176.998	-0.373	0.197	-0.138
-175.983	317.646	-0.108	0.202
-174.969	0.543	0.262	0.184
-173.954	-142.788	-0.195	0.019
-172.939	41.270	0.067	0.060
-171.925	800.000	-0.028	0.078
-170.910	-200.000	-0.010	0.141
-169.896	-109.715	-0.292	0.060
-168.881	800.000	0.071	0.295
-167.866	-135.355	-0.329	0.039
-166.852	142.401	-0.014	-0.019
-165.837	-200.000	0.049	-0.220
-164.823	-200.000	-0.012	-0.220
-163.808	-200.000	-0.061	-0.315
-162.793	392.760	0.209	0.427
-161.779	-26.882	-0.053	0.030
-160.764	-31.772	0.122	-0.067
-159.750	753.204	0.119	0.317
-158.735	800.000	0.015	0.056
-157.720	0.815	-0.032	0.023
-156.706	-84.947	0.434	0.134
-155.691	-137.815	0.352	0.039
-154.677	211.853	0.284	0.440
-153.662	-200.000	-0.031	0.212
-152.647	324.725	0.054	0.101
-151.633	-85.882	-0.125	0.038
-150.618	-54.265	0.075	0.034
-149.604	-4.209	0.194	-0.132
-148.589	800.000	-0.042	-0.162
-147.574	-110.309	0.141	0.029
-146.560	-151.744	-0.482	0.035
-145.545	66.848	0.136	0.137
-144.531	-200.000	-0.030	0.149
-143.516	-57.327	0.153	0.066
-142.502	115.020	0.288	0.346
-141.487	-93.976	-0.019	0.005
-140.472	662.421	-0.076	0.194
-139.458	-200.000	-0.065	-0.445
-138.443	-200.000	0.024	-0.160
-137.429	329.129	-0.141	0.266
-136.414	653.593	0.137	-0.345
-135.399	-70.200	0.095	0.035
-134.385	-139.315	0.157	0.017
-133.370	-53.705	0.312	0.140
-132.356	-61.762	-0.157	-0.065
-131.341	-116.374	-0.358	-0.065
-130.326	11.484	0.283	0.214
-129.312	-107.643	0.223	0.048
-128.297	-200.000	0.118	-0.560
-127.283	34.902	-0.266	0.229
-126.268	-53.508	-0.335	-0.150
-125.253	57.306	-0.221	0.212
-124.239	332.561	-0.094	-0.179
-123.224	-200.000	0.016	-0.371
-122.210	19.581	-0.059	-0.047
