DTS Sentinel unit serial number:	SN413079Multiplexer serial number:	ORYXHardware model number:	OX4-SRSoftware version number:	ORYX F/W v4.00 Oryx Data Collector v3.7.2.0data status	okinstallation	princeton_trtdifferential loss correction	single-endedforward channel	channel 2reverse channel	N/Adate	2019/09/12time	17:41:11forward acquisition time	60.00reverse acquisition time	0.00gamma	496.2192k internal	0.2324k external	0.2324temperature offset calibration	1.0132default loss term (dB/km)	0.3790temperature slope calibration	1.0000multiplexer offset coefficient	1.0000multiplexer slope coefficient	1.0000fibre end	0.00T internal ref (°C)	34.28T ext. ref 1 (°C)	2.88T ext. ref 2 (°C)	28.39length (m)	temperature (°C)	Stokes	anti-Stokes-747.200	5.167	0.221	-0.164
-746.185	800.000	0.078	0.283
-745.171	40.592	0.086	-0.078
-744.156	-200.000	0.097	0.439
-743.142	162.819	-0.190	-0.269
-742.127	-53.889	-0.083	-0.038
-741.112	95.838	-0.104	0.120
-740.098	-15.496	-0.412	0.265
-739.083	38.240	-0.160	-0.143
-738.069	800.000	0.084	0.360
-737.054	-9.808	0.226	0.152
-736.039	-152.887	-0.438	-0.031
-735.025	-86.576	-0.114	-0.035
-734.010	-77.674	-0.105	0.037
-732.996	-3.701	-0.114	-0.080
-731.981	-78.929	-0.290	0.100
-730.966	116.833	0.045	-0.056
-729.952	-126.075	-0.293	-0.044
-728.937	-76.005	-0.333	0.119
-727.923	-200.000	0.017	0.240
-726.908	-73.796	-0.210	-0.077
-725.894	-153.623	-0.087	-0.006
-724.879	-107.172	0.209	0.046
-723.864	16.529	0.099	-0.079
-722.850	-62.568	-0.422	-0.177
-721.835	96.354	0.048	-0.055
-720.821	52.469	0.085	-0.082
-719.806	-97.770	0.118	0.031
-718.791	-132.282	-0.140	-0.018
-717.777	800.000	0.041	0.162
-716.762	-56.278	-0.190	-0.085
-715.748	-106.561	-0.164	-0.037
-714.733	155.348	-0.033	0.046
-713.718	-145.128	0.153	0.014
-712.704	109.847	-0.031	-0.038
-711.689	27.472	0.217	0.184
-710.675	131.194	0.173	-0.224
-709.660	-4.377	-0.093	-0.065
-708.645	-30.318	-0.043	0.024
-707.631	-151.790	-0.627	-0.046
-706.616	82.561	-0.231	-0.253
-705.602	-54.327	0.247	-0.113
-704.587	-70.166	-0.344	0.132
-703.572	90.628	-0.164	-0.185
-702.558	-156.458	0.454	0.029
-701.543	-200.000	-0.029	0.275
-700.529	800.000	0.087	-0.383
-699.514	91.003	0.167	-0.188
-698.499	316.998	0.214	-0.408
-697.485	-58.191	-0.346	0.152
-696.470	-32.359	0.154	0.086
-695.456	800.000	-0.074	0.244
-694.441	-200.000	-0.012	-0.229
-693.426	-152.003	-0.451	0.033
-692.412	-94.984	-0.406	-0.111
-691.397	-200.000	-0.046	0.335
-690.383	-7.361	-0.066	0.045
-689.368	27.497	0.153	-0.130
-688.354	-76.503	-0.244	0.086
-687.339	194.555	-0.024	0.036
-686.324	-76.254	-0.382	0.136
-685.310	-58.751	0.323	0.141
-684.295	252.619	-0.096	-0.166
-683.281	757.823	0.097	0.263
-682.266	27.755	0.073	-0.062
-681.251	-200.000	-0.004	0.030
-680.237	234.013	0.271	-0.449
-679.222	37.227	-0.051	0.046
-678.208	-200.000	0.049	-0.254
-677.193	75.199	-0.263	-0.280
-676.178	402.836	0.045	0.095
-675.164	-146.423	0.140	0.012
-674.149	800.000	0.011	0.045
-673.135	49.350	-0.208	0.197
-672.120	-87.951	0.201	0.061
-671.105	751.064	0.120	0.327
-670.091	-136.565	0.252	0.029
-669.076	-200.000	-0.071	-0.543
-668.062	100.393	-0.226	-0.264
-667.047	-36.028	0.272	-0.148
-666.032	34.636	-0.336	-0.296
-665.018	-129.049	0.094	0.013
-664.003	800.000	0.064	-0.268
-662.989	800.000	0.090	-0.252
-661.974	-111.316	-0.288	0.059
-660.959	800.000	0.044	-0.141
-659.945	800.000	-0.123	0.351
-658.930	-129.357	0.178	-0.025
-657.916	162.739	0.136	0.192
-656.901	-53.089	0.334	0.154
-655.886	180.687	-0.106	-0.156
-654.872	-92.790	-0.214	0.060
-653.857	-26.825	0.176	0.103
-652.843	-190.864	0.464	0.005
-651.828	641.824	-0.068	-0.173
-650.814	-166.993	-0.292	-0.012
-649.799	-200.000	0.008	0.075
-648.784	-122.137	-0.180	-0.030
-647.770	93.513	0.055	-0.063
-646.755	-87.427	0.126	-0.038
-645.741	-116.838	-0.177	0.033
-644.726	-81.386	-0.170	-0.056
-643.711	12.139	-0.243	-0.188
-642.697	-169.903	-0.116	0.004
-641.682	39.302	-0.105	-0.095
-640.668	144.987	0.207	-0.278
-639.653	-200.000	0.015	0.082
-638.638	-200.000	0.005	-0.150
-637.624	588.078	-0.045	0.110
-636.609	22.688	-0.150	0.123
-635.595	435.489	0.057	-0.126
-634.580	82.491	0.029	0.031
-633.565	120.275	-0.152	-0.190
-632.551	74.609	-0.258	-0.273
-631.536	244.355	-0.179	-0.302
-630.522	43.388	0.148	0.136
-629.507	-122.751	-0.311	0.050
-628.492	-166.377	-0.232	-0.010
-627.478	129.860	-0.202	-0.259
-626.463	675.904	-0.088	0.230
-625.449	-88.663	-0.257	0.077
-624.434	800.000	-0.066	0.274
-623.419	800.000	0.075	0.272
-622.405	-200.000	0.003	0.053
-621.390	-200.000	-0.021	0.205
-620.376	-88.451	-0.143	-0.043
-619.361	-69.149	0.268	0.104
-618.346	-35.865	0.448	-0.244
-617.332	800.000	-0.034	0.117
-616.317	-50.391	-0.440	-0.209
-615.303	180.169	0.082	-0.121
-614.288	-64.008	-0.185	-0.076
-613.273	445.556	0.062	-0.137
-612.259	-42.438	0.147	-0.075
-611.244	73.528	-0.151	0.158
-610.230	390.302	0.034	-0.070
-609.215	-73.685	-0.171	0.063
-608.201	146.436	0.090	-0.121
-607.186	800.000	-0.063	0.197
-606.171	-200.000	-0.069	0.449
-605.157	-150.342	-0.266	-0.021
-604.142	62.922	-0.020	0.020
-603.128	80.657	-0.165	-0.178
-602.113	-200.000	0.025	-0.134
-601.098	-200.000	0.025	-0.229
-600.084	259.191	-0.071	0.123
-599.069	-170.823	-0.345	0.012
-598.055	-14.492	0.065	-0.042
-597.040	140.680	-0.077	0.102
-596.025	581.127	0.065	-0.161
-595.011	435.100	0.026	-0.057
-593.996	408.067	0.087	-0.185
-592.982	485.550	0.058	-0.133
-591.967	-153.973	-0.211	0.014
-590.952	-200.000	0.047	0.312
-589.938	94.270	-0.045	0.052
-588.923	-200.000	0.013	0.111
-587.909	-132.260	0.181	0.023
-586.894	244.127	-0.085	0.143
-585.879	72.909	0.156	-0.163
-584.865	406.458	-0.065	-0.137
-583.850	-75.617	0.224	-0.080
-582.836	353.002	0.229	0.455
-581.821	142.409	0.306	0.408
-580.806	29.838	0.093	-0.080
-579.792	-76.120	-0.164	-0.058
-578.777	-187.771	-0.179	-0.002
-577.763	153.181	-0.173	0.238
-576.748	-200.000	0.004	0.095
-575.733	800.000	0.027	-0.111
-574.719	-72.762	0.378	-0.140
-573.704	112.694	0.075	0.091
-572.690	800.000	0.063	0.186
-571.675	-39.132	-0.083	-0.044
-570.661	68.963	0.211	0.218
-569.646	-200.000	-0.035	0.162
-568.631	-80.944	-0.066	0.022
-567.617	-200.000	0.022	0.197
-566.602	-0.592	0.484	-0.344
-565.588	-109.192	-0.270	-0.057
-564.573	-32.318	-0.118	-0.066
-563.558	-42.099	0.305	0.156
-562.544	165.505	-0.143	0.203
-561.529	207.960	0.184	-0.288
-560.515	538.278	0.051	-0.121
-559.500	-66.110	0.278	-0.111
-558.485	-50.732	0.391	0.185
-557.471	40.014	0.101	-0.091
-556.456	-200.000	-0.005	-0.123
-555.442	418.084	-0.108	0.231
-554.427	-2.356	0.175	-0.123
-553.412	-36.815	-0.148	-0.079
-552.398	343.238	0.158	-0.311
-551.383	60.590	-0.212	-0.210
-550.369	41.392	0.204	-0.185
-549.354	35.944	-0.130	-0.114
-548.339	-200.000	0.045	0.366
-547.325	521.101	0.044	-0.102
-546.310	-48.704	0.114	0.055
-545.296	444.298	0.081	-0.178
-544.281	191.505	0.125	0.188
-543.266	218.290	0.115	-0.184
-542.252	-200.000	-0.163	-0.000
-541.237	70.357	0.120	-0.124
-540.223	-74.917	0.235	0.084
-539.208	-184.865	-0.064	-0.001
-538.193	800.000	0.029	-0.092
-537.179	-91.363	-0.153	0.044
-536.164	-43.270	-0.105	0.053
-535.150	-144.618	-0.103	-0.009
-534.135	-39.173	-0.133	-0.070
-533.121	-97.406	-0.147	-0.038
-532.106	53.101	0.080	-0.077
-531.091	113.490	-0.198	-0.241
-530.077	281.962	-0.250	-0.449
-529.062	-74.285	-0.183	-0.066
-528.048	768.856	-0.033	0.090
-527.033	-74.906	0.139	-0.050
-526.018	-165.394	-0.122	0.005
-525.004	627.620	-0.113	0.287
-523.989	-46.120	0.184	-0.091
-522.975	144.459	-0.212	0.283
-521.960	296.742	0.126	0.231
-520.945	4.824	-0.171	-0.126
-519.931	68.223	0.117	-0.120
-518.916	-200.000	0.003	0.667
-517.902	256.013	-0.137	0.236
-516.887	287.018	-0.046	-0.083
-515.872	287.928	0.082	-0.148
-514.858	-200.000	0.023	-0.494
-513.843	-100.501	0.012	-0.003
-512.829	104.093	-0.230	-0.271
-511.814	-200.000	-0.018	-0.127
-510.799	-200.000	-0.010	-0.117
-509.785	800.000	-0.042	-0.124
-508.770	800.000	-0.050	-0.172
-507.756	-55.297	-0.222	0.100
-506.741	13.777	0.264	0.205
-505.726	104.758	-0.179	-0.211
-504.712	-174.670	0.105	0.003
-503.697	149.691	-0.256	0.347
-502.683	-9.235	0.116	0.078
-501.668	37.713	-0.050	0.044
-500.653	-123.484	0.081	0.013
-499.639	423.487	0.098	0.211
-498.624	-22.370	-0.078	-0.047
-497.610	-160.508	0.091	-0.005
-496.595	-104.630	0.202	0.047
-495.581	-99.298	0.068	0.017
-494.566	262.148	-0.044	0.077
-493.551	-119.453	-0.287	-0.050
-492.537	-200.000	0.045	-0.295
-491.522	-200.000	-0.022	-0.191
-490.508	-75.703	-0.207	0.074
-489.493	-142.095	-0.354	-0.035
-488.478	120.757	0.066	-0.082
-487.464	16.559	0.331	0.262
-486.449	-24.171	0.142	-0.085
-485.435	-200.000	-0.067	0.434
-484.420	665.490	-0.033	0.085
-483.405	-29.333	0.098	-0.056
-482.391	-32.476	-0.097	0.054
-481.376	280.252	0.093	-0.167
-480.362	-112.100	-0.329	-0.066
-479.347	218.867	-0.082	-0.130
-478.332	-200.000	0.060	-0.400
-477.318	-200.000	0.012	0.223
-476.303	181.169	0.173	0.254
-475.289	-170.723	0.225	0.008
-474.274	-80.283	-0.273	0.091
-473.259	41.979	0.114	0.104
-472.245	-154.843	-0.393	-0.026
-471.230	95.965	-0.102	-0.117
-470.216	800.000	0.057	-0.195
-469.201	-129.120	-0.154	0.022
-468.186	23.304	-0.052	0.042
-467.172	482.448	-0.060	0.136
-466.157	45.711	0.097	0.090
-465.143	10.895	-0.323	-0.247
-464.128	-136.425	-0.168	0.019
-463.113	800.000	-0.058	0.199
-462.099	-200.000	-0.097	-0.457
-461.084	139.948	0.059	0.078
-460.070	800.000	-0.034	0.100
-459.055	-200.000	-0.008	0.059
-458.040	69.279	-0.217	-0.223
-457.026	-39.522	0.239	0.125
-456.011	657.697	-0.023	0.060
-454.997	800.000	-0.047	0.204
-453.982	-200.000	0.015	0.106
-452.968	217.003	-0.162	0.257
-451.953	53.380	-0.212	-0.202
-450.938	-33.740	0.074	-0.041
-449.924	606.010	-0.065	-0.162
-448.909	-86.672	0.322	0.098
-447.895	800.000	0.067	-0.212
-446.880	-89.495	0.295	0.087
-445.865	-0.895	0.147	-0.104
-444.851	-200.000	-0.039	-0.401
-443.836	21.352	-0.048	-0.039
-442.822	-36.485	0.034	0.018
-441.807	-200.000	0.074	0.379
-440.792	800.000	0.047	0.164
-439.778	43.782	-0.172	-0.157
-438.763	111.579	-0.208	0.250
-437.749	-103.372	0.172	0.040
-436.734	-63.973	0.255	-0.104
-435.719	800.000	0.019	-0.065
-434.705	-23.459	-0.234	-0.140
-433.690	32.912	0.070	-0.061
-432.676	-15.473	0.310	0.198
-431.661	-149.577	-0.475	-0.037
-430.646	-59.304	0.070	0.030
-429.632	67.004	-0.320	-0.325
-428.617	-125.885	0.105	-0.016
-427.603	-164.946	-0.120	-0.005
-426.588	-46.362	0.055	-0.027
-425.573	428.961	-0.134	0.290
-424.559	578.051	-0.082	-0.201
-423.544	800.000	0.061	-0.218
-422.530	-40.674	0.177	0.091
-421.515	-38.690	-0.178	0.094
-420.500	-141.070	0.372	-0.038
-419.486	434.533	-0.055	-0.120
-418.471	-129.285	-0.050	-0.007
-417.457	154.411	-0.103	0.140
-416.442	800.000	0.067	0.269
-415.428	131.305	-0.077	0.099
-414.413	800.000	-0.063	-0.270
-413.398	355.319	-0.060	-0.119
-412.384	-200.000	0.018	-0.140
-411.369	-200.000	-0.038	0.235
-410.355	401.798	0.069	-0.145
-409.340	-99.174	-0.169	-0.043
-408.325	-127.110	0.112	0.016
-407.311	8.887	0.167	-0.126
-406.296	121.176	0.212	0.264
-405.282	800.000	-0.044	-0.151
-404.267	38.672	0.188	-0.167
-403.252	-200.000	0.006	0.078
-402.238	36.074	0.100	-0.087
-401.223	455.591	-0.092	-0.204
-400.209	-141.822	-0.212	0.021
-399.194	800.000	0.052	0.191
-398.179	227.941	-0.013	-0.021
-397.165	-8.118	-0.189	-0.127
-396.150	-24.190	-0.143	-0.085
-395.136	-171.858	0.045	-0.001
-394.121	673.489	0.063	0.163
-393.106	-71.152	0.269	-0.100
-392.092	-144.545	-0.150	-0.014
-391.077	67.564	-0.189	-0.192
-390.063	607.075	0.028	-0.070
-389.048	-125.092	0.131	-0.020
-388.033	800.000	0.080	-0.240
-387.019	-80.103	0.143	-0.048
-386.004	188.835	-0.153	-0.228
-384.990	-200.000	-0.019	-0.274
-383.975	-19.059	0.072	-0.045
-382.960	-200.000	0.069	-0.489
-381.946	-130.085	-0.140	0.019
-380.931	800.000	0.066	0.195
-379.917	-82.098	-0.274	0.089
-378.902	-92.592	-0.341	-0.095
-377.888	-200.000	0.031	-0.225
-376.873	-200.000	-0.043	0.222
-375.858	10.824	0.222	0.169
-374.844	800.000	-0.020	-0.065
-373.829	-158.580	-0.215	0.012
-372.815	792.679	0.101	-0.276
-371.800	198.206	0.127	0.193
-370.785	491.158	0.070	0.158
-369.771	-156.501	-0.257	0.016
-368.756	-200.000	-0.015	0.118
-367.742	31.527	-0.124	0.106
-366.727	458.123	0.109	0.241
-365.712	800.000	0.055	0.195
-364.698	189.771	-0.137	-0.204
-363.683	302.897	0.100	-0.184
-362.669	669.923	0.012	0.032
-361.654	52.355	0.338	-0.321
-360.639	-76.755	-0.238	0.083
-359.625	60.190	0.093	-0.091
-358.610	800.000	-0.106	-0.296
-357.596	390.286	-0.056	-0.115
-356.581	800.000	-0.034	0.131
-355.566	73.278	0.166	0.173
-354.552	-117.893	-0.283	-0.050
-353.537	-107.386	-0.390	-0.085
-352.523	55.720	-0.099	0.095
-351.508	593.749	0.164	-0.402
-350.493	-29.819	-0.142	0.080
-349.479	800.000	0.043	-0.132
-348.464	664.646	0.080	-0.205
-347.450	313.764	0.044	0.082
-346.435	-200.000	-0.030	-0.199
-345.420	-6.855	-0.094	-0.064
-344.406	-77.430	0.157	-0.054
-343.391	84.399	0.071	-0.077
-342.377	57.152	-0.132	0.128
-341.362	-200.000	-0.076	0.378
-340.348	-23.797	-0.179	-0.106
-339.333	800.000	-0.088	-0.332
-338.318	90.956	0.133	0.148
-337.304	-106.386	0.355	0.079
-336.289	244.902	0.128	-0.213
-335.275	-14.982	0.193	-0.123
-334.260	-33.853	0.156	-0.085
-333.245	18.327	-0.161	0.127
-332.231	318.984	0.105	-0.199
-331.216	-139.739	0.258	0.027
-330.202	800.000	-0.038	-0.108
-329.187	-91.283	-0.320	0.091
-328.172	6.606	0.165	0.122
-327.158	-106.443	0.185	-0.041
-326.143	125.023	-0.351	0.439
-325.129	32.248	0.297	0.255
-324.114	190.519	-0.078	0.116
-323.099	686.540	0.033	-0.084
-322.085	-82.624	-0.234	-0.075
-321.070	-35.847	0.084	-0.045
-320.056	620.539	-0.063	-0.157
-319.041	-11.646	-0.152	0.099
-318.026	-54.519	-0.141	-0.063
-317.012	-200.000	-0.019	0.156
-315.997	317.730	-0.217	-0.408
-314.983	800.000	-0.077	0.283
-313.968	27.693	0.134	-0.112
-312.953	47.855	-0.211	-0.196
-311.939	-4.313	-0.314	0.216
-310.924	195.701	0.084	0.127
-309.910	800.000	-0.058	0.220
-308.895	62.750	0.250	-0.249
-307.880	658.133	0.045	-0.116
-306.866	49.163	0.124	0.115
-305.851	-200.000	-0.008	-0.218
-304.837	346.135	0.099	0.192
-303.822	17.956	0.291	0.230
-302.807	-14.527	-0.110	-0.070
-301.793	1.331	0.100	0.071
-300.778	10.062	0.169	-0.128
-299.764	-197.191	-0.402	0.003
-298.749	42.925	0.250	0.226
-297.735	-34.990	0.400	0.216
-296.720	-200.000	-0.058	0.306
-295.705	142.345	0.115	-0.151
-294.691	61.035	-0.124	-0.122
-293.676	-47.322	-0.157	0.076
-292.662	-200.000	0.019	0.118
-291.647	-37.522	0.109	0.058
-290.632	800.000	-0.104	-0.350
-289.618	800.000	0.076	-0.322
-288.603	8.685	-0.355	-0.265
-287.589	-39.452	-0.164	0.085
-286.574	-109.764	0.212	0.044
-285.559	723.749	-0.109	0.289
-284.545	-200.000	-0.034	0.247
-283.530	49.923	0.312	0.292
-282.516	-18.192	0.183	-0.113
-281.501	-143.487	-0.245	0.023
-280.486	285.376	-0.106	-0.189
-279.472	669.958	-0.175	0.449
-278.457	-6.508	-0.040	-0.027
-277.443	202.886	-0.242	0.371
-276.428	-86.416	-0.140	-0.043
-275.413	-200.000	0.014	0.191
-274.399	-32.575	-0.033	-0.018
-273.384	-163.343	0.073	0.003
-272.370	-94.384	-0.258	0.070
-271.355	-125.862	0.130	-0.019
-270.340	800.000	-0.072	0.221
-269.326	-19.623	0.142	-0.087
-268.311	-83.623	0.263	-0.083
-267.297	-63.520	0.129	0.052
-266.282	141.340	0.148	0.194
-265.267	195.855	0.132	0.199
-264.253	261.756	-0.159	-0.272
-263.238	335.986	-0.038	0.073
-262.224	-7.860	-0.147	-0.099
-261.209	-56.774	0.229	0.101
-260.195	-4.815	0.284	0.194
-259.180	-102.968	0.239	0.056
-258.165	-84.085	0.410	0.129
-257.151	-82.165	0.158	0.051
-256.136	24.759	-0.138	-0.113
-255.122	13.049	0.117	0.090
-254.107	-130.021	-0.363	0.049
-253.092	800.000	-0.045	0.173
-252.078	-34.136	-0.108	0.059
-251.063	415.825	-0.047	-0.098
-250.049	-145.134	-0.477	0.043
-249.034	-39.888	0.097	-0.050
-248.019	-200.000	-0.004	-0.071
-247.005	590.656	0.059	0.143
-245.990	-108.046	-0.286	-0.061
-244.976	-1.131	0.270	0.189
-243.961	800.000	-0.021	-0.085
-242.946	54.968	-0.089	0.085
-241.932	485.440	-0.043	-0.096
-240.917	-76.522	-0.190	-0.066
-239.903	-151.383	-0.171	-0.013
-238.888	-119.014	0.402	0.070
-237.873	-136.428	-0.474	0.055
-236.859	-200.000	0.020	0.282
-235.844	-200.000	-0.028	0.387
-234.830	14.873	-0.061	0.048
-233.815	-78.161	-0.318	-0.108
-232.800	-200.000	0.009	-0.190
-231.786	370.928	0.097	-0.196
-230.771	800.000	0.043	0.125
-229.757	-110.750	0.287	0.059
-228.742	302.693	0.114	0.210
-227.727	72.949	0.323	0.333
-226.713	14.930	0.052	-0.040
-225.698	75.713	0.202	-0.211
-224.684	-132.765	-0.150	-0.019
-223.669	2.108	-0.130	-0.093
-222.655	-200.000	0.001	0.225
-221.640	-200.000	-0.055	0.327
-220.625	243.191	-0.093	0.154
-219.611	-200.000	-0.044	-0.293
-218.596	-148.591	-0.181	0.015
-217.582	-83.281	0.272	0.086
-216.567	800.000	0.033	-0.114
-215.552	-133.742	-0.202	0.025
-214.538	800.000	-0.054	0.203
-213.523	49.391	0.066	0.062
-212.509	16.940	0.241	0.188
-211.494	-96.743	-0.213	-0.055
-210.479	778.530	0.057	-0.153
-209.465	-200.000	-0.046	-0.321
-208.450	800.000	0.147	-0.441
-207.436	-200.000	0.027	-0.297
-206.421	-53.998	0.203	0.091
-205.406	800.000	0.038	0.133
-204.392	103.982	0.130	0.151
-203.377	710.588	-0.045	0.117
-202.363	-83.340	0.140	-0.044
-201.348	-200.000	-0.047	-0.212
-200.333	175.870	-0.059	0.084
-199.319	-200.000	0.000	-0.285
-198.304	-200.000	-0.049	0.302
-197.290	-137.448	-0.220	-0.025
-196.275	-200.000	0.007	-0.043
-195.260	370.947	-0.171	-0.342
-194.246	-200.000	0.023	0.156
-193.231	-148.900	0.283	-0.023
-192.217	-99.382	0.410	0.102
-191.202	3.748	-0.113	0.082
-190.187	66.531	0.220	0.221
-189.173	-89.555	0.216	-0.063
-188.158	75.690	0.219	-0.228
-187.144	324.398	0.070	0.132
-186.129	-26.549	0.383	0.222
-185.114	-200.000	-0.063	-0.281
-184.100	800.000	-0.041	0.171
-183.085	45.249	0.138	0.126
-182.071	-59.110	0.403	-0.172
-181.056	-85.258	0.340	0.105
-180.042	-22.181	0.172	-0.103
-179.027	38.726	0.105	0.093
-178.012	332.842	0.008	-0.016
-176.998	110.262	-0.242	0.287
-175.983	-200.000	0.025	0.144
-174.969	-200.000	0.000	0.387
-173.954	-200.000	0.001	-0.286
-172.939	-98.271	0.466	0.118
-171.925	724.547	0.103	0.270
-170.910	-138.968	-0.274	-0.029
-169.896	208.483	0.167	-0.257
-168.881	-63.114	-0.195	0.079
-167.866	-200.000	-0.028	-0.349
-166.852	-61.925	0.114	-0.047
-165.837	-114.615	0.211	0.040
-164.823	49.801	-0.125	-0.117
-163.808	-28.397	-0.020	0.011
-162.793	235.749	-0.061	-0.099
-161.779	327.057	-0.076	0.144
-160.764	-2.703	-0.430	-0.297
-159.750	-5.483	0.420	0.284
-158.735	-200.000	-0.016	-0.110
-157.720	800.000	0.070	0.224
-156.706	-21.776	0.365	-0.219
-155.691	-119.016	0.557	-0.096
-154.677	749.042	0.051	0.137
-153.662	-35.953	-0.185	0.099
-152.647	-116.848	0.169	0.030
-151.633	-200.000	0.031	0.194
-150.618	177.355	0.017	0.024
-149.604	-200.000	0.009	0.118
-148.589	120.353	-0.272	0.333
-147.574	-40.980	0.198	-0.101
-146.560	800.000	-0.097	-0.298
-145.545	-73.193	0.187	0.068
-144.531	800.000	0.045	0.182
-143.516	-62.106	0.027	0.011
-142.502	276.074	0.054	0.095
-141.487	-39.342	0.082	-0.042
-140.472	-88.208	0.189	-0.056
-139.458	-20.340	0.092	0.056
-138.443	-200.000	-0.082	0.535
-137.429	-33.906	-0.209	0.114
-136.414	-159.759	0.085	0.005
-135.399	232.312	-0.089	0.144
-134.385	-200.000	-0.005	0.201
-133.370	58.457	-0.211	-0.204
-132.356	134.159	0.256	-0.327
-131.341	11.200	-0.117	-0.088
-130.326	72.978	-0.202	0.208
-129.312	800.000	-0.014	-0.059
-128.297	55.650	-0.177	-0.169
-127.283	158.240	-0.078	0.106
-126.268	50.252	-0.220	0.205
-125.253	-54.198	0.241	-0.108
-124.239	118.056	0.147	0.178
-123.224	277.462	0.102	0.178
-122.210	800.000	-0.090	0.261
-121.195	215.473	0.117	-0.183
-120.180	277.530	0.043	-0.076
