DTS Sentinel unit serial number:	SN413079Multiplexer serial number:	ORYXHardware model number:	OX4-SRSoftware version number:	ORYX F/W v4.00 Oryx Data Collector v3.7.2.0data status	okinstallation	princeton_trtdifferential loss correction	single-endedforward channel	channel 2reverse channel	N/Adate	2019/09/13time	17:55:35forward acquisition time	60.00reverse acquisition time	0.00gamma	496.2192k internal	0.2317k external	0.2317temperature offset calibration	1.0215default loss term (dB/km)	0.3790temperature slope calibration	1.0000multiplexer offset coefficient	1.0000multiplexer slope coefficient	1.0000fibre end	0.00T internal ref (°C)	35.25T ext. ref 1 (°C)	4.87T ext. ref 2 (°C)	28.16length (m)	temperature (°C)	Stokes	anti-Stokes-747.200	-200.000	0.010	0.290
-746.185	100.773	0.252	0.297
-745.171	269.375	0.113	-0.201
-744.156	-200.000	0.009	-0.122
-743.142	-200.000	-0.026	0.297
-742.127	-26.376	-0.098	-0.058
-741.112	421.693	0.066	-0.143
-740.098	-112.077	0.460	0.094
-739.083	-41.376	-0.470	0.245
-738.069	-31.902	-0.052	-0.030
-737.054	800.000	0.096	0.378
-736.039	800.000	-0.058	0.236
-735.025	219.197	-0.114	-0.185
-734.010	-4.422	-0.235	-0.164
-732.996	-107.847	-0.315	-0.069
-731.981	52.630	-0.383	-0.370
-730.966	125.752	-0.214	-0.274
-729.952	-168.505	-0.194	-0.007
-728.937	-95.514	-0.253	-0.069
-727.923	-60.345	-0.247	0.107
-726.908	-8.879	0.213	-0.144
-725.894	-33.233	-0.281	0.158
-724.879	-78.900	0.047	0.016
-723.864	18.309	-0.128	-0.104
-722.850	800.000	0.026	0.099
-721.835	355.911	0.158	-0.319
-720.821	61.148	-0.236	-0.237
-719.806	381.090	0.050	-0.105
-718.791	-200.000	0.021	-0.111
-717.777	800.000	-0.039	-0.127
-716.762	800.000	-0.059	0.229
-715.748	-200.000	0.031	-0.217
-714.733	40.030	0.112	0.102
-713.718	-146.981	0.172	0.015
-712.704	12.213	-0.465	0.362
-711.689	162.786	0.158	0.225
-710.675	564.487	0.118	0.289
-709.660	-104.640	0.409	0.095
-708.645	-200.000	-0.016	0.111
-707.631	2.633	0.223	0.164
-706.616	11.699	-0.183	-0.142
-705.602	167.759	0.079	0.114
-704.587	-89.520	0.223	-0.066
-703.572	-117.997	0.392	-0.071
-702.558	715.107	-0.072	0.192
-701.543	83.160	-0.133	0.147
-700.529	165.872	0.043	0.062
-699.514	226.652	-0.073	-0.120
-698.499	800.000	-0.049	-0.163
-697.485	-200.000	0.010	-0.297
-696.470	51.443	-0.245	0.235
-695.456	2.783	0.215	-0.158
-694.441	-138.726	-0.090	-0.010
-693.426	560.277	0.164	-0.401
-692.412	12.993	0.056	-0.044
-691.397	-100.617	-0.243	0.061
-690.383	391.514	0.095	0.200
-689.368	101.299	-0.100	0.118
-688.354	-96.245	-0.222	-0.059
-687.339	-63.809	0.209	-0.086
-686.324	-64.299	-0.217	-0.089
-685.310	-81.461	0.159	0.053
-684.295	-146.863	-0.150	0.013
-683.281	800.000	0.083	-0.297
-682.266	-200.000	-0.062	-0.513
-681.251	-13.612	-0.154	0.101
-680.237	65.664	0.021	-0.021
-679.222	800.000	-0.069	0.241
-678.208	175.404	-0.114	-0.167
-677.193	-150.460	-0.101	0.008
-676.178	158.159	0.092	-0.128
-675.164	39.331	0.201	-0.181
-674.149	84.414	0.114	0.126
-673.135	466.909	-0.125	0.283
-672.120	76.342	0.223	-0.239
-671.105	-0.980	0.351	-0.251
-670.091	652.633	0.059	0.154
-669.076	382.357	-0.082	-0.171
-668.062	-57.877	0.299	-0.132
-667.047	-200.000	-0.025	0.305
-666.032	132.842	0.115	-0.150
-665.018	375.062	-0.027	-0.055
-664.003	-200.000	0.011	-0.048
-662.989	-78.425	-0.071	0.025
-661.974	-131.646	-0.044	0.006
-660.959	705.626	0.009	0.024
-659.945	5.746	0.089	-0.066
-658.930	54.773	-0.124	-0.121
-657.916	-2.746	-0.035	0.025
-656.901	52.097	-0.193	-0.185
-655.886	-111.185	-0.263	-0.054
-654.872	333.628	0.168	0.328
-653.857	-46.243	0.102	0.050
-652.843	191.642	-0.012	-0.018
-651.828	800.000	-0.045	0.134
-650.814	56.514	-0.165	0.162
-649.799	-126.667	-0.167	0.025
-648.784	-12.428	-0.206	0.136
-647.770	-122.860	-0.239	-0.039
-646.755	-121.119	-0.253	0.043
-645.741	42.631	-0.107	-0.098
-644.726	604.288	0.030	0.075
-643.711	-5.832	-0.078	-0.054
-642.697	-83.013	-0.355	-0.115
-641.682	294.832	-0.223	-0.411
-640.668	124.819	-0.111	-0.141
-639.653	-197.575	0.021	0.000
-638.638	-200.000	0.058	0.356
-637.624	-51.853	0.117	-0.055
-636.609	249.083	0.065	-0.111
-635.595	-200.000	0.022	-0.098
-634.580	171.151	0.208	-0.301
-633.565	4.538	0.262	-0.194
-632.551	82.606	-0.108	0.118
-631.536	800.000	0.080	0.238
-630.522	800.000	0.045	0.149
-629.507	-71.549	-0.210	-0.079
-628.492	-123.932	-0.259	0.041
-627.478	-43.654	-0.322	-0.164
-626.463	-15.865	-0.237	0.152
-625.449	209.854	-0.227	0.358
-624.434	243.009	0.109	-0.184
-623.419	-33.226	0.378	-0.211
-622.405	182.798	0.136	-0.202
-621.390	800.000	-0.028	-0.116
-620.376	438.164	0.054	0.119
-619.361	-13.771	-0.156	0.102
-618.346	17.289	-0.309	-0.247
-617.332	-4.561	0.034	0.023
-616.317	-117.995	0.251	-0.045
-615.303	-14.657	0.166	0.108
-614.288	-200.000	-0.020	0.205
-613.273	-200.000	0.014	0.175
-612.259	-200.000	0.000	0.028
-611.244	800.000	-0.137	-0.404
-610.230	40.599	0.167	0.151
-609.215	-77.354	0.126	-0.044
-608.201	25.691	-0.204	-0.171
-607.186	-39.023	0.087	0.046
-606.171	38.965	0.225	-0.203
-605.157	-98.064	0.099	-0.026
-604.142	-93.404	0.127	0.036
-603.128	220.924	-0.063	0.102
-602.113	-200.000	-0.039	0.338
-601.098	8.232	-0.394	0.298
-600.084	-200.000	0.000	0.177
-599.069	800.000	-0.040	0.158
-598.055	-200.000	0.057	-0.284
-597.040	-4.799	-0.208	-0.144
-596.025	19.374	0.093	0.075
-595.011	193.335	0.211	0.322
-593.996	-37.268	0.196	-0.106
-592.982	-200.000	0.012	0.280
-591.967	273.729	0.173	-0.308
-590.952	-158.652	-0.149	-0.009
-589.938	-27.526	-0.246	0.144
-588.923	-177.974	0.247	0.006
-587.909	65.019	-0.081	0.082
-586.894	27.494	0.125	-0.106
-585.879	-200.000	0.001	0.193
-584.865	41.836	-0.212	0.193
-583.850	251.110	-0.164	0.280
-582.836	-58.652	-0.118	-0.052
-581.821	-146.247	-0.152	-0.013
-580.806	-21.640	0.159	-0.098
-579.792	-37.286	-0.082	-0.044
-578.777	-83.316	-0.134	0.043
-577.763	502.061	-0.119	0.277
-576.748	78.815	0.143	-0.154
-575.733	660.654	0.099	-0.256
-574.719	226.084	-0.145	-0.237
-573.704	800.000	0.067	-0.256
-572.690	-100.817	-0.112	0.028
-571.675	-65.042	-0.350	0.142
-570.661	-189.553	-0.394	0.005
-569.646	76.829	0.133	-0.142
-568.631	2.417	0.271	-0.197
-567.617	-127.057	-0.291	0.043
-566.602	-200.000	-0.021	0.176
-565.588	34.907	-0.342	0.301
-564.573	-178.799	-0.228	-0.005
-563.558	800.000	0.059	-0.198
-562.544	-86.319	0.092	-0.028
-561.529	754.953	0.096	-0.260
-560.515	-79.476	-0.281	-0.095
-559.500	-142.765	0.334	0.033
-558.485	-200.000	0.078	-0.612
-557.471	-119.319	-0.250	0.044
-556.456	800.000	0.037	0.161
-555.442	-70.525	0.096	-0.036
-554.427	-114.894	0.109	0.021
-553.412	113.299	-0.141	0.172
-552.398	800.000	-0.030	-0.093
-551.383	-49.387	0.191	0.092
-550.369	-200.000	0.046	0.268
-549.354	-200.000	-0.009	-0.265
-548.339	126.752	-0.132	0.168
-547.325	-69.292	-0.381	-0.147
-546.310	-85.459	-0.447	0.140
-545.296	-200.000	0.044	-0.202
-544.281	664.105	0.038	-0.098
-543.266	5.368	0.124	-0.092
-542.252	176.951	0.096	0.140
-541.237	-200.000	0.042	0.256
-540.223	360.248	0.116	0.233
-539.208	-114.042	-0.050	-0.010
-538.193	-200.000	-0.037	-0.358
-537.179	146.133	0.152	-0.205
-536.164	182.916	0.144	-0.213
-535.150	800.000	0.064	0.263
-534.135	433.202	-0.113	-0.247
-533.121	457.819	0.065	0.144
-532.106	-110.047	-0.222	0.047
-531.091	-80.324	-0.222	-0.074
-530.077	152.395	0.075	-0.103
-529.062	99.837	0.050	0.058
-528.048	-88.563	-0.146	-0.044
-527.033	-200.000	0.004	0.156
-526.018	800.000	-0.078	-0.285
-525.004	-200.000	0.051	-0.387
-523.989	-158.374	0.438	-0.026
-522.975	519.511	0.204	0.480
-521.960	-143.736	-0.206	-0.020
-520.945	-59.901	-0.172	-0.074
-519.931	304.044	-0.082	-0.153
-518.916	-151.385	-0.237	-0.018
-517.902	91.796	0.146	0.165
-516.887	199.363	0.213	0.328
-515.872	0.881	0.145	-0.104
-514.858	-200.000	-0.035	-0.240
-513.843	-200.000	0.017	0.176
-512.829	-91.639	0.392	0.112
-511.814	190.790	0.262	-0.395
-510.799	-200.000	-0.002	0.101
-509.785	-105.797	0.495	-0.112
-508.770	31.642	-0.175	-0.151
-507.756	41.471	0.275	-0.250
-506.741	136.896	-0.066	-0.087
-505.726	36.137	0.141	0.125
-504.712	-106.055	0.279	0.063
-503.697	800.000	0.049	0.165
-502.683	-96.505	0.130	0.034
-501.668	-67.029	0.167	0.066
-500.653	42.993	0.241	0.220
-499.639	-200.000	-0.053	-0.247
-498.624	114.586	0.149	-0.182
-497.610	35.829	0.200	0.176
-496.595	-101.924	0.177	0.043
-495.581	-142.484	0.062	0.006
-494.566	1.430	0.291	0.210
-493.551	-134.500	-0.292	0.036
-492.537	73.790	-0.263	-0.276
-491.522	-200.000	0.022	-0.261
-490.508	800.000	0.061	-0.211
-489.493	-200.000	-0.008	-0.052
-488.478	800.000	-0.021	0.087
-487.464	115.690	-0.061	0.075
-486.449	-200.000	0.027	0.169
-485.435	167.782	0.227	0.323
-484.420	-85.237	0.411	-0.129
-483.405	-41.186	0.124	-0.064
-482.391	-105.602	-0.017	-0.004
-481.376	323.936	-0.068	0.131
-480.362	-72.367	-0.309	0.115
-479.347	6.201	-0.314	0.233
-478.332	800.000	-0.112	0.317
-477.318	306.039	0.152	0.284
-476.303	600.131	-0.039	-0.098
-475.289	800.000	0.126	-0.429
-474.274	86.913	-0.169	-0.187
-473.259	-135.298	-0.173	-0.021
-472.245	732.831	-0.141	-0.377
-471.230	-200.000	-0.041	-0.366
-470.216	-113.612	-0.130	0.025
-469.201	800.000	-0.028	0.090
-468.186	-122.600	0.180	0.029
-467.172	-44.561	-0.202	0.101
-466.157	90.988	0.103	0.115
-465.143	231.411	0.216	0.354
-464.128	-200.000	-0.006	0.164
-463.113	45.359	0.115	0.106
-462.099	537.979	0.031	0.073
-461.084	-93.992	0.355	0.098
-460.070	-191.812	-0.264	0.003
-459.055	671.478	0.041	-0.106
-458.040	84.750	0.146	-0.161
-457.026	96.823	-0.132	0.151
-456.011	340.646	0.075	0.147
-454.997	-52.351	0.082	0.038
-453.982	-152.832	-0.062	-0.004
-452.968	-88.393	0.343	-0.103
-451.953	-200.000	0.022	-0.214
-450.938	800.000	0.029	0.123
-449.924	-27.727	0.185	-0.107
-448.909	-100.436	-0.114	0.028
-447.895	-93.899	-0.173	0.048
-446.880	487.799	-0.082	0.188
-445.865	435.433	0.064	-0.140
-444.851	-2.584	-0.195	0.137
-443.836	621.142	0.009	0.022
-442.822	-187.385	0.398	-0.005
-441.807	800.000	-0.024	-0.087
-440.792	45.254	-0.205	0.190
-439.778	-200.000	0.013	0.133
-438.763	553.651	0.034	-0.081
-437.749	-0.267	0.137	-0.098
-436.734	-195.637	0.099	0.001
-435.719	31.273	-0.242	0.207
-434.705	-200.000	-0.060	0.363
-433.690	-109.189	0.290	-0.062
-432.676	-200.000	-0.090	-0.416
-431.661	800.000	-0.043	-0.173
-430.646	233.030	0.096	-0.158
-429.632	-77.437	0.198	0.069
-428.617	143.126	-0.059	0.078
-427.603	171.493	0.114	0.163
-426.588	-200.000	0.006	0.048
-425.573	-16.145	0.170	-0.108
-424.559	-28.709	-0.324	-0.187
-423.544	-200.000	-0.009	0.102
-422.530	-110.484	0.208	0.043
-421.515	141.344	-0.143	0.189
-420.500	203.042	-0.054	-0.084
-419.486	-62.148	-0.211	0.088
-418.471	8.365	0.095	0.071
-417.457	59.481	0.059	-0.059
-416.442	132.453	-0.209	0.270
-415.428	800.000	-0.025	0.109
-414.413	40.098	0.210	-0.188
-413.398	93.472	0.136	-0.154
-412.384	-50.391	0.403	0.190
-411.369	62.191	-0.294	0.294
-410.355	593.481	0.042	-0.104
-409.340	31.993	-0.091	-0.078
-408.325	107.336	0.042	-0.050
-407.311	-49.046	0.274	0.131
-406.296	-146.263	-0.327	-0.029
-405.282	-200.000	0.008	-0.080
-404.267	99.268	0.081	-0.093
-403.252	-41.423	-0.440	0.226
-402.238	-67.965	0.304	-0.118
-401.223	-123.874	-0.421	-0.066
-400.209	-89.923	-0.169	0.049
-399.194	29.748	-0.094	0.080
-398.179	373.807	-0.054	0.109
-397.165	207.078	0.065	0.101
-396.150	31.385	0.145	0.125
-395.136	395.335	0.057	-0.118
-394.121	800.000	-0.106	0.294
-393.106	-94.495	-0.162	-0.044
-392.092	-142.876	-0.389	-0.038
-391.077	-140.432	-0.219	0.023
-390.063	58.244	0.105	0.103
-389.048	800.000	0.098	0.325
-388.033	-78.894	-0.240	0.082
-387.019	-200.000	-0.025	0.396
-386.004	-31.786	-0.122	0.069
-384.990	263.029	0.155	0.269
-383.975	121.333	0.082	0.102
-382.960	20.403	-0.129	-0.104
-381.946	-87.532	0.272	0.082
-380.931	-36.574	-0.160	0.086
-379.917	162.439	0.095	0.134
-378.902	245.040	-0.256	-0.430
-377.888	-200.000	-0.043	0.418
-376.873	76.366	0.034	0.036
-375.858	-200.000	-0.013	-0.358
-374.844	-15.776	0.205	-0.130
-373.829	103.567	-0.155	-0.182
-372.815	456.001	-0.190	0.421
-371.800	-9.841	-0.218	0.144
-370.785	-72.532	-0.139	-0.051
-369.771	800.000	0.021	0.071
-368.756	172.529	0.151	-0.217
-367.742	-164.532	0.302	-0.014
-366.727	-33.268	0.140	-0.077
-365.712	-200.000	0.007	0.157
-364.698	-200.000	-0.004	-0.194
-363.683	-109.488	-0.234	-0.049
-362.669	31.673	0.199	0.170
-361.654	-0.540	-0.150	0.106
-360.639	42.917	-0.304	-0.276
-359.625	-59.580	-0.171	0.073
-358.610	-106.827	0.240	-0.053
-357.596	-200.000	-0.028	-0.314
-356.581	348.432	-0.171	-0.336
-355.566	475.802	-0.125	0.282
-354.552	800.000	0.069	0.197
-353.537	425.093	0.169	-0.362
-352.523	-80.201	0.262	0.088
-351.508	-182.819	-0.437	0.008
-350.493	-48.465	0.282	-0.135
-349.479	-18.682	-0.080	-0.049
-348.464	-200.000	-0.035	-0.230
-347.450	-200.000	0.025	0.378
-346.435	76.478	-0.023	-0.025
-345.420	-4.600	0.239	0.164
-344.406	-125.988	0.188	0.028
-343.391	-80.710	0.358	0.119
-342.377	72.511	0.031	-0.032
-341.362	-140.531	-0.349	-0.036
-340.348	655.977	0.083	-0.214
-339.333	46.525	0.223	0.206
-338.318	517.437	0.098	0.228
-337.304	-171.852	-0.160	-0.005
-336.289	-121.791	0.027	0.004
-335.275	-102.311	-0.165	-0.040
-334.260	-41.583	0.255	0.131
-333.245	-200.000	-0.031	0.254
-332.231	440.836	-0.026	0.057
-331.216	-200.000	-0.002	0.129
-330.202	800.000	-0.060	0.209
-329.187	-89.990	0.308	-0.089
-328.172	82.516	-0.164	-0.177
-327.158	106.844	0.065	-0.077
-326.143	-200.000	-0.036	-0.233
-325.129	-200.000	-0.005	-0.252
-324.114	-88.938	0.169	0.050
-323.099	-200.000	-0.012	0.057
-322.085	630.262	-0.097	-0.244
-321.070	300.703	0.246	-0.453
-320.056	77.263	0.183	0.193
-319.041	-46.061	0.353	-0.173
-318.026	152.506	0.212	0.289
-317.012	-46.884	-0.412	-0.201
-315.997	107.929	-0.057	-0.067
-314.983	-48.544	0.257	0.123
-313.968	226.192	0.135	0.217
-312.953	-19.052	0.085	0.053
-311.939	-200.000	0.026	-0.127
-310.924	-86.719	0.219	0.067
-309.910	800.000	0.109	-0.334
-308.895	800.000	0.052	0.173
-307.880	-1.785	0.133	0.093
-306.866	-200.000	-0.014	-0.302
-305.851	8.909	-0.170	0.128
-304.837	-98.355	0.365	0.093
-303.822	121.845	-0.228	-0.282
-302.807	-103.930	0.356	-0.083
-301.793	-200.000	0.034	-0.243
-300.778	-76.029	-0.257	0.091
-299.764	-37.399	0.142	-0.075
-298.749	82.193	0.212	-0.228
-297.735	-1.551	0.079	-0.056
-296.720	384.093	0.053	-0.108
-295.705	603.514	0.062	0.152
-294.691	14.250	-0.292	-0.226
-293.676	561.896	-0.106	-0.256
-292.662	-33.679	0.169	0.093
-291.647	-200.000	0.021	-0.337
-290.632	238.455	-0.139	-0.230
-289.618	-117.212	0.263	-0.048
-288.603	318.434	0.070	-0.131
-287.589	-181.039	-0.168	0.003
-286.574	278.879	-0.078	0.137
-285.559	-62.030	0.110	0.046
-284.545	-200.000	-0.006	0.204
-283.530	800.000	0.028	0.105
-282.516	483.155	-0.085	-0.192
-281.501	56.157	-0.347	0.335
-280.486	-100.034	0.269	0.067
-279.472	-96.041	-0.421	-0.111
-278.457	-200.000	0.034	0.374
-277.443	95.649	-0.086	0.098
-276.428	-29.762	0.146	0.083
-275.413	-200.000	-0.038	-0.191
-274.399	-83.052	-0.423	-0.135
-273.384	-42.323	-0.175	0.089
-272.370	-2.866	0.393	-0.273
-271.355	-200.000	0.001	-0.113
-270.340	-145.479	-0.150	-0.013
-269.326	-131.772	-0.156	0.020
-268.311	224.940	0.186	-0.299
-267.297	-97.020	0.053	0.014
-266.282	4.365	-0.201	0.147
-265.267	309.616	-0.130	0.242
-264.253	-200.000	0.013	-0.118
-263.238	-110.324	-0.036	0.007
-262.224	68.896	-0.176	-0.179
-261.209	-135.433	0.317	0.038
-260.195	-200.000	-0.020	0.146
-259.180	-43.932	-0.096	-0.048
-258.165	149.883	0.117	-0.158
-257.151	-200.000	-0.025	0.197
-256.136	800.000	-0.031	-0.097
-255.122	800.000	-0.087	-0.242
-254.107	215.843	0.168	-0.266
-253.092	13.145	0.319	-0.245
-252.078	-88.266	-0.396	-0.118
-251.063	-52.805	0.464	-0.212
-250.049	-52.219	-0.201	0.093
-249.034	-35.397	0.179	0.097
-248.019	-90.021	-0.363	-0.105
-247.005	310.897	-0.142	-0.264
-245.990	-200.000	-0.011	-0.146
-244.976	-200.000	0.011	-0.262
-243.961	100.730	-0.186	-0.214
-242.946	563.625	-0.149	-0.358
-241.932	-22.664	0.022	-0.013
-240.917	-71.052	0.243	0.091
-239.903	134.600	-0.228	0.294
-238.888	-179.357	0.146	-0.003
-237.873	-138.513	-0.286	0.031
-236.859	800.000	0.057	0.239
-235.844	-21.491	-0.303	-0.184
-234.830	235.833	0.061	0.100
-233.815	39.649	-0.239	-0.212
-232.800	38.602	-0.054	-0.048
-231.786	147.429	-0.162	0.216
-230.771	285.846	0.133	-0.238
-229.757	-200.000	-0.006	0.243
-228.742	17.866	0.198	0.156
-227.727	544.747	0.057	0.136
-226.713	800.000	0.074	0.264
-225.698	-92.612	0.102	0.028
-224.684	82.374	-0.134	-0.144
-223.669	110.073	0.158	-0.188
-222.655	36.672	-0.030	-0.026
-221.640	-155.741	-0.258	-0.016
-220.625	-86.017	0.125	0.038
-219.611	-45.461	0.216	-0.106
-218.596	124.273	-0.113	0.141
-217.582	-200.000	-0.018	0.319
-216.567	-176.206	-0.140	-0.004
-215.552	255.417	-0.068	-0.116
-214.538	87.567	-0.118	0.130
-213.523	73.982	0.133	0.138
-212.509	327.472	0.077	0.147
-211.494	-99.004	0.120	-0.030
-210.479	152.813	-0.200	-0.271
-209.465	167.798	0.131	0.184
-208.450	-40.011	0.374	0.193
-207.436	-5.485	-0.078	0.053
-206.421	-53.441	0.223	-0.101
-205.406	-200.000	-0.001	-0.364
-204.392	-200.000	-0.014	-0.262
-203.377	-125.873	-0.026	0.004
-202.363	66.581	0.133	-0.134
-201.348	-129.639	0.503	0.069
-200.333	-190.259	0.510	0.006
-199.319	125.957	0.077	0.096
-198.304	488.367	0.035	0.080
-197.290	48.364	-0.140	0.130
-196.275	-200.000	0.021	0.169
-195.260	170.375	-0.055	-0.079
-194.246	800.000	-0.033	0.137
-193.231	-159.064	0.040	-0.002
-192.217	354.707	0.113	0.223
-191.202	800.000	0.069	0.236
-190.187	-59.732	-0.281	-0.119
-189.173	-200.000	0.012	-0.340
-188.158	539.468	-0.112	-0.265
-187.144	-200.000	-0.007	0.049
-186.129	-200.000	0.008	-0.066
-185.114	533.952	0.134	0.316
-184.100	800.000	-0.151	0.469
-183.085	-107.802	0.285	-0.061
-182.071	382.574	-0.088	0.179
-181.056	-159.498	-0.247	0.014
-180.042	8.432	-0.191	0.142
-179.027	800.000	-0.127	0.445
-178.012	362.835	0.068	-0.135
-176.998	56.663	-0.241	-0.232
-175.983	433.824	-0.057	0.122
-174.969	9.097	0.185	0.139
-173.954	623.601	0.014	-0.034
-172.939	800.000	-0.040	-0.132
-171.925	-200.000	-0.015	0.175
-170.910	80.510	0.137	-0.146
-169.896	-200.000	0.016	-0.266
-168.881	-7.243	-0.448	0.301
-167.866	-35.540	-0.120	0.065
-166.852	20.830	0.161	-0.129
-165.837	203.971	-0.173	0.265
-164.823	-87.331	0.325	-0.097
-163.808	-77.867	-0.238	-0.081
-162.793	-200.000	0.013	0.074
-161.779	-145.187	0.089	0.008
-160.764	-89.845	0.053	-0.015
-159.750	6.830	-0.122	0.090
-158.735	41.457	-0.281	0.252
-157.720	176.482	-0.086	-0.123
-156.706	-40.955	0.254	-0.130
-155.691	-134.966	-0.337	-0.040
-154.677	-46.187	0.069	0.034
-153.662	-200.000	0.000	-0.065
-152.647	-200.000	0.046	0.352
-151.633	5.491	0.181	-0.132
-150.618	800.000	0.029	0.113
-149.604	-200.000	-0.002	0.290
-148.589	-42.801	0.232	-0.117
-147.574	-200.000	-0.010	-0.180
-146.560	-200.000	0.012	0.138
-145.545	20.903	0.133	-0.107
-144.531	800.000	0.132	0.394
-143.516	-14.864	0.281	0.179
-142.502	-33.218	0.109	0.060
-141.487	-141.922	0.274	0.027
-140.472	70.574	0.342	-0.350
-139.458	-94.074	-0.013	-0.003
-138.443	-56.094	0.157	0.069
-137.429	800.000	0.074	0.205
-136.414	-84.211	0.301	-0.094
-135.399	-46.663	0.068	0.033
-134.385	125.355	0.201	-0.251
-133.370	-200.000	-0.028	-0.176
-132.356	-200.000	-0.011	0.404
-131.341	189.568	0.165	0.244
-130.326	142.600	0.306	-0.401
-129.312	-123.300	-0.052	0.008
-128.297	-191.593	-0.243	-0.002
-127.283	14.634	0.021	-0.017
-126.268	54.643	0.186	0.177
-125.253	13.079	-0.056	-0.043
-124.239	663.842	-0.110	0.281
-123.224	-167.774	-0.386	0.015
-122.210	800.000	0.054	0.188
-121.195	-29.888	-0.177	0.100
-120.180	-159.945	0.220	-0.012
