DTS Sentinel unit serial number:	SN413079Multiplexer serial number:	ORYXHardware model number:	OX4-SRSoftware version number:	ORYX F/W v4.00 Oryx Data Collector v3.7.2.0data status	okinstallation	princeton_trtdifferential loss correction	single-endedforward channel	channel 2reverse channel	N/Adate	2019/09/14time	12:27:34forward acquisition time	60.00reverse acquisition time	0.00gamma	496.2192k internal	0.2306k external	0.2306temperature offset calibration	1.0150default loss term (dB/km)	0.3790temperature slope calibration	1.0000multiplexer offset coefficient	1.0000multiplexer slope coefficient	1.0000fibre end	0.00T internal ref (°C)	37.87T ext. ref 1 (°C)	4.75T ext. ref 2 (°C)	34.92length (m)	temperature (°C)	Stokes	anti-Stokes-747.200	-131.926	-0.237	-0.031
-746.185	-126.225	-0.323	-0.049
-745.171	82.071	-0.171	0.188
-744.156	320.802	0.110	0.213
-743.142	697.515	0.094	-0.252
-742.127	-150.604	0.254	-0.020
-741.112	-200.000	0.025	0.113
-740.098	243.076	0.117	-0.200
-739.083	-200.000	-0.005	-0.342
-738.069	319.262	0.099	0.191
-737.054	131.315	-0.163	-0.213
-736.039	37.071	-0.076	-0.069
-735.025	69.388	0.073	0.076
-734.010	26.884	-0.183	-0.156
-732.996	800.000	-0.089	-0.252
-731.981	-166.506	-0.133	-0.006
-730.966	254.713	-0.098	0.171
-729.952	411.544	0.049	0.106
-728.937	32.854	-0.116	0.102
-727.923	5.166	-0.243	0.182
-726.908	52.790	0.078	-0.076
-725.894	42.854	-0.221	0.205
-724.879	-200.000	0.018	-0.094
-723.864	800.000	-0.054	0.233
-722.850	466.222	-0.132	-0.300
-721.835	87.213	-0.097	0.109
-720.821	114.951	-0.234	-0.290
-719.806	-22.111	0.229	-0.141
-718.791	9.497	-0.294	-0.226
-717.777	53.318	-0.110	-0.108
-716.762	-44.606	0.064	0.032
-715.748	-200.000	0.014	-0.088
-714.733	-200.000	-0.286	-0.001
-713.718	-200.000	0.008	-0.217
-712.704	-157.464	-0.251	-0.015
-711.689	221.363	-0.103	0.167
-710.675	363.363	-0.094	-0.193
-709.660	221.686	0.047	-0.076
-708.645	-161.749	-0.383	0.020
-707.631	325.074	-0.110	-0.213
-706.616	90.518	-0.273	-0.310
-705.602	-200.000	0.035	0.287
-704.587	-69.492	-0.405	-0.158
-703.572	800.000	0.043	0.183
-702.558	-149.676	-0.026	0.002
-701.543	800.000	-0.014	-0.060
-700.529	288.386	-0.061	-0.113
-699.514	138.491	0.315	-0.420
-698.499	-200.000	-0.058	-0.308
-697.485	-200.000	-0.023	-0.512
-696.470	-52.705	-0.252	0.118
-695.456	-200.000	0.015	0.167
-694.441	-45.002	-0.198	-0.100
-693.426	-200.000	-0.004	-0.144
-692.412	13.594	-0.148	-0.116
-691.397	235.958	-0.111	0.186
-690.383	800.000	-0.141	0.486
-689.368	-200.000	0.008	-0.137
-688.354	800.000	-0.079	0.226
-687.339	-36.642	-0.135	0.074
-686.324	-37.753	-0.414	-0.224
-685.310	-86.872	-0.196	-0.061
-684.295	-102.637	-0.101	-0.024
-683.281	41.786	-0.189	0.173
-682.266	800.000	-0.052	-0.224
-681.251	-200.000	-0.016	-0.117
-680.237	56.015	0.057	-0.056
-679.222	-105.116	0.204	0.047
-678.208	800.000	0.047	-0.155
-677.193	-73.105	-0.137	0.051
-676.178	9.105	0.227	-0.174
-675.164	300.267	-0.147	-0.275
-674.149	-17.877	-0.118	-0.075
-673.135	-200.000	-0.005	-0.193
-672.120	474.169	-0.036	-0.083
-671.105	-200.000	0.021	0.202
-670.091	-200.000	0.007	-0.044
-669.076	152.634	0.230	-0.319
-668.062	674.611	-0.045	-0.119
-667.047	-132.047	-0.117	-0.015
-666.032	-200.000	-0.022	0.390
-665.018	-93.953	-0.324	0.090
-664.003	9.997	0.222	-0.171
-662.989	98.519	0.126	-0.148
-661.974	-13.094	0.102	0.067
-660.959	-200.000	-0.011	-0.212
-659.945	-193.400	0.283	0.002
-658.930	224.962	0.147	-0.240
-657.916	-200.000	-0.011	0.253
-656.901	-200.000	-0.017	0.218
-655.886	-76.812	-0.227	-0.081
-654.872	-67.073	0.398	-0.159
-653.857	89.926	-0.148	0.167
-652.843	76.442	0.276	-0.296
-651.828	474.527	-0.139	0.317
-650.814	-132.112	-0.169	0.022
-649.799	-200.000	0.007	0.187
-648.784	-80.420	0.101	0.034
-647.770	-200.000	0.024	-0.187
-646.755	150.789	-0.071	-0.097
-645.741	43.520	0.095	0.088
-644.726	282.344	0.051	-0.092
-643.711	-111.110	0.096	-0.020
-642.697	-200.000	-0.005	-0.316
-641.682	450.778	-0.059	0.133
-640.668	-180.554	-0.236	-0.005
-639.653	-91.323	0.124	0.036
-638.638	-159.194	0.203	-0.012
-637.624	800.000	-0.088	0.382
-636.609	105.913	-0.180	-0.215
-635.595	44.776	-0.214	0.199
-634.580	-49.867	0.092	0.044
-633.565	206.268	0.128	-0.202
-632.551	159.218	-0.075	-0.106
-631.536	-200.000	0.003	-0.202
-630.522	96.864	-0.152	0.176
-629.507	-48.815	-0.095	0.046
-628.492	25.318	0.083	0.070
-627.478	-200.000	0.007	-0.059
-626.463	800.000	-0.054	-0.236
-625.449	-53.982	-0.127	-0.058
-624.434	800.000	-0.013	0.059
-623.419	377.280	0.054	-0.112
-622.405	-200.000	-0.045	0.247
-621.390	60.512	-0.232	0.232
-620.376	-96.088	-0.100	0.027
-619.361	-176.917	0.204	-0.005
-618.346	-72.168	-0.300	-0.113
-617.332	4.091	-0.245	-0.181
-616.317	158.051	0.238	-0.334
-615.303	163.201	-0.028	-0.040
-614.288	30.513	-0.303	-0.262
-613.273	-200.000	-0.009	-0.056
-612.259	-35.061	0.111	0.061
-611.244	-117.911	-0.183	-0.033
-610.230	800.000	0.088	0.329
-609.215	38.345	0.097	0.087
-608.201	189.616	-0.196	0.298
-607.186	800.000	-0.067	0.241
-606.171	-95.818	0.269	-0.073
-605.157	-200.000	-0.064	-0.292
-604.142	-52.563	-0.335	-0.157
-603.128	800.000	-0.045	-0.143
-602.113	-200.000	-0.030	0.589
-601.098	24.836	-0.309	-0.259
-600.084	128.340	-0.179	-0.231
-599.069	40.631	-0.117	-0.107
-598.055	-34.136	0.111	0.062
-597.040	-6.590	0.131	0.090
-596.025	800.000	0.013	-0.042
-595.011	112.029	-0.087	0.107
-593.996	89.980	-0.134	0.151
-592.982	-60.819	0.055	0.024
-591.967	-200.000	-0.017	-0.376
-590.952	-76.713	0.249	-0.088
-589.938	-93.768	-0.131	0.037
-588.923	-72.123	-0.418	0.157
-587.909	4.131	-0.207	-0.153
-586.894	-200.000	-0.015	-0.199
-585.879	231.907	0.082	-0.136
-584.865	-45.947	-0.409	0.204
-583.850	233.668	-0.123	0.205
-582.836	-3.574	0.418	0.294
-581.821	-111.601	0.111	-0.023
-580.806	-95.375	-0.229	-0.062
-579.792	-50.831	0.200	0.095
-578.777	114.458	0.132	0.163
-577.763	436.763	-0.163	0.359
-576.748	-200.000	0.004	-0.208
-575.733	-121.752	0.212	-0.035
-574.719	345.261	-0.068	0.136
-573.704	-41.077	-0.523	0.273
-572.690	20.797	-0.328	-0.269
-571.675	-16.313	-0.282	-0.181
-570.661	-60.020	0.205	-0.089
-569.646	-55.330	0.188	0.085
-568.631	44.742	0.063	0.059
-567.617	-166.051	-0.123	0.005
-566.602	328.957	-0.106	-0.205
-565.588	-200.000	0.007	0.115
-564.573	109.604	0.092	-0.112
-563.558	-49.371	0.077	-0.037
-562.544	101.539	0.035	0.041
-561.529	144.670	0.228	0.307
-560.515	-200.000	-0.028	-0.179
-559.500	800.000	-0.091	-0.260
-558.485	130.682	-0.259	0.335
-557.471	-200.000	-0.024	0.222
-556.456	-200.000	-0.004	0.113
-555.442	144.938	-0.155	0.209
-554.427	-42.852	-0.128	-0.066
-553.412	683.322	0.023	-0.061
-552.398	658.376	-0.058	0.151
-551.383	-171.127	-0.135	-0.005
-550.369	69.378	0.068	0.070
-549.354	-200.000	0.036	0.166
-548.339	-200.000	-0.019	-0.164
-547.325	-200.000	0.003	-0.048
-546.310	91.091	0.093	0.105
-545.296	57.602	0.302	0.298
-544.281	-56.233	-0.479	0.215
-543.266	44.040	0.148	0.137
-542.252	193.226	-0.074	0.113
-541.237	320.123	-0.105	0.201
-540.223	-91.720	0.276	0.079
-539.208	-134.147	0.187	0.023
-538.193	713.446	-0.083	-0.223
-537.179	-101.586	0.146	0.036
-536.164	509.683	-0.097	0.229
-535.150	-15.023	-0.159	-0.103
-534.135	116.303	-0.115	0.142
-533.121	27.672	-0.205	0.174
-532.106	-121.814	-0.291	0.048
-531.091	-200.000	-0.026	0.144
-530.077	800.000	0.061	-0.206
-529.062	43.067	0.289	0.266
-528.048	-37.747	-0.157	-0.085
-527.033	-180.501	-0.144	-0.003
-526.018	-48.007	-0.196	-0.096
-525.004	-3.696	-0.362	0.253
-523.989	-71.820	0.188	0.071
-522.975	62.800	-0.137	0.138
-521.960	-35.878	0.070	-0.038
-520.945	387.490	0.137	0.285
-519.931	33.524	-0.284	-0.249
-518.916	71.867	-0.105	-0.111
-517.902	565.216	0.106	-0.260
-516.887	-200.000	-0.058	-0.362
-515.872	161.686	0.108	-0.153
-514.858	-37.346	0.200	-0.108
-513.843	-200.000	-0.039	-0.241
-512.829	-134.185	-0.176	-0.022
-511.814	-146.151	0.114	-0.010
-510.799	-200.000	0.035	0.155
-509.785	-83.642	-0.181	-0.058
-508.770	798.160	0.065	0.181
-507.756	115.515	-0.244	0.300
-506.741	800.000	-0.057	0.195
-505.726	209.246	0.074	-0.117
-504.712	-58.886	-0.073	0.032
-503.697	3.675	-0.180	0.133
-502.683	155.055	-0.066	-0.091
-501.668	59.505	-0.091	0.091
-500.653	-200.000	0.032	-0.147
-499.639	590.042	-0.064	-0.159
-498.624	568.119	-0.038	0.093
-497.610	-200.000	0.007	0.059
-496.595	800.000	0.068	0.228
-495.581	800.000	0.056	-0.170
-494.566	-200.000	-0.008	-0.051
-493.551	800.000	0.023	-0.072
-492.537	-200.000	0.015	0.371
-491.522	238.710	-0.019	-0.031
-490.508	29.697	0.102	0.088
-489.493	50.006	-0.164	0.156
-488.478	-27.294	-0.250	-0.146
-487.464	-84.446	-0.148	0.047
-486.449	59.424	0.243	0.241
-485.435	31.414	-0.212	-0.183
-484.420	33.728	0.113	-0.099
-483.405	530.604	-0.080	0.191
-482.391	114.306	0.144	-0.177
-481.376	96.634	-0.209	0.241
-480.362	46.041	-0.156	-0.145
-479.347	-200.000	0.030	-0.148
-478.332	81.029	0.140	0.152
-477.318	-108.318	0.415	0.090
-476.303	-130.870	0.277	0.037
-475.289	-41.342	0.118	0.061
-474.274	678.787	0.158	-0.414
-473.259	-111.558	0.203	0.041
-472.245	493.325	0.019	-0.043
-471.230	-127.147	0.415	-0.061
-470.216	112.223	0.221	-0.269
-469.201	-95.318	0.203	-0.055
-468.186	335.813	-0.168	0.329
-467.172	699.293	-0.068	0.179
-466.157	-200.000	-0.023	-0.138
-465.143	36.743	-0.205	-0.183
-464.128	-87.397	-0.485	-0.148
-463.113	495.513	-0.037	-0.085
-462.099	-28.062	-0.337	0.196
-461.084	123.285	0.109	-0.137
-460.070	-34.457	0.097	0.054
-459.055	-200.000	-0.070	-0.360
-458.040	-113.873	0.180	0.035
-457.026	-200.000	0.026	0.157
-456.011	-177.328	0.082	0.002
-454.997	-184.271	-0.052	0.001
-453.982	142.487	0.099	0.133
-452.968	800.000	-0.110	0.327
-451.953	800.000	-0.069	0.202
-450.938	196.697	-0.118	0.181
-449.924	42.840	0.337	-0.309
-448.909	800.000	0.065	-0.207
-447.895	800.000	-0.042	0.128
-446.880	105.942	-0.251	0.299
-445.865	309.905	0.018	0.035
-444.851	258.375	-0.029	0.051
-443.836	6.132	0.164	-0.122
-442.822	-200.000	0.006	-0.034
-441.807	95.912	-0.275	-0.316
-440.792	66.554	-0.256	-0.262
-439.778	236.362	0.080	-0.133
-438.763	114.271	0.251	-0.307
-437.749	-113.404	-0.350	0.069
-436.734	-125.996	-0.210	0.032
-435.719	-200.000	0.036	-0.236
-434.705	162.561	-0.193	-0.272
-433.690	-42.705	-0.150	-0.077
-432.676	233.039	-0.112	0.185
-431.661	7.411	-0.277	0.208
-430.646	493.735	0.145	0.335
-429.632	800.000	-0.037	0.111
-428.617	-196.305	0.218	-0.002
-427.603	-118.664	0.403	-0.071
-426.588	-63.437	-0.350	0.145
-425.573	-90.617	0.117	-0.034
-424.559	-46.692	0.208	0.102
-423.544	56.027	0.162	0.158
-422.530	100.211	-0.075	0.088
-421.515	-78.358	0.236	-0.081
-420.500	185.910	0.123	0.184
-419.486	54.129	0.053	-0.051
-418.471	-86.935	0.144	-0.044
-417.457	800.000	-0.058	-0.254
-416.442	166.211	-0.186	-0.264
-415.428	-33.829	0.078	-0.043
-414.413	-200.000	0.043	-0.235
-413.398	238.865	-0.155	-0.259
-412.384	147.320	0.157	-0.213
-411.369	-200.000	-0.037	-0.239
-410.355	-200.000	-0.049	0.326
-409.340	-74.764	-0.235	-0.085
-408.325	-200.000	0.004	-0.081
-407.311	-62.294	-0.191	-0.080
-406.296	-200.000	0.033	-0.162
-405.282	-97.682	-0.232	-0.060
-404.267	-114.408	-0.106	0.020
-403.252	441.751	-0.073	0.160
-402.238	-97.413	0.181	-0.047
-401.223	-91.628	-0.070	0.020
-400.209	7.354	-0.178	-0.134
-399.194	129.255	0.081	0.104
-398.179	698.935	0.091	0.241
-397.165	800.000	0.077	0.238
-396.150	62.419	0.196	0.196
-395.136	-77.311	0.423	0.148
-394.121	-71.152	0.061	-0.023
-393.106	-147.404	-0.210	-0.018
-392.092	13.735	-0.207	0.162
-391.077	290.369	0.123	-0.224
-390.063	3.794	-0.231	-0.169
-389.048	334.115	0.082	-0.159
-388.033	10.089	0.282	-0.215
-387.019	-151.668	0.145	-0.011
-386.004	-62.298	0.103	-0.043
-384.990	-91.824	-0.086	-0.024
-383.975	-200.000	-0.026	-0.132
-382.960	119.097	-0.066	0.081
-381.946	63.420	0.102	-0.103
-380.931	-200.000	-0.015	-0.099
-379.917	800.000	0.041	-0.132
-378.902	800.000	-0.049	0.181
-377.888	-178.157	-0.149	0.004
-376.873	114.936	0.128	-0.157
-375.858	-143.674	0.246	0.023
-374.844	800.000	-0.042	-0.124
-373.829	-200.000	0.039	-0.283
-372.815	9.725	0.049	0.037
-371.800	800.000	0.079	0.221
-370.785	-43.422	0.264	0.134
-369.771	-200.000	0.008	-0.035
-368.756	30.424	0.162	-0.139
-367.742	-124.041	-0.205	-0.032
-366.727	-113.152	-0.325	0.064
-365.712	106.251	-0.248	0.295
-364.698	-200.000	-0.049	0.236
-363.683	-200.000	-0.020	0.129
-362.669	283.717	0.132	-0.238
-361.654	800.000	-0.032	-0.109
-360.639	-200.000	-0.000	0.066
-359.625	-70.187	0.090	-0.034
-358.610	-200.000	-0.029	0.234
-357.596	170.524	0.066	-0.094
-356.581	800.000	-0.084	-0.324
-355.566	270.791	-0.093	0.164
-354.552	-77.469	-0.172	0.060
-353.537	73.637	0.251	0.264
-352.523	800.000	-0.107	-0.355
-351.508	-74.891	0.190	0.068
-350.493	98.232	-0.212	-0.244
-349.479	233.602	0.089	-0.146
-348.464	-200.000	0.042	-0.194
-347.450	53.930	0.205	-0.198
-346.435	-200.000	-0.004	0.309
-345.420	800.000	0.028	0.101
-344.406	-150.903	0.049	0.004
-343.391	10.081	0.161	-0.123
-342.377	182.444	0.142	0.210
-341.362	-9.889	0.162	0.108
-340.348	-200.000	-0.046	-0.231
-339.333	-149.009	-0.282	-0.023
-338.318	366.308	0.103	0.208
-337.304	-23.441	-0.052	0.031
-336.289	63.146	0.124	0.125
-335.275	-119.110	0.275	0.048
-334.260	78.676	-0.207	0.221
-333.245	39.648	0.079	-0.071
-332.231	-200.000	-0.005	-0.034
-331.216	-180.228	-0.048	0.001
-330.202	-70.985	-0.294	0.111
-329.187	593.942	-0.131	-0.324
-328.172	-53.443	0.090	-0.041
-327.158	-39.948	0.171	-0.089
-326.143	722.646	-0.112	0.298
-325.129	22.902	0.162	0.133
-324.114	-58.673	-0.098	0.043
-323.099	54.606	-0.100	-0.096
-322.085	-89.021	-0.283	0.084
-321.070	487.373	0.081	0.185
-320.056	-2.709	0.294	0.206
-319.041	70.294	0.242	0.250
-318.026	-38.280	-0.098	-0.052
-317.012	215.140	-0.070	-0.111
-315.997	233.830	0.098	0.162
-314.983	-54.007	0.150	0.068
-313.968	91.380	-0.316	0.355
-312.953	-200.000	0.003	0.408
-311.939	-57.547	0.261	-0.115
-310.924	-200.000	0.056	0.246
-309.910	-75.793	-0.307	-0.109
-308.895	-81.838	0.283	-0.093
-307.880	-141.913	-0.102	0.010
-306.866	800.000	0.020	0.086
-305.851	237.071	0.078	-0.129
-304.837	-100.417	0.395	-0.098
-303.822	-13.716	-0.206	0.133
-302.807	-61.719	0.133	-0.056
-301.793	-5.435	0.128	-0.088
-300.778	68.692	0.093	-0.095
-299.764	-18.688	0.250	0.156
-298.749	-32.403	-0.014	0.008
-297.735	-69.381	-0.134	0.052
-296.720	-50.184	-0.034	0.016
-295.705	147.536	0.203	-0.274
-294.691	-133.331	-0.237	0.030
-293.676	-0.535	0.190	-0.135
-292.662	31.650	0.092	-0.079
-291.647	-164.510	0.087	0.004
-290.632	-200.000	0.009	0.145
-289.618	-191.642	-0.206	0.002
-288.603	800.000	0.070	-0.203
-287.589	3.604	0.246	0.179
-286.574	294.586	0.054	0.099
-285.559	252.534	0.143	-0.244
-284.545	-104.442	0.088	0.020
-283.530	219.975	0.071	-0.113
-282.516	231.775	-0.166	-0.272
-281.501	-200.000	0.005	0.023
-280.486	61.209	0.151	-0.150
-279.472	-115.927	0.348	0.065
-278.457	3.912	-0.467	-0.341
-277.443	-36.834	-0.131	-0.070
-276.428	14.322	0.353	0.275
-275.413	-47.113	0.114	0.055
-274.399	50.037	0.165	0.156
-273.384	-21.452	-0.159	-0.097
-272.370	67.626	-0.036	0.037
-271.355	512.461	-0.188	-0.437
-270.340	-200.000	-0.042	0.425
-269.326	260.721	0.119	0.206
-268.311	317.451	0.214	-0.403
-267.297	208.996	0.068	-0.106
-266.282	62.321	0.140	0.140
-265.267	-200.000	-0.001	0.137
-264.253	800.000	0.067	-0.256
-263.238	-176.569	0.178	0.005
-262.224	-45.029	-0.305	0.151
-261.209	-21.788	0.396	0.241
-260.195	51.490	0.093	0.088
-259.180	-200.000	-0.075	0.412
-258.165	800.000	-0.070	-0.241
-257.151	-12.401	0.291	-0.190
-256.136	303.707	0.129	0.238
-255.122	-66.995	-0.085	0.033
-254.107	-103.923	-0.210	0.049
-253.092	-108.857	0.492	-0.105
-252.078	-200.000	0.052	0.254
-251.063	-110.836	0.334	-0.069
-250.049	-91.762	0.108	0.031
-249.034	-15.919	-0.250	-0.159
-248.019	41.599	0.222	0.200
-247.005	196.435	0.213	0.324
-245.990	-200.000	-0.065	0.357
-244.976	61.077	-0.329	-0.326
-243.961	93.618	0.163	0.184
-242.946	-152.355	0.287	-0.021
-241.932	-200.000	-0.008	0.071
-240.917	-200.000	-0.015	-0.422
-239.903	-157.859	0.424	0.025
-238.888	-72.624	-0.107	0.039
-237.873	155.929	-0.110	-0.151
-236.859	-78.538	0.108	-0.037
-235.844	177.888	0.209	0.304
-234.830	48.571	0.138	-0.129
-233.815	-22.308	-0.194	-0.117
-232.800	-200.000	0.066	-0.470
-231.786	-53.153	0.128	-0.059
-230.771	-83.922	0.027	0.009
-229.757	-61.365	0.357	-0.150
-228.742	-200.000	-0.021	-0.100
-227.727	230.582	-0.165	0.269
-226.713	800.000	-0.060	-0.256
-225.698	-90.152	0.013	0.004
-224.684	0.633	0.241	0.172
-223.669	432.528	-0.068	0.146
-222.655	-144.586	-0.325	0.030
-221.640	126.643	-0.164	-0.207
-220.625	404.935	-0.092	0.193
-219.611	800.000	0.033	0.110
-218.596	-10.182	-0.125	-0.082
-217.582	43.812	-0.181	-0.165
-216.567	-200.000	0.017	0.129
-215.552	269.685	0.191	-0.334
-214.538	-93.055	-0.057	0.016
-213.523	-158.729	0.407	0.023
-212.509	-3.406	0.309	0.214
-211.494	-111.563	-0.326	-0.066
-210.479	-68.441	-0.100	-0.039
-209.465	-200.000	-0.012	-0.199
-208.450	97.982	0.272	0.312
-207.436	-200.000	-0.006	-0.045
-206.421	66.185	0.078	-0.079
-205.406	-200.000	0.011	-0.391
-204.392	109.727	-0.253	-0.303
-203.377	280.720	-0.156	-0.278
-202.363	45.531	-0.088	0.081
-201.348	86.256	0.266	0.292
-200.333	-38.056	-0.306	0.162
-199.319	414.117	0.127	-0.269
-198.304	-200.000	0.015	0.104
-197.290	-145.458	0.137	0.012
-196.275	-109.543	0.125	0.026
-195.260	126.732	-0.306	0.386
-194.246	-185.138	-0.189	0.003
-193.231	-3.805	0.296	-0.204
-192.217	-200.000	-0.017	-0.150
-191.202	-40.693	-0.115	0.059
-190.187	127.566	0.109	0.137
-189.173	-42.651	0.052	0.026
-188.158	46.722	0.091	0.084
-187.144	-27.965	0.324	-0.187
-186.129	-177.382	0.319	0.008
-185.114	166.440	-0.189	0.267
-184.100	-104.800	-0.237	-0.054
-183.085	800.000	-0.060	0.194
-182.071	-200.000	-0.038	-0.195
-181.056	64.232	-0.109	-0.109
-180.042	-21.362	0.111	-0.068
-179.027	-121.539	-0.369	0.061
-178.012	-162.780	0.256	0.012
-176.998	-159.388	0.189	0.011
-175.983	258.355	0.068	0.117
-174.969	172.337	-0.105	-0.150
-173.954	800.000	0.120	-0.392
-172.939	800.000	-0.095	-0.355
-171.925	800.000	0.066	-0.236
-170.910	139.345	-0.053	-0.069
-169.896	800.000	0.053	-0.146
-168.881	-200.000	0.023	0.172
-167.866	5.083	-0.327	0.239
-166.852	-200.000	-0.024	0.204
-165.837	-141.797	-0.168	0.017
-164.823	800.000	-0.086	-0.328
-163.808	95.466	0.082	-0.093
-162.793	-200.000	0.001	0.181
-161.779	112.160	-0.144	-0.174
-160.764	-88.018	0.061	0.018
-159.750	145.539	-0.123	-0.164
-158.735	-31.830	0.147	0.082
-157.720	206.433	0.145	-0.225
-156.706	20.110	-0.131	-0.105
-155.691	212.816	0.073	-0.114
-154.677	326.380	0.140	0.267
-153.662	1.648	-0.087	0.062
-152.647	-90.321	-0.231	-0.067
-151.633	-200.000	0.016	0.107
-150.618	-120.762	-0.155	-0.026
-149.604	800.000	-0.118	-0.387
-148.589	-21.317	0.250	-0.152
-147.574	46.412	0.218	-0.201
-146.560	528.024	-0.147	-0.345
-145.545	-200.000	-0.013	-0.205
-144.531	397.886	-0.063	-0.131
-143.516	800.000	0.094	-0.267
-142.502	800.000	0.029	0.085
-141.487	-15.301	-0.115	-0.073
-140.472	-174.728	-0.059	-0.002
-139.458	-200.000	0.008	-0.148
-138.443	-200.000	0.024	0.243
-137.429	146.047	-0.183	0.243
-136.414	-51.547	0.162	0.075
-135.399	-92.606	0.231	-0.064
-134.385	-200.000	0.005	-0.318
-133.370	-200.000	-0.024	-0.267
-132.356	-200.000	-0.004	-0.188
-131.341	-10.722	0.020	-0.013
-130.326	-200.000	0.020	-0.224
-129.312	721.363	0.041	-0.109
-128.297	212.627	0.115	0.181
-127.283	-29.805	0.092	-0.052
-126.268	-68.838	-0.250	-0.096
-125.253	800.000	0.052	0.165
-124.239	-4.515	-0.238	0.163
-123.224	-84.700	-0.148	-0.046
-122.210	64.501	-0.061	-0.061
-121.195	-70.159	0.196	0.074
