DTS Sentinel unit serial number:	SN413079Multiplexer serial number:	ORYXHardware model number:	OX4-SRSoftware version number:	ORYX F/W v4.00 Oryx Data Collector v3.7.2.0data status	okinstallation	princeton_trtdifferential loss correction	single-endedforward channel	channel 2reverse channel	N/Adate	2019/09/19time	10:43:34forward acquisition time	60.00reverse acquisition time	0.00gamma	496.2192k internal	0.2341k external	0.2341temperature offset calibration	1.0005default loss term (dB/km)	0.3790temperature slope calibration	1.0000multiplexer offset coefficient	1.0000multiplexer slope coefficient	1.0000fibre end	0.00T internal ref (°C)	24.62T ext. ref 1 (°C)	0.74T ext. ref 2 (°C)	20.14length (m)	temperature (°C)	Stokes	anti-Stokes-747.200	326.772	0.078	-0.150
-746.185	275.838	-0.159	0.283
-745.171	-140.116	0.272	0.029
-744.156	92.319	-0.217	0.246
-743.142	-108.611	-0.395	0.085
-742.127	-113.137	0.174	-0.034
-741.112	-200.000	0.022	-0.202
-740.098	95.692	-0.223	-0.255
-739.083	-200.000	0.055	-0.313
-738.069	-141.645	-0.266	0.027
-737.054	143.521	-0.028	0.037
-736.039	-200.000	-0.042	-0.187
-735.025	132.740	0.227	-0.294
-734.010	800.000	-0.117	-0.504
-732.996	-151.347	0.134	0.010
-731.981	131.243	-0.130	-0.167
-730.966	18.539	-0.146	0.117
-729.952	233.227	0.019	-0.031
-728.937	-172.113	0.049	-0.002
-727.923	-66.561	-0.373	-0.148
-726.908	-55.549	0.119	0.053
-725.894	292.021	0.099	-0.181
-724.879	-200.000	0.006	-0.033
-723.864	138.462	-0.161	0.212
-722.850	-200.000	-0.012	-0.168
-721.835	-156.171	-0.170	-0.011
-720.821	-112.085	-0.134	0.027
-719.806	-22.091	-0.336	-0.204
-718.791	-200.000	0.000	-0.169
-717.777	150.061	0.166	-0.226
-716.762	-57.649	-0.144	-0.063
-715.748	-200.000	-0.010	-0.118
-714.733	-160.323	0.194	-0.010
-713.718	-50.645	0.058	-0.027
-712.704	-76.345	-0.148	-0.052
-711.689	-200.000	0.003	-0.107
-710.675	-7.165	0.214	-0.145
-709.660	-200.000	0.034	-0.420
-708.645	-200.000	-0.050	0.252
-707.631	-85.502	0.307	0.096
-706.616	-200.000	0.006	-0.146
-705.602	44.426	-0.190	-0.174
-704.587	-200.000	0.061	-0.320
-703.572	-183.264	0.256	-0.004
-702.558	78.644	-0.083	-0.089
-701.543	427.419	0.059	0.127
-700.529	2.694	-0.248	0.180
-699.514	-123.450	-0.030	0.005
-698.499	800.000	0.058	-0.190
-697.485	-200.000	0.043	0.485
-696.470	507.173	-0.024	-0.055
-695.456	-76.362	0.218	0.077
-694.441	95.705	-0.064	-0.073
-693.426	-72.105	0.364	0.135
-692.412	-68.106	-0.292	-0.114
-691.397	-163.387	-0.138	-0.007
-690.383	78.171	0.182	0.194
-689.368	-70.278	0.169	-0.064
-688.354	-142.739	0.170	-0.017
-687.339	800.000	-0.057	-0.173
-686.324	-200.000	-0.028	-0.270
-685.310	-92.110	-0.277	-0.078
-684.295	-114.999	0.159	-0.030
-683.281	8.757	0.137	-0.104
-682.266	159.947	-0.280	-0.390
-681.251	800.000	-0.013	0.055
-680.237	121.687	-0.091	-0.114
-679.222	-88.080	0.319	-0.096
-678.208	-168.255	0.367	-0.014
-677.193	-25.623	0.176	-0.104
-676.178	-200.000	0.034	-0.282
-675.164	118.921	-0.169	-0.208
-674.149	91.307	-0.148	-0.166
-673.135	-59.436	0.325	-0.140
-672.120	-108.569	-0.198	-0.042
-671.105	379.164	-0.118	0.242
-670.091	113.324	0.169	-0.205
-669.076	68.637	-0.111	0.114
-668.062	5.093	-0.369	-0.272
-667.047	-200.000	-0.008	-0.343
-666.032	-35.589	0.369	-0.200
-665.018	800.000	0.082	0.230
-664.003	404.230	-0.010	-0.021
-662.989	-175.182	0.256	0.007
-661.974	163.050	0.022	0.031
-660.959	-200.000	0.007	-0.222
-659.945	-200.000	-0.039	0.274
-658.930	733.355	0.148	-0.395
-657.916	275.457	0.128	-0.227
-656.901	-191.282	-0.185	0.002
-655.886	-200.000	0.006	-0.046
-654.872	-179.503	-0.212	-0.005
-653.857	-200.000	-0.053	-0.256
-652.843	164.329	-0.282	-0.397
-651.828	-200.000	-0.071	-0.357
-650.814	41.381	0.172	0.155
-649.799	-71.940	-0.066	0.024
-648.784	395.267	0.061	-0.126
-647.770	645.282	-0.047	-0.120
-646.755	-17.176	0.077	0.048
-645.741	116.025	-0.222	0.272
-644.726	800.000	0.138	0.591
-643.711	40.731	0.207	0.186
-642.697	-20.969	0.066	0.040
-641.682	-101.846	-0.134	0.032
-640.668	54.238	0.173	0.166
-639.653	800.000	-0.103	0.334
-638.638	530.449	0.046	0.108
-637.624	-114.945	-0.284	-0.054
-636.609	-91.787	-0.323	-0.092
-635.595	-200.000	0.035	0.240
-634.580	282.318	-0.051	-0.091
-633.565	667.352	-0.212	0.547
-632.551	86.060	-0.134	0.147
-631.536	75.220	-0.068	-0.072
-630.522	237.620	0.050	0.082
-629.507	4.892	0.199	0.146
-628.492	-159.489	-0.077	0.004
-627.478	189.865	-0.084	-0.126
-626.463	-91.595	-0.175	0.050
-625.449	800.000	0.047	-0.170
-624.434	-200.000	0.011	0.118
-623.419	731.782	0.026	0.071
-622.405	800.000	0.078	-0.285
-621.390	-200.000	-0.004	-0.212
-620.376	135.393	0.116	0.150
-619.361	-53.178	0.049	-0.023
-618.346	-7.072	-0.190	-0.128
-617.332	-177.123	-0.199	0.005
-616.317	203.997	0.082	0.127
-615.303	-200.000	-0.054	0.290
-614.288	63.566	0.199	0.200
-613.273	123.627	0.079	0.099
-612.259	494.640	-0.136	0.312
-611.244	800.000	-0.044	-0.162
-610.230	44.180	-0.155	0.141
-609.215	-68.328	-0.136	0.053
-608.201	46.262	0.074	0.068
-607.186	-41.132	-0.335	0.172
-606.171	-139.559	-0.118	0.013
-605.157	-60.415	-0.427	0.181
-604.142	-71.674	0.182	0.068
-603.128	-54.491	-0.164	0.074
-602.113	-143.644	0.137	0.013
-601.098	-142.153	0.244	0.024
-600.084	23.910	0.048	0.040
-599.069	13.812	-0.222	-0.172
-598.055	-200.000	0.042	0.263
-597.040	-137.057	0.086	0.010
-596.025	-200.000	-0.020	0.260
-595.011	-50.355	-0.116	0.054
-593.996	800.000	0.094	-0.356
-592.982	-3.251	0.205	0.142
-591.967	-200.000	-0.023	0.137
-590.952	355.229	-0.117	-0.233
-589.938	-171.166	0.140	0.005
-588.923	-64.823	-0.312	-0.126
-587.909	-106.862	0.214	0.047
-586.894	-164.690	-0.361	0.016
-585.879	-156.491	-0.014	0.001
-584.865	-58.696	0.189	0.081
-583.850	-71.354	0.059	0.022
-582.836	238.992	0.088	-0.145
-581.821	-66.908	0.284	-0.112
-580.806	-200.000	-0.030	-0.309
-579.792	227.412	0.202	-0.326
-578.777	537.480	0.081	-0.191
-577.763	777.796	0.067	0.183
-576.748	-200.000	-0.018	0.111
-575.733	-30.181	0.074	0.042
-574.719	77.076	0.119	-0.126
-573.704	166.303	0.046	0.064
-572.690	37.490	0.095	0.084
-571.675	-200.000	-0.050	-0.239
-570.661	-157.808	0.019	-0.001
-569.646	-164.126	-0.286	0.013
-568.631	41.669	-0.125	0.113
-567.617	-97.740	-0.304	-0.078
-566.602	-200.000	-0.034	0.173
-565.588	-8.349	0.039	-0.026
-564.573	103.611	-0.007	-0.008
-563.558	-119.389	0.059	-0.010
-562.544	34.034	-0.191	0.165
-561.529	76.780	0.239	0.253
-560.515	-95.151	0.414	0.111
-559.500	-119.986	-0.299	0.051
-558.485	-60.352	0.187	0.079
-557.471	124.937	0.090	0.112
-556.456	124.729	-0.155	0.194
-555.442	12.484	0.240	0.184
-554.427	44.584	-0.083	-0.076
-553.412	131.189	0.103	0.131
-552.398	-158.673	0.064	-0.004
-551.383	800.000	-0.034	-0.124
-550.369	401.469	0.062	-0.130
-549.354	-200.000	-0.002	0.146
-548.339	-74.798	0.272	-0.097
-547.325	582.317	0.084	-0.205
-546.310	-14.343	-0.105	-0.067
-545.296	156.658	-0.103	0.141
-544.281	800.000	0.058	0.208
-543.266	365.295	-0.071	-0.142
-542.252	800.000	0.089	-0.320
-541.237	-168.145	-0.168	0.006
-540.223	198.640	0.046	-0.070
-539.208	46.870	-0.077	0.071
-538.193	422.010	0.084	-0.178
-537.179	-184.011	-0.101	-0.002
-536.164	81.795	-0.310	-0.334
-535.150	-65.950	0.154	0.061
-534.135	-66.460	-0.121	-0.048
-533.121	-60.617	-0.108	0.045
-532.106	800.000	0.040	-0.149
-531.091	450.046	-0.097	-0.213
-530.077	-66.525	-0.389	0.154
-529.062	-113.615	0.112	0.022
-528.048	-70.403	-0.234	0.088
-527.033	-96.481	-0.238	0.063
-526.018	-26.827	-0.256	-0.149
-525.004	-51.511	0.268	0.124
-523.989	-29.031	-0.175	-0.100
-522.975	-200.000	0.020	-0.204
-521.960	561.902	0.082	-0.197
-520.945	458.445	0.081	-0.178
-519.931	-126.432	-0.175	0.026
-518.916	-200.000	-0.288	-0.000
-517.902	-161.400	-0.129	-0.007
-516.887	-66.544	0.071	0.028
-515.872	7.218	0.419	0.311
-514.858	-60.666	0.062	0.026
-513.843	-48.129	-0.170	0.082
-512.829	-200.000	-0.002	-0.077
-511.814	-135.231	-0.404	-0.048
-510.799	800.000	0.064	-0.238
-509.785	15.588	0.179	0.139
-508.770	-81.693	-0.210	-0.068
-507.756	604.473	-0.058	-0.143
-506.741	115.870	0.014	0.017
-505.726	-78.216	-0.038	-0.013
-504.712	16.156	-0.131	-0.102
-503.697	800.000	-0.057	-0.209
-502.683	82.207	0.044	0.048
-501.668	-12.243	-0.028	-0.018
-500.653	440.112	-0.100	-0.217
-499.639	-200.000	-0.012	-0.169
-498.624	-44.559	-0.105	-0.052
-497.610	-144.628	-0.244	0.022
-496.595	131.914	0.125	0.159
-495.581	39.104	0.196	-0.174
-494.566	13.308	-0.333	-0.256
-493.551	-85.900	0.137	-0.042
-492.537	-140.693	0.216	0.022
-491.522	-200.000	0.000	0.028
-490.508	3.887	0.242	0.176
-489.493	-88.464	-0.207	0.061
-488.478	-53.639	0.323	0.146
-487.464	0.125	-0.061	-0.043
-486.449	189.162	-0.234	-0.347
-485.435	-200.000	-0.005	0.031
-484.420	87.218	0.225	-0.246
-483.405	-200.000	0.022	-0.300
-482.391	173.402	0.310	-0.443
-481.376	-111.425	-0.189	-0.038
-480.362	-37.417	-0.079	0.042
-479.347	-42.905	0.245	0.123
-478.332	260.286	0.193	0.331
-477.318	-62.902	-0.273	-0.112
-476.303	359.292	-0.046	0.091
-475.289	-200.000	0.048	-0.234
-474.274	-64.728	-0.074	-0.030
-473.259	-50.160	-0.265	-0.124
-472.245	-114.319	-0.328	0.063
-471.230	-145.128	-0.142	0.013
-470.216	-200.000	0.011	0.077
-469.201	-8.866	-0.194	0.129
-468.186	139.927	0.079	-0.103
-467.172	-200.000	-0.028	0.369
-466.157	-112.035	-0.344	0.069
-465.143	-200.000	-0.014	-0.141
-464.128	-109.287	0.287	-0.060
-463.113	-172.949	0.195	0.006
-462.099	40.063	0.315	-0.281
-461.084	125.936	0.149	-0.186
-460.070	14.782	0.094	0.073
-459.055	-200.000	-0.030	0.397
-458.040	110.748	-0.060	-0.071
-457.026	-200.000	-0.016	0.194
-456.011	-71.286	-0.417	0.155
-454.997	-13.680	0.212	-0.136
-453.982	-162.179	0.345	-0.017
-452.968	-48.212	0.437	0.209
-451.953	213.500	0.065	-0.102
-450.938	-29.260	0.085	-0.048
-449.924	-13.298	0.185	-0.119
-448.909	-77.502	0.147	-0.051
-447.895	242.617	-0.031	0.051
-446.880	-24.905	0.140	-0.082
-445.865	-200.000	-0.000	-0.053
-444.851	-200.000	0.012	-0.228
-443.836	-200.000	0.015	-0.119
-442.822	-104.212	0.020	-0.005
-441.807	-167.109	-0.152	-0.006
-440.792	73.812	-0.194	0.201
-439.778	-125.947	0.356	-0.053
-438.763	800.000	-0.026	0.092
-437.749	-162.774	-0.136	-0.007
-436.734	443.937	-0.074	-0.160
-435.719	216.407	0.087	-0.137
-434.705	120.788	-0.096	0.118
-433.690	-200.000	0.002	0.022
-432.676	-32.798	0.209	-0.115
-431.661	-200.000	0.000	-0.312
-430.646	268.351	-0.122	-0.211
-429.632	-200.000	0.024	0.110
-428.617	-61.834	0.333	0.138
-427.603	110.487	-0.119	-0.142
-426.588	-105.729	0.058	-0.013
-425.573	-149.433	0.016	0.001
-424.559	-200.000	0.015	-0.400
-423.544	-32.921	-0.323	-0.177
-422.530	-200.000	0.001	-0.193
-421.515	75.401	0.173	-0.181
-420.500	-34.591	-0.169	-0.091
-419.486	52.703	0.137	-0.130
-418.471	-200.000	-0.009	-0.249
-417.457	-24.304	0.126	-0.075
-416.442	-44.241	0.304	0.151
-415.428	-111.663	-0.158	-0.032
-414.413	-120.678	0.204	-0.034
-413.398	276.566	-0.031	0.055
-412.384	11.250	0.008	-0.006
-411.369	86.700	0.106	-0.116
-410.355	-97.269	-0.278	-0.072
-409.340	-100.021	0.162	-0.040
-408.325	211.950	0.092	0.144
-407.311	-170.628	-0.527	0.018
-406.296	41.489	-0.050	-0.044
-405.282	-70.765	-0.087	0.032
-404.267	195.707	-0.305	-0.459
-403.252	6.735	-0.048	0.035
-402.238	-84.962	0.266	0.083
-401.223	-200.000	-0.010	0.292
-400.209	90.021	0.121	0.133
-399.194	-200.000	0.063	0.275
-398.179	-100.183	0.009	-0.002
-397.165	465.186	0.040	0.088
-396.150	477.060	0.223	-0.499
-395.136	-28.970	-0.078	0.044
-394.121	-40.992	0.127	0.065
-393.106	63.120	-0.086	-0.086
-392.092	-38.469	0.074	0.039
-391.077	800.000	0.052	0.218
-390.063	-74.090	0.059	-0.021
-389.048	116.972	0.478	0.581
-388.033	-62.610	-0.353	0.145
-387.019	170.136	-0.250	0.353
-386.004	220.320	0.077	-0.122
-384.990	260.705	-0.094	0.161
-383.975	145.805	0.065	0.085
-382.960	-63.055	-0.300	0.122
-381.946	136.166	0.255	-0.329
-380.931	44.777	-0.054	0.049
-379.917	-77.373	-0.068	0.023
-378.902	800.000	0.060	-0.225
-377.888	-165.123	0.157	0.007
-376.873	-39.745	-0.079	0.041
-375.858	-171.871	0.136	-0.004
-374.844	203.283	-0.156	-0.239
-373.829	-56.274	0.215	0.094
-372.815	249.942	0.221	-0.370
-371.800	139.999	0.208	-0.270
-370.785	-34.464	0.176	-0.095
-369.771	-58.787	0.225	0.096
-368.756	800.000	-0.053	0.149
-367.742	-134.704	-0.390	0.047
-366.727	-11.423	-0.323	-0.210
-365.712	-156.975	-0.144	-0.009
-364.698	56.433	-0.029	-0.028
-363.683	40.007	0.076	0.067
-362.669	403.120	0.104	-0.215
-361.654	325.046	-0.035	0.067
-360.639	117.357	0.095	-0.116
-359.625	-166.375	0.152	0.006
-358.610	-104.816	0.059	0.013
-357.596	329.112	-0.161	0.306
-356.581	-200.000	0.013	0.245
-355.566	139.537	-0.212	0.276
-354.552	-113.429	-0.216	-0.042
-353.537	-167.872	0.044	-0.002
-352.523	226.224	-0.189	0.302
-351.508	-200.000	0.045	0.239
-350.493	-17.220	-0.056	-0.035
-349.479	-191.744	-0.159	0.002
-348.464	102.695	-0.119	-0.138
-347.450	-200.000	0.011	-0.324
-346.435	6.516	0.431	0.316
-345.420	547.006	-0.028	0.066
-344.406	-141.424	-0.197	0.020
-343.391	19.837	0.289	0.230
-342.377	-48.574	-0.034	0.016
-341.362	800.000	-0.056	0.172
-340.348	-107.429	-0.120	-0.026
-339.333	71.998	0.216	0.222
-338.318	-200.000	0.110	0.596
-337.304	31.625	-0.060	-0.051
-336.289	-76.112	0.071	0.025
-335.275	383.016	-0.059	-0.119
-334.260	81.227	0.097	-0.103
-333.245	800.000	-0.051	-0.142
-332.231	-200.000	-0.022	0.122
-331.216	-46.700	0.226	0.109
-330.202	-200.000	-0.012	-0.367
-329.187	122.174	-0.129	0.159
-328.172	-200.000	0.308	0.001
-327.158	196.893	-0.077	-0.116
-326.143	-200.000	0.063	-0.355
-325.129	344.774	-0.120	0.233
-324.114	-88.198	0.208	-0.061
-323.099	-116.303	-0.193	0.035
-322.085	-200.000	0.008	0.113
-321.070	-169.189	-0.229	0.008
-320.056	12.518	-0.086	0.066
-319.041	-126.324	0.185	-0.027
-318.026	168.116	0.078	0.109
-317.012	-200.000	-0.007	-0.158
-315.997	-0.156	-0.410	-0.287
-314.983	230.596	0.188	-0.303
-313.968	209.533	-0.030	0.047
-312.953	265.302	0.080	0.138
-311.939	-37.600	0.099	-0.052
-310.924	-89.740	0.148	-0.043
-309.910	17.390	0.092	-0.072
-308.895	-83.684	-0.106	0.033
-307.880	162.517	0.018	-0.024
-306.866	-114.481	0.228	0.043
-305.851	229.353	-0.077	0.124
-304.837	800.000	-0.107	0.303
-303.822	-200.000	-0.013	-0.118
-302.807	250.026	0.098	-0.164
-301.793	800.000	0.022	-0.071
-300.778	-110.934	-0.108	-0.022
-299.764	-158.337	0.269	0.015
-298.749	48.216	0.218	-0.200
-297.735	-57.261	-0.205	0.089
-296.720	27.832	0.179	-0.149
-295.705	-200.000	-0.010	0.249
-294.691	-54.672	0.245	0.109
-293.676	91.612	-0.306	-0.339
-292.662	219.701	0.149	-0.234
-291.647	516.432	0.045	-0.103
-290.632	-200.000	0.022	-0.144
-289.618	-16.668	-0.179	0.112
-288.603	-53.163	0.169	-0.076
-287.589	223.353	0.074	0.118
-286.574	-111.714	-0.185	0.037
-285.559	92.228	0.157	-0.174
-284.545	-145.812	0.394	-0.034
-283.530	37.530	-0.092	0.080
-282.516	-39.827	-0.201	0.103
-281.501	253.097	0.005	-0.009
-280.486	364.198	-0.057	0.113
-279.472	665.607	0.148	0.375
-278.457	-200.000	-0.016	-0.096
-277.443	-10.926	-0.190	-0.124
-276.428	-150.114	0.059	-0.005
-275.413	400.900	0.128	-0.264
-274.399	-12.273	0.357	-0.230
-273.384	178.622	-0.110	-0.159
-272.370	-88.342	-0.073	-0.021
-271.355	48.251	-0.144	0.133
-270.340	280.935	0.223	0.393
-269.326	-82.067	0.229	0.074
-268.311	-148.827	-0.407	0.032
-267.297	-37.374	-0.069	-0.036
-266.282	-33.265	-0.212	-0.116
-265.267	305.885	0.091	0.166
-264.253	316.308	0.069	-0.129
-263.238	-200.000	0.008	-0.213
-262.224	291.596	-0.037	0.067
-261.209	-200.000	0.003	-0.245
-260.195	-91.260	-0.297	-0.084
-259.180	363.312	-0.141	0.279
-258.165	493.368	-0.070	-0.158
-257.151	-5.822	0.388	0.261
-256.136	9.571	-0.082	-0.061
-255.122	-40.336	0.097	0.049
-254.107	800.000	0.093	0.287
-253.092	800.000	-0.071	0.232
-252.078	49.953	0.122	0.113
-251.063	322.541	-0.130	-0.243
-250.049	-165.012	-0.350	0.015
-249.034	-200.000	-0.010	-0.519
-248.019	117.879	0.278	0.336
-247.005	47.435	0.080	-0.074
-245.990	800.000	-0.043	0.137
-244.976	-1.726	0.243	-0.168
-243.961	-29.162	0.221	-0.125
-242.946	171.603	-0.144	-0.203
-241.932	581.061	0.047	0.114
-240.917	-200.000	0.008	-0.154
-239.903	-200.000	-0.021	-0.221
-238.888	-128.990	0.272	-0.037
-237.873	-200.000	-0.015	-0.176
-236.859	-200.000	-0.003	-0.060
-235.844	56.024	0.186	0.178
-234.830	-72.342	0.282	-0.103
-233.815	800.000	-0.136	-0.426
-232.800	-109.205	-0.109	0.023
-231.786	-101.139	0.438	0.105
-230.771	-173.995	-0.142	0.004
-229.757	-78.858	0.076	0.026
-228.742	111.067	-0.227	-0.268
-227.727	-65.428	-0.102	0.040
-226.713	800.000	-0.094	-0.341
-225.698	-144.498	-0.066	0.006
-224.684	-64.958	-0.290	0.115
-223.669	-92.950	0.160	0.044
-222.655	239.173	0.092	-0.150
-221.640	-70.564	-0.173	-0.064
-220.625	-200.000	-0.057	-0.277
-219.611	132.292	0.047	-0.060
-218.596	-30.490	-0.104	0.058
-217.582	-200.000	-0.011	-0.131
-216.567	-108.389	0.201	0.043
-215.552	37.139	-0.261	0.226
-214.538	-200.000	-0.035	0.270
-213.523	-82.928	-0.146	0.046
-212.509	60.789	-0.037	-0.036
-211.494	800.000	-0.020	0.062
-210.479	-165.942	-0.147	0.006
-209.465	-80.882	0.177	0.057
-208.450	800.000	0.082	-0.228
-207.436	800.000	-0.047	-0.203
-206.421	-126.558	-0.267	-0.039
-205.406	-200.000	0.002	-0.294
-204.392	-76.217	-0.200	0.069
-203.377	6.569	0.146	-0.106
-202.363	-110.730	0.125	-0.025
-201.348	-200.000	-0.005	-0.117
-200.333	-145.981	-0.164	-0.014
-199.319	212.653	0.187	0.290
-198.304	-125.851	-0.170	-0.025
-197.290	213.080	0.188	-0.291
-196.275	83.591	0.095	-0.102
-195.260	-131.037	-0.177	-0.023
-194.246	-57.489	0.085	0.036
-193.231	-10.390	0.083	-0.054
-192.217	153.588	0.052	-0.070
-191.202	-183.500	-0.075	-0.001
-190.187	-92.840	-0.208	-0.057
-189.173	320.497	0.110	-0.204
-188.158	-135.763	-0.245	-0.028
-187.144	115.615	0.185	0.222
-186.129	-89.414	0.217	-0.063
-185.114	248.046	-0.093	-0.154
-184.100	-200.000	0.015	-0.121
-183.085	-90.160	-0.119	0.034
-182.071	-92.738	0.176	0.048
-181.056	-200.000	-0.003	-0.014
-180.042	-128.704	-0.174	-0.024
-179.027	188.940	0.183	0.269
-178.012	-88.935	-0.067	0.019
-176.998	138.074	0.314	0.403
-175.983	289.002	0.160	0.284
-174.969	121.354	-0.127	0.155
-173.954	-200.000	-0.015	0.388
-172.939	5.294	0.092	-0.067
-171.925	-200.000	0.011	0.099
-170.910	-11.412	0.093	0.060
-169.896	187.935	0.039	0.057
-168.881	67.289	-0.269	0.269
-167.866	-103.194	0.299	-0.069
-166.852	-107.456	-0.279	0.060
-165.837	800.000	0.066	0.248
-164.823	623.429	-0.080	0.196
-163.808	37.470	-0.204	0.177
-162.793	-2.981	0.113	-0.077
-161.779	50.165	-0.174	0.161
-160.764	-200.000	0.019	0.254
-159.750	800.000	0.018	0.064
-158.735	-72.453	-0.196	0.071
-157.720	78.471	-0.210	0.220
-156.706	-39.959	0.108	-0.055
-155.691	-82.240	0.264	-0.084
-154.677	-51.025	0.323	0.148
-153.662	-31.631	0.020	0.011
-152.647	-200.000	-0.003	-0.034
-151.633	-149.260	-0.280	0.022
-150.618	95.348	0.199	-0.222
-149.604	-88.699	0.056	0.016
-148.589	-194.374	0.067	-0.001
-147.574	419.219	-0.074	-0.155
-146.560	252.536	0.143	0.238
-145.545	-1.250	-0.170	0.117
-144.531	-200.000	-0.001	0.063
-143.516	128.782	-0.246	-0.306
-142.502	-35.739	0.362	-0.192
-141.487	10.183	0.144	0.107
-140.472	42.497	-0.143	-0.128
-139.458	148.461	0.153	-0.203
-138.443	664.163	0.097	-0.245
-137.429	-46.678	0.109	0.052
-136.414	-200.000	-0.008	-0.056
-135.399	14.551	0.261	-0.200
-134.385	-200.000	0.002	-0.452
-133.370	-178.150	-0.056	0.001
-132.356	-100.737	0.411	-0.099
-131.341	-55.773	0.249	0.109
-130.326	-182.995	-0.345	-0.006
-129.312	-121.830	0.228	0.037
-128.297	257.940	0.087	0.147
-127.283	-127.429	0.070	0.010
-126.268	418.440	-0.137	0.286
-125.253	-125.213	0.248	-0.037
-124.239	-48.835	0.114	0.053
-123.224	-165.852	-0.052	0.002
-122.210	462.728	-0.070	0.152
