DTS Sentinel unit serial number:	SN413079Multiplexer serial number:	ORYXHardware model number:	OX4-SRSoftware version number:	ORYX F/W v4.00 Oryx Data Collector v3.7.2.0data status	okinstallation	princeton_trtdifferential loss correction	single-endedforward channel	channel 2reverse channel	N/Adate	2019/09/13time	04:19:35forward acquisition time	60.00reverse acquisition time	0.00gamma	496.2192k internal	0.2336k external	0.2336temperature offset calibration	1.0187default loss term (dB/km)	0.3790temperature slope calibration	1.0000multiplexer offset coefficient	1.0000multiplexer slope coefficient	1.0000fibre end	0.00T internal ref (°C)	26.81T ext. ref 1 (°C)	4.05T ext. ref 2 (°C)	21.19length (m)	temperature (°C)	Stokes	anti-Stokes-747.200	79.214	0.038	0.041
-746.185	-153.322	0.061	0.004
-745.171	10.356	0.257	-0.197
-744.156	800.000	-0.039	0.118
-743.142	-73.757	0.160	0.058
-742.127	-166.039	0.166	0.007
-741.112	-71.043	-0.028	0.011
-740.098	-94.028	-0.429	0.118
-739.083	800.000	-0.021	0.061
-738.069	-132.419	-0.208	-0.027
-737.054	-60.719	-0.151	0.064
-736.039	37.367	-0.237	-0.211
-735.025	-200.000	-0.001	0.277
-734.010	-138.920	-0.234	0.025
-732.996	35.229	0.149	-0.131
-731.981	-26.226	-0.122	0.072
-730.966	78.376	0.097	-0.104
-729.952	153.534	-0.165	0.227
-728.937	800.000	-0.015	0.048
-727.923	141.074	0.212	-0.281
-726.908	-37.059	-0.161	0.086
-725.894	-107.233	0.348	0.077
-724.879	-109.592	-0.083	-0.017
-723.864	-200.000	0.016	0.272
-722.850	479.273	0.126	0.286
-721.835	-200.000	0.030	-0.192
-720.821	-105.356	-0.114	0.026
-719.806	-103.372	-0.213	0.050
-718.791	345.640	0.039	-0.077
-717.777	102.928	-0.231	-0.272
-716.762	207.378	0.138	-0.215
-715.748	45.967	0.036	0.034
-714.733	657.965	0.136	0.351
-713.718	-200.000	0.026	-0.212
-712.704	180.979	0.192	-0.283
-711.689	-91.893	-0.340	0.097
-710.675	58.391	0.118	-0.116
-709.660	-52.765	-0.232	0.107
-708.645	93.960	-0.111	0.127
-707.631	227.813	0.172	0.281
-706.616	-106.697	0.342	0.076
-705.602	-114.692	0.277	-0.053
-704.587	-17.115	-0.062	-0.039
-703.572	-107.265	0.275	-0.061
-702.558	-200.000	0.000	-0.082
-701.543	92.652	0.051	0.058
-700.529	-200.000	0.011	0.074
-699.514	14.853	0.156	-0.123
-698.499	78.651	-0.054	-0.058
-697.485	297.216	0.096	0.176
-696.470	-96.680	-0.242	-0.064
-695.456	-200.000	0.026	0.115
-694.441	22.919	-0.171	-0.141
-693.426	443.505	-0.089	0.195
-692.412	26.842	0.059	0.049
-691.397	281.192	-0.199	-0.356
-690.383	-108.825	-0.276	-0.059
-689.368	11.958	-0.155	0.120
-688.354	35.106	0.204	0.179
-687.339	-165.002	0.362	0.016
-686.324	-59.006	-0.167	-0.072
-685.310	246.451	-0.048	0.082
-684.295	-25.632	-0.246	0.146
-683.281	248.063	-0.147	-0.250
-682.266	-13.216	0.028	-0.018
-681.251	-100.946	-0.269	0.066
-680.237	157.715	-0.082	-0.114
-679.222	358.721	0.018	-0.037
-678.208	95.656	0.037	-0.043
-677.193	304.023	0.204	-0.379
-676.178	40.438	0.302	0.273
-675.164	-2.992	-0.110	-0.077
-674.149	-36.382	0.303	-0.164
-673.135	-102.753	-0.239	-0.057
-672.120	50.967	-0.047	0.045
-671.105	-130.479	-0.312	0.042
-670.091	81.761	0.101	-0.109
-669.076	94.695	-0.014	0.016
-668.062	32.900	-0.139	0.121
-667.047	-6.770	0.067	-0.046
-666.032	475.213	0.124	-0.280
-665.018	-200.000	-0.011	0.173
-664.003	-67.037	0.099	0.039
-662.989	-61.730	-0.429	0.180
-661.974	-31.579	-0.166	0.093
-660.959	-200.000	0.036	-0.206
-659.945	-1.115	-0.098	-0.070
-658.930	-200.000	-0.012	-0.134
-657.916	121.543	-0.123	-0.154
-656.901	-200.000	-0.044	0.406
-655.886	-200.000	0.039	-0.399
-654.872	-93.918	0.156	-0.043
-653.857	200.827	0.142	-0.218
-652.843	800.000	0.061	-0.228
-651.828	137.617	-0.208	0.273
-650.814	800.000	0.031	0.093
-649.799	30.684	-0.220	-0.189
-648.784	-3.908	-0.351	0.244
-647.770	-200.000	0.029	-0.136
-646.755	-77.334	-0.209	-0.073
-645.741	18.384	-0.087	-0.069
-644.726	620.452	0.062	-0.156
-643.711	-32.342	0.187	-0.104
-642.697	44.176	0.077	0.070
-641.682	41.728	0.081	-0.073
-640.668	-200.000	0.009	-0.120
-639.653	53.594	0.125	-0.120
-638.638	225.555	-0.163	0.264
-637.624	-200.000	-0.010	0.120
-636.609	800.000	-0.058	-0.167
-635.595	-37.937	0.061	-0.032
-634.580	-49.665	-0.103	0.049
-633.565	800.000	0.052	-0.201
-632.551	2.719	0.045	0.032
-631.536	-127.729	0.168	0.024
-630.522	295.604	0.095	0.173
-629.507	244.892	0.084	-0.142
-628.492	-81.580	-0.206	-0.068
-627.478	360.970	-0.109	-0.219
-626.463	-173.846	0.165	0.005
-625.449	-66.493	-0.104	-0.041
-624.434	563.286	0.090	-0.217
-623.419	-70.195	0.239	-0.091
-622.405	26.581	-0.310	0.259
-621.390	51.437	0.235	0.223
-620.376	800.000	0.085	0.329
-619.361	-152.635	0.071	0.005
-618.346	-57.870	-0.096	-0.042
-617.332	13.308	0.187	-0.145
-616.317	-57.193	0.221	-0.097
-615.303	59.051	-0.101	-0.100
-614.288	-111.606	-0.074	-0.015
-613.273	-13.656	-0.193	-0.125
-612.259	-36.166	0.025	0.013
-611.244	84.302	-0.122	0.133
-610.230	800.000	-0.050	0.210
-609.215	45.539	-0.122	-0.112
-608.201	29.251	-0.296	0.251
-607.186	-104.820	-0.033	0.008
-606.171	52.972	-0.249	-0.238
-605.157	182.358	-0.124	0.183
-604.142	-200.000	0.064	-0.305
-603.128	-90.331	-0.310	-0.090
-602.113	462.729	0.135	-0.300
-601.098	-200.000	-0.005	-0.108
-600.084	33.036	0.089	0.077
-599.069	-89.758	-0.232	-0.068
-598.055	-200.000	-0.007	-0.216
-597.040	-92.803	-0.062	0.017
-596.025	800.000	-0.031	0.111
-595.011	-92.674	0.044	0.012
-593.996	48.212	0.073	0.068
-592.982	-191.074	-0.133	0.001
-591.967	-200.000	0.036	0.326
-590.952	-51.332	0.200	-0.094
-589.938	-200.000	-0.011	0.163
-588.923	-200.000	0.023	0.177
-587.909	800.000	0.096	0.337
-586.894	-200.000	0.062	0.281
-585.879	-129.608	0.116	0.016
-584.865	-200.000	-0.052	-0.236
-583.850	800.000	-0.035	-0.154
-582.836	168.617	-0.079	-0.112
-581.821	275.673	-0.141	-0.250
-580.806	-200.000	0.015	-0.072
-579.792	65.761	0.424	-0.429
-578.777	402.923	0.140	0.294
-577.763	-120.264	0.172	0.029
-576.748	-120.508	0.228	-0.039
-575.733	-83.508	-0.314	-0.100
-574.719	-0.738	0.115	-0.081
-573.704	-200.000	0.002	-0.034
-572.690	-200.000	0.031	-0.276
-571.675	-200.000	0.052	-0.310
-570.661	-200.000	-0.033	0.149
-569.646	123.586	0.139	-0.173
-568.631	-123.331	0.253	0.040
-567.617	-114.306	0.201	-0.039
-566.602	800.000	-0.039	0.133
-565.588	279.596	-0.066	0.117
-564.573	214.286	0.185	0.293
-563.558	132.984	-0.098	-0.126
-562.544	-183.317	-0.355	-0.006
-561.529	52.798	0.300	0.286
-560.515	26.953	0.141	0.118
-559.500	474.040	-0.027	0.060
-558.485	800.000	-0.022	-0.074
-557.471	-4.780	0.179	-0.123
-556.456	800.000	0.044	0.132
-555.442	434.737	-0.056	-0.122
-554.427	96.790	0.188	0.214
-553.412	-148.341	0.178	-0.015
-552.398	-153.199	-0.216	-0.015
-551.383	12.195	-0.073	0.056
-550.369	-12.270	-0.205	0.134
-549.354	-163.800	0.191	-0.009
-548.339	800.000	0.012	0.039
-547.325	-13.867	0.244	-0.157
-546.310	102.084	-0.179	0.208
-545.296	270.207	0.091	-0.159
-544.281	-26.466	0.127	-0.074
-543.266	101.591	0.142	-0.165
-542.252	160.343	-0.299	0.416
-541.237	-200.000	-0.005	0.083
-540.223	26.755	0.010	0.008
-539.208	-70.147	-0.327	0.124
-538.193	39.247	-0.292	-0.260
-537.179	-117.158	0.327	0.059
-536.164	662.675	-0.077	0.197
-535.150	79.506	-0.046	0.049
-534.135	-200.000	0.006	0.268
-533.121	384.056	0.123	-0.252
-532.106	428.054	-0.081	-0.174
-531.091	-161.730	-0.219	0.011
-530.077	-47.271	0.238	0.115
-529.062	361.259	0.073	0.146
-528.048	-61.765	-0.128	-0.053
-527.033	-151.332	0.174	-0.013
-526.018	-15.110	-0.078	0.050
-525.004	-200.000	0.014	-0.086
-523.989	800.000	0.069	0.228
-522.975	-33.296	-0.376	-0.207
-521.960	-200.000	-0.052	-0.287
-520.945	-200.000	0.056	-0.429
-519.931	-200.000	0.019	-0.082
-518.916	-107.968	-0.111	0.024
-517.902	-20.068	0.208	0.128
-516.887	-200.000	0.001	-0.166
-515.872	-77.455	-0.309	0.107
-514.858	81.308	0.101	0.109
-513.843	-72.841	0.157	-0.058
-512.829	800.000	0.091	-0.304
-511.814	-161.553	0.121	-0.006
-510.799	-29.111	-0.172	0.098
-509.785	800.000	-0.025	-0.086
-508.770	149.626	0.129	-0.174
-507.756	-200.000	-0.011	-0.150
-506.741	-54.141	0.178	0.081
-505.726	657.391	0.104	0.265
-504.712	-199.072	-0.162	0.001
-503.697	2.295	0.211	-0.152
-502.683	-28.662	-0.206	-0.118
-501.668	-200.000	0.006	-0.125
-500.653	-124.972	-0.065	-0.010
-499.639	-200.000	0.004	-0.233
-498.624	-15.273	0.079	-0.050
-497.610	-200.000	-0.039	-0.232
-496.595	-200.000	0.026	0.179
-495.581	2.889	-0.320	0.231
-494.566	-200.000	0.030	-0.442
-493.551	-97.588	-0.335	-0.086
-492.537	-200.000	0.029	-0.209
-491.522	-200.000	0.017	-0.283
-490.508	-171.269	-0.089	-0.003
-489.493	-200.000	-0.021	0.214
-488.478	413.178	0.119	-0.251
-487.464	95.382	-0.112	0.127
-486.449	718.484	0.064	0.169
-485.435	-16.504	-0.358	-0.226
-484.420	-4.088	0.068	0.047
-483.405	386.256	0.058	-0.119
-482.391	-200.000	0.023	0.281
-481.376	107.984	0.197	0.233
-480.362	800.000	-0.093	-0.310
-479.347	85.450	0.147	0.161
-478.332	-63.378	0.075	0.031
-477.318	-31.419	0.083	0.046
-476.303	-200.000	0.002	-0.155
-475.289	800.000	0.036	-0.138
-474.274	21.381	-0.300	0.242
-473.259	-70.148	0.121	0.046
-472.245	7.221	-0.257	0.191
-471.230	-128.606	0.440	-0.062
-470.216	-200.000	0.074	-0.436
-469.201	-15.769	0.155	-0.098
-468.186	-99.129	0.052	0.013
-467.172	289.185	0.080	0.145
-466.157	98.282	-0.058	-0.067
-465.143	-72.941	-0.260	-0.095
-464.128	116.723	-0.196	0.239
-463.113	216.824	0.059	0.094
-462.099	81.446	0.048	-0.051
-461.084	398.362	-0.070	-0.146
-460.070	0.734	-0.225	-0.160
-459.055	378.736	-0.069	-0.139
-458.040	567.977	0.100	0.241
-457.026	242.743	0.106	0.177
-456.011	-13.586	-0.144	0.092
-454.997	-200.000	0.031	-0.186
-453.982	164.795	0.147	0.206
-452.968	-200.000	0.014	-0.150
-451.953	193.043	-0.126	-0.189
-450.938	-111.662	-0.328	0.066
-449.924	-57.818	-0.165	0.072
-448.909	-200.000	0.045	-0.276
-447.895	40.772	0.254	-0.227
-446.880	-115.946	0.278	-0.051
-445.865	142.773	0.088	-0.116
-444.851	800.000	-0.061	-0.202
-443.836	604.972	0.157	0.388
-442.822	195.451	0.088	0.133
-441.807	-200.000	-0.013	0.248
-440.792	77.066	-0.075	-0.079
-439.778	87.925	-0.105	-0.115
-438.763	282.977	-0.022	-0.039
-437.749	-89.192	0.224	0.066
-436.734	-200.000	0.001	-0.137
-435.719	277.579	-0.047	-0.084
-434.705	484.407	0.174	0.393
-433.690	800.000	0.098	-0.351
-432.676	82.306	0.156	-0.168
-431.661	-200.000	0.014	-0.166
-430.646	800.000	0.056	0.155
-429.632	-20.380	-0.248	0.151
-428.617	-200.000	-0.001	0.044
-427.603	-65.638	-0.236	-0.094
-426.588	-200.000	-0.021	-0.233
-425.573	-200.000	0.083	0.412
-424.559	300.211	-0.051	0.093
-423.544	-200.000	-0.005	-0.216
-422.530	-22.268	0.242	0.145
-421.515	-75.217	-0.073	-0.026
-420.500	8.774	0.028	-0.021
-419.486	631.428	-0.090	0.225
-418.471	-200.000	0.017	-0.233
-417.457	-104.012	-0.214	0.049
-416.442	-15.207	-0.195	0.124
-415.428	162.116	-0.082	-0.114
-414.413	149.555	-0.101	0.135
-413.398	-200.000	0.030	-0.298
-412.384	3.665	0.309	-0.224
-411.369	89.909	0.030	0.033
-410.355	269.700	0.092	0.159
-409.340	800.000	0.059	0.187
-408.325	-170.067	0.230	-0.008
-407.311	-21.099	0.071	-0.043
-406.296	-200.000	0.090	-0.418
-405.282	111.010	0.245	-0.293
-404.267	513.803	0.055	0.127
-403.252	-23.522	0.284	0.169
-402.238	168.361	0.033	-0.046
-401.223	-104.635	0.177	0.040
-400.209	-29.899	-0.130	0.073
-399.194	-157.414	-0.157	-0.009
-398.179	-120.904	-0.082	0.014
-397.165	-102.452	-0.101	0.024
-396.150	-200.000	-0.048	0.242
-395.136	-109.834	0.198	-0.041
-394.121	-200.000	-0.012	0.256
-393.106	-13.340	0.111	-0.071
-392.092	-95.749	-0.371	-0.098
-391.077	-9.836	-0.130	-0.086
-390.063	-126.471	-0.562	-0.083
-389.048	192.553	-0.012	0.018
-388.033	0.777	0.146	0.104
-387.019	-18.501	-0.207	0.128
-386.004	-200.000	-0.015	0.132
-384.990	668.106	0.012	-0.031
-383.975	194.335	-0.118	-0.177
-382.960	-4.686	-0.162	-0.111
-381.946	571.851	0.073	-0.177
-380.931	67.940	0.160	-0.162
-379.917	121.090	-0.196	0.241
-378.902	-200.000	0.027	0.300
-377.888	-83.035	-0.217	-0.069
-376.873	-93.457	-0.117	-0.032
-375.858	-109.119	0.142	0.030
-374.844	-200.000	0.028	-0.153
-373.829	-200.000	-0.011	0.269
-372.815	100.294	-0.186	-0.213
-371.800	-55.890	0.142	-0.063
-370.785	-73.459	-0.143	0.052
-369.771	800.000	-0.062	0.227
-368.756	382.618	-0.051	0.104
-367.742	42.275	0.094	-0.084
-366.727	-200.000	0.017	0.078
-365.712	78.922	0.284	-0.301
-364.698	16.061	-0.301	-0.235
-363.683	226.355	0.205	0.329
-362.669	-26.447	-0.126	0.073
-361.654	-100.122	0.025	0.006
-360.639	-89.341	-0.384	0.112
-359.625	201.706	-0.108	0.165
-358.610	-200.000	-0.000	0.223
-357.596	-200.000	-0.047	-0.342
-356.581	-127.087	-0.133	0.019
-355.566	62.330	0.309	0.305
-354.552	-66.195	-0.127	0.050
-353.537	-35.915	0.154	0.083
-352.523	17.577	0.076	-0.060
-351.508	-200.000	-0.008	-0.095
-350.493	-200.000	-0.167	0.000
-349.479	-154.873	0.161	-0.010
-348.464	-132.305	-0.298	-0.038
-347.450	-185.725	-0.247	-0.004
-346.435	-3.691	-0.323	-0.222
-345.420	800.000	0.050	0.137
-344.406	-115.856	0.375	-0.069
-343.391	-66.681	0.152	0.060
-342.377	-37.710	0.248	0.131
-341.362	-12.292	-0.090	0.058
-340.348	402.696	-0.008	-0.016
-339.333	800.000	0.090	0.262
-338.318	274.106	-0.167	0.292
-337.304	-4.792	-0.290	0.197
-336.289	-200.000	-0.042	0.268
-335.275	-151.154	0.295	0.022
-334.260	-95.015	-0.377	0.101
-333.245	-76.217	-0.155	0.054
-332.231	61.290	-0.110	-0.108
-331.216	-95.747	0.212	-0.056
-330.202	311.273	0.199	0.368
-329.187	-200.000	0.023	0.229
-328.172	-120.368	0.133	-0.022
-327.158	-73.938	-0.092	-0.033
-326.143	248.836	-0.117	-0.195
-325.129	-4.899	0.190	-0.129
-324.114	-103.018	-0.261	0.061
-323.099	393.163	-0.038	-0.077
-322.085	800.000	0.091	0.335
-321.070	349.541	0.045	0.088
-320.056	-56.802	0.190	-0.083
-319.041	217.397	0.143	0.224
-318.026	479.400	-0.230	0.515
-317.012	-83.049	-0.267	-0.085
-315.997	-79.637	0.379	-0.126
-314.983	-200.000	0.020	-0.196
-313.968	185.847	0.213	0.312
-312.953	85.279	-0.346	0.375
-311.939	128.427	-0.045	-0.057
-310.924	129.971	-0.104	0.132
-309.910	-200.000	0.019	-0.363
-308.895	-97.773	0.125	-0.032
-307.880	58.227	0.177	0.171
-306.866	215.490	-0.259	-0.406
-305.851	-200.000	0.019	-0.107
-304.837	-75.938	0.217	0.076
-303.822	268.508	0.152	0.263
-302.807	-133.118	0.195	-0.024
-301.793	-126.904	0.322	0.047
-300.778	53.164	0.074	0.070
-299.764	-14.153	-0.240	0.153
-298.749	57.931	0.193	0.187
-297.735	-200.000	0.013	0.060
-296.720	-67.931	-0.197	-0.076
-295.705	62.099	0.126	0.124
-294.691	-200.000	0.009	-0.138
-293.676	-33.573	0.099	-0.054
-292.662	-166.886	0.164	-0.007
-291.647	36.168	-0.230	0.199
-290.632	29.167	0.131	-0.110
-289.618	-68.030	0.045	-0.017
-288.603	800.000	-0.083	0.243
-287.589	-164.837	-0.234	0.010
-286.574	42.352	-0.144	0.129
-285.559	586.821	-0.061	-0.148
-284.545	-22.535	-0.167	0.099
-283.530	27.985	-0.226	-0.188
-282.516	654.096	-0.148	-0.374
-281.501	14.213	-0.287	-0.220
-280.486	-112.909	-0.187	-0.037
-279.472	26.331	0.115	0.095
-278.457	-124.678	0.221	-0.034
-277.443	479.256	0.088	-0.197
-276.428	-200.000	0.042	-0.183
-275.413	730.081	-0.029	-0.075
-274.399	640.741	0.145	-0.363
-273.384	1.769	0.154	-0.109
-272.370	611.175	0.119	-0.292
-271.355	-56.896	-0.244	0.106
-270.340	-94.516	0.029	-0.008
-269.326	250.926	-0.032	-0.054
-268.311	800.000	0.050	0.162
-267.297	58.284	-0.200	-0.193
-266.282	-18.829	-0.434	0.266
-265.267	469.320	0.082	0.181
-264.253	800.000	-0.083	0.276
-263.238	-200.000	0.015	0.365
-262.224	382.150	0.128	-0.259
-261.209	-200.000	0.005	-0.181
-260.195	-68.614	0.308	0.117
-259.180	-156.358	0.291	-0.018
-258.165	-200.000	-0.074	-0.454
-257.151	800.000	0.063	0.204
-256.136	-20.249	-0.036	0.022
-255.122	-95.670	-0.309	0.081
-254.107	666.168	-0.070	0.179
-253.092	-200.000	0.010	0.169
-252.078	-58.344	-0.132	0.057
-251.063	42.243	-0.273	0.245
-250.049	-200.000	-0.017	0.078
-249.034	-31.477	0.142	0.079
-248.019	203.380	-0.275	0.420
-247.005	-90.470	-0.048	0.014
-245.990	-49.850	-0.089	0.042
-244.976	-122.902	0.170	-0.027
-243.961	213.881	0.053	-0.083
-242.946	-200.000	0.007	0.137
-241.932	-200.000	-0.012	-0.106
-240.917	533.112	-0.098	0.228
-239.903	-181.139	0.353	-0.007
-238.888	-176.593	0.310	0.008
-237.873	-49.450	0.322	0.151
-236.859	142.097	0.224	0.293
-235.844	800.000	-0.131	-0.369
-234.830	378.023	-0.070	-0.140
-233.815	800.000	-0.131	0.358
-232.800	-200.000	0.010	-0.340
-231.786	-200.000	0.090	-0.404
-230.771	76.661	0.093	-0.097
-229.757	761.061	0.070	-0.185
-228.742	434.754	-0.145	-0.310
-227.727	-167.206	-0.276	0.011
-226.713	-200.000	0.036	-0.303
-225.698	800.000	-0.055	0.210
-224.684	-100.969	0.298	0.072
-223.669	574.102	0.123	0.295
-222.655	-99.523	-0.143	0.035
-221.640	205.456	-0.126	0.192
-220.625	75.932	-0.111	0.116
-219.611	173.658	-0.004	0.006
-218.596	-96.062	0.196	-0.051
-217.582	4.729	0.248	0.179
-216.567	-50.015	-0.045	-0.021
-215.552	-61.055	-0.341	-0.141
-214.538	13.647	0.150	-0.114
-213.523	-200.000	-0.009	-0.066
-212.509	-200.000	0.024	0.140
-211.494	229.665	-0.123	-0.198
-210.479	-200.000	-0.019	-0.107
-209.465	29.042	0.111	0.093
-208.450	-200.000	-0.007	-0.062
-207.436	-76.534	0.124	0.043
-206.421	-102.545	-0.292	-0.069
-205.406	29.085	0.221	0.185
-204.392	303.530	-0.052	-0.096
-203.377	-200.000	-0.026	-0.122
-202.363	-21.922	-0.149	-0.089
-201.348	200.945	-0.140	-0.212
-200.333	-26.653	0.163	0.094
-199.319	-200.000	-0.010	0.075
-198.304	-105.929	0.257	-0.057
-197.290	-200.000	0.004	-0.258
-196.275	155.067	-0.066	-0.089
-195.260	-128.125	-0.252	-0.035
-194.246	-135.446	0.214	-0.025
-193.231	20.087	0.111	-0.088
-192.217	-110.175	0.345	-0.071
-191.202	-93.629	0.191	0.052
-190.187	-71.359	-0.339	-0.125
-189.173	15.853	0.252	-0.195
-188.158	61.774	0.115	0.112
-187.144	-73.611	0.248	0.089
-186.129	800.000	-0.106	-0.310
-185.114	78.339	0.091	-0.095
-184.100	145.468	0.166	-0.219
-183.085	-200.000	-0.044	-0.344
-182.071	-134.272	-0.118	0.014
-181.056	51.558	0.128	0.120
-180.042	-41.485	-0.086	0.043
-179.027	125.946	-0.203	-0.252
-178.012	-6.064	0.260	0.174
-176.998	-47.189	-0.390	-0.187
-175.983	76.747	-0.157	0.163
-174.969	-19.973	-0.214	0.130
-173.954	95.755	0.047	-0.053
-172.939	-3.280	0.111	0.076
-171.925	800.000	-0.022	0.076
-170.910	-73.087	-0.251	0.091
-169.896	-113.880	0.142	-0.027
-168.881	106.992	0.004	-0.004
-167.866	-132.008	0.364	0.047
-166.852	-180.520	0.239	-0.005
-165.837	-109.123	-0.080	0.017
-164.823	-98.905	-0.310	-0.077
-163.808	-75.036	0.208	-0.073
-162.793	-100.540	-0.321	0.078
-161.779	-73.350	0.352	0.126
-160.764	-200.000	-0.023	0.286
-159.750	-9.070	0.298	0.196
-158.735	-200.000	-0.043	0.292
-157.720	-135.338	-0.067	-0.008
-156.706	-126.230	0.272	0.040
-155.691	-200.000	-0.031	0.471
-154.677	-135.827	-0.042	-0.005
-153.662	-29.867	-0.257	0.144
-152.647	-200.000	0.029	-0.236
-151.633	557.351	0.175	0.414
-150.618	52.264	0.124	-0.116
-149.604	229.360	-0.167	-0.268
-148.589	-105.160	-0.137	0.031
-147.574	-167.251	0.168	0.007
-146.560	-133.136	-0.329	0.041
-145.545	800.000	-0.039	-0.125
-144.531	160.719	-0.177	0.242
-143.516	169.775	0.064	0.090
-142.502	-156.215	-0.367	-0.023
-141.487	338.916	0.013	0.026
-140.472	-200.000	0.016	0.221
-139.458	-166.436	-0.260	-0.011
-138.443	76.275	-0.252	-0.261
-137.429	242.761	0.171	0.281
-136.414	296.393	-0.119	0.214
-135.399	317.514	0.054	-0.100
-134.385	456.416	0.178	0.387
-133.370	-58.053	-0.112	0.048
-132.356	-90.221	-0.223	-0.063
-131.341	-15.988	-0.098	0.061
-130.326	45.116	0.303	0.274
-129.312	800.000	0.064	0.225
-128.297	-116.375	-0.145	-0.026
-127.283	5.766	0.287	0.208
-126.268	-200.000	0.026	0.228
-125.253	-7.450	-0.241	0.160
-124.239	-180.399	0.165	-0.003
-123.224	126.766	0.103	0.128
-122.210	196.266	0.143	0.214
-121.195	-146.478	-0.118	0.010
