DTS Sentinel unit serial number:	SN413079Multiplexer serial number:	ORYXHardware model number:	OX4-SRSoftware version number:	ORYX F/W v4.00 Oryx Data Collector v3.7.2.0data status	okinstallation	princeton_trtdifferential loss correction	single-endedforward channel	channel 2reverse channel	N/Adate	2019/09/13time	15:19:35forward acquisition time	60.00reverse acquisition time	0.00gamma	496.2192k internal	0.2316k external	0.2316temperature offset calibration	1.0212default loss term (dB/km)	0.3790temperature slope calibration	1.0000multiplexer offset coefficient	1.0000multiplexer slope coefficient	1.0000fibre end	0.00T internal ref (°C)	35.44T ext. ref 1 (°C)	4.72T ext. ref 2 (°C)	29.39length (m)	temperature (°C)	Stokes	anti-Stokes-747.200	-49.993	-0.179	0.086
-746.185	-200.000	0.004	0.238
-745.171	11.879	-0.202	-0.157
-744.156	-156.545	-0.260	-0.016
-743.142	-93.001	-0.249	-0.070
-742.127	-98.091	0.506	-0.132
-741.112	136.895	0.341	0.451
-740.098	-105.189	0.103	-0.024
-739.083	-88.250	0.050	-0.015
-738.069	101.439	0.248	0.292
-737.054	-200.000	-0.016	0.146
-736.039	-107.007	-0.397	0.089
-735.025	-3.965	0.098	0.069
-734.010	-200.000	-0.084	-0.522
-732.996	800.000	-0.099	-0.353
-731.981	278.487	0.088	-0.158
-730.966	-200.000	-0.024	0.373
-729.952	224.885	-0.069	-0.114
-728.937	173.732	-0.156	-0.228
-727.923	-42.995	-0.180	0.093
-726.908	5.341	-0.126	0.094
-725.894	800.000	0.084	-0.333
-724.879	-122.702	-0.270	0.044
-723.864	-115.906	-0.203	-0.038
-722.850	-102.477	0.257	-0.062
-721.835	-75.250	-0.201	-0.072
-720.821	-163.641	-0.139	0.007
-719.806	-27.445	-0.282	0.166
-718.791	479.117	0.097	0.222
-717.777	330.425	-0.068	0.132
-716.762	400.713	0.097	0.205
-715.748	92.484	0.146	-0.166
-714.733	800.000	-0.078	-0.278
-713.718	10.999	-0.048	0.037
-712.704	-84.347	-0.137	0.044
-711.689	-200.000	-0.009	-0.478
-710.675	749.626	-0.081	-0.222
-709.660	-75.336	-0.203	0.073
-708.645	-18.184	0.214	0.135
-707.631	159.738	0.112	-0.158
-706.616	-200.000	0.018	0.100
-705.602	-34.313	-0.205	0.114
-704.587	106.672	-0.022	0.027
-703.572	30.697	-0.055	0.047
-702.558	-122.420	0.196	-0.032
-701.543	3.824	0.304	-0.224
-700.529	-200.000	-0.063	-0.364
-699.514	-200.000	-0.016	0.202
-698.499	105.273	0.200	-0.238
-697.485	177.540	-0.174	-0.257
-696.470	196.368	0.136	0.209
-695.456	476.521	-0.013	-0.029
-694.441	-29.596	-0.114	0.066
-693.426	-104.536	0.182	-0.042
-692.412	-110.921	-0.414	-0.086
-691.397	213.697	-0.043	0.069
-690.383	-148.868	0.209	-0.017
-689.368	42.512	-0.018	-0.016
-688.354	187.195	-0.026	-0.039
-687.339	225.128	-0.165	-0.270
-686.324	-200.000	-0.040	-0.457
-685.310	800.000	-0.090	-0.315
-684.295	113.280	-0.064	0.078
-683.281	-26.412	-0.295	-0.175
-682.266	-140.512	-0.173	0.018
-681.251	-200.000	0.004	-0.211
-680.237	-200.000	0.062	0.000
-679.222	44.880	-0.109	-0.102
-678.208	-126.837	0.062	-0.009
-677.193	2.906	0.406	-0.298
-676.178	-115.255	0.189	0.036
-675.164	800.000	-0.043	-0.122
-674.149	800.000	-0.147	-0.427
-673.135	176.385	0.218	-0.320
-672.120	-83.614	-0.192	0.062
-671.105	800.000	-0.014	0.053
-670.091	-125.644	0.358	-0.055
-669.076	-47.467	-0.148	0.072
-668.062	-135.622	-0.122	0.015
-667.047	-48.864	0.014	-0.007
-666.032	-61.967	-0.146	0.062
-665.018	-200.000	0.028	0.204
-664.003	-11.731	-0.329	-0.218
-662.989	-142.768	0.213	-0.021
-661.974	-86.909	0.142	-0.044
-660.959	158.770	0.141	0.198
-659.945	42.451	-0.196	0.180
-658.930	-117.755	0.213	0.039
-657.916	-83.616	0.474	-0.153
-656.901	-200.000	-0.022	-0.101
-655.886	-94.416	-0.201	0.055
-654.872	-87.533	-0.158	0.048
-653.857	-89.182	-0.430	-0.128
-652.843	800.000	-0.101	-0.376
-651.828	-200.000	0.041	0.235
-650.814	-79.866	0.176	0.060
-649.799	-17.996	-0.136	0.086
-648.784	47.938	0.258	0.243
-647.770	115.732	0.162	0.200
-646.755	-130.077	-0.120	-0.017
-645.741	240.989	0.106	0.179
-644.726	-200.000	-0.017	-0.335
-643.711	-57.629	-0.275	0.122
-642.697	153.931	-0.070	-0.097
-641.682	-200.000	0.005	0.038
-640.668	-24.614	0.428	-0.257
-639.653	-164.217	-0.330	-0.015
-638.638	-200.000	-0.003	-0.138
-637.624	-200.000	-0.011	0.104
-636.609	-200.000	-0.438	-0.002
-635.595	-30.305	0.170	0.098
-634.580	391.732	0.130	0.272
-633.565	-117.271	-0.240	0.044
-632.551	110.225	-0.156	0.188
-631.536	-97.391	-0.296	0.078
-630.522	-67.358	0.086	0.034
-629.507	-200.000	0.050	-0.250
-628.492	-200.000	-0.036	0.299
-627.478	-200.000	-0.012	-0.078
-626.463	12.488	-0.130	0.101
-625.449	-2.341	-0.191	-0.135
-624.434	-200.000	-0.039	-0.246
-623.419	217.496	0.058	0.093
-622.405	-89.229	0.123	-0.037
-621.390	800.000	-0.068	-0.240
-620.376	522.121	-0.176	0.416
-619.361	81.638	-0.230	-0.251
-618.346	535.607	-0.086	0.205
-617.332	207.486	0.141	0.222
-616.317	-42.726	0.217	-0.111
-615.303	106.137	-0.093	0.111
-614.288	-200.000	0.010	0.057
-613.273	-200.000	0.028	-0.127
-612.259	-29.272	0.159	0.092
-611.244	186.698	-0.133	-0.199
-610.230	445.028	0.098	-0.217
-609.215	-200.000	-0.013	-0.154
-608.201	-200.000	0.051	-0.314
-607.186	-192.595	0.202	0.002
-606.171	-96.969	0.285	0.075
-605.157	800.000	-0.033	0.140
-604.142	-41.067	0.131	0.068
-603.128	453.823	0.055	-0.123
-602.113	-100.663	0.128	0.032
-601.098	-200.000	-0.011	-0.236
-600.084	-200.000	0.026	0.308
-599.069	-147.096	0.101	0.009
-598.055	12.328	-0.133	-0.103
-597.040	759.625	0.035	-0.096
-596.025	-27.413	-0.041	-0.024
-595.011	315.569	0.040	0.075
-593.996	800.000	-0.090	-0.298
-592.982	9.007	0.135	0.103
-591.967	-45.515	0.187	0.093
-590.952	-200.000	0.049	-0.292
-589.938	392.466	0.034	0.071
-588.923	75.367	-0.162	0.172
-587.909	-151.673	0.133	0.010
-586.894	-91.004	-0.072	0.021
-585.879	-200.000	0.006	0.167
-584.865	-56.596	-0.230	0.103
-583.850	-200.000	0.076	-0.377
-582.836	466.306	0.011	0.024
-581.821	211.082	-0.040	-0.064
-580.806	-27.610	-0.030	-0.017
-579.792	-200.000	-0.018	0.078
-578.777	-96.427	0.112	0.030
-577.763	-121.256	0.067	-0.011
-576.748	73.308	0.031	-0.033
-575.733	63.393	0.104	0.104
-574.719	-52.175	-0.097	0.045
-573.704	-200.000	0.028	-0.290
-572.690	-99.391	-0.288	-0.073
-571.675	800.000	0.065	-0.256
-570.661	63.617	0.148	-0.149
-569.646	-200.000	0.032	0.277
-568.631	-127.110	0.229	0.034
-567.617	99.112	-0.215	-0.250
-566.602	-109.692	-0.098	-0.021
-565.588	800.000	-0.072	-0.230
-564.573	1.486	0.385	-0.279
-563.558	22.776	-0.225	0.185
-562.544	-200.000	0.006	-0.288
-561.529	-135.111	-0.202	-0.024
-560.515	180.712	0.096	-0.142
-559.500	-119.763	0.168	-0.029
-558.485	182.808	-0.132	-0.196
-557.471	-200.000	0.116	-0.000
-556.456	49.225	-0.177	-0.168
-555.442	-24.901	0.160	-0.095
-554.427	800.000	0.043	-0.122
-553.412	27.224	-0.092	-0.078
-552.398	-65.951	-0.373	-0.150
-551.383	415.666	0.056	0.121
-550.369	-23.742	-0.289	0.174
-549.354	-54.481	-0.199	-0.091
-548.339	-200.000	-0.053	-0.423
-547.325	-140.488	-0.321	0.034
-546.310	265.032	0.250	0.438
-545.296	-29.346	0.279	-0.160
-544.281	-152.626	-0.194	0.014
-543.266	800.000	0.007	-0.022
-542.252	272.044	-0.177	-0.314
-541.237	214.941	0.107	-0.170
-540.223	-200.000	0.019	-0.230
-539.208	-108.132	0.407	0.089
-538.193	-34.793	0.342	0.188
-537.179	-200.000	-0.009	-0.085
-536.164	185.043	0.127	-0.190
-535.150	-200.000	-0.009	-0.051
-534.135	-121.765	0.156	0.026
-533.121	-91.030	0.098	-0.028
-532.106	46.051	0.103	0.096
-531.091	-61.233	-0.394	0.167
-530.077	-24.580	-0.123	0.074
-529.062	55.710	0.131	0.127
-528.048	183.915	-0.083	-0.124
-527.033	105.593	0.085	-0.101
-526.018	-200.000	-0.006	0.046
-525.004	-71.400	0.181	-0.068
-523.989	-140.137	-0.105	0.011
-522.975	579.746	0.162	0.398
-521.960	-186.328	-0.290	-0.004
-520.945	244.202	0.141	0.238
-519.931	-54.186	0.158	0.072
-518.916	117.596	0.170	-0.210
-517.902	800.000	0.064	0.247
-516.887	800.000	-0.095	-0.390
-515.872	-126.571	-0.012	-0.002
-514.858	354.812	0.130	-0.259
-513.843	-75.599	0.435	-0.155
-512.829	800.000	-0.110	0.398
-511.814	-75.245	0.292	-0.104
-510.799	-200.000	0.012	0.061
-509.785	315.481	0.136	-0.258
-508.770	35.727	-0.266	-0.235
-507.756	-52.214	0.051	0.024
-506.741	-75.373	0.159	-0.057
-505.726	-200.000	-0.032	-0.228
-504.712	66.828	0.106	0.109
-503.697	-124.113	0.242	-0.038
-502.683	199.081	0.040	-0.061
-501.668	-200.000	0.057	-0.280
-500.653	495.478	-0.148	0.342
-499.639	-200.000	0.013	0.180
-498.624	38.509	-0.037	0.033
-497.610	-112.052	-0.279	0.056
-496.595	800.000	0.029	0.122
-495.581	-23.264	0.095	-0.057
-494.566	11.683	0.221	-0.170
-493.551	800.000	-0.085	-0.259
-492.537	5.081	-0.143	0.105
-491.522	-42.272	-0.082	0.042
-490.508	152.398	-0.123	0.169
-489.493	352.244	0.141	0.280
-488.478	-71.814	0.198	0.074
-487.464	-200.000	0.019	-0.167
-486.449	800.000	-0.090	-0.252
-485.435	-10.673	0.435	-0.289
-484.420	-200.000	0.017	-0.096
-483.405	-200.000	0.003	-0.224
-482.391	800.000	-0.063	-0.268
-481.376	-200.000	0.008	0.058
-480.362	-75.774	-0.139	-0.049
-479.347	606.004	-0.126	0.315
-478.332	-90.879	0.220	0.063
-477.318	401.196	-0.095	-0.200
-476.303	-127.485	0.149	-0.022
-475.289	50.189	0.116	-0.110
-474.274	614.826	0.057	-0.143
-473.259	2.290	-0.101	0.073
-472.245	56.602	-0.069	0.067
-471.230	-83.770	0.380	-0.121
-470.216	-200.000	0.021	-0.104
-469.201	-200.000	-0.002	-0.262
-468.186	-154.100	0.374	-0.025
-467.172	-14.521	0.218	0.141
-466.157	-68.319	0.111	-0.043
-465.143	14.053	-0.035	-0.027
-464.128	-87.797	0.048	0.014
-463.113	-22.376	0.047	-0.028
-462.099	-200.000	0.028	-0.387
-461.084	-200.000	0.041	-0.204
-460.070	611.546	0.073	-0.182
-459.055	800.000	-0.043	-0.127
-458.040	-200.000	-0.157	0.000
-457.026	-200.000	-0.003	-0.164
-456.011	-30.511	-0.216	0.122
-454.997	123.184	-0.086	0.107
-453.982	-70.937	-0.085	0.032
-452.968	-38.502	0.217	-0.115
-451.953	43.331	0.311	0.284
-450.938	-200.000	-0.024	0.322
-449.924	-40.453	0.151	-0.079
-448.909	-200.000	-0.052	0.295
-447.895	525.893	0.082	-0.193
-446.880	-137.371	-0.099	0.011
-445.865	67.469	0.118	0.120
-444.851	-22.520	-0.047	0.029
-443.836	253.336	0.107	0.184
-442.822	-200.000	0.008	-0.037
-441.807	-29.481	0.147	0.084
-440.792	800.000	-0.087	0.319
-439.778	-200.000	-0.045	-0.307
-438.763	265.344	0.201	0.351
-437.749	350.806	0.055	0.110
-436.734	56.823	0.176	-0.172
-435.719	-0.850	-0.049	-0.034
-434.705	800.000	0.147	0.448
-433.690	-32.141	0.221	-0.123
-432.676	87.075	-0.194	-0.215
-431.661	109.762	0.097	-0.116
-430.646	-200.000	0.097	-0.427
-429.632	449.834	0.103	0.227
-428.617	53.141	-0.273	0.261
-427.603	-100.392	0.073	0.018
-426.588	-200.000	-0.010	-0.151
-425.573	129.838	-0.124	-0.159
-424.559	-26.859	0.115	-0.067
-423.544	-59.446	-0.411	-0.177
-422.530	-200.000	0.025	-0.155
-421.515	-16.638	-0.266	-0.168
-420.500	226.313	-0.099	-0.160
-419.486	-113.834	0.150	-0.029
-418.471	747.663	-0.037	0.099
-417.457	-69.041	-0.260	-0.100
-416.442	68.550	0.112	0.115
-415.428	-200.000	-0.026	0.138
-414.413	-20.573	0.241	0.148
-413.398	-10.851	-0.394	0.260
-412.384	87.799	-0.108	-0.120
-411.369	-144.417	0.268	-0.025
-410.355	-58.655	-0.153	0.066
-409.340	523.406	0.105	0.246
-408.325	-58.926	0.131	-0.056
-407.311	-71.804	-0.189	0.070
-406.296	42.376	0.058	-0.053
-405.282	216.166	-0.054	0.085
-404.267	236.256	-0.303	0.500
-403.252	-14.820	0.152	-0.098
-402.238	800.000	0.053	-0.156
-401.223	265.543	0.197	-0.344
-400.209	9.168	0.147	-0.111
-399.194	375.451	-0.069	-0.141
-398.179	-200.000	-0.056	0.365
-397.165	-200.000	-0.035	0.251
-396.150	36.839	-0.141	0.125
-395.136	-89.526	-0.237	-0.069
-394.121	-63.757	0.099	-0.040
-393.106	129.758	-0.149	0.191
-392.092	-200.000	-0.123	0.548
-391.077	-107.640	-0.271	-0.059
-390.063	-200.000	-0.058	-0.318
-389.048	-200.000	0.000	0.279
-388.033	-200.000	-0.019	0.257
-387.019	-74.095	0.214	0.078
-386.004	-61.206	0.064	-0.027
-384.990	8.608	-0.179	0.135
-383.975	43.741	-0.117	-0.107
-382.960	-52.619	-0.306	0.141
-381.946	134.476	-0.277	0.359
-380.931	13.934	0.405	-0.314
-379.917	-13.495	0.254	-0.164
-378.902	-19.695	-0.144	0.089
-377.888	800.000	-0.052	-0.185
-376.873	-200.000	-0.036	0.418
-375.858	508.862	0.028	-0.065
-374.844	-78.966	0.490	0.166
-373.829	93.197	0.187	0.211
-372.815	800.000	-0.064	-0.276
-371.800	-200.000	-0.004	0.088
-370.785	-63.424	0.075	-0.031
-369.771	-168.836	-0.066	0.002
-368.756	-72.834	-0.094	-0.034
-367.742	-145.430	-0.321	0.029
-366.727	227.718	-0.144	0.233
-365.712	61.971	0.188	0.187
-364.698	-6.799	-0.171	-0.116
-363.683	-92.420	0.162	0.045
-362.669	95.969	-0.300	0.342
-361.654	355.939	0.066	0.131
-360.639	-109.380	0.196	-0.041
-359.625	-200.000	0.037	-0.269
-358.610	-200.000	0.009	0.090
-357.596	-116.736	0.119	-0.022
-356.581	140.718	-0.137	-0.181
-355.566	-88.287	-0.090	0.027
-354.552	-111.332	0.192	-0.039
-353.537	800.000	0.035	-0.114
-352.523	164.488	0.106	-0.150
-351.508	41.844	-0.178	-0.161
-350.493	53.585	-0.427	-0.409
-349.479	4.701	0.191	0.140
-348.464	53.062	0.107	0.102
-347.450	105.781	0.063	-0.074
-346.435	217.720	0.104	0.166
-345.420	-137.941	-0.324	-0.036
-344.406	-130.813	0.279	0.037
-343.391	577.768	0.092	-0.223
-342.377	800.000	-0.059	0.231
-341.362	-99.070	0.121	0.031
-340.348	-188.853	0.397	-0.005
-339.333	800.000	0.033	0.129
-338.318	59.626	0.246	0.242
-337.304	800.000	0.099	0.278
-336.289	56.960	0.123	-0.119
-335.275	-11.509	0.123	-0.080
-334.260	234.817	-0.063	-0.104
-333.245	-58.412	-0.157	-0.068
-332.231	111.229	0.067	0.080
-331.216	-100.989	0.141	0.035
-330.202	-147.484	0.114	-0.010
-329.187	-43.918	0.023	-0.011
-328.172	-200.000	-0.001	0.043
-327.158	-200.000	0.006	0.099
-326.143	-68.184	-0.138	0.054
-325.129	800.000	-0.009	0.035
-324.114	555.701	-0.098	0.235
-323.099	800.000	0.096	-0.317
-322.085	-108.521	-0.086	0.018
-321.070	-162.447	0.170	0.008
-320.056	-154.340	-0.532	0.036
-319.041	800.000	0.101	0.279
-318.026	-63.540	-0.203	0.083
-317.012	28.781	-0.305	0.257
-315.997	477.624	-0.080	0.181
-314.983	-136.280	0.319	-0.037
-313.968	800.000	0.004	-0.011
-312.953	15.573	0.226	-0.177
-311.939	800.000	0.054	0.188
-310.924	-118.867	0.127	-0.022
-309.910	-122.144	-0.214	-0.035
-308.895	94.470	0.125	0.141
-307.880	-101.872	0.112	0.027
-306.866	800.000	-0.065	-0.243
-305.851	-200.000	-0.006	-0.173
-304.837	26.966	-0.093	-0.078
-303.822	-200.000	0.093	-0.485
-302.807	800.000	0.099	-0.376
-301.793	81.531	0.289	-0.311
-300.778	469.112	-0.119	0.266
-299.764	339.708	-0.072	-0.139
-298.749	56.659	-0.154	-0.149
-297.735	25.753	0.299	-0.248
-296.720	-145.286	-0.164	-0.015
-295.705	-193.204	0.464	0.004
-294.691	-152.724	-0.362	0.026
-293.676	-200.000	-0.002	-0.109
-292.662	800.000	-0.036	0.109
-291.647	-200.000	-0.018	0.541
-290.632	183.708	0.014	0.021
-289.618	-79.366	-0.106	0.036
-288.603	562.066	0.095	0.228
-287.589	-164.396	-0.412	-0.019
-286.574	366.403	0.091	0.183
-285.559	-47.807	-0.037	0.018
-284.545	-200.000	-0.003	-0.038
-283.530	-186.692	-0.661	-0.009
-282.516	-32.762	-0.033	-0.018
-281.501	234.236	0.134	-0.220
-280.486	-163.511	-0.395	0.019
-279.472	800.000	-0.172	0.511
-278.457	-68.664	-0.179	-0.069
-277.443	543.127	0.120	-0.285
-276.428	-55.792	0.204	-0.091
-275.413	45.842	0.130	-0.120
-274.399	635.425	0.041	0.102
-273.384	-53.655	-0.175	0.080
-272.370	114.473	-0.024	-0.029
-271.355	179.104	0.231	0.336
-270.340	-46.253	0.210	0.103
-269.326	-90.596	-0.113	0.032
-268.311	-139.689	-0.021	0.002
-267.297	113.305	-0.152	0.183
-266.282	-200.000	0.052	0.254
-265.267	63.410	-0.025	0.025
-264.253	-81.179	-0.382	0.126
-263.238	-62.483	0.067	0.028
-262.224	289.754	0.118	-0.213
-261.209	160.058	0.082	0.114
-260.195	46.668	0.229	-0.211
-259.180	800.000	-0.037	0.103
-258.165	-112.841	0.170	-0.033
-257.151	43.750	0.093	0.084
-256.136	23.171	-0.254	-0.207
-255.122	-41.492	-0.198	0.101
-254.107	35.426	0.125	-0.109
-253.092	-150.302	0.067	0.005
-252.078	66.124	0.077	0.078
-251.063	800.000	0.082	0.275
-250.049	206.478	-0.092	-0.142
-249.034	125.245	-0.253	-0.316
-248.019	70.866	-0.203	-0.209
-247.005	43.369	0.250	0.227
-245.990	739.292	-0.106	0.283
-244.976	-131.033	0.093	0.012
-243.961	-172.426	0.064	0.002
-242.946	-200.000	-0.039	0.184
-241.932	566.207	-0.086	-0.208
-240.917	95.889	-0.114	-0.130
-239.903	-200.000	-0.017	-0.400
-238.888	109.032	0.070	-0.083
-237.873	345.821	-0.047	-0.091
-236.859	389.561	0.083	0.171
-235.844	-103.265	-0.263	-0.062
-234.830	45.039	-0.328	0.300
-233.815	162.782	0.098	0.137
-232.800	-60.867	-0.342	-0.144
-231.786	759.138	0.133	0.358
-230.771	-200.000	0.011	0.158
-229.757	771.137	0.028	-0.077
-228.742	37.816	-0.344	-0.303
-227.727	-200.000	0.010	-0.188
-226.713	-86.730	0.149	0.045
-225.698	-200.000	-0.008	-0.108
-224.684	-200.000	0.019	-0.150
-223.669	-67.328	0.340	-0.133
-222.655	109.399	-0.175	-0.208
-221.640	-95.545	0.146	-0.039
-220.625	-91.921	0.200	0.056
-219.611	207.038	0.235	0.364
-218.596	-200.000	-0.012	-0.101
-217.582	-31.518	-0.394	0.220
-216.567	-6.792	-0.034	-0.023
-215.552	-70.349	-0.139	0.052
-214.538	124.149	-0.244	-0.304
-213.523	-200.000	0.008	0.279
-212.509	71.437	-0.231	-0.238
-211.494	-194.329	-0.105	0.001
-210.479	102.673	-0.024	0.028
-209.465	-200.000	-0.014	-0.087
-208.450	-82.372	-0.216	0.070
-207.436	-29.380	0.271	-0.154
-206.421	147.368	0.082	-0.109
-205.406	800.000	0.079	0.289
-204.392	-115.361	0.323	0.060
-203.377	800.000	-0.030	0.126
-202.363	-132.702	-0.381	-0.048
-201.348	-154.640	-0.098	0.006
-200.333	-114.288	-0.348	-0.067
-199.319	16.304	0.298	0.233
-198.304	800.000	0.103	0.318
-197.290	-143.233	-0.324	-0.031
-196.275	800.000	-0.055	0.228
-195.260	-200.000	0.008	0.412
-194.246	-103.684	0.017	-0.004
-193.231	-75.353	-0.271	0.096
-192.217	800.000	-0.071	-0.231
-191.202	800.000	-0.066	-0.210
-190.187	-78.459	0.155	-0.053
-189.173	9.192	0.099	-0.074
-188.158	800.000	-0.042	0.160
-187.144	-88.151	0.107	0.032
-186.129	-183.197	0.234	-0.004
-185.114	-12.785	-0.194	-0.126
-184.100	-200.000	-0.040	-0.176
-183.085	-200.000	0.021	-0.276
-182.071	-72.313	-0.176	-0.064
-181.056	-40.155	-0.419	-0.216
-180.042	-81.067	-0.276	0.090
-179.027	321.836	0.201	0.378
-178.012	215.679	0.030	0.048
-176.998	-135.147	-0.095	-0.011
-175.983	-21.551	0.241	-0.146
-174.969	-101.981	-0.066	-0.016
-173.954	-110.229	0.071	0.015
-172.939	-30.843	0.240	0.134
-171.925	-200.000	-0.048	0.220
-170.910	-200.000	-0.022	0.225
-169.896	-75.870	0.332	-0.117
-168.881	-200.000	-0.038	0.258
-167.866	141.702	-0.101	0.133
-166.852	-200.000	0.041	0.198
-165.837	-108.213	-0.344	0.074
-164.823	-21.487	0.166	0.100
-163.808	-17.776	0.119	0.074
-162.793	-37.161	-0.079	-0.042
-161.779	-49.321	-0.114	-0.054
-160.764	-117.501	-0.212	-0.038
-159.750	-200.000	0.047	-0.220
-158.735	30.689	0.156	0.132
-157.720	800.000	0.064	-0.274
-156.706	-200.000	-0.083	0.407
-155.691	716.000	0.035	-0.092
-154.677	800.000	0.060	-0.166
-153.662	-11.673	0.256	0.166
-152.647	39.326	-0.137	0.121
-151.633	-120.914	-0.225	-0.037
-150.618	759.004	-0.014	-0.037
-149.604	205.597	-0.158	-0.243
-148.589	-77.404	0.180	0.062
-147.574	-200.000	-0.050	-0.241
-146.560	-133.671	-0.186	-0.023
-145.545	243.663	0.084	-0.139
-144.531	-200.000	0.038	0.238
-143.516	-129.408	0.159	-0.022
-142.502	-200.000	-0.019	0.177
-141.487	-200.000	0.006	0.086
-140.472	-87.796	-0.042	0.012
-139.458	-135.103	0.204	0.024
-138.443	1.882	0.119	0.085
-137.429	124.049	-0.171	0.213
-136.414	-7.472	-0.131	-0.088
-135.399	-200.000	0.027	-0.165
-134.385	-200.000	-0.020	-0.269
-133.370	-200.000	-0.023	0.108
-132.356	54.734	-0.210	0.200
-131.341	800.000	-0.089	0.312
-130.326	-30.623	0.234	-0.131
-129.312	-130.028	0.171	0.023
-128.297	800.000	-0.043	0.161
-127.283	256.838	0.027	-0.046
-126.268	192.857	0.026	-0.038
-125.253	56.454	0.044	-0.042
-124.239	-88.318	0.036	-0.011
-123.224	-7.645	-0.075	0.050
-122.210	190.627	0.144	0.214
