DTS Sentinel unit serial number:	SN413079Multiplexer serial number:	ORYXHardware model number:	OX4-SRSoftware version number:	ORYX F/W v4.00 Oryx Data Collector v3.7.2.0data status	okinstallation	princeton_trtdifferential loss correction	single-endedforward channel	channel 2reverse channel	N/Adate	2019/09/15time	19:27:35forward acquisition time	60.00reverse acquisition time	0.00gamma	496.2192k internal	0.2312k external	0.2312temperature offset calibration	0.9929default loss term (dB/km)	0.3790temperature slope calibration	1.0000multiplexer offset coefficient	1.0000multiplexer slope coefficient	1.0000fibre end	0.00T internal ref (°C)	39.02T ext. ref 1 (°C)	7.28T ext. ref 2 (°C)	28.52length (m)	temperature (°C)	Stokes	anti-Stokes-747.200	-110.208	0.115	-0.024
-746.185	-200.000	-0.031	0.227
-745.171	800.000	0.069	-0.250
-744.156	-200.000	0.007	0.140
-743.142	25.910	-0.077	-0.065
-742.127	20.805	0.151	0.124
-741.112	293.098	0.183	0.339
-740.098	234.164	-0.140	0.233
-739.083	115.946	-0.159	0.198
-738.069	-165.107	0.284	0.013
-737.054	586.635	0.106	0.265
-736.039	-4.364	-0.170	-0.119
-735.025	196.008	-0.092	-0.143
-734.010	112.136	-0.123	-0.150
-732.996	643.890	-0.087	-0.224
-731.981	14.893	-0.067	-0.053
-730.966	45.426	-0.188	-0.176
-729.952	-67.992	0.066	-0.026
-728.937	800.000	0.070	0.201
-727.923	800.000	0.078	-0.268
-726.908	-27.140	0.210	-0.124
-725.894	275.634	-0.055	0.098
-724.879	-200.000	-0.005	0.127
-723.864	49.039	0.165	-0.157
-722.850	-107.409	-0.243	0.054
-721.835	364.396	0.075	-0.152
-720.821	135.657	0.112	-0.148
-719.806	-161.370	0.096	-0.005
-718.791	-95.192	0.143	0.039
-717.777	-7.484	0.303	0.208
-716.762	194.527	-0.104	-0.160
-715.748	0.636	0.241	0.175
-714.733	-33.719	0.045	-0.025
-713.718	-101.402	0.374	0.092
-712.704	728.424	0.044	0.118
-711.689	-94.658	-0.042	-0.012
-710.675	-16.036	-0.200	-0.129
-709.660	276.927	-0.252	-0.454
-708.645	-121.747	0.169	0.028
-707.631	797.695	-0.053	0.147
-706.616	-198.444	0.068	-0.000
-705.602	800.000	0.090	0.362
-704.587	-200.000	-0.018	-0.203
-703.572	335.252	-0.157	-0.309
-702.558	-142.767	-0.272	0.027
-701.543	800.000	-0.049	-0.188
-700.529	-98.376	-0.082	-0.021
-699.514	-12.955	-0.276	-0.182
-698.499	325.661	0.074	-0.143
-697.485	-83.447	0.287	-0.093
-696.470	-65.124	0.308	-0.126
-695.456	-52.918	0.273	-0.127
-694.441	12.797	0.350	-0.274
-693.426	172.450	0.168	0.245
-692.412	-200.000	-0.041	0.207
-691.397	800.000	0.050	-0.181
-690.383	138.855	-0.138	0.183
-689.368	800.000	-0.078	0.293
-688.354	-200.000	-0.012	-0.054
-687.339	-70.724	0.223	-0.085
-686.324	-200.000	0.052	-0.381
-685.310	800.000	-0.095	-0.295
-684.295	64.520	-0.116	-0.118
-683.281	-123.311	0.049	0.008
-682.266	351.490	-0.150	-0.302
-681.251	-169.141	0.133	-0.005
-680.237	800.000	-0.037	0.152
-679.222	-163.324	0.263	-0.013
-678.208	-132.412	-0.120	-0.016
-677.193	-4.626	0.175	-0.122
-676.178	-200.000	-0.078	0.385
-675.164	-197.503	0.193	0.001
-674.149	35.172	-0.182	-0.162
-673.135	800.000	0.046	-0.147
-672.120	800.000	-0.028	0.114
-671.105	-50.288	0.224	-0.107
-670.091	56.169	0.068	0.066
-669.076	276.794	0.070	0.126
-668.062	117.129	0.097	-0.120
-667.047	408.868	-0.091	-0.194
-666.032	-18.185	0.133	-0.084
-665.018	-200.000	-0.006	0.341
-664.003	214.921	-0.204	-0.327
-662.989	-23.857	-0.280	0.170
-661.974	-135.158	-0.218	0.026
-660.959	-110.592	-0.133	0.028
-659.945	-79.110	-0.123	-0.042
-658.930	426.861	-0.101	0.221
-657.916	-83.281	0.203	-0.066
-656.901	-191.033	-0.237	-0.002
-655.886	-175.830	0.183	0.005
-654.872	66.354	0.148	0.152
-653.857	197.759	-0.025	-0.039
-652.843	-119.740	-0.248	0.043
-651.828	-102.098	-0.111	0.027
-650.814	-89.256	-0.092	-0.028
-649.799	-200.000	0.010	-0.300
-648.784	-200.000	0.012	-0.144
-647.770	-113.656	-0.156	0.031
-646.755	-61.886	0.039	0.016
-645.741	-103.742	-0.207	-0.049
-644.726	800.000	0.140	0.434
-643.711	-200.000	0.028	-0.131
-642.697	69.125	-0.152	0.158
-641.682	607.171	0.059	0.148
-640.668	688.049	0.117	-0.308
-639.653	800.000	0.043	0.158
-638.638	-127.975	-0.183	-0.027
-637.624	80.459	-0.313	0.341
-636.609	445.544	0.057	-0.127
-635.595	-140.785	0.301	0.031
-634.580	-200.000	0.016	-0.373
-633.565	6.191	-0.176	-0.132
-632.551	98.450	0.133	-0.155
-631.536	800.000	0.052	-0.182
-630.522	151.678	0.057	-0.079
-629.507	28.062	0.027	-0.023
-628.492	-200.000	-0.004	0.047
-627.478	524.492	0.132	0.314
-626.463	-57.365	0.151	0.067
-625.449	-168.831	-0.095	0.004
-624.434	-52.412	-0.172	-0.080
-623.419	-122.702	-0.208	-0.034
-622.405	-53.031	-0.155	-0.072
-621.390	-200.000	0.025	0.000
-620.376	92.991	-0.109	-0.124
-619.361	0.381	0.143	-0.103
-618.346	-58.175	0.140	-0.062
-617.332	11.664	-0.183	0.142
-616.317	61.493	-0.129	-0.130
-615.303	-200.000	-0.043	-0.244
-614.288	8.250	0.153	0.116
-613.273	68.153	-0.203	-0.210
-612.259	665.444	-0.019	0.048
-611.244	-81.370	0.098	-0.033
-610.230	79.846	0.100	-0.108
-609.215	-200.000	0.004	-0.107
-608.201	27.981	0.020	-0.017
-607.186	507.781	0.005	-0.011
-606.171	61.263	0.101	-0.101
-605.157	114.162	-0.083	-0.101
-604.142	800.000	-0.114	-0.425
-603.128	252.595	-0.206	-0.355
-602.113	-30.599	0.090	0.051
-601.098	6.622	-0.251	-0.189
-600.084	-35.814	0.092	-0.050
-599.069	44.914	0.339	-0.315
-598.055	800.000	0.126	-0.437
-597.040	-89.415	0.239	-0.071
-596.025	48.359	-0.088	0.083
-595.011	-82.768	-0.588	0.192
-593.996	-47.768	-0.104	-0.051
-592.982	-50.008	-0.226	-0.108
-591.967	162.941	-0.104	0.147
-590.952	175.666	0.013	0.018
-589.938	-95.648	0.120	-0.032
-588.923	-85.512	0.169	-0.053
-587.909	211.956	0.139	-0.221
-586.894	113.054	-0.149	-0.182
-585.879	-118.730	0.164	0.029
-584.865	-40.892	-0.157	0.082
-583.850	89.861	-0.176	0.199
-582.836	-37.715	-0.142	-0.076
-581.821	-138.061	0.195	0.022
-580.806	-200.000	0.041	0.310
-579.792	446.127	-0.138	-0.305
-578.777	-5.978	0.316	-0.218
-577.763	501.131	0.062	0.145
-576.748	153.410	0.026	0.036
-575.733	-200.000	0.049	0.226
-574.719	-136.470	-0.015	-0.002
-573.704	-171.473	-0.222	0.007
-572.690	-102.751	-0.200	0.048
-571.675	-59.589	0.209	0.090
-570.661	488.408	0.112	-0.257
-569.646	800.000	-0.065	-0.205
-568.631	-200.000	-0.036	-0.190
-567.617	589.154	0.071	-0.177
-566.602	-200.000	0.069	-0.314
-565.588	800.000	-0.095	0.312
-564.573	-54.602	0.309	0.141
-563.558	-159.786	-0.353	-0.020
-562.544	800.000	-0.036	-0.135
-561.529	-200.000	0.015	0.310
-560.515	-141.734	0.236	-0.024
-559.500	-6.007	0.055	-0.038
-558.485	-12.262	0.391	0.257
-557.471	-136.394	-0.185	0.022
-556.456	-153.897	-0.130	0.009
-555.442	-200.000	0.013	-0.107
-554.427	-126.642	0.193	0.029
-553.412	-200.000	0.023	-0.319
-552.398	-198.969	0.261	-0.001
-551.383	-71.530	0.315	-0.119
-550.369	78.338	-0.193	-0.207
-549.354	-57.404	-0.135	0.060
-548.339	-97.533	-0.347	-0.091
-547.325	-200.000	0.040	0.279
-546.310	40.930	-0.034	-0.031
-545.296	-76.241	0.116	0.041
-544.281	258.216	0.018	0.031
-543.266	-6.459	-0.142	0.097
-542.252	800.000	0.030	-0.126
-541.237	800.000	-0.118	0.348
-540.223	-81.081	-0.121	-0.040
-539.208	394.325	0.056	-0.118
-538.193	-50.311	0.138	-0.065
-537.179	-9.250	-0.116	0.078
-536.164	478.208	-0.167	0.380
-535.150	-167.393	0.312	0.013
-534.135	-48.610	-0.121	-0.058
-533.121	800.000	0.070	-0.230
-532.106	-3.516	-0.156	-0.109
-531.091	800.000	-0.148	0.509
-530.077	-21.307	-0.160	-0.098
-529.062	-200.000	0.018	0.451
-528.048	144.077	0.222	0.298
-527.033	284.863	-0.096	-0.173
-526.018	-13.674	0.063	0.041
-525.004	-52.575	-0.066	-0.031
-523.989	-47.455	0.107	0.052
-522.975	30.300	-0.075	-0.064
-521.960	58.710	-0.205	0.203
-520.945	429.430	-0.039	-0.086
-519.931	-82.892	-0.078	-0.025
-518.916	68.453	-0.067	0.069
-517.902	197.668	-0.102	0.156
-516.887	-200.000	-0.039	-0.306
-515.872	-123.999	-0.151	0.024
-514.858	-65.810	0.291	0.117
-513.843	-188.912	0.215	-0.003
-512.829	130.961	-0.110	0.142
-511.814	100.456	0.127	0.148
-510.799	-200.000	0.007	-0.115
-509.785	3.187	0.288	0.211
-508.770	-174.881	0.085	0.002
-507.756	-1.216	-0.145	-0.103
-506.741	102.002	-0.189	-0.222
-505.726	-148.756	-0.130	-0.011
-504.712	800.000	0.058	-0.168
-503.697	-200.000	0.019	0.112
-502.683	800.000	-0.060	0.181
-501.668	431.871	0.013	-0.027
-500.653	87.188	0.077	-0.086
-499.639	-110.713	-0.171	-0.036
-498.624	-151.697	0.246	-0.018
-497.610	-162.708	0.240	-0.012
-496.595	124.126	0.128	0.162
-495.581	134.062	-0.147	0.192
-494.566	440.012	-0.244	-0.535
-493.551	82.856	0.281	0.307
-492.537	195.115	-0.044	-0.067
-491.522	-93.373	-0.277	0.077
-490.508	21.955	0.175	0.143
-489.493	-99.084	-0.247	0.063
-488.478	-31.006	0.127	-0.072
-487.464	89.825	0.165	-0.185
-486.449	-200.000	-0.006	-0.064
-485.435	-81.401	0.108	-0.036
-484.420	217.229	-0.048	0.077
-483.405	-139.924	-0.115	-0.012
-482.391	-200.000	0.016	0.325
-481.376	415.979	-0.148	0.318
-480.362	121.291	0.299	-0.374
-479.347	788.617	0.114	-0.314
-478.332	195.193	-0.224	-0.342
-477.318	-84.556	0.031	-0.010
-476.303	800.000	-0.043	-0.124
-475.289	124.659	0.155	0.195
-474.274	-119.658	-0.287	-0.050
-473.259	-14.385	-0.052	-0.034
-472.245	800.000	-0.021	0.089
-471.230	-33.169	0.050	0.028
-470.216	-29.481	0.129	0.074
-469.201	573.317	0.128	0.314
-468.186	-200.000	-0.018	0.261
-467.172	-90.486	-0.080	0.023
-466.157	-57.911	0.345	0.151
-465.143	800.000	0.133	0.470
-464.128	98.458	-0.158	-0.182
-463.113	-18.785	-0.317	-0.198
-462.099	273.524	-0.129	0.228
-461.084	179.149	0.077	0.113
-460.070	-7.277	-0.166	0.113
-459.055	-57.045	0.095	-0.042
-458.040	504.508	0.093	0.215
-457.026	85.052	-0.120	-0.132
-456.011	82.388	-0.165	0.180
-454.997	2.891	0.035	-0.025
-453.982	-200.000	0.004	0.116
-452.968	-78.594	0.202	0.069
-451.953	29.340	0.020	-0.017
-450.938	-68.267	-0.212	0.083
-449.924	-71.517	-0.277	-0.104
-448.909	6.988	0.278	0.208
-447.895	-200.000	0.062	0.329
-446.880	214.959	0.180	0.286
-445.865	184.701	-0.207	0.308
-444.851	618.784	0.072	-0.181
-443.836	391.290	-0.064	-0.133
-442.822	-175.105	-0.137	-0.004
-441.807	123.708	-0.187	-0.236
-440.792	-102.352	-0.208	0.050
-439.778	-14.632	0.186	-0.120
-438.763	-200.000	-0.178	0.001
-437.749	550.117	0.016	-0.039
-436.734	769.786	0.121	-0.330
-435.719	40.159	0.160	-0.144
-434.705	-161.298	0.175	0.009
-433.690	-26.434	0.359	-0.211
-432.676	520.090	0.165	0.387
-431.661	43.383	0.166	-0.152
-430.646	-200.000	-0.010	-0.066
-429.632	-48.038	-0.100	0.048
-428.617	-27.059	0.100	-0.058
-427.603	800.000	-0.142	-0.546
-426.588	-200.000	0.034	0.167
-425.573	-193.631	-0.239	-0.002
-424.559	352.081	0.143	-0.285
-423.544	800.000	-0.041	-0.123
-422.530	-76.895	-0.304	-0.106
-421.515	462.988	-0.140	0.314
-420.500	44.317	0.151	-0.139
-419.486	95.706	0.209	0.239
-418.471	-165.264	0.241	-0.011
-417.457	800.000	0.092	0.272
-416.442	44.355	0.086	-0.079
-415.428	-29.370	0.136	-0.078
-414.413	800.000	0.132	-0.439
-413.398	-73.026	0.008	0.003
-412.384	290.978	-0.125	0.228
-411.369	-44.502	0.187	0.094
-410.355	-134.375	0.032	0.004
-409.340	-139.301	-0.298	0.032
-408.325	4.895	0.252	-0.186
-407.311	-72.342	0.332	-0.123
-406.296	70.779	-0.132	0.137
-405.282	-200.000	-0.082	0.375
-404.267	-115.633	-0.191	-0.036
-403.252	181.393	-0.034	-0.051
-402.238	-200.000	0.029	0.207
-401.223	-140.912	-0.136	0.014
-400.209	800.000	0.037	0.104
-399.194	-15.152	0.301	-0.193
-398.179	6.037	0.135	-0.100
-397.165	-200.000	-0.065	0.294
-396.150	-195.333	0.152	-0.001
-395.136	230.270	-0.132	0.217
-394.121	253.707	-0.194	-0.332
-393.106	-200.000	0.042	-0.332
-392.092	-75.033	0.512	0.183
-391.077	-200.000	-0.040	-0.487
-390.063	-4.553	-0.182	-0.126
-389.048	-200.000	-0.039	-0.212
-388.033	800.000	-0.022	0.066
-387.019	183.724	0.159	-0.235
-386.004	800.000	0.056	0.163
-384.990	-70.983	0.180	-0.068
-383.975	0.287	0.385	-0.275
-382.960	800.000	-0.081	-0.344
-381.946	296.269	-0.141	-0.258
-380.931	-104.427	-0.249	0.058
-379.917	-200.000	-0.017	0.277
-378.902	103.358	0.174	-0.204
-377.888	-200.000	0.014	-0.316
-376.873	206.018	0.083	0.129
-375.858	800.000	-0.062	0.207
-374.844	-63.211	0.126	-0.052
-373.829	207.083	0.063	0.099
-372.815	75.011	-0.113	0.120
-371.800	-200.000	-0.013	-0.245
-370.785	-47.507	0.119	0.058
-369.771	-35.400	-0.323	-0.176
-368.756	366.824	0.103	0.209
-367.742	188.743	0.229	0.342
-366.727	262.612	-0.138	0.239
-365.712	-118.566	-0.035	-0.006
-364.698	0.790	0.258	0.185
-363.683	-148.190	-0.161	-0.013
-362.669	134.089	0.093	-0.121
-361.654	-200.000	0.069	0.321
-360.639	322.535	-0.187	0.357
-359.625	156.224	0.056	-0.077
-358.610	-200.000	0.033	0.250
-357.596	-96.922	0.270	-0.071
-356.581	-10.352	0.068	-0.045
-355.566	324.183	0.102	-0.194
-354.552	57.594	0.196	0.192
-353.537	48.701	0.176	-0.165
-352.523	-200.000	0.010	0.121
-351.508	-11.836	0.159	0.104
-350.493	-200.000	-0.011	0.207
-349.479	195.912	-0.197	-0.300
-348.464	-200.000	0.036	0.350
-347.450	60.581	-0.135	0.134
-346.435	193.446	-0.171	-0.259
-345.420	520.928	0.034	-0.080
-344.406	16.011	-0.196	0.154
-343.391	-200.000	0.017	0.104
-342.377	-200.000	0.053	0.332
-341.362	-200.000	-0.017	-0.089
-340.348	63.442	-0.051	-0.051
-339.333	-200.000	-0.024	0.157
-338.318	-28.108	0.242	0.140
-337.304	-42.326	0.153	0.078
-336.289	-110.478	-0.294	0.061
-335.275	-51.563	-0.090	0.042
-334.260	-113.235	-0.043	-0.008
-333.245	10.491	0.017	-0.013
-332.231	205.165	0.193	-0.299
-331.216	-200.000	0.038	-0.250
-330.202	137.726	-0.138	0.180
-329.187	-57.926	0.158	0.069
-328.172	-12.803	0.159	0.103
-327.158	-128.646	0.547	0.077
-326.143	95.168	-0.153	0.174
-325.129	-200.000	0.011	0.259
-324.114	139.749	0.097	0.128
-323.099	-59.333	0.357	0.153
-322.085	-4.044	-0.305	-0.211
-321.070	-151.926	0.210	0.015
-320.056	27.653	0.151	0.127
-319.041	-25.249	-0.261	-0.154
-318.026	600.997	-0.104	-0.258
-317.012	13.252	0.068	-0.053
-315.997	800.000	-0.103	0.292
-314.983	7.972	0.050	-0.038
-313.968	270.208	0.111	0.195
-312.953	-93.843	-0.157	0.043
-311.939	-200.000	-0.017	0.143
-310.924	-200.000	-0.019	-0.203
-309.910	-92.731	0.263	-0.074
-308.895	-72.368	-0.265	-0.098
-307.880	306.193	0.201	-0.373
-306.866	-87.460	0.166	0.050
-305.851	14.002	-0.179	-0.139
-304.837	-200.000	-0.007	-0.092
-303.822	659.191	0.066	0.168
-302.807	-10.499	0.204	0.135
-301.793	-99.425	0.075	-0.019
-300.778	800.000	-0.057	0.223
-299.764	491.910	0.101	-0.230
-298.749	-200.000	-0.028	-0.177
-297.735	-134.522	0.191	-0.023
-296.720	-74.418	-0.118	0.043
-295.705	575.697	0.124	-0.302
-294.691	-128.429	0.206	-0.029
-293.676	-200.000	-0.018	0.165
-292.662	-127.320	-0.331	0.048
-291.647	-46.050	-0.175	-0.086
-290.632	47.933	0.155	-0.144
-289.618	-89.236	0.213	0.063
-288.603	265.035	-0.091	0.158
-287.589	141.234	-0.105	-0.139
-286.574	-76.779	-0.254	0.089
-285.559	17.769	0.117	-0.093
-284.545	-170.670	0.372	0.013
-283.530	27.058	0.124	-0.104
-282.516	-200.000	0.016	-0.190
-281.501	9.054	0.347	0.261
-280.486	-159.539	0.060	0.003
-279.472	632.752	-0.102	-0.258
-278.457	800.000	0.128	0.404
-277.443	-33.746	-0.086	-0.047
-276.428	-200.000	0.002	0.287
-275.413	122.770	-0.085	0.106
-274.399	371.786	0.157	0.318
-273.384	61.681	0.137	0.136
-272.370	-37.791	0.156	0.083
-271.355	385.260	-0.044	0.090
-270.340	-200.000	0.011	-0.052
-269.326	491.998	0.171	-0.389
-268.311	-193.775	-0.217	0.002
-267.297	-94.582	-0.091	0.025
-266.282	-168.750	0.554	-0.021
-265.267	35.814	-0.231	0.203
-264.253	-30.934	-0.089	0.050
-263.238	42.324	-0.262	0.238
-262.224	-200.000	0.041	0.390
-261.209	-99.632	0.081	0.020
-260.195	-131.783	0.168	-0.022
-259.180	-200.000	-0.019	-0.342
-258.165	81.128	-0.159	0.171
-257.151	-200.000	0.024	-0.182
-256.136	-166.150	0.050	0.002
-255.122	31.496	-0.070	-0.060
-254.107	-117.137	-0.193	0.035
-253.092	562.864	0.101	-0.244
-252.078	-120.183	-0.045	-0.008
-251.063	672.791	0.089	0.229
-250.049	244.452	0.207	-0.345
-249.034	78.823	-0.310	-0.330
-248.019	-2.909	-0.415	-0.289
-247.005	-186.486	-0.200	0.003
-245.990	-200.000	-0.037	0.238
-244.976	749.472	0.055	-0.148
-243.961	-200.000	-0.021	-0.263
-242.946	289.286	0.047	0.086
-241.932	-38.854	-0.242	-0.127
-240.917	260.678	0.044	0.076
-239.903	-123.979	-0.097	-0.015
-238.888	-42.252	0.121	0.062
-237.873	303.853	-0.023	-0.042
-236.859	1.392	-0.098	-0.070
-235.844	-87.379	-0.183	-0.055
-234.830	800.000	-0.113	-0.331
-233.815	-108.188	-0.039	0.008
-232.800	-163.296	-0.082	0.004
-231.786	2.412	0.134	-0.097
-230.771	-8.408	0.088	-0.059
-229.757	-2.550	-0.269	-0.187
-228.742	-4.754	0.138	0.094
-227.727	118.513	0.053	0.065
-226.713	429.931	-0.034	0.074
-225.698	-70.913	0.061	0.023
-224.684	-13.270	-0.196	0.126
-223.669	-56.312	-0.108	-0.048
-222.655	800.000	0.027	0.088
-221.640	65.888	-0.214	0.216
-220.625	40.301	0.149	0.133
-219.611	162.407	-0.255	-0.356
-218.596	419.692	0.048	0.102
-217.582	567.180	0.049	0.119
-216.567	800.000	-0.021	0.063
-215.552	160.401	-0.074	0.102
-214.538	369.324	-0.134	-0.269
-213.523	-200.000	0.003	-0.345
-212.509	-90.358	0.185	0.053
-211.494	-103.162	-0.195	0.046
-210.479	-62.518	-0.267	0.110
-209.465	778.112	0.039	-0.105
-208.450	-142.544	-0.037	0.004
-207.436	616.033	0.065	-0.162
-206.421	-133.483	-0.102	0.013
-205.406	452.867	-0.058	0.127
-204.392	-66.726	0.327	0.129
-203.377	-34.876	-0.178	0.097
-202.363	-18.701	-0.180	0.111
-201.348	800.000	-0.080	-0.309
-200.333	-136.037	-0.137	0.016
-199.319	-35.970	-0.140	0.075
-198.304	800.000	0.068	0.219
-197.290	452.858	-0.149	0.327
-196.275	800.000	0.054	-0.162
-195.260	492.568	0.007	-0.016
-194.246	-200.000	-0.014	0.078
-193.231	-120.493	-0.368	0.062
-192.217	-121.930	0.078	-0.013
-191.202	-136.869	0.241	0.027
-190.187	-53.637	0.200	0.091
-189.173	-200.000	-0.027	-0.171
-188.158	-25.524	-0.297	-0.174
-187.144	-37.154	-0.421	0.224
-186.129	-200.000	0.048	0.316
-185.114	800.000	0.047	-0.150
-184.100	28.804	0.238	0.201
-183.085	798.731	-0.068	0.187
-182.071	-111.903	-0.405	0.081
-181.056	200.654	0.059	0.090
-180.042	-200.000	-0.020	-0.236
-179.027	-200.000	0.041	-0.403
-178.012	96.493	-0.153	0.174
-176.998	-72.679	0.229	0.084
-175.983	-6.224	-0.145	-0.099
-174.969	93.034	0.029	-0.032
-173.954	-200.000	-0.003	-0.168
-172.939	157.669	0.042	0.058
-171.925	-71.367	-0.286	0.106
-170.910	19.932	-0.247	0.197
-169.896	202.062	-0.055	-0.084
-168.881	-122.557	0.515	0.083
-167.866	160.724	-0.088	0.122
-166.852	-91.296	0.126	-0.036
-165.837	-200.000	0.015	-0.085
-164.823	467.342	-0.096	-0.214
-163.808	241.679	0.055	0.092
-162.793	95.453	-0.072	0.081
-161.779	-200.000	0.056	-0.349
-160.764	72.472	0.123	-0.128
-159.750	165.665	0.185	0.259
-158.735	-135.147	-0.165	0.020
-157.720	800.000	0.028	-0.090
-156.706	-19.826	-0.238	0.146
-155.691	-95.015	-0.246	0.066
-154.677	-200.000	-0.023	0.308
-153.662	-200.000	0.036	0.173
-152.647	197.488	0.019	-0.028
-151.633	-51.608	-0.110	-0.051
-150.618	-142.110	-0.204	-0.020
-149.604	0.973	-0.126	-0.089
-148.589	800.000	-0.029	0.095
-147.574	800.000	0.131	-0.512
-146.560	-200.000	0.033	0.441
-145.545	2.427	-0.058	0.041
-144.531	-189.521	0.318	-0.004
-143.516	335.688	-0.054	0.103
-142.502	81.965	-0.058	-0.063
-141.487	793.432	0.054	-0.148
-140.472	115.715	-0.081	-0.098
-139.458	442.493	0.053	0.116
-138.443	800.000	-0.040	-0.158
-137.429	-200.000	0.001	-0.423
-136.414	-105.580	0.069	0.015
-135.399	-32.272	0.075	-0.041
-134.385	196.563	0.175	-0.264
-133.370	-20.412	0.089	-0.054
-132.356	-200.000	0.018	0.196
-131.341	-200.000	0.020	-0.204
-130.326	-200.000	0.041	-0.503
-129.312	-200.000	-0.014	0.227
-128.297	-68.353	-0.105	0.040
-127.283	-200.000	-0.003	-0.238
-126.268	90.709	-0.084	-0.093
-125.253	-200.000	0.101	0.464
-124.239	91.408	-0.137	-0.152
-123.224	-84.951	-0.242	0.075
-122.210	-87.949	0.238	0.071
-121.195	52.759	0.332	0.315
-120.180	-98.136	0.098	-0.025
