DTS Sentinel unit serial number:	SN413079Multiplexer serial number:	ORYXHardware model number:	OX4-SRSoftware version number:	ORYX F/W v4.00 Oryx Data Collector v3.7.2.0data status	okinstallation	princeton_trtdifferential loss correction	single-endedforward channel	channel 2reverse channel	N/Adate	2019/09/12time	19:13:49forward acquisition time	15.00reverse acquisition time	0.00gamma	496.2192k internal	0.2325k external	0.2325temperature offset calibration	1.0150default loss term (dB/km)	0.3790temperature slope calibration	1.0000multiplexer offset coefficient	1.0000multiplexer slope coefficient	1.0000fibre end	0.00T internal ref (°C)	32.56T ext. ref 1 (°C)	3.23T ext. ref 2 (°C)	27.11length (m)	temperature (°C)	Stokes	anti-Stokes-747.200	-94.393	-1.106	0.305
-746.185	-105.259	0.833	0.192
-745.171	68.386	0.443	-0.458
-744.156	89.719	0.652	-0.734
-743.142	800.000	0.048	0.199
-742.127	-200.000	-0.058	0.885
-741.112	-200.000	-0.198	0.926
-740.098	35.899	0.546	0.485
-739.083	-116.649	-1.161	0.215
-738.069	66.814	0.283	-0.290
-737.054	106.646	0.264	0.316
-736.039	-52.268	-0.281	-0.131
-735.025	191.698	-0.400	-0.608
-734.010	800.000	0.030	-0.102
-732.996	109.586	0.397	0.480
-731.981	-112.768	-0.520	0.104
-730.966	243.581	-0.329	-0.557
-729.952	-45.779	-0.475	0.237
-728.937	-129.429	-0.381	0.053
-727.923	-33.344	-0.252	0.141
-726.908	800.000	-0.176	-0.543
-725.894	-200.000	-0.102	-0.530
-724.879	-165.778	-0.409	-0.018
-723.864	106.997	-0.167	0.200
-722.850	-74.163	-0.849	-0.310
-721.835	-86.916	0.725	0.223
-720.821	-200.000	-0.067	0.392
-719.806	46.593	0.037	0.034
-718.791	-2.010	0.230	-0.163
-717.777	-64.032	0.729	0.300
-716.762	-30.144	-1.246	0.714
-715.748	179.364	-0.336	-0.495
-714.733	-200.000	0.008	-0.056
-713.718	110.231	-0.620	-0.751
-712.704	3.464	-0.609	0.448
-711.689	-33.168	0.171	-0.096
-710.675	-66.748	-0.756	-0.301
-709.660	-98.439	0.612	0.158
-708.645	-75.640	-0.656	0.235
-707.631	-90.281	-0.646	-0.189
-706.616	-200.000	0.006	0.757
-705.602	437.372	0.222	0.486
-704.587	-200.000	-0.011	-0.288
-703.572	-67.305	-0.751	-0.297
-702.558	800.000	-0.173	-0.577
-701.543	-177.903	-0.834	-0.020
-700.529	91.258	-0.279	-0.316
-699.514	-104.955	-0.750	0.173
-698.499	715.532	-0.076	0.203
-697.485	-66.478	-0.418	-0.167
-696.470	84.826	0.287	-0.316
-695.456	161.754	-0.279	0.393
-694.441	-89.414	0.352	-0.104
-693.426	40.532	0.884	-0.802
-692.412	-173.584	-1.032	-0.031
-691.397	-85.050	0.531	-0.168
-690.383	106.089	-0.180	-0.215
-689.368	-200.000	0.070	0.554
-688.354	-28.614	-0.425	-0.246
-687.339	53.638	0.566	0.547
-686.324	9.837	-0.833	-0.636
-685.310	-77.206	0.545	0.191
-684.295	-200.000	0.043	0.381
-683.281	167.538	0.328	0.469
-682.266	-140.038	-0.433	0.046
-681.251	-161.107	0.404	-0.021
-680.237	89.488	-0.607	0.681
-679.222	35.700	0.471	-0.416
-678.208	154.226	0.174	0.241
-677.193	285.756	0.206	-0.373
-676.178	800.000	-0.179	-0.600
-675.164	-112.147	0.633	0.128
-674.149	800.000	0.026	-0.092
-673.135	800.000	-0.125	-0.497
-672.120	-166.022	0.591	0.025
-671.105	-123.805	0.924	-0.147
-670.091	557.111	0.302	-0.733
-669.076	29.177	0.767	-0.655
-668.062	-111.351	-0.753	-0.155
-667.047	-37.982	0.306	-0.163
-666.032	-186.505	0.226	-0.003
-665.018	204.749	0.236	-0.368
-664.003	800.000	0.060	-0.255
-662.989	63.784	-0.077	0.077
-661.974	-153.108	0.479	-0.034
-660.959	-17.144	0.140	0.089
-659.945	-99.906	-0.112	0.028
-658.930	19.881	0.674	-0.546
-657.916	800.000	-0.171	0.558
-656.901	706.630	-0.287	0.762
-655.886	26.875	0.286	0.241
-654.872	159.165	0.343	-0.479
-653.857	774.329	0.280	-0.769
-652.843	-57.398	0.146	-0.064
-651.828	37.727	-0.061	0.055
-650.814	-155.694	0.411	-0.026
-649.799	800.000	-0.149	-0.636
-648.784	18.916	0.716	-0.576
-647.770	-200.000	0.100	-0.517
-646.755	220.301	0.356	0.573
-645.741	-95.109	-0.615	0.167
-644.726	800.000	0.084	-0.326
-643.711	-115.383	-0.131	0.025
-642.697	-92.186	-0.191	0.054
-641.682	-176.335	-0.692	0.018
-640.668	-97.348	0.591	-0.155
-639.653	5.044	0.383	0.283
-638.638	-150.941	0.501	-0.038
-637.624	70.721	0.686	0.714
-636.609	800.000	-0.244	-0.707
-635.595	-121.591	-0.504	-0.084
-634.580	91.192	-0.322	-0.364
-633.565	-97.532	-0.581	-0.152
-632.551	30.274	-0.908	0.779
-631.536	-155.569	1.116	0.072
-630.522	5.611	0.311	-0.231
-629.507	-124.264	0.418	-0.066
-628.492	445.021	0.136	-0.300
-627.478	-99.495	0.285	0.072
-626.463	-31.564	-0.243	0.137
-625.449	65.677	0.284	-0.289
-624.434	-4.529	0.090	0.063
-623.419	-138.878	-0.236	-0.026
-622.405	22.542	-0.419	-0.345
-621.390	-85.684	-0.595	-0.185
-620.376	278.011	-0.609	1.089
-619.361	-157.933	-0.420	-0.025
-618.346	-117.992	-0.257	0.046
-617.332	149.477	-0.308	-0.419
-616.317	800.000	0.170	0.701
-615.303	-42.671	0.114	0.058
-614.288	-72.664	0.423	0.156
-613.273	-200.000	-0.028	0.561
-612.259	-75.231	0.638	0.229
-611.244	26.470	-0.501	0.421
-610.230	422.961	-0.257	0.555
-609.215	310.722	-0.255	0.479
-608.201	145.848	-0.332	0.446
-607.186	-192.182	0.408	0.004
-606.171	399.213	0.381	-0.800
-605.157	-6.576	-0.450	0.308
-604.142	122.332	0.016	-0.020
-603.128	-71.985	0.849	0.317
-602.113	-27.544	0.829	-0.483
-601.098	-94.127	-0.623	-0.171
-600.084	-200.000	0.003	-0.019
-599.069	-110.683	0.910	-0.189
-598.055	-70.148	1.044	-0.398
-597.040	-200.000	0.003	0.251
-596.025	-44.627	-0.355	-0.178
-595.011	800.000	0.095	-0.308
-593.996	746.421	0.166	-0.448
-592.982	-40.973	-0.459	0.238
-591.967	-200.000	-0.006	-0.105
-590.952	-191.962	-0.069	-0.001
-589.938	502.017	0.124	-0.287
-588.923	-108.554	-0.978	0.211
-587.909	-200.000	-0.126	0.590
-586.894	54.258	-0.170	-0.164
-585.879	41.228	-0.518	0.469
-584.865	-102.168	-0.903	-0.218
-583.850	-132.834	0.214	0.027
-582.836	-34.974	0.887	0.485
-581.821	800.000	-0.118	-0.339
-580.806	-119.247	0.368	-0.064
-579.792	15.319	-0.426	0.335
-578.777	-65.620	0.483	-0.194
-577.763	-97.619	-0.412	0.107
-576.748	-159.231	0.674	-0.038
-575.733	-200.000	-0.024	-0.131
-574.719	800.000	-0.051	-0.182
-573.704	-200.000	0.012	-0.109
-572.690	800.000	-0.165	0.670
-571.675	-44.375	0.146	-0.073
-570.661	180.802	0.334	-0.491
-569.646	800.000	0.147	0.410
-568.631	22.445	-0.508	0.417
-567.617	13.074	0.147	-0.114
-566.602	-113.125	-0.700	-0.138
-565.588	-156.068	-0.129	0.008
-564.573	145.522	0.179	0.240
-563.558	45.976	-0.570	-0.529
-562.544	7.788	0.436	0.327
-561.529	-200.000	0.103	0.506
-560.515	19.472	0.655	0.527
-559.500	-62.862	-0.213	-0.088
-558.485	-200.000	0.185	-1.205
-557.471	13.723	-0.038	-0.030
-556.456	18.516	-0.661	0.530
-555.442	6.449	0.288	0.214
-554.427	36.697	-0.522	-0.462
-553.412	376.784	-0.267	-0.546
-552.398	31.522	-0.148	0.127
-551.383	-137.955	0.331	0.037
-550.369	10.354	-0.436	0.332
-549.354	-200.000	0.038	-0.229
-548.339	103.647	0.339	0.398
-547.325	-116.051	0.079	0.015
-546.310	-200.000	-0.148	-0.762
-545.296	-178.042	0.357	0.008
-544.281	54.309	0.380	0.366
-543.266	753.262	-0.142	0.384
-542.252	265.065	-0.365	0.636
-541.237	-102.495	-0.429	0.103
-540.223	800.000	-0.262	-1.107
-539.208	150.979	0.245	0.334
-538.193	-112.040	0.909	-0.183
-537.179	-56.337	0.149	-0.066
-536.164	-200.000	0.029	0.788
-535.150	50.500	0.576	-0.545
-534.135	-37.510	0.071	0.038
-533.121	-31.997	-0.248	-0.139
-532.106	395.297	0.339	-0.708
-531.091	800.000	0.060	0.205
-530.077	-27.785	-0.841	0.488
-529.062	-200.000	-0.027	0.130
-528.048	800.000	-0.078	0.259
-527.033	163.496	0.255	-0.358
-526.018	-129.361	-0.095	0.013
-525.004	-41.315	0.367	0.189
-523.989	-200.000	0.107	-0.620
-522.975	215.224	-0.089	-0.142
-521.960	195.680	-0.196	0.299
-520.945	-139.078	0.336	-0.036
-519.931	427.101	-0.138	0.297
-518.916	-157.856	-0.064	0.004
-517.902	-105.510	-1.173	-0.266
-516.887	42.242	0.093	0.085
-515.872	206.915	0.307	0.478
-514.858	81.172	-0.238	-0.257
-513.843	431.076	0.146	0.316
-512.829	230.440	0.258	0.421
-511.814	155.183	-0.483	0.664
-510.799	455.436	0.379	-0.840
-509.785	-137.207	0.574	-0.065
-508.770	-200.000	0.013	0.921
-507.756	70.721	-0.213	0.220
-506.741	-9.795	0.403	0.268
-505.726	-200.000	0.115	0.850
-504.712	-9.550	0.497	0.331
-503.697	105.257	0.361	-0.426
-502.683	800.000	-0.251	1.044
-501.668	407.621	-0.380	-0.803
-500.653	-34.769	1.054	-0.576
-499.639	699.492	-0.098	0.257
-498.624	-200.000	0.310	-0.001
-497.610	-100.215	-0.628	0.156
-496.595	-200.000	-0.006	-0.374
-495.581	-188.199	0.844	0.011
-494.566	-200.000	0.057	-0.300
-493.551	800.000	0.058	0.188
-492.537	-161.367	-1.053	0.054
-491.522	-126.602	-0.641	0.095
-490.508	126.690	0.555	-0.702
-489.493	-69.800	0.432	0.165
-488.478	-78.876	0.447	0.152
-487.464	-200.000	-0.092	-0.430
-486.449	-139.238	0.716	0.077
-485.435	289.982	0.065	-0.118
-484.420	56.261	-0.709	-0.688
-483.405	97.407	0.233	-0.267
-482.391	-131.596	0.638	0.084
-481.376	218.422	0.287	-0.457
-480.362	173.299	-0.424	-0.610
-479.347	0.008	-0.206	-0.146
-478.332	2.189	-0.133	-0.096
-477.318	-126.784	0.384	0.057
-476.303	142.414	-0.054	0.071
-475.289	187.923	-0.241	0.360
-474.274	-200.000	0.011	0.183
-473.259	568.832	-0.102	0.247
-472.245	-41.346	0.696	-0.358
-471.230	300.616	0.170	0.314
-470.216	-84.522	-0.441	-0.139
-469.201	-133.310	0.271	-0.034
-468.186	58.066	-0.224	-0.219
-467.172	-184.602	-0.361	-0.006
-466.157	347.562	0.261	-0.513
-465.143	581.737	-0.279	0.682
-464.128	-95.501	0.628	0.168
-463.113	-4.412	-0.527	0.363
-462.099	271.260	-0.199	-0.349
-461.084	126.519	0.226	0.286
-460.070	11.780	-0.579	0.444
-459.055	38.865	0.234	0.209
-458.040	46.302	-0.321	0.296
-457.026	204.641	-0.130	0.201
-456.011	-48.455	0.250	-0.120
-454.997	-101.601	-0.712	-0.172
-453.982	800.000	-0.133	0.395
-452.968	66.373	0.406	-0.411
-451.953	459.950	-0.354	-0.787
-450.938	-101.600	0.589	0.143
-449.924	23.265	0.548	-0.449
-448.909	-85.521	-0.944	-0.293
-447.895	-90.796	0.245	-0.070
-446.880	-200.000	0.159	-0.862
-445.865	-77.884	-0.451	-0.155
-444.851	-185.211	0.801	-0.012
-443.836	36.606	-0.374	-0.330
-442.822	337.858	0.120	-0.233
-441.807	-113.406	-0.679	-0.133
-440.792	340.169	-0.098	0.191
-439.778	-162.644	0.912	-0.045
-438.763	-21.044	-0.804	0.491
-437.749	-102.127	-0.527	-0.126
-436.734	-4.216	0.490	0.338
-435.719	-0.345	0.196	-0.139
-434.705	-61.662	0.466	0.195
-433.690	-47.847	0.386	0.186
-432.676	-200.000	0.107	-0.509
-431.661	138.273	-0.698	-0.913
-430.646	26.071	-0.250	-0.208
-429.632	41.792	-0.541	0.489
-428.617	-200.000	0.033	0.701
-427.603	-75.584	0.265	-0.094
-426.588	800.000	-0.151	-0.595
-425.573	-78.689	1.046	-0.356
-424.559	-125.443	-0.182	0.028
-423.544	-64.229	-0.295	0.120
-422.530	-58.714	-0.240	0.104
-421.515	-144.737	0.908	-0.083
-420.500	-200.000	-0.011	0.531
-419.486	-7.759	-0.211	0.142
-418.471	-200.000	-0.076	-0.346
-417.457	100.693	0.053	0.061
-416.442	304.262	-0.207	-0.383
-415.428	-172.327	-0.169	0.005
-414.413	281.801	-0.237	-0.423
-413.398	-104.832	0.436	0.100
-412.384	44.919	0.671	-0.615
-411.369	800.000	-0.144	0.403
-410.355	-99.758	0.389	0.097
-409.340	-77.670	-0.396	-0.136
-408.325	-139.174	-0.963	0.103
-407.311	-200.000	0.009	-0.540
-406.296	-200.000	0.015	-1.104
-405.282	27.996	0.523	0.439
-404.267	-200.000	0.046	0.237
-403.252	-77.821	-0.738	0.254
-402.238	112.000	-0.304	-0.366
-401.223	-200.000	-0.088	0.850
-400.209	-86.358	0.919	0.281
-399.194	-150.782	0.665	0.050
-398.179	443.587	0.137	0.299
-397.165	-200.000	0.045	0.655
-396.150	-85.730	0.619	-0.191
-395.136	-143.273	-0.412	-0.039
-394.121	-154.281	-0.935	-0.063
-393.106	-200.000	0.024	0.996
-392.092	-200.000	0.020	0.351
-391.077	82.477	0.466	0.504
-390.063	-19.640	0.178	0.109
-389.048	-200.000	-0.106	-0.556
-388.033	-107.267	0.261	-0.057
-387.019	-6.532	-0.710	-0.481
-386.004	-128.326	0.743	0.105
-384.990	800.000	-0.089	0.316
-383.975	-5.342	0.118	-0.081
-382.960	-15.888	-0.160	-0.101
-381.946	362.418	0.512	-1.022
-380.931	2.668	0.490	-0.353
-379.917	-88.202	0.470	0.140
-378.902	-144.408	-0.387	-0.036
-377.888	800.000	0.122	0.490
-376.873	-169.309	-0.967	0.035
-375.858	-200.000	0.024	0.420
-374.844	145.030	0.217	0.288
-373.829	341.555	0.301	0.586
-372.815	252.565	-0.353	0.598
-371.800	-32.318	-0.231	-0.128
-370.785	800.000	-0.069	-0.273
-369.771	800.000	-0.242	0.673
-368.756	-147.883	-0.519	0.043
-367.742	392.610	0.183	0.378
-366.727	599.789	-0.384	-0.948
-365.712	32.135	0.259	0.222
-364.698	-200.000	-0.046	0.387
-363.683	-56.307	1.126	0.497
-362.669	4.794	0.156	-0.114
-361.654	-200.000	-0.025	-0.278
-360.639	454.030	0.085	0.187
-359.625	-200.000	-0.108	0.516
-358.610	93.362	-0.007	-0.008
-357.596	-200.000	-0.015	-0.473
-356.581	-200.000	0.133	-0.794
-355.566	436.454	0.163	-0.353
-354.552	517.881	-0.090	0.209
-353.537	-200.000	-0.049	0.463
-352.523	-200.000	0.080	-0.632
-351.508	93.344	-0.813	-0.914
-350.493	800.000	-0.171	-0.531
-349.479	-0.304	0.875	-0.618
-348.464	-50.032	-0.088	-0.041
-347.450	-51.778	-0.368	0.170
-346.435	86.666	0.293	-0.321
-345.420	-146.579	0.480	-0.041
-344.406	-101.456	0.350	0.085
-343.391	800.000	-0.038	-0.114
-342.377	75.015	0.650	0.680
-341.362	-200.000	0.076	0.643
-340.348	-200.000	0.051	-0.261
-339.333	91.565	0.307	0.343
-338.318	2.801	-0.603	-0.435
-337.304	-109.513	0.306	0.064
-336.289	-25.829	-0.441	-0.258
-335.275	92.083	-0.202	0.226
-334.260	-112.366	0.414	-0.082
-333.245	224.855	-0.364	0.584
-332.231	18.900	-0.362	-0.288
-331.216	644.431	0.356	-0.903
-330.202	73.537	-0.280	0.291
-329.187	32.368	0.403	-0.345
-328.172	-59.915	0.321	0.136
-327.158	173.047	0.447	-0.640
-326.143	800.000	0.212	-0.788
-325.129	800.000	-0.116	0.360
-324.114	-200.000	0.186	-0.943
-323.099	-54.715	0.451	0.202
-322.085	86.024	-0.322	0.352
-321.070	83.977	-0.458	-0.497
-320.056	302.784	-0.268	0.492
-319.041	80.967	0.245	0.262
-318.026	107.567	0.385	-0.454
-317.012	-74.732	1.072	-0.382
-315.997	-118.214	-0.593	-0.105
-314.983	-61.132	-0.685	-0.287
-313.968	800.000	-0.143	-0.432
-312.953	-129.106	0.663	0.092
-311.939	800.000	0.136	0.475
-310.924	-200.000	0.029	0.183
-309.910	79.697	0.572	-0.609
-308.895	-90.828	-0.404	-0.115
-307.880	-117.660	-0.530	0.095
-306.866	-200.000	0.084	0.715
-305.851	800.000	-0.085	-0.310
-304.837	571.480	0.235	0.569
-303.822	89.516	0.394	0.435
-302.807	-200.000	0.006	0.244
-301.793	-34.120	0.187	0.102
-300.778	-200.000	0.075	-0.469
-299.764	-184.990	-0.844	0.013
-298.749	11.589	-0.563	-0.428
-297.735	302.353	-0.316	-0.579
-296.720	781.668	0.315	-0.854
-295.705	-7.548	1.370	-0.919
-294.691	95.247	-0.537	-0.606
-293.676	20.865	-0.371	0.298
-292.662	-200.000	0.100	-0.442
-291.647	-18.312	-0.377	-0.234
-290.632	406.005	-0.226	0.472
-289.618	-200.000	0.012	0.222
-288.603	501.029	-0.096	0.219
-287.589	76.827	0.555	-0.584
-286.574	8.640	-0.332	-0.248
-285.559	215.322	0.460	-0.723
-284.545	-139.585	0.270	0.028
-283.530	510.964	0.201	0.464
-282.516	7.209	-0.810	-0.599
-281.501	-120.172	1.185	0.201
-280.486	-38.991	-0.641	0.334
-279.472	-160.990	-0.576	-0.030
-278.457	-110.527	0.721	0.148
-277.443	-100.058	0.346	0.085
-276.428	234.471	0.444	0.725
-275.413	-108.529	-0.922	-0.196
-274.399	-119.245	-0.129	-0.022
-273.384	-19.943	-0.592	-0.362
-272.370	74.617	0.427	0.445
-271.355	800.000	0.028	-0.119
-270.340	-200.000	0.031	-0.867
-269.326	-163.217	-0.223	0.011
-268.311	338.989	0.090	-0.173
-267.297	67.002	-0.656	0.662
-266.282	-194.609	-0.228	-0.002
-265.267	-24.476	-1.015	0.599
-264.253	-24.279	0.607	0.359
-263.238	-72.708	0.409	0.149
-262.224	-200.000	0.012	0.195
-261.209	-71.076	-0.732	-0.272
-260.195	-200.000	-0.016	-0.300
-259.180	-200.000	-0.095	0.495
-258.165	-200.000	-0.551	-0.001
-257.151	225.372	-0.388	0.622
-256.136	-200.000	0.009	-0.260
-255.122	-147.459	0.445	0.037
-254.107	800.000	0.065	0.281
-253.092	-52.205	0.411	0.189
-252.078	-200.000	0.000	-0.219
-251.063	-124.724	0.827	0.127
-250.049	517.763	-0.165	-0.381
-249.034	-200.000	-0.116	0.668
-248.019	-44.144	0.265	-0.132
-247.005	637.521	-0.293	0.738
-245.990	246.512	0.141	-0.236
-244.976	-200.000	-0.009	-0.161
-243.961	-200.000	0.943	-0.002
-242.946	94.614	-0.225	0.253
-241.932	800.000	0.214	0.666
-240.917	-28.344	-0.876	-0.500
-239.903	691.758	0.085	0.221
-238.888	396.654	-0.154	0.319
-237.873	-200.000	0.101	-0.717
-236.859	-63.276	0.339	0.138
-235.844	582.509	0.268	0.650
-234.830	81.297	0.271	0.290
-233.815	-79.954	-0.445	0.148
-232.800	-54.726	-0.148	-0.066
-231.786	9.436	0.477	-0.357
-230.771	475.821	0.298	0.665
-229.757	-17.195	-0.807	0.503
-228.742	156.654	-0.401	0.547
-227.727	92.043	-0.310	-0.345
-226.713	-98.680	-0.207	-0.052
-225.698	-200.000	0.220	-0.959
-224.684	189.075	-0.324	-0.480
-223.669	247.625	0.080	0.134
-222.655	800.000	-0.052	0.193
-221.640	-200.000	0.022	-0.350
-220.625	-130.889	-0.500	-0.066
-219.611	-87.103	-0.874	0.263
-218.596	800.000	-0.171	0.482
-217.582	107.245	-0.208	-0.245
-216.567	-75.335	-0.267	-0.094
-215.552	12.131	-0.053	-0.040
-214.538	75.926	-0.241	-0.252
-213.523	-100.055	-0.742	-0.183
-212.509	27.493	-0.333	-0.277
-211.494	200.801	-0.349	-0.530
-210.479	-200.000	-0.005	-0.931
-209.465	-124.918	-0.261	-0.040
-208.450	32.867	0.149	0.127
-207.436	101.508	0.128	0.147
-206.421	-122.660	0.422	-0.067
-205.406	800.000	0.143	0.447
-204.392	89.697	-0.504	-0.555
-203.377	-20.123	-0.408	0.249
-202.363	-193.602	0.833	-0.007
-201.348	-119.488	0.876	-0.150
-200.333	655.337	-0.136	0.345
-199.319	-48.664	-0.171	0.081
-198.304	244.879	-0.114	0.189
-197.290	-0.011	-0.260	-0.183
-196.275	126.254	0.236	0.295
-195.260	800.000	-0.124	-0.530
-194.246	-49.334	-0.268	-0.126
-193.231	-110.524	0.907	0.186
-192.217	48.767	-0.490	0.454
-191.202	-200.000	0.015	0.238
-190.187	8.734	-0.183	-0.136
-189.173	-108.212	0.035	-0.007
-188.158	-31.150	-0.481	-0.268
-187.144	800.000	0.081	-0.280
-186.129	-129.404	0.414	0.057
-185.114	337.389	-0.271	0.520
-184.100	-200.000	-0.031	1.002
-183.085	615.685	-0.254	-0.627
-182.071	-55.897	0.608	0.268
-181.056	-16.022	0.600	0.376
-180.042	-120.977	-0.338	-0.056
-179.027	-200.000	-0.015	-0.590
-178.012	-50.896	0.533	0.247
-176.998	29.277	-0.342	-0.286
-175.983	-128.153	0.443	0.062
-174.969	24.864	-0.169	0.138
-173.954	-175.859	0.679	-0.018
-172.939	-40.778	0.724	-0.370
-171.925	800.000	0.201	0.601
-170.910	266.170	-0.109	-0.188
-169.896	-70.679	-0.552	0.206
-168.881	46.008	-0.546	0.499
-167.866	359.300	-0.136	0.267
-166.852	18.269	-0.208	-0.163
-165.837	169.446	-0.386	0.544
-164.823	-122.490	-0.722	-0.116
-163.808	-149.619	0.810	0.063
-162.793	423.433	0.313	-0.664
-161.779	800.000	0.155	-0.593
-160.764	-38.573	0.425	0.221
-159.750	273.830	-0.141	-0.247
-158.735	59.530	-0.752	0.731
-157.720	127.209	-0.613	0.766
-156.706	800.000	-0.157	0.456
-155.691	-138.862	-0.200	0.021
-154.677	177.970	-0.385	-0.554
-153.662	57.099	0.218	-0.209
-152.647	41.494	-0.442	0.395
-151.633	-200.000	0.010	0.788
-150.618	9.743	-0.541	0.405
-149.604	21.803	-0.622	0.500
-148.589	-88.205	0.189	0.056
-147.574	800.000	-0.106	-0.411
-146.560	-149.794	-1.910	-0.148
-145.545	800.000	-0.197	-0.554
-144.531	179.864	0.357	-0.515
-143.516	54.351	0.283	0.269
-142.502	800.000	-0.164	-0.682
-141.487	-200.000	-0.030	0.302
-140.472	613.937	0.135	0.333
-139.458	-90.350	-0.346	-0.099
-138.443	-65.762	-0.298	-0.118
-137.429	72.227	0.490	-0.503
-136.414	150.565	0.276	-0.369
-135.399	342.869	0.378	0.729
-134.385	-200.000	-0.081	0.602
-133.370	-179.210	0.571	0.013
-132.356	-89.314	-0.222	-0.065
-131.341	800.000	0.301	1.216
-130.326	499.395	0.028	0.063
-129.312	-21.090	0.709	-0.427
-128.297	60.248	0.320	0.312
-127.283	63.136	0.371	-0.366
-126.268	800.000	-0.206	0.735
-125.253	-200.000	-0.061	0.618
-124.239	-77.743	0.302	0.103
-123.224	40.325	0.398	0.352
-122.210	-92.106	-0.585	-0.163
-121.195	125.256	-0.308	0.383
-120.180	135.398	0.401	-0.514
