DTS Sentinel unit serial number:	SN413079Multiplexer serial number:	ORYXHardware model number:	OX4-SRSoftware version number:	ORYX F/W v4.00 Oryx Data Collector v3.7.2.0data status	okinstallation	princeton_trtdifferential loss correction	single-endedforward channel	channel 2reverse channel	N/Adate	2019/09/11time	09:17:10forward acquisition time	60.00reverse acquisition time	0.00gamma	496.2192k internal	0.2318k external	0.2318temperature offset calibration	0.9966default loss term (dB/km)	0.3790temperature slope calibration	1.0000multiplexer offset coefficient	1.0000multiplexer slope coefficient	1.0000fibre end	0.00T internal ref (°C)	34.42T ext. ref 1 (°C)	0.10T ext. ref 2 (°C)	31.08length (m)	temperature (°C)	Stokes	anti-Stokes-747.200	-133.806	-0.230	-0.029
-746.185	-124.258	-0.213	-0.034
-745.171	-68.129	-0.073	-0.029
-744.156	-98.889	-0.162	-0.042
-743.142	89.551	0.213	0.240
-742.127	-75.021	0.144	0.052
-741.112	-200.000	0.005	0.183
-740.098	322.340	0.125	0.240
-739.083	-111.839	-0.131	-0.027
-738.069	-102.060	-0.205	0.050
-737.054	-113.691	0.173	-0.034
-736.039	-143.879	0.159	0.015
-735.025	356.801	0.013	0.027
-734.010	292.478	-0.095	0.175
-732.996	-130.776	-0.054	-0.007
-731.981	161.879	0.154	-0.219
-730.966	-179.360	-0.338	0.008
-729.952	800.000	0.127	-0.357
-728.937	316.198	-0.142	-0.271
-727.923	275.637	-0.162	-0.291
-726.908	416.913	0.056	-0.120
-725.894	373.524	0.114	-0.235
-724.879	-139.964	0.217	-0.023
-723.864	-37.314	0.233	-0.126
-722.850	-200.000	-0.042	0.261
-721.835	-200.000	0.003	0.322
-720.821	-200.000	-0.023	0.288
-719.806	-92.603	-0.145	0.041
-718.791	800.000	-0.111	-0.327
-717.777	-61.435	-0.067	-0.028
-716.762	-151.137	-0.289	0.022
-715.748	-122.816	0.181	0.030
-714.733	-17.615	0.275	-0.175
-713.718	67.423	-0.210	-0.217
-712.704	-200.000	-0.007	0.141
-711.689	286.956	0.099	-0.180
-710.675	-161.636	0.376	-0.019
-709.660	800.000	-0.069	-0.301
-708.645	81.115	0.166	-0.181
-707.631	280.923	0.174	0.315
-706.616	-76.213	0.327	-0.116
-705.602	-200.000	0.044	-0.000
-704.587	-98.092	-0.415	-0.108
-703.572	36.489	-0.244	-0.217
-702.558	-200.000	0.033	0.189
-701.543	147.880	0.069	0.094
-700.529	-200.000	-0.031	0.201
-699.514	-53.082	0.099	-0.046
-698.499	-147.996	0.198	0.017
-697.485	-142.425	-0.066	0.007
-696.470	-76.632	-0.196	0.070
-695.456	-200.000	0.048	0.374
-694.441	3.235	-0.291	-0.214
-693.426	-200.000	-0.184	-0.001
-692.412	-30.269	-0.298	-0.171
-691.397	-84.965	0.260	-0.082
-690.383	-106.017	0.375	0.085
-689.368	274.409	0.140	-0.250
-688.354	92.233	0.252	0.286
-687.339	58.453	0.089	-0.088
-686.324	105.854	0.129	0.154
-685.310	-36.942	-0.193	-0.105
-684.295	-9.676	-0.233	0.157
-683.281	-157.316	-0.170	-0.010
-682.266	800.000	-0.104	-0.306
-681.251	-77.548	0.202	-0.071
-680.237	-55.100	-0.477	0.217
-679.222	-100.376	-0.145	0.036
-678.208	-200.000	0.030	0.297
-677.193	1.199	0.167	-0.121
-676.178	137.794	0.096	-0.127
-675.164	-100.009	-0.195	-0.049
-674.149	16.237	0.104	-0.083
-673.135	-121.446	-0.195	-0.033
-672.120	-200.000	-0.007	0.276
-671.105	-200.000	-0.028	-0.231
-670.091	-60.510	-0.123	-0.053
-669.076	-98.642	-0.281	-0.072
-668.062	-200.000	0.021	-0.123
-667.047	218.048	-0.119	0.191
-666.032	-20.928	0.261	-0.162
-665.018	-69.841	-0.227	0.088
-664.003	173.532	0.150	-0.219
-662.989	-44.680	0.023	0.012
-661.974	308.031	0.099	0.186
-660.959	422.573	-0.019	0.042
-659.945	703.616	0.024	-0.065
-658.930	533.273	-0.013	-0.032
-657.916	800.000	-0.089	-0.371
-656.901	-200.000	0.076	-0.361
-655.886	99.174	-0.060	0.070
-654.872	166.846	-0.088	0.125
-653.857	-60.891	-0.451	0.192
-652.843	786.549	-0.075	-0.208
-651.828	-82.296	-0.319	-0.105
-650.814	-164.527	-0.295	0.014
-649.799	3.375	-0.156	-0.114
-648.784	-200.000	0.008	0.059
-647.770	-146.017	0.183	-0.016
-646.755	81.128	-0.034	0.037
-645.741	-200.000	-0.002	-0.209
-644.726	590.736	0.057	0.143
-643.711	-2.695	0.348	0.245
-642.697	80.473	0.219	-0.238
-641.682	-167.514	0.262	-0.011
-640.668	-93.120	-0.095	0.027
-639.653	483.588	-0.077	-0.177
-638.638	800.000	0.153	-0.436
-637.624	-115.031	0.164	0.031
-636.609	-51.068	0.122	0.058
-635.595	151.078	-0.175	0.240
-634.580	197.525	-0.158	-0.243
-633.565	-200.000	0.023	0.383
-632.551	162.622	-0.157	0.222
-631.536	-200.000	-0.011	-0.318
-630.522	48.828	0.072	-0.068
-629.507	800.000	-0.062	-0.222
-628.492	370.783	-0.087	-0.179
-627.478	68.821	-0.119	0.123
-626.463	800.000	-0.055	0.171
-625.449	785.583	-0.064	0.176
-624.434	-128.406	-0.230	0.033
-623.419	-175.208	0.166	-0.005
-622.405	800.000	-0.060	-0.197
-621.390	183.245	-0.128	-0.190
-620.376	471.595	0.158	0.359
-619.361	-121.375	-0.153	-0.026
-618.346	112.275	0.079	0.096
-617.332	579.838	-0.069	-0.171
-616.317	582.736	-0.080	-0.199
-615.303	18.072	0.126	-0.101
-614.288	47.452	0.190	-0.178
-613.273	-20.115	0.361	0.224
-612.259	-131.563	0.289	0.038
-611.244	-103.488	-0.110	-0.026
-610.230	-139.262	-0.108	-0.012
-609.215	-48.220	0.183	0.089
-608.201	-78.100	-0.160	-0.055
-607.186	-126.944	-0.255	-0.038
-606.171	-13.882	-0.153	0.100
-605.157	-200.000	0.004	-0.027
-604.142	245.175	0.041	-0.069
-603.128	-140.255	0.278	0.029
-602.113	-200.000	-0.051	0.243
-601.098	-119.169	-0.199	-0.035
-600.084	-101.079	-0.138	-0.034
-599.069	-25.438	0.184	-0.109
-598.055	-34.210	-0.147	0.081
-597.040	-6.079	-0.115	0.079
-596.025	-200.000	0.052	-0.266
-595.011	651.551	0.143	-0.369
-593.996	-48.673	0.057	-0.027
-592.982	-77.156	0.113	-0.040
-591.967	-200.000	0.013	0.138
-590.952	-20.099	0.253	0.157
-589.938	800.000	0.080	0.320
-588.923	83.077	0.168	0.184
-587.909	-200.000	-0.013	-0.179
-586.894	54.198	0.235	-0.227
-585.879	-118.721	-0.271	0.048
-584.865	115.640	-0.194	-0.239
-583.850	-200.000	-0.041	0.262
-582.836	16.595	0.222	-0.176
-581.821	800.000	-0.012	-0.043
-580.806	-142.882	-0.408	0.040
-579.792	126.819	-0.043	-0.055
-578.777	24.224	0.107	0.089
-577.763	-134.322	-0.225	0.028
-576.748	25.584	0.092	0.077
-575.733	-200.000	-0.068	-0.323
-574.719	-200.000	0.035	-0.412
-573.704	-200.000	-0.021	-0.124
-572.690	38.344	-0.148	-0.133
-571.675	163.679	-0.149	0.211
-570.661	-77.538	0.208	0.073
-569.646	-200.000	-0.018	0.128
-568.631	119.280	-0.143	-0.178
-567.617	13.535	0.381	-0.297
-566.602	-109.650	-0.249	0.053
-565.588	-134.088	-0.502	-0.062
-564.573	242.229	0.054	0.091
-563.558	-200.000	-0.021	0.186
-562.544	-57.952	0.230	0.101
-561.529	113.420	0.183	0.224
-560.515	1.141	-0.211	-0.152
-559.500	-200.000	0.033	0.330
-558.485	-200.000	-0.023	0.395
-557.471	395.132	-0.148	-0.311
-556.456	-200.000	0.000	0.059
-555.442	133.983	-0.050	-0.065
-554.427	-182.327	-0.334	-0.006
-553.412	-58.144	-0.332	-0.145
-552.398	-48.487	-0.207	-0.100
-551.383	800.000	-0.058	0.209
-550.369	75.595	0.247	-0.262
-549.354	9.390	-0.139	0.106
-548.339	249.044	-0.055	-0.093
-547.325	-19.674	-0.195	-0.121
-546.310	-200.000	-0.030	-0.150
-545.296	-0.663	0.224	-0.160
-544.281	71.458	-0.045	-0.046
-543.266	-124.564	-0.104	-0.016
-542.252	94.300	-0.076	-0.087
-541.237	106.093	-0.182	-0.216
-540.223	-200.000	-0.003	-0.122
-539.208	-200.000	0.002	0.080
-538.193	-51.922	0.158	-0.074
-537.179	800.000	-0.015	0.044
-536.164	44.680	-0.159	-0.147
-535.150	59.473	-0.220	0.218
-534.135	319.931	-0.066	-0.127
-533.121	800.000	-0.107	0.319
-532.106	-133.613	0.088	0.011
-531.091	250.523	0.084	-0.143
-530.077	197.479	0.113	-0.173
-529.062	-15.197	0.116	-0.075
-528.048	171.011	0.100	0.144
-527.033	20.632	0.180	-0.146
-526.018	-200.000	0.020	-0.124
-525.004	28.800	0.194	-0.165
-523.989	-101.950	-0.476	-0.115
-522.975	-200.000	-0.019	-0.182
-521.960	-200.000	0.068	0.344
-520.945	422.105	0.170	-0.367
-519.931	800.000	-0.074	0.273
-518.916	-3.379	-0.252	-0.176
-517.902	-45.761	0.203	-0.101
-516.887	30.263	-0.136	0.116
-515.872	145.285	-0.120	0.161
-514.858	-83.731	0.252	0.081
-513.843	-141.492	0.231	-0.023
-512.829	71.109	-0.145	-0.151
-511.814	-66.516	-0.159	-0.063
-510.799	-200.000	0.018	-0.294
-509.785	-169.777	0.222	-0.008
-508.770	-82.475	0.121	-0.039
-507.756	578.003	-0.046	-0.113
-506.741	-200.000	-0.012	0.162
-505.726	511.857	-0.092	-0.215
-504.712	282.477	-0.151	-0.271
-503.697	80.738	-0.078	-0.085
-502.683	477.891	0.054	0.122
-501.668	-23.971	-0.123	-0.074
-500.653	-200.000	-0.004	-0.223
-499.639	-154.760	0.328	-0.022
-498.624	-56.110	-0.320	-0.143
-497.610	-165.851	-0.113	0.005
-496.595	-200.000	0.029	0.297
-495.581	161.464	-0.146	0.204
-494.566	-19.987	0.190	-0.118
-493.551	159.333	0.155	0.216
-492.537	337.063	0.126	-0.245
-491.522	48.523	0.373	-0.350
-490.508	-200.000	0.008	0.064
-489.493	275.655	0.072	0.128
-488.478	800.000	0.041	0.127
-487.464	-108.419	-0.286	0.062
-486.449	-200.000	0.046	-0.303
-485.435	-2.185	0.124	-0.087
-484.420	-200.000	-0.044	0.367
-483.405	-45.381	-0.196	-0.097
-482.391	-113.373	0.197	-0.039
-481.376	526.265	0.046	-0.108
-480.362	-37.621	-0.072	-0.038
-479.347	-12.609	-0.121	-0.079
-478.332	-20.684	0.149	0.091
-477.318	225.312	-0.117	-0.190
-476.303	101.957	0.148	-0.173
-475.289	-62.287	-0.221	0.092
-474.274	-200.000	0.058	0.284
-473.259	34.780	0.296	0.259
-472.245	800.000	-0.037	-0.127
-471.230	-200.000	0.014	0.094
-470.216	59.680	-0.061	-0.060
-469.201	800.000	-0.050	0.210
-468.186	-77.060	0.251	-0.088
-467.172	-30.507	0.128	-0.073
-466.157	673.303	0.129	-0.334
-465.143	278.437	0.163	-0.291
-464.128	-69.664	-0.233	-0.089
-463.113	274.693	0.052	-0.092
-462.099	68.354	-0.268	0.275
-461.084	112.986	-0.144	-0.175
-460.070	530.760	0.142	-0.337
-459.055	-200.000	-0.013	-0.077
-458.040	460.500	0.004	-0.009
-457.026	-200.000	-0.013	-0.116
-456.011	104.047	0.081	0.095
-454.997	-35.125	-0.091	0.050
-453.982	12.069	0.214	0.165
-452.968	-200.000	-0.030	0.222
-451.953	-110.059	0.080	0.017
-450.938	-115.720	-0.595	0.112
-449.924	-49.519	0.092	0.044
-448.909	21.303	-0.147	-0.119
-447.895	-200.000	0.035	-0.180
-446.880	116.277	0.158	-0.194
-445.865	-49.334	0.078	0.037
-444.851	279.482	-0.117	0.208
-443.836	-31.015	0.216	0.122
-442.822	-104.252	0.292	-0.068
-441.807	-156.692	0.233	0.014
-440.792	11.913	0.023	0.018
-439.778	358.185	0.227	-0.453
-438.763	420.203	-0.099	0.213
-437.749	186.635	0.105	-0.156
-436.734	28.641	0.159	0.135
-435.719	54.922	-0.110	0.106
-434.705	-139.391	0.156	0.017
-433.690	25.081	-0.109	0.090
-432.676	119.041	-0.127	-0.157
-431.661	173.438	0.031	-0.045
-430.646	-166.946	-0.170	-0.007
-429.632	346.332	0.096	-0.188
-428.617	30.995	-0.128	-0.109
-427.603	-79.788	-0.061	0.021
-426.588	-200.000	-0.016	0.071
-425.573	51.805	-0.100	-0.095
-424.559	-13.590	-0.106	-0.069
-423.544	800.000	0.048	0.183
-422.530	551.362	-0.087	0.209
-421.515	82.448	-0.271	-0.294
-420.500	-59.154	0.254	0.109
-419.486	456.267	-0.114	0.252
-418.471	786.891	-0.045	-0.123
-417.457	-200.000	0.040	-0.310
-416.442	800.000	-0.026	-0.090
-415.428	-20.658	-0.077	0.047
-414.413	104.042	0.189	-0.222
-413.398	-200.000	-0.016	-0.188
-412.384	-95.308	-0.069	-0.019
-411.369	101.970	-0.077	0.090
-410.355	305.129	0.093	-0.172
-409.340	-105.727	0.219	-0.049
-408.325	-138.799	0.324	-0.035
-407.311	-149.398	0.383	0.030
-406.296	393.105	-0.170	0.352
-405.282	150.020	-0.054	-0.073
-404.267	-200.000	-0.045	0.340
-403.252	183.882	0.179	-0.265
-402.238	551.361	-0.104	-0.249
-401.223	800.000	-0.034	-0.098
-400.209	-93.544	0.184	-0.051
-399.194	800.000	0.113	-0.443
-398.179	55.755	0.017	0.017
-397.165	-151.693	-0.294	-0.022
-396.150	-89.321	0.177	-0.052
-395.136	800.000	0.092	0.264
-394.121	-17.681	0.183	-0.115
-393.106	-200.000	0.072	0.573
-392.092	-120.400	0.355	-0.060
-391.077	332.125	0.101	-0.194
-390.063	110.131	0.067	0.081
-389.048	-3.009	-0.218	-0.152
-388.033	-9.699	-0.112	0.075
-387.019	-58.465	-0.078	-0.034
-386.004	551.662	0.094	-0.225
-384.990	260.308	0.038	0.066
-383.975	-200.000	-0.046	-0.372
-382.960	-200.000	0.038	0.197
-381.946	800.000	-0.088	0.335
-380.931	184.767	0.069	-0.102
-379.917	86.993	0.212	-0.234
-378.902	-200.000	0.296	-0.001
-377.888	800.000	-0.103	-0.443
-376.873	-109.964	-0.220	0.046
-375.858	642.803	-0.042	0.107
-374.844	-176.670	0.274	0.007
-373.829	800.000	0.024	0.090
-372.815	129.739	0.064	0.081
-371.800	-72.940	0.230	-0.084
-370.785	8.294	-0.188	-0.141
-369.771	-133.005	-0.145	-0.018
-368.756	-91.373	0.134	-0.038
-367.742	478.193	0.050	0.112
-366.727	-47.929	-0.104	0.050
-365.712	-200.000	0.005	0.043
-364.698	60.156	-0.095	-0.093
-363.683	-200.000	-0.030	-0.216
-362.669	110.721	0.195	0.234
-361.654	175.232	-0.104	-0.150
-360.639	306.827	-0.181	-0.336
-359.625	625.585	0.080	0.201
-358.610	-74.004	-0.113	-0.041
-357.596	7.690	0.232	-0.174
-356.581	106.764	0.093	-0.110
-355.566	276.382	0.099	0.175
-354.552	586.570	-0.010	-0.024
-353.537	800.000	0.097	0.389
-352.523	-118.281	0.075	0.013
-351.508	-101.225	0.183	-0.044
-350.493	402.080	0.018	0.039
-349.479	550.514	-0.092	0.220
-348.464	-9.886	0.094	0.062
-347.450	800.000	0.053	0.153
-346.435	74.360	0.142	0.148
-345.420	145.127	0.170	-0.227
-344.406	800.000	-0.083	0.267
-343.391	144.692	-0.023	-0.031
-342.377	602.075	-0.101	0.251
-341.362	800.000	0.137	0.388
-340.348	800.000	-0.030	0.082
-339.333	385.614	-0.127	0.261
-338.318	-200.000	0.017	0.172
-337.304	97.929	0.137	-0.158
-336.289	196.441	-0.257	-0.389
-335.275	34.061	-0.164	-0.142
-334.260	-112.783	0.107	0.021
-333.245	681.223	-0.034	0.088
-332.231	368.336	0.047	-0.095
-331.216	-200.000	-0.054	0.326
-330.202	221.520	-0.111	-0.178
-329.187	-95.645	0.264	-0.070
-328.172	133.889	-0.205	0.264
-327.158	44.564	-0.163	0.149
-326.143	-97.403	-0.057	0.015
-325.129	800.000	-0.052	0.169
-324.114	153.456	-0.095	0.130
-323.099	-200.000	0.024	0.235
-322.085	-7.205	-0.183	0.123
-321.070	143.560	0.148	0.196
-320.056	583.285	0.096	0.234
-319.041	-54.466	-0.219	0.099
-318.026	5.294	0.108	-0.079
-317.012	-171.227	-0.465	-0.016
-315.997	196.726	-0.154	0.234
-314.983	-150.286	0.094	0.007
-313.968	-65.078	-0.061	-0.025
-312.953	-171.181	-0.247	0.008
-311.939	-137.438	-0.124	0.014
-310.924	100.001	0.046	-0.053
-309.910	800.000	-0.042	0.177
-308.895	-81.888	0.474	0.155
-307.880	160.040	-0.313	-0.433
-306.866	-200.000	0.033	0.216
-305.851	-29.810	-0.208	-0.118
-304.837	-200.000	0.030	-0.150
-303.822	64.729	-0.142	0.143
-302.807	101.096	-0.107	-0.124
-301.793	-54.540	0.025	-0.011
-300.778	92.563	-0.206	0.231
-299.764	-41.707	0.085	-0.043
-298.749	-14.539	0.386	0.247
-297.735	-200.000	-0.016	0.179
-296.720	-4.523	-0.139	-0.096
-295.705	-100.615	0.263	0.065
-294.691	-75.461	-0.217	-0.077
-293.676	800.000	-0.012	-0.046
-292.662	478.576	-0.079	-0.177
-291.647	-2.227	-0.308	-0.215
-290.632	800.000	0.091	0.266
-289.618	44.484	0.189	0.172
-288.603	194.404	0.061	-0.091
-287.589	-60.803	0.070	0.030
-286.574	-200.000	0.019	-0.244
-285.559	-89.209	0.242	0.071
-284.545	-15.355	-0.152	0.097
-283.530	-160.285	0.114	0.006
-282.516	-27.745	-0.108	-0.062
-281.501	-200.000	0.007	0.279
-280.486	-123.852	-0.217	-0.034
-279.472	-21.385	-0.038	-0.023
-278.457	800.000	-0.024	0.099
-277.443	-84.637	-0.334	-0.105
-276.428	-155.478	0.210	-0.014
-275.413	-57.573	-0.025	0.011
-274.399	-98.128	-0.363	-0.093
-273.384	-54.548	0.116	-0.052
-272.370	-34.376	-0.133	0.073
-271.355	94.684	-0.164	-0.185
-270.340	54.327	-0.227	0.217
-269.326	-200.000	-0.068	0.355
-268.311	-11.681	-0.059	0.038
-267.297	36.976	0.243	-0.213
-266.282	452.630	0.260	-0.572
-265.267	-31.475	0.345	-0.193
-264.253	110.809	-0.182	-0.218
-263.238	-97.658	-0.250	0.064
-262.224	-48.332	-0.245	-0.117
-261.209	-200.000	-0.024	0.178
-260.195	484.539	0.025	0.057
-259.180	283.122	0.155	0.276
-258.165	664.998	-0.092	0.236
-257.151	-200.000	0.019	0.153
-256.136	-189.606	0.064	0.001
-255.122	-69.595	-0.077	-0.029
-254.107	-22.971	0.059	-0.035
-253.092	-90.665	0.098	0.028
-252.078	13.359	-0.118	0.091
-251.063	-200.000	-0.206	-0.001
-250.049	-95.092	0.221	-0.059
-249.034	313.900	-0.076	-0.142
-248.019	-38.638	-0.156	-0.082
-247.005	-200.000	0.030	-0.221
-245.990	-68.142	0.280	0.108
-244.976	34.208	0.086	-0.075
-243.961	-200.000	-0.004	-0.111
-242.946	77.483	0.224	0.237
-241.932	-200.000	-0.031	-0.160
-240.917	390.296	-0.124	0.255
-239.903	-24.825	-0.342	0.202
-238.888	187.775	0.102	0.151
-237.873	140.158	-0.120	-0.158
-236.859	321.038	-0.105	0.197
-235.844	800.000	-0.088	0.375
-234.830	-200.000	-0.008	0.048
-233.815	-200.000	0.026	0.126
-232.800	-29.984	0.331	-0.187
-231.786	800.000	0.034	-0.142
-230.771	89.819	-0.220	0.243
-229.757	696.935	0.065	0.170
-228.742	258.232	-0.157	0.268
-227.727	800.000	-0.054	-0.179
-226.713	-102.128	-0.240	0.057
-225.698	-52.739	0.190	0.087
-224.684	-48.166	-0.144	-0.069
-223.669	-55.666	-0.174	-0.077
-222.655	-86.079	0.316	0.097
-221.640	1.386	0.137	0.098
-220.625	-47.370	0.096	-0.046
-219.611	80.049	0.030	0.032
-218.596	109.709	0.069	0.082
-217.582	209.550	0.174	0.270
-216.567	-51.302	0.185	-0.086
-215.552	-200.000	0.059	0.391
-214.538	115.067	0.100	0.121
-213.523	66.779	0.105	-0.106
-212.509	-31.687	-0.131	0.073
-211.494	-106.324	-0.352	0.078
-210.479	-200.000	-0.005	0.246
-209.465	-4.173	-0.191	0.131
-208.450	-67.562	-0.163	0.063
-207.436	800.000	-0.086	0.338
-206.421	-155.106	0.258	-0.017
-205.406	-90.166	-0.102	0.029
-204.392	239.371	0.142	0.234
-203.377	70.285	0.139	0.142
-202.363	106.314	-0.128	0.150
-201.348	200.108	0.130	0.197
-200.333	30.625	0.254	0.215
-199.319	-52.783	-0.133	0.061
-198.304	54.032	-0.175	-0.167
-197.290	-126.268	-0.312	-0.046
-196.275	-200.000	-0.063	-0.363
-195.260	-107.739	-0.306	0.066
-194.246	14.888	0.231	0.179
-193.231	-200.000	-0.025	-0.154
-192.217	800.000	-0.058	0.229
-191.202	286.600	-0.108	-0.194
-190.187	-59.643	0.338	-0.143
-189.173	-97.099	0.463	-0.120
-188.158	0.193	0.143	0.101
-187.144	-200.000	0.042	0.363
-186.129	15.675	-0.182	-0.142
-185.114	-129.097	-0.081	0.011
-184.100	-200.000	0.020	-0.107
-183.085	-35.954	-0.296	-0.159
-182.071	-200.000	0.004	-0.062
-181.056	800.000	-0.086	-0.293
-180.042	152.800	-0.146	0.198
-179.027	-160.963	0.174	0.009
-178.012	135.284	0.065	0.083
-176.998	-200.000	0.045	-0.217
-175.983	261.080	0.136	0.233
-174.969	553.193	0.058	0.138
-173.954	383.594	-0.105	-0.213
-172.939	-98.494	0.095	0.024
-171.925	171.894	0.131	-0.186
-170.910	-55.684	-0.153	0.068
-169.896	114.527	0.023	-0.027
-168.881	153.598	0.096	0.130
-167.866	670.680	0.142	-0.363
-166.852	72.435	-0.112	-0.116
-165.837	-0.148	-0.101	0.071
-164.823	632.165	-0.140	0.352
-163.808	291.219	-0.167	0.300
-162.793	-87.985	0.230	-0.068
-161.779	349.665	0.108	0.210
-160.764	800.000	0.064	0.226
-159.750	-35.433	-0.254	0.137
-158.735	78.691	0.129	-0.137
-157.720	37.441	-0.378	-0.331
-156.706	12.940	-0.190	-0.145
-155.691	-64.571	0.311	0.125
-154.677	-52.368	0.176	0.081
-153.662	-200.000	0.027	-0.226
-152.647	149.134	0.201	-0.268
-151.633	140.071	0.144	0.188
-150.618	-200.000	0.004	0.143
-149.604	-137.881	-0.385	-0.043
-148.589	-135.538	-0.256	0.030
-147.574	142.064	-0.201	-0.264
-146.560	68.548	-0.293	0.297
-145.545	-26.129	-0.235	0.136
-144.531	-151.570	0.108	-0.008
-143.516	-147.110	0.153	0.013
-142.502	109.047	0.257	-0.304
-141.487	-200.000	0.028	0.177
-140.472	100.060	0.059	0.068
-139.458	-91.161	-0.342	-0.097
-138.443	-31.284	-0.141	-0.079
-137.429	2.892	-0.134	0.096
-136.414	505.923	0.049	0.112
-135.399	308.359	0.065	-0.119
-134.385	-200.000	0.001	0.201
-133.370	-200.000	0.004	-0.226
-132.356	-24.227	-0.325	-0.192
-131.341	6.378	-0.269	0.197
-130.326	200.997	-0.062	0.094
-129.312	75.116	0.429	0.447
-128.297	181.555	0.070	-0.102
-127.283	-23.656	-0.297	0.176
-126.268	-25.095	-0.322	-0.189
-125.253	-78.390	-0.054	0.018
-124.239	-200.000	-0.041	0.196
-123.224	800.000	-0.094	-0.313
-122.210	-165.221	0.493	-0.022
