DTS Sentinel unit serial number:	SN413079Multiplexer serial number:	ORYXHardware model number:	OX4-SRSoftware version number:	ORYX F/W v4.00 Oryx Data Collector v3.7.2.0data status	okinstallation	princeton_trtdifferential loss correction	single-endedforward channel	channel 2reverse channel	N/Adate	2019/09/16time	14:27:35forward acquisition time	60.00reverse acquisition time	0.00gamma	496.2192k internal	0.2297k external	0.2297temperature offset calibration	0.9942default loss term (dB/km)	0.3790temperature slope calibration	1.0000multiplexer offset coefficient	1.0000multiplexer slope coefficient	1.0000fibre end	0.00T internal ref (°C)	42.00T ext. ref 1 (°C)	14.23T ext. ref 2 (°C)	36.24length (m)	temperature (°C)	Stokes	anti-Stokes-747.200	-115.059	0.261	0.051
-746.185	-69.049	0.130	0.051
-745.171	24.664	0.281	0.238
-744.156	-200.000	0.011	0.272
-743.142	183.095	-0.102	-0.154
-742.127	-75.754	-0.251	0.091
-741.112	-11.806	-0.211	-0.142
-740.098	164.372	-0.229	0.330
-739.083	-37.245	0.320	0.175
-738.069	118.739	-0.062	0.078
-737.054	-56.423	-0.080	0.036
-736.039	-62.142	0.043	-0.018
-735.025	178.647	-0.158	-0.235
-734.010	-134.501	-0.187	0.023
-732.996	-90.184	-0.020	0.006
-731.981	20.746	-0.097	0.080
-730.966	-37.700	-0.071	0.039
-729.952	145.356	0.140	-0.191
-728.937	-22.158	0.153	-0.095
-727.923	-200.000	0.048	0.235
-726.908	-200.000	0.036	-0.318
-725.894	-50.603	0.184	0.088
-724.879	1.152	-0.135	-0.099
-723.864	310.128	0.120	0.229
-722.850	-109.260	0.106	-0.023
-721.835	800.000	0.084	-0.260
-720.821	457.518	-0.086	-0.195
-719.806	211.875	-0.113	-0.182
-718.791	189.073	-0.064	-0.098
-717.777	24.751	0.230	0.194
-716.762	-200.000	-0.081	0.386
-715.748	150.550	-0.260	0.361
-714.733	-200.000	-0.024	0.212
-713.718	-27.969	-0.197	0.117
-712.704	-117.658	-0.315	0.058
-711.689	127.921	-0.153	0.198
-710.675	-200.000	0.012	0.056
-709.660	21.143	-0.292	-0.242
-708.645	-139.574	0.393	0.043
-707.631	70.999	-0.167	0.176
-706.616	322.186	-0.070	-0.135
-705.602	65.604	0.172	-0.178
-704.587	-200.000	-0.021	-0.231
-703.572	-2.982	-0.205	-0.146
-702.558	4.521	0.074	0.055
-701.543	-141.445	-0.283	-0.029
-700.529	76.558	-0.244	-0.264
-699.514	-26.650	-0.203	0.121
-698.499	372.931	-0.134	-0.278
-697.485	-71.584	-0.170	0.065
-696.470	175.603	-0.107	0.158
-695.456	-200.000	-0.039	0.178
-694.441	-29.911	0.255	0.148
-693.426	295.876	0.105	0.196
-692.412	-118.249	-0.407	0.074
-691.397	-200.000	0.027	-0.124
-690.383	-150.512	0.077	-0.006
-689.368	-132.169	0.505	-0.067
-688.354	745.086	-0.053	0.146
-687.339	31.159	-0.207	0.181
-686.324	673.643	-0.069	-0.182
-685.310	-129.832	0.243	-0.034
-684.295	-118.923	-0.094	0.017
-683.281	23.291	-0.289	0.242
-682.266	4.975	0.104	0.078
-681.251	181.334	-0.064	-0.096
-680.237	-103.490	0.124	-0.030
-679.222	408.526	-0.076	0.165
-678.208	-0.096	-0.230	-0.166
-677.193	-69.493	0.237	-0.093
-676.178	610.348	-0.131	0.332
-675.164	-95.953	0.084	0.023
-674.149	-65.658	0.262	0.107
-673.135	105.314	0.013	-0.016
-672.120	-200.000	-0.045	0.254
-671.105	-200.000	-0.022	-0.114
-670.091	530.190	0.066	-0.158
-669.076	-200.000	-0.036	-0.274
-668.062	25.564	-0.330	-0.279
-667.047	13.048	-0.160	0.126
-666.032	-49.013	0.094	-0.046
-665.018	-106.792	-0.300	0.068
-664.003	-98.220	0.214	-0.056
-662.989	-87.313	0.144	0.045
-661.974	800.000	-0.104	0.327
-660.959	-102.227	0.297	0.073
-659.945	-200.000	0.019	-0.119
-658.930	93.018	0.063	-0.073
-657.916	247.933	-0.126	0.216
-656.901	242.237	-0.100	-0.170
-655.886	-40.616	0.216	-0.114
-654.872	-17.592	-0.180	0.115
-653.857	-12.637	-0.153	0.102
-652.843	-127.490	-0.212	-0.031
-651.828	22.076	-0.213	-0.177
-650.814	800.000	0.051	-0.228
-649.799	-3.761	0.359	-0.253
-648.784	800.000	-0.129	-0.410
-647.770	486.653	0.140	-0.324
-646.755	15.066	0.246	0.196
-645.741	-43.419	0.135	0.069
-644.726	-200.000	-0.012	-0.235
-643.711	-120.807	0.026	0.005
-642.697	-200.000	-0.049	0.257
-641.682	-101.061	0.200	0.050
-640.668	-98.718	0.215	-0.056
-639.653	219.370	-0.065	-0.106
-638.638	347.903	0.162	0.326
-637.624	-28.136	-0.144	-0.085
-636.609	0.883	0.243	0.177
-635.595	-200.000	-0.050	-0.250
-634.580	132.493	0.184	-0.241
-633.565	47.501	0.228	0.216
-632.551	-65.893	0.242	0.098
-631.536	-122.292	-0.188	-0.031
-630.522	-44.704	-0.379	-0.192
-629.507	73.790	0.100	-0.107
-628.492	-18.444	0.196	-0.124
-627.478	-134.011	0.042	0.005
-626.463	800.000	-0.078	0.230
-625.449	-89.214	0.221	0.066
-624.434	800.000	0.046	0.162
-623.419	-115.245	-0.274	0.053
-622.405	422.328	-0.174	-0.380
-621.390	-27.917	-0.137	-0.081
-620.376	-200.000	0.005	-0.032
-619.361	-80.998	-0.252	-0.085
-618.346	800.000	-0.025	-0.070
-617.332	639.992	-0.051	0.131
-616.317	42.481	-0.148	-0.137
-615.303	-98.682	0.247	0.064
-614.288	-145.160	-0.248	-0.023
-613.273	588.228	0.053	-0.132
-612.259	-58.622	0.153	-0.067
-611.244	61.981	0.145	-0.147
-610.230	-124.457	-0.118	-0.019
-609.215	800.000	-0.031	0.089
-608.201	-200.000	-0.028	-0.224
-607.186	-200.000	-0.211	-0.001
-606.171	-103.393	0.128	-0.031
-605.157	-105.818	0.042	-0.010
-604.142	57.474	0.243	0.241
-603.128	-200.000	0.050	0.254
-602.113	49.971	0.048	0.046
-601.098	222.712	0.115	0.188
-600.084	-94.414	-0.254	0.070
-599.069	120.620	-0.165	-0.208
-598.055	800.000	0.038	-0.117
-597.040	-95.042	-0.259	-0.071
-596.025	-42.228	-0.084	0.044
-595.011	800.000	-0.069	-0.288
-593.996	-150.660	0.089	0.007
-592.982	107.363	0.163	0.197
-591.967	-6.152	0.256	0.177
-590.952	-200.000	0.030	0.152
-589.938	72.343	0.382	-0.404
-588.923	-200.000	0.008	0.131
-587.909	288.308	0.065	-0.120
-586.894	-59.240	-0.094	-0.041
-585.879	534.747	0.063	0.153
-584.865	153.639	0.048	0.067
-583.850	-200.000	0.012	-0.238
-582.836	-68.728	-0.111	0.044
-581.821	800.000	0.114	-0.475
-580.806	-133.542	-0.162	0.021
-579.792	23.387	0.183	-0.153
-578.777	-200.000	0.056	-0.289
-577.763	-58.378	-0.122	0.054
-576.748	-24.414	-0.113	-0.069
-575.733	13.388	-0.200	0.157
-574.719	41.883	0.129	0.119
-573.704	-200.000	0.036	0.375
-572.690	111.202	-0.249	-0.304
-571.675	-86.338	-0.116	-0.036
-570.661	64.125	0.145	0.148
-569.646	460.262	0.070	0.159
-568.631	578.770	0.027	0.068
-567.617	529.880	0.065	0.155
-566.602	-74.400	-0.085	-0.031
-565.588	-200.000	-0.030	0.211
-564.573	38.233	-0.149	0.135
-563.558	-93.279	-0.589	0.166
-562.544	155.492	0.091	-0.127
-561.529	214.496	0.070	-0.113
-560.515	277.628	-0.218	-0.393
-559.500	-33.040	-0.030	-0.017
-558.485	160.609	-0.142	-0.201
-557.471	-200.000	-0.034	0.244
-556.456	-103.802	-0.169	-0.040
-555.442	607.739	-0.083	0.209
-554.427	-99.910	-0.164	0.041
-553.412	256.041	-0.061	0.106
-552.398	220.264	-0.160	0.260
-551.383	-94.216	0.289	-0.080
-550.369	-188.625	0.218	0.003
-549.354	-65.984	0.211	-0.085
-548.339	-174.701	-0.110	0.003
-547.325	167.804	-0.060	-0.086
-546.310	-120.438	0.104	-0.018
-545.296	800.000	-0.113	-0.413
-544.281	49.102	0.132	0.126
-543.266	-123.055	0.217	-0.035
-542.252	-16.879	0.091	-0.058
-541.237	-66.620	0.332	-0.133
-540.223	-118.652	-0.105	-0.019
-539.208	192.199	-0.201	0.307
-538.193	-200.000	0.034	0.257
-537.179	-200.000	-0.020	-0.281
-536.164	316.140	0.084	0.161
-535.150	107.473	0.082	0.099
-534.135	345.083	0.034	-0.068
-533.121	790.305	-0.088	-0.244
-532.106	191.666	-0.195	0.298
-531.091	800.000	0.087	-0.300
-530.077	247.106	0.279	0.477
-529.062	254.888	-0.162	0.280
-528.048	800.000	0.051	-0.171
-527.033	120.353	0.235	-0.296
-526.018	-41.380	0.049	-0.025
-525.004	371.518	-0.142	-0.293
-523.989	-200.000	-0.018	0.182
-522.975	800.000	-0.088	0.332
-521.960	73.322	-0.036	0.038
-520.945	-135.209	-0.256	0.031
-519.931	172.358	0.074	0.108
-518.916	229.525	-0.112	0.185
-517.902	4.065	0.058	-0.043
-516.887	334.667	0.173	0.340
-515.872	-103.419	-0.180	0.043
-514.858	-11.972	0.148	0.098
-513.843	-200.000	-0.005	0.134
-512.829	120.828	0.151	0.190
-511.814	-200.000	0.069	-0.371
-510.799	800.000	0.161	0.495
-509.785	90.966	-0.310	-0.352
-508.770	5.932	0.221	-0.166
-507.756	-117.068	0.013	-0.002
-506.741	2.943	-0.145	-0.106
-505.726	-85.536	0.199	-0.063
-504.712	-200.000	0.016	-0.267
-503.697	90.238	0.116	0.132
-502.683	800.000	-0.128	0.408
-501.668	60.740	0.129	-0.130
-500.653	113.210	-0.077	-0.094
-499.639	-200.000	-0.001	0.081
-498.624	-27.873	-0.088	0.052
-497.610	394.008	-0.029	-0.061
-496.595	49.057	0.021	-0.019
-495.581	299.466	-0.131	0.243
-494.566	-200.000	0.010	-0.231
-493.551	126.107	-0.110	0.141
-492.537	578.087	-0.095	0.235
-491.522	38.086	-0.227	0.204
-490.508	-200.000	-0.053	-0.347
-489.493	-200.000	-0.003	-0.123
-488.478	-18.296	0.127	0.080
-487.464	-200.000	0.047	-0.239
-486.449	120.471	-0.193	-0.242
-485.435	-200.000	-0.121	-0.550
-484.420	-110.227	-0.176	0.037
-483.405	-200.000	-0.019	-0.321
-482.391	-101.293	0.067	0.017
-481.376	-200.000	0.021	-0.198
-480.362	-98.403	-0.137	-0.035
-479.347	-83.853	0.074	0.024
-478.332	26.435	0.155	0.131
-477.318	-188.671	-0.255	0.003
-476.303	-24.077	-0.044	0.026
-475.289	-200.000	0.010	-0.116
-474.274	474.451	-0.044	-0.100
-473.259	108.821	0.167	0.202
-472.245	30.927	0.233	0.202
-471.230	-185.955	0.294	-0.004
-470.216	-200.000	-0.012	-0.057
-469.201	-200.000	0.011	0.057
-468.186	-200.000	0.021	0.229
-467.172	53.995	0.070	-0.068
-466.157	610.470	-0.033	-0.083
-465.143	-5.056	0.342	0.238
-464.128	-12.266	-0.078	-0.052
-463.113	-165.027	-0.146	0.007
-462.099	-200.000	0.046	0.264
-461.084	-43.849	-0.056	-0.028
-460.070	-200.000	0.022	-0.192
-459.055	800.000	-0.087	-0.253
-458.040	18.265	-0.133	-0.107
-457.026	-200.000	-0.001	0.149
-456.011	-114.481	0.351	-0.068
-454.997	117.161	-0.212	-0.263
-453.982	100.580	0.199	-0.233
-452.968	-106.291	-0.078	0.018
-451.953	-100.673	-0.345	-0.086
-450.938	-124.543	0.204	-0.032
-449.924	143.275	0.047	0.063
-448.909	-200.000	0.001	-0.045
-447.895	-200.000	-0.013	-0.253
-446.880	54.922	0.210	0.204
-445.865	40.599	-0.081	0.073
-444.851	26.692	0.293	0.248
-443.836	749.030	0.070	-0.189
-442.822	-1.907	0.221	0.157
-441.807	-72.298	-0.088	-0.033
-440.792	-151.151	-0.228	0.017
-439.778	0.680	0.316	-0.229
-438.763	-99.788	0.353	-0.089
-437.749	800.000	-0.044	-0.189
-436.734	-46.684	-0.133	0.066
-435.719	131.866	-0.093	0.120
-434.705	-200.000	-0.107	0.518
-433.690	-93.711	-0.307	0.085
-432.676	800.000	0.045	-0.139
-431.661	-123.049	-0.335	0.054
-430.646	-192.698	-0.086	0.001
-429.632	-200.000	0.030	-0.229
-428.617	255.412	-0.097	0.167
-427.603	-50.521	0.213	-0.101
-426.588	-80.546	0.295	-0.099
-425.573	251.336	0.052	0.089
-424.559	-200.000	-0.043	-0.205
-423.544	581.575	-0.160	-0.396
-422.530	198.760	0.108	-0.166
-421.515	800.000	0.059	0.168
-420.500	-91.450	0.388	0.112
-419.486	14.130	0.318	-0.250
-418.471	-167.554	-0.016	0.001
-417.457	-73.327	-0.076	-0.028
-416.442	800.000	-0.056	0.230
-415.428	-58.918	0.198	-0.086
-414.413	-200.000	0.014	0.104
-413.398	-38.424	-0.290	-0.155
-412.384	-49.588	0.114	-0.055
-411.369	-109.220	-0.055	-0.012
-410.355	-30.383	-0.093	0.053
-409.340	-79.475	0.099	-0.034
-408.325	-86.822	-0.162	-0.050
-407.311	-49.518	0.225	0.108
-406.296	173.755	0.191	-0.278
-405.282	515.535	-0.138	-0.324
-404.267	-34.081	0.231	0.128
-403.252	-114.940	-0.096	0.018
-402.238	-93.745	-0.421	-0.117
-401.223	-200.000	0.032	-0.182
-400.209	-58.113	0.164	0.072
-399.194	800.000	0.032	0.089
-398.179	-100.028	-0.309	0.078
-397.165	-200.000	0.002	0.209
-396.150	-94.656	-0.232	-0.064
-395.136	-49.539	-0.301	0.144
-394.121	800.000	0.077	0.302
-393.106	-127.236	-0.403	-0.059
-392.092	-92.929	-0.234	-0.066
-391.077	206.237	-0.167	-0.261
-390.063	-16.594	-0.404	-0.257
-389.048	-45.076	-0.137	-0.068
-388.033	-139.462	0.361	0.039
-387.019	-13.959	0.137	-0.089
-386.004	-135.803	0.122	-0.014
-384.990	-200.000	-0.064	0.346
-383.975	685.496	-0.063	-0.165
-382.960	-143.265	-0.073	-0.007
-381.946	-74.998	0.073	0.026
-380.931	-200.000	-0.002	-0.015
-379.917	50.191	-0.258	-0.245
-378.902	-141.261	0.192	0.020
-377.888	725.442	-0.060	-0.162
-376.873	-200.000	0.037	0.420
-375.858	-102.166	0.164	0.040
-374.844	-194.666	-0.199	0.002
-373.829	-200.000	0.056	0.277
-372.815	-130.404	0.051	-0.007
-371.800	-109.085	-0.187	-0.040
-370.785	800.000	-0.088	0.301
-369.771	-200.000	-0.022	0.214
-368.756	800.000	-0.017	-0.051
-367.742	130.463	-0.199	-0.257
-366.727	64.835	0.236	-0.240
-365.712	-49.203	0.513	-0.247
-364.698	-112.458	0.188	-0.038
-363.683	800.000	0.041	-0.158
-362.669	243.925	0.100	-0.169
-361.654	38.009	-0.085	0.076
-360.639	-129.162	0.195	0.027
-359.625	291.315	-0.082	0.150
-358.610	-71.252	0.085	0.032
-357.596	1.045	0.185	-0.134
-356.581	204.157	-0.112	-0.174
-355.566	-116.382	0.327	-0.061
-354.552	-47.166	0.051	-0.025
-353.537	800.000	-0.154	0.527
-352.523	-4.683	-0.075	-0.052
-351.508	-141.682	0.049	0.005
-350.493	-92.097	-0.217	-0.062
-349.479	-200.000	-0.007	0.336
-348.464	16.237	-0.149	0.118
-347.450	-200.000	0.038	-0.305
-346.435	-51.468	0.240	-0.113
-345.420	-114.854	0.290	0.056
-344.406	800.000	-0.086	-0.303
-343.391	-200.000	-0.059	-0.285
-342.377	207.941	0.105	-0.165
-341.362	-200.000	0.024	-0.237
-340.348	63.116	0.085	-0.086
-339.333	38.391	0.091	0.081
-338.318	-8.703	0.134	0.091
-337.304	800.000	0.112	-0.434
-336.289	-142.142	0.294	0.029
-335.275	800.000	0.035	0.134
-334.260	-17.452	0.152	-0.096
-333.245	-160.428	0.370	-0.020
-332.231	54.131	-0.041	0.039
-331.216	-199.234	0.260	0.001
-330.202	301.526	0.094	0.175
-329.187	254.880	-0.155	0.266
-328.172	-200.000	0.019	0.374
-327.158	22.764	0.324	-0.267
-326.143	-200.000	-0.044	0.213
-325.129	617.305	-0.092	0.233
-324.114	-168.717	0.182	0.007
-323.099	6.804	0.140	0.105
-322.085	-30.524	-0.142	-0.081
-321.070	30.398	-0.213	-0.183
-320.056	275.514	0.084	-0.149
-319.041	109.838	0.257	0.310
-318.026	-45.956	-0.099	-0.049
-317.012	219.129	0.117	0.188
-315.997	114.018	-0.260	0.318
-314.983	-151.532	0.055	0.004
-313.968	193.134	0.081	-0.123
-312.953	-99.105	0.065	-0.016
-311.939	16.331	0.195	0.154
-310.924	-92.369	0.381	0.108
-309.910	455.244	0.185	-0.411
-308.895	-200.000	0.007	-0.231
-307.880	-98.426	-0.177	-0.046
-306.866	800.000	-0.109	0.343
-305.851	150.552	0.074	0.101
-304.837	19.165	-0.074	0.060
-303.822	109.310	-0.098	-0.118
-302.807	241.906	0.046	0.076
-301.793	276.650	0.092	0.164
-300.778	107.055	-0.095	0.113
-299.764	207.293	-0.141	0.221
-298.749	66.478	-0.200	0.204
-297.735	-43.840	-0.065	0.033
-296.720	155.599	0.223	-0.308
-295.705	-173.154	-0.215	0.007
-294.691	235.680	-0.177	-0.293
-293.676	800.000	0.113	-0.333
-292.662	143.117	0.093	0.124
-291.647	-69.343	0.422	-0.162
-290.632	-100.618	-0.223	0.055
-289.618	89.930	0.064	0.072
-288.603	113.220	-0.125	0.152
-287.589	-128.080	0.225	-0.032
-286.574	-200.000	0.026	-0.229
-285.559	800.000	-0.005	-0.021
-284.545	84.021	0.036	0.040
-283.530	800.000	0.084	-0.276
-282.516	800.000	0.086	0.265
-281.501	800.000	-0.050	0.145
-280.486	-158.784	-0.366	-0.021
-279.472	105.306	0.065	0.077
-278.457	100.071	-0.091	0.106
-277.443	66.048	0.271	-0.276
-276.428	-36.587	-0.152	0.082
-275.413	-61.049	-0.256	0.108
-274.399	148.436	0.187	0.254
-273.384	-148.468	0.229	0.019
-272.370	-139.202	0.191	0.021
-271.355	18.494	-0.315	0.253
-270.340	-200.000	0.023	-0.122
-269.326	-200.000	-0.008	-0.119
-268.311	-109.623	0.183	0.039
-267.297	113.644	-0.141	-0.171
-266.282	-200.000	0.010	-0.122
-265.267	-200.000	-0.099	0.440
-264.253	-95.767	-0.112	-0.030
-263.238	-74.792	-0.378	-0.136
-262.224	591.464	0.055	0.137
-261.209	-131.046	0.027	-0.004
-260.195	255.542	-0.212	-0.365
-259.180	128.336	-0.184	0.235
-258.165	-200.000	-0.020	0.172
-257.151	-200.000	-0.007	0.324
-256.136	26.915	-0.116	-0.098
-255.122	-1.749	-0.056	-0.039
-254.107	85.981	-0.229	-0.253
-253.092	228.884	-0.280	0.458
-252.078	93.857	0.062	0.070
-251.063	213.320	-0.071	0.112
-250.049	49.056	-0.089	-0.084
-249.034	-82.837	-0.370	-0.120
-248.019	-153.102	0.359	0.025
-247.005	800.000	0.041	0.153
-245.990	-120.925	-0.244	0.041
-244.976	45.811	0.074	0.068
-243.961	168.424	0.157	0.224
-242.946	-123.564	-0.214	-0.034
-241.932	-193.848	0.099	-0.001
-240.917	-200.000	0.006	-0.200
-239.903	31.223	-0.187	-0.161
-238.888	-200.000	-0.021	0.139
-237.873	800.000	0.054	-0.235
-236.859	121.583	-0.104	-0.129
-235.844	-9.160	-0.247	-0.165
-234.830	250.799	0.117	0.199
-233.815	-200.000	-0.067	0.397
-232.800	471.198	-0.111	-0.250
-231.786	-13.878	0.016	-0.010
-230.771	140.930	0.045	0.060
-229.757	800.000	-0.053	0.214
-228.742	493.185	0.075	-0.173
-227.727	-83.878	0.133	-0.042
-226.713	-58.025	-0.013	0.006
-225.698	190.543	-0.126	0.190
-224.684	800.000	-0.052	0.219
-223.669	-113.588	0.345	0.068
-222.655	51.430	0.039	-0.037
-221.640	-84.605	-0.247	-0.078
-220.625	1.544	-0.264	0.190
-219.611	509.512	0.062	-0.145
-218.596	-101.589	-0.312	0.076
-217.582	156.824	-0.122	-0.168
-216.567	-200.000	0.032	-0.218
-215.552	90.903	0.059	0.066
-214.538	800.000	0.018	0.073
-213.523	81.380	-0.233	-0.252
-212.509	318.120	0.096	0.182
-211.494	-99.012	0.137	0.035
-210.479	-200.000	0.020	0.184
-209.465	60.902	0.147	0.146
-208.450	385.062	-0.067	-0.137
-207.436	176.202	-0.159	0.232
-206.421	546.230	-0.045	0.107
-205.406	-133.402	0.193	0.024
-204.392	-200.000	-0.009	-0.160
-203.377	133.092	0.085	-0.109
-202.363	-149.352	-0.426	0.034
-201.348	105.070	0.141	-0.167
-200.333	61.894	0.184	0.183
-199.319	-20.715	-0.186	-0.114
-198.304	800.000	0.056	-0.159
-197.290	-200.000	0.065	-0.300
-196.275	-63.189	0.215	0.089
-195.260	154.382	-0.173	-0.237
-194.246	202.307	0.121	0.187
-193.231	-23.414	-0.169	0.102
-192.217	-4.259	0.247	-0.171
-191.202	-36.830	0.277	-0.149
-190.187	346.127	0.136	0.268
-189.173	-27.069	0.206	-0.120
-188.158	715.489	0.082	-0.217
-187.144	-92.221	-0.138	0.039
-186.129	-42.813	-0.109	0.055
-185.114	12.034	0.073	-0.056
-184.100	-200.000	0.014	0.320
-183.085	-16.260	0.184	0.117
-182.071	29.826	0.053	-0.045
-181.056	649.321	-0.045	0.114
-180.042	153.337	-0.082	0.112
-179.027	-13.088	0.018	-0.012
-178.012	184.223	-0.137	-0.203
-176.998	-3.795	-0.232	0.161
-175.983	173.913	-0.173	0.249
-174.969	160.994	0.193	0.269
-173.954	365.827	0.170	0.343
-172.939	0.423	0.103	-0.074
-171.925	-85.061	0.230	0.072
-170.910	-104.891	-0.171	-0.039
-169.896	56.412	0.283	0.275
-168.881	-55.927	0.088	0.039
-167.866	-56.009	-0.144	0.064
-166.852	7.501	-0.273	0.204
-165.837	217.169	0.288	0.458
-164.823	-81.165	-0.232	0.077
-163.808	49.047	-0.118	-0.110
-162.793	28.595	-0.156	0.132
-161.779	-63.516	-0.370	-0.152
-160.764	-54.310	-0.300	-0.136
-159.750	-200.000	-0.015	0.118
-158.735	-82.039	-0.129	-0.042
-157.720	334.329	-0.114	-0.221
-156.706	-29.627	-0.291	0.166
-155.691	800.000	-0.084	-0.308
-154.677	4.949	-0.117	-0.086
-153.662	517.443	-0.028	0.066
-152.647	50.837	-0.249	0.235
-151.633	296.398	0.141	-0.258
-150.618	-87.677	-0.168	-0.051
-149.604	16.503	0.436	-0.343
-148.589	-152.621	-0.184	-0.013
-147.574	9.327	-0.104	-0.079
-146.560	-67.367	0.182	0.071
-145.545	-54.196	-0.251	-0.114
-144.531	-23.214	0.239	0.144
-143.516	800.000	-0.098	0.330
-142.502	-15.160	0.383	0.245
-141.487	-93.075	-0.335	0.093
-140.472	-2.365	-0.142	0.100
-139.458	325.208	0.117	-0.223
-138.443	155.245	-0.290	0.398
-137.429	-200.000	0.040	0.250
-136.414	-200.000	0.015	-0.153
-135.399	800.000	-0.054	-0.148
-134.385	12.731	-0.226	-0.174
-133.370	-19.126	0.196	-0.121
-132.356	-110.402	-0.195	0.040
-131.341	62.472	-0.195	0.194
-130.326	-25.695	0.181	0.107
-129.312	-200.000	0.005	0.181
-128.297	-200.000	-0.035	0.325
-127.283	-69.713	-0.225	0.086
-126.268	-101.694	0.341	-0.082
-125.253	-200.000	-0.041	-0.250
-124.239	136.321	-0.137	0.178
-123.224	21.847	0.142	0.115
-122.210	-130.144	-0.190	0.026
-121.195	-200.000	-0.029	0.446
