DTS Sentinel unit serial number:	SN413079Multiplexer serial number:	ORYXHardware model number:	OX4-SRSoftware version number:	ORYX F/W v4.00 Oryx Data Collector v3.7.2.0data status	okinstallation	princeton_trtdifferential loss correction	single-endedforward channel	channel 2reverse channel	N/Adate	2019/09/12time	19:25:49forward acquisition time	15.00reverse acquisition time	0.00gamma	496.2192k internal	0.2326k external	0.2326temperature offset calibration	1.0148default loss term (dB/km)	0.3790temperature slope calibration	1.0000multiplexer offset coefficient	1.0000multiplexer slope coefficient	1.0000fibre end	0.00T internal ref (°C)	32.31T ext. ref 1 (°C)	3.26T ext. ref 2 (°C)	26.89length (m)	temperature (°C)	Stokes	anti-Stokes-747.200	123.633	0.105	-0.134
-746.185	-142.006	-0.488	0.049
-745.171	73.782	-0.991	1.047
-744.156	800.000	-0.126	0.524
-743.142	-69.329	0.884	0.343
-742.127	800.000	0.124	-0.511
-741.112	118.268	0.287	0.358
-740.098	564.849	-0.183	0.448
-739.083	800.000	-0.106	-0.340
-738.069	-200.000	0.042	-0.651
-737.054	-162.213	-0.565	-0.028
-736.039	-200.000	0.062	0.767
-735.025	434.996	-0.377	-0.828
-734.010	-189.156	-0.472	0.006
-732.996	77.247	-0.236	-0.253
-731.981	1.900	0.730	-0.531
-730.966	88.269	0.533	0.596
-729.952	161.336	0.248	0.350
-728.937	-77.218	0.580	-0.203
-727.923	419.113	0.122	-0.264
-726.908	-52.717	-0.366	-0.170
-725.894	-54.866	1.118	0.508
-724.879	8.605	-0.200	-0.152
-723.864	321.964	-0.366	-0.703
-722.850	18.270	0.479	0.385
-721.835	-200.000	-0.030	-0.413
-720.821	-200.000	0.078	0.426
-719.806	800.000	-0.070	0.300
-718.791	-200.000	-0.227	-1.104
-717.777	86.707	-0.487	-0.542
-716.762	-200.000	0.004	-0.087
-715.748	-28.993	-0.694	0.401
-714.733	-109.022	0.784	-0.168
-713.718	-86.552	-0.864	0.267
-712.704	-108.805	-0.182	-0.039
-711.689	-148.462	-0.280	0.023
-710.675	-47.582	0.169	-0.083
-709.660	39.731	-0.114	0.103
-708.645	-99.073	-1.268	0.323
-707.631	-138.458	0.675	-0.075
-706.616	-85.322	-0.091	0.028
-705.602	800.000	0.135	-0.595
-704.587	-9.925	0.373	-0.250
-703.572	-200.000	-0.040	0.356
-702.558	-200.000	-0.129	-0.893
-701.543	89.623	0.168	0.189
-700.529	-2.379	0.395	-0.279
-699.514	-73.165	0.854	0.315
-698.499	-98.810	0.375	0.096
-697.485	-20.350	0.391	0.242
-696.470	241.019	0.431	-0.724
-695.456	-16.345	-0.447	-0.286
-694.441	461.898	-0.171	0.385
-693.426	-200.000	0.062	0.507
-692.412	800.000	-0.116	-0.360
-691.397	-15.658	0.556	-0.357
-690.383	-87.339	0.485	-0.148
-689.368	-200.000	0.050	0.296
-688.354	-95.808	-0.569	0.153
-687.339	-27.202	0.277	0.163
-686.324	101.718	0.638	0.749
-685.310	576.670	0.241	-0.594
-684.295	-64.362	-0.565	-0.231
-683.281	-200.000	-0.031	0.220
-682.266	-16.674	0.698	-0.445
-681.251	-15.043	-0.496	-0.320
-680.237	-200.000	-0.023	0.778
-679.222	304.302	-0.175	-0.327
-678.208	366.566	-0.103	-0.210
-677.193	-200.000	0.051	0.574
-676.178	3.710	0.522	-0.383
-675.164	-121.645	-0.102	-0.017
-674.149	-200.000	-0.114	0.556
-673.135	-200.000	0.010	0.427
-672.120	-58.486	0.818	-0.357
-671.105	134.224	0.216	0.281
-670.091	214.984	-0.170	-0.271
-669.076	-92.380	0.644	0.182
-668.062	-200.000	-0.057	0.381
-667.047	438.612	-0.051	-0.112
-666.032	-64.642	-0.372	-0.152
-665.018	455.663	-0.153	0.342
-664.003	57.266	0.603	0.592
-662.989	800.000	-0.058	0.165
-661.974	-39.760	0.495	0.260
-660.959	-61.538	-0.558	-0.236
-659.945	800.000	0.169	0.636
-658.930	-89.717	0.368	0.108
-657.916	-200.000	0.008	-0.325
-656.901	-16.488	0.428	0.273
-655.886	84.862	-0.406	-0.447
-654.872	587.823	0.084	0.207
-653.857	-28.724	0.128	-0.074
-652.843	141.093	0.279	-0.371
-651.828	315.344	0.194	0.367
-650.814	-87.013	0.314	0.096
-649.799	656.742	0.054	-0.140
-648.784	335.850	0.138	0.269
-647.770	-44.570	0.323	-0.162
-646.755	-200.000	-0.023	-0.104
-645.741	245.585	-0.014	0.023
-644.726	190.191	0.206	0.311
-643.711	140.438	0.151	-0.201
-642.697	145.106	0.393	-0.529
-641.682	-133.329	-0.930	-0.118
-640.668	-200.000	-0.013	-0.289
-639.653	-100.220	0.496	0.124
-638.638	-128.396	-0.952	0.136
-637.624	-200.000	-0.015	-0.347
-636.609	-200.000	0.042	-0.204
-635.595	-195.627	0.552	-0.004
-634.580	-83.465	0.199	-0.064
-633.565	499.177	0.047	0.110
-632.551	195.242	0.215	-0.328
-631.536	490.326	-0.260	0.597
-630.522	-27.912	0.461	0.268
-629.507	-200.000	0.052	0.494
-628.492	49.582	-0.046	-0.044
-627.478	238.281	-0.357	0.595
-626.463	-116.952	0.355	-0.065
-625.449	25.906	0.152	-0.127
-624.434	208.520	0.041	0.065
-623.419	138.067	-0.398	-0.524
-622.405	-200.000	-0.052	0.402
-621.390	79.224	0.704	-0.758
-620.376	-60.432	-1.005	0.429
-619.361	-43.985	-0.463	-0.233
-618.346	-65.986	-0.552	-0.221
-617.332	74.847	0.390	-0.412
-616.317	-127.046	0.415	-0.061
-615.303	-21.284	0.853	-0.523
-614.288	-19.349	-0.430	-0.268
-613.273	-200.000	0.128	-0.860
-612.259	256.481	-0.349	-0.602
-611.244	250.663	-0.135	0.231
-610.230	-200.000	0.001	0.016
-609.215	-142.658	-0.436	-0.043
-608.201	-196.006	-1.188	-0.008
-607.186	-122.896	0.860	-0.139
-606.171	800.000	0.239	0.819
-605.157	-200.000	0.122	0.620
-604.142	-68.021	-0.678	0.265
-603.128	-84.981	-0.213	0.067
-602.113	-86.502	-0.378	0.116
-601.098	-200.000	-0.055	0.263
-600.084	-2.875	-0.078	-0.055
-599.069	-200.000	-0.113	0.631
-598.055	16.992	0.840	0.668
-597.040	-102.315	-0.613	0.148
-596.025	-43.429	0.103	-0.052
-595.011	-200.000	0.042	-0.641
-593.996	357.256	0.304	0.607
-592.982	800.000	0.365	-1.082
-591.967	800.000	0.043	-0.128
-590.952	314.540	-0.265	0.500
-589.938	328.227	-0.442	0.852
-588.923	-76.270	0.081	-0.028
-587.909	-137.694	-1.225	0.138
-586.894	-200.000	-0.014	-0.179
-585.879	-200.000	0.233	-1.172
-584.865	208.561	0.195	-0.306
-583.850	-41.602	0.311	-0.160
-582.836	-21.533	0.419	0.256
-581.821	654.711	-0.227	0.583
-580.806	502.613	0.086	-0.199
-579.792	-128.964	0.155	0.022
-578.777	6.193	-0.758	-0.563
-577.763	-200.000	0.210	0.001
-576.748	4.691	0.450	0.332
-575.733	-78.026	-1.143	0.395
-574.719	-95.446	-1.264	-0.340
-573.704	400.877	-0.248	0.522
-572.690	-13.004	-0.351	0.229
-571.675	-33.838	0.023	0.013
-570.661	-200.000	-0.051	0.339
-569.646	228.369	0.287	0.469
-568.631	-21.395	-0.676	0.414
-567.617	-65.080	-0.304	-0.123
-566.602	-200.000	0.053	-0.377
-565.588	81.501	0.546	0.591
-564.573	70.716	0.439	0.455
-563.558	90.799	0.430	-0.483
-562.544	168.271	-0.268	-0.382
-561.529	800.000	-0.096	-0.319
-560.515	800.000	-0.107	0.421
-559.500	-35.768	-0.300	0.163
-558.485	-23.206	0.063	-0.038
-557.471	-140.957	-0.354	0.036
-556.456	161.804	0.150	0.210
-555.442	-63.762	-0.446	0.183
-554.427	-92.247	0.680	0.192
-553.412	800.000	-0.318	0.997
-552.398	-200.000	0.074	0.695
-551.383	50.976	-0.262	0.249
-550.369	50.787	0.114	-0.108
-549.354	-180.944	-0.884	0.018
-548.339	35.701	-0.342	-0.301
-547.325	738.832	-0.138	0.371
-546.310	-64.863	-0.094	-0.038
-545.296	-8.953	0.469	-0.314
-544.281	-60.208	-0.358	-0.152
-543.266	62.056	0.513	-0.512
-542.252	263.457	0.201	0.349
-541.237	129.480	-0.057	-0.073
-540.223	230.913	0.216	-0.354
-539.208	325.229	-0.264	-0.505
-538.193	-141.719	-0.616	0.062
-537.179	-200.000	0.001	0.731
-536.164	-115.294	0.095	-0.018
-535.150	12.162	-0.834	0.642
-534.135	-67.981	0.511	-0.200
-533.121	-77.471	0.678	0.235
-532.106	800.000	0.246	0.868
-531.091	164.172	0.585	-0.824
-530.077	-101.061	0.448	-0.110
-529.062	65.320	0.235	0.238
-528.048	617.982	-0.360	-0.903
-527.033	190.370	0.338	-0.507
-526.018	-112.615	0.507	-0.101
-525.004	407.263	0.366	0.774
-523.989	25.779	0.797	0.664
-522.975	-116.117	-0.475	0.088
-521.960	-96.094	0.645	0.171
-520.945	-200.000	0.028	-0.507
-519.931	-184.930	1.096	-0.017
-518.916	-64.794	0.234	0.095
-517.902	-174.931	-0.144	-0.004
-516.887	800.000	0.217	-0.660
-515.872	61.256	-0.806	-0.800
-514.858	86.477	0.361	0.398
-513.843	-70.517	-0.405	0.153
-512.829	0.940	0.094	-0.067
-511.814	-70.099	0.257	0.098
-510.799	-147.229	-0.325	0.028
-509.785	-81.751	0.380	-0.124
-508.770	532.146	-0.194	0.458
-507.756	-200.000	-0.003	-0.357
-506.741	66.930	-0.395	0.402
-505.726	800.000	0.091	-0.265
-504.712	-159.206	0.716	0.040
-503.697	115.843	-0.103	-0.126
-502.683	96.354	0.153	0.175
-501.668	-154.262	0.264	-0.018
-500.653	800.000	-0.150	-0.528
-499.639	41.153	0.169	-0.152
-498.624	-8.456	0.523	0.351
-497.610	384.736	-0.124	0.254
-496.595	648.638	0.154	-0.393
-495.581	-180.943	-0.355	-0.007
-494.566	-200.000	-0.059	0.369
-493.551	-108.001	-0.523	0.114
-492.537	-200.000	-0.094	-0.463
-491.522	-188.534	0.513	-0.006
-490.508	138.574	0.139	-0.183
-489.493	-7.003	0.860	0.584
-488.478	-200.000	-0.041	-0.510
-487.464	800.000	-0.089	-0.351
-486.449	-17.614	-0.525	0.330
-485.435	-67.418	0.718	0.281
-484.420	592.022	0.326	0.804
-483.405	-83.666	0.117	0.037
-482.391	10.223	-1.029	-0.782
-481.376	-200.000	-0.049	0.259
-480.362	-54.060	0.063	0.029
-479.347	-68.072	0.486	0.189
-478.332	-145.538	0.557	0.050
-477.318	800.000	0.128	0.415
-476.303	-15.301	0.126	0.081
-475.289	228.915	0.233	-0.379
-474.274	644.854	0.164	-0.418
-473.259	275.505	0.195	-0.345
-472.245	-200.000	-0.038	0.344
-471.230	800.000	0.276	0.761
-470.216	593.026	0.243	0.598
-469.201	328.519	0.336	-0.644
-468.186	-200.000	-0.034	-0.404
-467.172	-155.498	0.494	0.032
-466.157	-134.733	0.560	-0.068
-465.143	-47.259	-0.456	-0.222
-464.128	483.297	0.094	0.212
-463.113	800.000	-0.051	0.188
-462.099	-38.749	-0.072	0.038
-461.084	-33.101	-0.094	-0.052
-460.070	800.000	0.309	1.036
-459.055	-33.751	-0.319	-0.175
-458.040	800.000	-0.116	-0.429
-457.026	12.208	0.274	-0.210
-456.011	-200.000	0.018	-0.271
-454.997	388.749	-0.184	0.381
-453.982	-39.428	0.377	0.197
-452.968	-106.354	0.298	-0.066
-451.953	-200.000	-0.002	0.018
-450.938	103.514	-0.281	0.329
-449.924	181.710	0.451	-0.661
-448.909	-71.384	0.486	0.182
-447.895	800.000	-0.143	-0.555
-446.880	153.836	-0.454	0.621
-445.865	-108.758	-0.091	0.019
-444.851	88.763	-0.417	-0.462
-443.836	-200.000	0.087	-0.537
-442.822	-168.662	-0.321	0.012
-441.807	-55.076	0.318	0.143
-440.792	69.778	0.778	0.799
-439.778	-110.655	-0.681	-0.140
-438.763	-59.645	0.711	0.304
-437.749	348.646	-0.300	-0.589
-436.734	-200.000	0.109	0.744
-435.719	-200.000	0.079	0.395
-434.705	10.279	-0.518	-0.393
-433.690	-84.376	0.245	0.077
-432.676	-20.407	-0.469	-0.288
-431.661	134.822	-0.398	-0.515
-430.646	-120.434	-0.756	-0.128
-429.632	-43.861	-0.647	0.325
-428.617	-200.000	0.200	-1.129
-427.603	-200.000	0.084	-0.551
-426.588	11.504	0.660	-0.504
-425.573	106.483	0.377	-0.446
-424.559	189.535	0.097	0.145
-423.544	222.771	0.236	0.379
-422.530	-24.746	-0.755	-0.447
-421.515	587.466	-0.143	-0.350
-420.500	-200.000	-0.015	0.859
-419.486	547.070	-0.162	0.386
-418.471	800.000	-0.090	-0.377
-417.457	-128.940	-0.616	-0.086
-416.442	-98.400	0.580	0.148
-415.428	-18.390	-0.081	-0.050
-414.413	-118.701	-0.444	-0.078
-413.398	-77.144	-0.687	0.238
-412.384	-200.000	-0.003	0.133
-411.369	26.535	0.728	-0.607
-410.355	-158.350	0.230	-0.013
-409.340	-31.009	0.808	-0.454
-408.325	108.597	-0.273	-0.325
-407.311	-117.800	-0.280	-0.050
-406.296	-137.698	0.859	0.096
-405.282	-21.262	-0.207	-0.126
-404.267	326.203	-0.344	-0.655
-403.252	800.000	0.203	-0.837
-402.238	800.000	-0.055	0.216
-401.223	202.188	-0.374	-0.575
-400.209	-56.521	-0.289	-0.127
-399.194	5.558	0.217	0.160
-398.179	44.425	0.724	0.661
-397.165	232.943	0.410	0.670
-396.150	6.743	0.538	0.398
-395.136	-47.657	0.556	-0.268
-394.121	44.997	-0.288	-0.264
-393.106	-79.349	0.505	-0.170
-392.092	-106.403	-0.640	0.142
-391.077	-59.999	0.757	0.322
-390.063	-108.920	-0.817	-0.174
-389.048	-108.428	0.862	0.185
-388.033	800.000	0.158	-0.459
-387.019	-156.739	-0.284	-0.017
-386.004	73.302	-0.501	0.522
-384.990	184.343	-0.883	1.301
-383.975	-200.000	-0.127	0.947
-382.960	39.446	0.243	-0.217
-381.946	800.000	0.230	0.917
-380.931	-163.408	-0.274	-0.013
-379.917	-120.830	0.356	-0.060
-378.902	-136.392	-0.880	0.102
-377.888	38.822	-0.304	-0.270
-376.873	-200.000	0.074	-0.385
-375.858	-94.172	1.095	0.298
-374.844	800.000	-0.162	-0.622
-373.829	-200.000	-0.219	-0.979
-372.815	-13.112	-0.331	-0.214
-371.800	-41.711	-0.771	-0.393
-370.785	-113.963	0.503	-0.097
-369.771	168.887	-0.381	-0.539
-368.756	120.402	0.135	0.167
-367.742	417.116	-0.482	1.022
-366.727	-164.189	-0.655	0.030
-365.712	-60.439	0.331	-0.140
-364.698	-107.252	1.164	0.255
-363.683	800.000	-0.173	0.648
-362.669	-137.141	0.168	-0.019
-361.654	-54.942	0.963	0.431
-360.639	-55.002	-0.788	0.353
-359.625	54.049	0.208	0.199
-358.610	-100.206	0.628	-0.155
-357.596	800.000	-0.142	0.473
-356.581	-98.575	-0.250	0.063
-355.566	-12.106	-0.843	0.548
-354.552	-20.232	0.318	-0.195
-353.537	0.037	0.461	0.327
-352.523	-200.000	-0.198	-1.013
-351.508	-59.427	-0.306	0.131
-350.493	-30.037	-0.529	0.299
-349.479	19.695	-0.375	-0.300
-348.464	-26.244	-0.318	-0.185
-347.450	-200.000	0.030	-0.494
-346.435	-68.000	0.430	0.166
-345.420	-200.000	-0.123	0.826
-344.406	93.607	0.505	-0.568
-343.391	109.599	0.082	0.098
-342.377	290.900	0.626	-1.130
-341.362	-57.514	-0.160	-0.070
-340.348	182.770	-0.087	-0.128
-339.333	800.000	-0.080	0.269
-338.318	-116.869	0.315	-0.057
-337.304	-46.204	0.667	0.326
-336.289	800.000	0.268	0.853
-335.275	18.799	-0.237	-0.188
-334.260	-176.705	-0.109	0.003
-333.245	-102.456	-0.451	-0.107
-332.231	-115.790	-0.342	-0.063
-331.216	7.099	-0.556	0.411
-330.202	-110.365	-0.574	-0.118
-329.187	-200.000	0.075	0.517
-328.172	-200.000	-0.022	0.263
-327.158	-177.749	-0.886	-0.021
-326.143	40.565	-0.415	-0.371
-325.129	-166.436	-0.255	-0.011
-324.114	-200.000	0.004	0.106
-323.099	288.933	-0.255	0.458
-322.085	-176.259	0.621	-0.016
-321.070	-91.690	0.597	-0.169
-320.056	-200.000	0.051	0.361
-319.041	545.650	0.178	0.423
-318.026	-84.889	0.615	-0.192
-317.012	-81.380	-0.353	-0.115
-315.997	117.867	0.254	-0.311
-314.983	70.272	-0.082	0.084
-313.968	42.936	-0.135	-0.122
-312.953	-57.031	0.649	-0.284
-311.939	34.753	-0.480	0.416
-310.924	-29.308	0.160	0.091
-309.910	-142.999	0.768	-0.074
-308.895	145.660	0.617	0.820
-307.880	153.778	0.412	-0.560
-306.866	-200.000	-0.118	0.586
-305.851	-129.371	-0.046	-0.006
-304.837	-200.000	0.024	-1.001
-303.822	800.000	-0.286	-0.959
-302.807	443.824	0.051	-0.110
-301.793	291.317	-0.302	0.544
-300.778	-81.497	0.938	-0.306
-299.764	-200.000	0.063	-0.602
-298.749	446.791	0.192	0.419
-297.735	-186.522	0.748	0.011
-296.720	117.388	0.317	-0.387
-295.705	-82.019	0.363	-0.118
-294.691	204.947	0.141	0.218
-293.676	-53.031	0.228	0.104
-292.662	140.916	0.225	0.295
-291.647	-119.401	-0.356	0.061
-290.632	-200.000	-0.080	-0.808
-289.618	99.465	-0.377	-0.432
-288.603	-28.729	-1.049	-0.598
-287.589	73.465	0.547	0.568
-286.574	225.259	-0.434	-0.697
-285.559	-58.812	-0.954	-0.409
-284.545	-55.374	-0.737	-0.328
-283.530	20.843	0.744	0.597
-282.516	-200.000	-0.091	0.441
-281.501	-147.193	-0.218	0.018
-280.486	767.087	-0.089	0.240
-279.472	800.000	-0.061	0.257
-278.457	-200.000	-0.107	-1.023
-277.443	-48.222	-0.195	0.093
-276.428	-53.262	-0.102	-0.046
-275.413	-200.000	-0.123	0.839
-274.399	-43.359	-0.602	-0.302
-273.384	-153.638	-0.795	-0.054
-272.370	-102.935	0.350	-0.082
-271.355	74.278	-0.599	0.623
-270.340	-42.799	-0.800	-0.403
-269.326	800.000	0.337	0.947
-268.311	143.732	0.318	-0.420
-267.297	-89.993	0.483	0.140
-266.282	800.000	0.033	-0.116
-265.267	538.746	0.174	0.410
-264.253	-10.980	0.688	0.450
-263.238	88.961	0.204	-0.225
-262.224	-109.926	-0.677	0.141
-261.209	800.000	-0.123	-0.512
-260.195	124.790	-0.857	1.068
-259.180	423.322	0.171	0.364
-258.165	-139.921	0.492	-0.051
-257.151	-43.940	0.322	0.160
-256.136	-108.141	-0.668	-0.143
-255.122	-106.161	-0.660	-0.146
-254.107	3.580	0.148	0.107
-253.092	800.000	-0.158	0.673
-252.078	-188.094	-0.450	-0.006
-251.063	-94.104	-0.556	0.151
-250.049	69.348	0.457	0.465
-249.034	800.000	-0.177	0.718
-248.019	-200.000	0.014	0.606
-247.005	71.428	0.354	-0.363
-245.990	-110.751	0.825	-0.168
-244.976	-177.817	0.881	0.021
-243.961	-13.635	-0.516	-0.331
-242.946	-200.000	0.142	0.833
-241.932	-117.056	-0.653	-0.118
-240.917	178.564	-0.250	-0.362
-239.903	336.083	0.342	-0.656
-238.888	-200.000	-0.041	-0.487
-237.873	-57.986	-0.617	-0.266
-236.859	510.752	-0.401	-0.922
-235.844	58.726	-0.440	0.428
-234.830	-57.739	-0.234	0.101
-233.815	-127.924	0.862	0.123
-232.800	-200.000	-0.012	0.259
-231.786	413.073	-0.218	0.458
-230.771	-125.168	0.776	-0.118
-229.757	334.500	-0.443	-0.848
-228.742	-102.281	0.894	0.212
-227.727	-200.000	-0.013	-0.326
-226.713	-200.000	-0.025	-0.301
-225.698	-200.000	0.497	-0.000
-224.684	-200.000	-0.123	0.690
-223.669	123.727	-0.515	0.638
-222.655	446.432	-0.198	0.430
-221.640	-93.707	-0.838	-0.228
-220.625	68.608	-0.388	-0.393
-219.611	121.416	-0.489	0.602
-218.596	410.613	-0.189	0.395
-217.582	-18.215	1.031	-0.637
-216.567	800.000	-0.217	-0.753
-215.552	135.020	0.430	0.552
-214.538	-73.099	-0.416	0.151
-213.523	-39.459	0.614	-0.318
-212.509	-62.530	-0.142	-0.058
-211.494	-200.000	-0.098	0.646
-210.479	798.126	0.213	0.580
-209.465	65.151	-0.448	-0.447
-208.450	206.446	-0.364	0.560
-207.436	800.000	-0.172	-0.672
-206.421	84.034	0.227	-0.245
-205.406	-17.270	0.302	0.188
-204.392	133.309	0.615	-0.786
-203.377	-56.692	0.340	0.149
-202.363	380.781	0.139	0.282
-201.348	-200.000	0.182	0.915
-200.333	-97.501	0.223	0.057
-199.319	-49.417	0.860	-0.405
-198.304	73.286	-0.736	-0.760
-197.290	89.301	-0.690	0.759
-196.275	43.206	-0.154	0.139
-195.260	-41.010	0.045	-0.023
-194.246	596.734	0.254	-0.620
-193.231	386.405	-0.540	-1.101
-192.217	-200.000	-0.072	0.697
-191.202	800.000	-0.187	-0.708
-190.187	-200.000	0.037	-0.427
-189.173	108.049	-0.198	0.233
-188.158	-62.284	0.526	0.216
-187.144	1.699	-0.077	0.055
-186.129	418.681	0.231	-0.488
-185.114	800.000	0.217	0.609
-184.100	-128.828	-0.836	0.116
-183.085	-83.899	0.551	0.173
-182.071	-127.669	-0.577	-0.082
-181.056	-72.297	-0.565	0.206
-180.042	-110.762	0.854	-0.174
-179.027	101.535	-0.136	0.157
-178.012	800.000	0.110	0.432
-176.998	239.964	-0.779	-1.280
-175.983	375.920	0.524	-1.055
-174.969	62.154	-0.347	-0.341
-173.954	139.304	0.280	0.363
-172.939	-59.513	0.253	-0.107
-171.925	-159.169	0.224	0.012
-170.910	-116.575	0.349	0.063
-169.896	72.353	-0.785	0.807
-168.881	800.000	0.136	0.512
-167.866	-200.000	-0.054	0.269
-166.852	-82.668	-0.709	-0.226
-165.837	-98.649	-0.390	0.098
-164.823	-21.569	0.212	0.128
-163.808	266.270	0.228	-0.392
-162.793	-6.216	0.654	-0.440
-161.779	-140.843	0.206	-0.021
-160.764	44.980	0.398	0.361
-159.750	124.183	-0.131	-0.162
-158.735	387.673	-0.149	-0.303
-157.720	26.192	-0.313	-0.257
-156.706	72.033	0.359	-0.368
-155.691	-200.000	0.193	-1.060
-154.677	749.288	0.242	-0.643
-153.662	567.922	0.105	-0.250
-152.647	-54.928	-0.641	-0.285
-151.633	800.000	-0.086	0.335
-150.618	-200.000	0.033	0.258
-149.604	-194.250	-0.644	-0.005
-148.589	1.333	0.784	0.556
-147.574	51.275	0.569	0.532
-146.560	147.703	-0.196	0.261
-145.545	-6.896	0.362	-0.242
-144.531	-153.283	-0.416	-0.029
-143.516	-134.180	0.620	0.075
-142.502	54.029	-0.800	-0.757
-141.487	194.681	0.566	0.846
-140.472	-200.000	0.093	0.407
-139.458	310.100	0.070	0.130
-138.443	595.795	0.173	0.422
-137.429	319.235	0.167	-0.312
-136.414	39.740	0.227	-0.201
-135.399	-34.835	-0.348	0.187
-134.385	-5.238	0.932	-0.631
-133.370	-200.000	0.103	-0.581
-132.356	800.000	0.074	-0.254
-131.341	-56.434	0.271	0.119
-130.326	-131.973	0.518	0.067
-129.312	-70.899	0.625	-0.232
-128.297	-86.320	0.511	0.155
-127.283	240.658	-0.235	0.386
-126.268	-200.000	0.175	-1.043
-125.253	-91.219	-0.918	-0.259
-124.239	198.902	0.458	-0.690
-123.224	388.343	-0.278	-0.567
-122.210	-101.396	-1.272	-0.305
-121.195	-146.095	0.604	0.052
