DTS Sentinel unit serial number:	SN413079Multiplexer serial number:	ORYXHardware model number:	OX4-SRSoftware version number:	ORYX F/W v4.00 Oryx Data Collector v3.7.2.0data status	okinstallation	princeton_trtdifferential loss correction	single-endedforward channel	channel 2reverse channel	N/Adate	2019/09/19time	07:59:35forward acquisition time	60.00reverse acquisition time	0.00gamma	496.2192k internal	0.2352k external	0.2352temperature offset calibration	1.0005default loss term (dB/km)	0.3790temperature slope calibration	1.0000multiplexer offset coefficient	1.0000multiplexer slope coefficient	1.0000fibre end	0.00T internal ref (°C)	19.81T ext. ref 1 (°C)	0.55T ext. ref 2 (°C)	15.31length (m)	temperature (°C)	Stokes	anti-Stokes-747.200	403.834	0.038	0.080
-746.185	467.030	0.095	0.212
-745.171	40.269	-0.103	0.093
-744.156	-104.881	0.185	-0.042
-743.142	-112.535	0.120	-0.024
-742.127	-152.516	-0.463	-0.033
-741.112	-146.375	0.078	-0.007
-740.098	-83.656	-0.159	0.051
-739.083	550.171	0.059	-0.141
-738.069	-25.442	0.058	0.034
-737.054	-62.195	-0.083	0.034
-736.039	-43.357	-0.367	-0.185
-735.025	-200.000	-0.009	0.145
-734.010	58.780	-0.156	0.153
-732.996	-200.000	-0.001	-0.072
-731.981	-200.000	0.037	0.229
-730.966	40.533	-0.278	-0.250
-729.952	506.085	0.103	0.238
-728.937	-33.616	-0.323	-0.178
-727.923	-35.204	0.089	-0.048
-726.908	212.693	0.049	0.077
-725.894	-151.270	-0.193	-0.014
-724.879	-200.000	-0.052	0.242
-723.864	-105.756	-0.181	0.041
-722.850	15.691	-0.155	0.122
-721.835	338.949	-0.104	-0.202
-720.821	-13.124	0.156	-0.101
-719.806	-200.000	-0.017	0.480
-718.791	800.000	0.076	-0.294
-717.777	-49.404	-0.103	0.049
-716.762	30.733	-0.193	-0.165
-715.748	-200.000	0.046	-0.229
-714.733	-107.007	0.212	-0.047
-713.718	-200.000	0.045	0.253
-712.704	-34.192	-0.257	0.141
-711.689	-82.529	0.087	-0.028
-710.675	-12.784	-0.168	-0.109
-709.660	55.061	-0.341	0.328
-708.645	38.364	-0.184	-0.163
-707.631	-97.259	-0.324	-0.084
-706.616	-121.649	-0.073	-0.012
-705.602	-109.554	0.143	-0.030
-704.587	-131.740	-0.364	0.048
-703.572	91.847	0.150	-0.168
-702.558	-83.795	-0.218	0.069
-701.543	-110.817	0.440	-0.090
-700.529	-79.395	-0.328	0.111
-699.514	800.000	-0.043	-0.142
-698.499	-200.000	0.003	-0.179
-697.485	52.052	0.228	-0.217
-696.470	334.051	-0.081	-0.156
-695.456	228.242	0.174	-0.282
-694.441	-178.697	0.238	-0.005
-693.426	-177.802	0.253	0.006
-692.412	23.107	-0.281	0.230
-691.397	-100.075	0.167	-0.042
-690.383	49.420	0.145	0.136
-689.368	-76.030	-0.048	-0.017
-688.354	-131.402	-0.231	-0.030
-687.339	170.343	-0.129	-0.184
-686.324	-64.480	0.085	-0.034
-685.310	22.252	-0.190	-0.155
-684.295	-200.000	-0.169	-0.001
-683.281	328.816	0.019	-0.035
-682.266	-200.000	0.070	-0.340
-681.251	406.097	0.219	-0.460
-680.237	-123.516	0.226	0.036
-679.222	-200.000	0.001	0.211
-678.208	259.328	0.059	-0.101
-677.193	-94.650	-0.219	-0.059
-676.178	-200.000	0.030	-0.472
-675.164	16.492	0.236	-0.186
-674.149	69.042	0.128	-0.131
-673.135	306.150	-0.191	-0.354
-672.120	800.000	0.050	-0.199
-671.105	-200.000	-0.034	-0.296
-670.091	-86.108	-0.411	-0.126
-669.076	-200.000	0.098	-0.461
-668.062	333.975	-0.092	-0.178
-667.047	122.628	-0.216	0.268
-666.032	42.964	-0.195	-0.176
-665.018	425.913	0.225	-0.483
-664.003	-200.000	0.027	0.125
-662.989	-63.459	0.272	0.111
-661.974	-4.673	-0.203	0.139
-660.959	-22.850	0.101	-0.061
-659.945	-200.000	-0.015	-0.270
-658.930	19.278	0.310	-0.248
-657.916	800.000	0.031	-0.124
-656.901	591.864	-0.033	0.081
-655.886	-177.502	-0.325	0.008
-654.872	-200.000	0.024	0.234
-653.857	-200.000	0.050	-0.421
-652.843	22.159	0.282	0.229
-651.828	57.587	0.238	-0.231
-650.814	-200.000	-0.003	-0.120
-649.799	38.676	0.276	-0.245
-648.784	-134.247	-0.239	-0.029
-647.770	249.602	-0.092	0.156
-646.755	-153.083	-0.100	0.007
-645.741	-134.580	-0.336	-0.041
-644.726	-62.582	-0.285	0.118
-643.711	88.697	0.173	-0.191
-642.697	146.382	-0.071	-0.095
-641.682	459.317	-0.104	-0.230
-640.668	-200.000	0.031	-0.142
-639.653	96.942	-0.098	-0.112
-638.638	160.028	-0.109	-0.151
-637.624	-200.000	-0.000	-0.194
-636.609	-98.885	-0.142	-0.036
-635.595	-115.400	-0.126	-0.024
-634.580	-96.048	0.335	-0.089
-633.565	-161.531	-0.240	-0.012
-632.551	-56.227	-0.135	-0.060
-631.536	-100.836	-0.021	-0.005
-630.522	-74.602	0.087	0.031
-629.507	-32.539	-0.246	0.136
-628.492	-61.995	-0.329	-0.136
-627.478	800.000	0.049	-0.205
-626.463	-200.000	0.014	0.306
-625.449	3.373	-0.279	0.202
-624.434	-200.000	-0.017	-0.127
-623.419	121.832	0.111	0.137
-622.405	75.867	-0.197	-0.207
-621.390	-200.000	-0.042	0.296
-620.376	-87.803	0.169	-0.050
-619.361	-200.000	0.015	-0.251
-618.346	20.500	0.280	-0.225
-617.332	559.539	-0.048	-0.115
-616.317	800.000	-0.052	-0.164
-615.303	-40.227	-0.087	-0.045
-614.288	-84.356	-0.352	-0.111
-613.273	256.447	0.168	0.286
-612.259	-62.563	-0.324	-0.133
-611.244	-112.240	0.199	-0.040
-610.230	139.067	-0.174	0.227
-609.215	800.000	0.032	-0.098
-608.201	13.094	-0.021	-0.016
-607.186	-94.050	0.174	-0.047
-606.171	111.117	-0.108	0.129
-605.157	-143.268	-0.312	0.030
-604.142	57.975	0.078	-0.075
-603.128	-200.000	0.003	-0.148
-602.113	-20.823	-0.166	0.101
-601.098	-129.614	0.485	-0.067
-600.084	-99.517	0.231	0.058
-599.069	-200.000	-0.104	0.000
-598.055	-200.000	0.019	0.409
-597.040	-50.233	0.158	0.074
-596.025	-89.028	-0.354	-0.104
-595.011	149.282	0.096	-0.129
-593.996	-200.000	-0.099	-0.482
-592.982	185.327	-0.105	-0.154
-591.967	68.597	0.043	-0.044
-590.952	30.354	0.172	0.145
-589.938	226.894	0.239	0.385
-588.923	-2.106	0.076	0.053
-587.909	-102.149	0.126	-0.030
-586.894	800.000	-0.039	-0.131
-585.879	-200.000	0.026	0.250
-584.865	-120.717	-0.207	0.035
-583.850	426.378	0.102	-0.217
-582.836	145.623	-0.136	-0.181
-581.821	-153.094	0.283	0.020
-580.806	-80.421	-0.218	-0.072
-579.792	444.951	-0.152	-0.331
-578.777	-67.029	-0.019	0.007
-577.763	-193.510	0.242	0.002
-576.748	15.609	-0.135	0.105
-575.733	-137.380	-0.100	0.011
-574.719	-67.910	0.221	0.085
-573.704	-53.676	-0.450	0.204
-572.690	180.698	0.035	-0.051
-571.675	-122.499	0.123	-0.020
-570.661	2.337	-0.350	-0.251
-569.646	-84.138	0.233	0.073
-568.631	-200.000	-0.045	0.421
-567.617	-53.252	0.442	-0.201
-566.602	343.848	0.128	-0.249
-565.588	328.110	0.112	-0.212
-564.573	800.000	0.066	-0.258
-563.558	-26.795	-0.158	0.092
-562.544	-167.339	-0.196	-0.008
-561.529	-92.914	0.168	0.047
-560.515	-142.758	0.210	-0.020
-559.500	-61.095	0.134	-0.056
-558.485	17.001	-0.179	0.141
-557.471	129.535	0.036	-0.046
-556.456	487.418	-0.134	-0.303
-555.442	-151.616	-0.191	-0.014
-554.427	800.000	0.139	-0.448
-553.412	-163.970	-0.425	0.020
-552.398	-23.760	0.202	0.120
-551.383	-200.000	-0.005	0.029
-550.369	527.554	0.055	-0.130
-549.354	208.128	0.203	-0.314
-548.339	-21.624	-0.273	-0.164
-547.325	526.257	-0.089	-0.208
-546.310	800.000	-0.112	-0.338
-545.296	575.686	-0.064	-0.154
-544.281	371.494	-0.167	0.335
-543.266	3.527	-0.062	-0.045
-542.252	800.000	-0.059	0.196
-541.237	-133.832	-0.211	-0.026
-540.223	-87.125	0.163	0.049
-539.208	-141.251	-0.230	-0.023
-538.193	800.000	0.100	0.371
-537.179	-200.000	0.050	0.224
-536.164	-95.681	-0.027	-0.007
-535.150	-200.000	0.066	-0.304
-534.135	-36.254	0.387	-0.206
-533.121	-55.748	-0.122	0.054
-532.106	800.000	0.039	0.115
-531.091	85.991	0.177	0.193
-530.077	252.781	0.209	0.353
-529.062	-152.156	0.358	-0.026
-528.048	-181.873	-0.084	-0.002
-527.033	-26.597	-0.064	-0.037
-526.018	-77.321	0.205	0.070
-525.004	-43.194	-0.263	-0.132
-523.989	357.783	0.175	-0.345
-522.975	-85.615	-0.195	0.060
-521.960	-139.121	0.185	-0.020
-520.945	197.395	0.201	0.304
-519.931	402.616	0.058	-0.121
-518.916	-22.497	0.145	-0.087
-517.902	-200.000	-0.005	-0.169
-516.887	365.328	0.071	-0.141
-515.872	-61.759	0.200	0.083
-514.858	337.103	-0.024	-0.047
-513.843	147.154	0.065	0.086
-512.829	262.364	0.102	0.175
-511.814	270.967	-0.121	0.211
-510.799	73.840	-0.073	0.075
-509.785	-200.000	0.010	-0.098
-508.770	-76.619	-0.052	-0.018
-507.756	-200.000	-0.011	0.171
-506.741	-60.722	-0.134	0.056
-505.726	-200.000	-0.014	-0.186
-504.712	-69.424	-0.043	0.016
-503.697	-145.319	-0.342	-0.030
-502.683	800.000	0.067	-0.266
-501.668	800.000	-0.082	-0.263
-500.653	-200.000	-0.023	-0.315
-499.639	-200.000	-0.042	0.240
-498.624	-21.686	0.159	0.096
-497.610	218.038	-0.114	0.179
-496.595	-115.521	-0.041	0.008
-495.581	163.419	0.177	-0.246
-494.566	-200.000	0.017	-0.380
-493.551	296.227	-0.170	0.308
-492.537	327.316	0.046	0.088
-491.522	-46.179	0.151	-0.073
-490.508	800.000	0.103	0.308
-489.493	-103.276	-0.201	0.047
-488.478	-17.432	0.288	-0.179
-487.464	-49.593	-0.110	0.052
-486.449	-200.000	-0.040	0.176
-485.435	-200.000	0.070	0.357
-484.420	-10.042	0.226	0.148
-483.405	-200.000	0.013	0.144
-482.391	702.672	-0.034	-0.089
-481.376	278.908	0.066	-0.117
-480.362	-200.000	-0.039	0.188
-479.347	237.124	-0.142	-0.232
-478.332	-26.233	0.117	0.068
-477.318	-79.719	0.224	0.075
-476.303	-200.000	0.043	-0.249
-475.289	-21.194	-0.071	0.043
-474.274	-103.385	0.168	-0.039
-473.259	57.607	0.142	-0.137
-472.245	-179.964	0.232	0.005
-471.230	-154.172	-0.216	0.014
-470.216	108.997	0.109	-0.128
-469.201	-200.000	-0.058	0.289
-468.186	-24.139	0.108	0.064
-467.172	800.000	0.103	0.368
-466.157	800.000	-0.111	-0.407
-465.143	91.279	0.182	-0.201
-464.128	-200.000	0.003	-0.175
-463.113	318.385	-0.156	-0.291
-462.099	175.102	0.140	0.200
-461.084	-200.000	-0.063	0.300
-460.070	-43.697	-0.293	-0.146
-459.055	-200.000	-0.004	0.233
-458.040	-200.000	0.036	-0.212
-457.026	-85.662	0.219	-0.067
-456.011	5.326	-0.121	0.088
-454.997	211.715	0.065	0.102
-453.982	-31.637	0.099	-0.055
-452.968	-54.521	0.074	-0.033
-451.953	800.000	-0.052	-0.186
-450.938	-94.175	-0.392	0.106
-449.924	24.037	0.075	0.061
-448.909	-117.859	-0.284	-0.050
-447.895	-200.000	0.049	0.253
-446.880	-60.392	0.051	-0.022
-445.865	-86.939	-0.148	-0.045
-444.851	-200.000	-0.036	-0.194
-443.836	7.347	-0.155	0.114
-442.822	-33.471	-0.418	-0.228
-441.807	-200.000	-0.004	0.329
-440.792	800.000	-0.044	0.165
-439.778	55.519	-0.101	-0.096
-438.763	781.268	0.046	-0.123
-437.749	155.432	0.158	0.215
-436.734	-200.000	0.003	0.163
-435.719	-200.000	0.051	0.283
-434.705	-81.746	-0.164	0.053
-433.690	-200.000	-0.007	0.234
-432.676	484.888	-0.126	-0.284
-431.661	417.964	-0.045	0.094
-430.646	-183.141	-0.301	0.005
-429.632	-13.397	-0.095	-0.061
-428.617	-169.393	-0.335	-0.012
-427.603	-81.772	0.304	-0.098
-426.588	-47.611	0.190	0.091
-425.573	45.834	0.287	-0.262
-424.559	23.764	0.163	-0.133
-423.544	-60.203	-0.180	0.075
-422.530	-2.560	0.053	0.036
-421.515	-200.000	0.011	0.108
-420.500	616.013	-0.159	-0.392
-419.486	-131.083	0.288	0.038
-418.471	-193.645	0.223	-0.002
-417.457	-46.690	0.385	0.186
-416.442	-171.790	-0.309	0.010
-415.428	800.000	-0.084	0.360
-414.413	-148.907	-0.303	0.024
-413.398	185.773	-0.092	0.134
-412.384	-114.423	-0.060	-0.011
-411.369	-62.606	-0.231	0.094
-410.355	-113.785	0.428	0.082
-409.340	50.864	-0.210	0.196
-408.325	-152.350	-0.258	-0.018
-407.311	-200.000	0.065	-0.316
-406.296	-98.604	-0.023	-0.006
-405.282	-107.069	0.160	0.035
-404.267	-123.809	0.062	0.010
-403.252	89.732	0.024	0.026
-402.238	235.233	-0.091	0.149
-401.223	87.400	0.143	0.156
-400.209	-200.000	-0.012	0.186
-399.194	-36.341	0.323	0.171
-398.179	99.529	-0.115	-0.131
-397.165	435.423	0.122	-0.262
-396.150	800.000	0.027	-0.110
-395.136	26.800	0.120	-0.099
-394.121	-71.651	-0.242	-0.089
-393.106	-200.000	0.081	-0.392
-392.092	260.666	-0.131	0.223
-391.077	-200.000	0.021	-0.134
-390.063	201.496	-0.145	0.220
-389.048	-183.930	0.268	0.004
-388.033	13.671	0.284	-0.217
-387.019	101.023	-0.219	-0.250
-386.004	454.279	-0.145	-0.316
-384.990	-107.180	0.114	-0.025
-383.975	-139.543	0.097	-0.010
-382.960	-200.000	-0.028	0.125
-381.946	-7.449	-0.150	0.100
-380.931	-18.572	0.099	0.061
-379.917	686.913	-0.053	-0.137
-378.902	-107.114	-0.140	-0.030
-377.888	-97.995	-0.228	0.058
-376.873	-200.000	0.005	0.145
-375.858	33.682	0.327	0.280
-374.844	-142.957	-0.314	0.030
-373.829	800.000	0.121	0.413
-372.815	-56.477	-0.101	0.044
-371.800	192.394	-0.105	-0.156
-370.785	-200.000	0.021	-0.184
-369.771	800.000	-0.035	-0.141
-368.756	-46.948	0.161	-0.078
-367.742	-200.000	-0.023	-0.171
-366.727	-85.636	0.133	-0.040
-365.712	20.752	0.106	0.084
-364.698	314.579	-0.068	-0.125
-363.683	-168.637	0.335	0.013
-362.669	800.000	-0.037	0.112
-361.654	800.000	-0.078	0.230
-360.639	800.000	0.085	0.307
-359.625	98.419	0.128	0.144
-358.610	213.275	-0.136	-0.211
-357.596	-50.961	0.115	0.053
-356.581	147.907	-0.232	0.308
-355.566	104.061	0.162	0.188
-354.552	364.754	0.114	0.225
-353.537	-200.000	-0.026	-0.352
-352.523	-37.790	0.274	-0.143
-351.508	-177.646	-0.207	0.005
-350.493	269.992	-0.076	0.131
-349.479	-2.328	-0.352	-0.242
-348.464	-15.130	0.021	-0.013
-347.450	84.736	0.194	0.209
-346.435	-65.155	-0.215	-0.085
-345.420	161.364	-0.199	0.273
-344.406	68.535	-0.246	0.248
-343.391	235.376	0.139	0.226
-342.377	-58.447	-0.279	-0.119
-341.362	27.344	0.345	-0.285
-340.348	-70.643	0.060	-0.022
-339.333	79.518	-0.025	-0.026
-338.318	61.611	0.098	0.096
-337.304	-103.814	0.224	0.051
-336.289	800.000	0.085	0.257
-335.275	37.163	0.255	0.222
-334.260	-10.506	0.393	-0.255
-333.245	311.721	-0.159	-0.293
-332.231	83.548	-0.158	0.169
-331.216	-130.552	-0.249	0.033
-330.202	6.029	-0.153	0.111
-329.187	485.407	0.023	-0.051
-328.172	633.915	0.145	0.361
-327.158	36.640	-0.077	0.067
-326.143	-200.000	0.055	-0.280
-325.129	171.331	0.205	-0.289
-324.114	25.660	0.115	-0.094
-323.099	-100.256	0.267	0.065
-322.085	670.676	-0.062	0.158
-321.070	5.436	-0.181	0.131
-320.056	511.340	-0.094	-0.215
-319.041	24.804	0.037	-0.030
-318.026	-192.803	0.347	0.003
-317.012	230.910	0.110	-0.177
-315.997	800.000	-0.053	0.171
-314.983	-10.771	-0.083	0.054
-313.968	800.000	-0.156	0.536
-312.953	22.405	-0.134	0.108
-311.939	-200.000	-0.010	-0.251
-310.924	38.022	0.139	0.121
-309.910	-200.000	-0.003	-0.144
-308.895	-87.195	0.269	0.080
-307.880	42.614	-0.196	-0.175
-306.866	-100.045	0.207	0.051
-305.851	-200.000	0.000	-0.050
-304.837	-120.226	0.174	-0.029
-303.822	800.000	0.053	-0.169
-302.807	-200.000	0.024	0.122
-301.793	-200.000	0.009	0.205
-300.778	-74.438	0.289	-0.102
-299.764	800.000	-0.091	-0.359
-298.749	26.636	0.363	-0.298
-297.735	-104.253	0.061	-0.014
-296.720	-200.000	-0.028	0.132
-295.705	-200.000	-0.009	0.043
-294.691	99.165	-0.180	0.204
-293.676	-77.040	0.228	-0.078
-292.662	-129.498	-0.204	0.028
-291.647	800.000	0.109	-0.377
-290.632	-137.640	0.254	-0.028
-289.618	-200.000	-0.005	-0.271
-288.603	13.565	-0.194	-0.148
-287.589	-53.001	0.187	-0.084
-286.574	270.309	0.197	0.340
-285.559	-134.773	0.100	-0.012
-284.545	-11.334	0.284	-0.184
-283.530	-116.456	0.220	0.040
-282.516	-13.187	0.263	-0.167
-281.501	-65.162	0.228	0.090
-280.486	-200.000	-0.007	-0.033
-279.472	42.816	0.142	0.127
-278.457	215.993	-0.068	0.105
-277.443	-200.000	-0.027	-0.294
-276.428	-200.000	-0.004	-0.058
-275.413	-47.520	-0.012	-0.006
-274.399	-200.000	-0.037	0.487
-273.384	800.000	-0.088	-0.311
-272.370	487.325	-0.086	0.192
-271.355	-66.646	-0.214	0.083
-270.340	-27.508	0.108	-0.062
-269.326	38.590	-0.152	0.133
-268.311	400.581	0.016	0.033
-267.297	507.269	0.089	0.203
-266.282	275.836	-0.185	0.321
-265.267	-88.636	0.069	0.020
-264.253	21.886	0.087	-0.069
-263.238	-13.654	-0.022	-0.014
-262.224	800.000	-0.009	-0.030
-261.209	286.951	0.153	-0.271
-260.195	205.819	-0.396	0.603
-259.180	-182.844	0.102	-0.002
-258.165	800.000	0.036	-0.123
-257.151	-105.251	-0.122	-0.027
-256.136	-151.748	-0.102	0.007
-255.122	210.696	0.182	0.280
-254.107	-200.000	-0.001	0.190
-253.092	7.658	0.038	-0.028
-252.078	800.000	-0.058	-0.229
-251.063	-200.000	0.001	0.041
-250.049	-146.696	0.360	-0.030
-249.034	237.302	-0.062	-0.100
-248.019	31.044	-0.063	0.053
-247.005	-51.431	-0.271	0.124
-245.990	-86.648	0.237	-0.071
-244.976	100.829	-0.228	-0.259
-243.961	-200.000	-0.039	0.197
-242.946	-200.000	-0.054	0.234
-241.932	-200.000	-0.104	0.493
-240.917	-200.000	0.017	0.707
-239.903	-109.994	-0.069	0.014
-238.888	264.322	-0.124	0.211
-237.873	8.933	-0.126	0.093
-236.859	-200.000	-0.070	0.360
-235.844	73.505	0.093	0.096
-234.830	-151.870	-0.223	0.016
-233.815	84.348	0.246	0.263
-232.800	69.681	-0.134	0.135
-231.786	-118.626	0.168	0.029
-230.771	163.848	0.124	0.170
-229.757	446.323	0.088	-0.190
-228.742	-200.000	0.017	-0.277
-227.727	-200.000	0.007	-0.048
-226.713	57.043	0.196	0.187
-225.698	41.763	-0.102	-0.090
-224.684	101.588	-0.040	0.046
-223.669	-60.005	0.106	-0.044
-222.655	23.789	-0.125	0.101
-221.640	-6.573	-0.025	0.016
-220.625	305.795	0.146	0.266
-219.611	54.443	-0.059	-0.055
-218.596	84.530	-0.213	0.228
-217.582	800.000	-0.052	-0.170
-216.567	-117.165	0.394	0.070
-215.552	98.127	0.304	0.342
-214.538	-200.000	0.049	0.243
-213.523	72.827	0.052	0.053
-212.509	498.908	0.111	-0.250
-211.494	800.000	0.106	0.330
-210.479	-85.132	-0.145	0.044
-209.465	450.924	-0.037	-0.080
-208.450	800.000	-0.015	0.062
-207.436	-200.000	-0.005	-0.321
-206.421	-142.579	-0.212	-0.020
-205.406	-6.483	-0.079	0.053
-204.392	-188.089	0.094	0.001
-203.377	-59.058	0.184	-0.078
-202.363	-200.000	-0.009	-0.438
-201.348	-99.125	-0.282	0.070
-200.333	-151.774	0.192	-0.014
-199.319	111.421	-0.126	-0.148
-198.304	26.738	-0.181	-0.148
-197.290	-16.632	0.410	-0.254
-196.275	-200.000	-0.020	0.200
-195.260	-99.530	-0.266	0.065
-194.246	42.622	-0.237	-0.211
-193.231	-75.717	-0.181	0.063
-192.217	-98.748	0.074	-0.018
-191.202	-101.293	-0.202	0.048
-190.187	-200.000	0.013	0.293
-189.173	497.273	-0.172	-0.387
-188.158	-15.986	-0.126	0.078
-187.144	-188.512	-0.126	0.002
-186.129	-200.000	0.034	-0.312
-185.114	-9.366	0.192	-0.125
-184.100	-97.859	0.269	0.068
-183.085	158.820	-0.051	0.069
-182.071	-134.183	-0.168	-0.020
-181.056	-136.926	-0.234	-0.026
-180.042	-200.000	0.043	-0.227
-179.027	41.216	0.390	-0.344
-178.012	14.142	-0.201	0.153
-176.998	-200.000	0.028	-0.143
-175.983	8.127	-0.324	0.238
-174.969	-155.075	0.180	-0.012
-173.954	-8.129	-0.147	-0.096
-172.939	204.015	0.286	-0.432
-171.925	-19.852	-0.257	-0.155
-170.910	-70.561	0.084	0.031
-169.896	-48.873	-0.133	0.062
-168.881	-33.418	-0.090	0.049
-167.866	529.518	-0.071	0.163
-166.852	11.937	-0.218	0.164
-165.837	416.995	-0.142	0.296
-164.823	-66.907	0.145	0.056
-163.808	-78.073	-0.289	-0.097
-162.793	611.411	-0.016	-0.040
-161.779	226.918	0.148	-0.235
-160.764	-200.000	-0.023	0.107
-159.750	184.152	0.157	-0.227
-158.735	225.944	-0.118	0.186
-157.720	116.401	-0.076	0.091
-156.706	162.252	0.138	-0.188
-155.691	-25.278	0.198	-0.114
-154.677	132.280	-0.256	-0.322
-153.662	-200.000	0.022	0.212
-152.647	-38.990	-0.082	-0.042
-151.633	153.569	0.088	-0.117
-150.618	265.427	0.115	-0.195
-149.604	132.256	0.169	0.212
-148.589	-36.461	-0.214	-0.112
-147.574	-110.891	0.082	0.016
-146.560	-200.000	0.031	-0.223
-145.545	-200.000	-0.047	-0.321
-144.531	508.700	-0.040	0.090
-143.516	-200.000	0.053	0.483
-142.502	800.000	0.034	0.129
-141.487	-200.000	0.009	0.107
-140.472	-45.681	-0.231	-0.111
-139.458	-200.000	0.001	0.101
-138.443	84.926	0.199	0.213
-137.429	-99.018	-0.090	0.022
-136.414	800.000	0.012	0.039
-135.399	54.517	0.196	0.184
-134.385	15.638	-0.392	0.300
-133.370	-200.000	-0.031	0.328
-132.356	-44.902	0.076	-0.037
-131.341	77.071	0.179	0.185
-130.326	168.675	0.294	0.408
-129.312	800.000	0.079	0.321
-128.297	-200.000	-0.010	0.116
-127.283	-200.000	-0.036	0.542
-126.268	800.000	-0.056	0.215
-125.253	-81.891	-0.302	-0.096
-124.239	-118.793	0.145	-0.025
-123.224	800.000	0.138	0.432
-122.210	-163.700	0.085	0.004
