DTS Sentinel unit serial number:	SN413079Multiplexer serial number:	ORYXHardware model number:	OX4-SRSoftware version number:	ORYX F/W v4.00 Oryx Data Collector v3.7.2.0data status	okinstallation	princeton_trtdifferential loss correction	single-endedforward channel	channel 2reverse channel	N/Adate	2019/09/16time	10:47:34forward acquisition time	60.00reverse acquisition time	0.00gamma	496.2192k internal	0.2316k external	0.2316temperature offset calibration	0.9956default loss term (dB/km)	0.3790temperature slope calibration	1.0000multiplexer offset coefficient	1.0000multiplexer slope coefficient	1.0000fibre end	0.00T internal ref (°C)	36.20T ext. ref 1 (°C)	12.69T ext. ref 2 (°C)	34.49length (m)	temperature (°C)	Stokes	anti-Stokes-747.200	75.973	-0.175	-0.188
-746.185	65.054	-0.230	0.236
-745.171	-200.000	0.035	0.195
-744.156	0.445	-0.189	-0.137
-743.142	-132.895	0.196	0.025
-742.127	-200.000	0.071	0.452
-741.112	17.899	0.039	-0.031
-740.098	-200.000	0.020	0.524
-739.083	-200.000	0.006	-0.302
-738.069	800.000	-0.037	0.128
-737.054	-81.175	-0.261	0.087
-736.039	800.000	-0.096	0.332
-735.025	15.544	0.234	0.186
-734.010	-90.217	0.133	0.039
-732.996	-16.555	-0.466	-0.299
-731.981	-149.256	-0.188	-0.015
-730.966	-200.000	-0.006	0.178
-729.952	254.887	-0.093	-0.161
-728.937	-157.509	0.151	0.009
-727.923	-118.746	-0.376	0.067
-726.908	-200.000	0.044	-0.325
-725.894	-6.605	-0.172	-0.118
-724.879	-14.365	-0.077	-0.050
-723.864	-200.000	0.006	0.097
-722.850	-26.535	0.350	0.207
-721.835	800.000	0.030	-0.122
-720.821	-200.000	-0.036	-0.233
-719.806	-200.000	-0.006	-0.496
-718.791	-81.736	-0.174	-0.058
-717.777	526.679	0.130	0.310
-716.762	-71.313	0.152	-0.058
-715.748	800.000	0.213	0.644
-714.733	180.098	-0.143	-0.213
-713.718	49.288	0.207	-0.197
-712.704	128.666	-0.118	0.152
-711.689	-200.000	0.011	-0.076
-710.675	468.389	-0.145	-0.329
-709.660	-200.000	0.308	0.001
-708.645	-66.492	0.300	-0.120
-707.631	56.399	0.335	-0.330
-706.616	39.475	-0.093	0.085
-705.602	6.559	-0.121	-0.091
-704.587	26.317	-0.089	0.075
-703.572	-145.993	0.264	0.024
-702.558	53.137	0.132	0.128
-701.543	154.815	0.023	0.032
-700.529	-200.000	-0.025	-0.356
-699.514	-130.763	-0.190	-0.026
-698.499	191.566	-0.115	-0.176
-697.485	-58.056	0.146	0.064
-696.470	-126.916	0.179	-0.027
-695.456	-76.265	0.162	-0.058
-694.441	800.000	-0.017	-0.050
-693.426	-77.449	-0.268	0.094
-692.412	359.965	0.086	-0.174
-691.397	800.000	-0.074	0.215
-690.383	-108.080	-0.447	0.098
-689.368	53.276	-0.102	-0.098
-688.354	-200.000	-0.005	0.042
-687.339	196.908	-0.032	-0.049
-686.324	82.883	-0.136	-0.149
-685.310	27.344	0.084	0.071
-684.295	212.873	-0.098	-0.156
-683.281	732.946	0.154	-0.416
-682.266	-109.591	-0.220	-0.047
-681.251	129.172	0.195	-0.251
-680.237	800.000	-0.058	-0.170
-679.222	132.969	-0.136	-0.177
-678.208	6.444	0.267	-0.201
-677.193	-139.087	0.306	0.033
-676.178	-200.000	-0.018	0.378
-675.164	800.000	0.063	0.276
-674.149	-182.189	0.140	0.003
-673.135	373.433	0.150	0.308
-672.120	-122.414	-0.254	-0.042
-671.105	-200.000	-0.055	-0.385
-670.091	800.000	-0.043	0.135
-669.076	562.119	0.080	-0.195
-668.062	-40.737	0.360	-0.188
-667.047	-118.980	-0.180	0.032
-666.032	-79.452	0.278	0.095
-665.018	94.927	-0.264	-0.304
-664.003	28.898	-0.066	-0.056
-662.989	-200.000	0.002	0.101
-661.974	7.272	0.151	-0.114
-660.959	-175.135	0.083	-0.002
-659.945	-161.753	-0.087	-0.004
-658.930	13.160	-0.097	0.076
-657.916	-136.650	-0.159	0.019
-656.901	-6.275	-0.337	0.232
-655.886	61.351	0.097	-0.098
-654.872	-200.000	-0.011	0.312
-653.857	151.109	-0.074	0.102
-652.843	-175.155	0.263	-0.007
-651.828	-115.767	0.070	-0.013
-650.814	210.186	-0.073	0.116
-649.799	337.595	0.200	0.393
-648.784	-160.770	-0.179	0.010
-647.770	800.000	-0.076	-0.287
-646.755	-77.029	0.036	0.013
-645.741	-200.000	0.077	-0.484
-644.726	647.365	0.053	-0.138
-643.711	800.000	0.089	0.262
-642.697	-96.949	0.066	0.018
-641.682	-56.678	-0.236	0.106
-640.668	-6.418	0.221	-0.152
-639.653	216.224	0.129	-0.207
-638.638	232.746	0.178	-0.295
-637.624	320.651	0.122	-0.234
-636.609	-200.000	0.059	-0.269
-635.595	2.902	-0.047	0.035
-634.580	315.782	-0.125	0.238
-633.565	-200.000	-0.002	0.017
-632.551	-28.959	-0.127	-0.074
-631.536	51.006	0.274	0.262
-630.522	-117.700	-0.262	0.048
-629.507	800.000	-0.053	0.154
-628.492	-200.000	0.047	0.396
-627.478	42.895	0.143	-0.131
-626.463	25.018	-0.131	0.110
-625.449	58.552	-0.039	-0.039
-624.434	88.322	-0.132	-0.148
-623.419	16.035	-0.081	-0.064
-622.405	-24.157	0.144	-0.087
-621.390	71.848	0.207	-0.217
-620.376	-200.000	0.048	-0.283
-619.361	-200.000	-0.017	-0.123
-618.346	61.040	-0.058	0.058
-617.332	800.000	0.046	0.151
-616.317	4.365	0.286	0.211
-615.303	640.956	0.047	-0.122
-614.288	-118.086	-0.488	-0.088
-613.273	-126.513	0.237	0.035
-612.259	-65.900	-0.205	-0.083
-611.244	413.038	-0.118	-0.253
-610.230	-156.111	0.130	-0.008
-609.215	800.000	-0.015	0.058
-608.201	-200.000	-0.021	-0.158
-607.186	97.316	-0.229	0.265
-606.171	89.344	-0.246	-0.276
-605.157	-38.761	-0.392	-0.208
-604.142	-99.370	-0.304	-0.077
-603.128	800.000	-0.051	-0.189
-602.113	103.298	-0.053	0.062
-601.098	18.019	-0.204	-0.164
-600.084	-73.711	-0.181	0.067
-599.069	800.000	0.033	0.107
-598.055	225.820	-0.174	0.284
-597.040	153.614	-0.034	0.047
-596.025	188.832	-0.179	-0.270
-595.011	123.100	-0.123	-0.155
-593.996	-58.587	-0.336	-0.147
-592.982	305.353	-0.050	-0.094
-591.967	-97.966	0.209	-0.054
-590.952	-200.000	-0.003	0.042
-589.938	-57.455	0.194	-0.086
-588.923	442.956	-0.097	-0.215
-587.909	-64.723	0.163	-0.067
-586.894	-83.048	-0.171	-0.055
-585.879	567.139	-0.061	-0.148
-584.865	-143.590	0.095	-0.009
-583.850	88.979	0.108	0.121
-582.836	-46.228	0.255	-0.126
-581.821	-89.648	-0.258	0.076
-580.806	-200.000	-0.081	-0.399
-579.792	-66.640	0.014	-0.006
-578.777	-102.879	-0.102	0.024
-577.763	-22.219	-0.139	-0.085
-576.748	-45.597	0.330	-0.164
-575.733	-185.940	0.135	-0.002
-574.719	-156.495	0.310	0.019
-573.704	58.216	-0.039	-0.039
-572.690	-53.450	-0.076	0.035
-571.675	-90.458	-0.171	-0.050
-570.661	-178.468	-0.209	0.005
-569.646	800.000	0.045	0.192
-568.631	800.000	-0.151	0.489
-567.617	75.684	-0.161	0.172
-566.602	-50.092	-0.240	0.115
-565.588	160.732	0.110	-0.155
-564.573	-88.736	0.107	0.032
-563.558	-95.785	-0.131	0.035
-562.544	800.000	0.087	0.329
-561.529	800.000	-0.106	-0.349
-560.515	-200.000	-0.009	-0.287
-559.500	50.936	0.174	0.166
-558.485	50.019	0.159	-0.151
-557.471	-132.781	0.129	-0.017
-556.456	800.000	0.105	-0.324
-555.442	401.550	0.017	-0.037
-554.427	-89.461	0.108	0.032
-553.412	-76.722	-0.187	-0.066
-552.398	492.010	-0.141	-0.325
-551.383	125.472	-0.117	-0.148
-550.369	-121.599	-0.322	-0.054
-549.354	-200.000	0.010	-0.406
-548.339	800.000	0.062	0.228
-547.325	-43.614	0.154	-0.078
-546.310	158.698	0.084	0.117
-545.296	-25.967	0.147	0.087
-544.281	146.160	0.142	-0.192
-543.266	145.377	-0.227	0.305
-542.252	-3.413	-0.045	0.031
-541.237	-200.000	-0.011	-0.373
-540.223	175.476	-0.204	0.297
-539.208	120.312	-0.064	0.079
-538.193	-82.847	-0.367	-0.119
-537.179	73.378	-0.310	0.325
-536.164	-110.232	0.314	-0.066
-535.150	80.310	0.255	0.276
-534.135	163.172	0.246	-0.348
-533.121	-200.000	0.023	-0.159
-532.106	163.306	0.129	-0.182
-531.091	-200.000	0.000	0.067
-530.077	-51.080	0.063	0.029
-529.062	-54.761	0.319	-0.145
-528.048	800.000	0.077	-0.292
-527.033	-200.000	0.046	0.216
-526.018	705.163	-0.128	0.339
-525.004	107.084	-0.187	0.223
-523.989	-115.068	0.080	-0.015
-522.975	-17.369	-0.314	-0.199
-521.960	86.808	-0.086	0.095
-520.945	337.039	0.127	0.247
-519.931	547.302	-0.073	-0.175
-518.916	-137.226	0.284	0.032
-517.902	-166.011	-0.292	-0.012
-516.887	800.000	-0.043	0.181
-515.872	-136.700	0.117	-0.014
-514.858	-200.000	0.006	-0.148
-513.843	12.600	0.123	-0.095
-512.829	164.815	0.188	-0.266
-511.814	-84.529	-0.114	-0.036
-510.799	514.813	-0.055	0.130
-509.785	-111.895	-0.203	0.041
-508.770	91.335	0.066	-0.075
-507.756	180.803	-0.126	-0.185
-506.741	-200.000	0.025	-0.153
-505.726	323.402	-0.077	-0.147
-504.712	56.345	-0.118	0.115
-503.697	61.320	0.169	0.168
-502.683	150.919	-0.063	0.086
-501.668	63.088	-0.068	-0.068
-500.653	-71.052	-0.257	-0.097
-499.639	-58.489	0.273	0.119
-498.624	-200.000	-0.046	0.309
-497.610	800.000	-0.081	0.270
-496.595	532.512	-0.040	-0.095
-495.581	1.659	0.141	0.102
-494.566	13.657	0.062	0.048
-493.551	131.595	0.146	-0.188
-492.537	-80.018	-0.100	-0.034
-491.522	-76.026	-0.190	0.067
-490.508	-136.339	-0.171	0.020
-489.493	-200.000	0.030	-0.168
-488.478	519.282	0.045	0.105
-487.464	-162.926	-0.234	0.011
-486.449	-9.819	0.276	-0.184
-485.435	43.762	0.308	-0.283
-484.420	-100.679	0.153	0.038
-483.405	22.070	0.329	-0.269
-482.391	643.771	0.024	0.061
-481.376	-18.692	0.240	-0.150
-480.362	4.707	-0.221	0.162
-479.347	800.000	0.072	0.222
-478.332	-81.000	-0.200	-0.066
-477.318	120.892	0.185	0.230
-476.303	-121.034	-0.400	0.067
-475.289	800.000	-0.132	-0.371
-474.274	188.008	-0.077	0.115
-473.259	-200.000	0.035	0.527
-472.245	-163.590	-0.143	-0.007
-471.230	291.226	-0.022	-0.039
-470.216	-105.918	0.055	0.013
-469.201	-85.216	0.340	-0.106
-468.186	42.020	0.413	0.375
-467.172	800.000	0.035	0.119
-466.157	19.544	-0.047	0.038
-465.143	52.927	-0.224	-0.214
-464.128	376.261	-0.030	-0.062
-463.113	-68.810	-0.291	-0.112
-462.099	800.000	0.144	-0.468
-461.084	108.667	0.116	-0.138
-460.070	63.625	0.049	-0.049
-459.055	-88.695	0.236	-0.070
-458.040	800.000	0.033	0.127
-457.026	70.717	0.334	-0.346
-456.011	373.656	-0.099	-0.202
-454.997	-200.000	-0.013	-0.266
-453.982	496.168	-0.101	-0.233
-452.968	277.292	-0.064	0.114
-451.953	-173.068	0.223	0.007
-450.938	-87.871	-0.182	0.055
-449.924	800.000	-0.027	0.080
-448.909	800.000	0.126	0.404
-447.895	-198.236	-0.138	0.001
-446.880	-19.956	0.226	0.140
-445.865	-173.323	0.266	-0.008
-444.851	-75.812	-0.079	0.028
-443.836	-40.916	0.073	-0.038
-442.822	-200.000	-0.028	0.196
-441.807	-37.736	-0.078	0.042
-440.792	-200.000	-0.045	-0.326
-439.778	-179.049	-0.393	-0.009
-438.763	-176.313	-0.035	-0.001
-437.749	-6.982	0.151	0.103
-436.734	-200.000	-0.009	0.352
-435.719	-200.000	0.009	0.180
-434.705	-200.000	0.026	-0.408
-433.690	-10.097	0.172	-0.114
-432.676	-39.317	0.273	-0.143
-431.661	404.666	-0.144	0.303
-430.646	77.232	0.128	0.136
-429.632	-34.992	-0.469	-0.256
-428.617	-200.000	-0.015	-0.073
-427.603	-197.510	0.273	0.002
-426.588	425.881	-0.059	-0.126
-425.573	492.756	0.027	-0.063
-424.559	-87.477	0.358	0.108
-423.544	25.273	-0.039	-0.033
-422.530	82.931	0.131	-0.142
-421.515	-14.623	-0.212	0.136
-420.500	-200.000	-0.039	-0.212
-419.486	800.000	0.113	-0.394
-418.471	286.194	-0.115	-0.208
-417.457	-59.356	-0.191	0.082
-416.442	-13.096	0.141	0.092
-415.428	800.000	0.070	0.301
-414.413	261.512	-0.170	0.294
-413.398	-200.000	0.006	0.306
-412.384	131.264	-0.177	-0.227
-411.369	-66.197	-0.269	-0.107
-410.355	503.711	-0.198	0.458
-409.340	-200.000	0.018	-0.078
-408.325	800.000	-0.018	0.056
-407.311	-90.134	0.317	0.092
-406.296	-135.808	-0.260	0.031
-405.282	399.691	0.016	-0.033
-404.267	-114.298	-0.375	-0.072
-403.252	-200.000	-0.021	0.488
-402.238	-200.000	-0.002	0.191
-401.223	392.707	0.175	-0.363
-400.209	-14.762	0.232	-0.149
-399.194	-28.235	-0.149	-0.086
-398.179	-56.730	-0.204	-0.090
-397.165	112.608	0.385	0.466
-396.150	-200.000	0.032	-0.142
-395.136	194.630	-0.058	0.088
-394.121	-44.811	0.279	-0.139
-393.106	138.403	-0.165	0.216
-392.092	19.616	0.136	0.109
-391.077	800.000	0.108	-0.361
-390.063	392.356	-0.079	0.165
-389.048	-57.754	-0.292	0.128
-388.033	-101.199	0.127	0.031
-387.019	-59.042	0.065	0.028
-386.004	-146.779	0.281	-0.024
-384.990	-142.617	-0.194	-0.019
-383.975	800.000	-0.065	0.201
-382.960	722.090	-0.065	0.172
-381.946	256.193	0.150	-0.257
-380.931	185.644	-0.124	-0.184
-379.917	93.463	-0.246	-0.279
-378.902	-200.000	0.058	-0.325
-377.888	118.627	0.144	0.177
-376.873	-96.010	0.147	0.039
-375.858	-115.966	0.146	-0.027
-374.844	-200.000	0.027	0.344
-373.829	296.247	-0.134	-0.245
-372.815	311.418	-0.167	-0.313
-371.800	-95.830	-0.339	-0.090
-370.785	-77.454	-0.076	0.026
-369.771	-48.533	-0.421	-0.202
-368.756	-200.000	0.067	0.552
-367.742	95.428	-0.236	0.268
-366.727	-21.669	0.139	0.084
-365.712	113.996	-0.221	0.268
-364.698	800.000	0.063	-0.267
-363.683	-126.220	0.404	-0.060
-362.669	370.634	0.066	-0.133
-361.654	-27.455	-0.182	0.106
-360.639	-200.000	0.091	0.420
-359.625	-189.369	-0.162	0.002
-358.610	-55.120	-0.103	-0.046
-357.596	374.963	-0.074	-0.150
-356.581	-20.539	0.123	0.075
-355.566	-200.000	0.020	0.417
-354.552	-200.000	-0.075	0.342
-353.537	-200.000	0.059	0.260
-352.523	-200.000	0.039	0.268
-351.508	-133.497	0.364	0.046
-350.493	-183.142	0.214	0.004
-349.479	800.000	-0.095	0.280
-348.464	-96.566	-0.151	-0.040
-347.450	92.810	0.163	-0.183
-346.435	-45.177	0.193	-0.096
-345.420	-162.941	0.381	-0.018
-344.406	-61.417	-0.114	0.048
-343.391	4.125	-0.333	0.243
-342.377	-200.000	-0.001	0.014
-341.362	220.678	-0.193	-0.309
-340.348	89.124	-0.218	0.242
-339.333	-142.471	-0.227	0.022
-338.318	-67.830	0.311	-0.121
-337.304	99.381	0.079	0.092
-336.289	-200.000	0.018	-0.132
-335.275	-53.699	-0.130	0.059
-334.260	-200.000	-0.050	0.318
-333.245	43.641	-0.190	0.174
-332.231	693.111	-0.107	0.279
-331.216	30.255	-0.039	-0.033
-330.202	220.430	0.051	0.082
-329.187	490.124	-0.137	0.312
-328.172	-200.000	0.023	0.169
-327.158	215.572	-0.108	0.171
-326.143	-79.039	-0.202	0.068
-325.129	-93.659	-0.240	-0.066
-324.114	72.454	-0.024	0.025
-323.099	-34.256	0.285	-0.156
-322.085	-163.925	-0.516	0.024
-321.070	-60.633	-0.061	0.026
-320.056	-91.176	0.187	-0.053
-319.041	-24.705	0.224	-0.133
-318.026	-200.000	0.065	-0.399
-317.012	38.682	-0.060	0.054
-315.997	800.000	-0.046	-0.160
-314.983	20.411	0.269	0.217
-313.968	175.004	0.068	0.099
-312.953	-200.000	0.022	0.271
-311.939	-184.571	0.319	-0.005
-310.924	-110.344	0.403	0.084
-309.910	429.795	0.106	-0.229
-308.895	355.258	-0.139	0.276
-307.880	671.704	0.073	0.189
-306.866	316.889	0.054	-0.101
-305.851	211.521	-0.129	-0.202
-304.837	46.024	0.170	-0.157
-303.822	-200.000	0.063	0.000
-302.807	109.377	-0.104	-0.124
-301.793	200.441	-0.131	-0.200
-300.778	-200.000	-0.021	0.152
-299.764	67.481	0.052	0.053
-298.749	465.799	-0.059	-0.132
-297.735	800.000	-0.046	-0.154
-296.720	-83.916	-0.521	0.165
-295.705	800.000	0.087	-0.264
-294.691	-14.995	0.211	0.134
-293.676	800.000	0.094	0.400
-292.662	159.873	0.106	-0.147
-291.647	204.935	0.011	0.017
-290.632	-62.738	-0.186	0.077
-289.618	-55.877	-0.118	-0.053
-288.603	44.544	-0.295	0.269
-287.589	-115.371	0.333	0.063
-286.574	-48.232	-0.064	0.031
-285.559	124.277	-0.245	-0.307
-284.545	-21.454	0.174	-0.106
-283.530	-128.250	0.522	0.074
-282.516	-200.000	-0.034	0.439
-281.501	-200.000	0.001	-0.224
-280.486	350.076	-0.026	0.052
-279.472	3.557	-0.159	-0.115
-278.457	237.106	0.091	-0.150
-277.443	-182.646	-0.225	0.004
-276.428	137.355	0.026	0.033
-275.413	75.795	-0.108	0.114
-274.399	711.036	-0.061	0.160
-273.384	-143.744	0.352	-0.033
-272.370	22.361	0.023	-0.019
-271.355	800.000	0.104	-0.404
-270.340	3.065	-0.167	-0.121
-269.326	-122.403	0.118	-0.019
-268.311	-23.446	-0.254	-0.152
-267.297	591.019	0.053	0.131
-266.282	800.000	0.072	0.246
-265.267	-200.000	0.058	0.403
-264.253	800.000	0.062	0.213
-263.238	0.062	0.088	0.062
-262.224	-146.349	-0.230	0.020
-261.209	301.983	0.245	-0.450
-260.195	51.190	-0.115	0.108
-259.180	168.627	0.255	0.361
-258.165	12.704	0.240	-0.184
-257.151	6.143	-0.124	-0.091
-256.136	1.746	0.380	-0.272
-255.122	-156.560	0.124	-0.008
-254.107	-200.000	-0.032	0.255
-253.092	-200.000	0.015	-0.255
-252.078	166.754	0.117	-0.165
-251.063	185.931	0.013	-0.019
-250.049	141.691	-0.101	-0.133
-249.034	61.520	0.167	0.165
-248.019	-180.518	0.078	0.002
-247.005	-117.504	0.276	0.050
-245.990	800.000	0.034	-0.123
-244.976	-200.000	0.063	0.510
-243.961	-200.000	0.002	0.024
-242.946	166.772	-0.028	-0.040
-241.932	-200.000	-0.022	-0.135
-240.917	800.000	0.048	0.157
-239.903	103.435	0.217	0.253
-238.888	-17.822	-0.161	-0.100
-237.873	3.839	-0.087	-0.063
-236.859	-64.335	-0.212	-0.086
-235.844	640.310	-0.032	-0.081
-234.830	-41.249	0.255	0.131
-233.815	16.553	0.090	0.071
-232.800	800.000	-0.029	-0.113
-231.786	-123.205	-0.080	-0.013
-230.771	-8.110	0.119	-0.079
-229.757	197.202	0.064	0.097
-228.742	-169.126	-0.252	-0.009
-227.727	-114.389	-0.128	-0.025
-226.713	73.219	0.175	-0.182
-225.698	-126.029	-0.233	0.035
-224.684	168.778	0.168	0.238
-223.669	223.242	-0.182	-0.291
-222.655	-108.654	0.209	-0.045
-221.640	800.000	0.087	0.291
-220.625	800.000	0.011	-0.043
-219.611	-200.000	-0.024	0.184
-218.596	82.583	0.080	-0.086
-217.582	530.526	0.045	-0.105
-216.567	-200.000	-0.001	0.220
-215.552	-141.742	-0.281	0.028
-214.538	-55.416	-0.227	-0.101
-213.523	318.764	-0.110	0.206
-212.509	800.000	0.046	0.138
-211.494	25.728	-0.062	0.051
-210.479	-121.483	0.128	-0.021
-209.465	-200.000	-0.006	0.103
-208.450	-200.000	-0.054	-0.345
-207.436	163.651	0.123	-0.172
-206.421	196.995	0.082	0.124
-205.406	800.000	-0.122	0.385
-204.392	26.890	0.194	0.161
-203.377	13.458	0.212	0.163
-202.363	401.201	0.058	-0.122
-201.348	190.228	-0.304	-0.453
-200.333	-176.485	-0.374	-0.010
-199.319	-100.521	0.258	-0.063
-198.304	-146.987	-0.334	0.028
-197.290	18.762	0.216	-0.171
-196.275	-200.000	0.013	0.102
-195.260	-4.115	-0.221	-0.152
-194.246	-200.000	0.038	0.291
-193.231	124.206	0.076	-0.094
-192.217	155.327	-0.278	-0.379
-191.202	105.606	0.187	0.220
-190.187	-200.000	-0.040	-0.182
-189.173	-200.000	0.036	0.232
-188.158	-200.000	0.085	-0.414
-187.144	-200.000	-0.002	0.029
-186.129	-200.000	-0.012	0.355
-185.114	-72.878	-0.123	0.045
-184.100	518.907	0.082	-0.190
-183.085	-2.111	0.106	-0.074
-182.071	-155.053	0.252	-0.016
-181.056	-41.551	-0.278	-0.142
-180.042	-200.000	0.014	0.066
-179.027	409.343	-0.111	-0.233
-178.012	10.616	0.304	-0.229
-176.998	-62.972	-0.205	0.084
-175.983	-171.644	0.233	0.008
-174.969	-200.000	-0.046	0.242
-173.954	-139.607	0.276	0.029
-172.939	-40.956	0.225	0.115
-171.925	66.784	-0.169	0.170
-170.910	69.922	0.184	0.188
-169.896	103.195	0.139	-0.162
-168.881	-25.640	0.300	0.175
-167.866	109.413	0.302	-0.359
-166.852	342.879	-0.121	0.235
-165.837	36.881	-0.160	-0.140
-164.823	-111.332	0.112	-0.023
-163.808	-27.168	0.185	0.107
-162.793	741.150	-0.036	0.096
-161.779	-55.166	-0.083	-0.037
-160.764	187.189	-0.137	0.202
-159.750	435.899	-0.058	0.124
-158.735	189.693	0.143	-0.213
-157.720	51.324	-0.120	0.113
-156.706	588.592	0.053	-0.129
-155.691	-200.000	0.014	-0.118
-154.677	152.587	-0.050	-0.067
-153.662	-7.023	-0.137	0.092
-152.647	800.000	0.027	0.098
-151.633	-31.529	-0.211	0.117
-150.618	782.182	0.059	-0.160
-149.604	137.815	-0.319	-0.413
-148.589	-32.057	0.141	0.078
-147.574	537.047	0.108	0.254
-146.560	-63.643	-0.162	-0.066
-145.545	-200.000	0.000	0.021
-144.531	444.417	0.020	-0.043
-143.516	800.000	-0.017	-0.065
-142.502	15.591	-0.201	-0.156
-141.487	152.487	0.135	-0.182
-140.472	238.612	0.156	0.257
-139.458	-19.072	0.082	0.051
-138.443	800.000	0.049	-0.187
-137.429	123.717	-0.038	-0.047
-136.414	199.439	0.051	-0.077
-135.399	-200.000	0.050	-0.333
-134.385	-200.000	-0.024	-0.382
-133.370	69.197	0.130	-0.132
-132.356	800.000	-0.165	-0.541
-131.341	-115.978	0.310	-0.057
-130.326	-200.000	-0.045	-0.231
-129.312	-18.477	0.280	-0.173
-128.297	637.237	-0.100	0.251
-127.283	-27.590	0.106	0.061
-126.268	-118.341	0.166	-0.029
-125.253	-65.064	-0.286	0.114
-124.239	800.000	-0.073	0.231
-123.224	645.402	0.032	0.081
-122.210	13.557	-0.190	0.146
-121.195	31.521	0.135	0.114
