DTS Sentinel unit serial number:	SN413079Multiplexer serial number:	ORYXHardware model number:	OX4-SRSoftware version number:	ORYX F/W v4.00 Oryx Data Collector v3.7.2.0data status	okinstallation	princeton_trtdifferential loss correction	single-endedforward channel	channel 2reverse channel	N/Adate	2019/09/14time	13:31:34forward acquisition time	60.00reverse acquisition time	0.00gamma	496.2192k internal	0.2306k external	0.2306temperature offset calibration	1.0156default loss term (dB/km)	0.3790temperature slope calibration	1.0000multiplexer offset coefficient	1.0000multiplexer slope coefficient	1.0000fibre end	0.00T internal ref (°C)	37.94T ext. ref 1 (°C)	4.93T ext. ref 2 (°C)	33.26length (m)	temperature (°C)	Stokes	anti-Stokes-747.200	-200.000	-0.025	0.114
-746.185	-200.000	0.079	0.437
-745.171	800.000	-0.053	0.165
-744.156	428.820	0.026	0.057
-743.142	-24.575	0.162	-0.098
-742.127	-4.370	0.088	0.062
-741.112	-75.441	0.175	-0.063
-740.098	412.484	-0.101	0.218
-739.083	104.680	0.087	0.104
-738.069	345.682	-0.010	0.020
-737.054	800.000	-0.104	0.312
-736.039	759.003	-0.069	-0.190
-735.025	800.000	0.155	0.450
-734.010	-116.650	-0.243	-0.045
-732.996	-19.792	-0.155	-0.097
-731.981	800.000	-0.086	-0.304
-730.966	800.000	0.042	0.160
-729.952	800.000	-0.068	0.266
-728.937	-58.722	-0.120	-0.053
-727.923	359.013	0.128	0.260
-726.908	-25.012	-0.222	0.134
-725.894	-200.000	-0.030	-0.273
-724.879	216.467	0.198	0.321
-723.864	-75.231	0.347	0.126
-722.850	-101.432	-0.011	0.003
-721.835	-68.225	0.179	-0.071
-720.821	-200.000	0.017	-0.091
-719.806	-22.917	-0.092	0.056
-718.791	115.040	-0.148	0.183
-717.777	586.015	0.075	0.188
-716.762	-39.728	-0.068	0.036
-715.748	72.993	0.192	-0.204
-714.733	-4.821	0.080	-0.056
-713.718	-200.000	0.010	0.160
-712.704	590.003	-0.212	-0.531
-711.689	88.409	-0.058	0.065
-710.675	-200.000	-0.015	0.182
-709.660	-11.205	0.242	0.162
-708.645	-126.499	-0.196	0.030
-707.631	27.365	-0.100	-0.086
-706.616	-200.000	-0.018	-0.205
-705.602	-88.941	-0.140	0.042
-704.587	40.325	-0.211	-0.193
-703.572	-172.656	-0.247	-0.008
-702.558	52.304	0.081	-0.079
-701.543	15.035	-0.110	-0.088
-700.529	51.924	-0.272	-0.263
-699.514	18.869	-0.132	0.107
-698.499	771.792	0.007	-0.021
-697.485	-70.133	-0.146	-0.057
-696.470	-129.467	-0.337	0.047
-695.456	9.741	-0.096	-0.074
-694.441	280.752	0.123	0.223
-693.426	-86.531	0.205	0.064
-692.412	800.000	0.030	0.108
-691.397	31.653	0.034	-0.030
-690.383	380.056	0.087	-0.181
-689.368	155.963	-0.117	-0.164
-688.354	18.510	0.269	0.219
-687.339	223.300	-0.172	0.282
-686.324	-200.000	0.014	0.068
-685.310	-54.314	-0.206	-0.095
-684.295	800.000	-0.066	-0.196
-683.281	111.393	0.101	0.124
-682.266	-163.334	0.074	-0.004
-681.251	143.781	0.134	-0.182
-680.237	-200.000	0.024	0.266
-679.222	-200.000	-0.004	-0.118
-678.208	-57.050	-0.103	0.046
-677.193	357.642	0.175	-0.355
-676.178	140.655	-0.223	-0.298
-675.164	300.879	-0.144	-0.271
-674.149	-8.366	-0.143	-0.097
-673.135	-200.000	-0.000	-0.105
-672.120	42.295	-0.248	-0.229
-671.105	145.447	0.038	0.052
-670.091	-42.391	-0.067	-0.035
-669.076	-117.097	0.065	-0.012
-668.062	-24.549	-0.226	0.137
-667.047	176.400	-0.188	-0.277
-666.032	-82.010	0.393	-0.130
-665.018	715.475	-0.113	-0.304
-664.003	-121.014	-0.243	0.041
-662.989	131.034	0.119	0.155
-661.974	423.804	0.004	0.009
-660.959	22.844	-0.063	-0.052
-659.945	-78.430	0.441	-0.153
-658.930	190.493	-0.097	0.148
-657.916	137.838	-0.108	-0.143
-656.901	50.133	-0.131	-0.125
-655.886	-200.000	0.022	-0.252
-654.872	80.757	0.093	-0.101
-653.857	2.318	0.062	0.045
-652.843	-200.000	0.036	-0.219
-651.828	745.140	0.130	0.355
-650.814	-200.000	0.006	-0.044
-649.799	-120.662	-0.122	-0.021
-648.784	-200.000	-0.041	0.251
-647.770	-42.367	-0.455	0.235
-646.755	208.934	-0.156	-0.247
-645.741	-63.117	0.172	-0.072
-644.726	21.162	-0.242	0.199
-643.711	-200.000	0.003	-0.041
-642.697	4.200	0.281	0.208
-641.682	-50.549	-0.442	-0.211
-640.668	51.311	0.066	-0.063
-639.653	800.000	-0.022	-0.081
-638.638	-200.000	-0.017	-0.244
-637.624	139.782	-0.101	-0.135
-636.609	-88.231	-0.253	0.077
-635.595	85.572	0.077	-0.086
-634.580	-14.977	0.128	0.083
-633.565	47.172	-0.119	0.113
-632.551	-0.529	-0.114	-0.082
-631.536	-66.530	0.040	-0.016
-630.522	-86.226	-0.301	-0.094
-629.507	800.000	-0.073	0.245
-628.492	-22.595	-0.249	0.153
-627.478	19.778	-0.128	0.104
-626.463	0.868	-0.136	0.098
-625.449	331.180	-0.118	-0.230
-624.434	-91.580	0.385	-0.111
-623.419	250.612	0.066	-0.114
-622.405	800.000	0.108	0.309
-621.390	367.528	0.070	0.143
-620.376	-200.000	0.006	-0.284
-619.361	63.249	0.140	-0.142
-618.346	-47.291	0.374	0.184
-617.332	17.925	-0.181	-0.146
-616.317	-200.000	0.052	-0.269
-615.303	-200.000	0.012	0.329
-614.288	50.666	-0.261	-0.250
-613.273	-200.000	0.056	0.316
-612.259	-200.000	-0.039	0.354
-611.244	-27.113	0.184	0.109
-610.230	-104.235	-0.073	0.017
-609.215	-83.730	-0.137	-0.044
-608.201	-84.703	0.183	0.058
-607.186	-200.000	0.048	-0.282
-606.171	201.709	0.272	0.424
-605.157	-200.000	0.041	-0.197
-604.142	258.904	-0.076	-0.132
-603.128	35.822	-0.122	-0.108
-602.113	-65.484	-0.291	-0.118
-601.098	-18.870	-0.212	0.133
-600.084	-50.252	0.178	-0.085
-599.069	70.543	0.151	-0.158
-598.055	-78.418	0.065	0.022
-597.040	-200.000	0.067	-0.344
-596.025	-200.000	-0.020	0.112
-595.011	-200.000	0.013	-0.061
-593.996	77.136	0.101	-0.109
-592.982	-107.681	-0.283	-0.063
-591.967	-200.000	0.005	-0.196
-590.952	800.000	0.022	0.060
-589.938	-102.300	-0.243	0.059
-588.923	800.000	0.036	0.158
-587.909	-200.000	0.047	0.209
-586.894	23.671	-0.500	0.417
-585.879	-41.168	0.202	-0.105
-584.865	124.270	0.113	0.144
-583.850	-145.043	0.243	0.022
-582.836	206.342	-0.112	-0.176
-581.821	-38.675	0.364	-0.194
-580.806	-200.000	-0.001	0.012
-579.792	89.124	0.137	-0.154
-578.777	-141.408	-0.212	-0.022
-577.763	-41.514	0.121	0.063
-576.748	256.134	0.113	-0.197
-575.733	-41.047	-0.197	0.103
-574.719	-147.405	-0.167	-0.014
-573.704	465.215	0.042	0.096
-572.690	-200.000	0.018	-0.282
-571.675	800.000	-0.067	0.208
-570.661	-99.467	-0.312	-0.079
-569.646	-200.000	-0.020	-0.104
-568.631	-100.445	-0.047	0.012
-567.617	-86.298	-0.063	-0.020
-566.602	-62.031	0.222	0.094
-565.588	800.000	-0.104	0.399
-564.573	-106.313	-0.267	0.060
-563.558	-200.000	0.088	0.571
-562.544	-144.974	-0.065	-0.006
-561.529	-158.772	-0.339	-0.020
-560.515	385.971	-0.208	-0.434
-559.500	716.814	-0.041	0.110
-558.485	-61.102	-0.154	0.066
-557.471	115.033	0.087	0.107
-556.456	104.657	0.174	0.208
-555.442	-2.911	0.225	-0.159
-554.427	6.342	-0.195	-0.146
-553.412	800.000	-0.062	0.187
-552.398	-200.000	0.011	0.344
-551.383	362.067	-0.111	-0.225
-550.369	382.108	-0.074	0.154
-549.354	-20.635	0.476	-0.295
-548.339	-129.558	0.154	-0.022
-547.325	-6.894	-0.167	0.114
-546.310	-200.000	-0.001	0.160
-545.296	-65.297	0.138	-0.056
-544.281	117.894	-0.087	-0.108
-543.266	-19.534	0.145	-0.090
-542.252	800.000	-0.040	-0.157
-541.237	-200.000	-0.016	-0.092
-540.223	-200.000	0.040	-0.338
-539.208	31.039	-0.118	-0.102
-538.193	-200.000	0.015	0.103
-537.179	-2.615	0.313	0.221
-536.164	38.662	0.019	0.017
-535.150	-200.000	0.016	-0.294
-534.135	135.565	-0.117	-0.153
-533.121	-200.000	-0.000	0.115
-532.106	-60.089	0.094	-0.040
-531.091	385.618	-0.112	-0.232
-530.077	201.755	-0.129	-0.201
-529.062	-55.705	-0.043	0.019
-528.048	470.486	-0.055	-0.125
-527.033	738.603	0.055	-0.148
-526.018	800.000	0.021	-0.066
-525.004	282.374	0.038	0.069
-523.989	-156.377	-0.184	-0.012
-522.975	-157.190	-0.295	0.018
-521.960	250.724	0.050	-0.086
-520.945	-62.720	-0.237	0.099
-519.931	427.749	-0.103	0.223
-518.916	-200.000	0.051	-0.329
-517.902	-109.905	0.095	0.020
-516.887	-11.056	-0.195	0.130
-515.872	-112.587	0.456	0.092
-514.858	-77.183	-0.240	0.084
-513.843	-127.548	0.236	0.035
-512.829	-161.233	0.166	0.009
-511.814	798.101	0.023	0.064
-510.799	-88.699	-0.210	-0.063
-509.785	-200.000	-0.001	-0.420
-508.770	6.351	-0.122	0.091
-507.756	219.607	0.137	0.221
-506.741	46.782	0.063	-0.059
-505.726	800.000	-0.087	0.348
-504.712	-132.423	-0.059	0.008
-503.697	-121.942	-0.071	0.012
-502.683	-65.121	0.191	0.078
-501.668	-33.419	-0.048	-0.027
-500.653	-200.000	0.031	-0.148
-499.639	800.000	0.030	-0.098
-498.624	672.888	-0.076	-0.198
-497.610	567.271	0.113	0.277
-496.595	-83.314	-0.275	0.089
-495.581	-24.484	-0.139	0.083
-494.566	-200.000	-0.006	0.357
-493.551	223.919	0.032	-0.052
-492.537	697.155	0.153	0.404
-491.522	-81.485	-0.157	-0.052
-490.508	800.000	0.155	-0.430
-489.493	-200.000	0.033	-0.220
-488.478	-52.455	-0.080	-0.037
-487.464	-200.000	0.014	-0.203
-486.449	44.911	-0.079	-0.073
-485.435	0.255	-0.106	0.076
-484.420	-39.714	-0.368	-0.194
-483.405	-144.652	-0.250	-0.023
-482.391	-147.911	-0.125	0.011
-481.376	37.561	-0.167	0.149
-480.362	214.422	0.068	-0.109
-479.347	-196.734	-0.394	0.003
-478.332	-21.942	-0.312	-0.191
-477.318	325.159	-0.151	0.291
-476.303	217.246	-0.106	-0.170
-475.289	44.034	-0.130	-0.120
-474.274	136.001	-0.149	-0.195
-473.259	-200.000	0.004	0.267
-472.245	-51.382	-0.095	-0.045
-471.230	34.733	-0.237	0.209
-470.216	-48.873	0.104	0.050
-469.201	145.959	0.098	-0.132
-468.186	-36.932	0.091	0.049
-467.172	-97.907	0.067	0.017
-466.157	746.179	0.129	-0.349
-465.143	2.314	0.244	0.178
-464.128	-96.238	-0.240	-0.064
-463.113	49.251	0.069	-0.065
-462.099	-200.000	-0.060	0.293
-461.084	800.000	0.044	0.175
-460.070	297.322	-0.051	0.093
-459.055	-65.855	0.050	0.020
-458.040	-200.000	0.065	0.316
-457.026	800.000	0.071	-0.225
-456.011	800.000	-0.090	-0.320
-454.997	-114.968	-0.185	0.035
-453.982	-200.000	0.023	0.253
-452.968	-151.101	0.230	-0.017
-451.953	-200.000	0.057	-0.263
-450.938	19.068	-0.227	-0.183
-449.924	-124.295	0.161	-0.025
-448.909	0.471	0.130	0.093
-447.895	-32.015	0.112	0.063
-446.880	73.874	0.019	-0.020
-445.865	-28.657	-0.086	-0.050
-444.851	-151.652	-0.287	0.021
-443.836	800.000	0.136	-0.553
-442.822	-16.375	-0.048	0.031
-441.807	623.862	-0.046	0.117
-440.792	-200.000	0.042	-0.355
-439.778	24.101	0.258	-0.214
-438.763	61.799	-0.069	-0.069
-437.749	743.739	-0.052	0.140
-436.734	-200.000	-0.018	-0.145
-435.719	-69.743	-0.102	0.039
-434.705	-200.000	0.001	0.126
-433.690	-200.000	0.005	0.266
-432.676	-200.000	-0.032	-0.370
-431.661	55.938	0.171	-0.166
-430.646	-5.489	-0.120	0.083
-429.632	80.255	0.238	0.258
-428.617	-200.000	-0.009	-0.092
-427.603	367.353	0.091	0.184
-426.588	-52.604	0.156	0.073
-425.573	-200.000	-0.048	-0.225
-424.559	800.000	-0.122	0.381
-423.544	99.166	-0.131	0.152
-422.530	-65.628	-0.229	0.092
-421.515	82.308	-0.312	-0.340
-420.500	-102.579	0.179	0.043
-419.486	-61.572	0.199	0.084
-418.471	336.185	0.091	0.177
-417.457	-168.345	0.325	0.013
-416.442	-200.000	-0.001	-0.061
-415.428	-34.905	-0.161	0.088
-414.413	-109.650	0.104	0.022
-413.398	-30.695	0.100	0.057
-412.384	800.000	-0.032	-0.129
-411.369	-200.000	-0.043	-0.248
-410.355	21.722	-0.038	-0.031
-409.340	-35.046	-0.273	0.149
-408.325	193.728	0.166	0.252
-407.311	-46.228	0.202	0.100
-406.296	639.465	0.011	-0.028
-405.282	-57.499	-0.113	0.050
-404.267	-103.059	0.197	-0.047
-403.252	253.315	0.148	0.253
-402.238	-10.515	-0.398	0.265
-401.223	35.107	0.215	-0.189
-400.209	97.352	-0.080	-0.093
-399.194	-3.498	0.186	0.130
-398.179	800.000	-0.030	-0.098
-397.165	-122.017	0.043	-0.007
-396.150	-172.725	0.369	-0.012
-395.136	800.000	-0.058	-0.171
-394.121	-200.000	0.042	-0.241
-393.106	-24.036	0.249	0.149
-392.092	259.143	0.111	0.193
-391.077	-170.303	-0.232	-0.008
-390.063	-58.958	0.359	0.156
-389.048	-42.300	0.146	-0.075
-388.033	586.769	-0.028	-0.069
-387.019	27.916	0.067	-0.057
-386.004	29.352	-0.142	0.121
-384.990	-200.000	0.040	-0.242
-383.975	-200.000	0.029	0.151
-382.960	185.230	0.184	-0.274
-381.946	-199.021	-0.047	0.000
-380.931	-80.946	-0.081	-0.027
-379.917	-6.826	0.135	0.092
-378.902	-68.326	-0.130	-0.051
-377.888	37.989	-0.047	0.041
-376.873	-29.236	0.361	0.207
-375.858	423.563	0.074	0.161
-374.844	-176.950	-0.077	-0.002
-373.829	117.075	0.085	-0.105
-372.815	-20.299	-0.425	0.262
-371.800	126.313	0.031	-0.039
-370.785	800.000	-0.104	0.347
-369.771	8.210	-0.146	-0.110
-368.756	280.519	0.042	0.075
-367.742	1.195	-0.183	-0.132
-366.727	223.490	0.036	0.058
-365.712	-8.881	0.006	0.004
-364.698	-84.570	-0.370	0.117
-363.683	800.000	-0.031	-0.126
-362.669	-139.562	0.235	0.025
-361.654	33.855	-0.244	-0.213
-360.639	-127.407	-0.157	-0.023
-359.625	668.068	-0.148	0.383
-358.610	-139.654	-0.144	0.015
-357.596	-52.038	-0.250	0.116
-356.581	37.448	0.417	0.370
-355.566	155.223	0.132	-0.181
-354.552	-67.682	-0.142	0.056
-353.537	16.559	0.101	-0.080
-352.523	-65.086	-0.276	-0.111
-351.508	-11.928	-0.207	0.136
-350.493	-41.540	0.089	-0.046
-349.479	-35.732	-0.378	0.205
-348.464	800.000	0.047	0.161
-347.450	190.976	-0.005	0.007
-346.435	-200.000	0.005	0.022
-345.420	-200.000	0.015	-0.160
-344.406	-66.976	-0.199	0.079
-343.391	31.073	0.089	0.076
-342.377	800.000	0.024	-0.087
-341.362	-200.000	-0.007	-0.186
-340.348	-2.783	0.122	0.085
-339.333	134.044	-0.207	0.269
-338.318	144.391	-0.051	-0.068
-337.304	130.738	0.037	0.048
-336.289	-200.000	0.013	-0.074
-335.275	125.099	0.172	-0.217
-334.260	800.000	0.112	0.323
-333.245	481.786	-0.055	-0.126
-332.231	349.211	0.045	0.090
-331.216	38.975	-0.160	0.144
-330.202	-88.103	-0.047	-0.014
-329.187	-33.896	-0.170	0.094
-328.172	-200.000	0.002	-0.259
-327.158	86.916	-0.153	0.170
-326.143	-2.755	0.109	0.076
-325.129	283.355	0.077	-0.138
-324.114	-13.788	0.116	0.075
-323.099	800.000	0.091	0.376
-322.085	34.868	0.127	-0.112
-321.070	583.199	0.036	0.088
-320.056	-133.858	-0.441	-0.055
-319.041	-30.141	-0.093	-0.053
-318.026	526.402	0.093	0.218
-317.012	-1.048	0.431	0.305
-315.997	212.424	0.154	-0.243
-314.983	-86.939	0.313	-0.096
-313.968	96.774	-0.061	-0.070
-312.953	77.309	0.254	0.270
-311.939	800.000	0.119	-0.421
-310.924	134.755	-0.101	-0.131
-309.910	-7.430	0.354	0.240
-308.895	58.243	-0.170	-0.167
-307.880	-117.983	-0.110	-0.020
-306.866	-200.000	-0.001	0.312
-305.851	171.282	0.046	0.066
-304.837	-154.017	-0.103	-0.007
-303.822	-200.000	0.023	0.148
-302.807	476.449	0.096	0.217
-301.793	-107.106	-0.131	0.029
-300.778	-69.745	-0.150	-0.057
-299.764	146.121	0.039	0.052
-298.749	-0.047	0.222	0.158
-297.735	-38.478	0.237	0.125
-296.720	-154.539	0.331	-0.022
-295.705	-24.769	0.112	-0.067
-294.691	12.305	0.264	0.203
-293.676	-66.564	-0.187	0.074
-292.662	-200.000	-0.020	-0.138
-291.647	-200.000	0.027	-0.233
-290.632	-48.693	-0.131	0.063
-289.618	180.643	-0.130	-0.191
-288.603	29.447	-0.047	0.040
-287.589	800.000	-0.034	-0.127
-286.574	-49.800	0.126	0.060
-285.559	-197.982	0.378	-0.002
-284.545	800.000	0.037	-0.160
-283.530	-37.441	0.113	0.060
-282.516	-5.038	-0.144	0.099
-281.501	244.222	0.055	0.092
-280.486	118.742	-0.131	0.162
-279.472	39.000	0.170	-0.152
-278.457	161.216	-0.109	-0.152
-277.443	10.392	0.113	0.086
-276.428	367.283	-0.175	-0.353
-275.413	-200.000	0.021	-0.133
-274.399	114.084	0.172	-0.209
-273.384	-4.427	0.148	0.102
-272.370	-134.504	-0.260	-0.032
-271.355	-50.601	-0.181	-0.085
-270.340	-66.552	0.042	-0.017
-269.326	30.446	0.283	0.241
-268.311	58.498	0.282	-0.277
-267.297	800.000	0.035	-0.097
-266.282	-39.218	0.372	-0.195
-265.267	-114.333	-0.262	0.050
-264.253	41.144	-0.091	0.082
-263.238	7.646	-0.138	-0.103
-262.224	-50.385	0.284	0.134
-261.209	176.682	0.076	-0.111
-260.195	46.818	-0.141	0.131
-259.180	-200.000	0.002	-0.253
-258.165	78.628	0.146	-0.155
-257.151	67.242	-0.159	-0.161
-256.136	-46.786	0.159	-0.078
-255.122	340.662	-0.057	-0.111
-254.107	-68.923	0.143	0.055
-253.092	204.843	0.085	0.131
-252.078	222.821	0.275	-0.442
-251.063	-200.000	-0.022	-0.144
-250.049	-39.682	0.132	-0.069
-249.034	88.480	-0.310	-0.344
-248.019	65.005	0.358	-0.361
-247.005	-137.389	-0.200	-0.023
-245.990	-115.108	0.178	0.034
-244.976	-200.000	0.057	-0.297
-243.961	96.499	0.116	0.133
-242.946	325.333	-0.039	0.074
-241.932	27.153	0.161	0.135
-240.917	-200.000	-0.019	0.421
-239.903	212.580	0.057	0.090
-238.888	-84.649	0.170	0.053
-237.873	-10.904	0.382	-0.252
-236.859	-177.285	-0.209	0.005
-235.844	69.037	0.244	-0.250
-234.830	-9.595	-0.040	0.027
-233.815	-135.005	0.380	-0.046
-232.800	800.000	-0.023	0.069
-231.786	4.681	0.175	-0.128
-230.771	41.633	-0.138	0.125
-229.757	393.863	-0.019	-0.040
-228.742	-120.864	0.265	-0.045
-227.727	-46.501	-0.187	0.092
-226.713	1.683	-0.304	0.218
-225.698	-43.796	-0.179	0.090
-224.684	-93.757	0.273	-0.075
-223.669	-95.721	0.393	0.105
-222.655	-6.758	-0.081	-0.055
-221.640	-138.585	-0.352	0.039
-220.625	417.608	0.116	0.246
-219.611	-38.457	0.205	0.108
-218.596	-185.957	-0.099	0.001
-217.582	58.247	0.100	0.098
-216.567	800.000	0.063	-0.264
-215.552	-168.940	-0.152	-0.006
-214.538	302.233	-0.124	-0.228
-213.523	596.897	0.089	0.220
-212.509	-107.030	-0.247	-0.054
-211.494	102.529	0.156	0.181
-210.479	800.000	-0.121	0.469
-209.465	800.000	0.114	0.360
-208.450	-169.516	0.061	0.002
-207.436	-13.310	0.329	-0.213
-206.421	101.928	0.310	0.360
-205.406	-19.632	-0.107	0.066
-204.392	58.647	0.247	0.241
-203.377	434.121	-0.039	0.085
-202.363	-36.770	-0.242	0.129
-201.348	-52.933	-0.350	-0.160
-200.333	160.182	0.190	-0.264
-199.319	42.782	-0.049	0.045
-198.304	-11.177	-0.269	-0.176
-197.290	-66.532	-0.167	-0.066
-196.275	-103.696	-0.289	0.067
-195.260	-125.727	0.225	0.034
-194.246	630.112	0.010	0.024
-193.231	-41.534	-0.227	-0.116
-192.217	800.000	0.067	-0.291
-191.202	-168.053	0.177	-0.007
-190.187	-51.522	-0.238	-0.111
-189.173	-10.328	-0.179	0.118
-188.158	35.783	0.145	0.127
-187.144	311.867	-0.086	0.160
-186.129	-46.612	0.217	0.106
-185.114	-85.169	0.288	0.090
-184.100	-200.000	0.056	0.335
-183.085	-26.853	0.115	0.067
-182.071	128.838	0.217	0.275
-181.056	800.000	-0.056	-0.240
-180.042	-200.000	0.003	0.176
-179.027	-71.005	-0.111	0.042
-178.012	-54.749	-0.177	-0.080
-176.998	-92.161	-0.078	0.022
-175.983	29.961	0.100	-0.084
-174.969	-141.376	-0.174	-0.018
-173.954	86.829	0.083	-0.091
-172.939	-71.349	0.161	-0.060
-171.925	113.497	-0.203	-0.246
-170.910	-145.944	0.148	0.013
-169.896	3.098	0.090	0.065
-168.881	-12.347	-0.123	0.080
-167.866	-139.698	-0.510	0.054
-166.852	170.817	-0.058	-0.083
-165.837	-55.152	0.035	-0.016
-164.823	-27.934	0.316	-0.182
-163.808	418.184	0.055	-0.118
-162.793	800.000	-0.042	-0.169
-161.779	-16.373	-0.241	-0.152
-160.764	474.420	-0.041	-0.091
-159.750	-200.000	0.081	-0.400
-158.735	-200.000	0.047	0.256
-157.720	74.223	0.279	-0.291
-156.706	-200.000	0.027	-0.215
-155.691	-113.317	-0.203	0.040
-154.677	448.210	0.100	-0.219
-153.662	-72.324	-0.127	0.047
-152.647	88.681	0.168	0.186
-151.633	-53.279	0.329	0.150
-150.618	-200.000	-0.023	0.182
-149.604	-124.237	0.282	0.044
-148.589	47.159	-0.203	-0.188
-147.574	-129.303	-0.111	-0.015
-146.560	-47.521	0.268	-0.129
-145.545	-77.719	-0.083	-0.029
-144.531	-87.468	0.334	-0.100
-143.516	479.649	0.098	-0.220
-142.502	-2.076	-0.169	-0.118
-141.487	359.332	-0.109	-0.217
-140.472	100.225	0.242	-0.279
-139.458	-161.569	-0.251	-0.013
-138.443	-200.000	-0.019	0.318
-137.429	800.000	-0.018	-0.053
-136.414	-200.000	-0.043	0.191
-135.399	-200.000	-0.001	-0.147
-134.385	-200.000	-0.010	0.251
-133.370	-88.136	0.215	0.064
-132.356	51.673	-0.044	-0.042
-131.341	-200.000	-0.023	0.289
-130.326	800.000	-0.047	0.165
-129.312	-155.541	-0.192	0.012
-128.297	-200.000	-0.068	0.418
-127.283	-200.000	0.072	0.374
-126.268	-200.000	0.004	0.272
-125.253	365.353	0.044	-0.088
-124.239	205.257	0.233	-0.360
-123.224	-81.226	-0.058	-0.019
-122.210	146.395	0.154	-0.205
-121.195	-140.013	0.186	-0.019
-120.180	-65.842	0.272	0.108
