DTS Sentinel unit serial number:	SN413079Multiplexer serial number:	ORYXHardware model number:	OX4-SRSoftware version number:	ORYX F/W v4.00 Oryx Data Collector v3.7.2.0data status	okinstallation	princeton_trtdifferential loss correction	single-endedforward channel	channel 2reverse channel	N/Adate	2019/09/15time	11:39:35forward acquisition time	60.00reverse acquisition time	0.00gamma	496.2192k internal	0.2315k external	0.2315temperature offset calibration	1.0016default loss term (dB/km)	0.3790temperature slope calibration	1.0000multiplexer offset coefficient	1.0000multiplexer slope coefficient	1.0000fibre end	0.00T internal ref (°C)	34.31T ext. ref 1 (°C)	5.01T ext. ref 2 (°C)	29.80length (m)	temperature (°C)	Stokes	anti-Stokes-747.200	-200.000	0.015	-0.206
-746.185	-20.710	-0.253	0.158
-745.171	-120.548	0.465	0.080
-744.156	-200.000	-0.083	0.381
-743.142	152.847	0.131	0.182
-742.127	-99.484	-0.210	0.054
-741.112	277.012	-0.234	-0.422
-740.098	-18.273	-0.165	-0.105
-739.083	-13.310	-0.412	0.271
-738.069	800.000	-0.012	0.044
-737.054	-37.959	-0.138	0.075
-736.039	373.609	-0.071	-0.146
-735.025	523.948	-0.149	0.354
-734.010	800.000	-0.078	-0.261
-732.996	-67.446	-0.185	-0.073
-731.981	364.618	0.067	-0.136
-730.966	56.741	0.127	0.125
-729.952	-153.720	-0.259	-0.018
-728.937	343.353	-0.125	-0.248
-727.923	800.000	0.068	0.230
-726.908	138.876	0.033	-0.044
-725.894	-110.061	0.337	0.071
-724.879	293.414	-0.227	-0.419
-723.864	-1.882	-0.142	0.101
-722.850	11.263	0.074	-0.057
-721.835	-86.096	0.148	-0.046
-720.821	800.000	-0.025	-0.087
-719.806	132.723	-0.133	0.174
-718.791	140.529	-0.010	0.014
-717.777	-45.058	-0.214	0.108
-716.762	-200.000	0.022	-0.199
-715.748	24.023	0.089	0.074
-714.733	395.082	0.056	-0.118
-713.718	-177.139	-0.101	0.003
-712.704	340.243	0.061	-0.120
-711.689	257.687	-0.077	0.134
-710.675	51.521	-0.057	0.055
-709.660	-153.857	-0.311	0.022
-708.645	-65.140	-0.321	-0.131
-707.631	428.079	-0.080	0.174
-706.616	-110.098	-0.216	0.046
-705.602	104.929	-0.052	0.063
-704.587	-170.976	0.408	-0.014
-703.572	-34.254	-0.359	0.200
-702.558	-95.918	-0.176	-0.047
-701.543	-70.803	0.302	-0.115
-700.529	-200.000	0.014	-0.092
-699.514	-126.093	0.239	0.036
-698.499	104.223	-0.303	0.361
-697.485	157.369	-0.160	-0.224
-696.470	-34.387	0.317	-0.176
-695.456	-200.000	-0.020	-0.314
-694.441	328.730	-0.202	-0.392
-693.426	127.905	-0.113	0.146
-692.412	119.130	0.220	0.275
-691.397	-115.910	-0.334	-0.063
-690.383	-200.000	0.043	0.317
-689.368	32.045	-0.141	0.123
-688.354	82.122	0.088	-0.096
-687.339	800.000	-0.017	-0.050
-686.324	-91.785	0.021	0.006
-685.310	-84.519	-0.133	0.042
-684.295	330.356	-0.095	-0.186
-683.281	-200.000	-0.061	-0.385
-682.266	-200.000	0.026	0.134
-681.251	-121.846	-0.231	-0.039
-680.237	-155.222	0.328	-0.022
-679.222	296.429	0.129	0.238
-678.208	-101.129	0.145	-0.036
-677.193	429.796	-0.089	0.194
-676.178	-71.599	-0.197	0.075
-675.164	244.213	0.159	0.269
-674.149	-81.739	-0.248	-0.082
-673.135	-29.783	-0.032	0.018
-672.120	57.921	-0.195	-0.193
-671.105	47.644	-0.031	-0.029
-670.091	6.370	0.133	0.100
-669.076	-45.821	0.218	0.109
-668.062	504.937	-0.044	0.103
-667.047	306.491	-0.144	0.270
-666.032	-34.659	0.105	0.058
-665.018	800.000	-0.089	-0.348
-664.003	-200.000	-0.024	0.224
-662.989	134.530	0.274	-0.359
-661.974	-73.909	-0.157	-0.058
-660.959	800.000	0.103	0.434
-659.945	2.669	-0.230	0.169
-658.930	25.535	-0.093	0.078
-657.916	60.905	-0.093	0.093
-656.901	800.000	0.126	0.451
-655.886	140.362	0.141	0.188
-654.872	167.726	0.035	0.050
-653.857	-77.975	-0.327	0.114
-652.843	9.383	0.033	-0.025
-651.828	-137.373	-0.369	-0.042
-650.814	504.585	0.083	-0.194
-649.799	-99.882	-0.247	0.062
-648.784	-200.000	-0.055	-0.367
-647.770	-200.000	-0.013	0.182
-646.755	-59.911	-0.143	-0.062
-645.741	505.180	0.056	0.131
-644.726	-200.000	0.023	0.179
-643.711	244.024	0.079	-0.134
-642.697	197.167	0.059	0.091
-641.682	-103.123	0.171	0.041
-640.668	-42.476	-0.167	-0.086
-639.653	609.081	-0.043	0.108
-638.638	-102.911	0.348	-0.083
-637.624	304.420	-0.249	0.467
-636.609	-182.607	0.091	0.002
-635.595	271.271	-0.176	-0.313
-634.580	133.398	0.096	0.126
-633.565	-79.063	-0.162	-0.055
-632.551	156.644	-0.090	0.125
-631.536	-200.000	-0.085	0.436
-630.522	-36.899	0.313	-0.169
-629.507	384.034	-0.087	0.180
-628.492	-200.000	-0.041	-0.330
-627.478	355.479	0.135	-0.272
-626.463	-79.991	0.290	-0.098
-625.449	122.120	0.108	0.136
-624.434	162.197	0.086	0.122
-623.419	59.751	0.270	-0.269
-622.405	-17.811	0.269	-0.170
-621.390	399.493	0.021	-0.044
-620.376	800.000	-0.055	-0.193
-619.361	-200.000	0.000	-0.007
-618.346	-68.502	0.111	-0.044
-617.332	356.628	0.059	-0.118
-616.317	800.000	0.075	0.245
-615.303	800.000	-0.120	-0.337
-614.288	-64.312	0.172	0.071
-613.273	80.363	-0.218	0.236
-612.259	-56.548	0.221	0.099
-611.244	-12.101	-0.086	0.057
-610.230	382.548	0.082	0.169
-609.215	800.000	-0.031	-0.092
-608.201	96.569	-0.122	-0.141
-607.186	30.559	-0.076	0.066
-606.171	-149.552	0.212	-0.017
-605.157	-2.901	-0.124	0.087
-604.142	228.377	-0.108	-0.177
-603.128	-200.000	0.018	0.198
-602.113	72.219	-0.148	0.155
-601.098	800.000	-0.030	0.085
-600.084	-169.827	0.476	0.017
-599.069	26.662	-0.197	0.166
-598.055	17.410	-0.179	0.143
-597.040	114.246	-0.259	-0.318
-596.025	800.000	-0.032	0.104
-595.011	-200.000	0.008	-0.203
-593.996	-161.894	-0.110	-0.006
-592.982	800.000	-0.074	-0.221
-591.967	-53.719	0.146	0.067
-590.952	-86.759	-0.371	0.114
-589.938	-9.372	-0.263	0.177
-588.923	-58.591	-0.068	-0.029
-587.909	-108.257	0.252	0.055
-586.894	-200.000	-0.046	0.400
-585.879	413.236	0.058	0.125
-584.865	129.239	0.130	0.168
-583.850	-182.121	0.362	0.007
-582.836	-124.367	-0.080	0.012
-581.821	800.000	0.092	0.270
-580.806	251.449	-0.079	0.136
-579.792	-114.267	-0.208	0.040
-578.777	204.892	-0.107	0.168
-577.763	16.362	0.130	-0.103
-576.748	-117.963	0.197	0.035
-575.733	647.875	-0.048	-0.123
-574.719	757.687	0.157	-0.427
-573.704	800.000	0.038	0.149
-572.690	104.396	-0.134	0.159
-571.675	-43.331	-0.177	0.090
-570.661	-92.139	0.202	0.057
-569.646	-81.059	-0.231	0.077
-568.631	-38.282	-0.162	-0.086
-567.617	-200.000	0.016	0.094
-566.602	34.973	0.215	-0.189
-565.588	-101.502	0.239	0.058
-564.573	95.819	-0.072	-0.082
-563.558	-59.985	-0.130	0.056
-562.544	-200.000	-0.050	0.532
-561.529	-103.004	-0.166	-0.040
-560.515	441.048	-0.130	0.285
-559.500	530.965	-0.040	-0.095
-558.485	98.785	0.143	-0.167
-557.471	201.269	-0.112	-0.174
-556.456	345.684	0.259	-0.513
-555.442	240.780	0.054	0.091
-554.427	-112.249	-0.119	0.024
-553.412	-92.706	-0.431	-0.121
-552.398	103.160	0.243	-0.286
-551.383	-200.000	0.009	-0.147
-550.369	62.070	0.090	-0.090
-549.354	50.529	-0.189	-0.180
-548.339	346.419	-0.264	0.522
-547.325	103.525	-0.164	-0.193
-546.310	-180.296	0.125	-0.003
-545.296	800.000	0.056	-0.184
-544.281	-141.367	0.211	-0.021
-543.266	21.741	0.174	0.142
-542.252	-60.013	-0.187	-0.080
-541.237	-200.000	0.033	0.227
-540.223	-200.000	-0.034	0.183
-539.208	59.649	0.008	-0.008
-538.193	800.000	-0.059	-0.188
-537.179	-112.351	-0.264	-0.053
-536.164	65.727	-0.119	-0.121
-535.150	274.763	-0.077	0.137
-534.135	-200.000	-0.040	0.338
-533.121	-104.848	0.068	0.016
-532.106	102.533	-0.237	-0.278
-531.091	72.952	-0.186	0.195
-530.077	759.974	-0.028	-0.076
-529.062	-89.216	-0.134	-0.040
-528.048	-200.000	0.009	-0.185
-527.033	-200.000	-0.020	-0.175
-526.018	800.000	-0.040	-0.125
-525.004	35.170	0.137	0.120
-523.989	64.481	-0.097	0.099
-522.975	-200.000	-0.018	0.275
-521.960	-174.776	-0.294	0.008
-520.945	-95.193	-0.120	-0.032
-519.931	800.000	-0.025	0.091
-518.916	31.592	0.195	0.168
-517.902	-76.175	-0.217	0.077
-516.887	-144.867	-0.176	0.016
-515.872	16.668	-0.258	0.205
-514.858	-124.684	0.156	0.024
-513.843	238.648	0.120	0.200
-512.829	61.440	-0.174	0.174
-511.814	-97.359	0.206	-0.054
-510.799	-200.000	-0.012	0.067
-509.785	-70.111	-0.270	0.103
-508.770	-14.227	0.228	-0.147
-507.756	800.000	0.036	0.105
-506.741	128.763	0.190	-0.243
-505.726	53.809	0.237	0.228
-504.712	-158.783	-0.260	-0.015
-503.697	79.079	-0.142	-0.152
-502.683	67.792	0.054	-0.056
-501.668	-200.000	-0.004	-0.031
-500.653	-140.690	-0.111	-0.012
-499.639	800.000	-0.080	0.303
-498.624	120.322	-0.096	-0.120
-497.610	-2.692	-0.221	-0.155
-496.595	-18.931	0.065	-0.040
-495.581	800.000	0.042	-0.144
-494.566	800.000	-0.053	0.157
-493.551	-200.000	0.029	-0.203
-492.537	249.592	-0.063	0.107
-491.522	2.836	0.127	0.092
-490.508	-103.172	0.088	-0.021
-489.493	-38.341	0.120	0.064
-488.478	-94.684	0.146	-0.040
-487.464	-164.140	0.177	0.008
-486.449	800.000	-0.084	-0.281
-485.435	129.450	0.282	-0.361
-484.420	420.447	-0.053	0.114
-483.405	-175.967	0.124	0.003
-482.391	298.920	-0.047	-0.087
-481.376	-200.000	-0.013	-0.215
-480.362	82.411	0.108	-0.118
-479.347	-68.526	0.167	0.065
-478.332	800.000	-0.090	0.294
-477.318	-149.658	0.286	0.023
-476.303	41.097	0.135	-0.122
-475.289	182.776	-0.163	-0.241
-474.274	3.131	-0.079	0.058
-473.259	219.246	0.114	-0.183
-472.245	733.160	0.038	-0.103
-471.230	-75.774	0.110	-0.039
-470.216	-200.000	-0.009	0.043
-469.201	800.000	-0.036	0.114
-468.186	146.325	-0.130	-0.175
-467.172	-112.289	0.416	-0.084
-466.157	-200.000	-0.009	-0.147
-465.143	-200.000	-0.048	0.283
-464.128	-120.041	-0.056	-0.010
-463.113	-67.148	0.252	0.099
-462.099	218.426	0.051	0.081
-461.084	-41.352	0.193	0.100
-460.070	-28.781	-0.094	-0.054
-459.055	47.587	-0.121	-0.113
-458.040	800.000	-0.015	-0.046
-457.026	800.000	0.127	0.396
-456.011	47.244	0.154	-0.144
-454.997	-200.000	-0.018	0.123
-453.982	413.068	-0.187	-0.398
-452.968	98.985	-0.077	0.089
-451.953	206.440	-0.174	0.272
-450.938	289.638	0.115	0.210
-449.924	576.568	-0.084	0.205
-448.909	590.928	-0.104	0.257
-447.895	800.000	0.039	0.122
-446.880	39.177	0.054	0.048
-445.865	800.000	0.092	0.357
-444.851	7.281	0.107	-0.080
-443.836	-200.000	-0.006	0.263
-442.822	187.937	0.104	0.155
-441.807	-200.000	0.003	-0.051
-440.792	359.233	0.121	-0.242
-439.778	256.167	-0.157	-0.270
-438.763	-81.519	-0.290	0.095
-437.749	800.000	-0.019	-0.061
-436.734	5.577	0.326	-0.241
-435.719	9.669	0.168	0.127
-434.705	59.399	-0.141	0.139
-433.690	-152.899	0.364	-0.026
-432.676	-200.000	-0.034	0.160
-431.661	299.515	-0.090	0.166
-430.646	-56.870	0.092	0.041
-429.632	589.008	0.191	0.470
-428.617	-99.360	0.174	-0.044
-427.603	-2.572	-0.144	0.101
-426.588	-18.029	0.467	-0.293
-425.573	-200.000	0.026	0.197
-424.559	-93.322	-0.399	-0.111
-423.544	-29.040	0.077	-0.044
-422.530	-200.000	0.008	-0.039
-421.515	-10.197	0.312	0.207
-420.500	475.153	0.166	-0.376
-419.486	88.360	0.076	0.085
-418.471	-200.000	-0.039	0.204
-417.457	-200.000	0.016	0.232
-416.442	800.000	-0.118	0.452
-415.428	-30.185	0.069	0.040
-414.413	327.534	-0.145	-0.278
-413.398	34.472	0.115	0.100
-412.384	800.000	-0.139	0.431
-411.369	219.145	0.054	-0.086
-410.355	269.546	0.232	-0.408
-409.340	-23.172	-0.183	0.110
-408.325	594.076	-0.084	0.207
-407.311	-67.350	-0.021	-0.008
-406.296	150.753	-0.141	0.191
-405.282	-153.928	0.245	-0.017
-404.267	71.281	0.262	0.272
-403.252	168.628	0.145	0.206
-402.238	-88.059	-0.107	-0.032
-401.223	39.166	0.252	0.225
-400.209	140.076	-0.158	-0.209
-399.194	-200.000	-0.005	-0.050
-398.179	-200.000	0.063	0.342
-397.165	24.569	-0.242	-0.200
-396.150	-27.241	0.118	-0.069
-395.136	15.625	0.088	0.069
-394.121	134.960	0.193	0.251
-393.106	-66.831	-0.043	-0.017
-392.092	140.652	-0.160	0.211
-391.077	157.547	0.019	-0.027
-390.063	-200.000	-0.024	0.146
-389.048	-133.098	0.388	0.049
-388.033	153.203	0.151	0.207
-387.019	-200.000	0.013	0.280
-386.004	97.476	-0.049	0.057
-384.990	105.972	0.191	0.226
-383.975	800.000	-0.007	0.028
-382.960	269.654	0.088	-0.154
-381.946	-12.320	0.104	0.068
-380.931	800.000	0.109	-0.314
-379.917	494.227	0.172	-0.393
-378.902	126.460	-0.250	-0.316
-377.888	-103.888	-0.236	-0.055
-376.873	30.551	0.099	0.084
-375.858	-70.712	0.278	0.105
-374.844	123.660	-0.244	0.306
-373.829	205.275	0.183	0.284
-372.815	63.735	0.229	0.230
-371.800	-84.265	-0.264	-0.084
-370.785	800.000	0.063	-0.179
-369.771	800.000	-0.081	-0.265
-368.756	-148.518	0.089	-0.007
-367.742	-68.528	-0.159	0.061
-366.727	107.670	0.067	-0.080
-365.712	-200.000	0.002	0.015
-364.698	-75.602	-0.172	0.061
-363.683	379.339	-0.055	-0.113
-362.669	-15.849	-0.100	-0.064
-361.654	-121.339	0.178	-0.030
-360.639	251.177	0.080	-0.136
-359.625	93.184	-0.106	0.120
-358.610	127.808	0.018	-0.023
-357.596	-106.334	-0.206	-0.046
-356.581	-200.000	-0.251	-0.001
-355.566	-200.000	-0.015	0.255
-354.552	113.940	-0.274	-0.333
-353.537	800.000	0.041	-0.127
-352.523	800.000	0.053	-0.164
-351.508	785.130	-0.111	-0.303
-350.493	215.459	0.046	0.073
-349.479	-122.649	0.124	0.020
-348.464	-109.813	-0.332	-0.070
-347.450	-137.936	-0.341	0.038
-346.435	-164.211	0.335	-0.015
-345.420	17.983	0.286	-0.228
-344.406	-84.132	-0.120	-0.038
-343.391	-47.705	-0.112	-0.054
-342.377	-55.579	0.184	-0.082
-341.362	800.000	-0.033	-0.108
-340.348	55.215	0.190	-0.183
-339.333	-72.573	-0.254	-0.094
-338.318	-31.569	-0.280	-0.157
-337.304	-185.047	0.320	-0.005
-336.289	195.307	0.093	-0.140
-335.275	-165.967	0.309	-0.013
-334.260	-170.853	-0.390	-0.013
-333.245	-114.338	0.090	-0.017
-332.231	239.479	0.065	0.109
-331.216	-24.802	0.228	0.135
-330.202	-200.000	0.056	-0.268
-329.187	68.056	-0.183	0.187
-328.172	135.930	-0.118	-0.153
-327.158	53.645	-0.225	-0.215
-326.143	-200.000	0.028	-0.132
-325.129	-139.278	0.073	-0.008
-324.114	87.528	-0.085	0.094
-323.099	67.597	0.088	-0.089
-322.085	37.262	-0.081	0.071
-321.070	228.664	0.199	0.323
-320.056	117.173	0.130	0.159
-319.041	-21.561	0.307	-0.187
-318.026	-200.000	-0.035	-0.243
-317.012	-24.842	-0.055	-0.033
-315.997	800.000	-0.056	0.239
-314.983	-156.624	0.307	-0.019
-313.968	22.216	0.071	-0.058
-312.953	-131.972	-0.317	0.041
-311.939	350.043	0.063	0.124
-310.924	-67.980	0.090	0.035
-309.910	33.826	-0.141	0.122
-308.895	492.898	-0.029	0.067
-307.880	-200.000	-0.014	-0.216
-306.866	0.412	0.209	0.149
-305.851	-61.906	0.018	0.007
-304.837	552.629	0.036	0.086
-303.822	-116.590	0.210	-0.039
-302.807	-200.000	0.007	-0.158
-301.793	-200.000	-0.296	0.000
-300.778	-100.580	-0.103	-0.025
-299.764	40.229	-0.140	0.126
-298.749	272.148	0.112	0.197
-297.735	-27.108	0.025	0.015
-296.720	800.000	0.027	-0.095
-295.705	-44.342	0.298	0.148
-294.691	-200.000	0.010	0.094
-293.676	5.687	0.196	0.144
-292.662	-200.000	-0.014	-0.065
-291.647	272.831	0.119	-0.209
-290.632	-200.000	-0.025	0.202
-289.618	-40.095	-0.318	0.165
-288.603	100.793	0.179	0.207
-287.589	-88.207	-0.152	0.045
-286.574	-116.188	0.115	0.021
-285.559	-200.000	0.016	0.128
-284.545	-200.000	0.030	0.295
-283.530	800.000	-0.132	-0.473
-282.516	161.670	-0.175	-0.244
-281.501	-113.445	-0.214	0.042
-280.486	-152.921	0.259	-0.018
-279.472	-84.471	0.261	0.082
-278.457	-133.807	-0.044	-0.005
-277.443	-53.137	-0.113	-0.052
-276.428	-67.558	0.145	0.057
-275.413	-200.000	-0.009	-0.103
-274.399	-167.257	-0.272	-0.011
-273.384	-63.253	-0.186	-0.076
-272.370	168.495	-0.115	-0.163
-271.355	-200.000	0.006	0.049
-270.340	53.772	0.204	-0.195
-269.326	22.057	-0.092	0.075
-268.311	727.486	0.084	-0.224
-267.297	-172.199	-0.164	0.005
-266.282	-200.000	-0.002	-0.016
-265.267	-200.000	-0.036	-0.240
-264.253	-139.705	-0.450	-0.048
-263.238	800.000	-0.044	0.160
-262.224	-96.258	0.332	0.088
-261.209	-117.234	-0.066	-0.012
-260.195	800.000	0.031	-0.091
-259.180	-104.533	0.150	0.034
-258.165	8.352	-0.116	-0.087
-257.151	-40.872	-0.167	-0.086
-256.136	-8.254	-0.261	0.175
-255.122	-200.000	-0.054	0.387
-254.107	154.044	0.115	-0.157
-253.092	-200.000	-0.041	0.204
-252.078	-200.000	0.003	-0.033
-251.063	800.000	-0.048	0.205
-250.049	70.726	-0.050	-0.052
-249.034	-25.408	0.073	0.043
-248.019	800.000	0.063	-0.196
-247.005	277.568	-0.137	0.242
-245.990	-77.631	0.221	-0.076
-244.976	-86.302	-0.166	0.051
-243.961	-139.855	0.042	-0.004
-242.946	427.714	-0.088	-0.189
-241.932	-2.093	0.213	0.148
-240.917	-72.394	0.137	-0.050
-239.903	-200.000	-0.004	0.189
-238.888	282.738	-0.097	0.172
-237.873	-200.000	0.028	-0.190
-236.859	-200.000	0.006	-0.275
-235.844	-200.000	-0.034	-0.320
-234.830	-200.000	0.018	0.091
-233.815	-200.000	0.021	0.102
-232.800	-200.000	-0.001	-0.064
-231.786	210.157	0.184	-0.288
-230.771	-181.911	0.112	0.002
-229.757	-200.000	0.024	0.176
-228.742	-69.179	0.330	-0.126
-227.727	-62.692	0.423	-0.174
-226.713	-91.421	0.206	-0.058
-225.698	-166.269	-0.234	0.010
-224.684	800.000	-0.037	0.124
-223.669	48.159	-0.094	-0.087
-222.655	800.000	0.016	-0.069
-221.640	-58.714	-0.341	0.147
-220.625	-142.324	-0.352	-0.035
-219.611	299.805	-0.049	-0.090
-218.596	542.510	-0.125	-0.296
-217.582	40.257	-0.200	-0.179
-216.567	310.126	-0.135	0.251
-215.552	1.183	-0.137	-0.098
-214.538	297.193	0.065	0.119
-213.523	315.690	0.087	0.163
-212.509	1.548	-0.280	-0.200
-211.494	229.941	-0.265	-0.429
-210.479	-194.285	-0.088	-0.001
-209.465	10.330	-0.222	0.168
-208.450	-200.000	0.027	-0.205
-207.436	-105.090	-0.169	0.038
-206.421	-84.436	-0.279	-0.088
-205.406	-200.000	-0.022	-0.173
-204.392	-53.072	0.065	-0.030
-203.377	-200.000	-0.068	-0.312
-202.363	50.107	-0.212	0.199
-201.348	-200.000	-0.073	-0.422
-200.333	780.814	0.152	-0.413
-199.319	222.924	-0.021	-0.033
-198.304	-41.977	0.113	-0.058
-197.290	163.781	0.138	-0.193
-196.275	-138.609	-0.205	0.022
-195.260	-86.396	0.115	0.035
-194.246	-15.871	0.418	-0.264
-193.231	-115.247	0.266	0.050
-192.217	-89.343	0.257	-0.075
-191.202	363.727	0.137	0.273
-190.187	326.275	0.011	-0.021
-189.173	-35.566	-0.275	-0.148
-188.158	523.282	-0.071	-0.166
-187.144	800.000	-0.044	-0.160
-186.129	37.246	-0.146	0.128
-185.114	-200.000	-0.008	0.063
-184.100	-200.000	-0.048	-0.324
-183.085	-70.401	0.253	-0.095
-182.071	800.000	0.087	0.355
-181.056	-51.520	-0.331	0.153
-180.042	-69.574	0.276	-0.105
-179.027	62.697	0.038	-0.037
-178.012	277.632	0.122	-0.216
-176.998	290.716	-0.067	-0.120
-175.983	211.425	-0.152	-0.236
-174.969	800.000	-0.123	0.387
-173.954	30.750	-0.202	0.172
-172.939	-119.093	-0.482	-0.084
-171.925	800.000	-0.048	0.194
-170.910	-8.715	-0.071	-0.047
-169.896	-195.986	-0.345	0.002
-168.881	800.000	-0.069	-0.196
-167.866	-200.000	-0.066	-0.344
-166.852	-39.724	-0.199	0.103
-165.837	-1.943	0.213	-0.148
-164.823	-133.043	0.159	-0.020
-163.808	135.701	-0.023	0.030
-162.793	-105.570	-0.215	-0.048
-161.779	140.912	0.229	0.300
-160.764	2.301	-0.107	-0.077
-159.750	41.050	-0.158	0.142
-158.735	262.525	0.060	-0.104
-157.720	-130.159	0.361	-0.049
-156.706	259.540	0.057	0.098
-155.691	800.000	-0.029	-0.109
-154.677	-8.877	0.127	-0.084
-153.662	107.955	-0.145	-0.171
-152.647	-200.000	0.503	-0.002
-151.633	800.000	-0.050	0.192
-150.618	77.468	0.089	0.094
-149.604	-23.211	0.210	-0.125
-148.589	-37.303	-0.139	-0.074
-147.574	-164.719	-0.280	0.013
-146.560	800.000	0.176	-0.626
-145.545	-85.160	0.072	0.022
-144.531	800.000	0.085	0.337
-143.516	437.883	-0.073	0.157
-142.502	-78.336	-0.278	-0.094
-141.487	67.350	-0.156	0.158
-140.472	-41.549	-0.063	-0.032
-139.458	-102.667	-0.391	-0.092
-138.443	45.025	-0.210	0.191
-137.429	-200.000	-0.001	0.192
-136.414	800.000	-0.042	0.145
-135.399	-99.962	0.476	0.118
-134.385	104.593	0.226	-0.263
-133.370	200.626	0.129	-0.197
-132.356	-56.598	-0.316	-0.139
-131.341	-26.737	0.041	0.024
-130.326	-200.000	0.216	0.000
-129.312	109.868	-0.178	0.211
-128.297	-8.961	-0.286	-0.190
-127.283	800.000	-0.050	-0.137
-126.268	-19.768	0.152	0.093
-125.253	424.746	0.134	0.284
-124.239	162.822	-0.185	0.257
-123.224	-26.342	-0.238	0.138
-122.210	473.962	0.140	0.312
-121.195	568.892	0.066	-0.158
