DTS Sentinel unit serial number:	SN413079Multiplexer serial number:	ORYXHardware model number:	OX4-SRSoftware version number:	ORYX F/W v4.00 Oryx Data Collector v3.7.2.0data status	okinstallation	princeton_trtdifferential loss correction	single-endedforward channel	channel 2reverse channel	N/Adate	2019/09/19time	11:51:34forward acquisition time	60.00reverse acquisition time	0.00gamma	496.2192k internal	0.2339k external	0.2339temperature offset calibration	1.0011default loss term (dB/km)	0.3790temperature slope calibration	1.0000multiplexer offset coefficient	1.0000multiplexer slope coefficient	1.0000fibre end	0.00T internal ref (°C)	25.83T ext. ref 1 (°C)	0.82T ext. ref 2 (°C)	21.75length (m)	temperature (°C)	Stokes	anti-Stokes-747.200	-59.612	-0.079	0.034
-746.185	621.846	-0.086	0.217
-745.171	170.480	-0.179	-0.257
-744.156	421.700	0.136	0.292
-743.142	53.596	0.094	0.090
-742.127	800.000	0.052	0.194
-741.112	-116.373	-0.136	-0.025
-740.098	429.983	-0.043	-0.093
-739.083	282.820	0.121	-0.217
-738.069	242.137	0.124	0.208
-737.054	311.944	-0.181	-0.341
-736.039	129.067	-0.156	0.200
-735.025	-200.000	0.037	0.215
-734.010	-115.798	0.072	0.014
-732.996	290.143	-0.071	-0.129
-731.981	-200.000	0.002	-0.116
-730.966	-118.112	-0.164	0.029
-729.952	-117.479	-0.269	-0.049
-728.937	196.238	-0.161	0.245
-727.923	-6.739	-0.191	-0.130
-726.908	-33.036	-0.239	-0.133
-725.894	-200.000	0.002	-0.138
-724.879	204.729	0.041	0.064
-723.864	241.059	-0.120	-0.202
-722.850	-48.204	0.256	0.124
-721.835	115.377	-0.228	0.279
-720.821	-105.959	0.146	-0.033
-719.806	-200.000	-0.027	0.396
-718.791	562.192	-0.165	-0.401
-717.777	-139.467	0.107	-0.011
-716.762	-117.988	0.292	-0.052
-715.748	97.605	0.133	-0.153
-714.733	571.689	0.101	0.247
-713.718	379.646	-0.064	0.130
-712.704	182.673	0.160	0.236
-711.689	-167.011	0.187	0.008
-710.675	-200.000	-0.030	-0.447
-709.660	800.000	-0.033	-0.109
-708.645	27.284	-0.185	0.155
-707.631	559.437	0.110	0.265
-706.616	-200.000	0.046	0.318
-705.602	15.510	-0.194	0.152
-704.587	-18.556	0.176	-0.110
-703.572	-200.000	0.032	0.395
-702.558	313.082	0.035	0.066
-701.543	-26.584	-0.254	0.149
-700.529	-98.278	0.081	-0.021
-699.514	50.254	0.142	0.134
-698.499	800.000	-0.035	0.097
-697.485	48.597	-0.146	0.137
-696.470	-158.202	0.270	0.016
-695.456	214.348	-0.173	0.274
-694.441	276.689	0.018	-0.032
-693.426	-156.288	-0.412	0.026
-692.412	-24.989	0.266	0.158
-691.397	287.043	-0.121	-0.218
-690.383	-200.000	0.034	-0.154
-689.368	-200.000	-0.051	-0.395
-688.354	800.000	-0.026	0.099
-687.339	-110.019	-0.270	-0.057
-686.324	-200.000	0.041	0.370
-685.310	-29.359	-0.180	0.103
-684.295	263.378	0.108	0.189
-683.281	265.391	0.096	0.168
-682.266	126.332	-0.059	-0.075
-681.251	390.880	-0.214	0.445
-680.237	800.000	-0.102	0.294
-679.222	296.076	0.120	0.221
-678.208	800.000	-0.064	-0.273
-677.193	-200.000	-0.004	-0.169
-676.178	-118.091	0.118	0.021
-675.164	577.116	-0.056	0.137
-674.149	695.847	-0.159	-0.417
-673.135	800.000	0.076	-0.253
-672.120	-84.625	-0.153	-0.048
-671.105	105.831	-0.159	-0.189
-670.091	-200.000	-0.013	-0.076
-669.076	-200.000	0.289	-0.001
-668.062	2.706	0.176	-0.128
-667.047	-40.440	-0.140	0.073
-666.032	49.460	-0.202	-0.190
-665.018	-200.000	-0.029	-0.195
-664.003	-14.181	-0.140	-0.090
-662.989	-200.000	0.022	-0.286
-661.974	403.733	-0.125	-0.263
-660.959	-10.329	0.133	-0.088
-659.945	503.787	0.138	-0.319
-658.930	34.011	0.217	-0.189
-657.916	-200.000	0.009	0.158
-656.901	800.000	0.040	-0.141
-655.886	99.485	0.161	-0.186
-654.872	-31.692	-0.251	-0.141
-653.857	-23.772	-0.241	0.144
-652.843	100.977	0.049	0.056
-651.828	26.226	-0.286	0.238
-650.814	-148.718	0.321	0.026
-649.799	-200.000	0.027	0.188
-648.784	-21.331	0.175	-0.107
-647.770	200.407	0.123	-0.189
-646.755	36.348	-0.127	-0.112
-645.741	-74.580	-0.157	-0.057
-644.726	366.972	0.070	0.141
-643.711	509.434	0.057	0.133
-642.697	-200.000	-0.032	0.166
-641.682	324.792	-0.078	-0.149
-640.668	-200.000	0.060	-0.318
-639.653	-200.000	-0.043	-0.201
-638.638	188.116	0.240	0.359
-637.624	143.567	-0.157	-0.208
-636.609	800.000	-0.032	0.131
-635.595	-200.000	0.025	-0.317
-634.580	-200.000	-0.014	-0.177
-633.565	269.076	-0.049	0.085
-632.551	800.000	-0.052	0.209
-631.536	170.041	0.143	0.204
-630.522	23.836	-0.063	-0.052
-629.507	-65.762	-0.091	-0.037
-628.492	57.682	0.100	-0.098
-627.478	-100.723	-0.420	0.103
-626.463	800.000	-0.015	0.061
-625.449	431.479	0.180	0.389
-624.434	101.661	0.229	0.267
-623.419	800.000	-0.078	0.256
-622.405	66.459	-0.151	-0.153
-621.390	228.075	-0.116	0.189
-620.376	-43.980	0.165	0.083
-619.361	54.852	0.319	0.307
-618.346	8.270	-0.071	-0.053
-617.332	-200.000	0.003	-0.145
-616.317	-138.976	-0.147	-0.016
-615.303	-47.848	-0.140	-0.068
-614.288	-69.884	0.167	0.063
-613.273	238.839	0.074	0.123
-612.259	228.499	-0.118	-0.193
-611.244	-18.840	0.183	-0.114
-610.230	133.542	-0.207	-0.267
-609.215	-138.862	-0.154	-0.017
-608.201	-194.571	-0.251	-0.002
-607.186	-103.410	-0.163	0.038
-606.171	645.525	0.094	-0.240
-605.157	-10.319	0.150	0.099
-604.142	-200.000	-0.034	0.184
-603.128	545.766	-0.051	-0.121
-602.113	-200.000	0.015	-0.183
-601.098	59.039	-0.153	0.150
-600.084	-200.000	0.003	-0.087
-599.069	-94.010	0.111	-0.030
-598.055	-110.529	-0.261	0.054
-597.040	-200.000	-0.015	-0.069
-596.025	-200.000	-0.035	0.243
-595.011	-174.274	0.064	0.002
-593.996	384.781	-0.198	0.407
-592.982	-31.052	0.058	0.032
-591.967	95.625	-0.095	-0.108
-590.952	97.003	-0.150	0.171
-589.938	-142.468	-0.225	0.022
-588.923	-164.715	-0.427	0.019
-587.909	-200.000	-0.031	0.203
-586.894	-88.242	0.227	-0.068
-585.879	800.000	-0.087	0.297
-584.865	80.193	-0.125	-0.134
-583.850	-62.677	0.280	-0.116
-582.836	157.765	0.119	0.164
-581.821	422.045	-0.215	-0.460
-580.806	40.500	-0.184	-0.165
-579.792	-80.030	0.224	-0.075
-578.777	90.685	0.133	-0.149
-577.763	800.000	-0.047	-0.185
-576.748	-18.320	-0.094	0.059
-575.733	9.215	-0.201	0.152
-574.719	-157.783	-0.112	-0.007
-573.704	-200.000	0.027	0.194
-572.690	561.633	0.057	0.138
-571.675	38.335	-0.021	0.019
-570.661	800.000	-0.025	0.073
-569.646	62.029	0.039	0.039
-568.631	31.563	-0.155	0.133
-567.617	-70.235	-0.091	-0.034
-566.602	-15.288	0.220	-0.140
-565.588	-200.000	-0.016	0.100
-564.573	-79.933	-0.117	-0.039
-563.558	124.769	0.237	0.297
-562.544	-200.000	0.045	0.223
-561.529	-200.000	-0.006	-0.037
-560.515	199.173	-0.151	-0.230
-559.500	307.524	0.147	0.273
-558.485	626.464	0.078	0.195
-557.471	-60.681	0.343	0.145
-556.456	23.727	-0.111	0.091
-555.442	800.000	-0.073	-0.295
-554.427	-146.998	0.114	-0.010
-553.412	-85.045	-0.138	0.043
-552.398	149.250	0.127	-0.171
-551.383	-200.000	0.013	-0.278
-550.369	-184.019	0.066	0.001
-549.354	-172.662	0.239	-0.007
-548.339	-194.820	-0.414	-0.003
-547.325	26.208	-0.058	0.048
-546.310	-140.229	-0.446	-0.047
-545.296	-98.872	-0.227	0.057
-544.281	235.932	0.122	-0.201
-543.266	-85.809	-0.207	-0.064
-542.252	-55.455	0.125	-0.056
-541.237	22.227	0.099	-0.080
-540.223	-91.080	-0.236	0.067
-539.208	-200.000	-0.042	0.435
-538.193	241.758	0.043	-0.072
-537.179	-48.717	0.225	-0.108
-536.164	404.797	0.040	-0.084
-535.150	-163.072	0.311	0.015
-534.135	478.452	-0.133	0.300
-533.121	421.890	-0.086	0.182
-532.106	380.902	0.123	0.251
-531.091	569.719	0.079	-0.191
-530.077	371.257	0.025	0.051
-529.062	-181.210	0.298	0.006
-528.048	-99.024	0.042	0.011
-527.033	800.000	0.079	0.240
-526.018	-200.000	-0.006	0.139
-525.004	47.329	0.185	-0.172
-523.989	-51.041	-0.060	0.028
-522.975	-84.256	0.063	-0.020
-521.960	-85.655	0.131	0.041
-520.945	359.641	-0.036	-0.072
-519.931	106.355	0.100	-0.118
-518.916	-123.613	-0.386	-0.061
-517.902	800.000	0.156	-0.541
-516.887	270.917	0.077	-0.134
-515.872	-103.869	0.020	0.005
-514.858	22.542	-0.374	0.304
-513.843	259.309	0.131	-0.224
-512.829	-200.000	-0.026	0.117
-511.814	-78.453	0.035	0.012
-510.799	125.913	0.034	-0.042
-509.785	-105.669	-0.272	0.061
-508.770	150.488	-0.260	-0.351
-507.756	-200.000	-0.032	0.277
-506.741	-200.000	0.013	0.247
-505.726	-200.000	0.016	-0.297
-504.712	205.436	0.114	0.175
-503.697	-66.016	0.279	0.111
-502.683	-102.931	0.161	-0.038
-501.668	52.558	0.028	0.027
-500.653	800.000	0.076	0.265
-499.639	-107.860	-0.238	0.051
-498.624	488.344	0.117	-0.265
-497.610	-143.588	-0.067	-0.006
-496.595	-153.193	-0.547	0.038
-495.581	131.060	0.172	0.219
-494.566	195.933	-0.179	0.270
-493.551	800.000	0.058	0.244
-492.537	-200.000	-0.001	-0.031
-491.522	18.665	0.207	-0.164
-490.508	-105.315	-0.181	-0.041
-489.493	250.581	0.094	-0.159
-488.478	-200.000	0.002	-0.207
-487.464	-132.201	0.343	-0.044
-486.449	-200.000	-0.015	-0.257
-485.435	501.047	0.073	-0.168
-484.420	63.665	-0.242	0.241
-483.405	-200.000	0.026	-0.146
-482.391	-200.000	-0.012	0.072
-481.376	-59.937	-0.188	0.080
-480.362	361.561	0.115	-0.228
-479.347	-50.972	0.158	0.074
-478.332	-193.720	-0.117	0.001
-477.318	-86.341	-0.293	-0.090
-476.303	-200.000	-0.012	0.080
-475.289	216.710	0.130	0.206
-474.274	-105.581	-0.143	0.032
-473.259	-31.426	-0.083	-0.047
-472.245	-161.845	-0.261	0.013
-471.230	-54.664	-0.433	-0.194
-470.216	-2.826	-0.177	-0.123
-469.201	-163.844	-0.107	-0.005
-468.186	-80.912	0.292	0.096
-467.172	673.356	0.075	-0.192
-466.157	-25.900	-0.239	-0.139
-465.143	37.725	-0.154	0.135
-464.128	-62.206	0.282	0.117
-463.113	-110.564	0.114	0.023
-462.099	270.973	0.236	-0.412
-461.084	-26.101	-0.034	-0.020
-460.070	800.000	0.030	0.114
-459.055	-80.857	0.424	0.139
-458.040	-200.000	-0.007	0.079
-457.026	41.602	0.170	0.153
-456.011	-50.100	-0.144	-0.068
-454.997	-200.000	0.055	-0.367
-453.982	78.782	0.387	-0.411
-452.968	-26.618	0.144	0.084
-451.953	-101.142	-0.224	0.054
-450.938	-69.444	-0.152	0.058
-449.924	-99.259	0.196	-0.049
-448.909	696.965	-0.122	-0.317
-447.895	-200.000	0.014	-0.071
-446.880	88.893	-0.280	0.309
-445.865	800.000	-0.066	-0.215
-444.851	800.000	0.101	-0.333
-443.836	-151.476	-0.165	0.012
-442.822	-164.188	0.184	-0.008
-441.807	158.913	-0.132	-0.181
-440.792	71.864	-0.157	0.162
-439.778	800.000	-0.067	0.218
-438.763	-97.557	-0.370	0.095
-437.749	-200.000	-0.007	-0.122
-436.734	-190.286	-0.183	0.002
-435.719	800.000	0.139	0.538
-434.705	205.145	-0.047	0.072
-433.690	-200.000	-0.002	0.190
-432.676	800.000	-0.012	0.037
-431.661	391.199	0.048	-0.099
-430.646	348.693	-0.160	-0.312
-429.632	800.000	0.083	-0.259
-428.617	-200.000	-0.006	0.232
-427.603	440.046	0.091	-0.196
-426.588	800.000	-0.021	0.067
-425.573	-200.000	0.028	-0.327
-424.559	-200.000	0.036	-0.228
-423.544	83.111	0.091	-0.098
-422.530	800.000	-0.069	0.228
-421.515	36.760	-0.176	-0.154
-420.500	800.000	-0.010	0.037
-419.486	800.000	-0.149	-0.584
-418.471	9.406	-0.106	0.079
-417.457	-200.000	0.009	-0.056
-416.442	-47.031	-0.204	-0.098
-415.428	-66.720	0.064	-0.025
-414.413	110.292	-0.113	0.135
-413.398	-200.000	-0.019	0.114
-412.384	346.898	-0.196	-0.383
-411.369	-12.651	-0.221	-0.143
-410.355	84.429	0.237	0.256
-409.340	-79.879	-0.065	0.022
-408.325	511.989	0.117	0.270
-407.311	160.149	0.160	-0.220
-406.296	119.617	0.165	-0.202
-405.282	-1.005	0.192	0.135
-404.267	58.878	0.020	-0.019
-403.252	52.907	-0.200	0.189
-402.238	259.861	-0.140	-0.240
-401.223	-113.625	-0.090	0.017
-400.209	-81.423	-0.292	-0.095
-399.194	-200.000	-0.068	0.530
-398.179	-134.073	-0.326	-0.040
-397.165	-200.000	-0.037	-0.277
-396.150	178.757	0.157	-0.227
-395.136	-49.320	0.253	-0.120
-394.121	206.574	-0.090	-0.139
-393.106	-200.000	-0.027	-0.377
-392.092	94.736	-0.094	0.106
-391.077	-76.278	0.164	0.057
-390.063	461.274	0.027	0.059
-389.048	-191.182	-0.472	-0.005
-388.033	18.870	-0.317	-0.251
-387.019	-200.000	-0.023	-0.134
-386.004	-200.000	0.057	0.362
-384.990	90.807	0.110	0.122
-383.975	-200.000	-0.057	0.504
-382.960	178.455	-0.121	0.175
-381.946	178.843	0.070	0.102
-380.931	92.743	0.045	-0.050
-379.917	176.993	-0.095	0.137
-378.902	-200.000	-0.039	0.176
-377.888	60.885	-0.180	0.177
-376.873	110.101	0.365	0.434
-375.858	-200.000	-0.010	0.151
-374.844	-123.486	0.433	-0.068
-373.829	158.081	0.089	-0.122
-372.815	172.385	0.172	-0.244
-371.800	32.045	-0.134	0.114
-370.785	-139.978	-0.298	0.031
-369.771	168.848	-0.193	-0.272
-368.756	-135.488	0.171	0.020
-367.742	447.474	0.067	0.146
-366.727	-64.186	-0.224	0.090
-365.712	-21.569	0.337	-0.203
-364.698	17.356	0.049	0.039
-363.683	-38.537	-0.150	0.078
-362.669	222.632	-0.235	-0.375
-361.654	800.000	0.081	-0.295
-360.639	-122.021	-0.036	-0.006
-359.625	-138.874	0.341	0.037
-358.610	-94.520	0.301	0.081
-357.596	97.086	0.379	0.429
-356.581	-200.000	-0.023	-0.188
-355.566	-111.327	0.320	-0.065
-354.552	800.000	0.145	0.412
-353.537	-200.000	0.029	0.129
-352.523	31.700	0.117	0.100
-351.508	96.464	0.109	0.124
-350.493	-81.087	-0.071	-0.023
-349.479	800.000	0.046	-0.172
-348.464	82.923	-0.114	-0.122
-347.450	800.000	0.069	-0.217
-346.435	-86.386	-0.145	-0.044
-345.420	-200.000	0.008	0.037
-344.406	-53.358	-0.139	0.063
-343.391	-200.000	0.004	-0.155
-342.377	-116.443	-0.122	0.022
-341.362	636.062	0.071	-0.178
-340.348	-200.000	0.052	0.312
-339.333	-200.000	-0.010	0.089
-338.318	-16.519	0.249	-0.156
-337.304	800.000	-0.126	0.360
-336.289	-136.966	-0.107	0.012
-335.275	96.501	0.222	-0.251
-334.260	468.279	-0.093	-0.205
-333.245	-57.170	-0.215	-0.094
-332.231	800.000	0.069	-0.239
-331.216	-200.000	-0.022	-0.360
-330.202	215.249	0.059	0.092
-329.187	18.291	0.211	-0.167
-328.172	17.799	0.010	0.008
-327.158	141.218	0.034	-0.044
-326.143	51.103	-0.187	0.175
-325.129	66.210	-0.149	-0.150
-324.114	202.993	0.085	-0.130
-323.099	-167.751	-0.427	0.017
-322.085	-71.216	0.167	-0.062
-321.070	511.668	0.118	0.272
-320.056	-200.000	0.019	-0.222
-319.041	-200.000	-0.001	0.181
-318.026	-73.168	-0.168	-0.061
-317.012	44.339	-0.325	0.295
-315.997	-200.000	0.092	0.453
-314.983	800.000	-0.055	0.203
-313.968	2.494	0.095	-0.068
-312.953	800.000	-0.086	0.250
-311.939	149.976	0.171	0.228
-310.924	275.227	-0.080	0.140
-309.910	-200.000	0.013	-0.329
-308.895	-200.000	0.013	0.081
-307.880	-67.170	0.447	0.173
-306.866	-83.361	0.307	-0.097
-305.851	113.630	-0.152	-0.182
-304.837	-167.031	0.312	-0.013
-303.822	-38.788	0.217	-0.113
-302.807	-23.071	-0.301	-0.179
-301.793	-17.332	0.176	-0.109
-300.778	51.709	-0.155	-0.145
-299.764	-76.257	0.317	0.110
-298.749	-43.199	-0.050	-0.025
-297.735	137.091	-0.132	0.170
-296.720	117.265	-0.240	-0.290
-295.705	-76.422	0.252	-0.087
-294.691	-25.334	-0.353	-0.206
-293.676	270.705	0.178	0.309
-292.662	57.964	0.117	0.113
-291.647	215.042	0.020	0.031
-290.632	135.763	-0.084	-0.107
-289.618	542.361	-0.133	0.312
-288.603	-112.358	0.193	0.038
-287.589	-200.000	0.064	-0.290
-286.574	2.964	0.118	-0.084
-285.559	-200.000	-0.017	-0.450
-284.545	238.516	-0.131	0.214
-283.530	-23.060	-0.135	-0.080
-282.516	243.636	0.117	-0.194
-281.501	-3.558	0.073	-0.050
-280.486	-167.440	-0.228	-0.009
-279.472	-6.264	0.158	0.106
-278.457	-200.000	-0.052	-0.472
-277.443	333.125	-0.098	0.186
-276.428	-200.000	-0.004	0.139
-275.413	800.000	-0.020	0.080
-274.399	-52.353	0.255	0.116
-273.384	148.546	0.121	0.161
-272.370	-73.248	0.234	-0.084
-271.355	-16.077	0.086	0.054
-270.340	387.195	0.077	0.156
-269.326	-75.900	0.281	-0.098
-268.311	-200.000	-0.005	-0.186
-267.297	-53.266	-0.171	-0.077
-266.282	-13.821	-0.083	0.053
-265.267	-200.000	0.004	-0.050
-264.253	-28.648	0.340	-0.193
-263.238	202.758	0.013	-0.019
-262.224	-5.276	-0.180	0.122
-261.209	-84.888	-0.117	0.036
-260.195	-200.000	-0.033	0.367
-259.180	-95.003	0.083	-0.022
-258.165	73.903	-0.323	-0.333
-257.151	-200.000	-0.040	0.179
-256.136	-200.000	-0.027	0.140
-255.122	-200.000	0.019	0.272
-254.107	653.758	-0.027	0.068
-253.092	-200.000	-0.010	0.256
-252.078	181.903	-0.163	0.236
-251.063	-128.757	0.162	-0.022
-250.049	289.877	0.160	-0.285
-249.034	208.826	-0.062	-0.096
-248.019	-200.000	0.029	0.154
-247.005	191.412	-0.084	0.125
-245.990	-90.441	0.419	0.119
-244.976	90.273	-0.148	-0.163
-243.961	-83.294	0.130	-0.041
-242.946	154.807	-0.208	-0.282
-241.932	15.162	-0.195	0.150
-240.917	43.353	-0.143	-0.129
-239.903	-93.942	0.315	0.085
-238.888	-80.156	0.016	-0.005
-237.873	423.879	0.148	0.313
-236.859	800.000	-0.027	-0.087
-235.844	424.325	-0.129	0.272
-234.830	-200.000	0.060	0.290
-233.815	-200.000	-0.078	-0.458
-232.800	-200.000	0.006	-0.193
-231.786	-153.493	0.177	0.012
-230.771	-28.374	-0.156	-0.088
-229.757	613.181	0.069	-0.170
-228.742	-32.297	0.243	0.133
-227.727	800.000	0.052	0.204
-226.713	-200.000	-0.014	0.077
-225.698	224.359	-0.085	0.135
-224.684	-200.000	0.051	0.238
-223.669	-28.365	0.242	0.138
-222.655	179.762	0.175	-0.252
-221.640	165.264	-0.136	-0.189
-220.625	310.264	-0.227	0.418
-219.611	-106.224	0.245	0.054
-218.596	-190.136	0.481	-0.005
-217.582	29.903	-0.204	0.170
-216.567	89.683	-0.146	-0.160
-215.552	193.975	-0.088	-0.131
-214.538	-36.726	0.143	-0.075
-213.523	-200.000	-0.010	0.150
-212.509	-200.000	0.017	0.119
-211.494	-58.474	0.336	-0.143
-210.479	73.405	-0.237	-0.244
-209.465	242.454	-0.081	-0.133
-208.450	38.690	-0.176	-0.154
-207.436	-200.000	0.018	-0.128
-206.421	-124.644	-0.293	-0.045
-205.406	296.610	0.088	0.158
-204.392	146.052	0.070	-0.092
-203.377	4.902	0.247	0.178
-202.363	-40.188	-0.143	0.073
-201.348	-75.848	-0.086	0.030
-200.333	-34.522	-0.304	0.163
-199.319	-73.047	-0.015	0.006
-198.304	-80.177	0.144	-0.047
-197.290	273.631	-0.021	0.036
-196.275	147.809	0.099	0.131
-195.260	-200.000	-0.023	-0.346
-194.246	260.576	-0.045	-0.077
-193.231	-200.000	-0.009	0.134
-192.217	235.764	0.206	0.334
-191.202	88.607	0.257	-0.280
-190.187	-10.528	-0.114	0.074
-189.173	-34.160	0.112	-0.060
-188.158	34.892	0.090	-0.078
-187.144	-154.433	-0.382	0.025
-186.129	-200.000	0.022	0.199
-185.114	164.421	0.136	0.188
-184.100	-200.000	0.007	-0.124
-183.085	16.279	0.201	0.156
-182.071	389.540	0.048	0.098
-181.056	19.870	-0.026	-0.020
-180.042	800.000	-0.048	-0.197
-179.027	-26.141	0.195	-0.112
-178.012	-200.000	0.008	-0.093
-176.998	-88.330	0.131	-0.038
-175.983	557.550	-0.087	0.206
-174.969	800.000	-0.065	-0.214
-173.954	-178.281	-0.202	-0.005
-172.939	800.000	-0.050	-0.180
-171.925	167.450	-0.107	0.150
-170.910	10.621	0.053	-0.039
-169.896	14.343	0.320	-0.245
-168.881	52.050	-0.104	-0.097
-167.866	800.000	0.040	0.140
-166.852	37.519	0.113	-0.099
-165.837	-36.941	0.268	0.141
-164.823	-200.000	0.011	-0.086
-163.808	112.195	-0.300	0.356
-162.793	366.782	0.136	0.270
-161.779	737.030	-0.190	-0.501
-160.764	122.813	0.055	-0.068
-159.750	518.530	0.101	0.232
-158.735	-28.312	-0.047	-0.026
-157.720	-134.223	-0.223	-0.027
-156.706	28.152	0.350	0.290
-155.691	-138.347	0.169	0.018
-154.677	-7.538	0.140	0.093
-153.662	800.000	-0.050	-0.193
-152.647	-200.000	0.047	-0.577
-151.633	-200.000	0.003	0.106
-150.618	-38.422	0.151	0.078
-149.604	87.437	0.213	0.231
-148.589	13.860	-0.068	-0.052
-147.574	12.859	0.233	-0.176
-146.560	-200.000	0.009	-0.235
-145.545	-70.991	-0.171	-0.063
-144.531	-62.247	-0.048	-0.020
-143.516	36.044	0.123	0.106
-142.502	-25.912	0.298	0.172
-141.487	-5.114	0.244	-0.164
-140.472	-83.692	0.094	0.029
-139.458	-80.863	0.027	0.009
-138.443	-179.418	-0.381	0.008
-137.429	-72.281	0.263	0.096
-136.414	-200.000	-0.016	-0.084
-135.399	-92.279	0.229	0.063
-134.385	15.179	-0.104	0.080
-133.370	74.983	-0.060	-0.062
-132.356	290.943	-0.226	-0.403
-131.341	-200.000	-0.034	0.152
-130.326	141.005	0.126	0.163
-129.312	800.000	0.122	0.351
-128.297	-44.353	-0.325	0.159
-127.283	113.562	0.206	0.245
-126.268	64.356	0.315	-0.311
-125.253	17.510	-0.343	-0.267
-124.239	564.494	0.118	-0.280
-123.224	158.836	-0.131	0.179
-122.210	640.119	0.073	-0.182
-121.195	-200.000	0.005	0.215
