DTS Sentinel unit serial number:	SN413079Multiplexer serial number:	ORYXHardware model number:	OX4-SRSoftware version number:	ORYX F/W v4.00 Oryx Data Collector v3.7.2.0data status	okinstallation	princeton_trtdifferential loss correction	single-endedforward channel	channel 2reverse channel	N/Adate	2019/09/17time	15:43:34forward acquisition time	60.00reverse acquisition time	0.00gamma	496.2192k internal	0.2301k external	0.2301temperature offset calibration	0.9983default loss term (dB/km)	0.3790temperature slope calibration	1.0000multiplexer offset coefficient	1.0000multiplexer slope coefficient	1.0000fibre end	0.00T internal ref (°C)	38.89T ext. ref 1 (°C)	0.37T ext. ref 2 (°C)	36.60length (m)	temperature (°C)	Stokes	anti-Stokes-747.200	-105.951	0.117	0.027
-746.185	-121.717	0.106	-0.018
-745.171	-19.904	0.354	-0.223
-744.156	343.526	0.124	0.247
-743.142	800.000	-0.076	0.240
-742.127	-4.255	-0.223	0.158
-741.112	-200.000	0.039	-0.241
-740.098	-117.048	-0.102	-0.019
-739.083	53.466	0.140	0.136
-738.069	-180.074	-0.179	0.004
-737.054	-17.623	0.188	0.120
-736.039	379.645	0.116	0.243
-735.025	36.490	-0.120	0.108
-734.010	-200.000	-0.032	-0.342
-732.996	-90.079	-0.147	0.044
-731.981	54.499	-0.188	-0.184
-730.966	272.062	-0.021	0.037
-729.952	-111.255	-0.275	-0.057
-728.937	-79.259	-0.259	0.090
-727.923	-72.561	-0.323	-0.122
-726.908	-106.495	0.268	-0.061
-725.894	-28.700	-0.336	-0.197
-724.879	36.251	0.082	0.073
-723.864	-96.678	-0.332	-0.089
-722.850	-182.830	-0.051	-0.001
-721.835	-60.067	-0.234	0.102
-720.821	-8.540	-0.212	-0.145
-719.806	163.865	-0.188	0.270
-718.791	16.605	0.343	0.276
-717.777	187.155	0.169	-0.257
-716.762	2.598	0.004	-0.003
-715.748	-19.850	-0.156	0.098
-714.733	-200.000	-0.015	0.257
-713.718	7.227	0.038	0.029
-712.704	800.000	-0.105	0.297
-711.689	168.732	-0.051	0.074
-710.675	-200.000	0.028	0.204
-709.660	-200.000	0.038	-0.217
-708.645	-83.234	-0.237	0.077
-707.631	301.969	-0.166	0.312
-706.616	-34.202	-0.189	-0.106
-705.602	800.000	0.048	-0.171
-704.587	-74.562	-0.214	0.079
-703.572	137.748	-0.114	-0.152
-702.558	163.915	0.096	-0.138
-701.543	34.897	0.313	0.279
-700.529	-50.322	0.156	-0.075
-699.514	521.180	-0.039	-0.092
-698.499	-40.964	-0.097	0.051
-697.485	45.843	-0.015	0.014
-696.470	-45.596	-0.136	-0.069
-695.456	-136.311	0.214	0.025
-694.441	-79.873	0.267	-0.091
-693.426	226.536	0.069	-0.115
-692.412	38.765	0.062	0.056
-691.397	401.728	0.122	-0.261
-690.383	-200.000	0.011	0.146
-689.368	800.000	-0.033	-0.136
-688.354	800.000	0.060	-0.237
-687.339	800.000	0.017	0.060
-686.324	-200.000	0.008	-0.181
-685.310	-200.000	-0.022	-0.128
-684.295	-200.000	0.001	-0.149
-683.281	-153.421	-0.189	-0.013
-682.266	207.211	-0.149	-0.236
-681.251	-179.439	-0.458	0.010
-680.237	-17.255	-0.187	-0.120
-679.222	-28.636	-0.137	0.080
-678.208	593.827	-0.063	-0.158
-677.193	-152.114	-0.462	0.034
-676.178	800.000	0.024	0.098
-675.164	-200.000	-0.005	-0.274
-674.149	-31.528	-0.289	-0.165
-673.135	150.924	0.033	0.046
-672.120	460.848	-0.111	-0.251
-671.105	-165.382	0.137	0.006
-670.091	-200.000	0.069	-0.362
-669.076	320.163	0.040	-0.078
-668.062	800.000	-0.075	0.233
-667.047	-200.000	0.009	0.349
-666.032	458.527	0.101	0.229
-665.018	-29.162	0.222	-0.130
-664.003	161.350	0.254	-0.361
-662.989	186.971	-0.238	-0.361
-661.974	-25.336	0.148	0.089
-660.959	-13.862	-0.105	-0.069
-659.945	-200.000	-0.039	-0.189
-658.930	108.041	-0.064	0.078
-657.916	71.942	0.171	-0.180
-656.901	-4.473	0.140	-0.099
-655.886	-55.703	0.057	-0.026
-654.872	-98.892	-0.360	0.093
-653.857	-200.000	-0.017	-0.334
-652.843	800.000	0.037	0.144
-651.828	33.868	-0.226	0.199
-650.814	302.830	0.054	-0.101
-649.799	-130.389	-0.434	-0.060
-648.784	-134.314	0.309	-0.039
-647.770	29.686	-0.121	0.104
-646.755	-22.209	-0.160	-0.098
-645.741	-200.000	-0.017	-0.178
-644.726	294.398	0.073	0.136
-643.711	-36.416	0.143	0.078
-642.697	-71.738	0.144	0.055
-641.682	38.078	-0.278	0.251
-640.668	126.639	-0.211	0.272
-639.653	102.544	-0.179	-0.213
-638.638	244.053	0.047	-0.080
-637.624	-200.000	-0.042	0.226
-636.609	800.000	0.030	-0.123
-635.595	-200.000	0.001	0.027
-634.580	-120.569	0.221	-0.038
-633.565	-34.982	0.195	-0.108
-632.551	285.903	-0.060	-0.110
-631.536	149.827	-0.263	-0.362
-630.522	12.492	0.239	-0.187
-629.507	-55.554	0.049	-0.022
-628.492	76.377	-0.170	0.183
-627.478	-75.488	0.190	-0.069
-626.463	-200.000	0.032	-0.271
-625.449	800.000	0.042	-0.170
-624.434	800.000	-0.088	0.260
-623.419	-160.770	0.125	-0.007
-622.405	-39.022	0.090	0.048
-621.390	-122.398	0.052	-0.009
-620.376	-200.000	-0.010	-0.431
-619.361	-94.963	-0.207	0.057
-618.346	-36.158	0.128	0.070
-617.332	20.957	-0.082	-0.067
-616.317	-102.343	-0.150	-0.037
-615.303	-47.350	0.204	0.101
-614.288	-148.321	-0.144	0.012
-613.273	-1.114	-0.147	-0.105
-612.259	12.830	-0.171	-0.134
-611.244	54.681	0.049	0.048
-610.230	-37.346	0.048	0.026
-609.215	-19.495	-0.144	-0.090
-608.201	-200.000	0.010	-0.241
-607.186	-103.556	0.275	-0.065
-606.171	22.194	-0.127	-0.105
-605.157	126.231	0.049	0.063
-604.142	44.334	-0.257	-0.239
-603.128	-29.964	-0.222	0.128
-602.113	-127.369	-0.262	-0.039
-601.098	228.020	-0.136	-0.224
-600.084	-115.089	0.161	0.031
-599.069	800.000	0.069	-0.240
-598.055	135.052	0.066	0.087
-597.040	20.166	-0.287	0.235
-596.025	-65.948	-0.178	0.072
-595.011	-180.401	-0.059	-0.001
-593.996	-50.727	0.348	0.166
-592.982	168.258	-0.118	-0.171
-591.967	-150.114	0.079	0.006
-590.952	90.700	-0.207	0.235
-589.938	-120.883	-0.272	-0.046
-588.923	-3.829	0.292	-0.205
-587.909	-200.000	0.000	-0.185
-586.894	59.840	-0.176	-0.176
-585.879	-145.183	0.208	0.019
-584.865	-197.044	0.325	-0.002
-583.850	75.316	-0.076	0.081
-582.836	94.199	0.097	0.111
-581.821	-200.000	-0.031	0.239
-580.806	31.167	0.216	-0.187
-579.792	-90.826	0.215	0.063
-578.777	-29.692	0.066	-0.038
-577.763	-7.228	-0.115	0.079
-576.748	10.035	-0.229	-0.176
-575.733	-153.636	-0.178	-0.012
-574.719	2.807	-0.289	-0.212
-573.704	-200.000	0.011	-0.203
-572.690	-17.052	0.286	0.183
-571.675	62.737	-0.261	0.265
-570.661	-139.424	-0.126	-0.014
-569.646	-138.782	0.270	-0.030
-568.631	-12.510	-0.198	-0.131
-567.617	-200.000	0.008	0.147
-566.602	340.305	-0.197	-0.390
-565.588	252.325	-0.158	0.272
-564.573	-9.460	0.090	-0.061
-563.558	12.834	0.120	0.094
-562.544	800.000	-0.089	0.293
-561.529	-34.781	-0.091	0.050
-560.515	300.891	-0.032	0.060
-559.500	-115.125	-0.086	-0.016
-558.485	-64.384	-0.478	-0.197
-557.471	-105.938	-0.282	-0.064
-556.456	237.776	-0.044	0.073
-555.442	-200.000	0.104	-0.475
-554.427	192.446	0.349	-0.534
-553.412	36.438	-0.121	-0.108
-552.398	-200.000	0.034	-0.151
-551.383	-8.177	-0.230	0.157
-550.369	258.230	0.057	0.099
-549.354	11.565	0.126	-0.098
-548.339	-142.230	-0.051	0.005
-547.325	-200.000	-0.001	-0.252
-546.310	-96.503	0.309	-0.083
-545.296	-115.733	-0.218	-0.041
-544.281	-92.362	-0.198	0.056
-543.266	-156.464	0.160	-0.010
-542.252	51.136	-0.189	-0.181
-541.237	69.703	-0.112	-0.117
-540.223	52.266	0.280	0.270
-539.208	-68.686	-0.100	-0.039
-538.193	-200.000	-0.084	0.394
-537.179	620.415	-0.028	-0.072
-536.164	164.003	0.200	-0.284
-535.150	-200.000	-0.042	-0.393
-534.135	31.152	-0.056	0.049
-533.121	800.000	0.062	0.234
-532.106	-200.000	0.005	-0.113
-531.091	-0.413	-0.243	-0.175
-530.077	-77.411	-0.170	0.060
-529.062	-200.000	0.038	-0.179
-528.048	-200.000	0.019	-0.155
-527.033	-111.338	-0.159	-0.033
-526.018	47.200	0.265	-0.249
-525.004	-23.810	-0.264	-0.160
-523.989	194.569	-0.234	0.358
-522.975	-129.278	0.220	0.031
-521.960	53.726	-0.073	-0.071
-520.945	147.904	0.097	0.132
-519.931	65.467	0.168	0.172
-518.916	94.811	-0.179	-0.205
-517.902	-56.112	-0.121	0.055
-516.887	28.649	0.231	-0.198
-515.872	-159.514	-0.179	0.010
-514.858	-131.236	-0.195	0.026
-513.843	-110.029	0.187	0.040
-512.829	-152.132	-0.356	-0.026
-511.814	-129.101	0.254	0.036
-510.799	71.261	0.019	0.020
-509.785	-149.415	-0.319	0.026
-508.770	321.383	0.130	-0.249
-507.756	800.000	0.055	0.180
-506.741	800.000	-0.158	0.485
-505.726	206.655	-0.074	0.117
-504.712	567.950	0.110	0.271
-503.697	800.000	-0.051	-0.174
-502.683	-87.902	-0.072	-0.022
-501.668	209.303	-0.065	-0.103
-500.653	20.457	0.061	-0.050
-499.639	53.479	0.142	0.137
-498.624	-84.236	0.147	0.047
-497.610	-200.000	-0.006	0.129
-496.595	-11.189	0.214	-0.142
-495.581	-200.000	-0.014	-0.089
-494.566	-200.000	0.054	0.241
-493.551	233.010	-0.144	-0.238
-492.537	-128.439	0.269	0.039
-491.522	-173.051	-0.160	0.005
-490.508	17.643	0.102	-0.082
-489.493	-125.838	-0.382	0.058
-488.478	-32.231	0.101	0.057
-487.464	32.062	0.035	0.030
-486.449	135.191	-0.089	-0.117
-485.435	-83.847	0.150	-0.048
-484.420	800.000	0.057	-0.240
-483.405	-122.088	-0.066	-0.011
-482.391	66.590	-0.136	-0.140
-481.376	-100.530	-0.253	0.063
-480.362	-39.375	-0.170	-0.090
-479.347	-74.593	-0.239	-0.087
-478.332	-103.793	-0.166	0.039
-477.318	-43.047	-0.178	-0.091
-476.303	52.640	0.069	0.067
-475.289	-68.835	-0.165	0.064
-474.274	183.113	-0.170	-0.253
-473.259	216.001	-0.093	0.150
-472.245	-44.360	0.213	-0.108
-471.230	-115.792	-0.155	0.029
-470.216	728.837	-0.040	-0.108
-469.201	139.045	-0.106	-0.140
-468.186	-200.000	-0.044	0.199
-467.172	55.047	0.053	0.052
-466.157	-103.770	0.238	0.056
-465.143	-200.000	0.069	0.395
-464.128	64.750	-0.215	-0.219
-463.113	-40.174	-0.132	-0.069
-462.099	8.211	0.166	-0.126
-461.084	-153.897	-0.385	0.026
-460.070	-154.542	0.260	0.018
-459.055	364.125	-0.149	0.302
-458.040	-200.000	0.025	0.178
-457.026	-200.000	-0.016	0.201
-456.011	83.659	-0.117	-0.128
-454.997	300.012	0.058	0.107
-453.982	580.501	-0.086	0.212
-452.968	126.632	0.177	0.227
-451.953	-17.093	0.200	0.127
-450.938	-138.687	-0.183	-0.020
-449.924	130.337	0.201	0.259
-448.909	118.416	0.083	0.104
-447.895	48.008	0.168	0.158
-446.880	-131.785	0.051	0.007
-445.865	376.448	-0.119	0.244
-444.851	800.000	0.105	-0.307
-443.836	444.875	-0.069	-0.153
-442.822	-108.440	-0.488	-0.106
-441.807	112.867	-0.081	0.099
-440.792	-86.406	0.112	0.035
-439.778	204.709	0.040	0.063
-438.763	-150.832	0.093	0.007
-437.749	138.843	-0.274	0.363
-436.734	-23.936	0.203	0.122
-435.719	142.742	0.115	-0.154
-434.705	-148.359	-0.124	-0.010
-433.690	800.000	-0.055	-0.225
-432.676	-34.948	0.089	0.049
-431.661	171.455	0.152	-0.220
-430.646	-143.765	-0.184	-0.018
-429.632	569.657	-0.070	-0.172
-428.617	120.919	-0.115	0.144
-427.603	12.581	0.190	-0.147
-426.588	800.000	-0.062	0.238
-425.573	749.440	0.102	0.276
-424.559	647.169	-0.045	0.116
-423.544	691.602	0.036	0.094
-422.530	9.195	-0.004	-0.003
-421.515	11.598	0.212	0.164
-420.500	-73.638	0.252	-0.092
-419.486	-35.840	0.135	-0.074
-418.471	-200.000	0.005	0.043
-417.457	-200.000	0.031	-0.268
-416.442	-8.814	-0.177	0.119
-415.428	29.813	0.109	-0.094
-414.413	25.529	0.168	0.141
-413.398	577.855	0.047	-0.115
-412.384	527.120	0.064	-0.152
-411.369	-57.340	-0.097	-0.043
-410.355	202.870	0.275	0.427
-409.340	-200.000	0.094	-0.454
-408.325	-200.000	0.012	0.071
-407.311	27.858	-0.097	0.082
-406.296	39.000	0.136	-0.122
-405.282	8.168	0.175	0.132
-404.267	-88.444	0.184	0.055
-403.252	-175.639	-0.350	0.010
-402.238	-33.801	-0.204	-0.113
-401.223	49.748	-0.185	-0.175
-400.209	-182.150	-0.131	0.002
-399.194	-69.155	0.431	0.167
-398.179	-200.000	0.006	-0.240
-397.165	-51.218	-0.212	-0.100
-396.150	-21.040	0.352	-0.216
-395.136	233.096	-0.228	-0.377
-394.121	-23.248	0.363	0.220
-393.106	42.498	0.059	0.054
-392.092	322.771	0.078	0.149
-391.077	184.560	0.182	0.271
-390.063	86.884	-0.092	-0.102
-389.048	22.321	0.081	-0.066
-388.033	323.581	0.125	-0.240
-387.019	-76.720	0.312	0.110
-386.004	300.786	-0.133	0.246
-384.990	197.779	-0.136	-0.209
-383.975	193.323	-0.087	-0.132
-382.960	-58.648	0.151	0.066
-381.946	661.411	-0.016	0.041
-380.931	51.519	-0.158	-0.151
-379.917	-130.988	-0.188	-0.025
-378.902	452.202	-0.064	0.142
-377.888	-172.525	0.096	0.003
-376.873	160.992	-0.046	-0.065
-375.858	347.108	0.173	-0.342
-374.844	-200.000	0.003	0.016
-373.829	-131.228	0.313	-0.042
-372.815	66.685	0.128	0.130
-371.800	-114.472	0.062	0.012
-370.785	-87.006	0.145	0.044
-369.771	397.657	0.157	0.331
-368.756	230.201	0.057	0.093
-367.742	-119.902	0.095	-0.016
-366.727	-200.000	-0.046	-0.368
-365.712	-147.769	-0.110	0.009
-364.698	-183.146	-0.099	-0.002
-363.683	202.876	-0.065	-0.101
-362.669	-194.706	0.149	-0.001
-361.654	415.060	-0.130	0.279
-360.639	-50.716	0.198	0.094
-359.625	662.335	0.050	-0.130
-358.610	734.756	0.040	-0.108
-357.596	-200.000	0.011	-0.252
-356.581	-200.000	-0.002	0.085
-355.566	-81.466	0.203	-0.067
-354.552	134.059	-0.142	0.185
-353.537	60.012	-0.031	-0.031
-352.523	-106.454	0.484	-0.108
-351.508	-125.407	-0.126	-0.019
-350.493	-200.000	-0.028	-0.168
-349.479	800.000	-0.116	0.334
-348.464	-86.936	-0.270	0.083
-347.450	-200.000	-0.052	0.350
-346.435	144.030	0.134	0.179
-345.420	-142.668	0.227	-0.022
-344.406	256.761	-0.018	-0.031
-343.391	215.123	-0.053	0.084
-342.377	-149.606	0.258	-0.020
-341.362	120.868	-0.065	0.081
-340.348	-200.000	-0.027	0.216
-339.333	217.311	0.282	0.451
-338.318	-126.062	0.372	0.056
-337.304	459.534	0.074	0.166
-336.289	-1.874	-0.124	-0.087
-335.275	-95.424	-0.426	-0.115
-334.260	-121.727	0.236	0.039
-333.245	574.809	0.066	-0.161
-332.231	119.995	-0.118	0.147
-331.216	-92.055	0.317	-0.090
-330.202	-196.440	0.085	-0.001
-329.187	773.968	-0.074	0.202
-328.172	262.566	0.054	0.093
-327.158	73.976	0.102	0.107
-326.143	-104.071	-0.176	-0.041
-325.129	121.063	0.088	0.110
-324.114	-76.858	-0.109	0.038
-323.099	-90.913	-0.508	0.147
-322.085	-149.642	-0.028	0.002
-321.070	-149.839	-0.067	-0.005
-320.056	-200.000	0.022	0.155
-319.041	-164.950	0.190	-0.009
-318.026	-94.158	-0.144	-0.040
-317.012	93.225	-0.191	0.217
-315.997	189.435	-0.161	0.242
-314.983	800.000	-0.071	-0.254
-313.968	-200.000	-0.042	-0.000
-312.953	-12.611	0.265	-0.174
-311.939	-200.000	0.057	0.322
-310.924	-103.930	0.527	-0.123
-309.910	304.444	0.146	-0.272
-308.895	255.767	-0.009	0.016
-307.880	-200.000	-0.044	-0.269
-306.866	-200.000	-0.013	0.066
-305.851	-98.127	-0.150	0.039
-304.837	383.981	0.114	-0.235
-303.822	31.245	0.224	0.193
-302.807	-6.346	-0.317	0.217
-301.793	63.747	0.089	-0.090
-300.778	-200.000	0.022	-0.225
-299.764	-90.163	0.419	-0.122
-298.749	-41.552	0.218	0.112
-297.735	800.000	0.038	-0.165
-296.720	165.568	0.108	-0.153
-295.705	-78.096	-0.370	0.128
-294.691	-68.197	-0.117	-0.046
-293.676	-109.929	-0.248	-0.052
-292.662	49.496	-0.041	-0.038
-291.647	43.666	-0.154	-0.141
-290.632	52.137	0.113	-0.107
-289.618	800.000	0.092	0.270
-288.603	37.500	0.128	0.113
-287.589	-47.441	-0.157	0.076
-286.574	19.237	0.201	0.162
-285.559	-200.000	-0.022	-0.220
-284.545	-170.382	-0.117	0.004
-283.530	-135.482	0.110	-0.013
-282.516	-148.131	0.486	-0.040
-281.501	157.205	-0.019	-0.027
-280.486	212.878	-0.053	-0.084
-279.472	-93.431	-0.408	0.113
-278.457	800.000	-0.034	0.122
-277.443	-130.088	0.173	-0.024
-276.428	4.907	-0.310	-0.228
-275.413	687.505	-0.054	0.141
-274.399	-142.319	0.377	-0.037
-273.384	36.334	0.121	-0.107
-272.370	-145.937	-0.285	0.025
-271.355	88.422	0.052	0.058
-270.340	16.752	0.051	0.041
-269.326	-4.350	0.327	0.226
-268.311	-147.506	-0.249	0.021
-267.297	-37.599	0.365	-0.195
-266.282	-200.000	0.001	-0.025
-265.267	-123.227	-0.179	-0.029
-264.253	128.569	0.028	-0.036
-263.238	-32.190	-0.215	0.120
-262.224	-115.963	-0.286	0.053
-261.209	97.529	-0.082	0.094
-260.195	140.095	0.120	0.158
-259.180	-25.566	0.125	-0.074
-258.165	56.068	-0.326	0.317
-257.151	-112.316	0.212	0.043
-256.136	-117.649	0.168	-0.030
-255.122	-200.000	-0.045	0.345
-254.107	-110.958	-0.321	0.066
-253.092	122.228	-0.037	-0.046
-252.078	-200.000	0.029	0.271
-251.063	695.751	0.149	0.392
-250.049	-200.000	0.029	0.240
-249.034	289.090	0.036	0.065
-248.019	-200.000	0.457	0.001
-247.005	260.698	0.172	0.298
-245.990	-171.179	-0.054	-0.002
-244.976	-200.000	0.023	-0.186
-243.961	371.447	-0.013	0.027
-242.946	-144.828	-0.113	-0.010
-241.932	60.136	0.141	0.139
-240.917	-19.140	0.273	-0.170
-239.903	8.897	-0.116	-0.088
-238.888	-133.432	0.196	-0.025
-237.873	72.870	-0.202	-0.210
-236.859	730.869	-0.025	-0.067
-235.844	62.534	-0.262	-0.261
-234.830	-128.536	-0.197	-0.028
-233.815	800.000	0.102	0.298
-232.800	-182.126	-0.127	0.002
-231.786	-78.143	0.273	-0.094
-230.771	-149.510	-0.210	0.017
-229.757	-5.221	0.233	-0.160
-228.742	244.061	-0.252	0.422
-227.727	800.000	-0.047	-0.148
-226.713	-135.069	0.308	0.037
-225.698	-200.000	0.038	-0.315
-224.684	800.000	0.067	-0.188
-223.669	154.503	0.179	0.246
-222.655	61.856	-0.060	-0.059
-221.640	28.761	0.294	0.248
-220.625	-200.000	-0.000	0.151
-219.611	130.412	0.129	-0.165
-218.596	681.458	0.191	0.496
-217.582	800.000	0.078	0.275
-216.567	800.000	-0.128	-0.443
-215.552	-12.021	-0.349	0.228
-214.538	-60.969	0.137	0.058
-213.523	139.570	-0.140	-0.184
-212.509	-200.000	-0.012	-0.115
-211.494	-200.000	0.042	-0.299
-210.479	16.613	0.079	0.062
-209.465	800.000	-0.011	0.045
-208.450	346.932	-0.159	0.312
-207.436	-62.232	-0.112	-0.047
-206.421	-60.392	-0.189	0.080
-205.406	80.843	0.127	0.137
-204.392	-87.817	-0.202	0.061
-203.377	244.892	-0.122	-0.205
-202.363	83.361	0.020	0.022
-201.348	33.542	0.317	-0.275
-200.333	-200.000	0.022	-0.127
-199.319	800.000	0.053	-0.222
-198.304	-30.969	-0.132	0.075
-197.290	-78.100	-0.201	-0.069
-196.275	800.000	-0.085	-0.257
-195.260	64.114	-0.206	-0.207
-194.246	800.000	0.066	0.227
-193.231	-138.298	0.135	-0.015
-192.217	-200.000	0.063	-0.427
-191.202	-129.217	0.621	0.086
-190.187	800.000	-0.072	0.206
-189.173	800.000	0.061	0.236
-188.158	-88.218	-0.176	0.053
-187.144	50.777	0.058	-0.054
-186.129	27.256	-0.264	-0.221
-185.114	-77.589	-0.040	-0.014
-184.100	-114.661	-0.232	0.044
-183.085	93.253	0.151	-0.171
-182.071	-121.219	0.266	0.044
-181.056	513.129	-0.124	0.288
-180.042	104.348	0.050	-0.059
-179.027	198.976	0.163	-0.249
-178.012	-65.559	-0.143	-0.057
-176.998	81.247	0.144	0.155
-175.983	-155.554	0.153	0.010
-174.969	800.000	-0.076	0.264
-173.954	-122.367	-0.207	0.034
-172.939	-67.458	0.142	0.056
-171.925	-86.555	0.161	0.049
-170.910	161.752	-0.161	0.225
-169.896	-99.891	0.274	0.068
-168.881	102.817	0.105	0.122
-167.866	-61.782	-0.212	-0.089
-166.852	-56.733	-0.206	-0.091
-165.837	-102.931	0.399	0.094
-164.823	800.000	0.045	-0.138
-163.808	800.000	-0.066	0.220
-162.793	256.571	-0.067	-0.114
-161.779	5.220	-0.240	0.176
-160.764	100.399	0.146	-0.169
-159.750	-200.000	-0.010	-0.070
-158.735	344.548	0.143	-0.280
-157.720	-63.587	-0.055	-0.023
-156.706	-135.050	0.370	-0.044
-155.691	-169.491	-0.131	0.005
-154.677	150.243	0.155	-0.210
-153.662	-151.706	-0.382	0.028
-152.647	-163.128	-0.214	-0.010
-151.633	80.558	-0.082	0.087
-150.618	-108.024	-0.326	-0.070
-149.604	197.632	-0.043	-0.065
-148.589	800.000	0.078	0.233
-147.574	-110.738	-0.217	-0.045
-146.560	-161.296	0.099	-0.005
-145.545	275.628	-0.113	0.199
-144.531	-176.012	0.277	-0.007
-143.516	241.774	0.148	0.246
-142.502	122.112	0.092	0.114
-141.487	-42.600	-0.471	0.239
-140.472	9.722	0.244	0.184
-139.458	48.935	0.129	0.121
-138.443	86.238	-0.219	-0.240
-137.429	483.410	0.141	0.320
-136.414	-109.376	0.340	0.072
-135.399	-200.000	0.023	-0.125
-134.385	-200.000	0.026	0.302
-133.370	-145.026	0.314	0.028
-132.356	490.783	0.143	0.326
-131.341	160.513	-0.194	-0.269
-130.326	251.182	-0.088	-0.148
-129.312	40.834	0.103	0.092
-128.297	-133.256	-0.127	0.016
-127.283	-200.000	-0.057	-0.274
-126.268	560.783	0.192	-0.461
-125.253	-67.695	-0.094	0.037
-124.239	103.653	-0.214	-0.250
-123.224	-178.973	-0.153	0.003
-122.210	800.000	-0.029	0.106
-121.195	681.747	0.083	0.214
