DTS Sentinel unit serial number:	SN413079Multiplexer serial number:	ORYXHardware model number:	OX4-SRSoftware version number:	ORYX F/W v4.00 Oryx Data Collector v3.7.2.0data status	okinstallation	princeton_trtdifferential loss correction	single-endedforward channel	channel 2reverse channel	N/Adate	2019/09/15time	00:55:35forward acquisition time	60.00reverse acquisition time	0.00gamma	496.2192k internal	0.2324k external	0.2324temperature offset calibration	1.0039default loss term (dB/km)	0.3790temperature slope calibration	1.0000multiplexer offset coefficient	1.0000multiplexer slope coefficient	1.0000fibre end	0.00T internal ref (°C)	32.03T ext. ref 1 (°C)	4.54T ext. ref 2 (°C)	26.92length (m)	temperature (°C)	Stokes	anti-Stokes-747.200	800.000	-0.015	0.063
-746.185	160.043	0.109	0.153
-745.171	-153.315	0.203	-0.014
-744.156	-200.000	0.037	0.281
-743.142	-52.694	-0.192	0.090
-742.127	4.559	-0.065	0.048
-741.112	230.645	0.113	-0.186
-740.098	-83.124	0.183	-0.059
-739.083	800.000	-0.088	-0.261
-738.069	-57.042	-0.196	0.087
-737.054	-24.584	-0.030	0.018
-736.039	33.353	-0.168	0.147
-735.025	-30.527	0.174	0.100
-734.010	-152.565	-0.268	-0.019
-732.996	-113.974	0.023	0.005
-731.981	-200.000	-0.034	-0.192
-730.966	21.981	0.110	-0.091
-729.952	195.482	-0.144	-0.221
-728.937	-142.872	-0.173	-0.017
-727.923	-156.403	-0.211	0.013
-726.908	44.366	-0.021	0.020
-725.894	5.758	0.126	-0.094
-724.879	-200.000	0.008	-0.168
-723.864	491.084	-0.105	0.243
-722.850	-200.000	0.029	0.342
-721.835	-200.000	0.028	-0.136
-720.821	-122.693	-0.367	-0.060
-719.806	800.000	-0.065	0.192
-718.791	-31.436	0.107	-0.061
-717.777	-200.000	0.037	-0.222
-716.762	-132.386	-0.232	-0.030
-715.748	-200.000	-0.071	-0.331
-714.733	-104.709	0.131	0.030
-713.718	231.569	0.110	0.182
-712.704	-82.365	-0.219	-0.072
-711.689	515.002	0.075	0.177
-710.675	-45.070	-0.052	0.026
-709.660	-78.495	0.216	0.074
-708.645	-39.484	0.087	-0.046
-707.631	-200.000	0.358	0.001
-706.616	-200.000	0.027	0.453
-705.602	163.334	-0.275	-0.390
-704.587	-106.670	-0.237	0.053
-703.572	-70.634	-0.182	0.070
-702.558	693.285	0.066	-0.175
-701.543	289.224	0.108	-0.197
-700.529	406.983	0.018	0.038
-699.514	-18.936	-0.192	0.121
-698.499	143.481	-0.267	-0.358
-697.485	-200.000	-0.056	0.270
-696.470	731.318	-0.039	-0.105
-695.456	-58.317	0.232	-0.102
-694.441	130.939	0.113	0.146
-693.426	-152.529	0.211	0.015
-692.412	-158.664	-0.055	0.003
-691.397	360.832	-0.105	-0.211
-690.383	-200.000	0.038	-0.262
-689.368	-200.000	-0.032	-0.378
-688.354	-40.866	-0.175	-0.091
-687.339	217.630	-0.184	-0.296
-686.324	125.867	0.163	0.207
-685.310	95.637	-0.165	0.189
-684.295	-88.254	-0.092	-0.028
-683.281	14.247	-0.092	0.072
-682.266	-21.222	0.109	0.067
-681.251	-200.000	0.061	-0.282
-680.237	316.964	0.082	-0.155
-679.222	800.000	0.081	-0.294
-678.208	570.936	-0.102	-0.250
-677.193	-54.561	0.285	-0.130
-676.178	358.042	-0.068	-0.137
-675.164	-200.000	-0.010	-0.280
-674.149	374.847	-0.051	0.105
-673.135	-138.408	-0.268	-0.030
-672.120	-200.000	-0.016	-0.281
-671.105	1.614	0.243	0.176
-670.091	5.826	0.061	0.046
-669.076	-54.914	-0.093	-0.042
-668.062	145.137	-0.197	-0.265
-667.047	104.701	0.015	0.018
-666.032	-116.875	0.248	-0.046
-665.018	50.960	0.160	0.153
-664.003	187.765	0.031	-0.047
-662.989	-44.932	0.058	-0.029
-661.974	64.271	-0.029	0.029
-660.959	94.519	0.053	-0.061
-659.945	-98.742	0.423	0.108
-658.930	27.162	0.212	-0.179
-657.916	51.898	0.159	0.153
-656.901	-18.015	0.309	-0.195
-655.886	-123.210	0.047	0.008
-654.872	-98.003	-0.226	0.059
-653.857	563.900	0.150	-0.365
-652.843	-126.906	-0.375	-0.056
-651.828	68.044	0.211	0.217
-650.814	361.354	-0.061	-0.123
-649.799	-65.661	0.082	0.033
-648.784	-200.000	0.016	-0.186
-647.770	58.431	-0.172	-0.169
-646.755	-0.493	-0.106	-0.076
-645.741	-127.414	-0.229	-0.033
-644.726	98.550	-0.213	-0.247
-643.711	596.142	0.020	0.049
-642.697	-75.596	-0.256	-0.092
-641.682	580.839	0.029	-0.071
-640.668	61.219	0.215	0.215
-639.653	-6.542	-0.118	-0.081
-638.638	167.468	0.084	-0.120
-637.624	155.385	-0.153	-0.212
-636.609	-200.000	0.008	0.283
-635.595	800.000	-0.084	-0.302
-634.580	65.131	0.214	-0.217
-633.565	35.655	-0.039	-0.034
-632.551	-16.929	-0.225	-0.143
-631.536	800.000	0.077	-0.298
-630.522	-49.025	-0.293	-0.141
-629.507	800.000	-0.051	-0.183
-628.492	565.927	-0.124	-0.303
-627.478	-68.325	0.051	0.020
-626.463	17.764	0.183	-0.146
-625.449	-200.000	-0.049	-0.235
-624.434	-149.495	0.232	-0.018
-623.419	-137.529	0.160	-0.018
-622.405	-61.576	0.040	-0.017
-621.390	-200.000	0.002	-0.093
-620.376	-200.000	0.003	-0.055
-619.361	-200.000	0.018	-0.121
-618.346	-143.836	0.183	-0.017
-617.332	38.386	0.092	0.083
-616.317	-33.853	0.083	-0.046
-615.303	-109.237	0.197	0.042
-614.288	55.675	-0.105	-0.102
-613.273	1.003	-0.259	-0.187
-612.259	-200.000	0.006	-0.047
-611.244	-3.025	0.031	-0.022
-610.230	-150.806	0.180	0.014
-609.215	82.367	0.150	-0.163
-608.201	-17.150	-0.042	0.027
-607.186	800.000	0.014	-0.042
-606.171	800.000	0.016	-0.050
-605.157	-36.675	0.174	-0.094
-604.142	443.004	-0.120	0.264
-603.128	-173.648	-0.200	-0.006
-602.113	-200.000	-0.011	-0.140
-601.098	-200.000	-0.025	-0.121
-600.084	-99.794	-0.083	-0.021
-599.069	-75.951	0.167	0.059
-598.055	-7.112	0.320	0.218
-597.040	-200.000	-0.052	-0.276
-596.025	-200.000	-0.006	0.108
-595.011	-200.000	-0.072	0.323
-593.996	-131.962	0.075	-0.010
-592.982	-104.426	-0.327	-0.076
-591.967	-2.596	0.104	0.073
-590.952	-200.000	-0.057	0.314
-589.938	280.631	-0.137	-0.247
-588.923	-200.000	-0.059	0.428
-587.909	-61.269	-0.139	-0.059
-586.894	800.000	-0.033	-0.138
-585.879	800.000	0.087	-0.295
-584.865	800.000	-0.046	-0.200
-583.850	-200.000	-0.060	0.321
-582.836	-29.501	-0.242	0.139
-581.821	800.000	0.078	0.276
-580.806	-182.547	0.230	-0.004
-579.792	800.000	-0.022	-0.065
-578.777	-200.000	-0.001	-0.410
-577.763	-176.510	0.016	0.000
-576.748	81.867	-0.061	0.067
-575.733	292.256	-0.107	-0.195
-574.719	70.830	0.374	-0.388
-573.704	210.042	0.141	-0.222
-572.690	-200.000	0.013	-0.190
-571.675	138.895	0.227	-0.299
-570.661	99.944	0.087	-0.101
-569.646	800.000	-0.071	-0.211
-568.631	-89.937	0.162	0.048
-567.617	-80.542	-0.463	0.155
-566.602	-200.000	-0.034	-0.166
-565.588	87.634	0.056	-0.062
-564.573	-49.336	-0.230	0.110
-563.558	-79.160	0.269	-0.091
-562.544	58.616	-0.144	0.142
-561.529	135.033	0.150	-0.195
-560.515	499.390	0.109	0.251
-559.500	800.000	0.038	0.107
-558.485	300.780	-0.101	0.187
-557.471	-200.000	-0.015	-0.495
-556.456	-70.132	-0.315	0.120
-555.442	-92.942	0.064	0.018
-554.427	123.352	0.064	0.080
-553.412	-61.653	0.364	0.153
-552.398	-200.000	0.042	-0.242
-551.383	-110.029	0.025	0.005
-550.369	57.562	-0.166	0.162
-549.354	95.759	-0.035	0.041
-548.339	-157.281	0.270	-0.016
-547.325	-86.517	0.163	-0.050
-546.310	23.256	-0.195	-0.160
-545.296	-60.117	-0.198	-0.084
-544.281	-200.000	-0.045	0.265
-543.266	256.998	-0.140	0.242
-542.252	-200.000	-0.014	0.107
-541.237	-60.017	-0.217	0.093
-540.223	47.583	0.019	0.018
-539.208	120.912	-0.063	-0.078
-538.193	-120.501	-0.184	-0.031
-537.179	128.041	0.114	0.146
-536.164	-87.555	0.178	0.054
-535.150	223.178	0.125	-0.201
-534.135	120.241	-0.065	0.080
-533.121	117.943	-0.176	0.217
-532.106	210.425	-0.100	0.157
-531.091	-90.590	-0.092	-0.027
-530.077	-189.257	0.094	0.001
-529.062	129.535	-0.231	0.296
-528.048	-8.356	0.283	0.191
-527.033	-91.887	0.231	-0.065
-526.018	-200.000	0.032	0.155
-525.004	-32.726	0.123	-0.068
-523.989	566.588	-0.121	-0.295
-522.975	-69.034	-0.462	-0.178
-521.960	-200.000	-0.004	0.135
-520.945	-75.446	0.319	0.114
-519.931	-117.845	-0.011	-0.002
-518.916	494.398	0.043	-0.098
-517.902	-32.882	-0.219	-0.122
-516.887	46.715	0.174	-0.162
-515.872	-79.948	0.158	0.053
-514.858	-35.341	-0.147	-0.080
-513.843	-10.693	-0.094	0.063
-512.829	800.000	0.082	-0.309
-511.814	-200.000	0.011	-0.384
-510.799	760.297	0.030	0.081
-509.785	60.246	-0.090	0.089
-508.770	349.214	0.078	0.155
-507.756	-41.076	0.225	0.116
-506.741	-132.204	-0.533	-0.069
-505.726	379.486	-0.035	0.072
-504.712	22.381	0.024	-0.019
-503.697	46.837	0.108	-0.100
-502.683	-200.000	0.029	0.285
-501.668	22.868	-0.242	-0.198
-500.653	159.618	-0.120	-0.167
-499.639	-17.471	0.176	0.111
-498.624	213.955	-0.127	0.200
-497.610	103.235	0.310	0.363
-496.595	-48.324	0.066	0.032
-495.581	5.254	-0.139	-0.102
-494.566	276.990	0.065	-0.116
-493.551	-126.207	0.216	-0.032
-492.537	84.995	-0.221	-0.243
-491.522	-154.101	-0.150	-0.010
-490.508	10.177	0.280	0.213
-489.493	-62.340	0.457	0.190
-488.478	-171.488	-0.200	0.007
-487.464	-166.852	-0.175	-0.007
-486.449	-29.155	-0.210	-0.120
-485.435	-169.303	0.082	-0.003
-484.420	800.000	-0.068	-0.217
-483.405	-135.501	0.190	-0.023
-482.391	6.051	0.209	0.155
-481.376	75.103	-0.158	-0.166
-480.362	800.000	0.067	0.195
-479.347	374.753	-0.078	-0.159
-478.332	-140.759	0.295	-0.030
-477.318	-137.380	0.301	-0.034
-476.303	-114.910	-0.072	0.014
-475.289	-200.000	0.101	0.447
-474.274	425.709	0.134	0.287
-473.259	-71.023	0.118	-0.044
-472.245	-98.869	-0.421	0.107
-471.230	-200.000	-0.079	-0.529
-470.216	-121.942	0.160	-0.026
-469.201	-93.402	-0.198	-0.055
-468.186	-54.139	0.296	-0.135
-467.172	-200.000	0.001	-0.244
-466.157	-47.384	-0.146	0.071
-465.143	-10.646	-0.086	0.057
-464.128	-20.325	-0.244	-0.150
-463.113	635.765	-0.074	-0.187
-462.099	-46.531	-0.020	-0.010
-461.084	285.767	0.100	-0.180
-460.070	100.790	-0.133	0.154
-459.055	-131.823	-0.371	0.048
-458.040	-200.000	-0.074	0.328
-457.026	-28.823	-0.232	-0.133
-456.011	-200.000	0.006	-0.061
-454.997	300.014	-0.125	0.229
-453.982	-56.345	0.318	-0.141
-452.968	-102.077	-0.240	0.058
-451.953	-130.309	0.196	0.027
-450.938	-183.269	0.241	-0.004
-449.924	-200.000	0.008	-0.163
-448.909	-124.902	-0.323	-0.050
-447.895	9.298	-0.230	-0.174
-446.880	-158.046	-0.277	0.016
-445.865	800.000	-0.010	0.039
-444.851	250.217	-0.028	0.048
-443.836	21.821	-0.113	-0.092
-442.822	-200.000	0.010	-0.089
-441.807	-30.324	-0.301	-0.170
-440.792	-73.567	-0.194	-0.071
-439.778	608.252	0.024	-0.060
-438.763	-152.085	-0.433	0.031
-437.749	18.907	0.164	0.131
-436.734	-200.000	-0.022	0.452
-435.719	2.981	0.087	0.063
-434.705	-80.984	0.156	0.052
-433.690	304.720	0.059	0.110
-432.676	251.217	-0.129	0.219
-431.661	-52.033	-0.245	-0.114
-430.646	-81.663	-0.331	0.108
-429.632	-57.540	-0.253	-0.111
-428.617	800.000	0.083	0.337
-427.603	-33.991	-0.133	0.073
-426.588	444.519	-0.112	-0.244
-425.573	800.000	-0.034	-0.135
-424.559	-89.857	-0.188	0.055
-423.544	-20.056	0.269	0.165
-422.530	235.770	-0.198	-0.327
-421.515	800.000	0.085	-0.281
-420.500	164.492	0.149	0.210
-419.486	-134.108	-0.117	-0.014
-418.471	130.043	-0.148	-0.189
-417.457	-200.000	-0.025	-0.140
-416.442	205.291	0.042	0.065
-415.428	-88.250	0.280	-0.084
-414.413	-96.635	0.190	0.050
-413.398	-146.355	-0.225	-0.020
-412.384	-119.843	0.351	0.060
-411.369	-88.298	-0.261	-0.078
-410.355	-42.305	0.018	0.009
-409.340	132.587	-0.236	0.303
-408.325	-116.942	0.296	0.054
-407.311	-36.421	-0.240	-0.129
-406.296	6.176	-0.121	0.089
-405.282	-200.000	0.283	0.000
-404.267	-0.209	0.120	-0.085
-403.252	352.110	0.129	-0.254
-402.238	232.558	-0.038	0.062
-401.223	-84.859	0.359	-0.112
-400.209	316.850	-0.115	-0.216
-399.194	-123.455	0.193	0.031
-398.179	-153.996	-0.194	-0.013
-397.165	-200.000	0.006	-0.121
-396.150	-200.000	-0.007	-0.064
-395.136	-200.000	0.014	0.297
-394.121	194.173	0.283	0.426
-393.106	-200.000	0.007	0.116
-392.092	738.979	-0.112	0.300
-391.077	136.273	-0.071	0.092
-390.063	-200.000	0.039	-0.344
-389.048	-165.167	-0.248	0.011
-388.033	-131.324	0.283	-0.037
-387.019	-40.642	0.160	0.083
-386.004	201.844	-0.214	-0.328
-384.990	171.178	-0.074	0.106
-383.975	-142.599	0.095	-0.009
-382.960	52.332	-0.084	0.080
-381.946	3.605	0.131	-0.095
-380.931	-173.235	-0.016	-0.000
-379.917	800.000	0.030	0.121
-378.902	-3.624	0.147	-0.102
-377.888	11.059	0.121	-0.092
-376.873	84.306	-0.120	-0.130
-375.858	-81.748	0.267	0.087
-374.844	48.350	-0.176	0.164
-373.829	767.482	-0.171	0.462
-372.815	-80.208	-0.183	0.061
-371.800	-87.470	-0.242	0.073
-370.785	606.110	0.090	0.224
-369.771	-200.000	0.055	0.260
-368.756	-105.766	-0.273	-0.061
-367.742	1.732	0.204	0.146
-366.727	-200.000	-0.047	0.222
-365.712	-160.011	0.302	0.016
-364.698	-45.020	-0.292	-0.145
-363.683	-200.000	-0.009	0.181
-362.669	-79.094	-0.085	0.029
-361.654	-200.000	-0.006	-0.322
-360.639	36.728	0.295	0.259
-359.625	800.000	-0.077	-0.220
-358.610	205.218	-0.252	0.389
-357.596	71.061	0.153	-0.158
-356.581	131.786	0.121	-0.155
-355.566	479.142	-0.093	-0.208
-354.552	468.671	-0.122	-0.271
-353.537	63.825	-0.066	0.066
-352.523	-200.000	-0.046	0.235
-351.508	-49.783	0.270	0.128
-350.493	-120.829	0.099	0.017
-349.479	-172.806	0.328	-0.010
-348.464	64.942	-0.138	0.138
-347.450	-200.000	-0.010	0.118
-346.435	-78.430	-0.140	-0.048
-345.420	-159.045	0.191	0.011
-344.406	-95.285	-0.124	0.033
-343.391	162.889	-0.186	-0.259
-342.377	188.456	-0.215	0.319
-341.362	-27.981	0.105	0.060
-340.348	-200.000	0.000	0.266
-339.333	136.786	-0.184	0.239
-338.318	-151.733	0.137	-0.010
-337.304	-89.759	-0.312	0.091
-336.289	51.767	0.140	0.133
-335.275	-37.353	0.128	0.068
-334.260	-200.000	-0.078	0.000
-333.245	-22.448	0.128	0.077
-332.231	59.428	0.091	0.089
-331.216	-200.000	0.010	0.160
-330.202	98.772	0.084	0.097
-329.187	-200.000	-0.017	0.089
-328.172	-14.130	0.219	-0.140
-327.158	800.000	-0.119	0.461
-326.143	-129.722	0.341	0.047
-325.129	6.366	-0.063	0.047
-324.114	-12.811	-0.235	0.152
-323.099	279.790	-0.162	0.287
-322.085	-49.930	0.054	0.026
-321.070	-76.332	0.135	-0.047
-320.056	0.811	0.078	-0.055
-319.041	501.105	0.083	0.191
-318.026	-140.454	0.160	0.017
-317.012	60.465	0.194	-0.191
-315.997	102.411	0.087	0.101
-314.983	-125.275	-0.118	-0.018
-313.968	249.198	-0.139	-0.234
-312.953	-200.000	-0.012	-0.079
-311.939	-200.000	0.006	0.434
-310.924	-93.556	-0.454	-0.125
-309.910	-68.680	0.018	0.007
-308.895	800.000	0.049	0.145
-307.880	-200.000	-0.026	0.274
-306.866	730.668	-0.050	-0.132
-305.851	-200.000	-0.059	-0.269
-304.837	-65.211	-0.100	-0.040
-303.822	-97.632	-0.065	-0.017
-302.807	550.935	-0.058	-0.138
-301.793	-20.582	-0.014	-0.008
-300.778	-83.834	0.154	-0.049
-299.764	159.514	-0.122	0.169
-298.749	-45.425	-0.108	0.053
-297.735	225.260	-0.153	-0.246
-296.720	800.000	-0.125	-0.366
-295.705	-200.000	0.017	-0.271
-294.691	-86.943	-0.331	-0.100
-293.676	-46.243	0.264	0.129
-292.662	-35.349	-0.310	-0.167
-291.647	603.767	0.065	0.162
-290.632	-117.427	-0.238	-0.043
-289.618	-104.964	0.225	-0.051
-288.603	251.965	-0.084	0.142
-287.589	-101.560	-0.134	0.032
-286.574	-86.124	0.214	-0.065
-285.559	75.618	0.052	-0.055
-284.545	186.079	-0.266	-0.393
-283.530	-200.000	0.005	-0.070
-282.516	70.697	0.095	0.097
-281.501	-200.000	-0.074	0.335
-280.486	-72.007	0.282	-0.104
-279.472	-200.000	0.003	0.021
-278.457	-72.517	0.044	-0.016
-277.443	68.942	-0.122	-0.124
-276.428	94.598	0.227	0.256
-275.413	-170.684	0.213	-0.007
-274.399	201.642	0.121	-0.185
-273.384	677.530	-0.160	0.412
-272.370	-200.000	-0.027	-0.288
-271.355	130.647	0.045	-0.058
-270.340	-200.000	-0.008	0.111
-269.326	644.463	0.091	0.230
-268.311	482.841	-0.074	-0.166
-267.297	221.033	0.153	0.243
-266.282	258.914	0.134	-0.229
-265.267	-184.380	-0.070	0.001
-264.253	187.818	-0.071	0.106
-263.238	119.805	0.203	-0.249
-262.224	114.086	-0.140	0.169
-261.209	-86.128	0.219	-0.067
-260.195	-20.492	-0.193	0.117
-259.180	-171.428	0.201	0.007
-258.165	-61.871	-0.402	-0.167
-257.151	536.325	0.085	0.199
-256.136	-60.579	0.237	0.100
-255.122	-137.443	-0.160	0.018
-254.107	-125.466	0.319	-0.048
-253.092	757.535	-0.073	-0.197
-252.078	-37.026	-0.132	0.070
-251.063	153.917	-0.182	0.247
-250.049	-88.383	-0.202	0.060
-249.034	-28.502	0.131	0.075
-248.019	-86.597	0.163	-0.049
-247.005	800.000	0.042	-0.130
-245.990	-24.598	0.276	-0.163
-244.976	-27.288	0.196	-0.113
-243.961	-47.825	-0.326	-0.156
-242.946	-119.465	-0.261	0.045
-241.932	800.000	0.036	0.136
-240.917	281.753	-0.148	0.263
-239.903	52.576	-0.082	0.078
-238.888	-40.191	0.243	-0.125
-237.873	-200.000	0.037	-0.229
-236.859	-48.622	0.274	-0.130
-235.844	800.000	-0.045	-0.196
-234.830	-18.563	-0.188	-0.116
-233.815	64.500	-0.288	0.287
-232.800	-99.458	-0.331	0.082
-231.786	-66.426	-0.354	0.139
-230.771	131.897	-0.101	-0.128
-229.757	-44.475	-0.292	0.145
-228.742	173.330	-0.167	-0.238
-227.727	-66.839	-0.103	-0.040
-226.713	6.651	-0.153	-0.112
-225.698	97.782	0.180	-0.204
-224.684	-109.310	0.009	-0.002
-223.669	-25.384	0.165	0.097
-222.655	12.543	0.378	-0.288
-221.640	-200.000	-0.003	-0.209
-220.625	-119.683	0.218	0.037
-219.611	-168.041	-0.144	-0.006
-218.596	596.013	-0.162	0.396
-217.582	533.289	-0.044	-0.102
-216.567	-200.000	0.010	-0.414
-215.552	-37.190	-0.202	-0.107
-214.538	28.058	0.178	-0.149
-213.523	800.000	-0.027	0.108
-212.509	584.652	0.064	-0.156
-211.494	-113.041	0.337	-0.066
-210.479	215.019	-0.063	0.099
-209.465	40.554	0.258	-0.230
-208.450	-66.419	0.114	-0.045
-207.436	782.092	0.060	0.162
-206.421	34.481	-0.284	-0.245
-205.406	-147.567	0.131	0.011
-204.392	54.400	0.269	-0.256
-203.377	-141.010	0.384	-0.039
-202.363	125.101	-0.208	0.259
-201.348	-39.539	0.367	-0.190
-200.333	-102.317	0.161	0.038
-199.319	-36.608	0.128	-0.068
-198.304	-83.094	0.274	0.087
-197.290	134.991	0.190	0.243
-196.275	-200.000	-0.036	0.279
-195.260	146.475	0.229	0.304
-194.246	-181.754	-0.170	0.003
-193.231	324.288	0.151	-0.284
-192.217	-200.000	-0.001	0.145
-191.202	124.232	-0.204	-0.253
-190.187	0.857	0.232	0.164
-189.173	-200.000	-0.003	0.262
-188.158	24.942	0.050	0.041
-187.144	-82.919	0.113	-0.036
-186.129	302.989	0.156	0.284
-185.114	800.000	-0.118	0.364
-184.100	-178.002	-0.219	0.005
-183.085	800.000	0.045	0.181
-182.071	-79.373	-0.143	-0.048
-181.056	61.437	0.273	0.268
-180.042	-125.027	0.386	0.059
-179.027	276.995	0.098	0.173
-178.012	388.307	0.107	-0.219
-176.998	202.559	0.144	0.220
-175.983	171.336	0.065	0.092
-174.969	734.986	-0.056	0.147
-173.954	65.815	-0.259	-0.259
-172.939	118.175	0.134	-0.163
-171.925	365.743	0.103	0.205
-170.910	-167.514	0.040	0.002
-169.896	800.000	-0.035	-0.121
-168.881	-20.943	0.165	-0.100
-167.866	800.000	0.028	-0.103
-166.852	800.000	0.044	-0.157
-165.837	-150.098	-0.386	0.030
-164.823	278.254	-0.037	0.065
-163.808	-200.000	-0.019	0.176
-162.793	85.064	-0.265	0.287
-161.779	495.392	-0.054	0.123
-160.764	-76.565	0.105	0.036
-159.750	-200.000	0.017	0.179
-158.735	156.190	-0.150	0.204
-157.720	800.000	-0.032	0.105
-156.706	-93.422	0.308	-0.084
-155.691	800.000	0.021	-0.058
-154.677	56.692	0.269	0.259
-153.662	99.101	0.154	-0.175
-152.647	-6.843	0.317	0.212
-151.633	-28.767	0.247	-0.140
-150.618	800.000	-0.060	0.167
-149.604	-200.000	-0.037	0.181
-148.589	-106.105	-0.240	-0.053
-147.574	-36.824	-0.226	-0.120
-146.560	-25.634	-0.188	-0.110
-145.545	91.397	-0.245	-0.272
-144.531	-105.093	0.089	0.020
-143.516	800.000	0.130	0.437
-142.502	-15.336	0.182	0.114
-141.487	-162.308	0.291	-0.014
-140.472	-200.000	-0.019	-0.384
-139.458	-36.824	-0.350	-0.185
-138.443	-37.694	-0.291	-0.153
-137.429	171.401	0.192	0.272
-136.414	-52.891	0.104	0.047
-135.399	-37.207	-0.123	-0.065
-134.385	-200.000	-0.034	0.271
-133.370	-66.749	0.095	0.037
-132.356	-200.000	-0.026	0.468
-131.341	-3.001	-0.152	0.105
-130.326	-50.059	0.543	-0.254
-129.312	-19.668	0.193	-0.117
-128.297	-46.076	-0.199	0.097
-127.283	-33.642	0.029	-0.016
-126.268	-99.688	-0.166	-0.041
-125.253	-200.000	0.066	0.387
-124.239	-126.943	0.109	0.016
-123.224	-200.000	-0.034	-0.254
-122.210	-200.000	0.020	0.091
