DTS Sentinel unit serial number:	SN413079Multiplexer serial number:	ORYXHardware model number:	OX4-SRSoftware version number:	ORYX F/W v4.00 Oryx Data Collector v3.7.2.0data status	okinstallation	princeton_trtdifferential loss correction	single-endedforward channel	channel 2reverse channel	N/Adate	2019/09/12time	23:11:35forward acquisition time	60.00reverse acquisition time	0.00gamma	496.2192k internal	0.2332k external	0.2332temperature offset calibration	1.0168default loss term (dB/km)	0.3790temperature slope calibration	1.0000multiplexer offset coefficient	1.0000multiplexer slope coefficient	1.0000fibre end	0.00T internal ref (°C)	29.19T ext. ref 1 (°C)	3.72T ext. ref 2 (°C)	23.74length (m)	temperature (°C)	Stokes	anti-Stokes-747.200	284.251	-0.055	0.099
-746.185	-29.880	0.303	0.174
-745.171	580.355	-0.067	-0.166
-744.156	-116.515	-0.308	0.057
-743.142	-137.983	0.059	0.007
-742.127	-56.785	-0.238	0.106
-741.112	320.730	-0.101	0.192
-740.098	217.952	0.133	-0.214
-739.083	529.941	0.050	-0.119
-738.069	-124.356	-0.223	0.035
-737.054	354.742	0.014	0.028
-736.039	331.093	-0.130	0.252
-735.025	-185.135	-0.093	0.001
-734.010	43.328	-0.105	-0.096
-732.996	53.239	-0.130	-0.126
-731.981	799.034	-0.038	-0.107
-730.966	-200.000	-0.000	-0.097
-729.952	-41.332	-0.278	0.144
-728.937	149.630	-0.044	-0.060
-727.923	91.745	-0.092	0.104
-726.908	-123.077	-0.302	-0.049
-725.894	-11.352	0.119	0.079
-724.879	-89.260	-0.120	0.035
-723.864	26.221	0.324	-0.272
-722.850	800.000	0.017	-0.057
-721.835	-124.439	0.175	0.027
-720.821	-200.000	0.018	-0.478
-719.806	-109.150	-0.120	-0.026
-718.791	800.000	-0.040	-0.162
-717.777	3.356	-0.024	-0.018
-716.762	-41.981	0.265	0.136
-715.748	-122.444	0.083	-0.014
-714.733	284.467	-0.100	-0.180
-713.718	-75.629	-0.234	-0.084
-712.704	503.280	0.051	-0.119
-711.689	-200.000	0.023	-0.219
-710.675	469.748	-0.174	-0.394
-709.660	249.883	-0.009	-0.015
-708.645	130.055	-0.072	0.093
-707.631	-43.843	-0.074	-0.038
-706.616	287.809	0.242	0.439
-705.602	-78.580	-0.286	-0.098
-704.587	-96.623	0.241	-0.064
-703.572	292.481	-0.076	0.140
-702.558	18.919	0.205	0.165
-701.543	-119.876	0.177	-0.031
-700.529	238.975	0.056	-0.094
-699.514	-0.544	-0.117	0.084
-698.499	-9.075	0.373	-0.250
-697.485	-123.557	0.398	-0.064
-696.470	75.787	-0.214	0.227
-695.456	-200.000	0.037	0.189
-694.441	-135.379	-0.188	-0.023
-693.426	-72.093	-0.320	0.119
-692.412	-21.512	-0.178	-0.109
-691.397	-85.237	-0.213	0.067
-690.383	205.960	0.092	-0.144
-689.368	42.494	0.136	-0.124
-688.354	-152.437	-0.401	0.029
-687.339	-105.320	0.114	-0.026
-686.324	78.911	0.156	-0.167
-685.310	-142.206	-0.292	0.029
-684.295	-9.599	-0.109	0.073
-683.281	-113.814	-0.115	0.023
-682.266	196.444	-0.104	-0.159
-681.251	-46.374	-0.090	0.044
-680.237	-5.787	-0.119	0.082
-679.222	6.592	-0.339	0.253
-678.208	-200.000	0.019	0.139
-677.193	-186.264	-0.044	-0.001
-676.178	440.170	-0.039	-0.086
-675.164	-122.532	-0.551	0.090
-674.149	639.787	0.073	-0.185
-673.135	-36.048	0.207	-0.112
-672.120	-95.699	-0.270	0.072
-671.105	-71.925	0.374	-0.140
-670.091	-200.000	-0.033	-0.424
-669.076	-200.000	0.012	0.287
-668.062	375.432	0.109	0.224
-667.047	800.000	-0.104	0.299
-666.032	-16.516	-0.080	0.051
-665.018	800.000	0.165	-0.520
-664.003	10.246	0.241	0.184
-662.989	-49.779	0.090	0.043
-661.974	-200.000	-0.305	0.001
-660.959	-115.028	-0.120	0.023
-659.945	-24.700	-0.236	0.141
-658.930	135.533	-0.128	0.167
-657.916	-12.018	-0.113	-0.074
-656.901	60.583	-0.292	-0.290
-655.886	-45.128	-0.099	-0.050
-654.872	260.396	-0.116	-0.202
-653.857	183.512	0.217	-0.322
-652.843	-112.447	0.181	0.036
-651.828	-200.000	-0.012	-0.289
-650.814	800.000	0.121	-0.363
-649.799	-64.971	-0.348	0.141
-648.784	9.621	0.219	-0.166
-647.770	479.553	-0.163	-0.370
-646.755	-5.819	0.196	-0.134
-645.741	-20.430	0.322	0.199
-644.726	113.986	-0.065	-0.079
-643.711	10.074	-0.279	-0.212
-642.697	-105.928	0.214	-0.048
-641.682	-104.951	-0.068	0.016
-640.668	-29.550	0.063	0.036
-639.653	-81.020	0.152	0.051
-638.638	-126.820	0.116	-0.017
-637.624	-105.631	-0.275	-0.062
-636.609	462.115	0.093	0.209
-635.595	-55.123	0.083	0.037
-634.580	17.831	0.146	-0.117
-633.565	752.187	-0.084	0.228
-632.551	396.140	-0.083	0.173
-631.536	-163.809	0.208	0.010
-630.522	-200.000	0.035	-0.236
-629.507	177.883	0.125	0.182
-628.492	-200.000	-0.012	0.070
-627.478	15.268	-0.089	0.070
-626.463	800.000	0.060	-0.179
-625.449	-80.772	0.196	-0.065
-624.434	-78.716	-0.174	-0.060
-623.419	469.901	0.068	0.152
-622.405	-69.576	0.132	0.051
-621.390	127.612	-0.122	0.156
-620.376	-71.541	-0.313	-0.117
-619.361	800.000	0.030	0.121
-618.346	531.185	-0.125	-0.295
-617.332	-178.210	-0.140	-0.003
-616.317	-11.083	-0.098	0.065
-615.303	800.000	-0.060	0.235
-614.288	800.000	-0.055	-0.207
-613.273	-88.764	0.309	-0.092
-612.259	-96.467	0.176	-0.046
-611.244	642.655	-0.085	0.217
-610.230	-99.122	-0.078	0.020
-609.215	271.295	0.066	-0.116
-608.201	349.617	-0.017	-0.034
-607.186	26.108	0.080	0.067
-606.171	-200.000	0.044	-0.215
-605.157	-48.179	0.105	-0.050
-604.142	135.256	-0.098	-0.128
-603.128	585.837	-0.028	-0.070
-602.113	-45.592	-0.267	-0.132
-601.098	218.237	0.056	0.090
-600.084	-62.701	-0.290	-0.120
-599.069	-27.761	0.036	0.021
-598.055	234.314	0.206	0.340
-597.040	84.135	0.366	-0.400
-596.025	-27.134	-0.225	-0.131
-595.011	-200.000	0.091	-0.446
-593.996	-31.857	-0.216	-0.121
-592.982	800.000	-0.022	0.067
-591.967	149.509	0.189	0.256
-590.952	-94.718	-0.413	0.112
-589.938	-86.506	-0.172	0.053
-588.923	48.460	0.087	-0.081
-587.909	-136.745	0.452	-0.052
-586.894	321.968	0.143	-0.272
-585.879	-11.788	0.041	0.027
-584.865	-200.000	-0.032	-0.324
-583.850	-88.852	0.131	-0.039
-582.836	-200.000	-0.052	0.237
-581.821	199.938	0.088	0.135
-580.806	-127.832	-0.311	0.045
-579.792	156.445	0.150	0.207
-578.777	-84.548	-0.195	0.062
-577.763	-200.000	-0.001	-0.044
-576.748	-200.000	-0.040	-0.484
-575.733	-192.131	0.274	0.003
-574.719	800.000	0.106	0.350
-573.704	36.999	-0.092	0.082
-572.690	-96.776	-0.174	-0.046
-571.675	-200.000	-0.001	0.107
-570.661	304.510	0.068	-0.126
-569.646	-200.000	0.027	-0.263
-568.631	-200.000	-0.054	-0.315
-567.617	82.590	0.186	-0.202
-566.602	97.344	-0.267	-0.307
-565.588	-200.000	-0.003	-0.075
-564.573	0.140	0.165	0.117
-563.558	13.792	-0.089	-0.069
-562.544	521.940	-0.096	-0.225
-561.529	-200.000	0.028	0.191
-560.515	-14.528	-0.168	0.108
-559.500	-100.940	0.087	0.021
-558.485	26.240	0.151	0.126
-557.471	-169.399	-0.088	0.003
-556.456	337.794	0.063	-0.123
-555.442	-9.053	-0.482	-0.322
-554.427	-100.183	0.072	0.018
-553.412	-114.708	-0.259	0.049
-552.398	-2.934	-0.091	-0.064
-551.383	605.208	0.089	-0.221
-550.369	-125.170	0.350	-0.054
-549.354	66.052	-0.292	-0.296
-548.339	-200.000	-0.032	-0.438
-547.325	-97.374	-0.250	0.065
-546.310	800.000	-0.038	0.108
-545.296	-200.000	0.036	-0.207
-544.281	77.555	-0.135	-0.143
-543.266	72.848	0.177	-0.185
-542.252	47.469	-0.150	-0.139
-541.237	-200.000	-0.016	-0.447
-540.223	64.373	-0.307	-0.309
-539.208	-119.723	-0.162	0.028
-538.193	49.142	-0.174	-0.164
-537.179	121.526	0.114	0.141
-536.164	-118.340	0.216	0.038
-535.150	-173.915	0.349	-0.010
-534.135	91.634	-0.135	0.151
-533.121	-200.000	-0.014	-0.238
-532.106	35.875	-0.159	-0.139
-531.091	-86.155	-0.282	-0.087
-530.077	-122.247	0.361	-0.059
-529.062	-130.206	0.264	0.036
-528.048	-73.147	0.059	-0.021
-527.033	800.000	0.085	-0.246
-526.018	-93.685	0.166	0.046
-525.004	-124.095	-0.251	0.039
-523.989	-86.003	0.301	-0.093
-522.975	800.000	0.044	-0.173
-521.960	39.116	0.183	-0.163
-520.945	510.506	-0.183	-0.424
-519.931	-167.669	-0.280	0.011
-518.916	-22.112	-0.100	0.061
-517.902	4.388	0.205	-0.150
-516.887	434.353	0.037	0.081
-515.872	-200.000	0.021	-0.135
-514.858	110.610	-0.033	0.040
-513.843	-200.000	-0.003	0.344
-512.829	-200.000	0.000	-0.063
-511.814	21.494	-0.097	0.079
-510.799	-95.300	-0.171	0.046
-509.785	63.688	0.121	-0.121
-508.770	800.000	0.122	0.385
-507.756	-200.000	-0.021	0.153
-506.741	-200.000	0.008	0.398
-505.726	99.098	0.072	-0.083
-504.712	179.084	-0.032	0.047
-503.697	309.030	0.178	0.332
-502.683	786.836	-0.053	0.145
-501.668	616.548	-0.026	0.066
-500.653	454.447	0.076	0.169
-499.639	-200.000	0.074	0.400
-498.624	-26.111	0.440	-0.258
-497.610	165.769	0.204	0.288
-496.595	736.315	-0.126	0.335
-495.581	257.648	0.035	-0.060
-494.566	-68.866	0.284	-0.109
-493.551	800.000	0.054	-0.181
-492.537	246.246	0.143	-0.239
-491.522	-176.248	-0.149	-0.004
-490.508	203.656	-0.101	-0.156
-489.493	-60.045	-0.139	0.059
-488.478	366.896	-0.072	0.145
-487.464	-0.996	0.048	-0.034
-486.449	-137.759	-0.124	-0.014
-485.435	-113.193	-0.279	-0.055
-484.420	72.217	-0.219	0.228
-483.405	358.484	-0.161	0.321
-482.391	44.815	-0.082	0.075
-481.376	281.526	-0.074	0.132
-480.362	-70.441	-0.027	-0.010
-479.347	-144.085	0.030	0.003
-478.332	800.000	-0.040	0.138
-477.318	-70.693	-0.202	-0.076
-476.303	-92.380	0.143	-0.040
-475.289	55.060	0.053	0.051
-474.274	76.815	0.034	0.035
-473.259	-37.821	-0.164	0.087
-472.245	79.249	-0.160	0.170
-471.230	13.076	0.284	0.219
-470.216	-15.771	-0.304	0.193
-469.201	-152.094	-0.420	0.030
-468.186	139.865	-0.152	0.200
-467.172	206.187	0.095	-0.147
-466.157	447.051	-0.146	-0.320
-465.143	163.581	-0.127	0.178
-464.128	6.331	0.131	-0.097
-463.113	333.932	0.181	-0.349
-462.099	276.751	-0.074	0.130
-461.084	-34.635	0.315	0.171
-460.070	-108.253	-0.061	0.013
-459.055	800.000	0.063	-0.252
-458.040	-62.169	-0.349	-0.145
-457.026	-30.430	-0.207	0.117
-456.011	-200.000	-0.013	-0.235
-454.997	-12.315	0.080	0.052
-453.982	-138.902	0.180	-0.019
-452.968	-128.188	0.220	0.031
-451.953	375.723	-0.067	0.136
-450.938	8.012	-0.234	0.175
-449.924	473.394	-0.086	0.194
-448.909	800.000	0.061	-0.192
-447.895	-41.858	-0.087	-0.045
-446.880	452.147	-0.086	-0.188
-445.865	800.000	-0.120	0.338
-444.851	281.676	0.145	-0.259
-443.836	-59.693	0.271	-0.116
-442.822	109.723	0.020	0.024
-441.807	-63.608	-0.215	-0.088
-440.792	-67.961	0.277	-0.108
-439.778	800.000	-0.030	-0.084
-438.763	-54.517	-0.160	0.072
-437.749	150.118	-0.130	-0.176
-436.734	-68.910	-0.117	-0.045
-435.719	5.115	-0.037	0.027
-434.705	-167.075	0.190	0.008
-433.690	304.002	0.047	0.087
-432.676	303.316	0.175	0.321
-431.661	64.477	0.082	0.082
-430.646	-55.371	-0.094	-0.042
-429.632	23.241	-0.251	-0.205
-428.617	-200.000	-0.020	-0.099
-427.603	124.066	0.355	-0.443
-426.588	41.442	-0.264	0.237
-425.573	800.000	0.068	-0.235
-424.559	-135.135	0.151	-0.018
-423.544	79.877	-0.080	-0.085
-422.530	-173.470	-0.222	0.007
-421.515	104.565	0.136	-0.159
-420.500	75.539	-0.209	-0.219
-419.486	-38.022	-0.297	-0.157
-418.471	-29.524	0.297	0.169
-417.457	-112.943	0.175	0.034
-416.442	-200.000	-0.008	-0.201
-415.428	-71.707	0.199	0.074
-414.413	-64.781	-0.069	0.028
-413.398	12.914	0.309	0.237
-412.384	-103.535	-0.124	-0.029
-411.369	-200.000	-0.029	0.307
-410.355	-200.000	0.049	-0.242
-409.340	683.236	0.064	0.165
-408.325	-200.000	0.282	0.001
-407.311	-142.884	0.358	0.035
-406.296	115.163	-0.134	0.162
-405.282	185.331	-0.134	0.197
-404.267	4.891	0.115	0.084
-403.252	-21.365	0.156	0.095
-402.238	100.056	-0.197	0.227
-401.223	-99.418	0.169	0.042
-400.209	-56.615	0.386	0.170
-399.194	-25.739	-0.299	-0.175
-398.179	-200.000	0.028	-0.126
-397.165	-94.540	-0.140	-0.038
-396.150	-200.000	-0.003	0.028
-395.136	-99.773	0.413	0.103
-394.121	-64.131	0.163	-0.066
-393.106	35.878	-0.229	-0.200
-392.092	-153.167	0.339	0.024
-391.077	-95.870	-0.262	0.069
-390.063	800.000	0.070	-0.285
-389.048	731.929	-0.041	-0.107
-388.033	43.129	0.077	-0.070
-387.019	-48.078	0.120	-0.057
-386.004	-200.000	0.045	0.363
-384.990	-88.867	0.072	-0.021
-383.975	-165.545	-0.282	-0.012
-382.960	266.851	0.132	0.228
-381.946	-200.000	0.023	-0.388
-380.931	-148.227	0.211	-0.017
-379.917	126.668	-0.170	0.213
-378.902	-97.319	0.300	-0.077
-377.888	-141.233	-0.066	-0.007
-376.873	32.824	0.136	0.117
-375.858	-86.682	-0.199	-0.060
-374.844	-200.000	0.040	0.186
-373.829	404.801	-0.135	-0.281
-372.815	3.422	-0.192	-0.139
-371.800	800.000	0.127	-0.352
-370.785	-5.939	-0.207	0.140
-369.771	114.781	-0.081	0.098
-368.756	428.515	0.181	0.389
-367.742	-191.414	-0.115	0.001
-366.727	151.897	0.101	-0.137
-365.712	-200.000	-0.001	0.081
-364.698	-116.607	-0.156	-0.029
-363.683	-110.903	-0.404	0.082
-362.669	26.031	-0.255	0.210
-361.654	648.556	0.109	0.276
-360.639	800.000	-0.065	-0.241
-359.625	-138.841	0.027	0.003
-358.610	1.932	0.192	-0.137
-357.596	11.264	0.418	-0.317
-356.581	341.476	-0.043	0.082
-355.566	17.833	-0.064	-0.051
-354.552	800.000	0.057	-0.172
-353.537	77.984	-0.181	-0.191
-352.523	-87.701	-0.223	-0.067
-351.508	-129.458	0.057	-0.008
-350.493	-31.903	-0.231	-0.128
-349.479	-36.764	0.038	0.020
-348.464	181.333	-0.130	0.190
-347.450	-200.000	-0.023	-0.127
-346.435	-128.306	0.535	0.075
-345.420	-126.650	-0.010	-0.002
-344.406	-67.648	0.354	-0.137
-343.391	230.892	0.134	-0.218
-342.377	222.419	-0.196	-0.313
-341.362	-151.930	0.246	0.018
-340.348	128.382	-0.142	-0.180
-339.333	43.744	0.131	0.119
-338.318	-200.000	-0.014	-0.192
-337.304	-159.072	0.222	0.012
-336.289	-200.000	-0.022	0.210
-335.275	-37.159	0.135	0.072
-334.260	69.433	-0.334	0.341
-333.245	271.593	0.186	-0.324
-332.231	-48.937	0.200	0.095
-331.216	44.279	0.121	0.110
-330.202	-200.000	-0.101	-0.582
-329.187	-200.000	0.021	0.168
-328.172	78.540	-0.062	-0.066
-327.158	622.489	0.095	-0.237
-326.143	125.913	-0.080	0.100
-325.129	96.678	-0.130	0.148
-324.114	-68.959	-0.398	-0.152
-323.099	-101.685	-0.153	0.037
-322.085	-10.324	0.113	0.074
-321.070	312.706	-0.038	0.071
-320.056	-200.000	0.005	0.199
-319.041	151.091	-0.108	0.145
-318.026	259.482	-0.052	0.089
-317.012	393.066	-0.137	0.283
-315.997	-165.758	-0.204	0.009
-314.983	182.119	0.175	0.255
-313.968	25.683	-0.169	0.139
-312.953	-200.000	0.014	-0.090
-311.939	-45.205	-0.349	0.171
-310.924	315.258	0.135	0.251
-309.910	-63.529	-0.098	-0.040
-308.895	-119.826	-0.106	-0.018
-307.880	-36.260	0.181	0.097
-306.866	-132.092	-0.052	0.007
-305.851	-200.000	0.031	0.327
-304.837	114.530	0.159	-0.191
-303.822	-200.000	0.014	-0.192
-302.807	196.926	0.083	0.125
-301.793	-200.000	0.023	0.120
-300.778	-200.000	0.011	-0.235
-299.764	91.186	-0.118	-0.131
-298.749	-200.000	0.018	0.427
-297.735	5.936	-0.192	0.141
-296.720	93.719	0.124	-0.138
-295.705	-200.000	-0.011	0.204
-294.691	-89.057	-0.353	0.103
-293.676	-200.000	0.051	0.239
-292.662	222.937	-0.110	0.175
-291.647	-153.979	-0.180	0.012
-290.632	-49.080	-0.333	0.157
-289.618	177.367	0.066	0.096
-288.603	-131.003	-0.043	-0.006
-287.589	-125.928	0.442	0.066
-286.574	-44.221	0.212	0.105
-285.559	249.013	-0.090	-0.151
-284.545	-156.851	0.189	-0.011
-283.530	125.223	0.075	-0.094
-282.516	19.416	-0.174	-0.138
-281.501	166.878	-0.091	-0.128
-280.486	377.265	0.060	-0.121
-279.472	800.000	0.045	-0.153
-278.457	316.367	-0.030	0.056
-277.443	-200.000	-0.026	-0.161
-276.428	-59.709	-0.313	0.132
-275.413	151.562	-0.121	0.163
-274.399	-156.321	-0.208	0.013
-273.384	800.000	0.163	0.543
-272.370	60.819	0.230	-0.225
-271.355	800.000	0.116	0.320
-270.340	-200.000	-0.178	0.000
-269.326	-76.239	-0.083	-0.029
-268.311	800.000	0.039	-0.126
-267.297	99.470	0.090	-0.103
-266.282	-197.078	-0.299	0.002
-265.267	-48.047	-0.070	-0.033
-264.253	-139.583	-0.224	0.024
-263.238	-83.141	-0.034	0.011
-262.224	22.837	-0.272	0.220
-261.209	8.488	0.051	0.038
-260.195	0.362	-0.141	-0.099
-259.180	262.483	0.120	0.206
-258.165	109.671	0.064	-0.076
-257.151	8.555	0.213	0.158
-256.136	3.333	-0.164	0.118
-255.122	103.572	0.140	0.163
-254.107	-111.179	0.202	0.041
-253.092	-71.504	0.094	0.035
-252.078	747.955	-0.039	-0.105
-251.063	-140.710	0.191	-0.019
-250.049	26.528	-0.176	-0.145
-249.034	-147.695	-0.130	-0.011
-248.019	-200.000	-0.003	-0.072
-247.005	-200.000	-0.019	0.213
-245.990	-200.000	-0.059	0.290
-244.976	-142.803	0.029	0.003
-243.961	-85.807	-0.280	0.086
-242.946	-119.846	-0.369	-0.063
-241.932	250.536	0.012	0.021
-240.917	-12.175	0.098	-0.063
-239.903	-200.000	-0.009	-0.068
-238.888	800.000	-0.047	0.198
-237.873	727.154	-0.078	0.205
-236.859	800.000	-0.027	0.074
-235.844	-200.000	0.041	-0.402
-234.830	170.099	-0.207	-0.292
-233.815	520.681	0.154	0.356
-232.800	-79.713	0.299	0.099
-231.786	-115.853	-0.308	0.057
-230.771	-33.047	-0.309	0.169
-229.757	215.172	0.114	-0.179
-228.742	-46.624	-0.253	0.122
-227.727	81.664	0.154	0.165
-226.713	-14.318	0.109	0.069
-225.698	-90.185	0.176	0.051
-224.684	280.275	-0.107	0.188
-223.669	-154.685	-0.199	0.013
-222.655	-200.000	-0.058	-0.543
-221.640	8.765	0.340	0.253
-220.625	-16.066	0.316	0.198
-219.611	16.742	-0.275	0.215
-218.596	242.484	-0.139	0.230
-217.582	93.055	0.165	-0.184
-216.567	42.473	-0.336	-0.301
-215.552	-12.209	-0.291	0.188
-214.538	7.770	0.058	-0.043
-213.523	-32.212	0.297	0.164
-212.509	340.446	-0.023	-0.043
-211.494	-127.465	0.209	0.030
-210.479	-32.439	-0.311	-0.171
-209.465	-84.360	0.198	0.062
-208.450	70.044	0.119	-0.121
-207.436	-200.000	-0.002	-0.035
-206.421	800.000	0.071	0.284
-205.406	203.311	0.065	-0.098
-204.392	74.488	-0.068	-0.071
-203.377	-200.000	-0.009	-0.150
-202.363	187.014	0.314	0.461
-201.348	385.982	-0.063	0.127
-200.333	419.899	-0.101	0.212
-199.319	-129.029	0.484	0.067
-198.304	50.720	-0.093	-0.087
-197.290	-200.000	0.041	-0.535
-196.275	91.872	0.219	-0.243
-195.260	-200.000	-0.035	0.235
-194.246	-122.554	0.207	0.033
-193.231	800.000	-0.047	0.159
-192.217	-117.141	0.109	-0.020
-191.202	-140.079	0.205	-0.021
-190.187	-137.595	-0.123	-0.014
-189.173	-133.635	0.340	-0.042
-188.158	79.304	-0.108	-0.114
-187.144	183.107	-0.026	0.037
-186.129	-89.115	0.103	-0.030
-185.114	-30.953	-0.192	0.106
-184.100	150.923	0.061	-0.082
-183.085	59.304	-0.062	0.060
-182.071	66.003	0.058	-0.058
-181.056	-200.000	0.066	0.469
-180.042	57.773	0.177	-0.170
-179.027	-200.000	-0.024	-0.126
-178.012	-111.107	0.399	-0.080
-176.998	-1.720	-0.170	-0.118
-175.983	-76.366	-0.414	0.143
-174.969	-200.000	-0.008	-0.123
-173.954	600.394	0.084	0.205
-172.939	800.000	0.079	-0.285
-171.925	-32.511	0.070	0.038
-170.910	728.098	0.061	-0.160
-169.896	34.329	-0.198	0.170
-168.881	-200.000	0.052	0.306
-167.866	-151.596	-0.125	-0.009
-166.852	-200.000	0.034	-0.173
-165.837	83.065	0.199	0.213
-164.823	-67.118	0.055	0.021
-163.808	656.914	0.087	-0.219
-162.793	-200.000	0.011	-0.119
-161.779	80.694	0.221	-0.235
-160.764	567.660	-0.231	0.552
-159.750	-53.092	0.127	-0.057
-158.735	11.585	0.135	-0.102
-157.720	257.803	0.125	0.211
-156.706	169.872	0.181	-0.254
-155.691	-57.325	0.236	0.102
-154.677	556.281	-0.087	-0.206
-153.662	52.939	0.065	0.061
-152.647	14.099	-0.406	0.311
-151.633	-100.667	0.301	0.073
-150.618	-111.211	0.213	-0.043
-149.604	-148.163	0.317	0.026
-148.589	-200.000	0.007	0.053
-147.574	-200.000	0.008	-0.082
-146.560	-143.792	0.137	0.013
-145.545	-200.000	-0.076	0.415
-144.531	-114.371	0.238	0.045
-143.516	-109.094	-0.021	-0.004
-142.502	-24.602	-0.061	-0.036
-141.487	-58.883	0.178	0.076
-140.472	-200.000	0.009	0.142
-139.458	-200.000	-0.015	0.140
-138.443	-77.879	0.302	0.102
-137.429	129.825	-0.095	-0.119
-136.414	63.108	0.034	0.033
-135.399	-99.748	-0.180	0.044
-134.385	-200.000	-0.042	-0.230
-133.370	800.000	-0.041	0.154
-132.356	770.861	0.035	-0.094
-131.341	-71.685	0.165	-0.061
-130.326	-87.745	-0.146	0.043
-129.312	-2.116	-0.283	0.195
-128.297	-200.000	0.006	-0.140
-127.283	-200.000	-0.005	-0.094
-126.268	15.329	-0.197	0.152
-125.253	20.395	-0.210	0.167
-124.239	-36.352	0.074	0.039
-123.224	120.534	0.147	-0.180
-122.210	-125.050	-0.290	0.044
-121.195	800.000	0.036	-0.117
