DTS Sentinel unit serial number:	SN413079Multiplexer serial number:	ORYXHardware model number:	OX4-SRSoftware version number:	ORYX F/W v4.00 Oryx Data Collector v3.7.2.0data status	okinstallation	princeton_trtdifferential loss correction	single-endedforward channel	channel 2reverse channel	N/Adate	2019/09/18time	02:19:35forward acquisition time	60.00reverse acquisition time	0.00gamma	496.2192k internal	0.2349k external	0.2349temperature offset calibration	0.9985default loss term (dB/km)	0.3790temperature slope calibration	1.0000multiplexer offset coefficient	1.0000multiplexer slope coefficient	1.0000fibre end	0.00T internal ref (°C)	22.81T ext. ref 1 (°C)	0.17T ext. ref 2 (°C)	16.72length (m)	temperature (°C)	Stokes	anti-Stokes-747.200	47.056	0.241	-0.224
-746.185	123.322	-0.224	-0.280
-745.171	777.967	-0.164	0.447
-744.156	-200.000	-0.009	0.163
-743.142	-161.646	-0.159	-0.008
-742.127	136.603	-0.023	-0.030
-741.112	800.000	-0.017	0.055
-740.098	-142.485	-0.127	-0.012
-739.083	-200.000	0.050	-0.306
-738.069	-200.000	-0.043	-0.209
-737.054	-200.000	-0.018	-0.296
-736.039	-103.963	-0.418	-0.097
-735.025	224.264	0.058	0.094
-734.010	300.271	-0.076	0.140
-732.996	44.878	-0.237	-0.218
-731.981	101.314	0.081	0.094
-730.966	-49.526	-0.366	-0.174
-729.952	-24.050	0.472	-0.281
-728.937	-200.000	0.015	0.230
-727.923	53.976	-0.138	-0.132
-726.908	-200.000	0.016	-0.158
-725.894	22.860	-0.065	-0.053
-724.879	-13.370	-0.132	-0.085
-723.864	-13.122	-0.342	-0.222
-722.850	800.000	0.049	0.203
-721.835	567.430	0.056	0.136
-720.821	-105.818	0.231	-0.052
-719.806	442.861	0.060	-0.131
-718.791	60.325	0.167	0.165
-717.777	-19.074	-0.073	0.045
-716.762	36.436	0.336	0.295
-715.748	-200.000	0.017	-0.356
-714.733	38.198	-0.215	0.191
-713.718	-200.000	0.065	0.425
-712.704	296.493	0.150	-0.274
-711.689	383.135	-0.145	-0.298
-710.675	-141.781	-0.130	-0.013
-709.660	-200.000	-0.042	0.265
-708.645	800.000	-0.042	0.174
-707.631	-33.683	0.154	0.084
-706.616	-200.000	-0.017	0.174
-705.602	35.528	-0.293	-0.256
-704.587	18.360	0.157	-0.125
-703.572	-117.480	0.260	-0.047
-702.558	316.064	0.094	-0.177
-701.543	50.821	-0.191	-0.181
-700.529	-200.000	0.029	-0.133
-699.514	-96.975	0.109	0.028
-698.499	119.808	-0.039	-0.049
-697.485	-200.000	-0.044	0.202
-696.470	177.032	0.027	0.038
-695.456	800.000	0.055	-0.212
-694.441	-200.000	-0.060	-0.362
-693.426	-200.000	-0.015	-0.168
-692.412	800.000	0.052	0.206
-691.397	-62.230	-0.265	0.110
-690.383	-17.693	0.183	-0.114
-689.368	112.379	0.166	0.200
-688.354	280.464	-0.036	0.063
-687.339	-200.000	-0.068	-0.303
-686.324	-39.802	-0.285	-0.148
-685.310	117.485	0.108	-0.133
-684.295	-200.000	-0.017	-0.111
-683.281	-28.415	-0.247	-0.142
-682.266	344.040	0.079	-0.155
-681.251	-200.000	-0.061	-0.357
-680.237	336.284	-0.098	-0.189
-679.222	800.000	-0.052	-0.197
-678.208	24.772	-0.067	-0.055
-677.193	-29.668	0.187	-0.106
-676.178	800.000	0.068	-0.278
-675.164	-100.292	-0.405	-0.100
-674.149	-57.566	0.298	-0.130
-673.135	800.000	-0.046	-0.158
-672.120	431.589	0.073	0.158
-671.105	253.882	-0.090	-0.153
-670.091	327.750	0.071	-0.136
-669.076	-200.000	0.023	0.242
-668.062	100.215	-0.241	-0.278
-667.047	-200.000	0.038	-0.224
-666.032	-51.127	-0.165	-0.077
-665.018	644.730	-0.062	0.158
-664.003	-21.915	0.145	-0.088
-662.989	327.499	-0.149	0.285
-661.974	81.370	-0.155	0.166
-660.959	25.236	0.099	-0.082
-659.945	13.894	-0.111	-0.086
-658.930	-88.348	0.073	0.022
-657.916	72.519	-0.139	-0.144
-656.901	-107.953	0.381	0.082
-655.886	-200.000	-0.049	0.242
-654.872	-81.257	-0.167	0.055
-653.857	64.651	0.064	0.064
-652.843	-44.702	0.034	-0.017
-651.828	-82.092	0.170	-0.055
-650.814	92.609	0.038	-0.043
-649.799	280.147	0.152	0.270
-648.784	-55.300	-0.075	0.033
-647.770	65.445	0.197	-0.198
-646.755	-16.789	0.110	0.069
-645.741	-200.000	0.015	0.070
-644.726	58.798	0.134	0.131
-643.711	-17.700	-0.154	0.096
-642.697	-6.524	0.103	-0.070
-641.682	34.636	-0.300	0.260
-640.668	-66.540	-0.103	-0.041
-639.653	36.423	-0.028	0.024
-638.638	28.742	-0.209	-0.176
-637.624	-106.425	0.218	-0.049
-636.609	-75.608	0.181	-0.064
-635.595	-129.604	-0.175	0.024
-634.580	21.003	0.270	-0.218
-633.565	-200.000	0.035	-0.168
-632.551	145.843	0.153	0.204
-631.536	108.425	0.188	0.223
-630.522	236.382	-0.147	-0.242
-629.507	-200.000	0.009	-0.051
-628.492	354.417	-0.135	0.266
-627.478	-131.915	-0.074	0.010
-626.463	800.000	-0.032	-0.108
-625.449	185.367	-0.037	0.055
-624.434	-74.371	0.427	0.153
-623.419	400.882	-0.073	-0.152
-622.405	-58.424	-0.126	0.054
-621.390	450.564	0.178	0.391
-620.376	105.265	0.140	-0.164
-619.361	-76.051	-0.155	-0.054
-618.346	-10.260	-0.014	0.009
-617.332	98.110	0.113	0.129
-616.317	54.331	-0.184	-0.176
-615.303	416.551	0.076	0.162
-614.288	-58.861	0.158	0.068
-613.273	318.129	-0.089	-0.168
-612.259	378.670	0.113	-0.229
-611.244	-11.665	0.051	0.034
-610.230	112.660	-0.180	-0.217
-609.215	-103.728	-0.065	0.015
-608.201	-95.299	-0.083	0.022
-607.186	800.000	-0.046	-0.133
-606.171	215.516	-0.242	-0.381
-605.157	-66.311	0.093	0.037
-604.142	-200.000	-0.016	0.163
-603.128	-200.000	0.003	0.031
-602.113	-112.640	-0.154	-0.030
-601.098	47.933	0.173	-0.160
-600.084	-200.000	0.179	0.000
-599.069	185.830	-0.090	0.133
-598.055	267.728	-0.075	-0.130
-597.040	259.490	0.116	0.198
-596.025	5.324	0.332	0.243
-595.011	-200.000	0.018	0.095
-593.996	-119.520	-0.091	-0.016
-592.982	330.715	-0.074	-0.142
-591.967	800.000	0.054	0.226
-590.952	-66.636	-0.190	-0.075
-589.938	-185.951	-0.324	0.005
-588.923	123.534	0.101	-0.125
-587.909	-200.000	-0.005	-0.198
-586.894	-19.366	-0.220	0.135
-585.879	94.505	-0.130	0.146
-584.865	72.839	0.137	0.142
-583.850	718.077	0.043	0.113
-582.836	184.015	0.151	-0.221
-581.821	-128.703	0.060	0.008
-580.806	800.000	-0.058	-0.163
-579.792	158.645	-0.189	-0.260
-578.777	106.444	0.053	0.062
-577.763	-200.000	0.033	0.308
-576.748	-167.190	-0.335	-0.013
-575.733	387.768	0.061	-0.125
-574.719	222.961	0.077	-0.123
-573.704	-44.843	0.099	0.049
-572.690	-55.228	0.384	0.171
-571.675	800.000	0.036	-0.140
-570.661	-147.950	0.242	-0.020
-569.646	7.983	0.291	0.217
-568.631	304.532	0.071	0.131
-567.617	-69.628	0.114	-0.043
-566.602	-55.132	0.338	0.151
-565.588	-21.047	-0.168	0.102
-564.573	-123.249	0.072	-0.011
-563.558	800.000	0.057	0.231
-562.544	241.748	-0.112	-0.186
-561.529	-64.728	0.248	0.100
-560.515	374.506	0.118	-0.238
-559.500	-200.000	0.011	-0.279
-558.485	293.324	-0.129	-0.233
-557.471	56.612	0.211	0.204
-556.456	201.836	0.032	-0.049
-555.442	107.075	0.252	0.297
-554.427	28.921	0.115	0.096
-553.412	-200.000	-0.012	0.166
-552.398	-200.000	-0.001	-0.217
-551.383	-148.128	0.063	0.005
-550.369	-84.128	0.285	-0.090
-549.354	201.219	0.060	-0.092
-548.339	489.107	-0.114	0.258
-547.325	-58.682	0.446	0.192
-546.310	800.000	-0.070	0.224
-545.296	305.472	0.087	0.160
-544.281	-122.377	-0.188	-0.030
-543.266	-56.310	0.204	0.090
-542.252	411.878	0.081	0.171
-541.237	-103.869	-0.084	-0.019
-540.223	-104.357	0.025	0.006
-539.208	-140.343	-0.204	-0.021
-538.193	44.339	0.276	0.251
-537.179	-122.251	-0.210	-0.034
-536.164	-200.000	0.040	-0.323
-535.150	7.108	0.119	0.088
-534.135	89.021	0.031	0.034
-533.121	800.000	-0.011	0.040
-532.106	-36.357	-0.044	-0.024
-531.091	167.786	-0.223	0.314
-530.077	-60.208	0.046	-0.019
-529.062	284.038	-0.062	0.111
-528.048	185.571	-0.039	0.057
-527.033	40.618	-0.233	-0.208
-526.018	-119.066	0.032	-0.006
-525.004	-13.664	-0.393	-0.252
-523.989	106.057	-0.040	0.047
-522.975	800.000	-0.044	-0.162
-521.960	-132.994	0.119	-0.015
-520.945	-200.000	0.005	0.223
-519.931	-126.061	-0.315	0.047
-518.916	-200.000	0.013	-0.387
-517.902	155.058	-0.071	-0.097
-516.887	-200.000	-0.046	0.215
-515.872	-131.250	-0.382	0.050
-514.858	800.000	0.065	-0.249
-513.843	800.000	0.084	-0.234
-512.829	57.861	-0.144	-0.140
-511.814	-200.000	-0.005	-0.172
-510.799	43.794	0.345	0.312
-509.785	265.472	0.134	0.232
-508.770	61.204	0.167	0.165
-507.756	-200.000	-0.031	0.296
-506.741	-133.023	-0.323	0.041
-505.726	-200.000	0.016	0.094
-504.712	-178.539	-0.091	-0.002
-503.697	800.000	-0.082	0.253
-502.683	-200.000	0.061	-0.321
-501.668	-76.363	-0.286	-0.100
-500.653	-6.406	-0.104	-0.070
-499.639	-117.479	0.103	-0.018
-498.624	-33.885	0.247	0.135
-497.610	-200.000	-0.002	-0.179
-496.595	-169.867	-0.201	0.007
-495.581	327.224	-0.096	0.182
-494.566	8.437	-0.172	0.128
-493.551	39.769	0.132	-0.117
-492.537	-200.000	0.097	-0.439
-491.522	-200.000	0.064	0.356
-490.508	-108.001	-0.370	-0.079
-489.493	800.000	0.050	0.151
-488.478	99.803	0.032	0.037
-487.464	800.000	-0.074	-0.280
-486.449	20.835	0.118	0.095
-485.435	-108.809	0.335	-0.071
-484.420	240.573	0.256	-0.421
-483.405	-128.260	-0.153	0.022
-482.391	-95.112	-0.391	0.104
-481.376	-48.960	-0.170	0.081
-480.362	-33.648	-0.220	0.120
-479.347	-47.011	-0.131	0.063
-478.332	-9.831	0.218	-0.143
-477.318	800.000	0.099	-0.308
-476.303	-76.894	0.149	-0.051
-475.289	-190.046	-0.305	-0.003
-474.274	-53.322	0.146	-0.066
-473.259	12.283	-0.202	-0.153
-472.245	-200.000	-0.036	-0.196
-471.230	-129.232	0.263	0.036
-470.216	98.200	0.060	-0.068
-469.201	-169.362	0.116	0.004
-468.186	-200.000	-0.001	0.299
-467.172	118.143	-0.237	-0.288
-466.157	-159.170	0.206	0.011
-465.143	591.447	0.077	-0.188
-464.128	112.056	0.195	-0.232
-463.113	-200.000	-0.015	-0.273
-462.099	6.637	-0.133	0.098
-461.084	-107.804	0.144	0.031
-460.070	-16.644	-0.173	-0.108
-459.055	-200.000	-0.013	0.143
-458.040	-40.190	0.280	-0.144
-457.026	-200.000	-0.023	0.108
-456.011	-200.000	-0.008	0.055
-454.997	-200.000	-0.052	-0.229
-453.982	31.433	-0.357	-0.303
-452.968	767.058	-0.027	0.071
-451.953	133.394	0.074	-0.095
-450.938	259.072	0.072	0.122
-449.924	-16.715	-0.207	0.130
-448.909	-137.160	-0.383	0.043
-447.895	184.950	0.128	0.188
-446.880	2.073	0.212	0.151
-445.865	66.142	0.364	-0.365
-444.851	646.082	-0.019	-0.047
-443.836	493.362	-0.033	-0.075
-442.822	165.979	0.266	0.372
-441.807	2.401	0.091	0.065
-440.792	-132.288	-0.112	0.014
-439.778	800.000	-0.031	0.096
-438.763	-48.572	-0.297	-0.141
-437.749	709.451	-0.140	-0.365
-436.734	800.000	0.041	0.163
-435.719	-200.000	0.015	-0.225
-434.705	77.362	-0.141	0.148
-433.690	-117.818	0.125	0.022
-432.676	-200.000	-0.125	-0.000
-431.661	56.437	0.081	0.078
-430.646	66.947	0.173	0.174
-429.632	-54.256	0.048	-0.021
-428.617	140.500	-0.207	0.270
-427.603	188.075	-0.017	-0.025
-426.588	-197.963	0.018	-0.000
-425.573	-200.000	-0.019	0.102
-424.559	1.706	-0.018	-0.013
-423.544	-200.000	0.004	0.395
-422.530	800.000	0.030	-0.090
-421.515	119.707	0.061	-0.074
-420.500	509.484	0.024	0.056
-419.486	38.917	0.047	-0.041
-418.471	-143.696	0.179	-0.017
-417.457	-138.431	0.399	0.043
-416.442	122.450	-0.078	0.096
-415.428	-39.248	-0.164	-0.085
-414.413	-53.609	0.116	-0.052
-413.398	50.363	0.068	0.063
-412.384	712.448	-0.034	-0.090
-411.369	138.894	0.177	0.230
-410.355	-55.609	-0.186	-0.082
-409.340	90.992	-0.069	-0.077
-408.325	-141.369	-0.191	-0.019
-407.311	-13.925	0.314	0.200
-406.296	65.535	-0.227	-0.227
-405.282	85.178	-0.154	-0.167
-404.267	-53.328	-0.137	-0.062
-403.252	-52.688	-0.268	-0.122
-402.238	-93.119	-0.229	-0.063
-401.223	124.325	0.189	0.234
-400.209	-125.384	-0.275	-0.041
-399.194	800.000	-0.036	0.139
-398.179	117.235	0.177	-0.214
-397.165	-111.044	-0.328	-0.066
-396.150	359.808	-0.111	-0.219
-395.136	-25.612	-0.093	-0.054
-394.121	151.223	-0.061	0.081
-393.106	206.022	0.131	-0.200
-392.092	122.098	-0.052	-0.064
-391.077	54.408	0.163	0.155
-390.063	-31.874	0.264	-0.146
-389.048	298.225	0.124	-0.224
-388.033	-26.274	-0.233	-0.135
-387.019	-200.000	-0.005	-0.080
-386.004	58.018	0.171	-0.164
-384.990	-200.000	-0.007	-0.147
-383.975	1.909	-0.276	-0.196
-382.960	93.191	-0.104	0.116
-381.946	189.464	0.141	-0.208
-380.931	111.776	-0.118	0.140
-379.917	51.420	-0.211	0.197
-378.902	-200.000	0.042	-0.219
-377.888	20.256	0.050	0.040
-376.873	-200.000	0.029	-0.222
-375.858	-29.251	-0.127	0.072
-374.844	800.000	0.047	0.160
-373.829	-123.879	-0.188	0.029
-372.815	25.331	0.261	0.214
-371.800	82.661	-0.191	0.204
-370.785	-98.061	0.247	0.063
-369.771	-40.119	0.547	0.280
-368.756	-200.000	-0.014	0.191
-367.742	-120.709	0.151	0.025
-366.727	800.000	-0.093	-0.311
-365.712	-62.346	0.239	0.098
-364.698	-50.954	0.122	0.056
-363.683	-62.618	-0.200	0.082
-362.669	-30.615	0.278	-0.155
-361.654	-200.000	0.038	-0.213
-360.639	-176.560	-0.246	-0.006
-359.625	43.105	-0.314	-0.282
-358.610	50.068	0.233	-0.216
-357.596	-200.000	-0.029	-0.189
-356.581	1.059	-0.267	-0.188
-355.566	-200.000	0.023	-0.113
-354.552	113.086	0.125	-0.149
-353.537	-101.725	0.251	0.060
-352.523	88.494	-0.195	0.213
-351.508	-90.629	0.176	-0.050
-350.493	-147.729	0.139	-0.011
-349.479	-200.000	0.059	-0.312
-348.464	-200.000	-0.170	0.000
-347.450	-145.503	0.118	0.010
-346.435	800.000	-0.065	0.182
-345.420	-23.897	0.234	-0.138
-344.406	-136.495	-0.138	0.016
-343.391	123.834	0.079	-0.098
-342.377	-21.635	0.320	-0.192
-341.362	-144.193	-0.213	-0.020
-340.348	252.822	0.234	0.392
-339.333	-200.000	0.067	0.353
-338.318	800.000	0.018	0.051
-337.304	800.000	-0.038	-0.124
-336.289	-112.363	-0.084	0.016
-335.275	-87.535	0.228	-0.068
-334.260	-200.000	0.010	0.053
-333.245	247.976	0.064	-0.106
-332.231	-101.990	-0.247	-0.059
-331.216	67.385	0.083	0.084
-330.202	-24.877	0.092	-0.054
-329.187	-187.283	-0.170	0.002
-328.172	401.098	0.046	0.095
-327.158	-40.387	0.180	0.092
-326.143	26.529	0.129	0.106
-325.129	96.270	0.083	-0.093
-324.114	-200.000	-0.014	-0.063
-323.099	-148.482	-0.099	-0.008
-322.085	3.619	-0.138	-0.099
-321.070	-54.846	0.148	0.066
-320.056	-200.000	-0.042	0.449
-319.041	-2.585	-0.118	-0.081
-318.026	-121.980	-0.121	0.020
-317.012	99.609	0.048	0.055
-315.997	484.048	0.084	-0.189
-314.983	269.371	-0.068	0.117
-313.968	-200.000	0.016	-0.241
-312.953	-69.128	-0.208	-0.079
-311.939	-200.000	0.021	0.449
-310.924	80.171	-0.070	-0.074
-309.910	-200.000	-0.013	0.444
-308.895	-3.898	-0.156	-0.106
-307.880	-178.519	0.287	-0.007
-306.866	-126.596	0.429	0.062
-305.851	-48.524	0.124	-0.059
-304.837	-59.519	-0.297	0.125
-303.822	259.665	0.025	-0.042
-302.807	280.941	0.180	-0.316
-301.793	-69.854	-0.320	0.120
-300.778	-23.980	0.145	-0.085
-299.764	-200.000	0.073	0.458
-298.749	800.000	-0.086	-0.319
-297.735	17.343	0.074	-0.057
-296.720	-148.440	0.257	0.021
-295.705	539.708	0.036	-0.084
-294.691	102.058	0.299	0.343
-293.676	800.000	-0.108	0.371
-292.662	-18.110	-0.153	0.094
-291.647	200.186	0.044	0.066
-290.632	-124.583	0.262	0.040
-289.618	-114.963	0.170	-0.032
-288.603	-38.247	0.096	-0.050
-287.589	107.627	0.249	-0.291
-286.574	-73.447	0.094	-0.034
-285.559	-16.076	-0.134	0.083
-284.545	800.000	-0.026	-0.076
-283.530	78.022	-0.266	-0.278
-282.516	-200.000	-0.044	0.306
-281.501	-15.850	-0.274	0.171
-280.486	-113.624	-0.255	-0.049
-279.472	-92.853	0.253	-0.069
-278.457	585.340	-0.072	0.173
-277.443	-111.246	-0.258	-0.052
-276.428	128.575	0.078	0.098
-275.413	136.826	-0.088	-0.113
-274.399	-200.000	0.024	-0.228
-273.384	211.713	-0.197	0.304
-272.370	68.768	-0.128	-0.129
-271.355	12.928	-0.145	0.110
-270.340	80.553	0.106	-0.112
-269.326	210.417	0.041	-0.063
-268.311	86.288	0.282	-0.305
-267.297	81.873	-0.090	-0.096
-266.282	-102.942	-0.217	-0.051
-265.267	-6.656	0.144	0.096
-264.253	-200.000	0.017	0.666
-263.238	84.619	-0.131	-0.141
-262.224	89.666	0.239	0.261
-261.209	307.837	0.213	0.390
-260.195	100.965	-0.087	0.099
-259.180	-60.368	0.150	-0.062
-258.165	369.428	0.172	0.340
-257.151	-114.053	-0.131	0.025
-256.136	53.267	0.119	-0.111
-255.122	22.780	-0.459	-0.369
-254.107	-200.000	0.006	0.141
-253.092	-200.000	0.015	0.144
-252.078	-100.341	-0.070	0.017
-251.063	-57.481	-0.300	0.129
-250.049	-200.000	0.012	0.227
-249.034	37.385	0.302	-0.263
-248.019	219.188	-0.188	0.294
-247.005	-36.004	0.223	-0.118
-245.990	371.015	-0.062	-0.124
-244.976	207.834	-0.200	-0.306
-243.961	33.925	-0.175	0.149
-242.946	-125.528	0.324	-0.048
-241.932	148.247	0.195	0.257
-240.917	-76.075	0.092	-0.032
-239.903	-200.000	-0.026	-0.190
-238.888	-114.866	0.283	-0.053
-237.873	-65.354	-0.180	0.071
-236.859	271.549	0.066	0.113
-235.844	-47.574	-0.108	-0.051
-234.830	135.052	0.203	-0.259
-233.815	79.805	0.127	-0.133
-232.800	17.769	-0.422	-0.329
-231.786	-143.029	-0.136	-0.013
-230.771	-3.208	-0.239	-0.163
-229.757	-95.794	-0.238	-0.062
-228.742	-53.658	0.147	-0.066
-227.727	350.258	-0.029	-0.056
-226.713	-9.961	-0.064	-0.041
-225.698	-93.057	0.195	-0.053
-224.684	48.609	0.096	0.088
-223.669	-45.440	-0.064	-0.031
-222.655	733.567	-0.090	0.235
-221.640	-150.567	0.100	0.007
-220.625	-89.194	-0.104	-0.030
-219.611	185.937	-0.186	-0.271
-218.596	120.906	-0.123	0.150
-217.582	-90.509	0.209	-0.059
-216.567	220.958	0.181	-0.284
-215.552	19.612	-0.172	0.135
-214.538	87.497	-0.252	-0.273
-213.523	-200.000	-0.022	0.197
-212.509	-140.135	-0.392	0.040
-211.494	187.472	-0.037	-0.054
-210.479	208.461	-0.058	-0.089
-209.465	419.603	0.194	-0.406
-208.450	-12.865	-0.300	-0.191
-207.436	-198.834	0.118	0.001
-206.421	-80.480	0.118	0.038
-205.406	126.048	0.058	0.071
-204.392	-122.739	0.377	-0.060
-203.377	-90.467	0.133	-0.038
-202.363	29.133	-0.134	0.111
-201.348	-121.205	-0.426	0.070
-200.333	-200.000	0.029	0.342
-199.319	-2.051	-0.446	-0.306
-198.304	115.429	-0.142	0.169
-197.290	153.331	-0.174	-0.232
-196.275	17.936	0.176	0.137
-195.260	122.493	-0.145	0.177
-194.246	-91.531	-0.172	0.048
-193.231	-200.000	-0.001	-0.007
-192.217	-85.314	0.225	-0.069
-191.202	800.000	0.046	0.137
-190.187	111.357	-0.137	0.162
-189.173	-200.000	-0.166	0.000
-188.158	-157.855	-0.152	0.009
-187.144	101.100	-0.064	-0.073
-186.129	-151.119	-0.150	-0.011
-185.114	-1.514	-0.094	0.065
-184.100	-38.181	0.073	0.038
-183.085	4.033	0.119	-0.085
-182.071	800.000	0.036	0.118
-181.056	11.420	-0.137	0.102
-180.042	417.070	0.047	0.099
-179.027	-200.000	-0.002	-0.168
-178.012	-200.000	0.025	-0.196
-176.998	-77.783	0.248	0.084
-175.983	-128.015	-0.413	0.058
-174.969	39.910	-0.060	0.053
-173.954	202.888	0.118	0.178
-172.939	-140.083	0.186	-0.019
-171.925	73.838	-0.301	0.309
-170.910	154.304	0.016	-0.022
-169.896	-158.317	-0.170	-0.010
-168.881	-65.803	0.131	-0.051
-167.866	126.405	0.257	0.317
-166.852	-104.292	0.261	0.059
-165.837	395.390	0.063	0.127
-164.823	-200.000	0.023	0.129
-163.808	-11.180	-0.286	0.184
-162.793	160.936	-0.195	-0.265
-161.779	-108.299	0.220	0.046
-160.764	-42.576	0.085	-0.042
-159.750	-200.000	-0.065	-0.468
-158.735	-200.000	-0.026	0.358
-157.720	126.373	-0.126	0.156
-156.706	147.879	0.097	0.127
-155.691	150.686	-0.043	0.058
-154.677	285.174	0.100	-0.176
-153.662	-15.596	-0.357	-0.222
-152.647	64.794	0.068	-0.067
-151.633	95.664	0.179	-0.199
-150.618	266.138	-0.091	0.155
-149.604	52.619	0.199	0.186
-148.589	-181.307	-0.264	0.005
-147.574	29.945	0.186	0.155
-146.560	506.879	0.057	-0.128
-145.545	-200.000	-0.001	-0.154
-144.531	130.343	0.065	-0.081
-143.516	-0.292	-0.129	0.090
-142.502	-57.042	-0.124	0.053
-141.487	164.564	-0.136	0.187
-140.472	13.733	0.088	-0.067
-139.458	-200.000	0.029	-0.130
-138.443	-24.076	0.160	0.093
-137.429	800.000	-0.043	0.185
-136.414	-173.152	0.329	0.010
-135.399	-200.000	0.038	-0.182
-134.385	-200.000	-0.063	-0.273
-133.370	-187.354	0.136	0.002
-132.356	311.234	0.066	0.121
-131.341	-94.206	0.265	-0.071
-130.326	237.661	0.069	0.111
-129.312	83.624	0.098	0.104
-128.297	-72.914	0.118	-0.042
-127.283	-51.321	-0.212	0.097
-126.268	29.197	0.161	0.134
-125.253	514.193	0.045	0.101
-124.239	-200.000	0.021	0.142
-123.224	35.994	0.268	0.230
-122.210	281.958	0.211	0.369
-121.195	135.230	-0.085	-0.107
