DTS Sentinel unit serial number:	SN413079Multiplexer serial number:	ORYXHardware model number:	OX4-SRSoftware version number:	ORYX F/W v4.00 Oryx Data Collector v3.7.2.0data status	okinstallation	princeton_trtdifferential loss correction	single-endedforward channel	channel 2reverse channel	N/Adate	2019/09/17time	01:19:35forward acquisition time	60.00reverse acquisition time	0.00gamma	496.2192k internal	0.2329k external	0.2329temperature offset calibration	0.9974default loss term (dB/km)	0.3790temperature slope calibration	1.0000multiplexer offset coefficient	1.0000multiplexer slope coefficient	1.0000fibre end	0.00T internal ref (°C)	29.50T ext. ref 1 (°C)	0.10T ext. ref 2 (°C)	24.19length (m)	temperature (°C)	Stokes	anti-Stokes-747.200	-90.703	-0.156	-0.045
-746.185	-200.000	0.099	0.441
-745.171	112.466	0.174	-0.212
-744.156	120.332	-0.136	0.171
-743.142	-200.000	0.020	-0.112
-742.127	800.000	0.069	-0.216
-741.112	800.000	0.040	-0.140
-740.098	-135.212	0.135	-0.016
-739.083	-79.403	0.161	0.055
-738.069	119.174	-0.143	0.179
-737.054	-135.155	-0.268	0.032
-736.039	-88.369	0.139	-0.042
-735.025	-87.334	0.125	-0.038
-734.010	-200.000	-0.040	-0.280
-732.996	800.000	0.076	-0.269
-731.981	49.633	-0.157	0.149
-730.966	-46.125	-0.148	-0.073
-729.952	-19.999	-0.125	-0.078
-728.937	800.000	-0.094	-0.276
-727.923	-105.926	0.391	-0.089
-726.908	800.000	0.078	-0.299
-725.894	-89.083	0.080	-0.024
-724.879	800.000	-0.015	-0.047
-723.864	800.000	-0.039	-0.150
-722.850	56.543	-0.070	0.068
-721.835	14.481	0.060	-0.047
-720.821	24.078	-0.180	-0.149
-719.806	-179.648	-0.280	-0.006
-718.791	-105.830	-0.166	0.038
-717.777	800.000	-0.047	-0.196
-716.762	-81.460	-0.260	-0.086
-715.748	-44.083	0.267	0.135
-714.733	-72.997	0.261	-0.097
-713.718	800.000	0.061	-0.216
-712.704	90.386	0.105	0.119
-711.689	-43.159	-0.085	-0.043
-710.675	-6.288	-0.296	-0.203
-709.660	154.000	-0.054	0.075
-708.645	-43.533	0.325	-0.165
-707.631	-98.967	-0.310	0.079
-706.616	-200.000	-0.016	0.234
-705.602	495.653	0.131	-0.303
-704.587	-42.622	-0.246	0.126
-703.572	-84.017	-0.210	0.067
-702.558	-159.018	0.294	-0.017
-701.543	-200.000	0.008	-0.124
-700.529	800.000	0.052	0.186
-699.514	800.000	0.071	0.213
-698.499	-85.649	0.146	-0.046
-697.485	-153.391	0.249	-0.017
-696.470	-200.000	0.040	0.213
-695.456	241.851	-0.013	-0.022
-694.441	-29.324	-0.165	-0.095
-693.426	-200.000	0.002	0.073
-692.412	-55.993	0.229	-0.103
-691.397	42.537	-0.287	-0.263
-690.383	-51.684	-0.239	0.112
-689.368	-200.000	0.032	-0.160
-688.354	-200.000	0.025	0.153
-687.339	-17.021	0.150	0.095
-686.324	134.838	-0.061	0.080
-685.310	-107.652	0.114	0.025
-684.295	671.676	0.072	-0.186
-683.281	164.345	0.175	-0.248
-682.266	592.945	0.049	-0.121
-681.251	-122.005	0.162	0.027
-680.237	50.212	-0.182	-0.172
-679.222	-43.249	-0.245	0.125
-678.208	90.773	0.106	-0.119
-677.193	-12.139	0.417	0.274
-676.178	-44.436	-0.097	-0.049
-675.164	540.510	-0.152	-0.364
-674.149	23.929	0.235	0.195
-673.135	126.884	0.179	-0.228
-672.120	182.026	-0.128	0.189
-671.105	589.825	0.078	-0.193
-670.091	86.179	0.089	0.098
-669.076	63.307	-0.179	0.180
-668.062	-36.389	0.419	0.227
-667.047	800.000	-0.062	-0.251
-666.032	-129.191	-0.398	-0.056
-665.018	-71.017	0.277	0.105
-664.003	-84.578	0.175	0.055
-662.989	-200.000	-0.018	0.086
-661.974	-64.964	-0.092	0.037
-660.959	-200.000	-0.028	0.231
-659.945	132.948	0.216	0.280
-658.930	-200.000	-0.011	-0.203
-657.916	780.895	-0.079	0.216
-656.901	800.000	-0.080	0.251
-655.886	-176.965	0.093	0.002
-654.872	147.951	0.211	0.286
-653.857	340.294	0.257	-0.503
-652.843	127.234	0.104	0.133
-651.828	18.670	0.140	-0.113
-650.814	9.273	0.139	0.106
-649.799	209.391	0.318	-0.501
-648.784	461.746	0.060	-0.134
-647.770	210.661	-0.099	0.157
-646.755	-6.533	0.341	-0.233
-645.741	800.000	-0.028	0.080
-644.726	-76.461	-0.336	0.119
-643.711	-127.767	0.336	-0.049
-642.697	-75.864	0.299	0.106
-641.682	144.359	0.124	-0.167
-640.668	-139.704	-0.471	-0.050
-639.653	-141.869	0.275	-0.028
-638.638	135.227	-0.069	-0.090
-637.624	-151.097	0.249	0.019
-636.609	-128.160	-0.151	-0.022
-635.595	119.825	-0.307	-0.382
-634.580	800.000	0.114	0.379
-633.565	-129.566	0.074	0.010
-632.551	181.838	-0.164	-0.242
-631.536	25.182	0.205	0.171
-630.522	517.048	0.149	-0.350
-629.507	391.920	-0.131	-0.273
-628.492	409.527	0.078	0.167
-627.478	800.000	0.014	-0.041
-626.463	-200.000	-0.037	-0.467
-625.449	-138.413	-0.031	-0.003
-624.434	-22.696	0.206	0.125
-623.419	-18.723	0.116	-0.072
-622.405	-55.353	-0.095	-0.043
-621.390	-73.889	-0.136	0.050
-620.376	121.711	0.089	0.111
-619.361	430.400	-0.164	-0.356
-618.346	-66.270	-0.290	-0.116
-617.332	-144.516	-0.550	-0.051
-616.317	-104.936	0.071	0.016
-615.303	170.139	0.097	0.138
-614.288	-66.244	0.196	-0.078
-613.273	-129.787	0.230	0.032
-612.259	452.865	0.142	-0.314
-611.244	-186.396	0.331	-0.005
-610.230	-63.106	0.113	0.047
-609.215	-200.000	-0.018	-0.284
-608.201	-94.627	-0.468	0.128
-607.186	-28.273	0.178	-0.103
-606.171	-170.242	-0.051	-0.002
-605.157	-15.827	0.058	0.037
-604.142	266.239	-0.057	-0.099
-603.128	-200.000	-0.038	-0.465
-602.113	-167.752	0.319	-0.013
-601.098	-200.000	-0.032	-0.202
-600.084	11.615	0.286	-0.220
-599.069	-187.779	0.326	0.004
-598.055	-200.000	0.017	0.296
-597.040	-200.000	0.022	0.336
-596.025	-200.000	-0.108	-0.000
-595.011	-56.643	-0.196	0.087
-593.996	208.154	-0.290	0.454
-592.982	-90.847	0.285	0.082
-591.967	-200.000	0.001	-0.032
-590.952	6.650	-0.381	-0.284
-589.938	-117.560	0.101	-0.018
-588.923	16.002	0.066	0.052
-587.909	-200.000	0.031	-0.274
-586.894	-200.000	0.022	0.244
-585.879	-117.136	-0.180	-0.033
-584.865	-21.447	-0.150	-0.092
-583.850	-200.000	-0.012	-0.090
-582.836	800.000	-0.036	-0.156
-581.821	-151.591	0.196	0.015
-580.806	-30.549	-0.346	-0.196
-579.792	182.128	0.079	0.117
-578.777	159.804	-0.063	-0.087
-577.763	123.440	-0.091	-0.115
-576.748	800.000	0.096	-0.328
-575.733	130.130	0.081	0.104
-574.719	10.332	0.041	-0.031
-573.704	-37.944	-0.171	0.091
-572.690	-147.620	0.397	-0.033
-571.675	49.684	-0.020	0.019
-570.661	97.495	-0.072	-0.083
-569.646	-200.000	-0.029	0.217
-568.631	800.000	0.049	0.144
-567.617	114.715	0.048	-0.058
-566.602	-103.633	0.090	0.021
-565.588	-19.837	0.045	0.028
-564.573	-76.341	0.168	0.059
-563.558	472.433	-0.074	-0.167
-562.544	-128.201	-0.212	0.030
-561.529	-200.000	0.009	-0.061
-560.515	-94.012	0.314	0.086
-559.500	-120.528	0.144	-0.024
-558.485	47.657	-0.090	-0.084
-557.471	-200.000	0.008	0.227
-556.456	800.000	0.101	0.292
-555.442	-20.277	0.267	0.164
-554.427	-19.420	0.381	-0.236
-553.412	-32.135	0.163	0.091
-552.398	76.489	-0.138	-0.146
-551.383	252.621	-0.042	-0.072
-550.369	151.888	0.145	-0.198
-549.354	800.000	-0.093	-0.372
-548.339	-132.884	-0.195	0.025
-547.325	379.886	0.131	-0.269
-546.310	-113.747	0.088	-0.017
-545.296	165.724	-0.177	0.250
-544.281	-38.208	0.294	0.156
-543.266	-68.532	-0.115	0.045
-542.252	-200.000	-0.010	0.261
-541.237	800.000	0.011	-0.035
-540.223	-200.000	0.049	-0.398
-539.208	-52.456	0.269	0.124
-538.193	-200.000	-0.017	-0.090
-537.179	70.432	-0.038	0.039
-536.164	38.472	0.231	-0.206
-535.150	106.769	0.087	0.103
-534.135	-200.000	-0.063	0.282
-533.121	-53.296	-0.140	-0.064
-532.106	-200.000	-0.007	0.132
-531.091	-31.548	-0.224	0.126
-530.077	-101.760	0.202	-0.049
-529.062	-31.629	0.241	-0.135
-528.048	-30.270	0.179	0.101
-527.033	86.970	-0.148	-0.163
-526.018	-112.364	0.127	-0.025
-525.004	800.000	-0.066	-0.260
-523.989	-18.777	-0.171	0.106
-522.975	-200.000	0.020	0.111
-521.960	-89.175	-0.124	0.036
-520.945	487.155	0.092	0.210
-519.931	571.973	0.101	0.245
-518.916	143.477	0.156	-0.207
-517.902	-2.543	0.263	-0.184
-516.887	-154.610	-0.169	0.011
-515.872	-123.091	0.132	0.021
-514.858	800.000	-0.024	-0.093
-513.843	272.669	0.025	-0.045
-512.829	-200.000	-0.005	-0.383
-511.814	-97.786	-0.369	0.095
-510.799	-200.000	-0.029	0.444
-509.785	-128.179	-0.296	0.042
-508.770	800.000	-0.091	-0.304
-507.756	378.123	-0.079	-0.160
-506.741	-200.000	0.005	0.104
-505.726	800.000	0.061	-0.201
-504.712	-127.484	-0.111	-0.016
-503.697	71.401	0.114	0.118
-502.683	-131.651	0.139	-0.018
-501.668	-2.125	0.112	-0.078
-500.653	-48.365	-0.092	0.044
-499.639	-200.000	-0.014	-0.106
-498.624	-103.111	0.049	0.012
-497.610	104.443	0.108	0.127
-496.595	-107.965	0.597	0.129
-495.581	-200.000	0.015	-0.194
-494.566	190.117	0.128	0.192
-493.551	-158.217	0.162	0.009
-492.537	-92.280	-0.147	0.041
-491.522	-130.254	0.248	0.034
-490.508	41.871	-0.201	-0.181
-489.493	-149.253	-0.072	0.006
-488.478	-200.000	-0.022	-0.241
-487.464	-139.087	-0.282	0.030
-486.449	28.849	-0.189	0.160
-485.435	-141.829	0.364	-0.036
-484.420	-200.000	0.002	0.012
-483.405	-28.578	0.063	-0.036
-482.391	402.587	0.125	-0.262
-481.376	-200.000	-0.032	-0.292
-480.362	-165.645	-0.268	-0.012
-479.347	-200.000	0.015	-0.114
-478.332	800.000	0.048	-0.160
-477.318	22.401	-0.291	0.238
-476.303	13.612	-0.295	0.228
-475.289	800.000	-0.091	0.352
-474.274	-29.949	-0.164	-0.093
-473.259	-23.300	-0.081	0.048
-472.245	-200.000	0.020	-0.305
-471.230	800.000	0.049	0.195
-470.216	141.098	-0.068	-0.089
-469.201	241.081	0.197	0.327
-468.186	91.414	0.378	0.423
-467.172	246.408	0.070	-0.117
-466.157	-104.387	0.379	-0.087
-465.143	-200.000	-0.001	0.008
-464.128	800.000	0.042	0.120
-463.113	-4.206	0.305	-0.210
-462.099	168.520	-0.097	-0.138
-461.084	577.810	-0.064	0.155
-460.070	-71.129	0.120	0.045
-459.055	214.722	0.095	-0.150
-458.040	0.161	-0.114	0.081
-457.026	164.778	-0.279	0.392
-456.011	60.048	-0.219	-0.216
-454.997	-48.967	-0.172	0.082
-453.982	-0.965	0.364	0.256
-452.968	6.765	0.172	0.128
-451.953	483.419	-0.103	0.234
-450.938	800.000	0.030	0.129
-449.924	-168.395	0.295	-0.011
-448.909	800.000	0.033	0.121
-447.895	636.357	-0.124	-0.315
-446.880	-123.388	0.070	0.011
-445.865	235.738	-0.098	-0.161
-444.851	-200.000	0.036	-0.404
-443.836	-112.649	-0.424	0.084
-442.822	-200.000	0.002	0.041
-441.807	-106.252	0.071	-0.016
-440.792	-1.447	0.108	-0.076
-439.778	-200.000	0.029	0.134
-438.763	-200.000	0.006	-0.154
-437.749	800.000	0.070	0.246
-436.734	-50.466	-0.247	0.116
-435.719	31.553	-0.213	-0.182
-434.705	11.420	-0.289	-0.221
-433.690	23.779	0.105	0.086
-432.676	-3.186	-0.108	-0.075
-431.661	776.290	0.090	-0.243
-430.646	53.820	0.014	-0.013
-429.632	145.231	0.108	-0.143
-428.617	132.664	0.117	0.150
-427.603	-46.776	0.222	-0.108
-426.588	-23.465	0.242	0.145
-425.573	47.486	0.200	0.185
-424.559	-200.000	0.027	0.179
-423.544	-135.916	-0.271	-0.032
-422.530	208.643	-0.064	-0.099
-421.515	-83.199	0.469	-0.150
-420.500	800.000	-0.037	0.130
-419.486	513.948	-0.072	0.167
-418.471	-38.334	-0.161	-0.085
-417.457	-38.276	-0.207	0.109
-416.442	79.119	-0.103	0.109
-415.428	473.128	0.122	-0.274
-414.413	-26.534	-0.109	0.063
-413.398	165.223	0.143	0.201
-412.384	-11.532	-0.053	0.035
-411.369	-106.282	-0.230	0.051
-410.355	301.926	0.149	0.274
-409.340	382.814	0.103	-0.211
-408.325	-152.122	0.213	0.015
-407.311	-139.360	-0.182	0.019
-406.296	-75.692	-0.239	0.085
-405.282	-7.636	-0.137	-0.092
-404.267	15.243	-0.170	-0.132
-403.252	69.446	-0.050	-0.051
-402.238	105.975	0.186	-0.219
-401.223	-200.000	0.009	-0.137
-400.209	-186.789	-0.098	-0.001
-399.194	-88.649	-0.073	-0.022
-398.179	419.014	-0.017	-0.037
-397.165	177.175	-0.137	0.198
-396.150	-200.000	-0.001	-0.157
-395.136	-64.257	-0.014	-0.006
-394.121	-40.726	-0.090	0.046
-393.106	-94.061	-0.359	-0.098
-392.092	26.190	0.038	0.031
-391.077	800.000	0.014	0.053
-390.063	-144.839	0.362	-0.033
-389.048	188.798	0.075	-0.112
-388.033	67.371	0.194	-0.197
-387.019	253.332	-0.253	-0.429
-386.004	65.052	0.064	0.064
-384.990	-50.925	-0.255	0.119
-383.975	-26.075	-0.158	-0.093
-382.960	95.649	-0.173	-0.197
-381.946	163.673	-0.117	0.164
-380.931	194.627	-0.051	0.077
-379.917	800.000	0.064	-0.191
-378.902	800.000	-0.054	-0.180
-377.888	219.451	-0.234	-0.372
-376.873	146.059	-0.105	-0.140
-375.858	148.571	-0.141	0.189
-374.844	41.938	-0.116	0.104
-373.829	-163.209	0.258	0.012
-372.815	-200.000	0.010	-0.062
-371.800	22.318	0.111	0.090
-370.785	56.825	-0.137	0.132
-369.771	-200.000	0.011	-0.224
-368.756	-78.595	-0.252	0.085
-367.742	57.026	0.079	-0.076
-366.727	-19.849	0.238	0.146
-365.712	-120.755	-0.169	-0.028
-364.698	162.418	0.117	0.163
-363.683	-99.930	-0.226	-0.056
-362.669	-121.078	0.235	-0.039
-361.654	128.062	-0.160	0.201
-360.639	-22.212	0.228	-0.137
-359.625	800.000	-0.055	-0.190
-358.610	800.000	-0.014	-0.049
-357.596	-200.000	-0.035	0.183
-356.581	-200.000	0.062	0.286
-355.566	64.060	-0.110	-0.109
-354.552	-21.600	0.246	-0.149
-353.537	-200.000	0.026	-0.260
-352.523	-55.725	-0.513	-0.227
-351.508	-145.504	0.233	-0.021
-350.493	121.739	-0.102	0.126
-349.479	-42.325	-0.159	-0.081
-348.464	-171.629	0.325	0.011
-347.450	8.477	-0.334	-0.249
-346.435	800.000	-0.025	-0.087
-345.420	106.636	-0.164	-0.193
-344.406	-11.727	-0.213	-0.139
-343.391	171.470	-0.172	0.245
-342.377	-200.000	0.031	0.257
-341.362	-86.259	0.191	0.058
-340.348	-104.040	0.044	-0.010
-339.333	-200.000	0.013	-0.187
-338.318	171.122	0.220	0.313
-337.304	-5.325	-0.178	0.121
-336.289	-145.738	0.368	-0.033
-335.275	170.399	0.012	0.017
-334.260	-200.000	0.008	-0.175
-333.245	-70.940	-0.535	-0.200
-332.231	-108.794	-0.080	-0.017
-331.216	-5.348	-0.348	0.237
-330.202	562.916	-0.046	0.110
-329.187	340.314	-0.017	0.033
-328.172	-200.000	-0.057	-0.259
-327.158	-7.579	-0.264	0.177
-326.143	39.438	-0.032	-0.028
-325.129	-34.021	0.044	-0.024
-324.114	380.969	-0.076	0.154
-323.099	40.712	0.169	0.151
-322.085	170.546	0.173	0.245
-321.070	-101.694	0.311	-0.075
-320.056	-200.000	-0.044	0.208
-319.041	-51.506	-0.132	-0.061
-318.026	-88.875	-0.282	0.083
-317.012	-93.714	-0.156	-0.043
-315.997	-200.000	-0.027	0.213
-314.983	-200.000	-0.048	0.440
-313.968	-85.402	-0.217	0.067
-312.953	205.532	0.166	-0.255
-311.939	-200.000	-0.242	0.000
-310.924	54.031	0.091	-0.086
-309.910	800.000	-0.060	-0.246
-308.895	-11.507	-0.099	-0.064
-307.880	-200.000	0.029	0.146
-306.866	-200.000	0.003	0.085
-305.851	-200.000	0.023	0.207
-304.837	303.879	0.238	0.436
-303.822	25.633	0.112	0.092
-302.807	64.427	0.069	-0.069
-301.793	292.479	-0.088	-0.159
-300.778	77.646	-0.129	0.136
-299.764	-10.289	-0.047	0.031
-298.749	-141.858	-0.563	0.056
-297.735	785.636	-0.020	0.054
-296.720	-66.924	-0.159	0.062
-295.705	-157.336	0.018	-0.001
-294.691	-104.987	0.190	0.043
-293.676	-91.963	-0.180	-0.050
-292.662	-11.279	-0.053	-0.035
-291.647	-62.378	0.226	0.093
-290.632	-197.493	-0.197	-0.001
-289.618	58.871	-0.248	0.242
-288.603	223.857	0.144	-0.230
-287.589	-132.342	-0.180	-0.023
-286.574	800.000	-0.063	-0.223
-285.559	-190.423	-0.251	-0.003
-284.545	-200.000	-0.017	-0.532
-283.530	78.740	-0.272	-0.288
-282.516	800.000	-0.079	-0.263
-281.501	-65.917	0.060	0.024
-280.486	-200.000	-0.018	0.201
-279.472	99.930	0.161	-0.184
-278.457	800.000	0.061	-0.171
-277.443	392.602	-0.042	0.086
-276.428	4.295	0.261	0.189
-275.413	33.714	-0.073	0.063
-274.399	106.931	-0.036	-0.042
-273.384	800.000	-0.047	-0.186
-272.370	800.000	0.101	0.402
-271.355	687.790	-0.067	0.172
-270.340	-28.883	0.253	0.144
-269.326	-84.824	0.182	0.057
-268.311	21.166	-0.212	0.170
-267.297	114.945	-0.224	-0.271
-266.282	-200.000	0.044	-0.227
-265.267	-165.754	0.282	-0.012
-264.253	192.169	-0.031	-0.046
-263.238	-200.000	-0.013	0.095
-262.224	420.952	-0.037	-0.079
-261.209	-86.974	0.354	0.107
-260.195	-141.820	-0.242	0.024
-259.180	800.000	-0.111	-0.332
-258.165	298.813	0.064	0.116
-257.151	326.362	0.194	0.367
-256.136	-200.000	-0.024	-0.113
-255.122	-97.415	-0.212	0.054
-254.107	4.474	-0.303	0.219
-253.092	-140.720	-0.171	0.017
-252.078	19.502	0.075	0.060
-251.063	61.109	-0.185	0.181
-250.049	389.839	-0.123	-0.251
-249.034	-48.441	0.171	0.081
-248.019	-132.931	0.328	-0.041
-247.005	63.915	0.125	0.124
-245.990	453.158	0.070	0.154
-244.976	-103.504	0.413	0.096
-243.961	90.257	0.125	0.138
-242.946	-62.773	0.306	0.125
-241.932	-200.000	-0.006	0.073
-240.917	283.665	0.182	0.322
-239.903	800.000	-0.012	-0.048
-238.888	-200.000	-0.011	-0.302
-237.873	-200.000	0.006	-0.163
-236.859	-37.709	0.382	0.201
-235.844	225.507	-0.139	0.222
-234.830	800.000	0.101	0.284
-233.815	37.216	-0.131	-0.114
-232.800	137.530	-0.235	0.304
-231.786	-200.000	-0.008	0.152
-230.771	-200.000	0.043	0.361
-229.757	48.852	-0.127	0.117
-228.742	193.729	0.098	-0.146
-227.727	137.780	0.097	-0.125
-226.713	-106.792	0.351	0.077
-225.698	-115.084	-0.180	-0.034
-224.684	-54.685	-0.128	0.057
-223.669	784.806	-0.099	0.269
-222.655	171.142	0.119	0.168
-221.640	190.849	-0.076	0.113
-220.625	34.195	0.089	0.077
-219.611	-200.000	0.071	0.331
-218.596	-200.000	-0.259	-0.000
-217.582	-200.000	-0.049	0.236
-216.567	-200.000	0.055	0.307
-215.552	311.669	-0.081	0.150
-214.538	-200.000	-0.002	-0.126
-213.523	-61.774	-0.305	-0.126
-212.509	800.000	0.059	-0.182
-211.494	574.965	0.075	0.180
-210.479	800.000	-0.099	0.372
-209.465	4.707	0.197	0.143
-208.450	167.663	-0.164	-0.229
-207.436	-75.778	-0.228	-0.080
-206.421	-200.000	0.040	0.180
-205.406	-200.000	-0.003	0.132
-204.392	12.536	-0.434	-0.330
-203.377	111.807	0.173	-0.205
-202.363	9.441	0.288	0.215
-201.348	-160.043	0.359	-0.019
-200.333	441.301	-0.061	-0.131
-199.319	689.996	0.088	0.227
-198.304	95.270	-0.061	-0.069
-197.290	-13.418	-0.143	0.091
-196.275	170.931	0.107	0.151
-195.260	-195.495	0.222	0.002
-194.246	-35.553	-0.250	0.134
-193.231	800.000	0.067	0.210
-192.217	-200.000	-0.017	-0.078
-191.202	-43.906	-0.249	0.124
-190.187	-127.178	0.169	0.024
-189.173	-16.532	0.129	0.081
-188.158	800.000	0.046	-0.168
-187.144	800.000	0.087	-0.255
-186.129	-132.422	-0.380	0.048
-185.114	57.412	0.186	-0.179
-184.100	-68.780	0.256	0.098
-183.085	-96.974	-0.558	-0.144
-182.071	-179.518	0.253	0.005
-181.056	188.523	-0.131	0.193
-180.042	800.000	0.024	0.083
-179.027	241.739	0.130	0.214
-178.012	-76.364	-0.144	-0.050
-176.998	109.002	-0.090	-0.106
-175.983	144.640	0.086	-0.113
-174.969	-29.740	-0.313	-0.176
-173.954	570.808	0.087	-0.209
-172.939	345.376	-0.138	0.267
-171.925	9.848	0.347	-0.259
-170.910	209.503	0.075	-0.116
-169.896	-35.069	0.229	0.123
-168.881	-48.482	-0.063	0.030
-167.866	-76.844	-0.292	0.101
-166.852	-77.286	0.253	0.087
-165.837	-24.216	0.326	-0.192
-164.823	20.248	-0.194	-0.155
-163.808	129.060	0.039	-0.049
-162.793	800.000	-0.099	0.369
-161.779	-131.135	-0.595	-0.078
-160.764	-152.238	0.131	0.009
-159.750	-149.571	-0.154	0.012
-158.735	-200.000	0.013	0.273
-157.720	-200.000	0.071	-0.316
-156.706	-72.984	-0.103	-0.037
-155.691	-195.568	0.355	-0.003
-154.677	-138.996	0.525	0.056
-153.662	394.390	-0.010	-0.020
-152.647	-200.000	0.007	0.159
-151.633	-200.000	0.012	-0.166
-150.618	-50.413	0.252	-0.117
-149.604	397.559	0.151	-0.312
-148.589	-22.327	0.099	-0.059
-147.574	-80.529	0.009	-0.003
-146.560	-200.000	0.023	-0.290
-145.545	800.000	-0.059	0.192
-144.531	-200.000	0.006	-0.117
-143.516	66.724	0.196	-0.197
-142.502	331.669	0.104	0.198
-141.487	72.009	0.126	0.129
-140.472	320.738	-0.166	0.311
-139.458	187.937	0.183	-0.269
-138.443	-200.000	-0.004	0.067
-137.429	41.969	0.347	-0.310
-136.414	-66.134	-0.084	0.033
-135.399	-44.364	0.231	0.114
-134.385	-200.000	0.042	0.240
-133.370	-200.000	-0.045	-0.362
-132.356	-200.000	-0.038	0.211
-131.341	-200.000	0.071	0.328
-130.326	-17.157	0.117	-0.073
-129.312	81.615	0.209	0.223
-128.297	114.449	-0.244	-0.292
-127.283	156.224	0.156	-0.212
-126.268	-200.000	0.055	0.358
-125.253	-125.002	0.220	-0.033
-124.239	-81.175	0.367	-0.119
-123.224	249.183	0.103	-0.171
-122.210	248.584	0.119	0.198
-121.195	616.570	0.102	-0.251
