DTS Sentinel unit serial number:	SN413079Multiplexer serial number:	ORYXHardware model number:	OX4-SRSoftware version number:	ORYX F/W v4.00 Oryx Data Collector v3.7.2.0data status	okinstallation	princeton_trtdifferential loss correction	single-endedforward channel	channel 2reverse channel	N/Adate	2019/09/15time	08:47:35forward acquisition time	60.00reverse acquisition time	0.00gamma	496.2192k internal	0.2321k external	0.2321temperature offset calibration	1.0018default loss term (dB/km)	0.3790temperature slope calibration	1.0000multiplexer offset coefficient	1.0000multiplexer slope coefficient	1.0000fibre end	0.00T internal ref (°C)	32.25T ext. ref 1 (°C)	4.97T ext. ref 2 (°C)	29.60length (m)	temperature (°C)	Stokes	anti-Stokes-747.200	-62.493	-0.346	-0.145
-746.185	-22.159	0.069	0.042
-745.171	113.167	-0.091	0.112
-744.156	-133.378	-0.293	0.037
-743.142	106.938	-0.080	0.096
-742.127	383.272	0.095	0.197
-741.112	-90.536	0.093	0.027
-740.098	226.562	0.123	0.202
-739.083	-103.744	-0.317	-0.075
-738.069	-159.290	-0.258	-0.015
-737.054	417.250	-0.183	0.394
-736.039	-163.156	-0.246	-0.012
-735.025	-87.205	-0.164	0.050
-734.010	673.394	0.022	-0.059
-732.996	800.000	-0.102	-0.309
-731.981	170.626	-0.201	-0.290
-730.966	800.000	0.049	-0.166
-729.952	115.525	-0.220	0.271
-728.937	35.571	0.258	0.229
-727.923	10.572	0.102	0.078
-726.908	-136.436	0.071	-0.008
-725.894	800.000	-0.159	-0.479
-724.879	-200.000	-0.013	0.066
-723.864	800.000	0.073	0.287
-722.850	21.578	-0.129	0.106
-721.835	117.008	-0.130	-0.161
-720.821	-94.528	0.035	-0.010
-719.806	8.968	-0.196	-0.149
-718.791	-152.176	0.276	-0.020
-717.777	-132.383	-0.085	-0.011
-716.762	800.000	0.011	-0.049
-715.748	-121.766	-0.304	0.051
-714.733	-89.311	-0.191	-0.057
-713.718	417.444	-0.149	0.322
-712.704	320.418	0.047	-0.090
-711.689	200.934	-0.109	0.169
-710.675	28.094	0.201	-0.171
-709.660	193.576	-0.025	-0.038
-708.645	383.086	-0.069	-0.144
-707.631	-200.000	-0.004	-0.143
-706.616	-187.144	0.192	0.003
-705.602	-85.105	0.212	-0.067
-704.587	-200.000	-0.036	-0.162
-703.572	-43.841	0.145	0.074
-702.558	-27.475	-0.339	-0.199
-701.543	-130.632	-0.371	0.050
-700.529	-169.932	-0.267	-0.010
-699.514	-50.125	0.205	0.098
-698.499	-200.000	0.028	-0.268
-697.485	118.076	0.233	-0.290
-696.470	-200.000	-0.043	-0.251
-695.456	-30.002	0.107	0.062
-694.441	-75.039	0.124	0.045
-693.426	271.389	0.033	-0.059
-692.412	800.000	-0.078	-0.296
-691.397	67.835	-0.128	-0.132
-690.383	-11.449	0.127	-0.084
-689.368	800.000	-0.029	0.086
-688.354	-200.000	-0.040	-0.237
-687.339	-68.995	-0.257	0.100
-686.324	-200.000	0.008	-0.189
-685.310	153.752	0.164	-0.226
-684.295	29.367	0.191	-0.163
-683.281	248.318	0.111	-0.189
-682.266	-148.875	0.259	-0.021
-681.251	-46.869	0.275	-0.136
-680.237	-41.296	0.081	0.042
-679.222	456.011	-0.132	-0.296
-678.208	-164.050	-0.063	0.003
-677.193	198.279	-0.184	-0.283
-676.178	3.299	0.197	0.144
-675.164	315.775	-0.113	-0.215
-674.149	95.504	-0.188	-0.216
-673.135	-75.305	0.265	-0.095
-672.120	98.193	0.125	-0.146
-671.105	-200.000	-0.026	-0.341
-670.091	-92.271	-0.158	0.045
-669.076	194.380	-0.097	-0.148
-668.062	97.273	-0.053	-0.062
-667.047	-200.000	-0.006	0.154
-666.032	658.937	-0.131	0.340
-665.018	-83.367	-0.062	-0.020
-664.003	-145.085	0.243	-0.022
-662.989	102.021	-0.070	0.082
-661.974	338.574	0.051	-0.100
-660.959	47.421	-0.274	-0.257
-659.945	186.414	0.257	-0.386
-658.930	-154.695	-0.258	-0.017
-657.916	423.300	0.018	0.038
-656.901	427.340	-0.082	-0.177
-655.886	282.772	-0.131	-0.236
-654.872	-200.000	0.006	0.095
-653.857	109.024	0.146	-0.175
-652.843	800.000	0.078	-0.231
-651.828	800.000	0.045	-0.139
-650.814	76.830	-0.075	-0.080
-649.799	213.397	0.170	0.270
-648.784	113.817	-0.082	-0.100
-647.770	-108.320	0.197	-0.043
-646.755	58.785	0.164	-0.162
-645.741	269.568	0.125	0.221
-644.726	87.135	0.138	0.154
-643.711	40.164	0.177	0.160
-642.697	-109.711	-0.337	0.071
-641.682	190.525	-0.102	0.154
-640.668	800.000	0.047	0.208
-639.653	53.508	-0.193	0.187
-638.638	-2.305	-0.128	-0.090
-637.624	85.448	0.213	-0.235
-636.609	-200.000	-0.033	-0.252
-635.595	325.099	-0.113	0.216
-634.580	-200.000	0.012	-0.101
-633.565	-114.286	0.092	-0.018
-632.551	63.425	-0.156	-0.158
-631.536	20.573	0.069	-0.057
-630.522	-123.413	-0.384	-0.062
-629.507	-90.459	-0.042	0.012
-628.492	-200.000	-0.008	0.085
-627.478	-200.000	-0.021	-0.446
-626.463	800.000	0.068	-0.224
-625.449	-62.011	-0.080	-0.034
-624.434	101.053	0.082	-0.096
-623.419	97.068	-0.167	0.193
-622.405	538.720	-0.048	0.114
-621.390	-35.088	0.506	0.277
-620.376	17.264	-0.220	-0.176
-619.361	-79.157	-0.403	-0.137
-618.346	-124.053	-0.092	0.015
-617.332	-200.000	-0.029	0.311
-616.317	-29.997	-0.176	0.101
-615.303	800.000	0.093	-0.280
-614.288	-77.266	0.227	0.079
-613.273	39.739	0.116	0.104
-612.259	-78.024	0.098	0.034
-611.244	184.454	-0.079	-0.117
-610.230	-200.000	-0.006	0.174
-609.215	800.000	-0.075	0.220
-608.201	-170.952	-0.335	0.011
-607.186	-164.353	0.332	-0.015
-606.171	70.347	0.097	-0.100
-605.157	680.572	0.037	-0.096
-604.142	61.292	-0.139	-0.138
-603.128	-200.000	0.033	-0.195
-602.113	428.425	0.045	0.097
-601.098	-117.757	0.291	-0.053
-600.084	-156.569	-0.248	0.015
-599.069	322.828	0.083	0.159
-598.055	218.796	-0.145	-0.233
-597.040	58.483	0.076	-0.074
-596.025	-142.224	0.352	0.035
-595.011	0.317	-0.307	0.220
-593.996	-62.448	-0.108	0.045
-592.982	800.000	0.016	-0.068
-591.967	-23.314	-0.161	-0.097
-590.952	-97.228	-0.127	-0.033
-589.938	134.510	0.017	0.022
-588.923	245.418	-0.049	0.082
-587.909	13.118	-0.317	0.247
-586.894	-127.942	-0.144	0.021
-585.879	800.000	0.055	-0.169
-584.865	-61.804	0.057	0.024
-583.850	-200.000	-0.013	-0.078
-582.836	43.784	0.214	0.197
-581.821	-160.796	0.110	0.006
-580.806	-200.000	-0.005	-0.401
-579.792	-200.000	-0.023	-0.186
-578.777	800.000	-0.051	-0.179
-577.763	20.433	-0.059	0.048
-576.748	-122.040	0.048	-0.008
-575.733	45.639	0.102	0.095
-574.719	800.000	-0.071	0.202
-573.704	-98.010	-0.351	-0.091
-572.690	24.020	-0.141	-0.117
-571.675	-200.000	0.045	0.336
-570.661	-38.343	-0.176	0.094
-569.646	-86.911	0.437	0.134
-568.631	81.773	0.029	0.031
-567.617	-17.003	-0.235	0.149
-566.602	800.000	0.092	0.306
-565.588	-200.000	0.033	-0.254
-564.573	-67.372	-0.314	0.124
-563.558	800.000	0.055	-0.211
-562.544	93.680	0.027	-0.031
-561.529	67.523	-0.035	0.035
-560.515	-145.506	-0.175	-0.016
-559.500	78.616	-0.095	0.102
-558.485	-130.313	0.289	0.039
-557.471	-200.000	-0.037	-0.175
-556.456	-141.949	-0.228	0.023
-555.442	-85.201	0.089	-0.028
-554.427	165.699	-0.066	-0.094
-553.412	-200.000	0.074	-0.517
-552.398	800.000	-0.085	-0.242
-551.383	-43.305	0.184	0.093
-550.369	348.798	-0.083	0.165
-549.354	324.366	0.095	0.182
-548.339	-157.011	0.008	-0.000
-547.325	16.324	0.273	0.216
-546.310	-36.647	0.065	0.035
-545.296	-128.069	0.347	-0.050
-544.281	-50.093	-0.061	-0.029
-543.266	73.245	0.103	0.108
-542.252	598.358	0.155	-0.386
-541.237	-82.886	0.170	0.055
-540.223	135.263	0.133	0.174
-539.208	-74.563	-0.122	0.044
-538.193	-200.000	0.008	-0.137
-537.179	-44.348	0.083	0.042
-536.164	196.070	0.092	-0.140
-535.150	106.478	-0.086	-0.102
-534.135	-86.745	0.258	0.079
-533.121	175.611	0.025	-0.037
-532.106	-34.384	-0.154	0.085
-531.091	128.385	-0.067	-0.085
-530.077	800.000	-0.089	0.325
-529.062	59.273	-0.151	0.149
-528.048	130.757	0.125	-0.161
-527.033	-98.754	0.194	-0.049
-526.018	327.293	-0.084	0.162
-525.004	67.251	-0.079	0.081
-523.989	-131.333	0.197	-0.026
-522.975	227.624	-0.161	0.263
-521.960	-63.229	-0.217	0.090
-520.945	-113.699	0.292	0.057
-519.931	-1.964	0.083	0.058
-518.916	-86.315	-0.307	0.095
-517.902	19.019	-0.076	0.061
-516.887	-200.000	0.022	0.106
-515.872	81.779	-0.135	0.147
-514.858	-37.734	-0.321	0.171
-513.843	17.153	0.084	-0.067
-512.829	-77.785	0.068	-0.023
-511.814	1.002	0.229	0.164
-510.799	-76.764	-0.056	0.019
-509.785	93.227	-0.100	0.113
-508.770	64.598	-0.118	0.119
-507.756	-91.334	0.176	-0.050
-506.741	-53.855	-0.153	0.070
-505.726	64.272	-0.147	0.148
-504.712	-63.660	0.201	0.083
-503.697	-43.367	0.390	0.197
-502.683	-46.905	0.231	-0.113
-501.668	-157.519	-0.229	0.014
-500.653	800.000	-0.011	-0.040
-499.639	-200.000	0.024	-0.127
-498.624	183.784	-0.214	-0.317
-497.610	800.000	-0.074	-0.270
-496.595	52.285	0.078	-0.074
-495.581	-28.075	-0.075	0.043
-494.566	81.789	-0.111	0.121
-493.551	126.778	0.085	0.108
-492.537	116.588	-0.063	-0.077
-491.522	-66.284	-0.120	-0.048
-490.508	-126.940	-0.204	0.030
-489.493	-62.583	0.036	0.015
-488.478	-71.223	-0.196	-0.073
-487.464	13.154	0.175	0.135
-486.449	26.569	-0.172	-0.144
-485.435	353.572	-0.072	0.142
-484.420	116.381	0.088	0.108
-483.405	-88.120	0.191	0.057
-482.391	800.000	0.027	-0.085
-481.376	-200.000	-0.000	0.095
-480.362	352.331	0.103	-0.204
-479.347	800.000	0.051	-0.218
-478.332	-33.687	0.010	-0.005
-477.318	126.843	-0.232	0.294
-476.303	75.563	0.128	-0.135
-475.289	160.031	0.149	0.207
-474.274	-69.303	0.231	-0.089
-473.259	-68.641	0.371	-0.144
-472.245	-132.044	-0.214	-0.028
-471.230	299.204	0.185	0.341
-470.216	-187.449	0.128	-0.002
-469.201	103.144	0.144	-0.169
-468.186	-29.129	-0.155	0.089
-467.172	800.000	0.062	0.244
-466.157	121.946	-0.170	-0.212
-465.143	707.746	0.059	-0.156
-464.128	251.945	0.037	-0.064
-463.113	-82.820	-0.117	-0.038
-462.099	82.560	-0.294	0.320
-461.084	26.721	0.181	-0.152
-460.070	-85.838	0.205	0.064
-459.055	-200.000	-0.018	0.126
-458.040	-54.982	0.180	0.081
-457.026	62.665	-0.167	0.167
-456.011	-125.762	0.419	0.063
-454.997	-85.131	-0.178	-0.056
-453.982	-200.000	-0.014	-0.112
-452.968	800.000	-0.125	-0.364
-451.953	18.066	-0.166	-0.132
-450.938	-115.333	-0.308	0.058
-449.924	-17.453	0.091	-0.057
-448.909	800.000	-0.047	0.129
-447.895	-75.701	-0.117	0.042
-446.880	-200.000	0.017	-0.210
-445.865	20.399	0.221	0.178
-444.851	800.000	-0.075	0.269
-443.836	-200.000	-0.029	0.227
-442.822	346.870	0.097	-0.190
-441.807	43.953	-0.282	0.258
-440.792	-135.801	-0.125	-0.015
-439.778	-200.000	0.045	0.245
-438.763	-154.033	0.238	0.016
-437.749	-134.141	0.265	0.033
-436.734	-136.734	0.318	-0.037
-435.719	315.784	0.059	-0.111
-434.705	92.994	-0.208	-0.235
-433.690	-200.000	-0.055	0.276
-432.676	-200.000	-0.024	-0.104
-431.661	800.000	-0.092	-0.326
-430.646	5.459	-0.201	0.148
-429.632	-200.000	-0.047	-0.235
-428.617	148.351	0.029	-0.040
-427.603	434.508	-0.069	0.150
-426.588	502.638	0.132	-0.305
-425.573	52.077	0.136	-0.129
-424.559	-152.222	-0.134	-0.010
-423.544	-200.000	0.005	0.052
-422.530	509.054	-0.090	-0.208
-421.515	800.000	-0.044	-0.176
-420.500	-77.825	-0.198	-0.068
-419.486	570.589	-0.073	0.177
-418.471	800.000	0.026	-0.071
-417.457	-104.035	-0.360	0.084
-416.442	-53.658	0.086	-0.039
-415.428	319.210	-0.082	0.155
-414.413	441.546	0.049	-0.107
-413.398	-32.054	0.261	-0.146
-412.384	-94.651	0.320	0.087
-411.369	457.777	0.117	0.260
-410.355	697.354	0.038	0.100
-409.340	-100.263	0.229	0.057
-408.325	-155.145	0.109	-0.007
-407.311	-3.009	-0.210	0.146
-406.296	319.301	0.059	-0.112
-405.282	39.231	-0.105	-0.094
-404.267	-200.000	0.189	0.000
-403.252	-145.085	-0.210	-0.019
-402.238	-200.000	-0.045	0.218
-401.223	299.278	-0.118	-0.216
-400.209	-31.501	-0.170	-0.095
-399.194	-129.412	-0.301	-0.042
-398.179	-44.082	0.158	0.079
-397.165	62.397	-0.036	-0.036
-396.150	-58.304	-0.214	0.093
-395.136	-200.000	-0.008	0.158
-394.121	624.706	-0.114	0.285
-393.106	169.878	0.263	0.374
-392.092	57.759	-0.051	-0.050
-391.077	-200.000	-0.058	-0.279
-390.063	13.329	-0.234	0.181
-389.048	-35.733	-0.152	0.082
-388.033	-130.427	0.197	-0.027
-387.019	-66.760	0.046	-0.018
-386.004	-112.379	-0.172	0.034
-384.990	127.170	0.216	0.273
-383.975	-116.554	-0.066	0.012
-382.960	-200.000	-0.001	0.167
-381.946	800.000	0.072	0.207
-380.931	-200.000	-0.054	-0.415
-379.917	121.863	0.180	0.224
-378.902	189.452	0.066	-0.098
-377.888	-116.222	0.180	0.033
-376.873	-200.000	0.007	0.126
-375.858	-6.317	-0.174	0.118
-374.844	-72.921	0.257	-0.094
-373.829	800.000	0.101	0.280
-372.815	-19.588	-0.242	0.149
-371.800	-183.021	-0.177	-0.003
-370.785	44.987	0.202	-0.185
-369.771	-52.856	0.052	-0.024
-368.756	276.338	0.132	0.234
-367.742	363.366	0.055	0.110
-366.727	62.445	-0.286	0.285
-365.712	-200.000	-0.008	-0.256
-364.698	-139.741	0.176	0.019
-363.683	156.688	0.131	-0.180
-362.669	800.000	0.107	-0.355
-361.654	-200.000	-0.020	-0.274
-360.639	49.751	0.242	-0.227
-359.625	-80.796	0.306	0.101
-358.610	95.299	-0.208	-0.236
-357.596	-139.904	0.104	-0.011
-356.581	-92.901	-0.230	0.064
-355.566	-144.578	-0.441	-0.041
-354.552	477.632	-0.114	0.257
-353.537	-200.000	-0.039	0.245
-352.523	-91.480	-0.353	-0.100
-351.508	80.561	-0.136	0.145
-350.493	800.000	0.045	0.176
-349.479	84.293	-0.324	-0.353
-348.464	106.445	0.085	-0.100
-347.450	-63.043	0.068	-0.028
-346.435	-135.168	-0.470	0.056
-345.420	-123.581	-0.259	-0.041
-344.406	-127.351	0.305	-0.044
-343.391	-159.039	0.366	-0.021
-342.377	-118.318	-0.343	-0.061
-341.362	-6.878	-0.187	0.126
-340.348	24.315	0.112	-0.092
-339.333	-51.586	-0.265	0.123
-338.318	50.106	-0.207	-0.194
-337.304	-35.722	-0.145	-0.078
-336.289	-26.337	0.264	0.154
-335.275	-65.048	-0.167	0.067
-334.260	-35.747	0.165	0.089
-333.245	-200.000	-0.026	-0.256
-332.231	4.801	-0.290	-0.212
-331.216	-126.724	-0.223	-0.033
-330.202	-200.000	0.007	0.095
-329.187	800.000	0.074	0.243
-328.172	-150.344	0.159	0.012
-327.158	800.000	0.067	-0.196
-326.143	309.375	-0.099	0.183
-325.129	-200.000	0.032	0.164
-324.114	-145.759	-0.222	-0.020
-323.099	29.604	-0.069	-0.058
-322.085	-118.257	-0.123	-0.022
-321.070	-4.777	-0.159	0.109
-320.056	646.387	-0.054	0.137
-319.041	-36.795	-0.084	0.045
-318.026	800.000	0.022	-0.073
-317.012	-106.154	0.220	-0.049
-315.997	-7.207	0.211	-0.142
-314.983	128.084	-0.084	-0.107
-313.968	188.839	0.070	-0.105
-312.953	-50.404	-0.161	-0.075
-311.939	-120.904	0.125	0.021
-310.924	-200.000	-0.001	0.308
-309.910	-40.550	0.262	0.135
-308.895	148.048	0.055	0.073
-307.880	308.195	-0.006	0.011
-306.866	-200.000	0.019	-0.146
-305.851	800.000	0.043	-0.137
-304.837	-148.717	-0.059	0.005
-303.822	800.000	-0.042	0.130
-302.807	769.244	-0.066	0.180
-301.793	473.379	0.080	-0.179
-300.778	127.767	0.226	-0.285
-299.764	800.000	0.111	0.441
-298.749	-186.321	-0.239	-0.003
-297.735	-37.605	0.057	0.030
-296.720	-168.848	-0.257	0.010
-295.705	-85.582	-0.348	-0.108
-294.691	-96.855	0.201	-0.053
-293.676	258.076	0.118	0.201
-292.662	588.904	0.163	0.400
-291.647	85.358	0.107	0.117
-290.632	362.609	-0.143	-0.285
-289.618	41.095	0.053	0.048
-288.603	42.816	0.246	-0.222
-287.589	-197.516	0.159	-0.001
-286.574	-17.523	-0.199	-0.124
-285.559	-52.047	0.249	0.115
-284.545	-44.971	0.071	0.035
-283.530	336.123	0.073	-0.140
-282.516	-200.000	0.021	-0.145
-281.501	800.000	-0.098	0.310
-280.486	800.000	-0.049	-0.184
-279.472	478.875	-0.136	0.307
-278.457	518.860	-0.048	0.111
-277.443	-74.383	0.200	-0.072
-276.428	467.348	0.121	0.269
-275.413	-84.726	-0.046	0.014
-274.399	355.437	0.067	0.132
-273.384	-98.700	0.196	0.050
-272.370	-127.077	-0.137	-0.020
-271.355	202.755	0.133	-0.204
-270.340	-200.000	-0.061	-0.359
-269.326	2.489	0.189	-0.136
-268.311	-200.000	0.001	0.043
-267.297	10.465	0.095	-0.072
-266.282	518.919	0.106	-0.246
-265.267	800.000	0.035	0.121
-264.253	138.499	0.144	-0.187
-263.238	11.103	-0.073	0.055
-262.224	17.205	-0.222	0.175
-261.209	276.307	0.259	-0.456
-260.195	711.918	-0.034	-0.089
-259.180	800.000	-0.159	0.493
-258.165	-200.000	-0.051	0.371
-257.151	45.193	0.069	0.063
-256.136	249.049	0.106	-0.178
-255.122	621.172	-0.020	0.051
-254.107	40.583	0.181	0.162
-253.092	-54.340	0.216	-0.097
-252.078	83.600	0.315	-0.340
-251.063	28.837	-0.135	0.113
-250.049	-38.831	0.156	0.082
-249.034	800.000	0.053	0.195
-248.019	273.165	0.090	-0.157
-247.005	3.875	-0.136	-0.099
-245.990	-149.823	0.262	-0.020
-244.976	21.796	-0.284	-0.230
-243.961	-200.000	-0.020	-0.130
-242.946	476.760	0.002	-0.005
-241.932	-69.893	0.128	-0.048
-240.917	166.513	-0.242	0.340
-239.903	-200.000	-0.006	0.225
-238.888	-200.000	-0.034	-0.223
-237.873	-37.932	0.226	-0.119
-236.859	-200.000	0.007	0.133
-235.844	-37.611	-0.517	-0.273
-234.830	-179.051	0.356	0.008
-233.815	-56.926	-0.044	-0.019
-232.800	-200.000	-0.002	0.135
-231.786	20.119	-0.037	0.029
-230.771	-200.000	-0.001	0.192
-229.757	23.522	0.166	0.135
-228.742	-12.030	-0.190	0.123
-227.727	663.042	-0.014	-0.036
-226.713	-41.696	-0.544	0.277
-225.698	-154.465	-0.111	0.007
-224.684	800.000	-0.163	-0.467
-223.669	208.986	-0.055	0.085
-222.655	-147.157	-0.006	-0.001
-221.640	174.788	-0.127	0.182
-220.625	-200.000	-0.007	0.086
-219.611	-200.000	-0.074	0.349
-218.596	-150.279	0.329	-0.025
-217.582	-200.000	0.242	0.001
-216.567	-64.001	-0.150	-0.061
-215.552	-88.027	-0.092	-0.027
-214.538	-45.945	-0.095	0.046
-213.523	-5.168	-0.028	0.019
-212.509	-112.197	0.079	0.016
-211.494	243.255	-0.063	-0.104
-210.479	-200.000	-0.091	-0.526
-209.465	195.238	0.146	-0.219
-208.450	256.207	-0.049	-0.083
-207.436	-165.897	0.200	-0.008
-206.421	-112.040	0.225	0.045
-205.406	-150.414	0.351	0.027
-204.392	157.241	-0.344	-0.470
-203.377	-91.624	-0.057	-0.016
-202.363	-200.000	0.060	0.274
-201.348	-139.221	0.188	-0.020
-200.333	-109.220	-0.251	0.053
-199.319	199.968	-0.155	0.236
-198.304	-57.172	0.090	-0.039
-197.290	-76.544	-0.315	0.110
-196.275	-133.511	0.122	0.015
-195.260	741.694	-0.028	0.073
-194.246	-61.138	-0.138	-0.058
-193.231	-49.782	-0.084	0.040
-192.217	2.002	0.235	0.168
-191.202	141.061	-0.066	-0.086
-190.187	-28.139	-0.058	0.033
-189.173	-53.137	0.319	-0.145
-188.158	800.000	0.086	-0.316
-187.144	-200.000	0.030	-0.336
-186.129	-117.706	0.395	0.070
-185.114	-116.103	-0.190	-0.035
-184.100	800.000	0.030	-0.093
-183.085	92.456	-0.084	0.094
-182.071	-200.000	0.020	-0.283
-181.056	-200.000	-0.046	-0.251
-180.042	-200.000	0.064	-0.281
-179.027	-123.784	-0.176	-0.027
-178.012	-9.483	-0.184	0.121
-176.998	131.261	-0.127	-0.161
-175.983	-3.543	0.188	-0.129
-174.969	434.458	0.058	0.124
-173.954	76.731	0.098	-0.103
-172.939	192.109	-0.111	-0.166
-171.925	-67.742	0.314	0.121
-170.910	660.468	0.127	-0.324
-169.896	-200.000	-0.008	0.263
-168.881	9.977	0.077	-0.058
-167.866	-19.649	0.311	-0.190
-166.852	-200.000	0.018	-0.310
-165.837	-28.761	0.242	-0.137
-164.823	277.103	-0.122	-0.215
-163.808	246.619	-0.090	-0.149
-162.793	-111.973	-0.168	0.033
-161.779	301.542	-0.087	0.160
-160.764	800.000	-0.091	0.324
-159.750	49.596	0.214	-0.199
-158.735	-26.452	-0.151	-0.088
-157.720	-60.342	0.159	-0.067
-156.706	3.320	0.264	-0.190
-155.691	409.126	0.089	-0.187
-154.677	575.931	-0.080	-0.193
-153.662	-200.000	0.024	0.140
-152.647	129.983	-0.037	0.046
-151.633	429.699	0.055	0.118
-150.618	598.945	0.097	0.238
-149.604	-92.324	0.180	0.050
-148.589	-200.000	-0.008	0.253
-147.574	-141.555	0.313	0.031
-146.560	-200.000	0.036	-0.192
-145.545	275.776	-0.097	-0.170
-144.531	499.373	0.182	0.413
-143.516	539.036	0.184	0.432
-142.502	-167.320	-0.284	-0.011
-141.487	-11.172	-0.346	-0.225
-140.472	-200.000	0.031	-0.211
-139.458	24.368	-0.157	0.128
-138.443	-50.735	-0.235	-0.109
-137.429	76.464	0.175	-0.183
-136.414	-200.000	-0.014	0.170
-135.399	59.201	-0.236	0.230
-134.385	-73.729	0.144	-0.052
-133.370	9.933	0.260	-0.195
-132.356	-11.996	-0.415	-0.268
-131.341	-200.000	-0.053	-0.324
-130.326	-200.000	-0.072	-0.409
-129.312	111.928	0.290	-0.345
-128.297	-56.602	-0.093	0.041
-127.283	-155.182	-0.117	-0.008
-126.268	800.000	-0.085	-0.279
-125.253	-198.421	0.068	-0.000
-124.239	-56.969	-0.170	-0.074
-123.224	-98.075	0.376	0.096
-122.210	196.039	-0.102	0.154
-121.195	12.671	0.143	-0.109
