DTS Sentinel unit serial number:	SN413079Multiplexer serial number:	ORYXHardware model number:	OX4-SRSoftware version number:	ORYX F/W v4.00 Oryx Data Collector v3.7.2.0data status	okinstallation	princeton_trtdifferential loss correction	single-endedforward channel	channel 2reverse channel	N/Adate	2019/09/11time	08:37:11forward acquisition time	60.00reverse acquisition time	0.00gamma	496.2192k internal	0.2320k external	0.2320temperature offset calibration	0.9964default loss term (dB/km)	0.3790temperature slope calibration	1.0000multiplexer offset coefficient	1.0000multiplexer slope coefficient	1.0000fibre end	0.00T internal ref (°C)	33.37T ext. ref 1 (°C)	0.07T ext. ref 2 (°C)	30.47length (m)	temperature (°C)	Stokes	anti-Stokes-747.200	326.741	0.129	-0.250
-746.185	-123.252	0.126	0.020
-745.171	-93.463	0.274	-0.077
-744.156	-116.670	-0.133	0.025
-743.142	-10.409	0.068	-0.046
-742.127	245.020	-0.133	0.226
-741.112	6.710	0.295	0.222
-740.098	-114.271	-0.134	-0.026
-739.083	-200.000	-0.009	0.152
-738.069	-200.000	-0.009	0.062
-737.054	-117.927	-0.442	0.080
-736.039	73.695	-0.321	0.340
-735.025	-200.000	0.066	0.572
-734.010	-200.000	-0.055	-0.264
-732.996	-24.280	-0.131	-0.079
-731.981	-147.236	-0.265	-0.023
-730.966	-51.151	0.161	0.076
-729.952	78.530	0.238	-0.258
-728.937	-132.269	-0.146	-0.019
-727.923	-200.000	0.014	0.167
-726.908	-140.570	-0.329	0.034
-725.894	800.000	0.052	0.160
-724.879	-131.806	0.170	0.022
-723.864	-200.000	-0.018	0.136
-722.850	-84.902	-0.192	0.061
-721.835	-69.249	-0.110	0.043
-720.821	264.432	-0.095	-0.167
-719.806	-136.578	-0.175	-0.020
-718.791	97.045	-0.119	0.138
-717.777	38.924	0.299	-0.270
-716.762	69.698	0.039	-0.040
-715.748	-60.471	-0.305	-0.131
-714.733	-88.576	-0.089	-0.027
-713.718	-1.488	-0.086	0.062
-712.704	295.459	0.050	0.093
-711.689	-164.221	0.320	0.015
-710.675	378.183	0.052	-0.107
-709.660	-155.573	0.273	-0.018
-708.645	-19.841	-0.103	0.064
-707.631	-76.130	-0.141	0.050
-706.616	523.638	-0.021	-0.049
-705.602	26.542	-0.192	-0.162
-704.587	23.061	-0.259	-0.215
-703.572	57.554	0.279	-0.275
-702.558	-98.704	-0.118	-0.030
-701.543	445.323	0.029	-0.065
-700.529	800.000	-0.067	-0.285
-699.514	30.436	-0.231	-0.200
-698.499	39.603	-0.090	0.081
-697.485	-65.729	0.363	0.147
-696.470	-200.000	0.007	-0.172
-695.456	9.488	-0.167	-0.127
-694.441	-200.000	-0.003	-0.147
-693.426	800.000	0.100	0.337
-692.412	-27.680	-0.201	0.118
-691.397	-61.169	0.358	-0.152
-690.383	232.357	-0.155	0.258
-689.368	72.847	0.162	-0.171
-688.354	-36.830	0.275	0.149
-687.339	378.680	-0.170	0.350
-686.324	-63.723	-0.220	0.091
-685.310	-96.346	-0.301	0.080
-684.295	413.191	-0.055	-0.119
-683.281	145.020	-0.068	0.091
-682.266	-42.587	-0.220	0.113
-681.251	477.470	-0.194	0.442
-680.237	-200.000	-0.029	0.232
-679.222	-52.933	-0.099	-0.046
-678.208	87.619	-0.234	-0.261
-677.193	89.718	-0.200	0.225
-676.178	276.130	0.174	0.312
-675.164	309.359	0.110	-0.207
-674.149	124.298	-0.044	0.056
-673.135	551.618	-0.057	0.138
-672.120	-89.807	0.042	-0.012
-671.105	-10.336	0.317	-0.212
-670.091	75.754	-0.046	0.049
-669.076	800.000	-0.121	-0.402
-668.062	-1.661	0.195	-0.139
-667.047	-95.637	0.128	-0.035
-666.032	128.652	-0.233	-0.299
-665.018	-84.236	0.202	-0.065
-664.003	-200.000	-0.046	0.237
-662.989	122.389	-0.175	-0.220
-661.974	-131.449	-0.309	-0.041
-660.959	-80.525	0.059	-0.020
-659.945	-54.382	-0.287	0.131
-658.930	75.903	0.040	-0.043
-657.916	100.193	0.202	-0.236
-656.901	-81.221	0.257	-0.086
-655.886	25.907	0.055	0.046
-654.872	432.769	-0.058	-0.126
-653.857	80.000	0.222	-0.241
-652.843	-200.000	0.001	0.286
-651.828	-200.000	-0.021	-0.123
-650.814	800.000	0.063	-0.176
-649.799	-71.939	0.332	-0.125
-648.784	138.013	-0.032	0.042
-647.770	-159.342	-0.261	0.015
-646.755	334.098	0.089	-0.173
-645.741	600.282	0.074	-0.184
-644.726	32.321	-0.279	-0.243
-643.711	800.000	-0.037	-0.161
-642.697	-200.000	-0.011	-0.061
-641.682	800.000	0.055	0.184
-640.668	120.174	0.194	0.242
-639.653	-157.565	0.104	0.006
-638.638	781.065	0.068	0.187
-637.624	-32.958	0.201	0.112
-636.609	11.158	-0.115	0.089
-635.595	-27.148	-0.128	0.075
-634.580	10.253	0.179	-0.137
-633.565	-37.708	-0.213	-0.114
-632.551	-200.000	-0.025	-0.170
-631.536	800.000	0.034	0.146
-630.522	-14.894	0.130	0.084
-629.507	-200.000	0.059	0.266
-628.492	-0.131	0.109	-0.078
-627.478	-123.656	0.171	0.027
-626.463	-200.000	0.009	0.236
-625.449	10.145	-0.215	-0.165
-624.434	-86.981	0.035	0.011
-623.419	158.606	0.219	0.305
-622.405	-10.153	-0.417	-0.279
-621.390	-95.248	0.023	0.006
-620.376	171.820	-0.133	-0.193
-619.361	-200.000	-0.007	-0.042
-618.346	-175.641	-0.195	-0.005
-617.332	73.780	-0.302	-0.318
-616.317	70.336	-0.151	0.156
-615.303	-49.446	0.153	0.073
-614.288	-116.412	-0.541	-0.100
-613.273	375.938	-0.080	0.164
-612.259	-99.669	0.131	0.033
-611.244	-70.092	0.354	0.135
-610.230	-25.255	-0.332	-0.198
-609.215	34.591	-0.280	-0.246
-608.201	58.468	-0.209	-0.206
-607.186	-200.000	0.006	-0.138
-606.171	68.767	-0.136	-0.140
-605.157	-44.522	-0.152	-0.076
-604.142	-141.248	0.440	-0.045
-603.128	168.363	0.079	-0.113
-602.113	800.000	0.077	0.236
-601.098	89.456	-0.113	-0.127
-600.084	58.696	0.112	-0.110
-599.069	4.842	-0.162	-0.120
-598.055	172.193	0.100	-0.145
-597.040	-153.973	-0.261	0.018
-596.025	-52.631	-0.287	-0.133
-595.011	-200.000	0.046	-0.213
-593.996	-200.000	0.022	0.103
-592.982	-200.000	-0.009	-0.080
-591.967	90.891	0.141	-0.159
-590.952	-22.420	-0.190	-0.116
-589.938	432.730	0.046	0.099
-588.923	-71.387	-0.318	-0.120
-587.909	-200.000	0.098	-0.457
-586.894	-107.213	-0.139	0.031
-585.879	137.565	0.044	-0.057
-584.865	-200.000	-0.004	0.193
-583.850	-55.299	-0.147	0.066
-582.836	-40.776	0.179	-0.093
-581.821	-200.000	0.008	0.105
-580.806	61.896	-0.191	-0.191
-579.792	-200.000	-0.022	-0.209
-578.777	302.450	-0.171	0.318
-577.763	-174.005	-0.230	-0.007
-576.748	67.418	-0.195	0.200
-575.733	44.581	-0.066	-0.061
-574.719	129.754	-0.135	0.173
-573.704	-200.000	0.337	-0.001
-572.690	-29.531	0.285	0.164
-571.675	1.101	-0.258	0.186
-570.661	123.004	0.173	0.218
-569.646	-14.726	-0.064	-0.041
-568.631	-200.000	-0.015	0.260
-567.617	707.294	-0.068	0.181
-566.602	-28.731	-0.269	-0.155
-565.588	527.044	-0.056	0.132
-564.573	214.022	0.203	0.323
-563.558	-106.949	-0.253	0.056
-562.544	-55.669	0.167	0.075
-561.529	-24.535	0.205	0.123
-560.515	-63.921	-0.173	-0.071
-559.500	-132.303	-0.203	0.026
-558.485	-200.000	-0.028	0.246
-557.471	151.448	-0.081	0.110
-556.456	-182.315	-0.291	-0.005
-555.442	-86.474	0.159	-0.049
-554.427	15.547	0.148	-0.117
-553.412	-200.000	0.005	-0.198
-552.398	800.000	0.057	0.185
-551.383	17.731	0.196	0.156
-550.369	800.000	-0.095	0.361
-549.354	572.947	0.054	-0.132
-548.339	-176.650	-0.188	-0.005
-547.325	-77.244	0.234	-0.082
-546.310	800.000	-0.161	-0.580
-545.296	-58.208	0.141	-0.061
-544.281	-85.700	0.344	-0.107
-543.266	-24.957	0.078	0.047
-542.252	-136.722	-0.185	0.021
-541.237	-5.998	0.105	0.072
-540.223	665.160	-0.062	0.160
-539.208	-169.091	-0.351	0.013
-538.193	-184.579	0.206	-0.003
-537.179	-17.408	-0.102	0.065
-536.164	192.016	0.031	0.048
-535.150	84.408	0.058	-0.063
-534.135	-200.000	0.002	-0.076
-533.121	-77.663	0.050	0.017
-532.106	-200.000	0.007	-0.197
-531.091	146.880	0.176	0.237
-530.077	-16.317	-0.199	0.127
-529.062	-200.000	0.005	-0.059
-528.048	256.433	-0.122	0.210
-527.033	-142.717	0.042	-0.004
-526.018	-34.310	0.223	0.123
-525.004	-84.623	0.393	0.124
-523.989	-140.776	-0.127	-0.013
-522.975	263.245	0.086	0.150
-521.960	0.537	0.124	0.089
-520.945	-177.180	-0.206	-0.005
-519.931	-55.587	-0.196	-0.088
-518.916	-177.019	0.078	0.002
-517.902	135.715	-0.200	0.260
-516.887	557.348	0.118	0.284
-515.872	-150.990	-0.058	-0.004
-514.858	-200.000	0.004	-0.073
-513.843	-116.123	-0.162	0.030
-512.829	-103.615	0.513	-0.121
-511.814	80.556	-0.193	-0.208
-510.799	218.301	-0.266	-0.426
-509.785	3.173	-0.359	0.262
-508.770	-14.416	-0.100	-0.065
-507.756	800.000	-0.041	-0.127
-506.741	-178.782	0.197	0.004
-505.726	-24.025	-0.198	0.119
-504.712	129.700	-0.209	0.267
-503.697	-46.313	-0.120	0.059
-502.683	314.049	-0.061	-0.115
-501.668	-200.000	-0.021	0.221
-500.653	-38.507	0.355	-0.188
-499.639	-55.548	-0.486	0.218
-498.624	27.059	0.332	0.279
-497.610	171.431	-0.131	0.188
-496.595	57.800	0.092	0.091
-495.581	-96.743	-0.021	0.006
-494.566	-75.898	0.293	0.104
-493.551	-200.000	-0.028	-0.125
-492.537	-139.777	0.296	0.031
-491.522	-117.571	-0.312	0.056
-490.508	-38.314	-0.124	0.066
-489.493	-146.885	0.163	0.014
-488.478	63.599	0.159	0.159
-487.464	-90.946	0.322	-0.093
-486.449	-34.520	-0.063	-0.035
-485.435	-73.131	-0.345	-0.126
-484.420	-200.000	-0.075	0.360
-483.405	11.901	-0.317	-0.244
-482.391	-24.414	0.063	-0.038
-481.376	-2.198	-0.224	-0.157
-480.362	143.866	-0.162	0.216
-479.347	-144.074	-0.093	-0.009
-478.332	-200.000	-0.019	-0.161
-477.318	800.000	0.023	0.091
-476.303	37.051	-0.198	0.175
-475.289	800.000	-0.033	-0.124
-474.274	-159.217	-0.207	-0.012
-473.259	-28.357	0.125	-0.072
-472.245	-79.585	-0.171	-0.058
-471.230	-103.034	-0.207	-0.049
-470.216	-200.000	-0.007	0.241
-469.201	-91.474	0.268	-0.076
-468.186	-151.302	-0.198	-0.015
-467.172	800.000	0.060	-0.188
-466.157	458.174	0.069	-0.153
-465.143	61.594	-0.237	-0.236
-464.128	800.000	0.024	-0.076
-463.113	-120.499	0.282	0.048
-462.099	-200.000	-0.030	0.430
-461.084	267.588	0.063	0.111
-460.070	73.755	-0.338	-0.354
-459.055	72.344	-0.043	0.045
-458.040	-200.000	-0.021	-0.127
-457.026	-200.000	0.021	-0.133
-456.011	-75.858	0.275	-0.097
-454.997	193.389	-0.118	0.178
-453.982	800.000	0.051	-0.207
-452.968	9.257	0.055	-0.041
-451.953	-2.213	-0.088	-0.061
-450.938	35.245	0.018	-0.016
-449.924	-142.872	-0.333	0.032
-448.909	46.001	-0.076	-0.071
-447.895	-200.000	-0.011	-0.227
-446.880	-139.208	0.240	-0.026
-445.865	-114.950	-0.162	-0.031
-444.851	282.661	0.167	0.300
-443.836	-65.153	-0.204	0.082
-442.822	47.393	-0.236	0.220
-441.807	-29.764	-0.060	0.034
-440.792	13.916	0.294	-0.228
-439.778	800.000	-0.187	0.595
-438.763	-146.403	-0.052	-0.005
-437.749	-108.757	0.218	0.047
-436.734	22.773	-0.100	-0.082
-435.719	-93.987	0.174	-0.048
-434.705	-200.000	-0.025	0.142
-433.690	437.351	-0.168	0.367
-432.676	-168.769	0.317	-0.012
-431.661	-53.146	0.149	-0.068
-430.646	-200.000	0.050	0.377
-429.632	-69.458	-0.090	0.034
-428.617	-115.449	0.155	0.029
-427.603	-85.573	0.185	-0.057
-426.588	236.732	-0.039	0.064
-425.573	-186.606	0.112	-0.002
-424.559	39.006	-0.243	0.217
-423.544	-104.873	0.229	0.052
-422.530	800.000	-0.128	-0.422
-421.515	-137.412	-0.195	-0.022
-420.500	-175.673	-0.047	-0.001
-419.486	85.828	-0.188	-0.207
-418.471	225.240	0.058	-0.093
-417.457	-69.260	-0.328	-0.126
-416.442	800.000	0.026	-0.094
-415.428	-200.000	-0.010	0.235
-414.413	-43.107	0.113	0.057
-413.398	238.261	-0.115	0.191
-412.384	167.529	-0.149	0.211
-411.369	-200.000	0.002	0.383
-410.355	86.012	-0.067	0.073
-409.340	45.085	0.172	-0.158
-408.325	-200.000	0.019	-0.219
-407.311	800.000	0.068	0.188
-406.296	-200.000	0.025	0.337
-405.282	-200.000	-0.036	-0.157
-404.267	-200.000	0.034	-0.373
-403.252	-93.342	0.168	0.046
-402.238	-0.590	-0.086	-0.061
-401.223	800.000	0.057	0.238
-400.209	-200.000	0.052	-0.242
-399.194	-200.000	0.025	-0.124
-398.179	-182.269	0.212	-0.004
-397.165	-200.000	-0.007	-0.078
-396.150	228.115	0.181	-0.294
-395.136	-102.835	0.127	0.030
-394.121	-61.831	0.186	-0.078
-393.106	-200.000	0.052	0.247
-392.092	-36.236	-0.261	-0.140
-391.077	-200.000	-0.013	-0.260
-390.063	800.000	-0.005	0.018
-389.048	-52.284	0.114	0.053
-388.033	-57.526	0.155	-0.068
-387.019	763.382	0.161	0.435
-386.004	-60.892	0.168	-0.071
-384.990	7.941	0.167	0.125
-383.975	-140.411	0.366	0.038
-382.960	-200.000	-0.073	0.340
-381.946	594.580	0.083	-0.205
-380.931	-87.121	-0.104	0.031
-379.917	511.153	0.093	0.216
-378.902	212.540	-0.074	-0.116
-377.888	800.000	-0.116	0.336
-376.873	-200.000	0.272	-0.001
-375.858	-137.471	0.442	-0.050
-374.844	-200.000	0.010	-0.324
-373.829	800.000	-0.101	0.315
-372.815	27.405	0.019	-0.016
-371.800	442.729	0.056	-0.123
-370.785	4.499	0.099	0.072
-369.771	-200.000	-0.060	0.413
-368.756	85.306	-0.107	-0.117
-367.742	486.974	0.041	-0.094
-366.727	-200.000	0.045	0.210
-365.712	-13.085	0.185	-0.120
-364.698	-200.000	-0.004	0.252
-363.683	128.563	-0.224	0.284
-362.669	477.795	-0.059	0.133
-361.654	-50.270	0.102	0.048
-360.639	-15.901	0.088	-0.056
-359.625	175.386	0.121	0.174
-358.610	396.309	0.061	-0.127
-357.596	48.146	0.221	-0.206
-356.581	-200.000	-0.007	0.121
-355.566	-200.000	0.002	0.360
-354.552	-200.000	0.066	0.289
-353.537	135.936	0.072	0.093
-352.523	548.899	-0.057	0.136
-351.508	-48.744	-0.187	0.089
-350.493	800.000	-0.044	-0.183
-349.479	196.740	0.035	0.053
-348.464	800.000	0.063	-0.253
-347.450	-200.000	0.213	0.001
-346.435	84.029	0.188	-0.204
-345.420	-102.629	0.218	-0.052
-344.406	667.469	-0.058	0.148
-343.391	800.000	-0.059	0.229
-342.377	185.886	-0.133	0.197
-341.362	402.713	0.049	0.102
-340.348	156.505	-0.022	0.030
-339.333	-34.600	0.258	0.141
-338.318	21.971	0.119	0.097
-337.304	27.228	0.251	0.209
-336.289	333.680	0.081	-0.157
-335.275	-133.650	-0.395	-0.049
-334.260	-200.000	-0.029	-0.192
-333.245	1.703	-0.212	0.152
-332.231	-33.084	0.244	-0.135
-331.216	24.739	-0.078	0.064
-330.202	390.781	0.083	0.172
-329.187	163.241	0.237	0.332
-328.172	800.000	-0.028	0.085
-327.158	-200.000	-0.009	-0.080
-326.143	-117.534	0.104	0.019
-325.129	284.171	-0.015	-0.026
-324.114	272.280	0.062	-0.110
-323.099	-59.993	-0.234	-0.099
-322.085	-7.101	-0.166	0.112
-321.070	-200.000	-0.017	0.110
-320.056	-200.000	0.034	-0.171
-319.041	140.910	0.237	-0.311
-318.026	-124.234	-0.289	0.045
-317.012	800.000	-0.059	-0.258
-315.997	331.281	-0.083	-0.159
-314.983	157.877	0.156	-0.215
-313.968	180.395	-0.172	-0.252
-312.953	158.508	-0.129	0.178
-311.939	557.659	-0.058	-0.138
-310.924	-20.004	-0.076	-0.046
-309.910	431.559	0.074	0.160
-308.895	-26.323	-0.146	-0.085
-307.880	-69.824	-0.226	-0.086
-306.866	251.460	0.124	0.209
-305.851	255.537	-0.096	-0.163
-304.837	178.806	0.087	-0.126
-303.822	-200.000	-0.059	0.325
-302.807	76.825	-0.090	0.095
-301.793	254.578	-0.162	-0.275
-300.778	514.315	-0.116	-0.270
-299.764	-46.036	0.199	0.097
-298.749	0.444	-0.125	-0.089
-297.735	109.937	0.115	-0.137
-296.720	-76.994	0.469	-0.163
-295.705	-167.338	-0.080	-0.003
-294.691	96.855	-0.086	-0.098
-293.676	-58.331	-0.224	-0.097
-292.662	-126.310	-0.159	-0.024
-291.647	290.876	-0.165	-0.299
-290.632	-14.045	0.306	-0.196
-289.618	800.000	-0.047	-0.187
-288.603	-58.717	-0.109	0.047
-287.589	-99.071	0.396	0.100
-286.574	-200.000	0.015	0.143
-285.559	800.000	-0.120	0.404
-284.545	-200.000	0.040	-0.331
-283.530	45.375	0.202	0.185
-282.516	55.509	0.248	0.238
-281.501	46.846	-0.097	-0.089
-280.486	682.893	0.106	0.274
-279.472	-200.000	-0.055	0.370
-278.457	349.893	0.098	0.193
-277.443	800.000	0.019	0.055
-276.428	-0.696	0.077	-0.054
-275.413	-169.049	-0.115	-0.004
-274.399	-9.116	-0.210	-0.139
-273.384	-46.562	0.071	-0.035
-272.370	-200.000	-0.004	0.200
-271.355	270.386	0.127	-0.221
-270.340	106.627	-0.167	-0.197
-269.326	121.605	-0.171	-0.212
-268.311	285.528	-0.034	-0.060
-267.297	800.000	0.040	-0.127
-266.282	368.194	-0.277	0.555
-265.267	279.919	0.118	-0.210
-264.253	-200.000	-0.036	-0.179
-263.238	-200.000	0.007	0.198
-262.224	-69.388	0.141	0.054
-261.209	-162.005	-0.322	-0.016
-260.195	711.954	-0.060	0.157
-259.180	147.840	0.279	0.373
-258.165	-150.771	0.137	-0.010
-257.151	800.000	0.006	-0.024
-256.136	-48.396	-0.323	0.154
-255.122	-7.327	0.064	0.043
-254.107	155.905	0.092	-0.126
-253.092	27.469	0.120	0.100
-252.078	-57.941	-0.365	-0.158
-251.063	-47.570	0.058	0.028
-250.049	-200.000	-0.035	-0.219
-249.034	158.070	0.052	0.072
-248.019	67.101	0.104	0.105
-247.005	-116.340	0.257	-0.047
-245.990	800.000	-0.104	0.340
-244.976	94.232	-0.151	0.170
-243.961	202.518	0.111	0.170
-242.946	50.931	-0.252	-0.236
-241.932	141.923	-0.117	-0.154
-240.917	82.650	0.263	-0.283
-239.903	-30.840	-0.225	-0.126
-238.888	-126.730	0.147	-0.022
-237.873	166.800	0.111	0.156
-236.859	-200.000	0.023	-0.129
-235.844	800.000	-0.072	-0.198
-234.830	168.705	0.097	-0.136
-233.815	-54.114	-0.198	0.089
-232.800	2.835	-0.145	-0.105
-231.786	756.358	-0.032	-0.085
-230.771	-200.000	-0.011	-0.212
-229.757	-86.609	0.386	0.117
-228.742	-24.244	0.070	0.042
-227.727	689.139	-0.132	-0.343
-226.713	374.401	-0.077	0.155
-225.698	-147.081	0.477	0.040
-224.684	-93.777	0.115	0.031
-223.669	368.015	-0.088	-0.176
-222.655	37.103	-0.234	0.205
-221.640	-128.265	-0.206	0.029
-220.625	292.710	-0.123	-0.222
-219.611	-138.895	-0.200	-0.022
-218.596	-177.942	0.073	-0.002
-217.582	-168.915	0.177	0.007
-216.567	735.494	0.036	-0.097
-215.552	624.530	-0.062	-0.154
-214.538	56.511	0.095	0.092
-213.523	143.823	-0.247	-0.326
-212.509	753.182	-0.068	-0.183
-211.494	243.788	-0.225	-0.373
-210.479	-121.351	0.064	0.011
-209.465	-200.000	-0.008	0.108
-208.450	-180.299	-0.110	0.002
-207.436	454.352	0.142	0.312
-206.421	183.199	0.117	0.171
-205.406	-130.118	-0.047	0.006
-204.392	333.801	0.174	0.334
-203.377	23.520	0.462	-0.376
-202.363	242.391	-0.056	0.093
-201.348	-49.742	0.171	-0.080
-200.333	-155.366	0.294	0.019
-199.319	126.901	0.215	-0.269
-198.304	-171.423	-0.147	-0.005
-197.290	4.928	-0.229	-0.167
-196.275	-59.644	0.108	-0.046
-195.260	-200.000	-0.043	-0.200
-194.246	-200.000	0.054	-0.257
-193.231	7.165	-0.057	0.042
-192.217	396.299	0.120	-0.249
-191.202	800.000	-0.112	-0.334
-190.187	-58.919	0.260	-0.111
-189.173	-200.000	0.251	0.000
-188.158	611.597	0.016	-0.039
-187.144	-100.034	0.147	0.036
-186.129	-43.550	-0.154	0.077
-185.114	247.569	0.136	-0.227
-184.100	-120.490	-0.277	0.046
-183.085	-113.172	0.292	-0.057
-182.071	-94.849	0.111	0.030
-181.056	658.723	-0.068	0.174
-180.042	-6.784	0.188	0.127
-179.027	-200.000	0.002	0.321
-178.012	-200.000	0.051	0.321
-176.998	201.632	0.138	0.210
-175.983	-93.688	-0.210	-0.057
-174.969	17.343	0.100	0.079
-173.954	294.994	-0.111	-0.200
-172.939	294.546	-0.048	-0.087
-171.925	-200.000	-0.013	-0.113
-170.910	-118.931	0.298	-0.052
-169.896	800.000	-0.017	-0.054
-168.881	253.924	0.161	-0.272
-167.866	-200.000	0.028	-0.173
-166.852	354.767	0.035	-0.069
-165.837	-1.962	0.049	0.034
-164.823	587.170	0.039	0.096
-163.808	-60.862	-0.343	0.144
-162.793	-79.082	-0.122	0.041
-161.779	-200.000	-0.044	-0.292
-160.764	-54.931	0.212	-0.095
-159.750	-99.452	-0.164	-0.041
-158.735	-161.648	0.365	-0.018
-157.720	481.124	0.064	0.143
-156.706	-114.521	0.183	-0.035
-155.691	499.513	-0.049	-0.113
-154.677	-200.000	0.002	0.062
-153.662	-200.000	-0.001	-0.075
-152.647	800.000	0.080	-0.278
-151.633	189.590	-0.239	-0.354
-150.618	210.458	0.182	-0.282
-149.604	386.749	-0.088	0.180
-148.589	-32.052	-0.225	0.124
-147.574	52.101	-0.246	-0.232
-146.560	-30.708	0.284	-0.159
-145.545	34.697	-0.035	-0.030
-144.531	-116.463	0.411	0.075
-143.516	-117.504	0.100	0.018
-142.502	800.000	0.004	-0.017
-141.487	-75.310	-0.323	0.114
-140.472	24.222	-0.107	-0.087
-139.458	-3.568	-0.103	-0.071
-138.443	-90.712	0.251	-0.072
-137.429	-200.000	-0.059	0.307
-136.414	-200.000	-0.064	0.291
-135.399	43.192	0.306	0.276
-134.385	-200.000	0.019	0.194
-133.370	475.464	0.091	0.204
-132.356	502.748	-0.133	0.303
-131.341	79.169	0.061	-0.064
-130.326	-11.910	-0.397	-0.257
-129.312	-90.703	0.429	0.122
-128.297	-111.695	-0.327	0.065
-127.283	800.000	0.071	-0.290
-126.268	-106.872	0.291	-0.064
-125.253	-12.183	-0.136	0.088
-124.239	136.861	0.055	0.071
-123.224	-200.000	-0.003	-0.243
-122.210	102.457	0.264	-0.304
