DTS Sentinel unit serial number:	SN413079Multiplexer serial number:	ORYXHardware model number:	OX4-SRSoftware version number:	ORYX F/W v4.00 Oryx Data Collector v3.7.2.0data status	okinstallation	princeton_trtdifferential loss correction	single-endedforward channel	channel 2reverse channel	N/Adate	2019/09/17time	01:15:35forward acquisition time	60.00reverse acquisition time	0.00gamma	496.2192k internal	0.2329k external	0.2329temperature offset calibration	0.9970default loss term (dB/km)	0.3790temperature slope calibration	1.0000multiplexer offset coefficient	1.0000multiplexer slope coefficient	1.0000fibre end	0.00T internal ref (°C)	29.50T ext. ref 1 (°C)	0.11T ext. ref 2 (°C)	24.19length (m)	temperature (°C)	Stokes	anti-Stokes-747.200	513.612	-0.163	0.384
-746.185	-63.512	-0.523	-0.217
-745.171	-200.000	0.020	-0.103
-744.156	-105.064	-0.299	0.069
-743.142	103.922	0.172	0.204
-742.127	800.000	-0.127	0.390
-741.112	269.451	-0.186	-0.330
-740.098	169.205	-0.102	0.147
-739.083	-129.080	0.258	-0.036
-738.069	-200.000	-0.045	0.513
-737.054	-24.002	0.178	-0.107
-736.039	-53.391	-0.543	-0.250
-735.025	-109.726	-0.116	-0.025
-734.010	42.305	0.187	-0.171
-732.996	-184.415	-0.225	-0.004
-731.981	481.904	-0.072	0.165
-730.966	800.000	-0.105	0.390
-729.952	800.000	-0.052	-0.195
-728.937	590.290	-0.080	-0.198
-727.923	73.406	0.153	0.161
-726.908	64.045	-0.066	0.067
-725.894	-99.610	-0.134	0.034
-724.879	264.560	0.191	-0.335
-723.864	-200.000	0.002	0.059
-722.850	-136.044	-0.488	-0.058
-721.835	-18.662	-0.341	-0.214
-720.821	-76.085	-0.320	0.114
-719.806	-16.037	-0.244	-0.156
-718.791	-71.106	0.430	-0.163
-717.777	55.750	0.132	-0.129
-716.762	-56.082	0.112	0.050
-715.748	800.000	-0.051	-0.211
-714.733	-200.000	-0.021	-0.360
-713.718	-87.723	0.103	0.031
-712.704	-33.365	0.171	-0.095
-711.689	85.728	-0.150	0.166
-710.675	-64.694	0.300	-0.122
-709.660	247.379	0.143	0.243
-708.645	309.782	-0.014	0.026
-707.631	-20.018	0.268	-0.166
-706.616	-13.001	-0.083	0.054
-705.602	-20.742	0.115	-0.071
-704.587	-155.660	-0.487	-0.031
-703.572	294.267	0.128	-0.235
-702.558	-179.444	0.088	0.002
-701.543	-12.776	0.078	0.051
-700.529	-200.000	0.044	0.218
-699.514	103.174	-0.235	-0.277
-698.499	-200.000	-0.036	-0.197
-697.485	-87.256	-0.225	0.069
-696.470	-108.239	-0.127	-0.028
-695.456	-200.000	0.034	0.302
-694.441	-200.000	-0.043	-0.326
-693.426	168.528	-0.100	0.143
-692.412	-60.642	0.216	-0.092
-691.397	-84.675	-0.170	-0.054
-690.383	88.226	-0.119	-0.132
-689.368	-102.847	0.392	0.094
-688.354	-200.000	-0.053	-0.266
-687.339	151.257	0.096	0.131
-686.324	145.672	0.021	-0.028
-685.310	175.462	-0.089	0.129
-684.295	45.781	0.091	-0.085
-683.281	429.995	-0.106	0.230
-682.266	800.000	-0.038	0.139
-681.251	800.000	-0.064	0.219
-680.237	237.114	0.027	-0.044
-679.222	-15.418	-0.285	0.183
-678.208	-127.457	0.272	-0.040
-677.193	-200.000	0.000	0.054
-676.178	800.000	0.041	-0.168
-675.164	171.719	-0.154	0.222
-674.149	41.749	-0.138	-0.126
-673.135	-200.000	-0.000	-0.321
-672.120	-200.000	0.023	-0.214
-671.105	-122.082	-0.233	-0.038
-670.091	-152.016	0.190	-0.014
-669.076	63.927	-0.077	0.078
-668.062	-133.452	0.276	-0.035
-667.047	-171.275	-0.236	0.008
-666.032	119.985	-0.032	0.040
-665.018	-200.000	0.008	-0.073
-664.003	800.000	0.125	-0.361
-662.989	231.299	0.229	0.376
-661.974	38.022	0.156	-0.139
-660.959	-187.681	-0.309	0.004
-659.945	-200.000	-0.016	-0.150
-658.930	-45.638	0.118	0.059
-657.916	-110.806	-0.140	0.029
-656.901	42.680	-0.057	0.052
-655.886	25.778	0.278	-0.232
-654.872	14.453	-0.309	0.242
-653.857	-102.568	0.195	0.047
-652.843	-200.000	-0.066	-0.303
-651.828	260.226	0.143	-0.247
-650.814	80.133	0.135	0.145
-649.799	117.358	-0.135	0.167
-648.784	-64.635	-0.105	0.043
-647.770	166.473	-0.020	0.029
-646.755	-76.264	0.070	-0.025
-645.741	-89.379	0.192	0.057
-644.726	-178.549	-0.207	-0.005
-643.711	235.433	-0.080	-0.133
-642.697	800.000	-0.062	-0.202
-641.682	-200.000	-0.012	-0.169
-640.668	761.991	0.046	0.126
-639.653	13.062	-0.256	-0.199
-638.638	211.868	-0.146	0.230
-637.624	-120.719	0.206	0.035
-636.609	285.332	0.191	-0.345
-635.595	-166.168	-0.279	-0.012
-634.580	-52.041	0.279	0.130
-633.565	-56.023	-0.297	-0.133
-632.551	-112.417	-0.032	0.006
-631.536	-200.000	-0.003	-0.071
-630.522	75.857	-0.069	0.073
-629.507	-31.429	-0.220	0.124
-628.492	800.000	0.132	0.451
-627.478	170.153	-0.118	0.169
-626.463	349.556	-0.170	0.336
-625.449	-107.300	-0.136	-0.030
-624.434	20.237	0.073	0.059
-623.419	-121.505	-0.228	-0.038
-622.405	-200.000	-0.006	0.162
-621.390	-200.000	-0.021	-0.198
-620.376	-29.440	-0.155	-0.089
-619.361	168.621	0.211	-0.302
-618.346	-200.000	0.008	0.102
-617.332	603.993	0.132	-0.328
-616.317	-59.948	-0.374	-0.160
-615.303	358.061	0.148	-0.297
-614.288	179.152	0.183	0.269
-613.273	36.570	0.176	-0.155
-612.259	-29.404	0.316	-0.181
-611.244	-200.000	0.059	-0.313
-610.230	-93.945	-0.349	-0.096
-609.215	454.925	-0.091	0.203
-608.201	-124.624	0.312	0.048
-607.186	800.000	0.047	0.178
-606.171	42.454	0.112	-0.102
-605.157	-131.792	-0.176	0.023
-604.142	226.205	-0.119	-0.193
-603.128	516.976	-0.065	0.153
-602.113	584.021	0.087	-0.213
-601.098	-9.725	-0.081	-0.054
-600.084	800.000	-0.052	-0.196
-599.069	8.426	-0.072	-0.054
-598.055	800.000	0.054	0.162
-597.040	349.599	0.116	0.229
-596.025	-200.000	0.005	-0.123
-595.011	-87.662	-0.168	-0.051
-593.996	-186.735	-0.365	0.005
-592.982	-138.785	-0.149	0.016
-591.967	800.000	0.005	0.017
-590.952	70.662	-0.216	0.224
-589.938	114.050	-0.207	-0.253
-588.923	-49.156	0.295	-0.141
-587.909	535.459	0.163	0.387
-586.894	-88.916	0.234	0.070
-585.879	4.199	-0.059	0.044
-584.865	-200.000	0.000	-0.184
-583.850	-127.895	-0.303	0.044
-582.836	109.040	-0.037	0.045
-581.821	-91.054	-0.150	-0.043
-580.806	211.360	-0.150	0.237
-579.792	110.309	-0.056	-0.067
-578.777	-200.000	0.019	-0.100
-577.763	90.332	0.045	-0.050
-576.748	-148.461	-0.172	-0.014
-575.733	-85.542	0.066	-0.021
-574.719	-70.848	-0.278	-0.105
-573.704	-80.721	-0.124	0.041
-572.690	139.243	-0.126	0.166
-571.675	-200.000	0.002	-0.049
-570.661	-35.368	-0.197	0.107
-569.646	-96.135	0.239	-0.063
-568.631	58.787	-0.250	-0.246
-567.617	-173.918	0.124	0.004
-566.602	-144.832	-0.362	0.033
-565.588	-200.000	-0.324	0.001
-564.573	-200.000	-0.049	-0.365
-563.558	-100.277	-0.095	-0.023
-562.544	699.078	0.018	0.048
-561.529	-143.418	0.239	-0.023
-560.515	264.696	-0.191	0.332
-559.500	198.735	0.069	0.106
-558.485	-200.000	0.010	0.496
-557.471	128.026	0.195	-0.248
-556.456	-200.000	-0.025	0.179
-555.442	800.000	-0.146	-0.441
-554.427	-153.117	-0.349	-0.024
-553.412	-103.648	0.100	0.024
-552.398	-83.813	0.645	0.206
-551.383	-0.749	0.137	0.097
-550.369	90.746	-0.235	0.263
-549.354	-12.260	0.242	0.158
-548.339	-102.088	-0.187	0.045
-547.325	-48.069	0.257	-0.124
-546.310	-45.559	0.168	0.083
-545.296	-4.133	-0.130	0.090
-544.281	-200.000	-0.021	0.387
-543.266	-200.000	-0.028	0.198
-542.252	6.926	-0.242	0.180
-541.237	11.194	0.104	0.080
-540.223	-22.498	-0.240	-0.145
-539.208	-151.860	0.290	-0.021
-538.193	-200.000	0.033	0.384
-537.179	-200.000	-0.036	-0.172
-536.164	90.521	0.166	0.185
-535.150	31.420	-0.318	0.273
-534.135	-200.000	-0.005	0.065
-533.121	-2.906	-0.160	0.111
-532.106	-173.662	-0.243	-0.007
-531.091	-22.940	-0.136	-0.082
-530.077	-104.528	0.159	-0.037
-529.062	800.000	-0.054	-0.150
-528.048	213.783	0.024	-0.039
-527.033	-200.000	-0.010	-0.415
-526.018	368.557	-0.084	0.170
-525.004	-143.911	0.184	0.017
-523.989	-200.000	-0.023	-0.141
-522.975	498.958	0.041	-0.095
-521.960	36.533	-0.326	-0.287
-520.945	-34.210	0.144	0.079
-519.931	800.000	0.011	-0.042
-518.916	-17.226	0.046	0.029
-517.902	-200.000	0.047	0.000
-516.887	800.000	0.048	-0.149
-515.872	146.434	0.153	-0.204
-514.858	-19.526	0.084	-0.052
-513.843	800.000	0.064	0.216
-512.829	-167.694	-0.107	0.004
-511.814	-71.713	0.330	-0.123
-510.799	266.836	-0.033	0.057
-509.785	-200.000	-0.074	-0.422
-508.770	-200.000	0.007	-0.162
-507.756	-23.803	0.243	0.145
-506.741	576.003	0.133	-0.323
-505.726	-68.767	0.172	-0.066
-504.712	-150.989	-0.150	-0.011
-503.697	-0.718	-0.071	0.050
-502.683	-50.570	-0.022	-0.010
-501.668	24.334	0.057	-0.047
-500.653	-200.000	-0.018	0.085
-499.639	-70.726	0.093	0.035
-498.624	-200.000	-0.001	0.194
-497.610	63.976	0.158	-0.158
-496.595	72.498	0.108	0.112
-495.581	-46.057	0.218	-0.107
-494.566	-62.342	-0.056	-0.023
-493.551	415.354	-0.141	-0.301
-492.537	-200.000	0.029	0.234
-491.522	-20.014	0.038	0.023
-490.508	-195.622	-0.232	-0.002
-489.493	-200.000	-0.049	-0.224
-488.478	-120.386	0.248	-0.042
-487.464	-73.595	0.080	0.029
-486.449	-200.000	0.001	0.045
-485.435	103.859	-0.051	0.059
-484.420	334.118	0.129	0.250
-483.405	-91.503	-0.191	0.054
-482.391	251.449	-0.127	0.216
-481.376	-24.316	-0.051	0.030
-480.362	-25.348	-0.340	0.201
-479.347	-79.080	-0.352	-0.119
-478.332	-14.359	-0.302	0.194
-477.318	-58.315	0.312	-0.135
-476.303	-35.451	-0.036	-0.019
-475.289	800.000	0.152	0.518
-474.274	800.000	-0.038	0.139
-473.259	91.379	-0.183	-0.205
-472.245	800.000	-0.099	-0.321
-471.230	721.080	-0.075	-0.199
-470.216	-150.583	0.237	0.018
-469.201	-101.476	-0.290	0.070
-468.186	-148.699	-0.365	0.030
-467.172	-200.000	0.021	-0.102
-466.157	607.499	0.103	-0.255
-465.143	226.379	-0.122	-0.198
-464.128	-200.000	0.057	-0.265
-463.113	98.242	-0.180	0.206
-462.099	94.303	0.151	0.170
-461.084	-91.224	0.369	0.105
-460.070	-99.847	-0.047	0.012
-459.055	9.732	0.239	0.181
-458.040	-61.328	-0.308	0.129
-457.026	800.000	-0.075	0.236
-456.011	-78.109	0.224	-0.077
-454.997	-200.000	0.275	-0.001
-453.982	-66.272	-0.092	0.036
-452.968	-200.000	0.011	-0.245
-451.953	-29.447	-0.192	-0.109
-450.938	-77.075	-0.172	0.060
-449.924	800.000	-0.063	-0.236
-448.909	800.000	-0.076	0.259
-447.895	800.000	0.116	0.331
-446.880	-200.000	-0.046	-0.258
-445.865	800.000	-0.023	-0.078
-444.851	117.205	0.075	-0.091
-443.836	800.000	0.020	-0.071
-442.822	-165.668	-0.351	-0.015
-441.807	-12.794	-0.195	0.126
-440.792	4.831	-0.332	-0.243
-439.778	220.918	-0.119	-0.191
-438.763	207.307	0.140	0.217
-437.749	800.000	-0.034	-0.140
-436.734	40.340	-0.122	-0.109
-435.719	-91.684	0.176	0.050
-434.705	-24.039	0.134	-0.080
-433.690	800.000	-0.100	0.296
-432.676	182.540	0.086	-0.127
-431.661	-169.824	-0.184	-0.007
-430.646	-200.000	0.005	0.254
-429.632	-79.474	0.338	0.114
-428.617	78.613	-0.113	0.120
-427.603	-0.091	0.115	0.082
-426.588	-137.151	0.140	0.016
-425.573	-39.500	0.210	-0.110
-424.559	389.550	0.118	-0.243
-423.544	-53.459	-0.092	0.042
-422.530	-170.351	-0.157	-0.005
-421.515	543.269	-0.047	0.111
-420.500	314.370	-0.228	0.428
-419.486	54.302	-0.134	-0.128
-418.471	800.000	-0.092	-0.262
-417.457	29.847	0.178	-0.151
-416.442	-28.755	0.068	0.039
-415.428	172.511	-0.165	0.236
-414.413	-37.613	-0.167	0.089
-413.398	-200.000	0.026	0.164
-412.384	-1.381	0.113	0.079
-411.369	116.655	0.034	0.041
-410.355	6.915	0.247	-0.183
-409.340	-162.615	0.314	0.015
-408.325	267.217	-0.144	0.251
-407.311	-52.675	-0.139	0.064
-406.296	240.728	0.166	0.276
-405.282	636.051	-0.076	0.193
-404.267	125.308	-0.030	0.038
-403.252	-200.000	0.022	-0.369
-402.238	-116.336	0.122	-0.022
-401.223	-200.000	0.062	0.481
-400.209	-200.000	-0.061	0.382
-399.194	-129.212	-0.185	0.026
-398.179	-200.000	0.016	0.246
-397.165	35.197	0.309	-0.269
-396.150	-200.000	0.002	-0.126
-395.136	-0.525	-0.167	0.118
-394.121	800.000	0.028	-0.103
-393.106	-96.545	-0.268	-0.070
-392.092	519.934	0.043	-0.100
-391.077	-200.000	0.033	-0.180
-390.063	-200.000	-0.034	0.236
-389.048	800.000	0.051	0.161
-388.033	95.498	0.102	0.116
-387.019	-41.326	0.252	-0.129
-386.004	315.700	0.117	-0.219
-384.990	10.443	0.276	-0.209
-383.975	-41.877	0.140	-0.071
-382.960	-50.178	0.196	0.092
-381.946	800.000	-0.070	0.256
-380.931	-71.938	0.226	0.084
-379.917	138.408	0.133	-0.174
-378.902	800.000	-0.074	-0.226
-377.888	-145.157	-0.137	0.012
-376.873	-174.952	0.205	-0.006
-375.858	29.692	-0.084	0.071
-374.844	-200.000	-0.001	-0.100
-373.829	-101.994	0.069	0.016
-372.815	-123.887	-0.264	0.041
-371.800	319.717	0.125	0.235
-370.785	-92.225	-0.260	-0.073
-369.771	100.382	-0.103	-0.118
-368.756	103.197	-0.177	-0.206
-367.742	-100.446	0.334	-0.082
-366.727	-200.000	-0.005	0.061
-365.712	800.000	0.072	-0.283
-364.698	-100.724	-0.153	0.037
-363.683	-182.236	-0.040	0.001
-362.669	-112.153	-0.277	0.055
-361.654	346.119	0.013	-0.025
-360.639	-200.000	0.007	-0.107
-359.625	92.031	-0.032	0.036
-358.610	-82.264	0.122	-0.039
-357.596	-17.774	0.192	0.119
-356.581	71.648	0.169	0.174
-355.566	684.187	0.068	-0.175
-354.552	-26.199	0.055	0.032
-353.537	42.362	0.282	-0.254
-352.523	-200.000	-0.049	-0.246
-351.508	120.625	0.184	-0.227
-350.493	800.000	-0.075	-0.252
-349.479	78.374	0.044	0.046
-348.464	-200.000	0.024	-0.133
-347.450	-57.335	-0.143	-0.062
-346.435	55.232	-0.180	0.173
-345.420	-200.000	0.012	-0.141
-344.406	45.293	0.270	-0.247
-343.391	-46.472	-0.310	-0.151
-342.377	-68.253	0.225	-0.087
-341.362	-55.230	0.278	-0.124
-340.348	465.027	-0.104	0.230
-339.333	-75.215	-0.341	-0.121
-338.318	800.000	-0.090	-0.371
-337.304	-180.972	-0.423	-0.008
-336.289	9.992	0.167	-0.126
-335.275	-73.389	0.287	-0.104
-334.260	-200.000	0.041	-0.251
-333.245	800.000	0.039	-0.122
-332.231	10.319	0.310	0.234
-331.216	-200.000	-0.056	0.317
-330.202	-9.095	-0.100	-0.067
-329.187	-96.937	0.152	0.040
-328.172	26.512	-0.186	0.154
-327.158	-13.687	0.114	0.073
-326.143	-10.906	-0.351	-0.230
-325.129	-200.000	-0.011	-0.533
-324.114	40.569	-0.059	0.053
-323.099	-200.000	0.030	-0.189
-322.085	39.600	0.078	0.069
-321.070	-200.000	0.049	-0.278
-320.056	-135.888	-0.156	0.018
-319.041	37.730	0.157	-0.139
-318.026	800.000	-0.016	-0.047
-317.012	217.354	-0.180	-0.285
-315.997	-66.334	-0.086	-0.034
-314.983	-151.902	-0.207	0.015
-313.968	-112.985	0.033	-0.006
-312.953	-27.877	0.216	-0.124
-311.939	-200.000	0.019	0.195
-310.924	439.043	0.080	0.172
-309.910	-200.000	-0.038	0.328
-308.895	198.120	-0.157	-0.237
-307.880	281.711	0.223	-0.396
-306.866	-200.000	0.061	0.282
-305.851	52.543	0.122	0.115
-304.837	-140.839	-0.112	0.011
-303.822	-154.278	0.145	-0.010
-302.807	-120.387	0.401	0.068
-301.793	47.775	0.225	-0.208
-300.778	13.505	-0.192	-0.148
-299.764	-46.377	-0.241	0.117
-298.749	-73.515	0.275	-0.099
-297.735	-115.753	0.175	-0.033
-296.720	278.232	-0.072	0.127
-295.705	-88.040	0.564	0.168
-294.691	-60.876	0.219	0.092
-293.676	800.000	-0.082	0.297
-292.662	-61.746	0.173	-0.072
-291.647	-92.987	0.256	-0.071
-290.632	-22.052	-0.211	0.127
-289.618	-165.262	-0.239	-0.010
-288.603	-181.208	-0.272	0.005
-287.589	62.731	-0.141	0.140
-286.574	-124.447	0.324	-0.050
-285.559	-54.439	-0.041	-0.019
-284.545	800.000	-0.088	-0.316
-283.530	88.325	-0.259	0.285
-282.516	82.022	0.094	0.100
-281.501	246.354	0.133	0.221
-280.486	33.843	-0.180	0.155
-279.472	155.165	0.149	-0.202
-278.457	-200.000	-0.033	-0.214
-277.443	-200.000	0.004	0.085
-276.428	-61.596	-0.208	-0.086
-275.413	800.000	0.009	-0.031
-274.399	-113.989	-0.109	0.021
-273.384	-96.836	-0.125	-0.033
-272.370	555.577	-0.078	0.186
-271.355	-126.906	0.077	0.011
-270.340	-108.705	0.433	0.092
-269.326	-200.000	0.030	0.187
-268.311	181.797	0.111	-0.162
-267.297	412.308	-0.131	0.274
-266.282	800.000	-0.153	0.438
-265.267	-50.934	0.387	-0.179
-264.253	263.812	0.133	0.229
-263.238	800.000	0.083	0.252
-262.224	222.328	-0.194	-0.309
-261.209	632.854	-0.173	-0.434
-260.195	-200.000	-0.020	0.137
-259.180	-200.000	0.016	0.266
-258.165	-110.220	0.325	0.067
-257.151	-200.000	-0.003	0.197
-256.136	800.000	-0.047	0.129
-255.122	-52.080	0.181	-0.083
-254.107	15.933	0.031	0.024
-253.092	69.084	-0.168	-0.171
-252.078	-14.551	-0.235	-0.149
-251.063	-120.310	0.067	-0.011
-250.049	-26.780	-0.198	0.114
-249.034	-200.000	0.056	0.348
-248.019	-39.636	0.068	0.035
-247.005	35.341	-0.156	-0.135
-245.990	702.466	0.082	0.213
-244.976	207.084	-0.049	0.075
-243.961	-119.160	-0.069	-0.012
-242.946	-37.908	0.124	0.065
-241.932	-34.240	0.278	-0.151
-240.917	114.266	0.101	0.121
-239.903	800.000	-0.062	-0.190
-238.888	118.055	0.062	0.075
-237.873	327.114	0.242	0.458
-236.859	103.386	0.139	-0.162
-235.844	-200.000	0.010	0.432
-234.830	-27.678	-0.241	0.138
-233.815	368.396	-0.157	-0.314
-232.800	-8.039	-0.147	-0.098
-231.786	599.763	0.079	-0.194
-230.771	-51.871	-0.156	0.072
-229.757	-200.000	0.043	-0.259
-228.742	409.340	0.101	0.211
-227.727	-200.000	0.017	-0.085
-226.713	-155.131	-0.227	0.015
-225.698	174.267	0.151	0.216
-224.684	-89.728	0.116	0.033
-223.669	-133.693	0.302	0.037
-222.655	800.000	-0.124	-0.345
-221.640	118.117	0.134	0.163
-220.625	49.553	-0.216	-0.201
-219.611	-200.000	0.009	-0.132
-218.596	-200.000	0.010	-0.185
-217.582	-189.548	-0.181	-0.002
-216.567	-78.480	0.438	-0.148
-215.552	216.930	0.044	-0.070
-214.538	-46.803	0.510	-0.246
-213.523	352.389	0.024	-0.047
-212.509	-200.000	0.002	0.473
-211.494	-200.000	-0.052	-0.286
-210.479	480.491	-0.074	-0.166
-209.465	-200.000	-0.047	-0.364
-208.450	5.845	0.096	-0.070
-207.436	800.000	0.090	0.327
-206.421	613.800	0.103	0.255
-205.406	-200.000	0.016	0.308
-204.392	800.000	-0.035	-0.133
-203.377	49.780	0.239	0.222
-202.363	-22.711	0.052	-0.031
-201.348	-79.492	-0.185	0.062
-200.333	-23.304	0.174	-0.103
-199.319	800.000	0.019	0.061
-198.304	-200.000	0.016	-0.152
-197.290	-200.000	0.014	0.237
-196.275	-104.379	-0.200	0.046
-195.260	-69.976	0.505	-0.190
-194.246	-200.000	0.014	0.405
-193.231	-124.998	-0.255	0.039
-192.217	92.911	-0.231	-0.257
-191.202	123.086	0.164	-0.202
-190.187	98.408	-0.094	-0.106
-189.173	-70.178	0.124	0.046
-188.158	-200.000	-0.421	-0.001
-187.144	-131.858	0.447	0.058
-186.129	800.000	0.106	-0.322
-185.114	-103.090	0.312	-0.073
-184.100	2.184	0.075	-0.054
-183.085	26.103	0.345	0.284
-182.071	-174.956	-0.143	0.004
-181.056	800.000	-0.109	-0.439
-180.042	-142.516	-0.217	-0.021
-179.027	320.139	-0.034	0.064
-178.012	-200.000	-0.019	0.105
-176.998	182.964	0.051	0.075
-175.983	-200.000	-0.029	-0.141
-174.969	-74.163	-0.161	-0.057
-173.954	498.325	0.079	0.179
-172.939	800.000	-0.058	0.164
-171.925	-116.524	-0.347	-0.063
-170.910	-82.993	-0.051	0.016
-169.896	800.000	0.039	0.140
-168.881	428.538	0.013	0.027
-167.866	-200.000	0.033	0.235
-166.852	154.746	0.009	-0.012
-165.837	-45.198	0.074	-0.036
-164.823	-119.612	0.068	-0.012
-163.808	-200.000	0.093	-0.000
-162.793	-76.814	0.257	0.089
-161.779	6.352	-0.240	0.175
-160.764	800.000	-0.147	0.443
-159.750	800.000	-0.026	0.088
-158.735	205.279	-0.038	0.058
-157.720	-78.728	0.176	-0.059
-156.706	152.718	-0.258	-0.348
-155.691	-19.958	-0.271	-0.165
-154.677	190.079	-0.230	0.339
-153.662	-103.245	0.383	-0.089
-152.647	-18.210	-0.187	-0.115
-151.633	-149.533	0.256	-0.020
-150.618	37.700	-0.291	0.254
-149.604	800.000	0.042	0.170
-148.589	186.993	0.169	-0.248
-147.574	-47.011	0.115	0.055
-146.560	-135.586	-0.254	-0.030
-145.545	126.996	0.162	0.203
-144.531	-43.578	0.325	0.162
-143.516	-144.225	0.224	0.021
-142.502	-1.600	-0.163	-0.113
-141.487	572.398	0.085	-0.205
-140.472	2.812	0.131	0.093
-139.458	-112.697	-0.032	-0.006
-138.443	387.224	-0.161	-0.328
-137.429	162.753	-0.176	-0.243
-136.414	-200.000	-0.006	0.078
-135.399	800.000	-0.112	-0.317
-134.385	800.000	-0.194	-0.576
-133.370	-153.954	-0.123	0.008
-132.356	41.347	0.149	-0.132
-131.341	24.779	0.059	0.048
-130.326	-15.586	0.119	0.075
-129.312	228.904	-0.203	-0.326
-128.297	82.666	-0.097	0.104
-127.283	197.824	0.130	0.195
-126.268	311.268	-0.072	0.132
-125.253	139.968	-0.156	-0.202
-124.239	-51.131	-0.350	-0.161
-123.224	151.253	-0.267	0.357
-122.210	-116.846	0.216	-0.039
