DTS Sentinel unit serial number:	SN413079Multiplexer serial number:	ORYXHardware model number:	OX4-SRSoftware version number:	ORYX F/W v4.00 Oryx Data Collector v3.7.2.0data status	okinstallation	princeton_trtdifferential loss correction	single-endedforward channel	channel 2reverse channel	N/Adate	2019/09/16time	09:35:34forward acquisition time	60.00reverse acquisition time	0.00gamma	496.2192k internal	0.2324k external	0.2324temperature offset calibration	0.9965default loss term (dB/km)	0.3790temperature slope calibration	1.0000multiplexer offset coefficient	1.0000multiplexer slope coefficient	1.0000fibre end	0.00T internal ref (°C)	32.08T ext. ref 1 (°C)	12.25T ext. ref 2 (°C)	29.89length (m)	temperature (°C)	Stokes	anti-Stokes-747.200	183.416	0.121	-0.181
-746.185	800.000	-0.056	0.175
-745.171	170.016	-0.152	0.220
-744.156	274.737	0.034	0.061
-743.142	-113.866	0.213	0.042
-742.127	-69.145	0.047	0.018
-741.112	-75.335	-0.156	-0.056
-740.098	373.866	0.084	0.172
-739.083	-30.015	-0.196	-0.112
-738.069	62.848	-0.130	0.131
-737.054	112.218	0.139	-0.170
-736.039	-124.112	-0.281	0.045
-735.025	-27.399	0.316	0.186
-734.010	-200.000	-0.028	-0.263
-732.996	-70.538	-0.530	-0.202
-731.981	-147.171	-0.128	0.011
-730.966	800.000	0.121	-0.524
-729.952	800.000	-0.110	-0.312
-728.937	-119.041	-0.406	0.072
-727.923	143.913	0.026	-0.036
-726.908	299.561	-0.142	0.263
-725.894	800.000	-0.051	-0.196
-724.879	280.726	-0.149	-0.270
-723.864	50.752	-0.200	-0.191
-722.850	-5.690	0.113	0.078
-721.835	-200.000	-0.065	0.431
-720.821	57.976	-0.127	-0.126
-719.806	87.557	0.066	0.073
-718.791	-100.552	0.452	-0.113
-717.777	120.330	-0.139	0.174
-716.762	-92.808	0.275	-0.077
-715.748	-43.172	-0.387	-0.198
-714.733	-154.555	0.105	-0.007
-713.718	-29.125	0.086	0.050
-712.704	270.308	-0.031	0.054
-711.689	-200.000	-0.023	0.268
-710.675	-200.000	0.012	0.169
-709.660	-200.000	0.016	0.099
-708.645	-200.000	0.020	-0.148
-707.631	800.000	-0.129	-0.484
-706.616	-138.910	0.163	-0.018
-705.602	-105.551	-0.268	0.061
-704.587	-33.497	-0.237	0.132
-703.572	-200.000	0.066	0.301
-702.558	38.141	-0.126	-0.113
-701.543	456.137	0.038	0.085
-700.529	-14.388	-0.267	0.173
-699.514	166.629	0.071	0.101
-698.499	800.000	0.048	-0.185
-697.485	800.000	-0.094	-0.389
-696.470	93.205	-0.159	-0.181
-695.456	-119.524	-0.429	0.075
-694.441	-124.156	-0.114	0.018
-693.426	-180.186	-0.171	-0.004
-692.412	399.612	0.147	-0.310
-691.397	-69.255	0.156	-0.061
-690.383	36.071	-0.317	0.281
-689.368	-146.939	0.409	-0.035
-688.354	121.227	-0.131	-0.164
-687.339	90.141	0.052	0.059
-686.324	-71.029	0.299	0.113
-685.310	-22.427	-0.065	-0.040
-684.295	-169.171	0.272	-0.010
-683.281	594.939	0.130	0.324
-682.266	48.575	-0.068	-0.064
-681.251	159.930	-0.069	0.097
-680.237	11.571	-0.254	-0.196
-679.222	-149.574	-0.100	-0.008
-678.208	-51.991	0.187	0.087
-677.193	6.529	-0.227	0.170
-676.178	-200.000	0.027	-0.185
-675.164	94.918	-0.198	0.227
-674.149	148.049	-0.157	0.213
-673.135	-92.820	-0.259	-0.073
-672.120	677.900	-0.016	-0.042
-671.105	-49.928	0.116	0.055
-670.091	-84.683	0.423	-0.134
-669.076	31.715	-0.096	-0.083
-668.062	83.516	0.157	-0.172
-667.047	467.146	0.062	0.141
-666.032	241.763	-0.089	-0.150
-665.018	-83.990	-0.213	-0.068
-664.003	-101.641	-0.344	-0.084
-662.989	-200.000	0.054	-0.288
-661.974	302.961	-0.086	0.160
-660.959	-200.000	-0.048	0.294
-659.945	-200.000	0.085	-0.435
-658.930	-29.395	0.148	0.085
-657.916	-200.000	0.009	-0.276
-656.901	-115.358	-0.251	-0.048
-655.886	6.585	0.230	-0.172
-654.872	-166.106	0.255	0.011
-653.857	159.780	-0.045	-0.063
-652.843	-18.550	-0.128	0.081
-651.828	-33.059	0.105	-0.059
-650.814	151.142	-0.111	0.152
-649.799	154.962	0.085	-0.117
-648.784	239.901	-0.086	0.144
-647.770	-45.301	-0.302	0.151
-646.755	701.638	-0.066	-0.175
-645.741	-85.831	-0.361	0.112
-644.726	156.159	0.085	0.118
-643.711	27.112	0.123	-0.104
-642.697	-200.000	-0.042	-0.263
-641.682	178.985	-0.161	0.237
-640.668	-200.000	0.001	0.037
-639.653	-24.387	-0.145	-0.087
-638.638	800.000	0.054	0.190
-637.624	-175.504	0.198	-0.005
-636.609	-22.883	-0.172	-0.104
-635.595	-63.653	-0.089	0.037
-634.580	28.983	-0.170	0.145
-633.565	153.196	-0.131	-0.181
-632.551	468.677	0.149	0.337
-631.536	-117.541	-0.223	0.040
-630.522	-130.444	-0.085	0.011
-629.507	37.294	0.140	0.124
-628.492	43.143	-0.169	0.155
-627.478	-60.581	0.304	-0.130
-626.463	388.820	0.063	-0.132
-625.449	-27.836	0.528	-0.308
-624.434	276.403	-0.179	0.320
-623.419	-200.000	-0.039	-0.333
-622.405	-121.378	-0.214	0.036
-621.390	800.000	-0.041	0.131
-620.376	800.000	-0.043	0.168
-619.361	43.843	-0.059	-0.054
-618.346	-39.041	-0.258	0.136
-617.332	684.485	-0.053	0.140
-616.317	83.632	0.128	-0.141
-615.303	108.358	0.178	-0.214
-614.288	302.900	0.038	0.070
-613.273	-93.079	0.134	-0.037
-612.259	-200.000	0.020	-0.248
-611.244	76.318	-0.159	-0.169
-610.230	-200.000	-0.028	0.282
-609.215	-200.000	-0.014	-0.104
-608.201	-137.002	-0.106	0.012
-607.186	-200.000	-0.002	-0.009
-606.171	800.000	-0.026	0.111
-605.157	20.595	0.187	0.152
-604.142	49.054	0.129	0.121
-603.128	800.000	-0.031	-0.094
-602.113	-200.000	-0.019	-0.299
-601.098	-200.000	0.005	-0.077
-600.084	-87.734	-0.091	0.028
-599.069	233.752	-0.160	-0.264
-598.055	29.441	0.093	0.080
-597.040	157.264	-0.184	0.256
-596.025	-98.354	0.199	-0.051
-595.011	127.683	0.253	0.323
-593.996	-104.139	0.078	0.018
-592.982	42.533	-0.107	-0.098
-591.967	-131.135	0.224	0.030
-590.952	-141.762	0.161	0.016
-589.938	-200.000	0.004	0.165
-588.923	129.482	0.203	-0.260
-587.909	-129.092	-0.340	-0.048
-586.894	-67.132	0.108	-0.043
-585.879	-80.980	-0.181	-0.060
-584.865	422.696	0.137	0.294
-583.850	-131.474	-0.369	0.049
-582.836	429.670	0.079	-0.171
-581.821	580.889	-0.076	-0.187
-580.806	543.170	0.089	0.213
-579.792	800.000	0.074	0.320
-578.777	-200.000	-0.025	-0.174
-577.763	11.147	0.279	0.214
-576.748	-88.422	0.306	0.092
-575.733	359.219	0.074	-0.148
-574.719	-70.138	0.146	-0.056
-573.704	-200.000	0.037	-0.290
-572.690	35.780	-0.208	-0.183
-571.675	-140.099	0.192	-0.020
-570.661	89.591	-0.098	0.109
-569.646	-200.000	0.049	0.235
-568.631	800.000	0.054	-0.221
-567.617	511.593	0.151	-0.353
-566.602	-200.000	0.020	-0.278
-565.588	-200.000	-0.007	-0.072
-564.573	-50.759	0.080	0.038
-563.558	-2.456	-0.106	0.075
-562.544	19.012	-0.144	0.116
-561.529	28.826	0.152	0.129
-560.515	-200.000	-0.038	-0.335
-559.500	-50.035	-0.350	-0.166
-558.485	800.000	0.106	0.360
-557.471	800.000	0.010	-0.036
-556.456	800.000	-0.146	-0.493
-555.442	-200.000	-0.015	-0.192
-554.427	-91.944	-0.061	0.017
-553.412	800.000	0.098	0.426
-552.398	-43.426	-0.127	0.064
-551.383	180.823	-0.186	0.274
-550.369	167.550	-0.050	-0.072
-549.354	263.514	-0.156	-0.271
-548.339	-137.473	-0.117	0.013
-547.325	11.881	0.250	-0.193
-546.310	-189.763	-0.149	-0.002
-545.296	-33.302	0.218	-0.121
-544.281	-12.665	-0.106	-0.069
-543.266	94.997	-0.133	-0.151
-542.252	794.212	0.030	-0.082
-541.237	532.666	-0.078	0.186
-540.223	440.515	0.138	0.302
-539.208	64.596	-0.254	0.257
-538.193	165.566	0.056	0.079
-537.179	-85.873	0.057	-0.018
-536.164	-160.589	0.248	0.013
-535.150	-200.000	0.075	0.405
-534.135	-13.675	-0.290	0.188
-533.121	21.132	0.082	0.067
-532.106	800.000	0.067	0.201
-531.091	3.126	-0.030	-0.022
-530.077	-131.952	-0.129	-0.017
-529.062	71.630	0.262	0.272
-528.048	229.239	0.073	0.119
-527.033	-120.311	0.070	0.012
-526.018	-200.000	0.048	0.249
-525.004	174.664	0.176	-0.254
-523.989	-89.006	-0.158	0.047
-522.975	513.763	-0.046	-0.108
-521.960	-65.312	0.055	-0.022
-520.945	406.078	-0.060	0.128
-519.931	61.354	-0.243	-0.242
-518.916	118.071	-0.174	0.215
-517.902	212.603	-0.148	0.234
-516.887	-39.473	0.030	-0.016
-515.872	-109.786	0.084	0.018
-514.858	8.599	-0.125	-0.094
-513.843	-149.809	-0.218	0.017
-512.829	-40.146	-0.377	0.196
-511.814	-119.771	0.086	0.015
-510.799	41.139	-0.215	-0.194
-509.785	800.000	-0.131	-0.385
-508.770	-200.000	0.071	-0.374
-507.756	557.021	0.144	0.347
-506.741	678.416	-0.016	-0.042
-505.726	-130.621	0.245	0.033
-504.712	-200.000	-0.003	0.112
-503.697	-131.831	0.224	0.029
-502.683	270.797	-0.257	-0.452
-501.668	-48.061	-0.227	0.110
-500.653	-200.000	-0.021	0.113
-499.639	-200.000	0.030	-0.160
-498.624	800.000	-0.022	-0.071
-497.610	-70.863	0.088	-0.033
-496.595	8.625	-0.169	-0.127
-495.581	412.206	-0.053	0.112
-494.566	800.000	0.099	-0.414
-493.551	-200.000	-0.006	-0.382
-492.537	-161.359	0.240	0.012
-491.522	800.000	0.047	0.178
-490.508	-78.206	-0.319	0.110
-489.493	-186.280	0.149	0.002
-488.478	506.122	0.035	-0.081
-487.464	-200.000	-0.053	0.286
-486.449	-100.523	-0.258	0.064
-485.435	-200.000	0.055	0.321
-484.420	-200.000	-0.020	-0.133
-483.405	155.615	0.131	-0.181
-482.391	469.231	-0.113	-0.253
-481.376	275.924	0.024	-0.043
-480.362	-76.212	0.204	0.072
-479.347	800.000	-0.028	0.110
-478.332	3.255	-0.081	-0.059
-477.318	150.531	-0.152	-0.206
-476.303	156.577	0.090	-0.125
-475.289	-200.000	-0.040	0.357
-474.274	-52.324	0.280	0.129
-473.259	-200.000	0.047	-0.221
-472.245	-200.000	-0.001	-0.201
-471.230	-200.000	-0.026	0.245
-470.216	250.820	0.109	0.184
-469.201	104.209	0.253	0.297
-468.186	75.517	-0.160	-0.169
-467.172	-127.511	0.208	0.030
-466.157	-19.598	-0.165	0.102
-465.143	660.539	0.029	0.073
-464.128	-168.512	0.092	0.003
-463.113	-170.151	-0.220	-0.008
-462.099	-124.400	-0.082	0.013
-461.084	-200.000	0.019	0.276
-460.070	-9.771	0.194	0.129
-459.055	800.000	0.022	0.097
-458.040	-91.555	-0.396	0.113
-457.026	83.714	0.142	-0.154
-456.011	-130.977	0.329	0.044
-454.997	166.179	0.160	0.227
-453.982	-73.237	0.149	0.054
-452.968	62.746	0.175	-0.175
-451.953	223.199	0.233	0.375
-450.938	356.534	0.050	-0.099
-449.924	28.756	-0.256	-0.216
-448.909	579.300	0.019	-0.046
-447.895	-66.113	0.096	-0.038
-446.880	-161.556	-0.155	0.008
-445.865	31.750	-0.047	-0.040
-444.851	-65.233	-0.168	0.068
-443.836	800.000	-0.062	0.187
-442.822	-22.316	-0.153	0.092
-441.807	-175.885	0.181	0.005
-440.792	-28.203	-0.056	-0.032
-439.778	-152.119	0.194	0.014
-438.763	-200.000	0.005	-0.088
-437.749	-200.000	0.021	-0.304
-436.734	18.144	-0.266	0.212
-435.719	-150.435	0.115	0.009
-434.705	-79.628	0.366	-0.123
-433.690	-37.202	0.157	0.084
-432.676	-129.077	0.128	0.018
-431.661	94.786	0.059	-0.067
-430.646	78.628	0.123	-0.131
-429.632	8.828	-0.304	-0.228
-428.617	-46.794	0.096	-0.047
-427.603	48.933	0.207	0.194
-426.588	385.098	-0.181	0.372
-425.573	-89.153	0.063	-0.019
-424.559	18.401	-0.113	0.090
-423.544	242.067	-0.138	-0.230
-422.530	-200.000	-0.025	0.122
-421.515	800.000	-0.068	-0.193
-420.500	7.491	0.111	-0.083
-419.486	-72.677	-0.144	0.053
-418.471	-173.608	-0.350	0.010
-417.457	680.746	0.035	-0.092
-416.442	-28.558	-0.185	0.106
-415.428	268.239	0.039	0.069
-414.413	33.626	0.173	0.150
-413.398	-35.434	-0.351	0.190
-412.384	-51.956	0.137	-0.063
-411.369	-200.000	0.005	0.181
-410.355	6.232	0.150	0.111
-409.340	36.228	0.222	0.195
-408.325	-200.000	0.007	-0.113
-407.311	-94.753	0.255	0.069
-406.296	-200.000	0.088	0.419
-405.282	-200.000	-0.005	0.176
-404.267	90.867	0.079	0.088
-403.252	253.604	-0.086	-0.147
-402.238	-17.003	-0.088	-0.055
-401.223	-114.074	0.097	0.019
-400.209	29.647	-0.361	0.306
-399.194	114.426	0.132	0.160
-398.179	77.838	-0.049	0.052
-397.165	217.482	0.140	-0.221
-396.150	-200.000	0.077	-0.362
-395.136	-187.841	-0.212	0.003
-394.121	365.636	0.166	0.333
-393.106	-32.605	0.280	-0.155
-392.092	289.328	-0.181	-0.326
-391.077	44.246	0.176	0.161
-390.063	111.986	0.092	-0.111
-389.048	800.000	0.038	-0.165
-388.033	322.056	0.113	-0.214
-387.019	800.000	0.071	-0.200
-386.004	-6.875	0.150	0.102
-384.990	-104.484	-0.408	0.094
-383.975	230.809	-0.132	-0.215
-382.960	381.492	-0.090	-0.185
-381.946	-13.555	0.092	-0.060
-380.931	-200.000	0.024	0.235
-379.917	-72.949	-0.141	0.052
-378.902	-104.459	0.222	0.051
-377.888	11.717	-0.102	-0.078
-376.873	54.426	-0.127	-0.122
-375.858	-200.000	0.028	-0.359
-374.844	-200.000	-0.010	0.302
-373.829	-12.096	0.094	0.061
-372.815	51.430	-0.039	-0.037
-371.800	46.609	0.086	-0.079
-370.785	-200.000	0.076	0.373
-369.771	-95.213	-0.137	0.037
-368.756	-35.693	0.213	-0.115
-367.742	8.178	0.196	-0.147
-366.727	-159.633	0.163	-0.009
-365.712	-200.000	-0.022	0.315
-364.698	800.000	0.087	-0.250
-363.683	-34.559	0.140	-0.076
-362.669	-76.732	-0.133	0.046
-361.654	-62.019	-0.447	-0.186
-360.639	783.957	0.089	-0.243
-359.625	-45.034	0.096	-0.048
-358.610	-200.000	0.038	-0.184
-357.596	-87.401	-0.444	0.134
-356.581	155.088	0.055	-0.076
-355.566	-200.000	0.000	0.204
-354.552	-117.549	-0.252	0.045
-353.537	800.000	0.078	0.332
-352.523	800.000	-0.027	0.100
-351.508	-200.000	-0.074	-0.358
-350.493	800.000	0.076	0.210
-349.479	-99.483	0.118	0.030
-348.464	7.512	0.172	-0.128
-347.450	99.213	0.150	0.173
-346.435	368.446	-0.088	0.177
-345.420	75.725	-0.042	0.044
-344.406	-51.564	-0.115	-0.053
-343.391	-45.314	0.150	-0.074
-342.377	-64.577	0.077	0.031
-341.362	-200.000	0.084	-0.482
-340.348	-200.000	-0.005	-0.191
-339.333	-200.000	0.011	-0.143
-338.318	50.022	-0.324	-0.304
-337.304	800.000	-0.014	-0.052
-336.289	-200.000	-0.086	0.383
-335.275	800.000	-0.136	0.385
-334.260	119.511	0.251	0.309
-333.245	-144.078	0.284	0.026
-332.231	-13.562	-0.249	-0.160
-331.216	800.000	-0.095	-0.289
-330.202	-200.000	-0.227	-0.000
-329.187	-73.442	-0.320	0.116
-328.172	583.474	-0.035	-0.085
-327.158	800.000	0.048	-0.194
-326.143	-29.160	-0.142	0.081
-325.129	26.808	-0.126	0.105
-324.114	78.108	0.123	-0.131
-323.099	178.936	0.065	0.094
-322.085	-108.445	0.211	0.045
-321.070	-200.000	0.005	0.059
-320.056	781.604	-0.087	-0.236
-319.041	307.978	-0.148	0.275
-318.026	-94.882	-0.310	0.083
-317.012	-171.757	0.421	0.014
-315.997	320.576	-0.154	0.290
-314.983	-200.000	0.038	0.264
-313.968	-15.198	0.239	-0.152
-312.953	-200.000	0.015	-0.119
-311.939	-68.913	-0.219	0.084
-310.924	-200.000	0.016	-0.128
-309.910	800.000	0.027	0.090
-308.895	176.397	-0.029	0.042
-307.880	800.000	0.079	0.288
-306.866	-104.964	-0.407	0.093
-305.851	-121.047	-0.271	0.045
-304.837	800.000	0.094	0.290
-303.822	-102.251	0.191	0.045
-302.807	562.075	-0.106	-0.254
-301.793	-141.141	0.175	-0.018
-300.778	534.482	0.146	0.342
-299.764	142.539	-0.260	0.342
-298.749	800.000	0.041	-0.142
-297.735	373.540	0.145	0.292
-296.720	-200.000	-0.080	0.352
-295.705	182.437	-0.238	0.349
-294.691	-200.000	0.014	0.334
-293.676	61.989	-0.085	-0.084
-292.662	292.771	0.138	0.250
-291.647	23.905	-0.267	0.218
-290.632	5.080	-0.324	-0.237
-289.618	53.665	0.180	0.172
-288.603	183.809	0.150	0.220
-287.589	-200.000	0.020	0.091
-286.574	-200.000	0.064	-0.282
-285.559	-153.099	0.416	-0.029
-284.545	149.953	-0.275	0.370
-283.530	-8.472	-0.045	0.030
-282.516	276.248	-0.149	0.262
-281.501	-175.301	0.231	-0.006
-280.486	-14.929	-0.245	-0.155
-279.472	579.094	-0.011	-0.027
-278.457	-41.336	0.099	-0.051
-277.443	51.093	-0.051	-0.048
-276.428	800.000	0.094	0.312
-275.413	-78.891	0.169	0.057
-274.399	-200.000	-0.019	-0.251
-273.384	-79.449	0.151	-0.051
-272.370	-200.000	-0.016	-0.322
-271.355	-103.881	0.267	-0.062
-270.340	-200.000	-0.003	-0.272
-269.326	72.809	0.075	-0.077
-268.311	108.199	-0.087	-0.102
-267.297	-85.645	-0.103	0.032
-266.282	67.749	0.151	0.153
-265.267	289.989	-0.045	-0.081
-264.253	-200.000	0.041	-0.373
-263.238	-87.990	0.117	0.035
-262.224	287.803	0.212	0.381
-261.209	-123.706	0.114	-0.018
-260.195	150.049	-0.160	0.215
-259.180	48.144	0.198	-0.184
-258.165	-200.000	-0.069	-0.329
-257.151	-36.629	-0.043	-0.023
-256.136	-198.797	0.122	-0.001
-255.122	-200.000	0.030	-0.141
-254.107	-200.000	0.070	-0.308
-253.092	800.000	-0.058	-0.158
-252.078	800.000	-0.035	0.118
-251.063	-200.000	-0.021	-0.172
-250.049	-5.634	0.106	0.072
-249.034	-42.524	-0.067	0.034
-248.019	-103.040	-0.380	-0.089
-247.005	-46.632	-0.354	0.172
-245.990	230.892	-0.060	-0.098
-244.976	-183.374	-0.056	0.001
-243.961	-113.374	-0.103	-0.020
-242.946	45.564	0.124	-0.113
-241.932	50.743	0.225	0.211
-240.917	219.924	0.062	0.098
-239.903	387.911	0.198	-0.406
-238.888	79.613	-0.037	-0.039
-237.873	-108.392	0.355	-0.076
-236.859	90.229	0.156	0.173
-235.844	-200.000	-0.103	-0.645
-234.830	800.000	-0.074	0.303
-233.815	-99.527	0.113	0.028
-232.800	-200.000	0.035	-0.196
-231.786	108.389	0.224	0.264
-230.771	-57.308	0.118	-0.051
-229.757	-121.019	-0.058	0.010
-228.742	201.091	-0.063	-0.096
-227.727	32.970	-0.037	-0.032
-226.713	-200.000	0.028	-0.156
-225.698	-68.275	-0.297	-0.114
-224.684	800.000	-0.010	-0.038
-223.669	6.065	-0.091	-0.067
-222.655	-34.419	-0.111	0.060
-221.640	85.017	0.163	0.177
-220.625	-168.774	0.046	-0.002
-219.611	-51.485	0.064	-0.029
-218.596	-34.194	0.230	-0.125
-217.582	-200.000	0.028	0.295
-216.567	-183.480	0.333	-0.006
-215.552	51.023	0.114	-0.107
-214.538	-3.924	0.248	0.170
-213.523	494.866	-0.024	-0.055
-212.509	-69.445	0.145	0.055
-211.494	800.000	-0.056	0.186
-210.479	690.122	0.117	-0.303
-209.465	-95.580	-0.189	0.050
-208.450	-200.000	-0.009	-0.045
-207.436	-70.156	-0.254	0.095
-206.421	-6.518	0.228	0.154
-205.406	-200.000	0.009	0.327
-204.392	168.820	0.138	0.194
-203.377	161.644	-0.024	0.033
-202.363	-154.683	-0.378	0.025
-201.348	-76.244	-0.155	-0.054
-200.333	-200.000	-0.024	0.153
-199.319	-130.576	-0.298	-0.040
-198.304	-91.064	-0.039	-0.011
-197.290	-200.000	-0.028	-0.229
-196.275	-200.000	-0.005	0.148
-195.260	10.556	0.148	0.111
-194.246	800.000	0.014	0.045
-193.231	47.207	-0.075	0.069
-192.217	491.116	0.101	0.228
-191.202	192.373	0.105	0.156
-190.187	-200.000	-0.284	-0.000
-189.173	-200.000	0.014	-0.189
-188.158	-200.000	-0.058	-0.495
-187.144	-153.410	0.479	0.033
-186.129	-135.844	-0.160	-0.019
-185.114	-200.000	-0.002	-0.030
-184.100	168.032	0.086	-0.121
-183.085	657.198	-0.051	-0.130
-182.071	311.960	-0.162	-0.300
-181.056	-10.929	-0.160	0.104
-180.042	-200.000	-0.031	-0.427
-179.027	50.341	0.322	-0.300
-178.012	-200.000	0.007	-0.057
-176.998	799.436	0.093	-0.252
-175.983	-200.000	-0.044	-0.225
-174.969	-3.314	-0.077	-0.053
-173.954	800.000	-0.075	0.216
-172.939	-95.120	-0.205	0.055
-171.925	51.357	-0.120	-0.112
-170.910	68.271	0.051	0.052
-169.896	-200.000	0.004	0.038
-168.881	-171.483	0.251	-0.008
-167.866	-200.000	0.064	-0.364
-166.852	486.550	-0.031	-0.071
-165.837	-130.202	-0.295	0.040
-164.823	-20.257	-0.140	-0.085
-163.808	-200.000	0.034	-0.179
-162.793	-12.001	0.167	0.108
-161.779	800.000	0.044	0.190
-160.764	-88.867	0.344	-0.101
-159.750	800.000	0.059	-0.221
-158.735	-34.845	-0.074	0.040
-157.720	280.352	0.108	-0.190
-156.706	210.118	-0.113	-0.174
-155.691	-132.843	0.253	0.032
-154.677	-15.852	-0.162	0.102
-153.662	233.148	0.056	0.091
-152.647	280.894	-0.440	-0.776
-151.633	-200.000	0.028	-0.239
-150.618	800.000	0.024	0.071
-149.604	195.219	-0.139	0.208
-148.589	-12.724	0.085	-0.054
-147.574	-200.000	0.003	0.174
-146.560	-200.000	-0.101	0.469
-145.545	505.569	0.109	0.249
-144.531	226.206	-0.049	-0.079
-143.516	198.083	-0.051	-0.077
-142.502	-52.107	-0.134	-0.061
-141.487	-147.672	0.103	-0.009
-140.472	201.101	0.056	0.084
-139.458	-138.798	-0.106	0.011
-138.443	6.999	-0.422	0.310
-137.429	-120.402	-0.233	-0.039
-136.414	-149.570	0.149	0.012
-135.399	191.026	0.091	0.135
-134.385	-200.000	0.053	-0.420
-133.370	-48.808	0.052	-0.025
-132.356	-33.096	-0.318	-0.174
-131.341	92.569	-0.192	-0.213
-130.326	24.572	0.070	0.057
-129.312	-93.850	0.235	-0.064
-128.297	-11.941	0.124	0.080
-127.283	132.523	-0.212	-0.270
-126.268	50.035	-0.101	-0.094
-125.253	100.891	0.197	-0.226
-124.239	0.659	0.043	0.030
-123.224	-130.307	-0.148	0.020
-122.210	-200.000	-0.020	-0.268
-121.195	561.679	0.045	0.107
