DTS Sentinel unit serial number:	SN413079Multiplexer serial number:	ORYXHardware model number:	OX4-SRSoftware version number:	ORYX F/W v4.00 Oryx Data Collector v3.7.2.0data status	okinstallation	princeton_trtdifferential loss correction	single-endedforward channel	channel 2reverse channel	N/Adate	2019/09/11time	04:21:11forward acquisition time	60.00reverse acquisition time	0.00gamma	496.2192k internal	0.2329k external	0.2329temperature offset calibration	0.9933default loss term (dB/km)	0.3790temperature slope calibration	1.0000multiplexer offset coefficient	1.0000multiplexer slope coefficient	1.0000fibre end	0.00T internal ref (°C)	29.56T ext. ref 1 (°C)	-0.29T ext. ref 2 (°C)	23.35length (m)	temperature (°C)	Stokes	anti-Stokes-747.200	-165.969	0.231	0.010
-746.185	-36.123	-0.226	-0.123
-745.171	73.208	-0.194	-0.205
-744.156	-103.400	-0.480	0.114
-743.142	14.809	-0.142	0.112
-742.127	-76.872	-0.363	-0.128
-741.112	-65.505	0.128	-0.052
-740.098	800.000	-0.062	0.182
-739.083	-22.928	0.187	-0.113
-738.069	488.783	0.040	-0.091
-737.054	474.712	0.187	0.425
-736.039	526.482	-0.118	-0.279
-735.025	-200.000	-0.026	0.240
-734.010	608.578	-0.068	0.172
-732.996	-171.216	-0.420	-0.014
-731.981	364.848	0.105	-0.214
-730.966	25.053	0.159	0.133
-729.952	-200.000	-0.348	0.001
-728.937	206.449	-0.112	-0.175
-727.923	-25.912	-0.121	-0.072
-726.908	-24.538	0.297	-0.178
-725.894	258.467	-0.123	-0.213
-724.879	274.901	-0.129	0.230
-723.864	800.000	0.073	0.310
-722.850	164.956	-0.244	0.347
-721.835	-94.753	0.089	-0.024
-720.821	-92.466	-0.331	0.094
-719.806	-72.558	0.137	-0.051
-718.791	800.000	-0.058	-0.181
-717.777	-169.277	0.225	-0.008
-716.762	-170.143	-0.233	-0.008
-715.748	47.437	0.166	0.156
-714.733	-107.149	0.049	0.011
-713.718	-200.000	0.381	0.001
-712.704	221.127	-0.168	0.272
-711.689	49.713	0.048	-0.045
-710.675	115.420	0.122	0.150
-709.660	-113.944	0.307	-0.060
-708.645	800.000	-0.053	-0.217
-707.631	186.827	-0.085	-0.127
-706.616	-164.843	-0.178	0.008
-705.602	562.195	0.027	-0.065
-704.587	-86.723	-0.110	0.034
-703.572	-85.884	0.097	-0.030
-702.558	-200.000	-0.038	0.171
-701.543	168.706	0.075	-0.108
-700.529	0.460	-0.223	0.160
-699.514	-102.290	-0.359	-0.087
-698.499	-149.859	0.251	-0.020
-697.485	800.000	0.071	-0.288
-696.470	-59.694	-0.298	-0.128
-695.456	800.000	-0.065	-0.269
-694.441	-66.372	0.069	-0.028
-693.426	-200.000	-0.017	0.177
-692.412	-47.588	-0.169	0.083
-691.397	48.910	0.099	-0.094
-690.383	-200.000	0.036	-0.300
-689.368	145.843	0.157	0.212
-688.354	-75.566	-0.380	0.136
-687.339	90.405	-0.132	0.148
-686.324	-200.000	-0.037	-0.275
-685.310	-200.000	-0.011	0.080
-684.295	97.442	0.144	0.166
-683.281	-170.967	-0.461	-0.016
-682.266	-112.788	-0.182	0.036
-681.251	-22.815	-0.519	-0.315
-680.237	25.503	0.052	0.044
-679.222	-97.412	-0.345	0.090
-678.208	-122.754	-0.270	-0.044
-677.193	-175.688	-0.135	0.004
-676.178	-200.000	0.037	0.361
-675.164	-200.000	-0.023	0.263
-674.149	394.388	-0.083	-0.173
-673.135	-200.000	-0.038	0.191
-672.120	-200.000	0.019	0.111
-671.105	-148.329	-0.121	-0.010
-670.091	90.085	-0.144	0.161
-669.076	154.666	-0.216	-0.299
-668.062	462.482	0.190	-0.426
-667.047	13.226	-0.318	-0.248
-666.032	-107.106	-0.256	0.057
-665.018	798.578	0.039	0.109
-664.003	625.157	0.097	0.246
-662.989	-30.637	-0.008	0.005
-661.974	-174.634	-0.145	0.004
-660.959	-200.000	-0.037	0.167
-659.945	418.311	-0.129	0.276
-658.930	15.837	-0.090	0.071
-657.916	126.876	0.108	0.138
-656.901	192.913	-0.222	-0.337
-655.886	-200.000	0.081	-0.405
-654.872	-200.000	0.044	0.218
-653.857	800.000	-0.049	-0.192
-652.843	-57.371	0.236	-0.104
-651.828	-178.711	-0.097	-0.002
-650.814	-128.351	0.394	0.056
-649.799	-161.151	0.156	-0.008
-648.784	16.933	-0.340	-0.270
-647.770	-27.201	0.128	0.075
-646.755	-46.619	-0.264	-0.130
-645.741	602.919	-0.057	0.143
-644.726	59.544	0.217	0.215
-643.711	-44.984	0.309	-0.154
-642.697	318.777	0.156	-0.297
-641.682	56.121	-0.200	-0.195
-640.668	-99.187	0.248	-0.063
-639.653	107.879	-0.065	-0.077
-638.638	21.015	-0.135	0.110
-637.624	-200.000	-0.031	-0.245
-636.609	-38.452	0.113	-0.060
-635.595	-85.526	-0.264	-0.082
-634.580	-200.000	0.066	-0.330
-633.565	-74.857	-0.246	-0.089
-632.551	-79.687	-0.294	0.099
-631.536	258.568	-0.081	-0.140
-630.522	-88.571	-0.149	0.044
-629.507	-114.801	-0.211	0.040
-628.492	-55.170	-0.231	0.104
-627.478	527.602	0.041	-0.098
-626.463	-89.444	0.156	0.046
-625.449	-153.840	-0.541	-0.037
-624.434	84.090	0.078	-0.086
-623.419	800.000	-0.051	0.186
-622.405	-123.824	0.180	0.028
-621.390	356.573	-0.130	-0.261
-620.376	-200.000	-0.060	-0.268
-619.361	219.317	-0.045	-0.072
-618.346	411.438	0.142	-0.302
-617.332	-44.415	-0.211	-0.106
-616.317	57.486	0.125	0.122
-615.303	-113.850	0.099	0.019
-614.288	-200.000	-0.011	-0.210
-613.273	-51.171	0.339	-0.159
-612.259	186.629	-0.102	-0.153
-611.244	70.521	0.156	-0.162
-610.230	-150.736	-0.157	-0.012
-609.215	-30.442	-0.208	0.118
-608.201	192.907	0.057	0.086
-607.186	7.321	0.171	-0.128
-606.171	-140.780	-0.194	-0.020
-605.157	-20.578	-0.291	0.179
-604.142	178.885	-0.104	-0.152
-603.128	-82.848	-0.091	-0.030
-602.113	354.531	-0.180	0.359
-601.098	-101.389	0.285	-0.070
-600.084	182.143	-0.117	0.173
-599.069	442.772	-0.117	-0.256
-598.055	127.489	0.013	0.016
-597.040	-78.534	-0.189	-0.065
-596.025	-35.033	-0.300	0.164
-595.011	160.462	-0.134	-0.188
-593.996	330.911	-0.171	0.330
-592.982	-53.357	0.123	-0.056
-591.967	-200.000	-0.012	-0.180
-590.952	614.424	-0.004	0.010
-589.938	-89.398	-0.251	-0.074
-588.923	-200.000	0.022	0.189
-587.909	-200.000	-0.007	-0.499
-586.894	-10.668	-0.222	0.147
-585.879	-200.000	0.007	0.458
-584.865	-8.651	-0.102	-0.069
-583.850	800.000	0.039	0.145
-582.836	-162.796	0.237	0.012
-581.821	211.927	0.086	-0.136
-580.806	-187.820	-0.363	0.005
-579.792	-109.766	0.380	0.080
-578.777	-61.439	-0.128	-0.054
-577.763	-141.584	-0.245	0.025
-576.748	-150.262	-0.209	-0.016
-575.733	53.895	0.370	-0.356
-574.719	-82.393	0.116	0.038
-573.704	-185.978	0.285	-0.004
-572.690	681.015	-0.088	-0.230
-571.675	613.816	0.106	-0.265
-570.661	-99.722	-0.089	0.022
-569.646	-22.830	-0.275	-0.166
-568.631	-21.475	-0.046	-0.028
-567.617	-200.000	-0.058	-0.315
-566.602	-200.000	-0.008	0.057
-565.588	210.203	0.089	0.139
-564.573	-120.037	0.155	-0.027
-563.558	85.417	0.225	-0.247
-562.544	221.775	0.103	0.165
-561.529	-42.063	-0.307	-0.157
-560.515	-200.000	0.059	-0.372
-559.500	364.618	0.153	-0.309
-558.485	382.776	0.064	-0.131
-557.471	12.383	-0.163	-0.126
-556.456	-200.000	0.058	-0.364
-555.442	800.000	0.079	-0.257
-554.427	-156.899	0.269	-0.016
-553.412	14.264	0.311	-0.242
-552.398	790.772	0.119	0.328
-551.383	-97.703	0.437	0.113
-550.369	-88.195	0.355	0.106
-549.354	-33.709	0.220	0.121
-548.339	750.616	0.163	0.439
-547.325	692.316	0.134	-0.351
-546.310	-33.040	-0.353	-0.195
-545.296	10.021	-0.192	0.146
-544.281	-142.001	-0.371	0.037
-543.266	-200.000	-0.015	-0.265
-542.252	669.343	-0.040	-0.103
-541.237	-200.000	-0.090	-0.430
-540.223	-174.250	-0.461	-0.013
-539.208	-171.791	-0.361	0.012
-538.193	800.000	0.078	0.264
-537.179	-29.287	0.028	-0.016
-536.164	800.000	0.056	-0.179
-535.150	-200.000	-0.022	-0.144
-534.135	483.779	0.095	0.216
-533.121	131.439	-0.175	0.225
-532.106	-53.578	0.299	-0.136
-531.091	-200.000	-0.000	0.125
-530.077	-200.000	-0.065	-0.506
-529.062	211.557	0.236	-0.372
-528.048	-63.205	-0.279	0.115
-527.033	-200.000	0.027	0.192
-526.018	-92.346	-0.394	-0.111
-525.004	-163.891	-0.066	0.003
-523.989	34.125	0.121	-0.106
-522.975	-81.612	0.056	-0.018
-521.960	-78.016	0.301	-0.103
-520.945	-19.782	-0.258	-0.159
-519.931	21.153	0.060	0.049
-518.916	-28.608	0.176	-0.101
-517.902	-103.797	-0.183	-0.043
-516.887	-14.080	-0.329	-0.212
-515.872	-200.000	0.035	0.167
-514.858	275.315	-0.127	0.225
-513.843	734.068	-0.078	-0.209
-512.829	-50.419	-0.284	0.134
-511.814	181.419	-0.035	-0.052
-510.799	-154.101	0.275	0.019
-509.785	-84.632	0.242	0.076
-508.770	112.954	-0.158	-0.191
-507.756	-80.158	-0.307	-0.103
-506.741	-31.236	-0.370	0.208
-505.726	800.000	-0.078	-0.240
-504.712	-200.000	-0.015	0.120
-503.697	74.149	0.225	0.235
-502.683	-185.450	-0.259	0.004
-501.668	253.365	-0.021	0.035
-500.653	120.356	-0.184	-0.228
-499.639	355.667	-0.106	-0.211
-498.624	221.098	-0.041	0.065
-497.610	-96.258	0.067	0.018
-496.595	78.542	0.158	0.168
-495.581	-94.547	0.163	-0.044
-494.566	91.724	-0.113	-0.127
-493.551	176.698	-0.308	-0.447
-492.537	800.000	0.060	0.180
-491.522	-59.012	0.271	-0.117
-490.508	-14.004	0.108	0.070
-489.493	-32.275	0.159	0.089
-488.478	156.472	0.172	0.237
-487.464	-185.509	-0.312	0.005
-486.449	-22.563	0.137	0.082
-485.435	-14.353	-0.173	0.111
-484.420	29.235	-0.281	-0.238
-483.405	120.085	0.132	0.164
-482.391	3.360	0.079	-0.057
-481.376	-148.371	-0.270	0.022
-480.362	2.981	0.154	0.112
-479.347	13.925	0.252	-0.195
-478.332	-200.000	0.022	0.213
-477.318	-200.000	0.030	-0.205
-476.303	-77.149	0.159	-0.055
-475.289	-57.446	-0.097	0.042
-474.274	92.841	-0.194	0.218
-473.259	-200.000	-0.031	0.235
-472.245	800.000	0.081	0.236
-471.230	38.791	0.166	0.147
-470.216	607.211	-0.012	-0.029
-469.201	121.173	0.272	-0.338
-468.186	15.420	0.229	-0.180
-467.172	9.039	-0.093	-0.070
-466.157	294.257	0.152	-0.276
-465.143	-48.586	0.131	0.063
-464.128	656.938	-0.055	-0.140
-463.113	-40.395	-0.162	0.084
-462.099	-200.000	-0.081	0.361
-461.084	800.000	-0.088	0.260
-460.070	-200.000	0.347	-0.002
-459.055	800.000	-0.083	0.257
-458.040	86.965	-0.155	0.171
-457.026	40.203	0.040	0.036
-456.011	356.752	0.119	-0.236
-454.997	63.076	-0.250	0.249
-453.982	-75.792	0.157	0.055
-452.968	102.401	0.130	-0.152
-451.953	-5.582	0.197	-0.134
-450.938	26.128	0.246	0.205
-449.924	82.884	-0.037	-0.040
-448.909	800.000	-0.065	-0.269
-447.895	-74.147	-0.168	0.060
-446.880	-200.000	0.014	0.181
-445.865	-200.000	-0.024	-0.123
-444.851	-200.000	-0.031	-0.217
-443.836	309.045	0.092	0.171
-442.822	800.000	-0.094	-0.270
-441.807	-50.874	0.039	0.018
-440.792	-83.425	0.154	-0.049
-439.778	163.466	-0.088	-0.123
-438.763	7.303	-0.185	-0.138
-437.749	-200.000	0.015	-0.110
-436.734	-200.000	-0.082	0.409
-435.719	-121.336	-0.363	0.060
-434.705	-102.443	-0.172	0.041
-433.690	135.310	0.040	0.052
-432.676	-200.000	0.043	-0.274
-431.661	37.908	-0.190	0.168
-430.646	-84.661	0.328	0.103
-429.632	-22.825	-0.028	-0.017
-428.617	800.000	0.051	-0.144
-427.603	310.406	0.108	0.201
-426.588	800.000	-0.077	-0.231
-425.573	411.850	-0.050	-0.105
-424.559	-200.000	-0.019	0.105
-423.544	28.596	-0.208	0.175
-422.530	211.146	0.150	-0.235
-421.515	800.000	-0.020	-0.071
-420.500	267.769	-0.107	0.186
-419.486	89.719	0.095	0.105
-418.471	36.587	0.117	-0.102
-417.457	-149.052	0.110	-0.009
-416.442	-200.000	-0.008	0.172
-415.428	-200.000	-0.031	-0.139
-414.413	214.343	0.027	0.043
-413.398	800.000	0.056	-0.235
-412.384	-70.790	0.256	0.096
-411.369	800.000	0.071	0.221
-410.355	107.760	0.061	0.072
-409.340	-194.012	-0.439	-0.004
-408.325	-23.075	0.199	-0.119
-407.311	-200.000	-0.007	-0.135
-406.296	37.895	0.246	-0.217
-405.282	300.140	-0.143	-0.262
-404.267	446.900	-0.171	0.374
-403.252	19.649	-0.210	0.168
-402.238	676.488	0.056	0.145
-401.223	-115.389	0.064	-0.012
-400.209	40.730	0.236	0.211
-399.194	-51.015	-0.073	-0.034
-398.179	-84.851	0.187	0.058
-397.165	800.000	0.090	0.263
-396.150	-99.140	0.051	0.013
-395.136	-200.000	0.016	-0.237
-394.121	800.000	-0.073	0.247
-393.106	-66.655	0.054	0.021
-392.092	800.000	0.035	0.099
-391.077	-59.331	0.084	0.036
-390.063	30.728	-0.162	0.138
-389.048	-42.510	-0.123	0.062
-388.033	8.582	0.097	-0.073
-387.019	139.258	0.247	0.323
-386.004	362.709	0.048	0.096
-384.990	89.600	0.131	-0.145
-383.975	191.980	-0.066	-0.098
-382.960	-64.458	0.354	-0.143
-381.946	-20.085	-0.114	-0.070
-380.931	173.532	0.066	-0.094
-379.917	297.635	0.202	0.368
-378.902	-98.826	0.340	-0.086
-377.888	-111.946	0.179	0.036
-376.873	-112.016	-0.109	-0.022
-375.858	800.000	-0.017	-0.051
-374.844	63.816	0.239	-0.239
-373.829	-131.673	-0.147	0.019
-372.815	-53.432	-0.335	-0.152
-371.800	-119.763	0.340	-0.058
-370.785	-71.749	-0.317	-0.117
-369.771	-72.666	0.424	0.155
-368.756	128.497	-0.071	-0.090
-367.742	800.000	0.011	0.037
-366.727	-34.871	0.134	-0.072
-365.712	444.511	0.175	0.381
-364.698	414.256	0.081	0.170
-363.683	-200.000	0.013	-0.106
-362.669	55.954	0.030	0.029
-361.654	-200.000	0.115	0.574
-360.639	58.053	-0.124	-0.120
-359.625	370.107	-0.069	0.139
-358.610	114.914	0.074	-0.090
-357.596	-47.868	0.516	0.248
-356.581	800.000	-0.032	0.131
-355.566	-141.001	-0.182	-0.019
-354.552	-127.959	0.153	-0.022
-353.537	-27.556	0.037	-0.021
-352.523	-115.255	-0.167	0.031
-351.508	-119.581	-0.093	-0.016
-350.493	-200.000	-0.040	-0.399
-349.479	681.623	0.045	-0.117
-348.464	800.000	0.024	-0.077
-347.450	-128.785	-0.165	0.023
-346.435	391.360	-0.079	-0.163
-345.420	-200.000	0.040	0.243
-344.406	233.369	0.037	0.060
-343.391	-86.286	0.314	0.096
-342.377	-107.751	-0.064	-0.014
-341.362	-73.644	0.258	-0.093
-340.348	417.407	-0.107	0.227
-339.333	537.346	0.117	-0.276
-338.318	-200.000	0.017	0.082
-337.304	-81.092	0.129	0.042
-336.289	-136.390	-0.329	-0.038
-335.275	800.000	-0.087	0.317
-334.260	67.808	0.149	0.151
-333.245	396.519	-0.173	0.358
-332.231	13.008	-0.091	-0.070
-331.216	-27.771	0.239	0.137
-330.202	-200.000	-0.013	-0.069
-329.187	-200.000	0.098	-0.466
-328.172	61.549	-0.110	-0.109
-327.158	-200.000	-0.231	-0.000
-326.143	56.146	-0.197	0.190
-325.129	-45.083	0.239	-0.118
-324.114	-200.000	-0.073	0.493
-323.099	-200.000	-0.038	-0.223
-322.085	452.632	-0.014	-0.030
-321.070	48.082	0.167	0.155
-320.056	-95.349	-0.121	0.032
-319.041	-200.000	0.032	-0.230
-318.026	182.566	-0.065	0.095
-317.012	-200.000	-0.037	0.219
-315.997	120.601	-0.121	-0.149
-314.983	-66.085	-0.356	0.141
-313.968	-31.188	-0.063	0.035
-312.953	800.000	0.079	-0.296
-311.939	495.952	0.070	0.159
-310.924	-56.830	-0.275	-0.121
-309.910	-200.000	-0.007	0.200
-308.895	30.948	0.043	-0.037
-307.880	19.150	-0.170	0.135
-306.866	-43.229	0.061	0.031
-305.851	-22.173	-0.302	-0.181
-304.837	-113.837	-0.232	-0.045
-303.822	800.000	0.058	-0.248
-302.807	800.000	0.056	0.181
-301.793	-200.000	-0.020	0.204
-300.778	-137.797	0.355	-0.039
-299.764	-103.427	-0.150	0.035
-298.749	82.659	-0.027	0.029
-297.735	-200.000	0.033	-0.247
-296.720	-30.063	0.256	-0.144
-295.705	-69.069	0.274	0.105
-294.691	-145.712	-0.218	-0.019
-293.676	72.588	-0.108	-0.112
-292.662	-101.713	-0.262	0.063
-291.647	43.310	-0.166	0.150
-290.632	7.774	-0.289	-0.214
-289.618	203.743	-0.024	-0.037
-288.603	-200.000	0.007	0.243
-287.589	138.985	0.116	-0.150
-286.574	403.491	0.170	0.354
-285.559	800.000	0.060	0.176
-284.545	243.409	-0.174	0.288
-283.530	-75.383	0.276	0.097
-282.516	18.992	-0.333	-0.264
-281.501	22.994	-0.127	0.103
-280.486	-4.675	0.155	0.106
-279.472	-8.395	0.084	0.056
-278.457	-12.060	-0.180	0.116
-277.443	11.810	-0.123	0.093
-276.428	336.577	0.114	0.218
-275.413	-38.238	0.051	-0.027
-274.399	178.732	-0.082	0.118
-273.384	-94.625	0.189	0.051
-272.370	-98.855	-0.262	0.066
-271.355	-200.000	0.001	-0.138
-270.340	-126.887	0.320	-0.047
-269.326	-106.840	-0.306	0.067
-268.311	136.026	-0.027	-0.034
-267.297	297.702	0.092	0.167
-266.282	-94.858	0.460	0.123
-265.267	-200.000	0.010	0.195
-264.253	-59.739	-0.038	-0.016
-263.238	-200.000	0.001	0.009
-262.224	-65.375	-0.256	-0.102
-261.209	412.842	0.113	0.238
-260.195	-0.257	0.137	0.096
-259.180	-200.000	-0.031	0.177
-258.165	-102.694	0.349	0.082
-257.151	800.000	-0.052	0.213
-256.136	-72.999	-0.105	0.038
-255.122	-1.917	-0.214	0.149
-254.107	-200.000	0.025	0.162
-253.092	26.608	-0.171	0.141
-252.078	-3.599	0.095	0.065
-251.063	800.000	0.046	0.132
-250.049	31.997	0.072	-0.061
-249.034	-200.000	0.032	0.404
-248.019	-45.424	0.131	0.064
-247.005	112.522	0.094	-0.113
-245.990	-200.000	0.299	0.001
-244.976	125.033	0.095	-0.118
-243.961	-96.954	0.070	0.018
-242.946	-200.000	-0.041	0.274
-241.932	-23.616	-0.045	0.027
-240.917	-38.634	0.165	0.086
-239.903	-16.212	-0.126	-0.079
-238.888	-200.000	-0.033	0.313
-237.873	-200.000	0.002	-0.081
-236.859	-85.927	0.334	0.102
-235.844	800.000	0.059	-0.180
-234.830	149.960	-0.039	0.052
-233.815	800.000	-0.058	-0.248
-232.800	-8.161	0.230	0.153
-231.786	352.869	-0.249	0.488
-230.771	-118.557	-0.101	-0.018
-229.757	13.337	0.086	-0.066
-228.742	302.485	-0.165	0.302
-227.727	325.537	0.186	-0.351
-226.713	-200.000	-0.008	0.052
-225.698	6.877	-0.108	-0.080
-224.684	0.219	0.086	-0.060
-223.669	-200.000	-0.034	-0.178
-222.655	-152.304	0.301	0.021
-221.640	-6.705	0.244	-0.164
-220.625	-77.224	0.275	0.094
-219.611	-120.532	-0.165	-0.028
-218.596	-28.329	0.222	0.126
-217.582	-157.939	-0.194	-0.011
-216.567	-57.830	0.270	-0.117
-215.552	18.199	-0.244	-0.192
-214.538	186.286	-0.115	-0.169
-213.523	53.608	-0.251	0.238
-212.509	666.227	-0.060	-0.154
-211.494	-96.108	-0.247	0.065
-210.479	-106.320	0.273	-0.060
-209.465	274.108	-0.054	-0.095
-208.450	16.958	-0.050	-0.039
-207.436	-19.709	0.252	0.153
-206.421	-200.000	0.007	-0.188
-205.406	-55.429	-0.204	-0.090
-204.392	-180.742	0.152	0.003
-203.377	-119.021	0.228	0.039
-202.363	-104.253	-0.138	0.032
-201.348	-200.000	-0.015	0.099
-200.333	12.231	0.095	0.072
-199.319	627.494	-0.088	-0.219
-198.304	800.000	-0.010	0.034
-197.290	93.860	0.120	0.134
-196.275	102.256	-0.249	0.287
-195.260	10.099	-0.123	0.092
-194.246	-22.882	-0.099	-0.059
-193.231	34.156	-0.102	-0.088
-192.217	-114.547	0.112	0.021
-191.202	-167.674	0.247	-0.010
-190.187	-200.000	-0.030	0.164
-189.173	197.669	0.058	0.088
-188.158	313.632	-0.150	-0.277
-187.144	7.882	-0.295	0.218
-186.129	165.887	-0.198	-0.276
-185.114	-105.066	0.506	0.114
-184.100	371.373	-0.071	-0.142
-183.085	-200.000	0.080	-0.496
-182.071	477.807	-0.070	-0.155
-181.056	73.720	0.182	0.188
-180.042	800.000	0.077	0.291
-179.027	-93.613	-0.172	-0.047
-178.012	56.363	-0.036	0.034
-176.998	419.510	-0.118	-0.250
-175.983	-200.000	0.040	-0.172
-174.969	686.289	-0.111	-0.285
-173.954	-200.000	0.035	0.162
-172.939	4.305	-0.112	0.081
-171.925	-200.000	-0.014	-0.350
-170.910	53.941	0.247	-0.234
-169.896	800.000	-0.122	0.333
-168.881	-50.557	-0.117	0.054
-167.866	-149.053	0.190	-0.015
-166.852	800.000	-0.037	0.135
-165.837	-16.630	-0.219	0.136
-164.823	-123.273	0.302	-0.047
-163.808	50.034	0.249	-0.231
-162.793	-42.530	-0.301	-0.151
-161.779	-178.473	0.373	-0.009
-160.764	-98.341	-0.167	0.042
-159.750	-200.000	0.034	0.215
-158.735	-69.797	0.143	0.054
-157.720	-99.678	0.381	0.094
-156.706	206.335	-0.318	0.487
-155.691	-12.436	0.314	-0.202
-154.677	-62.473	-0.226	0.093
-153.662	-200.000	0.041	0.232
-152.647	-149.391	-0.211	-0.016
-151.633	179.976	0.236	0.340
-150.618	-113.185	-0.184	-0.036
-149.604	362.924	-0.076	0.150
-148.589	800.000	-0.043	0.119
-147.574	-200.000	-0.043	-0.217
-146.560	40.736	-0.317	-0.282
-145.545	41.340	-0.199	-0.177
-144.531	-125.655	-0.139	-0.021
-143.516	50.568	0.113	0.105
-142.502	-102.533	-0.111	0.026
-141.487	800.000	0.102	0.340
-140.472	-133.024	-0.396	-0.049
-139.458	-200.000	0.039	0.175
-138.443	-80.874	0.297	-0.097
-137.429	763.533	-0.066	0.176
-136.414	570.751	0.116	0.279
-135.399	-149.117	0.458	0.036
-134.385	62.148	0.408	0.400
-133.370	-2.623	0.114	-0.078
-132.356	430.477	-0.144	0.306
-131.341	177.199	0.124	0.178
-130.326	-7.812	0.110	0.073
-129.312	95.287	0.010	-0.011
-128.297	402.294	-0.166	0.344
-127.283	-200.000	-0.013	0.077
-126.268	800.000	-0.015	-0.054
-125.253	-92.036	-0.253	0.070
-124.239	-21.913	0.137	-0.082
-123.224	170.647	0.115	-0.162
-122.210	-23.594	0.083	-0.049
-121.195	800.000	-0.013	-0.053
