DTS Sentinel unit serial number:	SN413079Multiplexer serial number:	ORYXHardware model number:	OX4-SRSoftware version number:	ORYX F/W v4.00 Oryx Data Collector v3.7.2.0data status	okinstallation	princeton_trtdifferential loss correction	single-endedforward channel	channel 2reverse channel	N/Adate	2019/09/17time	21:47:34forward acquisition time	60.00reverse acquisition time	0.00gamma	496.2192k internal	0.2342k external	0.2342temperature offset calibration	0.9986default loss term (dB/km)	0.3790temperature slope calibration	1.0000multiplexer offset coefficient	1.0000multiplexer slope coefficient	1.0000fibre end	0.00T internal ref (°C)	26.50T ext. ref 1 (°C)	0.19T ext. ref 2 (°C)	19.06length (m)	temperature (°C)	Stokes	anti-Stokes-747.200	173.918	0.225	0.325
-746.185	317.692	0.034	0.064
-745.171	223.671	0.185	0.300
-744.156	-200.000	-0.039	0.206
-743.142	-200.000	0.001	-0.110
-742.127	376.260	-0.057	-0.116
-741.112	118.735	0.331	0.409
-740.098	-85.155	-0.082	-0.026
-739.083	800.000	-0.035	-0.114
-738.069	161.575	0.196	0.275
-737.054	800.000	-0.015	-0.047
-736.039	-108.758	-0.177	-0.038
-735.025	800.000	0.106	0.361
-734.010	399.949	-0.131	0.275
-732.996	451.049	0.019	-0.042
-731.981	-102.385	-0.337	0.081
-730.966	-95.434	-0.095	-0.025
-729.952	2.680	0.028	-0.020
-728.937	-130.935	-0.350	-0.047
-727.923	-200.000	-0.003	0.270
-726.908	38.993	-0.082	-0.074
-725.894	-68.521	0.312	-0.121
-724.879	-200.000	0.018	-0.214
-723.864	800.000	-0.035	0.100
-722.850	55.052	-0.172	-0.167
-721.835	144.195	-0.078	0.104
-720.821	-22.160	-0.264	-0.161
-719.806	-42.569	-0.137	-0.070
-718.791	25.212	0.169	-0.141
-717.777	-167.735	-0.505	-0.020
-716.762	-121.685	0.145	-0.024
-715.748	63.458	0.161	-0.161
-714.733	2.751	-0.038	-0.027
-713.718	-200.000	0.026	-0.287
-712.704	-51.403	0.233	0.109
-711.689	-63.262	-0.395	-0.163
-710.675	350.744	-0.040	0.078
-709.660	111.127	-0.054	0.065
-708.645	-99.688	0.216	0.054
-707.631	-200.000	-0.001	-0.042
-706.616	35.274	0.319	-0.280
-705.602	-200.000	0.029	-0.496
-704.587	103.065	0.155	-0.181
-703.572	523.332	-0.062	-0.146
-702.558	-83.236	-0.019	-0.006
-701.543	-94.689	-0.175	-0.048
-700.529	126.806	-0.177	-0.225
-699.514	800.000	0.082	0.308
-698.499	-58.408	0.112	-0.049
-697.485	-200.000	0.001	0.318
-696.470	-50.602	-0.299	0.141
-695.456	-102.903	-0.505	0.120
-694.441	232.450	0.139	0.229
-693.426	-186.327	0.202	-0.003
-692.412	-31.095	-0.342	-0.193
-691.397	102.460	-0.003	-0.003
-690.383	-189.188	0.074	-0.001
-689.368	566.010	0.052	-0.125
-688.354	485.108	-0.257	-0.584
-687.339	442.939	0.148	-0.324
-686.324	-200.000	-0.038	0.368
-685.310	186.197	0.128	0.191
-684.295	-200.000	-0.053	0.269
-683.281	85.525	-0.069	-0.075
-682.266	-18.058	-0.059	0.037
-681.251	-200.000	0.030	0.183
-680.237	-35.137	-0.423	0.230
-679.222	295.300	0.140	-0.256
-678.208	77.336	-0.213	0.226
-677.193	137.295	0.132	0.173
-676.178	-200.000	-0.023	0.246
-675.164	-200.000	-0.023	0.133
-674.149	-134.887	-0.466	0.056
-673.135	800.000	-0.090	0.319
-672.120	55.215	-0.274	-0.265
-671.105	131.940	0.029	0.038
-670.091	235.934	-0.157	-0.259
-669.076	96.291	-0.150	-0.172
-668.062	-200.000	0.002	-0.305
-667.047	41.910	0.324	-0.294
-666.032	-200.000	0.025	0.130
-665.018	-71.516	0.287	-0.107
-664.003	-28.197	0.080	0.046
-662.989	-92.512	-0.375	-0.105
-661.974	-43.040	0.331	-0.167
-660.959	-200.000	-0.051	0.258
-659.945	-137.973	-0.105	0.012
-658.930	-90.044	-0.183	-0.053
-657.916	800.000	0.122	-0.438
-656.901	-62.038	0.036	0.015
-655.886	-200.000	0.031	-0.258
-654.872	-182.379	0.147	0.003
-653.857	-102.612	-0.193	-0.046
-652.843	800.000	0.023	-0.081
-651.828	-200.000	0.043	0.249
-650.814	-200.000	0.008	0.113
-649.799	-200.000	-0.020	-0.231
-648.784	-126.998	0.217	0.032
-647.770	-45.650	-0.077	-0.038
-646.755	800.000	-0.026	-0.107
-645.741	800.000	-0.022	0.089
-644.726	-200.000	-0.023	0.235
-643.711	-200.000	-0.032	0.292
-642.697	800.000	0.037	-0.134
-641.682	-200.000	0.022	-0.104
-640.668	657.449	0.013	0.034
-639.653	66.417	0.100	-0.102
-638.638	123.979	0.159	0.200
-637.624	-123.305	0.402	0.064
-636.609	-22.552	-0.082	-0.049
-635.595	339.130	-0.096	0.187
-634.580	252.823	-0.047	0.080
-633.565	-50.077	0.167	-0.079
-632.551	506.194	-0.137	-0.317
-631.536	-48.186	0.294	-0.141
-630.522	363.183	-0.154	0.308
-629.507	483.932	0.100	0.227
-628.492	118.683	0.085	0.105
-627.478	454.287	-0.086	0.190
-626.463	221.135	-0.039	0.063
-625.449	-55.715	-0.167	-0.074
-624.434	56.883	-0.288	-0.279
-623.419	184.251	-0.061	-0.089
-622.405	-88.028	0.261	0.078
-621.390	-62.503	-0.154	0.064
-620.376	59.183	0.292	-0.287
-619.361	46.612	-0.038	0.035
-618.346	736.171	-0.116	0.310
-617.332	631.069	-0.112	0.281
-616.317	800.000	-0.048	0.160
-615.303	212.014	-0.051	0.080
-614.288	-56.339	-0.146	0.065
-613.273	-200.000	-0.070	-0.372
-612.259	-62.447	-0.118	0.049
-611.244	-56.918	-0.166	0.073
-610.230	133.227	-0.092	-0.119
-609.215	-200.000	-0.003	-0.064
-608.201	40.705	0.054	-0.048
-607.186	197.398	-0.095	-0.145
-606.171	-17.560	0.276	-0.173
-605.157	-62.876	-0.147	-0.061
-604.142	800.000	-0.085	-0.233
-603.128	-158.885	0.382	0.022
-602.113	-96.867	-0.258	0.067
-601.098	-37.865	0.232	0.123
-600.084	300.669	0.057	-0.105
-599.069	-118.954	0.222	0.039
-598.055	424.943	0.103	-0.220
-597.040	-17.638	-0.472	-0.295
-596.025	267.497	-0.113	-0.197
-595.011	29.696	-0.123	-0.104
-593.996	-46.848	0.137	0.066
-592.982	-134.504	-0.066	0.008
-591.967	-107.303	0.120	-0.026
-590.952	-160.482	-0.139	0.007
-589.938	-152.787	-0.129	0.009
-588.923	-200.000	0.033	-0.313
-587.909	5.033	-0.102	0.074
-586.894	-7.393	0.036	-0.024
-585.879	31.178	0.278	0.237
-584.865	-15.021	0.189	0.121
-583.850	40.072	0.110	-0.098
-582.836	331.885	0.043	0.083
-581.821	800.000	-0.097	-0.293
-580.806	-200.000	-0.025	0.274
-579.792	-25.835	0.371	0.217
-578.777	-44.069	-0.242	-0.121
-577.763	-57.181	0.172	-0.075
-576.748	-30.611	0.145	0.082
-575.733	98.029	-0.194	0.222
-574.719	800.000	-0.120	0.362
-573.704	-5.488	-0.260	0.178
-572.690	-114.983	0.484	0.092
-571.675	-95.232	0.103	-0.028
-570.661	-200.000	-0.021	-0.222
-569.646	236.300	-0.100	0.164
-568.631	499.055	0.064	0.146
-567.617	299.214	-0.137	-0.250
-566.602	-200.000	-0.035	-0.183
-565.588	-55.720	0.110	0.049
-564.573	-144.999	-0.239	-0.022
-563.558	-182.893	-0.155	-0.003
-562.544	77.340	-0.056	0.059
-561.529	130.857	0.085	0.108
-560.515	800.000	0.098	-0.324
-559.500	-80.393	-0.244	-0.081
-558.485	134.245	0.100	-0.129
-557.471	-46.323	-0.065	0.032
-556.456	-200.000	-0.009	-0.326
-555.442	160.341	-0.176	-0.244
-554.427	-21.988	-0.147	0.089
-553.412	122.943	0.090	-0.113
-552.398	-200.000	-0.054	-0.295
-551.383	-104.903	0.315	-0.072
-550.369	-200.000	0.039	-0.201
-549.354	-154.063	-0.095	0.006
-548.339	-165.797	-0.350	0.015
-547.325	-30.193	-0.195	-0.110
-546.310	-72.233	-0.242	0.089
-545.296	-87.548	0.474	0.142
-544.281	-32.780	-0.211	-0.116
-543.266	151.925	0.068	-0.092
-542.252	-45.901	0.283	0.139
-541.237	3.433	-0.130	-0.094
-540.223	95.098	-0.157	-0.178
-539.208	-133.690	-0.370	0.046
-538.193	612.938	-0.112	0.277
-537.179	411.791	0.114	0.240
-536.164	-200.000	-0.002	0.107
-535.150	407.256	0.068	-0.143
-534.135	79.321	-0.172	-0.183
-533.121	409.367	-0.143	-0.300
-532.106	162.789	0.196	-0.273
-531.091	-103.737	-0.342	0.080
-530.077	-99.626	0.056	-0.014
-529.062	-25.548	-0.132	0.077
-528.048	-72.909	0.340	0.124
-527.033	546.118	0.197	0.467
-526.018	132.154	0.172	-0.220
-525.004	28.872	0.138	0.116
-523.989	800.000	0.081	0.226
-522.975	0.878	-0.153	-0.109
-521.960	-200.000	-0.003	0.447
-520.945	4.570	0.127	-0.093
-519.931	4.685	-0.248	-0.181
-518.916	87.299	0.153	-0.168
-517.902	-28.646	0.142	0.081
-516.887	92.866	0.321	-0.359
-515.872	-200.000	0.035	0.203
-514.858	-113.312	0.079	0.015
-513.843	90.914	-0.077	0.086
-512.829	-83.942	-0.072	0.023
-511.814	46.672	-0.156	-0.144
-510.799	86.120	-0.146	-0.159
-509.785	-105.135	-0.168	0.038
-508.770	-200.000	-0.049	0.275
-507.756	171.833	0.214	-0.305
-506.741	239.106	0.211	0.349
-505.726	272.115	-0.150	0.263
-504.712	68.284	-0.125	0.127
-503.697	-137.722	-0.027	0.003
-502.683	-29.308	0.311	0.177
-501.668	43.533	-0.146	0.132
-500.653	189.821	-0.095	-0.142
-499.639	-134.428	0.339	-0.041
-498.624	-200.000	0.054	-0.355
-497.610	281.566	-0.085	-0.151
-496.595	-200.000	0.003	0.260
-495.581	-139.942	0.252	0.026
-494.566	-95.232	-0.107	0.029
-493.551	-164.651	0.321	0.014
-492.537	-102.598	0.055	0.013
-491.522	-50.342	-0.159	0.074
-490.508	-99.004	0.449	-0.113
-489.493	-200.000	-0.026	0.190
-488.478	-127.715	-0.232	0.033
-487.464	331.183	0.096	0.183
-486.449	-74.949	-0.293	-0.104
-485.435	-129.390	0.155	0.021
-484.420	123.252	-0.071	-0.088
-483.405	-159.729	0.092	0.005
-482.391	43.271	0.153	-0.139
-481.376	108.624	-0.189	-0.224
-480.362	-110.149	-0.336	0.069
-479.347	15.572	-0.142	0.110
-478.332	-200.000	0.026	-0.117
-477.318	800.000	-0.033	-0.107
-476.303	-78.083	-0.310	0.106
-475.289	26.867	0.332	-0.276
-474.274	-44.752	-0.188	0.093
-473.259	-61.384	0.265	0.110
-472.245	70.500	-0.113	0.116
-471.230	-149.723	0.280	0.022
-470.216	-157.450	0.049	-0.003
-469.201	800.000	-0.025	-0.078
-468.186	92.264	0.161	0.180
-467.172	-63.991	-0.120	0.049
-466.157	800.000	-0.056	0.190
-465.143	-46.469	-0.396	0.193
-464.128	-72.357	0.430	0.158
-463.113	180.596	-0.016	0.024
-462.099	800.000	0.070	-0.217
-461.084	75.148	-0.213	0.223
-460.070	220.341	-0.204	0.323
-459.055	132.769	0.124	-0.159
-458.040	800.000	0.030	-0.086
-457.026	-96.833	-0.319	-0.083
-456.011	552.492	0.028	0.066
-454.997	-200.000	0.042	-0.408
-453.982	485.180	-0.142	-0.321
-452.968	-35.368	0.221	-0.119
-451.953	240.730	0.051	0.084
-450.938	185.756	-0.081	0.119
-449.924	2.539	0.081	0.058
-448.909	-200.000	-0.195	0.001
-447.895	-113.143	-0.154	0.030
-446.880	-42.187	0.312	0.158
-445.865	-163.933	-0.234	-0.011
-444.851	800.000	0.027	-0.101
-443.836	-150.600	-0.093	0.007
-442.822	674.520	-0.089	0.228
-441.807	-200.000	0.363	0.000
-440.792	-5.249	-0.235	0.160
-439.778	-61.139	0.095	0.040
-438.763	-3.482	-0.381	0.262
-437.749	-200.000	0.019	0.097
-436.734	-62.011	-0.466	-0.193
-435.719	-149.408	-0.226	-0.018
-434.705	503.023	-0.126	0.288
-433.690	800.000	0.112	0.448
-432.676	-78.514	0.208	0.071
-431.661	798.061	-0.013	0.034
-430.646	212.110	-0.135	-0.210
-429.632	198.630	-0.146	-0.221
-428.617	-122.397	-0.196	-0.032
-427.603	-174.614	-0.191	0.005
-426.588	318.979	-0.062	-0.116
-425.573	196.672	0.046	-0.070
-424.559	404.061	-0.083	0.172
-423.544	800.000	0.084	-0.332
-422.530	202.593	-0.089	-0.136
-421.515	519.020	0.064	-0.149
-420.500	-23.599	-0.269	0.160
-419.486	636.187	-0.125	0.314
-418.471	134.458	-0.166	0.213
-417.457	-200.000	0.006	0.276
-416.442	183.882	0.026	-0.038
-415.428	-200.000	0.009	-0.254
-414.413	-30.340	0.186	-0.105
-413.398	-164.959	-0.142	0.006
-412.384	800.000	-0.063	-0.212
-411.369	-200.000	0.089	-0.430
-410.355	-117.966	-0.058	0.010
-409.340	-51.409	0.010	-0.005
-408.325	40.874	0.138	-0.123
-407.311	209.348	0.085	-0.131
-406.296	-177.329	-0.255	-0.006
-405.282	9.782	-0.067	-0.050
-404.267	-10.951	0.097	-0.063
-403.252	-32.292	0.187	0.103
-402.238	-68.651	0.362	0.139
-401.223	-38.561	0.153	0.080
-400.209	-200.000	-0.063	-0.302
-399.194	800.000	0.016	0.061
-398.179	61.938	0.229	0.226
-397.165	800.000	0.045	-0.168
-396.150	188.577	0.098	-0.145
-395.136	-200.000	-0.060	-0.363
-394.121	251.603	-0.075	-0.126
-393.106	800.000	0.203	-0.577
-392.092	608.113	0.022	-0.053
-391.077	-102.845	-0.325	0.076
-390.063	-37.438	0.104	-0.055
-389.048	-60.565	0.122	-0.051
-388.033	151.771	-0.197	0.266
-387.019	12.892	-0.110	-0.084
-386.004	7.293	-0.127	-0.094
-384.990	10.107	0.172	-0.129
-383.975	224.098	0.127	0.203
-382.960	-177.591	-0.292	0.007
-381.946	-157.894	-0.208	-0.012
-380.931	725.258	0.024	-0.063
-379.917	-9.858	-0.325	0.213
-378.902	-200.000	0.008	-0.155
-377.888	-200.000	-0.020	-0.112
-376.873	298.222	0.028	-0.050
-375.858	59.646	-0.161	0.157
-374.844	260.442	0.026	-0.044
-373.829	-132.228	0.152	-0.019
-372.815	206.458	0.243	0.374
-371.800	537.226	0.022	0.052
-370.785	800.000	-0.030	-0.122
-369.771	521.349	0.158	-0.367
-368.756	237.653	-0.050	0.083
-367.742	25.486	0.227	0.186
-366.727	-28.634	-0.445	0.253
-365.712	376.786	-0.090	0.181
-364.698	-34.169	0.221	-0.120
-363.683	751.384	-0.105	-0.280
-362.669	261.814	-0.066	0.112
-361.654	-200.000	0.010	-0.178
-360.639	800.000	0.018	-0.067
-359.625	132.410	0.113	0.143
-358.610	383.469	0.105	-0.213
-357.596	-100.453	0.235	0.057
-356.581	-200.000	0.052	-0.427
-355.566	64.960	0.059	0.059
-354.552	-200.000	0.055	0.255
-353.537	-175.171	0.271	-0.007
-352.523	-15.989	-0.060	-0.038
-351.508	9.937	-0.160	0.120
-350.493	64.276	-0.217	0.216
-349.479	-50.877	0.284	-0.132
-348.464	-200.000	-0.054	-0.240
-347.450	800.000	0.081	0.229
-346.435	-9.805	-0.097	0.064
-345.420	37.911	0.097	-0.085
-344.406	180.721	-0.224	0.325
-343.391	421.378	0.054	-0.114
-342.377	-200.000	0.012	0.107
-341.362	48.622	0.138	-0.128
-340.348	-200.000	0.001	0.256
-339.333	167.022	0.247	0.345
-338.318	-35.362	0.274	0.147
-337.304	11.049	-0.033	0.025
-336.289	121.575	0.086	-0.105
-335.275	-32.340	-0.210	-0.116
-334.260	-67.862	0.155	-0.060
-333.245	381.969	0.087	-0.177
-332.231	-173.301	0.068	-0.002
-331.216	-124.870	0.447	-0.068
-330.202	195.421	0.104	-0.156
-329.187	-200.000	0.044	0.328
-328.172	539.836	-0.157	-0.368
-327.158	-200.000	-0.001	-0.385
-326.143	7.350	0.304	0.224
-325.129	46.346	0.234	-0.214
-324.114	-48.538	-0.117	-0.055
-323.099	-200.000	0.010	-0.047
-322.085	76.390	-0.101	0.105
-321.070	-190.359	0.291	0.003
-320.056	-40.979	-0.353	-0.180
-319.041	-89.897	-0.170	0.049
-318.026	-200.000	0.006	0.102
-317.012	81.058	-0.266	0.283
-315.997	-15.944	0.249	-0.156
-314.983	-200.000	0.053	-0.401
-313.968	-200.000	0.013	0.538
-312.953	-200.000	-0.003	-0.351
-311.939	17.128	0.138	-0.108
-310.924	800.000	0.054	0.159
-309.910	800.000	0.104	0.330
-308.895	-69.465	0.104	0.039
-307.880	-70.495	0.201	0.075
-306.866	102.252	0.094	-0.108
-305.851	-20.853	-0.102	0.061
-304.837	221.081	0.086	-0.137
-303.822	518.530	0.180	0.414
-302.807	-125.778	0.126	0.019
-301.793	-149.794	-0.239	0.018
-300.778	113.154	-0.169	0.202
-299.764	11.678	0.215	0.163
-298.749	38.213	-0.114	0.100
-297.735	800.000	0.027	0.076
-296.720	8.233	0.235	0.174
-295.705	149.600	-0.276	-0.368
-294.691	161.577	-0.097	0.133
-293.676	800.000	-0.026	-0.097
-292.662	-127.287	-0.119	0.017
-291.647	-200.000	0.014	0.212
-290.632	-67.259	0.113	-0.044
-289.618	98.306	0.272	0.308
-288.603	563.946	-0.027	0.065
-287.589	-10.094	0.126	0.083
-286.574	-163.535	0.337	-0.016
-285.559	-200.000	0.087	0.436
-284.545	554.442	0.162	0.383
-283.530	1.333	0.145	-0.102
-282.516	800.000	0.131	0.464
-281.501	173.474	-0.121	0.172
-280.486	-176.441	-0.576	-0.015
-279.472	-200.000	0.003	-0.170
-278.457	343.965	-0.089	-0.172
-277.443	-2.421	0.092	-0.063
-276.428	35.419	-0.134	-0.115
-275.413	-27.210	0.309	-0.177
-274.399	-57.955	-0.191	-0.082
-273.384	-91.543	0.262	-0.073
-272.370	-12.695	0.190	-0.122
-271.355	138.281	-0.140	-0.181
-270.340	-40.155	-0.146	0.075
-269.326	-73.159	0.184	0.066
-268.311	12.787	-0.241	-0.183
-267.297	223.355	-0.148	0.235
-266.282	-127.822	0.133	-0.019
-265.267	-200.000	0.010	0.051
-264.253	-67.758	0.126	0.049
-263.238	800.000	-0.036	-0.148
-262.224	46.139	-0.235	0.214
-261.209	13.533	0.041	-0.031
-260.195	1.430	-0.241	-0.171
-259.180	425.035	-0.124	-0.263
-258.165	131.565	-0.149	-0.188
-257.151	800.000	0.079	-0.320
-256.136	-67.926	-0.150	-0.057
-255.122	800.000	0.059	-0.164
-254.107	231.536	0.082	-0.133
-253.092	-108.395	-0.301	0.064
-252.078	239.748	-0.085	-0.139
-251.063	-123.991	0.244	-0.038
-250.049	591.232	-0.049	0.119
-249.034	-139.015	0.286	-0.031
-248.019	207.327	-0.139	0.213
-247.005	421.168	0.124	0.262
-245.990	-56.542	-0.270	-0.117
-244.976	800.000	0.036	0.124
-243.961	124.829	0.115	-0.142
-242.946	-118.358	0.461	-0.080
-241.932	-11.493	0.117	0.075
-240.917	-200.000	0.012	-0.215
-239.903	800.000	-0.021	-0.067
-238.888	71.693	0.092	0.094
-237.873	-125.767	0.084	0.012
-236.859	227.005	-0.235	-0.375
-235.844	-44.254	-0.064	-0.031
-234.830	-132.533	-0.182	0.023
-233.815	-200.000	0.026	0.116
-232.800	29.788	0.258	-0.216
-231.786	240.286	0.149	0.243
-230.771	-120.106	0.232	0.039
-229.757	-200.000	0.001	0.117
-228.742	-200.000	0.006	-0.281
-227.727	-144.745	0.302	-0.027
-226.713	-78.044	-0.174	-0.059
-225.698	-128.680	0.115	0.016
-224.684	-46.717	0.211	-0.101
-223.669	-8.969	-0.117	-0.077
-222.655	800.000	-0.074	0.286
-221.640	-200.000	-0.104	-0.653
-220.625	414.800	-0.170	0.355
-219.611	146.701	-0.115	-0.151
-218.596	800.000	-0.085	0.267
-217.582	-75.107	-0.199	0.070
-216.567	-57.047	-0.241	-0.104
-215.552	224.654	-0.077	-0.122
-214.538	487.523	-0.072	0.162
-213.523	-200.000	-0.075	0.416
-212.509	-200.000	0.019	-0.149
-211.494	82.584	0.151	0.161
-210.479	2.514	0.229	0.163
-209.465	113.877	0.122	0.146
-208.450	2.311	-0.165	0.117
-207.436	35.434	0.170	-0.146
-206.421	22.554	-0.322	-0.258
-205.406	-86.254	-0.362	0.109
-204.392	-75.964	0.324	0.112
-203.377	-66.477	-0.352	0.137
-202.363	682.452	-0.032	-0.082
-201.348	14.951	0.369	-0.283
-200.333	57.778	-0.153	0.147
-199.319	11.717	0.294	-0.221
-198.304	-54.331	0.056	0.025
-197.290	100.111	0.153	-0.174
-196.275	-142.847	-0.235	0.022
-195.260	-117.261	0.299	0.053
-194.246	59.294	-0.091	0.088
-193.231	-78.647	-0.147	0.049
-192.217	281.343	0.127	-0.223
-191.202	800.000	-0.053	-0.156
-190.187	-29.471	-0.131	-0.074
-189.173	-74.717	-0.115	0.040
-188.158	-147.514	-0.202	-0.017
-187.144	59.576	-0.100	-0.096
-186.129	44.447	-0.203	-0.183
-185.114	-126.856	0.622	0.090
-184.100	-44.608	-0.193	-0.095
-183.085	-200.000	0.001	-0.049
-182.071	20.450	-0.155	0.123
-181.056	-19.017	-0.084	-0.051
-180.042	800.000	0.030	-0.123
-179.027	151.004	0.181	0.242
-178.012	-105.464	-0.245	0.055
-176.998	-200.000	-0.025	-0.190
-175.983	123.355	-0.141	0.173
-174.969	503.414	-0.124	0.280
-173.954	-200.000	0.008	0.442
-172.939	-95.143	-0.159	0.042
-171.925	-123.591	0.277	-0.043
-170.910	112.266	-0.162	0.192
-169.896	-200.000	0.023	-0.250
-168.881	-67.147	0.184	0.071
-167.866	-77.020	-0.115	-0.039
-166.852	16.215	-0.027	0.021
-165.837	-24.848	0.083	-0.048
-164.823	271.908	-0.099	-0.171
-163.808	800.000	0.126	0.345
-162.793	-123.129	0.115	0.018
-161.779	-7.967	0.080	0.053
-160.764	169.312	0.254	0.355
-159.750	31.908	-0.210	0.177
-158.735	-200.000	-0.041	-0.404
-157.720	227.074	0.194	-0.308
-156.706	-200.000	0.048	0.449
-155.691	-200.000	-0.457	0.002
-154.677	-115.423	0.075	0.014
-153.662	-10.735	0.061	-0.040
-152.647	-143.396	-0.271	0.025
-151.633	-166.890	0.054	-0.002
-150.618	-106.974	-0.069	0.015
-149.604	-1.845	0.203	0.140
-148.589	506.840	0.084	0.190
-147.574	170.949	0.095	0.133
-146.560	757.558	0.049	0.131
-145.545	20.523	-0.387	0.306
-144.531	-121.192	-0.155	0.025
-143.516	-111.874	-0.239	-0.047
-142.502	-79.520	-0.151	-0.050
-141.487	-200.000	-0.013	-0.164
-140.472	-200.000	0.099	-0.509
-139.458	46.280	-0.182	-0.165
-138.443	76.196	-0.282	0.292
-137.429	-73.736	-0.275	0.098
-136.414	331.329	0.093	-0.175
-135.399	215.124	-0.153	0.237
-134.385	52.592	0.201	0.188
-133.370	-155.293	0.393	-0.025
-132.356	332.300	0.157	-0.296
-131.341	106.307	-0.112	-0.130
-130.326	-200.000	-0.040	0.232
-129.312	-37.676	-0.058	0.030
-128.297	-200.000	0.036	-0.290
-127.283	10.248	0.113	-0.084
-126.268	-200.000	-0.036	0.170
-125.253	-124.354	0.290	-0.044
-124.239	463.284	0.078	-0.171
-123.224	-58.203	0.167	-0.071
-122.210	381.773	0.070	-0.141
-121.195	-40.506	0.176	-0.089
