DTS Sentinel unit serial number:	SN413079Multiplexer serial number:	ORYXHardware model number:	OX4-SRSoftware version number:	ORYX F/W v4.00 Oryx Data Collector v3.7.2.0data status	okinstallation	princeton_trtdifferential loss correction	single-endedforward channel	channel 2reverse channel	N/Adate	2019/09/18time	23:35:35forward acquisition time	60.00reverse acquisition time	0.00gamma	496.2192k internal	0.2351k external	0.2351temperature offset calibration	1.0017default loss term (dB/km)	0.3790temperature slope calibration	1.0000multiplexer offset coefficient	1.0000multiplexer slope coefficient	1.0000fibre end	0.00T internal ref (°C)	23.59T ext. ref 1 (°C)	0.77T ext. ref 2 (°C)	16.48length (m)	temperature (°C)	Stokes	anti-Stokes-747.200	-118.941	0.299	0.052
-746.185	-87.552	-0.429	0.129
-745.171	121.645	0.009	-0.011
-744.156	800.000	0.073	0.278
-743.142	257.522	-0.109	-0.186
-742.127	89.796	0.171	-0.191
-741.112	185.823	-0.171	0.254
-740.098	-55.298	-0.208	0.093
-739.083	-69.005	0.152	0.059
-738.069	156.459	-0.110	-0.152
-737.054	-200.000	0.061	-0.322
-736.039	30.896	0.181	-0.155
-735.025	31.195	0.338	0.289
-734.010	-87.328	-0.163	-0.049
-732.996	-19.565	0.481	-0.297
-731.981	83.939	-0.134	-0.146
-730.966	57.568	-0.220	0.215
-729.952	-93.742	0.193	0.053
-728.937	141.963	-0.115	-0.152
-727.923	184.436	-0.145	0.215
-726.908	-92.705	0.259	-0.072
-725.894	800.000	0.065	-0.195
-724.879	-200.000	0.001	-0.046
-723.864	66.500	-0.202	-0.204
-722.850	147.372	-0.149	-0.200
-721.835	-131.393	-0.369	-0.049
-720.821	-200.000	0.023	-0.109
-719.806	800.000	-0.058	0.190
-718.791	-88.532	0.077	0.023
-717.777	-184.321	-0.163	-0.003
-716.762	630.595	0.018	-0.046
-715.748	71.177	0.264	-0.273
-714.733	-200.000	-0.034	-0.286
-713.718	800.000	0.035	-0.111
-712.704	-139.456	-0.116	-0.012
-711.689	71.834	-0.051	-0.052
-710.675	25.857	-0.023	0.019
-709.660	-138.937	0.229	0.025
-708.645	-24.533	-0.327	0.194
-707.631	-200.000	-0.016	-0.226
-706.616	514.896	-0.129	-0.299
-705.602	800.000	0.113	-0.391
-704.587	-39.751	-0.421	-0.219
-703.572	-110.542	-0.168	-0.035
-702.558	113.560	-0.222	-0.269
-701.543	-106.763	0.333	0.074
-700.529	138.371	0.183	0.239
-699.514	-87.011	0.301	-0.091
-698.499	5.312	0.214	0.157
-697.485	-28.223	0.161	-0.093
-696.470	72.663	0.132	-0.137
-695.456	471.425	0.052	0.116
-694.441	800.000	-0.090	-0.356
-693.426	263.976	0.075	0.130
-692.412	-100.415	0.203	0.050
-691.397	-137.808	-0.339	-0.038
-690.383	41.782	-0.111	-0.100
-689.368	-42.728	0.184	0.093
-688.354	-96.922	0.262	-0.068
-687.339	84.632	0.216	0.235
-686.324	131.474	-0.125	0.160
-685.310	-163.484	-0.154	0.007
-684.295	-50.224	-0.093	0.044
-683.281	-54.870	0.210	-0.094
-682.266	-40.727	-0.033	-0.017
-681.251	117.239	0.182	0.222
-680.237	68.279	-0.199	0.203
-679.222	-200.000	-0.005	-0.021
-678.208	-7.520	0.139	0.094
-677.193	800.000	-0.036	-0.152
-676.178	800.000	0.114	-0.352
-675.164	-75.559	0.088	-0.031
-674.149	-31.379	0.152	0.085
-673.135	-200.000	0.037	-0.276
-672.120	155.293	0.087	0.120
-671.105	-89.936	0.184	0.053
-670.091	94.412	0.195	0.220
-669.076	-56.637	-0.112	0.049
-668.062	19.618	-0.181	-0.145
-667.047	-200.000	0.039	-0.189
-666.032	-12.169	0.066	-0.043
-665.018	37.279	-0.208	0.183
-664.003	-200.000	0.027	-0.204
-662.989	-200.000	0.034	-0.166
-661.974	-84.637	0.164	-0.051
-660.959	-160.918	0.065	-0.003
-659.945	-146.662	-0.242	0.021
-658.930	-12.977	0.117	0.076
-657.916	304.730	-0.114	-0.210
-656.901	127.328	0.276	-0.348
-655.886	-200.000	0.041	0.291
-654.872	-85.506	-0.184	0.057
-653.857	245.670	-0.096	0.160
-652.843	267.130	-0.042	-0.072
-651.828	800.000	-0.045	-0.160
-650.814	-60.413	0.400	-0.169
-649.799	-149.837	-0.182	-0.014
-648.784	-200.000	0.006	0.043
-647.770	-14.025	-0.161	0.103
-646.755	-62.024	0.212	0.088
-645.741	-76.361	0.171	-0.060
-644.726	4.913	-0.217	0.158
-643.711	800.000	-0.061	-0.225
-642.697	-22.083	-0.158	-0.095
-641.682	-78.475	-0.035	0.012
-640.668	-2.135	0.053	-0.037
-639.653	-200.000	-0.080	0.382
-638.638	-200.000	0.193	0.000
-637.624	133.305	0.053	-0.068
-636.609	386.566	-0.076	-0.156
-635.595	20.320	-0.046	-0.037
-634.580	-48.321	-0.206	0.099
-633.565	-200.000	-0.023	0.273
-632.551	37.943	-0.390	0.345
-631.536	-86.697	-0.020	0.006
-630.522	-84.972	-0.690	0.215
-629.507	126.837	0.117	-0.148
-628.492	-86.663	0.141	0.043
-627.478	-42.007	-0.295	-0.150
-626.463	800.000	-0.061	-0.225
-625.449	38.709	0.221	0.196
-624.434	144.497	-0.135	0.179
-623.419	10.335	-0.228	-0.172
-622.405	-143.127	0.142	-0.014
-621.390	182.826	0.186	-0.273
-620.376	54.713	0.103	0.099
-619.361	119.139	-0.324	0.397
-618.346	21.608	0.149	0.120
-617.332	-107.137	-0.302	0.066
-616.317	5.960	-0.169	0.124
-615.303	-45.404	-0.154	-0.076
-614.288	-57.757	0.175	0.076
-613.273	-200.000	0.012	-0.180
-612.259	223.748	0.060	0.097
-611.244	-200.000	0.034	-0.216
-610.230	-102.157	0.171	-0.041
-609.215	-78.655	0.039	0.013
-608.201	-200.000	0.007	-0.140
-607.186	60.375	-0.107	0.105
-606.171	-34.718	0.200	-0.108
-605.157	95.400	-0.093	0.105
-604.142	-200.000	0.045	-0.344
-603.128	98.990	-0.173	0.198
-602.113	-111.506	-0.275	-0.055
-601.098	-58.720	0.158	0.068
-600.084	-145.262	-0.225	-0.020
-599.069	800.000	-0.067	-0.290
-598.055	35.615	-0.057	0.050
-597.040	800.000	-0.042	0.163
-596.025	-200.000	0.019	0.153
-595.011	406.483	0.086	0.181
-593.996	162.758	-0.167	-0.233
-592.982	91.553	-0.072	-0.080
-591.967	-119.195	0.034	0.006
-590.952	41.311	0.114	-0.102
-589.938	20.410	-0.187	0.150
-588.923	-200.000	0.009	0.227
-587.909	-200.000	0.023	0.282
-586.894	-102.397	0.205	-0.049
-585.879	68.091	-0.094	0.095
-584.865	746.852	-0.090	-0.241
-583.850	-200.000	-0.022	0.343
-582.836	-200.000	0.035	0.233
-581.821	-166.134	-0.137	-0.006
-580.806	32.772	-0.074	-0.063
-579.792	71.917	-0.182	-0.188
-578.777	-200.000	-0.013	0.062
-577.763	92.147	-0.040	-0.044
-576.748	-200.000	-0.022	0.190
-575.733	24.445	-0.281	-0.230
-574.719	-114.969	0.258	0.049
-573.704	441.422	-0.137	-0.297
-572.690	450.146	-0.151	-0.330
-571.675	-114.356	-0.311	0.059
-570.661	580.877	0.043	0.103
-569.646	109.597	-0.100	-0.119
-568.631	-52.305	0.146	-0.067
-567.617	-83.099	0.049	0.016
-566.602	-105.855	-0.353	0.079
-565.588	389.753	0.142	0.292
-564.573	191.980	0.005	0.007
-563.558	107.943	-0.299	0.352
-562.544	-200.000	-0.022	-0.145
-561.529	23.941	0.038	0.031
-560.515	-22.623	0.320	-0.192
-559.500	117.700	-0.257	-0.314
-558.485	800.000	-0.053	-0.219
-557.471	-34.447	-0.084	0.046
-556.456	47.668	0.171	0.158
-555.442	-27.390	0.140	-0.081
-554.427	-59.045	-0.145	-0.062
-553.412	14.438	-0.151	-0.117
-552.398	116.812	-0.076	0.092
-551.383	-78.574	-0.143	0.048
-550.369	-50.021	-0.116	-0.055
-549.354	-96.191	-0.222	-0.058
-548.339	-101.702	0.082	0.020
-547.325	-39.713	0.220	0.114
-546.310	198.084	0.110	-0.166
-545.296	308.447	-0.024	0.044
-544.281	800.000	-0.096	0.322
-543.266	-115.259	0.154	-0.029
-542.252	70.680	-0.033	-0.033
-541.237	-16.738	0.405	-0.253
-540.223	155.824	-0.104	-0.142
-539.208	-77.797	0.174	-0.060
-538.193	379.900	0.079	-0.160
-537.179	137.100	-0.202	-0.261
-536.164	-89.809	-0.348	-0.101
-535.150	482.569	-0.075	0.169
-534.135	800.000	-0.025	0.075
-533.121	-151.699	0.104	0.008
-532.106	436.711	-0.101	0.218
-531.091	-88.580	0.423	-0.125
-530.077	-6.760	0.169	0.114
-529.062	30.296	0.085	-0.072
-528.048	-200.000	-0.009	0.192
-527.033	-141.663	-0.194	-0.019
-526.018	43.959	0.124	-0.112
-525.004	-87.063	0.629	0.190
-523.989	800.000	-0.085	-0.294
-522.975	-151.085	-0.148	0.011
-521.960	-1.772	0.101	-0.070
-520.945	84.507	0.088	0.095
-519.931	0.834	0.096	-0.068
-518.916	65.644	0.150	0.150
-517.902	164.787	-0.044	-0.062
-516.887	-18.758	-0.132	-0.082
-515.872	274.758	-0.127	-0.222
-514.858	172.289	0.080	0.114
-513.843	82.940	0.242	0.260
-512.829	800.000	0.044	-0.162
-511.814	6.275	0.129	-0.094
-510.799	422.944	0.203	-0.431
-509.785	159.705	0.084	0.115
-508.770	-142.217	-0.429	-0.042
-507.756	-200.000	-0.043	-0.435
-506.741	-152.052	0.346	-0.025
-505.726	-177.667	-0.158	-0.004
-504.712	134.833	-0.156	-0.200
-503.697	-100.617	0.140	-0.034
-502.683	90.495	0.221	-0.245
-501.668	-13.597	0.114	0.073
-500.653	300.719	-0.037	-0.068
-499.639	4.402	-0.105	-0.076
-498.624	-200.000	0.022	0.208
-497.610	-171.231	-0.113	0.004
-496.595	77.799	0.162	-0.170
-495.581	-172.018	0.178	0.006
-494.566	-96.115	-0.213	0.056
-493.551	53.442	0.153	0.145
-492.537	-200.000	-0.011	-0.050
-491.522	-147.637	0.338	0.028
-490.508	-68.444	-0.213	-0.082
-489.493	800.000	-0.023	0.072
-488.478	-50.113	-0.179	-0.084
-487.464	193.519	-0.048	-0.072
-486.449	-176.882	0.131	0.003
-485.435	136.908	-0.123	0.158
-484.420	170.591	0.124	-0.175
-483.405	-61.053	-0.031	0.013
-482.391	82.686	-0.253	-0.271
-481.376	104.868	-0.109	0.127
-480.362	-200.000	0.031	0.237
-479.347	800.000	0.072	-0.288
-478.332	-200.000	0.030	-0.443
-477.318	-42.911	-0.278	-0.139
-476.303	-200.000	-0.019	-0.116
-475.289	-121.101	0.046	0.008
-474.274	-109.110	-0.237	-0.050
-473.259	28.660	-0.122	-0.102
-472.245	604.890	-0.147	0.361
-471.230	72.792	0.066	0.068
-470.216	800.000	-0.079	0.250
-469.201	-113.597	-0.355	0.068
-468.186	58.078	0.243	0.235
-467.172	-200.000	-0.003	-0.087
-466.157	-200.000	0.028	-0.480
-465.143	800.000	-0.034	0.103
-464.128	-200.000	-0.048	-0.540
-463.113	-200.000	0.014	-0.131
-462.099	-200.000	-0.003	0.105
-461.084	128.697	0.343	-0.431
-460.070	312.181	0.121	0.224
-459.055	-7.879	-0.306	-0.204
-458.040	-54.167	-0.283	0.127
-457.026	378.034	0.041	0.084
-456.011	800.000	0.018	-0.069
-454.997	184.445	0.107	0.156
-453.982	258.169	0.073	-0.124
-452.968	22.745	0.160	-0.129
-451.953	-174.864	0.171	0.005
-450.938	-17.331	0.134	-0.083
-449.924	800.000	0.049	-0.212
-448.909	33.068	-0.050	0.043
-447.895	267.472	-0.153	-0.264
-446.880	-117.657	-0.104	0.018
-445.865	-70.712	-0.176	0.066
-444.851	376.441	0.115	0.231
-443.836	-82.028	-0.228	-0.073
-442.822	-100.861	0.210	-0.051
-441.807	800.000	0.067	0.186
-440.792	68.307	0.144	-0.146
-439.778	800.000	-0.086	0.254
-438.763	-200.000	0.408	0.001
-437.749	-160.268	-0.095	-0.005
-436.734	-68.547	-0.164	0.063
-435.719	-200.000	0.041	0.186
-434.705	800.000	0.009	0.030
-433.690	-200.000	-0.026	-0.381
-432.676	-83.844	0.082	-0.026
-431.661	-148.888	0.263	0.021
-430.646	322.106	-0.152	-0.285
-429.632	70.405	-0.353	-0.359
-428.617	-10.263	-0.239	-0.157
-427.603	-200.000	-0.009	0.045
-426.588	800.000	-0.100	0.341
-425.573	16.648	-0.101	-0.078
-424.559	-200.000	-0.008	0.214
-423.544	312.793	-0.111	0.205
-422.530	18.865	0.209	0.165
-421.515	-132.508	0.272	-0.034
-420.500	-200.000	-0.010	0.080
-419.486	-174.739	-0.202	0.006
-418.471	-83.438	0.244	0.077
-417.457	48.385	0.136	0.126
-416.442	800.000	-0.108	-0.300
-415.428	-200.000	0.043	0.243
-414.413	-13.318	0.057	-0.037
-413.398	-200.000	0.011	-0.227
-412.384	-83.962	0.183	0.057
-411.369	116.880	0.040	0.048
-410.355	361.600	-0.129	0.254
-409.340	510.177	-0.176	0.404
-408.325	-69.423	-0.143	0.054
-407.311	-0.438	-0.113	-0.079
-406.296	-42.119	0.049	-0.025
-405.282	157.849	-0.263	-0.359
-404.267	-51.266	0.128	-0.059
-403.252	-88.373	0.173	-0.051
-402.238	800.000	-0.102	0.281
-401.223	-122.266	0.065	0.010
-400.209	229.625	0.059	0.095
-399.194	79.831	0.190	-0.201
-398.179	271.438	0.090	-0.157
-397.165	114.210	0.255	-0.305
-396.150	138.730	-0.235	0.303
-395.136	102.466	-0.140	0.161
-394.121	-200.000	-0.004	-0.094
-393.106	-191.624	-0.046	0.000
-392.092	173.651	0.125	0.177
-391.077	-23.675	0.292	0.172
-390.063	163.972	-0.038	0.053
-389.048	366.048	0.133	0.264
-388.033	-112.240	0.078	-0.015
-387.019	-90.697	0.301	0.086
-386.004	32.220	-0.222	0.188
-384.990	11.815	0.153	0.116
-383.975	342.831	0.174	-0.336
-382.960	-38.061	-0.259	0.135
-381.946	208.020	0.154	0.237
-380.931	-18.936	0.210	-0.128
-379.917	-172.152	-0.363	-0.012
-378.902	233.734	-0.158	0.256
-377.888	85.599	-0.066	0.072
-376.873	283.509	-0.213	-0.376
-375.858	-80.357	-0.129	-0.042
-374.844	-200.000	0.020	0.261
-373.829	-200.000	-0.042	-0.257
-372.815	-200.000	0.020	-0.181
-371.800	59.393	0.078	0.075
-370.785	-200.000	-0.051	0.401
-369.771	-171.694	-0.291	0.009
-368.756	800.000	-0.060	0.218
-367.742	548.837	-0.226	-0.532
-366.727	22.291	-0.275	-0.221
-365.712	-89.025	-0.266	-0.078
-364.698	9.062	-0.201	0.149
-363.683	-200.000	-0.029	0.135
-362.669	-72.090	-0.067	-0.025
-361.654	-200.000	-0.008	0.233
-360.639	-200.000	0.007	0.081
-359.625	-200.000	0.053	0.252
-358.610	22.054	-0.223	0.179
-357.596	-88.952	0.053	-0.015
-356.581	79.063	0.081	-0.085
-355.566	-35.451	-0.396	0.211
-354.552	-112.078	0.060	-0.012
-353.537	595.238	-0.099	-0.242
-352.523	137.444	-0.243	0.313
-351.508	800.000	-0.053	-0.183
-350.493	-131.021	0.233	0.031
-349.479	677.628	0.084	-0.214
-348.464	660.126	-0.090	-0.228
-347.450	96.801	0.205	0.231
-346.435	-200.000	-0.130	0.575
-345.420	-24.418	0.220	0.129
-344.406	164.335	-0.153	-0.212
-343.391	350.825	-0.117	-0.227
-342.377	-11.268	0.271	-0.175
-341.362	-17.613	0.211	-0.130
-340.348	235.298	-0.188	-0.305
-339.333	-38.300	0.136	0.071
-338.318	800.000	0.060	0.207
-337.304	-131.732	-0.115	-0.015
-336.289	-200.000	0.000	-0.121
-335.275	125.071	0.195	0.242
-334.260	-81.911	-0.210	0.068
-333.245	464.509	0.106	-0.233
-332.231	32.302	0.155	0.131
-331.216	-200.000	0.010	0.174
-330.202	324.667	-0.023	0.043
-329.187	-51.624	0.160	0.073
-328.172	800.000	-0.081	-0.224
-327.158	800.000	0.050	0.139
-326.143	30.575	0.173	-0.145
-325.129	-19.058	0.175	-0.107
-324.114	-200.000	-0.019	-0.296
-323.099	-32.315	0.325	-0.178
-322.085	-11.568	-0.230	-0.148
-321.070	-12.386	0.313	-0.200
-320.056	-67.786	-0.115	0.044
-319.041	800.000	0.063	-0.181
-318.026	268.684	-0.076	0.131
-317.012	233.283	-0.157	-0.253
-315.997	220.272	-0.084	-0.132
-314.983	-19.590	0.104	0.063
-313.968	800.000	0.028	-0.094
-312.953	-200.000	0.006	0.066
-311.939	279.423	-0.116	-0.204
-310.924	-141.927	-0.155	-0.015
-309.910	323.182	0.061	0.115
-308.895	11.161	-0.063	-0.047
-307.880	-200.000	0.020	0.296
-306.866	101.038	0.138	-0.157
-305.851	-66.864	0.191	-0.074
-304.837	173.747	0.121	-0.171
-303.822	-95.677	0.057	0.015
-302.807	55.412	-0.107	-0.101
-301.793	-47.771	-0.248	-0.118
-300.778	407.418	-0.117	0.242
-299.764	60.290	0.204	0.198
-298.749	-95.043	0.295	-0.078
-297.735	-200.000	-0.098	0.444
-296.720	53.509	0.220	-0.206
-295.705	49.980	0.127	0.117
-294.691	-58.436	0.170	0.072
-293.676	31.678	0.219	-0.185
-292.662	-174.654	-0.391	0.011
-291.647	107.287	0.277	-0.322
-290.632	-56.146	-0.085	-0.037
-289.618	-131.355	-0.195	-0.025
-288.603	47.107	-0.134	-0.122
-287.589	494.454	0.058	-0.130
-286.574	-80.555	0.163	0.053
-285.559	-101.645	-0.264	0.063
-284.545	-200.000	0.012	-0.074
-283.530	-200.000	0.026	0.246
-282.516	153.136	0.251	0.336
-281.501	62.665	-0.113	0.111
-280.486	-101.998	0.325	-0.077
-279.472	-200.000	0.016	0.145
-278.457	-123.317	0.270	0.042
-277.443	-8.040	0.229	-0.151
-276.428	800.000	0.022	0.068
-275.413	46.430	0.049	-0.045
-274.399	-77.433	0.095	-0.032
-273.384	311.434	0.138	-0.253
-272.370	-26.884	0.110	0.063
-271.355	60.569	0.176	0.170
-270.340	-20.828	-0.312	-0.187
-269.326	-1.764	0.149	0.103
-268.311	664.063	0.059	-0.148
-267.297	-3.314	0.556	-0.379
-266.282	-76.551	0.360	0.124
-265.267	800.000	0.066	0.240
-264.253	413.723	0.159	-0.331
-263.238	14.656	0.093	-0.071
-262.224	93.889	0.083	0.092
-261.209	150.358	-0.053	0.070
-260.195	383.411	0.202	0.408
-259.180	-200.000	0.092	0.397
-258.165	306.661	0.083	0.151
-257.151	-21.607	0.080	-0.047
-256.136	800.000	-0.124	-0.509
-255.122	26.735	-0.255	-0.209
-254.107	-15.660	-0.168	-0.105
-253.092	-4.897	0.339	-0.228
-252.078	-125.353	-0.137	-0.020
-251.063	52.979	0.043	-0.040
-250.049	-200.000	-0.028	-0.302
-249.034	800.000	0.098	-0.325
-248.019	-161.561	0.025	-0.001
-247.005	485.463	-0.054	0.121
-245.990	10.149	0.142	0.106
-244.976	410.258	-0.040	0.082
-243.961	-200.000	-0.056	0.244
-242.946	800.000	0.069	-0.290
-241.932	-22.072	-0.196	0.117
-240.917	-200.000	-0.025	0.408
-239.903	-200.000	-0.032	-0.210
-238.888	-200.000	0.008	0.055
-237.873	-77.011	-0.360	0.123
-236.859	-50.268	-0.265	-0.122
-235.844	-50.282	0.205	-0.095
-234.830	-200.000	-0.015	-0.109
-233.815	368.629	-0.074	0.146
-232.800	-200.000	0.038	-0.206
-231.786	71.547	0.236	-0.239
-230.771	-158.178	-0.314	0.018
-229.757	-200.000	0.046	0.241
-228.742	-200.000	-0.061	0.298
-227.727	-170.740	0.068	0.002
-226.713	-65.830	0.304	0.119
-225.698	134.967	-0.229	-0.291
-224.684	-133.791	-0.068	-0.008
-223.669	-123.232	0.433	-0.068
-222.655	81.197	0.357	-0.377
-221.640	33.567	-0.010	0.008
-220.625	-165.255	0.107	-0.005
-219.611	-6.425	-0.049	0.033
-218.596	-78.456	0.282	-0.094
-217.582	-97.497	-0.311	0.079
-216.567	-35.517	0.343	-0.182
-215.552	28.379	0.078	0.064
-214.538	69.717	-0.130	-0.131
-213.523	-7.827	0.217	0.143
-212.509	-78.847	0.247	-0.082
-211.494	-83.033	-0.156	-0.049
-210.479	800.000	0.073	0.276
-209.465	94.261	-0.226	-0.251
-208.450	-101.574	0.205	-0.049
-207.436	800.000	0.067	0.243
-206.421	-82.204	0.575	0.183
-205.406	-67.554	-0.236	-0.090
-204.392	-94.585	0.056	0.015
-203.377	-200.000	0.052	-0.229
-202.363	800.000	0.104	-0.318
-201.348	-126.741	-0.207	-0.030
-200.333	-137.275	0.152	0.017
-199.319	46.018	0.040	-0.037
-198.304	71.606	-0.125	-0.127
-197.290	17.194	-0.093	-0.072
-196.275	219.817	-0.073	-0.115
-195.260	20.799	-0.089	0.070
-194.246	303.560	0.169	-0.306
-193.231	-90.773	0.219	0.062
-192.217	-11.268	0.132	0.085
-191.202	65.097	0.090	-0.089
-190.187	-44.182	-0.441	0.216
-189.173	73.268	0.131	0.133
-188.158	800.000	0.062	0.186
-187.144	14.672	-0.077	-0.059
-186.129	622.971	0.067	0.166
-185.114	-26.839	-0.453	0.259
-184.100	800.000	-0.099	0.370
-183.085	45.693	0.099	0.089
-182.071	-200.000	0.064	0.388
-181.056	6.576	-0.145	-0.105
-180.042	52.754	-0.127	0.119
-179.027	800.000	-0.068	0.240
-178.012	6.792	0.365	0.265
-176.998	-200.000	0.019	0.214
-175.983	11.046	0.157	-0.117
-174.969	47.193	0.127	-0.115
-173.954	131.737	-0.057	0.072
-172.939	-200.000	-0.006	0.048
-171.925	-200.000	-0.022	0.106
-170.910	654.943	-0.033	-0.082
-169.896	-38.651	0.189	-0.098
-168.881	-200.000	-0.076	0.348
-167.866	-113.474	-0.251	0.048
-166.852	202.989	-0.071	0.108
-165.837	216.475	0.043	-0.067
-164.823	-200.000	-0.031	0.425
-163.808	98.566	0.159	0.179
-162.793	-200.000	0.011	0.405
-161.779	686.294	0.097	0.247
-160.764	738.526	-0.119	0.311
-159.750	-200.000	-0.016	0.077
-158.735	28.108	0.205	-0.168
-157.720	-200.000	-0.007	0.108
-156.706	-152.688	-0.119	-0.008
-155.691	-66.143	-0.265	0.103
-154.677	47.710	-0.263	0.239
-153.662	-31.206	-0.296	-0.163
-152.647	800.000	-0.043	-0.149
-151.633	-86.065	-0.092	-0.028
-150.618	-88.583	0.312	0.091
-149.604	204.684	-0.181	0.274
-148.589	53.653	0.130	0.121
-147.574	-200.000	-0.003	-0.017
-146.560	-200.000	0.019	0.300
-145.545	-44.104	0.071	0.035
-144.531	-34.631	-0.229	0.122
-143.516	41.733	0.177	0.156
-142.502	40.996	-0.087	-0.077
-141.487	-200.000	-0.007	0.087
-140.472	800.000	0.060	0.196
-139.458	-142.249	-0.108	0.010
-138.443	800.000	-0.049	-0.140
-137.429	137.238	0.005	0.007
-136.414	-200.000	-0.061	0.272
-135.399	-200.000	0.019	-0.296
-134.385	-139.627	-0.219	-0.023
-133.370	-102.638	-0.209	-0.049
-132.356	53.211	0.275	-0.257
-131.341	-200.000	-0.023	0.144
-130.326	800.000	0.033	0.110
-129.312	78.347	0.072	-0.075
-128.297	-131.444	0.197	0.025
-127.283	-19.858	-0.077	0.046
-126.268	9.396	0.245	0.181
-125.253	-5.529	0.408	-0.273
-124.239	-130.038	-0.183	-0.024
-123.224	-83.811	0.348	-0.108
-122.210	-122.684	0.210	-0.033
-121.195	-200.000	-0.017	0.196
-120.180	-200.000	-0.022	0.249
