DTS Sentinel unit serial number:	SN413079Multiplexer serial number:	ORYXHardware model number:	OX4-SRSoftware version number:	ORYX F/W v4.00 Oryx Data Collector v3.7.2.0data status	okinstallation	princeton_trtdifferential loss correction	single-endedforward channel	channel 2reverse channel	N/Adate	2019/09/17time	01:11:35forward acquisition time	60.00reverse acquisition time	0.00gamma	496.2192k internal	0.2329k external	0.2329temperature offset calibration	0.9970default loss term (dB/km)	0.3790temperature slope calibration	1.0000multiplexer offset coefficient	1.0000multiplexer slope coefficient	1.0000fibre end	0.00T internal ref (°C)	29.48T ext. ref 1 (°C)	0.10T ext. ref 2 (°C)	24.20length (m)	temperature (°C)	Stokes	anti-Stokes-747.200	-200.000	-0.023	0.126
-746.185	-28.407	0.475	0.276
-745.171	-200.000	-0.075	0.378
-744.156	-5.932	0.134	0.093
-743.142	-15.169	-0.192	0.124
-742.127	-125.603	-0.372	0.057
-741.112	-200.000	0.042	-0.289
-740.098	-114.451	0.169	-0.033
-739.083	-200.000	0.006	-0.099
-738.069	-200.000	-0.033	0.340
-737.054	800.000	-0.100	-0.294
-736.039	3.196	-0.267	0.196
-735.025	800.000	0.080	0.294
-734.010	-5.176	-0.447	0.310
-732.996	71.756	0.165	0.173
-731.981	-125.917	-0.232	-0.035
-730.966	-200.000	-0.053	0.280
-729.952	-200.000	-0.003	-0.060
-728.937	384.111	-0.230	-0.476
-727.923	185.971	-0.163	-0.243
-726.908	-28.654	0.167	-0.097
-725.894	-7.386	-0.215	-0.147
-724.879	-119.564	-0.278	0.049
-723.864	800.000	-0.115	-0.438
-722.850	169.787	0.040	-0.058
-721.835	5.435	-0.163	0.121
-720.821	293.755	-0.143	0.262
-719.806	227.067	0.131	0.214
-718.791	-200.000	0.040	-0.317
-717.777	225.803	-0.138	-0.225
-716.762	-175.478	0.296	0.008
-715.748	668.194	0.015	-0.038
-714.733	223.694	-0.079	-0.128
-713.718	5.389	-0.438	-0.325
-712.704	17.406	0.045	-0.036
-711.689	-69.238	-0.375	-0.145
-710.675	139.442	-0.100	-0.133
-709.660	-200.000	-0.062	-0.354
-708.645	-24.366	0.190	0.114
-707.631	256.728	0.137	0.237
-706.616	-75.574	-0.170	-0.061
-705.602	-200.000	0.038	-0.218
-704.587	-200.000	-0.003	-0.417
-703.572	-200.000	-0.004	-0.039
-702.558	800.000	0.091	-0.290
-701.543	-200.000	0.015	-0.073
-700.529	-148.456	-0.132	-0.011
-699.514	-200.000	-0.019	0.318
-698.499	800.000	-0.110	0.307
-697.485	117.388	0.202	-0.250
-696.470	-55.625	0.226	-0.102
-695.456	800.000	0.028	0.078
-694.441	-37.521	0.227	0.122
-693.426	-108.203	-0.239	0.052
-692.412	-150.959	0.406	0.031
-691.397	-99.588	0.319	0.081
-690.383	64.230	0.088	0.089
-689.368	81.840	-0.212	0.231
-688.354	-38.767	0.307	-0.163
-687.339	-200.000	0.036	0.418
-686.324	-82.848	0.193	-0.063
-685.310	800.000	-0.122	-0.412
-684.295	406.027	-0.061	-0.129
-683.281	11.040	-0.113	0.087
-682.266	-200.000	0.011	-0.248
-681.251	800.000	0.015	-0.047
-680.237	-33.595	0.105	0.058
-679.222	38.393	-0.097	0.087
-678.208	-110.228	-0.099	0.021
-677.193	-100.544	-0.433	-0.108
-676.178	55.775	0.085	0.083
-675.164	204.383	0.175	0.272
-674.149	-87.803	-0.172	-0.052
-673.135	150.257	-0.031	0.042
-672.120	800.000	-0.066	0.216
-671.105	-118.359	0.287	-0.051
-670.091	-200.000	-0.034	-0.219
-669.076	-200.000	0.000	0.111
-668.062	19.745	0.164	0.133
-667.047	-138.307	-0.156	0.017
-666.032	7.501	-0.447	0.336
-665.018	-200.000	-0.011	0.266
-664.003	12.611	-0.083	0.064
-662.989	523.466	-0.141	-0.334
-661.974	68.040	0.068	-0.070
-660.959	800.000	-0.089	-0.352
-659.945	-200.000	0.048	0.409
-658.930	133.802	-0.313	-0.406
-657.916	-172.743	-0.297	0.009
-656.901	-126.754	0.156	0.023
-655.886	635.867	0.112	0.286
-654.872	60.374	-0.042	-0.042
-653.857	-200.000	0.001	0.166
-652.843	233.795	0.173	0.286
-651.828	211.122	-0.200	-0.316
-650.814	-4.354	-0.026	0.018
-649.799	-144.587	0.110	0.010
-648.784	74.280	0.142	0.150
-647.770	-68.210	0.091	-0.036
-646.755	-200.000	-0.044	-0.196
-645.741	-77.378	0.165	-0.058
-644.726	-115.062	-0.116	-0.022
-643.711	-108.898	0.155	-0.033
-642.697	-200.000	0.041	0.328
-641.682	119.734	0.063	-0.078
-640.668	182.891	-0.062	-0.092
-639.653	-86.785	-0.181	-0.056
-638.638	-200.000	-0.028	0.129
-637.624	427.713	-0.034	-0.073
-636.609	9.010	-0.182	0.138
-635.595	298.501	0.089	-0.165
-634.580	19.474	0.332	0.268
-633.565	331.500	-0.190	0.367
-632.551	27.411	-0.043	0.036
-631.536	-75.312	-0.192	0.069
-630.522	-64.710	-0.098	0.040
-629.507	102.459	0.150	-0.176
-628.492	800.000	0.111	-0.386
-627.478	-19.971	0.173	0.107
-626.463	-64.402	-0.302	-0.123
-625.449	-200.000	0.019	-0.284
-624.434	40.678	0.170	-0.154
-623.419	-200.000	0.046	0.238
-622.405	800.000	-0.060	-0.196
-621.390	800.000	0.021	0.061
-620.376	800.000	-0.032	0.100
-619.361	-72.233	-0.303	0.113
-618.346	16.977	0.116	-0.092
-617.332	467.304	-0.132	0.297
-616.317	-27.372	-0.081	-0.047
-615.303	-86.164	-0.178	0.055
-614.288	-98.386	0.091	0.023
-613.273	-200.000	0.029	0.245
-612.259	-13.760	-0.170	-0.111
-611.244	800.000	0.059	0.204
-610.230	111.798	-0.299	0.362
-609.215	-138.774	-0.399	0.044
-608.201	-90.900	0.152	0.044
-607.186	31.027	0.289	0.248
-606.171	569.338	0.192	-0.467
-605.157	5.173	-0.123	-0.090
-604.142	358.156	-0.042	0.084
-603.128	-26.329	-0.078	-0.046
-602.113	500.007	0.121	-0.279
-601.098	-17.984	0.031	-0.020
-600.084	-200.000	0.057	0.332
-599.069	-198.484	0.345	-0.002
-598.055	800.000	-0.038	0.114
-597.040	-200.000	-0.058	-0.301
-596.025	-56.432	0.123	-0.055
-595.011	117.768	-0.096	0.119
-593.996	-123.818	0.400	0.063
-592.982	-41.710	-0.215	0.111
-591.967	78.353	-0.120	0.129
-590.952	40.766	-0.104	-0.094
-589.938	461.320	0.126	-0.281
-588.923	-20.806	-0.211	0.130
-587.909	-67.625	-0.052	0.021
-586.894	79.191	-0.223	0.239
-585.879	199.542	0.230	0.353
-584.865	-168.188	0.351	0.014
-583.850	-200.000	0.007	0.031
-582.836	53.248	0.085	-0.081
-581.821	56.495	-0.262	-0.255
-580.806	-127.444	0.198	-0.029
-579.792	-59.030	-0.358	0.154
-578.777	-102.422	-0.269	-0.064
-577.763	-9.685	-0.059	0.039
-576.748	-200.000	0.027	-0.216
-575.733	-200.000	-0.010	-0.385
-574.719	-200.000	-0.036	-0.305
-573.704	-13.604	-0.087	0.056
-572.690	66.766	0.154	0.156
-571.675	24.472	-0.180	-0.149
-570.661	44.317	0.217	0.199
-569.646	51.891	0.072	0.069
-568.631	113.262	0.147	-0.178
-567.617	-200.000	-0.019	0.276
-566.602	105.991	0.018	-0.022
-565.588	74.846	-0.090	0.095
-564.573	114.568	-0.143	0.174
-563.558	-147.749	-0.231	0.019
-562.544	582.334	-0.052	0.127
-561.529	-200.000	-0.012	0.104
-560.515	151.502	0.147	0.200
-559.500	-49.461	-0.469	0.224
-558.485	85.501	0.190	0.209
-557.471	-100.886	-0.353	-0.087
-556.456	741.733	0.103	0.277
-555.442	-200.000	-0.000	0.017
-554.427	-17.972	-0.163	0.102
-553.412	6.536	0.046	-0.035
-552.398	800.000	0.074	-0.217
-551.383	-200.000	-0.016	0.144
-550.369	549.430	0.047	-0.113
-549.354	54.111	-0.099	0.096
-548.339	51.691	0.188	-0.179
-547.325	-82.151	-0.491	-0.160
-546.310	119.249	0.021	0.026
-545.296	80.368	0.226	-0.243
-544.281	235.158	-0.136	-0.224
-543.266	-27.883	-0.102	-0.059
-542.252	-189.148	0.165	-0.002
-541.237	127.629	0.092	0.117
-540.223	96.709	0.370	0.424
-539.208	-81.283	-0.398	-0.131
-538.193	800.000	0.028	-0.083
-537.179	11.562	0.144	-0.111
-536.164	-87.604	-0.169	0.051
-535.150	-176.141	0.410	0.011
-534.135	-140.837	-0.042	-0.004
-533.121	-99.886	-0.341	-0.085
-532.106	-163.259	0.348	-0.017
-531.091	-72.070	-0.162	0.060
-530.077	9.387	-0.152	-0.115
-529.062	-102.436	0.138	-0.033
-528.048	800.000	0.149	0.451
-527.033	381.737	0.066	-0.135
-526.018	-24.240	-0.286	0.170
-525.004	66.169	-0.206	0.209
-523.989	342.540	-0.034	-0.067
-522.975	69.424	-0.133	-0.137
-521.960	176.302	-0.124	-0.180
-520.945	800.000	0.084	0.291
-519.931	-97.136	-0.050	-0.013
-518.916	800.000	0.026	0.102
-517.902	-151.357	-0.311	0.023
-516.887	-200.000	-0.028	-0.203
-515.872	-157.494	-0.255	0.015
-514.858	-11.431	-0.126	0.083
-513.843	643.360	-0.091	0.231
-512.829	800.000	0.085	-0.322
-511.814	800.000	-0.099	-0.371
-510.799	-45.503	0.226	0.112
-509.785	-100.688	-0.218	0.054
-508.770	800.000	0.050	0.142
-507.756	13.867	0.200	0.155
-506.741	21.043	0.266	-0.215
-505.726	-89.955	0.492	0.143
-504.712	26.079	0.167	0.139
-503.697	-116.926	0.404	0.074
-502.683	57.900	0.257	-0.251
-501.668	-25.983	-0.541	-0.318
-500.653	-12.104	-0.513	0.335
-499.639	-200.000	-0.004	0.241
-498.624	287.512	0.080	-0.144
-497.610	-84.196	-0.117	0.037
-496.595	-109.418	0.360	-0.076
-495.581	-200.000	0.020	0.118
-494.566	-2.100	-0.133	0.093
-493.551	-192.597	0.108	0.001
-492.537	201.909	-0.107	0.164
-491.522	-50.712	0.120	0.056
-490.508	-97.081	0.338	0.088
-489.493	-106.063	0.157	0.035
-488.478	99.240	0.150	0.173
-487.464	418.474	-0.098	-0.209
-486.449	188.967	0.135	-0.202
-485.435	249.266	-0.189	0.319
-484.420	-64.583	0.192	-0.078
-483.405	800.000	0.047	0.141
-482.391	224.464	-0.146	0.235
-481.376	-178.761	-0.200	0.005
-480.362	-200.000	-0.046	-0.314
-479.347	-53.034	-0.153	-0.070
-478.332	800.000	0.041	0.119
-477.318	25.090	-0.122	0.101
-476.303	-112.050	0.056	-0.011
-475.289	-96.620	0.130	-0.034
-474.274	-21.739	0.086	-0.052
-473.259	722.201	-0.158	-0.418
-472.245	112.348	-0.132	-0.159
-471.230	-22.918	0.164	-0.098
-470.216	-136.216	0.090	0.010
-469.201	800.000	0.036	-0.118
-468.186	-161.525	-0.135	0.007
-467.172	228.945	0.165	0.268
-466.157	800.000	0.062	-0.179
-465.143	-72.071	-0.457	-0.169
-464.128	-86.505	-0.294	0.090
-463.113	-200.000	0.015	-0.194
-462.099	180.411	-0.208	-0.304
-461.084	-48.258	-0.210	0.101
-460.070	-129.637	0.111	-0.015
-459.055	-9.069	-0.153	-0.102
-458.040	-52.105	-0.221	0.102
-457.026	-25.191	0.099	0.058
-456.011	-191.277	-0.081	0.001
-454.997	671.730	-0.094	-0.242
-453.982	-18.081	0.066	-0.041
-452.968	52.398	-0.324	-0.307
-451.953	746.968	-0.112	0.299
-450.938	-37.103	-0.246	-0.131
-449.924	13.179	0.125	-0.096
-448.909	129.265	0.077	-0.098
-447.895	258.265	-0.145	0.248
-446.880	800.000	-0.073	0.201
-445.865	11.136	-0.037	0.028
-444.851	800.000	0.029	-0.082
-443.836	500.043	0.135	0.311
-442.822	800.000	0.034	-0.112
-441.807	-200.000	-0.002	0.183
-440.792	49.459	-0.169	-0.159
-439.778	-84.514	-0.082	0.026
-438.763	386.076	-0.097	-0.199
-437.749	481.639	0.111	-0.250
-436.734	103.403	-0.085	-0.099
-435.719	-65.303	0.261	-0.104
-434.705	475.945	0.197	-0.442
-433.690	370.309	-0.106	-0.214
-432.676	-136.083	-0.266	-0.031
-431.661	40.205	-0.072	0.064
-430.646	-10.460	-0.057	0.038
-429.632	-74.441	-0.326	0.117
-428.617	8.375	0.061	0.046
-427.603	-24.387	0.074	-0.044
-426.588	-46.183	-0.071	-0.035
-425.573	-135.853	-0.230	0.027
-424.559	351.991	-0.155	-0.306
-423.544	-200.000	-0.021	0.220
-422.530	-200.000	-0.080	0.366
-421.515	-200.000	0.021	-0.191
-420.500	-102.493	0.295	-0.070
-419.486	93.236	0.034	0.039
-418.471	160.158	0.243	-0.336
-417.457	303.525	0.245	0.452
-416.442	214.664	-0.125	0.197
-415.428	124.768	-0.120	0.151
-414.413	800.000	-0.119	-0.332
-413.398	800.000	-0.086	0.329
-412.384	222.675	0.134	0.215
-411.369	-41.369	-0.376	-0.193
-410.355	-56.013	0.143	0.063
-409.340	416.318	-0.131	-0.278
-408.325	-200.000	0.060	0.322
-407.311	-61.717	-0.143	0.059
-406.296	-151.470	-0.094	0.007
-405.282	155.721	-0.072	0.099
-404.267	303.338	-0.084	0.155
-403.252	-55.369	0.276	-0.123
-402.238	-200.000	-0.045	-0.240
-401.223	-200.000	-0.032	-0.141
-400.209	-48.651	-0.122	0.058
-399.194	39.091	0.234	0.208
-398.179	-78.711	0.104	0.035
-397.165	-9.781	-0.138	0.091
-396.150	487.830	-0.105	0.237
-395.136	-110.241	-0.278	-0.058
-394.121	61.368	0.096	0.095
-393.106	-63.140	0.100	-0.041
-392.092	-50.476	-0.143	0.067
-391.077	-163.419	0.491	-0.023
-390.063	-140.085	-0.190	0.020
-389.048	-152.139	-0.125	0.009
-388.033	-200.000	-0.036	0.160
-387.019	271.285	-0.095	-0.167
-386.004	-104.045	0.191	0.044
-384.990	60.823	0.051	0.051
-383.975	800.000	0.109	0.402
-382.960	14.758	0.327	0.254
-381.946	47.007	0.243	0.225
-380.931	79.451	0.115	-0.123
-379.917	-200.000	-0.028	0.262
-378.902	99.295	0.092	0.106
-377.888	185.441	0.133	0.197
-376.873	-175.631	0.489	-0.013
-375.858	148.885	0.198	-0.266
-374.844	-200.000	0.002	-0.327
-373.829	-129.599	0.290	0.040
-372.815	274.746	0.044	-0.078
-371.800	800.000	0.076	0.246
-370.785	-200.000	-0.050	-0.303
-369.771	7.486	-0.024	-0.018
-368.756	274.992	0.144	-0.253
-367.742	-200.000	0.011	0.214
-366.727	-103.912	-0.032	0.008
-365.712	800.000	-0.031	-0.109
-364.698	66.488	0.077	-0.078
-363.683	800.000	0.136	0.386
-362.669	640.401	0.049	-0.123
-361.654	-40.000	0.176	0.091
-360.639	-200.000	0.028	-0.273
-359.625	-199.103	-0.257	-0.001
-358.610	188.725	-0.147	-0.218
-357.596	-11.991	0.299	0.194
-356.581	417.600	-0.162	-0.344
-355.566	-200.000	-0.046	0.355
-354.552	-141.567	-0.140	-0.014
-353.537	45.760	0.071	-0.065
-352.523	75.438	0.081	-0.085
-351.508	101.242	-0.187	-0.216
-350.493	92.097	0.077	-0.086
-349.479	-94.332	0.094	-0.026
-348.464	-73.972	0.231	0.083
-347.450	-44.126	0.075	-0.037
-346.435	121.332	0.111	-0.138
-345.420	423.961	-0.052	-0.111
-344.406	-170.854	0.360	-0.012
-343.391	-35.479	-0.216	-0.116
-342.377	-98.513	-0.280	-0.071
-341.362	227.066	-0.090	0.145
-340.348	-169.366	-0.136	-0.005
-339.333	800.000	0.088	-0.307
-338.318	-74.856	0.172	0.061
-337.304	598.247	0.115	0.283
-336.289	-50.040	-0.212	0.100
-335.275	77.255	0.117	-0.123
-334.260	-16.238	-0.082	-0.051
-333.245	-200.000	-0.023	0.177
-332.231	41.168	-0.065	0.058
-331.216	-16.295	0.222	0.140
-330.202	-169.650	-0.254	0.009
-329.187	-57.243	0.193	0.084
-328.172	4.595	0.232	-0.169
-327.158	800.000	0.113	-0.358
-326.143	217.421	0.106	0.167
-325.129	-200.000	0.020	-0.139
-324.114	-186.985	0.210	-0.003
-323.099	-57.646	0.322	0.140
-322.085	-62.876	0.040	-0.017
-321.070	169.993	-0.199	-0.282
-320.056	-77.967	0.320	-0.109
-319.041	-9.494	0.217	-0.143
-318.026	-7.341	0.156	0.105
-317.012	-119.292	-0.397	-0.068
-315.997	102.105	0.070	0.081
-314.983	-200.000	0.001	-0.136
-313.968	-72.198	-0.407	-0.150
-312.953	-123.307	0.138	-0.022
-311.939	-200.000	0.000	-0.019
-310.924	103.145	0.120	0.139
-309.910	61.214	0.259	0.255
-308.895	-53.516	0.320	0.145
-307.880	-200.000	-0.022	-0.202
-306.866	-186.518	0.066	-0.001
-305.851	-200.000	0.000	-0.249
-304.837	-78.712	0.464	0.157
-303.822	183.284	0.079	-0.115
-302.807	-54.548	-0.423	-0.189
-301.793	51.307	0.189	-0.177
-300.778	548.105	-0.050	0.119
-299.764	91.405	0.164	0.182
-298.749	-200.000	-0.028	-0.288
-297.735	85.237	0.111	-0.121
-296.720	-159.885	-0.633	-0.034
-295.705	-200.000	0.002	0.051
-294.691	-84.335	0.440	-0.138
-293.676	-200.000	-0.059	0.272
-292.662	285.885	0.037	-0.067
-291.647	-61.297	-0.304	-0.127
-290.632	-200.000	-0.038	0.198
-289.618	381.833	0.118	0.240
-288.603	-200.000	-0.021	0.138
-287.589	-130.695	-0.452	-0.060
-286.574	-200.000	0.003	0.024
-285.559	-41.683	-0.314	-0.160
-284.545	-82.584	0.114	-0.036
-283.530	-127.265	-0.418	0.060
-282.516	-88.460	0.263	0.078
-281.501	-78.127	-0.306	0.104
-280.486	346.059	0.083	0.161
-279.472	800.000	0.149	0.475
-278.457	-109.242	-0.182	-0.038
-277.443	-200.000	0.014	0.306
-276.428	3.729	-0.169	0.122
-275.413	-1.619	-0.232	-0.161
-274.399	-130.509	0.313	-0.042
-273.384	-200.000	0.050	0.294
-272.370	-6.567	-0.136	-0.092
-271.355	-200.000	-0.021	0.470
-270.340	176.020	-0.066	-0.095
-269.326	169.885	0.056	-0.079
-268.311	-105.285	0.312	-0.070
-267.297	-200.000	0.022	-0.340
-266.282	-29.310	-0.034	-0.019
-265.267	63.950	0.208	-0.207
-264.253	237.025	-0.131	0.215
-263.238	-200.000	-0.011	-0.227
-262.224	82.431	-0.096	-0.102
-261.209	229.336	0.130	0.210
-260.195	189.513	-0.182	-0.270
-259.180	-117.646	0.392	0.070
-258.165	138.595	-0.122	-0.158
-257.151	-3.570	0.220	-0.151
-256.136	4.971	-0.271	0.197
-255.122	231.288	-0.031	0.050
-254.107	54.760	-0.118	-0.113
-253.092	142.654	-0.216	-0.284
-252.078	-200.000	0.026	0.172
-251.063	-96.730	0.320	-0.083
-250.049	635.323	0.112	0.280
-249.034	-200.000	0.023	0.120
-248.019	-48.740	0.455	-0.216
-247.005	-200.000	0.001	0.084
-245.990	19.496	0.111	-0.088
-244.976	329.025	0.087	-0.165
-243.961	-200.000	0.010	-0.131
-242.946	157.256	0.117	0.160
-241.932	-200.000	-0.028	-0.153
-240.917	-85.996	-0.134	-0.041
-239.903	-200.000	0.012	-0.086
-238.888	-81.626	0.135	-0.044
-237.873	-160.482	-0.366	-0.019
-236.859	666.207	-0.102	-0.260
-235.844	-200.000	-0.026	-0.192
-234.830	800.000	-0.076	0.263
-233.815	-70.747	-0.142	0.053
-232.800	-200.000	-0.006	0.122
-231.786	-101.441	-0.068	0.016
-230.771	-200.000	0.007	0.081
-229.757	193.430	0.167	0.249
-228.742	345.215	0.212	-0.411
-227.727	-112.970	0.210	-0.041
-226.713	-129.421	-0.329	0.045
-225.698	-200.000	-0.011	0.120
-224.684	6.639	0.220	0.161
-223.669	-138.397	0.137	0.015
-222.655	-97.141	0.107	-0.028
-221.640	-200.000	-0.033	-0.144
-220.625	-93.376	0.238	0.065
-219.611	185.831	0.106	-0.156
-218.596	-19.313	-0.205	-0.125
-217.582	41.105	-0.125	-0.111
-216.567	-6.619	-0.309	-0.208
-215.552	449.230	0.157	-0.341
-214.538	-200.000	-0.003	-0.047
-213.523	-76.146	0.070	-0.024
-212.509	800.000	-0.090	0.327
-211.494	72.843	-0.118	-0.121
-210.479	3.030	0.278	0.199
-209.465	-200.000	0.004	-0.018
-208.450	29.306	0.160	-0.134
-207.436	46.261	0.104	-0.095
-206.421	89.975	0.215	0.237
-205.406	-200.000	-0.029	0.184
-204.392	-54.594	0.287	0.128
-203.377	84.850	-0.110	-0.119
-202.363	-200.000	0.052	-0.233
-201.348	37.417	-0.216	-0.189
-200.333	645.358	-0.055	0.138
-199.319	69.748	0.073	0.074
-198.304	164.140	0.241	-0.334
-197.290	81.669	0.061	-0.065
-196.275	-200.000	0.011	-0.230
-195.260	59.566	0.072	-0.070
-194.246	215.680	-0.116	-0.181
-193.231	-86.201	0.039	0.012
-192.217	-56.132	-0.264	0.116
-191.202	-13.209	-0.260	0.166
-190.187	800.000	-0.053	0.177
-189.173	157.077	-0.169	-0.231
-188.158	320.422	0.006	-0.011
-187.144	800.000	-0.029	-0.104
-186.129	570.227	0.085	0.205
-185.114	151.558	0.105	0.141
-184.100	312.138	0.128	0.237
-183.085	-86.790	0.331	-0.100
-182.071	-146.493	0.148	0.013
-181.056	-18.310	0.208	0.128
-180.042	-200.000	0.040	0.218
-179.027	151.060	0.156	-0.209
-178.012	-56.245	0.187	0.082
-176.998	-200.000	-0.019	-0.118
-175.983	-24.540	0.242	-0.142
-174.969	204.839	0.180	-0.275
-173.954	-101.523	-0.430	-0.103
-172.939	-52.109	-0.165	-0.075
-171.925	244.250	-0.211	-0.349
-170.910	-49.406	0.121	-0.057
-169.896	800.000	0.008	-0.031
-168.881	-53.141	0.153	0.069
-167.866	800.000	0.049	0.185
-166.852	50.118	-0.088	0.082
-165.837	115.708	-0.207	0.249
-164.823	290.330	-0.062	-0.111
-163.808	-41.799	-0.099	0.050
-162.793	-55.543	-0.121	-0.053
-161.779	336.581	0.030	0.058
-160.764	-184.266	-0.171	0.003
-159.750	-84.632	-0.316	-0.098
-158.735	121.000	0.067	0.083
-157.720	261.752	0.136	0.232
-156.706	-169.587	-0.586	-0.021
-155.691	-105.720	-0.061	0.014
-154.677	234.901	-0.050	-0.081
-153.662	-200.000	-0.015	0.085
-152.647	129.358	-0.158	0.198
-151.633	-200.000	0.018	0.117
-150.618	284.654	0.280	-0.497
-149.604	79.541	0.203	0.215
-148.589	94.929	0.142	0.159
-147.574	210.825	0.093	-0.144
-146.560	463.181	-0.187	-0.412
-145.545	-97.876	0.062	-0.016
-144.531	21.238	-0.186	0.149
-143.516	-19.526	-0.168	-0.102
-142.502	-60.781	-0.127	-0.053
-141.487	-102.238	0.263	0.062
-140.472	-17.016	-0.202	0.125
-139.458	-79.377	0.138	0.046
-138.443	-200.000	0.008	0.262
-137.429	534.981	-0.075	0.174
-136.414	-120.425	-0.172	-0.029
-135.399	800.000	-0.060	0.252
-134.385	-154.570	0.368	0.024
-133.370	800.000	-0.041	0.125
-132.356	800.000	0.019	0.055
-131.341	-45.596	0.095	-0.046
-130.326	800.000	0.036	0.142
-129.312	147.148	-0.126	-0.167
-128.297	-62.222	0.057	-0.023
-127.283	800.000	-0.065	-0.197
-126.268	525.808	0.068	-0.158
-125.253	-155.576	-0.238	-0.015
-124.239	-68.885	0.167	0.063
-123.224	-115.138	-0.129	0.024
-122.210	575.542	-0.072	0.173
-121.195	160.538	-0.130	-0.178
