DTS Sentinel unit serial number:	SN413079Multiplexer serial number:	ORYXHardware model number:	OX4-SRSoftware version number:	ORYX F/W v4.00 Oryx Data Collector v3.7.2.0data status	okinstallation	princeton_trtdifferential loss correction	single-endedforward channel	channel 2reverse channel	N/Adate	2019/09/12time	00:17:11forward acquisition time	60.00reverse acquisition time	0.00gamma	496.2192k internal	0.2325k external	0.2325temperature offset calibration	1.0088default loss term (dB/km)	0.3790temperature slope calibration	1.0000multiplexer offset coefficient	1.0000multiplexer slope coefficient	1.0000fibre end	0.00T internal ref (°C)	33.56T ext. ref 1 (°C)	2.03T ext. ref 2 (°C)	27.90length (m)	temperature (°C)	Stokes	anti-Stokes-747.200	163.385	0.075	-0.106
-746.185	19.609	0.285	0.231
-745.171	243.915	-0.056	0.095
-744.156	467.058	0.115	0.261
-743.142	-51.282	0.045	0.021
-742.127	-70.900	0.054	-0.020
-741.112	-74.817	0.236	-0.085
-740.098	-97.332	-0.411	0.108
-739.083	-8.742	0.031	-0.021
-738.069	-200.000	-0.027	0.303
-737.054	-82.737	0.025	0.008
-736.039	-26.066	0.077	0.046
-735.025	240.396	-0.112	0.189
-734.010	391.858	-0.103	-0.215
-732.996	164.203	0.222	-0.316
-731.981	-15.814	-0.280	-0.180
-730.966	-200.000	0.003	0.044
-729.952	-200.000	0.016	0.115
-728.937	42.826	-0.298	-0.274
-727.923	-200.000	-0.085	0.446
-726.908	194.898	0.171	0.261
-725.894	800.000	-0.104	0.428
-724.879	-0.362	-0.099	-0.071
-723.864	13.257	0.331	0.258
-722.850	-31.089	0.077	-0.044
-721.835	555.999	0.140	-0.341
-720.821	-53.102	-0.152	-0.070
-719.806	-7.464	-0.203	-0.139
-718.791	-121.077	-0.243	-0.041
-717.777	134.691	-0.117	0.153
-716.762	-200.000	0.070	0.320
-715.748	-46.588	-0.083	-0.041
-714.733	302.890	-0.068	-0.128
-713.718	166.585	-0.073	0.104
-712.704	800.000	-0.110	0.335
-711.689	-35.078	0.184	0.101
-710.675	-70.256	-0.398	-0.152
-709.660	-54.165	0.312	0.143
-708.645	-166.781	0.261	0.011
-707.631	3.595	-0.150	-0.111
-706.616	800.000	0.050	0.196
-705.602	-200.000	0.052	0.286
-704.587	-144.273	0.201	0.019
-703.572	49.005	-0.207	0.196
-702.558	43.199	0.222	0.204
-701.543	264.119	-0.089	-0.156
-700.529	-99.214	-0.162	-0.041
-699.514	-119.158	-0.108	0.019
-698.499	-200.000	0.067	0.349
-697.485	800.000	0.023	-0.077
-696.470	0.612	-0.175	0.126
-695.456	180.390	-0.182	0.269
-694.441	-79.608	0.217	0.074
-693.426	-43.988	-0.245	-0.124
-692.412	688.157	0.114	0.299
-691.397	-200.000	-0.062	0.469
-690.383	159.107	-0.057	0.079
-689.368	-74.821	0.256	-0.093
-688.354	122.044	0.134	0.168
-687.339	-71.942	0.237	-0.089
-686.324	-200.000	-0.041	-0.216
-685.310	800.000	0.039	-0.150
-684.295	25.582	-0.236	0.198
-683.281	91.022	-0.039	0.044
-682.266	-200.000	-0.009	-0.065
-681.251	47.389	0.002	-0.002
-680.237	529.292	-0.072	0.172
-679.222	460.907	-0.028	0.064
-678.208	89.455	0.142	-0.160
-677.193	85.941	-0.114	0.127
-676.178	-72.306	0.090	0.033
-675.164	626.228	0.018	-0.045
-674.149	532.183	-0.010	0.023
-673.135	800.000	-0.059	-0.223
-672.120	78.427	-0.114	0.123
-671.105	-160.770	0.198	-0.011
-670.091	49.587	-0.283	-0.268
-669.076	362.514	0.182	-0.367
-668.062	102.427	-0.032	0.037
-667.047	15.707	-0.172	-0.136
-666.032	403.035	0.052	-0.111
-665.018	-200.000	0.013	-0.251
-664.003	13.740	-0.228	-0.178
-662.989	-200.000	0.029	-0.139
-661.974	29.753	-0.135	-0.116
-660.959	196.375	-0.064	0.098
-659.945	656.635	-0.094	-0.243
-658.930	-78.284	-0.326	0.113
-657.916	-200.000	0.064	0.336
-656.901	800.000	-0.082	0.236
-655.886	101.721	0.118	0.138
-654.872	-200.000	-0.005	0.038
-653.857	-4.626	0.203	0.141
-652.843	-200.000	-0.028	-0.263
-651.828	800.000	-0.159	-0.483
-650.814	239.084	-0.029	0.048
-649.799	800.000	-0.039	0.110
-648.784	385.066	0.081	0.168
-647.770	44.259	0.153	-0.141
-646.755	130.680	0.234	-0.302
-645.741	-200.000	-0.013	0.340
-644.726	-200.000	-0.017	-0.144
-643.711	-200.000	-0.005	-0.134
-642.697	-200.000	0.054	0.381
-641.682	98.910	-0.121	-0.141
-640.668	-30.701	-0.055	0.032
-639.653	88.174	-0.142	0.159
-638.638	192.840	0.047	0.071
-637.624	49.990	0.056	-0.053
-636.609	37.237	0.212	-0.188
-635.595	218.339	-0.030	0.049
-634.580	-200.000	0.004	-0.176
-633.565	-179.622	0.195	-0.004
-632.551	-83.602	0.121	0.039
-631.536	-90.204	-0.038	-0.011
-630.522	-200.000	-0.152	0.000
-629.507	-200.000	0.006	-0.170
-628.492	-145.016	0.186	0.017
-627.478	108.927	-0.204	-0.245
-626.463	17.101	-0.063	-0.050
-625.449	800.000	0.081	-0.241
-624.434	106.768	0.086	-0.102
-623.419	-7.334	0.148	-0.101
-622.405	226.300	0.131	0.214
-621.390	-0.876	0.040	0.029
-620.376	271.981	-0.082	-0.145
-619.361	-22.052	0.130	0.080
-618.346	-21.965	0.355	0.217
-617.332	-137.906	0.141	0.016
-616.317	250.005	-0.121	-0.207
-615.303	800.000	0.072	-0.291
-614.288	258.668	-0.013	0.023
-613.273	800.000	0.011	0.036
-612.259	86.448	0.116	0.129
-611.244	-200.000	-0.078	-0.426
-610.230	65.249	-0.126	0.127
-609.215	38.125	0.323	0.288
-608.201	26.863	-0.082	0.069
-607.186	39.872	-0.179	0.161
-606.171	-59.020	-0.230	-0.100
-605.157	724.215	0.008	-0.021
-604.142	352.038	-0.151	-0.301
-603.128	-200.000	0.000	0.030
-602.113	-126.705	-0.018	-0.003
-601.098	424.555	0.056	0.122
-600.084	-28.766	0.157	-0.091
-599.069	414.904	-0.079	0.168
-598.055	800.000	-0.027	-0.095
-597.040	-86.149	-0.265	0.082
-596.025	46.734	0.187	-0.174
-595.011	-200.000	-0.011	0.384
-593.996	-88.210	-0.312	-0.094
-592.982	-200.000	-0.065	-0.289
-591.967	-138.743	0.198	-0.022
-590.952	-200.000	0.037	-0.190
-589.938	-82.188	-0.145	0.047
-588.923	184.252	-0.088	-0.131
-587.909	-92.106	-0.280	0.079
-586.894	160.370	-0.152	0.213
-585.879	-34.950	-0.089	-0.049
-584.865	-135.480	0.227	-0.027
-583.850	49.586	-0.254	0.240
-582.836	233.181	-0.040	-0.065
-581.821	-62.597	0.081	-0.034
-580.806	-126.992	-0.205	0.030
-579.792	59.826	0.137	0.135
-578.777	800.000	-0.051	0.162
-577.763	-22.782	-0.305	-0.185
-576.748	800.000	0.056	-0.162
-575.733	201.527	0.059	0.092
-574.719	-45.674	-0.129	-0.064
-573.704	-200.000	-0.007	0.141
-572.690	-19.528	0.265	0.165
-571.675	-146.184	0.424	-0.037
-570.661	-38.813	-0.257	-0.136
-569.646	800.000	0.048	0.138
-568.631	-75.507	0.282	-0.100
-567.617	12.661	0.084	-0.065
-566.602	-103.711	-0.244	-0.057
-565.588	736.884	-0.011	0.028
-564.573	11.373	0.040	0.031
-563.558	-200.000	0.003	-0.299
-562.544	319.229	0.105	-0.200
-561.529	800.000	0.042	-0.156
-560.515	484.236	-0.215	-0.490
-559.500	800.000	0.042	0.135
-558.485	800.000	-0.052	-0.156
-557.471	-7.142	-0.248	0.169
-556.456	-155.924	0.222	0.014
-555.442	241.263	-0.134	-0.224
-554.427	-111.382	-0.020	0.004
-553.412	230.693	0.146	0.239
-552.398	-200.000	0.048	0.254
-551.383	-29.573	0.397	0.227
-550.369	118.662	0.090	-0.111
-549.354	154.589	0.139	-0.191
-548.339	283.795	0.021	0.038
-547.325	800.000	0.092	-0.398
-546.310	-46.985	-0.117	-0.057
-545.296	-165.784	0.119	0.005
-544.281	-16.933	-0.180	-0.114
-543.266	-25.830	0.168	-0.099
-542.252	7.315	-0.120	-0.090
-541.237	-87.061	0.207	-0.063
-540.223	111.434	0.042	-0.051
-539.208	7.833	-0.242	-0.181
-538.193	571.838	-0.115	-0.280
-537.179	800.000	0.106	-0.386
-536.164	-200.000	-0.004	-0.052
-535.150	115.694	0.151	0.185
-534.135	800.000	-0.043	-0.142
-533.121	-46.971	0.297	0.145
-532.106	-83.933	0.300	-0.096
-531.091	-53.221	0.167	-0.077
-530.077	-200.000	-0.203	-0.000
-529.062	-62.349	-0.346	0.144
-528.048	-78.357	0.308	-0.106
-527.033	-39.091	-0.211	-0.111
-526.018	-73.830	-0.104	-0.038
-525.004	-51.602	-0.180	-0.084
-523.989	-7.592	-0.292	-0.198
-522.975	-200.000	0.033	-0.175
-521.960	-17.287	0.212	-0.133
-520.945	-159.715	-0.221	-0.012
-519.931	283.925	-0.049	0.087
-518.916	-176.650	0.152	-0.004
-517.902	-200.000	-0.004	-0.415
-516.887	-200.000	0.026	0.178
-515.872	275.117	-0.240	0.426
-514.858	180.323	-0.204	0.300
-513.843	174.803	-0.068	0.099
-512.829	11.990	-0.251	-0.193
-511.814	-149.223	-0.135	-0.011
-510.799	-200.000	0.058	0.444
-509.785	296.202	0.057	0.105
-508.770	33.631	-0.093	0.081
-507.756	-200.000	0.007	-0.262
-506.741	-113.496	0.215	-0.042
-505.726	-106.542	0.191	-0.043
-504.712	-83.937	-0.269	0.086
-503.697	294.416	-0.104	0.190
-502.683	800.000	-0.066	-0.190
-501.668	265.185	0.176	-0.307
-500.653	89.256	-0.154	-0.172
-499.639	30.999	0.289	0.248
-498.624	578.096	0.084	0.206
-497.610	-7.034	-0.293	0.199
-496.595	232.176	-0.120	0.196
-495.581	-75.776	0.365	0.129
-494.566	66.740	-0.177	-0.180
-493.551	23.592	-0.275	-0.226
-492.537	800.000	0.070	-0.247
-491.522	-153.467	0.136	-0.009
-490.508	-200.000	0.200	0.001
-489.493	-26.107	0.324	-0.190
-488.478	-115.720	-0.277	0.052
-487.464	179.130	0.135	0.198
-486.449	-112.123	-0.196	0.039
-485.435	-127.525	0.027	0.004
-484.420	-170.629	-0.188	0.006
-483.405	86.336	-0.136	0.150
-482.391	181.720	0.158	0.233
-481.376	-200.000	-0.025	-0.258
-480.362	-62.434	0.138	-0.057
-479.347	-200.000	0.024	-0.254
-478.332	-78.089	0.046	-0.016
-477.318	206.602	-0.061	0.095
-476.303	-134.959	0.120	0.015
-475.289	-119.469	-0.109	0.019
-474.274	-139.495	-0.534	0.057
-473.259	-104.153	0.423	0.098
-472.245	-200.000	0.035	0.281
-471.230	-200.000	-0.012	-0.236
-470.216	-200.000	0.014	0.378
-469.201	-97.275	-0.249	0.065
-468.186	-27.290	-0.145	0.084
-467.172	-187.442	-0.130	-0.002
-466.157	4.893	0.117	0.086
-465.143	21.046	-0.116	0.094
-464.128	-114.488	-0.120	-0.023
-463.113	-200.000	0.050	0.408
-462.099	-200.000	-0.080	0.523
-461.084	-67.087	0.212	-0.083
-460.070	138.600	0.151	-0.198
-459.055	13.510	-0.197	-0.153
-458.040	-134.159	-0.137	0.017
-457.026	128.150	-0.021	0.026
-456.011	-74.094	0.406	-0.147
-454.997	-140.005	0.019	0.002
-453.982	-46.716	-0.211	0.103
-452.968	-28.366	-0.197	0.113
-451.953	310.991	0.064	0.120
-450.938	-200.000	-0.041	0.312
-449.924	516.774	-0.058	-0.136
-448.909	-200.000	0.022	-0.183
-447.895	161.937	0.071	-0.099
-446.880	67.779	-0.250	-0.255
-445.865	77.328	-0.210	-0.223
-444.851	52.075	-0.230	-0.219
-443.836	-200.000	0.025	-0.112
-442.822	-110.865	-0.054	0.011
-441.807	-108.666	0.041	-0.009
-440.792	-200.000	-0.003	-0.122
-439.778	-38.812	-0.275	-0.145
-438.763	-200.000	-0.054	0.344
-437.749	186.343	0.085	0.126
-436.734	474.406	0.098	0.221
-435.719	-200.000	-0.000	0.076
-434.705	-133.663	-0.250	-0.031
-433.690	-165.243	-0.208	0.009
-432.676	119.459	0.184	-0.227
-431.661	-44.511	-0.077	-0.039
-430.646	-22.656	-0.150	-0.090
-429.632	59.429	-0.120	0.118
-428.617	62.001	-0.078	0.077
-427.603	128.405	0.141	-0.179
-426.588	-80.795	-0.037	0.012
-425.573	-200.000	0.041	-0.293
-424.559	37.674	0.174	0.154
-423.544	-46.109	0.394	-0.193
-422.530	4.081	-0.329	-0.240
-421.515	-200.000	-0.028	0.138
-420.500	-51.945	0.242	0.112
-419.486	186.975	0.161	-0.239
-418.471	44.024	-0.160	0.146
-417.457	800.000	-0.048	0.179
-416.442	-200.000	0.024	0.236
-415.428	-200.000	-0.019	-0.178
-414.413	413.186	0.137	0.291
-413.398	-200.000	0.033	0.156
-412.384	-200.000	0.024	-0.173
-411.369	536.341	0.186	0.441
-410.355	-200.000	0.011	-0.202
-409.340	26.000	0.265	0.220
-408.325	86.508	0.103	0.113
-407.311	-119.195	0.130	0.023
-406.296	233.435	-0.160	0.263
-405.282	557.478	0.122	-0.292
-404.267	129.130	0.164	0.208
-403.252	-97.125	0.143	0.037
-402.238	139.310	0.050	0.066
-401.223	-65.082	-0.396	-0.159
-400.209	87.661	0.134	0.148
-399.194	393.650	-0.125	-0.259
-398.179	-80.804	0.114	-0.038
-397.165	-112.816	0.434	0.086
-396.150	87.774	-0.194	0.214
-395.136	480.799	0.077	0.175
-394.121	287.974	-0.216	-0.390
-393.106	-106.517	0.244	0.054
-392.092	-98.353	-0.117	-0.030
-391.077	-66.188	-0.353	-0.140
-390.063	-200.000	-0.038	-0.320
-389.048	-200.000	-0.028	0.236
-388.033	-64.393	0.166	-0.067
-387.019	79.575	-0.122	0.130
-386.004	144.711	0.176	0.234
-384.990	157.257	-0.107	-0.148
-383.975	16.055	-0.191	0.150
-382.960	-14.280	0.193	-0.123
-381.946	111.609	-0.109	0.131
-380.931	323.454	0.029	0.056
-379.917	515.745	-0.172	-0.400
-378.902	-28.586	-0.169	0.097
-377.888	-117.574	0.249	-0.045
-376.873	800.000	0.021	0.090
-375.858	-59.982	0.190	0.081
-374.844	34.693	0.155	-0.135
-373.829	-200.000	-0.020	0.170
-372.815	-28.921	0.233	0.133
-371.800	147.057	-0.212	-0.284
-370.785	800.000	-0.083	-0.333
-369.771	800.000	-0.125	-0.540
-368.756	42.297	-0.200	-0.181
-367.742	-124.409	0.218	0.034
-366.727	-104.495	0.272	0.063
-365.712	81.381	0.201	-0.216
-364.698	-123.597	0.301	0.047
-363.683	258.415	0.094	0.161
-362.669	-200.000	0.054	0.425
-361.654	-54.227	-0.196	-0.089
-360.639	58.443	-0.243	0.237
-359.625	-200.000	0.029	0.155
-358.610	524.906	0.051	-0.119
-357.596	-200.000	0.004	0.340
-356.581	800.000	-0.040	-0.133
-355.566	383.453	-0.029	0.060
-354.552	-167.577	-0.111	0.004
-353.537	9.982	0.187	0.141
-352.523	238.607	-0.078	-0.129
-351.508	-4.005	-0.121	0.083
-350.493	420.339	0.061	0.129
-349.479	-200.000	0.011	-0.457
-348.464	-200.000	-0.019	0.298
-347.450	-35.958	-0.242	0.130
-346.435	7.480	0.307	-0.228
-345.420	30.450	0.128	0.109
-344.406	-126.966	0.301	-0.044
-343.391	-200.000	0.052	-0.242
-342.377	387.448	-0.166	-0.342
-341.362	800.000	-0.108	-0.343
-340.348	-22.373	0.074	-0.045
-339.333	-41.090	0.139	0.071
-338.318	-100.294	0.283	0.070
-337.304	800.000	-0.074	0.307
-336.289	-89.450	-0.266	0.078
-335.275	-139.956	-0.114	0.012
-334.260	-115.974	0.355	-0.066
-333.245	135.635	-0.197	-0.254
-332.231	-20.100	-0.128	-0.079
-331.216	61.802	0.176	0.174
-330.202	800.000	0.035	-0.148
-329.187	579.226	-0.032	-0.077
-328.172	-118.596	0.263	-0.046
-327.158	-200.000	-0.015	0.429
-326.143	21.446	-0.385	-0.311
-325.129	-62.265	-0.260	0.108
-324.114	-91.655	0.235	-0.066
-323.099	225.553	-0.075	0.120
-322.085	25.221	-0.121	0.100
-321.070	23.943	-0.078	-0.064
-320.056	309.842	0.109	-0.203
-319.041	-200.000	-0.021	-0.296
-318.026	-39.543	0.313	-0.163
-317.012	44.524	0.098	0.089
-315.997	-200.000	0.023	0.114
-314.983	800.000	-0.066	0.262
-313.968	-4.969	0.083	0.057
-312.953	800.000	0.043	-0.179
-311.939	159.001	0.132	0.182
-310.924	-176.500	-0.152	0.004
-309.910	-200.000	0.017	0.122
-308.895	-47.581	-0.342	-0.165
-307.880	87.878	0.078	0.086
-306.866	45.453	0.232	-0.212
-305.851	205.129	-0.038	0.058
-304.837	24.803	-0.100	-0.082
-303.822	17.671	-0.359	-0.283
-302.807	-200.000	0.054	0.370
-301.793	800.000	0.022	-0.077
-300.778	-112.027	0.249	-0.050
-299.764	165.325	0.111	-0.156
-298.749	-118.991	0.181	0.031
-297.735	103.593	0.208	-0.242
-296.720	-200.000	0.016	0.404
-295.705	700.264	0.068	-0.177
-294.691	294.864	0.024	0.044
-293.676	178.985	-0.042	0.061
-292.662	-200.000	0.002	-0.289
-291.647	224.962	0.121	-0.194
-290.632	-200.000	0.032	0.170
-289.618	-200.000	0.010	-0.216
-288.603	-27.093	-0.140	-0.081
-287.589	-200.000	0.003	0.107
-286.574	-168.178	-0.130	-0.005
-285.559	100.076	-0.063	-0.072
-284.545	30.622	0.069	0.059
-283.530	98.506	-0.096	0.110
-282.516	-132.656	0.148	0.019
-281.501	-102.146	0.265	0.063
-280.486	8.858	0.112	0.084
-279.472	478.051	-0.222	-0.498
-278.457	-13.162	0.180	0.116
-277.443	217.742	-0.116	0.184
-276.428	475.242	-0.088	0.197
-275.413	-28.754	0.308	-0.176
-274.399	38.192	-0.097	-0.085
-273.384	500.163	0.053	-0.120
-272.370	284.777	0.074	0.133
-271.355	112.800	0.220	-0.265
-270.340	-200.000	-0.001	-0.138
-269.326	742.481	0.101	0.270
-268.311	-44.049	0.177	0.088
-267.297	800.000	0.068	0.203
-266.282	345.806	0.124	0.241
-265.267	-35.502	-0.348	0.187
-264.253	331.378	0.035	0.067
-263.238	-124.428	0.059	-0.009
-262.224	-200.000	-0.011	-0.146
-261.209	-145.625	-0.164	0.015
-260.195	168.225	-0.169	0.238
-259.180	-20.657	-0.126	0.077
-258.165	399.584	-0.042	0.086
-257.151	-200.000	0.011	0.077
-256.136	74.178	0.041	0.043
-255.122	74.466	-0.061	0.063
-254.107	800.000	0.025	0.074
-253.092	-200.000	0.045	0.322
-252.078	-200.000	-0.044	0.256
-251.063	81.280	-0.243	0.260
-250.049	-200.000	0.014	0.185
-249.034	-53.881	0.045	-0.020
-248.019	-200.000	-0.298	-0.001
-247.005	51.013	0.137	-0.128
-245.990	327.876	-0.135	-0.256
-244.976	-60.933	0.099	-0.041
-243.961	800.000	0.020	-0.086
-242.946	77.680	-0.042	-0.044
-241.932	-200.000	-0.005	-0.215
-240.917	-200.000	0.021	0.130
-239.903	-22.939	0.184	0.110
-238.888	-148.623	-0.236	-0.019
-237.873	82.764	-0.093	-0.100
-236.859	-49.178	0.092	0.043
-235.844	-200.000	0.042	-0.267
-234.830	-90.700	-0.169	0.048
-233.815	-93.759	0.162	0.044
-232.800	486.417	-0.100	-0.225
-231.786	406.360	-0.150	0.313
-230.771	-200.000	-0.008	0.310
-229.757	566.336	-0.191	-0.457
-228.742	35.716	-0.172	-0.150
-227.727	-200.000	-0.009	0.335
-226.713	-197.085	-0.250	0.002
-225.698	-187.992	-0.287	-0.004
-224.684	800.000	0.028	-0.088
-223.669	-174.252	0.074	0.002
-222.655	-97.992	0.280	-0.071
-221.640	-88.944	0.135	-0.040
-220.625	-200.000	0.001	0.191
-219.611	-107.525	0.381	-0.082
-218.596	302.114	0.072	-0.131
-217.582	-67.770	0.388	-0.150
-216.567	-178.425	-0.286	-0.007
-215.552	800.000	0.042	0.144
-214.538	348.805	-0.008	-0.016
-213.523	800.000	0.076	-0.254
-212.509	-200.000	-0.016	0.285
-211.494	800.000	-0.109	0.389
-210.479	-18.354	-0.189	-0.117
-209.465	39.142	-0.142	0.126
-208.450	268.080	0.010	-0.017
-207.436	-200.000	-0.004	0.281
-206.421	-17.717	-0.208	-0.129
-205.406	-200.000	-0.046	-0.206
-204.392	800.000	-0.041	0.164
-203.377	-200.000	0.011	-0.123
-202.363	-44.937	0.080	-0.039
-201.348	-95.708	0.315	-0.083
-200.333	-117.715	0.288	-0.051
-199.319	800.000	-0.140	0.448
-198.304	55.565	-0.093	0.089
-197.290	-89.537	0.112	0.032
-196.275	2.293	0.073	0.052
-195.260	-106.260	0.233	0.052
-194.246	41.976	0.169	0.151
-193.231	-200.000	-0.009	0.212
-192.217	681.594	-0.089	0.230
-191.202	-200.000	0.037	0.208
-190.187	-200.000	-0.014	0.182
-189.173	800.000	0.125	-0.399
-188.158	-72.900	-0.189	-0.069
-187.144	-20.137	0.361	0.219
-186.129	-23.676	0.255	0.151
-185.114	-75.361	0.195	0.069
-184.100	154.034	0.183	0.247
-183.085	-36.774	0.060	0.032
-182.071	-140.584	-0.322	-0.033
-181.056	800.000	0.027	0.115
-180.042	180.503	-0.235	-0.340
-179.027	13.927	-0.149	-0.114
-178.012	327.169	0.030	-0.057
-176.998	10.523	0.243	-0.183
-175.983	80.712	-0.229	0.244
-174.969	319.996	-0.067	0.125
-173.954	-178.844	-0.541	0.012
-172.939	-200.000	-0.023	-0.120
-171.925	-98.954	0.239	0.060
-170.910	800.000	-0.070	0.214
-169.896	18.208	-0.250	0.197
-168.881	-136.739	0.186	-0.021
-167.866	-24.674	-0.088	0.052
-166.852	-56.704	-0.189	-0.082
-165.837	109.589	-0.277	0.327
-164.823	-7.527	-0.354	-0.236
-163.808	-56.323	0.322	-0.141
-162.793	800.000	0.063	0.268
-161.779	20.458	-0.220	-0.175
-160.764	314.913	-0.100	-0.187
-159.750	-116.839	0.172	-0.031
-158.735	-93.755	-0.232	0.063
-157.720	-123.530	-0.216	0.034
-156.706	-200.000	0.013	0.118
-155.691	21.497	-0.083	0.066
-154.677	-200.000	-0.005	0.073
-153.662	-79.368	0.194	-0.065
-152.647	-17.346	0.228	-0.142
-151.633	-30.361	-0.223	-0.125
-150.618	42.427	0.405	0.363
-149.604	-200.000	0.013	0.135
-148.589	-200.000	-0.047	0.307
-147.574	-122.058	0.358	0.058
-146.560	163.931	-0.193	0.268
-145.545	-123.383	-0.265	-0.042
-144.531	-151.812	0.088	-0.006
-143.516	800.000	-0.029	-0.107
-142.502	800.000	-0.068	0.211
-141.487	-29.679	0.147	-0.083
-140.472	-18.509	-0.235	0.145
-139.458	-44.044	-0.159	-0.079
-138.443	-200.000	0.017	0.108
-137.429	2.573	0.301	-0.215
-136.414	800.000	0.069	0.266
-135.399	-5.021	0.152	0.103
-134.385	-82.580	0.262	0.084
-133.370	28.886	-0.181	-0.151
-132.356	7.129	-0.380	-0.279
-131.341	-100.252	0.376	0.092
-130.326	12.482	0.095	0.072
-129.312	-119.279	0.127	-0.022
-128.297	479.274	0.186	-0.415
-127.283	-91.034	0.306	-0.087
-126.268	279.506	0.222	-0.390
-125.253	110.652	0.061	-0.073
-124.239	-58.602	0.243	0.104
-123.224	-200.000	-0.008	0.098
-122.210	-110.011	0.186	0.038
-121.195	-61.195	-0.245	-0.102
-120.180	216.596	0.270	-0.423
