DTS Sentinel unit serial number:	SN413079Multiplexer serial number:	ORYXHardware model number:	OX4-SRSoftware version number:	ORYX F/W v4.00 Oryx Data Collector v3.7.2.0data status	okinstallation	princeton_trtdifferential loss correction	single-endedforward channel	channel 2reverse channel	N/Adate	2019/09/18time	12:43:35forward acquisition time	60.00reverse acquisition time	0.00gamma	496.2192k internal	0.2321k external	0.2321temperature offset calibration	0.9990default loss term (dB/km)	0.3790temperature slope calibration	1.0000multiplexer offset coefficient	1.0000multiplexer slope coefficient	1.0000fibre end	0.00T internal ref (°C)	32.83T ext. ref 1 (°C)	0.55T ext. ref 2 (°C)	30.71length (m)	temperature (°C)	Stokes	anti-Stokes-747.200	800.000	-0.064	-0.239
-746.185	800.000	-0.031	-0.126
-745.171	-200.000	-0.017	0.169
-744.156	-21.912	-0.178	0.110
-743.142	527.621	-0.127	0.301
-742.127	-200.000	0.002	0.443
-741.112	-200.000	0.017	-0.180
-740.098	-17.491	0.060	-0.038
-739.083	800.000	0.076	0.263
-738.069	292.751	0.160	-0.295
-737.054	-76.759	-0.396	0.140
-736.039	55.588	-0.340	-0.333
-735.025	-188.680	0.154	0.002
-734.010	590.591	0.066	-0.164
-732.996	-185.774	-0.186	0.003
-731.981	-17.540	0.091	0.058
-730.966	-59.383	-0.287	-0.124
-729.952	800.000	-0.032	0.119
-728.937	-25.717	0.314	-0.187
-727.923	30.076	0.199	0.171
-726.908	55.630	-0.156	0.153
-725.894	-45.076	-0.265	-0.133
-724.879	-200.000	-0.000	-0.107
-723.864	-200.000	0.029	-0.158
-722.850	365.594	-0.041	-0.083
-721.835	85.327	-0.158	-0.175
-720.821	-103.361	-0.244	0.058
-719.806	-154.210	-0.465	-0.032
-718.791	70.786	0.236	-0.247
-717.777	-13.741	0.079	-0.051
-716.762	-183.958	-0.192	0.003
-715.748	-2.451	-0.300	-0.212
-714.733	335.444	-0.106	0.207
-713.718	800.000	0.017	0.068
-712.704	-34.801	-0.405	0.223
-711.689	-200.000	0.014	-0.280
-710.675	46.356	-0.039	-0.036
-709.660	800.000	-0.116	0.376
-708.645	14.738	0.202	-0.159
-707.631	-135.378	-0.090	-0.011
-706.616	-88.050	-0.315	-0.095
-705.602	-99.797	0.201	-0.051
-704.587	140.501	0.128	0.170
-703.572	70.636	-0.106	-0.111
-702.558	-200.000	-0.005	0.124
-701.543	-200.000	-0.003	-0.614
-700.529	-156.058	-0.165	-0.011
-699.514	196.375	0.105	0.162
-698.499	-87.179	-0.208	0.064
-697.485	3.229	-0.261	0.191
-696.470	800.000	0.059	0.203
-695.456	-138.736	-0.341	-0.038
-694.441	-200.000	-0.004	0.310
-693.426	-200.000	0.051	0.417
-692.412	-200.000	-0.006	-0.041
-691.397	-79.458	-0.281	-0.096
-690.383	63.877	-0.100	0.101
-689.368	-99.408	0.266	-0.068
-688.354	6.426	-0.125	0.094
-687.339	110.913	-0.138	-0.168
-686.324	-42.345	-0.269	0.138
-685.310	-200.000	-0.011	-0.073
-684.295	339.564	-0.127	-0.249
-683.281	-140.554	0.125	-0.013
-682.266	17.885	-0.104	-0.084
-681.251	-25.337	0.255	0.152
-680.237	800.000	-0.017	-0.051
-679.222	-131.644	0.277	-0.037
-678.208	-106.426	0.170	-0.038
-677.193	29.020	-0.225	0.192
-676.178	-120.544	-0.194	0.033
-675.164	79.737	0.158	0.171
-674.149	-73.627	0.431	-0.158
-673.135	-200.000	-0.077	0.510
-672.120	-23.242	0.309	0.187
-671.105	21.123	0.082	-0.067
-670.091	351.462	-0.107	0.213
-669.076	67.654	-0.200	0.206
-668.062	-55.792	0.141	0.063
-667.047	-200.000	-0.007	0.056
-666.032	-173.348	-0.253	-0.008
-665.018	800.000	0.079	0.235
-664.003	-88.548	-0.168	-0.050
-662.989	209.233	-0.082	-0.129
-661.974	800.000	0.116	0.449
-660.959	524.474	-0.095	-0.225
-659.945	800.000	-0.037	-0.129
-658.930	-153.007	-0.134	0.010
-657.916	439.469	-0.066	0.145
-656.901	-142.758	0.305	-0.030
-655.886	-68.670	-0.096	0.037
-654.872	-76.601	-0.275	-0.097
-653.857	-200.000	-0.033	0.295
-652.843	-44.539	-0.209	0.105
-651.828	-92.743	0.265	-0.075
-650.814	-200.000	-0.009	-0.417
-649.799	124.453	-0.078	-0.098
-648.784	-67.937	-0.287	0.113
-647.770	-32.165	-0.338	-0.190
-646.755	-118.234	0.206	-0.037
-645.741	-93.493	-0.185	-0.051
-644.726	-200.000	0.045	-0.207
-643.711	-48.508	0.290	-0.140
-642.697	122.383	-0.106	0.133
-641.682	28.812	0.283	0.242
-640.668	-22.612	-0.186	-0.113
-639.653	-88.430	0.050	0.015
-638.638	-200.000	-0.020	0.226
-637.624	407.519	0.078	0.165
-636.609	204.934	0.151	-0.236
-635.595	411.384	-0.149	0.318
-634.580	576.390	0.099	-0.242
-633.565	-40.104	0.329	-0.173
-632.551	-200.000	-0.003	0.210
-631.536	648.045	-0.173	-0.446
-630.522	-107.704	0.441	0.097
-629.507	-18.475	0.222	-0.140
-628.492	-71.003	-0.228	-0.086
-627.478	-64.086	0.090	-0.037
-626.463	-170.288	-0.440	-0.016
-625.449	244.627	-0.165	0.278
-624.434	-200.000	-0.025	0.189
-623.419	-32.742	-0.162	-0.090
-622.405	800.000	-0.026	0.095
-621.390	-200.000	0.048	0.334
-620.376	-136.996	-0.088	0.010
-619.361	113.749	-0.149	-0.182
-618.346	615.773	-0.147	0.370
-617.332	-130.351	0.158	0.022
-616.317	555.661	-0.047	-0.114
-615.303	-56.514	-0.223	-0.099
-614.288	-200.000	0.047	-0.462
-613.273	219.048	-0.068	-0.110
-612.259	20.376	-0.174	-0.142
-611.244	800.000	-0.050	-0.144
-610.230	800.000	-0.081	-0.291
-609.215	-200.000	0.037	-0.183
-608.201	-200.000	0.046	0.346
-607.186	800.000	0.154	0.462
-606.171	27.066	0.071	0.060
-605.157	-100.570	0.272	-0.068
-604.142	-58.826	0.107	-0.046
-603.128	706.992	0.089	-0.236
-602.113	-154.739	0.129	-0.009
-601.098	800.000	-0.033	0.093
-600.084	103.570	0.168	-0.198
-599.069	-200.000	0.002	0.217
-598.055	28.597	-0.323	0.275
-597.040	337.595	-0.053	-0.103
-596.025	-35.674	0.182	0.099
-595.011	-200.000	-0.004	-0.128
-593.996	22.877	0.024	-0.020
-592.982	800.000	-0.057	-0.236
-591.967	-4.008	0.110	-0.077
-590.952	-158.795	0.085	0.005
-589.938	-146.997	0.248	0.021
-588.923	67.039	-0.165	0.169
-587.909	315.657	0.138	0.262
-586.894	800.000	0.015	0.052
-585.879	-125.510	-0.271	-0.041
-584.865	17.224	-0.209	-0.166
-583.850	-61.287	-0.188	-0.080
-582.836	800.000	-0.049	-0.174
-581.821	-11.685	-0.229	-0.151
-580.806	-70.706	0.126	0.048
-579.792	36.945	0.094	-0.083
-578.777	400.261	0.122	0.256
-577.763	-200.000	-0.012	0.228
-576.748	-124.125	0.058	-0.009
-575.733	384.133	0.055	0.113
-574.719	-108.339	-0.179	-0.039
-573.704	800.000	-0.128	-0.375
-572.690	291.928	-0.023	0.042
-571.675	457.471	-0.048	-0.108
-570.661	674.381	0.093	0.242
-569.646	106.841	-0.273	-0.325
-568.631	800.000	0.077	0.240
-567.617	51.002	-0.032	-0.031
-566.602	25.265	0.220	0.183
-565.588	16.370	-0.197	0.156
-564.573	-100.531	0.311	0.077
-563.558	-200.000	0.025	0.197
-562.544	-145.824	0.140	-0.012
-561.529	-138.021	0.085	0.010
-560.515	-69.861	-0.081	-0.031
-559.500	235.418	-0.121	0.200
-558.485	-72.798	-0.249	0.092
-557.471	800.000	0.071	-0.201
-556.456	-111.817	-0.214	0.043
-555.442	78.299	0.039	0.041
-554.427	-0.508	0.104	0.074
-553.412	-200.000	0.018	0.322
-552.398	800.000	-0.044	0.138
-551.383	277.269	-0.147	-0.262
-550.369	27.326	0.306	0.258
-549.354	-158.796	-0.590	-0.034
-548.339	501.198	-0.136	-0.316
-547.325	800.000	-0.086	0.372
-546.310	195.881	0.037	-0.056
-545.296	-200.000	-0.003	-0.206
-544.281	-15.963	-0.225	0.143
-543.266	-200.000	0.047	-0.266
-542.252	-200.000	-0.016	0.126
-541.237	566.778	0.081	0.197
-540.223	-36.674	-0.189	0.102
-539.208	110.406	-0.141	0.170
-538.193	151.878	-0.147	-0.201
-537.179	-68.108	0.306	-0.120
-536.164	144.156	-0.149	-0.199
-535.150	137.053	-0.128	0.168
-534.135	-61.652	-0.132	-0.056
-533.121	-100.138	-0.206	0.051
-532.106	32.713	-0.120	-0.104
-531.091	-108.414	-0.266	0.057
-530.077	-200.000	-0.043	0.269
-529.062	-200.000	-0.040	0.381
-528.048	-200.000	0.001	0.008
-527.033	37.517	-0.123	0.110
-526.018	-21.534	-0.117	0.072
-525.004	3.281	-0.136	0.099
-523.989	24.907	-0.116	0.096
-522.975	-200.000	-0.002	0.090
-521.960	-86.434	0.264	0.081
-520.945	81.846	-0.157	-0.170
-519.931	-200.000	-0.022	-0.261
-518.916	-23.588	0.302	-0.182
-517.902	88.234	-0.190	-0.211
-516.887	51.423	0.197	0.187
-515.872	-121.454	0.280	0.047
-514.858	-200.000	-0.003	0.111
-513.843	800.000	0.049	0.191
-512.829	-200.000	-0.025	0.312
-511.814	-200.000	0.004	-0.246
-510.799	-158.495	-0.453	-0.026
-509.785	-51.961	0.340	-0.158
-508.770	-130.271	0.218	-0.030
-507.756	702.275	0.044	-0.115
-506.741	340.531	0.092	-0.180
-505.726	93.136	0.280	-0.317
-504.712	80.118	-0.125	0.135
-503.697	-200.000	0.036	0.266
-502.683	-170.895	0.139	0.005
-501.668	-120.048	-0.114	0.020
-500.653	-200.000	0.007	-0.247
-499.639	800.000	0.044	-0.147
-498.624	-200.000	0.025	0.217
-497.610	-16.420	-0.186	-0.118
-496.595	76.931	-0.037	0.039
-495.581	-200.000	-0.001	-0.055
-494.566	-28.234	0.263	0.152
-493.551	-113.408	0.213	-0.042
-492.537	-200.000	0.059	0.285
-491.522	10.070	0.291	0.221
-490.508	-71.027	-0.086	0.032
-489.493	423.713	0.172	0.369
-488.478	43.948	-0.164	0.151
-487.464	115.573	0.206	-0.252
-486.449	800.000	0.076	-0.246
-485.435	-109.627	0.492	0.104
-484.420	-165.275	-0.155	0.007
-483.405	800.000	-0.008	0.031
-482.391	398.323	0.101	-0.212
-481.376	142.439	-0.128	-0.170
-480.362	293.475	-0.145	0.265
-479.347	-30.258	0.157	0.089
-478.332	-109.407	-0.102	0.022
-477.318	52.047	0.069	-0.066
-476.303	3.157	0.203	-0.147
-475.289	59.000	-0.323	-0.318
-474.274	-66.637	0.071	-0.028
-473.259	27.300	0.243	0.204
-472.245	385.474	-0.119	-0.246
-471.230	-64.870	-0.140	0.057
-470.216	800.000	-0.066	-0.220
-469.201	-200.000	0.103	0.000
-468.186	-156.901	-0.252	0.015
-467.172	139.110	0.028	-0.037
-466.157	-63.041	0.278	0.115
-465.143	800.000	-0.048	0.161
-464.128	-67.557	-0.230	-0.090
-463.113	163.784	0.053	-0.074
-462.099	113.851	-0.076	0.092
-461.084	70.878	-0.247	-0.255
-460.070	-112.371	0.124	0.025
-459.055	271.389	0.144	0.253
-458.040	800.000	-0.018	0.054
-457.026	131.709	-0.150	-0.193
-456.011	-112.658	0.311	0.062
-454.997	245.147	0.083	0.140
-453.982	19.979	-0.267	-0.215
-452.968	-128.392	0.294	0.042
-451.953	-78.192	0.327	0.112
-450.938	13.218	-0.115	0.089
-449.924	63.983	0.075	-0.075
-448.909	655.628	-0.016	-0.041
-447.895	-65.809	-0.279	-0.111
-446.880	-200.000	0.018	0.141
-445.865	224.018	0.101	0.163
-444.851	-157.311	0.138	-0.008
-443.836	-9.811	-0.142	-0.094
-442.822	186.754	-0.073	-0.109
-441.807	51.965	0.083	0.079
-440.792	-200.000	-0.038	0.280
-439.778	-8.164	0.187	-0.126
-438.763	-48.145	-0.125	0.060
-437.749	184.678	0.205	-0.303
-436.734	371.804	0.064	-0.130
-435.719	-17.486	-0.112	0.070
-434.705	-55.599	0.307	0.137
-433.690	800.000	-0.036	-0.153
-432.676	274.676	-0.130	-0.230
-431.661	-14.083	0.257	-0.165
-430.646	-89.421	-0.183	-0.054
-429.632	-200.000	0.025	-0.142
-428.617	800.000	0.068	-0.196
-427.603	83.584	0.100	0.109
-426.588	-200.000	-0.006	0.047
-425.573	-200.000	0.026	0.121
-424.559	-200.000	0.004	-0.187
-423.544	-200.000	-0.019	0.250
-422.530	-200.000	0.064	0.340
-421.515	157.842	0.131	-0.181
-420.500	43.874	-0.158	-0.145
-419.486	414.506	0.169	-0.358
-418.471	-0.682	-0.129	-0.091
-417.457	-154.444	-0.260	0.017
-416.442	-200.000	-0.051	0.312
-415.428	-200.000	-0.014	0.250
-414.413	-20.920	0.164	0.100
-413.398	-87.984	0.151	0.045
-412.384	800.000	0.049	-0.142
-411.369	118.569	0.147	0.180
-410.355	343.376	-0.135	0.264
-409.340	-200.000	-0.005	-0.135
-408.325	-11.421	-0.188	-0.123
-407.311	334.767	0.168	-0.325
-406.296	-41.697	0.212	0.109
-405.282	157.958	0.136	0.188
-404.267	102.742	-0.169	0.197
-403.252	166.328	-0.135	0.191
-402.238	111.114	0.032	-0.039
-401.223	-37.800	-0.052	-0.028
-400.209	-200.000	0.016	-0.173
-399.194	-200.000	0.007	0.085
-398.179	-152.630	0.346	-0.025
-397.165	114.472	-0.137	-0.166
-396.150	-200.000	-0.087	-0.421
-395.136	-53.131	0.312	-0.143
-394.121	-79.372	-0.396	-0.134
-393.106	-200.000	0.007	-0.121
-392.092	-200.000	-0.074	-0.529
-391.077	95.465	0.148	-0.168
-390.063	-146.475	0.041	-0.004
-389.048	141.335	0.165	0.218
-388.033	32.838	0.092	0.080
-387.019	-156.966	-0.277	-0.017
-386.004	-64.754	-0.269	0.108
-384.990	-200.000	0.006	0.123
-383.975	-13.352	-0.252	0.163
-382.960	13.181	0.167	0.129
-381.946	-7.000	0.134	-0.090
-380.931	239.240	0.197	0.326
-379.917	-42.858	-0.151	-0.076
-378.902	28.828	-0.047	-0.040
-377.888	-200.000	0.008	-0.129
-376.873	-200.000	0.007	-0.136
-375.858	-16.391	-0.199	0.126
-374.844	-32.499	-0.206	-0.115
-373.829	800.000	0.048	-0.198
-372.815	-70.383	-0.239	-0.090
-371.800	800.000	-0.049	0.213
-370.785	57.764	0.169	0.165
-369.771	-54.199	0.117	-0.053
-368.756	-73.930	0.239	0.086
-367.742	224.505	-0.131	0.212
-366.727	143.308	-0.045	0.060
-365.712	-57.219	-0.302	0.132
-364.698	-200.000	0.037	-0.181
-363.683	-101.336	0.177	-0.043
-362.669	-200.000	-0.043	-0.205
-361.654	130.608	-0.110	0.140
-360.639	62.099	0.093	0.092
-359.625	43.097	-0.066	-0.060
-358.610	-5.730	-0.135	-0.092
-357.596	800.000	0.011	0.048
-356.581	800.000	0.045	-0.143
-355.566	-124.537	0.156	-0.024
-354.552	-136.460	-0.167	0.019
-353.537	485.009	-0.029	0.065
-352.523	126.729	-0.147	0.185
-351.508	-39.824	-0.356	-0.185
-350.493	141.403	0.153	-0.201
-349.479	102.104	0.254	-0.295
-348.464	-200.000	-0.007	0.324
-347.450	91.492	-0.239	0.267
-346.435	199.455	0.116	-0.177
-345.420	347.875	0.058	-0.114
-344.406	398.914	0.116	0.241
-343.391	-200.000	-0.019	-0.197
-342.377	233.985	-0.091	0.148
-341.362	36.853	-0.417	0.367
-340.348	-174.242	-0.405	-0.012
-339.333	-200.000	-0.029	0.354
-338.318	-200.000	0.010	-0.191
-337.304	-92.807	-0.284	-0.079
-336.289	-77.690	-0.210	0.072
-335.275	65.271	-0.112	-0.113
-334.260	2.405	0.212	-0.153
-333.245	-198.750	-0.159	0.001
-332.231	23.066	0.300	0.244
-331.216	-200.000	0.024	-0.301
-330.202	83.859	-0.078	0.084
-329.187	800.000	0.056	0.225
-328.172	-200.000	-0.009	0.069
-327.158	67.088	-0.136	0.138
-326.143	558.639	0.178	-0.428
-325.129	-101.777	-0.105	0.025
-324.114	-48.950	0.129	0.062
-323.099	83.856	0.188	-0.204
-322.085	555.535	-0.067	-0.160
-321.070	105.077	-0.233	0.273
-320.056	-200.000	0.050	-0.222
-319.041	144.284	-0.036	-0.047
-318.026	93.648	0.221	0.249
-317.012	-160.782	0.358	0.019
-315.997	32.167	0.065	0.056
-314.983	366.516	-0.182	-0.365
-313.968	-200.000	0.028	-0.123
-312.953	-57.682	0.118	-0.051
-311.939	-70.114	-0.282	-0.107
-310.924	-200.000	0.004	0.035
-309.910	107.842	0.279	0.331
-308.895	-56.738	-0.350	-0.154
-307.880	800.000	0.033	-0.100
-306.866	38.145	0.073	0.065
-305.851	-122.319	-0.257	0.042
-304.837	-200.000	-0.029	0.417
-303.822	-200.000	0.037	0.164
-302.807	334.280	-0.093	0.180
-301.793	800.000	-0.154	0.520
-300.778	-141.123	0.287	-0.029
-299.764	-28.415	-0.030	0.017
-298.749	146.050	-0.139	0.186
-297.735	179.494	-0.100	0.145
-296.720	293.585	-0.161	-0.292
-295.705	-200.000	0.039	-0.186
-294.691	-174.733	0.048	-0.001
-293.676	66.012	0.211	-0.212
-292.662	108.370	0.178	-0.211
-291.647	-110.148	-0.140	0.029
-290.632	97.888	-0.023	0.026
-289.618	800.000	-0.066	-0.272
-288.603	-200.000	0.005	-0.070
-287.589	-88.905	-0.313	-0.092
-286.574	-66.317	0.070	-0.028
-285.559	-171.800	-0.269	-0.009
-284.545	-48.623	0.152	-0.073
-283.530	-200.000	-0.028	0.235
-282.516	28.994	-0.121	-0.102
-281.501	-73.869	0.184	-0.066
-280.486	21.970	0.121	0.098
-279.472	50.346	-0.171	-0.160
-278.457	-200.000	-0.011	0.150
-277.443	800.000	0.056	-0.229
-276.428	62.164	-0.127	-0.126
-275.413	303.563	-0.093	-0.171
-274.399	-124.108	0.132	0.021
-273.384	800.000	0.061	0.239
-272.370	-200.000	-0.021	-0.361
-271.355	-200.000	0.002	-0.096
-270.340	106.103	-0.040	-0.047
-269.326	130.859	-0.184	-0.234
-268.311	-142.264	-0.292	0.029
-267.297	-200.000	-0.024	-0.132
-266.282	-200.000	0.010	-0.123
-265.267	76.283	0.246	0.258
-264.253	800.000	-0.084	0.239
-263.238	-200.000	-0.005	-0.449
-262.224	317.802	-0.037	-0.069
-261.209	149.636	-0.032	0.043
-260.195	-200.000	-0.005	-0.389
-259.180	562.352	-0.067	0.162
-258.165	48.653	-0.128	0.119
-257.151	-200.000	0.035	0.327
-256.136	-80.114	-0.355	-0.118
-255.122	-80.382	-0.367	-0.122
-254.107	-6.563	0.208	0.141
-253.092	353.609	0.047	0.092
-252.078	-98.752	0.068	0.017
-251.063	800.000	-0.106	-0.451
-250.049	-19.741	-0.088	-0.054
-249.034	369.820	0.116	-0.232
-248.019	-151.931	0.153	0.011
-247.005	-152.795	0.350	0.025
-245.990	-100.314	-0.105	-0.026
-244.976	-172.480	-0.237	0.007
-243.961	-144.862	0.268	0.024
-242.946	-35.239	0.263	0.142
-241.932	-12.692	0.066	0.043
-240.917	-200.000	-0.001	0.025
-239.903	800.000	-0.013	0.053
-238.888	466.736	-0.147	0.327
-237.873	24.830	-0.267	0.219
-236.859	37.975	0.207	0.183
-235.844	233.277	0.152	-0.248
-234.830	364.544	0.187	-0.373
-233.815	-200.000	0.013	0.099
-232.800	-165.638	-0.072	-0.003
-231.786	762.929	-0.028	0.076
-230.771	-5.904	-0.243	0.165
-229.757	-3.036	0.043	0.030
-228.742	-58.067	-0.050	-0.021
-227.727	461.730	0.088	0.194
-226.713	-78.206	0.259	0.088
-225.698	156.766	0.099	0.136
-224.684	-200.000	-0.021	-0.274
-223.669	15.513	0.103	-0.080
-222.655	-99.802	0.275	0.068
-221.640	-200.000	-0.027	-0.229
-220.625	-160.056	-0.149	0.008
-219.611	-172.659	-0.109	0.003
-218.596	557.806	0.046	-0.110
-217.582	-176.670	-0.030	-0.001
-216.567	-54.106	-0.179	0.081
-215.552	-122.838	-0.033	0.005
-214.538	583.293	0.028	0.069
-213.523	800.000	-0.090	0.276
-212.509	800.000	-0.074	-0.259
-211.494	797.838	-0.069	0.189
-210.479	-200.000	-0.026	0.251
-209.465	32.790	-0.167	0.143
-208.450	-72.925	0.388	0.141
-207.436	-200.000	0.055	-0.299
-206.421	-138.424	0.562	-0.061
-205.406	-46.624	0.036	0.018
-204.392	-136.947	-0.096	0.011
-203.377	-161.680	0.123	0.006
-202.363	-50.950	0.223	0.104
-201.348	800.000	0.014	0.058
-200.333	-200.000	-0.005	-0.216
-199.319	283.007	-0.042	0.074
-198.304	586.184	-0.037	0.091
-197.290	-117.751	0.340	-0.061
-196.275	11.916	-0.209	-0.159
-195.260	-200.000	-0.005	0.024
-194.246	-82.683	0.223	0.071
-193.231	800.000	0.054	0.210
-192.217	-67.980	-0.205	-0.079
-191.202	-200.000	0.013	0.218
-190.187	598.766	0.129	0.318
-189.173	-82.997	0.103	0.033
-188.158	133.498	-0.046	0.058
-187.144	107.070	0.196	-0.230
-186.129	33.573	-0.018	-0.016
-185.114	-186.318	0.155	0.002
-184.100	144.087	0.104	-0.138
-183.085	-40.894	0.246	-0.126
-182.071	800.000	0.093	-0.266
-181.056	-134.096	0.387	0.047
-180.042	114.521	-0.182	0.219
-179.027	256.873	-0.095	0.162
-178.012	-72.362	0.103	0.038
-176.998	62.891	0.152	-0.150
-175.983	-58.202	-0.089	-0.038
-174.969	800.000	-0.048	0.196
-173.954	-103.495	0.456	0.106
-172.939	-108.487	-0.219	-0.047
-171.925	800.000	0.135	0.399
-170.910	222.728	0.115	0.183
-169.896	800.000	-0.037	-0.155
-168.881	-136.053	-0.171	-0.020
-167.866	-200.000	0.013	-0.232
-166.852	-7.369	-0.170	-0.114
-165.837	97.585	0.092	0.104
-164.823	71.113	0.036	-0.037
-163.808	30.449	0.218	0.184
-162.793	800.000	0.055	0.155
-161.779	115.725	0.214	-0.259
-160.764	682.689	0.142	-0.366
-159.750	-174.194	-0.284	0.008
-158.735	389.038	0.050	0.103
-157.720	800.000	-0.010	-0.041
-156.706	-37.855	0.305	0.160
-155.691	-125.588	-0.203	0.030
-154.677	142.659	-0.159	-0.209
-153.662	-22.936	0.021	0.013
-152.647	-200.000	0.004	0.086
-151.633	45.016	-0.199	-0.181
-150.618	117.544	-0.124	0.150
-149.604	-200.000	-0.017	0.231
-148.589	219.672	-0.009	0.014
-147.574	-160.721	-0.272	-0.014
-146.560	85.987	0.115	-0.125
-145.545	-25.115	0.274	-0.160
-144.531	-200.000	-0.029	-0.168
-143.516	800.000	-0.034	-0.121
-142.502	-200.000	0.028	-0.327
-141.487	178.428	-0.047	-0.068
-140.472	-3.201	0.325	0.223
-139.458	40.773	-0.422	0.375
-138.443	-76.452	0.118	0.041
-137.429	-200.000	-0.023	0.310
-136.414	-200.000	-0.020	0.139
-135.399	-200.000	0.025	-0.165
-134.385	-126.521	0.178	-0.026
-133.370	-200.000	-0.050	0.272
-132.356	507.734	0.100	0.229
-131.341	800.000	-0.067	0.238
-130.326	-29.880	0.178	-0.100
-129.312	-52.983	-0.057	0.026
-128.297	-62.109	-0.134	0.055
-127.283	106.821	-0.140	-0.164
-126.268	-186.997	0.241	-0.003
-125.253	-200.000	0.036	-0.202
-124.239	-200.000	0.005	0.255
-123.224	302.830	-0.090	0.165
-122.210	450.444	0.157	-0.341
