DTS Sentinel unit serial number:	SN413079Multiplexer serial number:	ORYXHardware model number:	OX4-SRSoftware version number:	ORYX F/W v4.00 Oryx Data Collector v3.7.2.0data status	okinstallation	princeton_trtdifferential loss correction	single-endedforward channel	channel 2reverse channel	N/Adate	2019/09/16time	16:43:34forward acquisition time	60.00reverse acquisition time	0.00gamma	496.2192k internal	0.2304k external	0.2304temperature offset calibration	0.9942default loss term (dB/km)	0.3790temperature slope calibration	1.0000multiplexer offset coefficient	1.0000multiplexer slope coefficient	1.0000fibre end	0.00T internal ref (°C)	39.77T ext. ref 1 (°C)	15.17T ext. ref 2 (°C)	33.87length (m)	temperature (°C)	Stokes	anti-Stokes-747.200	-200.000	-0.028	-0.154
-746.185	-12.980	-0.468	0.310
-745.171	279.724	-0.076	0.139
-744.156	-200.000	0.029	0.333
-743.142	-200.000	0.058	-0.279
-742.127	-103.937	-0.209	-0.050
-741.112	147.943	0.050	-0.069
-740.098	-200.000	0.013	0.273
-739.083	-153.324	-0.163	-0.012
-738.069	-6.353	0.032	0.022
-737.054	-138.235	-0.286	0.032
-736.039	-196.460	-0.079	0.001
-735.025	-93.119	-0.189	0.054
-734.010	800.000	-0.140	-0.512
-732.996	-200.000	0.026	-0.263
-731.981	24.447	-0.150	0.127
-730.966	122.171	-0.140	-0.177
-729.952	-38.836	-0.211	-0.113
-728.937	-58.178	-0.338	0.150
-727.923	-200.000	0.016	0.219
-726.908	-13.100	-0.212	-0.140
-725.894	-93.910	-0.219	-0.061
-724.879	-200.000	0.010	-0.349
-723.864	-16.730	0.203	-0.131
-722.850	-200.000	-0.046	0.209
-721.835	-30.494	-0.300	-0.173
-720.821	-43.768	-0.202	-0.104
-719.806	336.613	0.018	-0.035
-718.791	524.000	0.188	-0.449
-717.777	651.303	0.152	-0.396
-716.762	222.674	-0.200	-0.328
-715.748	-38.262	-0.086	0.046
-714.733	-66.200	-0.095	0.038
-713.718	129.642	0.162	-0.211
-712.704	-79.337	0.069	0.024
-711.689	220.706	-0.204	-0.332
-710.675	-48.556	-0.212	-0.104
-709.660	-17.372	0.290	0.186
-708.645	61.431	-0.158	-0.159
-707.631	182.225	0.197	0.296
-706.616	158.874	0.024	-0.034
-705.602	32.435	0.282	-0.247
-704.587	125.609	0.073	0.094
-703.572	-103.487	0.147	-0.035
-702.558	-149.643	-0.207	-0.017
-701.543	147.022	-0.217	-0.297
-700.529	-45.120	0.045	-0.023
-699.514	111.879	-0.061	0.075
-698.499	158.693	-0.151	-0.213
-697.485	-157.819	-0.153	-0.009
-696.470	134.618	-0.231	-0.304
-695.456	270.530	-0.125	-0.223
-694.441	200.804	-0.167	-0.260
-693.426	-51.420	0.253	0.120
-692.412	80.999	0.073	0.080
-691.397	-200.000	-0.017	0.153
-690.383	52.422	-0.212	-0.205
-689.368	-65.353	-0.306	-0.125
-688.354	-11.450	0.246	-0.165
-687.339	110.847	-0.151	-0.184
-686.324	-200.000	0.014	0.181
-685.310	800.000	0.081	0.229
-684.295	800.000	-0.067	0.284
-683.281	31.645	-0.089	0.078
-682.266	127.489	-0.096	-0.123
-681.251	15.954	-0.345	-0.276
-680.237	-18.238	0.355	0.226
-679.222	211.743	-0.083	-0.132
-678.208	123.062	0.072	-0.092
-677.193	-200.000	0.004	0.345
-676.178	-68.519	0.252	-0.099
-675.164	160.829	0.156	-0.221
-674.149	-35.481	-0.433	0.239
-673.135	79.228	0.056	0.060
-672.120	800.000	0.075	-0.226
-671.105	-131.265	-0.454	-0.061
-670.091	-34.862	0.107	-0.059
-669.076	152.470	0.246	-0.341
-668.062	-99.660	0.066	0.017
-667.047	800.000	-0.050	-0.177
-666.032	36.239	-0.284	0.254
-665.018	-59.472	0.306	-0.134
-664.003	-69.099	-0.134	0.052
-662.989	14.227	0.158	-0.125
-661.974	28.927	-0.257	0.221
-660.959	19.703	0.085	-0.069
-659.945	800.000	0.026	-0.090
-658.930	-190.442	0.274	-0.003
-657.916	84.091	0.058	-0.064
-656.901	800.000	-0.145	-0.441
-655.886	-119.907	0.338	-0.059
-654.872	-200.000	-0.002	0.067
-653.857	800.000	0.037	-0.153
-652.843	-126.209	-0.220	-0.033
-651.828	-50.881	-0.256	0.122
-650.814	648.679	-0.196	-0.508
-649.799	67.282	-0.191	-0.198
-648.784	286.550	-0.024	-0.044
-647.770	-85.891	0.035	0.011
-646.755	-185.901	0.082	-0.001
-645.741	-184.627	-0.064	0.001
-644.726	30.302	-0.218	0.189
-643.711	514.869	-0.080	0.189
-642.697	-126.548	-0.231	-0.035
-641.682	291.594	-0.080	-0.148
-640.668	-200.000	-0.011	0.126
-639.653	67.967	-0.054	0.057
-638.638	-200.000	-0.004	-0.021
-637.624	-200.000	-0.009	0.100
-636.609	698.814	0.028	0.075
-635.595	-52.447	0.097	-0.046
-634.580	646.973	0.152	-0.394
-633.565	-63.228	0.317	-0.133
-632.551	-90.572	-0.330	0.097
-631.536	-200.000	-0.000	-0.003
-630.522	-109.222	-0.211	-0.045
-629.507	-200.000	-0.050	-0.281
-628.492	800.000	0.074	0.242
-627.478	1.317	0.219	-0.159
-626.463	15.462	-0.278	0.221
-625.449	800.000	0.050	-0.147
-624.434	800.000	0.062	-0.200
-623.419	-200.000	-0.005	-0.045
-622.405	-200.000	0.003	-0.136
-621.390	-200.000	-0.057	0.342
-620.376	-200.000	0.024	0.165
-619.361	-39.389	-0.209	-0.111
-618.346	800.000	-0.048	0.207
-617.332	-88.459	0.248	-0.075
-616.317	44.679	-0.251	0.234
-615.303	-128.618	0.156	-0.022
-614.288	-200.000	-0.046	-0.422
-613.273	-138.183	-0.088	-0.010
-612.259	-134.703	-0.114	0.014
-611.244	-69.106	-0.333	-0.130
-610.230	235.533	-0.071	0.118
-609.215	-63.430	0.261	0.109
-608.201	157.167	-0.141	-0.197
-607.186	-200.000	-0.052	-0.239
-606.171	543.771	-0.092	0.222
-605.157	-200.000	-0.055	0.307
-604.142	27.419	-0.221	-0.188
-603.128	-74.871	-0.034	0.012
-602.113	-123.418	0.180	0.029
-601.098	-169.665	-0.283	0.010
-600.084	416.199	0.153	-0.331
-599.069	26.981	-0.126	-0.107
-598.055	-120.165	-0.583	0.101
-597.040	29.563	-0.130	-0.112
-596.025	-163.155	0.028	-0.001
-595.011	-200.000	-0.041	0.219
-593.996	242.522	-0.045	0.077
-592.982	-133.732	0.048	-0.006
-591.967	-200.000	-0.057	-0.326
-590.952	800.000	0.097	0.333
-589.938	758.733	-0.101	0.278
-588.923	569.666	0.071	0.176
-587.909	286.480	-0.088	-0.160
-586.894	630.794	0.081	-0.208
-585.879	-97.731	-0.165	0.043
-584.865	-120.585	-0.241	0.041
-583.850	126.483	-0.025	-0.032
-582.836	483.801	-0.067	-0.154
-581.821	-60.373	0.112	0.048
-580.806	-64.017	0.241	-0.100
-579.792	-49.410	-0.330	0.159
-578.777	-79.405	-0.248	0.085
-577.763	0.059	-0.187	0.135
-576.748	800.000	0.028	-0.117
-575.733	-185.339	0.102	0.002
-574.719	587.145	0.087	-0.216
-573.704	-16.875	-0.203	0.130
-572.690	-3.897	0.112	-0.079
-571.675	39.812	-0.235	-0.213
-570.661	-56.101	0.202	-0.091
-569.646	55.977	0.133	0.131
-568.631	-96.060	-0.137	-0.037
-567.617	-200.000	0.046	0.242
-566.602	-99.258	-0.116	0.030
-565.588	-200.000	-0.003	0.054
-564.573	188.589	-0.114	0.172
-563.558	-200.000	-0.006	-0.235
-562.544	-92.043	-0.146	-0.042
-561.529	800.000	-0.020	-0.082
-560.515	-132.908	0.240	-0.031
-559.500	-200.000	-0.013	-0.162
-558.485	-113.679	-0.323	-0.064
-557.471	30.473	0.237	-0.205
-556.456	434.227	0.027	-0.059
-555.442	-19.363	0.054	0.034
-554.427	-131.049	0.260	-0.035
-553.412	93.159	0.072	-0.083
-552.398	-200.000	0.004	-0.334
-551.383	458.313	-0.089	-0.201
-550.369	-200.000	-0.022	0.307
-549.354	6.545	0.051	-0.039
-548.339	-71.052	-0.016	0.006
-547.325	31.770	-0.051	-0.045
-546.310	26.076	0.191	-0.161
-545.296	-125.821	-0.390	-0.060
-544.281	293.275	0.035	-0.065
-543.266	-200.000	0.010	-0.057
-542.252	-3.865	0.186	-0.131
-541.237	-50.444	-0.271	-0.129
-540.223	-143.331	0.274	-0.027
-539.208	274.533	0.093	-0.167
-538.193	41.419	0.105	-0.096
-537.179	-97.526	0.074	-0.019
-536.164	800.000	-0.091	0.391
-535.150	-177.298	0.212	0.005
-534.135	796.965	-0.120	0.335
-533.121	508.023	0.066	0.154
-532.106	-13.661	0.229	0.150
-531.091	532.778	0.138	0.329
-530.077	-47.019	0.260	0.128
-529.062	200.491	-0.064	0.099
-528.048	-200.000	0.018	0.218
-527.033	119.592	0.104	-0.129
-526.018	10.376	0.174	0.134
-525.004	25.876	-0.186	0.156
-523.989	251.969	-0.148	-0.255
-522.975	800.000	-0.034	-0.123
-521.960	-165.367	0.198	0.009
-520.945	224.418	0.124	-0.202
-519.931	-110.457	0.306	-0.064
-518.916	73.002	0.209	-0.220
-517.902	-200.000	-0.002	-0.070
-516.887	701.381	0.022	-0.059
-515.872	120.932	-0.131	-0.164
-514.858	56.446	0.282	0.277
-513.843	27.496	-0.259	0.220
-512.829	-83.875	0.221	-0.071
-511.814	-52.291	0.129	0.060
-510.799	497.590	-0.187	0.434
-509.785	219.603	0.217	-0.350
-508.770	-200.000	-0.005	-0.324
-507.756	-5.183	-0.152	0.106
-506.741	-75.854	0.204	-0.073
-505.726	-146.914	0.084	-0.007
-504.712	800.000	-0.023	0.088
-503.697	-25.336	-0.213	0.127
-502.683	-63.351	-0.219	0.091
-501.668	401.029	0.034	-0.072
-500.653	-135.456	0.259	-0.031
-499.639	-33.082	0.341	0.191
-498.624	416.993	0.105	-0.226
-497.610	-11.293	0.066	0.044
-496.595	291.013	-0.066	-0.121
-495.581	231.668	-0.090	0.149
-494.566	94.930	-0.160	-0.184
-493.551	9.723	0.151	-0.115
-492.537	306.113	-0.251	-0.471
-491.522	-76.573	-0.091	-0.032
-490.508	-200.000	0.001	0.010
-489.493	-118.060	0.249	0.045
-488.478	-139.816	-0.351	0.037
-487.464	502.541	0.180	0.419
-486.449	-200.000	-0.014	-0.069
-485.435	800.000	0.035	-0.100
-484.420	122.432	0.205	0.258
-483.405	-68.024	0.329	0.129
-482.391	800.000	-0.034	-0.140
-481.376	477.315	-0.061	-0.138
-480.362	311.303	0.103	-0.194
-479.347	324.987	0.135	0.260
-478.332	208.006	0.033	-0.052
-477.318	-16.679	-0.299	-0.191
-476.303	-38.226	0.312	-0.167
-475.289	-107.316	0.255	0.056
-474.274	800.000	-0.131	0.387
-473.259	-138.723	-0.210	0.023
-472.245	351.403	0.068	0.136
-471.230	147.269	-0.114	0.154
-470.216	386.493	-0.250	0.520
-469.201	-21.160	0.176	-0.108
-468.186	-88.012	0.075	0.023
-467.172	70.361	0.074	-0.077
-466.157	800.000	0.095	0.289
-465.143	554.924	0.102	-0.248
-464.128	-95.838	0.186	-0.050
-463.113	1.220	0.078	-0.056
-462.099	20.682	0.264	0.215
-461.084	-200.000	-0.011	0.086
-460.070	-143.189	0.053	0.005
-459.055	56.198	-0.277	-0.271
-458.040	-200.000	0.033	-0.203
-457.026	-119.750	-0.458	-0.080
-456.011	-92.926	-0.096	0.027
-454.997	-105.348	0.467	-0.107
-453.982	176.018	0.045	-0.065
-452.968	54.686	-0.093	0.090
-451.953	-200.000	-0.009	-0.051
-450.938	800.000	-0.082	-0.360
-449.924	32.203	-0.190	0.165
-448.909	368.294	-0.036	0.073
-447.895	-200.000	-0.026	-0.152
-446.880	36.875	-0.305	-0.271
-445.865	-200.000	0.004	0.192
-444.851	-200.000	-0.034	-0.293
-443.836	29.202	-0.150	0.128
-442.822	64.306	0.015	0.015
-441.807	-113.667	-0.144	-0.028
-440.792	-2.910	0.153	-0.107
-439.778	-70.194	0.269	0.103
-438.763	-152.119	-0.412	-0.030
-437.749	344.514	-0.008	-0.015
-436.734	-200.000	0.044	-0.222
-435.719	-200.000	0.026	-0.311
-434.705	-37.824	0.269	0.144
-433.690	174.078	-0.105	-0.153
-432.676	25.325	-0.171	0.143
-431.661	65.142	0.294	-0.299
-430.646	406.701	0.068	-0.144
-429.632	160.646	0.063	-0.088
-428.617	-119.567	-0.089	0.015
-427.603	-200.000	0.001	0.422
-426.588	-200.000	-0.026	-0.168
-425.573	-21.068	-0.203	0.125
-424.559	800.000	0.058	-0.165
-423.544	-60.955	0.103	0.044
-422.530	240.407	-0.167	0.279
-421.515	28.767	0.197	-0.168
-420.500	-170.921	-0.294	-0.010
-419.486	800.000	-0.025	0.101
-418.471	-102.488	0.152	-0.036
-417.457	-200.000	0.020	0.399
-416.442	800.000	-0.083	-0.256
-415.428	683.233	-0.140	0.366
-414.413	-85.201	-0.195	-0.061
-413.398	121.511	-0.127	-0.159
-412.384	-176.299	-0.113	0.003
-411.369	-55.067	0.158	0.072
-410.355	-200.000	-0.002	-0.076
-409.340	800.000	0.020	0.068
-408.325	-200.000	-0.004	0.087
-407.311	-200.000	-0.036	-0.233
-406.296	21.855	-0.288	-0.236
-405.282	40.922	0.073	0.066
-404.267	555.796	-0.134	0.324
-403.252	-200.000	0.031	0.139
-402.238	800.000	0.020	0.061
-401.223	-73.081	0.133	-0.049
-400.209	85.324	-0.117	0.129
-399.194	754.651	-0.035	-0.096
-398.179	191.999	0.107	-0.162
-397.165	111.632	0.113	0.137
-396.150	146.925	0.170	0.229
-395.136	-200.000	0.059	0.333
-394.121	-200.000	-0.025	-0.157
-393.106	-94.357	-0.535	-0.147
-392.092	-19.750	0.174	-0.108
-391.077	-156.160	0.172	-0.011
-390.063	-21.120	-0.181	-0.111
-389.048	-78.223	0.150	0.052
-388.033	-154.932	0.280	-0.019
-387.019	-54.811	0.085	0.038
-386.004	139.086	0.129	0.171
-384.990	-141.177	0.239	0.024
-383.975	13.188	-0.018	-0.014
-382.960	60.613	0.163	0.163
-381.946	132.434	-0.062	0.080
-380.931	800.000	0.041	0.170
-379.917	-200.000	-0.008	-0.234
-378.902	-125.024	0.127	-0.020
-377.888	-33.194	-0.300	-0.167
-376.873	-133.889	0.235	0.029
-375.858	-89.929	-0.163	0.048
-374.844	-200.000	-0.061	0.328
-373.829	-154.991	0.238	-0.016
-372.815	57.831	-0.242	0.238
-371.800	-135.314	0.072	-0.009
-370.785	24.267	0.209	-0.173
-369.771	133.078	-0.131	0.170
-368.756	-200.000	0.006	-0.075
-367.742	-59.965	0.258	-0.111
-366.727	-200.000	-0.013	-0.248
-365.712	-130.265	0.067	0.009
-364.698	-80.374	-0.279	0.093
-363.683	82.014	-0.027	-0.029
-362.669	-68.894	0.194	0.075
-361.654	-144.771	-0.156	0.014
-360.639	44.191	0.079	-0.072
-359.625	-93.444	-0.157	-0.044
-358.610	-117.268	-0.439	0.080
-357.596	127.615	0.134	-0.171
-356.581	-32.002	-0.261	0.147
-355.566	79.124	-0.021	0.023
-354.552	138.730	-0.126	-0.166
-353.537	31.572	0.054	-0.046
-352.523	500.179	-0.018	-0.041
-351.508	225.481	0.129	0.210
-350.493	-82.293	0.117	-0.038
-349.479	-96.012	0.087	-0.023
-348.464	800.000	0.070	-0.205
-347.450	-51.982	-0.099	-0.046
-346.435	588.128	0.127	-0.314
-345.420	201.669	-0.160	-0.247
-344.406	-78.093	-0.278	0.096
-343.391	800.000	-0.061	0.261
-342.377	-200.000	-0.021	0.258
-341.362	247.289	0.183	0.310
-340.348	180.870	0.301	-0.443
-339.333	-70.934	0.031	0.012
-338.318	149.640	-0.147	-0.199
-337.304	7.093	-0.140	0.105
-336.289	-200.000	-0.071	-0.425
-335.275	404.245	0.190	0.402
-334.260	77.987	-0.085	0.091
-333.245	-200.000	-0.010	0.160
-332.231	-200.000	-0.003	0.025
-331.216	-200.000	-0.028	0.413
-330.202	40.846	0.230	-0.208
-329.187	40.419	-0.115	0.104
-328.172	-118.903	-0.117	0.021
-327.158	255.679	0.166	0.284
-326.143	-200.000	0.049	-0.277
-325.129	800.000	-0.042	-0.152
-324.114	-64.563	0.227	-0.092
-323.099	22.768	-0.303	0.249
-322.085	190.041	-0.145	0.218
-321.070	-132.921	0.106	-0.013
-320.056	-200.000	0.001	-0.047
-319.041	-163.948	-0.468	-0.022
-318.026	-104.789	0.182	0.042
-317.012	4.049	-0.200	-0.147
-315.997	151.296	0.110	0.149
-314.983	228.776	-0.119	-0.194
-313.968	-48.826	0.343	0.165
-312.953	236.128	-0.128	0.212
-311.939	800.000	-0.057	-0.203
-310.924	74.636	-0.128	-0.135
-309.910	367.352	0.031	0.062
-308.895	10.055	-0.053	0.041
-307.880	571.560	-0.120	0.293
-306.866	-200.000	0.026	0.127
-305.851	533.602	0.117	0.277
-304.837	-2.661	-0.226	0.158
-303.822	64.753	-0.076	-0.077
-302.807	4.488	-0.098	-0.072
-301.793	800.000	-0.041	0.141
-300.778	-82.680	0.183	-0.059
-299.764	73.332	0.139	0.146
-298.749	-59.606	-0.228	0.098
-297.735	-78.034	-0.130	-0.045
-296.720	-184.735	0.278	-0.004
-295.705	0.766	0.132	0.095
-294.691	102.263	0.101	-0.118
-293.676	-61.374	-0.178	0.075
-292.662	38.847	0.115	0.103
-291.647	133.796	-0.106	-0.137
-290.632	-134.166	0.303	-0.037
-289.618	800.000	0.087	-0.275
-288.603	-24.628	0.138	0.082
-287.589	110.780	0.195	-0.234
-286.574	800.000	0.087	0.273
-285.559	-144.595	0.402	-0.037
-284.545	-164.034	-0.205	0.009
-283.530	-129.697	0.094	-0.013
-282.516	69.793	0.030	0.031
-281.501	-148.079	0.302	0.025
-280.486	720.587	-0.073	0.194
-279.472	30.609	0.186	-0.159
-278.457	-186.314	-0.257	-0.004
-277.443	-112.931	-0.453	0.090
-276.428	-20.957	-0.275	-0.168
-275.413	450.408	0.063	0.139
-274.399	800.000	-0.072	0.227
-273.384	-50.624	0.157	0.074
-272.370	-200.000	-0.059	0.269
-271.355	-46.494	0.210	-0.103
-270.340	8.732	0.247	0.186
-269.326	264.399	0.127	-0.221
-268.311	17.734	0.349	-0.278
-267.297	-7.713	-0.123	0.083
-266.282	-123.237	-0.231	-0.037
-265.267	351.674	-0.038	-0.074
-264.253	-31.710	-0.211	0.118
-263.238	20.116	-0.330	0.266
-262.224	-29.799	-0.207	-0.118
-261.209	800.000	0.079	-0.246
-260.195	-200.000	0.008	-0.242
-259.180	-200.000	0.096	-0.432
-258.165	800.000	0.094	0.354
-257.151	4.349	0.244	-0.179
-256.136	31.656	0.057	-0.049
-255.122	199.635	0.197	0.301
-254.107	-200.000	-0.010	-0.189
-253.092	92.693	-0.133	-0.150
-252.078	-172.515	-0.056	0.002
-251.063	-104.910	-0.210	-0.048
-250.049	800.000	-0.060	-0.198
-249.034	137.755	0.073	-0.096
-248.019	-200.000	-0.000	-0.171
-247.005	800.000	-0.075	0.279
-245.990	-174.609	0.376	0.011
-244.976	-200.000	0.049	0.254
-243.961	-181.345	0.204	-0.004
-242.946	-78.646	0.268	-0.091
-241.932	-90.794	-0.083	-0.024
-240.917	-200.000	-0.218	-0.000
-239.903	212.627	-0.181	0.286
-238.888	78.793	-0.106	0.113
-237.873	-200.000	0.011	-0.381
-236.859	-200.000	-0.038	0.184
-235.844	-200.000	0.016	-0.238
-234.830	-200.000	0.005	-0.045
-233.815	-37.848	-0.233	0.124
-232.800	261.669	0.074	0.128
-231.786	78.425	0.030	0.032
-230.771	10.327	0.187	0.142
-229.757	-156.737	-0.357	0.022
-228.742	-124.770	0.161	-0.025
-227.727	-200.000	-0.025	-0.223
-226.713	-5.079	-0.092	0.063
-225.698	19.950	-0.194	-0.156
-224.684	-69.737	-0.085	-0.033
-223.669	-94.967	-0.076	-0.020
-222.655	-200.000	-0.038	-0.335
-221.640	-162.833	0.165	-0.008
-220.625	-38.659	-0.120	0.063
-219.611	41.186	0.147	-0.133
-218.596	145.997	0.162	0.216
-217.582	26.273	-0.111	0.093
-216.567	-167.683	-0.366	0.014
-215.552	-95.852	-0.267	-0.071
-214.538	25.520	-0.039	0.032
-213.523	-200.000	-0.015	-0.196
-212.509	161.807	0.159	0.222
-211.494	-14.669	0.012	-0.008
-210.479	-200.000	0.035	-0.266
-209.465	90.692	0.189	-0.211
-208.450	-200.000	-0.007	0.353
-207.436	-200.000	-0.004	-0.150
-206.421	-200.000	-0.002	0.249
-205.406	-25.684	0.140	-0.082
-204.392	-99.683	-0.018	-0.005
-203.377	-200.000	0.047	-0.296
-202.363	8.955	0.278	-0.209
-201.348	-2.560	0.278	-0.194
-200.333	21.882	0.074	0.060
-199.319	800.000	0.044	0.136
-198.304	22.236	0.189	-0.154
-197.290	-28.698	0.242	0.139
-196.275	-19.499	-0.114	-0.070
-195.260	-140.768	-0.081	-0.008
-194.246	-200.000	0.047	0.337
-193.231	-62.910	-0.221	-0.091
-192.217	-161.312	0.090	-0.005
-191.202	9.124	-0.084	-0.063
-190.187	205.891	-0.150	0.233
-189.173	108.458	0.278	0.330
-188.158	9.823	0.125	0.095
-187.144	6.436	0.284	-0.210
-186.129	-83.655	-0.263	-0.084
-185.114	-200.000	0.025	0.201
-184.100	-14.505	0.266	0.171
-183.085	7.450	0.219	-0.163
-182.071	91.287	-0.184	-0.206
-181.056	-200.000	-0.077	0.422
-180.042	-126.974	0.249	-0.036
-179.027	65.318	-0.280	-0.282
-178.012	-155.699	0.054	-0.003
-176.998	46.240	0.168	0.155
-175.983	183.358	-0.144	-0.211
-174.969	800.000	-0.134	0.406
-173.954	-200.000	0.020	0.112
-172.939	218.624	0.107	0.171
-171.925	35.554	0.129	0.112
-170.910	70.493	0.188	0.194
-169.896	496.901	-0.094	0.216
-168.881	312.425	-0.116	0.218
-167.866	-200.000	0.018	0.210
-166.852	76.046	0.182	0.192
-165.837	-200.000	0.022	-0.196
-164.823	137.231	0.067	0.087
-163.808	-200.000	0.013	-0.295
-162.793	-124.899	0.295	-0.045
-161.779	-200.000	0.082	-0.402
-160.764	-200.000	0.031	0.228
-159.750	-200.000	-0.008	-0.179
-158.735	-2.864	0.091	0.063
-157.720	-47.945	-0.111	-0.053
-156.706	-107.891	-0.226	-0.049
-155.691	444.971	0.060	-0.132
-154.677	-86.889	0.024	0.007
-153.662	-106.716	-0.361	-0.080
-152.647	209.488	-0.113	-0.176
-151.633	28.644	-0.064	0.054
-150.618	114.776	0.032	-0.038
-149.604	800.000	0.067	-0.221
-148.589	-200.000	-0.002	-0.104
-147.574	-141.199	-0.126	-0.013
-146.560	-200.000	0.008	-0.110
-145.545	138.180	0.287	-0.374
-144.531	162.168	-0.149	0.208
-143.516	177.199	-0.017	0.024
-142.502	-83.598	-0.364	-0.116
-141.487	102.825	-0.055	0.063
-140.472	-200.000	0.011	0.051
-139.458	374.016	-0.093	0.188
-138.443	-66.911	0.168	-0.066
-137.429	-200.000	-0.005	0.439
-136.414	-76.776	-0.046	0.016
-135.399	694.985	-0.184	-0.480
-134.385	187.806	0.091	-0.136
-133.370	310.698	0.150	-0.280
-132.356	-200.000	0.004	-0.145
-131.341	-200.000	0.020	-0.297
-130.326	-200.000	0.030	0.135
-129.312	-72.295	0.394	0.145
-128.297	-148.216	-0.145	0.012
-127.283	135.000	0.148	0.191
-126.268	-200.000	-0.078	-0.448
-125.253	-30.393	-0.356	0.201
-124.239	-5.665	-0.151	-0.103
-123.224	81.305	0.215	0.231
-122.210	132.553	0.080	0.102
