DTS Sentinel unit serial number:	SN413079Multiplexer serial number:	ORYXHardware model number:	OX4-SRSoftware version number:	ORYX F/W v4.00 Oryx Data Collector v3.7.2.0data status	okinstallation	princeton_trtdifferential loss correction	single-endedforward channel	channel 2reverse channel	N/Adate	2019/09/17time	11:11:35forward acquisition time	60.00reverse acquisition time	0.00gamma	496.2192k internal	0.2323k external	0.2323temperature offset calibration	0.9979default loss term (dB/km)	0.3790temperature slope calibration	1.0000multiplexer offset coefficient	1.0000multiplexer slope coefficient	1.0000fibre end	0.00T internal ref (°C)	30.44T ext. ref 1 (°C)	0.25T ext. ref 2 (°C)	26.11length (m)	temperature (°C)	Stokes	anti-Stokes-747.200	-200.000	0.027	0.188
-746.185	98.044	0.255	0.297
-745.171	-67.237	0.118	0.047
-744.156	-200.000	-0.029	0.252
-743.142	537.877	0.125	-0.300
-742.127	-200.000	-0.012	0.400
-741.112	-56.586	-0.066	0.030
-740.098	-179.897	0.160	-0.003
-739.083	249.227	0.142	0.242
-738.069	-200.000	-0.017	0.192
-737.054	-61.428	0.204	0.087
-736.039	-152.069	-0.199	-0.015
-735.025	800.000	-0.069	-0.194
-734.010	119.645	0.064	0.080
-732.996	331.218	-0.150	0.292
-731.981	-200.000	0.061	-0.505
-730.966	9.075	0.168	0.128
-729.952	476.600	0.130	-0.297
-728.937	-200.000	-0.019	-0.371
-727.923	-63.431	0.039	0.016
-726.908	-147.376	0.392	0.034
-725.894	-28.689	-0.080	-0.046
-724.879	-125.669	-0.341	0.052
-723.864	234.194	0.041	-0.069
-722.850	-22.799	-0.304	-0.185
-721.835	800.000	0.022	-0.077
-720.821	800.000	-0.028	-0.120
-719.806	-32.223	-0.188	0.106
-718.791	-113.887	0.228	-0.045
-717.777	78.148	-0.094	-0.101
-716.762	-200.000	0.007	-0.111
-715.748	-200.000	-0.039	-0.331
-714.733	800.000	0.080	-0.234
-713.718	-61.144	-0.279	-0.119
-712.704	-115.921	-0.254	-0.048
-711.689	-200.000	0.023	-0.157
-710.675	559.300	-0.266	-0.649
-709.660	59.182	0.072	0.071
-708.645	-2.877	0.131	0.092
-707.631	-18.219	0.105	0.067
-706.616	107.740	-0.122	-0.147
-705.602	-154.126	0.201	-0.014
-704.587	272.562	0.126	0.224
-703.572	-41.564	-0.129	-0.067
-702.558	800.000	-0.036	0.144
-701.543	263.940	0.152	0.267
-700.529	800.000	0.095	0.303
-699.514	800.000	0.048	0.174
-698.499	8.412	0.236	-0.179
-697.485	3.480	0.137	0.101
-696.470	-116.626	-0.058	-0.011
-695.456	-17.469	-0.161	0.102
-694.441	267.009	0.091	0.160
-693.426	26.560	0.122	0.103
-692.412	-200.000	-0.064	0.475
-691.397	143.896	-0.026	0.035
-690.383	165.316	-0.128	0.182
-689.368	-200.000	0.015	0.106
-688.354	-73.343	-0.223	0.082
-687.339	19.044	-0.020	-0.017
-686.324	-77.101	-0.181	-0.064
-685.310	-200.000	0.010	0.185
-684.295	9.411	0.141	0.108
-683.281	135.673	-0.129	-0.169
-682.266	-90.475	0.175	0.051
-681.251	5.958	0.291	0.217
-680.237	46.023	0.197	-0.184
-679.222	-125.337	0.137	-0.021
-678.208	3.199	0.218	0.160
-677.193	642.484	-0.073	-0.186
-676.178	-41.694	0.250	0.129
-675.164	-200.000	0.017	0.093
-674.149	39.219	0.262	-0.236
-673.135	-74.039	-0.200	-0.073
-672.120	-27.216	0.166	-0.097
-671.105	-200.000	0.001	0.022
-670.091	-80.456	-0.174	0.059
-669.076	-23.529	0.093	-0.056
-668.062	-119.355	-0.156	-0.027
-667.047	-87.727	-0.198	0.060
-666.032	28.636	0.239	-0.204
-665.018	109.163	-0.133	0.160
-664.003	107.242	-0.197	0.235
-662.989	-200.000	-0.015	0.144
-661.974	-200.000	0.004	0.089
-660.959	-120.081	-0.472	0.081
-659.945	-140.058	0.108	0.011
-658.930	-9.825	-0.258	0.173
-657.916	-161.752	0.106	-0.005
-656.901	309.170	0.068	0.128
-655.886	-105.462	-0.334	-0.076
-654.872	12.566	-0.327	-0.254
-653.857	-104.245	-0.238	-0.056
-652.843	524.487	-0.056	0.132
-651.828	309.252	0.036	0.067
-650.814	-64.656	0.103	-0.042
-649.799	375.414	-0.034	-0.070
-648.784	800.000	0.021	0.082
-647.770	-200.000	0.006	0.030
-646.755	-200.000	0.008	-0.064
-645.741	16.583	-0.192	-0.153
-644.726	109.813	-0.261	0.315
-643.711	-55.486	-0.290	0.131
-642.697	-49.830	0.086	0.041
-641.682	-200.000	0.011	-0.192
-640.668	-200.000	-0.067	-0.316
-639.653	-59.036	-0.077	0.033
-638.638	-169.482	-0.159	-0.006
-637.624	231.877	-0.150	-0.247
-636.609	-23.332	-0.179	-0.108
-635.595	-200.000	0.002	0.066
-634.580	-53.856	-0.287	0.131
-633.565	55.049	-0.151	0.147
-632.551	71.817	0.057	0.060
-631.536	7.442	0.129	0.097
-630.522	61.310	0.292	-0.291
-629.507	-12.662	0.275	-0.180
-628.492	-3.644	-0.218	0.152
-627.478	-200.000	0.046	-0.347
-626.463	800.000	-0.039	-0.143
-625.449	9.910	0.135	0.103
-624.434	-8.008	-0.194	-0.131
-623.419	355.962	0.149	0.297
-622.405	0.522	-0.201	0.144
-621.390	344.926	0.027	0.053
-620.376	-152.274	-0.223	-0.016
-619.361	-11.665	-0.123	0.081
-618.346	128.838	-0.173	-0.222
-617.332	-122.202	-0.103	0.017
-616.317	-70.677	0.200	-0.076
-615.303	800.000	0.082	-0.281
-614.288	266.938	-0.082	-0.144
-613.273	98.328	0.078	-0.091
-612.259	591.998	0.129	-0.320
-611.244	-55.152	-0.075	-0.034
-610.230	-116.266	-0.193	-0.036
-609.215	-58.269	-0.214	-0.093
-608.201	-15.248	0.128	-0.082
-607.186	-200.000	-0.051	-0.381
-606.171	-2.318	0.189	-0.133
-605.157	-179.850	0.336	-0.007
-604.142	-200.000	0.037	0.360
-603.128	41.079	0.034	0.031
-602.113	-122.182	-0.157	0.026
-601.098	199.832	-0.067	0.103
-600.084	-41.704	0.170	-0.087
-599.069	251.853	-0.184	-0.314
-598.055	-33.105	0.141	-0.078
-597.040	78.064	0.262	-0.280
-596.025	543.458	0.026	-0.061
-595.011	572.913	-0.120	-0.294
-593.996	685.576	-0.013	0.035
-592.982	-70.418	-0.319	-0.121
-591.967	49.246	0.154	0.146
-590.952	88.342	-0.128	-0.143
-589.938	22.079	0.317	-0.260
-588.923	-4.849	0.250	-0.173
-587.909	24.232	-0.211	-0.175
-586.894	-200.000	0.014	-0.201
-585.879	271.212	-0.160	-0.282
-584.865	-200.000	-0.035	-0.290
-583.850	224.721	-0.111	-0.180
-582.836	-200.000	-0.005	0.267
-581.821	177.991	0.085	-0.124
-580.806	-7.455	0.139	-0.094
-579.792	800.000	-0.035	0.122
-578.777	-200.000	0.032	0.303
-577.763	-46.491	0.158	-0.078
-576.748	-200.000	0.013	-0.200
-575.733	-113.753	0.066	0.013
-574.719	447.591	-0.118	-0.259
-573.704	-125.685	0.366	-0.056
-572.690	496.736	-0.068	-0.156
-571.675	183.161	-0.141	0.209
-570.661	-134.710	0.164	0.020
-569.646	-165.030	-0.068	-0.003
-568.631	108.035	-0.045	0.053
-567.617	-74.067	-0.286	0.104
-566.602	330.626	0.064	-0.123
-565.588	-37.293	-0.244	0.131
-564.573	144.814	0.142	-0.191
-563.558	-148.104	-0.190	-0.016
-562.544	800.000	0.065	-0.219
-561.529	387.509	0.104	0.216
-560.515	680.099	-0.092	-0.239
-559.500	-27.381	0.182	0.106
-558.485	-200.000	-0.172	0.000
-557.471	-91.295	0.120	-0.034
-556.456	-200.000	-0.018	0.086
-555.442	25.497	0.339	-0.283
-554.427	800.000	-0.051	-0.155
-553.412	-95.241	-0.070	-0.019
-552.398	105.291	0.155	0.183
-551.383	-96.569	-0.211	0.056
-550.369	-200.000	0.004	-0.294
-549.354	172.677	0.090	0.129
-548.339	-136.843	-0.275	-0.032
-547.325	240.227	0.149	-0.248
-546.310	-51.291	-0.246	0.116
-545.296	-105.102	0.058	-0.013
-544.281	135.968	0.077	-0.101
-543.266	-71.873	0.139	0.052
-542.252	-54.782	-0.184	-0.083
-541.237	-106.609	-0.328	-0.073
-540.223	-200.000	-0.011	-0.058
-539.208	784.445	-0.101	-0.277
-538.193	-61.378	0.206	-0.087
-537.179	114.183	0.196	0.239
-536.164	102.383	0.137	-0.161
-535.150	60.979	-0.183	-0.182
-534.135	-200.000	0.026	-0.138
-533.121	39.649	-0.190	0.170
-532.106	96.110	-0.235	0.268
-531.091	800.000	-0.114	0.386
-530.077	-85.175	-0.209	-0.065
-529.062	-68.531	-0.150	-0.058
-528.048	-200.000	0.023	-0.206
-527.033	-200.000	0.049	0.392
-526.018	800.000	0.058	-0.161
-525.004	0.833	-0.074	0.053
-523.989	-89.367	0.190	0.056
-522.975	233.956	0.137	0.227
-521.960	800.000	-0.158	0.502
-520.945	-66.701	-0.082	-0.033
-519.931	-99.767	-0.182	0.046
-518.916	179.971	0.124	0.182
-517.902	606.451	-0.113	0.283
-516.887	-200.000	0.022	-0.157
-515.872	-12.308	-0.095	-0.062
-514.858	35.960	0.099	-0.087
-513.843	-123.405	-0.454	0.072
-512.829	-200.000	-0.012	0.082
-511.814	-200.000	-0.036	-0.328
-510.799	800.000	0.074	-0.208
-509.785	-200.000	-0.005	-0.070
-508.770	-100.887	0.051	-0.013
-507.756	554.912	0.125	0.300
-506.741	-103.069	-0.161	0.038
-505.726	-90.931	0.134	-0.039
-504.712	150.929	0.190	-0.258
-503.697	-184.370	0.098	-0.002
-502.683	16.870	-0.216	-0.171
-501.668	-62.852	-0.078	-0.032
-500.653	744.430	-0.133	-0.357
-499.639	-200.000	-0.038	0.259
-498.624	-83.210	-0.244	-0.079
-497.610	-200.000	-0.004	-0.039
-496.595	-128.333	0.138	0.020
-495.581	656.805	-0.143	0.368
-494.566	473.097	-0.134	-0.303
-493.551	-200.000	0.013	-0.070
-492.537	-127.379	-0.294	0.043
-491.522	800.000	0.080	0.333
-490.508	-200.000	-0.047	0.277
-489.493	148.889	-0.090	0.122
-488.478	-93.222	-0.176	0.049
-487.464	-183.281	0.163	0.003
-486.449	800.000	0.045	-0.173
-485.435	-200.000	-0.005	-0.349
-484.420	753.702	0.047	0.126
-483.405	-200.000	-0.011	0.264
-482.391	-30.238	-0.166	-0.094
-481.376	-200.000	0.022	0.310
-480.362	66.639	0.359	-0.365
-479.347	-142.637	-0.242	-0.024
-478.332	468.033	-0.102	0.229
-477.318	398.858	0.081	-0.170
-476.303	44.174	0.069	0.063
-475.289	110.901	-0.259	-0.312
-474.274	-140.558	0.107	0.011
-473.259	-44.571	0.275	0.137
-472.245	-200.000	-0.046	0.259
-471.230	800.000	0.082	0.235
-470.216	-200.000	0.000	-0.275
-469.201	-101.964	0.140	-0.034
-468.186	99.567	0.062	-0.072
-467.172	-200.000	0.000	-0.216
-466.157	-107.510	-0.181	0.040
-465.143	-74.373	0.078	0.028
-464.128	-115.752	-0.203	0.038
-463.113	-137.060	-0.084	-0.010
-462.099	130.970	0.194	0.249
-461.084	258.693	-0.074	0.128
-460.070	439.164	-0.100	0.219
-459.055	-37.177	0.123	0.066
-458.040	800.000	-0.060	0.242
-457.026	14.696	0.171	-0.134
-456.011	71.960	0.246	-0.255
-454.997	-37.197	0.317	0.169
-453.982	-200.000	0.079	0.476
-452.968	-200.000	0.013	0.300
-451.953	-104.800	0.321	-0.074
-450.938	-152.725	0.244	-0.017
-449.924	145.137	0.072	0.096
-448.909	-200.000	0.022	0.255
-447.895	378.298	-0.063	0.129
-446.880	-120.912	-0.336	0.056
-445.865	537.703	0.096	0.227
-444.851	109.117	-0.130	0.155
-443.836	-200.000	-0.003	-0.302
-442.822	16.580	-0.201	-0.158
-441.807	-64.828	0.120	-0.048
-440.792	-75.299	-0.176	-0.063
-439.778	-170.082	-0.273	-0.010
-438.763	92.339	0.189	-0.213
-437.749	-26.183	-0.118	-0.069
-436.734	-196.328	0.178	0.001
-435.719	-158.068	0.229	-0.013
-434.705	-136.769	0.153	-0.018
-433.690	-200.000	-0.005	0.040
-432.676	159.793	-0.115	0.160
-431.661	22.860	-0.198	-0.162
-430.646	-135.900	0.077	0.009
-429.632	-200.000	0.017	-0.264
-428.617	650.682	-0.095	0.241
-427.603	258.505	-0.031	-0.054
-426.588	800.000	-0.056	0.223
-425.573	5.377	-0.143	-0.105
-424.559	-172.537	0.291	-0.009
-423.544	-88.907	-0.203	-0.060
-422.530	-200.000	-0.136	0.001
-421.515	313.089	-0.131	0.245
-420.500	351.553	0.091	0.181
-419.486	-200.000	-0.008	0.160
-418.471	-200.000	-0.013	-0.151
-417.457	330.611	0.044	0.085
-416.442	-188.563	0.081	-0.001
-415.428	-91.155	0.202	-0.058
-414.413	566.954	-0.101	-0.245
-413.398	800.000	-0.070	0.288
-412.384	-200.000	-0.036	-0.246
-411.369	537.204	0.053	-0.124
-410.355	129.095	0.100	0.127
-409.340	-106.372	0.423	-0.094
-408.325	-200.000	0.085	0.550
-407.311	-200.000	-0.009	0.156
-406.296	-78.325	-0.064	0.022
-405.282	-24.092	0.192	-0.114
-404.267	-25.140	0.262	-0.155
-403.252	-200.000	-0.007	-0.214
-402.238	-18.044	0.021	0.013
-401.223	-109.844	0.084	-0.018
-400.209	-178.091	-0.165	0.004
-399.194	178.092	-0.103	0.150
-398.179	-200.000	0.032	0.151
-397.165	-200.000	0.002	0.100
-396.150	-96.290	0.281	-0.074
-395.136	-200.000	-0.046	0.287
-394.121	151.896	-0.057	0.078
-393.106	-46.241	0.177	0.087
-392.092	-200.000	-0.029	0.197
-391.077	-88.186	-0.353	-0.105
-390.063	-200.000	0.009	-0.103
-389.048	13.788	-0.173	0.134
-388.033	-44.958	-0.035	-0.017
-387.019	0.782	-0.246	-0.175
-386.004	-8.030	0.173	-0.116
-384.990	-65.742	0.152	0.061
-383.975	55.171	-0.210	0.202
-382.960	-29.624	0.100	0.057
-381.946	-200.000	-0.016	0.129
-380.931	-200.000	0.003	0.157
-379.917	-181.782	-0.141	0.003
-378.902	-34.885	0.252	-0.137
-377.888	-134.668	0.439	-0.053
-376.873	187.070	0.044	-0.065
-375.858	800.000	-0.082	-0.277
-374.844	-52.735	-0.065	-0.030
-373.829	800.000	0.072	0.232
-372.815	-39.812	-0.250	0.130
-371.800	458.516	-0.053	-0.118
-370.785	-96.320	0.103	-0.027
-369.771	800.000	0.025	-0.108
-368.756	87.396	0.083	-0.091
-367.742	116.205	0.106	0.129
-366.727	-126.887	0.482	-0.071
-365.712	8.491	0.367	-0.275
-364.698	800.000	-0.073	-0.219
-363.683	272.506	0.067	-0.118
-362.669	-60.528	-0.115	-0.049
-361.654	-122.333	-0.193	-0.031
-360.639	-200.000	0.046	0.263
-359.625	26.282	0.244	0.203
-358.610	-79.492	-0.217	-0.073
-357.596	800.000	-0.090	0.389
-356.581	174.049	0.190	0.273
-355.566	254.017	0.214	-0.363
-354.552	86.309	0.200	-0.219
-353.537	-124.224	-0.313	0.049
-352.523	-200.000	0.009	0.160
-351.508	-132.303	-0.243	-0.031
-350.493	306.257	-0.202	-0.373
-349.479	-106.337	-0.129	0.029
-348.464	-200.000	0.014	0.214
-347.450	-15.620	-0.145	-0.092
-346.435	-113.315	0.167	0.033
-345.420	108.831	-0.187	0.222
-344.406	24.760	0.188	-0.155
-343.391	-110.277	0.044	-0.009
-342.377	-81.829	0.382	-0.124
-341.362	-200.000	0.040	-0.291
-340.348	-200.000	-0.016	0.134
-339.333	-200.000	0.027	-0.230
-338.318	8.729	-0.179	-0.134
-337.304	-95.018	-0.247	0.066
-336.289	-200.000	-0.026	-0.171
-335.275	141.250	-0.122	-0.161
-334.260	57.558	0.259	0.252
-333.245	2.086	-0.158	0.113
-332.231	-200.000	0.066	-0.310
-331.216	782.064	-0.098	0.267
-330.202	800.000	-0.055	0.212
-329.187	54.881	0.046	-0.044
-328.172	30.084	-0.290	-0.246
-327.158	-105.026	0.081	-0.019
-326.143	-98.754	-0.134	-0.034
-325.129	3.978	-0.241	-0.175
-324.114	48.517	0.117	-0.109
-323.099	-200.000	0.066	-0.428
-322.085	-54.031	0.089	-0.040
-321.070	-30.248	0.120	-0.068
-320.056	-153.384	0.205	-0.014
-319.041	-11.774	0.085	0.055
-318.026	-31.098	0.146	-0.082
-317.012	-31.777	-0.236	0.131
-315.997	-33.752	-0.228	-0.125
-314.983	-200.000	0.002	-0.057
-313.968	-200.000	-0.011	0.273
-312.953	-145.441	-0.062	0.006
-311.939	78.142	0.220	-0.233
-310.924	-45.070	-0.352	-0.174
-309.910	-129.446	-0.178	0.025
-308.895	176.509	-0.106	0.154
-307.880	-200.000	-0.000	-0.170
-306.866	-200.000	0.044	-0.255
-305.851	70.249	-0.255	-0.261
-304.837	186.523	-0.063	0.093
-303.822	-157.269	0.197	0.012
-302.807	140.242	-0.277	0.363
-301.793	639.248	-0.053	-0.133
-300.778	-200.000	-0.011	-0.072
-299.764	107.124	0.182	0.214
-298.749	800.000	0.098	0.297
-297.735	464.948	-0.035	0.078
-296.720	134.435	0.192	0.247
-295.705	60.513	0.228	-0.224
-294.691	-0.183	-0.172	-0.121
-293.676	800.000	-0.060	-0.192
-292.662	-79.906	-0.077	0.026
-291.647	-79.378	-0.222	0.075
-290.632	206.857	-0.136	-0.210
-289.618	-200.000	-0.037	-0.168
-288.603	-34.265	0.238	-0.130
-287.589	800.000	0.061	0.186
-286.574	-10.771	0.353	-0.231
-285.559	-200.000	0.021	0.253
-284.545	122.514	0.151	0.187
-283.530	-200.000	0.030	0.209
-282.516	-127.609	0.131	0.019
-281.501	-18.974	0.165	0.102
-280.486	-114.832	0.130	-0.025
-279.472	-17.867	-0.225	-0.140
-278.457	-39.244	-0.122	-0.063
-277.443	-200.000	0.017	-0.162
-276.428	214.365	0.062	0.098
-275.413	-200.000	0.005	-0.079
-274.399	-147.974	0.142	0.012
-273.384	234.189	-0.039	-0.064
-272.370	-114.188	-0.315	0.060
-271.355	143.850	0.069	0.092
-270.340	-61.950	-0.171	-0.071
-269.326	678.880	-0.102	0.263
-268.311	-34.981	0.184	0.099
-267.297	334.844	0.055	0.106
-266.282	-151.461	0.287	0.021
-265.267	-112.693	0.134	-0.026
-264.253	-200.000	-0.012	0.142
-263.238	51.634	-0.391	0.369
-262.224	37.072	-0.183	-0.160
-261.209	-58.213	0.098	0.043
-260.195	349.384	0.119	0.233
-259.180	272.194	-0.106	-0.185
-258.165	20.696	-0.325	-0.261
-257.151	-137.525	0.253	0.028
-256.136	-70.365	0.287	0.108
-255.122	322.066	0.096	-0.181
-254.107	72.234	-0.101	0.105
-253.092	-123.528	0.109	0.017
-252.078	-129.609	0.088	0.012
-251.063	-4.799	0.132	0.090
-250.049	-77.891	0.203	-0.069
-249.034	34.914	0.090	-0.078
-248.019	4.905	-0.323	0.235
-247.005	211.643	0.224	0.349
-245.990	47.925	0.308	0.285
-244.976	124.578	-0.258	0.321
-243.961	-200.000	0.004	0.098
-242.946	-15.443	-0.177	0.112
-241.932	421.201	0.123	0.261
-240.917	800.000	-0.058	0.222
-239.903	-14.569	0.076	0.049
-238.888	-126.981	0.180	-0.026
-237.873	96.384	-0.262	0.297
-236.859	-131.004	0.319	0.042
-235.844	14.948	0.144	-0.112
-234.830	87.386	0.106	-0.116
-233.815	64.063	0.149	0.149
-232.800	34.288	0.160	0.138
-231.786	-57.244	-0.213	0.093
-230.771	548.209	0.083	0.197
-229.757	-15.943	0.361	-0.228
-228.742	-23.933	-0.130	0.077
-227.727	-169.313	-0.329	-0.012
-226.713	-41.408	0.052	-0.026
-225.698	-200.000	-0.017	-0.222
-224.684	-75.850	-0.242	-0.085
-223.669	-47.237	0.232	0.112
-222.655	100.228	-0.142	-0.163
-221.640	243.243	0.109	-0.180
-220.625	-84.887	0.251	0.078
-219.611	-200.000	-0.079	0.480
-218.596	-154.777	-0.318	0.021
-217.582	12.441	0.182	0.139
-216.567	440.617	-0.190	0.412
-215.552	-96.443	0.304	-0.079
-214.538	800.000	0.026	0.075
-213.523	-200.000	-0.027	0.396
-212.509	86.087	-0.192	0.209
-211.494	310.225	0.061	0.112
-210.479	-200.000	-0.036	-0.165
-209.465	-0.758	-0.265	-0.186
-208.450	636.004	0.030	-0.075
-207.436	-127.928	-0.275	0.039
-206.421	-33.193	0.111	-0.061
-205.406	-65.905	0.107	-0.042
-204.392	149.675	0.133	0.178
-203.377	-200.000	0.027	-0.131
-202.363	-200.000	0.031	0.166
-201.348	-200.000	-0.005	0.070
-200.333	-69.212	-0.189	0.072
-199.319	-200.000	-0.050	0.298
-198.304	800.000	-0.076	0.271
-197.290	-162.681	0.192	-0.009
-196.275	-154.627	0.107	-0.007
-195.260	-47.728	0.232	0.111
-194.246	800.000	0.018	0.061
-193.231	800.000	0.020	0.073
-192.217	286.247	-0.071	-0.127
-191.202	460.572	-0.046	-0.102
-190.187	-200.000	-0.020	0.288
-189.173	540.021	-0.077	-0.181
-188.158	404.872	0.160	-0.334
-187.144	64.808	-0.220	0.219
-186.129	800.000	-0.067	0.230
-185.114	-132.628	0.270	-0.034
-184.100	72.826	0.095	-0.098
-183.085	800.000	0.034	-0.115
-182.071	-122.470	0.102	0.016
-181.056	-134.887	-0.143	0.017
-180.042	-76.298	-0.319	-0.111
-179.027	-101.746	0.315	0.075
-178.012	80.684	-0.196	-0.209
-176.998	800.000	0.090	-0.261
-175.983	-74.498	0.214	-0.076
-174.969	-112.428	-0.108	0.021
-173.954	800.000	0.060	-0.168
-172.939	-126.018	0.336	-0.050
-171.925	85.863	0.034	0.036
-170.910	-88.064	0.137	-0.040
-169.896	263.779	0.161	-0.276
-168.881	-100.335	0.056	0.014
-167.866	431.745	0.039	0.083
-166.852	183.809	0.077	-0.112
-165.837	122.923	-0.117	0.145
-164.823	-70.108	0.175	0.066
-163.808	131.718	0.200	-0.254
-162.793	-93.181	-0.192	-0.053
-161.779	139.476	0.099	-0.129
-160.764	488.270	-0.065	-0.147
-159.750	-11.065	0.144	-0.093
-158.735	206.896	-0.132	-0.204
-157.720	82.678	-0.102	0.110
-156.706	197.300	-0.161	0.243
-155.691	732.281	0.066	0.175
-154.677	-200.000	0.004	0.129
-153.662	36.095	-0.250	0.217
-152.647	109.122	-0.178	0.210
-151.633	15.731	-0.217	-0.169
-150.618	800.000	0.046	0.191
-149.604	-200.000	-0.004	-0.167
-148.589	-88.874	-0.207	0.061
-147.574	800.000	-0.035	0.122
-146.560	32.040	0.092	0.079
-145.545	-47.201	0.331	0.159
-144.531	53.749	-0.081	-0.076
-143.516	-146.960	-0.383	0.032
-142.502	19.750	0.193	0.153
-141.487	26.059	0.065	-0.054
-140.472	-106.491	0.039	0.009
-139.458	74.556	0.225	-0.233
-138.443	-200.000	-0.017	0.088
-137.429	-49.680	0.216	-0.101
-136.414	800.000	-0.111	0.382
-135.399	257.742	-0.121	0.205
-134.385	-177.484	0.343	-0.008
-133.370	110.882	0.024	-0.029
-132.356	-73.046	-0.666	0.241
-131.341	800.000	-0.105	-0.354
-130.326	-91.584	0.152	0.043
-129.312	800.000	-0.127	0.374
-128.297	-29.469	0.185	-0.104
-127.283	-99.813	-0.160	-0.039
-126.268	800.000	0.058	-0.227
-125.253	-129.094	-0.172	0.024
-124.239	-200.000	-0.001	0.103
-123.224	191.191	0.081	0.119
-122.210	8.304	-0.184	-0.136
-121.195	-33.443	-0.106	-0.058
