DTS Sentinel unit serial number:	SN413079Multiplexer serial number:	ORYXHardware model number:	OX4-SRSoftware version number:	ORYX F/W v4.00 Oryx Data Collector v3.7.2.0data status	okinstallation	princeton_trtdifferential loss correction	single-endedforward channel	channel 2reverse channel	N/Adate	2019/09/14time	06:35:35forward acquisition time	60.00reverse acquisition time	0.00gamma	496.2192k internal	0.2337k external	0.2337temperature offset calibration	1.0134default loss term (dB/km)	0.3790temperature slope calibration	1.0000multiplexer offset coefficient	1.0000multiplexer slope coefficient	1.0000fibre end	0.00T internal ref (°C)	26.39T ext. ref 1 (°C)	3.41T ext. ref 2 (°C)	20.39length (m)	temperature (°C)	Stokes	anti-Stokes-747.200	90.820	0.344	-0.387
-746.185	-189.581	-0.182	-0.002
-745.171	44.774	-0.201	0.186
-744.156	170.950	-0.073	0.105
-743.142	-200.000	-0.040	0.287
-742.127	244.633	-0.189	0.318
-741.112	800.000	0.097	-0.370
-740.098	800.000	-0.036	0.139
-739.083	770.426	0.013	-0.037
-738.069	149.455	-0.286	0.389
-737.054	10.906	-0.069	0.053
-736.039	-78.068	-0.098	0.034
-735.025	-77.089	0.322	-0.113
-734.010	-200.000	-0.036	-0.363
-732.996	25.104	-0.218	-0.182
-731.981	-46.094	-0.165	-0.081
-730.966	33.456	-0.100	-0.087
-729.952	-19.092	-0.146	-0.091
-728.937	-186.398	-0.211	0.003
-727.923	-41.007	-0.122	0.063
-726.908	-200.000	-0.055	0.271
-725.894	-38.998	0.416	0.220
-724.879	-88.400	-0.041	-0.012
-723.864	-104.464	-0.222	0.051
-722.850	64.954	-0.163	-0.166
-721.835	-112.260	0.113	0.023
-720.821	96.216	0.260	-0.298
-719.806	-179.296	-0.206	0.005
-718.791	-83.213	-0.094	0.030
-717.777	-130.473	-0.122	0.017
-716.762	55.902	-0.285	-0.277
-715.748	-200.000	0.031	-0.198
-714.733	-22.579	-0.221	-0.134
-713.718	800.000	0.054	-0.205
-712.704	-128.125	-0.244	0.035
-711.689	32.814	-0.348	0.302
-710.675	-200.000	-0.055	0.380
-709.660	214.713	-0.089	0.141
-708.645	-200.000	-0.017	-0.097
-707.631	-145.623	0.155	0.014
-706.616	800.000	0.010	0.040
-705.602	-81.115	0.165	0.055
-704.587	23.569	-0.404	0.333
-703.572	-110.845	0.374	-0.077
-702.558	143.896	0.135	-0.180
-701.543	-101.083	-0.078	-0.019
-700.529	-160.376	0.307	0.017
-699.514	800.000	-0.068	0.244
-698.499	240.675	0.113	-0.189
-697.485	-200.000	0.004	-0.058
-696.470	-84.145	0.163	-0.052
-695.456	7.488	0.202	0.151
-694.441	64.533	0.242	-0.244
-693.426	-200.000	-0.078	-0.422
-692.412	16.258	-0.107	-0.084
-691.397	142.828	-0.109	-0.145
-690.383	-199.624	-0.216	-0.001
-689.368	231.031	-0.098	-0.161
-688.354	63.284	-0.332	-0.333
-687.339	42.221	-0.062	0.056
-686.324	288.622	0.058	-0.105
-685.310	308.246	0.109	-0.204
-684.295	-9.264	0.065	-0.044
-683.281	800.000	-0.107	-0.327
-682.266	800.000	0.079	-0.330
-681.251	128.932	0.059	0.076
-680.237	47.122	-0.115	-0.107
-679.222	47.809	0.247	-0.231
-678.208	491.076	-0.055	-0.127
-677.193	-200.000	0.032	-0.291
-676.178	-200.000	0.038	-0.432
-675.164	800.000	0.071	0.279
-674.149	118.718	-0.206	0.255
-673.135	531.810	-0.125	-0.296
-672.120	107.625	0.328	-0.391
-671.105	800.000	0.057	-0.195
-670.091	-200.000	0.013	-0.291
-669.076	-143.310	-0.197	-0.019
-668.062	126.975	-0.310	0.394
-667.047	-68.110	-0.192	0.075
-666.032	-8.451	0.376	0.253
-665.018	-118.008	-0.127	0.023
-664.003	-54.210	-0.278	0.126
-662.989	-147.848	0.148	-0.012
-661.974	-200.000	-0.033	0.156
-660.959	800.000	-0.091	-0.257
-659.945	-35.913	-0.098	0.053
-658.930	-79.730	-0.069	0.023
-657.916	-200.000	0.008	0.093
-656.901	800.000	-0.062	-0.177
-655.886	800.000	-0.046	-0.150
-654.872	1.832	0.113	0.082
-653.857	84.585	-0.222	0.243
-652.843	86.347	-0.277	0.305
-651.828	-200.000	0.053	-0.234
-650.814	55.332	-0.052	0.050
-649.799	391.268	-0.135	0.281
-648.784	416.601	-0.046	-0.098
-647.770	-200.000	0.021	0.264
-646.755	-63.159	0.187	-0.077
-645.741	-91.337	-0.240	0.069
-644.726	-20.596	0.224	-0.138
-643.711	-200.000	-0.001	0.052
-642.697	103.384	-0.043	-0.050
-641.682	-87.164	-0.104	-0.032
-640.668	319.092	-0.152	-0.287
-639.653	157.531	-0.150	0.208
-638.638	-72.266	0.285	-0.106
-637.624	146.460	0.111	-0.149
-636.609	800.000	0.035	-0.142
-635.595	-171.946	-0.244	0.008
-634.580	0.561	-0.228	-0.163
-633.565	-200.000	-0.022	0.377
-632.551	-26.438	-0.478	0.280
-631.536	147.405	0.239	-0.322
-630.522	800.000	0.012	-0.033
-629.507	-83.749	-0.251	-0.080
-628.492	-200.000	-0.014	-0.162
-627.478	-200.000	-0.045	-0.429
-626.463	-65.542	0.125	-0.050
-625.449	-200.000	-0.020	0.280
-624.434	142.281	-0.212	-0.281
-623.419	800.000	-0.091	-0.304
-622.405	-67.224	-0.266	-0.105
-621.390	-81.843	0.159	-0.052
-620.376	-100.647	-0.332	0.082
-619.361	58.940	0.117	-0.115
-618.346	-103.865	0.301	-0.070
-617.332	-88.747	-0.172	-0.051
-616.317	-200.000	-0.004	0.024
-615.303	53.208	0.075	0.072
-614.288	515.859	0.108	-0.252
-613.273	-200.000	0.030	0.432
-612.259	-200.000	0.015	0.130
-611.244	-144.024	0.175	-0.016
-610.230	-200.000	0.034	0.168
-609.215	-14.302	-0.094	0.060
-608.201	-110.986	0.135	-0.028
-607.186	-149.773	0.351	0.028
-606.171	-3.150	0.244	-0.170
-605.157	652.846	0.085	-0.217
-604.142	-84.457	0.094	0.030
-603.128	411.116	-0.202	0.428
-602.113	430.917	0.063	0.136
-601.098	164.867	0.100	0.142
-600.084	76.094	0.181	-0.191
-599.069	282.052	0.034	0.061
-598.055	437.709	0.119	0.259
-597.040	19.207	-0.142	-0.114
-596.025	-100.802	-0.453	0.111
-595.011	517.229	-0.144	0.337
-593.996	-30.184	0.047	0.027
-592.982	785.232	0.135	-0.370
-591.967	164.091	-0.051	-0.072
-590.952	322.578	-0.078	0.149
-589.938	-131.965	-0.187	-0.024
-588.923	-200.000	0.042	0.327
-587.909	85.990	0.175	-0.192
-586.894	55.836	0.186	-0.180
-585.879	65.560	0.007	-0.007
-584.865	56.117	0.085	0.082
-583.850	274.156	0.098	0.172
-582.836	800.000	-0.088	-0.300
-581.821	-23.913	0.133	0.079
-580.806	-44.349	-0.073	-0.036
-579.792	-200.000	-0.005	0.039
-578.777	122.411	0.150	-0.187
-577.763	68.063	-0.033	0.033
-576.748	-34.417	0.195	-0.106
-575.733	-200.000	0.022	-0.130
-574.719	367.279	0.241	-0.485
-573.704	-200.000	0.006	0.159
-572.690	154.566	0.146	-0.200
-571.675	-82.486	0.267	0.086
-570.661	-80.262	-0.030	-0.010
-569.646	-35.902	-0.288	0.156
-568.631	183.563	-0.054	-0.080
-567.617	-98.577	-0.159	-0.041
-566.602	21.771	-0.191	-0.155
-565.588	-3.953	0.175	-0.121
-564.573	-200.000	-0.020	0.247
-563.558	170.849	0.151	0.215
-562.544	-184.285	0.068	0.001
-561.529	30.714	0.127	0.108
-560.515	-62.459	0.128	-0.053
-559.500	-200.000	0.219	0.000
-558.485	228.082	0.052	0.084
-557.471	67.164	-0.239	0.243
-556.456	-81.741	0.217	-0.071
-555.442	51.273	-0.001	0.001
-554.427	2.410	0.249	-0.180
-553.412	499.311	-0.079	-0.181
-552.398	409.934	-0.041	0.086
-551.383	-75.065	0.337	-0.120
-550.369	-123.820	-0.176	-0.028
-549.354	-2.409	0.011	0.008
-548.339	288.754	0.130	-0.234
-547.325	-114.724	0.246	0.047
-546.310	-178.567	-0.261	-0.006
-545.296	195.673	-0.088	0.133
-544.281	175.627	0.075	-0.109
-543.266	246.724	0.095	0.159
-542.252	162.549	0.165	0.230
-541.237	-5.156	0.114	-0.078
-540.223	175.085	0.156	0.225
-539.208	-130.000	-0.012	0.002
-538.193	-21.337	-0.140	0.085
-537.179	800.000	0.066	0.274
-536.164	-42.007	0.140	0.071
-535.150	77.051	-0.080	-0.084
-534.135	800.000	-0.021	-0.061
-533.121	-200.000	0.002	0.141
-532.106	-200.000	0.018	0.150
-531.091	152.655	0.092	-0.125
-530.077	160.604	0.109	0.151
-529.062	21.451	-0.224	0.181
-528.048	-181.403	0.383	0.007
-527.033	-119.892	-0.234	0.040
-526.018	800.000	0.082	-0.277
-525.004	-137.296	-0.170	0.019
-523.989	-107.074	-0.320	0.070
-522.975	136.096	-0.188	0.244
-521.960	12.913	0.167	-0.129
-520.945	-115.362	0.303	0.057
-519.931	800.000	-0.027	-0.109
-518.916	800.000	0.043	-0.154
-517.902	-200.000	-0.068	0.324
-516.887	-176.743	0.127	0.003
-515.872	339.792	-0.028	-0.055
-514.858	-200.000	0.020	-0.180
-513.843	-200.000	0.008	-0.084
-512.829	227.188	-0.104	0.167
-511.814	44.972	-0.120	-0.110
-510.799	-80.292	0.200	-0.067
-509.785	362.252	-0.048	-0.097
-508.770	-111.456	-0.268	-0.054
-507.756	800.000	-0.045	-0.153
-506.741	-28.719	-0.361	-0.206
-505.726	0.970	0.189	-0.134
-504.712	11.670	-0.172	0.131
-503.697	215.820	0.058	-0.092
-502.683	-14.724	0.057	0.036
-501.668	800.000	0.036	-0.131
-500.653	-30.063	0.320	-0.181
-499.639	67.091	0.268	-0.272
-498.624	254.497	0.182	0.309
-497.610	396.614	-0.054	0.111
-496.595	610.886	0.152	-0.378
-495.581	800.000	0.028	0.121
-494.566	482.971	-0.074	0.168
-493.551	100.191	-0.261	0.301
-492.537	-133.228	-0.183	-0.023
-491.522	-200.000	0.106	0.619
-490.508	-200.000	-0.085	0.581
-489.493	-22.905	-0.260	-0.156
-488.478	99.655	-0.248	-0.286
-487.464	11.920	0.147	0.112
-486.449	800.000	-0.060	0.255
-485.435	-200.000	-0.028	-0.127
-484.420	89.574	-0.230	0.255
-483.405	-200.000	0.074	-0.459
-482.391	-87.577	0.096	-0.029
-481.376	210.004	0.109	0.170
-480.362	79.387	0.184	0.196
-479.347	-16.444	-0.398	-0.251
-478.332	-80.422	-0.191	0.063
-477.318	-200.000	0.011	-0.107
-476.303	279.734	-0.047	-0.083
-475.289	-56.399	-0.207	-0.091
-474.274	-5.897	-0.022	0.015
-473.259	-1.049	-0.201	-0.141
-472.245	-200.000	0.011	0.268
-471.230	-101.432	0.112	0.027
-470.216	-46.181	0.318	0.156
-469.201	-57.890	-0.201	-0.087
-468.186	67.124	0.274	-0.277
-467.172	-42.711	-0.081	0.041
-466.157	-1.736	0.198	0.138
-465.143	-200.000	0.033	-0.212
-464.128	-66.035	0.060	-0.024
-463.113	-200.000	-0.022	0.148
-462.099	516.266	0.054	-0.125
-461.084	-178.671	-0.153	0.003
-460.070	-148.671	0.169	-0.014
-459.055	800.000	-0.012	-0.034
-458.040	-200.000	-0.029	-0.171
-457.026	-200.000	-0.059	-0.282
-456.011	87.897	0.121	0.134
-454.997	800.000	0.109	0.301
-453.982	-200.000	-0.000	-0.053
-452.968	-105.924	0.108	-0.024
-451.953	-152.200	0.172	-0.012
-450.938	-200.000	0.006	-0.150
-449.924	-164.993	0.227	0.010
-448.909	19.982	-0.120	-0.096
-447.895	-46.421	0.310	-0.151
-446.880	-26.033	0.044	0.026
-445.865	20.605	0.130	-0.105
-444.851	-17.331	0.196	0.122
-443.836	800.000	-0.075	0.262
-442.822	202.298	0.023	-0.035
-441.807	145.575	-0.101	-0.135
-440.792	-200.000	0.019	-0.151
-439.778	-41.814	0.320	0.163
-438.763	500.949	-0.003	-0.007
-437.749	-73.675	0.088	0.032
-436.734	-200.000	0.037	0.180
-435.719	406.603	-0.003	-0.006
-434.705	-175.207	0.046	-0.001
-433.690	88.989	0.170	0.188
-432.676	-200.000	-0.015	-0.505
-431.661	56.050	0.287	0.276
-430.646	16.831	-0.360	0.282
-429.632	800.000	-0.042	0.171
-428.617	-144.327	0.018	0.002
-427.603	-154.556	-0.127	0.008
-426.588	119.721	-0.093	0.114
-425.573	227.073	-0.144	-0.232
-424.559	800.000	-0.072	-0.226
-423.544	-24.757	-0.059	0.035
-422.530	800.000	-0.026	0.081
-421.515	-200.000	-0.008	-0.084
-420.500	130.246	0.031	-0.040
-419.486	-76.771	-0.275	0.095
-418.471	-76.738	0.358	-0.124
-417.457	-139.972	-0.160	-0.017
-416.442	22.446	-0.259	0.210
-415.428	-25.923	0.183	0.107
-414.413	283.950	0.195	-0.347
-413.398	800.000	-0.063	0.231
-412.384	800.000	0.058	0.166
-411.369	243.591	0.111	-0.185
-410.355	-76.751	0.130	0.045
-409.340	-121.422	0.148	-0.024
-408.325	199.085	0.143	-0.218
-407.311	-178.262	0.209	0.005
-406.296	109.362	-0.163	0.193
-405.282	-110.598	-0.028	-0.006
-404.267	-200.000	-0.276	0.000
-403.252	-6.243	0.228	0.154
-402.238	-79.516	-0.160	0.054
-401.223	-19.442	0.040	0.025
-400.209	-200.000	0.012	-0.127
-399.194	118.724	-0.160	0.196
-398.179	69.512	0.128	0.130
-397.165	-200.000	-0.009	0.141
-396.150	-200.000	0.020	0.192
-395.136	-7.192	0.217	-0.146
-394.121	-200.000	-0.038	0.325
-393.106	-200.000	-0.020	0.320
-392.092	148.971	-0.140	-0.188
-391.077	-166.679	-0.239	-0.010
-390.063	147.578	0.058	-0.077
-389.048	-140.967	-0.537	-0.055
-388.033	12.266	0.088	0.067
-387.019	114.259	0.077	-0.093
-386.004	145.324	0.063	-0.083
-384.990	-200.000	-0.032	0.188
-383.975	-84.584	0.149	-0.046
-382.960	-200.000	0.003	0.184
-381.946	12.726	-0.642	-0.491
-380.931	415.955	0.055	-0.115
-379.917	53.474	0.201	0.191
-378.902	-12.703	-0.185	-0.119
-377.888	-36.629	0.066	0.035
-376.873	257.968	0.076	-0.129
-375.858	-200.000	-0.011	0.182
-374.844	555.232	-0.057	0.136
-373.829	-33.208	0.058	0.032
-372.815	-6.327	-0.215	-0.145
-371.800	-47.082	-0.242	0.117
-370.785	94.965	-0.376	-0.423
-369.771	142.942	-0.044	0.058
-368.756	800.000	-0.143	0.501
-367.742	-200.000	-0.034	0.197
-366.727	-46.994	-0.252	-0.122
-365.712	-200.000	0.030	-0.331
-364.698	23.800	-0.152	0.124
-363.683	81.702	-0.158	0.170
-362.669	106.829	0.238	0.279
-361.654	198.118	-0.042	-0.064
-360.639	127.839	-0.091	0.114
-359.625	-193.356	0.387	-0.003
-358.610	-44.795	0.056	0.028
-357.596	154.279	-0.229	0.311
-356.581	-58.718	0.221	0.095
-355.566	-78.346	0.169	0.057
-354.552	800.000	-0.051	0.164
-353.537	0.415	0.164	0.115
-352.523	51.416	-0.155	-0.146
-351.508	-200.000	-0.030	-0.195
-350.493	800.000	0.024	-0.092
-349.479	800.000	-0.032	0.103
-348.464	-54.493	-0.349	0.156
-347.450	-200.000	0.014	0.582
-346.435	50.175	0.186	0.174
-345.420	13.661	-0.046	-0.035
-344.406	62.225	0.091	-0.089
-343.391	-17.899	0.069	0.043
-342.377	-145.072	-0.061	0.005
-341.362	800.000	0.047	0.185
-340.348	-93.425	0.027	-0.007
-339.333	-200.000	0.026	0.372
-338.318	-160.746	0.200	0.010
-337.304	362.313	-0.113	-0.225
-336.289	-154.845	-0.037	-0.002
-335.275	397.626	0.069	0.142
-334.260	-54.606	0.147	-0.066
-333.245	103.861	0.254	0.295
-332.231	-0.851	-0.197	0.138
-331.216	57.385	-0.096	0.092
-330.202	-105.572	0.152	-0.034
-329.187	-200.000	0.005	0.069
-328.172	-200.000	0.004	-0.326
-327.158	-31.358	-0.272	-0.151
-326.143	-196.102	0.361	0.002
-325.129	257.407	0.133	0.227
-324.114	800.000	-0.090	-0.277
-323.099	-200.000	-0.071	-0.429
-322.085	29.949	-0.095	0.080
-321.070	-40.289	-0.162	-0.083
-320.056	-57.871	-0.308	0.133
-319.041	800.000	-0.032	-0.107
-318.026	-139.120	-0.024	-0.003
-317.012	-38.549	0.214	0.111
-315.997	13.261	-0.399	0.305
-314.983	6.173	-0.254	0.186
-313.968	-200.000	0.030	-0.160
-312.953	6.984	-0.024	0.018
-311.939	-66.635	-0.187	-0.073
-310.924	-113.765	-0.186	-0.036
-309.910	-83.067	0.150	-0.048
-308.895	-145.263	-0.222	-0.020
-307.880	800.000	-0.055	0.196
-306.866	155.217	0.074	-0.101
-305.851	-150.518	-0.170	0.013
-304.837	-115.172	-0.324	0.061
-303.822	-40.184	0.220	-0.113
-302.807	97.376	-0.072	0.081
-301.793	16.406	-0.208	-0.162
-300.778	228.990	0.248	0.399
-299.764	-118.149	0.421	0.074
-298.749	26.271	0.146	0.120
-297.735	132.878	-0.317	-0.404
-296.720	130.085	0.227	-0.287
-295.705	67.711	-0.124	0.125
-294.691	-81.538	-0.333	-0.108
-293.676	118.852	0.172	0.209
-292.662	-21.714	0.114	0.068
-291.647	-14.328	0.137	0.087
-290.632	19.421	-0.158	0.125
-289.618	-49.919	-0.205	-0.096
-288.603	-130.395	0.278	0.037
-287.589	216.186	0.224	0.350
-286.574	-130.574	-0.209	-0.028
-285.559	-92.597	0.088	0.024
-284.545	45.845	-0.092	-0.084
-283.530	-115.280	-0.361	-0.067
-282.516	-94.223	-0.190	0.051
-281.501	223.720	-0.148	-0.236
-280.486	56.643	-0.156	0.150
-279.472	-194.091	0.296	-0.002
-278.457	47.138	-0.104	0.095
-277.443	215.039	0.051	-0.080
-276.428	800.000	-0.063	0.180
-275.413	-200.000	-0.005	-0.133
-274.399	-89.838	-0.239	-0.069
-273.384	-106.013	-0.046	0.010
-272.370	-114.534	-0.154	-0.029
-271.355	196.297	-0.209	-0.314
-270.340	91.336	0.146	-0.162
-269.326	-200.000	0.045	-0.477
-268.311	-200.000	-0.095	-0.485
-267.297	-138.289	-0.162	-0.018
-266.282	-119.645	0.444	0.076
-265.267	88.707	0.043	-0.047
-264.253	-200.000	-0.001	-0.028
-263.238	268.719	-0.124	-0.214
-262.224	-200.000	-0.004	0.103
-261.209	40.405	-0.237	-0.210
-260.195	398.172	0.101	0.208
-259.180	-80.801	0.074	0.024
-258.165	16.910	-0.174	0.136
-257.151	-154.341	-0.076	0.005
-256.136	66.990	-0.328	-0.329
-255.122	350.981	-0.090	-0.175
-254.107	-60.668	-0.292	0.122
-253.092	-135.001	-0.271	0.032
-252.078	-181.485	0.073	-0.001
-251.063	-57.335	-0.472	0.204
-250.049	-50.993	-0.071	-0.033
-249.034	-200.000	0.015	-0.162
-248.019	210.678	0.023	-0.035
-247.005	411.355	0.020	0.043
-245.990	800.000	0.038	0.126
-244.976	432.463	0.039	-0.084
-243.961	-200.000	0.058	0.305
-242.946	627.809	0.034	-0.085
-241.932	-21.163	0.077	-0.047
-240.917	-35.589	0.132	-0.071
-239.903	-157.183	0.458	0.027
-238.888	-9.288	-0.174	0.115
-237.873	800.000	0.012	-0.038
-236.859	318.306	-0.008	0.016
-235.844	294.318	-0.197	0.353
-234.830	-200.000	-0.099	-0.466
-233.815	-200.000	-0.030	-0.227
-232.800	-20.257	-0.212	-0.129
-231.786	-67.494	0.021	0.008
-230.771	-200.000	0.009	0.292
-229.757	98.553	0.211	-0.239
-228.742	-86.150	0.357	-0.108
-227.727	-18.760	0.143	0.088
-226.713	-18.717	0.045	-0.028
-225.698	267.424	-0.088	0.152
-224.684	54.563	0.073	-0.069
-223.669	-180.225	0.226	-0.005
-222.655	800.000	0.070	-0.293
-221.640	39.690	0.194	0.171
-220.625	-45.829	0.416	-0.202
-219.611	-142.729	0.414	-0.040
-218.596	-56.093	-0.352	0.154
-217.582	452.010	-0.072	-0.155
-216.567	159.434	-0.169	-0.231
-215.552	520.252	0.176	-0.406
-214.538	60.040	0.333	0.324
-213.523	13.868	-0.124	0.095
-212.509	-200.000	-0.006	-0.232
-211.494	-77.169	0.130	-0.045
-210.479	254.461	0.095	-0.160
-209.465	-200.000	0.015	-0.131
-208.450	144.078	0.223	-0.293
-207.436	-60.030	-0.260	-0.109
-206.421	-57.565	0.114	-0.049
-205.406	-5.240	-0.075	0.051
-204.392	-64.929	-0.246	0.098
-203.377	800.000	-0.045	-0.154
-202.363	165.981	-0.103	0.144
-201.348	109.474	0.167	-0.196
-200.333	-120.463	-0.342	-0.057
-199.319	-49.942	-0.064	-0.030
-198.304	118.086	-0.195	-0.237
-197.290	-200.000	0.015	-0.084
-196.275	-61.855	-0.046	0.019
-195.260	-105.957	-0.219	-0.048
-194.246	22.595	0.203	0.163
-193.231	47.012	0.148	-0.135
-192.217	-200.000	-0.024	0.223
-191.202	131.855	0.075	-0.094
-190.187	-15.675	0.344	-0.215
-189.173	800.000	-0.077	0.272
-188.158	355.828	-0.111	0.218
-187.144	25.285	-0.217	0.177
-186.129	800.000	0.040	-0.163
-185.114	5.841	-0.066	0.048
-184.100	-9.228	-0.136	0.089
-183.085	-9.412	-0.277	-0.182
-182.071	157.149	-0.222	0.301
-181.056	92.120	0.245	0.271
-180.042	82.909	0.144	-0.153
-179.027	-21.163	-0.170	-0.102
-178.012	198.917	0.132	0.198
-176.998	91.861	0.061	-0.067
-175.983	-97.296	-0.075	0.019
-174.969	800.000	0.062	-0.232
-173.954	-200.000	0.004	0.062
-172.939	-96.588	0.309	-0.080
-171.925	114.553	0.169	0.202
-170.910	-200.000	-0.019	0.189
-169.896	90.518	0.320	0.351
-168.881	-40.208	-0.187	0.096
-167.866	62.420	0.131	-0.128
-166.852	-200.000	-0.028	-0.205
-165.837	40.480	-0.143	-0.126
-164.823	-200.000	0.043	0.459
-163.808	800.000	-0.066	0.188
-162.793	358.147	0.146	-0.287
-161.779	800.000	-0.085	-0.266
-160.764	-55.503	0.097	-0.042
-159.750	-15.706	0.361	-0.226
-158.735	-200.000	-0.017	0.148
-157.720	162.565	-0.177	0.243
-156.706	-6.028	0.314	-0.211
-155.691	-200.000	-0.038	-0.265
-154.677	234.625	0.366	-0.592
-153.662	396.895	-0.079	0.162
-152.647	270.088	-0.248	0.428
-151.633	-14.118	0.268	-0.170
-150.618	29.373	-0.243	-0.202
-149.604	461.638	-0.105	0.229
-148.589	153.002	-0.075	0.101
-147.574	-200.000	0.024	0.339
-146.560	800.000	0.060	0.234
-145.545	676.995	0.134	0.343
-144.531	115.124	-0.236	0.282
-143.516	89.071	0.230	-0.252
-142.502	-200.000	0.060	-0.295
-141.487	486.125	-0.111	-0.248
-140.472	239.219	-0.100	0.163
-139.458	-79.313	0.197	-0.066
-138.443	486.080	0.183	-0.408
-137.429	-111.518	-0.291	0.058
-136.414	173.609	0.167	-0.236
-135.399	49.823	0.071	-0.066
-134.385	800.000	-0.137	0.460
-133.370	334.804	-0.044	-0.084
-132.356	-116.722	-0.141	-0.025
-131.341	-170.430	-0.243	-0.008
-130.326	-200.000	-0.055	0.383
-129.312	-66.496	-0.058	-0.023
-128.297	-200.000	-0.012	0.120
-127.283	-200.000	0.023	-0.168
-126.268	72.024	-0.258	-0.263
-125.253	-200.000	-0.022	0.228
-124.239	586.533	0.081	-0.196
-123.224	50.840	0.219	-0.204
-122.210	-200.000	-0.037	0.165
-121.195	-155.287	-0.275	-0.018
