DTS Sentinel unit serial number:	SN413079Multiplexer serial number:	ORYXHardware model number:	OX4-SRSoftware version number:	ORYX F/W v4.00 Oryx Data Collector v3.7.2.0data status	okinstallation	princeton_trtdifferential loss correction	single-endedforward channel	channel 2reverse channel	N/Adate	2019/09/12time	19:54:49forward acquisition time	15.00reverse acquisition time	0.00gamma	496.2192k internal	0.2328k external	0.2328temperature offset calibration	1.0164default loss term (dB/km)	0.3790temperature slope calibration	1.0000multiplexer offset coefficient	1.0000multiplexer slope coefficient	1.0000fibre end	0.00T internal ref (°C)	31.87T ext. ref 1 (°C)	3.45T ext. ref 2 (°C)	26.35length (m)	temperature (°C)	Stokes	anti-Stokes-747.200	100.447	-0.099	-0.116
-746.185	800.000	0.230	0.701
-745.171	-82.901	0.359	0.117
-744.156	10.763	-0.317	-0.244
-743.142	800.000	-0.058	-0.228
-742.127	-58.661	0.532	0.232
-741.112	561.081	0.046	0.111
-740.098	-200.000	-0.028	0.138
-739.083	101.222	-0.120	0.141
-738.069	448.423	0.195	0.432
-737.054	-32.464	-0.363	0.204
-736.039	-103.771	-0.673	0.159
-735.025	-200.000	0.047	-0.432
-734.010	-200.000	0.077	0.653
-732.996	800.000	-0.114	0.451
-731.981	-180.765	0.397	0.008
-730.966	318.288	-0.210	-0.400
-729.952	-75.840	-0.230	0.082
-728.937	467.108	0.245	-0.553
-727.923	404.445	0.142	-0.302
-726.908	-125.497	-0.706	-0.108
-725.894	337.978	-0.352	-0.691
-724.879	-52.797	0.540	0.251
-723.864	400.707	-0.289	-0.612
-722.850	-74.882	0.606	0.219
-721.835	800.000	0.171	0.502
-720.821	8.376	0.130	0.098
-719.806	-60.258	-0.849	-0.364
-718.791	-7.986	0.571	0.388
-717.777	-56.508	-0.340	0.152
-716.762	68.017	0.181	0.186
-715.748	215.965	0.246	-0.394
-714.733	-45.322	-0.549	-0.275
-713.718	752.363	0.135	0.366
-712.704	250.860	0.265	0.454
-711.689	800.000	0.057	0.232
-710.675	19.540	0.560	-0.453
-709.660	59.763	-0.800	-0.795
-708.645	-200.000	0.050	-0.469
-707.631	-39.366	0.229	-0.121
-706.616	-138.238	-0.542	-0.060
-705.602	337.884	0.304	-0.594
-704.587	280.319	-0.495	-0.891
-703.572	289.840	-0.200	0.364
-702.558	36.092	0.470	-0.416
-701.543	800.000	-0.328	-0.929
-700.529	44.824	0.207	-0.192
-699.514	413.195	-0.047	0.101
-698.499	-140.622	0.421	-0.044
-697.485	-9.490	-0.505	-0.339
-696.470	93.475	0.166	0.189
-695.456	126.109	0.778	-0.990
-694.441	-120.315	-0.318	0.055
-693.426	-31.175	-0.619	0.351
-692.412	-25.914	0.618	0.366
-691.397	489.303	-0.011	-0.025
-690.383	196.616	-0.150	-0.230
-689.368	-52.548	-0.267	-0.124
-688.354	-42.023	-0.150	-0.077
-687.339	800.000	-0.104	0.368
-686.324	-12.752	-0.623	-0.408
-685.310	-45.582	0.476	-0.237
-684.295	82.133	-0.218	-0.237
-683.281	214.494	0.339	-0.539
-682.266	-200.000	-0.181	0.919
-681.251	700.515	-0.183	-0.483
-680.237	-115.986	-0.205	-0.038
-679.222	-61.654	0.243	0.102
-678.208	180.390	-0.126	0.186
-677.193	389.991	-0.139	0.290
-676.178	-200.000	0.077	-0.480
-675.164	54.633	-0.217	0.210
-674.149	800.000	-0.236	0.732
-673.135	-200.000	-0.063	-0.464
-672.120	613.552	-0.248	-0.625
-671.105	482.167	-0.271	-0.618
-670.091	83.926	0.420	-0.461
-669.076	-113.938	0.067	-0.013
-668.062	286.309	-0.222	-0.402
-667.047	336.274	-0.298	-0.581
-666.032	800.000	-0.292	-1.234
-665.018	41.649	-0.286	0.260
-664.003	214.492	0.091	0.144
-662.989	-7.642	0.146	-0.099
-661.974	-47.339	0.672	-0.328
-660.959	176.578	-0.591	0.864
-659.945	39.323	0.319	0.287
-658.930	203.331	-0.293	0.455
-657.916	441.595	-0.287	-0.630
-656.901	-52.538	-0.733	-0.340
-655.886	800.000	0.055	-0.206
-654.872	-200.000	-0.003	0.199
-653.857	197.164	-0.040	0.061
-652.843	-200.000	0.071	0.375
-651.828	61.326	0.301	-0.301
-650.814	-4.463	0.581	0.403
-649.799	422.165	0.172	0.370
-648.784	49.875	0.735	-0.696
-647.770	-32.104	0.744	0.417
-646.755	39.926	-0.349	-0.315
-645.741	29.883	-0.213	-0.182
-644.726	599.011	0.313	0.779
-643.711	-18.329	-0.402	-0.252
-642.697	12.598	0.255	-0.198
-641.682	-31.911	0.246	-0.138
-640.668	95.952	0.398	-0.456
-639.653	-74.374	-0.564	-0.204
-638.638	800.000	-0.173	-0.579
-637.624	11.807	-0.205	0.158
-636.609	-200.000	0.034	-0.788
-635.595	126.541	-0.413	0.525
-634.580	-101.941	0.485	-0.118
-633.565	-200.000	-0.036	0.618
-632.551	800.000	0.072	0.217
-631.536	-18.881	-0.246	-0.153
-630.522	17.893	-0.725	-0.579
-629.507	172.457	-0.172	0.248
-628.492	-200.000	-0.017	-0.484
-627.478	93.399	-0.487	-0.553
-626.463	-181.344	-0.824	0.016
-625.449	-27.171	0.539	0.315
-624.434	154.235	0.574	-0.790
-623.419	-200.000	0.127	0.691
-622.405	-21.563	-0.324	0.198
-621.390	-200.000	0.009	0.160
-620.376	626.371	0.039	0.099
-619.361	25.206	-0.356	0.296
-618.346	-200.000	-0.035	0.338
-617.332	800.000	-0.191	-0.536
-616.317	-81.917	0.850	-0.279
-615.303	40.611	-0.541	-0.489
-614.288	5.193	0.172	-0.127
-613.273	148.352	-0.160	0.217
-612.259	-200.000	0.042	-0.298
-611.244	-200.000	0.079	-1.140
-610.230	80.340	-0.255	-0.275
-609.215	53.045	-0.417	0.400
-608.201	800.000	-0.297	0.834
-607.186	101.927	-0.415	-0.486
-606.171	121.042	0.494	-0.616
-605.157	-137.693	-0.486	0.055
-604.142	-75.718	-0.765	-0.272
-603.128	-19.039	-0.102	0.064
-602.113	-26.927	-0.346	0.203
-601.098	-177.274	0.053	-0.001
-600.084	7.848	0.483	0.363
-599.069	-5.212	0.244	0.168
-598.055	-183.045	-0.254	-0.005
-597.040	-135.620	-0.547	-0.065
-596.025	-200.000	0.190	0.000
-595.011	-20.294	0.164	-0.101
-593.996	-200.000	-0.014	0.148
-592.982	21.853	0.395	0.322
-591.967	-69.204	0.235	-0.090
-590.952	497.729	0.279	0.644
-589.938	132.412	0.297	-0.384
-588.923	237.115	0.099	0.165
-587.909	-126.689	-0.309	0.046
-586.894	-53.526	0.452	0.207
-585.879	-105.869	-0.751	-0.170
-584.865	800.000	-0.233	-0.654
-583.850	-9.385	0.603	0.403
-582.836	-67.818	0.299	-0.117
-581.821	-80.188	-0.741	0.249
-580.806	-200.000	-0.105	-0.593
-579.792	174.587	0.215	-0.311
-578.777	-18.528	-0.245	0.153
-577.763	179.791	0.293	-0.429
-576.748	-200.000	0.005	-0.746
-575.733	-67.935	0.476	0.186
-574.719	800.000	0.051	0.174
-573.704	-91.719	0.359	-0.102
-572.690	800.000	0.220	0.662
-571.675	-101.188	-0.682	-0.167
-570.661	-9.770	0.380	0.253
-569.646	79.765	0.692	0.744
-568.631	-93.527	-0.818	-0.227
-567.617	800.000	0.289	0.928
-566.602	-117.155	1.285	0.234
-565.588	-186.155	-0.439	-0.006
-564.573	-200.000	0.057	-0.889
-563.558	800.000	-0.117	0.365
-562.544	-200.000	-0.041	0.609
-561.529	800.000	-0.097	0.338
-560.515	-111.740	-1.068	-0.216
-559.500	40.242	-0.155	-0.140
-558.485	-138.255	0.769	-0.085
-557.471	-69.692	-0.463	-0.177
-556.456	21.240	0.774	-0.628
-555.442	244.056	0.132	0.222
-554.427	-99.989	0.552	-0.138
-553.412	-200.000	-0.062	-0.449
-552.398	139.967	-0.291	0.384
-551.383	-45.341	0.437	0.217
-550.369	-148.578	0.041	0.003
-549.354	159.424	0.148	-0.206
-548.339	445.732	-0.544	-1.196
-547.325	-128.161	0.407	-0.058
-546.310	-35.529	-0.786	0.427
-545.296	154.074	-0.317	-0.435
-544.281	-137.119	0.207	-0.024
-543.266	-200.000	0.054	0.611
-542.252	113.288	-0.325	-0.394
-541.237	111.900	0.487	0.588
-540.223	-55.796	0.796	0.356
-539.208	-48.256	-0.630	0.304
-538.193	169.073	0.448	0.638
-537.179	-133.451	-0.842	-0.106
-536.164	-167.796	0.674	-0.027
-535.150	10.034	0.375	0.285
-534.135	-122.978	-0.968	0.156
-533.121	-101.490	-0.849	-0.206
-532.106	800.000	-0.201	0.648
-531.091	53.331	-0.752	-0.721
-530.077	-115.125	0.415	-0.079
-529.062	101.178	-0.504	-0.586
-528.048	114.410	-0.150	-0.182
-527.033	98.793	0.469	0.541
-526.018	-76.510	-0.811	0.285
-525.004	-93.312	-0.153	-0.042
-523.989	-43.676	-0.347	-0.175
-522.975	-200.000	0.040	-0.370
-521.960	101.374	-0.426	-0.496
-520.945	-200.000	0.197	-1.179
-519.931	581.016	-0.182	-0.446
-518.916	-65.990	0.114	-0.045
-517.902	800.000	-0.060	-0.189
-516.887	-158.241	-0.666	0.039
-515.872	-24.713	0.172	-0.102
-514.858	9.872	-0.480	0.364
-513.843	-200.000	-0.071	0.694
-512.829	36.385	-0.562	0.495
-511.814	12.961	0.295	0.228
-510.799	-39.920	-0.547	-0.285
-509.785	-129.855	-0.668	0.092
-508.770	-115.463	1.021	-0.192
-507.756	277.043	-0.118	0.209
-506.741	-200.000	-0.024	0.534
-505.726	-81.001	0.316	-0.105
-504.712	541.997	0.269	0.640
-503.697	-200.000	-0.021	-0.407
-502.683	243.351	-0.249	0.418
-501.668	109.591	-0.432	-0.517
-500.653	-34.728	-0.333	0.182
-499.639	-15.580	-0.911	-0.580
-498.624	800.000	-0.143	-0.571
-497.610	384.654	-0.288	0.593
-496.595	-190.493	-0.430	-0.005
-495.581	-89.374	1.124	0.330
-494.566	-129.713	1.191	0.164
-493.551	-129.023	-0.207	-0.029
-492.537	800.000	0.161	-0.580
-491.522	800.000	0.017	-0.074
-490.508	-200.000	0.182	0.897
-489.493	800.000	0.183	-0.521
-488.478	-200.000	-0.511	-0.001
-487.464	532.290	0.101	-0.238
-486.449	800.000	0.279	-0.913
-485.435	138.357	-0.648	-0.848
-484.420	-138.809	-0.671	-0.073
-483.405	-72.911	0.717	0.263
-482.391	-37.883	0.178	-0.094
-481.376	-60.457	-0.237	0.100
-480.362	561.109	0.193	0.465
-479.347	-109.230	-0.322	0.068
-478.332	739.894	0.127	-0.341
-477.318	-191.527	0.165	-0.002
-476.303	-150.120	-0.258	-0.020
-475.289	-148.176	-0.371	-0.031
-474.274	127.212	-0.211	-0.267
-473.259	-200.000	0.067	-0.393
-472.245	39.875	-0.129	-0.116
-471.230	-100.470	0.583	-0.144
-470.216	-12.823	0.349	0.227
-469.201	552.373	0.127	-0.305
-468.186	-200.000	-0.051	-0.247
-467.172	-82.415	0.740	0.240
-466.157	-200.000	-0.006	-0.604
-465.143	122.820	0.292	-0.364
-464.128	263.746	0.159	0.275
-463.113	-115.761	-1.010	-0.188
-462.099	-200.000	-0.021	0.732
-461.084	560.142	-0.298	-0.718
-460.070	-30.246	0.969	0.549
-459.055	-200.000	0.015	0.195
-458.040	-8.567	-0.413	0.277
-457.026	-75.100	-0.835	0.298
-456.011	-76.022	0.607	0.214
-454.997	800.000	0.249	-0.774
-453.982	-64.982	-0.490	-0.197
-452.968	564.023	-0.305	0.737
-451.953	800.000	0.353	1.425
-450.938	800.000	-0.104	0.404
-449.924	185.793	-0.207	-0.307
-448.909	-200.000	0.011	-0.060
-447.895	-200.000	-0.047	0.674
-446.880	-137.226	-0.473	0.054
-445.865	-13.184	0.091	-0.059
-444.851	12.046	-0.243	0.186
-443.836	78.282	-0.539	-0.573
-442.822	-200.000	-0.232	1.016
-441.807	335.954	0.096	0.186
-440.792	-60.541	0.840	-0.355
-439.778	-99.739	0.325	-0.081
-438.763	800.000	0.027	0.105
-437.749	-200.000	0.086	0.704
-436.734	-169.235	0.587	0.022
-435.719	-52.263	0.608	-0.281
-434.705	489.113	0.309	0.704
-433.690	480.771	0.180	0.406
-432.676	-200.000	0.163	0.846
-431.661	-143.799	0.727	0.068
-430.646	-134.398	-0.993	0.121
-429.632	-53.773	-0.477	0.217
-428.617	-200.000	0.200	1.076
-427.603	-200.000	0.083	-0.575
-426.588	-98.492	0.737	0.188
-425.573	-124.153	0.489	-0.076
-424.559	-71.205	-0.807	-0.301
-423.544	-115.438	0.626	0.117
-422.530	-26.478	-0.678	-0.395
-421.515	-34.648	-0.687	-0.374
-420.500	-70.726	0.822	-0.309
-419.486	-75.554	-0.727	0.257
-418.471	-6.124	-0.353	0.240
-417.457	-200.000	-0.040	0.319
-416.442	164.848	0.749	1.051
-415.428	-98.027	0.213	0.055
-414.413	-200.000	0.055	0.257
-413.398	75.473	0.680	-0.714
-412.384	193.259	-0.179	0.269
-411.369	-182.587	-0.363	0.007
-410.355	-103.392	-0.232	-0.054
-409.340	76.709	0.312	0.329
-408.325	-200.000	0.612	-0.002
-407.311	375.696	0.222	-0.450
-406.296	-25.092	0.674	-0.398
-405.282	-109.038	-0.141	-0.030
-404.267	-200.000	0.117	0.581
-403.252	-39.062	-0.563	0.294
-402.238	225.890	0.209	0.338
-401.223	-74.321	0.523	0.188
-400.209	91.532	0.694	-0.775
-399.194	-74.753	-0.291	-0.104
-398.179	36.990	-0.468	0.412
-397.165	-91.293	-0.514	-0.146
-396.150	44.723	0.242	0.221
-395.136	-55.939	0.229	0.101
-394.121	179.188	0.399	-0.580
-393.106	-57.160	0.447	0.196
-392.092	-54.279	-0.428	-0.193
-391.077	-34.198	1.065	0.582
-390.063	-65.156	-0.397	-0.159
-389.048	-78.919	-0.571	0.193
-388.033	800.000	-0.102	-0.341
-387.019	-200.000	-0.009	-0.080
-386.004	134.325	0.207	0.267
-384.990	2.784	-0.653	-0.471
-383.975	-156.012	-0.798	-0.050
-382.960	-150.518	-0.755	-0.057
-381.946	70.370	-0.149	-0.153
-380.931	-107.833	-0.840	-0.182
-379.917	0.824	-0.261	-0.186
-378.902	-86.545	0.460	0.140
-377.888	-140.660	-0.746	0.077
-376.873	601.345	-0.242	0.596
-375.858	-21.019	-0.891	0.542
-374.844	71.445	-0.430	0.444
-373.829	-53.019	0.710	0.324
-372.815	486.167	0.186	-0.421
-371.800	420.484	-0.106	0.226
-370.785	155.704	-0.315	0.431
-369.771	122.158	0.559	0.693
-368.756	800.000	-0.260	-1.009
-367.742	10.926	0.103	-0.078
-366.727	-200.000	0.024	-0.190
-365.712	-82.281	-0.347	0.112
-364.698	-200.000	0.106	-0.507
-363.683	-19.698	0.410	-0.252
-362.669	-158.729	-0.531	-0.030
-361.654	142.103	-0.230	0.302
-360.639	42.549	-0.337	-0.305
-359.625	1.678	-0.120	0.086
-358.610	-34.457	0.451	0.245
-357.596	-58.529	-0.107	0.046
-356.581	800.000	0.041	0.146
-355.566	19.899	0.668	-0.535
-354.552	-200.000	-0.003	0.141
-353.537	-200.000	-0.005	0.421
-352.523	-80.501	0.594	0.197
-351.508	773.713	-0.082	-0.222
-350.493	146.271	0.376	0.501
-349.479	719.504	0.287	0.758
-348.464	12.426	-0.704	0.538
-347.450	-83.939	-0.873	0.276
-346.435	35.308	-0.555	0.483
-345.420	145.119	0.466	-0.619
-344.406	-115.328	0.487	-0.091
-343.391	315.363	0.174	0.326
-342.377	-74.663	0.690	0.246
-341.362	-59.091	0.044	0.019
-340.348	298.371	0.438	-0.798
-339.333	-168.011	0.526	0.020
-338.318	187.324	-0.440	-0.651
-337.304	98.416	0.225	-0.257
-336.289	-81.397	-0.306	-0.100
-335.275	-147.430	0.754	-0.063
-334.260	-162.306	0.530	0.026
-333.245	-43.922	-0.796	0.397
-332.231	714.318	0.181	-0.475
-331.216	-64.564	-0.970	-0.390
-330.202	-117.861	-0.537	-0.096
-329.187	-10.337	0.750	0.493
-328.172	800.000	-0.139	0.561
-327.158	-18.941	-0.331	0.204
-326.143	2.437	-0.246	0.176
-325.129	551.825	0.145	0.344
-324.114	-18.101	0.310	0.192
-323.099	-170.395	0.378	0.013
-322.085	-24.608	0.106	0.062
-321.070	259.744	0.136	-0.232
-320.056	-169.507	-0.961	-0.035
-319.041	-35.789	0.695	0.373
-318.026	-200.000	-0.019	0.230
-317.012	313.319	0.187	0.349
-315.997	-77.866	0.309	0.106
-314.983	97.379	0.346	-0.393
-313.968	-93.589	-0.449	-0.123
-312.953	678.106	0.165	0.424
-311.939	20.885	-0.664	-0.533
-310.924	800.000	0.131	0.429
-309.910	491.348	-0.050	-0.113
-308.895	355.696	0.252	0.497
-307.880	-200.000	0.011	0.466
-306.866	-34.719	0.184	-0.099
-305.851	30.335	0.173	-0.146
-304.837	66.947	0.357	0.360
-303.822	-8.985	0.434	-0.288
-302.807	800.000	-0.257	-0.816
-301.793	57.324	0.356	-0.344
-300.778	-200.000	0.054	-0.721
-299.764	-135.215	-0.760	-0.090
-298.749	28.581	-0.393	-0.330
-297.735	-159.637	0.223	-0.012
-296.720	-22.664	0.391	-0.234
-295.705	-200.000	-0.068	0.352
-294.691	-69.079	0.524	-0.200
-293.676	33.707	-0.303	0.261
-292.662	-120.376	-0.580	0.098
-291.647	124.689	-0.318	-0.396
-290.632	-125.324	-0.506	0.077
-289.618	-184.637	1.135	-0.018
-288.603	-162.867	0.357	-0.017
-287.589	31.994	0.445	0.379
-286.574	-200.000	0.081	0.412
-285.559	51.785	0.280	0.264
-284.545	-145.364	-0.759	-0.068
-283.530	-200.000	-0.001	0.121
-282.516	-138.316	-0.748	0.082
-281.501	-102.887	0.471	-0.111
-280.486	-151.423	1.485	0.109
-279.472	-138.585	-0.125	0.014
-278.457	-78.566	-0.704	0.238
-277.443	-53.869	-0.206	0.093
-276.428	123.410	0.404	0.501
-275.413	32.503	0.144	0.124
-274.399	66.411	-0.452	0.454
-273.384	270.961	-0.240	0.418
-272.370	547.379	0.251	-0.595
-271.355	-4.529	0.364	-0.249
-270.340	-159.299	0.116	-0.006
-269.326	221.099	-0.199	0.315
-268.311	287.786	0.222	-0.398
-267.297	800.000	-0.076	0.244
-266.282	-104.412	0.260	-0.059
-265.267	-139.748	-0.533	0.056
-264.253	312.555	0.166	0.308
-263.238	-200.000	0.024	0.109
-262.224	154.301	0.342	-0.464
-261.209	-77.907	0.547	0.187
-260.195	452.289	0.190	0.416
-259.180	159.234	0.151	-0.207
-258.165	26.405	-0.171	0.142
-257.151	221.581	0.528	-0.839
-256.136	201.693	-0.278	-0.424
-255.122	54.396	-0.184	-0.175
-254.107	-200.000	-0.063	-0.354
-253.092	95.186	0.147	-0.166
-252.078	-87.306	-1.154	-0.346
-251.063	74.787	0.700	-0.729
-250.049	513.981	-0.124	-0.287
-249.034	-200.000	-0.024	0.934
-248.019	438.641	-0.241	-0.520
-247.005	-196.888	0.882	0.006
-245.990	-33.062	-0.179	-0.098
-244.976	535.334	-0.218	-0.512
-243.961	-200.000	0.026	-0.268
-242.946	-40.315	-0.048	-0.024
-241.932	156.222	-0.076	0.103
-240.917	22.968	-0.617	-0.500
-239.903	324.179	-0.322	0.608
-238.888	800.000	0.162	-0.475
-237.873	-34.842	0.385	-0.208
-236.859	-40.828	-0.369	-0.189
-235.844	800.000	-0.058	-0.159
-234.830	163.396	0.271	-0.377
-233.815	741.057	0.051	-0.136
-232.800	800.000	0.190	0.592
-231.786	33.855	-0.260	0.223
-230.771	-200.000	-0.037	-0.232
-229.757	-200.000	0.220	0.977
-228.742	-138.258	-1.117	0.122
-227.727	69.998	-0.315	-0.321
-226.713	113.188	-0.224	-0.269
-225.698	-117.324	-0.331	0.059
-224.684	800.000	-0.222	0.825
-223.669	70.836	0.082	-0.084
-222.655	37.638	0.063	0.055
-221.640	-100.347	-0.253	0.062
-220.625	-104.533	0.575	-0.131
-219.611	-57.417	-0.559	-0.243
-218.596	128.420	-0.410	-0.515
-217.582	648.672	-0.315	-0.796
-216.567	440.638	-0.243	-0.525
-215.552	-140.470	0.491	-0.050
-214.538	-200.000	-0.111	0.710
-213.523	357.476	-0.403	-0.793
-212.509	85.824	0.704	-0.764
-211.494	636.604	0.175	-0.439
-210.479	-200.000	-0.127	-0.601
-209.465	385.006	0.239	-0.486
-208.450	-200.000	0.612	-0.003
-207.436	-103.079	0.764	0.179
-206.421	214.061	-0.569	0.889
-205.406	195.956	0.433	-0.650
-204.392	64.178	-0.238	-0.236
-203.377	263.789	0.390	0.670
-202.363	-4.249	-0.542	0.370
-201.348	-200.000	0.033	-0.391
-200.333	334.901	-0.437	-0.836
-199.319	-105.709	0.395	-0.088
-198.304	800.000	-0.188	0.596
-197.290	-49.083	-0.593	0.280
-196.275	-90.418	0.785	0.224
-195.260	675.829	0.348	0.891
-194.246	-82.560	0.518	-0.166
-193.231	4.092	0.682	-0.492
-192.217	118.742	-0.335	0.408
-191.202	-49.907	0.323	-0.151
-190.187	171.038	-0.731	-1.034
-189.173	360.622	0.103	0.204
-188.158	95.315	0.205	0.230
-187.144	36.027	0.621	-0.539
-186.129	-105.236	0.282	-0.063
-185.114	-187.620	0.570	-0.007
-184.100	-200.000	-0.084	0.669
-183.085	-200.000	-0.073	-0.400
-182.071	190.023	0.115	0.170
-181.056	196.502	-0.187	0.281
-180.042	-61.953	1.179	-0.486
-179.027	-42.762	-0.365	-0.183
-178.012	336.278	0.127	0.242
-176.998	800.000	-0.133	0.388
-175.983	-200.000	-0.027	0.555
-174.969	800.000	-0.118	-0.363
-173.954	-200.000	0.123	-0.589
-172.939	202.846	0.289	-0.440
-171.925	17.403	0.204	0.160
-170.910	-65.810	0.650	0.256
-169.896	-200.000	0.016	-0.131
-168.881	202.265	-0.096	-0.147
-167.866	-200.000	-0.123	0.903
-166.852	3.229	0.376	0.269
-165.837	800.000	0.157	-0.587
-164.823	7.684	0.617	0.455
-163.808	-200.000	0.003	0.354
-162.793	18.484	-0.647	-0.509
-161.779	-200.000	0.017	-0.493
-160.764	11.492	-0.257	-0.194
-159.750	-70.018	0.627	0.235
-158.735	800.000	-0.110	-0.394
-157.720	-126.819	-0.235	0.034
-156.706	153.137	-0.222	0.299
-155.691	-200.000	-0.050	0.741
-154.677	-61.377	-0.300	-0.124
-153.662	-200.000	-0.024	-0.113
-152.647	-163.462	0.243	0.011
-151.633	235.177	-0.321	0.521
-150.618	59.787	0.341	0.332
-149.604	216.786	-0.377	0.591
-148.589	-130.934	0.866	0.114
-147.574	214.364	0.482	-0.751
-146.560	385.086	-0.146	-0.297
-145.545	800.000	0.114	-0.346
-144.531	800.000	0.106	-0.346
-143.516	-132.301	-0.388	0.049
-142.502	-33.891	-0.242	0.131
-141.487	-200.000	0.063	0.450
-140.472	-9.862	0.076	-0.049
-139.458	-37.996	-0.139	0.073
-138.443	-200.000	0.080	0.546
-137.429	-65.975	0.259	-0.102
-136.414	191.172	0.153	0.227
-135.399	-88.277	-1.030	0.303
-134.385	44.710	0.284	0.257
-133.370	473.369	0.080	-0.179
-132.356	-143.213	-0.804	-0.076
-131.341	290.162	0.140	0.250
-130.326	474.782	-0.175	0.389
-129.312	322.588	-0.495	-0.927
-128.297	166.080	-0.354	-0.493
-127.283	7.437	-0.909	0.669
-126.268	-14.790	0.738	0.466
-125.253	3.528	-0.416	-0.298
-124.239	-55.980	0.133	-0.058
-123.224	264.794	0.396	-0.678
-122.210	-200.000	0.081	-0.667
-121.195	490.329	-0.207	-0.465
