DTS Sentinel unit serial number:	SN413079Multiplexer serial number:	ORYXHardware model number:	OX4-SRSoftware version number:	ORYX F/W v4.00 Oryx Data Collector v3.7.2.0data status	okinstallation	princeton_trtdifferential loss correction	single-endedforward channel	channel 2reverse channel	N/Adate	2019/09/11time	08:13:11forward acquisition time	60.00reverse acquisition time	0.00gamma	496.2192k internal	0.2323k external	0.2323temperature offset calibration	0.9989default loss term (dB/km)	0.3790temperature slope calibration	1.0000multiplexer offset coefficient	1.0000multiplexer slope coefficient	1.0000fibre end	0.00T internal ref (°C)	32.50T ext. ref 1 (°C)	0.38T ext. ref 2 (°C)	29.25length (m)	temperature (°C)	Stokes	anti-Stokes-747.200	800.000	0.043	0.147
-746.185	-24.956	0.045	0.027
-745.171	309.673	0.080	-0.152
-744.156	-175.848	-0.100	0.003
-743.142	73.013	0.006	0.007
-742.127	-73.281	0.206	0.076
-741.112	-17.634	-0.212	0.135
-740.098	144.246	0.221	0.298
-739.083	800.000	-0.022	0.091
-738.069	-200.000	-0.001	0.142
-737.054	-76.690	0.318	0.112
-736.039	-121.553	-0.199	-0.033
-735.025	84.713	-0.087	0.096
-734.010	-23.850	-0.294	0.178
-732.996	-36.432	0.121	-0.066
-731.981	-175.268	-0.250	-0.007
-730.966	800.000	-0.015	0.060
-729.952	414.949	0.039	-0.084
-728.937	-200.000	-0.021	-0.175
-727.923	800.000	-0.126	-0.363
-726.908	380.460	0.150	-0.311
-725.894	800.000	0.071	-0.295
-724.879	67.550	-0.323	-0.333
-723.864	-200.000	-0.028	-0.273
-722.850	-142.513	-0.063	-0.006
-721.835	-51.480	-0.339	-0.160
-720.821	-105.227	-0.321	-0.074
-719.806	-39.295	-0.175	-0.093
-718.791	-200.000	-0.136	0.000
-717.777	-0.510	-0.071	0.051
-716.762	304.381	-0.102	0.191
-715.748	-53.035	0.202	0.094
-714.733	-200.000	-0.038	0.378
-713.718	81.385	-0.040	-0.044
-712.704	-200.000	-0.050	-0.351
-711.689	51.412	-0.043	0.041
-710.675	-38.469	-0.128	0.068
-709.660	-200.000	-0.009	-0.323
-708.645	800.000	0.043	-0.128
-707.631	-200.000	0.008	-0.167
-706.616	-200.000	0.025	0.130
-705.602	2.901	0.106	-0.077
-704.587	403.192	-0.041	-0.086
-703.572	39.992	-0.095	-0.086
-702.558	-89.108	0.065	-0.019
-701.543	74.729	-0.193	-0.205
-700.529	-10.571	-0.065	0.044
-699.514	800.000	-0.034	0.105
-698.499	-131.647	0.141	0.019
-697.485	114.426	-0.098	-0.120
-696.470	241.305	0.107	0.179
-695.456	95.372	-0.050	-0.058
-694.441	322.561	-0.061	-0.117
-693.426	-76.882	0.199	0.070
-692.412	486.004	-0.061	0.140
-691.397	-71.875	-0.098	0.037
-690.383	-200.000	-0.008	-0.045
-689.368	-200.000	0.042	0.187
-688.354	13.150	0.372	0.291
-687.339	-181.232	-0.266	-0.005
-686.324	321.116	-0.059	0.114
-685.310	768.308	-0.053	-0.145
-684.295	-200.000	0.008	0.126
-683.281	-200.000	-0.021	-0.252
-682.266	423.730	0.050	-0.108
-681.251	54.277	0.048	-0.047
-680.237	-65.999	-0.208	0.084
-679.222	-200.000	0.020	-0.298
-678.208	-129.267	-0.271	0.038
-677.193	-170.711	0.195	-0.007
-676.178	-151.686	-0.186	0.014
-675.164	361.720	-0.130	0.263
-674.149	-200.000	0.032	0.262
-673.135	-200.000	-0.228	-0.001
-672.120	24.072	-0.455	-0.378
-671.105	-200.000	0.002	0.301
-670.091	-93.780	-0.369	-0.102
-669.076	568.297	0.045	-0.111
-668.062	557.624	0.062	0.151
-667.047	-21.746	0.130	0.080
-666.032	207.856	-0.142	-0.223
-665.018	-62.936	0.210	-0.087
-664.003	63.643	0.058	0.059
-662.989	-200.000	0.025	0.202
-661.974	90.637	-0.214	0.242
-660.959	-15.032	0.204	-0.132
-659.945	327.642	-0.178	-0.344
-658.930	236.340	-0.218	-0.363
-657.916	-21.709	-0.108	-0.066
-656.901	10.057	-0.095	0.072
-655.886	-200.000	-0.032	0.160
-654.872	-9.133	0.240	-0.162
-653.857	-200.000	0.030	0.215
-652.843	-132.994	0.327	-0.042
-651.828	105.330	0.243	0.288
-650.814	-7.425	-0.167	-0.114
-649.799	256.589	0.149	-0.257
-648.784	469.068	0.073	-0.165
-647.770	574.479	0.042	0.103
-646.755	-90.131	0.185	-0.054
-645.741	-200.000	-0.015	-0.166
-644.726	-124.509	-0.265	0.041
-643.711	171.345	0.127	-0.184
-642.697	259.861	-0.073	0.127
-641.682	-137.761	0.121	-0.014
-640.668	-167.121	-0.077	0.003
-639.653	190.434	-0.106	-0.161
-638.638	-144.633	-0.175	0.016
-637.624	5.588	0.165	0.123
-636.609	-30.138	0.170	0.097
-635.595	800.000	-0.077	-0.216
-634.580	-100.614	-0.326	0.081
-633.565	198.633	-0.244	0.375
-632.551	-129.849	0.393	0.054
-631.536	131.412	0.146	-0.189
-630.522	28.012	-0.114	-0.097
-629.507	-97.692	-0.183	-0.048
-628.492	-74.531	0.361	-0.131
-627.478	625.106	0.008	-0.020
-626.463	31.544	-0.045	0.039
-625.449	-83.345	-0.176	0.057
-624.434	-45.198	0.152	-0.076
-623.419	-117.372	0.230	-0.042
-622.405	150.836	-0.193	0.263
-621.390	280.169	0.115	0.207
-620.376	800.000	-0.046	0.171
-619.361	-200.000	-0.012	-0.239
-618.346	-42.890	0.127	0.065
-617.332	67.171	-0.106	0.109
-616.317	-25.808	0.359	-0.213
-615.303	-200.000	-0.016	-0.170
-614.288	-149.246	0.369	-0.030
-613.273	800.000	-0.035	-0.141
-612.259	90.326	-0.099	0.111
-611.244	-148.887	0.064	0.005
-610.230	523.444	-0.081	0.192
-609.215	-200.000	0.037	0.276
-608.201	-200.000	0.005	-0.119
-607.186	-138.798	0.106	0.012
-606.171	-88.272	-0.127	-0.038
-605.157	47.565	0.152	0.142
-604.142	175.592	-0.178	-0.260
-603.128	800.000	-0.075	-0.269
-602.113	-97.745	0.175	0.046
-601.098	-127.525	-0.218	-0.032
-600.084	174.730	0.058	-0.084
-599.069	800.000	0.062	0.208
-598.055	5.200	0.183	0.135
-597.040	-82.680	0.173	0.056
-596.025	217.227	-0.048	0.077
-595.011	-145.371	0.195	-0.018
-593.996	24.992	-0.270	-0.225
-592.982	800.000	-0.022	0.073
-591.967	137.206	-0.217	0.284
-590.952	228.716	0.040	0.066
-589.938	-139.683	0.125	-0.013
-588.923	449.441	0.176	-0.389
-587.909	-200.000	0.030	-0.239
-586.894	38.647	-0.147	0.132
-585.879	69.769	-0.237	-0.245
-584.865	-50.424	0.170	0.080
-583.850	131.032	-0.065	0.083
-582.836	-200.000	-0.045	0.298
-581.821	-136.790	-0.159	-0.018
-580.806	170.633	-0.197	-0.283
-579.792	-57.774	0.073	0.032
-578.777	-76.515	0.137	0.048
-577.763	211.196	-0.128	-0.203
-576.748	-200.000	-0.009	-0.092
-575.733	86.344	-0.154	0.170
-574.719	38.355	-0.132	-0.118
-573.704	-75.003	-0.079	0.028
-572.690	-57.670	-0.020	-0.009
-571.675	526.066	-0.132	-0.311
-570.661	-56.826	0.237	0.105
-569.646	-152.878	0.154	-0.011
-568.631	241.392	0.076	0.127
-567.617	-76.899	-0.135	0.047
-566.602	-25.500	0.107	-0.063
-565.588	-200.000	-0.033	0.234
-564.573	-188.440	-0.225	-0.003
-563.558	289.378	0.155	0.281
-562.544	-72.461	0.198	-0.073
-561.529	-102.448	0.189	-0.045
-560.515	-200.000	-0.091	-0.483
-559.500	-16.563	-0.282	-0.179
-558.485	800.000	0.057	0.227
-557.471	800.000	-0.014	-0.044
-556.456	39.286	-0.092	-0.082
-555.442	61.782	-0.301	0.300
-554.427	148.056	-0.134	0.181
-553.412	-152.307	0.518	-0.037
-552.398	-200.000	0.006	-0.340
-551.383	-137.933	-0.151	0.017
-550.369	116.945	-0.252	-0.310
-549.354	119.044	0.128	-0.158
-548.339	173.753	-0.159	-0.230
-547.325	-99.251	-0.152	-0.038
-546.310	8.613	-0.102	0.077
-545.296	-42.711	0.559	0.285
-544.281	-29.861	-0.135	0.077
-543.266	268.081	-0.115	-0.202
-542.252	-41.383	0.107	0.055
-541.237	-102.078	0.259	0.062
-540.223	459.310	-0.129	0.288
-539.208	451.668	0.070	-0.156
-538.193	84.846	0.101	0.110
-537.179	141.683	-0.274	0.363
-536.164	-29.987	-0.358	0.204
-535.150	-61.447	-0.096	-0.040
-534.135	361.836	-0.006	-0.011
-533.121	-90.728	-0.094	-0.027
-532.106	-35.275	0.073	-0.040
-531.091	173.710	0.065	-0.093
-530.077	-200.000	-0.038	-0.294
-529.062	-200.000	-0.018	-0.228
-528.048	109.784	-0.023	0.028
-527.033	-15.651	0.230	-0.147
-526.018	3.339	-0.034	-0.024
-525.004	236.737	-0.161	0.266
-523.989	-53.360	0.360	0.165
-522.975	-181.670	0.236	-0.005
-521.960	618.499	-0.107	0.268
-520.945	149.234	0.027	0.037
-519.931	-139.662	0.337	-0.036
-518.916	-5.637	0.352	0.242
-517.902	40.148	0.309	-0.279
-516.887	-200.000	0.019	0.112
-515.872	120.152	0.080	-0.099
-514.858	-7.023	-0.330	-0.224
-513.843	-133.114	-0.092	-0.012
-512.829	-71.279	0.349	-0.131
-511.814	116.881	0.005	-0.007
-510.799	125.544	0.111	0.141
-509.785	-200.000	0.004	0.159
-508.770	-45.871	0.336	-0.166
-507.756	-132.638	0.084	0.011
-506.741	-200.000	0.013	0.116
-505.726	-17.527	-0.225	0.141
-504.712	-200.000	0.089	0.721
-503.697	-200.000	-0.005	0.160
-502.683	-200.000	0.025	-0.129
-501.668	13.081	-0.176	0.137
-500.653	-200.000	-0.052	0.306
-499.639	195.120	0.179	-0.272
-498.624	59.749	0.487	-0.481
-497.610	18.231	0.165	-0.132
-496.595	162.952	-0.135	-0.190
-495.581	-169.424	-0.146	-0.005
-494.566	8.397	-0.177	-0.133
-493.551	-101.559	-0.099	0.024
-492.537	-78.624	0.045	-0.015
-491.522	17.337	-0.297	0.236
-490.508	657.826	-0.019	0.050
-489.493	-8.411	-0.151	-0.102
-488.478	8.325	-0.248	0.187
-487.464	-200.000	0.021	-0.105
-486.449	-200.000	0.017	-0.114
-485.435	76.636	-0.142	0.150
-484.420	230.384	0.042	-0.069
-483.405	-72.378	-0.086	0.032
-482.391	-52.194	0.090	-0.042
-481.376	-50.317	0.233	-0.110
-480.362	-200.000	-0.029	0.264
-479.347	-200.000	-0.024	0.116
-478.332	-134.051	0.354	0.044
-477.318	614.689	-0.091	-0.229
-476.303	-155.607	0.270	0.017
-475.289	11.353	-0.081	0.062
-474.274	-200.000	-0.010	0.351
-473.259	-200.000	0.034	-0.155
-472.245	-200.000	0.041	-0.267
-471.230	800.000	-0.065	-0.200
-470.216	-200.000	-0.003	0.149
-469.201	137.761	-0.043	-0.056
-468.186	1.132	-0.120	-0.086
-467.172	601.569	0.124	0.308
-466.157	99.435	0.082	0.094
-465.143	266.949	-0.062	0.108
-464.128	69.498	-0.222	0.228
-463.113	-122.817	-0.379	-0.061
-462.099	22.843	0.309	0.253
-461.084	-198.013	-0.274	0.002
-460.070	-102.969	-0.508	0.120
-459.055	-200.000	0.013	0.354
-458.040	-129.430	-0.319	-0.044
-457.026	-109.314	-0.346	0.073
-456.011	-126.917	0.136	0.020
-454.997	398.392	0.077	0.161
-453.982	387.087	0.074	-0.152
-452.968	-121.691	0.418	0.069
-451.953	-200.000	-0.002	0.121
-450.938	-177.634	-0.263	0.006
-449.924	345.424	-0.065	-0.128
-448.909	-57.659	0.085	-0.037
-447.895	-45.906	-0.119	-0.059
-446.880	-200.000	-0.087	-0.458
-445.865	-97.389	0.340	-0.088
-444.851	202.063	-0.094	0.144
-443.836	-106.189	-0.243	0.054
-442.822	324.903	-0.126	0.241
-441.807	455.829	-0.124	0.275
-440.792	56.100	-0.197	-0.191
-439.778	-200.000	-0.019	0.183
-438.763	57.705	-0.138	0.134
-437.749	-200.000	0.008	-0.179
-436.734	-122.351	0.098	-0.016
-435.719	-97.429	0.130	-0.034
-434.705	83.488	0.089	-0.097
-433.690	163.600	-0.077	0.109
-432.676	223.456	0.095	0.152
-431.661	-200.000	-0.028	0.225
-430.646	59.423	0.121	0.119
-429.632	-186.603	-0.333	-0.005
-428.617	-108.023	-0.036	-0.008
-427.603	410.760	0.148	-0.313
-426.588	-200.000	-0.021	-0.168
-425.573	7.264	0.189	-0.141
-424.559	91.495	0.072	0.080
-423.544	-0.210	-0.098	-0.069
-422.530	-157.178	-0.240	0.015
-421.515	-11.651	0.326	0.213
-420.500	-200.000	-0.017	0.215
-419.486	-29.831	-0.095	0.054
-418.471	51.380	-0.060	-0.057
-417.457	73.160	0.190	0.198
-416.442	295.849	0.129	-0.235
-415.428	800.000	-0.121	-0.347
-414.413	59.300	-0.060	-0.059
-413.398	-200.000	-0.070	0.356
-412.384	8.949	0.213	-0.161
-411.369	800.000	-0.061	0.249
-410.355	-87.326	-0.257	-0.078
-409.340	-90.457	0.177	0.051
-408.325	44.427	-0.131	0.120
-407.311	-72.926	0.214	-0.078
-406.296	-200.000	-0.017	0.314
-405.282	-25.707	0.203	-0.119
-404.267	-200.000	-0.036	-0.184
-403.252	-80.050	0.049	0.016
-402.238	83.020	-0.077	0.083
-401.223	-200.000	0.045	-0.267
-400.209	-4.480	-0.102	0.070
-399.194	-44.724	-0.049	-0.024
-398.179	-116.047	0.085	-0.016
-397.165	-71.938	-0.150	-0.055
-396.150	-106.484	-0.282	0.063
-395.136	15.862	-0.174	-0.137
-394.121	759.247	-0.073	-0.197
-393.106	-121.625	-0.176	0.029
-392.092	800.000	-0.026	-0.111
-391.077	-122.498	0.252	-0.041
-390.063	41.625	-0.023	0.021
-389.048	17.924	-0.189	0.150
-388.033	800.000	0.100	0.292
-387.019	73.990	0.067	-0.070
-386.004	58.726	-0.264	0.258
-384.990	92.641	-0.219	0.246
-383.975	-47.268	0.266	0.129
-382.960	162.981	-0.221	0.310
-381.946	448.442	0.053	0.115
-380.931	800.000	0.080	0.261
-379.917	-200.000	-0.024	0.152
-378.902	-104.291	-0.163	0.038
-377.888	-4.571	-0.230	-0.158
-376.873	55.978	-0.181	-0.175
-375.858	294.633	-0.092	-0.168
-374.844	-200.000	0.050	-0.394
-373.829	-200.000	0.001	-0.156
-372.815	-200.000	0.024	-0.107
-371.800	-117.318	-0.200	0.036
-370.785	800.000	0.072	-0.286
-369.771	532.178	-0.085	0.201
-368.756	-200.000	0.037	-0.275
-367.742	800.000	0.043	-0.124
-366.727	800.000	-0.044	-0.167
-365.712	428.968	-0.126	-0.272
-364.698	-43.255	0.179	0.090
-363.683	499.411	-0.119	0.274
-362.669	-18.443	-0.472	0.293
-361.654	-34.562	0.143	0.078
-360.639	136.576	-0.017	-0.022
-359.625	-149.120	-0.073	-0.006
-358.610	-55.965	-0.301	0.133
-357.596	-200.000	0.011	-0.321
-356.581	-200.000	0.001	-0.104
-355.566	286.631	-0.122	0.219
-354.552	-29.036	-0.294	-0.168
-353.537	-76.955	0.176	0.061
-352.523	187.174	0.207	0.308
-351.508	704.187	-0.050	0.130
-350.493	57.543	-0.156	-0.151
-349.479	-200.000	-0.020	-0.217
-348.464	-39.105	0.064	0.033
-347.450	-75.261	-0.303	-0.108
-346.435	226.579	0.085	0.138
-345.420	10.765	-0.113	0.086
-344.406	-33.294	0.107	0.059
-343.391	-200.000	0.056	-0.259
-342.377	-200.000	0.009	-0.342
-341.362	-17.362	0.204	0.128
-340.348	-20.981	0.185	0.113
-339.333	11.019	0.046	-0.035
-338.318	-14.631	0.133	-0.085
-337.304	-77.338	-0.173	0.060
-336.289	8.954	-0.063	-0.047
-335.275	800.000	-0.124	0.359
-334.260	800.000	-0.084	0.290
-333.245	92.428	-0.124	-0.139
-332.231	-4.543	-0.234	0.160
-331.216	442.156	0.038	0.082
-330.202	3.982	0.188	-0.137
-329.187	106.884	-0.132	-0.156
-328.172	20.405	0.244	0.196
-327.158	-200.000	-0.007	0.106
-326.143	-200.000	0.003	-0.130
-325.129	786.623	0.055	-0.150
-324.114	-200.000	-0.022	-0.394
-323.099	-106.762	0.182	-0.040
-322.085	-39.243	-0.188	-0.098
-321.070	78.186	-0.186	0.198
-320.056	-200.000	-0.006	0.089
-319.041	-200.000	0.036	-0.201
-318.026	111.541	0.143	0.171
-317.012	-77.848	-0.054	0.019
-315.997	-64.980	0.364	0.146
-314.983	-36.152	0.185	0.099
-313.968	-107.161	-0.521	-0.114
-312.953	-106.009	0.104	-0.023
-311.939	6.437	-0.165	0.122
-310.924	800.000	0.044	0.179
-309.910	800.000	0.048	-0.199
-308.895	-132.695	0.294	-0.037
-307.880	-157.580	-0.060	0.004
-306.866	139.409	-0.138	-0.180
-305.851	-29.959	-0.207	-0.117
-304.837	131.184	-0.052	0.066
-303.822	-200.000	-0.015	0.068
-302.807	-200.000	0.163	0.001
-301.793	30.724	-0.180	-0.153
-300.778	800.000	0.075	-0.296
-299.764	-100.245	0.421	-0.104
-298.749	154.878	0.222	0.303
-297.735	-24.062	0.113	-0.067
-296.720	-29.379	-0.162	0.092
-295.705	-101.544	0.227	-0.055
-294.691	320.924	0.093	-0.175
-293.676	-200.000	-0.023	-0.224
-292.662	33.846	-0.089	-0.077
-291.647	116.315	-0.063	-0.076
-290.632	62.410	0.060	0.060
-289.618	-27.713	-0.085	-0.049
-288.603	800.000	0.094	-0.293
-287.589	-200.000	-0.042	0.222
-286.574	42.360	0.131	-0.118
-285.559	318.115	0.131	-0.245
-284.545	-21.198	0.070	-0.042
-283.530	217.137	-0.196	-0.309
-282.516	-104.852	-0.161	0.037
-281.501	-200.000	0.007	-0.160
-280.486	-103.266	-0.032	0.007
-279.472	-84.078	0.326	-0.103
-278.457	-200.000	-0.025	0.241
-277.443	248.957	0.144	0.242
-276.428	-77.063	0.218	-0.075
-275.413	-22.238	-0.043	0.026
-274.399	102.894	0.221	-0.257
-273.384	118.999	0.200	-0.246
-272.370	-26.384	0.100	0.058
-271.355	-124.853	-0.207	0.032
-270.340	-200.000	0.027	0.132
-269.326	-200.000	0.021	0.136
-268.311	-182.019	-0.127	-0.002
-267.297	-200.000	-0.001	0.117
-266.282	-200.000	0.004	-0.150
-265.267	-86.643	-0.241	0.073
-264.253	-200.000	-0.025	0.241
-263.238	-90.878	0.129	0.037
-262.224	-88.827	0.184	0.054
-261.209	46.186	-0.123	0.113
-260.195	-200.000	-0.042	-0.212
-259.180	-109.737	-0.101	-0.021
-258.165	-139.571	0.297	-0.031
-257.151	-44.279	-0.196	-0.097
-256.136	651.230	-0.142	0.360
-255.122	-18.882	0.266	0.164
-254.107	148.037	0.160	0.214
-253.092	155.761	0.121	-0.165
-252.078	-62.709	0.196	-0.081
-251.063	-134.034	0.133	-0.016
-250.049	-53.848	-0.321	-0.145
-249.034	-200.000	0.086	-0.405
-248.019	102.456	-0.117	-0.135
-247.005	-200.000	0.004	0.070
-245.990	150.065	-0.132	0.177
-244.976	163.640	-0.238	0.331
-243.961	-200.000	0.026	0.157
-242.946	800.000	0.068	-0.276
-241.932	157.853	-0.188	-0.258
-240.917	137.217	-0.196	-0.254
-239.903	-91.209	-0.325	-0.092
-238.888	-200.000	-0.014	-0.196
-237.873	-101.124	0.107	0.026
-236.859	-40.829	0.158	0.081
-235.844	-66.969	0.440	0.172
-234.830	103.532	-0.096	0.112
-233.815	76.467	0.248	-0.260
-232.800	370.931	0.127	-0.256
-231.786	-75.528	0.151	-0.053
-230.771	245.847	-0.069	0.115
-229.757	800.000	0.079	0.291
-228.742	396.788	-0.132	0.273
-227.727	-147.624	0.444	0.037
-226.713	-118.525	-0.471	0.082
-225.698	53.805	-0.064	0.061
-224.684	-57.222	-0.119	0.052
-223.669	212.259	0.184	0.287
-222.655	-29.270	0.198	0.112
-221.640	26.220	0.207	0.171
-220.625	-153.136	0.395	-0.027
-219.611	63.629	-0.233	-0.231
-218.596	-124.460	-0.093	-0.014
-217.582	800.000	0.077	-0.314
-216.567	-104.089	-0.202	0.047
-215.552	-84.848	0.237	0.074
-214.538	303.181	0.119	-0.218
-213.523	-108.136	0.242	-0.052
-212.509	73.224	0.250	-0.258
-211.494	-200.000	-0.007	0.103
-210.479	272.528	-0.037	-0.064
-209.465	23.031	0.177	0.143
-208.450	800.000	-0.039	0.141
-207.436	-184.612	-0.213	0.003
-206.421	-55.635	-0.235	0.104
-205.406	286.114	0.177	-0.316
-204.392	529.155	0.041	-0.097
-203.377	800.000	-0.094	0.260
-202.363	-72.443	-0.244	0.089
-201.348	419.654	0.120	0.254
-200.333	-183.916	-0.135	0.002
-199.319	-18.663	0.168	0.103
-198.304	-105.776	0.123	-0.028
-197.290	-94.424	-0.189	0.051
-196.275	800.000	0.094	-0.327
-195.260	-62.547	0.350	0.144
-194.246	-113.899	-0.135	0.026
-193.231	-84.848	-0.276	-0.086
-192.217	800.000	0.070	-0.235
-191.202	255.327	-0.049	-0.082
-190.187	463.400	-0.115	0.253
-189.173	109.209	0.263	-0.311
-188.158	800.000	-0.070	-0.279
-187.144	800.000	-0.033	0.120
-186.129	149.077	-0.187	0.249
-185.114	800.000	-0.034	0.108
-184.100	23.664	-0.117	-0.095
-183.085	-97.103	-0.245	0.063
-182.071	357.979	-0.053	-0.104
-181.056	-130.281	0.225	-0.030
-180.042	-49.221	0.295	-0.139
-179.027	-200.000	0.003	-0.044
-178.012	-124.536	0.071	-0.011
-176.998	-7.094	0.141	0.094
-175.983	-157.604	0.233	-0.014
-174.969	-156.865	0.127	-0.008
-173.954	354.861	0.214	0.420
-172.939	-88.474	-0.113	-0.033
-171.925	-94.716	-0.132	-0.035
-170.910	-200.000	-0.061	0.000
-169.896	89.043	-0.119	0.131
-168.881	-200.000	-0.040	-0.255
-167.866	-10.150	0.213	-0.140
-166.852	-126.316	-0.249	0.037
-165.837	-106.083	-0.105	0.023
-164.823	-120.494	-0.035	0.006
-163.808	800.000	0.123	0.516
-162.793	-200.000	-0.044	-0.210
-161.779	1.514	0.088	-0.063
-160.764	361.972	0.131	0.259
-159.750	-6.956	-0.047	-0.031
-158.735	-37.459	0.294	0.155
-157.720	328.934	0.079	0.150
-156.706	-130.746	-0.088	0.012
-155.691	-126.494	-0.177	-0.026
-154.677	103.472	-0.231	-0.267
-153.662	26.319	-0.211	0.174
-152.647	423.789	0.084	-0.178
-151.633	162.755	-0.123	-0.170
-150.618	800.000	0.037	-0.135
-149.604	-200.000	-0.028	0.172
-148.589	-63.731	0.105	0.043
-147.574	-77.710	0.122	-0.042
-146.560	174.307	0.109	-0.156
-145.545	-132.192	0.203	0.026
-144.531	800.000	0.075	-0.304
-143.516	-11.106	0.370	-0.241
-142.502	-11.384	0.124	0.080
-141.487	-87.648	-0.370	-0.110
-140.472	800.000	0.066	0.234
-139.458	530.487	0.078	0.183
-138.443	415.890	0.040	0.083
-137.429	105.644	0.135	0.158
-136.414	-33.951	-0.190	-0.103
-135.399	800.000	-0.046	0.173
-134.385	-89.343	0.399	-0.116
-133.370	110.592	0.147	0.175
-132.356	800.000	0.103	0.290
-131.341	32.181	-0.083	-0.071
-130.326	-45.224	-0.242	-0.118
-129.312	-61.084	0.282	0.117
-128.297	-200.000	-0.003	0.122
-127.283	-110.421	-0.149	0.030
-126.268	-48.208	-0.023	0.011
-125.253	800.000	-0.033	-0.111
-124.239	-183.098	0.365	-0.006
-123.224	-200.000	0.016	-0.081
-122.210	5.041	0.014	0.010
