DTS Sentinel unit serial number:	SN413079Multiplexer serial number:	ORYXHardware model number:	OX4-SRSoftware version number:	ORYX F/W v4.00 Oryx Data Collector v3.7.2.0data status	okinstallation	princeton_trtdifferential loss correction	single-endedforward channel	channel 2reverse channel	N/Adate	2019/09/14time	23:39:35forward acquisition time	60.00reverse acquisition time	0.00gamma	496.2192k internal	0.2324k external	0.2324temperature offset calibration	1.0056default loss term (dB/km)	0.3790temperature slope calibration	1.0000multiplexer offset coefficient	1.0000multiplexer slope coefficient	1.0000fibre end	0.00T internal ref (°C)	32.31T ext. ref 1 (°C)	4.65T ext. ref 2 (°C)	27.31length (m)	temperature (°C)	Stokes	anti-Stokes-747.200	173.089	-0.177	0.258
-746.185	617.051	-0.143	0.362
-745.171	-90.618	0.471	-0.137
-744.156	386.367	-0.059	-0.122
-743.142	194.456	0.080	-0.122
-742.127	-7.721	0.081	-0.056
-741.112	38.222	0.180	0.162
-740.098	55.300	0.074	0.073
-739.083	624.889	0.068	0.172
-738.069	785.515	0.042	0.117
-737.054	-200.000	-0.030	-0.248
-736.039	-52.295	-0.190	0.089
-735.025	-35.822	0.163	0.089
-734.010	-118.870	0.273	-0.048
-732.996	-12.329	-0.422	-0.278
-731.981	800.000	0.043	-0.186
-730.966	67.474	-0.067	0.069
-729.952	800.000	-0.067	-0.227
-728.937	336.487	0.049	0.096
-727.923	114.631	-0.348	-0.428
-726.908	259.699	-0.030	0.053
-725.894	-142.116	-0.422	0.042
-724.879	-200.000	0.026	0.152
-723.864	-27.399	-0.120	-0.070
-722.850	-20.581	-0.411	0.255
-721.835	-40.154	0.114	0.060
-720.821	-26.715	-0.217	-0.128
-719.806	-99.784	-0.081	-0.020
-718.791	28.234	0.216	0.184
-717.777	80.130	-0.240	-0.260
-716.762	-135.962	-0.125	-0.015
-715.748	37.839	-0.069	-0.062
-714.733	297.840	-0.074	0.138
-713.718	-13.461	0.165	0.108
-712.704	733.626	0.077	0.207
-711.689	-200.000	0.035	-0.371
-710.675	-177.488	-0.288	0.007
-709.660	194.777	0.148	0.227
-708.645	-133.159	-0.076	-0.010
-707.631	57.778	0.095	0.094
-706.616	-16.090	-0.145	-0.093
-705.602	-171.672	0.278	-0.009
-704.587	442.961	-0.097	-0.214
-703.572	-107.200	0.248	-0.055
-702.558	-83.885	-0.268	-0.086
-701.543	551.011	-0.041	-0.098
-700.529	494.111	0.042	0.097
-699.514	-95.516	0.280	-0.076
-698.499	379.335	-0.010	-0.022
-697.485	-148.148	-0.095	-0.008
-696.470	800.000	0.031	-0.129
-695.456	-120.901	-0.471	0.080
-694.441	-56.565	-0.430	-0.192
-693.426	30.312	-0.288	-0.248
-692.412	-100.294	0.184	-0.046
-691.397	-200.000	-0.035	-0.250
-690.383	-160.087	-0.078	0.004
-689.368	212.122	-0.176	-0.280
-688.354	218.246	-0.108	0.173
-687.339	2.334	0.137	0.100
-686.324	275.724	-0.182	0.325
-685.310	174.198	0.066	-0.096
-684.295	-113.542	0.223	-0.044
-683.281	800.000	-0.053	0.183
-682.266	-200.000	-0.020	0.130
-681.251	-188.747	-0.142	0.002
-680.237	546.933	-0.084	0.203
-679.222	-104.646	0.174	-0.040
-678.208	-100.548	-0.271	0.068
-677.193	-95.452	0.183	-0.049
-676.178	-19.051	0.125	-0.078
-675.164	-200.000	-0.000	0.295
-674.149	-94.942	-0.105	0.028
-673.135	120.729	-0.053	0.067
-672.120	226.976	-0.162	0.265
-671.105	69.813	-0.089	-0.093
-670.091	165.430	-0.038	-0.054
-669.076	800.000	-0.035	-0.099
-668.062	-72.484	0.120	-0.045
-667.047	-78.585	0.436	-0.150
-666.032	183.788	-0.190	-0.283
-665.018	-40.476	0.215	-0.113
-664.003	-97.539	-0.199	-0.052
-662.989	452.760	0.156	0.347
-661.974	454.306	0.042	0.095
-660.959	33.899	-0.279	0.244
-659.945	134.417	0.053	-0.070
-658.930	800.000	0.071	-0.204
-657.916	-55.537	0.086	0.039
-656.901	-79.101	0.329	-0.112
-655.886	-200.000	0.041	-0.257
-654.872	-164.424	0.161	0.007
-653.857	128.587	-0.231	0.296
-652.843	-183.370	0.273	-0.005
-651.828	48.125	0.090	0.084
-650.814	173.035	-0.108	-0.157
-649.799	307.153	-0.114	-0.214
-648.784	800.000	0.044	0.145
-647.770	-96.978	0.183	0.048
-646.755	187.612	0.108	0.162
-645.741	398.836	-0.030	0.063
-644.726	-200.000	0.009	0.315
-643.711	-200.000	-0.005	0.156
-642.697	174.418	0.041	-0.060
-641.682	-200.000	-0.032	-0.166
-640.668	-22.747	0.175	0.106
-639.653	-97.812	-0.250	-0.065
-638.638	-200.000	-0.003	0.019
-637.624	-97.219	0.095	-0.025
-636.609	-56.774	-0.413	-0.184
-635.595	-86.757	0.114	-0.035
-634.580	34.766	-0.277	0.244
-633.565	77.072	0.258	0.276
-632.551	-139.115	0.294	0.032
-631.536	108.531	0.036	0.044
-630.522	79.473	-0.285	0.308
-629.507	-105.594	-0.305	-0.070
-628.492	153.936	0.259	0.357
-627.478	-16.793	-0.171	-0.109
-626.463	95.980	0.144	-0.165
-625.449	512.396	0.078	-0.182
-624.434	-200.000	0.040	-0.234
-623.419	800.000	0.031	-0.128
-622.405	-5.210	0.138	-0.095
-621.390	21.349	0.145	0.119
-620.376	-46.926	0.297	0.146
-619.361	712.706	0.021	-0.056
-618.346	-123.306	0.240	0.039
-617.332	-92.939	-0.239	-0.067
-616.317	734.085	-0.077	-0.208
-615.303	47.358	0.150	0.140
-614.288	-91.427	-0.178	0.051
-613.273	182.236	-0.273	-0.404
-612.259	60.989	-0.165	0.165
-611.244	32.481	0.273	0.237
-610.230	79.864	0.022	-0.023
-609.215	-79.274	0.124	-0.042
-608.201	-181.682	-0.266	0.005
-607.186	524.980	-0.076	0.180
-606.171	-58.426	-0.310	-0.135
-605.157	-200.000	0.005	0.138
-604.142	-200.000	0.020	-0.290
-603.128	-177.202	-0.239	-0.006
-602.113	305.031	-0.182	0.340
-601.098	-107.347	-0.129	-0.028
-600.084	389.898	-0.076	-0.158
-599.069	438.957	0.100	0.219
-598.055	-200.000	0.030	0.408
-597.040	-37.718	0.300	-0.161
-596.025	15.627	-0.137	-0.108
-595.011	-152.299	-0.365	-0.026
-593.996	68.026	-0.139	0.143
-592.982	187.323	0.047	-0.070
-591.967	800.000	-0.067	0.239
-590.952	-116.045	-0.302	0.056
-589.938	-140.179	-0.220	-0.023
-588.923	-34.793	-0.252	-0.138
-587.909	7.873	-0.101	-0.076
-586.894	179.476	-0.148	0.218
-585.879	-200.000	-0.060	0.432
-584.865	-6.764	-0.216	0.148
-583.850	238.779	0.111	0.186
-582.836	75.137	0.207	0.219
-581.821	-9.032	-0.423	-0.284
-580.806	31.547	-0.291	-0.251
-579.792	83.730	-0.154	-0.169
-578.777	-93.783	-0.134	-0.037
-577.763	18.093	-0.133	0.107
-576.748	-44.746	-0.071	0.035
-575.733	-60.544	-0.274	0.117
-574.719	-88.125	-0.285	-0.086
-573.704	-200.000	0.001	0.143
-572.690	238.561	0.138	-0.231
-571.675	275.591	0.092	-0.164
-570.661	161.516	-0.084	-0.118
-569.646	95.120	0.270	0.308
-568.631	-200.000	0.031	-0.398
-567.617	-13.073	-0.313	0.204
-566.602	83.575	0.264	-0.288
-565.588	170.914	0.187	-0.268
-564.573	12.733	-0.253	0.196
-563.558	-179.958	0.526	0.011
-562.544	-70.923	0.253	-0.096
-561.529	-184.871	-0.213	0.003
-560.515	-162.687	-0.039	0.002
-559.500	-86.111	0.085	-0.026
-558.485	-42.598	0.358	0.183
-557.471	800.000	0.129	0.427
-556.456	-200.000	-0.001	-0.350
-555.442	130.158	-0.270	-0.346
-554.427	219.240	0.019	0.031
-553.412	141.091	-0.143	0.189
-552.398	-200.000	-0.055	-0.264
-551.383	233.029	-0.159	-0.262
-550.369	-149.332	0.147	0.012
-549.354	96.354	0.130	0.149
-548.339	96.394	-0.141	0.161
-547.325	384.973	-0.052	0.108
-546.310	800.000	-0.127	0.471
-545.296	16.754	-0.179	0.142
-544.281	26.850	0.350	0.294
-543.266	105.749	0.165	0.195
-542.252	260.506	0.120	-0.208
-541.237	-200.000	0.006	-0.133
-540.223	53.978	-0.189	0.182
-539.208	-51.320	-0.170	-0.080
-538.193	-102.771	-0.199	-0.048
-537.179	-58.624	-0.054	-0.023
-536.164	42.362	0.268	0.244
-535.150	12.449	-0.016	-0.013
-534.135	83.726	0.100	-0.110
-533.121	318.951	-0.228	0.433
-532.106	-137.754	0.086	0.010
-531.091	-200.000	-0.029	-0.207
-530.077	389.931	-0.095	-0.198
-529.062	-125.888	0.216	-0.033
-528.048	-136.423	-0.233	0.027
-527.033	47.849	0.295	-0.276
-526.018	497.378	0.148	0.342
-525.004	-7.315	0.261	0.177
-523.989	30.092	0.154	0.132
-522.975	-114.021	0.422	-0.082
-521.960	132.242	-0.174	-0.224
-520.945	-48.674	0.326	-0.157
-519.931	-142.335	-0.183	0.018
-518.916	548.146	-0.114	0.274
-517.902	800.000	0.026	0.099
-516.887	54.072	-0.249	-0.240
-515.872	634.466	0.121	-0.307
-514.858	-200.000	-0.037	0.197
-513.843	-200.000	-0.009	0.118
-512.829	73.887	-0.170	0.178
-511.814	78.675	-0.231	-0.248
-510.799	176.054	0.116	-0.169
-509.785	-56.331	0.079	0.035
-508.770	-50.133	-0.152	-0.072
-507.756	422.831	0.046	-0.098
-506.741	-200.000	-0.035	-0.229
-505.726	-90.823	-0.260	-0.075
-504.712	55.237	-0.165	0.160
-503.697	-166.214	-0.147	0.006
-502.683	356.964	-0.085	-0.169
-501.668	-71.243	0.299	0.112
-500.653	-200.000	-0.026	0.179
-499.639	-104.946	0.050	0.012
-498.624	173.921	0.221	-0.319
-497.610	71.116	0.139	0.144
-496.595	-77.528	0.222	-0.077
-495.581	-54.010	-0.319	0.145
-494.566	-182.664	0.108	-0.002
-493.551	60.109	0.071	-0.070
-492.537	800.000	-0.047	-0.165
-491.522	-106.883	-0.057	0.013
-490.508	-111.335	0.188	-0.038
-489.493	667.813	0.119	0.308
-488.478	-126.736	0.077	0.011
-487.464	-157.441	0.319	-0.019
-486.449	-200.000	-0.028	-0.393
-485.435	15.599	0.090	0.071
-484.420	58.521	0.014	0.014
-483.405	-85.086	-0.260	-0.081
-482.391	-60.814	-0.354	0.150
-481.376	-59.228	-0.144	-0.062
-480.362	-84.443	0.174	-0.055
-479.347	38.928	-0.236	0.211
-478.332	-105.332	0.113	0.026
-477.318	76.627	0.245	0.259
-476.303	-200.000	-0.043	0.352
-475.289	-163.616	0.041	-0.002
-474.274	-25.889	-0.370	-0.218
-473.259	78.756	0.085	0.091
-472.245	189.280	0.098	0.147
-471.230	-87.281	-0.238	-0.072
-470.216	800.000	-0.097	-0.301
-469.201	35.999	0.440	-0.387
-468.186	800.000	-0.112	-0.342
-467.172	-16.176	0.244	-0.155
-466.157	33.033	-0.152	0.131
-465.143	545.897	-0.081	-0.193
-464.128	-93.066	-0.142	-0.039
-463.113	83.237	0.138	0.150
-462.099	-200.000	0.019	-0.105
-461.084	735.282	-0.153	-0.409
-460.070	-200.000	0.010	0.151
-459.055	-25.878	-0.282	0.166
-458.040	322.824	-0.033	0.064
-457.026	-22.115	-0.028	-0.017
-456.011	-71.128	-0.108	-0.041
-454.997	-84.331	-0.442	0.140
-453.982	79.958	0.084	0.090
-452.968	-18.095	-0.282	0.176
-451.953	342.151	-0.167	-0.327
-450.938	728.880	0.033	0.089
-449.924	82.541	0.167	0.181
-448.909	800.000	-0.083	-0.249
-447.895	62.856	0.148	-0.148
-446.880	-200.000	0.010	-0.129
-445.865	99.202	-0.131	-0.151
-444.851	-200.000	0.009	-0.393
-443.836	79.346	0.156	-0.167
-442.822	-200.000	0.011	-0.060
-441.807	-180.102	-0.255	-0.005
-440.792	-24.792	-0.196	-0.116
-439.778	800.000	0.159	0.452
-438.763	392.585	-0.156	0.324
-437.749	-200.000	0.020	0.117
-436.734	-200.000	0.068	-0.372
-435.719	800.000	0.029	0.111
-434.705	-200.000	-0.044	-0.205
-433.690	-46.266	-0.101	-0.050
-432.676	126.628	-0.175	-0.222
-431.661	-56.614	-0.217	0.096
-430.646	61.400	-0.235	0.233
-429.632	800.000	-0.017	-0.048
-428.617	-62.334	0.204	-0.085
-427.603	-177.529	-0.044	-0.001
-426.588	-37.737	0.104	0.055
-425.573	800.000	0.031	-0.129
-424.559	83.071	-0.320	-0.347
-423.544	-51.497	0.359	-0.167
-422.530	-200.000	-0.016	0.170
-421.515	33.335	0.265	-0.229
-420.500	419.904	0.084	0.180
-419.486	-61.032	0.229	-0.096
-418.471	5.825	-0.277	0.205
-417.457	5.811	0.244	0.180
-416.442	-125.889	-0.277	-0.042
-415.428	97.099	-0.223	0.255
-414.413	-200.000	-0.081	-0.402
-413.398	-137.553	-0.095	-0.011
-412.384	405.965	-0.227	0.477
-411.369	-72.987	-0.125	-0.046
-410.355	27.710	0.300	-0.251
-409.340	-38.744	0.205	-0.108
-408.325	-62.453	0.096	0.040
-407.311	519.303	0.017	-0.040
-406.296	800.000	-0.097	0.290
-405.282	116.751	-0.135	-0.165
-404.267	800.000	-0.033	-0.101
-403.252	446.261	0.110	0.241
-402.238	-21.548	-0.168	0.102
-401.223	-58.407	-0.079	0.034
-400.209	-200.000	-0.006	-0.024
-399.194	-38.940	0.138	-0.073
-398.179	-99.776	-0.119	-0.030
-397.165	-120.108	0.284	0.048
-396.150	-200.000	0.008	0.147
-395.136	48.831	-0.009	-0.009
-394.121	-200.000	-0.021	0.231
-393.106	721.966	-0.047	0.124
-392.092	96.631	-0.117	0.133
-391.077	130.763	0.157	-0.200
-390.063	-200.000	-0.021	-0.144
-389.048	-200.000	-0.046	0.239
-388.033	17.997	-0.117	0.093
-387.019	195.491	0.235	-0.356
-386.004	-23.356	0.250	0.150
-384.990	52.714	0.143	0.136
-383.975	-127.018	0.686	-0.100
-382.960	-107.568	-0.199	0.043
-381.946	-56.411	0.232	0.103
-380.931	-45.160	0.073	-0.036
-379.917	184.319	0.197	-0.291
-378.902	-38.050	0.183	-0.097
-377.888	-128.252	0.208	0.030
-376.873	-172.357	-0.083	0.003
-375.858	-65.137	0.113	-0.045
-374.844	-137.754	0.103	-0.011
-373.829	34.559	0.036	-0.031
-372.815	197.981	-0.133	-0.203
-371.800	741.912	-0.077	0.205
-370.785	448.590	-0.027	0.059
-369.771	-72.749	-0.150	0.055
-368.756	98.018	-0.304	-0.348
-367.742	470.235	0.128	0.286
-366.727	75.911	0.192	0.202
-365.712	495.325	-0.046	-0.105
-364.698	-118.271	-0.265	0.047
-363.683	-83.663	0.171	0.054
-362.669	-200.000	-0.022	-0.154
-361.654	119.060	0.217	0.266
-360.639	46.084	0.061	-0.056
-359.625	-200.000	0.004	-0.165
-358.610	277.416	0.122	-0.215
-357.596	25.986	-0.122	0.101
-356.581	-135.031	-0.138	-0.017
-355.566	-200.000	-0.028	-0.438
-354.552	-144.220	0.055	-0.005
-353.537	-200.000	-0.034	0.177
-352.523	-12.766	0.153	0.099
-351.508	-121.204	0.319	-0.053
-350.493	613.440	0.079	-0.197
-349.479	338.312	0.119	-0.231
-348.464	-63.805	0.227	-0.092
-347.450	-52.075	-0.239	0.110
-346.435	-200.000	0.008	-0.287
-345.420	0.015	0.095	-0.068
-344.406	-200.000	0.046	0.404
-343.391	30.172	0.033	0.028
-342.377	172.372	-0.013	0.019
-341.362	92.607	0.169	0.190
-340.348	683.951	0.116	0.302
-339.333	-200.000	-0.007	-0.088
-338.318	95.963	-0.153	-0.173
-337.304	45.230	0.193	0.177
-336.289	-200.000	0.016	0.117
-335.275	800.000	0.056	0.192
-334.260	800.000	-0.045	-0.155
-333.245	282.019	0.223	0.398
-332.231	-3.242	-0.099	0.069
-331.216	-200.000	-0.022	0.127
-330.202	-200.000	-0.002	-0.200
-329.187	-102.081	-0.107	-0.026
-328.172	800.000	-0.025	-0.076
-327.158	-94.430	0.189	-0.051
-326.143	-75.065	-0.178	-0.063
-325.129	263.791	0.112	0.194
-324.114	198.907	0.168	0.256
-323.099	-39.868	0.320	0.166
-322.085	-200.000	0.009	0.078
-321.070	800.000	0.032	-0.105
-320.056	-50.663	0.095	-0.044
-319.041	46.708	-0.195	-0.180
-318.026	-200.000	0.027	0.118
-317.012	-165.830	0.184	0.008
-315.997	236.171	0.224	-0.369
-314.983	-117.090	-0.232	0.042
-313.968	-143.184	0.217	0.021
-312.953	-106.074	-0.254	-0.057
-311.939	-114.445	-0.252	-0.048
-310.924	256.143	-0.146	0.249
-309.910	270.479	-0.093	0.162
-308.895	23.737	0.138	0.113
-307.880	-102.655	0.288	0.068
-306.866	-30.175	-0.259	-0.146
-305.851	-200.000	-0.000	0.246
-304.837	-143.928	0.324	0.030
-303.822	-160.854	0.121	0.006
-302.807	458.054	0.076	-0.167
-301.793	-81.750	-0.097	-0.032
-300.778	76.684	-0.172	-0.181
-299.764	-58.992	-0.180	-0.077
-298.749	329.949	0.150	-0.286
-297.735	-40.344	-0.174	-0.090
-296.720	-66.188	-0.145	-0.057
-295.705	39.875	-0.168	0.149
-294.691	-31.104	0.319	-0.178
-293.676	-52.587	0.112	0.051
-292.662	130.827	0.046	-0.059
-291.647	-200.000	-0.012	-0.115
-290.632	353.435	0.196	0.386
-289.618	-200.000	-0.006	-0.049
-288.603	-163.949	0.074	0.003
-287.589	-200.000	-0.008	0.166
-286.574	67.554	0.201	0.203
-285.559	8.519	0.100	-0.074
-284.545	5.805	0.205	-0.150
-283.530	29.706	0.327	-0.276
-282.516	62.901	0.109	-0.108
-281.501	244.734	-0.159	0.265
-280.486	800.000	0.054	-0.163
-279.472	11.007	0.169	-0.128
-278.457	123.822	-0.177	-0.221
-277.443	-119.721	0.294	-0.050
-276.428	-62.031	-0.141	0.058
-275.413	272.163	0.080	-0.139
-274.399	-43.983	-0.380	-0.189
-273.384	113.002	-0.095	0.114
-272.370	3.068	-0.236	-0.170
-271.355	-27.430	0.230	0.133
-270.340	14.022	-0.174	0.135
-269.326	-75.534	0.309	0.109
-268.311	772.652	0.043	-0.117
-267.297	69.248	-0.107	-0.109
-266.282	127.281	0.064	-0.081
-265.267	23.533	0.138	-0.112
-264.253	-73.872	0.213	-0.077
-263.238	800.000	0.027	-0.081
-262.224	-65.878	0.108	0.043
-261.209	-55.600	0.185	-0.082
-260.195	120.741	0.177	-0.218
-259.180	800.000	0.056	-0.241
-258.165	-200.000	-0.001	-0.014
-257.151	-106.265	-0.305	-0.068
-256.136	386.953	0.076	-0.155
-255.122	119.553	0.121	0.148
-254.107	-49.306	-0.247	0.117
-253.092	-141.636	0.205	0.020
-252.078	800.000	0.038	0.110
-251.063	309.958	-0.041	-0.076
-250.049	-5.519	-0.215	-0.146
-249.034	15.192	-0.282	0.219
-248.019	53.528	-0.049	0.046
-247.005	4.016	0.203	0.147
-245.990	-6.444	-0.137	0.093
-244.976	-102.231	-0.235	0.056
-243.961	-152.652	0.208	0.015
-242.946	-62.000	-0.113	0.047
-241.932	-200.000	0.035	0.229
-240.917	-200.000	-0.000	0.078
-239.903	170.599	0.077	-0.109
-238.888	-101.920	0.070	0.017
-237.873	-200.000	-0.017	-0.229
-236.859	229.926	0.204	-0.330
-235.844	800.000	0.047	0.181
-234.830	190.740	0.094	0.140
-233.815	278.982	0.074	-0.131
-232.800	-117.934	0.190	-0.034
-231.786	27.031	0.244	0.202
-230.771	-151.951	-0.097	-0.007
-229.757	-27.185	-0.115	0.066
-228.742	-200.000	-0.011	-0.158
-227.727	207.163	-0.107	0.165
-226.713	-24.051	0.117	0.069
-225.698	-200.000	-0.016	-0.229
-224.684	-23.588	0.155	-0.092
-223.669	225.314	-0.101	0.161
-222.655	-173.073	-0.152	-0.005
-221.640	-200.000	0.021	0.257
-220.625	156.583	0.169	-0.231
-219.611	168.186	0.107	-0.151
-218.596	171.041	-0.178	-0.253
-217.582	255.374	-0.096	0.162
-216.567	-3.028	0.206	-0.142
-215.552	-200.000	0.027	-0.309
-214.538	23.031	-0.172	-0.140
-213.523	-54.963	-0.269	0.120
-212.509	11.821	-0.429	-0.326
-211.494	-200.000	-0.014	0.177
-210.479	-11.343	0.189	0.123
-209.465	157.789	-0.198	-0.271
-208.450	5.477	-0.258	-0.189
-207.436	-123.256	0.440	0.070
-206.421	-126.783	-0.293	-0.043
-205.406	53.354	-0.120	0.114
-204.392	116.492	-0.262	-0.318
-203.377	242.205	0.022	0.037
-202.363	-200.000	0.054	-0.296
-201.348	-16.889	0.111	0.070
-200.333	257.905	-0.057	0.096
-199.319	-52.670	0.257	0.117
-198.304	-128.101	-0.233	-0.033
-197.290	86.490	0.108	-0.118
-196.275	-200.000	0.061	0.371
-195.260	-7.414	-0.267	0.178
-194.246	4.654	-0.198	0.144
-193.231	-81.688	-0.226	0.073
-192.217	-12.867	-0.187	-0.120
-191.202	-59.443	0.120	-0.051
-190.187	-97.693	0.360	0.092
-189.173	-10.806	0.097	0.063
-188.158	-200.000	-0.009	-0.192
-187.144	-32.519	0.141	0.078
-186.129	22.980	0.122	-0.098
-185.114	22.137	0.070	0.056
-184.100	-96.577	0.164	-0.043
-183.085	75.889	0.044	0.046
-182.071	-38.841	-0.260	0.136
-181.056	-4.011	0.141	0.096
-180.042	-66.554	0.117	0.046
-179.027	-200.000	0.012	-0.095
-178.012	-95.756	-0.115	0.030
-176.998	-96.767	-0.240	0.062
-175.983	800.000	-0.134	0.480
-174.969	-200.000	-0.010	0.159
-173.954	-80.348	0.219	0.072
-172.939	-87.112	-0.080	-0.024
-171.925	411.074	0.175	0.367
-170.910	184.293	-0.256	0.374
-169.896	4.802	-0.353	-0.256
-168.881	-125.471	0.366	-0.055
-167.866	104.960	0.202	0.235
-166.852	32.478	-0.118	-0.101
-165.837	63.299	0.111	0.110
-164.823	-200.000	0.022	0.193
-163.808	-80.142	-0.179	-0.059
-162.793	21.746	0.076	0.061
-161.779	87.413	-0.130	0.142
-160.764	108.509	0.091	0.107
-159.750	87.423	-0.149	0.163
-158.735	-12.824	0.139	-0.089
-157.720	-8.217	-0.009	0.006
-156.706	22.802	0.197	-0.159
-155.691	-200.000	-0.002	-0.032
-154.677	90.697	-0.156	-0.173
-153.662	107.208	0.144	-0.169
-152.647	489.589	-0.216	-0.487
-151.633	-200.000	-0.024	0.236
-150.618	724.706	-0.116	0.304
-149.604	-146.477	0.107	-0.009
-148.589	800.000	0.056	0.157
-147.574	-22.121	0.148	-0.089
-146.560	4.395	-0.213	0.154
-145.545	-200.000	-0.034	-0.154
-144.531	250.108	0.055	0.093
-143.516	224.889	0.124	0.198
-142.502	800.000	-0.117	0.343
-141.487	-86.734	0.116	0.035
-140.472	-160.361	0.129	-0.007
-139.458	-24.475	-0.258	-0.152
-138.443	-44.235	-0.086	0.043
-137.429	-122.888	0.251	-0.040
-136.414	800.000	0.017	-0.052
-135.399	-200.000	-0.044	-0.291
-134.385	800.000	-0.083	0.260
-133.370	-184.223	-0.116	0.002
-132.356	-85.792	-0.162	0.049
-131.341	243.516	-0.139	0.231
-130.326	0.492	-0.263	-0.185
-129.312	-85.874	-0.025	0.008
-128.297	800.000	0.108	-0.342
-127.283	167.876	-0.056	0.079
-126.268	-200.000	-0.030	-0.195
-125.253	800.000	-0.057	0.160
-124.239	800.000	0.069	0.213
-123.224	-125.578	-0.155	0.023
-122.210	-200.000	0.007	-0.074
-121.195	-85.908	0.326	-0.100
-120.180	252.011	0.160	0.269
