DTS Sentinel unit serial number:	SN413079Multiplexer serial number:	ORYXHardware model number:	OX4-SRSoftware version number:	ORYX F/W v4.00 Oryx Data Collector v3.7.2.0data status	okinstallation	princeton_trtdifferential loss correction	single-endedforward channel	channel 2reverse channel	N/Adate	2019/09/18time	08:43:35forward acquisition time	60.00reverse acquisition time	0.00gamma	496.2192k internal	0.2340k external	0.2340temperature offset calibration	0.9979default loss term (dB/km)	0.3790temperature slope calibration	1.0000multiplexer offset coefficient	1.0000multiplexer slope coefficient	1.0000fibre end	0.00T internal ref (°C)	24.62T ext. ref 1 (°C)	0.23T ext. ref 2 (°C)	20.45length (m)	temperature (°C)	Stokes	anti-Stokes-747.200	800.000	0.023	-0.090
-746.185	22.700	-0.147	0.121
-745.171	-63.247	0.251	-0.104
-744.156	-110.287	-0.279	-0.058
-743.142	-200.000	0.035	0.173
-742.127	800.000	0.119	0.379
-741.112	-17.321	0.031	0.020
-740.098	-126.131	0.237	0.036
-739.083	660.893	0.043	0.111
-738.069	-82.700	-0.279	0.090
-737.054	-200.000	0.032	-0.369
-736.039	-119.125	-0.174	-0.031
-735.025	742.282	0.167	-0.450
-734.010	-115.743	-0.510	0.096
-732.996	-63.491	-0.167	0.069
-731.981	-171.702	-0.270	-0.009
-730.966	-68.377	0.007	-0.003
-729.952	-200.000	0.028	-0.286
-728.937	366.275	0.102	-0.205
-727.923	-43.619	-0.094	0.048
-726.908	56.644	-0.215	-0.210
-725.894	-53.233	-0.124	-0.057
-724.879	-200.000	-0.011	0.070
-723.864	-200.000	0.028	0.166
-722.850	351.001	-0.159	0.316
-721.835	-200.000	0.044	0.226
-720.821	-108.863	-0.128	-0.027
-719.806	-65.718	0.302	0.121
-718.791	-101.602	-0.504	-0.123
-717.777	171.365	0.099	-0.142
-716.762	23.076	0.218	-0.179
-715.748	-200.000	0.082	0.390
-714.733	800.000	-0.107	-0.334
-713.718	-200.000	-0.025	-0.346
-712.704	-124.878	0.207	0.032
-711.689	162.643	-0.266	0.374
-710.675	143.187	0.100	0.134
-709.660	-63.584	-0.258	-0.106
-708.645	336.381	-0.070	-0.136
-707.631	113.034	-0.121	0.147
-706.616	-200.000	-0.005	0.063
-705.602	389.376	-0.174	-0.360
-704.587	-200.000	0.005	0.136
-703.572	205.251	0.118	0.184
-702.558	-64.930	-0.393	0.159
-701.543	-22.359	-0.092	-0.056
-700.529	800.000	-0.056	-0.224
-699.514	800.000	-0.219	-0.737
-698.499	-63.245	-0.367	-0.151
-697.485	-49.560	-0.504	-0.240
-696.470	410.225	0.125	-0.265
-695.456	-125.691	-0.461	0.070
-694.441	-200.000	-0.015	0.358
-693.426	604.615	-0.022	0.055
-692.412	-29.154	0.241	0.138
-691.397	59.621	-0.092	-0.090
-690.383	747.696	-0.138	-0.371
-689.368	-44.575	0.184	-0.092
-688.354	31.377	-0.101	-0.087
-687.339	-81.988	-0.311	0.102
-686.324	374.424	-0.238	-0.484
-685.310	300.623	-0.104	0.192
-684.295	-161.281	0.209	-0.011
-683.281	287.992	0.086	-0.155
-682.266	-50.654	-0.391	0.184
-681.251	-200.000	0.001	0.174
-680.237	-200.000	0.035	0.158
-679.222	14.011	0.209	-0.163
-678.208	-29.717	0.093	0.053
-677.193	-90.166	0.076	0.022
-676.178	-13.197	-0.159	-0.103
-675.164	-3.828	0.206	0.143
-674.149	-141.854	0.387	-0.039
-673.135	-111.204	-0.162	-0.033
-672.120	-115.909	0.298	0.056
-671.105	-38.208	-0.114	-0.060
-670.091	-65.625	-0.274	-0.110
-669.076	-200.000	0.078	-0.359
-668.062	-14.572	0.290	-0.187
-667.047	49.065	-0.088	0.082
-666.032	67.898	-0.286	-0.292
-665.018	182.501	0.087	-0.128
-664.003	-14.700	-0.174	0.112
-662.989	246.208	0.235	-0.396
-661.974	-79.070	-0.257	0.087
-660.959	-137.671	-0.268	0.030
-659.945	84.470	0.143	-0.156
-658.930	-150.133	0.383	-0.030
-657.916	281.332	-0.163	-0.291
-656.901	17.983	-0.173	0.137
-655.886	-200.000	0.009	0.119
-654.872	88.578	-0.195	-0.216
-653.857	-200.000	-0.005	0.106
-652.843	-150.198	0.094	-0.007
-651.828	-200.000	-0.039	-0.212
-650.814	78.631	0.140	0.149
-649.799	38.120	0.149	0.133
-648.784	247.295	0.170	-0.287
-647.770	93.613	-0.320	0.362
-646.755	-94.835	0.104	-0.028
-645.741	168.510	0.163	0.232
-644.726	411.582	-0.061	0.130
-643.711	-44.950	-0.110	-0.054
-642.697	42.952	-0.179	-0.163
-641.682	-200.000	0.090	-0.396
-640.668	-200.000	0.009	0.096
-639.653	187.745	0.252	-0.375
-638.638	425.038	0.154	-0.331
-637.624	-163.602	-0.293	-0.014
-636.609	430.224	0.044	0.094
-635.595	-200.000	-0.001	0.067
-634.580	-51.021	-0.163	-0.076
-633.565	-140.465	0.062	0.006
-632.551	-200.000	-0.043	0.219
-631.536	-124.244	0.278	-0.043
-630.522	-129.163	-0.127	-0.018
-629.507	800.000	-0.054	-0.191
-628.492	94.908	0.030	-0.034
-627.478	-38.012	-0.045	-0.024
-626.463	-200.000	-0.012	-0.073
-625.449	-114.171	-0.045	0.009
-624.434	800.000	-0.143	-0.451
-623.419	-200.000	-0.019	0.137
-622.405	-24.985	0.148	0.087
-621.390	-42.823	0.095	-0.048
-620.376	-173.151	0.203	0.006
-619.361	-48.610	0.291	-0.140
-618.346	800.000	-0.028	-0.119
-617.332	-37.075	0.093	-0.050
-616.317	-96.505	0.385	0.101
-615.303	781.670	-0.042	0.115
-614.288	46.389	-0.054	-0.050
-613.273	392.292	0.166	-0.344
-612.259	78.498	-0.295	0.314
-611.244	-50.186	0.183	-0.086
-610.230	-97.572	-0.042	-0.011
-609.215	-200.000	0.001	-0.190
-608.201	54.309	-0.079	0.076
-607.186	800.000	0.020	-0.079
-606.171	283.427	0.211	-0.378
-605.157	-80.469	-0.092	0.031
-604.142	-83.789	0.026	0.008
-603.128	-92.593	0.047	-0.013
-602.113	-70.282	0.355	0.134
-601.098	-120.802	-0.371	0.062
-600.084	142.802	0.117	0.155
-599.069	-146.553	0.187	-0.016
-598.055	800.000	-0.036	-0.114
-597.040	690.935	0.047	-0.124
-596.025	26.950	0.312	0.261
-595.011	201.508	-0.185	0.283
-593.996	-61.280	0.246	-0.103
-592.982	319.239	0.208	-0.394
-591.967	246.244	-0.121	0.203
-590.952	24.280	-0.158	-0.130
-589.938	377.358	0.066	-0.135
-588.923	-69.665	-0.148	-0.057
-587.909	-138.059	0.115	-0.013
-586.894	-200.000	-0.016	0.088
-585.879	-106.711	0.282	0.062
-584.865	-54.822	0.309	0.139
-583.850	638.414	0.154	0.389
-582.836	64.130	0.161	-0.161
-581.821	19.279	-0.257	-0.206
-580.806	466.041	-0.104	-0.231
-579.792	96.675	-0.285	-0.325
-578.777	-120.612	-0.376	-0.064
-577.763	55.681	0.170	0.164
-576.748	234.752	-0.094	0.154
-575.733	-46.844	-0.139	-0.067
-574.719	-188.086	0.166	-0.002
-573.704	255.193	0.035	-0.059
-572.690	159.611	0.150	-0.207
-571.675	122.567	0.237	-0.295
-570.661	-34.911	0.511	-0.278
-569.646	-200.000	-0.021	-0.188
-568.631	169.338	0.030	0.042
-567.617	800.000	-0.121	0.416
-566.602	-120.274	-0.320	-0.054
-565.588	-200.000	0.002	-0.140
-564.573	-101.882	0.281	0.068
-563.558	64.325	0.118	0.118
-562.544	-200.000	0.057	0.440
-561.529	-58.060	0.094	0.041
-560.515	739.085	-0.096	-0.257
-559.500	-125.902	-0.210	0.031
-558.485	-1.719	0.114	0.080
-557.471	-50.333	0.137	0.065
-556.456	0.729	-0.057	-0.041
-555.442	167.402	0.130	-0.184
-554.427	-74.812	-0.158	-0.056
-553.412	67.564	-0.253	0.257
-552.398	-14.414	0.086	-0.055
-551.383	-200.000	0.001	0.544
-550.369	-200.000	-0.013	-0.425
-549.354	57.419	0.230	-0.224
-548.339	-36.133	-0.400	0.215
-547.325	192.893	0.237	0.356
-546.310	-103.006	-0.325	-0.077
-545.296	-200.000	0.063	-0.409
-544.281	-23.229	-0.199	-0.119
-543.266	-200.000	-0.009	0.248
-542.252	-200.000	-0.038	0.172
-541.237	192.499	-0.128	0.193
-540.223	194.962	0.305	0.461
-539.208	-104.997	-0.098	0.022
-538.193	54.195	0.122	-0.117
-537.179	800.000	-0.012	0.038
-536.164	-82.068	0.111	0.036
-535.150	-100.730	0.240	-0.059
-534.135	291.755	0.260	-0.471
-533.121	25.002	-0.264	-0.218
-532.106	-86.799	0.298	0.091
-531.091	429.675	-0.188	-0.404
-530.077	637.676	-0.051	0.129
-529.062	-57.185	-0.291	0.127
-528.048	200.347	-0.230	0.351
-527.033	708.003	-0.062	0.163
-526.018	-200.000	-0.003	0.328
-525.004	45.047	0.044	0.040
-523.989	-200.000	-0.020	0.136
-522.975	-147.081	-0.134	0.011
-521.960	800.000	0.073	-0.240
-520.945	-200.000	0.001	0.109
-519.931	-200.000	-0.033	0.532
-518.916	-143.354	0.078	0.007
-517.902	-24.431	0.047	-0.028
-516.887	-200.000	-0.012	-0.144
-515.872	-200.000	0.030	-0.190
-514.858	102.744	-0.165	-0.191
-513.843	246.030	0.220	-0.368
-512.829	-150.563	0.129	0.010
-511.814	-9.498	0.315	0.209
-510.799	10.206	0.181	0.137
-509.785	786.919	-0.159	-0.434
-508.770	-97.979	0.278	-0.071
-507.756	-200.000	-0.012	-0.268
-506.741	75.939	-0.185	-0.194
-505.726	800.000	0.028	-0.109
-504.712	200.151	0.071	-0.109
-503.697	-31.652	-0.115	0.064
-502.683	392.775	-0.058	-0.120
-501.668	216.212	0.043	0.068
-500.653	-200.000	0.003	0.264
-499.639	-178.077	-0.241	-0.006
-498.624	-200.000	0.007	0.051
-497.610	-200.000	0.032	0.157
-496.595	291.122	-0.123	0.222
-495.581	147.454	-0.118	-0.158
-494.566	800.000	-0.036	-0.103
-493.551	-200.000	-0.003	0.383
-492.537	-77.691	0.171	-0.059
-491.522	289.812	0.180	-0.325
-490.508	381.883	-0.166	-0.338
-489.493	-131.323	-0.279	-0.037
-488.478	-165.667	0.169	0.007
-487.464	34.169	-0.221	-0.192
-486.449	56.431	-0.149	-0.143
-485.435	665.606	-0.028	0.073
-484.420	259.651	-0.142	-0.243
-483.405	-72.875	0.290	0.106
-482.391	-49.929	-0.237	0.112
-481.376	77.867	-0.147	0.156
-480.362	73.115	-0.261	0.271
-479.347	800.000	-0.042	0.151
-478.332	-18.818	-0.079	-0.049
-477.318	-18.144	0.225	-0.140
-476.303	467.264	-0.051	-0.114
-475.289	48.012	0.194	-0.180
-474.274	67.482	-0.161	-0.163
-473.259	-53.484	-0.279	-0.127
-472.245	-123.554	0.138	-0.022
-471.230	-200.000	-0.002	0.517
-470.216	800.000	0.092	0.351
-469.201	87.877	-0.276	-0.303
-468.186	57.821	-0.066	-0.064
-467.172	69.630	0.134	-0.137
-466.157	-200.000	0.011	0.095
-465.143	800.000	0.102	0.302
-464.128	-200.000	-0.056	0.344
-463.113	800.000	-0.145	-0.533
-462.099	162.881	-0.014	-0.019
-461.084	-152.612	-0.229	-0.016
-460.070	243.388	-0.075	-0.125
-459.055	-146.467	-0.111	0.010
-458.040	-62.531	-0.087	0.036
-457.026	-82.546	0.313	0.101
-456.011	-200.000	-0.011	-0.194
-454.997	-200.000	-0.002	0.154
-453.982	-200.000	0.045	0.210
-452.968	304.333	-0.096	-0.176
-451.953	800.000	0.046	-0.142
-450.938	-73.050	-0.168	-0.061
-449.924	-137.099	0.110	0.012
-448.909	-112.840	-0.368	0.072
-447.895	-7.533	-0.217	-0.145
-446.880	451.081	-0.032	-0.070
-445.865	-51.291	-0.234	-0.108
-444.851	800.000	0.083	0.256
-443.836	800.000	0.102	-0.322
-442.822	580.241	-0.126	0.306
-441.807	295.549	0.056	-0.102
-440.792	-29.874	0.104	0.059
-439.778	-200.000	0.033	0.219
-438.763	-200.000	-0.048	0.224
-437.749	-150.924	-0.133	-0.010
-436.734	240.965	-0.139	-0.230
-435.719	-149.143	0.101	0.008
-434.705	180.457	0.005	0.008
-433.690	800.000	-0.046	-0.170
-432.676	-125.826	-0.094	0.014
-431.661	0.033	-0.281	-0.198
-430.646	-49.398	0.089	-0.042
-429.632	-100.678	0.148	-0.036
-428.617	800.000	0.021	-0.089
-427.603	-200.000	0.078	0.415
-426.588	253.784	0.211	0.357
-425.573	750.450	0.073	0.194
-424.559	-103.157	0.035	0.008
-423.544	61.149	-0.356	-0.350
-422.530	272.388	0.047	-0.082
-421.515	259.630	0.036	-0.061
-420.500	0.239	0.160	0.113
-419.486	-49.006	-0.129	-0.061
-418.471	23.119	-0.149	0.121
-417.457	-0.480	0.157	0.110
-416.442	159.454	-0.179	0.246
-415.428	-109.132	0.121	0.026
-414.413	-44.937	-0.159	0.079
-413.398	8.252	0.195	0.145
-412.384	50.485	0.149	-0.139
-411.369	11.258	0.091	-0.069
-410.355	-41.878	-0.265	-0.134
-409.340	28.648	-0.142	0.119
-408.325	-78.915	0.360	-0.121
-407.311	476.515	0.125	0.279
-406.296	800.000	0.037	-0.119
-405.282	104.019	-0.373	-0.433
-404.267	-91.265	0.310	0.088
-403.252	800.000	0.084	0.284
-402.238	198.231	-0.111	0.167
-401.223	-92.600	-0.188	0.052
-400.209	-30.920	-0.387	-0.216
-399.194	-200.000	0.241	-0.001
-398.179	-157.957	-0.176	-0.010
-397.165	-85.288	0.286	-0.088
-396.150	800.000	-0.074	0.276
-395.136	0.750	-0.221	-0.156
-394.121	-63.472	-0.117	-0.048
-393.106	-89.663	-0.165	-0.048
-392.092	-69.945	-0.451	-0.170
-391.077	50.021	-0.047	-0.044
-390.063	287.664	-0.130	0.232
-389.048	71.358	-0.419	0.430
-388.033	800.000	0.090	-0.359
-387.019	800.000	0.157	-0.458
-386.004	332.523	-0.124	-0.236
-384.990	384.674	-0.154	-0.314
-383.975	-90.468	0.242	-0.069
-382.960	-200.000	0.026	0.194
-381.946	482.907	-0.032	-0.072
-380.931	-35.263	0.216	-0.116
-379.917	581.710	-0.045	-0.110
-378.902	99.488	-0.278	0.318
-377.888	173.982	0.117	0.167
-376.873	132.547	0.105	-0.134
-375.858	-151.026	-0.248	-0.018
-374.844	55.839	-0.100	0.096
-373.829	61.375	0.162	-0.159
-372.815	52.906	-0.192	-0.182
-371.800	128.731	-0.228	0.287
-370.785	-61.007	0.290	-0.121
-369.771	-95.486	0.291	-0.077
-368.756	0.139	-0.059	-0.041
-367.742	77.837	-0.089	-0.094
-366.727	800.000	-0.068	0.293
-365.712	-137.176	-0.182	-0.021
-364.698	-101.684	-0.310	-0.074
-363.683	208.873	-0.261	-0.404
-362.669	800.000	0.066	0.238
-361.654	-200.000	0.053	0.257
-360.639	132.873	0.050	0.063
-359.625	-120.998	0.286	-0.047
-358.610	16.406	0.207	-0.162
-357.596	-91.714	-0.190	-0.053
-356.581	33.014	-0.113	0.097
-355.566	-70.391	0.181	0.068
-354.552	-200.000	0.004	0.025
-353.537	-200.000	0.003	0.207
-352.523	-66.639	-0.159	0.062
-351.508	56.953	-0.224	-0.216
-350.493	216.903	-0.091	0.143
-349.479	-5.989	0.242	-0.163
-348.464	-200.000	-0.004	-0.113
-347.450	31.235	0.085	-0.072
-346.435	128.161	0.161	0.202
-345.420	155.895	0.106	-0.145
-344.406	800.000	-0.088	0.286
-343.391	-50.656	-0.218	0.101
-342.377	407.626	0.107	0.223
-341.362	-30.499	-0.076	0.043
-340.348	-110.979	-0.064	-0.013
-339.333	326.614	0.089	-0.169
-338.318	800.000	0.087	-0.347
-337.304	24.442	-0.044	0.036
-336.289	-155.737	0.094	-0.006
-335.275	-56.370	-0.298	-0.130
-334.260	-162.828	0.145	0.007
-333.245	218.294	-0.197	0.310
-332.231	-121.624	0.189	0.031
-331.216	67.200	-0.057	0.057
-330.202	37.704	0.158	-0.138
-329.187	-106.748	-0.287	0.063
-328.172	-122.520	0.362	-0.058
-327.158	-200.000	0.046	-0.234
-326.143	-2.896	-0.245	-0.169
-325.129	197.894	0.236	0.355
-324.114	255.051	0.098	0.166
-323.099	-200.000	0.050	0.252
-322.085	-200.000	-0.067	-0.411
-321.070	-200.000	0.013	-0.119
-320.056	-200.000	0.006	-0.108
-319.041	-24.078	0.319	0.188
-318.026	800.000	-0.059	-0.221
-317.012	-200.000	-0.022	0.238
-315.997	50.234	-0.108	-0.101
-314.983	-200.000	-0.014	0.064
-313.968	276.200	-0.007	0.012
-312.953	-63.902	0.224	-0.090
-311.939	-179.454	-0.336	-0.007
-310.924	-200.000	0.053	-0.327
-309.910	210.844	0.116	-0.180
-308.895	-90.727	-0.251	-0.072
-307.880	-66.936	-0.334	0.130
-306.866	184.260	-0.174	0.254
-305.851	31.202	0.096	0.081
-304.837	451.852	-0.079	-0.171
-303.822	-200.000	-0.008	-0.100
-302.807	-52.672	-0.254	-0.116
-301.793	-200.000	0.029	0.173
-300.778	550.033	0.040	0.095
-299.764	800.000	0.030	0.117
-298.749	-104.929	0.285	-0.064
-297.735	-200.000	-0.006	-0.217
-296.720	30.279	-0.146	0.123
-295.705	44.216	0.180	-0.163
-294.691	-183.234	-0.126	0.002
-293.676	73.593	0.266	-0.275
-292.662	-200.000	-0.011	-0.054
-291.647	-200.000	0.005	0.024
-290.632	137.765	0.207	0.267
-289.618	-200.000	-0.040	0.640
-288.603	-81.591	0.190	0.062
-287.589	-98.500	-0.077	0.019
-286.574	-200.000	-0.095	-0.421
-285.559	-200.000	0.022	-0.312
-284.545	-140.168	0.085	-0.009
-283.530	-4.384	-0.058	0.039
-282.516	800.000	-0.048	0.193
-281.501	-104.726	-0.119	-0.027
-280.486	412.687	0.135	0.283
-279.472	411.966	-0.091	-0.190
-278.457	-108.214	0.275	0.059
-277.443	-48.676	-0.121	0.057
-276.428	46.685	-0.016	-0.014
-275.413	-32.073	0.021	-0.011
-274.399	-167.152	-0.194	-0.008
-273.384	175.929	0.152	0.218
-272.370	77.358	0.124	0.129
-271.355	357.560	-0.127	0.250
-270.340	163.860	-0.089	0.123
-269.326	-44.614	-0.081	-0.040
-268.311	800.000	-0.005	-0.019
-267.297	-89.412	-0.189	0.055
-266.282	-122.166	0.177	0.029
-265.267	-107.093	0.159	-0.035
-264.253	-200.000	0.059	0.438
-263.238	59.861	-0.084	-0.081
-262.224	-71.603	0.387	-0.142
-261.209	155.240	0.227	-0.308
-260.195	-109.603	0.224	0.046
-259.180	-29.062	-0.191	0.108
-258.165	160.353	0.056	0.077
-257.151	-75.160	-0.181	-0.064
-256.136	101.072	0.135	0.154
-255.122	-151.789	-0.296	0.021
-254.107	-200.000	0.060	0.547
-253.092	283.516	-0.145	-0.256
-252.078	136.089	0.033	-0.042
-251.063	14.354	0.096	0.074
-250.049	94.954	0.028	0.031
-249.034	33.561	-0.150	-0.128
-248.019	30.227	-0.207	0.173
-247.005	800.000	0.051	0.202
-245.990	59.584	-0.229	0.222
-244.976	187.970	-0.053	-0.078
-243.961	710.318	-0.083	0.216
-242.946	-123.832	0.080	0.012
-241.932	-89.305	0.246	-0.071
-240.917	-139.449	-0.121	-0.013
-239.903	-95.882	0.071	0.019
-238.888	463.930	0.125	0.275
-237.873	-121.649	-0.428	-0.070
-236.859	-200.000	0.060	-0.292
-235.844	800.000	0.070	-0.221
-234.830	299.782	0.137	0.247
-233.815	-200.000	0.064	0.281
-232.800	348.546	0.079	0.153
-231.786	356.783	0.160	0.312
-230.771	216.112	-0.025	0.039
-229.757	-10.611	-0.185	-0.121
-228.742	433.173	0.123	0.263
-227.727	124.811	-0.199	-0.246
-226.713	-148.989	0.283	-0.022
-225.698	-200.000	-0.017	-0.185
-224.684	-200.000	0.047	-0.274
-223.669	-10.012	-0.330	-0.216
-222.655	-78.484	0.084	-0.028
-221.640	-98.070	0.117	0.030
-220.625	-44.577	0.302	-0.148
-219.611	-50.534	0.204	-0.094
-218.596	117.283	-0.252	-0.304
-217.582	800.000	0.079	-0.243
-216.567	-200.000	0.085	0.377
-215.552	-46.685	-0.031	0.015
-214.538	-165.025	0.332	0.015
-213.523	50.319	-0.168	0.156
-212.509	-32.114	0.071	0.039
-211.494	26.730	-0.070	0.057
-210.479	-35.407	0.044	-0.024
-209.465	-200.000	0.015	-0.077
-208.450	-44.681	-0.160	-0.078
-207.436	561.195	0.105	0.249
-206.421	-125.058	0.091	-0.014
-205.406	-50.854	0.181	-0.084
-204.392	9.338	0.246	-0.183
-203.377	361.626	0.077	0.151
-202.363	-94.285	-0.059	-0.016
-201.348	193.258	-0.126	-0.186
-200.333	-108.438	-0.140	-0.030
-199.319	-85.478	-0.086	0.026
-198.304	190.533	-0.072	0.106
-197.290	-34.245	-0.327	-0.176
-196.275	6.314	0.095	0.070
-195.260	-119.750	0.343	-0.058
-194.246	512.382	0.031	0.070
-193.231	-11.219	0.089	0.057
-192.217	800.000	0.083	0.346
-191.202	-200.000	-0.031	0.164
-190.187	59.257	-0.224	0.217
-189.173	89.491	-0.131	0.144
-188.158	-136.331	-0.100	0.011
-187.144	140.715	-0.106	-0.137
-186.129	-200.000	-0.023	0.393
-185.114	-82.728	0.219	-0.069
-184.100	89.831	-0.271	-0.296
-183.085	97.218	-0.058	0.066
-182.071	-200.000	0.011	0.317
-181.056	143.625	-0.116	-0.152
-180.042	800.000	-0.068	-0.244
-179.027	-200.000	-0.051	-0.276
-178.012	800.000	0.078	0.213
-176.998	76.259	0.103	-0.107
-175.983	302.255	0.082	-0.148
-174.969	800.000	-0.045	0.192
-173.954	-200.000	-0.027	0.207
-172.939	-143.863	0.140	-0.013
-171.925	800.000	0.033	-0.128
-170.910	800.000	0.033	0.100
-169.896	-140.231	-0.237	0.024
-168.881	-131.168	0.228	0.030
-167.866	-112.345	0.045	-0.009
-166.852	800.000	0.077	0.299
-165.837	-3.065	0.158	-0.108
-164.823	264.652	-0.096	0.163
-163.808	165.768	-0.064	0.088
-162.793	800.000	-0.084	-0.310
-161.779	-133.722	0.267	-0.033
-160.764	-43.475	0.149	0.074
-159.750	-6.987	0.082	0.055
-158.735	-82.184	0.396	-0.127
-157.720	-89.636	0.188	0.054
-156.706	800.000	0.112	-0.349
-155.691	-200.000	-0.043	-0.308
-154.677	-112.992	-0.123	-0.024
-153.662	130.574	-0.273	0.343
-152.647	-200.000	-0.046	0.235
-151.633	107.062	0.296	0.344
-150.618	-200.000	0.006	-0.127
-149.604	34.728	0.234	0.201
-148.589	-114.946	-0.183	-0.034
-147.574	106.951	-0.144	0.168
-146.560	-73.923	-0.174	-0.062
-145.545	-34.851	-0.164	-0.087
-144.531	91.257	0.192	0.212
-143.516	800.000	0.042	-0.145
-142.502	-172.168	0.196	0.006
-141.487	80.636	-0.190	0.200
-140.472	71.335	-0.174	-0.177
-139.458	80.570	0.270	0.285
-138.443	-43.018	0.048	0.024
-137.429	-156.963	0.438	-0.026
-136.414	800.000	0.112	0.353
-135.399	282.807	-0.267	-0.469
-134.385	-7.799	-0.095	0.063
-133.370	-119.402	0.289	-0.049
-132.356	-147.446	0.231	0.019
-131.341	-120.505	-0.046	-0.008
-130.326	-117.896	-0.603	-0.106
-129.312	-200.000	-0.022	-0.122
-128.297	8.404	-0.072	-0.053
-127.283	-200.000	-0.020	-0.260
-126.268	176.890	0.047	0.067
-125.253	-61.674	0.223	0.091
-124.239	588.833	0.100	0.240
-123.224	114.454	0.077	-0.092
-122.210	326.799	0.104	0.195
