DTS Sentinel unit serial number:	SN413079Multiplexer serial number:	ORYXHardware model number:	OX4-SRSoftware version number:	ORYX F/W v4.00 Oryx Data Collector v3.7.2.0data status	okinstallation	princeton_trtdifferential loss correction	single-endedforward channel	channel 2reverse channel	N/Adate	2019/09/11time	08:29:11forward acquisition time	60.00reverse acquisition time	0.00gamma	496.2192k internal	0.2321k external	0.2321temperature offset calibration	0.9966default loss term (dB/km)	0.3790temperature slope calibration	1.0000multiplexer offset coefficient	1.0000multiplexer slope coefficient	1.0000fibre end	0.00T internal ref (°C)	33.06T ext. ref 1 (°C)	0.10T ext. ref 2 (°C)	30.87length (m)	temperature (°C)	Stokes	anti-Stokes-747.200	-140.042	-0.158	-0.017
-746.185	31.156	0.265	0.230
-745.171	-200.000	-0.046	0.381
-744.156	-88.011	0.050	-0.015
-743.142	433.945	0.106	-0.233
-742.127	689.981	0.058	-0.154
-741.112	130.303	-0.229	0.297
-740.098	800.000	-0.019	0.057
-739.083	-123.300	-0.370	0.060
-738.069	430.910	-0.093	0.203
-737.054	-50.335	0.138	0.066
-736.039	-173.310	-0.568	-0.017
-735.025	677.718	0.057	0.148
-734.010	-156.063	-0.354	0.023
-732.996	-86.288	0.211	0.066
-731.981	81.214	-0.111	0.121
-730.966	-56.019	-0.115	0.052
-729.952	16.506	0.179	0.143
-728.937	194.353	-0.088	0.135
-727.923	212.759	-0.037	-0.059
-726.908	-200.000	-0.006	-0.187
-725.894	-78.383	-0.140	0.049
-724.879	43.655	0.157	0.145
-723.864	19.877	0.263	-0.214
-722.850	721.635	-0.062	-0.166
-721.835	800.000	0.091	-0.274
-720.821	800.000	-0.029	-0.115
-719.806	-177.832	0.192	0.005
-718.791	-20.462	0.069	0.043
-717.777	-200.000	0.016	-0.095
-716.762	800.000	0.099	-0.392
-715.748	14.280	0.064	-0.051
-714.733	33.406	0.075	-0.066
-713.718	6.087	0.069	0.051
-712.704	618.182	-0.057	0.144
-711.689	800.000	0.057	-0.193
-710.675	228.476	0.143	0.235
-709.660	800.000	0.062	-0.224
-708.645	17.751	-0.085	-0.068
-707.631	222.016	-0.174	-0.283
-706.616	-85.207	-0.340	-0.107
-705.602	-117.486	0.285	-0.052
-704.587	-22.205	-0.150	-0.092
-703.572	-113.262	0.302	-0.060
-702.558	-200.000	0.028	-0.157
-701.543	4.878	0.302	-0.224
-700.529	88.318	0.233	-0.261
-699.514	-110.693	0.388	-0.081
-698.499	-15.766	0.028	-0.018
-697.485	-9.153	-0.111	-0.075
-696.470	99.091	-0.106	0.124
-695.456	-42.816	-0.312	0.160
-694.441	-59.027	0.199	-0.087
-693.426	65.897	-0.170	-0.174
-692.412	454.043	-0.170	-0.379
-691.397	-200.000	-0.048	-0.341
-690.383	-47.029	-0.015	-0.007
-689.368	31.639	-0.170	0.148
-688.354	105.069	-0.168	0.200
-687.339	-78.793	0.177	0.061
-686.324	-1.271	0.213	-0.152
-685.310	390.444	0.087	-0.181
-684.295	-200.000	-0.042	0.229
-683.281	-3.085	-0.295	-0.207
-682.266	156.083	-0.160	-0.223
-681.251	99.335	0.087	0.102
-680.237	151.299	0.093	0.127
-679.222	-38.698	-0.339	-0.180
-678.208	-200.000	0.034	0.460
-677.193	380.933	0.064	-0.133
-676.178	3.510	-0.342	-0.251
-675.164	-111.987	0.165	-0.034
-674.149	167.424	0.154	-0.221
-673.135	165.463	0.084	-0.119
-672.120	582.369	0.118	0.292
-671.105	118.512	-0.136	0.169
-670.091	-67.367	-0.292	-0.116
-669.076	-137.587	-0.484	-0.055
-668.062	800.000	-0.150	0.448
-667.047	9.067	0.079	-0.060
-666.032	59.688	-0.229	0.227
-665.018	72.056	0.105	0.110
-664.003	-114.246	-0.268	0.052
-662.989	309.926	-0.120	0.227
-661.974	800.000	-0.048	-0.186
-660.959	17.397	-0.156	0.125
-659.945	-200.000	0.008	-0.092
-658.930	-63.895	-0.226	-0.093
-657.916	-1.280	-0.115	0.082
-656.901	-114.218	0.140	0.027
-655.886	-200.000	-0.044	0.433
-654.872	-64.438	0.361	-0.148
-653.857	-200.000	0.049	-0.308
-652.843	549.229	-0.037	-0.089
-651.828	-112.714	-0.122	0.024
-650.814	-200.000	-0.026	0.196
-649.799	62.443	-0.126	-0.127
-648.784	800.000	-0.092	-0.372
-647.770	-4.664	-0.135	0.094
-646.755	800.000	0.050	0.143
-645.741	-29.237	-0.284	-0.164
-644.726	-39.537	0.130	-0.069
-643.711	-173.936	-0.172	-0.005
-642.697	-110.498	-0.172	-0.036
-641.682	-72.456	-0.199	0.074
-640.668	525.602	-0.087	-0.205
-639.653	-170.879	0.187	-0.006
-638.638	67.758	0.181	0.187
-637.624	-72.702	0.176	0.065
-636.609	440.400	0.061	-0.135
-635.595	-25.067	-0.215	-0.128
-634.580	800.000	-0.026	0.082
-633.565	-174.534	0.153	0.004
-632.551	-200.000	-0.008	-0.150
-631.536	-92.718	-0.061	-0.017
-630.522	135.379	-0.159	0.208
-629.507	-118.328	-0.460	0.082
-628.492	800.000	-0.095	-0.308
-627.478	-20.195	-0.230	0.143
-626.463	-200.000	0.010	0.215
-625.449	800.000	-0.056	-0.180
-624.434	-200.000	-0.023	0.167
-623.419	20.968	0.262	0.214
-622.405	105.569	0.250	-0.297
-621.390	-194.391	-0.085	0.001
-620.376	-17.803	-0.047	-0.030
-619.361	-140.572	-0.542	-0.057
-618.346	46.851	-0.378	-0.353
-617.332	76.800	0.136	0.145
-616.317	18.792	-0.139	-0.112
-615.303	-67.418	-0.384	-0.152
-614.288	-71.052	0.225	-0.085
-613.273	-56.332	-0.161	0.072
-612.259	5.980	-0.157	0.117
-611.244	-78.710	0.143	0.049
-610.230	-142.229	-0.333	-0.033
-609.215	-116.326	0.237	0.044
-608.201	-106.774	-0.163	-0.036
-607.186	-149.410	-0.116	0.009
-606.171	41.715	-0.248	-0.226
-605.157	-200.000	-0.023	-0.154
-604.142	-112.828	0.099	0.020
-603.128	-97.062	-0.233	-0.061
-602.113	-200.000	-0.014	-0.233
-601.098	90.815	0.267	0.300
-600.084	-85.808	0.332	0.103
-599.069	-93.666	0.366	0.101
-598.055	-146.389	-0.291	0.026
-597.040	3.791	0.027	0.020
-596.025	-52.961	-0.150	-0.070
-595.011	149.242	-0.189	0.257
-593.996	-135.538	-0.053	-0.006
-592.982	10.687	0.217	-0.166
-591.967	-155.510	0.097	-0.006
-590.952	-103.962	-0.212	-0.050
-589.938	316.629	-0.080	0.152
-588.923	-200.000	0.003	-0.122
-587.909	800.000	0.081	-0.318
-586.894	179.630	-0.145	-0.214
-585.879	2.052	-0.183	0.132
-584.865	-21.328	0.154	0.095
-583.850	293.965	0.009	0.017
-582.836	-147.724	0.331	0.028
-581.821	138.751	0.166	0.220
-580.806	800.000	-0.084	0.328
-579.792	30.687	0.084	-0.072
-578.777	-40.466	0.383	-0.200
-577.763	26.037	0.137	0.115
-576.748	38.985	0.087	0.078
-575.733	-200.000	0.000	-0.180
-574.719	111.949	-0.167	-0.202
-573.704	-200.000	0.035	0.181
-572.690	-51.750	0.052	0.024
-571.675	129.401	0.112	0.143
-570.661	-145.668	-0.176	-0.016
-569.646	13.096	0.109	0.085
-568.631	-114.821	-0.254	-0.049
-567.617	4.185	0.366	-0.269
-566.602	-128.719	-0.119	0.017
-565.588	188.505	-0.213	0.320
-564.573	-200.000	-0.007	-0.281
-563.558	-200.000	-0.022	0.108
-562.544	12.993	-0.221	0.172
-561.529	-173.406	-0.168	0.005
-560.515	-39.179	-0.250	-0.132
-559.500	-59.924	-0.314	-0.135
-558.485	-85.796	-0.163	0.051
-557.471	-200.000	0.042	0.323
-556.456	800.000	-0.066	0.197
-555.442	134.903	0.146	0.190
-554.427	-200.000	0.129	0.001
-553.412	737.276	0.065	-0.176
-552.398	-115.774	-0.367	-0.069
-551.383	214.561	-0.045	-0.071
-550.369	-200.000	0.004	-0.241
-549.354	-31.081	-0.110	-0.062
-548.339	52.496	-0.158	-0.151
-547.325	800.000	0.070	-0.201
-546.310	333.478	0.202	0.392
-545.296	74.343	-0.139	-0.146
-544.281	108.466	-0.083	0.099
-543.266	302.558	-0.032	-0.059
-542.252	800.000	0.101	0.381
-541.237	-200.000	0.064	0.309
-540.223	110.417	-0.079	0.095
-539.208	-114.627	0.329	0.063
-538.193	45.615	-0.493	0.457
-537.179	-95.231	0.027	-0.007
-536.164	-200.000	-0.061	-0.394
-535.150	-7.766	0.293	-0.199
-534.135	681.536	0.023	0.061
-533.121	-108.011	0.088	0.019
-532.106	261.895	0.189	-0.329
-531.091	-200.000	-0.016	-0.321
-530.077	800.000	-0.070	-0.246
-529.062	164.609	0.097	0.138
-528.048	-200.000	-0.067	-0.452
-527.033	46.194	-0.128	0.119
-526.018	46.562	0.122	0.113
-525.004	-170.949	0.384	0.013
-523.989	-66.157	0.260	0.104
-522.975	15.114	0.280	0.220
-521.960	-200.000	0.000	-0.138
-520.945	48.198	-0.161	0.151
-519.931	-97.099	0.164	-0.043
-518.916	70.930	0.084	0.087
-517.902	-200.000	0.035	0.164
-516.887	209.515	-0.091	-0.144
-515.872	-64.956	0.274	0.111
-514.858	800.000	0.104	-0.448
-513.843	-125.015	-0.271	0.042
-512.829	-200.000	-0.019	0.107
-511.814	-188.075	-0.154	-0.002
-510.799	-101.136	-0.348	-0.085
-509.785	244.158	-0.107	-0.180
-508.770	-95.106	0.243	0.066
-507.756	312.265	0.072	-0.136
-506.741	66.469	0.227	-0.231
-505.726	-200.000	-0.020	-0.263
-504.712	368.478	0.005	-0.010
-503.697	800.000	-0.024	-0.074
-502.683	-97.415	0.278	-0.073
-501.668	-156.154	-0.123	-0.008
-500.653	-190.656	0.091	-0.001
-499.639	800.000	-0.046	0.139
-498.624	-64.515	0.257	-0.105
-497.610	-3.930	0.128	-0.089
-496.595	-95.758	-0.113	-0.030
-495.581	-61.891	-0.264	0.111
-494.566	800.000	-0.032	-0.127
-493.551	800.000	-0.113	-0.334
-492.537	-70.579	0.243	-0.092
-491.522	454.415	-0.191	-0.423
-490.508	-200.000	0.031	0.186
-489.493	-151.169	-0.113	-0.009
-488.478	142.028	-0.175	0.232
-487.464	128.291	-0.170	-0.217
-486.449	-200.000	-0.038	0.178
-485.435	20.716	-0.274	-0.222
-484.420	238.315	0.023	0.039
-483.405	172.569	0.180	-0.259
-482.391	-27.442	0.108	0.063
-481.376	-19.663	0.161	-0.099
-480.362	-105.678	-0.127	-0.029
-479.347	-37.528	0.121	-0.065
-478.332	800.000	-0.058	0.252
-477.318	-200.000	0.006	0.029
-476.303	-45.293	-0.352	-0.175
-475.289	-200.000	0.033	0.221
-474.274	-17.205	-0.221	0.140
-473.259	-200.000	-0.011	0.075
-472.245	-173.100	0.090	-0.003
-471.230	800.000	0.045	0.160
-470.216	-33.603	0.197	-0.109
-469.201	-89.098	0.213	0.063
-468.186	141.729	-0.088	-0.117
-467.172	488.712	0.215	0.491
-466.157	800.000	-0.107	0.373
-465.143	29.123	0.370	0.314
-464.128	-37.856	-0.458	-0.243
-463.113	215.753	0.035	0.055
-462.099	500.455	-0.022	-0.052
-461.084	13.464	0.292	-0.227
-460.070	14.146	-0.103	-0.080
-459.055	51.830	0.099	-0.094
-458.040	800.000	0.042	-0.175
-457.026	505.532	0.139	-0.322
-456.011	-47.733	0.347	-0.168
-454.997	-77.977	-0.091	0.031
-453.982	-200.000	0.042	-0.196
-452.968	10.895	0.245	0.187
-451.953	-91.938	0.319	0.090
-450.938	17.267	0.157	-0.125
-449.924	-153.687	0.381	0.026
-448.909	-72.130	0.035	-0.013
-447.895	286.681	0.082	-0.148
-446.880	-74.358	0.157	0.057
-445.865	-200.000	-0.002	0.023
-444.851	659.025	0.044	0.114
-443.836	-83.202	-0.077	0.025
-442.822	800.000	0.047	-0.192
-441.807	-164.032	0.212	0.010
-440.792	800.000	0.027	0.077
-439.778	-84.255	-0.273	0.086
-438.763	800.000	-0.080	-0.250
-437.749	521.944	-0.140	-0.329
-436.734	310.671	-0.134	-0.252
-435.719	602.906	-0.071	-0.177
-434.705	-50.889	-0.366	0.172
-433.690	-106.722	-0.222	-0.049
-432.676	-166.167	0.173	-0.007
-431.661	-200.000	-0.012	0.105
-430.646	800.000	0.060	0.230
-429.632	541.096	0.057	-0.136
-428.617	751.481	0.021	0.058
-427.603	-34.307	-0.108	0.059
-426.588	113.190	0.131	-0.159
-425.573	-200.000	-0.066	-0.325
-424.559	-115.593	0.170	-0.032
-423.544	-200.000	-0.006	-0.060
-422.530	-52.436	-0.252	-0.116
-421.515	120.529	0.018	0.023
-420.500	232.726	0.153	0.251
-419.486	213.852	-0.121	0.191
-418.471	-48.224	-0.220	-0.106
-417.457	353.145	0.199	0.394
-416.442	-110.534	0.327	-0.068
-415.428	363.579	0.094	-0.188
-414.413	268.344	-0.079	-0.138
-413.398	-200.000	-0.019	-0.097
-412.384	700.738	-0.197	-0.517
-411.369	61.625	0.097	0.096
-410.355	-62.819	-0.318	0.131
-409.340	800.000	0.129	0.422
-408.325	794.675	-0.021	0.058
-407.311	-53.281	0.079	0.036
-406.296	23.157	0.215	-0.176
-405.282	35.865	0.278	0.244
-404.267	800.000	-0.161	0.513
-403.252	93.607	-0.136	0.154
-402.238	-34.780	0.362	-0.197
-401.223	388.829	0.124	-0.257
-400.209	260.159	0.104	0.180
-399.194	-79.836	0.381	-0.128
-398.179	387.318	-0.067	-0.139
-397.165	-94.959	-0.218	0.059
-396.150	111.904	-0.159	0.192
-395.136	97.084	-0.237	-0.271
-394.121	168.997	0.084	0.120
-393.106	657.998	-0.034	0.086
-392.092	201.419	-0.100	-0.154
-391.077	-47.456	0.286	-0.139
-390.063	57.562	-0.173	-0.168
-389.048	16.952	0.170	-0.134
-388.033	682.694	-0.122	0.317
-387.019	-39.067	-0.061	-0.032
-386.004	55.722	-0.214	-0.206
-384.990	-15.080	0.093	0.059
-383.975	68.607	0.116	-0.118
-382.960	145.115	-0.075	-0.101
-381.946	108.473	-0.231	-0.275
-380.931	-200.000	-0.021	0.232
-379.917	-129.279	-0.247	-0.034
-378.902	-73.760	-0.257	-0.093
-377.888	-92.988	-0.325	-0.090
-376.873	-200.000	0.013	0.102
-375.858	-154.416	0.210	0.014
-374.844	13.355	-0.149	0.115
-373.829	299.438	0.163	-0.300
-372.815	-200.000	-0.020	0.186
-371.800	117.237	-0.210	0.258
-370.785	213.665	-0.053	0.083
-369.771	-200.000	0.076	-0.370
-368.756	-167.556	0.106	0.004
-367.742	13.792	0.299	0.231
-366.727	-59.168	-0.151	-0.065
-365.712	-74.690	-0.137	0.049
-364.698	265.004	0.132	0.228
-363.683	-200.000	-0.009	-0.210
-362.669	414.123	0.115	0.243
-361.654	180.234	0.128	-0.187
-360.639	-63.302	-0.058	0.024
-359.625	-28.638	0.131	0.075
-358.610	-105.569	0.337	-0.076
-357.596	223.733	0.133	0.214
-356.581	-123.209	-0.176	0.028
-355.566	-97.494	0.341	-0.088
-354.552	-102.076	-0.238	-0.057
-353.537	-132.597	-0.053	0.007
-352.523	800.000	0.074	0.266
-351.508	650.239	0.109	-0.278
-350.493	102.857	-0.150	0.175
-349.479	257.862	-0.286	0.490
-348.464	-121.743	-0.264	-0.043
-347.450	-112.214	0.283	-0.057
-346.435	58.977	0.058	-0.057
-345.420	19.989	-0.237	-0.190
-344.406	-11.956	-0.215	0.140
-343.391	-26.933	-0.128	-0.074
-342.377	35.748	-0.218	0.190
-341.362	-57.769	-0.371	0.162
-340.348	-55.839	-0.186	0.083
-339.333	413.356	-0.098	-0.208
-338.318	-48.476	-0.162	-0.078
-337.304	-20.169	-0.331	-0.203
-336.289	137.324	0.184	-0.240
-335.275	-72.962	-0.029	-0.011
-334.260	106.953	0.160	0.189
-333.245	800.000	-0.131	0.398
-332.231	-144.917	0.172	0.016
-331.216	-200.000	-0.012	0.070
-330.202	-200.000	0.019	-0.090
-329.187	-76.541	0.344	0.120
-328.172	-67.731	-0.282	-0.110
-327.158	93.505	-0.117	0.132
-326.143	61.971	-0.060	-0.060
-325.129	145.305	-0.209	-0.278
-324.114	-200.000	-0.014	-0.078
-323.099	-18.458	0.149	-0.093
-322.085	-50.006	0.128	0.060
-321.070	-93.765	-0.287	-0.079
-320.056	800.000	0.007	-0.020
-319.041	16.629	-0.106	0.083
-318.026	-14.759	-0.382	0.244
-317.012	-48.454	0.370	0.177
-315.997	497.456	-0.140	0.321
-314.983	-105.053	0.230	0.052
-313.968	196.314	0.088	0.133
-312.953	5.215	-0.137	-0.100
-311.939	800.000	0.017	0.073
-310.924	41.051	-0.048	-0.043
-309.910	-200.000	-0.016	-0.088
-308.895	388.100	-0.155	-0.320
-307.880	-70.041	0.269	-0.102
-306.866	660.809	-0.048	-0.123
-305.851	-41.156	0.180	-0.093
-304.837	243.022	0.204	-0.340
-303.822	-200.000	0.070	0.332
-302.807	-200.000	-0.014	-0.254
-301.793	331.396	-0.008	-0.016
-300.778	-175.742	0.193	0.005
-299.764	-42.221	0.051	-0.026
-298.749	193.030	0.285	0.428
-297.735	-131.577	-0.125	0.016
-296.720	366.852	-0.164	0.329
-295.705	-117.520	0.146	-0.026
-294.691	19.568	0.112	0.090
-293.676	-103.256	-0.362	-0.085
-292.662	-200.000	-0.012	0.226
-291.647	-89.623	0.166	-0.048
-290.632	-70.313	0.223	0.084
-289.618	800.000	-0.021	-0.089
-288.603	438.874	0.149	0.323
-287.589	-49.758	0.219	-0.103
-286.574	229.003	-0.187	-0.302
-285.559	-155.142	0.420	-0.027
-284.545	37.787	0.082	-0.073
-283.530	-30.300	0.032	-0.018
-282.516	-127.140	0.256	-0.037
-281.501	800.000	0.057	-0.216
-280.486	234.011	-0.118	-0.193
-279.472	-75.926	-0.155	-0.055
-278.457	438.739	-0.064	-0.139
-277.443	-61.931	-0.157	0.065
-276.428	31.704	0.044	-0.038
-275.413	-200.000	0.011	0.052
-274.399	218.802	0.127	0.201
-273.384	-75.553	0.112	0.039
-272.370	107.202	0.225	0.265
-271.355	168.558	-0.085	0.120
-270.340	-110.955	0.011	0.002
-269.326	680.469	0.052	-0.134
-268.311	-26.617	-0.490	0.285
-267.297	-75.878	0.148	0.052
-266.282	74.969	-0.171	-0.179
-265.267	-169.052	0.214	0.008
-264.253	-23.255	-0.265	0.158
-263.238	-138.347	0.212	0.023
-262.224	-32.217	-0.297	-0.165
-261.209	-77.919	-0.209	-0.072
-260.195	-49.483	0.226	-0.107
-259.180	-200.000	-0.036	-0.266
-258.165	-165.303	0.363	0.016
-257.151	-116.421	-0.328	-0.060
-256.136	-200.000	-0.007	-0.238
-255.122	89.480	0.066	0.074
-254.107	248.530	0.211	0.353
-253.092	-200.000	0.026	-0.121
-252.078	-200.000	0.003	-0.055
-251.063	162.242	0.042	0.059
-250.049	312.835	0.105	0.196
-249.034	-200.000	-0.005	-0.293
-248.019	-55.227	-0.209	0.093
-247.005	-33.726	0.102	-0.056
-245.990	45.690	0.059	0.054
-244.976	-74.200	-0.201	-0.072
-243.961	134.032	0.105	0.135
-242.946	36.634	-0.140	-0.123
-241.932	481.066	0.059	0.132
-240.917	-200.000	0.008	-0.074
-239.903	336.898	-0.048	-0.092
-238.888	-115.757	0.494	0.092
-237.873	751.264	-0.018	0.049
-236.859	129.646	-0.208	-0.264
-235.844	-139.209	-0.325	-0.035
-234.830	345.632	0.125	-0.243
-233.815	-175.987	0.047	-0.001
-232.800	800.000	0.057	-0.204
-231.786	672.548	0.102	0.263
-230.771	-200.000	0.007	0.083
-229.757	259.974	-0.056	-0.096
-228.742	28.984	-0.334	0.281
-227.727	-200.000	0.001	-0.126
-226.713	-64.930	0.014	0.006
-225.698	-200.000	0.027	-0.159
-224.684	50.483	-0.227	0.213
-223.669	800.000	0.059	-0.217
-222.655	-200.000	0.033	-0.288
-221.640	-106.744	0.133	0.029
-220.625	-58.384	-0.178	-0.077
-219.611	-162.276	-0.290	0.014
-218.596	30.154	-0.203	0.171
-217.582	-113.680	0.287	0.055
-216.567	189.698	-0.169	0.251
-215.552	-43.709	0.317	-0.158
-214.538	-200.000	0.010	0.087
-213.523	98.402	0.036	0.041
-212.509	393.230	-0.023	-0.047
-211.494	-153.441	0.163	0.011
-210.479	-169.884	-0.023	0.001
-209.465	-18.294	0.199	-0.123
-208.450	-44.061	0.191	0.095
-207.436	561.154	0.186	0.445
-206.421	672.366	-0.033	-0.085
-205.406	5.292	-0.253	-0.185
-204.392	-137.939	-0.263	-0.029
-203.377	141.312	0.042	-0.056
-202.363	171.467	0.096	0.137
-201.348	-10.435	0.210	-0.138
-200.333	720.624	-0.108	0.284
-199.319	7.546	0.334	0.247
-198.304	-72.624	0.166	-0.061
-197.290	96.626	-0.278	0.315
-196.275	519.305	-0.060	0.140
-195.260	-39.520	0.168	0.087
-194.246	52.578	-0.193	-0.182
-193.231	126.057	0.121	0.152
-192.217	800.000	-0.093	0.328
-191.202	-200.000	0.006	0.127
-190.187	291.039	-0.182	0.328
-189.173	625.704	-0.030	0.076
-188.158	-200.000	0.007	0.132
-187.144	-151.180	0.165	-0.012
-186.129	-106.195	0.113	-0.025
-185.114	31.594	-0.287	0.244
-184.100	-129.815	0.217	-0.029
-183.085	311.806	0.107	0.198
-182.071	162.975	0.283	0.393
-181.056	111.944	-0.353	0.421
-180.042	-69.311	-0.318	-0.121
-179.027	283.945	0.214	-0.381
-178.012	-200.000	0.013	0.072
-176.998	-189.893	0.177	-0.002
-175.983	-90.776	0.295	0.084
-174.969	-38.144	0.291	-0.153
-173.954	-151.231	0.035	-0.003
-172.939	569.067	-0.112	-0.270
-171.925	-108.666	-0.123	0.026
-170.910	439.104	-0.063	0.136
-169.896	0.824	-0.397	0.281
-168.881	-117.284	-0.197	0.035
-167.866	-200.000	0.039	-0.307
-166.852	154.846	0.277	-0.377
-165.837	-3.858	-0.076	-0.052
-164.823	117.051	0.123	0.150
-163.808	-15.803	-0.134	0.084
-162.793	-125.154	-0.443	0.067
-161.779	-42.137	-0.079	0.040
-160.764	-128.970	0.256	0.035
-159.750	-49.595	0.414	0.195
-158.735	-200.000	0.046	0.217
-157.720	800.000	-0.065	-0.204
-156.706	-13.825	0.118	0.076
-155.691	-65.375	0.143	0.057
-154.677	265.280	0.074	0.127
-153.662	-200.000	-0.006	-0.071
-152.647	33.146	0.534	0.457
-151.633	18.208	0.221	-0.174
-150.618	584.172	0.072	-0.174
-149.604	402.943	0.116	0.241
-148.589	130.751	-0.063	0.080
-147.574	-200.000	-0.007	-0.150
-146.560	-103.703	0.420	-0.097
-145.545	107.221	0.086	0.101
-144.531	-85.255	0.077	-0.024
-143.516	169.445	-0.123	0.174
-142.502	-148.743	0.062	0.005
-141.487	38.497	-0.218	0.192
-140.472	-200.000	0.023	0.167
-139.458	-112.989	0.174	-0.034
-138.443	-2.799	-0.104	0.072
-137.429	4.875	0.393	0.285
-136.414	170.684	0.051	-0.072
-135.399	26.083	-0.070	-0.058
-134.385	-42.631	-0.091	0.046
-133.370	-64.505	0.310	0.124
-132.356	170.118	-0.108	-0.152
-131.341	-27.850	-0.459	0.263
-130.326	54.171	0.166	-0.158
-129.312	-162.060	0.237	0.012
-128.297	515.803	0.111	0.257
-127.283	-73.240	-0.261	-0.094
-126.268	-161.358	-0.207	-0.011
-125.253	-200.000	-0.002	0.116
-124.239	-60.490	0.332	-0.139
-123.224	800.000	0.117	0.321
-122.210	-200.000	0.009	-0.175
-121.195	-200.000	0.010	-0.334
