DTS Sentinel unit serial number:	SN413079Multiplexer serial number:	ORYXHardware model number:	OX4-SRSoftware version number:	ORYX F/W v4.00 Oryx Data Collector v3.7.2.0data status	okinstallation	princeton_trtdifferential loss correction	single-endedforward channel	channel 2reverse channel	N/Adate	2019/09/18time	11:43:34forward acquisition time	60.00reverse acquisition time	0.00gamma	496.2192k internal	0.2326k external	0.2326temperature offset calibration	0.9983default loss term (dB/km)	0.3790temperature slope calibration	1.0000multiplexer offset coefficient	1.0000multiplexer slope coefficient	1.0000fibre end	0.00T internal ref (°C)	31.00T ext. ref 1 (°C)	0.46T ext. ref 2 (°C)	28.11length (m)	temperature (°C)	Stokes	anti-Stokes-747.200	147.843	0.152	-0.206
-746.185	160.761	-0.107	0.150
-745.171	194.189	-0.051	-0.078
-744.156	35.088	-0.040	0.035
-743.142	800.000	-0.070	0.302
-742.127	8.832	0.255	-0.194
-741.112	425.828	-0.144	-0.312
-740.098	-32.810	-0.120	-0.068
-739.083	84.948	-0.187	-0.207
-738.069	800.000	0.050	-0.193
-737.054	-200.000	-0.004	0.157
-736.039	53.988	-0.145	-0.140
-735.025	-86.279	0.054	0.017
-734.010	-111.392	0.344	0.071
-732.996	-102.815	-0.439	0.105
-731.981	-93.089	-0.282	0.079
-730.966	800.000	0.059	-0.222
-729.952	800.000	-0.089	0.289
-728.937	800.000	-0.038	-0.148
-727.923	-200.000	-0.032	0.296
-726.908	800.000	-0.078	0.285
-725.894	65.107	-0.142	0.144
-724.879	645.063	-0.113	-0.290
-723.864	-54.724	-0.127	-0.058
-722.850	196.135	0.086	0.131
-721.835	-84.109	0.179	-0.057
-720.821	-200.000	-0.043	-0.352
-719.806	-131.078	0.103	-0.014
-718.791	-172.335	-0.145	0.005
-717.777	-46.606	-0.178	0.088
-716.762	-55.051	-0.193	0.088
-715.748	-65.933	0.343	-0.138
-714.733	800.000	0.100	-0.300
-713.718	243.142	-0.096	0.163
-712.704	-200.000	-0.002	-0.116
-711.689	-200.000	0.029	-0.288
-710.675	173.846	-0.074	0.108
-709.660	-200.000	0.041	-0.283
-708.645	-200.000	0.025	-0.244
-707.631	92.263	0.218	-0.247
-706.616	-200.000	0.018	0.206
-705.602	-52.728	-0.347	0.161
-704.587	-200.000	0.026	-0.129
-703.572	-30.783	0.138	0.079
-702.558	165.853	0.110	-0.156
-701.543	-38.161	0.027	0.015
-700.529	276.353	-0.132	0.235
-699.514	800.000	0.082	-0.234
-698.499	-200.000	-0.038	-0.305
-697.485	16.160	-0.058	0.046
-696.470	-200.000	-0.094	-0.501
-695.456	261.388	-0.142	0.248
-694.441	556.315	0.066	0.161
-693.426	-200.000	0.028	-0.310
-692.412	800.000	0.045	0.174
-691.397	689.693	0.135	0.355
-690.383	-200.000	0.009	-0.184
-689.368	255.543	0.112	-0.194
-688.354	-95.025	-0.156	-0.042
-687.339	497.915	-0.148	-0.343
-686.324	43.579	-0.392	0.361
-685.310	113.637	0.064	0.078
-684.295	-7.823	-0.303	0.206
-683.281	284.341	0.104	0.188
-682.266	14.419	-0.187	-0.147
-681.251	341.852	-0.141	-0.277
-680.237	259.074	-0.111	-0.192
-679.222	381.688	0.080	0.164
-678.208	79.554	-0.156	0.169
-677.193	19.971	0.170	-0.138
-676.178	-200.000	0.023	-0.214
-675.164	800.000	-0.069	0.238
-674.149	71.516	-0.037	0.038
-673.135	-22.970	-0.138	-0.084
-672.120	21.133	-0.103	0.084
-671.105	650.380	-0.104	-0.268
-670.091	12.706	-0.220	0.171
-669.076	27.804	-0.125	0.106
-668.062	140.493	-0.066	0.087
-667.047	-200.000	-0.008	0.150
-666.032	-110.275	-0.306	0.064
-665.018	42.741	0.219	0.201
-664.003	-148.098	-0.387	0.032
-662.989	-150.939	0.194	-0.015
-661.974	356.534	-0.067	-0.135
-660.959	-115.362	0.331	0.063
-659.945	800.000	-0.129	-0.408
-658.930	-55.585	-0.205	-0.092
-657.916	103.343	-0.047	-0.056
-656.901	-22.859	0.415	-0.252
-655.886	800.000	-0.073	0.219
-654.872	-152.508	0.243	-0.018
-653.857	800.000	-0.132	0.382
-652.843	16.702	-0.251	0.199
-651.828	-85.534	0.079	0.025
-650.814	14.829	-0.219	0.172
-649.799	178.895	0.115	0.169
-648.784	-200.000	0.012	0.262
-647.770	-45.586	0.165	-0.082
-646.755	-200.000	-0.045	0.272
-645.741	-136.413	0.040	0.005
-644.726	-200.000	0.018	-0.580
-643.711	14.581	0.241	-0.189
-642.697	119.993	0.089	-0.111
-641.682	-169.879	0.257	-0.009
-640.668	139.596	0.196	0.259
-639.653	455.208	-0.147	0.328
-638.638	-117.226	-0.198	-0.036
-637.624	369.299	-0.150	-0.305
-636.609	-200.000	-0.031	0.201
-635.595	-87.184	-0.030	0.009
-634.580	-200.000	0.013	0.304
-633.565	108.687	-0.158	-0.190
-632.551	164.178	0.146	-0.206
-631.536	388.884	0.185	-0.385
-630.522	-200.000	-0.013	-0.139
-629.507	-7.134	0.018	0.012
-628.492	39.321	-0.219	0.197
-627.478	434.752	-0.023	-0.051
-626.463	-112.074	0.272	-0.055
-625.449	-200.000	-0.107	-0.595
-624.434	153.811	0.123	0.169
-623.419	-131.655	0.068	-0.009
-622.405	101.801	-0.120	-0.140
-621.390	-41.750	-0.595	0.307
-620.376	-200.000	-0.264	-0.001
-619.361	800.000	0.058	-0.172
-618.346	-28.568	0.274	-0.158
-617.332	-200.000	-0.014	-0.203
-616.317	45.840	-0.223	-0.207
-615.303	235.559	-0.155	0.256
-614.288	-128.259	0.090	0.013
-613.273	243.045	0.118	0.199
-612.259	-30.330	-0.106	0.060
-611.244	564.172	0.109	0.264
-610.230	-38.590	0.208	0.110
-609.215	-120.121	-0.280	0.048
-608.201	-200.000	0.019	-0.225
-607.186	-200.000	0.015	-0.115
-606.171	800.000	0.067	0.265
-605.157	29.254	-0.236	-0.201
-604.142	211.463	0.271	-0.428
-603.128	18.309	0.095	-0.076
-602.113	413.547	-0.064	0.137
-601.098	24.433	-0.241	-0.200
-600.084	-72.462	0.275	0.102
-599.069	-18.179	0.220	-0.138
-598.055	231.213	-0.206	-0.339
-597.040	800.000	0.032	0.104
-596.025	714.238	-0.123	-0.327
-595.011	800.000	-0.108	0.400
-593.996	79.018	-0.161	-0.173
-592.982	-83.734	0.037	-0.012
-591.967	-23.628	0.270	-0.162
-590.952	619.597	0.188	-0.473
-589.938	106.277	0.155	-0.184
-588.923	800.000	0.016	-0.046
-587.909	20.329	0.192	0.156
-586.894	-72.512	-0.243	0.090
-585.879	86.524	-0.129	0.143
-584.865	-15.329	-0.132	-0.084
-583.850	496.479	-0.119	-0.275
-582.836	800.000	-0.091	0.364
-581.821	-200.000	-0.007	-0.107
-580.806	80.297	-0.136	-0.146
-579.792	38.779	-0.353	0.316
-578.777	-200.000	-0.089	-0.473
-577.763	-114.730	-0.162	0.031
-576.748	-200.000	0.068	0.442
-575.733	279.091	0.109	0.196
-574.719	-47.928	0.146	-0.071
-573.704	-148.846	-0.080	0.006
-572.690	-152.379	0.293	-0.021
-571.675	-68.099	0.208	0.081
-570.661	11.536	-0.125	0.096
-569.646	-28.009	-0.072	-0.042
-568.631	261.262	-0.179	-0.310
-567.617	800.000	0.027	-0.107
-566.602	617.126	-0.105	0.265
-565.588	-12.975	-0.031	-0.020
-564.573	800.000	0.057	-0.164
-563.558	-25.406	0.153	-0.091
-562.544	217.106	0.042	0.066
-561.529	-28.421	-0.163	0.094
-560.515	484.496	0.082	0.188
-559.500	800.000	-0.090	0.292
-558.485	-52.884	-0.112	-0.052
-557.471	450.364	-0.034	0.075
-556.456	122.122	0.217	0.272
-555.442	-113.299	-0.271	0.053
-554.427	-200.000	-0.022	0.521
-553.412	-200.000	0.044	0.334
-552.398	-71.417	-0.242	-0.091
-551.383	323.100	0.085	0.162
-550.369	132.075	0.087	-0.112
-549.354	187.441	-0.086	-0.128
-548.339	-150.392	0.232	-0.018
-547.325	66.092	0.025	0.026
-546.310	800.000	0.072	-0.200
-545.296	-101.408	-0.310	0.076
-544.281	-35.198	0.134	0.073
-543.266	-88.408	0.285	0.085
-542.252	-52.793	0.105	0.048
-541.237	48.083	0.008	0.007
-540.223	-6.784	-0.314	-0.213
-539.208	800.000	-0.108	0.318
-538.193	-146.084	-0.139	0.012
-537.179	-6.894	0.060	0.041
-536.164	-89.397	-0.136	-0.040
-535.150	800.000	-0.023	0.083
-534.135	-12.315	-0.175	-0.114
-533.121	52.298	0.152	-0.145
-532.106	-58.084	-0.242	0.105
-531.091	187.169	-0.339	-0.506
-530.077	-68.040	0.306	-0.119
-529.062	-17.523	0.121	0.076
-528.048	-148.012	0.249	-0.021
-527.033	256.107	0.166	-0.285
-526.018	-38.015	0.208	-0.111
-525.004	-78.180	0.161	0.055
-523.989	-85.974	0.341	0.106
-522.975	408.508	-0.199	0.422
-521.960	-54.991	0.163	0.074
-520.945	-200.000	0.018	-0.105
-519.931	800.000	0.048	-0.179
-518.916	800.000	-0.089	0.324
-517.902	800.000	0.046	0.150
-516.887	560.317	-0.170	-0.410
-515.872	-141.896	-0.270	0.027
-514.858	13.794	0.088	-0.069
-513.843	-200.000	-0.011	-0.355
-512.829	-200.000	-0.039	-0.179
-511.814	-162.051	0.152	0.008
-510.799	-24.757	0.177	-0.105
-509.785	-128.923	-0.050	0.007
-508.770	800.000	0.070	-0.269
-507.756	31.469	-0.175	-0.150
-506.741	79.290	-0.163	-0.174
-505.726	43.839	0.184	-0.168
-504.712	153.895	0.113	0.155
-503.697	-29.739	-0.255	-0.146
-502.683	209.666	0.197	-0.309
-501.668	-200.000	0.027	-0.220
-500.653	372.306	0.071	-0.143
-499.639	-200.000	-0.014	-0.091
-498.624	498.820	0.212	0.487
-497.610	800.000	0.075	0.263
-496.595	67.217	-0.113	-0.115
-495.581	-148.214	0.080	-0.007
-494.566	15.499	-0.072	-0.057
-493.551	58.389	-0.140	0.137
-492.537	-57.356	0.086	-0.038
-491.522	-51.194	0.126	-0.059
-490.508	375.110	0.211	0.430
-489.493	-58.437	0.138	-0.060
-488.478	591.769	-0.083	-0.204
-487.464	-45.879	-0.386	0.190
-486.449	800.000	0.114	-0.324
-485.435	-194.753	0.504	-0.004
-484.420	-200.000	0.018	0.182
-483.405	-24.959	-0.130	-0.077
-482.391	800.000	0.119	0.379
-481.376	166.211	-0.113	0.159
-480.362	-150.226	-0.221	-0.017
-479.347	800.000	0.069	0.300
-478.332	800.000	0.032	0.117
-477.318	434.193	-0.047	-0.102
-476.303	-200.000	0.005	-0.081
-475.289	178.431	0.187	0.272
-474.274	106.348	-0.083	-0.098
-473.259	599.977	-0.050	-0.124
-472.245	-124.975	0.395	-0.061
-471.230	800.000	-0.091	-0.292
-470.216	-76.412	-0.083	-0.029
-469.201	203.682	-0.109	0.169
-468.186	3.010	-0.166	0.121
-467.172	800.000	-0.047	-0.202
-466.157	139.024	0.033	-0.044
-465.143	-45.611	0.211	-0.104
-464.128	35.574	0.184	-0.162
-463.113	-200.000	-0.025	-0.230
-462.099	-26.101	-0.282	-0.166
-461.084	-200.000	0.009	0.316
-460.070	350.952	-0.108	0.214
-459.055	108.833	-0.145	-0.173
-458.040	56.090	0.280	-0.271
-457.026	800.000	0.088	0.306
-456.011	138.286	-0.122	0.160
-454.997	215.594	-0.113	-0.178
-453.982	-56.133	-0.132	0.059
-452.968	-146.738	-0.194	-0.017
-451.953	235.192	-0.220	-0.362
-450.938	85.193	0.315	0.345
-449.924	-86.834	0.042	-0.013
-448.909	800.000	-0.088	0.311
-447.895	238.613	0.044	-0.072
-446.880	-119.231	0.200	-0.035
-445.865	-200.000	0.007	-0.292
-444.851	-130.313	-0.099	0.013
-443.836	-95.727	-0.198	-0.053
-442.822	-69.510	-0.156	-0.059
-441.807	86.350	-0.076	-0.083
-440.792	254.777	-0.139	0.237
-439.778	99.285	0.073	0.084
-438.763	-73.748	-0.238	-0.086
-437.749	-144.382	0.202	-0.019
-436.734	-103.926	-0.266	-0.062
-435.719	-181.867	0.068	0.001
-434.705	-146.065	-0.078	-0.007
-433.690	208.480	0.135	-0.210
-432.676	259.389	0.112	0.192
-431.661	-189.118	0.427	-0.005
-430.646	800.000	-0.049	-0.160
-429.632	-200.000	0.001	0.071
-428.617	561.760	-0.157	0.378
-427.603	800.000	-0.083	0.319
-426.588	-200.000	-0.042	0.220
-425.573	800.000	-0.030	-0.125
-424.559	125.276	-0.092	0.116
-423.544	-39.963	-0.186	0.097
-422.530	-69.777	0.205	-0.078
-421.515	375.543	-0.135	-0.274
-420.500	-200.000	0.044	-0.244
-419.486	-200.000	0.034	0.277
-418.471	414.122	-0.080	0.169
-417.457	-30.567	-0.232	-0.131
-416.442	82.756	0.249	-0.269
-415.428	-200.000	-0.028	-0.135
-414.413	800.000	0.037	0.142
-413.398	210.941	-0.153	0.239
-412.384	345.699	-0.098	-0.191
-411.369	473.041	0.099	-0.221
-410.355	-77.746	0.036	0.012
-409.340	422.884	-0.092	-0.198
-408.325	69.388	-0.163	0.167
-407.311	124.312	-0.176	-0.220
-406.296	-200.000	0.011	0.057
-405.282	800.000	-0.070	0.290
-404.267	580.753	0.065	0.158
-403.252	420.524	-0.112	-0.239
-402.238	-56.326	0.335	0.148
-401.223	224.290	0.130	-0.210
-400.209	126.531	-0.168	-0.212
-399.194	81.982	0.043	0.046
-398.179	-133.035	0.201	-0.025
-397.165	447.533	-0.063	0.138
-396.150	293.278	0.054	0.097
-395.136	-22.251	0.201	0.121
-394.121	459.101	0.052	0.114
-393.106	451.642	0.098	0.216
-392.092	800.000	0.055	0.201
-391.077	35.355	-0.317	0.277
-390.063	103.115	0.131	-0.153
-389.048	83.401	-0.165	-0.179
-388.033	132.487	-0.045	-0.058
-387.019	-7.200	-0.161	-0.108
-386.004	-9.797	0.255	-0.169
-384.990	-118.377	0.076	0.013
-383.975	138.941	0.077	0.101
-382.960	33.312	-0.158	-0.136
-381.946	-63.441	0.201	0.082
-380.931	-75.494	-0.353	0.125
-379.917	-59.874	-0.393	-0.167
-378.902	-200.000	-0.023	-0.407
-377.888	-14.805	-0.168	-0.107
-376.873	-200.000	-0.054	0.246
-375.858	-140.802	-0.238	0.024
-374.844	-200.000	-0.032	0.157
-373.829	800.000	-0.087	0.249
-372.815	800.000	-0.021	-0.082
-371.800	414.469	-0.065	-0.139
-370.785	-16.974	-0.385	-0.242
-369.771	-1.951	0.264	-0.185
-368.756	-143.873	-0.224	0.021
-367.742	-60.210	0.194	0.082
-366.727	-177.806	0.243	-0.006
-365.712	685.248	-0.061	0.160
-364.698	-200.000	-0.005	0.117
-363.683	-84.596	-0.215	0.067
-362.669	-112.947	0.600	0.118
-361.654	-146.040	-0.156	-0.014
-360.639	-200.000	-0.021	0.107
-359.625	-100.874	0.586	-0.143
-358.610	-200.000	0.007	0.110
-357.596	-92.592	-0.213	0.059
-356.581	82.352	0.081	0.088
-355.566	-78.347	0.144	-0.049
-354.552	-148.241	0.123	0.010
-353.537	-200.000	-0.006	-0.072
-352.523	63.839	-0.154	-0.153
-351.508	800.000	-0.082	0.270
-350.493	-114.480	0.125	-0.024
-349.479	5.580	-0.351	0.257
-348.464	446.833	-0.079	0.172
-347.450	-200.000	0.058	-0.338
-346.435	63.271	0.145	0.145
-345.420	5.876	0.118	0.087
-344.406	25.110	-0.129	0.107
-343.391	-200.000	-0.086	-0.562
-342.377	-113.681	-0.057	0.011
-341.362	-200.000	-0.027	0.173
-340.348	115.686	-0.187	-0.227
-339.333	-174.010	0.221	-0.006
-338.318	-125.502	-0.088	-0.013
-337.304	6.604	0.185	-0.136
-336.289	251.897	0.217	-0.367
-335.275	74.202	0.206	-0.215
-334.260	215.218	-0.344	0.542
-333.245	-75.061	0.447	0.159
-332.231	112.360	0.067	0.081
-331.216	800.000	-0.045	0.184
-330.202	-200.000	0.055	0.259
-329.187	-15.043	0.293	-0.186
-328.172	-148.438	-0.431	-0.035
-327.158	25.236	-0.257	0.212
-326.143	337.263	0.155	0.299
-325.129	87.920	-0.176	0.194
-324.114	204.388	0.144	-0.222
-323.099	-72.025	-0.112	-0.041
-322.085	-200.000	0.052	-0.245
-321.070	-106.252	-0.517	-0.115
-320.056	-46.799	-0.339	-0.165
-319.041	-200.000	-0.043	0.263
-318.026	-75.189	0.085	0.030
-317.012	-33.756	-0.203	0.111
-315.997	-200.000	0.037	0.384
-314.983	-169.796	0.110	-0.004
-313.968	-10.996	-0.503	-0.329
-312.953	214.609	-0.203	-0.320
-311.939	-90.727	-0.259	0.074
-310.924	-18.196	-0.219	0.136
-309.910	800.000	-0.061	-0.203
-308.895	55.323	-0.233	0.224
-307.880	319.202	0.171	0.322
-306.866	38.081	-0.213	-0.188
-305.851	26.129	0.030	0.024
-304.837	95.813	-0.097	0.109
-303.822	67.759	0.167	-0.169
-302.807	-63.937	0.107	0.043
-301.793	73.822	0.147	-0.153
-300.778	24.138	-0.165	-0.135
-299.764	-200.000	-0.053	-0.256
-298.749	142.970	-0.194	-0.255
-297.735	-108.983	-0.312	-0.066
-296.720	800.000	-0.069	-0.210
-295.705	-78.328	0.208	-0.071
-294.691	800.000	-0.073	0.244
-293.676	-20.877	0.214	-0.130
-292.662	513.127	0.055	0.126
-291.647	-93.986	-0.376	-0.102
-290.632	800.000	-0.061	-0.214
-289.618	473.010	-0.049	0.109
-288.603	-54.159	-0.267	-0.120
-287.589	-86.661	0.375	-0.114
-286.574	-25.588	-0.097	0.056
-285.559	-200.000	-0.034	0.179
-284.545	-90.372	0.102	0.029
-283.530	-200.000	0.002	0.184
-282.516	606.397	0.074	-0.184
-281.501	-200.000	0.011	0.136
-280.486	-48.944	0.370	-0.176
-279.472	-74.231	0.181	0.065
-278.457	-200.000	0.021	-0.450
-277.443	-200.000	0.020	0.240
-276.428	-106.747	-0.247	0.054
-275.413	360.101	0.053	0.105
-274.399	-200.000	-0.033	0.372
-273.384	-114.371	0.171	-0.033
-272.370	550.761	-0.116	0.276
-271.355	-78.062	-0.403	0.137
-270.340	43.311	0.357	-0.323
-269.326	-138.806	-0.031	0.003
-268.311	-200.000	-0.067	-0.295
-267.297	-73.814	0.279	0.101
-266.282	-200.000	0.064	0.414
-265.267	488.880	0.196	0.444
-264.253	16.505	-0.165	0.129
-263.238	-191.113	0.467	-0.005
-262.224	-8.036	-0.042	-0.028
-261.209	521.634	-0.082	-0.191
-260.195	-123.885	0.123	0.019
-259.180	-36.350	-0.451	0.241
-258.165	-200.000	0.041	-0.218
-257.151	413.831	-0.058	-0.122
-256.136	-145.835	-0.153	-0.013
-255.122	-136.090	0.218	0.025
-254.107	800.000	-0.048	0.181
-253.092	99.683	-0.088	0.101
-252.078	294.821	0.131	-0.237
-251.063	800.000	0.095	-0.263
-250.049	155.544	0.153	0.209
-249.034	-200.000	0.021	0.394
-248.019	800.000	-0.084	0.235
-247.005	-22.121	0.426	-0.256
-245.990	50.132	0.110	-0.103
-244.976	-133.318	0.279	0.035
-243.961	-107.924	0.189	0.041
-242.946	-130.988	0.078	0.010
-241.932	-161.531	0.501	0.025
-240.917	504.979	0.127	-0.290
-239.903	-173.629	0.188	0.006
-238.888	67.411	-0.029	0.029
-237.873	111.224	-0.072	0.086
-236.859	-193.273	0.260	-0.002
-235.844	-94.435	-0.189	-0.051
-234.830	-90.508	0.228	-0.065
-233.815	687.685	0.061	-0.158
-232.800	-52.749	-0.137	-0.063
-231.786	185.092	0.161	-0.237
-230.771	264.048	0.069	0.118
-229.757	-112.156	-0.351	0.070
-228.742	214.684	-0.217	0.340
-227.727	-169.827	0.090	-0.003
-226.713	657.176	-0.045	-0.114
-225.698	68.317	-0.105	0.107
-224.684	631.363	-0.054	-0.135
-223.669	800.000	0.036	-0.120
-222.655	30.567	0.077	-0.065
-221.640	-101.247	-0.198	0.048
-220.625	283.665	0.097	-0.172
-219.611	-200.000	0.029	0.291
-218.596	-110.421	-0.212	-0.044
-217.582	84.802	0.234	-0.253
-216.567	-68.699	-0.082	0.031
-215.552	-15.898	-0.292	0.183
-214.538	-20.644	0.123	0.074
-213.523	402.756	0.066	-0.136
-212.509	-200.000	-0.006	0.213
-211.494	-21.927	0.148	-0.089
-210.479	-200.000	-0.003	-0.345
-209.465	-103.280	0.094	0.022
-208.450	-200.000	-0.014	0.188
-207.436	135.172	0.217	0.278
-206.421	475.355	-0.012	-0.028
-205.406	-132.679	0.140	-0.018
-204.392	361.548	0.033	0.065
-203.377	18.951	0.174	-0.138
-202.363	138.536	0.136	-0.177
-201.348	15.406	0.257	0.199
-200.333	0.009	-0.183	0.129
-199.319	-145.294	0.287	-0.026
-198.304	446.299	-0.098	0.213
-197.290	659.858	0.158	-0.401
-196.275	-88.300	-0.249	-0.073
-195.260	158.323	0.174	-0.239
-194.246	800.000	-0.106	0.411
-193.231	140.583	-0.159	0.208
-192.217	30.067	-0.286	-0.241
-191.202	-52.383	-0.220	-0.100
-190.187	-84.544	0.184	-0.057
-189.173	231.885	-0.088	0.143
-188.158	800.000	0.068	0.203
-187.144	93.061	-0.122	-0.136
-186.129	-41.382	-0.157	0.080
-185.114	425.554	-0.120	0.255
-184.100	-158.600	0.083	0.005
-183.085	800.000	0.010	0.043
-182.071	-22.302	0.079	-0.047
-181.056	800.000	-0.093	0.262
-180.042	-26.599	0.061	0.035
-179.027	-32.170	0.241	-0.133
-178.012	-113.679	0.139	0.027
-176.998	569.906	-0.125	-0.299
-175.983	143.022	-0.109	-0.144
-174.969	30.539	0.191	0.161
-173.954	-200.000	-0.077	0.442
-172.939	46.717	0.273	0.250
-171.925	-200.000	-0.004	-0.108
-170.910	202.954	0.093	-0.141
-169.896	364.020	0.044	-0.088
-168.881	-0.906	-0.243	0.170
-167.866	800.000	0.088	0.276
-166.852	-200.000	0.026	0.333
-165.837	-200.000	0.023	-0.197
-164.823	-111.734	-0.117	-0.023
-163.808	-19.943	0.158	-0.096
-162.793	-110.461	-0.168	-0.034
-161.779	31.816	0.188	-0.160
-160.764	-200.000	-0.025	0.237
-159.750	-200.000	0.016	0.161
-158.735	165.129	-0.057	-0.080
-157.720	118.312	-0.054	-0.066
-156.706	-65.813	0.192	0.076
-155.691	-200.000	-0.018	0.218
-154.677	227.249	-0.063	-0.101
-153.662	36.329	0.246	-0.214
-152.647	264.499	0.078	0.133
-151.633	12.113	-0.102	-0.077
-150.618	579.103	-0.097	-0.234
-149.604	8.508	-0.320	-0.237
-148.589	199.263	0.178	0.269
-147.574	800.000	-0.094	-0.269
-146.560	38.732	0.093	-0.081
-145.545	155.861	0.162	0.220
-144.531	78.152	0.187	-0.197
-143.516	647.781	-0.124	-0.313
-142.502	-200.000	0.057	0.368
-141.487	-7.537	0.397	0.264
-140.472	-6.700	-0.034	0.023
-139.458	-50.658	-0.288	-0.134
-138.443	65.208	0.038	0.038
-137.429	-104.926	0.386	-0.087
-136.414	22.340	-0.183	0.147
-135.399	66.664	0.083	-0.083
-134.385	-41.060	-0.359	-0.183
-133.370	80.556	0.127	-0.134
-132.356	503.332	0.120	-0.274
-131.341	-147.024	0.072	0.006
-130.326	-17.724	0.067	-0.042
-129.312	-200.000	-0.045	0.236
-128.297	92.562	0.215	-0.239
-127.283	-50.119	0.059	-0.027
-126.268	726.024	0.108	0.282
-125.253	-100.516	-0.328	-0.080
-124.239	35.641	-0.281	0.243
-123.224	-30.286	0.145	0.081
-122.210	320.103	-0.187	-0.350
-121.195	-166.729	0.200	0.008
