DTS Sentinel unit serial number:	SN413079Multiplexer serial number:	ORYXHardware model number:	OX4-SRSoftware version number:	ORYX F/W v4.00 Oryx Data Collector v3.7.2.0data status	okinstallation	princeton_trtdifferential loss correction	single-endedforward channel	channel 2reverse channel	N/Adate	2019/09/19time	06:19:34forward acquisition time	60.00reverse acquisition time	0.00gamma	496.2192k internal	0.2350k external	0.2350temperature offset calibration	1.0016default loss term (dB/km)	0.3790temperature slope calibration	1.0000multiplexer offset coefficient	1.0000multiplexer slope coefficient	1.0000fibre end	0.00T internal ref (°C)	19.06T ext. ref 1 (°C)	0.57T ext. ref 2 (°C)	12.72length (m)	temperature (°C)	Stokes	anti-Stokes-747.200	-200.000	-0.023	0.173
-746.185	-152.947	-0.216	0.015
-745.171	539.312	0.028	0.067
-744.156	800.000	-0.064	0.228
-743.142	-13.164	0.197	0.128
-742.127	-87.812	-0.250	-0.075
-741.112	263.814	0.155	0.268
-740.098	305.342	-0.165	0.306
-739.083	504.135	-0.100	0.232
-738.069	-72.298	0.230	0.085
-737.054	-200.000	-0.011	0.066
-736.039	-200.000	-0.005	0.109
-735.025	-200.000	0.006	0.429
-734.010	230.314	-0.148	0.242
-732.996	-120.764	-0.456	-0.077
-731.981	57.809	0.185	0.180
-730.966	-10.259	-0.139	0.092
-729.952	-66.028	-0.105	-0.042
-728.937	26.172	0.065	0.055
-727.923	4.746	0.158	0.116
-726.908	48.920	-0.219	0.205
-725.894	-89.147	0.265	0.078
-724.879	-4.654	-0.293	0.202
-723.864	-165.592	0.235	0.010
-722.850	-158.899	-0.193	0.011
-721.835	210.403	0.118	0.185
-720.821	758.770	-0.070	-0.189
-719.806	-79.264	-0.322	0.109
-718.791	44.881	-0.117	0.108
-717.777	-200.000	-0.013	-0.085
-716.762	66.129	-0.165	-0.167
-715.748	-21.554	-0.289	-0.176
-714.733	12.433	0.069	-0.053
-713.718	-152.399	0.071	-0.005
-712.704	691.930	0.048	0.126
-711.689	800.000	0.033	-0.132
-710.675	-96.410	0.154	0.041
-709.660	-169.168	0.258	-0.010
-708.645	-99.173	0.160	-0.040
-707.631	-53.597	0.123	-0.056
-706.616	-67.910	0.231	-0.090
-705.602	110.630	-0.188	0.225
-704.587	40.204	0.174	0.156
-703.572	-88.644	0.256	-0.076
-702.558	-69.692	-0.127	-0.049
-701.543	27.229	-0.204	0.171
-700.529	231.645	0.083	-0.136
-699.514	-82.054	0.133	0.043
-698.499	-174.340	-0.334	0.010
-697.485	136.933	0.148	-0.193
-696.470	-37.286	0.136	-0.072
-695.456	-152.543	0.219	-0.016
-694.441	800.000	0.035	-0.105
-693.426	26.534	-0.177	0.147
-692.412	-8.140	0.146	0.098
-691.397	-55.400	-0.439	-0.196
-690.383	-200.000	0.022	-0.145
-689.368	-85.115	0.306	-0.095
-688.354	-147.082	0.243	0.021
-687.339	-22.798	0.182	0.110
-686.324	303.779	0.129	0.238
-685.310	-70.383	-0.401	-0.152
-684.295	367.506	-0.154	-0.310
-683.281	-200.000	0.015	-0.396
-682.266	108.217	-0.161	0.191
-681.251	-151.827	-0.196	0.014
-680.237	-200.000	-0.021	-0.233
-679.222	698.634	0.102	0.268
-678.208	-200.000	-0.012	0.252
-677.193	-200.000	0.004	0.065
-676.178	38.075	-0.244	0.216
-675.164	-131.478	0.199	0.026
-674.149	32.534	-0.215	0.185
-673.135	-120.037	0.117	-0.020
-672.120	-105.602	0.045	0.010
-671.105	-115.111	-0.202	-0.038
-670.091	250.684	0.082	-0.138
-669.076	-75.763	0.032	-0.011
-668.062	423.484	-0.099	-0.212
-667.047	122.041	-0.145	0.180
-666.032	160.800	0.114	-0.158
-665.018	601.008	-0.173	-0.427
-664.003	800.000	0.074	0.239
-662.989	800.000	-0.038	0.124
-661.974	-200.000	0.059	0.344
-660.959	800.000	-0.140	-0.438
-659.945	800.000	-0.093	-0.373
-658.930	38.370	-0.436	-0.387
-657.916	142.456	0.091	-0.120
-656.901	-200.000	0.033	-0.256
-655.886	126.573	0.118	-0.149
-654.872	106.207	-0.148	0.175
-653.857	-164.058	-0.136	-0.006
-652.843	-32.201	0.127	-0.070
-651.828	-48.469	-0.057	-0.027
-650.814	-27.767	0.180	0.104
-649.799	-137.961	-0.366	-0.041
-648.784	-200.000	-0.001	0.158
-647.770	-76.113	-0.265	-0.093
-646.755	-53.238	0.171	-0.078
-645.741	-127.887	-0.168	0.024
-644.726	-68.615	0.352	0.135
-643.711	-137.396	-0.464	0.052
-642.697	412.092	0.016	-0.034
-641.682	-200.000	0.035	-0.276
-640.668	144.344	-0.129	-0.172
-639.653	133.953	-0.122	-0.157
-638.638	-134.900	0.270	-0.033
-637.624	-134.293	-0.107	-0.013
-636.609	800.000	-0.121	-0.427
-635.595	-31.597	0.087	0.048
-634.580	-200.000	-0.035	-0.249
-633.565	155.539	0.118	-0.161
-632.551	135.263	0.071	0.091
-631.536	-169.366	-0.443	-0.016
-630.522	35.513	-0.175	-0.153
-629.507	800.000	0.049	-0.144
-628.492	79.739	0.256	-0.273
-627.478	422.945	-0.079	-0.169
-626.463	-200.000	0.038	0.311
-625.449	-200.000	-0.004	-0.089
-624.434	45.871	0.128	-0.118
-623.419	502.152	-0.148	-0.340
-622.405	-23.706	-0.153	-0.091
-621.390	-80.855	-0.344	-0.113
-620.376	20.959	-0.226	0.182
-619.361	698.921	-0.041	-0.108
-618.346	800.000	0.110	0.363
-617.332	-44.036	0.344	-0.172
-616.317	28.863	-0.203	-0.171
-615.303	-200.000	-0.074	-0.407
-614.288	800.000	0.026	0.078
-613.273	-200.000	0.001	-0.334
-612.259	-60.821	-0.084	-0.035
-611.244	-200.000	-0.006	0.360
-610.230	-112.953	-0.246	0.048
-609.215	-137.158	-0.410	0.046
-608.201	520.850	-0.125	-0.290
-607.186	6.339	0.071	-0.053
-606.171	800.000	0.069	-0.275
-605.157	-200.000	-0.006	-0.061
-604.142	800.000	0.030	0.107
-603.128	-19.084	0.397	0.245
-602.113	800.000	0.038	-0.164
-601.098	-93.581	0.004	0.001
-600.084	-80.751	0.018	0.006
-599.069	45.122	-0.050	0.046
-598.055	-150.697	0.289	-0.022
-597.040	-200.000	-0.006	0.073
-596.025	-11.107	-0.279	-0.183
-595.011	-200.000	0.012	-0.101
-593.996	122.509	-0.089	0.111
-592.982	289.664	0.057	-0.103
-591.967	28.404	0.054	0.045
-590.952	-143.093	0.128	0.012
-589.938	-4.494	-0.137	0.094
-588.923	111.176	-0.096	-0.115
-587.909	228.869	0.154	0.249
-586.894	308.370	-0.093	-0.173
-585.879	-44.788	-0.164	-0.081
-584.865	77.945	-0.167	0.177
-583.850	680.519	-0.109	0.281
-582.836	84.576	-0.315	-0.342
-581.821	-0.586	0.039	0.028
-580.806	800.000	-0.050	-0.215
-579.792	-176.609	0.033	0.001
-578.777	171.932	0.139	-0.199
-577.763	6.148	0.185	0.136
-576.748	-4.047	-0.081	0.056
-575.733	21.420	0.158	0.127
-574.719	-35.591	-0.272	0.146
-573.704	463.526	0.082	-0.181
-572.690	79.520	-0.041	-0.043
-571.675	416.381	-0.010	0.021
-570.661	-92.913	0.102	0.028
-569.646	212.713	-0.058	0.091
-568.631	-20.249	0.145	-0.089
-567.617	42.918	0.050	0.045
-566.602	-31.562	0.178	-0.099
-565.588	174.424	0.183	-0.262
-564.573	-137.175	0.301	-0.034
-563.558	23.781	-0.018	-0.015
-562.544	-200.000	0.017	0.141
-561.529	-101.697	0.091	0.022
-560.515	151.713	-0.145	-0.196
-559.500	-41.615	0.455	-0.232
-558.485	15.108	-0.075	0.058
-557.471	341.314	0.032	-0.063
-556.456	241.895	0.087	-0.144
-555.442	133.680	0.146	0.188
-554.427	-66.524	0.067	-0.026
-553.412	99.589	0.148	-0.169
-552.398	112.280	0.069	-0.082
-551.383	82.372	-0.149	-0.160
-550.369	-120.135	0.115	0.020
-549.354	-88.293	-0.373	-0.111
-548.339	-146.644	-0.058	0.005
-547.325	493.107	0.059	0.133
-546.310	-55.436	-0.091	-0.040
-545.296	-157.772	-0.264	0.016
-544.281	73.888	0.205	-0.213
-543.266	-97.418	0.150	-0.039
-542.252	-45.712	-0.182	-0.089
-541.237	-64.264	-0.378	0.153
-540.223	-99.860	-0.356	0.088
-539.208	10.480	-0.204	0.154
-538.193	635.107	0.029	-0.072
-537.179	-45.156	0.081	-0.040
-536.164	-124.193	-0.138	-0.021
-535.150	337.465	0.039	0.075
-534.135	170.143	0.126	-0.179
-533.121	140.123	-0.277	-0.361
-532.106	733.714	-0.045	-0.119
-531.091	65.355	-0.253	0.253
-530.077	-19.461	-0.257	-0.158
-529.062	-72.774	-0.247	0.090
-528.048	-25.891	-0.267	0.156
-527.033	394.837	-0.144	0.297
-526.018	-139.669	-0.169	-0.018
-525.004	705.721	-0.070	0.182
-523.989	-13.166	0.167	-0.107
-522.975	730.094	-0.050	0.133
-521.960	138.717	-0.158	-0.205
-520.945	-122.815	-0.332	-0.053
-519.931	-10.604	0.242	0.158
-518.916	-200.000	-0.003	-0.143
-517.902	204.955	0.107	-0.165
-516.887	-139.639	0.462	0.049
-515.872	97.563	-0.151	-0.172
-514.858	-200.000	0.086	-0.414
-513.843	130.153	0.024	0.031
-512.829	-55.953	-0.403	0.178
-511.814	-200.000	0.006	-0.062
-510.799	36.501	0.149	0.130
-509.785	-103.925	0.146	0.034
-508.770	-200.000	-0.082	0.400
-507.756	168.359	-0.164	0.231
-506.741	-68.025	-0.058	0.022
-505.726	-69.420	0.122	0.046
-504.712	209.481	-0.014	0.022
-503.697	354.311	0.084	-0.166
-502.683	-81.677	-0.236	-0.077
-501.668	-120.692	-0.192	0.032
-500.653	362.234	0.111	0.220
-499.639	377.860	-0.106	0.215
-498.624	-69.845	0.426	0.161
-497.610	257.563	-0.043	-0.073
-496.595	-110.495	0.306	0.063
-495.581	53.307	0.176	-0.167
-494.566	-200.000	0.065	0.363
-493.551	800.000	-0.104	0.321
-492.537	-166.720	-0.270	-0.011
-491.522	-13.630	-0.556	0.356
-490.508	-90.958	-0.184	-0.052
-489.493	-40.483	0.318	0.163
-488.478	800.000	0.055	-0.198
-487.464	-82.355	-0.079	0.025
-486.449	227.814	0.067	-0.107
-485.435	-111.059	0.197	-0.040
-484.420	-200.000	-0.261	0.000
-483.405	800.000	0.132	0.393
-482.391	-21.786	0.306	-0.184
-481.376	-34.395	-0.165	0.089
-480.362	-0.319	0.252	-0.177
-479.347	-59.461	-0.259	0.110
-478.332	25.835	-0.293	0.241
-477.318	649.636	0.080	-0.203
-476.303	213.085	-0.008	0.013
-475.289	-64.816	0.348	-0.139
-474.274	41.250	-0.334	-0.298
-473.259	-200.000	0.017	-0.112
-472.245	160.673	-0.020	0.027
-471.230	111.046	0.196	0.233
-470.216	-200.000	0.030	-0.259
-469.201	-115.413	0.391	-0.073
-468.186	64.858	0.136	-0.135
-467.172	5.927	0.114	-0.083
-466.157	-55.649	0.267	0.118
-465.143	-115.023	-0.266	-0.050
-464.128	-200.000	0.010	-0.355
-463.113	800.000	0.066	-0.216
-462.099	-200.000	-0.002	0.022
-461.084	5.657	-0.123	-0.089
-460.070	-200.000	0.004	-0.422
-459.055	-10.204	-0.236	-0.154
-458.040	121.604	0.176	-0.216
-457.026	109.366	-0.112	-0.132
-456.011	-37.024	-0.243	-0.129
-454.997	-106.014	-0.082	-0.018
-453.982	-171.111	0.610	-0.020
-452.968	-200.000	-0.043	0.263
-451.953	-70.628	-0.146	0.055
-450.938	1.673	-0.190	-0.135
-449.924	-125.573	0.150	-0.022
-448.909	441.869	-0.055	-0.118
-447.895	-71.436	-0.166	-0.061
-446.880	-200.000	0.012	-0.148
-445.865	-200.000	-0.006	-0.245
-444.851	360.780	0.109	0.215
-443.836	-38.813	0.108	-0.056
-442.822	75.391	0.161	-0.168
-441.807	-26.233	-0.137	-0.079
-440.792	55.208	0.149	-0.142
-439.778	-141.593	-0.282	-0.028
-438.763	-88.936	0.218	-0.064
-437.749	-156.830	0.092	0.006
-436.734	528.205	0.053	-0.124
-435.719	378.049	-0.170	0.343
-434.705	172.909	0.191	0.271
-433.690	-37.773	-0.367	0.193
-432.676	96.985	-0.181	-0.205
-431.661	-132.820	0.399	-0.050
-430.646	-72.800	-0.261	-0.095
-429.632	-200.000	0.012	-0.278
-428.617	1.806	-0.272	-0.193
-427.603	-51.820	0.111	-0.051
-426.588	563.008	0.015	0.036
-425.573	-149.971	-0.103	-0.008
-424.559	-200.000	0.025	0.286
-423.544	800.000	-0.078	-0.321
-422.530	800.000	0.131	-0.363
-421.515	89.561	-0.120	0.132
-420.500	-200.000	0.021	0.238
-419.486	-119.013	-0.165	-0.029
-418.471	800.000	-0.067	0.252
-417.457	1.765	0.071	-0.050
-416.442	58.077	0.274	0.264
-415.428	54.372	0.028	-0.027
-414.413	-23.735	-0.208	-0.123
-413.398	-88.463	0.074	-0.022
-412.384	-79.250	0.195	-0.065
-411.369	-200.000	0.053	-0.435
-410.355	-30.414	-0.289	0.161
-409.340	464.301	0.081	-0.179
-408.325	343.628	0.104	0.201
-407.311	800.000	-0.093	0.360
-406.296	-200.000	0.026	0.128
-405.282	-200.000	-0.001	-0.147
-404.267	-35.364	0.368	0.197
-403.252	-74.709	-0.090	0.032
-402.238	-42.031	0.136	-0.068
-401.223	-200.000	-0.031	-0.245
-400.209	257.130	-0.186	0.315
-399.194	376.831	0.171	0.345
-398.179	-66.809	0.186	-0.073
-397.165	66.953	-0.170	0.171
-396.150	-62.272	-0.202	0.083
-395.136	-81.965	0.210	0.068
-394.121	25.919	-0.151	-0.124
-393.106	105.103	0.167	-0.194
-392.092	-30.529	0.160	0.089
-391.077	54.171	-0.297	0.282
-390.063	-77.047	0.126	-0.043
-389.048	632.166	-0.136	0.338
-388.033	138.479	-0.127	-0.164
-387.019	172.784	0.090	-0.127
-386.004	-200.000	-0.022	0.441
-384.990	434.331	-0.107	-0.229
-383.975	-61.729	-0.254	0.105
-382.960	441.365	0.057	0.123
-381.946	-63.005	-0.247	0.101
-380.931	-200.000	0.011	0.382
-379.917	-200.000	-0.024	0.120
-378.902	-22.138	-0.227	0.135
-377.888	103.826	-0.054	0.063
-376.873	-162.408	0.138	-0.007
-375.858	89.149	-0.238	0.261
-374.844	-7.815	0.325	0.216
-373.829	12.417	-0.197	0.149
-372.815	-64.781	0.279	-0.111
-371.800	-10.252	-0.197	0.129
-370.785	-200.000	-0.026	0.130
-369.771	-2.695	0.337	0.232
-368.756	-101.271	0.079	0.019
-367.742	75.307	0.072	0.075
-366.727	800.000	0.077	0.296
-365.712	-200.000	0.010	-0.321
-364.698	683.756	-0.034	-0.087
-363.683	-200.000	-0.021	0.135
-362.669	-200.000	-0.065	-0.280
-361.654	-38.242	0.233	-0.122
-360.639	800.000	-0.091	-0.308
-359.625	51.275	-0.223	0.208
-358.610	800.000	-0.074	-0.313
-357.596	-127.180	0.367	-0.053
-356.581	800.000	0.042	-0.117
-355.566	-12.250	-0.361	-0.232
-354.552	58.663	-0.105	0.101
-353.537	-200.000	-0.223	-0.001
-352.523	141.476	0.018	-0.023
-351.508	8.479	-0.167	0.124
-350.493	272.096	-0.045	-0.079
-349.479	297.331	0.157	-0.283
-348.464	-20.412	-0.159	-0.096
-347.450	31.041	0.131	0.110
-346.435	82.269	0.200	0.214
-345.420	85.390	0.074	0.079
-344.406	-59.219	-0.220	0.093
-343.391	76.821	0.140	-0.146
-342.377	800.000	-0.014	-0.049
-341.362	508.089	0.054	-0.124
-340.348	-200.000	0.075	0.333
-339.333	800.000	-0.045	0.138
-338.318	-70.514	0.033	0.012
-337.304	174.810	0.194	-0.277
-336.289	-60.388	-0.202	0.084
-335.275	142.756	-0.229	0.298
-334.260	-112.749	0.370	0.072
-333.245	-151.051	0.092	0.007
-332.231	-200.000	-0.027	-0.200
-331.216	-73.046	0.354	-0.128
-330.202	74.361	0.171	-0.177
-329.187	-51.931	0.064	-0.029
-328.172	276.222	-0.121	0.211
-327.158	322.838	0.140	0.262
-326.143	17.379	0.201	0.156
-325.129	20.634	0.075	-0.059
-324.114	15.527	0.203	0.156
-323.099	686.532	0.026	0.067
-322.085	-33.249	-0.052	-0.028
-321.070	145.801	0.118	0.155
-320.056	-99.888	0.111	-0.027
-319.041	-130.229	0.409	-0.055
-318.026	-101.403	0.168	0.040
-317.012	-200.000	-0.341	0.001
-315.997	800.000	0.035	-0.106
-314.983	800.000	-0.040	0.121
-313.968	-200.000	0.009	0.424
-312.953	800.000	0.042	-0.142
-311.939	-41.695	0.137	-0.069
-310.924	-88.242	0.403	0.118
-309.910	-157.392	0.334	-0.020
-308.895	142.257	-0.344	0.448
-307.880	-44.994	-0.148	0.072
-306.866	-200.000	-0.038	-0.253
-305.851	269.609	-0.070	-0.121
-304.837	623.804	0.019	-0.047
-303.822	-200.000	-0.010	-0.212
-302.807	245.689	-0.169	-0.280
-301.793	-117.743	0.155	0.027
-300.778	-60.573	0.235	0.098
-299.764	800.000	-0.065	0.276
-298.749	177.030	0.070	-0.100
-297.735	108.711	-0.109	0.128
-296.720	-70.014	0.314	0.117
-295.705	-200.000	-0.038	-0.434
-294.691	148.991	0.086	-0.114
-293.676	-84.757	-0.117	-0.036
-292.662	129.526	0.220	-0.276
-291.647	571.267	0.083	0.198
-290.632	800.000	0.023	0.068
-289.618	104.056	0.073	-0.084
-288.603	-200.000	0.011	0.144
-287.589	19.740	-0.044	0.035
-286.574	47.569	-0.277	0.254
-285.559	169.391	-0.138	0.194
-284.545	800.000	-0.067	0.218
-283.530	707.481	-0.060	0.155
-282.516	282.759	0.057	0.100
-281.501	268.262	0.149	0.256
-280.486	800.000	0.088	0.318
-279.472	-33.737	-0.271	0.146
-278.457	303.425	-0.122	0.221
-277.443	-128.361	-0.230	-0.032
-276.428	800.000	0.039	0.158
-275.413	-177.910	0.135	-0.003
-274.399	110.839	0.236	0.278
-273.384	678.295	-0.068	-0.173
-272.370	800.000	0.075	-0.310
-271.355	316.490	0.098	-0.182
-270.340	501.700	0.162	0.367
-269.326	-142.348	-0.202	-0.019
-268.311	-199.259	-0.251	0.001
-267.297	-32.836	0.267	-0.145
-266.282	-80.195	0.169	0.056
-265.267	-200.000	0.032	-0.358
-264.253	261.790	0.144	-0.244
-263.238	13.880	-0.172	0.131
-262.224	-49.111	0.057	-0.027
-261.209	-110.667	0.131	0.026
-260.195	-200.000	0.024	-0.478
-259.180	-60.983	-0.166	-0.069
-258.165	784.558	0.069	0.185
-257.151	-45.702	0.175	0.085
-256.136	73.434	0.145	-0.148
-255.122	-45.743	0.063	-0.030
-254.107	-61.558	-0.207	-0.085
-253.092	800.000	-0.091	-0.280
-252.078	-176.171	0.209	-0.005
-251.063	-93.881	-0.186	-0.050
-250.049	-29.249	0.033	0.019
-249.034	-200.000	0.010	-0.153
-248.019	-109.206	0.470	0.098
-247.005	800.000	0.133	0.482
-245.990	-91.890	0.262	0.073
-244.976	-139.558	0.265	0.028
-243.961	-34.390	0.247	-0.133
-242.946	-200.000	0.015	-0.068
-241.932	241.255	0.059	0.096
-240.917	-200.000	-0.015	-0.297
-239.903	372.708	0.066	-0.132
-238.888	-35.227	0.030	0.016
-237.873	-113.128	-0.445	0.086
-236.859	800.000	-0.050	-0.183
-235.844	58.500	0.260	-0.250
-234.830	445.488	-0.124	0.266
-233.815	-137.605	0.251	0.028
-232.800	405.630	0.077	0.159
-231.786	800.000	-0.094	0.319
-230.771	-5.278	0.274	0.184
-229.757	482.705	0.081	0.180
-228.742	800.000	0.047	0.188
-227.727	75.449	-0.348	-0.359
-226.713	45.819	0.150	0.136
-225.698	437.118	0.067	0.144
-224.684	70.822	0.322	-0.326
-223.669	238.112	-0.103	0.168
-222.655	-113.489	0.218	0.042
-221.640	-169.810	-0.119	-0.004
-220.625	-40.912	0.082	-0.042
-219.611	-200.000	0.009	0.099
-218.596	-72.675	0.078	-0.028
-217.582	-79.314	0.438	0.145
-216.567	-21.441	-0.155	-0.093
-215.552	800.000	-0.054	0.203
-214.538	-35.059	-0.338	-0.180
-213.523	114.068	0.147	0.175
-212.509	-56.058	-0.139	-0.060
-211.494	103.920	-0.259	-0.298
-210.479	-0.832	0.104	0.072
-209.465	725.493	0.098	-0.256
-208.450	-92.765	-0.290	0.079
-207.436	200.478	-0.052	-0.078
-206.421	-152.866	0.320	-0.022
-205.406	-41.289	-0.035	-0.018
-204.392	-129.485	-0.173	0.023
-203.377	51.062	0.064	0.060
-202.363	-97.548	-0.239	-0.061
-201.348	100.449	-0.300	-0.341
-200.333	-58.107	-0.369	-0.157
-199.319	6.611	-0.058	0.042
-198.304	-178.843	0.116	-0.003
-197.290	36.846	0.278	0.240
-196.275	-108.898	-0.190	-0.040
-195.260	800.000	0.046	0.130
-194.246	800.000	0.011	-0.031
-193.231	4.789	0.182	0.131
-192.217	-200.000	0.029	0.279
-191.202	800.000	-0.037	0.121
-190.187	-136.512	0.202	-0.023
-189.173	-111.047	-0.032	0.006
-188.158	94.697	0.155	0.172
-187.144	-40.510	-0.143	-0.073
-186.129	-6.433	-0.125	-0.084
-185.114	100.209	0.007	-0.008
-184.100	-200.000	-0.042	0.232
-183.085	-89.913	0.403	-0.115
-182.071	-200.000	0.107	-0.460
-181.056	-91.809	-0.353	-0.098
-180.042	-148.892	0.380	-0.030
-179.027	-200.000	0.017	0.168
-178.012	-139.451	0.049	0.005
-176.998	-200.000	0.006	0.141
-175.983	-200.000	0.058	0.291
-174.969	-200.000	-0.004	0.043
-173.954	608.235	0.076	0.186
-172.939	-200.000	0.027	0.200
-171.925	84.874	0.049	-0.053
-170.910	-62.723	0.529	-0.214
-169.896	-200.000	0.001	0.462
-168.881	-85.247	-0.197	-0.060
-167.866	6.114	-0.258	0.187
-166.852	800.000	-0.126	0.409
-165.837	-7.768	-0.193	0.127
-164.823	110.905	-0.127	0.150
-163.808	42.181	0.207	0.184
-162.793	147.701	-0.124	-0.164
-161.779	-180.257	-0.244	0.005
-160.764	-200.000	0.004	-0.037
-159.750	-24.531	0.214	-0.124
-158.735	22.573	-0.220	-0.175
-157.720	-57.446	-0.409	-0.175
-156.706	37.684	0.087	-0.075
-155.691	122.233	-0.179	0.218
-154.677	800.000	0.024	0.086
-153.662	-118.515	-0.387	-0.067
-152.647	-200.000	0.038	0.177
-151.633	-171.025	0.176	-0.006
-150.618	-83.439	-0.083	-0.026
-149.604	20.382	0.128	-0.101
-148.589	106.921	-0.132	-0.153
-147.574	-70.651	-0.141	0.052
-146.560	57.061	0.123	0.117
-145.545	-200.000	0.000	-0.045
-144.531	800.000	-0.091	0.257
-143.516	-200.000	-0.004	0.303
-142.502	121.696	0.084	-0.102
-141.487	783.112	0.089	0.237
-140.472	-175.529	-0.273	0.007
-139.458	184.835	0.197	0.285
-138.443	-40.992	0.204	-0.103
-137.429	-77.897	0.095	-0.032
-136.414	469.465	-0.082	0.179
-135.399	363.812	-0.086	0.169
-134.385	439.149	0.085	0.182
-133.370	-35.324	-0.065	0.034
-132.356	-12.405	0.328	-0.209
-131.341	800.000	-0.055	-0.228
-130.326	800.000	-0.130	-0.354
-129.312	-136.603	0.081	-0.009
-128.297	-136.317	0.227	0.026
-127.283	118.935	-0.055	-0.067
-126.268	25.623	0.224	-0.182
-125.253	518.338	0.058	-0.131
-124.239	-200.000	0.035	-0.190
-123.224	684.075	-0.077	-0.196
-122.210	142.910	0.140	0.182
-121.195	-128.502	0.394	0.055
-120.180	-80.486	-0.488	-0.159
