DTS Sentinel unit serial number:	SN413079Multiplexer serial number:	ORYXHardware model number:	OX4-SRSoftware version number:	ORYX F/W v4.00 Oryx Data Collector v3.7.2.0data status	okinstallation	princeton_trtdifferential loss correction	single-endedforward channel	channel 2reverse channel	N/Adate	2019/09/13time	21:43:34forward acquisition time	60.00reverse acquisition time	0.00gamma	496.2192k internal	0.2334k external	0.2334temperature offset calibration	1.0120default loss term (dB/km)	0.3790temperature slope calibration	1.0000multiplexer offset coefficient	1.0000multiplexer slope coefficient	1.0000fibre end	0.00T internal ref (°C)	28.12T ext. ref 1 (°C)	3.01T ext. ref 2 (°C)	22.82length (m)	temperature (°C)	Stokes	anti-Stokes-747.200	16.744	0.133	-0.106
-746.185	726.779	0.045	0.120
-745.171	-200.000	-0.016	-0.257
-744.156	-15.482	0.140	-0.090
-743.142	-109.507	-0.267	-0.057
-742.127	-5.035	-0.192	0.133
-741.112	-200.000	0.002	0.132
-740.098	-42.580	0.179	0.091
-739.083	800.000	0.028	-0.099
-738.069	-200.000	0.006	0.134
-737.054	-158.034	0.129	0.008
-736.039	106.631	-0.137	-0.164
-735.025	-53.424	0.076	0.035
-734.010	139.293	-0.100	-0.133
-732.996	-64.258	-0.252	0.103
-731.981	-68.771	0.107	-0.042
-730.966	182.246	-0.079	-0.117
-729.952	-73.119	-0.178	0.066
-728.937	-26.947	-0.239	0.140
-727.923	522.942	-0.040	0.095
-726.908	-45.780	0.196	0.097
-725.894	800.000	-0.088	-0.379
-724.879	-74.248	-0.165	-0.060
-723.864	-108.099	-0.162	0.035
-722.850	639.433	-0.129	0.330
-721.835	211.580	-0.196	0.310
-720.821	-200.000	-0.035	-0.251
-719.806	-128.514	0.202	-0.029
-718.791	-40.276	0.451	-0.236
-717.777	-33.762	-0.077	-0.043
-716.762	48.663	-0.095	-0.090
-715.748	67.969	0.155	0.159
-714.733	-52.550	0.209	0.097
-713.718	-25.454	-0.237	-0.141
-712.704	-47.886	-0.224	0.109
-711.689	16.121	0.401	0.317
-710.675	75.437	-0.055	0.059
-709.660	12.660	0.277	0.215
-708.645	251.610	0.069	0.117
-707.631	282.200	-0.145	-0.261
-706.616	-98.402	-0.226	-0.058
-705.602	800.000	-0.087	0.277
-704.587	-53.801	0.302	0.138
-703.572	26.640	-0.222	0.186
-702.558	69.634	0.126	0.130
-701.543	200.494	0.097	0.149
-700.529	-152.856	0.122	-0.009
-699.514	800.000	0.068	-0.265
-698.499	-91.609	0.173	-0.049
-697.485	-68.945	-0.205	0.080
-696.470	-79.039	-0.142	0.048
-695.456	-104.956	0.323	-0.074
-694.441	800.000	-0.037	0.162
-693.426	-138.347	0.123	-0.014
-692.412	-193.801	-0.131	0.001
-691.397	800.000	-0.087	-0.310
-690.383	-200.000	0.016	-0.383
-689.368	203.372	-0.101	-0.157
-688.354	159.206	0.051	-0.072
-687.339	-200.000	-0.050	-0.266
-686.324	-135.094	0.100	0.012
-685.310	-155.958	-0.079	-0.005
-684.295	-124.761	-0.349	0.054
-683.281	-200.000	-0.037	-0.296
-682.266	-170.301	0.154	-0.005
-681.251	372.166	0.133	0.272
-680.237	54.083	0.092	-0.089
-679.222	-200.000	-0.041	-0.206
-678.208	-112.898	0.238	0.047
-677.193	16.340	0.076	-0.060
-676.178	10.172	-0.252	0.192
-675.164	-74.769	-0.169	0.061
-674.149	-7.407	0.103	-0.070
-673.135	8.710	-0.177	-0.133
-672.120	-200.000	-0.007	-0.120
-671.105	-183.487	-0.181	0.003
-670.091	-70.558	-0.198	0.075
-669.076	-123.807	0.519	0.082
-668.062	-73.133	-0.115	0.042
-667.047	-92.818	-0.242	0.068
-666.032	-94.576	0.330	-0.090
-665.018	6.507	-0.132	0.098
-664.003	-122.004	0.132	-0.022
-662.989	-200.000	-0.010	0.220
-661.974	230.947	-0.049	-0.080
-660.959	-200.000	-0.025	-0.110
-659.945	800.000	-0.042	0.174
-658.930	473.406	0.123	-0.278
-657.916	2.510	-0.300	-0.218
-656.901	458.511	-0.095	-0.212
-655.886	96.081	0.138	-0.158
-654.872	170.361	0.132	0.189
-653.857	-29.134	-0.154	0.089
-652.843	698.354	-0.124	-0.328
-651.828	-22.717	0.045	-0.027
-650.814	-55.943	0.134	-0.060
-649.799	-200.000	-0.026	-0.118
-648.784	550.969	0.056	-0.136
-647.770	93.067	-0.169	-0.191
-646.755	60.632	-0.078	0.077
-645.741	136.674	0.065	0.085
-644.726	3.493	-0.143	0.105
-643.711	115.285	-0.121	0.147
-642.697	800.000	0.045	-0.148
-641.682	-200.000	-0.003	0.210
-640.668	-200.000	-0.017	-0.325
-639.653	-60.401	-0.358	-0.152
-638.638	-91.599	-0.315	0.090
-637.624	-53.198	0.366	0.168
-636.609	22.828	-0.346	-0.284
-635.595	-200.000	0.019	-0.109
-634.580	32.350	-0.233	-0.201
-633.565	-177.755	-0.347	0.008
-632.551	-200.000	0.041	0.206
-631.536	-71.227	-0.228	0.086
-630.522	-105.576	0.163	0.037
-629.507	-200.000	-0.097	0.460
-628.492	-200.000	-0.006	-0.243
-627.478	-114.127	-0.237	0.046
-626.463	800.000	0.204	-0.572
-625.449	667.331	0.043	0.112
-624.434	26.039	0.036	0.030
-623.419	-66.799	0.232	0.092
-622.405	-200.000	0.002	0.205
-621.390	-62.010	-0.228	0.095
-620.376	-68.780	0.217	-0.084
-619.361	-200.000	0.030	0.265
-618.346	4.026	-0.143	-0.104
-617.332	89.528	-0.044	-0.049
-616.317	-200.000	-0.044	0.293
-615.303	50.669	0.164	0.156
-614.288	60.789	0.032	-0.032
-613.273	208.005	0.038	0.059
-612.259	57.370	-0.082	0.080
-611.244	-85.944	-0.325	-0.100
-610.230	-97.609	-0.065	-0.017
-609.215	-7.189	0.256	0.173
-608.201	10.824	0.034	0.026
-607.186	-132.963	-0.130	-0.017
-606.171	-65.003	-0.109	-0.044
-605.157	-82.817	0.284	-0.092
-604.142	-149.451	0.105	-0.008
-603.128	36.808	-0.194	0.172
-602.113	-115.914	0.230	-0.043
-601.098	-200.000	-0.000	-0.086
-600.084	14.707	-0.127	0.099
-599.069	-128.546	-0.136	0.019
-598.055	117.411	-0.135	0.165
-597.040	-183.252	-0.376	-0.007
-596.025	-200.000	0.044	-0.263
-595.011	110.862	0.187	-0.224
-593.996	-174.297	-0.107	-0.003
-592.982	-152.871	0.274	0.019
-591.967	-38.188	0.208	0.110
-590.952	248.842	0.096	-0.162
-589.938	5.802	0.016	-0.012
-588.923	567.112	-0.064	-0.155
-587.909	-200.000	0.027	-0.154
-586.894	15.574	0.206	0.162
-585.879	-200.000	0.047	0.234
-584.865	-47.652	-0.277	-0.134
-583.850	-140.426	0.183	0.019
-582.836	-63.856	-0.092	-0.038
-581.821	-64.003	-0.133	0.054
-580.806	-101.979	0.181	0.044
-579.792	-57.438	-0.358	-0.157
-578.777	-137.745	0.163	0.018
-577.763	581.384	-0.051	-0.124
-576.748	35.083	0.153	-0.134
-575.733	-157.219	-0.085	-0.005
-574.719	-200.000	-0.007	0.304
-573.704	-26.807	-0.162	-0.094
-572.690	59.750	0.205	0.202
-571.675	128.363	-0.201	-0.255
-570.661	800.000	0.068	0.297
-569.646	211.689	0.226	-0.355
-568.631	18.568	-0.059	-0.047
-567.617	-189.149	0.089	0.001
-566.602	-66.963	0.192	0.076
-565.588	-200.000	-0.004	-0.051
-564.573	38.291	-0.143	0.127
-563.558	-200.000	0.044	0.233
-562.544	-38.277	0.119	0.063
-561.529	438.305	-0.104	0.227
-560.515	282.760	0.114	0.204
-559.500	-200.000	-0.061	-0.369
-558.485	-54.450	-0.038	-0.017
-557.471	-89.847	-0.125	-0.037
-556.456	88.380	-0.343	-0.380
-555.442	-142.505	-0.198	0.019
-554.427	-31.994	0.055	0.031
-553.412	-183.181	-0.330	0.006
-552.398	146.654	0.096	-0.128
-551.383	-81.172	-0.141	-0.047
-550.369	-65.327	0.124	0.050
-549.354	428.658	0.069	-0.149
-548.339	800.000	0.136	-0.375
-547.325	40.907	-0.269	-0.242
-546.310	-14.617	0.402	-0.258
-545.296	-79.203	0.095	0.032
-544.281	73.484	-0.108	0.113
-543.266	69.966	0.161	0.166
-542.252	800.000	0.017	0.065
-541.237	-192.871	-0.199	0.002
-540.223	-64.682	0.058	-0.023
-539.208	-147.123	-0.496	-0.042
-538.193	-200.000	0.010	-0.256
-537.179	-200.000	0.026	-0.181
-536.164	-107.096	-0.374	0.082
-535.150	800.000	-0.029	-0.084
-534.135	-125.003	0.383	-0.059
-533.121	-112.842	0.321	0.063
-532.106	-105.355	-0.145	0.033
-531.091	-102.546	0.115	0.027
-530.077	361.825	-0.164	-0.329
-529.062	-88.463	0.080	0.024
-528.048	-191.514	-0.259	0.003
-527.033	-200.000	-0.019	0.180
-526.018	592.085	0.162	0.398
-525.004	35.992	0.217	-0.190
-523.989	-6.130	0.084	0.057
-522.975	283.029	-0.140	-0.251
-521.960	107.725	-0.055	-0.065
-520.945	-2.984	0.177	0.123
-519.931	-67.557	-0.510	0.199
-518.916	-93.654	0.226	0.062
-517.902	800.000	0.010	-0.034
-516.887	253.682	-0.090	-0.154
-515.872	207.836	0.217	-0.337
-514.858	137.540	0.145	-0.188
-513.843	67.531	0.267	-0.272
-512.829	33.997	-0.148	-0.129
-511.814	488.587	0.128	-0.292
-510.799	38.177	-0.186	0.165
-509.785	-32.090	-0.209	0.116
-508.770	448.858	0.054	0.118
-507.756	552.540	0.063	0.151
-506.741	-200.000	-0.002	-0.008
-505.726	-15.113	0.241	0.154
-504.712	458.302	0.069	0.153
-503.697	6.702	0.150	0.111
-502.683	-23.412	0.207	-0.124
-501.668	-200.000	-0.058	-0.275
-500.653	800.000	-0.082	-0.235
-499.639	-33.830	0.231	0.127
-498.624	372.489	0.142	0.288
-497.610	-142.370	-0.227	0.022
-496.595	-139.979	-0.313	-0.033
-495.581	35.733	-0.365	-0.319
-494.566	800.000	-0.061	0.248
-493.551	60.157	0.151	0.149
-492.537	-22.838	-0.080	0.048
-491.522	800.000	0.033	0.113
-490.508	99.645	-0.078	0.090
-489.493	-0.269	-0.048	0.034
-488.478	-200.000	-0.043	0.195
-487.464	-85.844	0.336	0.104
-486.449	-145.343	0.043	0.004
-485.435	-135.193	0.192	0.023
-484.420	44.950	0.162	0.148
-483.405	141.304	-0.182	0.240
-482.391	-82.917	-0.236	-0.076
-481.376	30.754	-0.263	-0.224
-480.362	50.589	-0.352	-0.331
-479.347	-90.889	-0.116	0.033
-478.332	800.000	0.065	-0.275
-477.318	103.444	-0.056	0.065
-476.303	113.260	0.227	0.274
-475.289	-88.105	0.386	-0.115
-474.274	-200.000	-0.008	0.078
-473.259	19.259	-0.054	0.043
-472.245	68.762	0.058	-0.059
-471.230	-41.612	0.164	-0.084
-470.216	-100.827	0.093	0.023
-469.201	800.000	0.023	-0.100
-468.186	29.938	0.235	-0.199
-467.172	237.161	0.106	-0.175
-466.157	85.465	0.158	-0.173
-465.143	-200.000	-0.053	0.243
-464.128	17.592	0.088	0.070
-463.113	204.878	-0.157	-0.242
-462.099	188.755	-0.195	0.291
-461.084	-98.633	0.371	0.094
-460.070	-117.153	-0.461	-0.083
-459.055	-109.152	-0.115	0.024
-458.040	666.029	0.120	0.308
-457.026	-104.581	-0.097	-0.022
-456.011	190.165	-0.299	0.446
-454.997	-120.874	0.107	0.018
-453.982	11.214	-0.499	0.380
-452.968	14.793	-0.030	-0.024
-451.953	44.863	0.237	0.217
-450.938	-200.000	-0.040	0.192
-449.924	-200.000	-0.023	-0.115
-448.909	-14.162	-0.099	-0.064
-447.895	314.381	-0.249	-0.465
-446.880	-200.000	-0.017	-0.080
-445.865	95.908	0.182	-0.206
-444.851	23.547	-0.146	-0.119
-443.836	800.000	-0.111	-0.311
-442.822	-30.138	0.211	0.119
-441.807	-52.461	0.150	-0.069
-440.792	308.802	0.149	0.277
-439.778	-125.672	0.171	-0.026
-438.763	8.810	-0.121	0.091
-437.749	-87.734	0.380	-0.114
-436.734	425.144	-0.073	-0.156
-435.719	-7.401	-0.027	-0.018
-434.705	-153.969	-0.244	0.017
-433.690	-4.513	0.458	0.315
-432.676	137.447	-0.194	-0.252
-431.661	106.492	-0.136	-0.160
-430.646	148.660	-0.224	-0.301
-429.632	-200.000	0.020	-0.311
-428.617	-115.358	-0.190	-0.036
-427.603	-200.000	-0.028	-0.372
-426.588	348.170	-0.066	0.129
-425.573	-137.327	0.120	-0.013
-424.559	4.322	0.239	0.174
-423.544	-169.431	0.387	-0.014
-422.530	-200.000	-0.018	-0.440
-421.515	309.935	-0.040	0.074
-420.500	-72.795	-0.184	-0.067
-419.486	-43.339	-0.140	-0.070
-418.471	33.051	-0.070	0.060
-417.457	447.660	-0.194	-0.424
-416.442	-60.319	0.106	0.045
-415.428	-43.521	0.118	0.059
-414.413	-200.000	0.032	-0.153
-413.398	-33.529	0.108	-0.059
-412.384	-124.135	0.147	0.023
-411.369	-144.296	0.372	0.034
-410.355	800.000	-0.046	-0.134
-409.340	55.998	-0.159	0.153
-408.325	22.130	0.127	0.103
-407.311	-20.652	0.218	0.133
-406.296	-200.000	-0.078	-0.351
-405.282	-99.813	-0.346	-0.086
-404.267	27.151	-0.057	0.048
-403.252	800.000	-0.046	0.176
-402.238	78.827	0.167	0.177
-401.223	-70.929	-0.237	-0.088
-400.209	28.254	-0.098	-0.082
-399.194	-102.341	0.150	-0.036
-398.179	103.184	0.101	-0.118
-397.165	-200.000	-0.028	-0.120
-396.150	673.108	0.098	0.252
-395.136	-115.234	0.273	-0.051
-394.121	-17.438	0.214	-0.133
-393.106	252.395	-0.122	0.206
-392.092	-43.958	-0.291	-0.145
-391.077	800.000	-0.072	0.258
-390.063	-47.490	0.023	-0.011
-389.048	800.000	0.105	-0.336
-388.033	177.263	0.170	-0.245
-387.019	-200.000	0.046	-0.273
-386.004	-93.111	-0.115	0.032
-384.990	45.965	-0.095	0.087
-383.975	-117.352	-0.175	-0.031
-382.960	-200.000	-0.005	-0.102
-381.946	800.000	-0.078	0.226
-380.931	-49.417	0.165	-0.078
-379.917	137.081	0.076	0.098
-378.902	-200.000	0.060	0.417
-377.888	40.734	-0.160	0.143
-376.873	271.218	0.181	0.317
-375.858	-103.538	0.278	0.065
-374.844	800.000	-0.083	-0.233
-373.829	-46.311	0.055	-0.027
-372.815	-200.000	0.008	-0.203
-371.800	800.000	-0.012	0.036
-370.785	274.641	0.106	0.186
-369.771	-147.594	-0.076	0.006
-368.756	71.027	0.260	0.267
-367.742	-71.240	0.123	0.046
-366.727	-38.915	-0.362	0.189
-365.712	-80.720	-0.129	-0.042
-364.698	129.513	0.152	0.192
-363.683	230.065	0.129	-0.209
-362.669	-38.805	0.027	-0.014
-361.654	-71.398	0.227	-0.084
-360.639	-5.036	-0.201	0.137
-359.625	800.000	-0.101	-0.379
-358.610	-76.341	-0.157	-0.055
-357.596	-54.071	-0.262	-0.118
-356.581	348.823	0.093	0.182
-355.566	-56.987	-0.235	0.103
-354.552	359.689	-0.070	0.139
-353.537	-200.000	-0.023	-0.280
-352.523	-106.931	-0.369	-0.081
-351.508	-18.768	-0.072	0.045
-350.493	308.809	0.086	-0.159
-349.479	-200.000	0.055	0.271
-348.464	57.386	-0.094	-0.091
-347.450	800.000	-0.108	-0.301
-346.435	-24.538	-0.130	0.076
-345.420	-61.856	0.133	-0.055
-344.406	-20.127	-0.044	0.027
-343.391	-100.005	-0.063	0.016
-342.377	787.228	0.053	-0.143
-341.362	-154.742	0.354	-0.023
-340.348	7.338	0.229	-0.169
-339.333	177.410	0.304	-0.438
-338.318	167.977	-0.135	0.190
-337.304	443.024	0.118	0.257
-336.289	140.969	0.137	0.179
-335.275	-38.103	0.252	-0.132
-334.260	800.000	0.067	0.192
-333.245	163.293	-0.086	-0.120
-332.231	182.659	-0.208	-0.303
-331.216	130.925	-0.082	0.104
-330.202	-5.576	0.076	0.051
-329.187	84.479	-0.218	-0.235
-328.172	800.000	0.051	-0.211
-327.158	-45.181	0.102	0.050
-326.143	16.797	0.264	0.206
-325.129	800.000	-0.026	-0.078
-324.114	9.746	0.132	0.099
-323.099	-5.229	-0.158	0.108
-322.085	-34.448	-0.081	-0.044
-321.070	-129.468	0.232	-0.032
-320.056	-25.644	-0.236	0.137
-319.041	-4.866	-0.084	0.057
-318.026	243.729	-0.130	0.216
-317.012	62.182	0.023	-0.023
-315.997	-76.930	0.431	-0.149
-314.983	-163.848	0.262	-0.012
-313.968	-103.924	-0.418	-0.097
-312.953	-200.000	0.022	0.161
-311.939	19.786	-0.175	0.139
-310.924	347.050	0.149	0.290
-309.910	-200.000	0.003	-0.027
-308.895	-50.311	-0.151	-0.071
-307.880	65.776	0.258	0.258
-306.866	-35.870	-0.072	-0.038
-305.851	-56.634	-0.144	-0.063
-304.837	-200.000	-0.037	-0.247
-303.822	685.366	-0.130	-0.336
-302.807	3.622	0.174	-0.126
-301.793	-70.115	-0.226	-0.085
-300.778	220.848	-0.121	-0.192
-299.764	-174.994	-0.225	-0.006
-298.749	-52.870	-0.249	-0.113
-297.735	254.435	-0.069	0.117
-296.720	622.711	0.061	0.151
-295.705	41.581	0.266	0.238
-294.691	-16.024	-0.270	0.170
-293.676	223.300	0.050	0.079
-292.662	20.257	-0.170	0.136
-291.647	-200.000	-0.035	0.249
-290.632	-200.000	0.037	0.188
-289.618	65.115	0.043	0.042
-288.603	-135.950	-0.228	0.026
-287.589	352.140	0.036	-0.070
-286.574	800.000	0.011	-0.045
-285.559	-8.830	-0.039	-0.026
-284.545	65.463	0.203	0.203
-283.530	77.711	0.095	-0.100
-282.516	651.546	0.055	0.138
-281.501	-41.673	-0.420	-0.213
-280.486	736.023	0.075	-0.200
-279.472	30.107	0.156	0.132
-278.457	-74.224	0.266	-0.095
-277.443	800.000	0.036	-0.149
-276.428	800.000	-0.114	-0.331
-275.413	800.000	-0.070	0.252
-274.399	197.223	0.143	0.215
-273.384	-42.248	0.189	0.095
-272.370	77.224	-0.082	-0.087
-271.355	-43.685	-0.112	0.056
-270.340	-200.000	-0.011	-0.061
-269.326	186.877	-0.049	-0.073
-268.311	34.854	-0.244	-0.210
-267.297	-200.000	-0.065	0.495
-266.282	800.000	-0.049	0.157
-265.267	6.953	0.099	0.073
-264.253	-58.529	-0.296	-0.127
-263.238	-200.000	0.000	-0.199
-262.224	-178.395	-0.313	0.007
-261.209	-200.000	-0.036	0.196
-260.195	120.517	0.078	-0.096
-259.180	269.001	-0.004	-0.007
-258.165	-165.511	0.215	0.009
-257.151	43.337	0.025	0.022
-256.136	-200.000	-0.074	0.569
-255.122	68.143	0.158	-0.160
-254.107	-28.516	0.089	-0.051
-253.092	-40.312	0.238	-0.122
-252.078	-166.877	0.064	-0.003
-251.063	157.115	0.322	0.439
-250.049	-200.000	-0.003	0.293
-249.034	-200.000	0.064	-0.363
-248.019	-49.639	0.049	-0.023
-247.005	-200.000	-0.047	-0.283
-245.990	-111.444	0.179	0.036
-244.976	112.546	0.252	0.301
-243.961	-137.048	-0.109	-0.012
-242.946	-151.131	0.293	0.022
-241.932	-58.426	-0.198	-0.085
-240.917	-85.454	0.256	0.079
-239.903	-165.226	0.349	0.015
-238.888	-200.000	0.015	-0.360
-237.873	-127.920	-0.248	-0.035
-236.859	360.595	-0.124	0.245
-235.844	-1.739	-0.243	0.168
-234.830	-122.821	0.050	-0.008
-233.815	-200.000	0.006	-0.310
-232.800	-129.988	-0.295	0.040
-231.786	800.000	0.058	0.167
-230.771	-143.003	0.482	0.046
-229.757	-190.241	-0.047	0.001
-228.742	-200.000	-0.030	0.158
-227.727	-31.038	0.120	-0.067
-226.713	800.000	-0.033	0.134
-225.698	144.426	-0.116	0.152
-224.684	85.172	0.065	0.070
-223.669	19.220	0.242	0.192
-222.655	-200.000	-0.001	0.338
-221.640	-200.000	0.013	-0.126
-220.625	-200.000	0.047	0.210
-219.611	-200.000	-0.046	0.202
-218.596	-67.362	0.248	0.096
-217.582	-200.000	-0.055	-0.255
-216.567	800.000	0.023	0.074
-215.552	-200.000	0.040	0.274
-214.538	25.844	0.226	-0.186
-213.523	-0.826	-0.158	-0.110
-212.509	28.256	-0.025	-0.021
-211.494	800.000	-0.102	-0.371
-210.479	7.705	0.130	-0.096
-209.465	148.785	-0.132	-0.175
-208.450	294.120	-0.014	-0.026
-207.436	-131.975	0.132	-0.017
-206.421	800.000	-0.062	-0.230
-205.406	-23.951	-0.166	-0.098
-204.392	-200.000	-0.018	0.395
-203.377	-37.893	0.286	0.150
-202.363	125.207	0.128	0.159
-201.348	143.760	0.188	0.246
-200.333	127.081	0.039	0.049
-199.319	-36.225	-0.026	0.014
-198.304	-200.000	-0.012	-0.211
-197.290	-114.598	-0.106	0.020
-196.275	-200.000	0.019	0.101
-195.260	753.495	0.024	-0.064
-194.246	9.115	-0.097	-0.072
-193.231	-200.000	-0.016	-0.155
-192.217	800.000	0.062	-0.233
-191.202	235.275	-0.103	-0.167
-190.187	800.000	-0.097	-0.328
-189.173	-92.756	0.188	-0.052
-188.158	410.403	0.060	0.126
-187.144	-87.194	-0.073	-0.022
-186.129	28.304	-0.019	-0.016
-185.114	106.307	-0.138	-0.160
-184.100	800.000	0.048	0.132
-183.085	-135.585	0.357	-0.042
-182.071	-29.192	-0.319	-0.180
-181.056	57.242	-0.080	-0.076
-180.042	-48.175	-0.246	0.117
-179.027	99.713	-0.160	0.182
-178.012	-13.738	-0.025	0.016
-176.998	447.860	0.130	0.281
-175.983	-200.000	0.019	-0.125
-174.969	-127.810	-0.297	0.042
-173.954	248.078	0.027	0.045
-172.939	800.000	-0.056	0.187
-171.925	800.000	-0.075	0.273
-170.910	71.155	0.108	-0.110
-169.896	800.000	-0.047	0.129
-168.881	-89.843	0.321	0.092
-167.866	59.966	-0.154	-0.150
-166.852	103.802	0.329	0.380
-165.837	584.181	0.144	0.347
-164.823	-200.000	-0.073	0.318
-163.808	120.283	-0.101	-0.123
-162.793	800.000	0.063	0.247
-161.779	543.112	0.052	0.122
-160.764	-105.248	0.263	0.059
-159.750	800.000	0.007	-0.019
-158.735	442.072	-0.096	0.207
-157.720	-85.037	0.167	-0.051
-156.706	-73.829	-0.222	0.079
-155.691	-19.405	0.124	0.076
-154.677	227.600	-0.058	-0.092
-153.662	34.603	-0.162	-0.139
-152.647	301.670	0.062	-0.112
-151.633	-55.644	0.271	-0.119
-150.618	649.768	0.036	-0.091
-149.604	147.213	0.204	0.270
-148.589	-200.000	-0.030	0.170
-147.574	-132.962	-0.193	0.024
-146.560	373.013	-0.192	-0.383
-145.545	-200.000	0.025	0.117
-144.531	-111.382	0.138	-0.028
-143.516	615.251	0.107	0.263
-142.502	-132.317	-0.255	-0.032
-141.487	-107.146	-0.366	-0.079
-140.472	242.297	0.213	0.349
-139.458	56.506	0.058	-0.056
-138.443	194.082	0.160	-0.239
-137.429	-113.804	-0.283	0.054
-136.414	-43.358	-0.143	-0.071
-135.399	-82.998	-0.363	-0.115
-134.385	-84.932	-0.037	0.011
-133.370	128.562	0.250	-0.313
-132.356	800.000	-0.068	-0.248
-131.341	143.721	0.010	-0.013
-130.326	567.567	0.036	0.087
-129.312	72.522	0.033	-0.034
-128.297	8.789	-0.125	0.093
-127.283	-200.000	0.008	0.084
-126.268	-10.151	0.235	-0.153
-125.253	-131.076	-0.112	-0.015
-124.239	-82.138	0.551	-0.176
-123.224	-119.646	-0.130	0.022
-122.210	-200.000	-0.086	0.457
-121.195	-141.607	0.240	0.024
