DTS Sentinel unit serial number:	SN413079Multiplexer serial number:	ORYXHardware model number:	OX4-SRSoftware version number:	ORYX F/W v4.00 Oryx Data Collector v3.7.2.0data status	okinstallation	princeton_trtdifferential loss correction	single-endedforward channel	channel 2reverse channel	N/Adate	2019/09/15time	18:15:35forward acquisition time	60.00reverse acquisition time	0.00gamma	496.2192k internal	0.2284k external	0.2284temperature offset calibration	0.9920default loss term (dB/km)	0.3790temperature slope calibration	1.0000multiplexer offset coefficient	1.0000multiplexer slope coefficient	1.0000fibre end	0.00T internal ref (°C)	44.50T ext. ref 1 (°C)	6.61T ext. ref 2 (°C)	39.12length (m)	temperature (°C)	Stokes	anti-Stokes-747.200	185.481	-0.082	0.125
-746.185	-21.700	-0.474	0.297
-745.171	108.190	0.075	-0.092
-744.156	-156.924	-0.386	0.024
-743.142	-200.000	-0.008	0.147
-742.127	304.204	-0.052	0.099
-741.112	-53.958	-0.147	-0.069
-740.098	63.489	-0.367	0.378
-739.083	-133.342	-0.357	-0.046
-738.069	800.000	0.031	0.124
-737.054	-200.000	0.036	0.228
-736.039	236.802	-0.176	0.300
-735.025	-15.921	-0.264	-0.173
-734.010	720.284	-0.041	-0.112
-732.996	-149.621	0.129	-0.010
-731.981	800.000	-0.047	0.163
-730.966	-180.001	0.097	-0.002
-729.952	42.843	-0.048	0.045
-728.937	800.000	0.016	0.055
-727.923	363.245	-0.009	0.019
-726.908	-15.050	-0.402	0.264
-725.894	338.956	0.185	0.370
-724.879	-68.911	0.197	0.078
-723.864	-176.158	0.471	0.013
-722.850	-0.769	-0.148	-0.108
-721.835	-21.448	-0.149	-0.093
-720.821	-200.000	-0.017	-0.202
-719.806	-200.000	-0.024	-0.395
-718.791	20.334	0.109	-0.090
-717.777	800.000	-0.035	-0.119
-716.762	31.608	0.090	0.079
-715.748	-70.973	-0.384	0.148
-714.733	-200.000	-0.006	-0.079
-713.718	-9.793	-0.299	0.204
-712.704	219.439	0.004	-0.006
-711.689	-200.000	-0.005	0.173
-710.675	-200.000	0.023	-0.199
-709.660	-157.316	0.183	-0.011
-708.645	-123.787	-0.302	0.049
-707.631	37.488	-0.199	0.181
-706.616	707.562	-0.042	-0.115
-705.602	428.241	-0.110	0.243
-704.587	3.046	-0.107	-0.079
-703.572	-99.843	0.262	-0.067
-702.558	21.907	-0.151	0.127
-701.543	-200.000	0.068	-0.399
-700.529	-94.199	0.167	0.047
-699.514	-145.088	-0.254	0.024
-698.499	434.636	0.042	-0.093
-697.485	138.754	-0.094	0.126
-696.470	-200.000	0.004	0.111
-695.456	-200.000	0.037	-0.181
-694.441	-174.082	0.138	0.004
-693.426	-13.226	0.171	-0.114
-692.412	-54.530	0.144	0.067
-691.397	-128.722	-0.070	0.010
-690.383	0.348	-0.269	-0.197
-689.368	-72.419	0.236	-0.090
-688.354	-9.681	0.051	-0.035
-687.339	-200.000	-0.025	-0.114
-686.324	10.832	-0.126	0.098
-685.310	-116.946	-0.036	-0.007
-684.295	693.011	-0.076	-0.205
-683.281	139.281	0.372	0.502
-682.266	-200.000	0.004	-0.233
-681.251	-123.152	-0.347	-0.057
-680.237	800.000	0.060	0.177
-679.222	-200.000	0.043	-0.535
-678.208	800.000	-0.075	-0.276
-677.193	-61.907	-0.298	0.128
-676.178	16.426	0.091	-0.074
-675.164	-200.000	-0.040	-0.340
-674.149	-200.000	-0.044	0.214
-673.135	84.846	-0.128	-0.143
-672.120	307.831	-0.117	0.223
-671.105	432.224	-0.072	-0.159
-670.091	-23.236	-0.231	-0.142
-669.076	-148.798	0.051	0.004
-668.062	-200.000	0.013	-0.152
-667.047	640.488	-0.109	-0.285
-666.032	800.000	-0.055	-0.179
-665.018	800.000	-0.091	0.301
-664.003	606.662	0.064	-0.162
-662.989	36.271	0.187	0.169
-661.974	-84.927	-0.282	-0.091
-660.959	83.860	0.046	-0.052
-659.945	800.000	-0.044	-0.172
-658.930	800.000	0.092	0.330
-657.916	-144.610	-0.378	-0.036
-656.901	-94.166	-0.258	-0.072
-655.886	218.171	0.142	-0.232
-654.872	-150.236	-0.151	0.012
-653.857	-96.861	0.112	0.030
-652.843	-91.138	-0.365	-0.107
-651.828	-162.422	-0.705	0.036
-650.814	571.904	0.063	0.157
-649.799	4.971	-0.205	0.155
-648.784	-160.860	0.277	0.015
-647.770	-88.588	0.143	0.044
-646.755	271.070	-0.080	0.144
-645.741	-114.261	-0.240	0.047
-644.726	-61.740	-0.245	0.105
-643.711	67.452	0.140	0.146
-642.697	-157.749	0.111	0.007
-641.682	271.585	0.141	0.254
-640.668	-191.031	-0.201	-0.002
-639.653	800.000	-0.083	0.282
-638.638	-66.427	0.219	0.089
-637.624	-44.215	-0.361	-0.185
-636.609	-200.000	0.008	0.042
-635.595	90.583	0.027	0.031
-634.580	219.727	-0.164	0.269
-633.565	-70.788	-0.222	0.086
-632.551	-200.000	0.044	-0.230
-631.536	-1.667	0.227	-0.163
-630.522	247.014	-0.171	-0.296
-629.507	97.542	-0.085	0.099
-628.492	67.527	-0.270	-0.282
-627.478	125.988	-0.085	-0.110
-626.463	-60.010	-0.332	0.145
-625.449	-200.000	0.045	0.390
-624.434	-116.248	-0.146	-0.028
-623.419	-77.722	-0.291	0.103
-622.405	-200.000	0.092	0.487
-621.390	-200.000	-0.016	-0.267
-620.376	-170.514	-0.244	-0.009
-619.361	-200.000	-0.034	-0.233
-618.346	-200.000	0.044	0.233
-617.332	342.918	0.049	-0.097
-616.317	27.120	-0.302	-0.259
-615.303	84.949	-0.216	-0.242
-614.288	-22.692	0.268	0.166
-613.273	113.493	0.127	-0.157
-612.259	-24.840	-0.120	-0.073
-611.244	1.185	0.158	-0.116
-610.230	166.969	0.092	-0.134
-609.215	-54.961	0.260	0.120
-608.201	-200.000	0.043	-0.198
-607.186	800.000	0.054	0.199
-606.171	43.564	0.096	-0.089
-605.157	800.000	0.004	0.012
-604.142	-28.196	0.213	-0.126
-603.128	73.647	0.057	0.061
-602.113	30.545	0.314	-0.274
-601.098	-171.633	-0.208	-0.007
-600.084	-172.759	0.291	0.009
-599.069	-61.160	-0.099	-0.043
-598.055	-89.770	-0.200	0.060
-597.040	-117.995	0.277	-0.051
-596.025	7.678	-0.081	0.062
-595.011	-56.139	-0.111	-0.050
-593.996	325.028	-0.056	0.109
-592.982	-107.803	0.179	0.040
-591.967	-188.134	0.334	-0.004
-590.952	-58.001	0.406	0.181
-589.938	32.719	-0.323	-0.285
-588.923	-200.000	-0.033	-0.251
-587.909	266.597	0.053	0.095
-586.894	-54.083	0.220	-0.102
-585.879	-89.487	-0.231	0.069
-584.865	-76.324	0.062	-0.022
-583.850	-200.000	0.017	0.252
-582.836	-200.000	-0.022	0.233
-581.821	-86.815	-0.535	-0.167
-580.806	-36.867	0.326	-0.178
-579.792	-200.000	0.005	-0.139
-578.777	25.315	-0.280	-0.238
-577.763	-88.832	0.264	-0.080
-576.748	-84.100	0.139	-0.045
-575.733	18.707	-0.055	0.045
-574.719	211.238	0.070	-0.112
-573.704	-200.000	0.007	-0.182
-572.690	-63.234	-0.110	0.046
-571.675	154.719	0.205	-0.287
-570.661	122.172	-0.050	-0.064
-569.646	-200.000	0.009	0.132
-568.631	320.386	-0.058	0.112
-567.617	800.000	0.080	-0.278
-566.602	800.000	0.082	-0.277
-565.588	-135.581	0.109	0.013
-564.573	800.000	0.020	0.082
-563.558	-44.352	0.407	0.208
-562.544	405.403	0.131	0.282
-561.529	-28.712	-0.439	-0.258
-560.515	-200.000	-0.004	-0.059
-559.500	-200.000	0.012	0.064
-558.485	-200.000	0.061	0.349
-557.471	18.627	-0.039	0.032
-556.456	800.000	-0.094	-0.288
-555.442	-59.001	0.196	0.086
-554.427	597.468	-0.095	0.241
-553.412	181.157	0.095	0.142
-552.398	-89.373	-0.371	0.111
-551.383	221.994	0.098	-0.160
-550.369	800.000	-0.056	0.216
-549.354	105.478	0.239	-0.288
-548.339	792.925	0.132	-0.371
-547.325	-200.000	-0.006	-0.074
-546.310	205.246	-0.151	0.239
-545.296	-166.137	0.221	-0.010
-544.281	-116.522	0.148	0.028
-543.266	393.606	-0.068	0.145
-542.252	-162.895	0.216	-0.011
-541.237	-89.060	-0.375	0.113
-540.223	160.751	0.259	-0.368
-539.208	345.844	0.107	-0.215
-538.193	-119.770	-0.012	0.002
-537.179	165.783	-0.140	-0.201
-536.164	84.294	0.155	0.173
-535.150	-88.017	0.588	0.180
-534.135	-200.000	0.023	-0.336
-533.121	-54.773	-0.014	-0.006
-532.106	-143.666	-0.064	0.006
-531.091	43.746	-0.255	-0.238
-530.077	-85.964	0.223	0.070
-529.062	-150.777	0.157	0.012
-528.048	46.099	0.152	0.143
-527.033	-140.545	0.363	-0.038
-526.018	800.000	-0.048	0.136
-525.004	104.693	-0.023	-0.028
-523.989	800.000	0.026	0.092
-522.975	73.238	-0.130	-0.139
-521.960	-34.591	-0.214	-0.119
-520.945	-200.000	-0.044	0.312
-519.931	238.693	-0.090	-0.152
-518.916	-74.383	0.311	-0.114
-517.902	-154.999	0.103	-0.007
-516.887	800.000	-0.040	-0.172
-515.872	-200.000	-0.005	-0.172
-514.858	800.000	-0.049	-0.190
-513.843	-200.000	-0.065	0.311
-512.829	-171.902	-0.141	-0.005
-511.814	186.411	-0.040	-0.061
-510.799	385.611	0.088	-0.185
-509.785	-59.230	-0.272	-0.119
-508.770	143.768	0.116	0.158
-507.756	-119.691	-0.276	0.049
-506.741	119.667	-0.092	0.117
-505.726	331.731	0.109	0.214
-504.712	266.169	0.019	-0.034
-503.697	800.000	-0.047	0.211
-502.683	800.000	-0.151	-0.506
-501.668	15.021	-0.058	-0.046
-500.653	-200.000	0.017	0.404
-499.639	-36.759	-0.252	0.138
-498.624	-200.000	-0.051	0.248
-497.610	800.000	-0.038	0.146
-496.595	-76.943	0.102	-0.036
-495.581	-14.184	-0.055	0.036
-494.566	-110.380	-0.454	0.096
-493.551	448.868	0.110	-0.247
-492.537	183.052	0.073	-0.109
-491.522	159.526	0.170	0.240
-490.508	5.378	0.188	-0.141
-489.493	-184.561	-0.088	0.001
-488.478	547.377	-0.069	-0.169
-487.464	800.000	0.017	-0.075
-486.449	171.734	0.136	-0.198
-485.435	-19.906	0.056	0.035
-484.420	38.417	-0.058	-0.053
-483.405	-6.419	0.225	-0.156
-482.391	-138.448	-0.042	0.005
-481.376	403.666	-0.073	-0.157
-480.362	-50.832	0.201	0.096
-479.347	-16.800	-0.391	0.251
-478.332	202.202	-0.012	-0.018
-477.318	86.776	-0.138	-0.154
-476.303	477.179	0.125	0.287
-475.289	102.225	-0.184	0.218
-474.274	-200.000	-0.073	-0.366
-473.259	-200.000	-0.015	-0.168
-472.245	456.062	0.124	0.279
-471.230	-126.099	-0.076	-0.012
-470.216	-108.768	-0.288	-0.063
-469.201	16.541	-0.045	0.036
-468.186	-164.073	0.083	-0.004
-467.172	-139.192	-0.296	0.032
-466.157	-120.769	0.148	0.025
-465.143	590.075	0.176	-0.442
-464.128	43.058	0.074	-0.068
-463.113	289.498	-0.098	0.180
-462.099	-70.817	0.429	0.164
-461.084	-106.916	0.262	0.059
-460.070	535.774	0.067	0.162
-459.055	800.000	0.035	0.122
-458.040	-17.771	0.148	-0.095
-457.026	-48.536	-0.278	-0.136
-456.011	360.848	-0.090	0.183
-454.997	-26.710	-0.291	0.173
-453.982	-44.236	-0.352	0.179
-452.968	83.466	-0.082	-0.091
-451.953	-158.634	-0.220	-0.013
-450.938	-166.222	0.226	-0.010
-449.924	-22.548	-0.232	-0.142
-448.909	-5.892	0.275	-0.191
-447.895	-100.550	0.139	0.035
-446.880	206.066	0.177	0.280
-445.865	728.657	-0.066	0.180
-444.851	510.948	0.169	-0.400
-443.836	-66.023	-0.109	-0.044
-442.822	-110.880	-0.406	0.085
-441.807	800.000	-0.037	-0.109
-440.792	-121.088	-0.321	0.055
-439.778	-44.738	-0.146	0.074
-438.763	376.347	-0.008	-0.017
-437.749	-75.348	-0.123	-0.044
-436.734	-83.397	-0.071	-0.023
-435.719	-16.266	0.152	0.098
-434.705	-136.304	-0.268	0.032
-433.690	52.109	-0.269	0.260
-432.676	800.000	-0.042	-0.142
-431.661	800.000	0.059	0.191
-430.646	47.205	0.097	0.091
-429.632	-200.000	0.006	0.352
-428.617	-6.237	-0.096	-0.067
-427.603	-54.254	0.077	-0.036
-426.588	157.304	0.115	-0.161
-425.573	-200.000	0.043	0.346
-424.559	-101.528	-0.025	-0.006
-423.544	-200.000	-0.049	0.420
-422.530	-200.000	0.045	0.383
-421.515	363.715	-0.026	0.054
-420.500	-52.620	-0.039	-0.018
-419.486	-98.694	0.112	0.029
-418.471	235.375	0.160	-0.267
-417.457	18.147	-0.168	0.136
-416.442	-51.255	-0.423	-0.201
-415.428	-62.453	0.274	-0.115
-414.413	29.879	0.252	-0.218
-413.398	49.020	-0.332	-0.317
-412.384	-87.528	-0.202	0.062
-411.369	-79.803	0.183	0.062
-410.355	-161.820	-0.110	-0.006
-409.340	-147.984	0.441	0.037
-408.325	-40.725	-0.187	0.098
-407.311	318.194	-0.125	0.240
-406.296	600.105	-0.064	-0.160
-405.282	59.994	-0.129	0.129
-404.267	800.000	0.091	0.329
-403.252	359.885	0.181	-0.367
-402.238	434.955	0.118	-0.261
-401.223	-165.308	0.215	-0.010
-400.209	-38.266	-0.362	-0.195
-399.194	141.089	-0.086	-0.115
-398.179	106.629	-0.063	-0.075
-397.165	-144.232	0.313	0.030
-396.150	-200.000	0.014	0.158
-395.136	77.357	0.048	0.051
-394.121	546.734	0.052	0.125
-393.106	-24.322	0.125	0.076
-392.092	362.720	-0.104	-0.212
-391.077	-21.019	0.137	-0.085
-390.063	240.830	-0.106	0.180
-389.048	238.066	-0.134	0.226
-388.033	2.727	0.221	0.162
-387.019	-7.328	0.135	0.093
-386.004	35.124	-0.254	-0.226
-384.990	-200.000	-0.036	-0.374
-383.975	576.314	-0.067	0.165
-382.960	85.408	-0.113	0.126
-381.946	30.414	0.371	-0.321
-380.931	-200.000	0.013	-0.073
-379.917	-115.081	-0.084	-0.016
-378.902	800.000	0.045	0.150
-377.888	-83.455	0.339	0.110
-376.873	-92.114	0.066	-0.019
-375.858	800.000	0.061	0.248
-374.844	102.405	-0.025	-0.030
-373.829	31.815	0.129	-0.113
-372.815	-93.352	0.450	-0.126
-371.800	-111.232	-0.081	-0.017
-370.785	-200.000	0.151	-0.001
-369.771	558.667	-0.063	0.155
-368.756	488.538	-0.130	0.302
-367.742	138.133	0.134	-0.178
-366.727	106.141	0.153	0.184
-365.712	680.589	-0.204	0.537
-364.698	-200.000	-0.027	0.185
-363.683	24.378	0.147	0.123
-362.669	90.157	-0.049	0.055
-361.654	29.033	0.118	-0.101
-360.639	-70.213	-0.291	-0.112
-359.625	168.556	0.086	-0.123
-358.610	-159.581	-0.128	-0.007
-357.596	21.398	0.137	0.113
-356.581	154.993	0.115	-0.160
-355.566	739.234	0.058	-0.156
-354.552	97.178	0.300	0.348
-353.537	-137.201	-0.310	0.036
-352.523	-85.215	-0.051	0.016
-351.508	-55.573	0.204	0.093
-350.493	-200.000	0.037	-0.606
-349.479	754.705	-0.061	0.166
-348.464	220.476	-0.099	0.160
-347.450	-200.000	-0.005	-0.281
-346.435	-70.004	0.324	0.125
-345.420	42.549	-0.167	-0.154
-344.406	-200.000	-0.025	0.335
-343.391	78.727	-0.059	-0.063
-342.377	666.862	0.165	-0.432
-341.362	-62.615	0.026	-0.011
-340.348	800.000	0.092	0.289
-339.333	-22.926	0.120	-0.073
-338.318	386.479	-0.076	0.159
-337.304	113.669	0.093	-0.114
-336.289	-66.056	-0.073	0.029
-335.275	-29.515	-0.110	-0.064
-334.260	-12.044	0.105	0.069
-333.245	-98.439	-0.136	0.035
-332.231	-200.000	0.036	-0.184
-331.216	-49.222	0.158	-0.077
-330.202	169.773	0.114	-0.164
-329.187	376.709	0.126	0.260
-328.172	207.886	0.119	0.187
-327.158	-200.000	0.005	0.028
-326.143	313.934	0.188	-0.358
-325.129	8.397	0.179	0.136
-324.114	166.887	-0.150	0.216
-323.099	30.403	-0.112	0.097
-322.085	800.000	-0.051	-0.193
-321.070	-52.085	-0.337	0.158
-320.056	27.304	-0.053	0.045
-319.041	117.079	0.065	-0.081
-318.026	-43.470	0.156	0.080
-317.012	617.737	0.054	0.137
-315.997	-48.167	-0.401	-0.196
-314.983	22.115	-0.119	-0.098
-313.968	167.178	0.045	0.064
-312.953	116.923	-0.233	-0.288
-311.939	152.765	0.235	0.325
-310.924	-26.564	0.286	0.169
-309.910	-200.000	-0.014	-0.077
-308.895	-88.892	-0.276	0.083
-307.880	800.000	0.046	-0.131
-306.866	-123.609	0.178	0.028
-305.851	530.473	0.146	-0.349
-304.837	-200.000	0.076	0.349
-303.822	252.382	-0.099	0.170
-302.807	800.000	-0.022	-0.066
-301.793	7.353	-0.101	0.076
-300.778	-116.814	-0.252	-0.047
-299.764	232.676	-0.104	-0.172
-298.749	-32.795	0.348	0.195
-297.735	37.784	0.079	0.071
-296.720	27.675	0.146	-0.124
-295.705	121.275	-0.102	0.128
-294.691	-200.000	0.037	0.398
-293.676	92.716	0.123	0.140
-292.662	-46.864	-0.189	-0.093
-291.647	800.000	-0.022	-0.086
-290.632	207.569	0.070	-0.110
-289.618	-26.507	-0.266	0.157
-288.603	-15.442	-0.175	0.113
-287.589	458.449	0.038	-0.085
-286.574	-68.849	0.140	0.055
-285.559	-119.694	-0.269	0.047
-284.545	104.687	0.120	-0.142
-283.530	307.720	-0.089	0.167
-282.516	-200.000	0.001	-0.099
-281.501	-51.505	-0.162	0.076
-280.486	-200.000	-0.003	0.336
-279.472	64.293	-0.048	-0.049
-278.457	-41.226	0.285	-0.148
-277.443	-200.000	-0.015	-0.192
-276.428	166.244	0.079	-0.113
-275.413	800.000	0.075	-0.287
-274.399	107.462	-0.176	-0.212
-273.384	252.481	-0.086	0.148
-272.370	48.809	0.020	0.019
-271.355	-134.510	0.144	-0.018
-270.340	112.344	0.109	-0.133
-269.326	23.763	-0.500	-0.415
-268.311	201.348	0.114	-0.178
-267.297	-59.471	-0.213	-0.092
-266.282	283.001	0.114	-0.206
-265.267	277.680	0.048	-0.085
-264.253	14.215	-0.235	-0.185
-263.238	562.251	-0.101	0.246
-262.224	-58.047	-0.241	-0.106
-261.209	-86.099	-0.049	-0.015
-260.195	40.812	0.090	0.082
-259.180	-69.694	0.138	0.053
-258.165	-4.624	0.079	0.055
-257.151	800.000	-0.122	-0.350
-256.136	382.620	0.133	-0.276
-255.122	-200.000	-0.008	-0.363
-254.107	-104.794	0.116	-0.027
-253.092	107.765	0.136	-0.163
-252.078	-50.929	-0.230	0.109
-251.063	-114.186	-0.140	0.027
-250.049	314.812	0.134	-0.254
-249.034	111.755	-0.052	0.063
-248.019	-60.167	0.126	0.054
-247.005	87.558	0.162	-0.181
-245.990	-200.000	0.010	-0.161
-244.976	162.214	0.241	0.340
-243.961	-200.000	-0.027	0.148
-242.946	14.531	0.214	0.168
-241.932	338.802	-0.154	-0.302
-240.917	-200.000	-0.042	0.199
-239.903	350.591	0.045	-0.090
-238.888	37.922	-0.018	-0.016
-237.873	215.256	0.050	0.080
-236.859	-54.904	-0.258	-0.117
-235.844	-70.488	-0.050	0.019
-234.830	-93.767	0.386	-0.107
-233.815	154.553	-0.189	-0.261
-232.800	140.725	-0.155	-0.206
-231.786	800.000	0.086	0.315
-230.771	43.052	0.230	-0.211
-229.757	-35.783	0.437	0.238
-228.742	-23.665	0.058	-0.035
-227.727	-89.758	0.049	-0.014
-226.713	800.000	-0.046	-0.139
-225.698	-200.000	0.050	-0.328
-224.684	35.281	-0.154	0.136
-223.669	-51.938	-0.187	0.087
-222.655	5.081	0.201	-0.149
-221.640	102.514	0.091	0.107
-220.625	-200.000	-0.008	0.156
-219.611	23.942	-0.133	0.110
-218.596	-55.219	-0.205	-0.093
-217.582	-113.888	0.338	0.066
-216.567	390.883	0.069	0.145
-215.552	17.783	-0.230	-0.184
-214.538	-200.000	0.006	0.173
-213.523	800.000	-0.039	0.128
-212.509	12.462	0.243	0.189
-211.494	202.933	-0.093	0.145
-210.479	-160.799	0.171	-0.009
-209.465	-21.174	0.235	-0.145
-208.450	-15.365	-0.569	-0.366
-207.436	-26.263	-0.205	-0.121
-206.421	16.086	-0.318	0.252
-205.406	-200.000	0.002	-0.033
-204.392	-166.424	-0.242	0.010
-203.377	182.509	0.092	0.137
-202.363	32.264	-0.154	-0.134
-201.348	-20.065	0.231	-0.143
-200.333	-85.435	-0.192	0.060
-199.319	-76.895	-0.191	0.067
-198.304	125.664	-0.236	-0.299
-197.290	-200.000	0.011	-0.133
-196.275	-58.363	0.061	-0.027
-195.260	190.596	-0.042	0.064
-194.246	382.702	-0.053	-0.109
-193.231	-91.110	-0.272	0.079
-192.217	-200.000	0.043	0.264
-191.202	-200.000	0.034	0.221
-190.187	800.000	-0.073	0.309
-189.173	796.439	-0.123	0.341
-188.158	147.462	-0.217	0.294
-187.144	96.630	0.104	0.120
-186.129	191.681	0.030	-0.046
-185.114	-200.000	-0.002	0.231
-184.100	-103.515	-0.051	-0.012
-183.085	-135.931	0.498	-0.059
-182.071	-55.243	-0.215	0.097
-181.056	800.000	-0.049	0.151
-180.042	46.724	0.251	0.235
-179.027	-129.861	-0.050	-0.007
-178.012	-106.930	0.183	0.041
-176.998	432.243	0.133	-0.289
-175.983	72.958	-0.096	-0.101
-174.969	631.692	0.039	-0.100
-173.954	2.879	0.097	-0.071
-172.939	-200.000	0.005	-0.207
-171.925	121.644	0.053	-0.067
-170.910	63.105	0.265	0.267
-169.896	800.000	0.073	-0.212
-168.881	-74.472	0.218	-0.079
-167.866	171.980	0.047	0.068
-166.852	336.619	-0.192	0.374
-165.837	386.827	0.100	-0.207
-164.823	-36.814	-0.113	-0.061
-163.808	800.000	-0.064	0.204
-162.793	132.192	-0.101	0.130
-161.779	180.820	-0.064	0.094
-160.764	15.494	0.189	0.149
-159.750	181.681	0.050	-0.074
-158.735	73.558	-0.061	-0.064
-157.720	-50.017	0.186	0.089
-156.706	800.000	0.005	-0.017
-155.691	-97.718	0.152	0.040
-154.677	-200.000	-0.035	-0.459
-153.662	-83.437	-0.388	-0.125
-152.647	-171.077	0.165	0.006
-151.633	-57.085	-0.295	0.131
-150.618	6.593	0.324	0.241
-149.604	-122.759	0.259	0.042
-148.589	57.237	0.301	0.295
-147.574	2.650	0.159	0.115
-146.560	-59.181	-0.006	0.003
-145.545	151.881	-0.048	-0.066
-144.531	-200.000	0.021	0.210
-143.516	800.000	0.046	-0.152
-142.502	-200.000	-0.006	0.117
-141.487	-200.000	0.028	0.258
-140.472	37.294	0.098	-0.088
-139.458	280.528	0.068	0.121
-138.443	112.634	0.053	0.064
-137.429	116.769	0.123	0.152
-136.414	-200.000	0.014	0.157
-135.399	45.372	-0.424	-0.393
-134.385	-40.469	-0.151	-0.078
-133.370	800.000	-0.058	-0.215
-132.356	-14.654	-0.300	-0.193
-131.341	17.960	0.148	-0.118
-130.326	65.508	0.200	-0.203
-129.312	-55.533	-0.137	-0.062
-128.297	-200.000	-0.103	0.500
-127.283	-90.797	-0.073	0.021
-126.268	58.275	0.172	-0.169
-125.253	-200.000	-0.010	-0.243
-124.239	21.890	0.397	0.324
-123.224	208.152	-0.101	-0.159
-122.210	-200.000	0.003	-0.218
-121.195	-99.902	-0.328	-0.082
-120.180	-200.000	0.013	0.215
