DTS Sentinel unit serial number:	SN413079Multiplexer serial number:	ORYXHardware model number:	OX4-SRSoftware version number:	ORYX F/W v4.00 Oryx Data Collector v3.7.2.0data status	okinstallation	princeton_trtdifferential loss correction	single-endedforward channel	channel 2reverse channel	N/Adate	2019/09/15time	04:59:34forward acquisition time	60.00reverse acquisition time	0.00gamma	496.2192k internal	0.2326k external	0.2326temperature offset calibration	1.0044default loss term (dB/km)	0.3790temperature slope calibration	1.0000multiplexer offset coefficient	1.0000multiplexer slope coefficient	1.0000fibre end	0.00T internal ref (°C)	30.69T ext. ref 1 (°C)	4.86T ext. ref 2 (°C)	25.13length (m)	temperature (°C)	Stokes	anti-Stokes-747.200	-200.000	-0.028	0.284
-746.185	-163.957	-0.271	0.013
-745.171	-113.356	-0.369	-0.073
-744.156	-123.547	0.117	-0.019
-743.142	-200.000	0.098	-0.496
-742.127	-29.830	0.303	0.174
-741.112	339.729	0.176	0.346
-740.098	-200.000	0.014	0.357
-739.083	-44.761	0.053	-0.026
-738.069	170.126	0.113	-0.163
-737.054	-200.000	-0.021	0.126
-736.039	800.000	-0.051	-0.223
-735.025	580.336	0.069	0.170
-734.010	-92.324	-0.288	0.082
-732.996	9.963	-0.169	0.129
-731.981	-200.000	0.006	0.043
-730.966	172.030	0.069	-0.100
-729.952	232.583	-0.156	-0.258
-728.937	-87.352	-0.082	-0.025
-727.923	-200.000	-0.085	-0.398
-726.908	-105.405	-0.313	-0.072
-725.894	301.405	0.102	-0.189
-724.879	156.793	-0.108	0.150
-723.864	50.345	0.266	0.253
-722.850	-81.307	-0.264	-0.088
-721.835	23.475	-0.145	0.120
-720.821	427.420	-0.117	-0.255
-719.806	-166.330	-0.388	-0.016
-718.791	-54.784	0.265	-0.121
-717.777	-149.990	-0.215	-0.017
-716.762	-165.183	0.260	-0.012
-715.748	214.374	-0.086	0.136
-714.733	-78.951	0.401	-0.138
-713.718	248.632	0.062	0.105
-712.704	-56.953	-0.173	-0.077
-711.689	-119.322	-0.189	-0.033
-710.675	-36.783	0.082	0.044
-709.660	44.603	-0.227	-0.211
-708.645	272.541	0.100	-0.177
-707.631	-200.000	0.031	-0.496
-706.616	800.000	0.028	0.088
-705.602	-134.035	0.349	-0.043
-704.587	108.605	-0.252	0.303
-703.572	80.421	0.170	0.184
-702.558	46.665	0.111	0.103
-701.543	78.582	-0.325	-0.350
-700.529	-72.112	-0.410	-0.153
-699.514	-18.665	-0.052	-0.033
-698.499	-158.646	-0.110	0.006
-697.485	-135.131	0.078	0.009
-696.470	-200.000	0.026	0.130
-695.456	21.006	0.050	-0.041
-694.441	-2.990	-0.141	0.099
-693.426	-200.000	0.011	0.205
-692.412	-45.104	0.159	0.080
-691.397	-105.782	-0.343	0.078
-690.383	-200.000	-0.005	0.165
-689.368	368.892	-0.168	-0.341
-688.354	1.344	0.040	0.029
-687.339	-45.469	-0.214	-0.107
-686.324	800.000	-0.025	-0.084
-685.310	-74.450	-0.394	-0.143
-684.295	-8.259	0.045	0.031
-683.281	-71.268	0.060	0.023
-682.266	-21.940	0.191	-0.117
-681.251	-76.976	-0.217	0.076
-680.237	666.978	0.093	0.242
-679.222	-77.347	-0.301	0.105
-678.208	-200.000	0.012	-0.053
-677.193	-200.000	-0.081	-0.386
-676.178	-173.485	-0.346	0.010
-675.164	-33.863	-0.227	-0.126
-674.149	-88.240	-0.113	0.034
-673.135	34.811	-0.122	-0.107
-672.120	800.000	-0.044	0.123
-671.105	6.818	-0.092	-0.069
-670.091	263.672	0.069	-0.121
-669.076	-151.782	-0.608	0.045
-668.062	161.922	0.077	0.109
-667.047	-200.000	-0.049	0.271
-666.032	78.539	-0.167	0.179
-665.018	19.691	-0.068	-0.055
-664.003	800.000	-0.044	-0.166
-662.989	183.556	0.059	-0.088
-661.974	160.944	0.042	-0.059
-660.959	45.307	0.054	0.050
-659.945	-200.000	-0.002	0.141
-658.930	-32.564	-0.190	-0.106
-657.916	14.135	-0.111	-0.087
-656.901	197.915	-0.125	0.193
-655.886	-139.565	0.360	-0.039
-654.872	548.989	-0.035	-0.085
-653.857	-89.506	-0.136	0.040
-652.843	51.784	0.062	-0.059
-651.828	-139.771	-0.249	0.027
-650.814	-200.000	-0.019	-0.116
-649.799	-200.000	-0.009	-0.231
-648.784	800.000	-0.127	0.359
-647.770	800.000	0.095	0.383
-646.755	-200.000	-0.039	0.190
-645.741	-119.077	0.109	-0.019
-644.726	190.580	0.082	0.125
-643.711	-200.000	0.039	-0.389
-642.697	-200.000	0.002	0.066
-641.682	-200.000	-0.045	0.200
-640.668	-143.731	0.344	0.033
-639.653	-200.000	-0.024	0.279
-638.638	-28.549	0.281	0.163
-637.624	-200.000	0.068	-0.349
-636.609	313.486	0.061	0.115
-635.595	-200.000	0.013	-0.099
-634.580	363.106	-0.099	-0.200
-633.565	-103.693	0.135	-0.032
-632.551	79.201	-0.133	0.143
-631.536	664.199	0.084	-0.217
-630.522	-200.000	0.018	-0.511
-629.507	11.773	-0.100	0.077
-628.492	407.502	-0.069	-0.146
-627.478	-179.423	0.294	0.006
-626.463	800.000	-0.049	0.196
-625.449	200.788	0.052	-0.080
-624.434	800.000	-0.086	0.239
-623.419	567.256	0.035	-0.086
-622.405	126.599	-0.210	0.266
-621.390	329.230	0.080	0.154
-620.376	4.577	-0.176	0.130
-619.361	679.428	-0.137	0.357
-618.346	-111.312	-0.278	0.057
-617.332	-51.448	-0.237	-0.111
-616.317	171.313	-0.269	-0.387
-615.303	76.845	0.186	-0.199
-614.288	800.000	-0.089	0.283
-613.273	163.950	0.109	-0.154
-612.259	129.612	-0.243	-0.311
-611.244	-66.994	-0.295	-0.117
-610.230	-200.000	-0.120	0.679
-609.215	-200.000	-0.036	-0.298
-608.201	116.664	-0.160	-0.196
-607.186	-200.000	0.014	0.311
-606.171	-200.000	0.002	0.215
-605.157	800.000	0.047	-0.176
-604.142	-200.000	0.066	-0.340
-603.128	-136.602	-0.136	0.016
-602.113	800.000	-0.033	0.092
-601.098	-104.928	-0.039	0.009
-600.084	325.380	0.110	-0.210
-599.069	60.393	-0.151	-0.150
-598.055	-98.458	-0.361	0.093
-597.040	245.379	-0.077	0.130
-596.025	-200.000	0.052	-0.279
-595.011	501.788	-0.144	-0.332
-593.996	447.579	-0.100	-0.221
-592.982	-116.218	0.286	-0.053
-591.967	800.000	0.057	-0.238
-590.952	-11.978	-0.189	-0.124
-589.938	-200.000	-0.044	-0.413
-588.923	-200.000	-0.010	-0.096
-587.909	267.226	0.147	0.257
-586.894	800.000	-0.088	-0.252
-585.879	266.262	-0.171	0.300
-584.865	-200.000	-0.020	0.390
-583.850	84.461	-0.120	-0.132
-582.836	-200.000	-0.080	0.360
-581.821	279.412	0.155	0.277
-580.806	800.000	-0.010	-0.030
-579.792	-200.000	-0.010	-0.209
-578.777	-200.000	0.014	-0.308
-577.763	11.423	-0.163	-0.125
-576.748	143.882	0.171	-0.228
-575.733	-200.000	0.024	0.145
-574.719	-45.656	-0.072	-0.036
-573.704	39.418	-0.198	0.177
-572.690	76.381	0.064	0.068
-571.675	26.118	-0.089	0.075
-570.661	-200.000	-0.003	0.208
-569.646	200.166	-0.009	0.015
-568.631	618.657	-0.137	0.346
-567.617	-200.000	-0.027	0.228
-566.602	-124.095	0.178	-0.028
-565.588	-2.866	-0.092	0.064
-564.573	-95.022	-0.215	-0.058
-563.558	-200.000	-0.010	-0.141
-562.544	84.278	-0.167	0.183
-561.529	-124.162	0.339	-0.053
-560.515	98.648	0.175	0.203
-559.500	800.000	-0.065	0.203
-558.485	800.000	-0.119	0.416
-557.471	-200.000	-0.005	0.036
-556.456	150.442	-0.165	-0.225
-555.442	-200.000	-0.004	-0.592
-554.427	-116.774	0.313	0.058
-553.412	-147.729	-0.286	-0.024
-552.398	-200.000	0.001	-0.063
-551.383	288.751	-0.043	-0.078
-550.369	107.173	0.102	-0.121
-549.354	253.889	0.040	0.068
-548.339	52.939	-0.091	0.087
-547.325	-138.019	0.592	0.066
-546.310	59.810	-0.142	-0.140
-545.296	-200.000	0.034	0.181
-544.281	568.562	0.142	0.346
-543.266	540.298	-0.044	0.106
-542.252	-148.352	0.253	-0.021
-541.237	-200.000	-0.009	0.061
-540.223	-200.000	-0.001	0.223
-539.208	190.055	-0.039	-0.059
-538.193	800.000	-0.025	0.105
-537.179	17.077	0.471	0.374
-536.164	34.839	-0.073	-0.064
-535.150	-45.842	-0.120	0.059
-534.135	-200.000	-0.065	-0.288
-533.121	-18.466	0.159	-0.100
-532.106	-135.964	-0.427	-0.050
-531.091	-46.127	0.063	-0.031
-530.077	-14.542	0.159	0.102
-529.062	433.344	0.057	-0.123
-528.048	183.552	-0.071	0.105
-527.033	-131.120	-0.037	0.005
-526.018	-200.000	0.035	-0.189
-525.004	-72.311	0.378	-0.140
-523.989	-29.743	-0.209	-0.119
-522.975	-200.000	0.018	0.189
-521.960	-75.546	0.132	-0.047
-520.945	-107.207	-0.301	-0.066
-519.931	-200.000	0.032	0.222
-518.916	-131.090	0.229	0.031
-517.902	-200.000	-0.023	0.278
-516.887	-109.049	0.260	0.055
-515.872	-144.244	0.169	-0.016
-514.858	19.646	0.360	0.290
-513.843	-200.000	-0.032	0.308
-512.829	-74.233	0.295	-0.107
-511.814	703.507	0.080	-0.210
-510.799	-80.374	0.171	0.057
-509.785	361.480	0.113	-0.227
-508.770	-200.000	-0.001	-0.281
-507.756	-174.784	-0.264	-0.007
-506.741	-200.000	-0.033	0.188
-505.726	-200.000	0.076	0.357
-504.712	133.037	0.186	-0.240
-503.697	-98.129	-0.345	-0.089
-502.683	49.034	-0.112	0.105
-501.668	-124.226	0.227	0.036
-500.653	-125.056	-0.172	0.026
-499.639	97.229	0.125	0.143
-498.624	120.565	-0.203	-0.251
-497.610	54.823	-0.101	-0.097
-496.595	-200.000	-0.009	-0.479
-495.581	-4.142	0.293	-0.202
-494.566	-42.505	-0.208	-0.106
-493.551	-146.032	-0.079	0.007
-492.537	800.000	0.101	-0.302
-491.522	523.339	0.054	-0.127
-490.508	339.650	0.150	-0.292
-489.493	299.981	0.061	0.113
-488.478	752.693	0.102	-0.276
-487.464	91.700	-0.083	0.094
-486.449	-70.503	0.164	0.062
-485.435	-200.000	-0.007	-0.243
-484.420	-69.836	-0.153	0.058
-483.405	-200.000	0.035	-0.282
-482.391	-30.365	-0.087	0.049
-481.376	-200.000	0.038	0.361
-480.362	662.830	0.111	0.287
-479.347	194.736	-0.114	0.173
-478.332	253.868	0.076	-0.130
-477.318	374.638	-0.179	-0.363
-476.303	800.000	-0.094	0.272
-475.289	-80.957	-0.096	-0.032
-474.274	78.969	-0.115	0.123
-473.259	-200.000	0.022	0.127
-472.245	53.469	0.305	0.292
-471.230	-200.000	-0.033	0.370
-470.216	-95.322	0.197	-0.053
-469.201	625.325	0.067	-0.170
-468.186	-117.898	0.034	-0.006
-467.172	-140.291	-0.474	0.049
-466.157	686.483	-0.077	0.200
-465.143	13.466	0.104	0.080
-464.128	0.041	-0.199	0.141
-463.113	800.000	-0.029	-0.119
-462.099	15.122	-0.148	-0.116
-461.084	-200.000	0.024	-0.194
-460.070	-20.200	0.232	0.143
-459.055	-131.693	0.306	0.040
-458.040	-63.986	-0.265	0.108
-457.026	-200.000	0.014	-0.066
-456.011	108.197	0.030	-0.036
-454.997	-123.757	0.193	-0.030
-453.982	421.889	-0.070	-0.149
-452.968	179.411	0.156	0.228
-451.953	800.000	0.076	0.326
-450.938	800.000	-0.072	-0.203
-449.924	-200.000	0.030	0.178
-448.909	189.567	-0.111	0.166
-447.895	-200.000	0.001	-0.199
-446.880	-200.000	-0.031	0.157
-445.865	-69.893	0.124	0.047
-444.851	-115.206	-0.218	0.041
-443.836	9.330	0.057	-0.043
-442.822	-130.988	-0.217	0.029
-441.807	-40.044	-0.061	0.032
-440.792	399.645	-0.004	0.008
-439.778	6.255	-0.344	0.254
-438.763	783.179	0.092	0.252
-437.749	16.987	0.089	0.070
-436.734	198.160	-0.208	-0.316
-435.719	-77.629	-0.162	-0.056
-434.705	32.388	0.223	0.192
-433.690	-200.000	-0.044	0.349
-432.676	479.693	-0.124	-0.281
-431.661	-200.000	-0.041	-0.309
-430.646	-200.000	-0.024	-0.282
-429.632	-23.797	0.241	-0.144
-428.617	-50.017	0.339	-0.160
-427.603	24.963	0.213	-0.176
-426.588	-160.795	-0.192	-0.010
-425.573	-200.000	-0.006	-0.276
-424.559	-200.000	-0.050	0.230
-423.544	800.000	-0.060	-0.181
-422.530	-102.322	0.270	-0.065
-421.515	42.115	0.066	0.059
-420.500	-200.000	0.019	-0.165
-419.486	-171.024	0.088	-0.003
-418.471	-34.827	0.129	0.070
-417.457	21.515	-0.237	-0.192
-416.442	-200.000	-0.025	-0.264
-415.428	-113.458	-0.065	0.013
-414.413	-200.000	0.035	-0.209
-413.398	-67.254	-0.056	0.022
-412.384	327.462	-0.045	-0.085
-411.369	-113.513	-0.103	0.020
-410.355	420.608	0.035	0.074
-409.340	39.359	0.070	-0.062
-408.325	-147.984	-0.191	0.016
-407.311	286.395	0.098	-0.176
-406.296	-23.467	0.300	0.179
-405.282	82.709	0.061	0.066
-404.267	408.447	0.077	0.163
-403.252	-194.988	-0.272	0.002
-402.238	148.325	0.212	-0.285
-401.223	25.139	0.253	-0.209
-400.209	220.831	0.148	-0.236
-399.194	26.392	-0.206	-0.171
-398.179	-200.000	-0.016	-0.275
-397.165	-200.000	-0.005	0.292
-396.150	800.000	0.037	-0.102
-395.136	800.000	-0.036	0.150
-394.121	800.000	0.058	-0.199
-393.106	-200.000	0.006	-0.069
-392.092	84.792	-0.218	0.238
-391.077	800.000	-0.169	-0.496
-390.063	-94.364	0.390	-0.106
-389.048	800.000	-0.015	-0.048
-388.033	131.416	0.187	-0.239
-387.019	-94.991	-0.208	0.056
-386.004	679.316	0.040	0.103
-384.990	800.000	0.023	0.097
-383.975	-115.670	-0.158	-0.029
-382.960	182.467	-0.022	-0.032
-381.946	62.822	-0.115	0.114
-380.931	32.912	-0.176	-0.151
-379.917	772.236	0.055	-0.149
-378.902	-134.158	-0.438	-0.054
-377.888	13.770	-0.050	0.039
-376.873	-0.658	-0.195	0.137
-375.858	800.000	-0.142	0.436
-374.844	-200.000	0.031	0.296
-373.829	448.912	-0.082	0.179
-372.815	411.681	0.041	-0.086
-371.800	342.732	0.138	-0.268
-370.785	-35.316	-0.139	-0.075
-369.771	-84.079	-0.155	0.049
-368.756	800.000	-0.010	-0.034
-367.742	187.193	-0.257	0.381
-366.727	61.553	0.188	-0.186
-365.712	-59.092	0.224	0.096
-364.698	-200.000	-0.026	-0.191
-363.683	-63.418	0.095	-0.039
-362.669	42.040	-0.370	0.334
-361.654	-52.080	-0.135	-0.062
-360.639	-200.000	-0.000	-0.211
-359.625	-200.000	0.054	-0.387
-358.610	167.398	0.065	-0.092
-357.596	10.551	-0.134	-0.101
-356.581	-200.000	0.053	0.275
-355.566	36.262	-0.141	-0.124
-354.552	403.337	0.042	0.087
-353.537	135.697	0.186	-0.240
-352.523	800.000	0.071	-0.235
-351.508	-120.903	0.206	0.034
-350.493	-186.063	-0.284	0.004
-349.479	15.199	-0.321	0.250
-348.464	-142.828	-0.301	0.029
-347.450	14.224	-0.392	0.303
-346.435	-200.000	-0.019	-0.226
-345.420	55.073	-0.117	0.112
-344.406	96.714	0.138	0.157
-343.391	251.853	-0.148	-0.251
-342.377	62.152	-0.288	-0.286
-341.362	302.086	0.033	-0.060
-340.348	420.958	-0.123	-0.262
-339.333	-104.525	0.230	0.053
-338.318	-96.734	-0.333	0.087
-337.304	70.374	-0.172	0.176
-336.289	-109.026	-0.122	-0.026
-335.275	-123.801	0.289	-0.045
-334.260	800.000	0.022	-0.079
-333.245	800.000	-0.149	0.464
-332.231	69.777	0.024	-0.024
-331.216	-54.393	0.258	0.116
-330.202	3.254	0.095	0.068
-329.187	-200.000	-0.003	0.149
-328.172	-122.698	-0.016	0.003
-327.158	-115.447	-0.139	0.026
-326.143	126.081	-0.122	-0.153
-325.129	774.404	0.154	0.417
-324.114	24.534	0.269	0.221
-323.099	437.532	0.029	0.064
-322.085	-152.229	-0.213	0.015
-321.070	-185.123	-0.294	0.005
-320.056	-111.010	0.132	0.027
-319.041	-1.672	0.074	0.051
-318.026	-148.047	-0.346	-0.028
-317.012	265.604	0.133	-0.229
-315.997	800.000	0.057	0.173
-314.983	94.899	0.060	-0.068
-313.968	-200.000	-0.025	0.172
-312.953	51.839	0.045	-0.042
-311.939	348.869	0.050	-0.098
-310.924	370.632	0.047	0.094
-309.910	207.274	-0.228	0.353
-308.895	125.571	0.085	0.107
-307.880	18.496	0.168	0.133
-306.866	800.000	0.071	0.235
-305.851	-200.000	-0.012	0.085
-304.837	6.416	-0.189	0.140
-303.822	-8.110	0.128	-0.086
-302.807	204.253	-0.105	0.161
-301.793	-123.701	-0.362	0.057
-300.778	-71.539	0.256	0.095
-299.764	-50.084	-0.284	-0.133
-298.749	212.395	-0.071	-0.111
-297.735	169.786	0.064	0.091
-296.720	-200.000	0.002	-0.138
-295.705	-200.000	-0.016	-0.317
-294.691	198.923	0.153	-0.232
-293.676	-54.703	0.177	-0.079
-292.662	800.000	-0.087	0.365
-291.647	-200.000	-0.021	0.172
-290.632	-200.000	0.004	0.088
-289.618	-171.044	0.159	-0.005
-288.603	208.551	-0.103	-0.160
-287.589	-14.361	0.144	-0.092
-286.574	800.000	0.071	-0.262
-285.559	-92.583	-0.204	-0.057
-284.545	-86.186	-0.069	-0.021
-283.530	-138.909	-0.081	0.009
-282.516	268.399	-0.205	0.357
-281.501	-67.799	-0.074	0.028
-280.486	83.530	-0.180	-0.194
-279.472	800.000	-0.034	0.121
-278.457	327.167	-0.120	0.227
-277.443	-147.273	0.111	-0.009
-276.428	800.000	-0.075	0.305
-275.413	-200.000	-0.028	-0.140
-274.399	-117.913	0.471	-0.084
-273.384	59.876	0.309	-0.302
-272.370	222.089	-0.142	0.227
-271.355	146.725	-0.105	-0.139
-270.340	-5.483	0.041	0.028
-269.326	-200.000	-0.009	-0.144
-268.311	143.034	-0.085	0.112
-267.297	-200.000	-0.028	0.526
-266.282	250.426	-0.119	-0.200
-265.267	800.000	0.038	0.125
-264.253	9.127	0.112	-0.084
-263.238	-41.580	0.224	0.114
-262.224	70.606	-0.087	0.089
-261.209	-76.146	-0.069	0.024
-260.195	-200.000	0.042	-0.282
-259.180	-20.176	-0.177	0.108
-258.165	7.057	0.303	0.224
-257.151	-184.080	-0.090	0.001
-256.136	-85.598	-0.129	-0.040
-255.122	-200.000	0.028	-0.146
-254.107	106.705	-0.231	-0.272
-253.092	-67.317	0.252	0.098
-252.078	274.810	0.112	0.196
-251.063	86.073	-0.202	0.220
-250.049	158.695	-0.094	0.130
-249.034	-195.572	0.184	0.001
-248.019	-23.528	-0.213	-0.127
-247.005	-75.590	0.353	-0.124
-245.990	365.636	-0.101	0.201
-244.976	83.347	-0.142	-0.153
-243.961	160.329	0.163	0.225
-242.946	-200.000	-0.072	0.318
-241.932	465.959	-0.083	-0.183
-240.917	102.502	0.167	0.194
-239.903	800.000	0.114	0.433
-238.888	800.000	0.048	0.208
-237.873	800.000	0.070	-0.219
-236.859	48.106	-0.229	-0.212
-235.844	-119.385	0.201	0.035
-234.830	185.814	-0.168	-0.246
-233.815	-98.633	0.525	-0.132
-232.800	-33.217	-0.100	-0.055
-231.786	800.000	-0.068	0.207
-230.771	117.022	0.108	0.132
-229.757	800.000	0.070	0.196
-228.742	-79.744	-0.327	0.109
-227.727	118.620	-0.189	-0.230
-226.713	493.851	-0.077	0.174
-225.698	76.027	0.070	0.073
-224.684	-200.000	0.046	-0.391
-223.669	237.402	-0.135	0.222
-222.655	-100.492	0.171	-0.042
-221.640	174.720	-0.151	-0.216
-220.625	-112.358	0.112	0.022
-219.611	-200.000	0.003	0.073
-218.596	389.005	0.133	-0.271
-217.582	-200.000	-0.002	0.254
-216.567	68.075	0.288	-0.291
-215.552	358.325	0.149	-0.294
-214.538	-200.000	0.002	0.331
-213.523	-8.615	-0.206	0.137
-212.509	149.179	-0.032	0.043
-211.494	-200.000	0.003	-0.103
-210.479	-115.587	0.312	0.058
-209.465	-174.364	0.259	0.007
-208.450	-133.033	-0.057	0.007
-207.436	311.187	0.147	-0.272
-206.421	-200.000	-0.034	-0.322
-205.406	-21.423	-0.309	-0.186
-204.392	800.000	0.071	0.242
-203.377	381.881	0.009	-0.018
-202.363	415.457	-0.083	0.175
-201.348	-61.445	-0.150	0.062
-200.333	598.106	-0.040	-0.099
-199.319	588.649	-0.143	0.347
-198.304	686.359	-0.024	-0.062
-197.290	-200.000	0.007	-0.132
-196.275	-58.614	-0.052	0.022
-195.260	-200.000	-0.033	0.227
-194.246	634.516	0.048	0.120
-193.231	176.161	-0.182	-0.261
-192.217	59.716	0.162	0.157
-191.202	0.122	-0.123	-0.087
-190.187	94.204	-0.226	0.253
-189.173	-161.498	0.147	-0.007
-188.158	231.952	-0.232	-0.375
-187.144	800.000	-0.008	0.032
-186.129	115.527	-0.120	-0.144
-185.114	800.000	-0.052	-0.190
-184.100	743.349	0.112	0.296
-183.085	-65.297	0.252	0.100
-182.071	754.564	0.081	0.215
-181.056	-200.000	0.029	-0.158
-180.042	-200.000	-0.015	0.287
-179.027	284.255	0.081	-0.144
-178.012	117.099	0.148	0.179
-176.998	17.318	0.126	-0.099
-175.983	-200.000	0.053	-0.314
-174.969	522.233	-0.081	-0.188
-173.954	505.566	-0.035	-0.079
-172.939	-200.000	0.031	-0.443
-171.925	524.337	0.126	-0.292
-170.910	66.615	0.024	0.024
-169.896	-200.000	0.033	-0.157
-168.881	383.595	0.181	0.367
-167.866	93.403	0.354	0.395
-166.852	-22.644	0.467	-0.279
-165.837	186.423	-0.028	0.041
-164.823	61.187	0.083	0.081
-163.808	-69.207	0.296	-0.112
-162.793	13.322	-0.235	0.179
-161.779	-62.650	0.580	0.237
-160.764	800.000	-0.026	-0.099
-159.750	-200.000	-0.004	-0.085
-158.735	-170.745	-0.409	0.014
-157.720	58.394	0.087	0.084
-156.706	-200.000	-0.006	-0.292
-155.691	-88.482	0.251	0.074
-154.677	800.000	0.027	-0.084
-153.662	56.550	0.360	-0.345
-152.647	2.431	0.082	-0.058
-151.633	-19.500	0.433	-0.265
-150.618	422.127	-0.155	0.328
-149.604	7.303	0.274	-0.201
-148.589	-15.084	0.335	0.211
-147.574	72.310	0.154	0.158
-146.560	800.000	-0.091	0.344
-145.545	-88.301	-0.203	-0.060
-144.531	72.419	0.044	-0.045
-143.516	-120.675	-0.436	-0.073
-142.502	800.000	-0.021	-0.082
-141.487	112.494	-0.221	0.264
-140.472	-145.432	0.220	-0.019
-139.458	-200.000	-0.060	-0.291
-138.443	486.475	-0.084	0.189
-137.429	-200.000	-0.017	0.113
-136.414	-56.081	0.095	-0.042
-135.399	71.770	0.173	-0.177
-134.385	-18.017	0.399	-0.246
-133.370	-49.443	-0.162	-0.076
-132.356	-71.758	0.215	-0.079
-131.341	45.662	-0.223	0.203
-130.326	75.732	-0.039	-0.040
-129.312	259.554	-0.188	-0.320
-128.297	800.000	-0.084	-0.304
-127.283	68.308	0.183	-0.185
-126.268	-105.555	-0.224	0.050
-125.253	-59.778	-0.350	0.148
-124.239	800.000	0.086	0.269
-123.224	0.006	-0.041	-0.029
-122.210	313.150	0.149	-0.275
