DTS Sentinel unit serial number:	SN413079Multiplexer serial number:	ORYXHardware model number:	OX4-SRSoftware version number:	ORYX F/W v4.00 Oryx Data Collector v3.7.2.0data status	okinstallation	princeton_trtdifferential loss correction	single-endedforward channel	channel 2reverse channel	N/Adate	2019/09/19time	01:27:35forward acquisition time	60.00reverse acquisition time	0.00gamma	496.2192k internal	0.2353k external	0.2353temperature offset calibration	1.0018default loss term (dB/km)	0.3790temperature slope calibration	1.0000multiplexer offset coefficient	1.0000multiplexer slope coefficient	1.0000fibre end	0.00T internal ref (°C)	21.62T ext. ref 1 (°C)	0.70T ext. ref 2 (°C)	15.14length (m)	temperature (°C)	Stokes	anti-Stokes-747.200	-15.338	0.159	0.101
-746.185	11.670	-0.460	0.352
-745.171	-42.449	-0.216	0.110
-744.156	-200.000	-0.009	0.209
-743.142	171.987	0.053	0.075
-742.127	-10.377	0.230	0.152
-741.112	46.047	-0.130	0.120
-740.098	-200.000	-0.056	0.393
-739.083	110.374	0.190	0.227
-738.069	-200.000	-0.035	0.547
-737.054	-44.133	0.252	0.126
-736.039	-69.158	-0.138	-0.053
-735.025	-9.654	0.133	-0.088
-734.010	800.000	-0.062	-0.234
-732.996	-200.000	-0.027	-0.167
-731.981	14.491	0.245	-0.190
-730.966	87.187	-0.104	0.114
-729.952	-143.576	0.201	-0.019
-728.937	27.891	-0.171	-0.144
-727.923	-79.692	0.086	-0.029
-726.908	-42.415	-0.285	0.145
-725.894	680.926	0.087	0.226
-724.879	64.149	-0.307	0.308
-723.864	785.371	-0.050	0.137
-722.850	58.160	0.094	-0.092
-721.835	-78.549	0.065	0.022
-720.821	479.524	-0.175	-0.396
-719.806	-200.000	0.029	-0.317
-718.791	-200.000	0.086	0.440
-717.777	60.019	-0.082	0.081
-716.762	33.189	0.199	-0.172
-715.748	-146.436	-0.095	0.008
-714.733	-80.153	-0.364	-0.121
-713.718	454.161	0.013	-0.029
-712.704	326.474	-0.099	0.189
-711.689	768.436	0.088	-0.239
-710.675	800.000	0.019	0.067
-709.660	115.065	0.064	-0.078
-708.645	-83.637	0.084	0.027
-707.631	100.864	-0.175	0.203
-706.616	-200.000	-0.000	-0.356
-705.602	490.531	-0.082	-0.186
-704.587	-200.000	-0.004	0.083
-703.572	-29.470	0.312	-0.178
-702.558	800.000	0.038	0.145
-701.543	-103.540	0.270	-0.063
-700.529	-73.401	-0.228	-0.083
-699.514	-200.000	-0.008	-0.110
-698.499	-136.062	0.026	-0.003
-697.485	-87.365	0.440	-0.133
-696.470	169.512	-0.128	-0.182
-695.456	153.297	-0.131	-0.178
-694.441	116.311	0.073	0.090
-693.426	-39.385	0.160	0.083
-692.412	-52.596	-0.130	-0.060
-691.397	-200.000	0.044	0.236
-690.383	-111.960	0.179	0.036
-689.368	-120.530	0.070	-0.012
-688.354	-89.712	-0.337	0.098
-687.339	800.000	0.023	0.080
-686.324	-21.644	0.056	0.034
-685.310	530.554	-0.007	0.016
-684.295	800.000	-0.040	0.157
-683.281	40.321	-0.134	0.120
-682.266	800.000	0.025	-0.094
-681.251	483.633	-0.052	-0.118
-680.237	-3.406	0.222	-0.154
-679.222	-50.150	-0.107	-0.050
-678.208	13.964	-0.215	-0.167
-677.193	-163.300	0.076	-0.004
-676.178	800.000	0.018	-0.068
-675.164	210.443	-0.034	0.052
-674.149	283.201	-0.072	0.129
-673.135	28.814	-0.202	-0.170
-672.120	-87.319	0.132	-0.040
-671.105	800.000	-0.042	-0.148
-670.091	2.546	0.061	-0.044
-669.076	-133.612	0.235	0.029
-668.062	800.000	-0.021	0.070
-667.047	207.505	-0.235	-0.364
-666.032	-200.000	0.010	0.160
-665.018	-200.000	-0.007	0.212
-664.003	-200.000	0.004	0.219
-662.989	-200.000	-0.021	-0.230
-661.974	649.012	0.080	0.204
-660.959	-78.639	-0.250	0.085
-659.945	-23.091	-0.205	-0.123
-658.930	-59.953	-0.067	0.028
-657.916	628.172	0.059	-0.147
-656.901	-74.560	0.269	-0.096
-655.886	166.891	0.010	0.014
-654.872	-200.000	0.065	-0.403
-653.857	800.000	-0.083	0.263
-652.843	-66.131	-0.259	0.103
-651.828	-2.373	0.320	0.223
-650.814	-39.191	-0.162	0.085
-649.799	18.856	0.375	0.298
-648.784	103.519	0.087	-0.101
-647.770	54.784	-0.176	-0.169
-646.755	12.237	0.054	-0.042
-645.741	-43.759	0.274	0.137
-644.726	60.188	-0.188	0.185
-643.711	421.876	0.061	0.130
-642.697	490.341	-0.211	-0.479
-641.682	-130.950	0.066	-0.009
-640.668	-116.577	0.070	0.013
-639.653	800.000	0.060	-0.238
-638.638	800.000	0.093	-0.350
-637.624	-154.741	-0.065	-0.004
-636.609	502.934	-0.033	-0.075
-635.595	-200.000	-0.023	-0.245
-634.580	-145.338	-0.188	0.017
-633.565	63.117	0.322	-0.320
-632.551	119.884	-0.307	-0.378
-631.536	28.012	-0.192	-0.161
-630.522	-148.500	0.125	-0.010
-629.507	147.091	-0.161	-0.215
-628.492	800.000	0.071	0.304
-627.478	-50.014	-0.186	-0.087
-626.463	-135.487	0.214	-0.025
-625.449	800.000	0.144	-0.480
-624.434	-116.201	-0.308	-0.057
-623.419	-23.230	-0.068	0.040
-622.405	-81.914	-0.318	0.103
-621.390	540.426	-0.056	0.132
-620.376	-100.537	0.328	0.080
-619.361	800.000	-0.050	-0.172
-618.346	16.393	-0.087	0.069
-617.332	-62.787	0.065	-0.027
-616.317	-200.000	0.012	0.184
-615.303	-200.000	0.038	-0.192
-614.288	40.354	0.168	-0.150
-613.273	-30.572	-0.240	0.135
-612.259	8.208	0.215	0.160
-611.244	7.780	0.235	-0.175
-610.230	-1.431	-0.351	-0.246
-609.215	272.758	0.123	-0.216
-608.201	-51.012	-0.206	0.096
-607.186	126.801	-0.214	0.268
-606.171	-23.353	-0.326	0.194
-605.157	800.000	0.040	0.152
-604.142	-67.805	0.197	0.077
-603.128	800.000	0.060	-0.166
-602.113	146.820	-0.052	-0.069
-601.098	305.431	-0.120	-0.222
-600.084	-200.000	0.008	-0.176
-599.069	-90.442	0.144	0.041
-598.055	267.815	-0.114	-0.198
-597.040	-157.515	-0.306	-0.018
-596.025	-103.532	-0.273	0.064
-595.011	-4.838	0.117	-0.080
-593.996	800.000	-0.072	-0.255
-592.982	299.881	0.168	-0.306
-591.967	-200.000	0.033	0.361
-590.952	-133.674	-0.165	-0.020
-589.938	320.006	0.086	0.162
-588.923	6.960	-0.305	-0.225
-587.909	329.110	0.061	0.116
-586.894	-96.327	-0.160	-0.042
-585.879	-200.000	0.034	-0.216
-584.865	-200.000	0.014	0.339
-583.850	-0.881	-0.050	-0.035
-582.836	-45.116	0.257	-0.126
-581.821	-92.308	-0.158	0.044
-580.806	45.255	0.152	0.139
-579.792	-105.634	0.167	-0.038
-578.777	131.162	0.253	0.322
-577.763	-99.980	-0.099	0.024
-576.748	620.064	0.114	0.284
-575.733	-104.734	-0.230	-0.052
-574.719	0.425	-0.082	-0.058
-573.704	-74.329	-0.172	0.062
-572.690	-200.000	0.017	-0.178
-571.675	-121.155	-0.196	0.032
-570.661	-109.407	0.249	0.052
-569.646	-119.078	-0.188	-0.033
-568.631	-117.363	0.348	-0.062
-567.617	545.200	-0.054	0.127
-566.602	-43.324	0.051	-0.025
-565.588	-51.278	-0.221	0.102
-564.573	-83.543	0.374	0.119
-563.558	-117.486	0.131	0.023
-562.544	31.308	0.146	0.124
-561.529	637.126	-0.044	-0.110
-560.515	-114.414	-0.088	0.017
-559.500	800.000	-0.054	0.225
-558.485	-119.758	-0.373	-0.064
-557.471	800.000	-0.099	0.324
-556.456	38.425	0.053	0.047
-555.442	72.306	0.212	0.218
-554.427	390.147	-0.085	0.175
-553.412	-28.331	0.225	-0.129
-552.398	337.648	0.047	0.091
-551.383	111.939	0.053	0.064
-550.369	-23.581	0.278	0.165
-549.354	561.491	0.074	0.177
-548.339	-101.460	-0.085	0.020
-547.325	-80.935	-0.274	-0.090
-546.310	-200.000	-0.056	0.249
-545.296	576.995	-0.100	-0.241
-544.281	800.000	0.073	-0.227
-543.266	800.000	0.038	-0.116
-542.252	510.211	-0.048	0.111
-541.237	83.637	-0.185	0.200
-540.223	283.991	0.053	0.094
-539.208	-200.000	0.033	-0.256
-538.193	-93.077	0.271	-0.075
-537.179	-30.305	-0.289	0.162
-536.164	-53.628	-0.372	-0.168
-535.150	228.465	-0.089	-0.144
-534.135	43.587	0.221	-0.200
-533.121	184.574	0.119	0.174
-532.106	104.245	0.026	0.030
-531.091	-200.000	-0.034	0.177
-530.077	-8.650	-0.185	-0.123
-529.062	273.249	0.118	-0.206
-528.048	-45.699	0.356	-0.174
-527.033	-131.640	-0.159	-0.021
-526.018	-78.750	-0.258	0.087
-525.004	800.000	-0.036	0.118
-523.989	-5.142	0.229	0.156
-522.975	-101.124	-0.082	-0.020
-521.960	-39.831	-0.005	-0.003
-520.945	-12.108	0.062	0.040
-519.931	59.539	-0.161	0.157
-518.916	-39.413	0.057	0.030
-517.902	519.501	-0.028	0.065
-516.887	-200.000	-0.049	-0.268
-515.872	-118.486	-0.177	0.031
-514.858	-38.869	0.162	-0.084
-513.843	800.000	0.027	-0.097
-512.829	-128.034	-0.089	-0.013
-511.814	196.469	-0.126	0.189
-510.799	-22.591	-0.108	-0.065
-509.785	603.831	0.021	-0.051
-508.770	-132.410	-0.260	-0.033
-507.756	419.463	-0.196	-0.415
-506.741	59.552	0.186	0.181
-505.726	-200.000	0.018	0.270
-504.712	-147.286	-0.231	0.019
-503.697	609.785	0.082	-0.203
-502.683	490.116	0.136	0.308
-501.668	309.547	-0.116	0.214
-500.653	175.514	0.111	-0.158
-499.639	-101.785	-0.223	-0.053
-498.624	441.849	-0.080	-0.173
-497.610	303.849	-0.147	-0.269
-496.595	-200.000	0.023	-0.219
-495.581	698.791	0.018	-0.047
-494.566	-48.645	0.197	-0.094
-493.551	-23.177	-0.161	-0.095
-492.537	0.762	0.078	-0.055
-491.522	46.218	-0.114	0.105
-490.508	-94.269	0.501	-0.135
-489.493	-123.216	-0.215	-0.034
-488.478	409.511	-0.090	-0.188
-487.464	800.000	-0.039	0.158
-486.449	168.751	-0.223	0.314
-485.435	95.838	0.143	0.161
-484.420	-200.000	-0.029	-0.282
-483.405	-200.000	-0.004	0.272
-482.391	800.000	-0.093	-0.325
-481.376	-200.000	0.004	-0.090
-480.362	77.241	-0.072	-0.075
-479.347	-74.971	-0.027	0.009
-478.332	109.573	0.113	0.134
-477.318	327.222	0.044	-0.083
-476.303	-200.000	0.038	-0.282
-475.289	175.938	-0.089	0.127
-474.274	340.430	-0.221	0.426
-473.259	25.986	-0.019	-0.016
-472.245	1.844	-0.192	0.137
-471.230	-200.000	0.013	0.086
-470.216	12.558	0.299	-0.228
-469.201	-52.150	0.336	0.154
-468.186	-65.041	-0.278	-0.111
-467.172	-11.132	0.084	-0.054
-466.157	78.139	0.087	-0.092
-465.143	-152.475	-0.162	0.011
-464.128	458.108	-0.079	-0.173
-463.113	357.694	0.178	-0.351
-462.099	211.121	0.135	0.209
-461.084	-79.563	-0.025	-0.008
-460.070	-200.000	0.102	-0.518
-459.055	800.000	-0.074	0.235
-458.040	10.914	0.169	0.127
-457.026	-200.000	-0.042	0.231
-456.011	115.350	0.163	0.196
-454.997	278.503	-0.081	0.142
-453.982	147.543	-0.142	0.189
-452.968	-79.626	0.105	0.035
-451.953	800.000	-0.047	-0.198
-450.938	50.454	0.249	-0.232
-449.924	-200.000	-0.011	-0.451
-448.909	-10.477	-0.246	0.161
-447.895	-58.980	0.265	-0.113
-446.880	800.000	-0.067	0.225
-445.865	113.981	0.120	0.144
-444.851	-16.120	-0.287	-0.180
-443.836	538.839	-0.087	0.203
-442.822	-122.438	0.154	-0.025
-441.807	-71.128	-0.199	0.074
-440.792	213.727	0.041	0.064
-439.778	-116.116	0.117	0.021
-438.763	-105.513	0.257	-0.057
-437.749	-200.000	0.029	0.152
-436.734	597.276	-0.105	0.257
-435.719	-107.602	0.235	0.051
-434.705	-96.907	0.091	0.023
-433.690	299.094	-0.116	0.211
-432.676	-200.000	0.001	0.355
-431.661	-200.000	0.010	0.124
-430.646	-16.314	-0.104	-0.065
-429.632	-109.950	0.096	0.020
-428.617	138.158	0.032	-0.041
-427.603	334.828	0.065	-0.124
-426.588	-31.863	-0.074	0.041
-425.573	-58.263	0.259	0.111
-424.559	8.832	-0.138	0.102
-423.544	-200.000	-0.051	0.288
-422.530	-200.000	0.070	-0.370
-421.515	-89.932	0.329	0.095
-420.500	-101.911	-0.124	-0.029
-419.486	800.000	0.038	-0.160
-418.471	511.040	-0.035	0.081
-417.457	279.325	0.039	0.069
-416.442	-105.008	0.114	-0.026
-415.428	-60.686	-0.048	0.020
-414.413	-145.919	0.067	0.006
-413.398	-120.408	-0.227	-0.038
-412.384	332.682	-0.062	-0.119
-411.369	-37.200	0.118	-0.062
-410.355	-45.357	-0.112	-0.055
-409.340	-200.000	0.029	0.265
-408.325	616.047	0.067	0.165
-407.311	-200.000	0.021	0.491
-406.296	-200.000	-0.000	-0.114
-405.282	159.859	-0.079	-0.108
-404.267	-96.299	-0.383	-0.100
-403.252	-87.841	0.310	0.092
-402.238	-200.000	0.008	0.130
-401.223	506.867	-0.052	-0.118
-400.209	135.915	0.114	0.146
-399.194	-156.117	0.380	-0.024
-398.179	-200.000	-0.009	-0.166
-397.165	171.942	-0.238	0.336
-396.150	-200.000	0.006	0.269
-395.136	-8.119	-0.310	-0.205
-394.121	232.457	-0.080	0.129
-393.106	-90.277	0.292	-0.084
-392.092	32.645	-0.161	0.137
-391.077	308.446	0.152	0.278
-390.063	800.000	0.022	0.093
-389.048	561.107	-0.105	0.251
-388.033	51.662	-0.343	-0.321
-387.019	-43.092	0.306	-0.153
-386.004	82.194	-0.180	0.192
-384.990	-47.980	-0.366	0.174
-383.975	112.718	-0.155	-0.184
-382.960	386.603	0.059	0.119
-381.946	-89.061	-0.178	-0.052
-380.931	-95.181	0.155	0.041
-379.917	-200.000	-0.013	-0.247
-378.902	218.892	-0.198	-0.311
-377.888	-200.000	-0.002	-0.049
-376.873	-93.336	-0.194	0.053
-375.858	-7.960	-0.161	-0.107
-374.844	216.792	-0.160	-0.250
-373.829	-200.000	-0.005	-0.199
-372.815	-89.371	-0.031	0.009
-371.800	-200.000	-0.054	0.264
-370.785	-200.000	0.021	0.370
-369.771	53.607	-0.256	-0.241
-368.756	-200.000	-0.023	-0.342
-367.742	-57.429	0.081	0.035
-366.727	533.311	0.031	-0.071
-365.712	-88.519	0.050	0.015
-364.698	-200.000	0.008	-0.171
-363.683	800.000	-0.031	-0.084
-362.669	64.046	0.205	0.202
-361.654	-92.570	-0.445	-0.123
-360.639	800.000	-0.068	0.279
-359.625	83.840	-0.125	-0.134
-358.610	-187.239	0.403	-0.005
-357.596	-58.670	-0.078	-0.033
-356.581	-60.031	0.233	-0.098
-355.566	41.994	-0.121	0.108
-354.552	-26.876	0.153	-0.088
-353.537	-130.680	0.248	-0.033
-352.523	-150.417	0.279	0.021
-351.508	140.266	-0.274	0.355
-350.493	411.895	-0.051	-0.106
-349.479	-200.000	0.058	-0.342
-348.464	448.781	0.148	-0.319
-347.450	-94.388	0.254	-0.068
-346.435	-200.000	-0.009	0.113
-345.420	-70.058	0.089	0.033
-344.406	127.664	-0.083	0.104
-343.391	-12.113	-0.143	-0.092
-342.377	148.206	-0.131	-0.174
-341.362	50.778	0.112	0.104
-340.348	68.727	0.111	0.111
-339.333	495.491	-0.064	-0.144
-338.318	-96.640	-0.302	-0.078
-337.304	646.767	0.100	-0.250
-336.289	-48.170	0.369	0.175
-335.275	-4.730	0.074	-0.050
-334.260	-54.804	0.428	-0.190
-333.245	-165.673	0.257	-0.011
-332.231	800.000	0.019	-0.067
-331.216	-5.200	-0.142	0.096
-330.202	-33.782	-0.142	-0.077
-329.187	-93.829	0.077	-0.021
-328.172	-112.018	0.177	-0.035
-327.158	722.291	0.057	0.148
-326.143	-72.578	-0.403	-0.146
-325.129	126.474	-0.080	-0.099
-324.114	232.595	-0.119	-0.192
-323.099	187.483	-0.280	0.410
-322.085	800.000	0.117	0.409
-321.070	265.082	0.056	-0.096
-320.056	45.361	-0.111	-0.100
-319.041	47.506	-0.163	-0.149
-318.026	-115.248	-0.068	-0.013
-317.012	-200.000	-0.229	0.000
-315.997	-78.160	0.218	0.074
-314.983	-176.502	0.174	-0.004
-313.968	-42.674	0.250	0.125
-312.953	-9.215	0.208	0.136
-311.939	450.383	0.044	0.096
-310.924	800.000	-0.119	-0.416
-309.910	18.874	-0.196	-0.154
-308.895	-165.982	-0.102	-0.004
-307.880	83.941	0.307	-0.328
-306.866	-18.284	-0.399	0.244
-305.851	421.304	-0.183	-0.384
-304.837	36.540	-0.140	-0.121
-303.822	800.000	0.020	-0.067
-302.807	-3.199	-0.203	-0.139
-301.793	644.941	0.139	0.347
-300.778	374.356	0.189	0.376
-299.764	151.351	-0.205	0.273
-298.749	-4.778	0.271	-0.183
-297.735	8.891	-0.231	0.171
-296.720	-200.000	0.063	-0.277
-295.705	243.255	0.121	-0.199
-294.691	-155.778	-0.298	-0.019
-293.676	672.473	0.149	0.378
-292.662	-139.799	0.426	0.044
-291.647	800.000	-0.071	-0.271
-290.632	-200.000	0.024	0.464
-289.618	-49.764	0.215	-0.100
-288.603	28.863	-0.229	-0.190
-287.589	-172.322	0.378	0.012
-286.574	-38.951	-0.252	-0.130
-285.559	119.859	0.069	0.084
-284.545	463.394	-0.021	-0.045
-283.530	-46.165	0.305	-0.147
-282.516	-200.000	-0.008	-0.098
-281.501	-23.872	-0.051	0.030
-280.486	-118.762	0.108	-0.019
-279.472	66.394	-0.108	0.108
-278.457	-200.000	-0.040	0.250
-277.443	-135.870	-0.126	-0.015
-276.428	241.555	0.150	0.245
-275.413	167.756	0.185	0.257
-274.399	-88.065	0.116	-0.034
-273.384	-33.686	-0.228	-0.123
-272.370	-6.508	0.081	0.054
-271.355	-120.526	-0.246	0.041
-270.340	678.232	0.041	-0.105
-269.326	-200.000	-0.044	0.316
-268.311	-50.598	0.147	0.068
-267.297	428.298	0.156	0.329
-266.282	50.675	-0.074	0.069
-265.267	217.236	0.028	-0.044
-264.253	19.733	0.125	-0.099
-263.238	166.148	0.221	-0.307
-262.224	57.230	-0.116	-0.111
-261.209	82.091	-0.116	0.123
-260.195	612.240	-0.101	-0.247
-259.180	507.895	0.187	0.424
-258.165	-200.000	0.012	0.118
-257.151	-71.865	-0.251	-0.092
-256.136	-99.492	0.266	-0.065
-255.122	-76.043	0.236	0.082
-254.107	-125.431	0.485	-0.072
-253.092	-81.717	-0.220	-0.071
-252.078	81.788	-0.365	-0.386
-251.063	175.192	0.203	0.287
-250.049	800.000	0.030	0.113
-249.034	-88.007	0.256	0.075
-248.019	496.487	-0.056	0.125
-247.005	-155.032	0.290	-0.019
-245.990	-31.206	-0.075	0.041
-244.976	-118.527	-0.085	-0.015
-243.961	-85.451	0.163	0.050
-242.946	800.000	-0.057	0.157
-241.932	-152.459	0.386	-0.027
-240.917	-200.000	0.006	-0.227
-239.903	800.000	0.067	0.205
-238.888	173.021	0.081	0.114
-237.873	-200.000	0.056	0.245
-236.859	83.495	0.119	0.127
-235.844	800.000	0.041	0.126
-234.830	-139.559	-0.245	-0.026
-233.815	-200.000	0.063	-0.274
-232.800	-169.062	-0.227	0.008
-231.786	-14.129	0.250	0.158
-230.771	-108.650	-0.271	0.057
-229.757	-196.186	-0.292	0.002
-228.742	-200.000	-0.040	0.199
-227.727	-76.245	-0.147	0.050
-226.713	-200.000	0.005	-0.046
-225.698	20.827	0.228	0.180
-224.684	322.379	0.101	0.188
-223.669	-94.628	0.208	-0.055
-222.655	22.393	0.175	0.140
-221.640	-90.899	-0.285	0.080
-220.625	-92.396	-0.366	0.101
-219.611	65.677	0.086	-0.085
-218.596	-122.860	0.160	0.025
-217.582	157.509	-0.128	0.173
-216.567	184.331	-0.064	0.092
-215.552	-167.231	0.257	0.010
-214.538	170.806	-0.072	-0.100
-213.523	-113.093	0.147	0.028
-212.509	-111.630	-0.396	-0.079
-211.494	-4.948	-0.155	-0.104
-210.479	71.682	0.105	0.107
-209.465	-37.397	0.057	-0.030
-208.450	-24.356	-0.416	0.242
-207.436	-200.000	-0.001	0.212
-206.421	-98.205	-0.110	-0.027
-205.406	18.136	0.306	0.238
-204.392	289.329	0.177	-0.313
-203.377	800.000	-0.028	0.078
-202.363	-200.000	-0.018	-0.076
-201.348	-73.917	-0.223	0.079
-200.333	143.484	0.213	-0.277
-199.319	147.045	-0.187	-0.246
-198.304	376.081	-0.056	0.112
-197.290	58.682	-0.164	0.157
-196.275	226.545	-0.086	-0.135
-195.260	-116.643	0.114	0.021
-194.246	340.448	0.117	0.222
-193.231	-150.100	0.294	0.022
-192.217	800.000	-0.026	-0.084
-191.202	184.736	0.102	0.147
-190.187	26.327	0.084	-0.069
-189.173	5.625	0.240	0.173
-188.158	-200.000	-0.045	-0.435
-187.144	-200.000	-0.050	-0.291
-186.129	333.480	0.021	0.040
-185.114	-32.975	0.347	0.188
-184.100	-200.000	0.020	-0.150
-183.085	-25.671	-0.430	-0.247
-182.071	-139.242	-0.135	0.014
-181.056	12.692	0.146	0.110
-180.042	800.000	-0.049	-0.169
-179.027	7.375	-0.057	-0.042
-178.012	66.566	0.180	-0.178
-176.998	-3.592	0.177	0.120
-175.983	-109.449	-0.078	0.016
-174.969	800.000	0.095	-0.309
-173.954	-26.758	0.072	0.041
-172.939	660.947	0.096	0.242
-171.925	40.208	-0.365	-0.320
-170.910	3.868	-0.161	0.115
-169.896	-200.000	0.061	-0.301
-168.881	241.801	0.120	-0.195
-167.866	340.584	0.131	0.250
-166.852	315.184	-0.090	0.166
-165.837	800.000	-0.069	0.210
-164.823	-112.767	0.097	0.019
-163.808	-116.788	-0.117	0.021
-162.793	-200.000	0.031	-0.327
-161.779	-63.815	0.366	-0.146
-160.764	43.985	0.174	0.155
-159.750	240.706	-0.060	0.097
-158.735	-115.810	-0.104	0.019
-157.720	-114.906	-0.084	0.016
-156.706	-200.000	0.011	-0.066
-155.691	-152.078	-0.390	-0.028
-154.677	-53.422	0.008	0.004
-153.662	-51.938	0.298	-0.135
-152.647	800.000	-0.077	0.232
-151.633	800.000	0.080	-0.240
-150.618	42.629	-0.139	0.123
-149.604	189.315	-0.131	-0.191
-148.589	-200.000	-0.040	-0.300
-147.574	2.185	0.364	-0.256
-146.560	214.656	0.058	-0.090
-145.545	391.518	0.052	0.105
-144.531	800.000	0.103	-0.410
-143.516	537.610	0.050	0.115
-142.502	600.184	0.094	0.228
-141.487	55.114	-0.087	0.082
-140.472	125.444	-0.260	0.320
-139.458	338.578	-0.116	0.219
-138.443	-54.186	0.221	-0.098
-137.429	54.459	-0.218	-0.205
-136.414	-140.210	0.083	0.009
-135.399	-200.000	0.005	0.122
-134.385	-200.000	0.000	0.279
-133.370	-200.000	-0.051	0.242
-132.356	-142.353	0.398	-0.038
-131.341	-200.000	0.001	0.145
-130.326	-29.704	0.166	0.092
-129.312	-200.000	-0.032	0.168
-128.297	-105.662	0.309	-0.068
-127.283	68.420	0.039	0.039
-126.268	-22.216	0.066	0.039
-125.253	-26.125	-0.262	0.150
-124.239	-137.226	-0.190	-0.021
-123.224	-123.612	-0.310	0.048
-122.210	15.167	0.171	0.130
-121.195	-69.954	0.328	0.122
-120.180	-163.687	-0.307	-0.014
