DTS Sentinel unit serial number:	SN413079Multiplexer serial number:	ORYXHardware model number:	OX4-SRSoftware version number:	ORYX F/W v4.00 Oryx Data Collector v3.7.2.0data status	okinstallation	princeton_trtdifferential loss correction	single-endedforward channel	channel 2reverse channel	N/Adate	2019/09/12time	18:51:49forward acquisition time	15.00reverse acquisition time	0.00gamma	496.2192k internal	0.2325k external	0.2325temperature offset calibration	1.0135default loss term (dB/km)	0.3790temperature slope calibration	1.0000multiplexer offset coefficient	1.0000multiplexer slope coefficient	1.0000fibre end	0.00T internal ref (°C)	32.94T ext. ref 1 (°C)	2.98T ext. ref 2 (°C)	27.40length (m)	temperature (°C)	Stokes	anti-Stokes-747.200	-1.218	0.340	0.243
-746.185	-42.734	-0.180	-0.092
-745.171	-200.000	0.027	-0.519
-744.156	327.840	-0.174	0.337
-743.142	-200.000	-0.003	0.140
-742.127	55.991	-0.578	0.566
-741.112	63.610	-0.439	0.445
-740.098	-6.366	-0.244	0.168
-739.083	-107.625	-0.410	0.090
-738.069	-81.704	0.775	-0.257
-737.054	-38.284	0.432	-0.231
-736.039	41.196	0.119	0.109
-735.025	73.541	-0.293	-0.310
-734.010	-200.000	0.037	0.166
-732.996	800.000	-0.256	0.730
-731.981	-125.205	0.643	0.099
-730.966	-73.174	0.227	0.084
-729.952	282.288	-0.094	0.170
-728.937	-200.000	-0.069	0.475
-727.923	800.000	0.246	-0.720
-726.908	-38.188	-0.380	0.203
-725.894	217.077	-0.501	-0.804
-724.879	15.316	-0.385	0.305
-723.864	800.000	-0.072	0.239
-722.850	71.061	0.451	0.471
-721.835	-200.000	0.051	0.403
-720.821	-34.799	0.958	0.528
-719.806	587.838	-0.415	1.030
-718.791	-200.000	0.061	0.720
-717.777	-103.856	0.825	-0.194
-716.762	626.426	0.149	0.380
-715.748	-45.772	0.412	0.205
-714.733	-90.645	0.920	0.268
-713.718	-62.643	0.286	0.120
-712.704	-110.751	-0.351	0.073
-711.689	-33.138	-0.509	-0.284
-710.675	-200.000	0.038	-0.409
-709.660	-81.176	0.511	0.170
-708.645	34.854	0.390	0.344
-707.631	-64.773	-0.134	0.055
-706.616	-98.687	0.401	0.103
-705.602	-86.127	-0.476	0.148
-704.587	-130.626	0.109	-0.015
-703.572	647.594	-0.227	-0.585
-702.558	213.613	0.452	-0.720
-701.543	-33.391	-0.530	-0.295
-700.529	-200.000	0.043	0.640
-699.514	-200.000	0.071	0.589
-698.499	800.000	0.146	-0.409
-697.485	104.535	-0.349	-0.414
-696.470	-136.105	0.695	-0.082
-695.456	-200.000	0.006	-0.479
-694.441	42.586	-0.611	-0.560
-693.426	-200.000	0.072	-0.483
-692.412	-24.073	-1.083	-0.652
-691.397	-5.867	0.308	-0.212
-690.383	800.000	-0.221	-0.614
-689.368	133.813	0.382	-0.498
-688.354	-200.000	0.027	-0.219
-687.339	-13.452	-0.921	0.601
-686.324	-200.000	-0.022	0.233
-685.310	579.500	-0.295	0.728
-684.295	37.490	-0.671	0.599
-683.281	-200.000	-0.645	0.003
-682.266	-161.129	0.129	0.007
-681.251	8.390	-0.318	0.241
-680.237	800.000	-0.179	0.545
-679.222	797.185	-0.091	0.251
-678.208	239.702	-0.232	-0.389
-677.193	147.704	0.301	-0.408
-676.178	-36.308	-0.919	0.499
-675.164	385.189	0.024	-0.051
-674.149	-65.564	0.377	0.152
-673.135	-29.116	-0.136	-0.078
-672.120	-164.626	-0.818	0.037
-671.105	-62.427	0.626	0.262
-670.091	-31.116	-0.624	-0.354
-669.076	-82.657	-0.306	0.100
-668.062	-53.900	0.696	0.319
-667.047	-200.000	0.036	-0.556
-666.032	515.570	-0.389	-0.914
-665.018	-4.957	0.061	-0.042
-664.003	-42.806	-0.855	0.437
-662.989	-69.302	0.500	-0.193
-661.974	-0.416	0.656	0.469
-660.959	576.219	0.186	0.458
-659.945	800.000	0.134	-0.579
-658.930	-105.366	-0.499	0.114
-657.916	-200.000	-0.042	0.456
-656.901	-200.000	0.044	-0.313
-655.886	162.593	-0.045	-0.064
-654.872	263.358	-0.260	-0.454
-653.857	-19.484	-0.746	0.465
-652.843	-96.135	0.246	0.066
-651.828	-200.000	-0.097	-0.678
-650.814	-200.000	-0.129	-0.785
-649.799	-85.622	-1.096	0.343
-648.784	-20.190	-0.417	-0.258
-647.770	800.000	0.134	-0.473
-646.755	-165.981	0.467	-0.020
-645.741	-18.249	-0.392	-0.247
-644.726	-96.687	0.327	-0.086
-643.711	16.405	-0.282	0.223
-642.697	-156.594	-0.078	0.005
-641.682	150.575	0.728	0.993
-640.668	800.000	-0.223	0.665
-639.653	-65.537	-0.914	0.369
-638.638	50.228	0.047	-0.045
-637.624	59.715	-0.534	-0.530
-636.609	800.000	-0.088	0.263
-635.595	-146.148	0.518	0.046
-634.580	42.143	0.382	-0.348
-633.565	800.000	0.205	-0.732
-632.551	-35.365	0.170	-0.093
-631.536	45.634	-0.403	0.374
-630.522	-200.000	-0.041	0.404
-629.507	-65.566	-0.437	-0.176
-628.492	-200.000	0.133	-1.078
-627.478	-200.000	0.006	0.183
-626.463	55.100	0.511	-0.496
-625.449	-124.365	0.735	0.115
-624.434	-200.000	-0.158	1.041
-623.419	397.272	0.120	0.252
-622.405	800.000	-0.183	-0.563
-621.390	131.882	-0.155	-0.200
-620.376	-199.623	0.484	0.002
-619.361	209.827	0.618	-0.973
-618.346	-61.260	0.924	-0.391
-617.332	-77.143	0.431	-0.151
-616.317	-200.000	-0.037	0.255
-615.303	-33.552	0.272	0.151
-614.288	383.214	0.403	-0.833
-613.273	44.451	0.472	-0.435
-612.259	-27.625	0.286	0.167
-611.244	440.709	-0.292	-0.640
-610.230	-15.722	0.222	-0.142
-609.215	360.491	-0.237	-0.476
-608.201	27.951	0.399	0.338
-607.186	275.674	-0.463	0.824
-606.171	-121.367	-0.410	-0.069
-605.157	54.149	-0.322	-0.311
-604.142	220.832	0.167	0.270
-603.128	-152.825	0.789	-0.056
-602.113	337.198	0.359	-0.700
-601.098	244.087	-0.669	-1.128
-600.084	-200.000	0.060	0.551
-599.069	68.618	-0.260	0.267
-598.055	56.507	-0.706	0.689
-597.040	-55.493	0.441	-0.198
-596.025	800.000	-0.212	-0.768
-595.011	43.620	0.271	-0.248
-593.996	178.822	-0.356	-0.522
-592.982	800.000	0.077	0.231
-591.967	800.000	0.142	-0.543
-590.952	-108.009	-0.269	0.059
-589.938	613.343	-0.101	0.254
-588.923	-135.655	-0.215	-0.026
-587.909	14.342	-0.583	-0.456
-586.894	-83.635	0.291	0.093
-585.879	135.641	-0.324	0.423
-584.865	-36.435	-0.336	0.181
-583.850	471.341	0.148	-0.335
-582.836	229.787	0.210	-0.343
-581.821	9.739	-0.436	-0.332
-580.806	-106.790	0.436	-0.097
-579.792	-84.610	-0.450	-0.142
-578.777	800.000	0.241	-0.779
-577.763	-17.055	0.379	-0.240
-576.748	109.549	0.464	0.558
-575.733	-11.094	-0.612	0.405
-574.719	114.922	0.326	-0.399
-573.704	-200.000	-0.105	0.857
-572.690	12.535	-0.178	0.137
-571.675	-68.363	-0.555	0.216
-570.661	53.182	0.577	0.554
-569.646	-200.000	-0.060	0.875
-568.631	-52.290	0.731	0.340
-567.617	798.682	-0.226	0.625
-566.602	-54.080	0.187	0.085
-565.588	-156.499	-0.700	0.044
-564.573	-119.175	0.275	0.048
-563.558	133.418	0.437	0.566
-562.544	-5.707	-0.774	-0.532
-561.529	800.000	0.057	0.233
-560.515	639.911	0.221	0.563
-559.500	-192.072	-0.619	0.006
-558.485	297.709	-0.405	0.745
-557.471	373.382	-0.218	-0.444
-556.456	240.717	0.320	0.535
-555.442	-42.171	0.131	0.067
-554.427	26.037	-0.739	0.618
-553.412	800.000	0.198	-0.660
-552.398	-188.323	0.757	0.010
-551.383	55.636	0.549	-0.532
-550.369	800.000	0.028	0.102
-549.354	-8.402	-0.460	-0.310
-548.339	800.000	-0.081	-0.294
-547.325	-140.414	0.566	-0.059
-546.310	-121.148	0.615	-0.103
-545.296	-200.000	0.082	-0.804
-544.281	396.385	0.245	-0.513
-543.266	800.000	-0.089	-0.324
-542.252	-83.683	0.430	-0.138
-541.237	-137.623	0.925	0.104
-540.223	-111.871	-0.725	-0.147
-539.208	52.165	0.315	-0.301
-538.193	-200.000	0.157	0.746
-537.179	-37.328	0.518	-0.277
-536.164	19.109	0.518	0.416
-535.150	-145.795	-0.327	-0.029
-534.135	-200.000	-0.074	-1.029
-533.121	-112.657	-0.595	0.118
-532.106	-101.304	-0.244	-0.060
-531.091	800.000	-0.186	0.697
-530.077	-60.922	-0.618	0.262
-529.062	-200.000	0.057	0.568
-528.048	111.026	0.350	-0.422
-527.033	-138.412	-0.709	-0.078
-526.018	-200.000	0.102	-0.626
-525.004	-81.828	0.419	-0.137
-523.989	-200.000	0.002	-0.046
-522.975	-6.903	-0.755	0.513
-521.960	-49.149	0.499	0.239
-520.945	-83.573	0.148	-0.047
-519.931	25.138	-0.307	-0.255
-518.916	-132.723	0.339	0.043
-517.902	-72.670	0.239	0.088
-516.887	423.867	0.346	-0.745
-515.872	-56.323	-0.370	-0.165
-514.858	-200.000	-0.019	-0.184
-513.843	800.000	-0.021	0.081
-512.829	-38.599	0.678	0.358
-511.814	-200.000	0.054	-0.380
-510.799	-17.887	-0.201	-0.126
-509.785	-67.416	0.376	-0.148
-508.770	-200.000	-0.026	0.426
-507.756	44.241	0.724	-0.664
-506.741	593.375	0.185	-0.457
-505.726	-60.781	1.041	0.441
-504.712	84.618	-0.456	-0.499
-503.697	-200.000	-0.007	0.583
-502.683	-200.000	-0.004	-0.258
-501.668	800.000	-0.311	-1.080
-500.653	-2.749	0.263	0.184
-499.639	-28.319	0.816	-0.471
-498.624	57.206	0.122	0.119
-497.610	-45.464	0.054	-0.027
-496.595	-30.626	0.437	0.247
-495.581	-60.329	-0.869	-0.370
-494.566	-200.000	-0.178	-0.960
-493.551	800.000	0.178	-0.644
-492.537	73.235	-0.673	-0.703
-491.522	295.451	-0.120	0.219
-490.508	-200.000	0.107	-0.473
-489.493	-93.096	-0.453	-0.126
-488.478	91.644	0.200	0.225
-487.464	94.645	-0.282	0.320
-486.449	-102.926	-0.440	0.104
-485.435	137.258	0.246	0.322
-484.420	-10.469	-0.502	0.332
-483.405	599.471	0.265	0.658
-482.391	-200.000	0.011	-0.200
-481.376	468.967	-0.261	0.585
-480.362	103.525	-0.086	-0.101
-479.347	-200.000	0.085	0.685
-478.332	47.488	-0.328	0.305
-477.318	104.733	-0.126	-0.149
-476.303	492.897	-0.488	1.116
-475.289	-200.000	0.054	-0.637
-474.274	0.025	-0.707	-0.503
-473.259	-121.449	0.312	0.052
-472.245	-117.544	0.276	0.050
-471.230	6.045	-1.256	-0.929
-470.216	3.523	0.714	-0.520
-469.201	74.323	-0.182	-0.191
-468.186	-11.062	-0.564	-0.371
-467.172	102.346	0.040	-0.047
-466.157	-200.000	0.003	0.215
-465.143	459.991	0.155	-0.346
-464.128	-200.000	0.002	0.088
-463.113	132.238	0.666	-0.857
-462.099	16.193	-0.092	0.072
-461.084	604.439	0.293	0.727
-460.070	-146.661	0.417	-0.036
-459.055	-200.000	0.029	0.130
-458.040	-88.054	-0.705	-0.211
-457.026	65.244	-0.293	-0.296
-456.011	-47.711	-0.721	-0.349
-454.997	-50.898	-0.771	-0.362
-453.982	402.425	0.228	-0.479
-452.968	-20.119	0.253	0.156
-451.953	-47.168	0.734	0.357
-450.938	553.444	0.308	0.740
-449.924	21.653	-0.210	-0.171
-448.909	-28.178	-0.421	0.243
-447.895	-48.753	0.063	-0.030
-446.880	-200.000	-0.051	-0.231
-445.865	-62.846	-0.341	-0.141
-444.851	-67.861	0.495	0.193
-443.836	28.549	-0.483	-0.408
-442.822	-200.000	0.003	0.304
-441.807	-188.381	0.432	0.005
-440.792	-200.000	0.029	0.165
-439.778	404.699	0.262	-0.551
-438.763	27.598	-0.387	-0.325
-437.749	-200.000	-0.075	0.437
-436.734	800.000	-0.110	0.427
-435.719	-200.000	0.045	-0.232
-434.705	800.000	0.130	-0.488
-433.690	-200.000	0.026	0.815
-432.676	-200.000	0.258	1.198
-431.661	-120.224	0.163	-0.028
-430.646	-168.957	-0.333	-0.012
-429.632	-200.000	-0.011	0.412
-428.617	-79.721	-0.295	0.099
-427.603	324.229	-0.404	-0.770
-426.588	800.000	-0.078	0.309
-425.573	-9.448	-0.389	0.259
-424.559	-16.727	-0.196	0.124
-423.544	366.675	0.616	1.238
-422.530	-13.954	0.468	-0.301
-421.515	-14.829	-0.383	-0.245
-420.500	161.064	-0.204	0.283
-419.486	233.554	0.722	1.183
-418.471	-22.202	0.581	0.351
-417.457	135.756	0.212	-0.275
-416.442	-139.833	0.712	0.075
-415.428	-53.017	1.037	0.475
-414.413	800.000	0.224	0.740
-413.398	-16.532	0.339	0.214
-412.384	-35.388	0.492	0.266
-411.369	-7.828	0.911	0.613
-410.355	-104.458	0.649	-0.149
-409.340	-133.136	0.273	-0.034
-408.325	624.800	-0.093	0.232
-407.311	-35.893	-0.568	-0.306
-406.296	83.353	-0.486	-0.527
-405.282	-136.968	0.679	0.078
-404.267	-200.000	0.007	0.222
-403.252	-112.912	0.077	-0.015
-402.238	-46.007	-0.892	-0.438
-401.223	-36.320	-0.741	0.398
-400.209	-87.515	0.171	0.052
-399.194	800.000	-0.049	-0.196
-398.179	-30.593	0.976	0.551
-397.165	-130.095	-1.289	0.175
-396.150	61.105	-0.287	-0.284
-395.136	800.000	-0.088	0.264
-394.121	60.045	0.481	0.473
-393.106	-87.903	0.670	-0.201
-392.092	-194.964	-0.855	0.007
-391.077	12.895	-0.439	-0.338
-390.063	-200.000	0.009	-0.334
-389.048	-170.491	0.351	-0.012
-388.033	49.306	-0.625	0.585
-387.019	64.386	-0.154	0.155
-386.004	26.310	-0.315	0.262
-384.990	-83.012	-0.281	0.090
-383.975	-106.228	0.454	0.101
-382.960	128.390	0.386	0.489
-381.946	-55.596	-0.820	0.366
-380.931	686.377	-0.043	0.112
-379.917	91.711	-0.227	0.254
-378.902	-200.000	-0.107	-0.615
-377.888	-44.030	0.410	0.205
-376.873	-200.000	0.084	0.522
-375.858	-87.144	0.295	-0.089
-374.844	-14.483	-0.577	0.369
-373.829	148.880	0.293	0.393
-372.815	800.000	-0.200	-0.581
-371.800	-99.425	-0.172	0.043
-370.785	722.949	0.115	-0.305
-369.771	193.410	-0.271	0.407
-368.756	-62.906	-0.622	-0.256
-367.742	-150.125	0.043	-0.003
-366.727	-76.554	0.118	-0.041
-365.712	-200.000	-0.012	-0.239
-364.698	-144.914	-0.226	0.021
-363.683	151.080	-0.215	-0.290
-362.669	45.343	-0.179	-0.164
-361.654	665.918	-0.319	-0.821
-360.639	56.014	-0.121	-0.117
-359.625	800.000	-0.185	0.791
-358.610	89.137	0.733	0.811
-357.596	800.000	0.184	-0.602
-356.581	800.000	-0.202	-0.840
-355.566	-200.000	-0.137	0.792
-354.552	-27.045	-0.375	0.217
-353.537	39.458	0.502	-0.447
-352.523	-126.208	0.675	0.100
-351.508	-200.000	0.066	0.343
-350.493	81.537	-0.322	-0.346
-349.479	-96.477	-0.660	0.173
-348.464	-182.011	-0.187	0.004
-347.450	-78.306	0.741	-0.253
-346.435	39.488	-0.354	-0.315
-345.420	-200.000	0.060	0.324
-344.406	-180.100	0.404	-0.008
-343.391	800.000	-0.235	0.708
-342.377	-200.000	0.031	0.462
-341.362	40.973	-0.222	-0.199
-340.348	-16.353	-0.680	-0.429
-339.333	-104.421	0.614	0.141
-338.318	-38.289	0.562	0.296
-337.304	166.836	-0.161	-0.227
-336.289	-48.326	-0.347	0.166
-335.275	292.214	-0.273	-0.493
-334.260	45.155	-0.505	0.462
-333.245	800.000	0.057	-0.192
-332.231	12.410	0.607	-0.464
-331.216	-200.000	-0.005	-0.078
-330.202	152.046	0.343	-0.465
-329.187	52.268	0.271	-0.257
-328.172	800.000	-0.111	0.346
-327.158	800.000	-0.087	0.238
-326.143	-200.000	-0.118	-0.793
-325.129	325.192	-0.199	0.378
-324.114	-3.407	0.489	-0.338
-323.099	-5.908	-0.239	0.162
-322.085	33.612	-0.205	0.177
-321.070	33.605	0.503	0.434
-320.056	158.211	-0.334	0.459
-319.041	97.059	-0.767	-0.874
-318.026	-7.504	-0.215	-0.144
-317.012	-49.388	-0.694	-0.329
-315.997	407.707	0.132	-0.277
-314.983	32.708	0.439	0.377
-313.968	-82.018	0.482	-0.156
-312.953	-79.543	0.316	0.106
-311.939	800.000	-0.191	0.606
-310.924	-200.000	0.050	0.638
-309.910	-200.000	-0.095	-0.442
-308.895	4.600	-0.367	0.267
-307.880	70.798	-0.382	0.392
-306.866	310.111	-0.545	-1.011
-305.851	36.952	0.066	-0.058
-304.837	305.960	0.213	0.393
-303.822	182.767	-0.437	0.640
-302.807	-2.815	0.153	0.106
-301.793	-150.080	-0.232	-0.018
-300.778	1.695	-0.111	0.079
-299.764	124.549	-0.247	-0.308
-298.749	-150.677	0.677	0.051
-297.735	-200.000	0.001	-0.520
-296.720	-200.000	-0.001	0.043
-295.705	64.857	0.698	0.699
-294.691	-52.221	-0.174	-0.080
-293.676	41.654	-0.309	-0.277
-292.662	341.430	0.190	0.368
-291.647	-200.000	0.050	-0.335
-290.632	8.865	-0.190	0.142
-289.618	-22.784	-0.114	0.068
-288.603	406.413	-0.280	0.586
-287.589	-200.000	0.008	0.125
-286.574	-200.000	-0.091	0.946
-285.559	-51.491	0.015	0.007
-284.545	25.839	0.257	0.212
-283.530	-44.946	-0.251	-0.124
-282.516	-42.703	0.356	0.179
-281.501	-200.000	-0.034	0.875
-280.486	-38.936	-0.105	-0.055
-279.472	-200.000	0.042	0.191
-278.457	-200.000	-0.013	0.475
-277.443	-57.966	1.001	0.433
-276.428	-200.000	-0.008	0.221
-275.413	-6.700	0.668	0.451
-274.399	336.939	-0.102	-0.197
-273.384	-166.767	-0.232	-0.010
-272.370	508.973	0.248	-0.570
-271.355	800.000	-0.204	-0.600
-270.340	-94.929	0.613	0.164
-269.326	-103.226	-1.018	0.238
-268.311	350.405	0.546	-1.070
-267.297	-200.000	-0.106	0.545
-266.282	363.908	0.296	-0.590
-265.267	-200.000	-0.001	-0.092
-264.253	-200.000	-0.002	-0.311
-263.238	-61.704	0.422	0.175
-262.224	800.000	-0.172	-0.588
-261.209	548.764	-0.106	0.251
-260.195	800.000	0.039	0.145
-259.180	281.611	-0.237	-0.420
-258.165	800.000	-0.100	0.390
-257.151	-160.093	-0.689	-0.037
-256.136	-200.000	-0.101	-1.292
-255.122	-200.000	0.064	-0.405
-254.107	-39.679	-0.888	-0.460
-253.092	800.000	-0.300	-1.075
-252.078	10.967	0.327	0.247
-251.063	-60.417	0.391	0.165
-250.049	53.790	-0.568	-0.540
-249.034	3.513	-0.704	0.508
-248.019	-200.000	-0.166	-1.102
-247.005	498.682	-0.270	-0.616
-245.990	108.031	-0.311	0.367
-244.976	185.994	-0.554	0.815
-243.961	-121.637	0.948	-0.155
-242.946	-92.902	-0.717	0.198
-241.932	-173.345	0.824	-0.025
-240.917	800.000	-0.181	-0.513
-239.903	7.491	-0.715	-0.529
-238.888	-4.565	-0.423	0.289
-237.873	-7.562	-0.254	0.170
-236.859	-100.551	0.849	-0.208
-235.844	284.466	-0.256	-0.455
-234.830	-36.329	0.348	0.185
-233.815	66.539	-0.252	0.254
-232.800	-89.251	-0.265	0.077
-231.786	234.332	0.369	-0.601
-230.771	143.126	0.670	-0.881
-229.757	19.240	-0.582	-0.462
-228.742	-184.401	0.144	-0.002
-227.727	800.000	-0.153	-0.639
-226.713	106.178	0.065	0.076
-225.698	729.069	-0.135	-0.356
-224.684	-84.518	-0.540	0.168
-223.669	-74.811	-0.103	0.037
-222.655	-68.143	0.363	-0.140
-221.640	800.000	0.147	0.578
-220.625	112.721	0.306	0.367
-219.611	133.083	-0.469	0.599
-218.596	77.609	0.384	0.404
-217.582	-200.000	-0.050	-0.309
-216.567	800.000	-0.017	0.076
-215.552	-200.000	-0.021	0.348
-214.538	38.030	0.823	-0.724
-213.523	800.000	-0.107	-0.393
-212.509	586.091	0.249	-0.605
-211.494	143.990	0.280	-0.369
-210.479	477.993	-0.217	0.486
-209.465	532.066	0.258	-0.602
-208.450	-0.588	0.840	-0.589
-207.436	800.000	-0.128	0.371
-206.421	59.320	-0.340	0.331
-205.406	-190.320	0.241	0.003
-204.392	-152.275	-0.265	-0.019
-203.377	-69.470	0.562	-0.213
-202.363	-11.384	0.600	-0.390
-201.348	622.562	0.145	-0.362
-200.333	-200.000	-0.064	1.206
-199.319	221.312	0.324	0.514
-198.304	13.589	-0.581	-0.446
-197.290	32.320	-0.308	0.263
-196.275	800.000	0.077	0.211
-195.260	15.384	-0.190	-0.147
-194.246	-61.946	0.232	-0.096
-193.231	-167.372	-0.402	0.016
-192.217	-141.567	-0.710	-0.071
-191.202	800.000	0.079	-0.297
-190.187	-119.337	0.309	0.053
-189.173	40.400	-0.375	-0.334
-188.158	800.000	0.044	0.165
-187.144	376.618	-0.115	-0.232
-186.129	-200.000	0.028	0.539
-185.114	-184.138	-0.904	0.015
-184.100	-76.138	-0.554	0.193
-183.085	-25.189	0.312	0.183
-182.071	9.218	-0.232	0.173
-181.056	105.466	-0.387	-0.451
-180.042	22.086	0.148	0.119
-179.027	183.044	-0.564	-0.822
-178.012	-93.329	-0.668	-0.183
-176.998	195.192	0.318	0.477
-175.983	-92.277	0.725	-0.202
-174.969	800.000	0.205	0.830
-173.954	-69.419	1.141	0.432
-172.939	-47.926	0.149	-0.071
-171.925	-130.692	0.652	0.087
-170.910	800.000	-0.310	0.997
-169.896	19.430	0.311	0.246
-168.881	800.000	-0.018	0.052
-167.866	-120.362	0.169	-0.028
-166.852	44.135	-0.536	0.485
-165.837	-149.369	0.610	-0.048
-164.823	800.000	0.136	0.484
-163.808	-200.000	-0.022	-0.226
-162.793	263.599	-0.213	0.366
-161.779	-77.351	-0.177	0.061
-160.764	-117.959	0.651	0.115
-159.750	187.570	0.428	-0.630
-158.735	-190.827	1.230	0.013
-157.720	562.747	-0.559	1.335
-156.706	41.725	-1.215	1.086
-155.691	-78.838	0.312	0.105
-154.677	66.609	-0.635	0.637
-153.662	-131.805	0.445	0.057
-152.647	800.000	-0.103	-0.416
-151.633	800.000	0.180	-0.524
-150.618	-37.151	-0.685	-0.362
-149.604	-76.689	0.692	-0.239
-148.589	49.824	0.509	-0.473
-147.574	-36.067	-0.212	0.113
-146.560	67.440	0.079	0.080
-145.545	-155.002	0.978	-0.063
-144.531	-119.625	-0.376	-0.064
-143.516	93.414	-1.018	-1.136
-142.502	-200.000	-0.047	-0.830
-141.487	-67.937	0.756	-0.291
-140.472	-97.855	-1.154	0.294
-139.458	-139.850	-1.226	0.128
-138.443	800.000	-0.128	-0.427
-137.429	-24.267	0.572	0.336
-136.414	-38.580	0.655	-0.341
-135.399	-200.000	-0.063	0.786
-134.385	800.000	-0.040	-0.165
-133.370	-64.985	-0.751	-0.299
-132.356	-43.699	-0.388	0.193
-131.341	348.106	-0.158	0.307
-130.326	38.198	0.085	0.075
-129.312	-200.000	0.066	0.344
-128.297	-35.433	0.262	0.140
-127.283	-52.785	-0.305	-0.139
-126.268	-200.000	0.004	0.389
-125.253	-123.286	-1.147	0.181
-124.239	-200.000	-0.182	-0.905
-123.224	402.655	-0.283	-0.586
-122.210	-195.860	0.516	0.004
-121.195	797.491	-0.094	-0.256
-120.180	17.207	-0.169	0.132
