DTS Sentinel unit serial number:	SN413079Multiplexer serial number:	ORYXHardware model number:	OX4-SRSoftware version number:	ORYX F/W v4.00 Oryx Data Collector v3.7.2.0data status	okinstallation	princeton_trtdifferential loss correction	single-endedforward channel	channel 2reverse channel	N/Adate	2019/09/14time	22:43:34forward acquisition time	60.00reverse acquisition time	0.00gamma	496.2192k internal	0.2323k external	0.2323temperature offset calibration	1.0058default loss term (dB/km)	0.3790temperature slope calibration	1.0000multiplexer offset coefficient	1.0000multiplexer slope coefficient	1.0000fibre end	0.00T internal ref (°C)	32.50T ext. ref 1 (°C)	4.68T ext. ref 2 (°C)	27.50length (m)	temperature (°C)	Stokes	anti-Stokes-747.200	800.000	0.091	-0.274
-746.185	-200.000	-0.002	0.147
-745.171	-47.949	0.182	-0.089
-744.156	113.630	-0.137	0.168
-743.142	-107.556	0.098	0.022
-742.127	75.422	-0.274	0.292
-741.112	-32.915	0.172	-0.096
-740.098	-39.516	-0.273	0.144
-739.083	48.433	-0.257	-0.243
-738.069	-111.351	-0.211	-0.044
-737.054	34.567	0.340	0.300
-736.039	800.000	-0.098	0.374
-735.025	-55.404	0.083	-0.038
-734.010	111.768	-0.160	0.195
-732.996	-70.006	-0.330	-0.127
-731.981	245.288	0.070	-0.119
-730.966	-47.111	-0.221	-0.109
-729.952	-53.398	0.187	-0.086
-728.937	-162.512	-0.310	0.015
-727.923	-42.326	0.040	0.021
-726.908	66.034	-0.116	-0.119
-725.894	-168.739	0.254	0.010
-724.879	12.843	-0.355	0.277
-723.864	-25.828	-0.099	0.059
-722.850	-121.513	0.205	0.034
-721.835	-122.365	0.219	0.036
-720.821	800.000	-0.044	-0.156
-719.806	489.287	-0.126	-0.290
-718.791	303.915	0.104	-0.195
-717.777	800.000	-0.039	-0.157
-716.762	-70.844	-0.128	0.049
-715.748	-200.000	0.023	-0.157
-714.733	-101.169	-0.341	-0.084
-713.718	-156.200	0.253	0.016
-712.704	71.262	-0.059	0.062
-711.689	252.700	0.121	-0.208
-710.675	35.426	-0.162	-0.143
-709.660	-41.377	0.230	-0.119
-708.645	103.633	-0.171	-0.203
-707.631	207.148	0.131	0.205
-706.616	46.231	-0.121	0.113
-705.602	56.365	0.380	0.372
-704.587	800.000	0.071	-0.245
-703.572	-74.213	-0.111	-0.040
-702.558	-61.583	-0.141	-0.060
-701.543	65.906	-0.275	0.281
-700.529	-3.224	0.002	-0.002
-699.514	-90.796	-0.195	-0.057
-698.499	-127.005	-0.189	0.028
-697.485	-110.834	0.166	0.034
-696.470	18.304	0.124	0.100
-695.456	-67.439	0.254	-0.101
-694.441	-200.000	0.058	0.270
-693.426	-200.000	-0.044	-0.259
-692.412	-200.000	-0.032	0.150
-691.397	800.000	0.124	-0.360
-690.383	-121.499	0.337	0.056
-689.368	-159.572	0.225	-0.013
-688.354	-200.000	0.033	-0.268
-687.339	102.741	-0.173	0.204
-686.324	-97.681	0.138	-0.036
-685.310	267.232	-0.108	0.191
-684.295	-108.126	0.136	-0.030
-683.281	-168.186	0.056	-0.002
-682.266	-16.875	0.105	-0.067
-681.251	-26.858	-0.195	-0.115
-680.237	170.572	-0.139	-0.200
-679.222	61.061	0.154	0.154
-678.208	5.781	0.263	0.196
-677.193	-123.864	0.182	-0.029
-676.178	18.101	-0.143	-0.115
-675.164	-129.655	0.257	-0.036
-674.149	-4.188	0.096	-0.067
-673.135	-200.000	0.030	-0.161
-672.120	54.716	-0.084	-0.082
-671.105	-136.701	-0.228	-0.027
-670.091	4.028	-0.245	-0.180
-669.076	-98.371	-0.250	-0.065
-668.062	-200.000	0.000	-0.063
-667.047	164.728	0.118	0.167
-666.032	-200.000	0.042	-0.286
-665.018	112.268	0.128	0.155
-664.003	-22.329	-0.015	0.009
-662.989	-200.000	0.017	0.137
-661.974	258.292	0.333	-0.578
-660.959	720.557	-0.076	-0.204
-659.945	606.494	-0.048	-0.121
-658.930	-86.566	0.184	-0.057
-657.916	-82.753	-0.330	-0.107
-656.901	507.554	-0.141	-0.329
-655.886	18.764	-0.314	-0.253
-654.872	-53.480	0.050	0.023
-653.857	-78.835	-0.078	0.027
-652.843	173.349	-0.071	0.103
-651.828	-200.000	0.173	-0.001
-650.814	800.000	0.044	0.172
-649.799	-200.000	0.040	0.269
-648.784	-159.357	-0.322	0.018
-647.770	800.000	-0.087	0.250
-646.755	800.000	-0.114	-0.397
-645.741	-114.180	-0.211	0.041
-644.726	-6.522	-0.086	-0.059
-643.711	-200.000	-0.057	0.281
-642.697	261.516	-0.041	0.072
-641.682	-47.077	-0.207	-0.102
-640.668	154.261	-0.075	0.104
-639.653	-49.563	0.174	0.083
-638.638	-134.068	-0.250	0.031
-637.624	356.291	-0.173	-0.346
-636.609	-140.413	0.328	-0.034
-635.595	-142.756	-0.212	0.021
-634.580	74.179	-0.256	0.270
-633.565	-167.789	-0.259	0.010
-632.551	-101.411	-0.215	-0.053
-631.536	19.573	0.155	-0.125
-630.522	-200.000	0.007	-0.055
-629.507	-175.145	0.289	0.008
-628.492	-140.959	-0.355	0.037
-627.478	-95.043	-0.179	0.049
-626.463	-200.000	-0.013	-0.311
-625.449	-200.000	0.026	-0.176
-624.434	-200.000	0.040	0.196
-623.419	174.244	-0.129	0.187
-622.405	-100.618	0.230	0.057
-621.390	367.413	-0.023	0.047
-620.376	-200.000	-0.067	-0.373
-619.361	401.680	-0.108	0.228
-618.346	175.222	0.078	0.113
-617.332	-200.000	-0.003	0.123
-616.317	208.791	0.178	0.279
-615.303	-101.344	0.149	-0.037
-614.288	-24.911	-0.123	-0.074
-613.273	88.757	-0.049	-0.055
-612.259	166.374	-0.296	-0.421
-611.244	68.479	-0.073	-0.075
-610.230	-38.907	-0.182	0.096
-609.215	-150.263	0.192	0.015
-608.201	38.835	-0.185	0.166
-607.186	-21.793	0.141	-0.086
-606.171	-200.000	0.004	-0.149
-605.157	104.220	0.061	0.073
-604.142	-130.357	-0.452	0.062
-603.128	-106.533	-0.178	0.040
-602.113	95.874	-0.291	-0.333
-601.098	35.886	0.395	-0.349
-600.084	-200.000	-0.009	0.075
-599.069	74.652	-0.083	0.087
-598.055	-53.962	0.455	-0.208
-597.040	-112.988	-0.324	-0.064
-596.025	-67.519	-0.430	0.169
-595.011	800.000	-0.046	0.151
-593.996	-200.000	0.046	0.331
-592.982	-200.000	-0.017	-0.088
-591.967	139.223	0.101	0.133
-590.952	194.330	0.129	-0.197
-589.938	-186.762	-0.034	0.000
-588.923	-56.158	-0.242	-0.108
-587.909	-114.211	0.190	-0.037
-586.894	84.637	0.233	-0.256
-585.879	30.706	-0.147	0.126
-584.865	-66.810	-0.328	0.130
-583.850	-71.687	0.198	-0.074
-582.836	-73.121	-0.483	0.178
-581.821	217.291	0.079	0.126
-580.806	296.314	-0.061	0.113
-579.792	-200.000	0.014	-0.211
-578.777	-161.899	-0.249	0.013
-577.763	114.484	-0.020	-0.024
-576.748	150.062	-0.111	-0.151
-575.733	-200.000	0.007	-0.030
-574.719	-118.801	0.169	-0.030
-573.704	-200.000	-0.040	-0.206
-572.690	359.615	-0.082	0.165
-571.675	-64.850	0.162	-0.066
-570.661	10.687	0.147	-0.113
-569.646	254.680	-0.246	-0.423
-568.631	102.844	-0.134	-0.158
-567.617	84.005	0.193	0.211
-566.602	-200.000	0.021	0.255
-565.588	5.249	-0.147	-0.109
-564.573	119.366	0.127	0.158
-563.558	-200.000	-0.016	-0.115
-562.544	163.947	0.035	-0.050
-561.529	-200.000	-0.049	0.217
-560.515	551.087	0.073	-0.176
-559.500	-200.000	-0.050	-0.228
-558.485	800.000	-0.073	0.246
-557.471	-200.000	-0.024	-0.491
-556.456	800.000	0.032	0.110
-555.442	800.000	0.085	0.239
-554.427	-200.000	0.014	-0.159
-553.412	-161.136	0.268	-0.014
-552.398	-25.499	0.337	0.200
-551.383	-52.464	0.234	0.108
-550.369	258.645	-0.026	-0.044
-549.354	-95.816	-0.261	0.070
-548.339	-24.660	-0.134	-0.080
-547.325	800.000	0.088	-0.377
-546.310	-64.464	0.105	-0.043
-545.296	-9.195	0.230	-0.154
-544.281	19.852	0.047	-0.038
-543.266	67.181	-0.178	-0.182
-542.252	201.934	0.097	-0.150
-541.237	800.000	-0.163	0.460
-540.223	-200.000	-0.063	0.294
-539.208	-22.493	0.268	-0.162
-538.193	-109.748	-0.270	0.057
-537.179	-43.058	-0.231	0.117
-536.164	800.000	0.100	0.298
-535.150	-68.872	0.334	0.129
-534.135	-200.000	-0.005	0.060
-533.121	41.356	0.075	-0.068
-532.106	119.385	-0.277	0.344
-531.091	-118.840	-0.135	-0.024
-530.077	-30.460	-0.201	0.114
-529.062	-132.525	-0.114	-0.015
-528.048	380.540	-0.070	0.145
-527.033	-72.879	0.200	0.074
-526.018	103.962	-0.107	-0.126
-525.004	-40.689	0.142	0.074
-523.989	501.311	0.137	0.316
-522.975	80.870	-0.071	0.077
-521.960	184.004	-0.109	0.161
-520.945	220.596	-0.274	0.440
-519.931	-97.384	0.451	0.118
-518.916	68.508	-0.213	-0.218
-517.902	800.000	-0.079	0.268
-516.887	119.022	0.054	-0.067
-515.872	-38.186	0.173	0.092
-514.858	51.822	0.047	0.045
-513.843	-77.143	0.281	-0.098
-512.829	-120.652	0.012	0.002
-511.814	-30.544	0.203	-0.115
-510.799	47.496	-0.342	0.319
-509.785	-86.963	0.104	-0.032
-508.770	-114.737	0.357	-0.068
-507.756	-154.989	0.387	-0.025
-506.741	129.778	-0.216	-0.276
-505.726	158.466	-0.081	-0.112
-504.712	253.279	-0.076	0.130
-503.697	-33.943	-0.294	0.162
-502.683	-200.000	0.061	-0.293
-501.668	-51.759	0.083	-0.039
-500.653	-0.833	0.357	0.253
-499.639	-38.480	0.183	0.097
-498.624	356.125	-0.015	-0.031
-497.610	-146.747	-0.358	-0.031
-496.595	-200.000	-0.000	-0.165
-495.581	83.723	-0.058	0.063
-494.566	-102.414	-0.167	-0.040
-493.551	-69.997	0.319	-0.122
-492.537	221.485	0.193	0.310
-491.522	800.000	0.063	0.178
-490.508	168.877	0.127	-0.181
-489.493	113.278	-0.182	-0.221
-488.478	43.879	-0.189	0.174
-487.464	162.325	-0.124	0.174
-486.449	-200.000	-0.045	-0.448
-485.435	64.441	-0.257	-0.259
-484.420	-200.000	-0.041	0.186
-483.405	-200.000	-0.007	0.203
-482.391	-174.716	-0.239	-0.007
-481.376	-31.561	-0.197	-0.110
-480.362	-82.666	0.082	-0.027
-479.347	-200.000	-0.001	-0.055
-478.332	-59.030	0.140	0.061
-477.318	-13.205	-0.332	0.216
-476.303	203.840	0.103	-0.160
-475.289	-62.930	-0.108	-0.045
-474.274	-8.002	0.208	0.140
-473.259	245.597	0.175	-0.294
-472.245	127.441	0.093	-0.118
-471.230	-200.000	-0.061	-0.378
-470.216	-19.291	0.213	0.132
-469.201	83.737	-0.093	0.101
-468.186	-185.066	-0.164	0.003
-467.172	-59.336	-0.327	-0.141
-466.157	328.914	-0.078	0.150
-465.143	-200.000	0.015	0.162
-464.128	-46.308	-0.177	0.087
-463.113	-200.000	-0.033	-0.154
-462.099	-103.637	-0.430	0.101
-461.084	170.586	0.093	-0.133
-460.070	67.472	0.307	-0.313
-459.055	-13.230	-0.095	0.061
-458.040	347.379	0.041	0.081
-457.026	800.000	0.080	-0.221
-456.011	495.623	-0.082	-0.188
-454.997	-112.243	-0.188	0.038
-453.982	229.873	-0.114	0.186
-452.968	565.823	-0.057	-0.138
-451.953	-51.939	0.068	-0.032
-450.938	-200.000	-0.027	-0.449
-449.924	144.073	-0.151	-0.201
-448.909	-8.329	-0.093	0.062
-447.895	-132.452	0.257	0.033
-446.880	-19.102	-0.384	-0.238
-445.865	2.958	-0.104	0.076
-444.851	-200.000	0.027	-0.125
-443.836	800.000	-0.051	0.146
-442.822	-46.432	-0.136	0.066
-441.807	-178.421	0.264	0.006
-440.792	25.639	0.247	-0.205
-439.778	-101.775	-0.168	0.041
-438.763	314.431	0.040	-0.075
-437.749	-39.894	0.248	-0.129
-436.734	307.747	0.100	-0.186
-435.719	-200.000	0.009	0.052
-434.705	240.026	-0.084	0.140
-433.690	440.419	0.163	-0.356
-432.676	-151.477	-0.273	0.020
-431.661	578.576	-0.028	-0.069
-430.646	-27.575	-0.047	-0.027
-429.632	-141.865	-0.081	0.008
-428.617	126.929	-0.064	0.081
-427.603	723.236	-0.035	0.094
-426.588	-1.259	0.194	0.137
-425.573	-200.000	0.001	0.107
-424.559	132.078	0.059	-0.076
-423.544	-200.000	0.040	-0.227
-422.530	9.714	0.182	0.137
-421.515	-129.735	0.315	-0.043
-420.500	369.894	-0.119	-0.240
-419.486	78.835	0.221	0.236
-418.471	-38.501	0.145	-0.076
-417.457	-79.410	0.193	0.065
-416.442	-200.000	-0.005	0.140
-415.428	-36.979	-0.224	-0.119
-414.413	800.000	0.102	0.286
-413.398	-200.000	-0.024	0.366
-412.384	167.038	0.096	0.135
-411.369	278.158	0.132	0.234
-410.355	-200.000	-0.004	0.149
-409.340	795.150	-0.120	-0.330
-408.325	278.155	-0.108	0.192
-407.311	-200.000	0.022	0.276
-406.296	59.741	0.070	0.069
-405.282	-89.712	0.093	0.027
-404.267	-200.000	-0.028	0.352
-403.252	-16.978	0.188	0.118
-402.238	73.912	0.166	-0.173
-401.223	-62.765	0.310	-0.128
-400.209	305.768	-0.069	-0.127
-399.194	-63.327	0.257	-0.105
-398.179	-186.717	-0.279	0.004
-397.165	12.173	-0.109	-0.083
-396.150	-114.324	0.170	0.033
-395.136	800.000	0.041	-0.139
-394.121	-15.116	-0.384	0.245
-393.106	-78.481	0.373	-0.127
-392.092	-23.100	0.253	0.152
-391.077	108.328	0.121	-0.144
-390.063	692.072	0.184	-0.481
-389.048	707.818	0.054	-0.143
-388.033	242.015	0.023	0.039
-387.019	-143.219	-0.197	0.019
-386.004	-200.000	0.050	0.349
-384.990	20.774	0.062	-0.050
-383.975	-200.000	-0.020	0.148
-382.960	375.866	-0.162	-0.330
-381.946	-200.000	-0.004	0.113
-380.931	47.975	-0.368	0.342
-379.917	-200.000	-0.034	-0.353
-378.902	800.000	0.072	0.270
-377.888	576.389	0.023	-0.057
-376.873	800.000	0.040	-0.163
-375.858	-37.260	0.093	0.050
-374.844	-30.142	0.191	-0.108
-373.829	-126.138	0.145	-0.022
-372.815	564.384	-0.137	0.331
-371.800	-163.570	0.254	-0.012
-370.785	-106.423	0.157	-0.035
-369.771	-135.832	-0.246	-0.029
-368.756	800.000	0.088	-0.244
-367.742	115.140	-0.151	0.183
-366.727	800.000	-0.072	-0.204
-365.712	-77.256	0.187	-0.065
-364.698	107.968	-0.040	-0.047
-363.683	800.000	0.043	-0.153
-362.669	-200.000	0.039	0.569
-361.654	-126.837	-0.091	0.013
-360.639	370.858	0.101	0.203
-359.625	-147.184	0.349	-0.030
-358.610	369.720	-0.207	-0.416
-357.596	800.000	0.012	-0.040
-356.581	157.035	-0.167	0.230
-355.566	-200.000	-0.108	-0.476
-354.552	-200.000	0.003	0.436
-353.537	-90.655	-0.021	-0.006
-352.523	464.076	0.115	-0.255
-351.508	200.357	-0.187	-0.285
-350.493	-136.635	0.334	-0.038
-349.479	-75.776	-0.240	-0.085
-348.464	12.023	0.167	-0.127
-347.450	-200.000	0.031	0.195
-346.435	-81.161	0.288	0.095
-345.420	-185.367	0.091	0.001
-344.406	-122.367	0.326	0.053
-343.391	96.385	0.393	-0.447
-342.377	16.539	-0.148	0.116
-341.362	-200.000	-0.022	-0.106
-340.348	35.066	-0.200	0.174
-339.333	63.771	0.085	0.085
-338.318	-200.000	-0.031	0.366
-337.304	31.260	-0.250	-0.213
-336.289	435.937	-0.180	0.389
-335.275	-200.000	0.003	-0.060
-334.260	-134.854	-0.101	-0.012
-333.245	63.288	0.071	0.071
-332.231	233.054	-0.075	0.123
-331.216	-200.000	0.015	0.092
-330.202	-200.000	-0.004	-0.046
-329.187	13.672	0.107	0.083
-328.172	-14.937	0.289	-0.184
-327.158	23.279	0.016	-0.013
-326.143	800.000	0.095	-0.401
-325.129	206.550	-0.105	-0.162
-324.114	-200.000	-0.075	0.345
-323.099	10.226	0.173	-0.131
-322.085	-56.147	-0.131	-0.058
-321.070	170.480	0.096	-0.137
-320.056	-75.656	0.116	0.041
-319.041	87.737	0.082	0.090
-318.026	116.390	0.051	-0.063
-317.012	800.000	0.036	-0.131
-315.997	-200.000	-0.059	0.344
-314.983	800.000	-0.070	-0.302
-313.968	-127.132	0.374	-0.054
-312.953	47.081	-0.116	-0.107
-311.939	28.389	0.076	-0.064
-310.924	800.000	0.040	0.121
-309.910	17.544	0.144	-0.114
-308.895	228.603	-0.050	0.081
-307.880	74.804	0.166	-0.173
-306.866	161.504	0.104	-0.145
-305.851	-52.226	-0.118	-0.054
-304.837	-148.364	0.179	0.015
-303.822	755.024	0.061	0.164
-302.807	422.273	0.124	0.264
-301.793	-46.930	-0.140	0.068
-300.778	-4.083	0.016	0.011
-299.764	-200.000	-0.016	-0.093
-298.749	800.000	0.030	-0.109
-297.735	-102.747	0.090	0.021
-296.720	366.474	-0.138	0.276
-295.705	-63.113	-0.074	0.030
-294.691	-118.217	0.269	-0.048
-293.676	-115.542	-0.401	-0.075
-292.662	479.063	-0.058	-0.130
-291.647	-62.306	-0.167	-0.069
-290.632	-9.828	-0.181	-0.119
-289.618	176.448	0.159	-0.230
-288.603	800.000	0.028	0.104
-287.589	800.000	0.069	0.252
-286.574	-200.000	-0.057	0.307
-285.559	-13.903	-0.123	0.079
-284.545	-200.000	0.014	0.337
-283.530	-200.000	0.013	0.256
-282.516	16.430	-0.100	0.079
-281.501	-53.033	-0.419	-0.191
-280.486	-174.549	-0.091	0.003
-279.472	285.991	0.079	-0.142
-278.457	-110.830	0.558	0.114
-277.443	-200.000	-0.000	-0.039
-276.428	52.065	-0.036	-0.034
-275.413	2.738	-0.157	-0.113
-274.399	173.738	-0.068	-0.098
-273.384	161.567	0.125	0.174
-272.370	-200.000	-0.004	0.173
-271.355	-200.000	-0.010	0.176
-270.340	800.000	-0.087	-0.262
-269.326	-200.000	0.016	-0.288
-268.311	-200.000	-0.006	-0.169
-267.297	45.296	0.043	0.039
-266.282	-200.000	-0.052	-0.270
-265.267	478.210	0.084	-0.187
-264.253	210.828	0.079	0.123
-263.238	800.000	-0.098	-0.306
-262.224	-85.659	-0.098	0.030
-261.209	14.648	-0.091	0.070
-260.195	-200.000	-0.074	-0.345
-259.180	18.133	0.217	-0.171
-258.165	-31.398	-0.076	0.042
-257.151	227.135	-0.125	0.201
-256.136	60.086	0.113	0.111
-255.122	4.059	0.086	0.062
-254.107	-200.000	0.002	0.066
-253.092	157.710	-0.117	-0.161
-252.078	-140.151	0.162	-0.017
-251.063	-66.132	0.046	-0.018
-250.049	-200.000	0.012	0.091
-249.034	76.455	-0.070	0.073
-248.019	-7.642	-0.186	-0.125
-247.005	-154.569	-0.270	0.018
-245.990	-200.000	-0.076	0.380
-244.976	-200.000	0.050	0.571
-243.961	209.422	0.207	-0.321
-242.946	-96.596	0.163	0.043
-241.932	-129.664	0.076	0.010
-240.917	52.628	-0.100	0.095
-239.903	800.000	-0.032	0.105
-238.888	-85.781	-0.304	-0.093
-237.873	98.280	0.118	-0.134
-236.859	-200.000	0.020	0.095
-235.844	-200.000	0.017	0.088
-234.830	-200.000	0.034	-0.177
-233.815	-117.479	-0.201	0.036
-232.800	-200.000	0.000	-0.154
-231.786	-147.409	0.262	0.022
-230.771	-200.000	-0.042	0.250
-229.757	157.763	-0.276	-0.379
-228.742	-200.000	-0.074	-0.343
-227.727	-17.423	0.222	0.138
-226.713	17.975	0.360	0.284
-225.698	-51.072	-0.160	0.074
-224.684	-34.261	-0.279	0.152
-223.669	129.435	0.155	0.195
-222.655	-70.801	-0.057	0.021
-221.640	575.451	0.102	0.247
-220.625	-98.648	0.104	-0.026
-219.611	-36.876	0.162	-0.086
-218.596	800.000	-0.063	-0.269
-217.582	155.148	0.107	0.146
-216.567	117.772	-0.166	0.202
-215.552	15.512	0.142	-0.110
-214.538	-200.000	0.014	0.111
-213.523	800.000	-0.042	0.181
-212.509	-75.594	0.324	0.114
-211.494	800.000	0.009	-0.032
-210.479	800.000	-0.120	0.356
-209.465	267.812	0.139	0.240
-208.450	-155.447	0.140	0.009
-207.436	28.623	0.163	0.136
-206.421	-14.841	0.235	0.149
-205.406	-200.000	-0.008	-0.250
-204.392	-79.515	-0.303	-0.101
-203.377	401.781	-0.233	-0.483
-202.363	565.804	0.211	-0.505
-201.348	37.273	-0.270	0.236
-200.333	5.991	-0.235	-0.172
-199.319	203.079	0.110	-0.169
-198.304	771.647	0.141	0.380
-197.290	-200.000	-0.036	0.209
-196.275	175.522	0.058	0.083
-195.260	331.155	-0.115	0.219
-194.246	-200.000	-0.022	-0.142
-193.231	410.732	0.138	-0.289
-192.217	-200.000	0.005	0.148
-191.202	800.000	-0.033	-0.137
-190.187	-68.323	-0.192	0.074
-189.173	13.756	0.132	-0.101
-188.158	-99.387	0.122	0.030
-187.144	-110.254	-0.208	0.043
-186.129	-107.424	0.280	-0.061
-185.114	-130.482	0.178	0.024
-184.100	-65.776	-0.135	0.053
-183.085	-138.934	-0.250	-0.027
-182.071	-77.145	-0.169	-0.058
-181.056	-107.213	0.281	0.061
-180.042	290.482	0.189	0.340
-179.027	-16.062	0.061	-0.038
-178.012	-40.394	0.151	0.078
-176.998	239.381	-0.063	0.104
-175.983	-76.744	0.159	0.055
-174.969	-129.062	0.232	-0.032
-173.954	-113.186	0.427	-0.083
-172.939	-200.000	-0.074	0.331
-171.925	-200.000	0.002	-0.485
-170.910	-90.288	0.080	0.023
-169.896	272.287	-0.110	-0.192
-168.881	-123.911	0.625	0.097
-167.866	-46.933	-0.306	-0.148
-166.852	86.359	-0.124	-0.135
-165.837	-96.546	-0.212	0.055
-164.823	-12.059	-0.214	0.139
-163.808	128.833	0.008	-0.010
-162.793	-185.328	0.199	0.003
-161.779	-45.209	-0.080	0.039
-160.764	-200.000	-0.039	0.182
-159.750	800.000	0.087	-0.373
-158.735	-107.969	0.220	-0.047
-157.720	-40.490	-0.301	0.154
-156.706	800.000	-0.072	-0.208
-155.691	-36.496	-0.253	0.135
-154.677	-76.821	-0.276	-0.095
-153.662	689.808	0.074	0.190
-152.647	-200.000	-0.012	-0.225
-151.633	23.160	0.186	-0.151
-150.618	-77.048	-0.046	0.016
-149.604	95.079	0.036	0.041
-148.589	550.142	0.009	0.022
-147.574	76.328	0.201	0.210
-146.560	-200.000	0.241	0.001
-145.545	-95.374	0.251	0.067
-144.531	769.549	-0.088	0.237
-143.516	-200.000	0.086	0.456
-142.502	-176.493	-0.306	-0.008
-141.487	347.089	0.137	-0.266
-140.472	12.406	0.295	-0.225
-139.458	39.672	-0.084	0.074
-138.443	-104.145	-0.256	0.059
-137.429	92.942	-0.056	0.063
-136.414	27.101	0.139	-0.115
-135.399	-117.088	0.212	-0.038
-134.385	-44.373	0.161	0.080
-133.370	-164.269	0.318	0.014
-132.356	-129.377	0.118	-0.016
-131.341	367.033	0.101	-0.201
-130.326	-0.911	-0.411	0.287
-129.312	-200.000	-0.010	0.046
-128.297	19.122	-0.168	0.133
-127.283	153.264	-0.153	-0.207
-126.268	-200.000	0.000	-0.054
-125.253	-84.782	0.092	0.029
-124.239	554.938	0.077	0.182
-123.224	57.537	0.151	-0.145
-122.210	-100.704	0.296	0.072
