DTS Sentinel unit serial number:	SN413079Multiplexer serial number:	ORYXHardware model number:	OX4-SRSoftware version number:	ORYX F/W v4.00 Oryx Data Collector v3.7.2.0data status	okinstallation	princeton_trtdifferential loss correction	single-endedforward channel	channel 2reverse channel	N/Adate	2019/09/15time	00:23:34forward acquisition time	60.00reverse acquisition time	0.00gamma	496.2192k internal	0.2324k external	0.2324temperature offset calibration	1.0044default loss term (dB/km)	0.3790temperature slope calibration	1.0000multiplexer offset coefficient	1.0000multiplexer slope coefficient	1.0000fibre end	0.00T internal ref (°C)	32.14T ext. ref 1 (°C)	4.58T ext. ref 2 (°C)	27.17length (m)	temperature (°C)	Stokes	anti-Stokes-747.200	-44.679	0.269	0.135
-746.185	-66.305	-0.343	0.138
-745.171	800.000	-0.058	-0.231
-744.156	-69.074	0.115	0.045
-743.142	-2.784	-0.131	0.093
-742.127	-45.960	0.201	0.100
-741.112	89.848	-0.104	0.118
-740.098	350.680	-0.131	0.261
-739.083	789.452	0.098	-0.270
-738.069	751.227	0.061	0.166
-737.054	193.697	-0.042	-0.064
-736.039	-8.574	-0.155	-0.105
-735.025	-200.000	0.025	-0.293
-734.010	-78.538	0.153	-0.053
-732.996	-18.161	-0.233	-0.147
-731.981	12.117	-0.205	0.159
-730.966	-140.015	0.218	-0.023
-729.952	-129.915	0.316	0.044
-728.937	553.770	-0.101	0.245
-727.923	123.532	-0.202	0.255
-726.908	-200.000	-0.419	-0.000
-725.894	-120.496	-0.106	-0.018
-724.879	389.010	-0.088	-0.183
-723.864	-157.724	-0.139	0.008
-722.850	8.681	-0.084	0.064
-721.835	-200.000	-0.008	0.265
-720.821	-59.847	0.233	0.101
-719.806	406.038	-0.079	-0.168
-718.791	390.492	-0.057	-0.120
-717.777	-178.881	0.232	-0.005
-716.762	-90.988	-0.264	-0.076
-715.748	-20.673	-0.135	-0.084
-714.733	-135.936	-0.045	0.005
-713.718	157.042	0.204	0.284
-712.704	-200.000	0.000	0.125
-711.689	-176.513	-0.250	-0.006
-710.675	-33.250	-0.045	0.025
-709.660	5.606	0.212	0.158
-708.645	1.375	0.066	-0.048
-707.631	-200.000	-0.010	0.159
-706.616	-200.000	-0.009	0.208
-705.602	788.926	-0.068	0.190
-704.587	400.984	-0.093	0.196
-703.572	-68.057	-0.285	0.112
-702.558	209.750	-0.090	0.142
-701.543	-200.000	-0.015	0.101
-700.529	-98.774	-0.037	-0.010
-699.514	-91.331	0.187	-0.054
-698.499	-61.128	0.434	0.184
-697.485	169.782	-0.293	-0.422
-696.470	306.056	0.091	-0.171
-695.456	800.000	-0.063	-0.207
-694.441	500.775	-0.154	0.359
-693.426	224.333	-0.136	0.222
-692.412	-200.000	0.006	-0.137
-691.397	52.773	0.170	-0.164
-690.383	-76.861	0.077	0.027
-689.368	42.476	0.188	0.172
-688.354	7.039	-0.192	0.144
-687.339	800.000	-0.025	-0.096
-686.324	181.478	0.083	-0.123
-685.310	-200.000	-0.004	-0.127
-684.295	-200.000	0.059	-0.373
-683.281	-6.640	0.078	-0.054
-682.266	800.000	-0.036	-0.146
-681.251	717.808	-0.105	-0.282
-680.237	800.000	-0.085	0.243
-679.222	800.000	-0.103	-0.346
-678.208	14.792	0.184	-0.145
-677.193	-200.000	-0.040	-0.273
-676.178	154.059	0.110	-0.152
-675.164	-115.047	-0.144	0.027
-674.149	-115.748	-0.193	0.036
-673.135	94.607	0.102	-0.117
-672.120	514.378	0.133	0.312
-671.105	800.000	-0.016	-0.048
-670.091	-31.393	-0.086	-0.049
-669.076	-33.423	-0.185	-0.103
-668.062	-123.338	0.062	0.010
-667.047	-200.000	-0.043	-0.322
-666.032	-83.104	-0.376	-0.122
-665.018	-200.000	-0.045	-0.215
-664.003	6.333	-0.107	0.080
-662.989	-90.445	0.123	0.036
-661.974	225.116	0.046	-0.076
-660.959	-200.000	-0.013	0.128
-659.945	-110.968	0.185	0.038
-658.930	800.000	0.022	-0.064
-657.916	646.292	0.042	-0.107
-656.901	496.261	-0.121	-0.281
-655.886	-158.879	0.170	0.010
-654.872	686.397	0.034	0.090
-653.857	609.108	-0.141	-0.354
-652.843	81.497	-0.253	0.275
-651.828	-78.550	-0.197	0.068
-650.814	-62.953	0.198	-0.082
-649.799	-162.475	-0.178	0.009
-648.784	-57.346	-0.363	-0.160
-647.770	-81.979	-0.391	-0.129
-646.755	-200.000	0.463	0.002
-645.741	-200.000	-0.042	-0.184
-644.726	239.719	-0.041	-0.068
-643.711	-92.837	0.173	0.049
-642.697	31.020	-0.192	0.165
-641.682	-54.223	-0.282	-0.129
-640.668	-4.621	0.216	-0.150
-639.653	106.256	0.033	-0.039
-638.638	151.728	-0.173	0.237
-637.624	-200.000	0.021	0.222
-636.609	-31.553	0.237	0.134
-635.595	480.926	0.088	-0.200
-634.580	-170.331	-0.148	0.005
-633.565	-38.615	-0.188	0.100
-632.551	37.492	0.107	0.095
-631.536	79.853	-0.130	-0.140
-630.522	442.191	0.189	-0.415
-629.507	-200.000	-0.011	0.354
-628.492	3.465	0.083	-0.061
-627.478	-154.736	-0.072	-0.005
-626.463	101.633	-0.312	-0.366
-625.449	-118.129	0.117	-0.021
-624.434	-94.185	-0.096	-0.027
-623.419	-200.000	-0.045	0.210
-622.405	-200.000	-0.003	0.457
-621.390	-117.800	0.208	0.037
-620.376	222.608	-0.214	-0.346
-619.361	15.159	-0.117	0.093
-618.346	-200.000	0.046	0.229
-617.332	-128.202	-0.345	-0.050
-616.317	131.811	0.199	0.258
-615.303	-200.000	0.015	-0.117
-614.288	-200.000	-0.019	0.156
-613.273	-62.417	-0.311	0.130
-612.259	-58.266	-0.236	0.103
-611.244	-200.000	-0.080	0.385
-610.230	154.041	-0.087	0.120
-609.215	-200.000	0.051	-0.256
-608.201	-124.442	-0.270	-0.042
-607.186	89.949	0.227	-0.255
-606.171	176.995	-0.156	0.227
-605.157	91.919	-0.085	-0.097
-604.142	-71.519	-0.231	0.087
-603.128	-73.230	-0.296	-0.109
-602.113	145.906	-0.068	0.092
-601.098	59.005	0.135	-0.133
-600.084	-11.286	0.370	-0.244
-599.069	-200.000	0.010	-0.190
-598.055	106.532	-0.204	-0.243
-597.040	-72.451	-0.232	-0.086
-596.025	525.064	-0.126	0.297
-595.011	800.000	-0.008	0.025
-593.996	-111.188	-0.182	-0.037
-592.982	-123.525	-0.162	0.026
-591.967	-200.000	0.049	-0.245
-590.952	27.077	-0.019	-0.016
-589.938	100.885	0.126	0.147
-588.923	166.746	-0.075	-0.106
-587.909	800.000	-0.031	0.088
-586.894	212.781	0.107	0.170
-585.879	123.811	-0.099	-0.125
-584.865	-200.000	0.041	-0.278
-583.850	-184.379	-0.219	0.004
-582.836	800.000	-0.084	0.308
-581.821	-111.028	0.306	0.063
-580.806	-24.005	0.109	-0.065
-579.792	95.454	0.278	0.318
-578.777	-63.108	0.098	-0.040
-577.763	205.069	-0.220	-0.343
-576.748	-53.832	-0.248	0.114
-575.733	554.660	-0.100	-0.241
-574.719	-200.000	-0.029	-0.297
-573.704	184.962	-0.146	0.217
-572.690	-200.000	0.064	-0.301
-571.675	177.633	0.038	-0.056
-570.661	399.617	-0.147	-0.310
-569.646	67.362	0.136	0.139
-568.631	-200.000	-0.015	0.259
-567.617	28.652	0.095	0.081
-566.602	84.365	-0.094	-0.103
-565.588	136.815	-0.143	0.187
-564.573	340.456	0.131	0.257
-563.558	-200.000	-0.019	0.220
-562.544	163.506	-0.018	-0.025
-561.529	-54.100	-0.193	-0.088
-560.515	446.842	0.092	0.202
-559.500	-200.000	0.028	-0.132
-558.485	-89.132	0.137	-0.041
-557.471	-33.447	-0.230	0.128
-556.456	100.231	0.052	0.061
-555.442	-28.218	-0.187	0.108
-554.427	-178.594	0.345	0.008
-553.412	399.256	-0.144	-0.303
-552.398	-118.173	-0.446	0.080
-551.383	-76.435	-0.151	0.053
-550.369	381.668	0.138	0.284
-549.354	-107.474	0.469	0.103
-548.339	-57.082	-0.128	0.056
-547.325	286.730	-0.158	-0.286
-546.310	-200.000	-0.010	-0.160
-545.296	-200.000	0.007	-0.384
-544.281	800.000	-0.082	0.331
-543.266	207.354	0.189	0.295
-542.252	800.000	-0.016	0.049
-541.237	800.000	0.051	-0.209
-540.223	52.554	-0.106	-0.101
-539.208	-200.000	-0.008	0.186
-538.193	786.487	-0.083	-0.227
-537.179	-200.000	-0.055	-0.380
-536.164	-141.446	-0.226	-0.023
-535.150	328.336	0.051	-0.098
-534.135	800.000	-0.052	0.197
-533.121	-109.302	-0.223	-0.047
-532.106	224.523	0.154	0.249
-531.091	-78.405	-0.105	0.036
-530.077	-36.011	0.221	-0.120
-529.062	289.795	-0.120	0.218
-528.048	169.780	-0.023	0.033
-527.033	247.813	0.175	-0.296
-526.018	800.000	-0.106	-0.360
-525.004	165.080	0.152	-0.215
-523.989	-164.341	-0.384	0.018
-522.975	277.170	0.039	0.070
-521.960	-175.663	-0.186	0.005
-520.945	-200.000	0.018	-0.184
-519.931	113.705	-0.313	-0.380
-518.916	-67.250	-0.126	0.050
-517.902	-200.000	0.051	0.376
-516.887	-40.005	0.144	0.075
-515.872	-59.816	-0.212	-0.091
-514.858	10.083	-0.100	-0.076
-513.843	27.980	-0.079	0.067
-512.829	159.384	-0.044	0.062
-511.814	-45.175	0.106	0.053
-510.799	-200.000	0.017	-0.396
-509.785	-141.332	0.095	0.010
-508.770	154.641	-0.049	0.068
-507.756	-22.972	-0.190	-0.115
-506.741	-200.000	-0.028	-0.177
-505.726	587.880	0.110	0.272
-504.712	-35.843	-0.361	-0.196
-503.697	-142.460	0.261	-0.026
-502.683	449.997	0.039	0.085
-501.668	-141.719	0.183	-0.018
-500.653	-174.885	0.149	0.004
-499.639	-200.000	0.002	-0.073
-498.624	-95.007	-0.209	0.056
-497.610	20.119	-0.350	-0.282
-496.595	114.489	-0.118	-0.144
-495.581	24.721	0.063	0.052
-494.566	361.789	0.103	-0.207
-493.551	-200.000	-0.324	0.000
-492.537	-137.185	-0.191	-0.022
-491.522	618.778	0.131	-0.329
-490.508	757.958	0.062	-0.167
-489.493	800.000	0.056	0.234
-488.478	-108.301	-0.220	0.047
-487.464	-147.840	-0.270	-0.023
-486.449	-2.338	-0.190	0.133
-485.435	-200.000	0.006	0.074
-484.420	108.434	-0.137	0.164
-483.405	-73.539	0.140	-0.051
-482.391	-200.000	0.050	0.296
-481.376	-90.006	0.337	0.098
-480.362	-138.381	0.438	-0.048
-479.347	-11.764	-0.177	-0.116
-478.332	286.963	0.141	0.254
-477.318	555.928	-0.046	0.110
-476.303	-140.234	0.233	-0.024
-475.289	-41.729	-0.193	0.099
-474.274	-97.163	0.162	-0.042
-473.259	-28.623	-0.215	0.124
-472.245	-16.457	0.090	-0.057
-471.230	-22.843	0.357	0.215
-470.216	38.406	0.300	-0.267
-469.201	41.518	-0.037	-0.034
-468.186	29.219	-0.097	-0.082
-467.172	-146.843	0.334	0.029
-466.157	-54.710	0.220	0.099
-465.143	50.684	0.169	-0.160
-464.128	-200.000	0.341	0.000
-463.113	365.285	0.101	0.203
-462.099	-57.394	0.084	0.037
-461.084	268.044	0.099	0.174
-460.070	56.749	-0.072	0.070
-459.055	-25.637	0.047	0.027
-458.040	-24.162	0.042	0.025
-457.026	-117.429	0.425	0.077
-456.011	339.338	-0.021	-0.041
-454.997	484.664	0.075	-0.171
-453.982	-200.000	-0.010	0.094
-452.968	-200.000	-0.010	-0.073
-451.953	125.925	0.066	0.084
-450.938	167.124	-0.069	-0.098
-449.924	-60.624	-0.187	-0.079
-448.909	-200.000	0.061	0.283
-447.895	137.575	-0.130	0.170
-446.880	92.927	0.178	-0.201
-445.865	7.193	-0.092	-0.068
-444.851	130.359	-0.171	0.218
-443.836	800.000	0.086	-0.284
-442.822	-144.223	0.103	0.010
-441.807	33.778	-0.035	-0.030
-440.792	14.703	0.099	-0.077
-439.778	284.134	0.131	-0.235
-438.763	-173.449	0.119	-0.004
-437.749	-24.835	0.339	0.201
-436.734	-200.000	-0.006	0.170
-435.719	31.902	-0.095	-0.081
-434.705	-1.833	-0.152	-0.107
-433.690	-200.000	-0.001	0.152
-432.676	800.000	-0.029	-0.123
-431.661	-165.962	-0.187	-0.008
-430.646	-142.643	-0.145	-0.014
-429.632	-16.462	-0.234	-0.148
-428.617	-167.624	-0.227	0.009
-427.603	164.228	-0.125	-0.175
-426.588	-146.845	-0.153	0.013
-425.573	117.785	-0.136	-0.166
-424.559	-200.000	0.050	0.238
-423.544	800.000	0.037	0.146
-422.530	-91.752	0.016	0.005
-421.515	800.000	-0.026	-0.074
-420.500	76.545	0.300	-0.316
-419.486	278.853	0.065	0.116
-418.471	411.882	-0.145	0.308
-417.457	-200.000	-0.009	0.072
-416.442	61.164	-0.240	0.238
-415.428	347.293	0.109	-0.214
-414.413	-10.111	-0.182	0.120
-413.398	41.800	-0.149	-0.134
-412.384	156.077	0.092	-0.127
-411.369	800.000	0.070	0.229
-410.355	149.845	0.091	-0.123
-409.340	-200.000	-0.010	-0.238
-408.325	-134.396	-0.065	0.008
-407.311	406.704	0.202	-0.425
-406.296	800.000	-0.077	-0.272
-405.282	-53.093	-0.136	-0.062
-404.267	-23.928	0.110	-0.066
-403.252	-82.471	-0.155	0.050
-402.238	-4.341	0.157	0.108
-401.223	259.323	0.167	-0.287
-400.209	-62.286	0.449	-0.186
-399.194	-200.000	-0.021	-0.151
-398.179	-58.557	0.033	0.014
-397.165	47.347	-0.176	0.163
-396.150	-200.000	0.013	0.091
-395.136	800.000	-0.080	0.250
-394.121	-104.379	0.196	0.045
-393.106	800.000	0.070	-0.194
-392.092	-75.910	0.253	-0.089
-391.077	169.098	-0.239	0.339
-390.063	31.127	0.246	0.210
-389.048	-116.641	-0.299	-0.055
-388.033	-200.000	0.055	-0.545
-387.019	-18.092	0.111	-0.069
-386.004	53.353	0.119	0.114
-384.990	-75.071	-0.380	-0.135
-383.975	30.497	-0.300	-0.256
-382.960	20.560	0.285	-0.229
-381.946	246.097	-0.124	-0.208
-380.931	-132.305	0.165	0.021
-379.917	800.000	-0.101	0.315
-378.902	146.744	-0.253	-0.339
-377.888	-18.177	-0.239	0.149
-376.873	171.331	0.132	0.189
-375.858	570.274	-0.096	0.231
-374.844	30.215	0.397	0.337
-373.829	-200.000	-0.034	0.227
-372.815	-200.000	0.009	-0.206
-371.800	-149.081	-0.156	-0.012
-370.785	-200.000	-0.024	0.179
-369.771	117.805	0.146	-0.179
-368.756	355.575	-0.122	-0.242
-367.742	800.000	-0.089	0.269
-366.727	162.715	-0.084	0.117
-365.712	-48.013	-0.139	0.067
-364.698	-9.990	-0.158	-0.104
-363.683	-172.200	0.208	0.007
-362.669	-193.440	-0.056	0.000
-361.654	800.000	-0.018	0.059
-360.639	800.000	0.033	-0.140
-359.625	-200.000	-0.029	-0.302
-358.610	-83.770	-0.098	0.031
-357.596	256.391	0.018	0.032
-356.581	285.111	-0.087	-0.156
-355.566	367.590	-0.083	-0.167
-354.552	-95.212	-0.299	-0.080
-353.537	-200.000	-0.034	-0.278
-352.523	183.210	0.028	-0.042
-351.508	111.180	0.126	0.151
-350.493	-200.000	-0.024	0.261
-349.479	53.658	-0.238	0.227
-348.464	581.796	-0.027	0.065
-347.450	-9.975	-0.420	0.278
-346.435	-46.103	-0.264	-0.129
-345.420	-2.297	-0.008	0.005
-344.406	273.152	-0.347	0.609
-343.391	-200.000	0.018	-0.165
-342.377	-66.342	-0.259	-0.102
-341.362	357.218	0.069	0.136
-340.348	-140.535	0.291	-0.030
-339.333	243.552	0.108	-0.180
-338.318	249.980	0.180	0.304
-337.304	7.588	0.215	0.160
-336.289	26.983	-0.126	0.105
-335.275	-8.548	-0.386	-0.257
-334.260	-200.000	-0.013	-0.069
-333.245	-115.134	-0.062	0.012
-332.231	19.289	-0.200	0.160
-331.216	36.486	-0.104	0.091
-330.202	-200.000	0.016	-0.073
-329.187	-151.430	-0.083	-0.006
-328.172	-71.630	0.183	-0.068
-327.158	129.856	0.223	0.283
-326.143	212.615	0.107	-0.167
-325.129	338.341	-0.094	-0.181
-324.114	432.975	-0.101	0.218
-323.099	123.315	0.042	0.052
-322.085	800.000	0.111	0.401
-321.070	800.000	0.084	0.333
-320.056	-72.033	0.174	0.064
-319.041	-88.014	-0.047	-0.014
-318.026	-132.456	-0.067	-0.009
-317.012	-120.016	-0.009	0.002
-315.997	80.347	-0.153	-0.164
-314.983	-200.000	0.021	0.123
-313.968	85.255	0.161	0.176
-312.953	-200.000	0.030	0.238
-311.939	26.278	0.177	0.147
-310.924	255.084	-0.096	-0.162
-309.910	-165.873	-0.326	-0.014
-308.895	-200.000	0.012	0.136
-307.880	248.623	-0.096	0.161
-306.866	-200.000	-0.014	-0.161
-305.851	-9.772	0.277	-0.183
-304.837	242.638	-0.147	-0.244
-303.822	-57.074	0.173	0.076
-302.807	800.000	0.105	0.395
-301.793	488.575	0.108	0.245
-300.778	-153.569	0.013	-0.001
-299.764	46.904	0.020	-0.018
-298.749	-200.000	0.006	-0.459
-297.735	-96.028	0.247	0.065
-296.720	-157.333	-0.049	0.003
-295.705	-5.584	-0.168	0.114
-294.691	47.820	0.128	0.119
-293.676	-35.299	-0.164	0.089
-292.662	37.399	0.047	0.041
-291.647	-88.334	0.304	0.090
-290.632	65.397	-0.083	-0.083
-289.618	-131.520	0.186	0.024
-288.603	193.475	0.173	-0.259
-287.589	33.382	0.178	-0.154
-286.574	-114.620	0.202	-0.038
-285.559	-200.000	0.085	0.423
-284.545	404.843	-0.123	-0.258
-283.530	-52.972	0.104	0.048
-282.516	-154.546	0.168	0.011
-281.501	-200.000	0.016	0.130
-280.486	-26.218	0.244	0.142
-279.472	-118.332	0.273	-0.048
-278.457	-85.022	0.110	0.034
-277.443	-200.000	0.051	-0.476
-276.428	174.652	-0.112	0.160
-275.413	800.000	-0.080	-0.225
-274.399	350.827	-0.024	-0.047
-273.384	231.365	0.173	0.281
-272.370	109.916	0.075	0.089
-271.355	7.276	-0.145	-0.107
-270.340	-75.057	0.195	-0.069
-269.326	789.778	-0.058	0.159
-268.311	-3.671	0.378	0.260
-267.297	9.348	-0.322	0.242
-266.282	-81.640	-0.129	0.042
-265.267	19.615	-0.060	0.048
-264.253	-161.868	-0.252	-0.013
-263.238	103.622	0.155	0.180
-262.224	-136.369	-0.081	0.009
-261.209	-183.659	0.033	-0.001
-260.195	98.080	0.126	-0.144
-259.180	381.568	-0.060	0.121
-258.165	231.899	0.162	-0.263
-257.151	289.028	-0.166	0.298
-256.136	326.931	0.059	0.112
-255.122	720.253	-0.074	-0.194
-254.107	438.661	0.079	-0.171
-253.092	83.140	-0.150	0.161
-252.078	-50.649	0.111	-0.052
-251.063	-88.039	-0.163	0.049
-250.049	-47.351	-0.277	0.133
-249.034	313.539	-0.127	0.237
-248.019	677.012	0.133	0.342
-247.005	-200.000	0.008	0.050
-245.990	-94.101	0.304	0.082
-244.976	-36.043	0.232	-0.124
-243.961	152.589	-0.216	-0.292
-242.946	800.000	0.082	0.326
-241.932	-44.833	0.207	0.102
-240.917	-88.120	-0.351	-0.104
-239.903	10.104	0.267	-0.201
-238.888	-71.152	-0.145	-0.054
-237.873	-156.208	0.291	-0.018
-236.859	-43.045	0.213	0.107
-235.844	-200.000	-0.003	0.202
-234.830	-146.481	0.092	0.008
-233.815	13.896	-0.213	-0.164
-232.800	95.902	0.156	-0.176
-231.786	30.311	-0.217	-0.184
-230.771	-148.251	0.169	-0.014
-229.757	211.062	0.224	-0.349
-228.742	-200.000	0.024	-0.122
-227.727	230.900	-0.029	-0.048
-226.713	-120.683	-0.348	-0.058
-225.698	177.956	0.025	0.036
-224.684	-120.036	0.105	-0.018
-223.669	-57.305	-0.131	0.057
-222.655	30.500	-0.187	-0.158
-221.640	205.617	0.045	0.069
-220.625	-161.428	0.023	-0.001
-219.611	-115.712	-0.187	0.035
-218.596	-63.866	0.222	0.090
-217.582	-6.292	0.189	-0.128
-216.567	800.000	-0.062	-0.171
-215.552	-126.368	0.306	-0.045
-214.538	-200.000	0.028	0.208
-213.523	-66.054	-0.276	0.109
-212.509	800.000	-0.031	-0.113
-211.494	-23.407	0.068	-0.041
-210.479	-63.196	0.155	0.063
-209.465	800.000	0.128	-0.358
-208.450	-110.085	0.148	-0.031
-207.436	-156.913	-0.092	0.006
-206.421	800.000	0.077	-0.237
-205.406	-200.000	-0.034	0.477
-204.392	800.000	-0.072	-0.227
-203.377	184.356	-0.286	-0.419
-202.363	-127.090	-0.068	-0.010
-201.348	-30.209	0.181	-0.102
-200.333	-84.523	0.101	-0.032
-199.319	433.426	0.059	-0.127
-198.304	-0.214	0.056	0.040
-197.290	-200.000	0.017	-0.081
-196.275	-200.000	0.030	0.201
-195.260	377.060	0.126	0.255
-194.246	218.078	-0.130	-0.205
-193.231	146.068	0.110	-0.146
-192.217	209.540	-0.157	-0.242
-191.202	177.574	-0.090	0.129
-190.187	-28.409	0.286	0.163
-189.173	-66.268	0.167	-0.066
-188.158	-174.351	-0.261	0.007
-187.144	-62.598	0.175	0.072
-186.129	-200.000	-0.054	-0.240
-185.114	-15.941	0.312	-0.196
-184.100	27.299	0.085	-0.070
-183.085	-32.474	0.342	-0.188
-182.071	34.048	0.123	0.106
-181.056	-138.478	-0.207	0.023
-180.042	-200.000	-0.003	-0.135
-179.027	117.508	-0.133	-0.162
-178.012	468.880	-0.067	-0.148
-176.998	476.753	0.200	0.447
-175.983	-122.545	-0.095	-0.015
-174.969	-67.227	-0.275	0.107
-173.954	294.021	0.128	0.231
-172.939	496.707	0.075	-0.169
-171.925	-4.126	0.280	0.192
-170.910	-11.350	-0.180	0.117
-169.896	-200.000	0.383	0.002
-168.881	-107.261	-0.386	-0.084
-167.866	-164.417	0.271	0.012
-166.852	-12.572	0.251	0.161
-165.837	63.063	0.108	-0.106
-164.823	231.101	0.071	0.114
-163.808	-200.000	0.010	0.050
-162.793	-200.000	0.003	0.037
-161.779	-148.042	0.181	-0.015
-160.764	472.638	0.094	0.210
-159.750	51.831	0.144	-0.136
-158.735	800.000	-0.031	0.128
-157.720	77.667	0.070	0.074
-156.706	-61.933	0.035	-0.014
-155.691	-200.000	0.022	0.116
-154.677	-69.961	0.075	-0.028
-153.662	-62.309	0.328	0.135
-152.647	-57.239	0.060	-0.026
-151.633	-54.188	0.143	0.064
-150.618	-200.000	-0.034	-0.313
-149.604	70.294	0.216	-0.220
-148.589	-200.000	-0.034	0.208
-147.574	-200.000	-0.006	-0.241
-146.560	-102.752	0.261	0.061
-145.545	-200.000	0.071	-0.313
-144.531	-188.589	0.434	0.005
-143.516	-200.000	-0.000	-0.181
-142.502	287.678	-0.064	0.115
-141.487	-35.496	0.061	0.033
-140.472	-200.000	-0.058	0.252
-139.458	0.640	-0.086	-0.060
-138.443	-95.867	0.141	-0.037
-137.429	-168.237	0.176	0.007
-136.414	124.143	-0.057	0.071
-135.399	266.701	0.125	0.216
-134.385	534.196	-0.142	0.332
-133.370	-70.467	-0.116	0.043
-132.356	-118.854	-0.354	-0.061
-131.341	-123.470	-0.379	-0.059
-130.326	-109.418	-0.177	-0.037
-129.312	184.650	0.109	0.160
-128.297	800.000	-0.142	0.451
-127.283	7.545	-0.021	-0.015
-126.268	-90.468	0.408	0.117
-125.253	688.004	-0.106	-0.272
-124.239	-66.947	0.265	-0.103
-123.224	7.259	-0.197	0.145
-122.210	99.510	-0.194	0.222
-121.195	-92.431	-0.022	0.006
