DTS Sentinel unit serial number:	SN413079Multiplexer serial number:	ORYXHardware model number:	OX4-SRSoftware version number:	ORYX F/W v4.00 Oryx Data Collector v3.7.2.0data status	okinstallation	princeton_trtdifferential loss correction	single-endedforward channel	channel 2reverse channel	N/Adate	2019/09/17time	13:23:35forward acquisition time	60.00reverse acquisition time	0.00gamma	496.2192k internal	0.2317k external	0.2317temperature offset calibration	0.9986default loss term (dB/km)	0.3790temperature slope calibration	1.0000multiplexer offset coefficient	1.0000multiplexer slope coefficient	1.0000fibre end	0.00T internal ref (°C)	34.33T ext. ref 1 (°C)	0.41T ext. ref 2 (°C)	31.50length (m)	temperature (°C)	Stokes	anti-Stokes-747.200	-200.000	-0.007	0.275
-746.185	130.797	0.213	0.277
-745.171	-89.346	0.135	-0.040
-744.156	800.000	-0.125	0.386
-743.142	-80.999	-0.125	-0.042
-742.127	800.000	0.082	0.256
-741.112	-132.189	0.311	0.041
-740.098	407.424	0.063	-0.135
-739.083	800.000	0.064	-0.186
-738.069	232.350	0.097	0.161
-737.054	34.398	-0.294	0.260
-736.039	15.442	-0.303	0.241
-735.025	207.048	0.118	0.187
-734.010	-143.110	-0.211	-0.021
-732.996	-164.918	-0.270	-0.012
-731.981	667.119	-0.103	-0.269
-730.966	800.000	0.026	0.077
-729.952	-134.659	-0.274	0.034
-728.937	800.000	-0.040	0.115
-727.923	-47.234	-0.153	-0.076
-726.908	-200.000	-0.009	-0.279
-725.894	-88.819	0.156	-0.047
-724.879	-200.000	-0.045	-0.423
-723.864	-109.827	0.147	-0.031
-722.850	-40.077	-0.169	0.089
-721.835	-169.816	-0.163	-0.006
-720.821	650.151	-0.068	0.177
-719.806	-7.287	-0.078	0.054
-718.791	-3.667	-0.223	0.157
-717.777	800.000	-0.045	-0.145
-716.762	-200.000	-0.032	0.296
-715.748	-200.000	0.011	-0.238
-714.733	398.773	-0.111	-0.236
-713.718	205.500	-0.225	0.354
-712.704	200.503	-0.189	0.293
-711.689	78.143	0.233	-0.252
-710.675	-145.858	0.072	0.006
-709.660	348.638	-0.099	-0.198
-708.645	-96.858	0.194	0.051
-707.631	300.766	-0.043	-0.080
-706.616	-134.982	0.090	0.011
-705.602	800.000	-0.076	0.245
-704.587	11.327	-0.240	-0.186
-703.572	-103.376	-0.232	-0.055
-702.558	-69.684	-0.326	-0.126
-701.543	-200.000	0.023	-0.166
-700.529	-135.025	-0.207	0.025
-699.514	146.984	-0.248	0.337
-698.499	437.820	-0.149	0.328
-697.485	-54.308	0.483	-0.221
-696.470	-6.259	0.168	0.116
-695.456	-5.914	-0.199	0.138
-694.441	28.683	-0.090	-0.077
-693.426	-51.296	0.123	-0.058
-692.412	43.799	0.241	0.223
-691.397	32.479	0.177	-0.155
-690.383	165.358	0.088	-0.126
-689.368	238.296	0.129	-0.216
-688.354	61.494	0.074	0.074
-687.339	432.596	-0.096	0.210
-686.324	-47.058	0.168	0.083
-685.310	-96.980	-0.326	0.086
-684.295	800.000	-0.056	-0.187
-683.281	61.856	0.057	0.057
-682.266	-125.540	0.136	0.021
-681.251	19.381	-0.064	0.052
-680.237	-133.322	-0.185	0.024
-679.222	55.713	0.268	0.262
-678.208	10.659	-0.163	0.125
-677.193	-81.639	-0.132	-0.044
-676.178	-153.034	0.161	-0.011
-675.164	800.000	0.074	-0.295
-674.149	-10.937	-0.068	0.045
-673.135	253.511	0.128	0.221
-672.120	800.000	-0.117	0.343
-671.105	-103.974	-0.290	-0.068
-670.091	784.382	-0.062	0.173
-669.076	377.943	-0.121	-0.250
-668.062	-63.352	-0.161	0.067
-667.047	-132.079	-0.177	-0.023
-666.032	6.801	0.223	-0.167
-665.018	-109.125	0.325	0.070
-664.003	-130.006	-0.058	-0.008
-662.989	-200.000	0.010	0.077
-661.974	-38.998	-0.043	0.023
-660.959	92.608	-0.132	-0.151
-659.945	447.048	-0.011	-0.024
-658.930	-26.942	-0.210	0.123
-657.916	-141.546	-0.288	0.029
-656.901	-32.967	-0.291	-0.163
-655.886	-74.329	0.202	-0.074
-654.872	-28.864	0.131	-0.076
-653.857	42.089	-0.071	-0.065
-652.843	218.782	0.080	0.129
-651.828	150.337	0.210	0.288
-650.814	-200.000	-0.003	0.105
-649.799	-200.000	0.023	0.140
-648.784	33.670	-0.021	0.018
-647.770	-200.000	-0.004	-0.284
-646.755	33.824	-0.057	0.050
-645.741	800.000	0.057	-0.173
-644.726	-57.119	0.269	0.119
-643.711	76.361	-0.144	0.153
-642.697	351.928	0.089	0.178
-641.682	-200.000	-0.011	0.073
-640.668	800.000	-0.044	-0.171
-639.653	778.755	0.117	0.323
-638.638	151.778	0.109	-0.150
-637.624	-194.849	0.080	-0.001
-636.609	800.000	-0.115	-0.444
-635.595	-200.000	-0.054	-0.409
-634.580	213.906	0.094	-0.150
-633.565	-1.790	0.073	0.052
-632.551	150.313	-0.067	0.091
-631.536	-200.000	-0.028	0.129
-630.522	9.007	-0.057	0.043
-629.507	-83.554	0.190	0.061
-628.492	-76.673	-0.057	0.020
-627.478	-35.035	0.104	0.057
-626.463	-37.823	0.175	-0.094
-625.449	30.685	-0.140	-0.120
-624.434	-67.669	0.223	-0.088
-623.419	-200.000	0.004	-0.059
-622.405	800.000	-0.025	-0.106
-621.390	168.369	0.198	-0.284
-620.376	-73.628	0.257	0.094
-619.361	11.266	-0.049	-0.038
-618.346	-200.000	0.033	-0.315
-617.332	-200.000	-0.011	-0.078
-616.317	50.325	0.139	-0.132
-615.303	-167.446	0.144	-0.006
-614.288	22.216	-0.141	-0.116
-613.273	800.000	-0.028	0.105
-612.259	359.049	0.049	-0.099
-611.244	-115.037	-0.273	0.052
-610.230	11.719	-0.186	0.144
-609.215	-78.050	-0.211	0.073
-608.201	-47.055	-0.201	0.099
-607.186	260.525	0.067	0.116
-606.171	49.514	0.068	-0.065
-605.157	67.236	0.148	-0.152
-604.142	-197.583	-0.212	-0.001
-603.128	768.140	-0.056	-0.154
-602.113	129.839	0.075	-0.097
-601.098	-130.838	0.207	-0.028
-600.084	91.820	0.351	-0.398
-599.069	-200.000	0.185	-0.001
-598.055	800.000	-0.038	-0.145
-597.040	-200.000	-0.047	-0.275
-596.025	-102.893	-0.119	0.029
-595.011	404.812	0.065	-0.139
-593.996	-190.593	-0.221	0.002
-592.982	-69.649	-0.109	-0.042
-591.967	-71.105	0.055	-0.021
-590.952	-108.305	-0.102	-0.022
-589.938	99.651	-0.218	-0.254
-588.923	560.088	-0.085	-0.208
-587.909	-156.733	-0.325	-0.020
-586.894	49.000	-0.041	-0.039
-585.879	-33.711	0.027	-0.015
-584.865	-88.162	0.209	0.063
-583.850	-31.456	0.173	-0.098
-582.836	28.562	0.102	-0.087
-581.821	87.454	-0.099	0.111
-580.806	800.000	0.004	-0.013
-579.792	10.015	0.085	0.065
-578.777	-113.884	-0.339	0.066
-577.763	-159.380	-0.335	-0.019
-576.748	441.165	0.083	-0.183
-575.733	800.000	0.123	0.495
-574.719	800.000	0.080	0.308
-573.704	-12.766	0.390	0.256
-572.690	-57.588	-0.289	-0.127
-571.675	-176.954	0.212	0.005
-570.661	-200.000	-0.028	-0.183
-569.646	-200.000	-0.045	-0.218
-568.631	-45.607	0.122	0.061
-567.617	37.386	0.106	-0.095
-566.602	-200.000	0.041	0.314
-565.588	-200.000	0.068	0.340
-564.573	800.000	0.053	0.193
-563.558	-30.746	0.086	-0.049
-562.544	194.649	0.063	-0.096
-561.529	-161.958	0.175	-0.009
-560.515	-113.860	-0.302	-0.059
-559.500	800.000	0.026	-0.073
-558.485	-86.263	0.335	0.104
-557.471	6.144	0.067	0.050
-556.456	44.805	-0.217	0.200
-555.442	338.705	0.078	-0.153
-554.427	-113.816	-0.111	0.022
-553.412	-122.790	-0.118	0.019
-552.398	800.000	-0.025	-0.083
-551.383	-200.000	0.049	-0.298
-550.369	202.803	0.139	0.215
-549.354	-200.000	-0.005	0.095
-548.339	-200.000	-0.077	0.363
-547.325	-101.144	-0.207	-0.051
-546.310	-78.659	-0.248	0.085
-545.296	-200.000	-0.005	-0.187
-544.281	-35.671	0.088	-0.048
-543.266	-53.187	0.026	0.012
-542.252	57.732	0.030	0.030
-541.237	-200.000	0.002	0.247
-540.223	-141.024	0.033	0.003
-539.208	29.247	0.082	0.070
-538.193	-200.000	-0.013	-0.090
-537.179	738.787	-0.100	0.271
-536.164	-61.654	-0.255	-0.108
-535.150	17.676	0.214	0.171
-534.135	-200.000	-0.013	0.098
-533.121	-53.277	-0.287	-0.132
-532.106	-200.000	0.007	0.224
-531.091	-33.927	-0.267	0.148
-530.077	-31.944	0.264	0.148
-529.062	64.127	-0.129	0.130
-528.048	555.077	-0.045	-0.109
-527.033	-136.962	0.085	0.010
-526.018	-140.566	0.352	-0.037
-525.004	25.130	-0.040	-0.034
-523.989	66.034	-0.179	0.182
-522.975	170.544	-0.098	0.140
-521.960	360.307	0.103	-0.207
-520.945	-200.000	0.002	-0.092
-519.931	-110.207	0.214	-0.045
-518.916	-1.209	0.073	0.052
-517.902	91.621	0.112	-0.126
-516.887	63.000	-0.175	-0.176
-515.872	23.670	-0.152	-0.126
-514.858	389.544	-0.196	0.407
-513.843	-200.000	0.029	0.155
-512.829	800.000	0.057	0.192
-511.814	125.110	0.036	0.046
-510.799	-200.000	-0.047	0.347
-509.785	50.813	-0.019	-0.018
-508.770	19.294	-0.129	-0.104
-507.756	136.261	-0.227	-0.297
-506.741	-200.000	-0.021	0.216
-505.726	-166.298	0.180	-0.008
-504.712	-80.139	-0.442	-0.149
-503.697	179.588	0.080	0.117
-502.683	45.689	0.152	-0.141
-501.668	127.658	0.150	-0.192
-500.653	-87.505	-0.095	-0.029
-499.639	800.000	-0.080	-0.324
-498.624	-191.059	0.201	0.002
-497.610	800.000	-0.087	0.348
-496.595	31.571	0.074	-0.064
-495.581	87.836	-0.110	0.122
-494.566	-38.775	0.113	-0.060
-493.551	-67.512	-0.184	-0.072
-492.537	-200.000	-0.022	-0.330
-491.522	504.103	0.027	0.062
-490.508	-200.000	0.021	0.098
-489.493	-27.351	-0.098	-0.057
-488.478	800.000	0.051	-0.168
-487.464	-44.307	0.234	0.118
-486.449	391.956	-0.076	-0.158
-485.435	596.861	-0.135	0.335
-484.420	-123.259	0.060	-0.010
-483.405	7.140	-0.242	-0.181
-482.391	-200.000	0.034	-0.248
-481.376	69.175	-0.232	-0.239
-480.362	104.516	-0.342	-0.403
-479.347	-199.886	-0.479	-0.002
-478.332	85.957	0.135	0.149
-477.318	800.000	-0.102	0.303
-476.303	-63.503	0.265	-0.109
-475.289	800.000	-0.028	0.112
-474.274	-108.467	0.188	-0.041
-473.259	-148.431	0.306	-0.025
-472.245	119.717	0.065	-0.080
-471.230	-53.618	-0.111	-0.051
-470.216	-2.860	-0.337	0.236
-469.201	-114.939	-0.439	-0.084
-468.186	-76.215	0.278	0.098
-467.172	-120.446	-0.157	-0.027
-466.157	5.478	-0.140	-0.104
-465.143	-164.636	0.366	0.017
-464.128	430.297	0.148	-0.322
-463.113	-79.276	0.117	-0.040
-462.099	176.676	0.101	0.147
-461.084	485.804	-0.039	0.090
-460.070	-200.000	-0.002	-0.232
-459.055	-152.692	-0.140	-0.010
-458.040	-7.500	-0.078	-0.053
-457.026	-157.657	-0.402	0.024
-456.011	573.824	-0.050	0.121
-454.997	-85.456	-0.235	-0.073
-453.982	-52.100	0.228	0.106
-452.968	530.071	0.044	-0.104
-451.953	-56.390	0.105	0.047
-450.938	96.489	0.175	0.200
-449.924	-145.111	-0.039	0.004
-448.909	-195.139	0.152	0.001
-447.895	-174.823	-0.306	0.009
-446.880	-200.000	-0.007	0.291
-445.865	-69.970	-0.148	0.056
-444.851	800.000	0.099	-0.287
-443.836	-140.222	0.205	0.022
-442.822	207.950	-0.260	0.406
-441.807	-200.000	0.003	0.198
-440.792	88.539	-0.089	0.099
-439.778	212.315	0.134	0.212
-438.763	618.668	0.157	-0.396
-437.749	-41.183	-0.168	-0.086
-436.734	53.993	0.088	0.084
-435.719	-164.556	0.339	-0.015
-434.705	-70.291	-0.197	-0.075
-433.690	82.432	0.213	-0.232
-432.676	53.970	0.316	-0.304
-431.661	26.598	-0.159	-0.133
-430.646	-57.683	-0.174	0.076
-429.632	-8.109	-0.226	0.152
-428.617	800.000	-0.077	-0.311
-427.603	-71.287	-0.136	-0.051
-426.588	191.800	0.089	0.134
-425.573	-200.000	-0.067	-0.302
-424.559	-78.482	-0.238	0.082
-423.544	800.000	0.018	-0.063
-422.530	430.597	-0.170	-0.367
-421.515	259.323	0.092	0.159
-420.500	-200.000	-0.062	0.481
-419.486	-120.246	0.162	0.028
-418.471	3.626	0.258	-0.188
-417.457	202.880	0.053	-0.081
-416.442	-117.449	-0.168	-0.030
-415.428	-28.394	0.190	-0.109
-414.413	-90.186	-0.043	-0.012
-413.398	731.013	0.141	0.377
-412.384	59.569	0.068	0.067
-411.369	161.033	0.113	0.158
-410.355	-200.000	0.009	0.045
-409.340	-85.255	0.162	-0.050
-408.325	68.480	-0.268	0.274
-407.311	800.000	0.079	0.273
-406.296	6.848	-0.092	0.069
-405.282	63.560	-0.137	-0.137
-404.267	800.000	-0.057	-0.234
-403.252	619.092	-0.062	-0.156
-402.238	-63.172	-0.422	0.174
-401.223	131.587	0.244	0.313
-400.209	-200.000	0.004	-0.127
-399.194	43.243	0.144	0.132
-398.179	-145.141	0.181	0.016
-397.165	28.843	-0.171	0.145
-396.150	-40.732	-0.139	-0.072
-395.136	-67.228	-0.108	0.042
-394.121	-107.189	0.266	-0.058
-393.106	558.977	0.148	0.358
-392.092	800.000	0.119	0.501
-391.077	778.489	-0.041	-0.111
-390.063	226.428	0.084	0.136
-389.048	-99.261	-0.194	0.049
-388.033	31.568	0.097	-0.083
-387.019	-24.888	0.267	-0.158
-386.004	-58.903	-0.075	0.032
-384.990	-24.363	-0.144	0.086
-383.975	6.974	-0.149	-0.111
-382.960	-193.927	-0.234	0.002
-381.946	-72.125	-0.217	-0.080
-380.931	25.786	-0.198	0.165
-379.917	800.000	0.047	0.147
-378.902	-200.000	0.042	0.220
-377.888	199.748	0.202	-0.309
-376.873	-102.767	-0.114	-0.027
-375.858	-168.149	0.043	-0.002
-374.844	800.000	0.097	0.312
-373.829	-81.909	0.142	-0.046
-372.815	11.312	-0.073	-0.056
-371.800	-72.001	0.041	0.015
-370.785	100.141	0.145	-0.167
-369.771	-95.990	0.164	0.043
-368.756	123.539	-0.305	-0.382
-367.742	26.577	0.077	0.064
-366.727	-31.434	-0.181	0.102
-365.712	800.000	0.178	-0.607
-364.698	-110.270	0.188	0.039
-363.683	-35.282	-0.095	-0.052
-362.669	-9.675	0.102	0.068
-361.654	-200.000	-0.007	-0.100
-360.639	-87.998	-0.158	-0.047
-359.625	-131.444	-0.130	-0.017
-358.610	59.857	0.269	0.264
-357.596	-124.629	-0.435	0.067
-356.581	15.306	-0.286	0.224
-355.566	-98.158	-0.131	0.034
-354.552	98.812	0.138	-0.159
-353.537	-39.787	0.419	0.219
-352.523	443.833	0.194	0.423
-351.508	-200.000	0.022	0.135
-350.493	-200.000	-0.023	-0.220
-349.479	648.160	0.054	0.137
-348.464	-200.000	0.010	0.303
-347.450	132.571	-0.251	-0.322
-346.435	4.192	0.261	-0.190
-345.420	517.464	-0.029	0.067
-344.406	-166.145	-0.186	0.008
-343.391	-200.000	0.002	0.010
-342.377	442.933	-0.046	0.102
-341.362	-30.873	0.336	0.189
-340.348	646.498	-0.057	-0.146
-339.333	800.000	-0.020	-0.086
-338.318	78.287	0.022	0.023
-337.304	150.215	-0.120	-0.163
-336.289	-200.000	0.052	-0.293
-335.275	-108.526	-0.320	0.069
-334.260	-169.710	-0.141	0.005
-333.245	190.147	-0.221	-0.331
-332.231	800.000	-0.043	-0.125
-331.216	12.612	0.187	0.143
-330.202	166.884	-0.077	-0.109
-329.187	-16.908	-0.187	-0.118
-328.172	62.866	-0.202	-0.201
-327.158	-148.159	0.062	-0.005
-326.143	9.649	0.146	-0.111
-325.129	0.163	-0.082	0.058
-324.114	81.248	0.026	-0.028
-323.099	497.654	-0.043	0.100
-322.085	800.000	-0.061	-0.264
-321.070	176.878	-0.122	0.176
-320.056	614.083	-0.057	-0.143
-319.041	83.460	-0.168	0.182
-318.026	-148.994	-0.441	0.035
-317.012	-200.000	0.099	-0.438
-315.997	197.245	-0.068	0.103
-314.983	115.300	0.185	-0.225
-313.968	-200.000	-0.029	0.204
-312.953	63.457	0.314	0.314
-311.939	-63.746	0.095	0.039
-310.924	-181.986	0.238	-0.004
-309.910	-105.925	0.106	0.024
-308.895	367.123	-0.143	-0.288
-307.880	-60.953	0.242	0.102
-306.866	400.127	0.086	-0.180
-305.851	-19.753	-0.359	-0.221
-304.837	-200.000	-0.033	-0.216
-303.822	4.542	-0.183	-0.134
-302.807	-137.991	0.310	0.034
-301.793	-200.000	0.010	-0.103
-300.778	-49.251	-0.118	-0.056
-299.764	-81.106	-0.112	-0.037
-298.749	-82.431	-0.200	-0.065
-297.735	542.798	-0.195	0.462
-296.720	-200.000	-0.041	-0.543
-295.705	-200.000	0.012	0.160
-294.691	165.034	0.084	0.119
-293.676	-69.942	-0.245	0.093
-292.662	13.121	-0.301	0.232
-291.647	134.399	-0.141	0.181
-290.632	246.887	0.242	-0.406
-289.618	-53.940	-0.268	-0.122
-288.603	800.000	0.052	0.172
-287.589	23.851	-0.232	-0.191
-286.574	-200.000	-0.051	-0.303
-285.559	46.463	-0.091	-0.084
-284.545	-24.580	0.117	-0.069
-283.530	-200.000	0.001	0.161
-282.516	-136.444	-0.124	0.014
-281.501	693.039	-0.035	-0.091
-280.486	493.887	0.147	-0.336
-279.472	-200.000	-0.048	-0.296
-278.457	284.577	0.125	0.223
-277.443	85.068	0.295	0.322
-276.428	24.346	0.191	-0.157
-275.413	132.943	0.204	0.262
-274.399	-36.214	-0.269	-0.144
-273.384	-200.000	-0.063	-0.470
-272.370	634.443	0.056	0.140
-271.355	42.167	-0.061	0.055
-270.340	227.149	0.096	0.154
-269.326	231.160	-0.068	-0.111
-268.311	735.231	-0.017	0.046
-267.297	-200.000	0.016	0.244
-266.282	69.519	-0.208	-0.213
-265.267	-142.409	0.186	-0.018
-264.253	-43.626	-0.195	0.098
-263.238	-200.000	0.040	-0.180
-262.224	538.042	0.056	0.132
-261.209	-200.000	-0.010	0.276
-260.195	-32.932	-0.098	0.054
-259.180	709.157	-0.055	0.145
-258.165	-200.000	0.028	0.307
-257.151	574.899	-0.081	0.195
-256.136	-200.000	0.026	-0.163
-255.122	-62.930	-0.085	-0.035
-254.107	-200.000	0.001	-0.108
-253.092	-30.612	0.109	-0.061
-252.078	77.702	0.014	0.015
-251.063	-70.621	-0.209	0.079
-250.049	800.000	-0.022	-0.060
-249.034	-200.000	-0.025	0.128
-248.019	76.592	-0.113	0.119
-247.005	-161.724	-0.247	0.012
-245.990	143.252	-0.111	-0.146
-244.976	214.937	0.122	-0.192
-243.961	578.152	0.164	0.398
-242.946	-87.810	-0.133	0.040
-241.932	17.804	0.326	-0.258
-240.917	-69.230	-0.140	0.054
-239.903	-133.087	-0.355	-0.045
-238.888	-9.527	0.253	0.168
-237.873	-59.278	0.461	0.197
-236.859	21.293	0.050	0.041
-235.844	539.197	0.105	-0.249
-234.830	-139.509	0.238	-0.025
-233.815	-11.290	-0.105	-0.069
-232.800	343.948	0.026	-0.051
-231.786	-134.392	-0.158	0.019
-230.771	-129.676	-0.226	-0.031
-229.757	134.743	0.108	-0.139
-228.742	51.088	0.012	-0.012
-227.727	-200.000	-0.031	-0.181
-226.713	-73.254	-0.105	-0.038
-225.698	-200.000	-0.107	0.471
-224.684	-15.966	-0.046	-0.029
-223.669	179.672	0.168	0.244
-222.655	-20.171	-0.157	0.096
-221.640	-128.084	0.136	0.019
-220.625	-200.000	-0.024	-0.264
-219.611	-77.934	0.075	-0.026
-218.596	107.196	-0.167	0.197
-217.582	-50.265	0.237	0.111
-216.567	-194.933	0.114	-0.001
-215.552	570.349	0.086	0.206
-214.538	151.804	0.146	0.198
-213.523	-200.000	0.035	0.275
-212.509	-144.906	-0.111	0.010
-211.494	-43.302	-0.136	0.068
-210.479	800.000	0.037	0.150
-209.465	-121.444	-0.528	-0.087
-208.450	-8.346	-0.339	0.226
-207.436	-73.277	0.461	0.167
-206.421	-200.000	0.039	0.322
-205.406	-200.000	-0.025	-0.173
-204.392	42.744	0.179	-0.161
-203.377	-134.265	0.298	0.036
-202.363	309.736	-0.016	0.029
-201.348	143.131	-0.279	0.367
-200.333	-200.000	0.005	-0.231
-199.319	449.701	0.063	-0.139
-198.304	261.212	0.133	-0.228
-197.290	132.035	0.206	0.262
-196.275	800.000	-0.132	-0.392
-195.260	-35.367	0.086	-0.046
-194.246	-200.000	-0.003	-0.090
-193.231	800.000	0.005	0.022
-192.217	52.297	-0.098	-0.093
-191.202	-160.546	0.140	0.007
-190.187	-86.365	-0.257	-0.078
-189.173	-133.531	0.311	-0.039
-188.158	60.603	0.277	0.272
-187.144	-200.000	0.029	0.381
-186.129	4.934	0.417	0.304
-185.114	37.706	0.272	0.239
-184.100	-51.664	-0.115	0.053
-183.085	116.287	0.136	0.165
-182.071	-53.753	0.193	0.087
-181.056	429.681	-0.176	0.377
-180.042	128.426	0.082	0.103
-179.027	-16.730	-0.342	0.214
-178.012	-99.822	-0.213	-0.053
-176.998	20.210	-0.283	0.226
-175.983	-170.367	0.346	-0.012
-174.969	22.105	-0.421	-0.340
-173.954	-92.318	0.459	0.128
-172.939	169.113	-0.185	-0.261
-171.925	-107.443	-0.145	-0.032
-170.910	511.795	-0.134	-0.308
-169.896	-82.590	0.171	-0.055
-168.881	169.000	0.307	0.433
-167.866	800.000	-0.064	-0.207
-166.852	-42.653	0.177	-0.089
-165.837	456.272	-0.082	-0.180
-164.823	800.000	0.049	-0.150
-163.808	-49.084	0.245	0.116
-162.793	-123.301	0.506	0.080
-161.779	160.899	0.097	-0.135
-160.764	20.232	0.313	-0.250
-159.750	134.790	0.165	-0.212
-158.735	-200.000	-0.024	-0.105
-157.720	-184.798	0.528	0.008
-156.706	-200.000	-0.000	-0.056
-155.691	-112.771	-0.299	0.059
-154.677	-73.112	0.325	0.118
-153.662	-56.874	0.114	-0.050
-152.647	-200.000	-0.021	-0.100
-151.633	-154.392	0.192	0.013
-150.618	-62.663	-0.051	-0.021
-149.604	96.963	0.043	-0.049
-148.589	-110.026	-0.336	0.070
-147.574	-117.286	-0.192	-0.034
-146.560	-106.457	0.091	0.020
-145.545	222.258	0.055	-0.088
-144.531	-169.340	-0.289	0.011
-143.516	-200.000	-0.004	-0.187
-142.502	800.000	0.032	0.099
-141.487	715.061	-0.002	0.005
-140.472	174.515	0.191	-0.273
-139.458	-110.659	-0.084	0.017
-138.443	800.000	0.155	0.451
-137.429	-52.629	-0.186	0.085
-136.414	49.053	-0.171	-0.159
-135.399	424.995	0.163	-0.346
-134.385	385.311	-0.167	0.340
-133.370	-14.184	-0.226	0.144
-132.356	1.313	0.156	0.111
-131.341	800.000	0.060	0.214
-130.326	800.000	0.063	0.219
-129.312	29.424	-0.334	0.281
-128.297	340.057	0.086	-0.165
-127.283	-89.178	-0.078	-0.023
-126.268	-200.000	0.029	-0.174
-125.253	90.079	-0.125	0.138
-124.239	800.000	0.061	-0.253
-123.224	11.286	-0.227	0.172
-122.210	-13.630	0.109	0.070
-121.195	220.783	0.172	-0.272
