DTS Sentinel unit serial number:	SN413079Multiplexer serial number:	ORYXHardware model number:	OX4-SRSoftware version number:	ORYX F/W v4.00 Oryx Data Collector v3.7.2.0data status	okinstallation	princeton_trtdifferential loss correction	single-endedforward channel	channel 2reverse channel	N/Adate	2019/09/13time	14:31:34forward acquisition time	60.00reverse acquisition time	0.00gamma	496.2192k internal	0.2315k external	0.2315temperature offset calibration	1.0207default loss term (dB/km)	0.3790temperature slope calibration	1.0000multiplexer offset coefficient	1.0000multiplexer slope coefficient	1.0000fibre end	0.00T internal ref (°C)	35.27T ext. ref 1 (°C)	4.64T ext. ref 2 (°C)	31.29length (m)	temperature (°C)	Stokes	anti-Stokes-747.200	-17.578	0.153	-0.097
-746.185	-200.000	-0.010	0.500
-745.171	260.704	-0.220	0.386
-744.156	-82.356	-0.211	0.069
-743.142	-15.189	-0.085	0.055
-742.127	-200.000	0.007	0.055
-741.112	51.925	0.163	0.158
-740.098	-200.000	-0.102	0.540
-739.083	-108.473	0.231	0.050
-738.069	-200.000	-0.035	0.301
-737.054	711.201	-0.031	-0.084
-736.039	800.000	-0.028	0.110
-735.025	-107.693	0.190	-0.042
-734.010	-200.000	-0.048	0.236
-732.996	213.870	0.049	0.078
-731.981	-200.000	-0.046	-0.250
-730.966	48.130	0.158	-0.150
-729.952	465.669	-0.103	-0.235
-728.937	-200.000	-0.096	-0.462
-727.923	206.160	0.048	-0.076
-726.908	128.362	0.133	0.171
-725.894	-102.340	-0.186	0.045
-724.879	-93.193	-0.153	0.043
-723.864	31.279	-0.099	-0.086
-722.850	26.765	0.088	0.074
-721.835	-200.000	-0.011	0.109
-720.821	-200.000	0.068	-0.400
-719.806	-200.000	-0.005	-0.128
-718.791	344.472	0.157	0.311
-717.777	113.468	0.070	0.086
-716.762	0.380	-0.117	-0.085
-715.748	-12.246	-0.183	-0.121
-714.733	439.982	0.088	-0.194
-713.718	-200.000	-0.065	-0.466
-712.704	337.797	-0.236	-0.465
-711.689	326.217	0.107	-0.208
-710.675	290.734	0.041	0.075
-709.660	66.216	-0.094	-0.096
-708.645	-81.276	0.184	-0.061
-707.631	-15.588	0.207	0.134
-706.616	58.700	-0.195	0.194
-705.602	387.981	-0.088	-0.185
-704.587	106.418	-0.103	0.123
-703.572	-66.075	-0.178	0.072
-702.558	1.814	0.275	0.201
-701.543	-200.000	-0.032	0.161
-700.529	-38.652	-0.436	-0.233
-699.514	-80.230	-0.126	-0.043
-698.499	-76.687	-0.153	0.054
-697.485	541.312	-0.134	-0.322
-696.470	56.728	-0.008	0.008
-695.456	-200.000	-0.004	-0.285
-694.441	618.930	-0.104	0.264
-693.426	2.260	-0.082	0.060
-692.412	-53.985	-0.194	-0.089
-691.397	-135.524	-0.060	-0.007
-690.383	-200.000	-0.007	0.183
-689.368	-161.298	-0.335	-0.018
-688.354	46.341	0.072	-0.067
-687.339	65.624	-0.280	-0.286
-686.324	-76.957	-0.073	-0.026
-685.310	-98.813	-0.567	0.146
-684.295	-81.624	0.145	-0.048
-683.281	-178.405	0.470	0.011
-682.266	800.000	0.053	0.183
-681.251	74.149	0.063	-0.067
-680.237	-110.395	-0.095	0.020
-679.222	-84.356	0.117	-0.037
-678.208	-34.163	-0.505	-0.280
-677.193	-200.000	-0.002	-0.067
-676.178	-120.998	-0.141	0.024
-675.164	-54.935	0.104	0.047
-674.149	101.077	0.178	-0.210
-673.135	42.293	0.194	-0.178
-672.120	-54.238	0.145	-0.066
-671.105	-146.977	0.122	-0.011
-670.091	-200.000	-0.016	0.199
-669.076	-142.786	-0.112	-0.011
-668.062	149.457	-0.079	0.108
-667.047	800.000	-0.047	0.145
-666.032	-40.430	0.134	0.070
-665.018	-200.000	-0.011	0.305
-664.003	-49.760	-0.105	0.050
-662.989	46.080	-0.031	-0.029
-661.974	-200.000	0.044	-0.218
-660.959	-122.630	-0.229	-0.037
-659.945	-131.714	-0.299	-0.040
-658.930	-19.188	-0.366	0.230
-657.916	-29.509	0.106	-0.061
-656.901	30.507	-0.267	-0.230
-655.886	13.543	-0.136	-0.107
-654.872	162.246	0.081	-0.115
-653.857	237.984	-0.090	-0.150
-652.843	-200.000	0.011	-0.128
-651.828	300.067	-0.059	-0.109
-650.814	234.316	0.055	0.092
-649.799	-103.317	-0.133	-0.032
-648.784	800.000	0.065	0.260
-647.770	-151.634	0.167	0.012
-646.755	14.258	-0.145	-0.114
-645.741	-28.569	0.158	0.092
-644.726	-200.000	0.003	-0.145
-643.711	-157.866	0.317	0.019
-642.697	-112.368	-0.120	0.024
-641.682	700.715	-0.058	0.154
-640.668	-200.000	-0.009	-0.354
-639.653	-161.893	0.091	-0.005
-638.638	-142.942	-0.275	0.027
-637.624	800.000	-0.055	0.178
-636.609	685.280	0.105	0.276
-635.595	40.282	-0.244	0.222
-634.580	240.219	0.238	-0.401
-633.565	-109.766	-0.235	0.050
-632.551	3.467	0.068	0.050
-631.536	439.130	0.064	-0.141
-630.522	-136.403	0.017	-0.002
-629.507	112.469	0.163	-0.199
-628.492	-118.385	-0.081	-0.014
-627.478	-200.000	0.020	-0.320
-626.463	-200.000	0.016	0.076
-625.449	221.980	0.204	0.331
-624.434	33.724	-0.188	0.165
-623.419	-200.000	0.033	0.178
-622.405	800.000	-0.077	-0.267
-621.390	-66.372	-0.094	-0.038
-620.376	-90.007	-0.319	-0.094
-619.361	800.000	0.045	0.178
-618.346	180.604	-0.191	0.283
-617.332	-33.282	0.438	-0.244
-616.317	54.617	0.084	-0.082
-615.303	-48.318	-0.150	0.073
-614.288	800.000	0.071	0.260
-613.273	646.666	0.050	0.129
-612.259	321.054	0.135	0.258
-611.244	-94.144	-0.323	-0.089
-610.230	-200.000	0.003	-0.052
-609.215	-95.829	-0.174	0.047
-608.201	440.000	-0.101	0.222
-607.186	142.738	0.146	0.196
-606.171	-200.000	-0.000	-0.074
-605.157	129.936	0.174	0.224
-604.142	120.899	0.130	0.163
-603.128	196.074	0.101	0.155
-602.113	60.496	-0.186	-0.185
-601.098	311.479	0.306	-0.579
-600.084	-45.931	0.170	-0.084
-599.069	230.441	-0.123	0.203
-598.055	800.000	0.052	-0.146
-597.040	400.529	-0.118	-0.248
-596.025	-48.899	-0.240	-0.116
-595.011	-200.000	0.038	0.415
-593.996	207.142	0.105	-0.165
-592.982	800.000	-0.097	0.269
-591.967	-3.711	0.295	0.207
-590.952	326.593	0.042	-0.080
-589.938	-200.000	-0.070	-0.359
-588.923	332.081	0.046	0.089
-587.909	142.810	-0.147	0.197
-586.894	800.000	0.106	0.296
-585.879	-162.486	-0.439	0.022
-584.865	-200.000	-0.080	-0.581
-583.850	-58.221	0.084	0.037
-582.836	-200.000	0.023	0.200
-581.821	332.045	-0.011	0.021
-580.806	140.357	0.042	0.055
-579.792	508.091	-0.105	0.246
-578.777	-200.000	-0.001	0.052
-577.763	70.661	0.189	-0.197
-576.748	800.000	0.069	-0.209
-575.733	534.470	-0.137	0.328
-574.719	-133.304	-0.371	-0.047
-573.704	95.844	0.140	0.161
-572.690	701.433	-0.206	0.546
-571.675	800.000	-0.029	-0.090
-570.661	-100.164	-0.199	0.050
-569.646	-99.498	0.535	0.135
-568.631	-9.607	-0.313	-0.210
-567.617	102.185	0.062	-0.073
-566.602	87.725	0.165	-0.184
-565.588	44.419	0.109	-0.101
-564.573	800.000	0.079	-0.328
-563.558	-90.391	-0.149	0.044
-562.544	-106.150	-0.073	-0.017
-561.529	-68.633	0.232	-0.090
-560.515	-113.380	-0.400	-0.079
-559.500	-200.000	0.006	-0.094
-558.485	82.191	-0.222	0.242
-557.471	-200.000	0.019	0.122
-556.456	52.311	0.115	-0.110
-555.442	41.691	-0.205	0.187
-554.427	-36.593	0.165	-0.089
-553.412	-200.000	-0.013	-0.136
-552.398	-82.866	0.124	0.040
-551.383	264.895	0.042	-0.073
-550.369	-113.775	-0.279	0.055
-549.354	-159.323	-0.283	-0.016
-548.339	-109.920	-0.080	0.017
-547.325	-200.000	-0.019	-0.093
-546.310	76.663	0.193	-0.206
-545.296	-60.709	-0.217	-0.093
-544.281	-76.093	-0.169	0.060
-543.266	-146.166	-0.231	0.020
-542.252	-59.223	-0.483	0.209
-541.237	-200.000	-0.059	0.294
-540.223	-120.188	0.115	0.020
-539.208	233.359	-0.024	-0.040
-538.193	-62.149	-0.366	-0.154
-537.179	-131.762	0.082	0.011
-536.164	-27.417	0.089	-0.052
-535.150	42.080	0.098	-0.089
-534.135	-68.852	-0.249	0.097
-533.121	459.924	0.096	0.215
-532.106	21.456	0.261	0.213
-531.091	5.337	-0.175	-0.130
-530.077	162.657	0.115	-0.162
-529.062	243.646	0.133	-0.225
-528.048	281.375	-0.068	0.123
-527.033	-200.000	-0.021	0.304
-526.018	800.000	-0.098	-0.339
-525.004	123.250	-0.040	0.051
-523.989	-55.522	0.319	0.144
-522.975	800.000	-0.105	-0.338
-521.960	-118.670	0.196	-0.035
-520.945	-68.008	0.169	0.066
-519.931	-116.363	-0.197	-0.037
-518.916	-69.689	-0.294	0.113
-517.902	220.695	0.151	-0.243
-516.887	78.675	0.085	0.091
-515.872	-125.884	0.204	0.031
-514.858	-77.230	-0.215	0.075
-513.843	249.799	-0.035	0.060
-512.829	402.956	-0.034	-0.071
-511.814	239.255	0.105	0.176
-510.799	-98.090	-0.251	0.065
-509.785	-24.528	-0.340	-0.203
-508.770	-200.000	0.013	-0.090
-507.756	-77.131	0.251	-0.088
-506.741	800.000	0.062	-0.193
-505.726	49.254	0.182	0.172
-504.712	236.830	-0.182	0.303
-503.697	237.014	0.194	-0.323
-502.683	800.000	0.137	-0.405
-501.668	135.848	0.122	-0.160
-500.653	-88.072	-0.027	-0.008
-499.639	-200.000	-0.012	0.054
-498.624	650.829	0.110	0.282
-497.610	-145.923	0.322	-0.029
-496.595	-200.000	0.005	0.255
-495.581	-200.000	0.018	-0.262
-494.566	239.443	-0.155	0.259
-493.551	105.317	-0.129	0.153
-492.537	125.108	0.136	0.172
-491.522	-7.936	-0.201	0.136
-490.508	800.000	0.101	-0.347
-489.493	-163.442	-0.251	0.012
-488.478	560.696	0.115	0.278
-487.464	-200.000	0.064	-0.409
-486.449	-34.812	-0.015	-0.008
-485.435	244.569	0.010	0.017
-484.420	-142.948	-0.177	-0.017
-483.405	219.764	-0.114	-0.183
-482.391	-64.867	0.172	-0.070
-481.376	-200.000	0.022	0.097
-480.362	194.649	0.130	0.198
-479.347	251.874	-0.086	-0.147
-478.332	72.952	0.230	-0.241
-477.318	-49.718	0.029	0.014
-476.303	-200.000	0.038	-0.297
-475.289	-200.000	0.026	-0.261
-474.274	297.405	-0.030	0.055
-473.259	40.901	-0.224	0.203
-472.245	488.720	0.025	-0.057
-471.230	800.000	0.015	0.046
-470.216	627.803	-0.035	-0.088
-469.201	-23.246	0.196	-0.118
-468.186	356.546	-0.140	0.280
-467.172	-131.002	0.148	-0.020
-466.157	75.332	0.184	0.195
-465.143	800.000	-0.058	-0.216
-464.128	-126.897	-0.181	-0.027
-463.113	-48.628	-0.268	-0.129
-462.099	-100.928	-0.093	0.023
-461.084	-200.000	-0.029	0.345
-460.070	-181.453	-0.133	0.003
-459.055	-149.807	0.341	0.027
-458.040	800.000	-0.122	0.355
-457.026	-161.533	0.135	0.007
-456.011	-65.414	-0.044	0.018
-454.997	-12.742	-0.365	-0.238
-453.982	343.760	0.048	0.095
-452.968	-86.894	-0.377	-0.115
-451.953	-13.533	0.052	0.034
-450.938	92.065	-0.283	-0.319
-449.924	-200.000	-0.024	-0.202
-448.909	-200.000	0.025	0.358
-447.895	111.880	0.077	-0.093
-446.880	144.103	-0.027	-0.036
-445.865	-121.400	-0.277	0.046
-444.851	1.689	0.279	-0.201
-443.836	-144.353	0.106	0.010
-442.822	135.953	0.150	0.196
-441.807	-2.111	-0.311	-0.219
-440.792	-198.327	0.109	-0.001
-439.778	-46.017	0.211	0.104
-438.763	29.001	0.120	0.102
-437.749	-98.595	0.264	0.068
-436.734	-149.165	-0.109	0.009
-435.719	24.709	0.068	-0.057
-434.705	800.000	0.045	-0.173
-433.690	624.661	-0.142	0.360
-432.676	-17.617	-0.081	-0.051
-431.661	158.704	-0.179	0.249
-430.646	-200.000	-0.007	0.059
-429.632	-146.149	0.102	-0.009
-428.617	-200.000	-0.010	0.096
-427.603	31.115	0.131	-0.112
-426.588	120.425	-0.154	-0.191
-425.573	-117.241	0.301	0.055
-424.559	-100.172	0.092	0.023
-423.544	-45.846	0.294	0.145
-422.530	-72.689	0.227	-0.084
-421.515	-200.000	-0.017	0.211
-420.500	-200.000	0.010	0.071
-419.486	800.000	-0.100	-0.330
-418.471	-8.436	-0.100	0.067
-417.457	-37.513	-0.236	0.126
-416.442	7.612	-0.102	-0.077
-415.428	-117.736	0.175	-0.031
-414.413	-179.585	-0.219	-0.005
-413.398	800.000	0.024	-0.083
-412.384	-84.642	0.078	-0.025
-411.369	-200.000	0.018	0.119
-410.355	69.551	0.139	0.143
-409.340	-200.000	0.044	0.195
-408.325	72.999	0.167	-0.174
-407.311	-157.467	-0.236	0.014
-406.296	514.449	0.041	-0.096
-405.282	-200.000	-0.014	-0.064
-404.267	25.084	0.125	0.104
-403.252	172.228	0.070	-0.101
-402.238	23.353	-0.059	0.048
-401.223	23.008	0.118	-0.097
-400.209	105.668	-0.057	-0.067
-399.194	97.717	0.086	-0.098
-398.179	499.090	0.060	-0.139
-397.165	-155.235	-0.286	0.019
-396.150	-32.283	-0.382	-0.213
-395.136	-172.276	-0.466	0.015
-394.121	-79.887	0.122	0.041
-393.106	8.771	0.235	0.177
-392.092	800.000	-0.092	0.290
-391.077	-32.028	0.341	0.191
-390.063	-62.988	0.049	-0.020
-389.048	-200.000	-0.071	0.396
-388.033	184.846	-0.034	0.050
-387.019	-66.309	-0.262	-0.104
-386.004	185.163	0.078	-0.116
-384.990	-98.995	0.420	0.107
-383.975	131.196	-0.272	0.349
-382.960	613.074	-0.084	-0.211
-381.946	-52.485	-0.414	0.191
-380.931	-113.437	-0.150	0.029
-379.917	-200.000	0.005	-0.352
-378.902	800.000	-0.039	0.119
-377.888	-21.099	-0.157	-0.096
-376.873	-9.355	-0.124	-0.083
-375.858	-61.495	0.175	-0.073
-374.844	444.404	-0.070	-0.153
-373.829	-55.909	-0.123	-0.055
-372.815	-85.893	-0.261	0.081
-371.800	-200.000	0.026	0.232
-370.785	-200.000	0.027	-0.239
-369.771	147.787	0.130	-0.175
-368.756	-155.960	-0.158	-0.010
-367.742	-162.748	-0.163	0.008
-366.727	-23.150	0.261	-0.157
-365.712	-72.005	-0.003	0.001
-364.698	-200.000	0.004	-0.330
-363.683	-200.000	-0.030	0.175
-362.669	-157.964	0.153	0.009
-361.654	-110.619	0.402	-0.083
-360.639	579.038	-0.093	-0.228
-359.625	-151.318	0.107	0.008
-358.610	-47.172	0.130	-0.063
-357.596	488.914	0.160	-0.364
-356.581	800.000	0.112	-0.335
-355.566	16.320	0.223	0.175
-354.552	679.485	-0.076	0.198
-353.537	2.101	-0.183	-0.132
-352.523	151.794	0.392	-0.534
-351.508	440.026	-0.073	0.159
-350.493	-77.067	0.341	-0.119
-349.479	-54.631	0.049	-0.022
-348.464	-200.000	0.024	0.146
-347.450	88.773	-0.142	0.158
-346.435	-125.815	-0.050	0.008
-345.420	800.000	0.086	0.331
-344.406	195.559	-0.139	-0.210
-343.391	-200.000	-0.032	-0.180
-342.377	115.725	0.183	0.224
-341.362	-37.369	-0.169	0.090
-340.348	-137.950	-0.272	-0.030
-339.333	-200.000	0.025	-0.123
-338.318	-72.446	-0.239	0.088
-337.304	-200.000	-0.014	-0.072
-336.289	52.919	0.077	-0.073
-335.275	7.878	0.252	-0.188
-334.260	20.988	0.330	0.267
-333.245	-96.287	0.150	-0.040
-332.231	-168.281	-0.206	-0.008
-331.216	67.255	-0.206	-0.210
-330.202	-42.658	-0.355	-0.180
-329.187	800.000	-0.037	0.158
-328.172	800.000	-0.031	0.108
-327.158	106.144	0.070	0.083
-326.143	-95.769	0.105	-0.028
-325.129	-80.705	-0.036	0.012
-324.114	-72.002	-0.375	-0.139
-323.099	-200.000	-0.055	-0.342
-322.085	21.230	0.267	-0.216
-321.070	-145.619	-0.108	-0.010
-320.056	-96.246	0.253	0.067
-319.041	-27.708	0.190	0.110
-318.026	142.626	0.216	0.286
-317.012	-88.366	0.265	0.079
-315.997	-74.039	-0.041	-0.015
-314.983	48.842	0.233	0.218
-313.968	-200.000	0.010	0.201
-312.953	-21.188	-0.226	-0.138
-311.939	67.922	-0.081	-0.083
-310.924	-109.177	0.250	-0.053
-309.910	-200.000	-0.023	-0.140
-308.895	80.146	-0.142	-0.152
-307.880	-18.303	0.339	-0.211
-306.866	-200.000	-0.024	-0.305
-305.851	13.137	0.221	-0.170
-304.837	-163.064	-0.195	-0.009
-303.822	26.775	-0.019	-0.016
-302.807	123.908	0.247	0.309
-301.793	79.200	-0.096	0.103
-300.778	132.683	-0.117	-0.150
-299.764	-200.000	0.006	0.073
-298.749	-200.000	-0.017	0.282
-297.735	-125.290	0.271	0.041
-296.720	-200.000	0.003	0.046
-295.705	-77.111	0.371	0.129
-294.691	-200.000	0.039	-0.209
-293.676	59.728	-0.192	-0.189
-292.662	800.000	0.071	-0.296
-291.647	-42.560	-0.164	-0.083
-290.632	-200.000	0.038	0.631
-289.618	-38.678	0.058	0.031
-288.603	-200.000	-0.011	0.150
-287.589	538.077	-0.060	-0.142
-286.574	-200.000	0.020	0.203
-285.559	800.000	-0.019	-0.062
-284.545	-73.495	0.110	0.040
-283.530	-101.591	0.152	0.037
-282.516	25.937	0.212	-0.176
-281.501	137.821	0.196	-0.256
-280.486	-12.952	0.197	0.127
-279.472	-80.324	-0.256	-0.085
-278.457	800.000	0.064	0.240
-277.443	759.397	-0.022	-0.058
-276.428	-18.956	-0.176	0.109
-275.413	-200.000	-0.022	-0.099
-274.399	411.287	-0.120	0.254
-273.384	47.598	-0.207	0.192
-272.370	-200.000	-0.026	0.380
-271.355	-11.562	-0.125	0.082
-270.340	-29.331	0.305	-0.174
-269.326	268.361	0.121	-0.210
-268.311	-158.652	0.111	0.006
-267.297	37.939	0.084	-0.075
-266.282	358.049	0.106	0.210
-265.267	800.000	0.088	-0.274
-264.253	-71.625	0.496	-0.184
-263.238	800.000	0.094	-0.385
-262.224	-5.689	-0.229	0.156
-261.209	1.764	-0.116	-0.083
-260.195	-47.581	0.199	-0.096
-259.180	-35.366	0.091	-0.049
-258.165	-200.000	-0.006	-0.075
-257.151	-93.557	0.368	-0.101
-256.136	-173.462	0.090	-0.003
-255.122	31.383	-0.279	-0.238
-254.107	200.611	-0.120	-0.183
-253.092	-157.175	-0.195	-0.012
-252.078	245.617	-0.057	-0.096
-251.063	-118.151	-0.332	0.059
-250.049	186.167	0.080	-0.118
-249.034	800.000	0.012	0.050
-248.019	25.083	-0.112	-0.092
-247.005	-39.479	0.270	0.141
-245.990	205.043	-0.197	0.304
-244.976	176.592	-0.249	0.360
-243.961	-200.000	-0.014	-0.353
-242.946	685.945	0.152	0.396
-241.932	-160.378	0.263	0.014
-240.917	215.154	-0.060	-0.094
-239.903	-200.000	0.105	0.478
-238.888	144.340	-0.127	0.168
-237.873	121.928	-0.138	-0.171
-236.859	-200.000	0.044	-0.200
-235.844	-179.945	-0.163	-0.003
-234.830	59.837	-0.198	-0.194
-233.815	13.253	0.112	-0.086
-232.800	-151.450	-0.232	-0.017
-231.786	82.666	-0.041	-0.044
-230.771	-200.000	0.022	-0.145
-229.757	219.511	0.089	-0.142
-228.742	800.000	-0.031	0.113
-227.727	15.036	-0.223	-0.174
-226.713	800.000	-0.064	-0.252
-225.698	286.763	0.017	0.030
-224.684	-113.397	0.241	0.047
-223.669	348.055	-0.041	-0.081
-222.655	-94.027	-0.436	0.119
-221.640	-200.000	-0.025	-0.234
-220.625	-9.832	-0.197	0.130
-219.611	278.223	0.125	0.222
-218.596	-22.406	-0.126	0.076
-217.582	714.709	0.080	0.211
-216.567	135.640	0.114	-0.148
-215.552	82.900	-0.184	-0.199
-214.538	800.000	0.066	0.220
-213.523	699.136	0.151	0.395
-212.509	800.000	0.149	0.442
-211.494	-200.000	-0.008	-0.308
-210.479	283.853	0.129	-0.231
-209.465	800.000	-0.060	-0.230
-208.450	-200.000	0.020	0.165
-207.436	-150.376	-0.064	0.005
-206.421	800.000	-0.130	0.512
-205.406	-200.000	-0.021	0.114
-204.392	524.801	0.040	0.094
-203.377	54.571	-0.333	0.319
-202.363	239.694	0.267	0.441
-201.348	-139.426	0.118	-0.012
-200.333	-90.331	-0.096	0.028
-199.319	800.000	0.064	-0.229
-198.304	23.359	-0.188	-0.153
-197.290	-200.000	0.214	0.000
-196.275	-200.000	-0.021	-0.097
-195.260	200.735	-0.076	0.115
-194.246	-200.000	0.022	0.115
-193.231	43.246	-0.127	0.115
-192.217	223.706	0.149	-0.238
-191.202	800.000	0.144	0.490
-190.187	-33.717	0.096	0.053
-189.173	207.565	-0.090	-0.139
-188.158	-154.445	0.197	-0.013
-187.144	-64.404	-0.132	0.053
-186.129	-92.900	0.203	0.056
-185.114	-200.000	0.013	0.195
-184.100	-132.214	-0.085	0.011
-183.085	-99.526	-0.240	0.060
-182.071	-63.559	0.250	-0.102
-181.056	-111.809	0.160	-0.032
-180.042	-38.113	0.437	0.230
-179.027	38.981	0.110	-0.097
-178.012	-200.000	-0.012	-0.116
-176.998	-200.000	-0.011	-0.221
-175.983	-36.388	-0.246	-0.131
-174.969	42.384	-0.187	0.169
-173.954	-200.000	0.006	0.071
-172.939	166.382	0.094	0.131
-171.925	-94.674	-0.072	-0.019
-170.910	-147.144	-0.157	0.013
-169.896	-200.000	0.000	0.043
-168.881	358.278	-0.026	-0.052
-167.866	-200.000	0.022	-0.337
-166.852	-9.433	-0.130	0.086
-165.837	-24.173	0.129	-0.076
-164.823	216.229	0.061	0.097
-163.808	4.119	0.069	-0.050
-162.793	475.995	-0.069	-0.154
-161.779	-200.000	-0.001	-0.317
-160.764	453.208	-0.027	0.059
-159.750	-15.012	-0.152	-0.096
-158.735	152.238	-0.168	-0.227
-157.720	-200.000	0.037	-0.220
-156.706	129.907	0.180	0.227
-155.691	-41.375	0.258	0.131
-154.677	-200.000	0.007	-0.245
-153.662	9.911	-0.142	0.107
-152.647	-117.236	0.095	-0.017
-151.633	-200.000	-0.032	0.305
-150.618	29.903	-0.237	0.200
-149.604	155.764	-0.130	0.177
-148.589	71.180	-0.126	-0.129
-147.574	650.348	0.111	-0.281
-146.560	4.111	0.169	-0.123
-145.545	-200.000	0.011	-0.117
-144.531	-200.000	-0.016	-0.070
-143.516	-54.612	0.296	-0.133
-142.502	393.814	-0.080	-0.166
-141.487	-200.000	0.042	0.304
-140.472	26.800	-0.181	0.150
-139.458	800.000	0.061	0.179
-138.443	-87.142	0.161	0.048
-137.429	-57.553	0.286	-0.124
-136.414	-55.684	-0.526	0.233
-135.399	800.000	0.038	0.146
-134.385	-200.000	-0.016	-0.165
-133.370	-200.000	0.022	0.115
-132.356	-200.000	0.006	0.086
-131.341	-137.163	-0.328	0.037
-130.326	-35.188	0.165	0.089
-129.312	60.612	-0.154	-0.151
-128.297	320.620	-0.069	0.130
-127.283	-175.568	-0.124	-0.003
-126.268	510.484	-0.094	-0.216
-125.253	-23.700	-0.095	0.056
-124.239	-65.308	-0.221	-0.088
-123.224	384.841	-0.197	-0.402
-122.210	373.791	-0.026	-0.052
