DTS Sentinel unit serial number:	SN413079Multiplexer serial number:	ORYXHardware model number:	OX4-SRSoftware version number:	ORYX F/W v4.00 Oryx Data Collector v3.7.2.0data status	okinstallation	princeton_trtdifferential loss correction	single-endedforward channel	channel 2reverse channel	N/Adate	2019/09/14time	08:43:35forward acquisition time	60.00reverse acquisition time	0.00gamma	496.2192k internal	0.2328k external	0.2328temperature offset calibration	1.0131default loss term (dB/km)	0.3790temperature slope calibration	1.0000multiplexer offset coefficient	1.0000multiplexer slope coefficient	1.0000fibre end	0.00T internal ref (°C)	29.02T ext. ref 1 (°C)	3.68T ext. ref 2 (°C)	26.52length (m)	temperature (°C)	Stokes	anti-Stokes-747.200	800.000	-0.114	0.404
-746.185	104.956	-0.177	0.211
-745.171	-7.684	0.162	-0.110
-744.156	-80.552	0.167	-0.056
-743.142	-63.897	0.181	0.075
-742.127	-165.610	-0.273	0.012
-741.112	85.666	-0.160	-0.177
-740.098	145.477	-0.203	-0.274
-739.083	77.134	-0.107	-0.114
-738.069	418.319	-0.026	0.056
-737.054	-140.450	-0.061	0.006
-736.039	-133.534	-0.270	0.034
-735.025	-121.505	0.136	-0.023
-734.010	433.312	0.080	-0.174
-732.996	-200.000	0.003	0.109
-731.981	-107.193	0.133	0.030
-730.966	134.249	-0.146	-0.190
-729.952	506.555	-0.123	-0.288
-728.937	-128.413	0.104	0.015
-727.923	-156.264	-0.130	-0.008
-726.908	-48.457	0.141	-0.069
-725.894	-48.485	0.126	0.061
-724.879	-80.801	-0.263	-0.088
-723.864	171.177	0.175	-0.252
-722.850	-200.000	0.012	-0.146
-721.835	-3.358	-0.153	0.107
-720.821	-200.000	-0.065	0.500
-719.806	-21.974	0.351	0.215
-718.791	86.373	0.199	0.221
-717.777	-158.374	-0.138	0.008
-716.762	151.339	0.058	-0.080
-715.748	800.000	0.090	-0.327
-714.733	-84.961	-0.136	-0.043
-713.718	-46.846	0.395	-0.194
-712.704	-200.000	-0.012	-0.170
-711.689	-139.942	0.104	0.011
-710.675	457.412	0.066	0.148
-709.660	-110.973	-0.193	-0.040
-708.645	-155.339	-0.198	0.013
-707.631	800.000	-0.055	0.224
-706.616	-200.000	0.030	0.196
-705.602	-146.795	-0.202	0.018
-704.587	715.447	-0.150	0.400
-703.572	350.413	0.037	0.074
-702.558	-200.000	-0.022	0.106
-701.543	-200.000	0.040	0.191
-700.529	800.000	0.058	-0.206
-699.514	518.110	-0.127	-0.299
-698.499	-95.512	-0.346	0.093
-697.485	224.157	-0.095	-0.154
-696.470	-200.000	-0.015	0.083
-695.456	800.000	-0.058	-0.212
-694.441	-117.687	-0.299	-0.054
-693.426	75.849	-0.149	-0.158
-692.412	204.519	-0.124	0.194
-691.397	-200.000	0.032	-0.198
-690.383	-180.997	0.191	-0.004
-689.368	-200.000	0.001	0.347
-688.354	74.871	-0.212	0.224
-687.339	-200.000	-0.009	-0.067
-686.324	-200.000	0.059	0.261
-685.310	-83.835	0.056	-0.018
-684.295	145.747	-0.295	0.398
-683.281	184.027	0.101	-0.150
-682.266	470.484	0.086	0.195
-681.251	-88.425	-0.096	0.029
-680.237	653.364	0.053	-0.136
-679.222	193.705	-0.173	-0.263
-678.208	-200.000	-0.031	-0.155
-677.193	-78.851	-0.158	-0.054
-676.178	800.000	-0.092	-0.277
-675.164	362.356	0.080	-0.162
-674.149	648.550	-0.104	-0.268
-673.135	-179.642	0.132	-0.003
-672.120	-66.562	-0.211	-0.084
-671.105	9.222	0.181	-0.137
-670.091	240.524	-0.215	0.360
-669.076	-118.949	0.107	-0.019
-668.062	-98.840	-0.182	0.047
-667.047	67.756	-0.064	-0.065
-666.032	-96.717	0.171	0.045
-665.018	199.318	-0.097	-0.149
-664.003	596.301	-0.065	-0.162
-662.989	361.288	0.048	0.096
-661.974	800.000	-0.052	-0.200
-660.959	325.596	0.104	-0.199
-659.945	-200.000	0.018	-0.197
-658.930	800.000	0.099	-0.276
-657.916	385.085	0.120	-0.249
-656.901	-120.278	0.258	-0.044
-655.886	-3.301	-0.151	-0.105
-654.872	-34.710	-0.234	0.129
-653.857	-80.424	0.385	0.129
-652.843	-188.701	0.031	0.000
-651.828	266.139	-0.141	0.248
-650.814	-46.521	0.261	0.128
-649.799	385.918	0.089	-0.185
-648.784	12.725	-0.272	-0.211
-647.770	-29.942	-0.111	-0.064
-646.755	-200.000	0.012	-0.366
-645.741	252.132	-0.127	-0.217
-644.726	-77.362	0.192	-0.067
-643.711	-14.118	0.173	-0.112
-642.697	69.889	0.103	0.106
-641.682	-132.910	0.122	0.016
-640.668	-200.000	-0.009	-0.085
-639.653	-30.816	-0.271	-0.154
-638.638	-140.550	-0.129	-0.013
-637.624	27.604	-0.139	0.118
-636.609	41.026	-0.028	-0.025
-635.595	-100.941	0.303	-0.075
-634.580	800.000	0.068	0.255
-633.565	-134.793	0.261	0.032
-632.551	-200.000	-0.012	0.218
-631.536	-103.073	-0.127	-0.030
-630.522	-112.716	0.096	-0.019
-629.507	-200.000	0.007	-0.064
-628.492	800.000	0.193	-0.542
-627.478	800.000	0.092	-0.317
-626.463	-200.000	-0.065	0.424
-625.449	-200.000	0.024	-0.254
-624.434	800.000	-0.120	0.348
-623.419	107.798	0.386	0.461
-622.405	743.782	-0.070	-0.190
-621.390	-200.000	-0.060	-0.268
-620.376	-57.852	0.218	-0.096
-619.361	-23.791	0.164	0.098
-618.346	-200.000	-0.078	0.000
-617.332	201.113	-0.064	0.099
-616.317	-127.116	0.203	-0.030
-615.303	-51.284	-0.254	0.119
-614.288	800.000	0.065	-0.218
-613.273	-52.597	0.144	0.067
-612.259	25.734	-0.261	-0.218
-611.244	23.051	0.093	-0.076
-610.230	-200.000	0.032	0.244
-609.215	800.000	-0.065	0.199
-608.201	-55.894	-0.128	0.057
-607.186	-81.816	0.215	0.071
-606.171	-200.000	0.055	-0.328
-605.157	-131.310	-0.384	0.051
-604.142	-85.201	0.165	-0.052
-603.128	800.000	-0.041	-0.134
-602.113	-1.726	-0.299	0.211
-601.098	-124.829	0.062	-0.010
-600.084	21.844	0.297	-0.242
-599.069	-200.000	-0.030	-0.299
-598.055	-200.000	-0.005	-0.390
-597.040	800.000	0.038	-0.106
-596.025	420.145	-0.133	-0.285
-595.011	-66.179	-0.214	-0.085
-593.996	-200.000	0.011	0.232
-592.982	-118.515	-0.303	-0.054
-591.967	-200.000	0.078	-0.387
-590.952	305.898	0.119	-0.221
-589.938	-64.001	0.043	0.018
-588.923	472.750	-0.104	-0.236
-587.909	9.138	0.180	-0.136
-586.894	31.255	0.043	0.037
-585.879	358.950	0.022	-0.045
-584.865	212.247	-0.126	0.199
-583.850	-81.001	0.082	-0.027
-582.836	9.721	0.114	0.087
-581.821	800.000	-0.028	-0.083
-580.806	-133.722	-0.090	-0.011
-579.792	189.537	-0.153	0.229
-578.777	800.000	0.044	-0.173
-577.763	-32.399	0.158	0.088
-576.748	117.964	-0.232	-0.286
-575.733	-61.448	-0.325	0.137
-574.719	-14.519	-0.182	-0.117
-573.704	-84.504	0.258	0.082
-572.690	800.000	-0.036	-0.143
-571.675	-200.000	0.000	-0.112
-570.661	298.316	-0.086	-0.158
-569.646	800.000	-0.123	-0.415
-568.631	-200.000	-0.038	0.194
-567.617	83.377	-0.121	0.132
-566.602	-3.806	-0.119	-0.082
-565.588	171.128	0.241	0.347
-564.573	800.000	0.082	-0.301
-563.558	-170.572	0.088	0.003
-562.544	775.559	0.137	0.373
-561.529	74.910	-0.170	-0.179
-560.515	550.534	-0.028	0.067
-559.500	-200.000	0.013	0.251
-558.485	62.103	-0.207	0.207
-557.471	331.483	0.069	0.132
-556.456	-200.000	-0.034	-0.291
-555.442	466.011	0.040	0.089
-554.427	733.784	0.123	-0.330
-553.412	32.431	-0.072	0.063
-552.398	-166.515	0.267	0.011
-551.383	800.000	0.037	0.156
-550.369	-25.229	0.215	-0.127
-549.354	130.832	-0.155	-0.199
-548.339	270.261	-0.188	0.330
-547.325	-107.397	-0.067	0.015
-546.310	199.324	-0.233	-0.357
-545.296	-120.700	0.230	0.039
-544.281	-28.797	0.116	-0.067
-543.266	-127.831	-0.353	-0.051
-542.252	-89.774	0.182	0.053
-541.237	-72.844	0.178	-0.065
-540.223	-103.845	0.180	-0.042
-539.208	-76.874	0.415	-0.145
-538.193	-27.454	-0.070	0.041
-537.179	800.000	-0.041	-0.158
-536.164	-57.688	0.118	-0.052
-535.150	731.536	0.103	-0.276
-534.135	-37.467	-0.017	-0.009
-533.121	-110.178	0.186	-0.039
-532.106	-94.753	-0.295	0.080
-531.091	254.313	-0.222	0.379
-530.077	800.000	-0.051	0.182
-529.062	-97.601	0.084	0.022
-528.048	800.000	0.051	-0.185
-527.033	-132.551	0.198	0.025
-526.018	60.469	0.234	-0.231
-525.004	-25.110	0.566	0.335
-523.989	-48.683	-0.248	-0.119
-522.975	40.530	-0.107	-0.097
-521.960	-56.975	0.351	0.155
-520.945	-97.799	-0.168	-0.044
-519.931	-33.779	-0.066	0.036
-518.916	800.000	-0.055	0.172
-517.902	800.000	-0.040	-0.143
-516.887	-87.325	0.250	-0.076
-515.872	54.476	-0.257	0.247
-514.858	-52.120	0.287	0.133
-513.843	800.000	-0.138	-0.458
-512.829	-200.000	-0.005	0.276
-511.814	-17.723	0.137	-0.086
-510.799	-25.602	-0.385	-0.227
-509.785	286.153	0.173	-0.312
-508.770	800.000	0.084	-0.364
-507.756	800.000	0.075	0.235
-506.741	-124.109	0.302	0.047
-505.726	-91.435	0.237	-0.067
-504.712	517.301	-0.034	-0.078
-503.697	-200.000	0.012	0.086
-502.683	156.271	-0.219	0.302
-501.668	-112.619	-0.157	-0.031
-500.653	-133.480	0.165	-0.021
-499.639	-55.268	0.180	0.081
-498.624	-33.572	-0.225	0.124
-497.610	94.375	0.116	-0.131
-496.595	-200.000	0.026	0.254
-495.581	800.000	-0.155	0.461
-494.566	-200.000	-0.036	-0.221
-493.551	-200.000	-0.011	-0.221
-492.537	704.451	0.070	-0.185
-491.522	800.000	-0.072	0.225
-490.508	-200.000	0.043	0.000
-489.493	800.000	0.030	0.114
-488.478	7.215	-0.144	0.107
-487.464	30.314	0.216	0.184
-486.449	58.142	0.294	0.287
-485.435	49.169	-0.262	0.245
-484.420	-200.000	0.009	0.151
-483.405	149.968	-0.148	0.201
-482.391	275.135	-0.139	-0.246
-481.376	100.890	-0.233	0.270
-480.362	252.274	-0.230	0.390
-479.347	65.759	-0.205	-0.208
-478.332	-200.000	-0.012	0.148
-477.318	86.493	-0.162	-0.178
-476.303	-200.000	0.002	-0.136
-475.289	-101.879	-0.270	0.065
-474.274	-134.444	0.139	0.017
-473.259	800.000	0.032	0.117
-472.245	296.330	-0.116	0.211
-471.230	800.000	-0.054	0.152
-470.216	214.080	0.140	0.221
-469.201	-113.942	0.297	-0.058
-468.186	-154.354	-0.508	0.034
-467.172	94.888	0.104	-0.118
-466.157	-76.372	0.074	-0.026
-465.143	-151.995	0.190	0.014
-464.128	320.579	0.172	-0.326
-463.113	-121.202	0.297	0.050
-462.099	539.171	-0.043	0.101
-461.084	149.945	-0.039	0.053
-460.070	-200.000	-0.010	-0.073
-459.055	-69.494	0.218	-0.083
-458.040	800.000	0.122	-0.369
-457.026	-145.982	-0.148	0.013
-456.011	329.242	-0.140	0.267
-454.997	-200.000	-0.026	-0.218
-453.982	800.000	0.042	0.123
-452.968	-112.272	0.077	0.015
-451.953	285.496	-0.116	0.208
-450.938	-200.000	0.055	-0.570
-449.924	240.480	-0.226	-0.376
-448.909	-32.289	0.029	0.016
-447.895	-125.735	-0.353	-0.053
-446.880	-88.650	0.017	0.005
-445.865	800.000	0.060	0.221
-444.851	-104.223	0.021	0.005
-443.836	140.593	0.143	-0.188
-442.822	78.847	0.192	0.205
-441.807	249.291	0.132	-0.223
-440.792	-9.341	0.185	0.123
-439.778	-200.000	-0.021	-0.139
-438.763	-200.000	0.178	0.000
-437.749	-157.028	0.360	-0.022
-436.734	-184.369	-0.055	0.001
-435.719	553.806	-0.101	0.242
-434.705	47.896	0.065	-0.061
-433.690	-124.445	-0.105	-0.016
-432.676	283.066	0.034	0.061
-431.661	800.000	0.012	-0.033
-430.646	-51.977	0.461	0.213
-429.632	-89.828	0.147	0.043
-428.617	293.882	0.098	-0.179
-427.603	800.000	-0.041	0.173
-426.588	236.012	0.141	0.233
-425.573	-22.389	-0.197	-0.119
-424.559	-78.827	-0.099	0.034
-423.544	-200.000	-0.021	-0.109
-422.530	159.160	-0.042	-0.059
-421.515	174.930	0.089	0.128
-420.500	97.321	-0.044	0.050
-419.486	-181.564	-0.257	-0.005
-418.471	-125.582	-0.206	-0.031
-417.457	276.104	-0.058	-0.102
-416.442	-15.020	-0.059	-0.037
-415.428	-171.260	0.024	-0.001
-414.413	-59.324	0.033	-0.014
-413.398	88.110	0.091	-0.100
-412.384	-167.335	-0.070	0.003
-411.369	-200.000	-0.072	-0.000
-410.355	-139.124	-0.159	0.017
-409.340	-19.625	0.350	0.215
-408.325	-200.000	-0.007	-0.031
-407.311	800.000	0.019	-0.054
-406.296	-38.168	-0.151	0.080
-405.282	-82.389	0.115	0.037
-404.267	238.388	-0.115	0.189
-403.252	-200.000	0.018	-0.190
-402.238	193.030	0.148	0.222
-401.223	799.540	-0.118	0.325
-400.209	88.236	0.105	-0.116
-399.194	181.801	-0.236	-0.346
-398.179	-200.000	-0.041	-0.197
-397.165	-49.541	-0.170	0.081
-396.150	-191.662	0.166	0.002
-395.136	-19.090	-0.159	0.098
-394.121	-64.849	-0.279	0.112
-393.106	8.558	0.108	0.080
-392.092	-100.640	-0.446	0.109
-391.077	-200.000	-0.002	0.013
-390.063	201.241	0.097	-0.149
-389.048	800.000	0.060	0.214
-388.033	-123.057	-0.237	-0.038
-387.019	382.008	-0.170	-0.346
-386.004	-115.462	-0.089	-0.017
-384.990	-115.508	-0.136	-0.025
-383.975	503.636	-0.120	-0.275
-382.960	468.979	-0.207	-0.463
-381.946	107.423	0.145	0.172
-380.931	-107.514	-0.287	0.063
-379.917	800.000	-0.067	-0.216
-378.902	17.728	-0.198	-0.156
-377.888	-200.000	-0.004	0.048
-376.873	-132.301	0.051	-0.007
-375.858	10.012	-0.137	0.103
-374.844	800.000	0.088	-0.312
-373.829	-108.528	-0.124	0.027
-372.815	117.572	0.072	0.088
-371.800	800.000	0.091	0.259
-370.785	-73.780	0.134	-0.048
-369.771	-69.110	0.203	-0.078
-368.756	-200.000	-0.005	-0.096
-367.742	337.271	0.046	-0.089
-366.727	485.996	0.137	0.309
-365.712	-134.155	-0.085	-0.010
-364.698	694.554	0.198	-0.515
-363.683	-5.767	-0.103	0.070
-362.669	561.692	0.081	0.195
-361.654	233.309	0.062	0.101
-360.639	-33.214	0.188	-0.104
-359.625	-120.115	0.265	-0.045
-358.610	-26.304	0.510	-0.297
-357.596	-46.663	0.237	0.115
-356.581	45.664	-0.291	-0.267
-355.566	97.902	0.139	-0.159
-354.552	-161.740	-0.142	-0.007
-353.537	-200.000	0.003	0.252
-352.523	-28.324	-0.151	-0.086
-351.508	11.599	-0.267	0.203
-350.493	-143.621	0.119	-0.011
-349.479	34.585	0.208	0.181
-348.464	-92.547	-0.124	-0.035
-347.450	-14.029	-0.065	-0.042
-346.435	-8.935	-0.255	-0.169
-345.420	-37.569	-0.222	-0.117
-344.406	106.344	0.043	-0.051
-343.391	117.283	0.087	0.106
-342.377	80.312	0.185	-0.197
-341.362	-35.518	-0.201	-0.108
-340.348	335.750	0.163	-0.315
-339.333	-200.000	0.053	-0.262
-338.318	800.000	0.040	0.121
-337.304	-200.000	0.011	0.283
-336.289	-16.440	-0.128	0.081
-335.275	213.409	0.173	-0.271
-334.260	800.000	0.054	0.224
-333.245	-200.000	-0.042	-0.243
-332.231	-200.000	0.028	-0.229
-331.216	99.483	0.127	-0.146
-330.202	800.000	0.150	-0.519
-329.187	30.063	0.062	0.053
-328.172	367.730	-0.137	-0.274
-327.158	83.295	-0.225	0.243
-326.143	473.398	-0.119	-0.266
-325.129	382.363	-0.058	-0.118
-324.114	-122.050	0.092	-0.015
-323.099	300.398	-0.077	-0.141
-322.085	-200.000	-0.044	0.290
-321.070	-83.628	0.187	0.059
-320.056	800.000	-0.077	0.261
-319.041	-20.341	-0.340	0.208
-318.026	-81.212	-0.314	0.103
-317.012	73.766	0.112	0.116
-315.997	-11.926	-0.184	0.120
-314.983	76.491	0.142	-0.149
-313.968	-200.000	0.123	0.000
-312.953	-3.348	-0.191	-0.132
-311.939	145.892	-0.061	0.081
-310.924	-103.846	-0.261	-0.060
-309.910	-200.000	-0.047	0.330
-308.895	469.030	0.037	-0.083
-307.880	183.210	-0.139	0.203
-306.866	2.947	-0.414	0.298
-305.851	64.357	0.241	-0.241
-304.837	-120.245	-0.169	-0.029
-303.822	800.000	0.111	0.431
-302.807	-8.164	0.150	0.100
-301.793	-149.160	0.066	0.005
-300.778	-200.000	-0.018	0.338
-299.764	-48.368	0.176	-0.084
-298.749	106.516	0.021	0.024
-297.735	-103.246	0.079	-0.018
-296.720	-114.746	-0.104	0.020
-295.705	-109.195	-0.507	0.107
-294.691	800.000	0.041	0.143
-293.676	-200.000	-0.023	-0.335
-292.662	-60.914	-0.107	-0.045
-291.647	-200.000	0.030	-0.151
-290.632	137.197	0.074	0.096
-289.618	-200.000	-0.043	-0.250
-288.603	668.576	0.064	0.165
-287.589	95.799	-0.160	0.181
-286.574	-93.013	0.464	0.128
-285.559	-199.849	0.222	-0.001
-284.545	636.657	-0.152	-0.382
-283.530	-88.678	-0.225	-0.066
-282.516	328.833	0.075	-0.143
-281.501	-38.931	-0.231	-0.120
-280.486	-132.921	0.254	0.032
-279.472	800.000	-0.048	0.149
-278.457	101.439	-0.125	0.144
-277.443	-127.258	-0.229	0.033
-276.428	8.865	-0.181	0.135
-275.413	-43.118	0.309	-0.155
-274.399	800.000	0.042	0.158
-273.384	156.579	0.098	0.134
-272.370	210.342	0.045	0.070
-271.355	145.890	-0.049	0.065
-270.340	-176.688	0.088	-0.002
-269.326	-19.729	0.204	0.125
-268.311	-51.051	-0.110	0.051
-267.297	9.199	0.123	0.092
-266.282	800.000	-0.026	-0.100
-265.267	-96.992	-0.209	0.054
-264.253	-0.699	-0.238	-0.167
-263.238	800.000	-0.060	0.238
-262.224	533.796	0.152	-0.355
-261.209	74.304	0.300	0.311
-260.195	800.000	0.061	0.206
-259.180	133.270	0.215	0.274
-258.165	227.558	0.153	-0.246
-257.151	-200.000	0.027	0.205
-256.136	-200.000	-0.006	0.177
-255.122	-43.767	-0.252	-0.126
-254.107	122.181	0.172	-0.212
-253.092	147.964	-0.074	-0.099
-252.078	63.074	-0.078	-0.077
-251.063	215.552	-0.041	-0.064
-250.049	-25.805	0.130	0.076
-249.034	-200.000	0.307	-0.001
-248.019	-88.991	0.158	0.046
-247.005	-200.000	0.011	0.118
-245.990	-44.796	-0.276	-0.136
-244.976	-130.973	0.256	0.034
-243.961	85.054	-0.065	-0.071
-242.946	25.005	0.130	0.106
-241.932	800.000	-0.084	0.270
-240.917	800.000	0.087	0.250
-239.903	-11.851	-0.036	-0.023
-238.888	-130.921	0.298	-0.039
-237.873	16.738	-0.122	0.095
-236.859	241.928	0.187	0.309
-235.844	-200.000	0.027	0.425
-234.830	555.166	-0.057	0.136
-233.815	-200.000	-0.016	-0.148
-232.800	-151.390	0.265	-0.019
-231.786	-200.000	-0.007	0.114
-230.771	-95.656	-0.060	0.016
-229.757	34.832	0.283	-0.245
-228.742	273.203	0.071	0.123
-227.727	39.955	-0.200	-0.177
-226.713	56.383	-0.238	-0.229
-225.698	-49.308	0.041	0.019
-224.684	-200.000	0.007	0.150
-223.669	800.000	-0.128	-0.351
-222.655	91.883	-0.077	0.086
-221.640	4.070	-0.168	-0.122
-220.625	-109.954	0.249	-0.052
-219.611	166.368	0.065	0.091
-218.596	66.507	-0.145	-0.146
-217.582	-58.139	0.246	0.106
-216.567	-30.745	0.348	0.194
-215.552	-21.704	-0.197	-0.119
-214.538	115.014	-0.062	0.075
-213.523	-95.752	0.238	0.063
-212.509	147.692	0.224	0.299
-211.494	221.121	0.138	0.219
-210.479	2.338	0.199	-0.142
-209.465	-67.752	0.249	-0.096
-208.450	-28.312	0.199	0.113
-207.436	-118.159	-0.380	0.067
-206.421	-136.774	-0.072	-0.008
-205.406	-200.000	0.000	0.062
-204.392	628.181	-0.057	0.142
-203.377	-133.388	-0.061	0.008
-202.363	-200.000	-0.005	-0.034
-201.348	-83.501	-0.091	-0.029
-200.333	-40.801	-0.144	-0.074
-199.319	-138.206	0.273	0.030
-198.304	-66.901	-0.442	0.172
-197.290	-84.088	-0.206	0.065
-196.275	-192.855	0.324	0.003
-195.260	59.047	-0.186	0.180
-194.246	51.193	0.265	0.248
-193.231	82.134	0.185	-0.197
-192.217	20.664	-0.123	-0.098
-191.202	92.328	0.189	-0.210
-190.187	-200.000	-0.007	-0.274
-189.173	4.474	-0.189	0.137
-188.158	17.953	0.176	-0.138
-187.144	-29.083	0.253	0.143
-186.129	-102.524	-0.273	0.064
-185.114	800.000	0.146	0.451
-184.100	-200.000	0.001	-0.144
-183.085	13.123	-0.318	0.243
-182.071	-115.680	0.113	-0.021
-181.056	-135.895	-0.152	0.018
-180.042	-122.765	-0.122	-0.019
-179.027	191.128	0.139	0.206
-178.012	422.531	-0.085	-0.180
-176.998	-52.857	-0.112	-0.051
-175.983	284.992	-0.021	0.037
-174.969	-24.424	-0.155	0.091
-173.954	-97.750	-0.226	-0.058
-172.939	-47.184	0.143	0.069
-171.925	-34.444	0.115	0.062
-170.910	93.974	0.060	0.067
-169.896	-24.183	-0.415	0.244
-168.881	-11.605	0.146	0.094
-167.866	8.001	-0.074	-0.055
-166.852	-105.882	0.048	-0.011
-165.837	800.000	-0.081	0.274
-164.823	-200.000	0.052	0.231
-163.808	-200.000	-0.030	0.288
-162.793	-200.000	-0.061	-0.414
-161.779	59.638	-0.117	-0.114
-160.764	-131.471	0.257	0.033
-159.750	-200.000	0.006	-0.188
-158.735	737.667	-0.203	-0.536
-157.720	800.000	-0.065	0.222
-156.706	-200.000	0.054	0.301
-155.691	-42.785	0.098	-0.049
-154.677	305.466	-0.242	0.444
-153.662	-74.531	-0.311	0.110
-152.647	-125.732	0.362	0.054
-151.633	-157.917	-0.575	0.033
-150.618	585.793	0.049	-0.119
-149.604	631.571	-0.222	-0.553
-148.589	-109.449	-0.253	-0.053
-147.574	104.739	-0.058	0.067
-146.560	262.359	0.086	0.146
-145.545	-200.000	0.040	-0.195
-144.531	-125.648	-0.169	-0.025
-143.516	-99.985	-0.294	0.072
-142.502	30.428	-0.225	0.189
-141.487	-200.000	0.051	0.251
-140.472	113.990	-0.231	0.277
-139.458	-65.428	0.178	0.071
-138.443	800.000	-0.036	-0.138
-137.429	-200.000	-0.008	0.159
-136.414	555.385	-0.023	-0.055
-135.399	82.304	0.137	0.146
-134.385	106.272	0.062	-0.072
-133.370	121.325	0.086	-0.105
-132.356	194.729	0.129	-0.192
-131.341	-200.000	0.041	0.231
-130.326	-200.000	0.022	-0.198
-129.312	792.779	-0.032	0.086
-128.297	800.000	0.181	-0.558
-127.283	250.653	-0.041	-0.068
-126.268	-88.753	0.146	-0.043
-125.253	-66.373	0.098	0.038
-124.239	174.120	0.142	0.202
-123.224	-114.735	0.162	-0.030
-122.210	-88.975	-0.081	-0.024
