DTS Sentinel unit serial number:	SN413079Multiplexer serial number:	ORYXHardware model number:	OX4-SRSoftware version number:	ORYX F/W v4.00 Oryx Data Collector v3.7.2.0data status	okinstallation	princeton_trtdifferential loss correction	single-endedforward channel	channel 2reverse channel	N/Adate	2019/09/14time	03:19:34forward acquisition time	60.00reverse acquisition time	0.00gamma	496.2192k internal	0.2337k external	0.2337temperature offset calibration	1.0127default loss term (dB/km)	0.3790temperature slope calibration	1.0000multiplexer offset coefficient	1.0000multiplexer slope coefficient	1.0000fibre end	0.00T internal ref (°C)	26.62T ext. ref 1 (°C)	3.27T ext. ref 2 (°C)	21.64length (m)	temperature (°C)	Stokes	anti-Stokes-747.200	65.911	-0.252	0.257
-746.185	-200.000	0.034	0.196
-745.171	55.628	-0.078	0.076
-744.156	109.721	0.169	0.203
-743.142	44.448	-0.229	0.211
-742.127	-162.878	-0.280	-0.014
-741.112	241.625	0.066	-0.112
-740.098	-200.000	-0.011	0.069
-739.083	800.000	-0.096	0.377
-738.069	-200.000	0.015	0.488
-737.054	27.703	0.131	0.111
-736.039	-200.000	-0.046	-0.308
-735.025	176.999	-0.070	-0.103
-734.010	-36.686	-0.064	-0.034
-732.996	293.882	0.151	-0.277
-731.981	-120.251	-0.206	-0.035
-730.966	-107.449	0.129	0.028
-729.952	183.368	-0.078	-0.115
-728.937	475.033	0.104	-0.237
-727.923	-170.644	0.125	-0.004
-726.908	193.254	0.052	-0.079
-725.894	-151.093	0.168	-0.013
-724.879	233.049	-0.108	0.178
-723.864	477.499	-0.086	0.196
-722.850	-153.467	0.175	-0.012
-721.835	-200.000	-0.001	0.076
-720.821	24.849	0.152	0.127
-719.806	800.000	-0.084	-0.275
-718.791	-146.462	0.303	-0.027
-717.777	195.819	0.239	0.365
-716.762	-97.603	-0.305	-0.079
-715.748	-127.526	-0.394	-0.057
-714.733	-130.151	-0.155	0.021
-713.718	-24.440	0.124	-0.074
-712.704	448.125	0.077	-0.169
-711.689	800.000	0.060	0.259
-710.675	-12.011	-0.157	-0.103
-709.660	-65.241	-0.265	-0.107
-708.645	-200.000	-0.018	-0.146
-707.631	40.124	0.125	-0.113
-706.616	48.034	0.212	0.198
-705.602	758.208	0.115	0.313
-704.587	-200.000	-0.043	-0.279
-703.572	21.292	0.112	-0.091
-702.558	-200.000	0.062	-0.327
-701.543	14.331	-0.183	-0.143
-700.529	-102.775	0.300	-0.072
-699.514	-11.648	-0.323	-0.213
-698.499	19.567	-0.299	0.241
-697.485	-200.000	0.015	-0.077
-696.470	-159.604	0.080	-0.004
-695.456	-95.316	-0.485	-0.131
-694.441	384.603	-0.050	-0.103
-693.426	-19.902	-0.226	0.140
-692.412	800.000	-0.100	0.278
-691.397	-200.000	-0.024	-0.109
-690.383	274.247	-0.138	0.245
-689.368	-53.124	0.142	0.065
-688.354	-200.000	0.003	-0.338
-687.339	-200.000	-0.036	-0.443
-686.324	-125.477	0.109	0.017
-685.310	68.582	-0.166	-0.170
-684.295	-71.724	-0.244	-0.091
-683.281	-200.000	0.019	0.093
-682.266	-125.326	-0.207	0.032
-681.251	-73.637	-0.278	-0.101
-680.237	-67.813	-0.093	0.036
-679.222	-102.514	-0.187	0.045
-678.208	-59.513	-0.138	-0.059
-677.193	-76.675	-0.146	0.051
-676.178	-32.977	-0.063	0.035
-675.164	-79.180	0.274	0.093
-674.149	800.000	0.028	-0.097
-673.135	-200.000	0.010	-0.239
-672.120	-178.167	-0.258	0.006
-671.105	205.689	0.013	0.020
-670.091	145.306	0.168	-0.225
-669.076	-200.000	0.017	0.211
-668.062	272.904	-0.063	-0.112
-667.047	800.000	0.044	0.170
-666.032	37.411	0.240	-0.213
-665.018	-36.724	0.153	0.082
-664.003	-163.578	-0.138	-0.007
-662.989	-43.995	0.229	-0.115
-661.974	800.000	-0.133	-0.406
-660.959	331.304	-0.187	0.360
-659.945	-153.628	-0.078	0.005
-658.930	-71.712	0.073	-0.027
-657.916	-42.885	-0.254	0.129
-656.901	74.525	-0.133	0.140
-655.886	224.233	0.146	0.236
-654.872	-200.000	0.005	0.277
-653.857	-129.445	-0.153	-0.021
-652.843	64.841	-0.082	-0.083
-651.828	326.909	0.028	-0.054
-650.814	-71.209	0.261	0.098
-649.799	254.841	-0.037	0.064
-648.784	182.764	-0.027	0.040
-647.770	66.369	0.025	0.025
-646.755	461.798	0.122	-0.272
-645.741	-81.963	-0.075	-0.024
-644.726	123.891	0.125	0.157
-643.711	-200.000	0.015	-0.162
-642.697	-177.910	0.221	0.005
-641.682	8.883	-0.312	-0.235
-640.668	-154.728	-0.260	-0.017
-639.653	15.727	-0.195	-0.153
-638.638	-97.301	-0.181	0.047
-637.624	-27.808	0.157	0.091
-636.609	-144.267	-0.227	0.021
-635.595	41.324	0.135	0.122
-634.580	-111.867	0.135	-0.027
-633.565	800.000	0.023	0.091
-632.551	-8.055	0.073	-0.049
-631.536	-60.056	0.251	-0.107
-630.522	800.000	0.026	0.097
-629.507	-135.120	0.120	-0.014
-628.492	-66.354	0.269	-0.107
-627.478	-118.952	-0.244	0.043
-626.463	731.143	0.055	0.146
-625.449	32.993	-0.118	0.102
-624.434	38.587	0.127	0.113
-623.419	-137.823	0.524	0.059
-622.405	41.120	0.323	-0.292
-621.390	212.257	0.100	0.158
-620.376	-200.000	0.007	0.322
-619.361	434.252	0.107	-0.233
-618.346	344.607	0.093	0.183
-617.332	272.701	-0.104	0.183
-616.317	-134.615	-0.113	0.014
-615.303	67.775	-0.246	0.251
-614.288	800.000	0.074	0.263
-613.273	-200.000	0.031	-0.483
-612.259	332.944	0.024	-0.047
-611.244	-32.679	-0.231	0.128
-610.230	494.132	0.138	0.317
-609.215	100.471	-0.068	-0.079
-608.201	-93.201	-0.085	-0.024
-607.186	-174.316	-0.293	-0.008
-606.171	800.000	-0.148	0.570
-605.157	-200.000	0.001	-0.148
-604.142	146.746	0.062	-0.083
-603.128	95.778	-0.009	-0.010
-602.113	70.220	0.176	0.182
-601.098	-164.186	0.158	-0.007
-600.084	28.434	0.108	-0.091
-599.069	-200.000	0.028	-0.238
-598.055	84.458	0.147	0.160
-597.040	-117.046	-0.130	0.024
-596.025	-200.000	-0.107	0.000
-595.011	215.440	0.151	0.239
-593.996	-200.000	0.044	-0.263
-592.982	800.000	0.150	0.519
-591.967	-30.935	-0.175	-0.098
-590.952	-153.214	-0.125	-0.009
-589.938	-200.000	-0.004	0.084
-588.923	262.570	0.089	0.154
-587.909	-200.000	-0.044	-0.279
-586.894	-164.751	0.109	-0.005
-585.879	413.280	-0.064	-0.135
-584.865	-3.018	0.048	0.033
-583.850	263.596	-0.053	-0.093
-582.836	-149.142	0.156	-0.012
-581.821	-45.593	0.206	0.102
-580.806	-23.140	-0.417	0.250
-579.792	-200.000	0.028	0.263
-578.777	-126.537	0.090	-0.013
-577.763	-129.165	-0.196	-0.027
-576.748	1.040	-0.028	0.020
-575.733	54.037	0.168	-0.161
-574.719	22.028	-0.240	-0.196
-573.704	-200.000	-0.045	-0.249
-572.690	79.942	0.111	-0.119
-571.675	53.652	0.109	-0.104
-570.661	-58.681	-0.185	-0.080
-569.646	414.632	0.120	0.256
-568.631	-118.223	-0.160	-0.028
-567.617	169.719	0.034	-0.049
-566.602	800.000	0.056	0.210
-565.588	724.983	-0.066	-0.175
-564.573	-200.000	-0.070	-0.373
-563.558	-27.277	0.171	0.099
-562.544	-200.000	0.064	-0.358
-561.529	348.302	0.091	-0.179
-560.515	261.534	-0.259	0.448
-559.500	52.244	-0.100	0.095
-558.485	26.741	-0.167	-0.140
-557.471	-150.328	0.353	0.027
-556.456	-11.435	0.267	-0.175
-555.442	-81.720	0.256	0.084
-554.427	-22.794	0.073	-0.044
-553.412	63.203	0.204	0.203
-552.398	-142.547	-0.492	-0.048
-551.383	329.627	0.112	0.214
-550.369	800.000	0.108	0.351
-549.354	228.175	-0.053	-0.085
-548.339	800.000	0.052	0.173
-547.325	31.103	-0.309	-0.264
-546.310	-200.000	0.034	-0.317
-545.296	88.657	-0.269	-0.298
-544.281	15.478	-0.173	0.135
-543.266	-63.442	0.122	-0.050
-542.252	-4.281	-0.242	0.167
-541.237	92.493	0.162	0.182
-540.223	75.863	-0.162	0.170
-539.208	-55.027	0.148	0.066
-538.193	709.581	0.097	-0.256
-537.179	84.493	0.209	0.227
-536.164	85.541	-0.116	0.127
-535.150	800.000	-0.024	-0.067
-534.135	11.006	-0.114	0.087
-533.121	-200.000	0.001	0.156
-532.106	-26.543	0.054	0.032
-531.091	-94.133	-0.145	-0.040
-530.077	-144.119	0.054	0.005
-529.062	-82.185	-0.360	0.117
-528.048	-200.000	-0.003	0.082
-527.033	-68.578	-0.190	-0.073
-526.018	-9.214	0.351	0.233
-525.004	-37.574	-0.069	-0.037
-523.989	29.748	-0.151	0.128
-522.975	13.647	-0.342	0.265
-521.960	-200.000	0.005	-0.328
-520.945	-135.882	-0.042	-0.005
-519.931	-200.000	0.031	-0.189
-518.916	-143.890	0.147	0.014
-517.902	-128.674	0.236	0.033
-516.887	-8.698	0.182	0.122
-515.872	29.675	0.170	0.144
-514.858	800.000	-0.080	-0.296
-513.843	670.362	-0.063	0.161
-512.829	99.657	0.225	0.259
-511.814	191.577	-0.041	-0.061
-510.799	35.257	0.188	-0.164
-509.785	63.794	0.083	-0.083
-508.770	118.089	-0.139	0.170
-507.756	-159.320	-0.016	0.001
-506.741	-5.896	0.172	-0.117
-505.726	-80.254	0.231	0.077
-504.712	-60.597	-0.050	0.021
-503.697	-60.400	-0.232	0.098
-502.683	-200.000	0.012	0.093
-501.668	-151.896	0.232	-0.017
-500.653	-178.946	-0.372	-0.008
-499.639	-143.920	0.469	-0.044
-498.624	-58.195	-0.110	-0.048
-497.610	24.794	-0.222	0.183
-496.595	-155.971	-0.053	-0.003
-495.581	800.000	0.022	0.078
-494.566	-109.885	-0.264	0.055
-493.551	-109.222	0.224	-0.047
-492.537	-50.712	0.095	-0.045
-491.522	800.000	-0.062	0.269
-490.508	-53.648	0.113	-0.052
-489.493	-45.098	0.212	-0.105
-488.478	-26.910	0.144	-0.083
-487.464	409.856	-0.095	-0.200
-486.449	779.018	-0.112	-0.304
-485.435	76.926	0.131	-0.138
-484.420	68.127	0.143	-0.145
-483.405	-79.814	-0.333	0.111
-482.391	268.511	-0.144	0.251
-481.376	-200.000	-0.031	-0.459
-480.362	-29.153	0.147	0.083
-479.347	560.234	-0.026	0.062
-478.332	-139.392	-0.069	0.007
-477.318	-79.822	0.200	-0.067
-476.303	82.164	-0.163	0.176
-475.289	-62.636	0.455	-0.187
-474.274	129.876	0.121	-0.154
-473.259	4.026	0.062	0.045
-472.245	-149.342	-0.333	0.026
-471.230	59.530	-0.040	-0.039
-470.216	-51.976	-0.183	0.084
-469.201	94.629	-0.043	0.049
-468.186	129.314	0.124	0.158
-467.172	423.922	0.085	-0.181
-466.157	437.012	-0.075	-0.162
-465.143	-73.208	-0.248	-0.090
-464.128	-53.439	-0.355	-0.161
-463.113	53.941	-0.332	0.316
-462.099	-33.799	0.112	0.061
-461.084	279.984	0.059	-0.104
-460.070	460.423	-0.171	-0.377
-459.055	800.000	-0.091	-0.295
-458.040	-9.540	-0.118	-0.078
-457.026	381.918	0.139	0.283
-456.011	-11.058	-0.275	0.180
-454.997	-6.525	-0.270	0.183
-453.982	-200.000	0.011	0.315
-452.968	800.000	-0.010	-0.040
-451.953	-132.131	-0.411	0.053
-450.938	120.420	0.248	0.305
-449.924	15.426	-0.176	-0.137
-448.909	-75.790	0.524	-0.184
-447.895	-102.875	-0.082	0.019
-446.880	762.747	-0.088	-0.236
-445.865	-200.000	-0.027	-0.229
-444.851	-56.887	-0.398	0.174
-443.836	-74.333	-0.230	-0.082
-442.822	14.418	-0.146	0.113
-441.807	-200.000	-0.027	0.235
-440.792	12.611	0.148	-0.113
-439.778	-200.000	0.066	0.301
-438.763	800.000	-0.134	0.528
-437.749	-62.519	0.277	-0.114
-436.734	800.000	0.037	0.117
-435.719	800.000	-0.061	0.190
-434.705	-39.425	0.111	0.058
-433.690	510.685	-0.113	0.261
-432.676	-135.248	0.224	-0.027
-431.661	-7.974	0.077	-0.051
-430.646	27.785	0.178	0.148
-429.632	-200.000	0.010	0.192
-428.617	-64.038	0.034	0.014
-427.603	372.498	0.072	0.145
-426.588	800.000	-0.056	-0.186
-425.573	279.321	-0.133	-0.236
-424.559	296.537	0.111	-0.202
-423.544	-74.120	0.249	-0.089
-422.530	-54.774	-0.093	-0.042
-421.515	-102.705	-0.144	0.034
-420.500	60.005	-0.119	-0.117
-419.486	568.198	-0.018	-0.044
-418.471	0.749	-0.077	0.055
-417.457	-200.000	0.009	-0.215
-416.442	-19.505	0.118	0.073
-415.428	78.221	0.027	-0.028
-414.413	800.000	-0.018	0.056
-413.398	-157.681	-0.285	-0.017
-412.384	161.129	0.102	0.141
-411.369	35.881	0.040	-0.035
-410.355	-32.529	0.011	0.006
-409.340	800.000	-0.021	0.063
-408.325	174.675	0.165	-0.236
-407.311	-64.666	-0.208	-0.084
-406.296	-59.262	-0.253	0.108
-405.282	-200.000	-0.060	0.279
-404.267	15.497	-0.159	0.124
-403.252	-89.569	-0.307	-0.089
-402.238	-200.000	0.025	-0.120
-401.223	283.385	-0.166	-0.295
-400.209	39.487	0.047	-0.041
-399.194	30.098	-0.101	-0.085
-398.179	21.240	-0.153	-0.123
-397.165	800.000	-0.096	0.403
-396.150	290.999	-0.144	-0.260
-395.136	32.293	0.092	-0.079
-394.121	800.000	-0.022	-0.081
-393.106	-91.910	-0.373	0.105
-392.092	-25.734	-0.180	0.105
-391.077	167.062	0.023	0.032
-390.063	189.792	-0.137	0.203
-389.048	-103.036	0.292	0.069
-388.033	-22.422	0.127	0.076
-387.019	574.322	0.155	0.375
-386.004	90.040	0.338	0.374
-384.990	-29.419	0.319	-0.181
-383.975	-119.668	-0.260	0.044
-382.960	-81.694	-0.236	0.076
-381.946	136.928	0.044	0.057
-380.931	800.000	0.096	-0.288
-379.917	-200.000	0.015	0.161
-378.902	-200.000	0.006	0.072
-377.888	35.084	-0.024	-0.021
-376.873	-75.529	0.186	-0.065
-375.858	34.193	-0.049	0.042
-374.844	-200.000	-0.055	0.311
-373.829	-186.977	-0.196	0.003
-372.815	-87.333	-0.211	0.063
-371.800	374.058	0.157	-0.316
-370.785	75.600	-0.077	-0.081
-369.771	-61.402	-0.246	0.102
-368.756	371.057	-0.078	-0.157
-367.742	66.071	-0.142	0.143
-366.727	109.332	-0.169	-0.201
-365.712	-90.037	0.297	-0.086
-364.698	-45.851	-0.136	-0.066
-363.683	800.000	-0.009	0.035
-362.669	748.238	0.092	0.245
-361.654	137.988	0.103	-0.133
-360.639	-67.404	-0.046	0.018
-359.625	-200.000	0.002	-0.118
-358.610	-109.275	-0.123	0.026
-357.596	203.299	-0.077	-0.118
-356.581	91.475	0.287	-0.319
-355.566	-52.783	0.110	-0.050
-354.552	800.000	0.064	0.253
-353.537	-22.201	-0.218	-0.130
-352.523	-19.491	-0.328	-0.201
-351.508	109.498	-0.110	-0.130
-350.493	33.321	0.133	-0.114
-349.479	800.000	0.028	0.081
-348.464	-64.225	-0.175	0.071
-347.450	-76.893	0.470	-0.162
-346.435	-10.346	0.047	-0.031
-345.420	31.132	0.232	0.197
-344.406	90.052	-0.145	-0.161
-343.391	235.005	-0.057	0.094
-342.377	800.000	0.012	0.052
-341.362	17.096	-0.078	0.061
-340.348	396.583	0.106	-0.219
-339.333	144.738	0.195	-0.258
-338.318	-200.000	-0.003	-0.136
-337.304	-76.061	-0.284	-0.099
-336.289	-200.000	0.069	0.301
-335.275	-200.000	-0.022	-0.418
-334.260	-151.290	0.099	-0.007
-333.245	800.000	0.033	0.120
-332.231	-177.961	0.174	0.004
-331.216	-106.370	0.098	0.022
-330.202	800.000	0.099	-0.323
-329.187	67.505	0.298	-0.300
-328.172	36.429	0.093	-0.081
-327.158	-146.835	0.172	-0.015
-326.143	270.428	0.063	0.109
-325.129	-132.236	-0.290	-0.037
-324.114	-81.475	-0.118	0.038
-323.099	-200.000	0.010	-0.073
-322.085	-200.000	-0.007	0.123
-321.070	91.137	-0.179	0.199
-320.056	-64.909	0.253	-0.101
-319.041	-95.313	0.161	0.043
-318.026	-16.616	-0.208	0.130
-317.012	-86.786	-0.160	0.048
-315.997	-200.000	-0.006	0.057
-314.983	14.810	0.191	-0.147
-313.968	-200.000	0.016	-0.111
-312.953	-112.832	-0.211	0.041
-311.939	151.991	-0.192	0.259
-310.924	-155.288	0.102	0.007
-309.910	11.275	-0.035	-0.026
-308.895	-131.928	-0.352	0.045
-307.880	-125.430	0.175	-0.026
-306.866	-200.000	0.015	0.139
-305.851	-142.319	0.248	0.024
-304.837	-101.413	-0.326	0.078
-303.822	81.326	-0.041	-0.044
-302.807	800.000	0.072	-0.306
-301.793	91.649	-0.065	0.072
-300.778	-34.481	0.302	-0.163
-299.764	-41.596	0.220	-0.112
-298.749	87.622	0.171	0.187
-297.735	-200.000	-0.058	0.279
-296.720	-200.000	0.004	0.028
-295.705	-38.161	-0.210	0.110
-294.691	14.544	0.105	-0.081
-293.676	-181.239	0.210	0.004
-292.662	-135.713	-0.248	0.029
-291.647	-200.000	-0.039	0.286
-290.632	-200.000	-0.024	-0.285
-289.618	-200.000	0.272	0.001
-288.603	-200.000	0.004	-0.147
-287.589	-188.966	-0.158	0.002
-286.574	-200.000	0.014	-0.297
-285.559	-128.129	-0.088	0.012
-284.545	-157.901	0.168	0.010
-283.530	208.650	0.084	-0.130
-282.516	245.009	0.109	-0.182
-281.501	102.291	0.124	-0.142
-280.486	-22.978	0.263	-0.156
-279.472	239.303	-0.080	0.131
-278.457	-200.000	-0.011	0.072
-277.443	-200.000	-0.011	0.180
-276.428	-200.000	-0.026	-0.157
-275.413	-200.000	-0.056	-0.244
-274.399	29.260	0.233	-0.195
-273.384	-171.265	-0.297	-0.010
-272.370	630.740	-0.162	-0.403
-271.355	-60.505	0.369	-0.154
-270.340	-200.000	0.007	0.147
-269.326	-100.342	0.182	-0.045
-268.311	97.067	0.155	0.175
-267.297	-63.935	0.090	0.036
-266.282	250.650	0.139	-0.233
-265.267	317.702	-0.038	0.070
-264.253	-32.213	0.362	-0.199
-263.238	86.288	0.161	-0.175
-262.224	109.245	-0.072	0.085
-261.209	186.761	0.144	-0.212
-260.195	198.849	-0.192	-0.289
-259.180	25.525	0.059	0.049
-258.165	-71.213	0.238	0.088
-257.151	-200.000	0.075	0.397
-256.136	-127.584	-0.193	0.028
-255.122	800.000	0.073	-0.253
-254.107	-46.141	0.422	0.204
-253.092	201.291	0.144	-0.219
-252.078	-200.000	-0.064	0.293
-251.063	360.423	-0.141	0.279
-250.049	-150.420	0.237	-0.018
-249.034	498.981	0.057	-0.128
-248.019	11.398	-0.218	0.164
-247.005	-171.367	-0.168	-0.006
-245.990	800.000	0.068	0.221
-244.976	325.665	-0.024	-0.045
-243.961	205.862	-0.153	-0.234
-242.946	359.003	0.209	-0.412
-241.932	-152.082	-0.170	0.012
-240.917	-200.000	-0.018	0.368
-239.903	119.470	-0.195	0.237
-238.888	32.909	0.090	-0.077
-237.873	-164.847	-0.084	0.004
-236.859	800.000	0.168	-0.488
-235.844	139.537	-0.063	-0.082
-234.830	-145.945	0.055	-0.005
-233.815	256.184	-0.086	-0.146
-232.800	-56.639	0.109	-0.047
-231.786	63.965	-0.228	-0.226
-230.771	-37.492	-0.267	-0.140
-229.757	-200.000	0.072	0.365
-228.742	-190.337	-0.225	-0.002
-227.727	800.000	0.042	0.137
-226.713	800.000	-0.051	-0.207
-225.698	92.783	-0.073	0.081
-224.684	17.305	0.273	0.213
-223.669	119.525	-0.140	-0.170
-222.655	800.000	-0.047	0.156
-221.640	-138.914	-0.407	0.043
-220.625	-200.000	-0.026	-0.235
-219.611	-200.000	0.020	-0.090
-218.596	630.762	0.094	-0.234
-217.582	89.173	-0.184	0.202
-216.567	194.624	-0.090	-0.135
-215.552	800.000	0.064	0.200
-214.538	-79.779	0.248	-0.082
-213.523	-1.361	0.149	-0.103
-212.509	-200.000	0.039	-0.246
-211.494	-31.772	-0.180	0.099
-210.479	20.748	0.084	0.067
-209.465	800.000	0.088	0.273
-208.450	-160.329	-0.223	0.012
-207.436	800.000	0.025	0.090
-206.421	253.316	-0.192	-0.323
-205.406	-182.650	-0.282	0.005
-204.392	9.247	0.154	-0.114
-203.377	333.872	-0.018	-0.035
-202.363	186.800	0.151	0.220
-201.348	725.403	0.060	0.158
-200.333	49.612	0.028	0.026
-199.319	-100.586	0.177	-0.043
-198.304	327.981	0.090	0.169
-197.290	-200.000	0.008	0.042
-196.275	-130.407	-0.266	0.035
-195.260	-14.958	-0.311	-0.196
-194.246	263.730	-0.241	0.412
-193.231	210.577	0.026	0.040
-192.217	44.851	-0.025	0.023
-191.202	800.000	0.029	0.087
-190.187	-200.000	-0.040	-0.242
-189.173	-150.510	0.197	0.015
-188.158	-65.071	-0.200	-0.079
-187.144	-97.609	0.105	-0.027
-186.129	35.982	0.117	0.101
-185.114	-57.032	-0.196	-0.085
-184.100	49.563	-0.283	-0.261
-183.085	219.395	0.162	-0.254
-182.071	-134.624	-0.033	-0.004
-181.056	-171.796	0.419	-0.013
-180.042	263.451	-0.152	-0.259
-179.027	-164.388	0.380	-0.017
-178.012	-0.211	0.149	-0.104
-176.998	-200.000	0.005	0.085
-175.983	747.505	0.033	-0.087
-174.969	-49.087	0.072	-0.034
-173.954	37.333	0.235	0.204
-172.939	-200.000	-0.217	-0.000
-171.925	-123.764	0.166	0.026
-170.910	69.843	0.317	0.321
-169.896	-58.176	0.108	0.046
-168.881	130.475	-0.230	0.289
-167.866	-4.729	0.097	0.065
-166.852	-103.281	0.378	-0.088
-165.837	13.303	0.300	0.228
-164.823	93.815	-0.125	-0.139
-163.808	-200.000	0.025	-0.280
-162.793	520.518	-0.055	-0.127
-161.779	-200.000	-0.029	0.191
-160.764	370.652	-0.148	0.295
-159.750	-157.434	0.341	0.020
-158.735	-200.000	0.029	-0.181
-157.720	227.291	0.202	0.322
-156.706	-200.000	0.011	0.156
-155.691	-127.658	0.035	-0.005
-154.677	800.000	-0.201	0.600
-153.662	-118.104	-0.331	-0.058
-152.647	163.074	-0.270	-0.372
-151.633	-30.439	-0.304	-0.169
-150.618	63.841	-0.068	-0.067
-149.604	800.000	-0.063	-0.233
-148.589	-200.000	0.067	0.323
-147.574	-200.000	0.024	0.156
-146.560	59.598	0.114	0.110
-145.545	-200.000	-0.007	0.101
-144.531	462.144	-0.151	-0.330
-143.516	800.000	-0.029	-0.093
-142.502	-200.000	-0.019	-0.304
-141.487	-34.981	0.123	-0.066
-140.472	303.323	0.110	0.200
-139.458	-47.241	-0.323	0.154
-138.443	460.407	0.075	0.165
-137.429	23.523	-0.252	0.203
-136.414	209.590	0.155	0.238
-135.399	-4.329	-0.156	0.106
-134.385	-137.045	0.105	0.012
-133.370	44.242	-0.123	-0.111
-132.356	-200.000	-0.026	0.301
-131.341	4.071	0.237	0.170
-130.326	-156.996	0.109	0.007
-129.312	8.706	-0.175	0.129
-128.297	32.297	-0.071	-0.060
-127.283	-96.070	0.125	-0.033
-126.268	-183.556	-0.203	0.003
-125.253	-25.070	-0.091	0.053
-124.239	-97.552	0.186	0.047
-123.224	800.000	0.078	-0.226
-122.210	800.000	-0.145	-0.434
-121.195	-68.881	-0.192	-0.073
