DTS Sentinel unit serial number:	SN413079Multiplexer serial number:	ORYXHardware model number:	OX4-SRSoftware version number:	ORYX F/W v4.00 Oryx Data Collector v3.7.2.0data status	okinstallation	princeton_trtdifferential loss correction	single-endedforward channel	channel 2reverse channel	N/Adate	2019/09/13time	22:47:35forward acquisition time	60.00reverse acquisition time	0.00gamma	496.2192k internal	0.2336k external	0.2336temperature offset calibration	1.0131default loss term (dB/km)	0.3790temperature slope calibration	1.0000multiplexer offset coefficient	1.0000multiplexer slope coefficient	1.0000fibre end	0.00T internal ref (°C)	27.55T ext. ref 1 (°C)	3.23T ext. ref 2 (°C)	21.62length (m)	temperature (°C)	Stokes	anti-Stokes-747.200	462.587	-0.065	-0.146
-746.185	112.615	-0.128	0.156
-745.171	-44.695	-0.140	0.070
-744.156	800.000	-0.042	-0.145
-743.142	401.658	0.141	0.297
-742.127	-67.302	-0.219	-0.086
-741.112	644.481	-0.190	-0.488
-740.098	298.733	-0.070	-0.130
-739.083	67.006	0.083	-0.084
-738.069	-39.787	-0.045	0.024
-737.054	497.654	-0.136	-0.314
-736.039	40.648	-0.073	-0.066
-735.025	-77.900	0.266	0.092
-734.010	396.046	0.057	0.120
-732.996	511.684	0.083	0.194
-731.981	182.567	-0.168	-0.249
-730.966	-42.807	-0.195	-0.100
-729.952	-86.278	-0.078	-0.024
-728.937	342.608	-0.109	-0.215
-727.923	-58.901	0.121	-0.053
-726.908	223.298	-0.107	0.173
-725.894	60.174	0.201	0.199
-724.879	562.112	-0.107	-0.261
-723.864	118.843	-0.218	0.270
-722.850	124.816	-0.209	0.264
-721.835	-200.000	0.007	-0.377
-720.821	194.665	0.051	0.077
-719.806	83.095	0.201	0.220
-718.791	353.954	-0.136	0.270
-717.777	-31.704	0.101	0.057
-716.762	8.593	0.258	-0.195
-715.748	-135.050	-0.382	-0.046
-714.733	707.874	-0.141	-0.374
-713.718	-200.000	0.013	-0.228
-712.704	81.003	-0.137	-0.149
-711.689	166.171	-0.073	-0.103
-710.675	800.000	0.021	-0.066
-709.660	424.944	-0.181	-0.390
-708.645	-84.641	-0.168	-0.053
-707.631	411.651	-0.038	-0.081
-706.616	63.566	-0.103	-0.104
-705.602	-102.586	-0.030	0.007
-704.587	-105.475	0.011	0.002
-703.572	-16.996	-0.154	0.098
-702.558	800.000	-0.026	-0.079
-701.543	-166.342	0.156	-0.007
-700.529	-200.000	-0.008	-0.482
-699.514	-118.129	-0.232	0.041
-698.499	-99.366	0.090	-0.023
-697.485	95.249	0.102	-0.116
-696.470	353.051	-0.133	-0.264
-695.456	-34.424	0.045	-0.025
-694.441	-159.865	0.141	-0.008
-693.426	-200.000	-0.021	0.148
-692.412	-83.790	0.186	-0.059
-691.397	-200.000	-0.011	-0.111
-690.383	-66.047	-0.226	-0.091
-689.368	-200.000	-0.004	-0.086
-688.354	-148.862	0.194	-0.016
-687.339	215.374	0.128	-0.204
-686.324	108.112	0.182	-0.217
-685.310	-156.812	0.035	0.002
-684.295	521.744	-0.026	0.062
-683.281	800.000	-0.007	-0.030
-682.266	-200.000	-0.008	-0.201
-681.251	-89.422	-0.285	0.084
-680.237	-103.197	0.136	-0.032
-679.222	35.005	-0.243	-0.213
-678.208	575.506	0.050	0.123
-677.193	54.372	0.183	-0.177
-676.178	726.811	-0.081	0.215
-675.164	-200.000	-0.017	-0.098
-674.149	-39.916	-0.094	0.049
-673.135	-47.055	-0.105	0.052
-672.120	-200.000	-0.005	-0.079
-671.105	-200.000	-0.213	-0.000
-670.091	-58.035	0.042	0.018
-669.076	-49.864	-0.259	-0.123
-668.062	552.652	-0.045	-0.107
-667.047	-66.849	0.125	-0.049
-666.032	800.000	0.053	0.179
-665.018	-55.384	0.343	-0.154
-664.003	-200.000	-0.014	-0.063
-662.989	37.163	0.155	-0.137
-661.974	-34.357	-0.169	0.093
-660.959	-80.626	-0.124	-0.041
-659.945	-140.181	0.209	-0.022
-658.930	540.259	-0.063	0.151
-657.916	93.548	0.025	-0.029
-656.901	-200.000	0.051	0.329
-655.886	175.542	0.082	-0.119
-654.872	-28.571	-0.108	-0.062
-653.857	800.000	-0.019	0.058
-652.843	-11.714	0.197	0.129
-651.828	-1.584	-0.427	-0.301
-650.814	13.941	0.196	0.152
-649.799	9.581	0.287	-0.218
-648.784	32.408	0.155	-0.134
-647.770	-77.921	0.041	0.014
-646.755	376.727	-0.062	-0.126
-645.741	-88.163	0.325	0.098
-644.726	46.036	-0.236	0.219
-643.711	-84.740	-0.151	0.047
-642.697	39.430	-0.054	0.048
-641.682	-30.115	0.284	-0.162
-640.668	-200.000	-0.011	-0.227
-639.653	-102.075	-0.288	0.070
-638.638	36.267	0.222	0.196
-637.624	6.559	0.230	-0.171
-636.609	446.553	0.132	-0.291
-635.595	800.000	-0.041	0.139
-634.580	-81.301	-0.378	0.125
-633.565	-200.000	0.031	0.284
-632.551	36.602	0.257	0.227
-631.536	29.332	-0.117	-0.099
-630.522	-200.000	0.052	-0.351
-629.507	7.997	-0.168	-0.126
-628.492	64.093	-0.137	0.138
-627.478	8.104	-0.151	0.114
-626.463	-82.369	-0.306	0.099
-625.449	-171.137	-0.126	0.004
-624.434	43.809	-0.147	-0.135
-623.419	800.000	-0.043	-0.146
-622.405	-200.000	0.036	-0.164
-621.390	117.715	-0.104	0.127
-620.376	-48.184	-0.104	-0.050
-619.361	246.701	-0.094	0.159
-618.346	90.524	0.065	-0.073
-617.332	39.923	-0.186	-0.167
-616.317	-45.736	-0.296	0.146
-615.303	-155.875	-0.168	-0.011
-614.288	523.309	-0.039	0.091
-613.273	10.033	0.237	0.180
-612.259	-5.733	-0.098	-0.067
-611.244	-200.000	0.007	-0.137
-610.230	24.423	-0.256	0.211
-609.215	-200.000	-0.017	-0.136
-608.201	315.629	0.103	-0.195
-607.186	154.684	-0.219	0.301
-606.171	-200.000	0.020	0.114
-605.157	-116.699	-0.092	-0.017
-604.142	165.094	0.157	-0.221
-603.128	-95.058	0.089	-0.024
-602.113	484.070	-0.119	0.271
-601.098	-200.000	0.218	-0.001
-600.084	-144.283	0.198	-0.018
-599.069	-200.000	-0.002	0.385
-598.055	614.091	0.007	0.017
-597.040	106.327	0.206	0.244
-596.025	-155.740	-0.040	-0.003
-595.011	-104.931	-0.227	-0.052
-593.996	-200.000	-0.002	-0.258
-592.982	430.550	-0.093	0.201
-591.967	-154.994	-0.429	0.028
-590.952	-151.926	0.112	-0.008
-589.938	-143.373	-0.119	0.011
-588.923	-14.910	-0.280	0.179
-587.909	305.112	0.116	0.216
-586.894	632.894	-0.107	-0.270
-585.879	614.328	0.130	0.326
-584.865	-91.737	-0.357	0.101
-583.850	-109.139	0.125	-0.027
-582.836	-200.000	0.025	-0.195
-581.821	-113.621	-0.332	-0.065
-580.806	544.825	0.096	0.228
-579.792	111.232	-0.073	0.088
-578.777	368.066	-0.053	-0.108
-577.763	-200.000	0.000	0.131
-576.748	357.757	0.070	0.139
-575.733	-165.777	0.311	-0.013
-574.719	-62.880	-0.137	0.057
-573.704	89.400	-0.223	-0.248
-572.690	-136.903	-0.221	0.025
-571.675	113.918	0.144	0.175
-570.661	590.403	-0.169	0.416
-569.646	25.894	0.228	-0.189
-568.631	580.872	-0.100	-0.245
-567.617	-69.628	0.161	0.061
-566.602	-91.910	0.203	-0.057
-565.588	-130.931	-0.421	0.056
-564.573	96.824	0.179	0.204
-563.558	800.000	-0.045	0.167
-562.544	-113.553	0.329	0.064
-561.529	-200.000	-0.032	0.170
-560.515	107.881	0.130	-0.154
-559.500	-200.000	0.021	-0.120
-558.485	-30.958	-0.045	-0.025
-557.471	-25.015	0.077	0.045
-556.456	-97.435	0.125	-0.033
-555.442	-200.000	0.045	0.211
-554.427	-4.975	-0.147	-0.101
-553.412	793.754	0.059	-0.161
-552.398	-64.350	0.108	0.044
-551.383	-25.252	-0.190	0.112
-550.369	-10.571	-0.248	-0.164
-549.354	-21.773	0.196	-0.119
-548.339	-200.000	-0.003	-0.235
-547.325	-90.552	0.197	0.057
-546.310	191.975	-0.156	-0.235
-545.296	-110.960	-0.180	-0.037
-544.281	97.424	0.161	-0.184
-543.266	-78.797	-0.127	-0.043
-542.252	625.288	-0.058	-0.146
-541.237	-59.131	-0.108	-0.046
-540.223	40.691	0.140	-0.126
-539.208	-200.000	0.047	-0.289
-538.193	-73.684	-0.295	0.107
-537.179	-71.018	0.332	0.125
-536.164	-146.394	-0.230	-0.020
-535.150	236.272	-0.103	-0.170
-534.135	800.000	0.086	-0.311
-533.121	-39.795	-0.117	-0.061
-532.106	686.018	-0.088	-0.228
-531.091	-131.378	-0.258	-0.034
-530.077	52.519	-0.107	-0.102
-529.062	800.000	0.100	-0.311
-528.048	15.438	0.087	-0.068
-527.033	-200.000	-0.000	-0.157
-526.018	-3.089	-0.172	0.119
-525.004	179.452	0.030	-0.043
-523.989	77.963	-0.214	0.227
-522.975	-37.304	0.185	0.099
-521.960	221.399	0.146	0.234
-520.945	-200.000	-0.022	-0.173
-519.931	-166.604	-0.271	0.011
-518.916	-200.000	0.001	-0.484
-517.902	527.495	-0.145	0.341
-516.887	-102.599	0.150	-0.036
-515.872	-13.321	-0.197	0.127
-514.858	51.700	0.333	-0.316
-513.843	-200.000	0.002	-0.181
-512.829	-200.000	0.044	-0.205
-511.814	11.610	0.115	-0.088
-510.799	-119.678	0.305	-0.052
-509.785	-200.000	0.001	-0.368
-508.770	-200.000	0.019	0.173
-507.756	114.454	-0.229	0.278
-506.741	-35.248	0.092	-0.050
-505.726	385.321	-0.038	0.079
-504.712	328.688	-0.041	0.079
-503.697	5.449	0.220	0.161
-502.683	-200.000	-0.066	0.414
-501.668	800.000	0.026	-0.072
-500.653	281.530	-0.033	0.059
-499.639	56.828	-0.119	0.115
-498.624	155.285	0.113	0.155
-497.610	111.792	0.148	-0.178
-496.595	-77.617	0.186	0.064
-495.581	800.000	-0.115	0.371
-494.566	800.000	-0.123	0.367
-493.551	22.541	-0.071	-0.058
-492.537	92.528	-0.222	-0.249
-491.522	-88.960	-0.463	-0.136
-490.508	-190.023	-0.351	-0.004
-489.493	514.375	0.240	-0.557
-488.478	-37.502	-0.268	-0.142
-487.464	277.511	0.145	-0.257
-486.449	-67.814	0.564	-0.219
-485.435	800.000	0.037	-0.105
-484.420	89.668	-0.095	0.106
-483.405	70.723	0.117	-0.120
-482.391	-82.193	-0.282	-0.091
-481.376	-200.000	0.083	-0.444
-480.362	-132.757	0.275	-0.035
-479.347	-77.540	-0.400	0.138
-478.332	-20.267	0.205	0.125
-477.318	60.107	0.223	-0.219
-476.303	10.106	-0.219	0.166
-475.289	800.000	0.047	0.165
-474.274	-88.004	0.253	0.075
-473.259	800.000	-0.051	-0.163
-472.245	198.034	-0.104	0.159
-471.230	48.412	-0.234	-0.217
-470.216	-200.000	0.006	-0.064
-469.201	-200.000	-0.032	0.619
-468.186	391.015	-0.093	0.192
-467.172	-10.040	0.257	0.169
-466.157	608.818	0.315	0.782
-465.143	-137.630	-0.290	0.032
-464.128	-153.269	-0.040	0.003
-463.113	190.520	-0.076	0.114
-462.099	-94.964	0.389	-0.104
-461.084	213.949	0.236	-0.370
-460.070	139.346	-0.092	0.120
-459.055	-113.751	-0.243	0.047
-458.040	-59.005	0.244	-0.105
-457.026	-200.000	-0.007	-0.032
-456.011	13.722	0.263	-0.203
-454.997	48.865	0.028	0.026
-453.982	-14.928	0.141	0.090
-452.968	-2.427	-0.209	0.146
-451.953	-65.590	-0.347	-0.138
-450.938	-139.104	0.268	-0.029
-449.924	209.689	-0.076	0.118
-448.909	-200.000	-0.030	-0.149
-447.895	-17.089	0.200	0.125
-446.880	-104.082	0.231	0.053
-445.865	-89.777	-0.270	-0.078
-444.851	555.964	0.020	0.048
-443.836	291.645	0.025	0.046
-442.822	22.051	-0.139	0.112
-441.807	299.574	-0.138	0.253
-440.792	-200.000	0.010	0.391
-439.778	190.955	0.065	0.097
-438.763	138.327	0.156	0.203
-437.749	-105.128	0.246	-0.056
-436.734	-58.562	0.333	0.144
-435.719	-76.138	-0.224	-0.078
-434.705	800.000	0.050	0.147
-433.690	720.267	-0.055	0.145
-432.676	134.412	0.105	-0.135
-431.661	-180.528	0.150	0.003
-430.646	91.416	-0.140	0.156
-429.632	800.000	-0.081	-0.261
-428.617	155.097	0.016	-0.022
-427.603	588.462	-0.041	-0.100
-426.588	800.000	-0.073	-0.254
-425.573	44.606	-0.196	0.179
-424.559	-165.196	-0.157	-0.007
-423.544	-50.917	-0.181	0.084
-422.530	75.781	0.293	0.307
-421.515	68.741	-0.265	-0.270
-420.500	14.186	-0.204	0.157
-419.486	478.623	0.066	-0.147
-418.471	800.000	0.085	0.358
-417.457	192.205	0.144	-0.216
-416.442	719.839	-0.169	-0.444
-415.428	-10.725	0.149	0.098
-414.413	-200.000	-0.002	0.126
-413.398	-2.173	0.259	-0.181
-412.384	-92.464	-0.387	0.108
-411.369	-146.077	0.392	-0.034
-410.355	-200.000	-0.083	0.401
-409.340	800.000	0.072	0.290
-408.325	-174.739	0.247	0.007
-407.311	254.441	-0.189	-0.320
-406.296	736.430	-0.038	0.102
-405.282	-167.552	0.258	0.010
-404.267	-200.000	-0.033	-0.219
-403.252	800.000	0.071	-0.209
-402.238	124.773	0.140	-0.175
-401.223	18.722	0.304	-0.241
-400.209	272.568	-0.142	0.248
-399.194	5.212	-0.098	0.071
-398.179	341.892	-0.174	-0.337
-397.165	-19.750	-0.199	0.122
-396.150	246.595	0.042	-0.070
-395.136	800.000	0.125	-0.380
-394.121	41.542	-0.068	-0.061
-393.106	-200.000	-0.048	0.229
-392.092	-200.000	-0.016	-0.261
-391.077	-200.000	-0.027	-0.176
-390.063	-25.108	-0.060	0.035
-389.048	2.027	-0.351	0.251
-388.033	-111.719	0.253	-0.051
-387.019	337.059	-0.159	0.305
-386.004	-163.195	0.431	-0.021
-384.990	-73.485	0.151	-0.055
-383.975	122.694	-0.173	-0.214
-382.960	14.314	-0.292	0.226
-381.946	-79.822	-0.278	-0.093
-380.931	463.070	-0.072	-0.160
-379.917	73.387	0.283	0.293
-378.902	800.000	-0.050	0.210
-377.888	54.086	0.131	-0.125
-376.873	-200.000	-0.044	0.301
-375.858	251.208	0.081	0.136
-374.844	-200.000	-0.017	-0.138
-373.829	-117.624	-0.151	-0.027
-372.815	72.937	0.176	-0.182
-371.800	385.676	0.059	0.121
-370.785	-123.763	-0.347	-0.054
-369.771	-60.085	-0.254	0.107
-368.756	-173.475	-0.132	0.004
-367.742	-82.798	0.433	-0.139
-366.727	47.016	0.133	0.122
-365.712	-200.000	-0.002	0.394
-364.698	248.772	-0.088	0.148
-363.683	-200.000	-0.047	0.359
-362.669	-118.924	-0.172	0.030
-361.654	-200.000	-0.061	-0.267
-360.639	301.647	-0.151	-0.277
-359.625	-87.284	0.365	-0.109
-358.610	-162.495	-0.347	-0.017
-357.596	-200.000	0.007	0.311
-356.581	556.981	0.072	0.171
-355.566	-48.963	0.256	0.121
-354.552	-200.000	-0.013	0.157
-353.537	-30.475	-0.214	0.120
-352.523	25.861	-0.164	0.135
-351.508	-123.553	-0.349	0.055
-350.493	-122.899	0.440	-0.070
-349.479	-102.685	0.355	0.084
-348.464	-78.560	0.100	-0.034
-347.450	448.531	0.078	0.170
-346.435	140.125	-0.125	0.163
-345.420	781.661	0.042	-0.115
-344.406	-183.225	-0.117	0.002
-343.391	-200.000	-0.010	-0.361
-342.377	62.042	0.204	-0.202
-341.362	-140.385	0.163	0.017
-340.348	50.730	-0.236	0.220
-339.333	68.903	-0.343	-0.348
-338.318	-110.963	0.128	-0.026
-337.304	800.000	-0.050	-0.149
-336.289	-174.597	0.123	-0.003
-335.275	-104.725	-0.239	-0.054
-334.260	137.748	-0.153	-0.198
-333.245	353.657	-0.177	-0.347
-332.231	-94.574	0.323	-0.087
-331.216	-11.154	0.043	-0.028
-330.202	90.385	-0.260	0.287
-329.187	-127.168	-0.089	0.013
-328.172	43.758	0.175	-0.158
-327.158	656.536	0.117	-0.296
-326.143	-200.000	0.025	-0.290
-325.129	-200.000	0.028	-0.310
-324.114	-94.482	-0.095	0.026
-323.099	250.053	-0.057	-0.095
-322.085	-32.724	0.106	-0.058
-321.070	-200.000	0.008	-0.050
-320.056	-88.153	0.224	0.066
-319.041	-200.000	0.050	-0.286
-318.026	317.245	0.127	-0.237
-317.012	-200.000	-0.052	-0.386
-315.997	-127.370	-0.342	0.049
-314.983	-3.585	0.062	0.043
-313.968	-111.162	-0.187	0.038
-312.953	90.982	-0.347	-0.384
-311.939	61.373	0.132	0.129
-310.924	-31.297	-0.230	-0.128
-309.910	-71.388	-0.120	0.044
-308.895	3.962	0.167	0.120
-307.880	52.321	-0.150	-0.142
-306.866	-111.424	0.405	0.082
-305.851	49.570	-0.191	0.177
-304.837	15.293	-0.179	0.139
-303.822	-14.776	-0.340	0.215
-302.807	-175.688	0.453	-0.012
-301.793	368.963	-0.107	-0.214
-300.778	-89.947	0.062	0.018
-299.764	90.171	0.267	-0.294
-298.749	22.797	-0.231	-0.186
-297.735	-13.993	0.238	0.152
-296.720	622.224	-0.051	0.127
-295.705	-48.054	-0.112	0.054
-294.691	-44.183	-0.306	-0.151
-293.676	-23.450	0.179	-0.106
-292.662	-111.371	-0.204	-0.041
-291.647	800.000	0.041	0.169
-290.632	-118.709	0.118	0.021
-289.618	100.997	0.132	-0.151
-288.603	-40.361	-0.125	0.064
-287.589	-47.161	0.350	0.169
-286.574	19.372	-0.153	-0.121
-285.559	-159.929	-0.149	-0.008
-284.545	660.577	-0.059	-0.151
-283.530	-4.644	0.091	-0.062
-282.516	791.079	0.075	0.203
-281.501	-61.123	0.086	-0.036
-280.486	350.262	-0.102	0.199
-279.472	-100.889	0.160	-0.039
-278.457	-200.000	0.046	0.222
-277.443	800.000	-0.060	0.211
-276.428	-25.994	-0.251	-0.146
-275.413	-2.463	-0.223	-0.154
-274.399	267.655	0.187	0.323
-273.384	167.670	-0.069	0.096
-272.370	59.002	0.265	0.257
-271.355	103.613	0.122	-0.141
-270.340	289.915	-0.095	-0.170
-269.326	-16.227	-0.107	-0.067
-268.311	-200.000	0.008	-0.082
-267.297	800.000	-0.031	-0.116
-266.282	800.000	-0.022	0.078
-265.267	-117.719	-0.350	0.062
-264.253	-107.335	0.151	-0.033
-263.238	-86.285	-0.325	0.099
-262.224	-40.969	0.234	-0.119
-261.209	-61.629	-0.511	-0.211
-260.195	403.665	0.129	0.268
-259.180	-131.304	0.068	-0.009
-258.165	-52.093	-0.095	0.043
-257.151	287.315	-0.109	0.194
-256.136	278.439	0.257	0.452
-255.122	292.346	-0.115	-0.207
-254.107	-200.000	0.038	0.196
-253.092	190.420	0.166	0.246
-252.078	-147.455	-0.155	-0.013
-251.063	-104.767	0.277	-0.063
-250.049	-79.078	0.362	-0.121
-249.034	23.107	0.101	-0.082
-248.019	-200.000	-0.022	0.262
-247.005	-138.784	-0.154	0.017
-245.990	800.000	-0.070	-0.254
-244.976	-136.642	-0.293	0.033
-243.961	95.204	-0.092	0.104
-242.946	36.753	-0.148	0.129
-241.932	27.784	-0.199	-0.165
-240.917	-175.173	0.297	0.008
-239.903	59.440	0.162	-0.157
-238.888	-200.000	0.041	-0.338
-237.873	-144.194	0.131	-0.012
-236.859	79.228	0.160	-0.168
-235.844	800.000	0.019	-0.065
-234.830	268.914	-0.107	-0.185
-233.815	34.105	-0.034	0.029
-232.800	-140.857	0.255	-0.026
-231.786	-79.526	0.036	-0.012
-230.771	-123.359	0.273	-0.043
-229.757	254.178	-0.161	0.271
-228.742	-73.107	0.163	-0.059
-227.727	-170.558	0.406	0.014
-226.713	107.423	-0.176	0.206
-225.698	-147.674	0.074	-0.006
-224.684	-200.000	-0.003	-0.043
-223.669	800.000	-0.069	0.188
-222.655	89.508	-0.377	-0.414
-221.640	800.000	-0.028	0.081
-220.625	174.064	0.054	0.077
-219.611	-117.152	0.105	0.019
-218.596	99.026	-0.059	0.067
-217.582	-200.000	-0.006	-0.165
-216.567	73.963	-0.072	0.074
-215.552	-95.421	0.129	-0.034
-214.538	-200.000	0.019	0.392
-213.523	800.000	-0.071	-0.250
-212.509	-17.466	0.089	0.055
-211.494	85.244	-0.157	0.169
-210.479	-76.441	0.245	0.085
-209.465	-106.750	-0.086	-0.019
-208.450	17.317	-0.168	-0.131
-207.436	-200.000	-0.047	-0.377
-206.421	-200.000	-0.026	0.123
-205.406	507.737	-0.011	0.025
-204.392	-200.000	-0.021	0.104
-203.377	-65.193	-0.127	0.050
-202.363	32.230	0.135	-0.114
-201.348	-200.000	-0.454	-0.000
-200.333	-60.178	0.072	0.030
-199.319	409.632	0.121	-0.251
-198.304	800.000	0.028	-0.104
-197.290	800.000	0.070	-0.279
-196.275	37.623	0.294	-0.256
-195.260	-181.128	0.353	0.007
-194.246	-14.489	0.173	0.110
-193.231	117.693	-0.329	0.398
-192.217	-28.949	-0.167	-0.094
-191.202	8.236	-0.096	0.071
-190.187	-159.157	0.113	-0.006
-189.173	771.027	-0.086	-0.230
-188.158	-200.000	0.043	0.348
-187.144	-14.915	0.326	0.205
-186.129	393.776	0.082	-0.168
-185.114	-0.508	0.365	-0.255
-184.100	220.898	-0.130	-0.205
-183.085	-200.000	0.027	0.191
-182.071	800.000	0.091	0.306
-181.056	-76.792	-0.537	-0.185
-180.042	-28.999	0.140	0.079
-179.027	73.859	0.134	0.138
-178.012	692.377	0.060	0.153
-176.998	280.472	0.036	-0.063
-175.983	-200.000	-0.056	0.273
-174.969	-200.000	0.028	0.207
-173.954	-200.000	-0.046	0.532
-172.939	-135.067	0.321	-0.038
-171.925	213.921	0.175	0.272
-170.910	-39.575	0.292	-0.150
-169.896	-106.793	0.335	-0.073
-168.881	167.124	-0.030	-0.041
-167.866	800.000	0.069	0.274
-166.852	77.156	0.164	0.171
-165.837	21.389	0.233	-0.186
-164.823	58.475	0.131	-0.126
-163.808	199.630	-0.134	-0.202
-162.793	-84.053	0.418	0.130
-161.779	-200.000	-0.024	-0.216
-160.764	244.123	0.247	0.407
-159.750	10.232	-0.262	-0.196
-158.735	85.281	-0.053	-0.057
-157.720	-129.607	-0.273	0.037
-156.706	12.468	0.233	0.177
-155.691	61.761	0.280	-0.273
-154.677	161.456	0.215	0.295
-153.662	-169.966	-0.210	0.007
-152.647	226.279	-0.120	-0.192
-151.633	-152.080	0.251	0.018
-150.618	-64.104	-0.333	0.133
-149.604	800.000	-0.073	0.226
-148.589	-200.000	0.001	0.115
-147.574	-200.000	0.031	-0.143
-146.560	-30.143	-0.308	0.172
-145.545	-200.000	-0.007	-0.142
-144.531	-128.810	0.105	0.014
-143.516	800.000	-0.114	-0.327
-142.502	-6.197	-0.089	0.060
-141.487	800.000	-0.132	-0.375
-140.472	-200.000	-0.005	-0.131
-139.458	-114.427	0.363	0.068
-138.443	54.160	-0.159	-0.150
-137.429	-21.334	0.468	0.280
-136.414	340.847	0.081	0.155
-135.399	-126.075	-0.239	-0.035
-134.385	30.114	-0.114	-0.095
-133.370	249.629	-0.011	0.019
-132.356	-200.000	-0.024	0.291
-131.341	-200.000	0.040	-0.281
-130.326	9.311	-0.335	-0.248
-129.312	2.243	-0.059	0.042
-128.297	-69.683	0.224	-0.084
-127.283	33.057	-0.101	0.086
-126.268	87.760	0.105	-0.114
-125.253	-200.000	-0.079	-0.560
-124.239	-92.995	0.096	-0.026
-123.224	-2.996	-0.183	-0.125
-122.210	80.387	0.103	0.108
