DTS Sentinel unit serial number:	SN413079Multiplexer serial number:	ORYXHardware model number:	OX4-SRSoftware version number:	ORYX F/W v4.00 Oryx Data Collector v3.7.2.0data status	okinstallation	princeton_trtdifferential loss correction	single-endedforward channel	channel 2reverse channel	N/Adate	2019/09/17time	16:19:35forward acquisition time	60.00reverse acquisition time	0.00gamma	496.2192k internal	0.2295k external	0.2295temperature offset calibration	0.9984default loss term (dB/km)	0.3790temperature slope calibration	1.0000multiplexer offset coefficient	1.0000multiplexer slope coefficient	1.0000fibre end	0.00T internal ref (°C)	41.03T ext. ref 1 (°C)	0.38T ext. ref 2 (°C)	38.89length (m)	temperature (°C)	Stokes	anti-Stokes-747.200	-200.000	0.038	0.342
-746.185	800.000	-0.037	0.160
-745.171	-169.032	-0.450	0.017
-744.156	565.633	-0.107	0.265
-743.142	-126.857	0.259	-0.039
-742.127	251.147	0.137	0.238
-741.112	122.032	0.123	-0.157
-740.098	-200.000	0.018	0.319
-739.083	-13.504	-0.241	-0.160
-738.069	80.496	-0.315	0.347
-737.054	800.000	0.079	-0.308
-736.039	54.547	-0.075	-0.074
-735.025	-200.000	0.021	0.124
-734.010	111.370	0.114	-0.140
-732.996	57.550	-0.101	-0.101
-731.981	123.130	0.043	-0.055
-730.966	130.174	0.054	-0.071
-729.952	320.847	-0.060	-0.117
-728.937	-90.253	0.274	-0.081
-727.923	-131.117	-0.130	-0.018
-726.908	-129.443	-0.053	0.008
-725.894	146.305	-0.106	0.145
-724.879	36.425	-0.165	0.148
-723.864	-148.673	-0.394	0.033
-722.850	-76.813	0.060	-0.022
-721.835	-3.928	0.122	0.087
-720.821	-117.623	-0.181	-0.033
-719.806	-70.543	-0.077	-0.030
-718.791	800.000	-0.024	0.085
-717.777	-64.025	0.118	-0.049
-716.762	222.889	0.069	0.113
-715.748	-14.198	-0.250	0.164
-714.733	-59.826	-0.342	-0.150
-713.718	-112.276	0.418	-0.086
-712.704	800.000	-0.105	-0.366
-711.689	239.956	0.081	0.137
-710.675	332.526	0.156	0.308
-709.660	57.263	-0.187	-0.186
-708.645	368.614	0.028	-0.057
-707.631	-27.171	0.208	0.124
-706.616	-88.115	-0.237	0.073
-705.602	-23.656	-0.219	-0.134
-704.587	169.603	0.104	0.152
-703.572	-200.000	-0.000	0.225
-702.558	-200.000	0.028	0.219
-701.543	800.000	-0.225	0.682
-700.529	301.453	-0.017	-0.033
-699.514	-200.000	-0.085	-0.385
-698.499	-194.328	0.191	0.002
-697.485	-11.262	-0.408	-0.274
-696.470	52.838	-0.029	0.028
-695.456	-89.885	0.257	0.076
-694.441	-63.993	0.110	-0.046
-693.426	570.106	-0.063	-0.156
-692.412	386.698	-0.073	-0.153
-691.397	-182.302	0.192	0.004
-690.383	40.996	-0.285	0.263
-689.368	150.068	0.135	-0.187
-688.354	116.961	-0.132	-0.165
-687.339	230.688	0.163	0.272
-686.324	1.543	-0.234	-0.172
-685.310	3.200	-0.020	-0.015
-684.295	24.335	0.221	-0.187
-683.281	-145.494	0.208	0.019
-682.266	-85.378	-0.350	-0.111
-681.251	-200.000	-0.022	-0.219
-680.237	-167.422	-0.100	0.004
-679.222	-78.950	0.146	0.051
-678.208	91.345	-0.164	-0.187
-677.193	-52.576	0.254	-0.120
-676.178	800.000	0.049	0.210
-675.164	-76.809	-0.228	-0.081
-674.149	375.379	0.076	0.158
-673.135	35.292	-0.073	0.066
-672.120	33.530	0.103	0.091
-671.105	-26.599	-0.109	0.065
-670.091	-121.074	0.358	0.061
-669.076	55.091	-0.044	0.043
-668.062	190.840	-0.167	-0.256
-667.047	-200.000	0.388	-0.000
-666.032	-200.000	-0.050	0.236
-665.018	-1.509	0.261	-0.187
-664.003	45.433	0.118	-0.111
-662.989	-70.699	-0.173	-0.067
-661.974	-151.989	0.143	0.011
-660.959	-200.000	-0.012	0.147
-659.945	-90.775	-0.239	0.070
-658.930	-200.000	-0.007	-0.161
-657.916	0.142	-0.013	0.010
-656.901	-141.307	-0.365	0.038
-655.886	-130.000	-0.140	-0.019
-654.872	-6.629	-0.100	-0.069
-653.857	84.256	0.098	-0.109
-652.843	447.466	0.175	-0.393
-651.828	247.177	0.128	-0.220
-650.814	-200.000	-0.003	-0.061
-649.799	59.575	-0.267	-0.268
-648.784	800.000	-0.039	0.153
-647.770	-126.947	-0.143	0.021
-646.755	-200.000	0.014	-0.161
-645.741	79.618	-0.073	-0.080
-644.726	-59.040	0.145	-0.064
-643.711	-90.894	0.259	0.076
-642.697	419.112	0.129	-0.281
-641.682	-117.646	-0.234	0.043
-640.668	-38.641	-0.272	0.146
-639.653	-200.000	-0.031	0.301
-638.638	-200.000	0.032	-0.218
-637.624	-45.876	-0.113	0.057
-636.609	800.000	-0.074	-0.267
-635.595	-200.000	-0.029	0.212
-634.580	-68.960	0.238	0.093
-633.565	-46.275	-0.248	0.124
-632.551	-200.000	0.074	0.405
-631.536	-126.804	0.152	0.023
-630.522	-41.194	0.204	-0.107
-629.507	-200.000	-0.013	0.078
-628.492	-200.000	0.036	-0.212
-627.478	17.636	0.246	0.199
-626.463	-200.000	0.001	-0.041
-625.449	506.604	-0.114	0.269
-624.434	-154.030	0.136	-0.009
-623.419	-36.296	-0.126	-0.069
-622.405	97.894	0.142	-0.167
-621.390	282.517	0.061	-0.111
-620.376	-200.000	-0.023	0.209
-619.361	-200.000	0.010	0.219
-618.346	-200.000	-0.001	-0.138
-617.332	20.467	-0.028	-0.023
-616.317	800.000	0.025	0.096
-615.303	-31.549	-0.179	0.102
-614.288	81.471	-0.145	0.159
-613.273	-18.684	-0.234	-0.149
-612.259	-55.271	-0.172	0.079
-611.244	-200.000	0.141	0.000
-610.230	7.569	-0.102	-0.078
-609.215	-159.642	0.247	0.014
-608.201	-43.277	0.193	-0.099
-607.186	-31.786	0.264	-0.151
-606.171	47.634	0.114	-0.108
-605.157	-200.000	-0.004	0.111
-604.142	414.411	-0.040	0.087
-603.128	64.224	-0.128	0.131
-602.113	53.384	0.184	-0.180
-601.098	173.002	0.157	0.231
-600.084	800.000	-0.065	-0.236
-599.069	104.805	-0.070	0.084
-598.055	800.000	0.054	-0.164
-597.040	-200.000	-0.031	-0.576
-596.025	-99.773	-0.219	-0.056
-595.011	-110.805	0.397	0.083
-593.996	290.777	-0.114	-0.211
-592.982	782.591	-0.183	-0.510
-591.967	74.885	-0.083	-0.089
-590.952	-77.889	0.083	0.029
-589.938	317.362	0.130	-0.249
-588.923	726.041	-0.142	-0.385
-587.909	51.829	-0.223	-0.216
-586.894	154.272	-0.106	0.148
-585.879	800.000	-0.061	0.174
-584.865	-86.435	0.235	-0.073
-583.850	-25.166	0.118	-0.071
-582.836	79.551	-0.087	-0.095
-581.821	-200.000	-0.020	0.149
-580.806	-22.695	0.116	-0.071
-579.792	-145.769	0.062	0.006
-578.777	-176.882	-0.222	-0.006
-577.763	322.101	0.166	-0.322
-576.748	-61.506	-0.097	-0.041
-575.733	-15.150	-0.077	-0.050
-574.719	549.630	0.176	0.428
-573.704	89.888	0.105	-0.120
-572.690	152.689	-0.179	0.249
-571.675	2.143	0.149	0.109
-570.661	56.739	-0.091	-0.090
-569.646	214.603	-0.099	0.159
-568.631	126.479	-0.168	0.216
-567.617	-164.781	-0.099	0.005
-566.602	-200.000	0.022	-0.160
-565.588	-200.000	-0.163	-0.000
-564.573	349.306	0.011	0.022
-563.558	414.884	0.147	-0.317
-562.544	800.000	-0.075	-0.321
-561.529	107.859	0.146	-0.176
-560.515	-137.130	-0.235	-0.027
-559.500	306.531	-0.048	0.090
-558.485	800.000	0.044	0.193
-557.471	800.000	0.053	-0.149
-556.456	532.662	0.108	-0.260
-555.442	516.581	0.072	0.172
-554.427	-77.507	-0.095	-0.033
-553.412	82.744	0.119	-0.131
-552.398	-110.218	-0.214	0.045
-551.383	227.106	0.107	-0.176
-550.369	-200.000	0.004	0.308
-549.354	177.865	0.014	0.020
-548.339	-186.414	0.177	-0.003
-547.325	-3.730	0.097	-0.068
-546.310	41.421	0.393	-0.360
-545.296	-163.678	-0.275	-0.013
-544.281	-83.130	-0.188	0.061
-543.266	-80.070	0.053	-0.018
-542.252	-200.000	-0.010	-0.059
-541.237	-157.306	0.241	0.015
-540.223	85.028	0.115	0.128
-539.208	255.226	0.005	0.008
-538.193	-4.473	-0.272	0.191
-537.179	-188.932	-0.235	-0.003
-536.164	-200.000	-0.009	-0.139
-535.150	-200.000	0.057	0.273
-534.135	800.000	0.078	-0.249
-533.121	99.459	-0.221	0.259
-532.106	-25.554	0.074	-0.044
-531.091	51.994	0.118	0.114
-530.077	88.709	-0.096	0.108
-529.062	43.589	-0.140	0.129
-528.048	-137.817	-0.070	0.008
-527.033	100.042	-0.033	0.038
-526.018	-25.170	-0.183	-0.110
-525.004	800.000	0.118	-0.434
-523.989	51.814	-0.063	-0.060
-522.975	14.981	0.049	-0.038
-521.960	-200.000	-0.015	0.310
-520.945	-27.581	0.095	0.056
-519.931	177.254	-0.195	-0.288
-518.916	127.666	0.064	-0.083
-517.902	-45.929	-0.243	0.121
-516.887	127.438	0.066	-0.085
-515.872	800.000	-0.057	-0.231
-514.858	-117.054	-0.198	0.037
-513.843	800.000	0.043	-0.127
-512.829	-200.000	-0.031	-0.343
-511.814	-42.203	0.121	-0.063
-510.799	-200.000	0.051	0.368
-509.785	-53.129	0.344	-0.160
-508.770	-107.395	-0.207	0.046
-507.756	-200.000	-0.005	0.028
-506.741	800.000	-0.030	-0.126
-505.726	-11.747	0.175	-0.116
-504.712	800.000	0.072	0.305
-503.697	800.000	-0.060	-0.203
-502.683	19.380	0.279	-0.227
-501.668	319.941	0.049	-0.095
-500.653	800.000	-0.011	-0.040
-499.639	266.077	-0.067	0.119
-498.624	-134.645	0.342	0.042
-497.610	-200.000	-0.016	-0.162
-496.595	-200.000	0.023	0.166
-495.581	43.862	0.145	0.134
-494.566	-200.000	-0.025	0.162
-493.551	91.978	0.084	0.096
-492.537	30.746	-0.141	0.122
-491.522	800.000	0.014	-0.041
-490.508	-59.612	-0.191	0.083
-489.493	-12.502	-0.022	-0.014
-488.478	-103.570	-0.336	-0.080
-487.464	19.681	0.082	-0.067
-486.449	-44.838	-0.401	-0.202
-485.435	-200.000	0.016	-0.207
-484.420	-200.000	-0.022	-0.169
-483.405	-58.373	0.137	-0.060
-482.391	-141.046	-0.026	-0.003
-481.376	-200.000	-0.036	0.208
-480.362	-200.000	0.028	0.200
-479.347	273.919	0.085	-0.152
-478.332	14.957	0.143	-0.113
-477.318	-200.000	0.346	-0.001
-476.303	-76.309	0.061	-0.022
-475.289	519.422	-0.084	-0.200
-474.274	6.139	0.082	-0.062
-473.259	-105.993	0.150	-0.034
-472.245	-146.235	-0.136	0.012
-471.230	-200.000	-0.018	-0.153
-470.216	-84.629	-0.323	0.103
-469.201	9.756	-0.228	0.175
-468.186	155.733	0.152	0.212
-467.172	-44.225	-0.222	-0.112
-466.157	57.807	-0.048	0.048
-465.143	800.000	0.060	-0.199
-464.128	-200.000	0.011	0.110
-463.113	176.868	0.176	-0.259
-462.099	-120.889	-0.177	-0.030
-461.084	-122.766	-0.216	-0.035
-460.070	111.817	-0.185	-0.226
-459.055	604.532	-0.084	-0.211
-458.040	-200.000	-0.020	-0.134
-457.026	220.015	-0.089	-0.144
-456.011	800.000	-0.038	-0.157
-454.997	-183.555	-0.438	-0.008
-453.982	537.334	0.125	-0.301
-452.968	-106.128	-0.138	0.031
-451.953	-129.797	0.010	-0.001
-450.938	271.797	0.115	0.205
-449.924	26.768	-0.121	0.103
-448.909	19.444	0.052	0.042
-447.895	-145.862	0.355	0.032
-446.880	-200.000	0.026	0.241
-445.865	800.000	0.090	-0.282
-444.851	-200.000	-0.035	-0.396
-443.836	387.507	0.018	-0.037
-442.822	109.576	0.233	-0.282
-441.807	269.710	0.199	-0.352
-440.792	12.377	0.155	-0.121
-439.778	521.937	0.063	0.150
-438.763	800.000	0.078	0.227
-437.749	-172.245	-0.227	-0.007
-436.734	92.901	-0.239	-0.273
-435.719	123.607	0.120	0.152
-434.705	-98.076	-0.245	0.064
-433.690	11.045	-0.252	-0.194
-432.676	-73.365	-0.259	0.096
-431.661	-200.000	0.012	0.160
-430.646	1.902	-0.209	0.152
-429.632	800.000	-0.053	0.170
-428.617	106.774	-0.222	-0.266
-427.603	800.000	-0.019	-0.060
-426.588	-181.258	-0.300	-0.006
-425.573	-37.222	-0.202	0.109
-424.559	-52.642	0.198	0.092
-423.544	134.680	0.177	-0.232
-422.530	-2.269	0.193	0.137
-421.515	800.000	-0.068	0.278
-420.500	165.307	-0.122	-0.174
-419.486	-200.000	0.014	0.175
-418.471	-28.847	0.292	0.169
-417.457	-200.000	-0.017	-0.240
-416.442	70.687	-0.067	-0.070
-415.428	-7.587	0.129	-0.088
-414.413	437.609	-0.222	-0.487
-413.398	-132.021	0.129	-0.017
-412.384	177.014	0.229	-0.336
-411.369	-200.000	0.025	-0.201
-410.355	196.980	0.067	-0.102
-409.340	77.296	-0.222	-0.239
-408.325	800.000	0.035	-0.136
-407.311	12.801	0.357	-0.278
-406.296	-200.000	-0.019	-0.192
-405.282	-24.862	-0.162	-0.097
-404.267	-200.000	-0.030	0.376
-403.252	-1.991	-0.228	0.162
-402.238	-158.415	0.265	0.016
-401.223	218.973	0.076	0.122
-400.209	800.000	0.059	-0.231
-399.194	-200.000	-0.001	0.235
-398.179	-100.471	0.340	0.085
-397.165	252.377	0.016	-0.027
-396.150	-93.636	0.243	-0.068
-395.136	-42.716	-0.109	0.056
-394.121	344.413	0.018	0.037
-393.106	56.320	0.203	-0.199
-392.092	-200.000	-0.009	-0.131
-391.077	97.612	-0.102	0.119
-390.063	-46.355	-0.319	-0.158
-389.048	29.812	-0.128	0.110
-388.033	75.521	0.170	0.181
-387.019	388.758	0.166	-0.346
-386.004	388.873	-0.101	-0.211
-384.990	-47.942	-0.298	-0.145
-383.975	107.991	-0.122	-0.147
-382.960	61.814	0.204	-0.205
-381.946	-65.172	0.124	-0.051
-380.931	128.911	0.138	-0.177
-379.917	322.531	-0.147	-0.282
-378.902	248.770	0.120	0.205
-377.888	-200.000	0.001	-0.084
-376.873	-200.000	-0.017	-0.118
-375.858	-41.118	0.143	-0.075
-374.844	-41.697	-0.222	0.115
-373.829	-15.411	0.211	-0.136
-372.815	97.287	0.150	0.174
-371.800	68.557	0.129	0.133
-370.785	379.814	-0.118	-0.244
-369.771	140.825	0.213	-0.284
-368.756	-200.000	-0.077	0.481
-367.742	396.245	0.131	-0.275
-366.727	164.868	0.151	-0.214
-365.712	68.524	0.140	0.144
-364.698	-200.000	0.019	-0.195
-363.683	-121.719	-0.172	0.029
-362.669	-32.261	0.119	0.067
-361.654	254.725	0.052	0.090
-360.639	127.128	0.226	-0.289
-359.625	-85.773	-0.372	-0.116
-358.610	138.283	0.074	-0.098
-357.596	205.602	-0.064	0.100
-356.581	165.878	-0.192	0.273
-355.566	800.000	0.083	0.359
-354.552	-110.772	0.244	-0.051
-353.537	51.127	-0.366	-0.350
-352.523	54.863	-0.250	-0.243
-351.508	140.514	0.258	-0.343
-350.493	-169.313	0.146	-0.005
-349.479	-137.366	-0.426	-0.049
-348.464	800.000	0.106	-0.435
-347.450	-157.436	0.041	0.002
-346.435	-3.183	0.163	0.114
-345.420	-200.000	-0.038	-0.248
-344.406	177.323	-0.255	0.374
-343.391	-51.916	-0.043	-0.020
-342.377	-17.975	-0.294	0.185
-341.362	800.000	-0.051	0.158
-340.348	-200.000	-0.002	0.215
-339.333	39.553	0.056	0.051
-338.318	-101.079	-0.089	-0.022
-337.304	-61.146	-0.396	-0.168
-336.289	-101.328	-0.238	0.058
-335.275	-200.000	-0.028	0.378
-334.260	474.870	0.057	-0.130
-333.245	-168.838	0.260	-0.010
-332.231	-162.043	0.294	-0.015
-331.216	-200.000	-0.011	0.295
-330.202	61.202	0.264	0.264
-329.187	-106.791	0.283	0.063
-328.172	45.435	0.049	0.045
-327.158	-200.000	0.058	0.270
-326.143	-200.000	0.026	0.144
-325.129	23.386	0.167	0.138
-324.114	-134.409	0.387	-0.048
-323.099	469.426	-0.185	0.417
-322.085	-93.814	0.283	0.078
-321.070	-200.000	-0.064	-0.282
-320.056	593.514	-0.167	-0.414
-319.041	181.086	0.127	-0.188
-318.026	-159.777	-0.202	-0.011
-317.012	-90.713	0.322	-0.093
-315.997	346.467	-0.096	0.190
-314.983	-116.512	0.292	0.054
-313.968	-200.000	-0.037	-0.214
-312.953	400.703	0.026	-0.055
-311.939	-200.000	-0.014	-0.187
-310.924	-200.000	0.005	0.272
-309.910	-149.883	0.109	0.009
-308.895	203.915	-0.201	-0.313
-307.880	204.646	-0.137	-0.214
-306.866	-26.998	-0.439	0.257
-305.851	-29.057	-0.395	-0.228
-304.837	-200.000	-0.045	0.298
-303.822	281.925	0.216	0.389
-302.807	-66.989	0.010	0.004
-301.793	-200.000	0.009	-0.219
-300.778	74.267	0.155	0.164
-299.764	183.406	-0.102	0.152
-298.749	-13.502	0.196	0.127
-297.735	-200.000	-0.017	0.076
-296.720	1.064	-0.183	-0.132
-295.705	191.791	-0.101	0.154
-294.691	-101.875	-0.238	0.058
-293.676	-200.000	-0.047	-0.241
-292.662	557.816	-0.094	-0.229
-291.647	-200.000	-0.038	0.201
-290.632	800.000	-0.081	0.307
-289.618	-117.905	0.089	0.016
-288.603	617.498	0.043	0.108
-287.589	-94.306	0.398	0.109
-286.574	-38.971	-0.137	0.072
-285.559	193.685	0.187	-0.283
-284.545	15.252	-0.149	-0.118
-283.530	562.422	-0.093	0.227
-282.516	-39.503	-0.193	0.102
-281.501	-36.170	0.283	0.153
-280.486	-200.000	-0.062	0.580
-279.472	19.755	-0.218	-0.176
-278.457	-24.816	-0.056	0.033
-277.443	311.828	-0.088	-0.167
-276.428	210.297	0.093	-0.146
-275.413	313.403	0.072	0.135
-274.399	231.465	-0.088	-0.145
-273.384	-200.000	0.017	-0.174
-272.370	302.364	-0.058	0.108
-271.355	-149.422	-0.329	-0.026
-270.340	-200.000	0.071	0.351
-269.326	-200.000	0.033	0.154
-268.311	-81.332	0.277	0.091
-267.297	800.000	-0.066	0.212
-266.282	-79.236	-0.341	0.116
-265.267	-71.940	-0.278	0.104
-264.253	800.000	-0.108	0.336
-263.238	-121.813	0.154	0.025
-262.224	170.366	-0.101	0.144
-261.209	-0.810	-0.216	-0.153
-260.195	800.000	-0.062	-0.266
-259.180	-200.000	-0.004	-0.205
-258.165	-138.104	0.256	-0.029
-257.151	458.954	0.154	-0.344
-256.136	800.000	0.037	-0.114
-255.122	22.761	0.188	0.155
-254.107	146.293	0.212	0.286
-253.092	800.000	-0.103	0.321
-252.078	-25.256	0.117	-0.070
-251.063	-72.409	0.253	0.094
-250.049	-79.138	-0.124	-0.042
-249.034	-200.000	-0.059	0.268
-248.019	800.000	0.035	0.125
-247.005	-84.375	-0.409	0.130
-245.990	-59.965	0.212	-0.091
-244.976	-149.416	-0.131	0.010
-243.961	113.319	0.212	-0.258
-242.946	92.485	0.211	-0.238
-241.932	-26.666	-0.034	-0.020
-240.917	-200.000	-0.005	0.301
-239.903	-145.407	-0.292	0.026
-238.888	-200.000	0.066	0.315
-237.873	-73.380	0.304	-0.111
-236.859	-21.753	-0.248	-0.151
-235.844	-91.089	0.250	0.072
-234.830	-97.968	0.220	0.057
-233.815	255.725	0.127	-0.219
-232.800	771.793	-0.247	0.674
-231.786	-200.000	-0.082	0.386
-230.771	-6.294	0.042	0.029
-229.757	-200.000	0.001	0.159
-228.742	153.369	-0.197	0.271
-227.727	31.405	0.189	-0.163
-226.713	-200.000	-0.049	-0.220
-225.698	-52.320	0.195	0.090
-224.684	800.000	0.078	0.290
-223.669	-200.000	0.002	0.081
-222.655	-200.000	0.011	0.203
-221.640	-102.657	0.300	0.072
-220.625	-86.528	0.345	0.106
-219.611	70.075	0.082	-0.085
-218.596	-95.749	0.203	0.054
-217.582	-200.000	-0.051	0.334
-216.567	226.885	-0.150	0.244
-215.552	435.285	-0.071	0.154
-214.538	-200.000	-0.270	-0.000
-213.523	0.658	-0.190	-0.136
-212.509	202.907	0.155	0.239
-211.494	-200.000	-0.002	-0.185
-210.479	-116.904	-0.188	0.034
-209.465	-125.650	0.336	0.051
-208.450	-74.345	0.394	-0.142
-207.436	139.657	0.122	0.161
-206.421	8.985	0.361	-0.273
-205.406	77.486	-0.064	-0.068
-204.392	-23.808	-0.072	0.043
-203.377	-125.441	0.298	0.045
-202.363	36.342	-0.137	0.121
-201.348	323.273	-0.085	-0.162
-200.333	136.361	0.118	-0.154
-199.319	-87.816	-0.382	-0.115
-198.304	-17.148	-0.034	0.021
-197.290	-200.000	0.015	0.076
-196.275	-61.259	0.087	-0.037
-195.260	-200.000	-0.009	-0.161
-194.246	-200.000	0.002	0.073
-193.231	54.490	-0.375	0.361
-192.217	-148.624	0.207	0.017
-191.202	-145.390	-0.080	0.007
-190.187	-74.645	-0.133	0.048
-189.173	-48.257	0.342	0.165
-188.158	285.465	-0.173	0.312
-187.144	361.050	-0.067	0.135
-186.129	234.514	-0.073	-0.120
-185.114	21.914	0.034	0.028
-184.100	24.936	-0.061	0.051
-183.085	70.598	-0.096	0.099
-182.071	-200.000	0.031	0.188
-181.056	364.666	0.225	0.454
-180.042	-60.391	-0.124	-0.053
-179.027	800.000	0.041	0.168
-178.012	83.410	0.258	-0.281
-176.998	431.551	-0.115	-0.248
-175.983	-200.000	-0.016	0.340
-174.969	218.712	0.105	0.167
-173.954	-16.687	0.045	-0.028
-172.939	-31.609	0.266	-0.149
-171.925	179.058	-0.119	0.174
-170.910	-9.807	-0.076	0.050
-169.896	227.498	-0.067	-0.109
-168.881	12.945	-0.117	0.090
-167.866	80.826	-0.092	0.099
-166.852	178.258	-0.092	-0.135
-165.837	-200.000	-0.078	0.345
-164.823	62.419	0.238	0.237
-163.808	634.032	0.161	-0.409
-162.793	800.000	-0.046	0.180
-161.779	798.020	-0.129	0.355
-160.764	79.881	0.155	0.166
-159.750	-130.590	-0.344	0.046
-158.735	-173.747	0.107	-0.003
-157.720	-155.710	-0.210	-0.013
-156.706	-0.602	0.124	0.088
-155.691	111.412	-0.075	0.090
-154.677	4.823	-0.080	0.059
-153.662	-75.502	0.383	0.136
-152.647	-106.486	-0.144	0.032
-151.633	52.761	-0.162	0.155
-150.618	119.919	-0.046	0.056
-149.604	800.000	-0.047	0.185
-148.589	-200.000	-0.007	0.288
-147.574	755.506	-0.071	-0.193
-146.560	401.036	-0.052	-0.109
-145.545	-67.342	-0.196	-0.077
-144.531	278.102	-0.199	0.354
-143.516	-129.698	0.316	-0.044
-142.502	745.952	0.107	0.288
-141.487	-92.686	-0.036	0.010
-140.472	-137.991	0.339	0.038
-139.458	-61.275	0.224	-0.094
-138.443	7.982	0.047	-0.035
-137.429	-96.931	0.354	-0.093
-136.414	10.293	0.141	-0.107
-135.399	265.398	0.140	-0.244
-134.385	800.000	0.014	-0.050
-133.370	800.000	-0.091	0.287
-132.356	224.728	-0.042	0.068
-131.341	39.289	-0.108	0.096
-130.326	-80.104	-0.235	-0.079
-129.312	114.420	-0.252	-0.306
-128.297	96.848	-0.146	-0.167
-127.283	-41.008	0.274	0.141
-126.268	330.363	-0.091	0.175
-125.253	800.000	0.041	0.129
-124.239	800.000	-0.064	-0.247
-123.224	-84.496	-0.058	0.018
-122.210	6.436	0.442	0.328
-121.195	-25.554	0.409	0.241
