DTS Sentinel unit serial number:	SN413079Multiplexer serial number:	ORYXHardware model number:	OX4-SRSoftware version number:	ORYX F/W v4.00 Oryx Data Collector v3.7.2.0data status	okinstallation	princeton_trtdifferential loss correction	single-endedforward channel	channel 2reverse channel	N/Adate	2019/09/16time	01:43:34forward acquisition time	60.00reverse acquisition time	0.00gamma	496.2192k internal	0.2337k external	0.2337temperature offset calibration	0.9966default loss term (dB/km)	0.3790temperature slope calibration	1.0000multiplexer offset coefficient	1.0000multiplexer slope coefficient	1.0000fibre end	0.00T internal ref (°C)	27.37T ext. ref 1 (°C)	10.00T ext. ref 2 (°C)	22.25length (m)	temperature (°C)	Stokes	anti-Stokes-747.200	168.741	0.040	0.058
-746.185	-4.678	0.161	-0.112
-745.171	-47.078	0.135	-0.066
-744.156	800.000	-0.103	0.306
-743.142	-200.000	-0.011	0.188
-742.127	591.398	0.186	0.461
-741.112	-48.629	0.192	-0.093
-740.098	179.709	-0.315	0.463
-739.083	-36.627	0.132	-0.071
-738.069	-103.590	-0.245	-0.058
-737.054	-17.784	0.009	-0.006
-736.039	-17.937	-0.327	0.206
-735.025	-141.967	0.106	-0.011
-734.010	800.000	-0.117	-0.326
-732.996	800.000	-0.038	-0.155
-731.981	147.958	-0.169	-0.229
-730.966	-200.000	0.024	0.130
-729.952	-24.316	0.167	0.100
-728.937	-200.000	-0.053	-0.396
-727.923	-5.583	0.156	-0.107
-726.908	-200.000	0.019	-0.199
-725.894	-12.743	-0.199	0.130
-724.879	800.000	0.051	0.160
-723.864	800.000	-0.123	-0.470
-722.850	-200.000	0.018	-0.412
-721.835	-99.578	-0.099	-0.025
-720.821	-200.000	-0.014	-0.185
-719.806	-121.937	-0.187	-0.031
-718.791	-113.842	-0.194	0.038
-717.777	302.153	-0.127	-0.235
-716.762	417.018	0.140	0.299
-715.748	-157.465	0.056	-0.003
-714.733	-104.963	0.238	-0.055
-713.718	236.907	-0.103	-0.171
-712.704	54.352	-0.114	0.110
-711.689	-192.468	-0.094	-0.001
-710.675	581.727	-0.097	0.238
-709.660	192.920	-0.149	0.226
-708.645	800.000	0.163	0.452
-707.631	8.633	0.259	-0.195
-706.616	-13.508	0.259	-0.169
-705.602	297.216	0.183	-0.337
-704.587	314.552	-0.124	0.234
-703.572	-200.000	0.031	0.179
-702.558	-131.795	-0.388	0.051
-701.543	96.644	-0.113	0.130
-700.529	132.242	-0.176	0.228
-699.514	-200.000	0.020	0.131
-698.499	539.004	0.086	-0.205
-697.485	153.552	-0.125	-0.172
-696.470	800.000	0.077	-0.228
-695.456	800.000	-0.055	0.205
-694.441	-123.138	0.150	-0.024
-693.426	800.000	-0.042	0.168
-692.412	707.943	0.121	0.320
-691.397	-3.054	-0.160	0.112
-690.383	-200.000	0.086	0.496
-689.368	308.113	-0.140	-0.263
-688.354	-90.797	0.370	-0.107
-687.339	-85.530	-0.273	0.085
-686.324	-130.421	-0.359	0.049
-685.310	-200.000	0.055	0.341
-684.295	178.563	0.117	0.171
-683.281	800.000	0.115	0.407
-682.266	-68.959	0.191	-0.074
-681.251	-90.439	-0.045	0.013
-680.237	54.716	0.077	-0.074
-679.222	-130.362	0.281	-0.038
-678.208	-112.170	0.293	-0.059
-677.193	17.718	0.101	0.081
-676.178	-6.217	0.180	-0.123
-675.164	-200.000	-0.002	0.008
-674.149	-72.686	0.309	-0.114
-673.135	800.000	0.012	0.039
-672.120	-68.677	0.211	-0.082
-671.105	-112.172	-0.389	-0.078
-670.091	-22.763	0.381	0.230
-669.076	31.956	-0.246	0.212
-668.062	800.000	-0.048	0.207
-667.047	107.184	0.271	0.322
-666.032	-119.388	-0.600	-0.104
-665.018	-102.328	0.140	0.034
-664.003	-66.357	0.075	0.030
-662.989	424.558	0.039	-0.085
-661.974	-200.000	-0.025	0.276
-660.959	188.304	0.198	0.296
-659.945	-200.000	0.009	-0.234
-658.930	800.000	-0.024	0.098
-657.916	800.000	0.019	-0.079
-656.901	-200.000	-0.010	-0.159
-655.886	12.512	-0.223	-0.172
-654.872	241.655	0.185	-0.309
-653.857	-200.000	0.012	-0.169
-652.843	-8.495	0.050	-0.033
-651.828	67.272	0.287	-0.293
-650.814	-200.000	-0.058	-0.436
-649.799	-200.000	-0.006	0.221
-648.784	-92.876	-0.447	-0.125
-647.770	-200.000	0.053	-0.233
-646.755	-200.000	-0.058	-0.278
-645.741	402.715	-0.053	0.111
-644.726	-27.024	0.224	-0.131
-643.711	292.648	-0.146	-0.265
-642.697	-133.503	0.208	-0.026
-641.682	800.000	0.055	0.207
-640.668	-109.087	0.445	0.095
-639.653	289.111	-0.122	0.222
-638.638	14.116	0.095	0.074
-637.624	105.488	0.150	-0.177
-636.609	-2.859	0.111	0.078
-635.595	-163.809	0.121	-0.006
-634.580	135.106	-0.168	-0.219
-633.565	800.000	0.044	-0.191
-632.551	104.572	0.139	-0.164
-631.536	-90.273	-0.054	0.016
-630.522	270.366	0.083	0.145
-629.507	-72.844	-0.266	0.098
-628.492	3.983	0.083	-0.061
-627.478	3.957	-0.333	-0.243
-626.463	-78.928	-0.232	-0.079
-625.449	-5.148	-0.101	-0.070
-624.434	103.927	-0.262	-0.308
-623.419	800.000	-0.050	-0.147
-622.405	235.856	-0.216	0.356
-621.390	163.960	-0.273	0.384
-620.376	-78.768	-0.213	-0.073
-619.361	-200.000	-0.073	-0.321
-618.346	-67.850	0.264	-0.103
-617.332	131.689	-0.135	-0.174
-616.317	717.981	0.066	-0.175
-615.303	199.825	0.130	-0.199
-614.288	-47.652	-0.088	0.043
-613.273	101.378	-0.122	-0.142
-612.259	-106.229	0.051	-0.011
-611.244	-129.420	-0.056	-0.008
-610.230	158.351	0.155	0.214
-609.215	104.057	-0.098	0.115
-608.201	-200.000	0.072	-0.460
-607.186	-127.215	-0.283	-0.041
-606.171	58.238	0.236	-0.231
-605.157	37.343	0.134	-0.118
-604.142	246.859	-0.133	-0.224
-603.128	800.000	-0.004	0.012
-602.113	-107.387	0.118	0.026
-601.098	198.161	-0.141	-0.215
-600.084	-200.000	0.001	-0.303
-599.069	48.149	0.389	0.363
-598.055	27.282	0.175	0.147
-597.040	96.745	-0.395	0.452
-596.025	800.000	0.085	-0.295
-595.011	800.000	0.066	-0.256
-593.996	-200.000	0.042	-0.449
-592.982	-200.000	0.028	0.329
-591.967	171.362	0.216	-0.309
-590.952	298.877	-0.125	-0.230
-589.938	800.000	-0.128	-0.423
-588.923	-59.277	-0.071	-0.031
-587.909	274.170	0.179	-0.316
-586.894	122.629	-0.149	0.186
-585.879	-157.442	-0.087	0.005
-584.865	22.608	0.159	0.130
-583.850	800.000	-0.140	0.410
-582.836	58.724	0.195	0.191
-581.821	-54.595	-0.052	0.024
-580.806	58.896	0.117	0.115
-579.792	97.965	0.161	0.185
-578.777	-196.532	0.215	0.001
-577.763	39.082	-0.154	-0.138
-576.748	635.651	0.056	0.143
-575.733	-25.173	0.092	0.054
-574.719	-163.648	-0.092	-0.004
-573.704	-111.940	0.319	-0.064
-572.690	284.340	0.105	0.189
-571.675	800.000	-0.067	-0.247
-570.661	-200.000	0.041	-0.396
-569.646	-127.210	0.281	0.041
-568.631	261.701	0.295	-0.510
-567.617	800.000	0.072	-0.207
-566.602	297.405	0.082	0.149
-565.588	132.027	-0.041	-0.052
-564.573	99.316	0.141	-0.163
-563.558	-70.897	-0.273	0.103
-562.544	800.000	0.043	-0.151
-561.529	50.048	0.149	0.140
-560.515	-100.384	-0.116	0.029
-559.500	218.314	0.125	-0.199
-558.485	93.051	0.150	0.169
-557.471	-76.534	0.285	-0.100
-556.456	-89.499	0.265	-0.078
-555.442	-124.109	0.130	-0.020
-554.427	519.770	-0.078	-0.182
-553.412	41.314	0.091	0.082
-552.398	-101.844	-0.166	-0.040
-551.383	668.109	0.069	0.179
-550.369	30.003	-0.200	-0.170
-549.354	-200.000	0.006	0.088
-548.339	7.054	-0.377	-0.280
-547.325	800.000	0.127	-0.436
-546.310	715.903	-0.164	0.434
-545.296	-200.000	-0.042	0.216
-544.281	-200.000	0.021	0.158
-543.266	-200.000	-0.038	0.333
-542.252	-96.362	0.101	0.027
-541.237	35.453	-0.114	-0.099
-540.223	225.569	-0.120	-0.193
-539.208	303.530	0.014	-0.025
-538.193	-33.293	-0.096	0.053
-537.179	-106.394	-0.119	-0.026
-536.164	247.193	-0.220	-0.369
-535.150	-102.735	0.247	-0.059
-534.135	-130.913	-0.258	0.034
-533.121	-170.151	-0.248	0.009
-532.106	800.000	0.046	-0.148
-531.091	-200.000	-0.003	-0.028
-530.077	277.712	0.212	-0.376
-529.062	-200.000	0.034	0.264
-528.048	510.979	0.049	-0.113
-527.033	800.000	0.040	-0.165
-526.018	-111.380	-0.557	-0.113
-525.004	-191.684	-0.362	0.004
-523.989	302.002	0.051	-0.093
-522.975	72.325	-0.286	-0.297
-521.960	-200.000	-0.003	0.211
-520.945	-17.063	-0.308	-0.193
-519.931	-200.000	-0.010	0.175
-518.916	504.087	0.024	0.056
-517.902	-200.000	0.004	0.083
-516.887	79.040	0.211	0.225
-515.872	-70.491	0.108	-0.041
-514.858	-200.000	0.031	0.252
-513.843	3.554	0.187	0.136
-512.829	-115.344	-0.268	0.050
-511.814	349.836	-0.282	0.554
-510.799	-94.908	0.244	0.066
-509.785	395.796	-0.058	0.120
-508.770	26.203	-0.098	-0.081
-507.756	800.000	0.060	-0.183
-506.741	-72.671	-0.161	0.059
-505.726	800.000	0.059	0.188
-504.712	774.858	0.135	-0.366
-503.697	-92.978	-0.357	-0.099
-502.683	-200.000	0.005	0.313
-501.668	-137.010	0.035	0.004
-500.653	224.632	0.131	0.211
-499.639	-101.698	-0.214	0.052
-498.624	30.107	0.077	-0.065
-497.610	-66.434	-0.248	0.098
-496.595	377.735	-0.033	0.067
-495.581	100.891	0.067	0.078
-494.566	-44.696	-0.066	0.033
-493.551	-50.641	-0.254	0.119
-492.537	-101.662	0.288	0.070
-491.522	69.573	-0.215	0.220
-490.508	-147.122	-0.084	-0.007
-489.493	-175.009	-0.298	0.008
-488.478	800.000	0.022	0.096
-487.464	800.000	-0.060	-0.227
-486.449	-94.538	-0.110	-0.030
-485.435	-149.223	-0.174	-0.014
-484.420	-200.000	0.021	-0.165
-483.405	800.000	0.127	0.438
-482.391	-16.426	-0.231	0.146
-481.376	-168.461	0.093	0.004
-480.362	-75.245	-0.281	0.100
-479.347	31.336	0.190	-0.162
-478.332	14.371	0.107	-0.083
-477.318	110.054	-0.161	0.192
-476.303	-91.009	0.188	0.054
-475.289	64.711	-0.149	-0.149
-474.274	198.034	-0.100	0.152
-473.259	226.613	-0.140	-0.225
-472.245	223.774	0.135	-0.217
-471.230	-28.870	-0.222	0.127
-470.216	16.283	-0.361	0.283
-469.201	-122.056	-0.197	0.032
-468.186	101.598	0.218	0.252
-467.172	800.000	0.131	0.391
-466.157	376.956	-0.090	-0.182
-465.143	-73.758	-0.127	-0.046
-464.128	-101.657	-0.271	0.065
-463.113	36.899	0.316	-0.277
-462.099	-200.000	0.002	0.074
-461.084	-26.995	-0.251	0.146
-460.070	-200.000	0.000	-0.206
-459.055	-200.000	0.031	-0.192
-458.040	800.000	-0.083	-0.289
-457.026	538.496	0.023	-0.054
-456.011	-200.000	0.009	0.195
-454.997	-153.940	0.295	0.020
-453.982	53.067	-0.203	0.193
-452.968	204.977	0.159	-0.244
-451.953	-14.104	-0.116	0.074
-450.938	616.887	0.008	-0.019
-449.924	-5.321	0.110	0.075
-448.909	-11.423	-0.226	-0.148
-447.895	-63.455	-0.220	-0.090
-446.880	200.551	0.201	-0.307
-445.865	-200.000	-0.003	-0.140
-444.851	-53.065	-0.160	0.073
-443.836	-147.389	-0.282	-0.024
-442.822	305.277	0.148	-0.274
-441.807	74.534	-0.191	0.199
-440.792	-200.000	-0.015	0.211
-439.778	197.443	0.151	0.229
-438.763	181.406	-0.070	-0.102
-437.749	-200.000	-0.074	0.371
-436.734	-200.000	-0.010	0.116
-435.719	-108.513	0.243	0.052
-434.705	-29.062	0.108	-0.061
-433.690	-200.000	-0.036	0.265
-432.676	390.551	0.138	-0.283
-431.661	6.121	-0.107	0.079
-430.646	144.905	-0.182	0.242
-429.632	-134.102	0.179	-0.022
-428.617	-65.059	0.261	-0.105
-427.603	306.433	0.056	-0.103
-426.588	-200.000	-0.046	0.264
-425.573	355.707	-0.111	-0.220
-424.559	-80.333	0.176	-0.058
-423.544	-164.722	0.173	0.008
-422.530	-72.280	-0.333	0.122
-421.515	800.000	-0.033	-0.119
-420.500	-141.085	0.323	0.033
-419.486	-200.000	0.010	-0.308
-418.471	-41.130	-0.110	0.056
-417.457	-200.000	-0.006	0.053
-416.442	-34.538	-0.335	0.182
-415.428	88.380	-0.104	-0.114
-414.413	-200.000	-0.013	-0.072
-413.398	27.440	-0.189	-0.157
-412.384	-154.408	0.235	-0.016
-411.369	190.779	-0.039	-0.058
-410.355	-27.098	-0.355	0.205
-409.340	800.000	0.079	0.297
-408.325	-139.974	-0.390	0.041
-407.311	-200.000	0.005	-0.199
-406.296	132.194	-0.161	0.206
-405.282	-60.053	0.212	-0.090
-404.267	-16.184	0.082	0.051
-403.252	-200.000	0.003	-0.016
-402.238	136.667	0.159	-0.206
-401.223	213.216	0.263	0.411
-400.209	-200.000	-0.053	-0.351
-399.194	379.744	0.174	-0.353
-398.179	-62.055	-0.180	0.074
-397.165	800.000	0.090	0.258
-396.150	390.180	-0.102	-0.210
-395.136	-166.436	0.254	-0.011
-394.121	162.210	-0.136	0.189
-393.106	-37.905	-0.212	-0.112
-392.092	385.163	0.245	0.499
-391.077	60.992	-0.081	-0.079
-390.063	374.889	0.072	-0.145
-389.048	17.291	0.035	-0.028
-388.033	92.662	0.223	0.250
-387.019	800.000	0.059	0.216
-386.004	-109.901	0.258	0.053
-384.990	-42.343	0.077	0.039
-383.975	-200.000	-0.023	-0.368
-382.960	-71.358	-0.225	0.083
-381.946	-190.880	-0.324	0.003
-380.931	228.276	-0.102	-0.164
-379.917	497.000	-0.179	-0.409
-378.902	254.841	0.148	-0.251
-377.888	63.106	-0.341	-0.338
-376.873	113.336	-0.205	-0.246
-375.858	-61.912	-0.298	0.123
-374.844	-42.135	0.369	-0.187
-373.829	-116.420	0.253	-0.046
-372.815	68.990	0.172	-0.175
-371.800	9.841	-0.086	-0.064
-370.785	-200.000	-0.019	0.208
-369.771	-22.257	-0.193	-0.116
-368.756	18.126	-0.467	0.369
-367.742	138.194	0.291	-0.377
-366.727	-16.613	-0.340	0.213
-365.712	-200.000	-0.004	0.061
-364.698	-200.000	-0.031	0.256
-363.683	-173.628	0.394	0.012
-362.669	-86.403	-0.302	0.092
-361.654	137.349	-0.071	0.092
-360.639	-61.033	0.164	0.069
-359.625	595.209	-0.140	-0.343
-358.610	-118.239	0.036	0.006
-357.596	-113.486	-0.016	0.003
-356.581	251.449	-0.110	0.184
-355.566	-83.314	-0.072	-0.023
-354.552	-121.608	0.379	-0.062
-353.537	-30.413	0.147	-0.082
-352.523	17.507	-0.376	0.295
-351.508	-200.000	-0.056	-0.261
-350.493	76.912	-0.160	-0.168
-349.479	474.039	-0.011	0.024
-348.464	96.015	0.179	0.202
-347.450	-200.000	-0.081	-0.349
-346.435	-94.238	0.086	-0.023
-345.420	-117.169	0.097	-0.017
-344.406	172.073	-0.091	0.129
-343.391	798.699	-0.070	-0.192
-342.377	128.036	-0.188	-0.236
-341.362	-76.222	0.008	0.003
-340.348	-1.567	0.259	0.181
-339.333	-70.324	0.246	0.092
-338.318	-200.000	-0.006	-0.162
-337.304	-135.187	-0.170	-0.020
-336.289	-147.681	-0.525	-0.044
-335.275	63.396	0.134	0.133
-334.260	52.480	-0.100	-0.095
-333.245	-142.224	-0.147	0.014
-332.231	368.158	0.103	-0.206
-331.216	-147.823	0.161	0.013
-330.202	209.780	0.135	0.209
-329.187	56.834	-0.203	-0.195
-328.172	-135.192	0.061	0.007
-327.158	344.940	0.027	0.052
-326.143	-142.905	0.036	0.003
-325.129	163.796	0.229	-0.319
-324.114	-200.000	-0.028	-0.296
-323.099	157.185	-0.152	-0.208
-322.085	-200.000	-0.018	0.289
-321.070	-71.095	0.173	-0.064
-320.056	-37.380	-0.243	0.128
-319.041	-50.695	0.193	0.090
-318.026	-103.718	-0.226	0.052
-317.012	82.945	-0.168	0.181
-315.997	-83.842	-0.569	0.179
-314.983	-200.000	0.025	0.244
-313.968	13.438	-0.211	-0.162
-312.953	-93.393	-0.088	0.024
-311.939	-200.000	0.001	-0.028
-310.924	342.035	-0.084	0.163
-309.910	132.119	-0.158	0.201
-308.895	-47.273	0.048	-0.023
-307.880	-174.597	-0.195	0.005
-306.866	183.183	-0.168	-0.245
-305.851	-92.014	0.212	-0.059
-304.837	-121.272	-0.034	-0.006
-303.822	-200.000	0.061	0.397
-302.807	-200.000	0.072	-0.326
-301.793	-116.785	0.264	0.048
-300.778	-200.000	0.017	0.181
-299.764	-200.000	-0.021	-0.200
-298.749	119.908	0.060	0.074
-297.735	-85.687	-0.081	0.025
-296.720	-70.744	0.171	0.064
-295.705	286.010	0.096	-0.170
-294.691	67.620	0.220	-0.222
-293.676	-35.252	-0.173	0.093
-292.662	-58.225	0.368	0.158
-291.647	-200.000	0.028	-0.128
-290.632	-65.334	0.219	0.087
-289.618	-68.876	0.092	0.035
-288.603	-89.365	0.452	0.131
-287.589	14.449	0.082	0.063
-286.574	-35.549	-0.104	0.056
-285.559	-91.374	-0.144	-0.040
-284.545	-1.697	0.193	0.134
-283.530	-200.000	-0.025	0.200
-282.516	146.404	0.154	0.204
-281.501	-59.048	-0.095	-0.040
-280.486	-167.174	-0.366	0.015
-279.472	-200.000	-0.060	-0.405
-278.457	12.921	0.113	-0.086
-277.443	573.533	0.073	-0.176
-276.428	800.000	0.034	0.094
-275.413	0.396	0.279	-0.196
-274.399	-200.000	-0.010	-0.046
-273.384	-39.884	-0.313	0.161
-272.370	4.723	-0.294	0.213
-271.355	3.692	0.279	0.201
-270.340	217.203	0.087	-0.137
-269.326	-153.900	-0.207	0.014
-268.311	-121.109	0.218	0.036
-267.297	545.237	-0.034	0.079
-266.282	255.158	-0.052	-0.088
-265.267	63.070	0.040	0.039
-264.253	173.495	0.067	0.095
-263.238	17.700	0.242	-0.190
-262.224	-26.240	0.291	-0.169
-261.209	199.520	-0.054	0.082
-260.195	-116.232	0.317	-0.058
-259.180	48.765	0.182	0.169
-258.165	-102.450	-0.163	0.038
-257.151	102.553	0.314	0.362
-256.136	-172.318	-0.114	-0.004
-255.122	-71.181	-0.164	-0.061
-254.107	336.298	-0.063	0.120
-253.092	151.585	0.128	-0.171
-252.078	-98.015	0.421	-0.107
-251.063	99.703	-0.069	0.079
-250.049	800.000	0.028	-0.083
-249.034	-65.311	0.185	0.073
-248.019	800.000	-0.053	0.213
-247.005	800.000	0.100	-0.428
-245.990	-200.000	-0.001	0.111
-244.976	18.464	0.121	-0.095
-243.961	-200.000	-0.068	-0.466
-242.946	800.000	-0.018	-0.059
-241.932	-126.945	0.183	-0.026
-240.917	88.040	-0.253	0.276
-239.903	328.334	0.095	0.179
-238.888	294.562	-0.056	-0.101
-237.873	-100.415	0.416	0.102
-236.859	224.063	-0.093	-0.148
-235.844	152.929	0.364	0.489
-234.830	-200.000	0.068	0.390
-233.815	296.191	-0.119	0.215
-232.800	-108.975	0.357	-0.075
-231.786	-147.984	-0.232	0.019
-230.771	-110.472	0.051	-0.010
-229.757	-115.079	0.247	0.046
-228.742	800.000	-0.034	-0.110
-227.727	85.491	0.173	-0.187
-226.713	184.094	0.054	0.078
-225.698	-200.000	0.029	0.249
-224.684	-200.000	-0.021	0.186
-223.669	-116.803	0.258	-0.046
-222.655	-200.000	0.024	0.219
-221.640	180.605	0.074	-0.107
-220.625	-150.845	-0.145	-0.011
-219.611	-200.000	-0.020	-0.166
-218.596	-26.694	0.127	-0.073
-217.582	800.000	0.086	-0.337
-216.567	-85.115	0.153	-0.047
-215.552	-200.000	-0.001	-0.237
-214.538	-75.357	0.236	0.083
-213.523	165.538	0.145	0.201
-212.509	388.193	0.158	0.322
-211.494	-200.000	-0.017	-0.229
-210.479	-200.000	0.012	-0.314
-209.465	-60.932	0.477	-0.198
-208.450	-146.813	0.156	-0.013
-207.436	-200.000	0.071	0.400
-206.421	-200.000	0.065	0.320
-205.406	-200.000	0.035	-0.189
-204.392	396.196	-0.097	-0.199
-203.377	800.000	0.102	0.302
-202.363	-28.986	-0.375	-0.212
-201.348	29.597	-0.313	0.261
-200.333	-41.668	-0.427	0.216
-199.319	-139.402	-0.292	0.031
-198.304	-30.443	0.102	-0.057
-197.290	-200.000	-0.021	-0.243
-196.275	800.000	-0.039	-0.116
-195.260	94.541	0.078	-0.087
-194.246	629.516	-0.115	0.286
-193.231	243.930	-0.216	0.356
-192.217	-200.000	-0.004	0.036
-191.202	88.756	-0.100	0.110
-190.187	-200.000	0.056	0.261
-189.173	-69.868	-0.109	-0.041
-188.158	-41.426	0.007	0.003
-187.144	-200.000	-0.057	0.287
-186.129	619.186	0.037	0.091
-185.114	-87.360	0.278	0.083
-184.100	198.733	-0.142	0.213
-183.085	-107.506	-0.036	0.008
-182.071	-15.585	0.290	0.182
-181.056	-200.000	-0.003	-0.212
-180.042	-126.384	-0.085	0.012
-179.027	75.757	0.206	-0.213
-178.012	52.278	0.085	0.080
-176.998	-148.092	-0.170	-0.014
-175.983	616.760	0.047	-0.116
-174.969	-42.166	-0.090	-0.045
-173.954	299.770	0.092	0.166
-172.939	-200.000	0.002	0.102
-171.925	800.000	-0.056	-0.212
-170.910	-128.475	0.274	0.038
-169.896	-200.000	-0.044	-0.286
-168.881	-5.707	-0.224	0.151
-167.866	11.526	0.158	-0.119
-166.852	10.695	0.308	0.230
-165.837	-151.438	0.228	0.017
-164.823	800.000	-0.096	0.275
-163.808	-81.832	-0.258	0.083
-162.793	-200.000	-0.014	-0.173
-161.779	13.983	-0.156	-0.119
-160.764	-91.548	0.314	0.088
-159.750	-64.542	0.169	0.067
-158.735	-200.000	-0.030	0.163
-157.720	-200.000	0.018	0.287
-156.706	15.636	0.376	0.290
-155.691	726.523	-0.090	0.236
-154.677	-200.000	0.046	0.221
-153.662	-28.590	0.187	-0.106
-152.647	230.756	-0.175	0.281
-151.633	-23.429	0.213	-0.125
-150.618	67.091	0.088	0.088
-149.604	215.542	-0.086	0.134
-148.589	800.000	0.049	-0.193
-147.574	-77.986	-0.235	-0.079
-146.560	-63.756	0.228	0.092
-145.545	-194.817	0.196	0.001
-144.531	159.757	-0.179	-0.245
-143.516	-152.212	-0.278	0.020
-142.502	-80.825	-0.173	-0.056
-141.487	-11.916	-0.233	-0.150
-140.472	-200.000	0.004	0.138
-139.458	194.279	0.138	-0.205
-138.443	-103.652	0.335	0.077
-137.429	800.000	-0.028	0.119
-136.414	-115.736	0.127	0.023
-135.399	-200.000	-0.003	0.161
-134.385	276.947	-0.172	-0.299
-133.370	254.203	0.149	-0.250
-132.356	45.187	0.128	0.116
-131.341	232.153	-0.250	-0.402
-130.326	0.460	0.149	0.104
-129.312	-200.000	-0.008	-0.118
-128.297	-96.723	-0.325	-0.084
-127.283	221.990	-0.189	-0.298
-126.268	36.683	0.213	0.184
-125.253	800.000	0.075	-0.204
-124.239	-132.667	0.177	-0.022
-123.224	70.760	-0.090	0.091
-122.210	105.840	0.344	0.398
-121.195	476.987	-0.008	-0.019
