DTS Sentinel unit serial number:	SN413079Multiplexer serial number:	ORYXHardware model number:	OX4-SRSoftware version number:	ORYX F/W v4.00 Oryx Data Collector v3.7.2.0data status	okinstallation	princeton_trtdifferential loss correction	single-endedforward channel	channel 2reverse channel	N/Adate	2019/09/13time	11:19:35forward acquisition time	60.00reverse acquisition time	0.00gamma	496.2192k internal	0.2321k external	0.2321temperature offset calibration	1.0200default loss term (dB/km)	0.3790temperature slope calibration	1.0000multiplexer offset coefficient	1.0000multiplexer slope coefficient	1.0000fibre end	0.00T internal ref (°C)	32.42T ext. ref 1 (°C)	4.70T ext. ref 2 (°C)	29.55length (m)	temperature (°C)	Stokes	anti-Stokes-747.200	-40.379	0.122	-0.064
-746.185	310.579	0.108	0.204
-745.171	800.000	0.089	0.277
-744.156	369.066	-0.087	-0.178
-743.142	188.033	0.103	0.156
-742.127	-122.334	0.177	0.029
-741.112	-112.683	0.356	0.072
-740.098	-158.587	0.207	0.012
-739.083	77.819	0.070	0.076
-738.069	299.727	0.068	-0.127
-737.054	-200.000	0.004	0.161
-736.039	-11.237	0.095	-0.063
-735.025	4.284	-0.246	-0.182
-734.010	201.582	-0.168	-0.262
-732.996	-74.931	-0.261	0.095
-731.981	800.000	-0.064	-0.258
-730.966	-200.000	0.014	-0.081
-729.952	31.427	-0.295	-0.256
-728.937	-171.371	-0.195	-0.007
-727.923	-135.901	-0.285	0.034
-726.908	8.023	-0.065	0.049
-725.894	12.964	-0.210	0.164
-724.879	-104.226	0.326	-0.077
-723.864	194.230	0.063	0.096
-722.850	-79.754	0.215	0.073
-721.835	554.920	-0.197	-0.478
-720.821	251.576	-0.185	-0.319
-719.806	-73.248	-0.247	-0.091
-718.791	455.677	0.181	-0.405
-717.777	-66.885	-0.206	-0.082
-716.762	252.078	-0.023	-0.040
-715.748	-13.118	0.101	0.067
-714.733	-50.400	0.057	-0.027
-713.718	-49.514	-0.110	0.053
-712.704	800.000	0.117	-0.364
-711.689	-200.000	0.001	-0.106
-710.675	159.046	-0.179	0.251
-709.660	-132.094	0.042	-0.005
-708.645	-7.446	0.244	-0.167
-707.631	800.000	-0.007	0.024
-706.616	273.442	-0.070	0.125
-705.602	-113.472	-0.098	0.019
-704.587	-123.599	-0.333	0.053
-703.572	-136.187	-0.207	-0.024
-702.558	-200.000	-0.024	-0.260
-701.543	123.738	0.062	0.078
-700.529	-12.576	0.075	-0.049
-699.514	-92.027	0.059	-0.017
-698.499	-200.000	0.023	-0.179
-697.485	458.577	0.102	0.228
-696.470	641.541	-0.104	0.268
-695.456	-80.131	-0.477	-0.161
-694.441	35.524	-0.076	-0.067
-693.426	-161.742	0.259	-0.013
-692.412	-63.180	0.257	-0.107
-691.397	800.000	-0.008	-0.023
-690.383	-73.659	-0.211	-0.077
-689.368	-200.000	0.039	-0.235
-688.354	143.829	-0.054	-0.072
-687.339	-42.814	-0.147	-0.076
-686.324	800.000	0.045	-0.152
-685.310	107.072	0.133	-0.160
-684.295	-115.174	-0.171	-0.033
-683.281	-61.493	-0.340	-0.144
-682.266	106.409	-0.162	-0.194
-681.251	-200.000	-0.044	0.376
-680.237	-61.528	0.200	-0.085
-679.222	48.594	0.230	0.217
-678.208	-200.000	-0.068	-0.313
-677.193	-200.000	-0.053	-0.262
-676.178	80.871	-0.160	-0.174
-675.164	800.000	0.089	-0.310
-674.149	-200.000	-0.010	0.151
-673.135	-103.842	-0.223	-0.053
-672.120	-200.000	0.025	0.128
-671.105	-85.612	-0.353	-0.111
-670.091	-37.521	0.195	-0.105
-669.076	800.000	-0.090	-0.350
-668.062	-43.688	0.130	0.066
-667.047	163.437	-0.145	0.206
-666.032	-24.408	0.076	-0.046
-665.018	-81.620	-0.300	-0.099
-664.003	45.576	0.155	0.144
-662.989	800.000	-0.073	0.247
-661.974	81.934	-0.138	-0.151
-660.959	232.658	-0.115	-0.190
-659.945	97.437	-0.152	0.176
-658.930	-55.618	0.206	-0.093
-657.916	-119.335	0.197	0.035
-656.901	-37.188	0.210	-0.113
-655.886	-200.000	-0.004	0.304
-654.872	179.371	-0.055	-0.081
-653.857	-149.222	-0.110	0.009
-652.843	-76.780	0.189	-0.067
-651.828	151.938	-0.287	-0.394
-650.814	-91.610	-0.394	0.113
-649.799	-112.200	0.048	-0.010
-648.784	321.911	0.146	-0.280
-647.770	800.000	0.098	-0.290
-646.755	-116.335	-0.058	-0.011
-645.741	407.764	-0.131	0.280
-644.726	800.000	-0.081	-0.271
-643.711	157.430	0.079	-0.109
-642.697	133.874	0.147	-0.192
-641.682	173.901	0.204	0.297
-640.668	108.452	-0.059	0.071
-639.653	41.622	-0.183	0.167
-638.638	11.905	-0.118	-0.092
-637.624	0.204	0.224	-0.161
-636.609	456.881	0.178	-0.397
-635.595	800.000	-0.029	0.084
-634.580	-16.585	-0.116	0.074
-633.565	-200.000	-0.015	-0.079
-632.551	276.119	0.177	-0.316
-631.536	-200.000	-0.007	-0.119
-630.522	-83.288	-0.222	0.072
-629.507	-106.042	0.055	0.012
-628.492	-71.071	0.388	-0.147
-627.478	800.000	0.028	0.109
-626.463	-5.299	0.292	0.202
-625.449	-155.451	-0.170	0.011
-624.434	418.287	-0.131	0.281
-623.419	45.709	-0.183	-0.170
-622.405	-200.000	0.015	-0.069
-621.390	-106.122	0.038	0.009
-620.376	-168.659	0.539	-0.021
-619.361	-49.237	0.305	-0.147
-618.346	173.966	-0.096	-0.139
-617.332	-200.000	0.025	-0.138
-616.317	30.892	-0.153	0.132
-615.303	-55.273	0.026	-0.012
-614.288	544.325	-0.059	0.142
-613.273	336.489	-0.171	-0.334
-612.259	800.000	-0.013	-0.039
-611.244	-99.426	0.148	0.038
-610.230	224.119	-0.111	0.181
-609.215	45.586	0.259	-0.241
-608.201	-200.000	0.013	0.085
-607.186	-8.372	0.246	-0.166
-606.171	-87.895	-0.085	-0.026
-605.157	569.179	0.045	0.109
-604.142	277.656	0.059	0.105
-603.128	800.000	-0.044	-0.145
-602.113	193.426	0.140	-0.214
-601.098	-73.072	0.221	0.081
-600.084	2.207	-0.279	0.203
-599.069	-200.000	0.022	0.179
-598.055	476.368	0.099	0.225
-597.040	167.923	0.135	0.193
-596.025	56.713	-0.208	0.204
-595.011	-157.510	0.200	0.012
-593.996	535.304	0.162	-0.385
-592.982	-117.905	-0.062	-0.011
-591.967	120.919	0.269	0.336
-590.952	51.704	0.142	0.136
-589.938	-100.552	-0.086	0.021
-588.923	198.696	0.180	-0.276
-587.909	-119.245	-0.275	0.048
-586.894	-101.537	0.292	0.071
-585.879	399.237	-0.116	0.245
-584.865	-200.000	-0.022	-0.324
-583.850	-126.823	-0.234	-0.035
-582.836	-74.812	-0.370	0.134
-581.821	-133.680	0.168	-0.021
-580.806	63.580	0.082	0.083
-579.792	369.445	0.059	0.121
-578.777	-200.000	-0.284	0.001
-577.763	-96.960	0.127	0.033
-576.748	320.390	0.036	-0.068
-575.733	-200.000	0.017	-0.179
-574.719	-200.000	-0.019	0.302
-573.704	113.632	-0.087	-0.106
-572.690	-56.405	0.190	-0.085
-571.675	-59.437	0.322	-0.139
-570.661	-109.210	-0.073	0.015
-569.646	-200.000	0.030	-0.207
-568.631	-200.000	-0.045	-0.298
-567.617	116.361	-0.209	0.257
-566.602	-200.000	-0.054	0.298
-565.588	-98.154	-0.152	0.039
-564.573	259.267	0.114	0.197
-563.558	94.106	0.027	0.031
-562.544	249.491	-0.076	-0.129
-561.529	-40.835	0.073	-0.038
-560.515	-17.066	0.032	-0.020
-559.500	-27.157	0.293	0.171
-558.485	1.374	-0.244	-0.176
-557.471	399.758	-0.173	-0.364
-556.456	-128.732	-0.318	0.045
-555.442	-200.000	0.004	-0.036
-554.427	-106.502	0.058	0.013
-553.412	25.080	-0.100	0.084
-552.398	109.166	-0.144	0.173
-551.383	364.313	0.015	-0.031
-550.369	-14.801	-0.104	0.067
-549.354	-200.000	0.026	-0.180
-548.339	318.190	0.149	-0.283
-547.325	-82.369	-0.077	-0.025
-546.310	-116.178	0.303	-0.056
-545.296	-71.078	-0.485	-0.183
-544.281	-74.348	-0.165	0.060
-543.266	45.982	0.138	-0.128
-542.252	-200.000	-0.019	-0.118
-541.237	63.663	0.142	0.143
-540.223	-200.000	0.003	0.248
-539.208	39.382	0.171	0.153
-538.193	800.000	-0.150	-0.483
-537.179	-200.000	0.007	-0.275
-536.164	-12.791	-0.209	0.136
-535.150	-26.591	0.280	0.164
-534.135	-78.917	0.193	-0.066
-533.121	-200.000	0.054	-0.290
-532.106	0.304	0.130	0.093
-531.091	118.282	-0.084	-0.103
-530.077	800.000	0.103	-0.354
-529.062	428.096	0.095	-0.207
-528.048	-200.000	-0.022	-0.152
-527.033	18.578	-0.110	0.088
-526.018	-200.000	-0.019	0.183
-525.004	-200.000	0.070	-0.316
-523.989	104.346	0.158	0.187
-522.975	-150.734	-0.202	-0.015
-521.960	224.921	0.154	0.250
-520.945	-115.472	0.201	-0.038
-519.931	-46.086	0.058	0.028
-518.916	515.214	-0.161	0.376
-517.902	-27.137	0.335	0.196
-516.887	-19.192	-0.066	0.041
-515.872	-200.000	0.034	-0.268
-514.858	-151.306	-0.207	0.015
-513.843	145.203	-0.150	0.202
-512.829	137.483	-0.024	-0.031
-511.814	800.000	0.033	-0.104
-510.799	-10.487	0.170	-0.113
-509.785	800.000	-0.040	-0.157
-508.770	-16.366	0.204	-0.129
-507.756	800.000	-0.063	0.251
-506.741	-136.826	0.066	0.008
-505.726	-200.000	0.049	-0.280
-504.712	-88.245	0.153	-0.046
-503.697	268.528	-0.050	0.087
-502.683	-146.336	-0.345	-0.030
-501.668	-156.860	0.428	-0.026
-500.653	-200.000	0.013	-0.188
-499.639	-200.000	-0.081	0.514
-498.624	-157.304	-0.390	0.024
-497.610	-200.000	0.003	-0.411
-496.595	543.085	0.150	-0.358
-495.581	715.180	-0.052	-0.138
-494.566	-200.000	-0.032	-0.363
-493.551	-200.000	-0.032	0.297
-492.537	800.000	0.074	-0.227
-491.522	387.739	0.078	0.161
-490.508	586.415	-0.120	0.296
-489.493	49.897	0.138	0.131
-488.478	26.050	0.296	0.247
-487.464	188.206	-0.146	-0.218
-486.449	-21.712	-0.134	0.082
-485.435	25.161	-0.105	-0.087
-484.420	-30.650	0.076	0.043
-483.405	43.138	-0.081	0.074
-482.391	28.875	0.196	0.166
-481.376	87.440	0.117	0.130
-480.362	-84.264	-0.108	0.034
-479.347	-200.000	-0.070	0.362
-478.332	449.007	-0.082	-0.181
-477.318	-40.056	-0.282	-0.147
-476.303	-70.355	0.055	-0.021
-475.289	800.000	0.036	0.105
-474.274	113.568	0.071	0.086
-473.259	-139.159	0.182	-0.020
-472.245	189.427	0.066	-0.099
-471.230	-64.849	-0.065	0.026
-470.216	-58.579	-0.361	-0.157
-469.201	39.759	0.191	-0.172
-468.186	-104.030	-0.137	0.032
-467.172	-141.331	-0.037	0.004
-466.157	-75.683	-0.255	-0.090
-465.143	-77.287	-0.220	0.077
-464.128	226.260	-0.174	0.282
-463.113	-118.871	-0.326	0.057
-462.099	-16.310	0.578	-0.367
-461.084	-181.858	-0.377	0.007
-460.070	-55.888	-0.287	-0.128
-459.055	-14.693	0.205	0.132
-458.040	-200.000	-0.073	-0.460
-457.026	-200.000	0.020	0.316
-456.011	301.734	0.152	0.281
-454.997	-7.463	0.143	0.097
-453.982	-200.000	-0.004	0.142
-452.968	-0.955	0.209	0.148
-451.953	-80.053	0.286	-0.096
-450.938	-138.195	0.275	0.030
-449.924	50.570	0.291	0.276
-448.909	142.034	-0.059	0.079
-447.895	-89.004	-0.385	0.114
-446.880	198.113	0.124	0.190
-445.865	-98.083	0.112	-0.029
-444.851	-15.431	0.191	0.122
-443.836	-163.955	-0.201	0.009
-442.822	-148.528	-0.433	0.035
-441.807	35.118	0.354	0.310
-440.792	-170.751	-0.162	0.006
-439.778	-38.350	-0.218	0.115
-438.763	478.522	0.040	-0.091
-437.749	23.382	-0.129	-0.106
-436.734	166.284	-0.112	-0.158
-435.719	485.105	0.142	0.322
-434.705	-200.000	0.043	0.330
-433.690	405.004	0.096	0.203
-432.676	-45.701	0.215	-0.106
-431.661	162.559	0.087	-0.122
-430.646	-200.000	-0.042	0.230
-429.632	-142.956	-0.351	0.034
-428.617	-75.442	-0.065	-0.023
-427.603	34.663	-0.312	0.273
-426.588	-200.000	-0.011	-0.201
-425.573	15.410	-0.178	0.139
-424.559	128.208	-0.252	0.321
-423.544	-200.000	0.047	0.343
-422.530	125.921	-0.125	-0.158
-421.515	43.375	-0.355	0.323
-420.500	-200.000	0.053	-0.265
-419.486	-111.973	0.272	-0.055
-418.471	800.000	0.033	-0.143
-417.457	7.779	-0.272	-0.203
-416.442	40.079	-0.145	-0.130
-415.428	800.000	-0.145	-0.467
-414.413	-200.000	0.007	-0.044
-413.398	-200.000	-0.006	0.252
-412.384	10.945	0.016	0.012
-411.369	800.000	-0.068	-0.195
-410.355	-188.170	0.134	0.002
-409.340	-200.000	0.008	0.264
-408.325	-83.436	0.135	0.043
-407.311	595.305	-0.070	0.172
-406.296	386.087	-0.138	-0.285
-405.282	-200.000	0.014	-0.155
-404.267	61.535	0.144	-0.143
-403.252	-180.974	-0.095	-0.002
-402.238	800.000	-0.012	0.050
-401.223	47.104	-0.185	-0.172
-400.209	-200.000	0.013	-0.164
-399.194	-200.000	-0.021	-0.104
-398.179	-5.156	0.321	0.220
-397.165	337.809	0.288	-0.558
-396.150	-200.000	0.008	0.377
-395.136	-12.028	0.216	-0.141
-394.121	-70.812	-0.111	-0.042
-393.106	292.965	0.059	0.108
-392.092	-36.299	-0.388	-0.209
-391.077	267.470	0.139	-0.243
-390.063	34.110	-0.132	-0.115
-389.048	-139.328	-0.205	-0.022
-388.033	-84.024	-0.325	-0.103
-387.019	800.000	-0.062	-0.184
-386.004	-39.327	-0.128	-0.067
-384.990	-36.377	-0.242	-0.130
-383.975	800.000	0.070	0.215
-382.960	-200.000	0.036	-0.196
-381.946	-128.253	-0.114	0.016
-380.931	-200.000	-0.042	0.211
-379.917	-200.000	0.007	-0.137
-378.902	-46.760	-0.157	-0.077
-377.888	-81.051	0.203	0.067
-376.873	800.000	-0.044	-0.160
-375.858	-200.000	-0.036	-0.220
-374.844	-149.895	-0.251	-0.020
-373.829	800.000	0.021	-0.084
-372.815	-2.363	0.508	-0.355
-371.800	-200.000	0.062	-0.320
-370.785	74.656	-0.056	-0.059
-369.771	-86.029	-0.280	-0.086
-368.756	138.517	-0.123	-0.160
-367.742	-200.000	0.039	-0.191
-366.727	-44.457	0.190	0.095
-365.712	2.561	-0.204	0.147
-364.698	154.227	-0.178	-0.244
-363.683	219.547	-0.134	-0.213
-362.669	-73.632	-0.241	0.088
-361.654	-96.038	0.130	-0.034
-360.639	351.509	0.113	0.224
-359.625	-158.815	0.330	-0.019
-358.610	5.860	-0.064	-0.047
-357.596	-200.000	0.027	0.213
-356.581	411.612	-0.072	0.152
-355.566	-155.030	-0.162	0.011
-354.552	-15.099	-0.173	-0.111
-353.537	361.921	0.211	0.421
-352.523	-110.244	-0.158	0.033
-351.508	199.173	0.103	0.156
-350.493	-127.707	0.253	0.036
-349.479	800.000	0.030	-0.084
-348.464	-200.000	-0.007	0.082
-347.450	-73.024	-0.116	-0.042
-346.435	-114.584	0.425	0.081
-345.420	800.000	0.059	0.234
-344.406	-28.290	0.200	-0.115
-343.391	149.148	-0.333	-0.449
-342.377	-52.260	0.208	0.096
-341.362	-200.000	-0.028	-0.179
-340.348	38.685	-0.261	0.232
-339.333	-200.000	-0.019	-0.235
-338.318	495.217	-0.130	0.298
-337.304	232.021	0.065	-0.106
-336.289	0.104	0.119	0.085
-335.275	84.662	-0.139	0.151
-334.260	523.928	-0.255	0.597
-333.245	-51.269	0.030	-0.014
-332.231	-31.543	-0.278	-0.155
-331.216	320.757	0.072	0.136
-330.202	-161.373	-0.234	0.012
-329.187	-19.394	0.165	0.102
-328.172	91.084	0.176	-0.196
-327.158	682.212	-0.068	-0.176
-326.143	-107.033	-0.248	0.055
-325.129	-102.928	-0.214	0.051
-324.114	33.145	-0.067	0.058
-323.099	-47.172	0.223	0.108
-322.085	-200.000	-0.011	0.242
-321.070	37.285	-0.104	0.092
-320.056	-142.657	0.135	0.013
-319.041	-33.928	-0.092	-0.050
-318.026	800.000	-0.070	0.222
-317.012	209.684	0.130	-0.203
-315.997	383.329	-0.134	0.274
-314.983	-102.397	-0.010	0.002
-313.968	-49.307	-0.379	-0.180
-312.953	-200.000	0.026	-0.315
-311.939	-200.000	0.041	-0.249
-310.924	221.070	-0.144	-0.230
-309.910	-200.000	-0.011	-0.157
-308.895	-78.801	0.094	0.032
-307.880	-200.000	-0.002	-0.072
-306.866	-22.635	0.447	-0.268
-305.851	447.524	0.076	0.165
-304.837	115.280	0.249	0.302
-303.822	-84.589	0.449	0.141
-302.807	-54.340	-0.196	-0.088
-301.793	36.114	0.387	0.339
-300.778	800.000	-0.022	0.077
-299.764	-200.000	-0.003	-0.173
-298.749	800.000	-0.045	-0.186
-297.735	163.144	0.036	-0.050
-296.720	192.617	-0.150	-0.225
-295.705	-121.403	-0.193	-0.032
-294.691	353.447	-0.107	0.211
-293.676	370.952	0.066	0.132
-292.662	-16.229	-0.268	-0.169
-291.647	-99.581	0.477	0.119
-290.632	-147.020	0.194	0.017
-289.618	-155.600	-0.065	0.004
-288.603	-71.073	0.260	0.097
-287.589	757.300	-0.051	0.137
-286.574	-79.463	0.160	0.054
-285.559	-127.522	0.184	0.027
-284.545	-200.000	-0.037	0.269
-283.530	-98.336	0.502	0.128
-282.516	-85.667	-0.039	0.012
-281.501	-30.855	0.062	-0.035
-280.486	-200.000	-0.013	0.116
-279.472	-100.444	-0.131	0.032
-278.457	-126.122	-0.218	-0.032
-277.443	-126.239	0.214	-0.032
-276.428	41.699	-0.175	0.157
-275.413	-14.498	-0.379	0.242
-274.399	-200.000	-0.028	-0.355
-273.384	219.416	0.046	0.072
-272.370	326.765	0.094	0.178
-271.355	-144.990	0.290	0.026
-270.340	-60.092	-0.123	0.052
-269.326	-200.000	0.032	-0.236
-268.311	-128.729	-0.395	-0.055
-267.297	-200.000	-0.025	0.155
-266.282	289.184	0.095	0.170
-265.267	800.000	-0.039	-0.133
-264.253	-68.896	0.202	0.077
-263.238	130.507	-0.130	0.165
-262.224	-46.528	-0.539	-0.262
-261.209	-170.306	0.059	-0.002
-260.195	218.099	0.179	0.284
-259.180	-68.459	0.268	-0.103
-258.165	26.374	-0.049	-0.041
-257.151	800.000	0.082	-0.233
-256.136	262.188	-0.055	-0.094
-255.122	-200.000	-0.009	0.072
-254.107	83.231	-0.209	0.226
-253.092	-122.024	-0.419	0.068
-252.078	-200.000	-0.011	-0.150
-251.063	65.664	-0.257	0.259
-250.049	46.473	-0.051	-0.047
-249.034	153.663	-0.119	-0.161
-248.019	-96.398	0.125	0.033
-247.005	-84.255	0.384	0.121
-245.990	7.495	-0.099	0.073
-244.976	-97.202	-0.191	-0.049
-243.961	-200.000	0.011	0.470
-242.946	504.060	-0.049	-0.113
-241.932	-200.000	-0.034	0.194
-240.917	-55.799	0.136	0.060
-239.903	-157.666	-0.192	-0.011
-238.888	-200.000	0.033	-0.200
-237.873	-31.738	0.152	-0.085
-236.859	221.772	-0.086	0.136
-235.844	70.988	0.230	-0.236
-234.830	-200.000	-0.033	-0.204
-233.815	800.000	-0.082	-0.248
-232.800	143.238	0.192	-0.253
-231.786	65.637	-0.101	-0.102
-230.771	-15.153	0.189	-0.120
-229.757	31.766	0.519	0.443
-228.742	-53.966	0.222	0.100
-227.727	209.577	-0.220	-0.341
-226.713	3.453	-0.468	-0.338
-225.698	-150.263	0.307	-0.023
-224.684	-23.857	0.302	-0.179
-223.669	-59.581	0.194	-0.082
-222.655	-200.000	0.018	-0.282
-221.640	-29.164	-0.390	0.222
-220.625	193.887	-0.019	-0.029
-219.611	-143.520	0.079	-0.007
-218.596	-141.514	0.118	-0.012
-217.582	-74.011	-0.127	-0.046
-216.567	-200.000	0.016	0.441
-215.552	-200.000	-0.002	-0.039
-214.538	160.323	0.222	-0.306
-213.523	131.662	0.170	-0.217
-212.509	-200.000	-0.002	0.094
-211.494	-31.603	0.132	-0.074
-210.479	-62.047	-0.128	-0.053
-209.465	532.347	-0.116	0.271
-208.450	-18.663	0.253	0.156
-207.436	42.075	-0.073	-0.065
-206.421	-88.680	0.150	0.044
-205.406	-41.829	0.330	0.168
-204.392	-19.874	-0.136	-0.083
-203.377	13.194	0.088	0.067
-202.363	19.001	0.187	0.149
-201.348	81.443	0.330	0.353
-200.333	603.516	0.029	-0.070
-199.319	-120.860	0.051	0.009
-198.304	5.033	-0.233	0.170
-197.290	-200.000	0.086	0.396
-196.275	-200.000	0.001	0.018
-195.260	6.148	-0.073	-0.053
-194.246	209.781	0.055	0.085
-193.231	-9.842	-0.275	0.181
-192.217	595.602	0.024	0.059
-191.202	-200.000	-0.035	0.194
-190.187	275.949	-0.215	-0.378
-189.173	-65.284	-0.233	-0.093
-188.158	800.000	0.108	0.345
-187.144	164.042	0.241	-0.336
-186.129	616.973	-0.053	-0.133
-185.114	86.641	0.225	-0.246
-184.100	28.992	-0.240	0.201
-183.085	-167.486	-0.362	-0.014
-182.071	51.553	0.075	0.070
-181.056	-7.642	0.206	-0.138
-180.042	30.140	-0.082	0.069
-179.027	385.258	0.052	-0.106
-178.012	-200.000	-0.043	-0.222
-176.998	-163.912	-0.423	-0.019
-175.983	-200.000	0.339	-0.000
-174.969	-32.837	0.078	-0.043
-173.954	190.381	-0.090	0.134
-172.939	800.000	0.085	0.319
-171.925	682.765	0.055	0.141
-170.910	-76.043	-0.236	-0.082
-169.896	-200.000	0.004	0.148
-168.881	417.944	0.121	-0.256
-167.866	238.328	-0.099	-0.162
-166.852	-155.125	-0.292	0.019
-165.837	-116.852	0.229	0.041
-164.823	-1.474	-0.173	0.121
-163.808	231.860	-0.110	0.179
-162.793	-200.000	0.035	0.385
-161.779	-109.234	-0.153	-0.032
-160.764	-200.000	0.031	0.135
-159.750	-63.855	0.158	0.064
-158.735	-200.000	-0.094	-0.437
-157.720	-75.482	-0.165	0.058
-156.706	206.805	0.087	-0.134
-155.691	136.405	-0.138	0.178
-154.677	-94.816	0.249	0.067
-153.662	51.778	-0.257	0.242
-152.647	-48.976	-0.221	0.104
-151.633	-44.047	0.291	0.144
-150.618	-52.675	-0.128	0.058
-149.604	176.582	-0.015	-0.022
-148.589	800.000	0.044	-0.171
-147.574	-200.000	-0.025	0.120
-146.560	-159.405	-0.085	-0.005
-145.545	-200.000	0.011	0.056
-144.531	-129.954	-0.038	0.005
-143.516	-78.331	-0.089	-0.030
-142.502	800.000	0.075	-0.238
-141.487	-200.000	0.002	0.038
-140.472	113.064	0.098	0.118
-139.458	35.499	-0.176	0.153
-138.443	585.240	0.097	-0.234
-137.429	89.875	-0.168	-0.185
-136.414	234.083	-0.114	0.186
-135.399	222.719	-0.096	0.153
-134.385	-200.000	0.044	-0.229
-133.370	67.401	0.129	-0.130
-132.356	800.000	0.040	-0.121
-131.341	-200.000	0.050	-0.242
-130.326	27.667	-0.163	-0.135
-129.312	-125.160	-0.460	-0.070
-128.297	-151.305	-0.337	-0.025
-127.283	-200.000	0.053	0.321
-126.268	-200.000	-0.001	0.286
-125.253	800.000	-0.056	0.164
-124.239	-200.000	0.042	0.229
-123.224	116.854	0.199	0.241
-122.210	143.814	-0.188	0.248
