DTS Sentinel unit serial number:	SN413079Multiplexer serial number:	ORYXHardware model number:	OX4-SRSoftware version number:	ORYX F/W v4.00 Oryx Data Collector v3.7.2.0data status	okinstallation	princeton_trtdifferential loss correction	single-endedforward channel	channel 2reverse channel	N/Adate	2019/09/12time	23:27:34forward acquisition time	60.00reverse acquisition time	0.00gamma	496.2192k internal	0.2332k external	0.2332temperature offset calibration	1.0174default loss term (dB/km)	0.3790temperature slope calibration	1.0000multiplexer offset coefficient	1.0000multiplexer slope coefficient	1.0000fibre end	0.00T internal ref (°C)	29.00T ext. ref 1 (°C)	3.75T ext. ref 2 (°C)	23.67length (m)	temperature (°C)	Stokes	anti-Stokes-747.200	38.677	-0.124	-0.111
-746.185	79.778	-0.073	-0.079
-745.171	315.308	0.082	0.155
-744.156	4.099	-0.213	-0.156
-743.142	83.157	0.091	0.100
-742.127	31.157	0.250	0.216
-741.112	-200.000	-0.001	0.273
-740.098	262.522	0.221	-0.385
-739.083	-75.893	-0.047	0.017
-738.069	-200.000	-0.043	0.293
-737.054	-88.246	0.248	0.075
-736.039	743.644	-0.102	-0.275
-735.025	-153.335	0.252	0.018
-734.010	-150.814	-0.486	0.037
-732.996	115.459	-0.085	0.105
-731.981	366.211	-0.107	-0.217
-730.966	71.171	0.351	-0.366
-729.952	15.286	0.109	-0.086
-728.937	-93.418	-0.108	-0.030
-727.923	800.000	0.084	-0.280
-726.908	54.312	-0.121	-0.117
-725.894	-115.188	-0.195	-0.037
-724.879	218.987	-0.157	-0.252
-723.864	62.714	-0.167	-0.168
-722.850	-78.322	0.095	-0.033
-721.835	-9.083	-0.098	0.066
-720.821	63.801	-0.103	-0.104
-719.806	-155.777	0.265	-0.017
-718.791	51.616	-0.159	0.152
-717.777	77.542	-0.162	0.174
-716.762	3.103	0.029	-0.021
-715.748	479.395	-0.087	-0.197
-714.733	196.518	-0.215	0.329
-713.718	556.109	0.063	0.151
-712.704	83.399	-0.092	-0.101
-711.689	244.988	0.066	-0.111
-710.675	-58.088	-0.184	0.081
-709.660	-20.951	0.249	-0.153
-708.645	12.538	-0.183	0.142
-707.631	-177.134	-0.058	-0.001
-706.616	-200.000	-0.012	-0.310
-705.602	-17.524	0.091	0.057
-704.587	11.583	0.140	-0.108
-703.572	-105.996	-0.244	0.055
-702.558	225.278	0.105	0.171
-701.543	173.137	0.100	0.144
-700.529	-56.613	-0.162	-0.072
-699.514	-49.565	0.209	0.100
-698.499	-200.000	-0.025	0.141
-697.485	-27.827	-0.142	-0.083
-696.470	-200.000	0.034	0.203
-695.456	9.811	-0.111	0.084
-694.441	-200.000	-0.051	-0.248
-693.426	-51.641	0.309	-0.145
-692.412	243.041	-0.125	0.211
-691.397	4.638	-0.158	0.117
-690.383	-200.000	-0.033	-0.176
-689.368	227.213	0.078	-0.128
-688.354	-111.191	0.339	0.070
-687.339	800.000	-0.055	0.179
-686.324	-82.823	0.157	-0.051
-685.310	-131.738	0.261	0.034
-684.295	254.286	0.079	-0.135
-683.281	71.544	0.052	-0.054
-682.266	155.351	0.125	0.172
-681.251	-21.335	-0.303	0.186
-680.237	-200.000	-0.029	0.279
-679.222	216.028	-0.114	0.181
-678.208	37.631	0.133	-0.119
-677.193	-200.000	0.012	-0.426
-676.178	-200.000	0.017	0.240
-675.164	-104.374	0.258	-0.060
-674.149	404.331	-0.084	-0.177
-673.135	800.000	-0.063	-0.264
-672.120	-36.117	0.109	-0.059
-671.105	-150.339	-0.153	-0.012
-670.091	40.186	0.159	0.143
-669.076	65.950	-0.050	-0.051
-668.062	-61.883	0.359	-0.151
-667.047	-49.716	-0.299	-0.143
-666.032	475.944	0.183	-0.416
-665.018	-200.000	0.048	0.310
-664.003	-135.158	-0.414	-0.050
-662.989	-80.525	0.147	0.049
-661.974	289.672	-0.091	-0.166
-660.959	-55.288	0.099	-0.045
-659.945	381.297	-0.067	0.138
-658.930	762.788	-0.196	0.533
-657.916	-108.212	0.114	-0.025
-656.901	109.998	0.140	0.168
-655.886	74.813	-0.119	0.125
-654.872	-200.000	-0.008	0.300
-653.857	63.401	-0.133	-0.133
-652.843	38.298	0.039	-0.035
-651.828	568.741	0.094	0.228
-650.814	264.696	0.101	0.177
-649.799	-71.948	-0.340	-0.127
-648.784	148.334	-0.183	0.247
-647.770	716.459	0.096	0.255
-646.755	-78.492	0.284	-0.098
-645.741	25.188	0.218	-0.181
-644.726	-83.750	-0.095	0.030
-643.711	-200.000	-0.045	0.276
-642.697	192.565	0.085	-0.129
-641.682	363.196	0.059	0.119
-640.668	-139.775	0.152	-0.016
-639.653	-136.575	-0.283	0.033
-638.638	3.651	-0.210	-0.153
-637.624	648.344	0.089	-0.228
-636.609	96.362	0.195	-0.223
-635.595	-32.186	0.143	0.080
-634.580	636.138	-0.047	-0.121
-633.565	800.000	0.036	-0.143
-632.551	397.534	0.148	-0.310
-631.536	82.448	-0.179	-0.194
-630.522	8.144	-0.056	0.042
-629.507	-25.285	0.211	0.125
-628.492	-63.979	-0.193	0.079
-627.478	-184.126	0.301	-0.005
-626.463	59.482	0.140	-0.138
-625.449	-160.367	0.261	-0.014
-624.434	-7.571	-0.184	-0.125
-623.419	54.843	0.230	-0.222
-622.405	-104.800	0.017	-0.004
-621.390	-63.579	-0.081	-0.033
-620.376	-126.538	0.385	0.057
-619.361	3.685	-0.154	0.112
-618.346	-23.312	-0.161	0.097
-617.332	-106.649	0.200	0.045
-616.317	23.977	-0.202	0.167
-615.303	-130.628	0.092	0.012
-614.288	-169.734	0.124	0.004
-613.273	-55.646	0.127	-0.057
-612.259	396.387	0.191	-0.400
-611.244	27.576	0.216	0.182
-610.230	-61.345	-0.297	-0.125
-609.215	87.710	-0.219	0.243
-608.201	800.000	0.114	-0.323
-607.186	-138.902	-0.426	-0.046
-606.171	213.857	-0.054	0.086
-605.157	-200.000	0.020	-0.093
-604.142	-70.462	-0.052	-0.020
-603.128	-60.080	0.191	0.082
-602.113	-0.263	0.153	0.109
-601.098	-56.259	-0.240	-0.107
-600.084	800.000	-0.023	0.094
-599.069	632.447	-0.039	0.099
-598.055	-91.751	-0.401	-0.114
-597.040	306.138	0.079	-0.147
-596.025	800.000	0.062	-0.231
-595.011	51.252	-0.199	-0.189
-593.996	-200.000	-0.031	0.205
-592.982	405.468	-0.115	0.242
-591.967	-93.887	-0.147	-0.040
-590.952	58.829	0.201	-0.197
-589.938	722.526	0.022	0.059
-588.923	-158.995	-0.290	-0.016
-587.909	-36.866	-0.127	-0.068
-586.894	696.068	0.024	0.062
-585.879	-200.000	0.012	0.142
-584.865	-117.903	-0.116	-0.021
-583.850	64.095	-0.098	-0.099
-582.836	368.216	-0.108	-0.218
-581.821	54.019	-0.511	-0.491
-580.806	-200.000	-0.000	-0.231
-579.792	-69.605	-0.115	0.044
-578.777	172.611	0.090	-0.130
-577.763	-84.341	0.051	-0.016
-576.748	-200.000	-0.010	0.284
-575.733	58.503	0.156	-0.153
-574.719	-82.562	-0.374	0.121
-573.704	800.000	0.041	-0.166
-572.690	167.635	-0.294	0.418
-571.675	-200.000	-0.029	0.261
-570.661	800.000	-0.163	0.571
-569.646	-114.233	-0.145	-0.028
-568.631	-200.000	-0.001	0.487
-567.617	54.306	-0.082	-0.079
-566.602	-178.800	-0.249	0.006
-565.588	123.642	-0.144	0.181
-564.573	576.917	0.024	0.058
-563.558	85.149	0.195	-0.214
-562.544	122.620	0.017	0.022
-561.529	-88.447	0.187	-0.056
-560.515	336.899	-0.114	-0.222
-559.500	670.114	0.042	-0.109
-558.485	-199.771	-0.228	-0.001
-557.471	-200.000	0.017	-0.161
-556.456	171.654	0.138	-0.197
-555.442	-174.102	0.342	0.010
-554.427	-100.016	0.306	-0.076
-553.412	91.131	0.271	0.304
-552.398	-200.000	-0.034	-0.188
-551.383	441.404	-0.048	-0.105
-550.369	86.828	-0.241	-0.265
-549.354	-200.000	-0.041	-0.397
-548.339	136.006	0.232	-0.301
-547.325	-30.302	0.362	-0.205
-546.310	12.107	-0.134	-0.103
-545.296	-38.301	-0.099	0.053
-544.281	-142.572	-0.069	-0.007
-543.266	88.548	-0.133	0.148
-542.252	800.000	0.108	-0.367
-541.237	21.393	-0.053	-0.043
-540.223	236.791	0.091	-0.150
-539.208	-168.073	0.392	-0.015
-538.193	-200.000	0.000	-0.016
-537.179	532.257	-0.085	0.200
-536.164	800.000	-0.085	-0.244
-535.150	12.323	0.085	0.065
-534.135	-12.952	0.013	0.008
-533.121	-77.570	-0.053	-0.018
-532.106	800.000	0.021	-0.058
-531.091	539.736	-0.127	-0.301
-530.077	42.184	0.214	-0.193
-529.062	-200.000	0.025	-0.113
-528.048	-108.762	-0.030	-0.006
-527.033	596.145	-0.070	0.172
-526.018	-17.072	0.052	0.033
-525.004	41.838	-0.193	0.175
-523.989	10.630	-0.192	0.146
-522.975	-16.817	0.101	-0.064
-521.960	-78.569	-0.183	0.062
-520.945	-115.033	0.118	0.022
-519.931	103.497	-0.108	-0.126
-518.916	800.000	-0.025	0.085
-517.902	-200.000	0.024	0.296
-516.887	-200.000	0.001	-0.176
-515.872	-39.298	-0.129	0.067
-514.858	55.290	-0.231	0.223
-513.843	-171.439	-0.222	-0.007
-512.829	-200.000	-0.008	-0.195
-511.814	800.000	0.086	-0.289
-510.799	203.725	-0.066	0.103
-509.785	-71.996	-0.066	-0.024
-508.770	87.194	-0.067	-0.073
-507.756	-200.000	0.013	0.061
-506.741	800.000	-0.066	-0.186
-505.726	-92.567	-0.282	0.079
-504.712	-143.256	0.105	-0.010
-503.697	126.350	0.196	0.247
-502.683	-200.000	-0.031	0.228
-501.668	52.842	-0.128	0.122
-500.653	-6.762	0.153	-0.104
-499.639	102.170	0.052	0.060
-498.624	-179.282	0.227	-0.005
-497.610	-63.155	-0.283	0.116
-496.595	68.390	-0.065	0.066
-495.581	-45.448	0.066	-0.033
-494.566	-75.700	0.350	0.124
-493.551	800.000	0.032	0.113
-492.537	513.285	0.130	0.303
-491.522	30.763	-0.178	0.152
-490.508	-136.539	-0.243	0.028
-489.493	-97.285	0.302	-0.078
-488.478	166.027	0.245	-0.345
-487.464	-50.074	-0.075	-0.035
-486.449	-54.785	-0.263	0.118
-485.435	251.062	0.096	0.162
-484.420	-176.159	0.347	0.009
-483.405	20.023	-0.244	0.196
-482.391	761.613	-0.091	0.245
-481.376	72.895	-0.116	0.121
-480.362	-29.836	-0.255	0.145
-479.347	800.000	-0.074	0.283
-478.332	17.061	-0.092	0.073
-477.318	371.929	0.064	0.129
-476.303	-90.729	0.130	0.037
-475.289	19.825	-0.205	0.164
-474.274	-64.732	-0.071	-0.029
-473.259	-73.602	-0.207	-0.075
-472.245	-115.034	0.233	0.044
-471.230	507.550	-0.073	0.167
-470.216	196.344	-0.051	-0.077
-469.201	800.000	0.051	0.141
-468.186	579.441	0.053	0.129
-467.172	-107.178	0.289	0.063
-466.157	8.620	-0.370	-0.277
-465.143	1.132	-0.125	0.089
-464.128	-59.365	-0.329	0.141
-463.113	211.053	0.043	0.067
-462.099	221.349	-0.082	-0.131
-461.084	-131.622	-0.147	-0.019
-460.070	-63.173	0.209	0.086
-459.055	67.018	-0.108	-0.109
-458.040	164.587	0.162	-0.228
-457.026	-62.029	-0.441	0.183
-456.011	21.214	0.160	0.129
-454.997	18.112	0.092	0.073
-453.982	-91.487	0.301	0.085
-452.968	-159.723	-0.190	0.010
-451.953	173.383	-0.256	0.366
-450.938	-124.817	-0.362	0.056
-449.924	-90.639	0.211	-0.061
-448.909	-144.997	-0.526	-0.048
-447.895	19.521	-0.121	0.097
-446.880	-95.215	0.325	-0.087
-445.865	80.179	-0.311	-0.332
-444.851	800.000	-0.088	-0.273
-443.836	132.598	0.199	-0.255
-442.822	52.349	0.327	0.311
-441.807	-200.000	0.003	0.152
-440.792	-70.928	0.033	-0.012
-439.778	-1.755	-0.134	0.094
-438.763	160.990	-0.144	-0.200
-437.749	800.000	0.078	-0.251
-436.734	-27.671	-0.294	-0.169
-435.719	249.684	-0.102	-0.172
-434.705	-76.197	-0.280	-0.098
-433.690	-91.385	0.141	0.040
-432.676	-5.251	-0.063	0.043
-431.661	-24.325	-0.072	0.043
-430.646	-200.000	-0.014	0.114
-429.632	-200.000	-0.003	0.062
-428.617	26.089	0.112	-0.093
-427.603	16.892	0.074	-0.058
-426.588	-151.774	-0.279	0.020
-425.573	-200.000	0.011	0.114
-424.559	-174.846	0.319	0.009
-423.544	-200.000	0.039	-0.200
-422.530	800.000	-0.095	-0.320
-421.515	447.091	-0.067	0.146
-420.500	800.000	-0.013	-0.048
-419.486	-64.816	-0.333	-0.134
-418.471	-88.692	0.179	0.053
-417.457	-147.613	0.313	0.026
-416.442	129.143	-0.234	0.296
-415.428	800.000	-0.089	-0.316
-414.413	9.971	0.234	-0.177
-413.398	-52.508	0.157	0.072
-412.384	330.806	-0.039	-0.075
-411.369	800.000	-0.043	0.142
-410.355	-19.074	-0.077	0.047
-409.340	-67.938	0.101	-0.039
-408.325	-30.476	0.059	-0.033
-407.311	48.577	-0.519	0.483
-406.296	-86.150	0.242	-0.074
-405.282	80.254	0.235	0.251
-404.267	-116.345	-0.451	-0.083
-403.252	-200.000	0.092	0.430
-402.238	-100.855	0.323	0.079
-401.223	-115.167	0.178	0.034
-400.209	-200.000	0.049	-0.226
-399.194	-48.593	0.186	-0.089
-398.179	70.594	-0.144	-0.148
-397.165	-45.487	0.067	-0.033
-396.150	800.000	0.020	-0.072
-395.136	-33.908	0.269	0.147
-394.121	254.741	0.194	0.330
-393.106	-126.638	-0.053	-0.008
-392.092	-108.524	0.252	-0.054
-391.077	492.883	0.067	0.151
-390.063	241.065	0.130	0.215
-389.048	306.602	0.073	0.136
-388.033	-140.651	-0.236	0.024
-387.019	-123.164	0.243	0.039
-386.004	-90.135	0.146	-0.042
-384.990	0.821	0.232	-0.165
-383.975	29.891	-0.166	0.141
-382.960	150.066	0.218	-0.293
-381.946	-3.436	0.168	0.116
-380.931	-200.000	-0.021	-0.159
-379.917	-3.196	0.069	0.048
-378.902	-200.000	-0.018	-0.094
-377.888	169.588	-0.158	-0.224
-376.873	12.393	0.094	-0.072
-375.858	-53.231	-0.199	0.090
-374.844	-200.000	-0.003	0.242
-373.829	37.713	0.322	0.284
-372.815	-200.000	-0.042	0.208
-371.800	-39.846	-0.140	0.072
-370.785	-200.000	0.026	0.299
-369.771	152.091	-0.174	-0.235
-368.756	-75.633	0.476	-0.168
-367.742	314.357	0.082	0.153
-366.727	800.000	-0.092	0.328
-365.712	127.695	0.050	0.063
-364.698	-123.066	-0.160	0.026
-363.683	-191.688	-0.169	0.002
-362.669	-200.000	0.370	0.001
-361.654	45.969	-0.158	-0.145
-360.639	94.784	-0.232	0.262
-359.625	-42.147	-0.183	-0.093
-358.610	-114.126	-0.135	-0.026
-357.596	590.817	-0.050	-0.121
-356.581	-200.000	-0.002	-0.105
-355.566	-89.336	0.269	-0.079
-354.552	-20.359	0.096	0.058
-353.537	20.460	-0.403	0.323
-352.523	-34.813	0.201	0.109
-351.508	9.481	0.103	-0.078
-350.493	81.608	0.101	-0.108
-349.479	800.000	0.052	-0.189
-348.464	92.675	0.173	-0.194
-347.450	114.189	0.137	-0.165
-346.435	73.267	-0.090	-0.093
-345.420	-49.598	-0.188	0.089
-344.406	800.000	0.068	-0.237
-343.391	800.000	0.086	-0.248
-342.377	260.997	-0.056	-0.096
-341.362	-39.154	0.252	-0.131
-340.348	70.818	0.137	0.140
-339.333	61.196	0.039	-0.038
-338.318	318.658	-0.134	-0.251
-337.304	800.000	-0.064	-0.269
-336.289	201.332	-0.129	-0.197
-335.275	196.481	0.115	0.173
-334.260	-37.340	0.269	-0.142
-333.245	625.209	0.038	-0.095
-332.231	-29.775	0.168	0.095
-331.216	107.413	0.210	0.247
-330.202	-200.000	-0.032	0.141
-329.187	800.000	0.058	0.182
-328.172	-32.861	-0.402	-0.221
-327.158	-200.000	0.064	-0.288
-326.143	264.216	0.239	-0.412
-325.129	-133.892	0.123	-0.015
-324.114	674.238	-0.035	-0.091
-323.099	246.220	0.192	-0.320
-322.085	193.854	0.059	-0.088
-321.070	-39.839	0.201	-0.104
-320.056	800.000	-0.024	0.090
-319.041	-143.074	-0.295	0.028
-318.026	-80.621	0.140	0.046
-317.012	-32.156	0.092	0.051
-315.997	-104.146	-0.156	0.036
-314.983	800.000	0.048	-0.139
-313.968	-137.520	-0.231	0.026
-312.953	-200.000	0.032	-0.369
-311.939	24.883	0.276	0.226
-310.924	-200.000	-0.034	0.195
-309.910	458.514	0.132	-0.289
-308.895	-66.429	-0.365	-0.144
-307.880	-200.000	-0.007	-0.101
-306.866	779.082	0.034	0.091
-305.851	-200.000	-0.053	-0.242
-304.837	-16.481	0.182	0.114
-303.822	43.931	-0.356	0.322
-302.807	-44.371	0.222	-0.110
-301.793	-114.598	-0.255	0.048
-300.778	-135.423	0.088	0.010
-299.764	238.759	-0.065	-0.106
-298.749	-200.000	0.043	0.266
-297.735	7.638	-0.095	0.070
-296.720	-162.790	0.523	0.025
-295.705	800.000	0.076	0.225
-294.691	614.083	0.063	0.157
-293.676	-118.288	0.173	-0.030
-292.662	-36.648	0.345	-0.183
-291.647	-76.095	-0.184	0.064
-290.632	-51.301	-0.161	0.074
-289.618	-52.926	0.216	-0.098
-288.603	-50.366	-0.142	-0.066
-287.589	10.990	0.269	0.203
-286.574	-156.370	0.380	0.023
-285.559	144.613	-0.090	0.119
-284.545	-123.884	0.126	-0.020
-283.530	-200.000	-0.003	0.286
-282.516	-115.707	0.250	-0.046
-281.501	-85.051	0.146	0.045
-280.486	-200.000	0.096	-0.430
-279.472	416.703	-0.052	0.110
-278.457	800.000	-0.096	-0.273
-277.443	-22.188	-0.332	-0.199
-276.428	800.000	-0.057	-0.213
-275.413	-200.000	0.003	0.168
-274.399	307.505	-0.128	-0.236
-273.384	-200.000	0.030	-0.244
-272.370	144.188	0.106	0.140
-271.355	-91.322	-0.192	0.054
-270.340	-200.000	-0.006	-0.071
-269.326	-93.417	-0.148	-0.040
-268.311	25.009	-0.134	-0.110
-267.297	800.000	0.057	0.170
-266.282	366.599	0.159	0.318
-265.267	-61.453	0.458	-0.190
-264.253	-72.808	0.359	-0.130
-263.238	-8.611	-0.338	0.224
-262.224	540.584	-0.138	0.323
-261.209	-16.081	-0.119	0.075
-260.195	800.000	0.095	-0.263
-259.180	207.393	0.079	-0.122
-258.165	-11.874	-0.152	-0.099
-257.151	-87.780	-0.156	-0.047
-256.136	-200.000	-0.004	0.377
-255.122	-200.000	0.010	-0.405
-254.107	59.085	0.148	0.143
-253.092	130.943	-0.154	0.195
-252.078	-84.002	0.197	0.062
-251.063	500.052	0.026	-0.060
-250.049	-200.000	-0.168	0.000
-249.034	-175.559	0.345	0.009
-248.019	-200.000	0.001	-0.054
-247.005	-142.307	0.363	0.035
-245.990	-111.185	0.156	0.031
-244.976	-146.103	0.225	0.020
-243.961	-66.460	-0.209	0.082
-242.946	-155.535	0.336	0.021
-241.932	-196.226	-0.200	0.001
-240.917	800.000	-0.089	0.354
-239.903	800.000	-0.108	0.308
-238.888	294.602	-0.183	-0.331
-237.873	-94.924	-0.092	0.025
-236.859	572.244	-0.184	-0.443
-235.844	-64.258	-0.126	0.051
-234.830	92.771	-0.315	-0.351
-233.815	371.214	0.053	0.107
-232.800	38.098	-0.285	0.250
-231.786	9.835	-0.111	-0.083
-230.771	-200.000	0.000	0.033
-229.757	-71.587	-0.159	-0.058
-228.742	-26.177	0.126	-0.073
-227.727	-38.324	0.136	0.071
-226.713	148.071	-0.090	0.119
-225.698	364.723	0.105	-0.209
-224.684	-7.288	-0.231	-0.154
-223.669	-98.890	0.438	-0.110
-222.655	-186.470	-0.139	0.002
-221.640	79.077	0.202	-0.213
-220.625	57.995	-0.192	-0.185
-219.611	7.217	0.271	-0.199
-218.596	-79.017	-0.130	0.043
-217.582	104.985	-0.024	0.028
-216.567	-108.506	-0.304	0.065
-215.552	64.922	-0.136	0.136
-214.538	773.273	0.019	0.051
-213.523	31.478	0.140	0.119
-212.509	-113.992	0.294	0.056
-211.494	-200.000	-0.002	-0.146
-210.479	800.000	-0.028	-0.078
-209.465	298.936	0.230	0.417
-208.450	-144.765	-0.295	0.027
-207.436	381.571	-0.140	0.282
-206.421	14.618	-0.042	0.032
-205.406	-200.000	0.057	-0.351
-204.392	800.000	-0.026	-0.099
-203.377	-25.140	0.159	-0.093
-202.363	-103.105	-0.429	-0.100
-201.348	26.293	0.157	0.129
-200.333	175.672	-0.114	-0.163
-199.319	-200.000	0.029	-0.146
-198.304	-17.345	0.164	0.102
-197.290	-200.000	-0.021	0.187
-196.275	800.000	0.073	0.218
-195.260	257.273	0.148	-0.250
-194.246	423.642	0.032	0.068
-193.231	60.161	0.194	0.189
-192.217	800.000	-0.167	0.584
-191.202	-200.000	-0.002	0.231
-190.187	347.699	-0.210	0.408
-189.173	1.230	0.203	-0.144
-188.158	-50.049	-0.065	-0.030
-187.144	-200.000	-0.057	0.382
-186.129	69.974	0.194	0.197
-185.114	-47.007	-0.090	0.043
-184.100	61.638	-0.229	0.225
-183.085	-200.000	-0.042	-0.236
-182.071	800.000	-0.046	0.198
-181.056	488.965	0.083	0.187
-180.042	-20.269	0.180	-0.109
-179.027	55.987	-0.280	0.268
-178.012	-3.484	-0.075	-0.052
-176.998	800.000	0.061	-0.198
-175.983	72.309	0.078	0.080
-174.969	-150.048	0.093	0.007
-173.954	-51.699	-0.174	-0.080
-172.939	-71.439	-0.193	-0.071
-171.925	-25.706	0.139	-0.081
-170.910	-18.411	0.164	-0.101
-169.896	296.945	-0.080	0.145
-168.881	-77.985	-0.067	0.023
-167.866	-200.000	0.019	0.233
-166.852	-42.802	0.242	-0.121
-165.837	-39.281	0.203	-0.105
-164.823	428.059	0.091	-0.193
-163.808	-174.126	-0.340	-0.010
-162.793	-200.000	0.196	-0.000
-161.779	-70.782	-0.085	0.031
-160.764	26.052	-0.128	-0.105
-159.750	-49.110	0.081	-0.038
-158.735	-200.000	0.046	0.220
-157.720	800.000	0.039	-0.167
-156.706	69.257	0.208	-0.210
-155.691	-17.419	0.184	0.114
-154.677	39.902	-0.083	0.073
-153.662	-200.000	-0.050	0.264
-152.647	-5.838	-0.354	0.238
-151.633	207.031	0.070	0.107
-150.618	800.000	0.084	0.326
-149.604	6.105	0.076	0.055
-148.589	800.000	0.057	-0.216
-147.574	54.758	-0.229	-0.217
-146.560	516.011	0.034	0.078
-145.545	672.505	0.144	-0.367
-144.531	12.613	0.234	0.177
-143.516	-91.501	0.033	0.009
-142.502	-200.000	-0.025	0.121
-141.487	-77.809	0.206	-0.070
-140.472	-146.986	0.111	0.009
-139.458	-200.000	-0.183	0.000
-138.443	230.170	0.151	0.243
-137.429	-23.023	0.225	0.133
-136.414	131.517	-0.100	-0.126
-135.399	214.071	0.175	0.272
-134.385	-200.000	-0.002	0.162
-133.370	-5.646	0.124	0.084
-132.356	15.195	0.147	-0.113
-131.341	-200.000	-0.039	0.225
-130.326	-200.000	0.041	-0.207
-129.312	800.000	0.038	-0.123
-128.297	103.634	-0.106	-0.122
-127.283	-165.413	-0.096	-0.004
-126.268	69.435	0.092	-0.093
-125.253	36.059	-0.277	-0.239
-124.239	-69.400	0.304	0.115
-123.224	-112.571	0.137	0.027
-122.210	14.400	-0.201	-0.154
-121.195	65.401	0.149	0.148
-120.180	-96.417	0.318	0.082
-119.166	75.285	-0.164	0.170
