DTS Sentinel unit serial number:	SN413079Multiplexer serial number:	ORYXHardware model number:	OX4-SRSoftware version number:	ORYX F/W v4.00 Oryx Data Collector v3.7.2.0data status	okinstallation	princeton_trtdifferential loss correction	single-endedforward channel	channel 2reverse channel	N/Adate	2019/09/15time	00:07:35forward acquisition time	60.00reverse acquisition time	0.00gamma	496.2192k internal	0.2324k external	0.2324temperature offset calibration	1.0044default loss term (dB/km)	0.3790temperature slope calibration	1.0000multiplexer offset coefficient	1.0000multiplexer slope coefficient	1.0000fibre end	0.00T internal ref (°C)	32.19T ext. ref 1 (°C)	4.58T ext. ref 2 (°C)	27.22length (m)	temperature (°C)	Stokes	anti-Stokes-747.200	12.845	0.322	0.251
-746.185	800.000	0.046	0.169
-745.171	211.596	0.145	-0.231
-744.156	-69.320	0.336	-0.130
-743.142	800.000	0.100	-0.307
-742.127	6.903	-0.063	0.047
-741.112	-49.741	-0.123	0.059
-740.098	171.937	0.114	0.165
-739.083	-200.000	-0.015	-0.078
-738.069	-101.201	0.066	0.016
-737.054	-24.281	-0.304	0.183
-736.039	-200.000	0.013	-0.101
-735.025	251.269	-0.020	0.034
-734.010	-68.993	-0.210	-0.082
-732.996	-200.000	-0.057	-0.267
-731.981	1.795	0.279	-0.203
-730.966	-200.000	-0.033	0.185
-729.952	-9.940	-0.081	-0.054
-728.937	-105.216	-0.148	-0.034
-727.923	-120.166	-0.372	-0.064
-726.908	-200.000	-0.113	-0.000
-725.894	132.453	-0.069	0.090
-724.879	243.845	0.165	0.280
-723.864	-108.944	-0.415	-0.089
-722.850	-200.000	0.028	-0.280
-721.835	201.588	0.244	-0.380
-720.821	134.495	-0.118	-0.154
-719.806	92.662	0.258	-0.293
-718.791	8.773	-0.110	-0.084
-717.777	-109.031	-0.372	-0.080
-716.762	800.000	-0.041	0.162
-715.748	-39.366	0.306	-0.162
-714.733	-117.118	-0.121	-0.022
-713.718	348.990	0.139	-0.277
-712.704	115.529	-0.155	-0.191
-711.689	-146.003	-0.201	0.018
-710.675	-200.000	-0.058	-0.313
-709.660	136.494	-0.154	-0.202
-708.645	55.972	-0.146	-0.143
-707.631	339.122	-0.109	-0.213
-706.616	800.000	0.044	0.192
-705.602	-50.696	-0.198	-0.094
-704.587	-200.000	0.027	-0.167
-703.572	400.174	0.139	-0.294
-702.558	-114.962	-0.342	0.066
-701.543	800.000	-0.017	0.061
-700.529	-113.795	-0.374	0.073
-699.514	-10.011	0.192	0.129
-698.499	-83.054	-0.331	0.107
-697.485	87.770	-0.114	0.127
-696.470	71.428	-0.101	-0.106
-695.456	-154.998	0.296	-0.020
-694.441	-26.830	0.071	0.042
-693.426	-66.076	-0.145	-0.058
-692.412	92.001	-0.179	0.203
-691.397	-138.877	-0.457	0.050
-690.383	-29.153	0.247	-0.143
-689.368	-16.708	0.261	0.167
-688.354	-200.000	-0.030	0.190
-687.339	-56.609	-0.118	-0.053
-686.324	-109.930	0.027	-0.006
-685.310	-200.000	-0.024	-0.141
-684.295	-200.000	0.037	-0.217
-683.281	264.011	-0.149	-0.261
-682.266	-120.629	-0.248	0.042
-681.251	-45.793	0.131	-0.065
-680.237	-41.435	-0.370	0.192
-679.222	800.000	0.018	-0.068
-678.208	483.282	-0.075	0.172
-677.193	-166.953	0.152	-0.006
-676.178	-135.567	-0.151	-0.018
-675.164	-168.384	0.227	-0.009
-674.149	-54.585	0.338	0.154
-673.135	-200.000	-0.059	0.287
-672.120	-160.693	0.058	0.003
-671.105	-176.323	-0.225	0.006
-670.091	-175.134	-0.254	0.007
-669.076	222.507	0.163	-0.264
-668.062	28.863	-0.305	-0.260
-667.047	-118.176	-0.113	-0.020
-666.032	-68.665	0.220	0.086
-665.018	-70.981	-0.234	0.088
-664.003	-125.911	-0.277	0.042
-662.989	-200.000	-0.051	-0.237
-661.974	-117.667	0.173	0.031
-660.959	-17.954	-0.216	-0.136
-659.945	434.586	-0.142	-0.310
-658.930	800.000	-0.092	-0.380
-657.916	-60.354	-0.236	-0.101
-656.901	99.522	0.061	-0.071
-655.886	-163.718	-0.181	0.009
-654.872	485.866	-0.064	-0.147
-653.857	31.937	-0.168	-0.145
-652.843	283.835	0.147	-0.266
-651.828	36.455	-0.113	0.101
-650.814	800.000	-0.035	-0.142
-649.799	99.420	0.128	-0.149
-648.784	-86.770	-0.057	0.018
-647.770	-115.186	0.221	-0.042
-646.755	-48.181	-0.040	-0.019
-645.741	-200.000	0.020	0.096
-644.726	224.890	-0.261	-0.424
-643.711	-40.755	0.186	-0.097
-642.697	-145.659	0.359	0.032
-641.682	-33.865	-0.220	0.122
-640.668	-28.838	-0.283	-0.163
-639.653	-100.324	0.227	0.057
-638.638	-200.000	0.044	-0.306
-637.624	150.672	-0.120	-0.163
-636.609	-84.121	-0.284	0.091
-635.595	-200.000	0.019	-0.162
-634.580	-97.921	0.098	-0.026
-633.565	800.000	0.042	-0.166
-632.551	-18.870	-0.228	-0.143
-631.536	30.392	-0.148	-0.127
-630.522	169.514	-0.162	-0.233
-629.507	800.000	-0.013	-0.047
-628.492	78.052	-0.236	0.253
-627.478	-86.457	0.146	0.045
-626.463	-68.899	-0.245	-0.095
-625.449	800.000	0.117	-0.442
-624.434	-0.757	-0.277	-0.197
-623.419	457.115	-0.076	-0.169
-622.405	-4.916	-0.060	-0.042
-621.390	153.711	0.168	-0.231
-620.376	218.626	0.022	0.035
-619.361	89.853	0.340	-0.382
-618.346	-200.000	0.021	-0.140
-617.332	590.020	0.098	0.244
-616.317	52.081	0.182	-0.174
-615.303	180.033	0.189	-0.278
-614.288	256.063	-0.087	0.149
-613.273	-102.025	-0.352	-0.085
-612.259	80.651	-0.316	0.342
-611.244	-200.000	0.047	-0.272
-610.230	759.150	-0.057	-0.155
-609.215	420.935	-0.047	-0.101
-608.201	144.714	0.106	-0.143
-607.186	521.222	0.057	0.135
-606.171	537.727	-0.075	-0.179
-605.157	45.905	0.149	0.138
-604.142	102.820	0.181	0.213
-603.128	91.453	-0.225	0.253
-602.113	-111.920	0.037	-0.008
-601.098	164.189	0.043	-0.061
-600.084	-200.000	-0.302	-0.001
-599.069	47.392	-0.114	-0.107
-598.055	800.000	0.048	0.141
-597.040	-200.000	0.000	-0.037
-596.025	92.851	-0.103	-0.117
-595.011	-180.412	0.130	-0.003
-593.996	185.732	0.222	0.332
-592.982	214.546	0.102	0.163
-591.967	-77.538	-0.323	-0.112
-590.952	-47.291	-0.035	0.017
-589.938	-93.612	0.220	0.061
-588.923	39.994	-0.192	-0.173
-587.909	202.314	-0.128	-0.199
-586.894	4.209	-0.254	-0.186
-585.879	-156.030	-0.198	0.013
-584.865	800.000	-0.107	-0.349
-583.850	-200.000	-0.050	-0.256
-582.836	-200.000	-0.015	0.215
-581.821	-200.000	0.005	0.066
-580.806	-171.843	0.173	-0.006
-579.792	-124.017	0.250	-0.039
-578.777	-167.922	-0.054	-0.002
-577.763	22.265	0.220	-0.180
-576.748	-130.083	0.099	-0.014
-575.733	-200.000	0.004	0.235
-574.719	215.382	-0.129	-0.205
-573.704	181.342	-0.259	-0.382
-572.690	143.499	0.095	-0.127
-571.675	-59.297	0.036	-0.016
-570.661	-200.000	0.001	-0.255
-569.646	800.000	-0.103	0.305
-568.631	59.464	-0.102	0.101
-567.617	-166.326	-0.393	0.017
-566.602	-97.980	-0.197	0.051
-565.588	800.000	0.043	0.185
-564.573	-165.330	0.161	0.007
-563.558	-149.729	-0.064	-0.005
-562.544	-159.127	0.149	0.008
-561.529	184.501	0.044	-0.066
-560.515	362.815	-0.152	0.306
-559.500	-200.000	0.033	0.297
-558.485	256.807	-0.070	-0.120
-557.471	-62.742	-0.053	0.022
-556.456	-134.295	-0.286	-0.035
-555.442	543.748	0.123	-0.295
-554.427	800.000	0.047	-0.144
-553.412	-85.421	0.108	-0.034
-552.398	-1.529	-0.056	-0.039
-551.383	-75.503	0.280	0.100
-550.369	-115.799	0.144	-0.027
-549.354	800.000	-0.012	0.037
-548.339	-3.911	0.254	0.177
-547.325	114.596	0.203	-0.248
-546.310	80.598	-0.266	-0.287
-545.296	96.040	0.132	0.151
-544.281	-64.127	-0.189	0.077
-543.266	-200.000	0.017	-0.392
-542.252	-200.000	0.000	0.017
-541.237	70.069	-0.046	0.048
-540.223	-32.786	0.141	0.079
-539.208	-200.000	-0.001	-0.078
-538.193	-69.215	-0.242	0.093
-537.179	-200.000	0.018	-0.239
-536.164	-108.395	-0.318	-0.069
-535.150	586.703	0.048	0.118
-534.135	-151.301	-0.260	-0.019
-533.121	-25.148	-0.073	-0.043
-532.106	-70.466	0.055	0.021
-531.091	-76.612	0.076	0.027
-530.077	800.000	-0.037	-0.143
-529.062	-200.000	0.010	-0.053
-528.048	-118.455	-0.426	-0.076
-527.033	156.933	0.102	-0.141
-526.018	424.665	0.036	0.078
-525.004	-35.426	-0.458	0.249
-523.989	468.382	0.069	0.155
-522.975	-68.751	0.127	0.049
-521.960	-68.384	-0.041	0.016
-520.945	-158.581	0.265	-0.015
-519.931	-74.613	-0.264	0.095
-518.916	-71.606	0.049	0.019
-517.902	800.000	0.089	0.252
-516.887	-200.000	-0.008	0.169
-515.872	58.580	0.066	-0.065
-514.858	255.863	-0.186	0.319
-513.843	-200.000	0.040	-0.300
-512.829	-7.913	-0.058	0.039
-511.814	-45.020	0.417	0.208
-510.799	-80.684	-0.381	-0.127
-509.785	-200.000	0.063	-0.312
-508.770	752.237	0.032	-0.086
-507.756	-99.163	0.170	-0.043
-506.741	-200.000	-0.023	0.389
-505.726	110.098	-0.173	0.208
-504.712	-16.538	0.209	0.132
-503.697	80.680	0.103	-0.111
-502.683	-200.000	0.007	0.366
-501.668	-200.000	-0.023	-0.292
-500.653	-200.000	-0.005	0.041
-499.639	-40.294	0.222	-0.115
-498.624	-200.000	-0.018	0.123
-497.610	-143.234	0.094	-0.009
-496.595	326.264	0.096	-0.184
-495.581	-52.638	0.034	-0.016
-494.566	6.369	-0.180	0.133
-493.551	-173.310	0.201	-0.006
-492.537	-56.540	-0.317	-0.140
-491.522	260.657	-0.028	0.048
-490.508	117.997	-0.173	-0.213
-489.493	-200.000	0.058	-0.295
-488.478	-2.395	-0.169	0.118
-487.464	-79.533	-0.343	0.116
-486.449	467.967	0.110	-0.247
-485.435	478.206	0.119	-0.268
-484.420	114.069	0.198	-0.240
-483.405	-193.515	-0.116	0.001
-482.391	14.218	0.127	0.099
-481.376	109.433	-0.179	0.214
-480.362	-26.631	0.139	0.081
-479.347	-80.804	-0.197	-0.065
-478.332	-139.070	0.159	-0.017
-477.318	-46.099	-0.135	0.067
-476.303	800.000	0.070	0.209
-475.289	-146.222	-0.267	-0.023
-474.274	-128.492	-0.068	-0.010
-473.259	-24.773	0.178	-0.106
-472.245	-31.765	0.145	-0.081
-471.230	87.349	-0.355	0.392
-470.216	114.891	-0.141	-0.171
-469.201	-43.065	0.283	0.144
-468.186	366.193	-0.100	0.202
-467.172	-77.524	-0.064	-0.022
-466.157	69.019	-0.179	0.183
-465.143	-46.085	-0.142	0.070
-464.128	-200.000	-0.006	-0.050
-463.113	-63.376	-0.162	0.066
-462.099	-157.896	-0.104	-0.006
-461.084	-108.651	0.395	0.085
-460.070	-153.588	-0.235	-0.016
-459.055	800.000	0.089	-0.253
-458.040	-58.096	-0.372	0.162
-457.026	-200.000	-0.035	-0.181
-456.011	619.675	-0.027	-0.069
-454.997	12.075	-0.457	0.351
-453.982	2.343	0.070	-0.050
-452.968	28.716	0.184	-0.155
-451.953	596.515	0.151	0.372
-450.938	-142.195	-0.260	-0.026
-449.924	4.968	0.027	-0.020
-448.909	15.504	-0.354	-0.278
-447.895	473.491	-0.111	-0.250
-446.880	-187.137	0.339	-0.005
-445.865	-130.954	0.117	-0.016
-444.851	800.000	0.089	0.302
-443.836	245.415	0.073	0.122
-442.822	-122.851	0.217	-0.035
-441.807	-67.369	-0.163	0.064
-440.792	371.641	0.125	-0.253
-439.778	-0.578	0.210	-0.149
-438.763	-138.808	0.300	-0.033
-437.749	67.727	0.156	-0.159
-436.734	95.114	-0.178	-0.202
-435.719	-200.000	-0.037	-0.197
-434.705	271.892	0.144	-0.254
-433.690	188.552	-0.129	0.193
-432.676	614.870	0.030	-0.074
-431.661	104.289	-0.126	0.148
-430.646	110.277	0.112	0.134
-429.632	-146.969	0.372	0.032
-428.617	67.597	-0.131	-0.134
-427.603	-200.000	-0.005	-0.084
-426.588	-200.000	-0.018	0.099
-425.573	-92.713	-0.177	-0.049
-424.559	392.949	0.249	0.517
-423.544	277.224	-0.107	-0.190
-422.530	-200.000	0.054	0.236
-421.515	145.631	0.033	-0.045
-420.500	-200.000	-0.067	0.409
-419.486	-51.228	0.175	0.082
-418.471	22.780	-0.034	-0.027
-417.457	800.000	0.061	-0.189
-416.442	-200.000	-0.025	-0.196
-415.428	44.393	-0.190	0.174
-414.413	-200.000	-0.005	0.301
-413.398	66.260	-0.142	0.144
-412.384	800.000	0.028	0.101
-411.369	64.252	-0.117	0.117
-410.355	-155.245	-0.215	-0.014
-409.340	263.758	-0.129	0.224
-408.325	437.531	-0.159	-0.346
-407.311	800.000	0.060	0.217
-406.296	-20.425	0.067	-0.041
-405.282	-120.292	0.175	0.030
-404.267	-104.766	-0.233	0.053
-403.252	-108.885	0.252	0.054
-402.238	-159.447	0.341	0.019
-401.223	800.000	0.045	-0.133
-400.209	194.089	0.074	0.112
-399.194	-52.230	0.320	0.148
-398.179	86.474	-0.225	0.247
-397.165	742.904	0.032	0.084
-396.150	-115.220	0.202	0.038
-395.136	560.155	-0.123	-0.296
-394.121	357.057	0.052	-0.103
-393.106	-151.783	0.138	-0.010
-392.092	-34.634	0.116	-0.063
-391.077	371.748	-0.107	0.217
-390.063	-100.310	0.028	-0.007
-389.048	-200.000	-0.007	0.199
-388.033	-200.000	0.050	0.244
-387.019	-123.272	-0.321	0.051
-386.004	59.353	0.126	0.124
-384.990	-104.023	0.222	-0.051
-383.975	800.000	0.024	-0.071
-382.960	747.682	0.086	-0.231
-381.946	-200.000	0.006	0.103
-380.931	26.423	-0.098	0.081
-379.917	740.844	-0.026	0.070
-378.902	275.759	-0.099	0.175
-377.888	-200.000	0.009	0.273
-376.873	15.030	0.325	0.253
-375.858	335.117	0.142	0.274
-374.844	-147.211	-0.277	-0.023
-373.829	188.876	0.078	-0.116
-372.815	-23.409	-0.250	-0.149
-371.800	-200.000	-0.053	-0.367
-370.785	-166.669	-0.085	0.004
-369.771	-26.729	0.373	-0.217
-368.756	176.110	-0.054	0.077
-367.742	-128.887	-0.157	0.022
-366.727	85.394	-0.080	-0.088
-365.712	-65.329	0.403	-0.161
-364.698	-89.634	-0.288	0.084
-363.683	800.000	0.086	0.295
-362.669	36.630	0.186	0.164
-361.654	-148.617	-0.204	0.017
-360.639	-21.254	0.274	0.166
-359.625	-120.888	0.261	-0.044
-358.610	-78.292	-0.197	0.067
-357.596	12.634	-0.218	0.168
-356.581	2.844	0.207	0.150
-355.566	100.088	-0.020	0.023
-354.552	-32.921	0.150	0.083
-353.537	91.249	0.199	0.222
-352.523	800.000	0.024	-0.071
-351.508	-55.188	-0.216	0.097
-350.493	-80.222	0.114	0.038
-349.479	-54.187	0.105	-0.048
-348.464	-104.247	0.248	-0.057
-347.450	16.451	0.132	-0.103
-346.435	-147.254	-0.419	0.035
-345.420	386.269	0.174	-0.356
-344.406	47.089	0.220	-0.203
-343.391	-109.052	0.033	-0.007
-342.377	-49.191	0.137	-0.065
-341.362	603.076	-0.195	0.483
-340.348	-49.437	-0.076	-0.036
-339.333	462.244	0.065	-0.145
-338.318	-157.806	-0.266	0.016
-337.304	114.918	-0.085	0.103
-336.289	-30.170	0.256	0.145
-335.275	800.000	0.054	0.178
-334.260	-95.211	-0.200	-0.054
-333.245	-5.813	-0.151	0.103
-332.231	-105.281	-0.025	0.006
-331.216	586.649	-0.074	0.180
-330.202	187.770	0.078	0.116
-329.187	139.257	-0.183	-0.239
-328.172	143.352	0.215	-0.284
-327.158	593.818	0.022	-0.054
-326.143	-30.922	0.301	-0.169
-325.129	108.783	-0.167	-0.198
-324.114	-200.000	0.081	-0.401
-323.099	-146.779	-0.270	-0.023
-322.085	339.475	0.089	0.173
-321.070	-200.000	-0.009	-0.199
-320.056	-60.092	-0.346	-0.147
-319.041	-200.000	-0.023	0.144
-318.026	338.956	0.101	0.195
-317.012	800.000	0.061	-0.222
-315.997	457.603	-0.212	0.468
-314.983	-200.000	-0.001	0.084
-313.968	-71.741	-0.214	-0.079
-312.953	-0.282	-0.373	0.264
-311.939	-44.930	0.271	0.134
-310.924	115.782	0.139	0.169
-309.910	-80.766	-0.091	-0.030
-308.895	-36.334	-0.109	0.059
-307.880	-98.224	-0.179	-0.046
-306.866	1.383	0.329	-0.235
-305.851	800.000	-0.055	-0.191
-304.837	-53.377	-0.120	-0.055
-303.822	-158.845	0.336	-0.019
-302.807	800.000	0.068	-0.215
-301.793	-72.382	-0.163	-0.060
-300.778	78.975	0.209	0.222
-299.764	-84.861	0.399	-0.124
-298.749	-200.000	0.017	0.529
-297.735	25.287	-0.220	0.181
-296.720	113.220	0.200	0.241
-295.705	-200.000	0.035	-0.223
-294.691	385.092	0.169	0.345
-293.676	-101.926	-0.471	0.113
-292.662	-172.018	0.423	0.014
-291.647	201.929	0.191	-0.292
-290.632	368.746	-0.087	-0.175
-289.618	16.781	0.281	-0.220
-288.603	-86.305	-0.127	-0.039
-287.589	-115.418	0.118	0.022
-286.574	-200.000	0.007	0.059
-285.559	-91.497	-0.120	0.034
-284.545	-200.000	0.007	0.083
-283.530	-41.886	0.158	-0.081
-282.516	-200.000	0.031	-0.166
-281.501	204.238	-0.089	-0.137
-280.486	-116.177	0.156	-0.029
-279.472	-171.865	0.054	0.002
-278.457	-37.899	-0.071	0.037
-277.443	-153.524	-0.155	0.011
-276.428	-34.402	-0.016	-0.009
-275.413	-64.123	0.118	-0.048
-274.399	-200.000	0.022	0.341
-273.384	4.280	-0.297	0.216
-272.370	800.000	0.113	0.360
-271.355	326.238	-0.150	0.285
-270.340	157.406	-0.239	0.328
-269.326	800.000	0.028	-0.086
-268.311	352.314	-0.080	-0.157
-267.297	300.140	0.092	-0.168
-266.282	76.237	0.130	-0.136
-265.267	800.000	-0.056	-0.236
-264.253	-111.344	-0.236	-0.048
-263.238	-77.086	-0.254	-0.088
-262.224	90.418	-0.163	-0.180
-261.209	-76.885	-0.273	0.095
-260.195	437.806	0.031	0.067
-259.180	62.663	0.292	0.289
-258.165	-6.246	-0.093	-0.063
-257.151	465.900	0.068	0.150
-256.136	420.842	0.137	0.290
-255.122	800.000	0.041	-0.146
-254.107	-33.615	0.196	0.107
-253.092	-200.000	0.039	-0.246
-252.078	528.297	0.112	-0.262
-251.063	-123.366	-0.213	-0.034
-250.049	-200.000	-0.006	0.174
-249.034	-143.865	0.116	-0.011
-248.019	-21.413	-0.269	0.163
-247.005	-7.904	0.060	0.040
-245.990	-49.115	-0.416	-0.197
-244.976	800.000	0.056	0.199
-243.961	-44.530	-0.065	0.032
-242.946	-55.137	-0.274	-0.122
-241.932	433.379	0.164	0.352
-240.917	-87.174	-0.236	-0.071
-239.903	-200.000	-0.006	-0.032
-238.888	800.000	0.136	-0.470
-237.873	0.730	0.180	0.127
-236.859	-200.000	0.039	-0.172
-235.844	352.774	0.032	-0.063
-234.830	153.913	0.131	0.178
-233.815	-32.812	-0.260	0.143
-232.800	-73.477	0.161	-0.058
-231.786	-200.000	-0.024	0.128
-230.771	-0.905	0.220	-0.154
-229.757	-130.097	-0.278	-0.038
-228.742	182.402	-0.029	-0.042
-227.727	-155.681	0.322	0.020
-226.713	-64.127	0.224	0.090
-225.698	65.502	0.171	0.171
-224.684	-118.183	0.314	-0.055
-223.669	-24.687	-0.165	-0.097
-222.655	-12.819	0.066	-0.043
-221.640	500.637	0.084	0.192
-220.625	-200.000	-0.011	0.219
-219.611	-96.097	-0.257	-0.068
-218.596	-200.000	0.027	0.211
-217.582	-74.033	-0.309	0.111
-216.567	-200.000	0.037	0.187
-215.552	-33.261	-0.378	0.207
-214.538	261.542	0.133	-0.229
-213.523	-78.525	0.185	0.063
-212.509	-200.000	-0.047	0.262
-211.494	-200.000	-0.052	0.383
-210.479	35.356	0.152	0.132
-209.465	-200.000	0.015	-0.207
-208.450	-90.026	-0.083	-0.024
-207.436	458.815	-0.045	0.100
-206.421	-67.880	0.104	0.040
-205.406	800.000	0.117	0.446
-204.392	-103.591	-0.247	-0.057
-203.377	-88.191	-0.118	-0.035
-202.363	800.000	0.019	-0.060
-201.348	181.735	-0.174	0.253
-200.333	83.119	0.192	0.207
-199.319	800.000	0.016	-0.059
-198.304	-142.671	0.221	0.021
-197.290	109.993	0.144	-0.170
-196.275	46.091	0.228	0.209
-195.260	-200.000	-0.007	-0.117
-194.246	295.235	0.114	0.205
-193.231	9.802	0.272	-0.204
-192.217	800.000	-0.053	-0.169
-191.202	-200.000	-0.005	-0.348
-190.187	143.404	0.162	-0.214
-189.173	125.518	0.112	0.139
-188.158	11.051	0.106	0.080
-187.144	800.000	-0.030	-0.090
-186.129	-200.000	0.064	0.375
-185.114	63.138	-0.122	-0.121
-184.100	-200.000	-0.041	0.260
-183.085	12.298	-0.111	-0.085
-182.071	-200.000	0.018	0.144
-181.056	800.000	-0.059	-0.173
-180.042	437.111	0.135	-0.290
-179.027	553.253	-0.039	-0.093
-178.012	17.852	0.154	-0.121
-176.998	276.345	-0.062	0.109
-175.983	-142.153	-0.318	-0.031
-174.969	178.101	0.098	0.142
-173.954	243.651	-0.119	-0.197
-172.939	-141.727	0.045	0.004
-171.925	-171.256	0.088	0.003
-170.910	-24.602	0.197	-0.116
-169.896	-113.331	0.398	0.077
-168.881	502.591	0.126	-0.287
-167.866	795.548	-0.031	0.084
-166.852	800.000	0.098	-0.288
-165.837	-104.387	-0.106	0.024
-164.823	-200.000	0.024	-0.229
-163.808	-2.700	-0.153	-0.105
-162.793	-108.870	-0.231	0.049
-161.779	-23.817	-0.162	-0.096
-160.764	71.725	0.128	-0.131
-159.750	305.588	-0.148	-0.271
-158.735	-9.021	-0.084	0.056
-157.720	187.191	0.084	0.124
-156.706	776.040	-0.129	-0.346
-155.691	-200.000	-0.005	-0.028
-154.677	-200.000	0.079	0.392
-153.662	-62.449	0.287	0.118
-152.647	-39.084	0.324	-0.168
-151.633	-149.714	0.429	-0.033
-150.618	-121.062	0.115	0.019
-149.604	188.886	-0.115	-0.169
-148.589	340.448	0.036	-0.069
-147.574	177.116	0.121	-0.173
-146.560	-200.000	0.009	-0.389
-145.545	-200.000	-0.005	-0.074
-144.531	-24.604	0.324	0.190
-143.516	134.929	-0.247	0.316
-142.502	722.092	-0.075	-0.196
-141.487	112.969	-0.116	-0.139
-140.472	-116.610	0.271	-0.049
-139.458	-55.612	-0.184	0.081
-138.443	-136.667	-0.332	0.038
-137.429	106.525	0.140	-0.163
-136.414	499.994	-0.057	-0.130
-135.399	-200.000	0.018	0.170
-134.385	800.000	-0.034	0.103
-133.370	-91.892	0.103	-0.029
-132.356	-103.342	0.081	-0.019
-131.341	325.146	-0.039	0.074
-130.326	68.403	-0.174	0.176
-129.312	-48.156	0.438	-0.208
-128.297	-200.000	-0.009	-0.109
-127.283	716.608	0.059	0.154
-126.268	397.776	-0.072	-0.148
-125.253	149.877	0.131	0.176
-124.239	800.000	0.036	0.108
-123.224	-200.000	-0.035	-0.546
-122.210	-107.783	-0.319	0.068
