DTS Sentinel unit serial number:	SN413079Multiplexer serial number:	ORYXHardware model number:	OX4-SRSoftware version number:	ORYX F/W v4.00 Oryx Data Collector v3.7.2.0data status	okinstallation	princeton_trtdifferential loss correction	single-endedforward channel	channel 2reverse channel	N/Adate	2019/09/11time	02:05:10forward acquisition time	60.00reverse acquisition time	0.00gamma	496.2192k internal	0.2332k external	0.2332temperature offset calibration	0.9940default loss term (dB/km)	0.3790temperature slope calibration	1.0000multiplexer offset coefficient	1.0000multiplexer slope coefficient	1.0000fibre end	0.00T internal ref (°C)	29.19T ext. ref 1 (°C)	-0.30T ext. ref 2 (°C)	23.11length (m)	temperature (°C)	Stokes	anti-Stokes-747.200	800.000	0.020	0.056
-746.185	-50.635	0.345	0.163
-745.171	37.407	0.094	0.084
-744.156	-200.000	0.006	0.034
-743.142	267.095	0.128	0.225
-742.127	-95.465	0.099	-0.027
-741.112	-97.829	-0.372	-0.097
-740.098	216.570	-0.133	0.213
-739.083	-196.489	-0.031	-0.000
-738.069	-145.746	-0.414	0.037
-737.054	384.248	-0.139	0.288
-736.039	101.953	-0.155	-0.182
-735.025	211.365	-0.155	-0.245
-734.010	353.840	-0.098	-0.196
-732.996	28.056	-0.304	0.258
-731.981	-28.847	-0.298	-0.172
-730.966	378.453	0.005	-0.011
-729.952	-200.000	0.009	-0.368
-728.937	-200.000	0.040	-0.254
-727.923	-200.000	-0.014	-0.187
-726.908	13.917	0.157	-0.123
-725.894	191.723	-0.028	0.042
-724.879	-130.692	-0.239	0.032
-723.864	-79.308	-0.105	-0.036
-722.850	0.977	-0.027	0.019
-721.835	58.528	0.058	0.057
-720.821	-145.007	-0.195	0.018
-719.806	-58.532	0.229	-0.100
-718.791	-18.316	0.243	-0.153
-717.777	-200.000	0.006	0.145
-716.762	128.339	0.264	-0.337
-715.748	120.995	0.153	0.192
-714.733	316.582	-0.176	-0.334
-713.718	494.333	-0.083	0.191
-712.704	800.000	0.033	0.096
-711.689	30.992	0.235	0.203
-710.675	-100.087	-0.140	-0.035
-709.660	170.912	-0.104	0.150
-708.645	800.000	0.014	0.041
-707.631	336.889	0.021	0.040
-706.616	189.444	0.085	-0.128
-705.602	651.825	0.098	0.252
-704.587	-1.067	0.101	0.072
-703.572	-86.419	-0.125	0.038
-702.558	800.000	0.054	-0.220
-701.543	286.957	-0.084	-0.152
-700.529	193.185	0.116	-0.176
-699.514	-150.145	0.076	-0.006
-698.499	-101.381	0.024	-0.006
-697.485	-90.681	0.232	-0.067
-696.470	-200.000	-0.023	0.166
-695.456	-86.343	-0.135	-0.042
-694.441	57.890	0.100	-0.098
-693.426	-200.000	-0.022	0.305
-692.412	-123.186	-0.300	0.048
-691.397	-200.000	0.001	0.101
-690.383	-184.225	0.129	-0.002
-689.368	117.182	-0.046	0.057
-688.354	144.889	0.073	-0.097
-687.339	-200.000	-0.038	0.390
-686.324	-131.169	-0.144	0.019
-685.310	-5.374	-0.222	-0.153
-684.295	-167.102	-0.129	-0.005
-683.281	-100.458	-0.237	-0.059
-682.266	92.488	-0.111	0.126
-681.251	177.953	0.018	0.027
-680.237	-200.000	-0.050	0.450
-679.222	339.259	0.086	-0.168
-678.208	-156.278	0.355	0.022
-677.193	77.625	-0.164	0.175
-676.178	-101.325	-0.032	0.008
-675.164	84.248	0.088	-0.097
-674.149	-137.974	0.210	-0.023
-673.135	-115.233	0.311	-0.059
-672.120	800.000	-0.116	-0.497
-671.105	-90.955	-0.285	-0.082
-670.091	-69.723	-0.326	-0.125
-669.076	-40.867	-0.217	0.113
-668.062	-54.203	-0.372	-0.170
-667.047	-200.000	-0.004	-0.224
-666.032	17.160	0.213	0.170
-665.018	-56.595	-0.250	-0.111
-664.003	34.918	-0.172	0.151
-662.989	800.000	0.070	-0.237
-661.974	-200.000	0.066	-0.337
-660.959	408.102	-0.096	-0.203
-659.945	-58.884	-0.084	0.037
-658.930	68.158	0.122	0.125
-657.916	-127.835	0.119	-0.017
-656.901	-94.284	0.139	0.038
-655.886	-200.000	-0.026	-0.152
-654.872	-52.709	0.092	-0.043
-653.857	73.139	-0.077	0.080
-652.843	-200.000	-0.019	-0.122
-651.828	-77.729	-0.093	0.032
-650.814	360.652	-0.041	0.081
-649.799	28.681	0.022	0.019
-648.784	-200.000	0.058	-0.264
-647.770	243.186	0.127	0.213
-646.755	-200.000	0.025	-0.185
-645.741	129.551	0.179	0.230
-644.726	113.244	-0.174	-0.212
-643.711	722.137	0.069	-0.183
-642.697	-51.883	0.205	-0.095
-641.682	210.652	0.250	-0.393
-640.668	-49.871	0.038	-0.018
-639.653	-71.357	-0.157	0.059
-638.638	-147.463	0.172	0.015
-637.624	259.745	0.144	0.249
-636.609	-27.573	0.150	-0.087
-635.595	14.066	-0.058	-0.045
-634.580	13.715	-0.244	0.190
-633.565	519.090	0.179	-0.421
-632.551	-99.126	0.149	0.038
-631.536	800.000	0.078	0.250
-630.522	-118.986	-0.253	-0.044
-629.507	-200.000	0.001	-0.254
-628.492	-200.000	0.012	0.296
-627.478	-4.868	-0.128	-0.088
-626.463	-77.918	-0.167	0.058
-625.449	-100.377	-0.074	0.018
-624.434	570.266	0.142	-0.347
-623.419	-174.889	-0.145	-0.004
-622.405	86.678	0.208	0.230
-621.390	132.326	0.104	-0.135
-620.376	-178.261	-0.253	0.006
-619.361	736.085	-0.085	0.229
-618.346	315.828	-0.055	0.103
-617.332	-34.439	-0.220	-0.121
-616.317	93.454	0.091	-0.103
-615.303	-200.000	-0.006	0.153
-614.288	4.737	0.368	0.270
-613.273	-43.226	-0.281	-0.143
-612.259	-159.971	0.152	-0.008
-611.244	-200.000	-0.008	0.176
-610.230	64.674	-0.231	-0.233
-609.215	82.842	0.078	-0.085
-608.201	-200.000	-0.030	-0.151
-607.186	9.282	-0.224	-0.169
-606.171	800.000	0.042	-0.184
-605.157	-110.993	0.296	-0.061
-604.142	-23.566	0.134	0.080
-603.128	30.836	0.062	0.053
-602.113	800.000	0.056	-0.164
-601.098	-179.665	0.194	-0.004
-600.084	-200.000	0.076	-0.373
-599.069	100.079	0.125	-0.145
-598.055	483.968	0.158	0.361
-597.040	-154.168	0.071	0.005
-596.025	-42.529	-0.113	0.058
-595.011	-128.602	-0.370	-0.052
-593.996	800.000	-0.026	-0.097
-592.982	595.395	-0.067	-0.167
-591.967	291.024	-0.166	-0.303
-590.952	583.856	-0.082	-0.201
-589.938	-75.296	-0.186	-0.066
-588.923	-200.000	-0.012	0.235
-587.909	800.000	0.086	-0.248
-586.894	-200.000	0.019	-0.139
-585.879	169.549	0.180	-0.258
-584.865	-149.952	0.046	-0.004
-583.850	535.765	0.032	-0.076
-582.836	-81.324	-0.020	-0.007
-581.821	-29.319	0.050	0.029
-580.806	36.386	0.188	0.166
-579.792	-26.026	-0.187	-0.110
-578.777	-129.881	0.130	-0.018
-577.763	210.983	-0.047	0.074
-576.748	206.795	0.070	0.108
-575.733	255.900	0.071	0.122
-574.719	-200.000	-0.249	0.001
-573.704	-200.000	-0.034	-0.226
-572.690	-93.474	0.103	0.029
-571.675	800.000	0.108	0.357
-570.661	-144.451	-0.196	-0.018
-569.646	-159.058	-0.157	-0.009
-568.631	-200.000	-0.040	0.369
-567.617	485.996	0.128	-0.290
-566.602	205.449	0.203	0.316
-565.588	54.882	0.197	-0.190
-564.573	262.730	0.178	0.308
-563.558	-200.000	-0.021	0.106
-562.544	-200.000	0.022	0.163
-561.529	-200.000	0.024	-0.133
-560.515	-47.411	0.203	0.099
-559.500	131.104	-0.053	-0.068
-558.485	-60.117	-0.127	-0.054
-557.471	-200.000	-0.002	0.193
-556.456	311.048	-0.117	0.220
-555.442	-46.276	-0.283	0.139
-554.427	60.389	-0.180	-0.178
-553.412	-95.138	-0.366	-0.099
-552.398	-54.069	0.196	-0.089
-551.383	800.000	-0.075	0.293
-550.369	333.848	-0.059	-0.113
-549.354	-20.398	-0.012	0.007
-548.339	113.653	0.130	-0.158
-547.325	800.000	-0.041	-0.161
-546.310	-29.025	-0.204	-0.117
-545.296	-200.000	-0.017	0.133
-544.281	311.115	0.070	-0.130
-543.266	403.382	-0.080	-0.167
-542.252	-139.525	0.156	-0.017
-541.237	-50.455	0.261	0.123
-540.223	205.025	0.058	0.091
-539.208	-167.897	0.133	0.005
-538.193	8.391	0.089	0.067
-537.179	121.129	0.177	0.220
-536.164	-200.000	-0.022	-0.276
-535.150	800.000	-0.075	0.311
-534.135	-16.778	-0.110	-0.069
-533.121	74.829	-0.090	0.095
-532.106	35.696	0.235	0.206
-531.091	-109.783	0.226	-0.047
-530.077	135.949	-0.106	0.138
-529.062	-200.000	-0.040	-0.361
-528.048	530.537	-0.056	-0.131
-527.033	134.462	0.093	-0.121
-526.018	-0.416	-0.091	-0.064
-525.004	245.221	0.189	0.316
-523.989	800.000	0.094	0.284
-522.975	-149.403	-0.255	0.020
-521.960	-50.288	-0.207	-0.098
-520.945	-74.987	0.281	-0.100
-519.931	-32.996	-0.196	-0.108
-518.916	800.000	-0.027	-0.096
-517.902	-200.000	-0.044	0.282
-516.887	31.906	-0.077	-0.066
-515.872	-23.624	-0.094	0.056
-514.858	-55.373	-0.308	0.138
-513.843	-81.235	0.280	-0.092
-512.829	800.000	-0.024	0.102
-511.814	-94.430	-0.173	-0.047
-510.799	146.587	0.288	-0.385
-509.785	66.169	-0.008	-0.008
-508.770	-12.443	-0.141	0.092
-507.756	130.650	-0.106	0.135
-506.741	-94.700	-0.118	-0.032
-505.726	-187.212	0.267	-0.004
-504.712	800.000	0.022	0.088
-503.697	-200.000	0.020	-0.357
-502.683	5.584	0.209	-0.154
-501.668	-116.476	-0.075	0.014
-500.653	326.284	-0.153	0.292
-499.639	-44.149	0.274	0.137
-498.624	-200.000	0.017	-0.093
-497.610	83.089	-0.065	-0.070
-496.595	-38.909	-0.125	0.065
-495.581	-27.819	0.183	-0.106
-494.566	181.719	-0.208	-0.304
-493.551	-108.818	0.048	-0.010
-492.537	-144.635	0.211	-0.019
-491.522	375.864	0.094	-0.191
-490.508	800.000	0.076	-0.260
-489.493	800.000	0.018	-0.049
-488.478	-200.000	-0.001	0.113
-487.464	83.946	-0.297	-0.323
-486.449	19.228	-0.342	0.273
-485.435	-200.000	0.019	-0.290
-484.420	3.445	-0.147	0.107
-483.405	-127.151	-0.242	-0.035
-482.391	-47.573	-0.118	0.057
-481.376	29.729	-0.108	-0.092
-480.362	-23.145	0.178	0.107
-479.347	-200.000	-0.004	-0.080
-478.332	7.875	0.247	0.184
-477.318	800.000	0.056	-0.212
-476.303	800.000	-0.032	-0.096
-475.289	-200.000	0.016	-0.276
-474.274	18.202	-0.121	0.096
-473.259	-200.000	0.061	0.301
-472.245	521.785	-0.043	0.101
-471.230	-13.266	-0.316	-0.204
-470.216	467.864	-0.211	-0.472
-469.201	-119.822	-0.123	0.021
-468.186	-68.031	0.248	0.096
-467.172	-48.339	0.102	0.049
-466.157	-200.000	-0.015	0.203
-465.143	209.549	-0.133	-0.207
-464.128	-200.000	-0.037	-0.475
-463.113	-157.835	0.343	0.020
-462.099	1.308	-0.395	-0.282
-461.084	101.493	0.190	0.221
-460.070	-44.701	0.245	0.122
-459.055	-200.000	0.006	-0.038
-458.040	-200.000	-0.042	0.319
-457.026	-200.000	-0.032	-0.171
-456.011	800.000	0.074	0.223
-454.997	796.480	-0.145	-0.397
-453.982	64.666	0.180	0.181
-452.968	-200.000	-0.062	-0.291
-451.953	-1.374	0.134	0.094
-450.938	317.666	-0.147	0.277
-449.924	-200.000	0.032	-0.245
-448.909	129.739	0.163	-0.207
-447.895	-55.050	-0.129	-0.058
-446.880	714.679	0.091	-0.240
-445.865	-102.950	-0.114	0.027
-444.851	416.786	-0.112	-0.237
-443.836	800.000	0.056	-0.195
-442.822	150.500	0.043	-0.058
-441.807	-114.880	-0.081	-0.015
-440.792	-118.702	-0.066	-0.011
-439.778	-1.190	-0.154	-0.108
-438.763	472.580	-0.063	0.140
-437.749	-111.614	0.152	-0.031
-436.734	-200.000	-0.028	0.196
-435.719	-128.028	-0.216	-0.031
-434.705	-200.000	0.021	-0.252
-433.690	-200.000	-0.016	-0.143
-432.676	554.994	-0.066	0.157
-431.661	127.118	0.135	-0.171
-430.646	-97.272	0.098	0.025
-429.632	800.000	-0.142	0.465
-428.617	238.334	-0.150	-0.248
-427.603	234.280	-0.093	0.153
-426.588	282.641	-0.181	0.322
-425.573	800.000	0.069	0.224
-424.559	9.112	-0.146	-0.109
-423.544	-110.445	-0.260	-0.054
-422.530	103.866	0.180	0.210
-421.515	800.000	-0.055	0.158
-420.500	131.472	-0.122	-0.156
-419.486	-200.000	0.029	0.213
-418.471	376.045	-0.118	-0.239
-417.457	-181.044	0.381	0.008
-416.442	800.000	0.076	0.241
-415.428	-157.735	-0.354	0.021
-414.413	800.000	0.055	0.197
-413.398	800.000	-0.109	-0.309
-412.384	99.251	-0.110	0.126
-411.369	-200.000	0.058	0.263
-410.355	14.130	-0.032	-0.025
-409.340	-89.966	0.170	-0.049
-408.325	35.370	0.134	0.117
-407.311	800.000	-0.059	-0.166
-406.296	-17.719	0.323	0.201
-405.282	800.000	-0.021	0.085
-404.267	800.000	0.084	0.278
-403.252	-87.514	-0.132	0.040
-402.238	-20.140	0.099	0.060
-401.223	235.016	0.179	-0.293
-400.209	419.984	0.085	0.182
-399.194	-102.221	0.097	0.023
-398.179	-64.869	-0.301	-0.121
-397.165	-11.457	-0.251	-0.164
-396.150	84.640	-0.145	-0.158
-395.136	-88.635	-0.439	-0.130
-394.121	361.936	0.166	-0.329
-393.106	800.000	-0.034	-0.129
-392.092	157.828	-0.057	0.078
-391.077	-146.776	-0.249	-0.021
-390.063	-165.466	0.289	-0.013
-389.048	299.002	0.131	-0.239
-388.033	-200.000	0.034	-0.462
-387.019	53.918	-0.167	-0.159
-386.004	414.867	0.015	0.031
-384.990	800.000	0.030	0.096
-383.975	19.195	-0.037	-0.030
-382.960	-200.000	-0.048	0.210
-381.946	-79.629	-0.104	-0.035
-380.931	102.666	0.084	-0.097
-379.917	-200.000	0.043	-0.196
-378.902	-39.553	-0.066	-0.034
-377.888	-200.000	0.033	-0.195
-376.873	-200.000	0.036	0.388
-375.858	-16.370	-0.076	0.048
-374.844	-200.000	0.042	-0.242
-373.829	-63.273	-0.140	-0.057
-372.815	-78.791	-0.322	-0.109
-371.800	-100.704	0.346	0.084
-370.785	-200.000	-0.021	0.212
-369.771	183.502	-0.169	0.247
-368.756	316.824	0.059	0.111
-367.742	101.052	-0.013	0.015
-366.727	-36.457	0.120	-0.064
-365.712	-200.000	0.008	0.124
-364.698	-121.639	-0.160	0.026
-363.683	-200.000	-0.082	0.428
-362.669	-108.250	-0.121	-0.026
-361.654	-103.811	-0.163	-0.038
-360.639	-182.808	0.283	0.005
-359.625	41.337	-0.242	0.217
-358.610	-46.518	-0.151	0.074
-357.596	-150.034	0.197	-0.015
-356.581	-47.668	-0.166	0.080
-355.566	-200.000	-0.088	-0.425
-354.552	-92.634	0.239	0.066
-353.537	-90.493	-0.133	0.038
-352.523	237.206	0.156	-0.257
-351.508	-48.452	0.193	0.092
-350.493	-123.487	0.250	0.039
-349.479	-11.835	-0.317	-0.206
-348.464	-69.070	0.103	-0.039
-347.450	80.560	0.164	-0.175
-346.435	105.110	0.143	0.167
-345.420	-137.465	0.109	-0.012
-344.406	-200.000	0.042	0.274
-343.391	99.316	-0.128	0.146
-342.377	-12.087	0.030	-0.020
-341.362	93.080	0.134	0.150
-340.348	214.459	-0.277	0.435
-339.333	800.000	0.030	0.125
-338.318	-123.500	-0.216	-0.034
-337.304	590.749	0.072	-0.176
-336.289	-139.320	0.071	-0.008
-335.275	-20.605	-0.304	-0.185
-334.260	-200.000	0.018	-0.081
-333.245	-135.710	0.088	0.010
-332.231	-200.000	-0.015	0.165
-331.216	-130.693	0.166	-0.022
-330.202	-157.284	0.134	-0.008
-329.187	-56.835	-0.319	-0.139
-328.172	93.019	-0.097	-0.108
-327.158	-122.375	-0.272	0.044
-326.143	-200.000	-0.002	0.180
-325.129	83.460	0.164	0.176
-324.114	103.255	-0.036	0.041
-323.099	28.847	0.096	0.080
-322.085	306.040	-0.039	0.072
-321.070	-73.705	-0.127	0.046
-320.056	80.701	0.104	-0.111
-319.041	-120.877	-0.089	-0.015
-318.026	173.561	0.059	0.085
-317.012	-27.557	-0.168	-0.096
-315.997	41.081	-0.353	0.315
-314.983	89.898	0.138	0.152
-313.968	97.130	0.183	-0.208
-312.953	28.670	-0.291	-0.244
-311.939	-87.009	0.411	0.124
-310.924	44.784	-0.216	-0.197
-309.910	-200.000	0.002	-0.080
-308.895	8.644	-0.076	-0.056
-307.880	-130.130	0.337	-0.046
-306.866	800.000	-0.057	0.169
-305.851	21.970	0.314	0.253
-304.837	-164.006	-0.341	0.016
-303.822	-200.000	-0.023	0.282
-302.807	91.060	0.219	0.243
-301.793	800.000	-0.047	0.130
-300.778	-200.000	-0.002	0.020
-299.764	170.423	-0.091	0.129
-298.749	84.095	0.210	-0.227
-297.735	351.461	-0.093	0.182
-296.720	-37.725	-0.148	0.078
-295.705	800.000	0.040	-0.118
-294.691	-200.000	0.400	-0.002
-293.676	30.825	0.158	-0.134
-292.662	800.000	-0.121	-0.349
-291.647	-81.793	0.115	0.037
-290.632	-120.712	0.158	0.026
-289.618	-200.000	0.019	-0.115
-288.603	800.000	0.010	0.029
-287.589	331.472	-0.154	-0.293
-286.574	191.316	0.196	0.292
-285.559	6.950	-0.345	0.254
-284.545	21.035	-0.153	-0.123
-283.530	-3.944	-0.239	-0.164
-282.516	-84.650	-0.152	0.047
-281.501	-176.350	0.409	-0.011
-280.486	203.048	-0.160	0.245
-279.472	661.018	0.116	-0.296
-278.457	264.652	0.222	-0.383
-277.443	-91.751	-0.315	-0.089
-276.428	-169.173	-0.091	-0.003
-275.413	-99.416	0.091	0.023
-274.399	-32.521	0.113	-0.062
-273.384	-200.000	-0.007	-0.464
-272.370	-168.023	0.279	-0.011
-271.355	80.525	0.309	0.329
-270.340	247.120	-0.054	-0.089
-269.326	-200.000	0.027	-0.217
-268.311	-40.793	0.176	-0.090
-267.297	-185.420	0.403	0.006
-266.282	-40.428	-0.266	0.137
-265.267	118.911	-0.061	-0.074
-264.253	126.757	-0.127	0.159
-263.238	106.873	-0.161	0.188
-262.224	72.068	0.023	-0.024
-261.209	-111.193	-0.281	0.057
-260.195	-73.414	0.148	0.053
-259.180	-78.651	-0.420	-0.142
-258.165	222.655	-0.100	-0.159
-257.151	682.994	0.060	-0.155
-256.136	800.000	-0.063	0.183
-255.122	-125.679	0.225	0.034
-254.107	330.985	0.142	-0.269
-253.092	67.249	-0.243	-0.244
-252.078	670.840	0.046	-0.119
-251.063	-148.461	0.290	0.023
-250.049	800.000	0.061	0.250
-249.034	-55.768	-0.087	0.038
-248.019	-200.000	0.004	-0.125
-247.005	-112.571	0.211	-0.042
-245.990	54.412	0.160	0.152
-244.976	-102.926	-0.349	0.082
-243.961	-200.000	-0.027	-0.118
-242.946	347.863	-0.067	-0.129
-241.932	-31.423	0.276	-0.153
-240.917	26.093	0.219	-0.180
-239.903	83.994	-0.125	-0.134
-238.888	-16.591	0.161	0.100
-237.873	-171.422	0.160	0.005
-236.859	26.793	-0.177	0.146
-235.844	-25.656	-0.097	0.057
-234.830	-200.000	0.032	0.187
-233.815	800.000	0.048	0.161
-232.800	92.339	-0.077	0.085
-231.786	-24.744	-0.259	-0.152
-230.771	216.838	-0.080	-0.125
-229.757	12.964	-0.175	0.133
-228.742	-177.559	0.283	-0.007
-227.727	-200.000	0.056	0.434
-226.713	-126.412	-0.151	0.022
-225.698	-200.000	0.042	0.000
-224.684	-7.892	-0.208	-0.138
-223.669	800.000	-0.054	-0.149
-222.655	-15.700	0.142	-0.089
-221.640	-200.000	-0.020	0.282
-220.625	250.767	0.025	0.043
-219.611	800.000	0.137	-0.437
-218.596	512.348	0.053	-0.121
-217.582	-158.635	0.148	0.008
-216.567	9.105	0.158	-0.118
-215.552	-128.751	0.092	-0.013
-214.538	-31.184	0.151	0.084
-213.523	-128.383	-0.177	0.025
-212.509	767.873	-0.010	0.027
-211.494	126.116	0.073	0.091
-210.479	-91.928	0.320	0.089
-209.465	554.982	-0.076	0.179
-208.450	234.940	-0.160	0.259
-207.436	32.196	0.069	-0.058
-206.421	800.000	0.041	-0.130
-205.406	-27.213	-0.284	-0.163
-204.392	800.000	0.069	0.291
-203.377	-5.776	0.012	-0.008
-202.363	-76.515	0.197	-0.068
-201.348	-200.000	0.016	0.319
-200.333	-200.000	-0.012	-0.281
-199.319	-159.868	-0.196	0.011
-198.304	-62.594	0.234	-0.096
-197.290	800.000	0.035	0.120
-196.275	101.558	-0.082	-0.094
-195.260	698.827	0.060	-0.155
-194.246	-98.136	0.095	-0.024
-193.231	-200.000	-0.033	0.251
-192.217	-200.000	-0.024	0.205
-191.202	122.980	0.079	0.098
-190.187	381.971	0.067	-0.136
-189.173	-64.306	0.195	-0.078
-188.158	-200.000	-0.022	0.132
-187.144	159.796	-0.084	0.115
-186.129	-23.428	0.036	-0.021
-185.114	88.007	0.119	0.130
-184.100	24.329	-0.213	0.173
-183.085	-0.459	0.217	0.152
-182.071	156.591	-0.146	0.198
-181.056	-69.735	0.187	-0.070
-180.042	-131.148	-0.142	0.019
-179.027	-94.238	-0.111	0.030
-178.012	-153.047	0.373	-0.026
-176.998	216.396	0.048	0.075
-175.983	30.184	0.282	0.237
-174.969	51.518	-0.146	-0.137
-173.954	-84.371	-0.282	-0.088
-172.939	-200.000	0.027	0.204
-171.925	47.910	0.234	0.215
-170.910	-4.446	-0.195	0.133
-169.896	-200.000	0.054	0.277
-168.881	-71.242	0.354	0.131
-167.866	-122.190	-0.467	-0.075
-166.852	-200.000	0.046	0.463
-165.837	16.118	-0.093	0.072
-164.823	-44.274	0.074	0.036
-163.808	125.151	-0.309	-0.382
-162.793	406.685	-0.085	-0.177
-161.779	72.912	0.030	-0.031
-160.764	298.273	0.170	0.308
-159.750	7.273	0.207	0.152
-158.735	316.113	-0.082	0.153
-157.720	-200.000	-0.031	0.222
-156.706	71.617	-0.131	0.134
-155.691	455.801	-0.074	0.161
-154.677	-200.000	0.029	0.150
-153.662	294.393	0.079	0.142
-152.647	380.819	0.092	0.185
-151.633	-200.000	-0.032	-0.201
-150.618	-60.965	-0.079	0.033
-149.604	-36.278	0.249	0.132
-148.589	-200.000	-0.005	-0.093
-147.574	-178.587	0.111	-0.003
-146.560	-14.986	-0.161	0.102
-145.545	127.904	-0.216	-0.269
-144.531	800.000	0.035	-0.126
-143.516	287.002	0.061	-0.109
-142.502	-38.132	-0.337	0.176
-141.487	-200.000	-0.519	0.000
-140.472	-200.000	-0.091	-0.413
-139.458	-200.000	0.010	0.312
-138.443	167.556	0.164	-0.229
-137.429	-76.800	0.117	0.040
-136.414	477.660	-0.089	0.197
-135.399	-200.000	0.023	0.107
-134.385	-104.070	-0.231	0.053
-133.370	-43.919	-0.107	-0.053
-132.356	-0.365	0.103	-0.072
-131.341	-18.089	-0.317	-0.195
-130.326	-82.323	0.196	-0.062
-129.312	-83.162	0.340	-0.108
-128.297	139.940	0.083	-0.107
-127.283	-97.367	-0.378	-0.097
-126.268	18.503	0.025	0.020
-125.253	208.507	0.209	0.321
-124.239	800.000	0.061	0.182
-123.224	800.000	0.124	0.363
-122.210	88.202	-0.147	0.160
-121.195	308.192	-0.064	-0.117
