DTS Sentinel unit serial number:	SN413079Multiplexer serial number:	ORYXHardware model number:	OX4-SRSoftware version number:	ORYX F/W v4.00 Oryx Data Collector v3.7.2.0data status	okinstallation	princeton_trtdifferential loss correction	single-endedforward channel	channel 2reverse channel	N/Adate	2019/09/17time	06:19:34forward acquisition time	60.00reverse acquisition time	0.00gamma	496.2192k internal	0.2331k external	0.2331temperature offset calibration	0.9976default loss term (dB/km)	0.3790temperature slope calibration	1.0000multiplexer offset coefficient	1.0000multiplexer slope coefficient	1.0000fibre end	0.00T internal ref (°C)	28.37T ext. ref 1 (°C)	0.13T ext. ref 2 (°C)	21.77length (m)	temperature (°C)	Stokes	anti-Stokes-747.200	800.000	-0.123	0.348
-746.185	6.705	-0.181	0.135
-745.171	-200.000	-0.440	0.002
-744.156	-27.809	0.178	-0.104
-743.142	669.532	-0.121	0.314
-742.127	2.216	0.054	0.039
-741.112	340.999	0.084	0.164
-740.098	48.472	0.185	0.174
-739.083	111.157	0.097	0.117
-738.069	333.544	-0.112	0.218
-737.054	-85.620	0.369	0.115
-736.039	26.261	0.106	0.089
-735.025	-200.000	-0.066	0.608
-734.010	-200.000	0.081	-0.374
-732.996	-200.000	-0.045	-0.309
-731.981	773.410	0.064	-0.176
-730.966	-77.711	-0.280	0.098
-729.952	-115.542	0.084	-0.016
-728.937	-134.064	-0.287	-0.036
-727.923	-135.072	0.237	-0.029
-726.908	32.140	0.184	0.160
-725.894	-61.401	-0.188	-0.080
-724.879	-200.000	0.040	0.305
-723.864	-75.127	-0.089	-0.032
-722.850	586.048	-0.011	-0.027
-721.835	-200.000	-0.018	0.303
-720.821	-91.170	0.314	-0.090
-719.806	9.473	-0.024	0.018
-718.791	341.083	0.040	-0.078
-717.777	75.152	-0.191	0.202
-716.762	800.000	0.098	-0.300
-715.748	-8.235	-0.128	0.087
-714.733	-200.000	-0.077	0.350
-713.718	9.152	0.192	0.146
-712.704	206.365	0.053	-0.084
-711.689	72.508	0.157	-0.165
-710.675	577.667	0.099	-0.244
-709.660	-1.335	0.123	0.087
-708.645	369.235	-0.056	0.113
-707.631	-46.132	0.226	0.112
-706.616	293.363	0.039	-0.072
-705.602	100.768	-0.108	-0.126
-704.587	734.635	0.093	-0.251
-703.572	-51.361	0.173	-0.081
-702.558	3.640	-0.356	-0.261
-701.543	800.000	-0.014	0.057
-700.529	217.234	0.054	-0.087
-699.514	-102.876	-0.303	0.072
-698.499	287.076	-0.073	0.132
-697.485	-200.000	0.001	0.031
-696.470	229.869	-0.120	-0.196
-695.456	-200.000	0.014	-0.092
-694.441	35.563	-0.027	0.024
-693.426	-7.159	0.124	0.084
-692.412	-166.174	-0.315	-0.013
-691.397	102.142	0.117	-0.138
-690.383	-26.801	-0.202	-0.118
-689.368	149.575	0.232	-0.315
-688.354	41.344	0.031	0.029
-687.339	-127.453	0.014	-0.002
-686.324	265.663	-0.108	-0.189
-685.310	74.700	0.161	0.170
-684.295	262.231	0.215	-0.375
-683.281	705.728	0.073	0.193
-682.266	-144.500	-0.116	-0.011
-681.251	-33.445	0.024	-0.013
-680.237	-200.000	-0.013	-0.117
-679.222	-200.000	0.012	0.093
-678.208	-62.652	-0.201	0.084
-677.193	-59.960	0.292	-0.125
-676.178	-141.297	-0.246	0.025
-675.164	-112.132	-0.255	-0.051
-674.149	267.355	0.088	0.154
-673.135	-200.000	0.050	-0.240
-672.120	-200.000	0.092	-0.459
-671.105	-49.718	-0.238	-0.114
-670.091	-22.619	0.222	-0.134
-669.076	-101.395	-0.270	0.066
-668.062	-200.000	0.151	-0.000
-667.047	71.670	0.139	-0.145
-666.032	50.595	-0.121	0.115
-665.018	-177.147	-0.137	0.003
-664.003	-200.000	-0.009	-0.241
-662.989	800.000	-0.093	-0.371
-661.974	30.010	-0.326	0.279
-660.959	15.080	0.298	0.234
-659.945	-200.000	-0.018	0.129
-658.930	800.000	0.087	0.293
-657.916	-4.133	-0.070	0.049
-656.901	44.097	-0.174	-0.160
-655.886	258.728	0.096	-0.165
-654.872	200.490	-0.040	-0.062
-653.857	-182.324	0.315	0.006
-652.843	-166.884	-0.219	-0.009
-651.828	-200.000	0.024	0.128
-650.814	4.813	-0.089	-0.065
-649.799	95.755	-0.084	0.096
-648.784	-163.991	-0.114	-0.005
-647.770	800.000	-0.075	-0.232
-646.755	800.000	0.045	-0.164
-645.741	800.000	-0.105	0.343
-644.726	-200.000	-0.004	-0.166
-643.711	-122.668	0.172	-0.028
-642.697	3.003	-0.194	-0.142
-641.682	3.903	-0.102	-0.075
-640.668	-10.105	0.022	0.014
-639.653	341.905	-0.208	0.409
-638.638	245.594	-0.075	-0.126
-637.624	131.237	0.151	-0.195
-636.609	-122.730	-0.225	0.037
-635.595	406.881	0.120	-0.254
-634.580	91.042	0.152	-0.171
-633.565	-152.256	-0.153	0.011
-632.551	35.700	0.167	0.147
-631.536	800.000	-0.047	-0.154
-630.522	186.260	0.103	-0.154
-629.507	-21.138	0.206	0.126
-628.492	131.840	-0.104	-0.134
-627.478	-200.000	0.005	-0.211
-626.463	2.485	0.253	-0.184
-625.449	-200.000	-0.007	-0.200
-624.434	-57.535	-0.230	0.101
-623.419	-34.281	0.107	-0.059
-622.405	441.039	-0.011	0.024
-621.390	-1.205	0.207	0.146
-620.376	-163.863	0.272	-0.013
-619.361	-6.393	-0.121	0.083
-618.346	413.784	0.136	0.291
-617.332	-87.332	0.318	0.096
-616.317	591.069	-0.071	-0.176
-615.303	66.833	0.148	-0.151
-614.288	31.581	-0.068	0.059
-613.273	-52.109	0.287	-0.133
-612.259	-200.000	-0.003	0.102
-611.244	-200.000	-0.005	-0.166
-610.230	-200.000	0.001	0.058
-609.215	795.649	-0.020	0.056
-608.201	-8.537	0.133	0.089
-607.186	-159.725	-0.264	-0.015
-606.171	47.232	0.249	-0.232
-605.157	-200.000	-0.020	-0.431
-604.142	29.771	0.191	-0.163
-603.128	48.660	0.340	-0.319
-602.113	-53.248	-0.221	-0.101
-601.098	-9.201	0.283	-0.189
-600.084	-33.650	-0.134	-0.074
-599.069	329.503	-0.070	-0.134
-598.055	800.000	0.086	0.246
-597.040	399.374	-0.158	0.331
-596.025	91.782	-0.388	-0.437
-595.011	16.989	-0.015	-0.012
-593.996	-200.000	-0.001	-0.246
-592.982	-102.744	-0.329	0.078
-591.967	1.096	0.123	0.089
-590.952	220.617	0.291	0.467
-589.938	800.000	-0.115	-0.362
-588.923	-60.416	-0.138	-0.059
-587.909	-141.607	-0.155	0.016
-586.894	800.000	-0.031	0.116
-585.879	-153.730	-0.330	-0.023
-584.865	10.511	-0.292	-0.223
-583.850	-178.920	-0.432	-0.010
-582.836	-69.650	0.214	-0.082
-581.821	-25.885	-0.136	0.080
-580.806	800.000	0.096	-0.321
-579.792	-42.534	0.573	0.292
-578.777	-16.796	-0.148	-0.093
-577.763	-170.522	-0.353	-0.012
-576.748	-153.612	-0.154	0.011
-575.733	-129.339	0.362	0.050
-574.719	376.626	-0.100	0.204
-573.704	26.331	-0.051	0.043
-572.690	-200.000	0.002	0.047
-571.675	-200.000	-0.045	-0.228
-570.661	-53.445	-0.298	-0.136
-569.646	-17.755	0.233	0.146
-568.631	800.000	0.036	-0.111
-567.617	335.506	0.103	-0.199
-566.602	330.350	-0.087	0.167
-565.588	18.713	-0.189	-0.151
-564.573	-118.617	0.282	-0.050
-563.558	370.403	0.179	0.362
-562.544	-105.034	-0.127	0.029
-561.529	78.253	-0.262	-0.279
-560.515	-141.099	-0.069	-0.007
-559.500	230.812	0.089	-0.145
-558.485	-67.690	-0.299	-0.117
-557.471	142.355	-0.164	0.217
-556.456	408.355	0.073	0.153
-555.442	5.636	-0.355	-0.262
-554.427	24.378	-0.108	0.090
-553.412	-200.000	-0.021	-0.136
-552.398	-113.132	0.167	-0.033
-551.383	-98.286	-0.167	-0.043
-550.369	334.858	-0.120	-0.232
-549.354	6.295	-0.054	-0.040
-548.339	-77.519	-0.231	0.080
-547.325	-47.305	0.120	-0.058
-546.310	-89.466	-0.233	-0.068
-545.296	-200.000	-0.040	0.232
-544.281	-93.776	-0.036	-0.010
-543.266	5.292	0.163	-0.120
-542.252	162.312	-0.357	0.499
-541.237	-2.392	-0.148	-0.103
-540.223	-129.622	0.205	-0.028
-539.208	80.008	0.206	-0.222
-538.193	-200.000	0.034	0.197
-537.179	800.000	-0.035	0.101
-536.164	-85.763	-0.357	0.110
-535.150	-53.083	0.199	0.091
-534.135	-200.000	-0.024	-0.142
-533.121	-57.783	0.298	0.130
-532.106	-88.063	-0.446	0.134
-531.091	-24.178	-0.048	0.029
-530.077	-19.056	0.233	0.145
-529.062	309.786	-0.019	-0.036
-528.048	185.234	0.153	0.227
-527.033	172.205	-0.110	0.159
-526.018	232.005	-0.195	-0.319
-525.004	102.555	-0.150	0.175
-523.989	-200.000	-0.011	-0.398
-522.975	-10.845	-0.198	-0.131
-521.960	-90.769	-0.306	0.088
-520.945	-81.480	0.180	-0.059
-519.931	51.015	-0.190	-0.180
-518.916	-108.619	-0.126	-0.027
-517.902	-149.324	0.255	0.020
-516.887	66.984	-0.101	0.103
-515.872	431.680	-0.101	0.218
-514.858	-200.000	-0.039	0.259
-513.843	800.000	0.118	0.426
-512.829	-9.250	0.153	-0.102
-511.814	81.004	-0.205	0.221
-510.799	122.642	0.082	-0.102
-509.785	-42.657	-0.170	0.086
-508.770	92.412	-0.111	-0.124
-507.756	-147.249	0.120	-0.010
-506.741	123.396	-0.172	0.215
-505.726	92.756	-0.128	0.144
-504.712	-129.145	0.159	-0.022
-503.697	-117.928	0.146	0.026
-502.683	-163.251	-0.485	0.023
-501.668	124.652	0.261	0.327
-500.653	728.408	0.053	0.142
-499.639	-165.259	0.312	-0.014
-498.624	-200.000	-0.002	-0.057
-497.610	-200.000	0.053	-0.233
-496.595	6.521	-0.285	0.211
-495.581	630.092	-0.130	-0.328
-494.566	-110.325	-0.212	-0.044
-493.551	50.590	-0.126	0.118
-492.537	-114.027	-0.088	0.017
-491.522	-200.000	-0.017	-0.128
-490.508	-101.065	0.355	0.087
-489.493	-111.019	-0.169	0.034
-488.478	-71.328	-0.249	-0.093
-487.464	298.083	-0.115	-0.210
-486.449	240.006	-0.014	-0.023
-485.435	14.406	0.188	-0.146
-484.420	-200.000	-0.030	0.182
-483.405	-200.000	0.023	-0.217
-482.391	28.289	-0.175	-0.147
-481.376	-119.537	0.257	0.044
-480.362	-129.014	0.154	-0.021
-479.347	-106.025	0.084	-0.019
-478.332	124.089	0.189	-0.237
-477.318	-121.345	0.067	-0.011
-476.303	-87.125	-0.227	-0.069
-475.289	161.530	0.175	-0.244
-474.274	397.688	0.072	-0.150
-473.259	579.537	-0.087	-0.213
-472.245	800.000	-0.142	-0.402
-471.230	-200.000	-0.035	-0.340
-470.216	-104.154	0.129	0.030
-469.201	-1.604	0.205	-0.144
-468.186	800.000	-0.080	-0.280
-467.172	-200.000	0.088	0.413
-466.157	-59.087	0.077	0.033
-465.143	-71.324	0.150	-0.056
-464.128	81.214	0.280	0.302
-463.113	-61.342	0.086	0.036
-462.099	20.298	-0.067	-0.054
-461.084	800.000	-0.071	-0.201
-460.070	58.787	0.214	0.209
-459.055	-75.848	-0.171	0.060
-458.040	800.000	0.038	0.137
-457.026	257.633	0.061	0.104
-456.011	-59.426	0.169	0.072
-454.997	-133.949	0.115	-0.014
-453.982	-200.000	-0.008	0.082
-452.968	-77.262	-0.357	0.124
-451.953	800.000	-0.050	-0.217
-450.938	-160.381	-0.140	-0.007
-449.924	800.000	-0.088	-0.295
-448.909	-62.068	0.357	-0.148
-447.895	-200.000	0.014	0.196
-446.880	311.504	0.032	0.061
-445.865	-132.770	0.038	0.005
-444.851	-200.000	0.028	0.201
-443.836	-117.797	0.329	-0.059
-442.822	-200.000	-0.052	-0.352
-441.807	186.385	0.086	-0.127
-440.792	642.052	-0.079	-0.200
-439.778	133.640	-0.181	-0.233
-438.763	-200.000	-0.009	-0.492
-437.749	258.169	-0.068	0.117
-436.734	-75.848	0.015	0.005
-435.719	-177.718	0.227	-0.005
-434.705	-55.836	-0.379	-0.169
-433.690	800.000	-0.088	-0.298
-432.676	69.250	-0.101	-0.104
-431.661	-94.550	0.179	0.048
-430.646	-54.494	-0.168	0.076
-429.632	-200.000	0.028	0.291
-428.617	-200.000	-0.029	0.418
-427.603	-200.000	-0.026	-0.187
-426.588	168.213	-0.052	-0.074
-425.573	-117.501	-0.291	-0.052
-424.559	39.816	0.053	-0.047
-423.544	15.960	0.181	0.141
-422.530	-102.237	-0.196	-0.047
-421.515	-107.763	0.180	-0.039
-420.500	-51.948	0.154	0.071
-419.486	226.943	0.135	0.218
-418.471	-79.160	-0.066	-0.022
-417.457	53.537	-0.035	0.033
-416.442	-139.552	-0.219	-0.023
-415.428	-200.000	-0.035	0.616
-414.413	470.223	0.226	0.504
-413.398	-1.495	-0.091	0.063
-412.384	-200.000	-0.052	0.452
-411.369	113.896	0.321	0.388
-410.355	-38.516	0.117	-0.062
-409.340	65.607	-0.069	-0.070
-408.325	-43.880	0.234	0.117
-407.311	157.152	-0.065	0.089
-406.296	105.476	0.228	-0.267
-405.282	-159.848	-0.172	0.009
-404.267	532.449	0.197	0.462
-403.252	800.000	-0.085	-0.309
-402.238	-102.764	0.174	-0.041
-401.223	268.528	0.067	-0.117
-400.209	-200.000	0.016	-0.241
-399.194	261.562	-0.070	0.121
-398.179	330.522	-0.019	-0.037
-397.165	-82.151	0.327	-0.106
-396.150	-200.000	0.070	-0.463
-395.136	-162.632	0.024	-0.001
-394.121	-24.406	0.261	0.154
-393.106	-0.210	-0.242	0.171
-392.092	25.901	0.238	0.197
-391.077	-73.116	-0.243	-0.088
-390.063	-93.610	0.258	-0.071
-389.048	-131.057	0.076	0.010
-388.033	-6.454	0.075	-0.051
-387.019	800.000	-0.044	0.135
-386.004	364.552	0.035	-0.070
-384.990	169.139	-0.193	0.274
-383.975	-17.980	0.199	-0.124
-382.960	-200.000	0.051	-0.452
-381.946	-78.937	-0.088	0.030
-380.931	-200.000	0.040	-0.333
-379.917	-77.736	0.209	-0.072
-378.902	-167.662	-0.396	0.016
-377.888	-200.000	-0.014	0.497
-376.873	720.422	0.013	0.035
-375.858	-126.542	-0.123	-0.018
-374.844	-59.848	0.162	-0.069
-373.829	800.000	-0.078	0.314
-372.815	-200.000	-0.002	-0.236
-371.800	-99.923	0.206	-0.051
-370.785	248.683	-0.135	-0.227
-369.771	-200.000	-0.003	-0.160
-368.756	101.585	0.024	0.028
-367.742	-28.059	0.383	0.220
-366.727	-200.000	-0.032	0.309
-365.712	-92.991	0.290	-0.080
-364.698	-179.291	0.176	0.004
-363.683	-131.836	0.046	0.006
-362.669	83.396	0.078	0.084
-361.654	85.577	-0.127	-0.138
-360.639	27.897	-0.088	0.074
-359.625	-131.567	0.160	0.021
-358.610	-200.000	0.051	0.321
-357.596	800.000	-0.113	-0.361
-356.581	-69.818	0.150	0.057
-355.566	109.889	-0.245	0.291
-354.552	-82.924	-0.327	-0.105
-353.537	13.290	0.173	-0.133
-352.523	243.132	0.086	0.142
-351.508	-10.850	0.131	0.086
-350.493	-35.757	0.098	-0.053
-349.479	543.806	-0.187	-0.443
-348.464	-83.114	0.145	-0.046
-347.450	800.000	-0.017	0.046
-346.435	-49.836	0.210	-0.099
-345.420	-198.888	-0.174	-0.001
-344.406	112.313	0.143	0.171
-343.391	19.842	0.129	-0.103
-342.377	-200.000	-0.002	-0.250
-341.362	138.258	-0.224	-0.291
-340.348	281.451	-0.103	0.183
-339.333	-200.000	-0.001	0.225
-338.318	24.029	0.160	0.131
-337.304	57.297	-0.239	-0.231
-336.289	-170.703	0.212	-0.007
-335.275	-135.337	0.099	-0.012
-334.260	-58.568	-0.187	0.081
-333.245	-32.307	-0.334	0.185
-332.231	-14.713	-0.262	0.166
-331.216	-200.000	-0.038	0.301
-330.202	-152.529	0.267	-0.019
-329.187	55.701	0.299	-0.287
-328.172	-166.224	-0.167	0.007
-327.158	-104.557	-0.082	-0.019
-326.143	20.436	0.207	0.166
-325.129	-192.867	0.106	-0.001
-324.114	89.299	-0.232	-0.256
-323.099	-200.000	0.014	-0.253
-322.085	800.000	-0.019	0.076
-321.070	150.581	-0.139	0.187
-320.056	800.000	-0.118	0.380
-319.041	-14.220	0.078	-0.050
-318.026	-200.000	0.055	0.281
-317.012	800.000	0.053	0.217
-315.997	-92.682	-0.233	0.065
-314.983	353.758	-0.095	-0.187
-313.968	-15.788	0.285	0.180
-312.953	221.775	-0.077	0.122
-311.939	10.277	-0.301	-0.227
-310.924	286.980	0.158	0.283
-309.910	415.598	-0.220	0.464
-308.895	321.441	0.096	0.181
-307.880	25.441	0.108	-0.089
-306.866	-121.152	0.064	-0.011
-305.851	339.508	0.086	0.166
-304.837	-75.011	0.087	0.031
-303.822	246.709	-0.123	-0.206
-302.807	150.988	0.090	0.121
-301.793	393.106	0.078	0.160
-300.778	352.191	0.120	0.236
-299.764	-200.000	-0.020	0.131
-298.749	95.926	-0.242	0.274
-297.735	-200.000	-0.008	-0.103
-296.720	-132.856	0.441	-0.056
-295.705	800.000	0.114	0.327
-294.691	-167.716	-0.154	0.006
-293.676	177.141	-0.073	-0.105
-292.662	800.000	0.037	-0.152
-291.647	43.772	0.200	0.181
-290.632	-48.210	0.165	0.079
-289.618	15.110	0.215	-0.167
-288.603	-148.836	-0.171	-0.014
-287.589	-67.001	0.290	0.113
-286.574	62.462	0.170	0.168
-285.559	-127.347	0.283	0.041
-284.545	39.506	-0.202	0.179
-283.530	-119.579	-0.154	0.026
-282.516	30.429	-0.096	0.081
-281.501	-200.000	0.015	-0.088
-280.486	-200.000	-0.042	-0.298
-279.472	-152.362	-0.091	-0.007
-278.457	-168.148	-0.249	-0.010
-277.443	95.879	-0.053	-0.060
-276.428	182.949	0.260	0.379
-275.413	428.722	-0.155	0.331
-274.399	356.479	0.196	0.385
-273.384	-46.286	0.076	0.037
-272.370	195.202	0.218	-0.327
-271.355	139.494	-0.208	-0.270
-270.340	800.000	0.105	-0.366
-269.326	-63.221	-0.348	-0.142
-268.311	-151.170	0.159	-0.012
-267.297	328.162	0.131	0.249
-266.282	247.925	-0.082	-0.137
-265.267	290.847	0.183	0.329
-264.253	7.643	-0.190	-0.140
-263.238	-177.529	-0.220	-0.005
-262.224	-138.514	-0.169	-0.018
-261.209	800.000	0.052	-0.217
-260.195	-48.158	0.237	-0.113
-259.180	255.373	-0.051	-0.086
-258.165	-200.000	0.156	0.000
-257.151	-80.177	0.098	-0.032
-256.136	-200.000	-0.020	-0.235
-255.122	-40.321	0.164	-0.084
-254.107	-121.244	-0.110	-0.018
-253.092	800.000	0.044	0.174
-252.078	-200.000	0.001	-0.097
-251.063	-66.412	-0.152	0.060
-250.049	382.842	-0.126	-0.256
-249.034	-200.000	-0.004	0.128
-248.019	146.079	0.372	0.492
-247.005	-155.684	0.068	-0.004
-245.990	54.550	0.093	0.088
-244.976	-91.851	-0.065	-0.018
-243.961	437.359	0.114	0.244
-242.946	268.770	0.080	-0.139
-241.932	10.035	-0.264	0.198
-240.917	631.432	0.087	0.218
-239.903	-200.000	0.048	0.398
-238.888	-134.758	0.114	0.014
-237.873	18.017	-0.107	-0.084
-236.859	-96.049	0.295	-0.077
-235.844	25.391	0.135	-0.111
-234.830	7.922	0.030	-0.022
-233.815	308.906	-0.133	0.246
-232.800	113.479	0.220	0.264
-231.786	-22.989	-0.137	0.081
-230.771	-81.678	-0.162	-0.052
-229.757	-32.650	0.201	0.111
-228.742	-18.411	0.168	0.103
-227.727	-124.803	0.318	-0.048
-226.713	-142.234	0.114	-0.011
-225.698	411.690	-0.066	-0.138
-224.684	-45.784	0.102	0.050
-223.669	-147.853	0.271	0.022
-222.655	265.341	-0.038	0.065
-221.640	800.000	0.073	-0.272
-220.625	-133.307	0.133	-0.017
-219.611	-200.000	-0.048	0.246
-218.596	-40.987	-0.226	0.115
-217.582	-200.000	0.009	0.089
-216.567	178.196	-0.086	0.124
-215.552	-161.683	-0.458	0.023
-214.538	-200.000	-0.038	-0.339
-213.523	10.586	-0.122	0.092
-212.509	-152.609	0.389	-0.027
-211.494	-117.420	-0.154	-0.027
-210.479	241.199	0.043	0.070
-209.465	89.150	-0.270	0.296
-208.450	12.425	-0.172	-0.130
-207.436	235.579	-0.130	0.212
-206.421	70.625	-0.130	0.132
-205.406	6.388	-0.211	-0.154
-204.392	-200.000	0.034	-0.188
-203.377	39.532	-0.108	0.096
-202.363	26.377	-0.156	-0.128
-201.348	199.821	-0.111	-0.168
-200.333	410.380	0.056	0.116
-199.319	-86.085	0.160	0.049
-198.304	214.835	-0.133	0.207
-197.290	45.059	0.121	0.110
-196.275	30.205	-0.062	-0.052
-195.260	9.069	0.099	-0.074
-194.246	297.052	-0.199	-0.360
-193.231	119.402	-0.160	-0.195
-192.217	800.000	0.034	0.144
-191.202	-151.024	-0.323	0.024
-190.187	-200.000	0.005	-0.171
-189.173	-200.000	-0.015	-0.174
-188.158	-120.329	-0.176	-0.029
-187.144	-56.245	0.161	0.071
-186.129	152.013	-0.104	-0.140
-185.114	-20.714	0.181	-0.110
-184.100	275.869	0.093	-0.163
-183.085	800.000	-0.081	-0.316
-182.071	-200.000	0.009	-0.087
-181.056	164.026	-0.075	0.105
-180.042	-200.000	0.020	-0.168
-179.027	131.360	0.088	0.111
-178.012	-8.133	-0.135	-0.090
-176.998	629.579	-0.115	-0.286
-175.983	800.000	0.070	0.274
-174.969	113.311	-0.230	0.275
-173.954	194.822	0.251	-0.375
-172.939	453.866	-0.168	0.366
-171.925	-176.101	0.365	-0.009
-170.910	-200.000	0.017	-0.510
-169.896	608.389	0.015	0.038
-168.881	800.000	-0.083	0.230
-167.866	313.490	-0.107	0.198
-166.852	41.222	-0.097	0.086
-165.837	50.424	0.135	0.126
-164.823	-200.000	-0.004	-0.186
-163.808	800.000	-0.002	0.008
-162.793	-109.145	-0.181	0.038
-161.779	663.082	-0.137	-0.347
-160.764	-34.292	0.465	-0.251
-159.750	-24.578	-0.131	-0.076
-158.735	800.000	-0.068	0.226
-157.720	34.262	0.109	-0.093
-156.706	-200.000	-0.001	-0.279
-155.691	-127.935	-0.201	0.028
-154.677	82.277	-0.115	0.122
-153.662	-87.725	0.287	-0.085
-152.647	-200.000	-0.042	0.187
-151.633	-200.000	0.063	0.327
-150.618	-37.727	-0.345	0.180
-149.604	666.626	-0.045	0.114
-148.589	69.626	-0.180	0.182
-147.574	-68.790	0.178	0.067
-146.560	800.000	-0.020	0.060
-145.545	327.991	-0.028	0.052
-144.531	286.700	-0.120	0.212
-143.516	-26.991	-0.079	0.045
-142.502	64.669	-0.058	0.057
-141.487	-200.000	0.036	0.220
-140.472	283.972	0.051	0.091
-139.458	-38.532	-0.265	-0.137
-138.443	-143.634	-0.031	0.003
-137.429	45.370	0.073	0.066
-136.414	-171.819	-0.228	-0.007
-135.399	-96.541	0.174	0.045
-134.385	-148.291	0.296	0.024
-133.370	-80.118	0.176	-0.058
-132.356	-200.000	-0.010	0.110
-131.341	-200.000	-0.033	-0.160
-130.326	-37.611	-0.230	0.120
-129.312	169.453	-0.259	0.363
-128.297	25.627	0.101	0.083
-127.283	-43.030	-0.243	0.121
-126.268	-10.388	0.168	0.109
-125.253	-5.985	0.275	0.185
-124.239	-200.000	-0.011	-0.275
-123.224	-200.000	0.002	-0.246
-122.210	-83.812	0.088	0.028
-121.195	-138.884	0.207	0.022
