DTS Sentinel unit serial number:	SN413079Multiplexer serial number:	ORYXHardware model number:	OX4-SRSoftware version number:	ORYX F/W v4.00 Oryx Data Collector v3.7.2.0data status	okinstallation	princeton_trtdifferential loss correction	single-endedforward channel	channel 2reverse channel	N/Adate	2019/09/14time	22:03:35forward acquisition time	60.00reverse acquisition time	0.00gamma	496.2192k internal	0.2324k external	0.2324temperature offset calibration	1.0064default loss term (dB/km)	0.3790temperature slope calibration	1.0000multiplexer offset coefficient	1.0000multiplexer slope coefficient	1.0000fibre end	0.00T internal ref (°C)	32.69T ext. ref 1 (°C)	4.71T ext. ref 2 (°C)	27.65length (m)	temperature (°C)	Stokes	anti-Stokes-747.200	270.760	-0.131	0.233
-746.185	-38.531	-0.068	0.036
-745.171	-7.956	-0.260	0.177
-744.156	-200.000	0.061	0.303
-743.142	-78.519	-0.353	-0.122
-742.127	169.096	-0.177	0.256
-741.112	-52.450	0.107	-0.050
-740.098	273.343	-0.068	0.122
-739.083	570.881	-0.065	-0.159
-738.069	-200.000	-0.056	0.304
-737.054	-200.000	-0.030	-0.251
-736.039	64.914	-0.129	-0.131
-735.025	800.000	-0.018	-0.075
-734.010	679.596	-0.033	-0.087
-732.996	-160.508	-0.339	0.018
-731.981	-106.044	0.272	-0.062
-730.966	-121.812	-0.166	0.028
-729.952	-32.980	0.299	-0.168
-728.937	103.944	-0.048	0.057
-727.923	57.813	-0.118	0.117
-726.908	-171.069	0.431	0.015
-725.894	-117.802	-0.216	0.039
-724.879	-34.603	0.168	0.093
-723.864	78.124	-0.147	-0.158
-722.850	800.000	-0.173	0.518
-721.835	4.319	0.143	-0.106
-720.821	577.913	0.045	0.111
-719.806	-179.609	-0.224	0.005
-718.791	-200.000	-0.003	-0.137
-717.777	-153.142	-0.075	-0.005
-716.762	800.000	0.039	-0.158
-715.748	-77.020	-0.067	-0.024
-714.733	71.802	-0.445	-0.467
-713.718	800.000	0.053	0.203
-712.704	67.311	-0.049	0.050
-711.689	283.653	-0.038	0.070
-710.675	244.982	-0.111	-0.189
-709.660	-150.029	-0.510	-0.040
-708.645	-94.792	0.269	-0.073
-707.631	384.997	-0.155	-0.323
-706.616	-200.000	0.032	-0.167
-705.602	-82.808	0.197	0.064
-704.587	-200.000	-0.028	-0.270
-703.572	-200.000	-0.012	-0.099
-702.558	185.770	0.083	0.124
-701.543	41.129	-0.303	-0.276
-700.529	-165.268	-0.092	-0.004
-699.514	800.000	-0.049	0.197
-698.499	-104.205	-0.291	0.068
-697.485	-151.312	-0.217	0.016
-696.470	800.000	0.020	-0.081
-695.456	-200.000	-0.034	0.257
-694.441	172.571	0.171	-0.247
-693.426	-144.302	0.098	-0.009
-692.412	4.471	0.209	0.155
-691.397	-9.179	-0.334	0.225
-690.383	-42.720	-0.022	-0.011
-689.368	638.789	0.096	-0.247
-688.354	85.776	0.102	0.112
-687.339	379.789	0.049	0.100
-686.324	293.567	-0.110	0.202
-685.310	800.000	0.068	0.269
-684.295	-200.000	0.016	-0.077
-683.281	-156.980	0.045	-0.003
-682.266	-14.603	-0.171	0.111
-681.251	800.000	-0.088	0.317
-680.237	24.734	0.328	0.274
-679.222	264.844	0.111	0.195
-678.208	257.853	-0.143	0.248
-677.193	-200.000	-0.023	-0.116
-676.178	-52.647	-0.213	-0.099
-675.164	-102.315	-0.269	-0.065
-674.149	147.643	-0.326	-0.442
-673.135	-54.471	-0.309	-0.141
-672.120	83.263	-0.318	-0.349
-671.105	-123.151	0.309	-0.050
-670.091	800.000	0.103	-0.298
-669.076	724.872	-0.013	-0.034
-668.062	35.322	0.013	0.012
-667.047	800.000	-0.072	0.220
-666.032	-26.502	0.214	0.126
-665.018	362.269	-0.085	0.172
-664.003	13.071	-0.260	-0.202
-662.989	30.417	-0.145	0.125
-661.974	68.314	0.209	-0.215
-660.959	-200.000	-0.035	0.178
-659.945	-25.312	-0.241	0.143
-658.930	-200.000	-0.025	0.135
-657.916	-200.000	0.025	-0.409
-656.901	33.208	0.195	0.170
-655.886	-95.635	-0.104	0.028
-654.872	-90.633	0.157	-0.046
-653.857	-105.635	0.216	0.049
-652.843	150.074	-0.206	0.282
-651.828	60.591	-0.029	-0.029
-650.814	103.146	0.203	-0.240
-649.799	176.859	-0.083	-0.122
-648.784	-200.000	-0.072	-0.366
-647.770	-200.000	-0.044	-0.500
-646.755	76.769	0.151	-0.161
-645.741	-129.173	0.204	0.029
-644.726	129.758	0.129	0.166
-643.711	800.000	-0.032	-0.100
-642.697	-166.283	-0.077	0.003
-641.682	205.172	-0.189	0.294
-640.668	-200.000	-0.026	-0.191
-639.653	800.000	0.032	0.137
-638.638	-200.000	0.008	-0.132
-637.624	-200.000	-0.038	0.301
-636.609	-97.601	0.096	-0.025
-635.595	-200.000	0.038	0.223
-634.580	-45.465	0.154	-0.077
-633.565	419.671	-0.023	0.049
-632.551	185.106	-0.112	0.168
-631.536	74.782	0.094	-0.099
-630.522	-57.672	-0.215	0.095
-629.507	770.653	0.081	-0.223
-628.492	-142.285	-0.164	-0.016
-627.478	73.082	0.122	-0.129
-626.463	-30.648	-0.305	-0.173
-625.449	-58.267	0.189	-0.083
-624.434	53.031	-0.130	-0.125
-623.419	319.828	0.110	0.209
-622.405	-35.557	-0.237	0.129
-621.390	800.000	0.064	-0.191
-620.376	-51.821	-0.252	-0.118
-619.361	261.895	-0.106	-0.185
-618.346	128.247	-0.143	0.183
-617.332	-30.462	0.146	-0.083
-616.317	-135.408	-0.064	0.008
-615.303	178.001	-0.180	-0.264
-614.288	138.568	-0.262	-0.346
-613.273	-174.199	0.104	-0.003
-612.259	25.782	0.166	0.139
-611.244	-50.503	-0.190	0.090
-610.230	800.000	0.019	-0.069
-609.215	-109.998	-0.200	0.042
-608.201	363.681	-0.074	0.149
-607.186	-118.528	0.156	0.028
-606.171	-148.127	-0.175	0.015
-605.157	61.205	0.241	0.241
-604.142	800.000	-0.096	-0.380
-603.128	503.065	-0.166	-0.386
-602.113	-106.264	-0.105	-0.024
-601.098	-21.475	-0.149	0.091
-600.084	332.748	0.059	-0.115
-599.069	-4.476	0.296	0.205
-598.055	-49.391	0.113	0.054
-597.040	176.954	0.121	-0.177
-596.025	194.993	0.179	-0.272
-595.011	-11.569	-0.263	-0.174
-593.996	-184.648	0.286	0.005
-592.982	-130.585	0.183	-0.025
-591.967	-96.978	0.311	0.082
-590.952	-200.000	0.045	0.255
-589.938	196.694	-0.132	0.202
-588.923	-3.253	0.211	0.147
-587.909	-14.521	0.197	0.127
-586.894	-133.321	-0.622	0.079
-585.879	-174.516	-0.331	0.010
-584.865	800.000	-0.026	0.076
-583.850	-200.000	0.035	0.237
-582.836	-15.850	-0.242	-0.155
-581.821	-98.949	0.393	0.100
-580.806	64.031	0.112	0.113
-579.792	199.143	-0.071	-0.109
-578.777	121.938	-0.079	0.098
-577.763	-129.563	0.350	0.049
-576.748	556.640	0.013	0.033
-575.733	340.029	0.218	-0.426
-574.719	-111.614	0.247	0.050
-573.704	800.000	0.039	0.143
-572.690	-27.956	-0.164	0.095
-571.675	4.808	0.321	-0.237
-570.661	-151.483	0.212	-0.016
-569.646	-167.477	0.406	-0.016
-568.631	-200.000	-0.008	-0.235
-567.617	281.279	-0.068	-0.122
-566.602	-200.000	-0.047	-0.313
-565.588	-1.610	0.113	0.080
-564.573	730.388	-0.075	0.200
-563.558	605.982	-0.015	-0.036
-562.544	-200.000	0.001	-0.238
-561.529	800.000	-0.069	-0.214
-560.515	-138.907	-0.485	0.053
-559.500	-200.000	0.019	-0.299
-558.485	-111.696	-0.255	-0.052
-557.471	146.080	0.161	0.217
-556.456	59.418	-0.008	-0.008
-555.442	-152.142	0.206	0.015
-554.427	58.203	0.169	-0.166
-553.412	88.717	0.119	-0.132
-552.398	800.000	0.107	-0.341
-551.383	680.045	-0.037	-0.097
-550.369	-73.919	-0.204	-0.074
-549.354	-200.000	-0.007	0.140
-548.339	76.526	0.179	0.190
-547.325	-130.807	0.328	0.044
-546.310	83.656	-0.010	-0.011
-545.296	-10.275	-0.295	-0.196
-544.281	19.233	-0.282	-0.227
-543.266	-200.000	-0.006	-0.064
-542.252	-200.000	0.000	0.073
-541.237	203.560	0.282	0.436
-540.223	234.594	0.063	0.105
-539.208	-158.727	-0.307	-0.018
-538.193	377.581	0.082	-0.167
-537.179	-117.987	-0.194	0.035
-536.164	-35.688	-0.150	-0.081
-535.150	166.987	0.181	-0.257
-534.135	57.789	-0.316	-0.309
-533.121	26.652	0.064	-0.054
-532.106	-200.000	-0.052	0.257
-531.091	-6.217	0.092	-0.063
-530.077	-115.863	-0.138	0.026
-529.062	-22.070	-0.251	0.152
-528.048	303.435	-0.092	-0.170
-527.033	10.933	-0.428	0.327
-526.018	-16.546	0.148	-0.094
-525.004	582.122	0.106	-0.259
-523.989	141.758	-0.147	-0.195
-522.975	800.000	-0.076	-0.258
-521.960	579.887	0.016	-0.038
-520.945	-94.590	-0.098	0.027
-519.931	-170.521	-0.410	-0.014
-518.916	-122.523	0.152	0.025
-517.902	-49.413	-0.078	0.037
-516.887	-200.000	-0.033	-0.304
-515.872	-38.975	-0.111	0.058
-514.858	-26.507	-0.091	-0.053
-513.843	-85.432	-0.057	-0.018
-512.829	113.240	-0.457	0.555
-511.814	21.181	-0.090	-0.073
-510.799	-135.692	-0.273	0.032
-509.785	74.887	0.138	0.146
-508.770	-30.384	0.122	-0.069
-507.756	14.173	-0.209	0.163
-506.741	-56.197	-0.176	0.078
-505.726	101.022	0.102	-0.119
-504.712	800.000	-0.139	0.452
-503.697	-3.251	-0.469	-0.327
-502.683	800.000	-0.039	-0.155
-501.668	204.904	0.114	-0.176
-500.653	10.496	-0.123	0.094
-499.639	-123.440	0.342	0.055
-498.624	84.079	-0.154	0.168
-497.610	211.756	-0.085	0.134
-496.595	-65.844	-0.224	-0.089
-495.581	-155.819	-0.327	0.021
-494.566	240.653	0.161	-0.269
-493.551	800.000	0.043	0.137
-492.537	-61.775	0.113	-0.047
-491.522	-68.049	-0.111	0.043
-490.508	-145.982	0.120	-0.011
-489.493	-65.976	0.150	0.060
-488.478	59.260	-0.257	0.253
-487.464	-99.893	-0.219	-0.055
-486.449	304.826	0.066	0.122
-485.435	163.002	0.076	-0.107
-484.420	405.206	-0.049	0.103
-483.405	800.000	0.012	-0.037
-482.391	-57.875	0.219	-0.096
-481.376	-109.267	-0.118	0.025
-480.362	-37.285	-0.289	0.154
-479.347	-17.776	-0.249	-0.156
-478.332	800.000	-0.043	-0.182
-477.318	-74.061	-0.014	-0.005
-476.303	144.558	0.148	0.198
-475.289	4.343	-0.162	0.119
-474.274	-147.279	0.246	0.021
-473.259	-200.000	-0.040	-0.540
-472.245	297.663	-0.024	-0.044
-471.230	333.091	-0.121	-0.234
-470.216	373.345	0.075	-0.152
-469.201	800.000	-0.070	0.288
-468.186	69.748	-0.078	-0.080
-467.172	211.660	0.168	-0.263
-466.157	-87.987	0.111	-0.033
-465.143	-92.693	0.402	0.112
-464.128	-200.000	-0.043	0.376
-463.113	68.818	-0.285	0.293
-462.099	785.496	0.165	-0.452
-461.084	-101.588	0.209	-0.051
-460.070	115.075	-0.260	-0.316
-459.055	-104.802	0.121	0.028
-458.040	264.086	0.136	-0.236
-457.026	-95.008	0.312	0.084
-456.011	800.000	0.018	0.062
-454.997	70.707	0.124	0.129
-453.982	-150.537	0.456	-0.035
-452.968	800.000	-0.023	0.082
-451.953	-86.104	-0.084	0.026
-450.938	800.000	0.138	0.419
-449.924	800.000	-0.057	0.189
-448.909	118.907	0.156	-0.193
-447.895	78.974	0.068	-0.073
-446.880	85.835	-0.099	-0.109
-445.865	140.299	0.132	0.174
-444.851	-200.000	-0.013	-0.071
-443.836	140.699	0.169	-0.223
-442.822	78.998	0.138	0.148
-441.807	153.385	0.182	-0.249
-440.792	113.760	0.044	-0.053
-439.778	674.034	-0.122	0.316
-438.763	-194.038	-0.297	0.002
-437.749	-48.103	0.120	0.058
-436.734	-149.425	-0.196	0.016
-435.719	168.620	-0.191	0.272
-434.705	-134.522	0.181	0.022
-433.690	800.000	-0.109	-0.313
-432.676	-200.000	-0.037	-0.199
-431.661	-46.403	0.097	0.047
-430.646	-200.000	0.067	0.342
-429.632	-42.215	-0.292	0.149
-428.617	46.844	-0.106	0.099
-427.603	-200.000	-0.188	-0.001
-426.588	-33.023	-0.181	0.100
-425.573	-43.056	0.177	-0.090
-424.559	46.435	-0.202	0.187
-423.544	566.910	0.034	-0.083
-422.530	-81.562	0.101	-0.033
-421.515	-2.414	-0.058	-0.041
-420.500	31.506	-0.170	-0.145
-419.486	56.679	0.131	0.128
-418.471	-61.760	0.219	0.092
-417.457	-60.731	-0.375	-0.158
-416.442	113.184	-0.210	-0.253
-415.428	-152.948	-0.255	0.018
-414.413	319.174	0.187	0.352
-413.398	-200.000	-0.011	-0.416
-412.384	14.690	0.165	-0.129
-411.369	-92.144	-0.321	-0.090
-410.355	-18.224	0.129	-0.081
-409.340	-139.757	-0.222	0.023
-408.325	413.073	-0.076	0.160
-407.311	-95.004	0.056	-0.015
-406.296	190.255	-0.178	0.266
-405.282	-0.087	-0.117	-0.083
-404.267	302.092	-0.097	0.178
-403.252	488.370	0.088	0.201
-402.238	28.572	-0.101	0.085
-401.223	-115.543	0.517	-0.097
-400.209	800.000	0.008	0.032
-399.194	800.000	-0.023	-0.082
-398.179	-189.204	0.308	0.004
-397.165	-84.718	-0.184	-0.058
-396.150	-200.000	0.073	0.357
-395.136	-23.746	0.188	0.112
-394.121	55.247	-0.054	0.052
-393.106	-68.828	-0.124	0.048
-392.092	-55.222	0.165	0.074
-391.077	800.000	0.033	0.113
-390.063	18.069	0.181	0.143
-389.048	-99.438	-0.168	-0.042
-388.033	-117.819	0.317	0.057
-387.019	-200.000	0.056	0.377
-386.004	302.423	0.064	0.118
-384.990	800.000	-0.057	0.194
-383.975	191.387	-0.088	-0.132
-382.960	95.063	0.156	0.177
-381.946	-200.000	0.005	0.158
-380.931	14.522	-0.225	0.175
-379.917	-200.000	-0.031	-0.292
-378.902	608.932	0.088	0.220
-377.888	198.349	-0.159	0.243
-376.873	-121.732	-0.067	0.011
-375.858	-88.691	-0.182	0.054
-374.844	22.982	-0.160	0.131
-373.829	-192.666	-0.396	-0.004
-372.815	-75.715	-0.115	0.041
-371.800	592.699	-0.120	0.296
-370.785	17.609	-0.157	0.124
-369.771	40.400	0.216	0.194
-368.756	149.106	0.132	-0.177
-367.742	-53.315	0.331	0.151
-366.727	-84.414	0.296	0.093
-365.712	153.573	0.157	0.214
-364.698	94.000	0.084	0.095
-363.683	-200.000	-0.030	-0.140
-362.669	454.899	0.073	0.160
-361.654	-7.512	0.013	-0.009
-360.639	3.786	-0.500	-0.363
-359.625	-113.364	0.360	0.070
-358.610	478.011	0.086	0.193
-357.596	-200.000	0.017	-0.091
-356.581	-186.214	0.268	0.004
-355.566	761.851	-0.030	0.080
-354.552	-25.769	0.180	0.105
-353.537	-200.000	-0.044	0.228
-352.523	417.046	0.050	0.105
-351.508	-126.429	0.088	-0.013
-350.493	48.801	-0.144	-0.134
-349.479	-36.408	0.376	-0.201
-348.464	800.000	0.067	0.218
-347.450	-200.000	0.066	-0.399
-346.435	664.603	-0.042	-0.109
-345.420	800.000	-0.055	0.237
-344.406	-200.000	0.016	-0.122
-343.391	-77.302	-0.130	-0.045
-342.377	-129.035	0.249	-0.035
-341.362	367.273	-0.144	-0.290
-340.348	32.922	0.240	-0.207
-339.333	126.106	-0.035	-0.045
-338.318	152.007	0.094	-0.128
-337.304	-200.000	0.012	0.113
-336.289	169.816	-0.065	-0.093
-335.275	-144.038	-0.063	0.006
-334.260	371.624	-0.164	-0.331
-333.245	-15.260	0.048	-0.031
-332.231	610.425	0.192	-0.478
-331.216	-200.000	0.027	0.149
-330.202	137.951	-0.252	0.328
-329.187	-98.000	0.061	-0.016
-328.172	-6.030	0.305	-0.207
-327.158	-200.000	-0.049	-0.251
-326.143	64.908	-0.202	0.203
-325.129	-19.699	-0.124	-0.076
-324.114	-200.000	0.024	0.313
-323.099	8.130	0.150	0.112
-322.085	59.086	-0.120	-0.117
-321.070	343.152	0.186	-0.362
-320.056	-51.911	0.093	-0.043
-319.041	208.625	-0.171	-0.265
-318.026	800.000	-0.019	-0.078
-317.012	-157.706	-0.478	0.028
-315.997	-66.594	0.177	-0.070
-314.983	-32.079	0.369	0.205
-313.968	-161.768	-0.170	-0.009
-312.953	427.531	0.156	0.335
-311.939	-200.000	-0.029	-0.177
-310.924	33.292	0.327	0.282
-309.910	-84.197	-0.270	-0.085
-308.895	709.197	0.047	-0.123
-307.880	-64.253	-0.155	-0.063
-306.866	-100.638	-0.282	-0.069
-305.851	194.821	0.026	-0.040
-304.837	-200.000	0.013	0.244
-303.822	6.748	0.097	-0.071
-302.807	-122.397	-0.398	0.064
-301.793	423.319	-0.108	0.230
-300.778	-22.415	0.101	-0.061
-299.764	-82.897	-0.363	0.116
-298.749	-99.424	0.278	-0.069
-297.735	22.855	0.066	-0.054
-296.720	-140.336	0.064	-0.007
-295.705	-140.461	-0.207	0.021
-294.691	136.996	-0.201	-0.261
-293.676	308.702	0.106	-0.196
-292.662	-200.000	-0.004	0.279
-291.647	722.706	-0.029	0.075
-290.632	-115.596	-0.129	0.024
-289.618	-170.628	0.130	0.004
-288.603	169.609	0.056	0.080
-287.589	-12.868	-0.132	-0.086
-286.574	66.716	0.109	-0.110
-285.559	-200.000	0.022	-0.137
-284.545	16.441	-0.097	0.076
-283.530	-109.493	-0.088	-0.018
-282.516	-61.765	0.137	0.057
-281.501	192.262	0.050	-0.075
-280.486	-200.000	-0.018	0.083
-279.472	800.000	0.077	0.288
-278.457	-4.060	0.165	0.113
-277.443	-149.300	0.304	-0.024
-276.428	-22.952	0.030	-0.018
-275.413	-47.206	-0.128	0.062
-274.399	-163.397	0.422	0.020
-273.384	5.492	0.142	0.104
-272.370	-52.805	0.113	-0.052
-271.355	449.154	0.091	-0.200
-270.340	205.058	-0.171	-0.263
-269.326	80.195	0.230	0.245
-268.311	-29.398	-0.245	0.139
-267.297	800.000	-0.047	0.190
-266.282	247.897	-0.074	-0.124
-265.267	8.641	0.108	-0.081
-264.253	-200.000	0.027	-0.144
-263.238	800.000	-0.056	-0.237
-262.224	7.530	-0.402	-0.298
-261.209	39.997	0.264	-0.235
-260.195	-70.322	-0.108	0.040
-259.180	714.152	0.012	-0.031
-258.165	428.828	0.075	-0.160
-257.151	672.943	-0.080	-0.204
-256.136	-91.823	-0.384	0.108
-255.122	53.516	0.094	-0.089
-254.107	-200.000	-0.056	0.296
-253.092	-141.467	0.490	0.049
-252.078	-133.272	0.095	-0.012
-251.063	356.576	-0.044	-0.087
-250.049	93.048	0.088	-0.098
-249.034	800.000	0.072	-0.231
-248.019	-29.213	-0.312	0.177
-247.005	-200.000	-0.042	0.489
-245.990	-40.165	0.068	0.035
-244.976	-60.173	-0.149	0.063
-243.961	3.716	-0.270	-0.195
-242.946	-49.572	-0.167	-0.079
-241.932	92.785	-0.108	-0.120
-240.917	-200.000	-0.013	0.222
-239.903	-109.673	0.158	0.033
-238.888	-200.000	-0.006	0.087
-237.873	-132.348	0.038	-0.005
-236.859	-197.345	0.169	0.001
-235.844	-1.914	-0.093	0.065
-234.830	-128.333	-0.156	-0.022
-233.815	-138.140	-0.134	0.015
-232.800	-76.325	-0.143	0.050
-231.786	800.000	-0.137	-0.394
-230.771	-119.175	0.131	0.023
-229.757	34.086	0.339	-0.292
-228.742	64.451	0.116	0.116
-227.727	72.873	0.110	0.114
-226.713	77.087	-0.269	0.283
-225.698	-34.686	-0.088	-0.048
-224.684	-127.105	0.216	-0.031
-223.669	-106.183	0.095	0.021
-222.655	198.679	0.085	-0.129
-221.640	-173.524	0.122	0.004
-220.625	-200.000	-0.015	0.209
-219.611	148.509	0.218	-0.291
-218.596	353.007	-0.186	-0.365
-217.582	216.101	-0.057	0.089
-216.567	800.000	-0.067	0.269
-215.552	-200.000	0.016	0.258
-214.538	-200.000	0.041	0.199
-213.523	-6.860	0.371	0.250
-212.509	-7.268	0.088	0.059
-211.494	-47.619	-0.093	-0.045
-210.479	118.873	0.003	0.004
-209.465	-147.296	0.064	-0.005
-208.450	-120.116	-0.391	0.066
-207.436	-40.713	-0.048	0.025
-206.421	-88.728	-0.147	-0.043
-205.406	110.347	0.163	0.193
-204.392	84.729	-0.071	-0.077
-203.377	-200.000	-0.042	-0.306
-202.363	-35.168	0.249	0.134
-201.348	124.316	0.102	-0.127
-200.333	-33.070	-0.279	-0.153
-199.319	148.414	0.089	-0.119
-198.304	-200.000	0.035	0.201
-197.290	800.000	0.111	0.328
-196.275	-200.000	-0.011	0.272
-195.260	27.942	0.176	0.147
-194.246	-200.000	-0.033	-0.345
-193.231	14.079	0.262	0.202
-192.217	800.000	0.098	0.281
-191.202	194.213	-0.039	-0.059
-190.187	800.000	0.023	-0.080
-189.173	800.000	-0.021	-0.078
-188.158	800.000	0.063	0.229
-187.144	-167.249	0.262	0.010
-186.129	56.353	0.116	0.112
-185.114	-117.129	0.033	-0.006
-184.100	-92.297	0.265	-0.074
-183.085	-200.000	-0.121	0.000
-182.071	-164.142	0.152	-0.007
-181.056	-89.440	0.162	-0.047
-180.042	-16.636	0.180	0.112
-179.027	4.516	-0.140	-0.102
-178.012	521.896	-0.098	0.226
-176.998	-82.874	-0.173	-0.055
-175.983	72.972	-0.129	-0.133
-174.969	77.566	-0.132	-0.138
-173.954	-91.527	-0.046	0.013
-172.939	-200.000	0.040	0.270
-171.925	152.288	0.196	-0.264
-170.910	52.181	0.300	-0.282
-169.896	-200.000	0.046	0.301
-168.881	-200.000	-0.013	-0.137
-167.866	155.439	0.106	-0.144
-166.852	-200.000	-0.061	0.314
-165.837	-70.469	-0.225	0.084
-164.823	244.953	0.127	0.210
-163.808	-110.570	0.197	-0.040
-162.793	14.008	0.191	-0.147
-161.779	-107.317	0.187	-0.041
-160.764	45.542	-0.029	0.027
-159.750	800.000	0.012	-0.043
-158.735	800.000	-0.044	-0.127
-157.720	-200.000	0.012	-0.151
-156.706	-200.000	0.022	-0.209
-155.691	-200.000	-0.002	0.356
-154.677	102.482	0.287	0.331
-153.662	-90.955	-0.241	-0.068
-152.647	44.287	-0.070	-0.063
-151.633	-200.000	-0.068	0.372
-150.618	538.463	0.037	0.087
-149.604	50.409	-0.396	0.369
-148.589	-24.799	-0.236	0.138
-147.574	157.985	0.060	0.083
-146.560	-200.000	0.072	-0.359
-145.545	-34.953	-0.312	-0.168
-144.531	-47.785	-0.426	0.203
-143.516	39.185	-0.038	0.034
-142.502	-68.691	0.447	0.171
-141.487	153.625	0.317	0.428
-140.472	-64.087	-0.190	0.076
-139.458	-14.320	-0.107	0.068
-138.443	-200.000	-0.037	0.297
-137.429	478.702	-0.067	0.150
-136.414	-102.551	0.170	-0.040
-135.399	800.000	0.079	0.264
-134.385	-123.568	0.438	-0.069
-133.370	-66.724	-0.123	0.048
-132.356	-36.202	-0.195	0.104
-131.341	142.078	-0.088	0.115
-130.326	-37.125	-0.134	-0.071
-129.312	95.646	0.141	-0.159
-128.297	-128.285	-0.314	-0.044
-127.283	8.849	0.087	0.065
-126.268	234.286	-0.157	0.255
-125.253	38.713	0.118	-0.103
-124.239	-9.444	-0.301	-0.198
-123.224	-141.497	0.128	0.013
-122.210	800.000	-0.081	0.268
-121.195	55.726	-0.076	0.073
