DTS Sentinel unit serial number:	SN413079Multiplexer serial number:	ORYXHardware model number:	OX4-SRSoftware version number:	ORYX F/W v4.00 Oryx Data Collector v3.7.2.0data status	okinstallation	princeton_trtdifferential loss correction	single-endedforward channel	channel 2reverse channel	N/Adate	2019/09/12time	23:35:35forward acquisition time	60.00reverse acquisition time	0.00gamma	496.2192k internal	0.2333k external	0.2333temperature offset calibration	1.0170default loss term (dB/km)	0.3790temperature slope calibration	1.0000multiplexer offset coefficient	1.0000multiplexer slope coefficient	1.0000fibre end	0.00T internal ref (°C)	28.94T ext. ref 1 (°C)	3.78T ext. ref 2 (°C)	23.60length (m)	temperature (°C)	Stokes	anti-Stokes-747.200	-31.660	0.197	0.111
-746.185	-63.533	-0.162	0.067
-745.171	-200.000	0.012	-0.246
-744.156	145.875	-0.172	0.232
-743.142	62.617	-0.170	0.171
-742.127	-200.000	0.031	0.207
-741.112	176.247	0.018	0.026
-740.098	56.035	-0.305	0.297
-739.083	-141.194	-0.058	-0.006
-738.069	328.635	-0.113	0.219
-737.054	800.000	-0.008	0.025
-736.039	-11.789	-0.203	-0.134
-735.025	-200.000	-0.008	0.101
-734.010	-140.431	-0.218	-0.023
-732.996	-164.580	0.143	-0.007
-731.981	-117.005	0.378	-0.069
-730.966	140.248	0.240	-0.318
-729.952	2.171	-0.361	-0.262
-728.937	-20.878	-0.100	-0.061
-727.923	800.000	-0.041	0.162
-726.908	800.000	-0.078	-0.338
-725.894	82.373	0.187	-0.204
-724.879	800.000	-0.071	-0.296
-723.864	800.000	-0.051	-0.173
-722.850	5.610	-0.308	-0.229
-721.835	21.132	-0.147	-0.120
-720.821	-82.130	0.439	0.144
-719.806	-200.000	0.005	-0.428
-718.791	196.924	-0.048	-0.074
-717.777	328.221	0.113	-0.219
-716.762	800.000	0.047	-0.166
-715.748	-127.356	0.057	0.008
-714.733	-200.000	-0.007	0.092
-713.718	578.781	0.128	-0.314
-712.704	-49.428	0.109	-0.052
-711.689	579.425	0.044	-0.108
-710.675	-129.948	-0.206	-0.028
-709.660	-200.000	0.019	0.104
-708.645	41.518	-0.248	-0.226
-707.631	8.225	0.193	-0.145
-706.616	39.347	0.247	0.222
-705.602	-117.413	0.168	-0.031
-704.587	-148.950	-0.297	0.024
-703.572	450.104	0.084	-0.187
-702.558	54.153	0.030	0.029
-701.543	800.000	-0.058	0.204
-700.529	-36.115	-0.272	-0.148
-699.514	-139.350	0.274	-0.030
-698.499	161.450	0.169	-0.237
-697.485	186.904	-0.208	-0.312
-696.470	-200.000	-0.034	-0.512
-695.456	-200.000	-0.012	-0.141
-694.441	129.640	-0.219	-0.281
-693.426	-70.363	-0.228	-0.087
-692.412	-24.247	-0.175	-0.105
-691.397	-200.000	0.026	0.146
-690.383	105.346	0.187	0.221
-689.368	-22.802	-0.211	-0.128
-688.354	115.570	-0.099	0.122
-687.339	75.326	0.042	0.045
-686.324	-12.969	-0.280	-0.182
-685.310	-200.000	-0.057	0.279
-684.295	111.423	-0.071	0.086
-683.281	179.057	0.121	-0.178
-682.266	800.000	-0.128	-0.459
-681.251	19.058	0.272	0.219
-680.237	287.522	-0.051	0.093
-679.222	77.707	-0.178	0.190
-678.208	-46.994	-0.190	-0.093
-677.193	-96.380	-0.266	0.071
-676.178	800.000	0.026	-0.101
-675.164	-33.378	0.206	-0.114
-674.149	-5.729	-0.234	-0.161
-673.135	-106.583	0.185	0.041
-672.120	-47.843	-0.130	-0.063
-671.105	185.466	0.141	-0.210
-670.091	-200.000	-0.023	-0.269
-669.076	-71.444	0.098	-0.037
-668.062	-132.154	0.218	-0.028
-667.047	-29.106	0.552	-0.318
-666.032	800.000	0.023	-0.077
-665.018	-164.803	0.020	-0.001
-664.003	-24.863	0.105	0.063
-662.989	-200.000	-0.033	-0.272
-661.974	571.858	-0.215	-0.524
-660.959	242.418	-0.094	-0.157
-659.945	-137.609	-0.193	0.022
-658.930	-15.260	-0.152	0.098
-657.916	-22.739	0.024	-0.015
-656.901	129.362	0.118	-0.150
-655.886	46.616	-0.083	0.077
-654.872	34.092	-0.145	-0.126
-653.857	430.726	-0.039	0.085
-652.843	-190.469	-0.081	0.001
-651.828	-100.510	0.258	0.064
-650.814	-200.000	0.008	-0.122
-649.799	-102.451	-0.319	-0.077
-648.784	-47.540	-0.216	0.105
-647.770	267.548	-0.214	-0.375
-646.755	163.029	0.053	0.075
-645.741	156.785	-0.098	0.136
-644.726	800.000	-0.040	-0.176
-643.711	115.427	-0.179	-0.219
-642.697	-200.000	-0.001	0.040
-641.682	10.589	0.251	-0.192
-640.668	-28.083	0.351	-0.204
-639.653	57.062	0.113	-0.110
-638.638	-200.000	0.004	-0.111
-637.624	95.862	0.214	0.245
-636.609	-62.816	-0.194	-0.081
-635.595	-78.691	-0.171	-0.058
-634.580	114.972	-0.139	-0.170
-633.565	-200.000	-0.033	0.158
-632.551	-200.000	0.019	0.134
-631.536	-74.479	-0.082	-0.030
-630.522	6.362	-0.137	-0.102
-629.507	-3.984	0.115	0.080
-628.492	-128.781	0.288	0.041
-627.478	800.000	0.071	-0.217
-626.463	-200.000	0.087	-0.470
-625.449	-23.577	-0.459	-0.275
-624.434	-36.706	-0.095	0.051
-623.419	-200.000	-0.050	-0.250
-622.405	-200.000	-0.006	-0.216
-621.390	140.931	0.165	-0.218
-620.376	-34.618	0.098	0.053
-619.361	128.268	0.216	0.275
-618.346	200.712	-0.159	-0.245
-617.332	-43.707	0.263	0.132
-616.317	420.941	0.078	0.168
-615.303	-9.020	0.190	0.128
-614.288	-55.317	0.198	0.089
-613.273	-95.348	-0.165	-0.045
-612.259	-200.000	0.013	0.209
-611.244	178.786	-0.243	0.355
-610.230	76.566	-0.135	0.143
-609.215	215.090	-0.091	-0.144
-608.201	800.000	0.037	0.144
-607.186	10.828	-0.215	0.164
-606.171	328.457	0.080	-0.153
-605.157	164.462	-0.177	0.249
-604.142	-129.265	0.224	0.031
-603.128	-175.653	0.258	-0.007
-602.113	-125.672	-0.183	-0.028
-601.098	-97.081	-0.210	-0.055
-600.084	129.322	0.156	0.200
-599.069	187.441	-0.221	-0.329
-598.055	748.230	-0.106	-0.286
-597.040	-200.000	-0.022	-0.103
-596.025	15.229	0.131	0.103
-595.011	-79.054	0.230	0.078
-593.996	309.707	0.062	-0.116
-592.982	800.000	0.011	0.043
-591.967	334.961	0.095	-0.184
-590.952	-92.100	0.121	-0.034
-589.938	131.355	-0.098	-0.126
-588.923	108.059	0.085	0.102
-587.909	-107.883	-0.222	0.048
-586.894	291.077	0.063	0.115
-585.879	203.225	-0.056	-0.086
-584.865	-23.368	0.212	-0.128
-583.850	-61.554	0.292	0.123
-582.836	-200.000	-0.026	-0.262
-581.821	-30.348	-0.197	0.112
-580.806	-101.164	0.329	-0.080
-579.792	800.000	-0.100	0.295
-578.777	-200.000	-0.019	0.171
-577.763	161.716	-0.109	0.153
-576.748	-106.252	-0.219	0.049
-575.733	-125.913	0.252	-0.038
-574.719	6.689	0.215	-0.160
-573.704	-92.973	-0.250	-0.070
-572.690	800.000	0.038	0.106
-571.675	733.665	-0.074	-0.197
-570.661	239.824	-0.178	0.296
-569.646	-77.797	-0.170	-0.059
-568.631	197.383	-0.255	0.389
-567.617	-26.463	0.157	0.092
-566.602	800.000	-0.090	-0.306
-565.588	235.286	0.062	0.103
-564.573	-200.000	0.049	-0.255
-563.558	64.242	-0.205	0.206
-562.544	303.102	0.123	0.227
-561.529	-31.880	0.229	-0.128
-560.515	800.000	0.128	-0.359
-559.500	-107.933	0.271	0.059
-558.485	-110.197	-0.214	-0.045
-557.471	-96.927	-0.368	0.096
-556.456	365.765	-0.110	-0.222
-555.442	-155.739	0.211	-0.014
-554.427	-130.437	0.351	-0.047
-553.412	127.386	0.197	0.250
-552.398	-141.747	-0.243	0.024
-551.383	51.601	-0.185	-0.175
-550.369	-200.000	-0.018	0.111
-549.354	77.021	-0.181	-0.192
-548.339	194.804	-0.190	0.288
-547.325	800.000	0.057	0.217
-546.310	253.731	-0.113	-0.193
-545.296	8.712	-0.257	0.193
-544.281	-168.578	0.160	0.006
-543.266	267.070	-0.158	0.275
-542.252	2.207	0.027	-0.019
-541.237	26.946	-0.227	-0.190
-540.223	158.728	-0.090	0.124
-539.208	-31.049	0.108	0.061
-538.193	191.769	-0.197	0.296
-537.179	791.623	-0.109	-0.299
-536.164	-128.653	0.290	-0.041
-535.150	-200.000	0.052	-0.386
-534.135	-108.204	0.053	0.011
-533.121	800.000	-0.062	0.261
-532.106	-26.083	-0.093	-0.054
-531.091	113.973	-0.178	0.216
-530.077	800.000	-0.066	0.203
-529.062	182.869	-0.132	-0.194
-528.048	-200.000	-0.031	0.243
-527.033	-200.000	-0.009	-0.120
-526.018	-73.183	0.206	0.075
-525.004	-111.520	-0.278	0.056
-523.989	-26.309	-0.353	-0.206
-522.975	800.000	0.098	-0.390
-521.960	-200.000	0.009	-0.047
-520.945	476.738	-0.056	-0.127
-519.931	-45.857	-0.162	0.080
-518.916	662.079	0.064	-0.164
-517.902	-200.000	-0.007	0.160
-516.887	-6.284	-0.210	-0.143
-515.872	66.106	0.208	0.211
-514.858	800.000	-0.029	0.107
-513.843	800.000	0.141	0.453
-512.829	-65.991	0.318	0.127
-511.814	-31.790	0.406	-0.227
-510.799	6.810	0.140	-0.104
-509.785	221.572	0.110	-0.176
-508.770	-38.147	-0.222	0.117
-507.756	-146.999	-0.134	0.011
-506.741	337.477	0.065	0.126
-505.726	-181.685	-0.170	-0.003
-504.712	800.000	0.019	0.080
-503.697	711.097	0.120	-0.316
-502.683	-161.791	0.041	-0.002
-501.668	-188.837	0.293	-0.004
-500.653	-24.346	-0.413	-0.245
-499.639	-200.000	0.001	-0.102
-498.624	260.715	0.253	0.437
-497.610	-47.297	0.300	-0.146
-496.595	258.342	-0.062	-0.107
-495.581	-83.925	-0.193	-0.061
-494.566	226.223	0.004	-0.007
-493.551	691.620	-0.093	-0.243
-492.537	154.651	0.068	0.094
-491.522	132.407	-0.067	0.086
-490.508	61.885	0.190	-0.189
-489.493	122.704	-0.120	-0.149
-488.478	-93.926	0.394	-0.108
-487.464	-146.934	0.345	0.030
-486.449	15.573	-0.153	0.120
-485.435	-200.000	0.014	-0.161
-484.420	-153.145	-0.208	-0.015
-483.405	-47.653	0.052	-0.025
-482.391	48.274	0.182	-0.170
-481.376	-42.779	-0.197	-0.100
-480.362	37.052	0.076	0.067
-479.347	-49.067	-0.191	0.091
-478.332	-94.453	0.332	0.090
-477.318	-200.000	0.001	-0.081
-476.303	-200.000	0.000	-0.325
-475.289	576.278	-0.129	-0.313
-474.274	-150.635	-0.248	0.019
-473.259	44.545	0.036	0.033
-472.245	800.000	-0.036	-0.134
-471.230	-150.717	0.294	0.022
-470.216	32.302	0.164	-0.141
-469.201	731.167	-0.090	0.240
-468.186	-33.809	-0.190	-0.104
-467.172	533.871	-0.057	-0.135
-466.157	-33.201	-0.144	0.079
-465.143	8.797	-0.094	-0.071
-464.128	117.313	-0.209	0.256
-463.113	-20.750	0.170	-0.104
-462.099	4.898	-0.101	0.074
-461.084	-200.000	0.302	-0.001
-460.070	-112.075	0.212	-0.042
-459.055	-200.000	0.060	-0.347
-458.040	702.183	0.046	-0.121
-457.026	-200.000	0.086	0.479
-456.011	-132.185	0.030	0.004
-454.997	-200.000	-0.050	-0.318
-453.982	-154.004	0.103	-0.007
-452.968	0.906	0.250	0.178
-451.953	346.254	-0.240	0.469
-450.938	-200.000	0.026	-0.142
-449.924	96.525	0.101	0.115
-448.909	-185.813	-0.050	0.001
-447.895	-200.000	-0.013	0.217
-446.880	157.611	-0.148	-0.203
-445.865	-128.203	0.214	-0.030
-444.851	800.000	0.012	0.038
-443.836	239.802	-0.141	0.233
-442.822	9.721	0.098	-0.074
-441.807	-95.579	-0.270	-0.072
-440.792	58.491	-0.013	0.012
-439.778	800.000	0.053	0.193
-438.763	-170.138	-0.173	0.006
-437.749	419.322	0.063	-0.134
-436.734	-110.191	0.264	0.055
-435.719	143.776	-0.069	-0.091
-434.705	800.000	-0.147	0.428
-433.690	273.897	0.142	0.249
-432.676	-136.592	-0.119	0.014
-431.661	72.116	0.085	0.088
-430.646	-105.650	-0.555	-0.125
-429.632	-200.000	-0.054	-0.285
-428.617	-200.000	0.024	-0.196
-427.603	49.004	0.139	-0.130
-426.588	-170.387	-0.162	0.006
-425.573	-122.581	0.104	-0.017
-424.559	40.654	-0.241	0.215
-423.544	-200.000	-0.015	0.098
-422.530	-200.000	0.010	0.125
-421.515	-200.000	0.001	-0.039
-420.500	655.118	0.061	-0.156
-419.486	-13.427	-0.112	0.072
-418.471	138.822	-0.042	0.055
-417.457	491.054	0.107	0.244
-416.442	-83.468	0.154	-0.049
-415.428	-200.000	0.041	-0.482
-414.413	-13.828	0.167	0.107
-413.398	-161.119	-0.412	-0.021
-412.384	196.932	-0.179	-0.271
-411.369	-147.215	0.416	-0.035
-410.355	-40.606	-0.350	0.180
-409.340	117.775	0.200	0.245
-408.325	214.333	-0.123	0.194
-407.311	800.000	0.072	-0.284
-406.296	481.095	0.102	0.231
-405.282	149.307	-0.034	0.046
-404.267	-125.599	-0.126	0.019
-403.252	-121.483	-0.281	-0.046
-402.238	245.780	0.098	-0.164
-401.223	28.551	0.170	0.143
-400.209	-200.000	-0.027	-0.166
-399.194	-42.347	-0.109	-0.055
-398.179	21.554	0.169	0.136
-397.165	135.805	-0.165	-0.214
-396.150	-110.657	-0.362	-0.074
-395.136	800.000	0.048	-0.202
-394.121	-65.004	-0.220	0.088
-393.106	86.314	0.083	0.090
-392.092	3.093	0.108	-0.078
-391.077	518.545	-0.132	0.306
-390.063	-18.058	0.070	0.044
-389.048	-200.000	0.023	0.238
-388.033	-200.000	-0.028	-0.136
-387.019	-40.162	0.423	-0.218
-386.004	-30.981	-0.113	0.063
-384.990	626.381	0.073	0.183
-383.975	40.100	-0.248	-0.221
-382.960	156.816	-0.039	-0.054
-381.946	394.073	-0.100	-0.206
-380.931	-99.456	-0.163	0.041
-379.917	-7.242	-0.299	-0.201
-378.902	800.000	0.068	-0.287
-377.888	-184.635	-0.093	-0.001
-376.873	-200.000	-0.003	-0.053
-375.858	-200.000	-0.050	-0.227
-374.844	-4.074	-0.095	-0.065
-373.829	-82.686	0.083	-0.027
-372.815	-112.703	0.278	0.055
-371.800	642.382	0.074	0.188
-370.785	-26.608	-0.235	0.136
-369.771	97.985	0.077	-0.088
-368.756	375.751	0.087	0.177
-367.742	617.494	0.078	-0.193
-366.727	15.880	0.176	0.137
-365.712	226.988	0.092	0.147
-364.698	145.608	0.033	-0.043
-363.683	219.445	0.107	-0.170
-362.669	189.648	0.045	-0.067
-361.654	30.258	0.173	-0.146
-360.639	-96.906	-0.154	0.040
-359.625	466.249	0.152	0.338
-358.610	-200.000	-0.004	-0.277
-357.596	-141.835	-0.199	-0.020
-356.581	-54.015	0.142	-0.064
-355.566	670.062	-0.075	0.193
-354.552	-36.694	-0.201	0.107
-353.537	290.261	0.124	0.224
-352.523	57.616	-0.152	0.147
-351.508	800.000	0.041	0.143
-350.493	-3.975	-0.165	-0.113
-349.479	-46.889	-0.112	0.054
-348.464	317.994	-0.088	0.165
-347.450	-151.219	-0.264	0.020
-346.435	800.000	0.080	0.318
-345.420	-200.000	-0.022	0.256
-344.406	4.369	-0.129	0.093
-343.391	-124.484	-0.263	-0.040
-342.377	-118.398	-0.175	-0.031
-341.362	-81.374	0.124	-0.040
-340.348	-153.190	0.351	-0.024
-339.333	-163.972	0.045	-0.002
-338.318	-34.873	0.188	0.102
-337.304	122.116	0.225	-0.278
-336.289	61.670	-0.108	0.106
-335.275	263.160	0.082	0.140
-334.260	125.827	-0.145	-0.182
-333.245	352.141	-0.118	-0.232
-332.231	48.955	0.218	0.202
-331.216	-72.703	0.147	0.054
-330.202	-56.178	-0.175	-0.077
-329.187	-200.000	-0.000	-0.134
-328.172	-89.909	0.121	-0.035
-327.158	-122.404	0.326	-0.053
-326.143	-51.418	0.074	0.034
-325.129	-69.528	-0.134	-0.051
-324.114	-43.683	-0.196	-0.098
-323.099	-104.341	0.362	0.083
-322.085	366.320	0.130	0.259
-321.070	88.674	0.231	-0.254
-320.056	319.092	0.135	-0.252
-319.041	644.209	-0.027	0.069
-318.026	208.308	-0.214	-0.331
-317.012	-40.604	0.235	-0.121
-315.997	-163.279	0.273	-0.013
-314.983	420.946	-0.114	-0.241
-313.968	-49.631	-0.251	-0.118
-312.953	48.156	0.215	0.198
-311.939	407.702	-0.070	0.146
-310.924	-55.969	0.117	0.051
-309.910	117.556	-0.119	0.145
-308.895	-112.604	0.067	-0.013
-307.880	130.455	0.182	0.231
-306.866	-147.310	0.079	-0.007
-305.851	23.857	0.264	-0.215
-304.837	-151.249	0.265	0.020
-303.822	-121.533	-0.430	0.071
-302.807	-4.040	-0.187	0.128
-301.793	-49.048	0.251	0.119
-300.778	-113.093	-0.084	-0.016
-299.764	218.754	-0.048	-0.075
-298.749	-200.000	0.027	-0.134
-297.735	-55.880	-0.153	-0.068
-296.720	-188.692	0.122	0.001
-295.705	-200.000	0.028	0.501
-294.691	-54.532	0.082	0.036
-293.676	41.884	0.102	-0.091
-292.662	800.000	-0.057	-0.187
-291.647	-200.000	0.054	-0.417
-290.632	-155.444	-0.225	0.014
-289.618	-18.235	-0.315	0.195
-288.603	-200.000	0.005	-0.162
-287.589	800.000	0.044	-0.147
-286.574	-200.000	-0.015	-0.156
-285.559	0.030	-0.149	-0.105
-284.545	71.132	0.304	-0.311
-283.530	800.000	-0.018	0.055
-282.516	-200.000	0.000	0.255
-281.501	-200.000	0.021	0.363
-280.486	31.023	0.200	0.169
-279.472	-136.153	-0.079	0.009
-278.457	178.699	-0.076	0.109
-277.443	692.591	-0.087	0.225
-276.428	-163.703	0.262	-0.012
-275.413	-94.099	-0.178	-0.048
-274.399	-72.678	0.240	-0.088
-273.384	713.105	-0.061	-0.159
-272.370	-29.034	0.159	-0.090
-271.355	800.000	0.054	-0.158
-270.340	240.524	-0.182	-0.300
-269.326	29.522	0.291	-0.244
-268.311	214.349	-0.085	0.132
-267.297	-200.000	0.048	-0.212
-266.282	80.907	-0.165	-0.175
-265.267	181.342	0.187	-0.271
-264.253	-75.036	-0.337	0.119
-263.238	62.514	-0.104	0.102
-262.224	-11.289	0.174	0.113
-261.209	-22.253	0.097	-0.058
-260.195	-65.912	-0.070	-0.028
-259.180	181.017	0.220	0.319
-258.165	-200.000	0.021	0.190
-257.151	268.782	0.248	-0.430
-256.136	-11.673	-0.016	0.011
-255.122	107.355	-0.230	-0.270
-254.107	800.000	-0.047	-0.178
-253.092	-66.446	0.348	-0.136
-252.078	-113.808	-0.093	0.018
-251.063	800.000	-0.059	-0.172
-250.049	-127.384	0.360	-0.052
-249.034	-46.057	-0.100	0.049
-248.019	-17.935	0.185	0.114
-247.005	5.504	-0.113	0.082
-245.990	-82.036	-0.097	0.031
-244.976	800.000	-0.077	-0.210
-243.961	106.897	-0.060	0.070
-242.946	-200.000	0.009	0.166
-241.932	-23.859	0.201	-0.118
-240.917	37.357	0.073	0.064
-239.903	-45.896	0.232	0.113
-238.888	-115.874	-0.286	-0.053
-237.873	800.000	0.019	0.056
-236.859	117.481	0.192	0.232
-235.844	-56.243	-0.204	0.089
-234.830	45.432	0.180	-0.163
-233.815	426.817	0.047	0.101
-232.800	242.306	-0.275	0.454
-231.786	-107.546	-0.082	0.018
-230.771	255.783	-0.136	-0.230
-229.757	-200.000	-0.014	-0.093
-228.742	800.000	-0.094	0.273
-227.727	-90.777	0.513	-0.146
-226.713	-200.000	0.005	-0.334
-225.698	-200.000	0.011	-0.072
-224.684	-200.000	0.005	-0.147
-223.669	-23.721	0.027	-0.016
-222.655	-85.455	0.310	0.095
-221.640	39.275	0.240	0.211
-220.625	-13.685	0.358	0.228
-219.611	-113.593	-0.136	-0.026
-218.596	-200.000	0.022	-0.344
-217.582	-200.000	-0.041	0.261
-216.567	47.661	0.028	0.026
-215.552	-200.000	0.005	-0.031
-214.538	47.906	0.110	0.101
-213.523	-200.000	0.007	0.068
-212.509	83.051	0.093	0.099
-211.494	320.189	-0.089	-0.167
-210.479	-200.000	0.008	0.157
-209.465	-200.000	-0.027	0.164
-208.450	70.294	0.236	0.240
-207.436	-108.704	-0.275	0.058
-206.421	-199.857	0.238	0.001
-205.406	117.360	0.018	-0.022
-204.392	353.366	0.102	-0.198
-203.377	-200.000	-0.003	0.142
-202.363	800.000	0.135	-0.378
-201.348	-68.799	-0.290	-0.110
-200.333	-105.175	-0.082	-0.018
-199.319	520.779	0.129	-0.298
-198.304	-200.000	0.009	-0.144
-197.290	-47.439	0.093	-0.045
-196.275	123.354	0.080	-0.099
-195.260	775.501	0.002	-0.006
-194.246	-8.027	0.244	-0.162
-193.231	-25.760	-0.189	0.110
-192.217	-200.000	-0.017	0.106
-191.202	-200.000	-0.003	-0.209
-190.187	112.847	0.075	0.090
-189.173	8.114	-0.119	-0.088
-188.158	-141.321	-0.120	0.012
-187.144	89.540	-0.146	-0.160
-186.129	87.781	0.108	0.118
-185.114	-22.673	-0.377	0.224
-184.100	331.531	0.054	0.103
-183.085	-22.894	-0.324	0.192
-182.071	-86.957	-0.399	0.120
-181.056	-120.275	0.436	0.073
-180.042	-106.372	0.340	0.075
-179.027	800.000	0.076	0.222
-178.012	-98.979	-0.153	0.038
-176.998	800.000	0.061	0.215
-175.983	445.931	-0.128	0.277
-174.969	21.468	-0.136	0.109
-173.954	-200.000	0.029	0.458
-172.939	70.740	-0.173	0.177
-171.925	-72.003	-0.347	0.127
-170.910	180.097	-0.138	0.198
-169.896	6.315	-0.216	-0.158
-168.881	222.535	-0.164	0.259
-167.866	44.068	0.086	-0.078
-166.852	-61.372	0.448	0.185
-165.837	46.538	-0.301	0.274
-164.823	106.848	-0.071	-0.083
-163.808	417.191	-0.080	-0.168
-162.793	-200.000	-0.003	0.155
-161.779	27.575	-0.104	-0.086
-160.764	-121.486	0.195	-0.032
-159.750	-113.316	0.136	0.026
-158.735	449.295	-0.101	0.219
-157.720	-25.136	0.056	0.032
-156.706	800.000	-0.057	0.165
-155.691	23.831	-0.115	-0.093
-154.677	-17.490	-0.053	-0.033
-153.662	53.419	-0.146	0.137
-152.647	-200.000	-0.020	0.244
-151.633	19.889	0.062	0.049
-150.618	800.000	0.033	-0.108
-149.604	357.402	0.109	0.213
-148.589	-43.133	-0.070	0.035
-147.574	-35.199	0.176	-0.094
-146.560	231.206	-0.112	-0.181
-145.545	800.000	-0.092	-0.257
-144.531	-200.000	0.001	0.023
-143.516	-48.649	-0.127	0.060
-142.502	800.000	0.046	-0.184
-141.487	-132.946	0.338	-0.042
-140.472	800.000	0.014	0.058
-139.458	-120.694	-0.041	0.007
-138.443	-121.136	-0.317	0.052
-137.429	-108.941	0.125	0.026
-136.414	157.243	0.027	-0.036
-135.399	205.831	0.089	-0.136
-134.385	-15.646	0.342	-0.214
-133.370	110.730	-0.199	0.235
-132.356	7.329	-0.184	-0.135
-131.341	273.960	-0.029	0.050
-130.326	-166.219	-0.221	-0.009
-129.312	-94.329	-0.089	-0.024
-128.297	124.778	0.075	0.093
-127.283	-7.120	0.192	-0.128
-126.268	83.932	-0.112	-0.120
-125.253	-98.932	0.068	0.017
-124.239	408.830	-0.040	-0.083
-123.224	5.053	0.458	0.331
-122.210	111.255	0.129	0.153
-121.195	-200.000	0.023	-0.502
