DTS Sentinel unit serial number:	SN413079Multiplexer serial number:	ORYXHardware model number:	OX4-SRSoftware version number:	ORYX F/W v4.00 Oryx Data Collector v3.7.2.0data status	okinstallation	princeton_trtdifferential loss correction	single-endedforward channel	channel 2reverse channel	N/Adate	2019/09/19time	12:19:35forward acquisition time	60.00reverse acquisition time	0.00gamma	496.2192k internal	0.2336k external	0.2336temperature offset calibration	1.0012default loss term (dB/km)	0.3790temperature slope calibration	1.0000multiplexer offset coefficient	1.0000multiplexer slope coefficient	1.0000fibre end	0.00T internal ref (°C)	26.61T ext. ref 1 (°C)	0.86T ext. ref 2 (°C)	23.70length (m)	temperature (°C)	Stokes	anti-Stokes-747.200	371.424	0.191	-0.388
-746.185	-200.000	0.046	0.206
-745.171	-200.000	0.016	0.152
-744.156	-52.086	-0.051	0.024
-743.142	-172.998	0.135	-0.004
-742.127	-22.520	-0.247	0.150
-741.112	-200.000	-0.032	-0.233
-740.098	108.985	0.168	0.202
-739.083	-31.758	-0.063	0.035
-738.069	-40.054	-0.105	-0.055
-737.054	-200.000	-0.029	-0.263
-736.039	-41.273	-0.229	-0.118
-735.025	-71.676	0.223	0.084
-734.010	-41.338	-0.105	-0.054
-732.996	-145.323	0.136	-0.012
-731.981	234.464	0.023	0.038
-730.966	161.106	-0.148	-0.207
-729.952	-20.115	0.191	-0.118
-728.937	21.422	0.149	0.122
-727.923	109.567	0.351	-0.422
-726.908	-200.000	0.008	0.119
-725.894	-123.598	-0.048	-0.008
-724.879	-200.000	0.196	-0.000
-723.864	201.171	-0.035	0.054
-722.850	206.824	0.006	-0.010
-721.835	95.632	0.211	0.242
-720.821	38.887	-0.156	-0.139
-719.806	-165.540	-0.076	0.003
-718.791	-39.637	0.158	0.083
-717.777	-163.664	0.187	-0.009
-716.762	27.571	-0.157	-0.132
-715.748	274.474	0.102	-0.181
-714.733	-200.000	0.023	0.118
-713.718	-200.000	0.021	0.205
-712.704	355.138	-0.158	0.315
-711.689	800.000	0.020	0.063
-710.675	-200.000	-0.014	0.350
-709.660	-200.000	-0.048	-0.233
-708.645	800.000	0.047	0.152
-707.631	446.417	-0.063	0.138
-706.616	327.053	0.145	-0.279
-705.602	-4.478	-0.139	-0.096
-704.587	-132.412	0.220	0.028
-703.572	225.436	-0.048	-0.078
-702.558	-77.290	0.255	-0.089
-701.543	-200.000	0.008	0.146
-700.529	-106.034	-0.021	-0.005
-699.514	191.198	0.264	-0.398
-698.499	742.822	-0.110	-0.297
-697.485	-33.731	0.187	-0.103
-696.470	-84.769	-0.065	0.020
-695.456	6.623	-0.187	0.139
-694.441	92.138	0.246	-0.278
-693.426	-200.000	-0.024	0.154
-692.412	122.193	0.238	0.298
-691.397	-90.501	0.195	0.057
-690.383	334.452	0.023	0.045
-689.368	-200.000	0.014	-0.271
-688.354	-7.189	-0.102	-0.069
-687.339	-109.484	0.080	-0.017
-686.324	321.613	0.096	0.182
-685.310	-37.821	-0.140	-0.075
-684.295	-132.802	0.402	-0.051
-683.281	-132.570	0.121	0.016
-682.266	-45.984	-0.143	0.071
-681.251	36.566	-0.086	-0.076
-680.237	-200.000	0.022	0.466
-679.222	19.973	0.102	-0.083
-678.208	-75.678	-0.128	-0.045
-677.193	-200.000	-0.032	0.158
-676.178	-150.314	-0.270	0.021
-675.164	-56.498	0.219	-0.098
-674.149	-126.956	-0.042	-0.006
-673.135	-157.778	0.103	0.006
-672.120	240.676	-0.205	0.343
-671.105	-200.000	0.004	0.184
-670.091	341.674	0.052	-0.103
-669.076	586.876	-0.023	-0.057
-668.062	-184.533	-0.413	-0.007
-667.047	185.597	-0.070	0.103
-666.032	48.940	-0.181	0.170
-665.018	-83.780	0.012	-0.004
-664.003	-200.000	-0.031	-0.447
-662.989	111.451	-0.304	-0.367
-661.974	-51.319	0.420	-0.197
-660.959	-31.189	0.145	-0.082
-659.945	-200.000	0.023	0.149
-658.930	-31.098	-0.178	-0.101
-657.916	371.466	0.176	-0.358
-656.901	-33.542	-0.173	-0.096
-655.886	272.782	-0.085	0.151
-654.872	423.560	-0.076	-0.164
-653.857	-94.055	-0.207	0.057
-652.843	96.415	0.037	-0.043
-651.828	241.070	-0.014	-0.023
-650.814	44.779	0.168	0.154
-649.799	-200.000	0.016	-0.236
-648.784	-160.178	-0.089	-0.005
-647.770	-200.000	-0.022	0.168
-646.755	656.415	-0.067	0.171
-645.741	800.000	0.044	-0.144
-644.726	162.953	0.159	-0.224
-643.711	195.678	0.180	0.274
-642.697	-92.948	0.309	-0.086
-641.682	-200.000	-0.007	0.146
-640.668	-17.030	0.065	0.041
-639.653	609.246	-0.067	-0.167
-638.638	-157.096	-0.179	-0.011
-637.624	-98.005	0.071	0.018
-636.609	-103.071	0.104	0.025
-635.595	-9.255	-0.221	-0.148
-634.580	-81.723	0.055	0.018
-633.565	-88.989	0.125	-0.037
-632.551	744.759	0.139	-0.374
-631.536	-106.683	-0.397	0.088
-630.522	-2.794	-0.211	-0.147
-629.507	-172.511	-0.233	0.007
-628.492	128.848	0.157	-0.200
-627.478	330.610	-0.147	-0.283
-626.463	-200.000	0.038	-0.560
-625.449	-200.000	0.004	0.241
-624.434	108.597	-0.185	0.221
-623.419	-14.755	0.297	0.191
-622.405	-141.646	-0.097	-0.010
-621.390	-195.097	0.258	-0.002
-620.376	-70.755	-0.194	0.073
-619.361	254.688	-0.100	0.171
-618.346	171.172	-0.182	-0.261
-617.332	225.858	0.110	0.179
-616.317	236.682	-0.255	0.423
-615.303	-200.000	-0.034	-0.224
-614.288	800.000	-0.038	-0.153
-613.273	662.779	-0.102	-0.264
-612.259	-127.281	0.147	0.021
-611.244	800.000	-0.085	0.281
-610.230	-200.000	-0.047	-0.309
-609.215	800.000	0.061	0.265
-608.201	69.406	0.238	-0.245
-607.186	-35.176	-0.169	-0.092
-606.171	-47.957	0.250	0.121
-605.157	-162.398	-0.324	-0.016
-604.142	-68.802	0.089	0.034
-603.128	115.743	0.026	-0.031
-602.113	536.531	-0.089	-0.210
-601.098	-200.000	0.006	0.237
-600.084	-200.000	0.001	0.044
-599.069	-102.026	0.146	-0.035
-598.055	66.578	-0.129	0.131
-597.040	-45.070	0.566	-0.281
-596.025	800.000	-0.024	0.081
-595.011	74.346	-0.163	0.170
-593.996	15.473	0.153	0.120
-592.982	64.526	0.132	0.133
-591.967	800.000	-0.092	0.315
-590.952	-200.000	0.006	-0.070
-589.938	57.841	-0.073	0.072
-588.923	-60.121	0.169	-0.072
-587.909	-100.368	-0.227	0.056
-586.894	202.556	0.092	-0.142
-585.879	181.988	-0.148	0.218
-584.865	-200.000	-0.006	0.046
-583.850	3.001	0.231	0.167
-582.836	-40.679	0.554	-0.286
-581.821	-59.228	0.325	0.140
-580.806	223.614	-0.076	-0.123
-579.792	-200.000	0.002	-0.061
-578.777	-200.000	0.031	-0.313
-577.763	-27.693	0.176	-0.102
-576.748	-114.813	0.177	0.034
-575.733	49.644	-0.107	-0.100
-574.719	800.000	-0.083	-0.298
-573.704	-200.000	-0.006	0.084
-572.690	-26.327	-0.356	-0.209
-571.675	261.303	0.191	-0.329
-570.661	-62.649	0.185	-0.076
-569.646	-85.649	-0.074	-0.023
-568.631	238.192	0.064	-0.106
-567.617	-168.990	0.281	-0.010
-566.602	61.360	0.171	-0.169
-565.588	-37.988	-0.280	-0.148
-564.573	497.050	0.056	0.129
-563.558	477.447	-0.214	0.483
-562.544	55.950	-0.014	0.014
-561.529	-200.000	-0.037	0.180
-560.515	-106.576	0.499	-0.111
-559.500	-151.633	-0.349	0.026
-558.485	216.078	-0.131	0.207
-557.471	115.574	0.079	0.096
-556.456	-44.676	0.194	-0.096
-555.442	132.950	-0.231	-0.298
-554.427	125.714	-0.031	0.039
-553.412	-145.838	-0.262	0.023
-552.398	202.293	-0.056	0.086
-551.383	-97.381	-0.243	-0.063
-550.369	-96.441	0.220	-0.058
-549.354	459.922	0.025	0.056
-548.339	199.729	0.188	-0.288
-547.325	-200.000	0.062	-0.327
-546.310	3.410	0.105	-0.077
-545.296	800.000	0.120	0.354
-544.281	451.294	0.108	-0.239
-543.266	8.329	0.347	-0.260
-542.252	319.673	-0.097	-0.183
-541.237	755.033	-0.019	-0.052
-540.223	800.000	0.048	-0.143
-539.208	800.000	-0.133	-0.379
-538.193	-59.151	-0.367	0.157
-537.179	-97.850	0.132	0.034
-536.164	-88.176	0.075	0.022
-535.150	-148.530	-0.289	0.023
-534.135	13.340	-0.241	-0.186
-533.121	89.378	0.213	0.236
-532.106	7.124	-0.084	0.062
-531.091	-200.000	-0.012	0.090
-530.077	40.834	-0.168	0.151
-529.062	28.724	0.225	0.190
-528.048	-123.978	0.133	0.021
-527.033	102.674	0.043	-0.051
-526.018	-73.892	-0.359	-0.130
-525.004	-111.512	-0.130	0.026
-523.989	-77.962	0.229	0.079
-522.975	-200.000	0.070	0.452
-521.960	58.447	-0.174	0.170
-520.945	-126.789	0.408	0.060
-519.931	-36.954	-0.204	0.109
-518.916	-104.860	-0.187	-0.043
-517.902	-200.000	0.037	0.410
-516.887	229.993	-0.126	-0.205
-515.872	237.038	0.188	-0.309
-514.858	-178.021	-0.336	-0.008
-513.843	-135.274	-0.171	0.020
-512.829	-101.684	-0.019	-0.005
-511.814	96.406	0.228	-0.259
-510.799	-200.000	-0.053	-0.360
-509.785	-12.596	-0.109	-0.070
-508.770	203.234	-0.062	0.095
-507.756	-200.000	0.008	-0.199
-506.741	206.241	-0.076	-0.117
-505.726	-200.000	0.020	0.154
-504.712	-154.135	0.080	0.005
-503.697	311.149	-0.088	-0.165
-502.683	3.501	-0.099	-0.072
-501.668	14.805	0.199	0.155
-500.653	-200.000	0.036	-0.187
-499.639	34.030	-0.061	-0.053
-498.624	-200.000	-0.036	0.173
-497.610	-54.115	-0.099	0.045
-496.595	-200.000	-0.085	-0.404
-495.581	-133.223	-0.084	-0.011
-494.566	105.088	-0.098	-0.115
-493.551	-13.232	0.189	-0.122
-492.537	170.041	-0.032	-0.045
-491.522	-110.613	0.365	0.075
-490.508	-7.868	0.081	-0.055
-489.493	800.000	0.047	0.160
-488.478	179.026	-0.179	0.260
-487.464	92.244	0.301	0.338
-486.449	-78.467	0.117	0.040
-485.435	376.006	0.123	0.250
-484.420	-30.005	0.313	0.177
-483.405	33.422	0.153	-0.132
-482.391	517.935	-0.040	0.094
-481.376	-140.003	0.286	-0.030
-480.362	800.000	-0.089	-0.249
-479.347	41.424	-0.150	-0.135
-478.332	117.748	-0.189	-0.232
-477.318	-81.477	0.062	0.020
-476.303	-112.118	-0.159	0.032
-475.289	-180.256	0.133	0.003
-474.274	113.677	-0.238	0.287
-473.259	-23.844	-0.195	0.116
-472.245	800.000	0.027	0.086
-471.230	-86.273	-0.158	-0.048
-470.216	1.313	0.059	0.042
-469.201	-5.873	0.046	-0.031
-468.186	608.620	-0.096	-0.239
-467.172	-200.000	-0.308	0.001
-466.157	5.209	-0.291	-0.213
-465.143	-200.000	-0.013	-0.376
-464.128	800.000	0.048	-0.185
-463.113	800.000	-0.041	-0.141
-462.099	113.152	0.058	-0.069
-461.084	129.437	-0.345	0.437
-460.070	19.093	-0.129	-0.103
-459.055	-200.000	0.019	0.263
-458.040	246.572	-0.205	-0.343
-457.026	-137.065	0.129	0.015
-456.011	-92.968	-0.115	0.032
-454.997	-200.000	-0.076	-0.347
-453.982	106.469	0.295	-0.347
-452.968	-79.220	-0.164	0.055
-451.953	-51.347	0.163	-0.076
-450.938	-200.000	0.015	0.150
-449.924	-166.189	0.255	0.011
-448.909	-59.713	-0.156	-0.066
-447.895	-38.471	-0.051	-0.027
-446.880	800.000	-0.110	0.360
-445.865	327.860	0.093	0.178
-444.851	-92.108	-0.205	0.058
-443.836	-63.254	-0.222	0.091
-442.822	-54.809	-0.136	-0.061
-441.807	-136.991	-0.083	0.009
-440.792	-1.605	-0.344	-0.240
-439.778	-45.492	-0.186	-0.091
-438.763	84.418	0.016	-0.017
-437.749	77.389	0.150	0.158
-436.734	-26.957	0.272	0.158
-435.719	322.130	0.119	-0.224
-434.705	132.307	-0.051	0.065
-433.690	481.422	-0.056	-0.126
-432.676	494.592	0.069	-0.158
-431.661	-133.342	-0.277	0.035
-430.646	-12.610	0.273	-0.177
-429.632	769.382	-0.019	-0.051
-428.617	420.835	-0.171	0.364
-427.603	22.784	-0.109	-0.088
-426.588	-182.184	-0.169	-0.003
-425.573	13.224	0.093	-0.071
-424.559	557.604	0.112	-0.268
-423.544	-36.320	0.243	0.130
-422.530	-200.000	0.003	0.537
-421.515	194.943	-0.113	0.170
-420.500	179.022	0.111	0.161
-419.486	-103.822	-0.122	-0.028
-418.471	-200.000	-0.058	-0.520
-417.457	105.681	0.066	0.077
-416.442	226.382	0.134	-0.216
-415.428	-142.077	-0.302	-0.030
-414.413	47.583	0.083	0.077
-413.398	212.925	0.052	-0.081
-412.384	800.000	0.088	0.292
-411.369	-127.009	0.099	-0.014
-410.355	-85.912	0.252	-0.077
-409.340	348.144	0.132	-0.258
-408.325	52.379	-0.187	0.176
-407.311	-49.650	0.128	-0.060
-406.296	-134.385	0.442	-0.054
-405.282	-79.880	-0.257	0.085
-404.267	-157.379	0.256	-0.015
-403.252	74.644	0.064	0.066
-402.238	-7.085	0.127	0.085
-401.223	-200.000	0.169	-0.001
-400.209	-96.476	-0.312	-0.082
-399.194	-136.801	0.258	-0.029
-398.179	139.376	-0.306	0.399
-397.165	-52.316	0.146	-0.067
-396.150	-96.479	0.155	-0.041
-395.136	-89.617	0.272	0.079
-394.121	-136.789	-0.207	-0.024
-393.106	800.000	0.065	0.276
-392.092	62.075	-0.099	0.098
-391.077	-127.002	-0.089	-0.013
-390.063	-78.362	0.210	0.071
-389.048	800.000	0.027	-0.102
-388.033	-200.000	0.009	-0.120
-387.019	-200.000	0.014	-0.122
-386.004	800.000	-0.050	0.143
-384.990	67.947	0.039	-0.040
-383.975	81.218	-0.158	-0.169
-382.960	-200.000	-0.008	-0.291
-381.946	17.083	0.044	0.035
-380.931	-134.821	-0.264	-0.032
-379.917	-131.128	0.250	-0.033
-378.902	77.161	0.026	0.028
-377.888	21.504	0.060	0.048
-376.873	14.457	0.134	-0.104
-375.858	-117.462	0.136	-0.024
-374.844	-200.000	0.055	0.350
-373.829	-200.000	-0.006	0.154
-372.815	-39.901	0.322	0.166
-371.800	219.361	-0.138	0.219
-370.785	293.435	-0.112	0.202
-369.771	234.219	0.140	0.228
-368.756	239.531	0.099	0.163
-367.742	-4.928	-0.241	-0.164
-366.727	100.733	0.402	0.463
-365.712	-200.000	0.019	0.086
-364.698	-160.792	-0.344	-0.018
-363.683	317.972	-0.268	0.502
-362.669	-102.222	-0.406	-0.097
-361.654	-62.000	0.128	-0.053
-360.639	374.670	-0.171	0.345
-359.625	331.443	-0.118	-0.226
-358.610	585.339	0.155	0.376
-357.596	800.000	0.115	-0.337
-356.581	-45.789	-0.585	-0.286
-355.566	125.732	-0.278	0.347
-354.552	80.257	0.082	-0.087
-353.537	-130.979	-0.337	0.045
-352.523	-200.000	-0.001	0.167
-351.508	42.290	0.125	0.112
-350.493	-91.039	0.081	-0.023
-349.479	-9.472	0.168	0.111
-348.464	242.072	0.018	0.029
-347.450	505.836	-0.128	0.294
-346.435	800.000	-0.094	0.330
-345.420	-25.332	0.332	-0.194
-344.406	-200.000	0.015	0.147
-343.391	-143.833	0.084	0.008
-342.377	655.510	0.042	0.107
-341.362	554.200	-0.015	-0.035
-340.348	-200.000	-0.024	0.443
-339.333	-200.000	0.040	-0.222
-338.318	800.000	-0.082	-0.275
-337.304	-64.198	0.117	0.047
-336.289	241.033	0.147	0.242
-335.275	24.371	-0.304	-0.248
-334.260	613.395	0.101	0.251
-333.245	-92.284	0.197	0.055
-332.231	-107.353	-0.237	-0.052
-331.216	587.422	0.084	-0.203
-330.202	38.879	0.240	0.212
-329.187	-200.000	-0.023	0.155
-328.172	485.994	0.217	-0.488
-327.158	-92.079	0.339	-0.095
-326.143	-52.379	-0.372	0.170
-325.129	69.299	-0.116	0.117
-324.114	102.392	0.177	0.205
-323.099	-155.710	0.107	0.007
-322.085	800.000	-0.058	0.242
-321.070	-44.632	0.166	0.082
-320.056	-21.560	-0.248	0.149
-319.041	-1.528	-0.306	0.213
-318.026	-102.888	0.147	0.034
-317.012	608.602	-0.047	0.116
-315.997	800.000	0.081	-0.279
-314.983	-200.000	0.002	-0.061
-313.968	93.629	0.233	0.261
-312.953	-185.366	0.198	-0.003
-311.939	-115.282	-0.483	0.090
-310.924	-2.817	-0.077	-0.053
-309.910	800.000	-0.044	-0.191
-308.895	-22.716	0.274	0.163
-307.880	224.414	0.151	0.241
-306.866	317.719	-0.119	-0.222
-305.851	-50.967	-0.446	0.207
-304.837	-16.884	0.157	0.098
-303.822	275.344	-0.059	0.103
-302.807	-156.520	-0.223	-0.014
-301.793	-200.000	0.023	-0.141
-300.778	-173.210	-0.286	-0.009
-299.764	131.988	0.164	-0.208
-298.749	8.233	-0.038	-0.028
-297.735	-200.000	0.045	-0.248
-296.720	-200.000	0.004	-0.269
-295.705	-40.768	-0.142	-0.073
-294.691	-81.192	-0.150	-0.049
-293.676	123.450	-0.064	-0.079
-292.662	282.805	-0.126	-0.223
-291.647	274.420	0.032	-0.056
-290.632	-34.470	-0.284	0.153
-289.618	-82.657	0.055	-0.018
-288.603	800.000	0.030	-0.098
-287.589	47.745	-0.066	0.061
-286.574	-200.000	-0.001	-0.106
-285.559	160.416	0.187	-0.257
-284.545	-200.000	-0.030	-0.143
-283.530	657.156	0.162	-0.411
-282.516	356.132	0.166	-0.326
-281.501	298.715	0.128	-0.232
-280.486	-138.755	-0.125	0.013
-279.472	-22.462	0.211	0.126
-278.457	36.122	-0.044	0.038
-277.443	-200.000	0.002	-0.076
-276.428	-102.881	0.050	-0.012
-275.413	-8.318	0.263	0.175
-274.399	800.000	-0.111	0.362
-273.384	65.247	-0.111	-0.111
-272.370	47.465	0.082	-0.076
-271.355	544.588	-0.088	0.207
-270.340	35.129	0.147	-0.127
-269.326	4.059	-0.171	-0.124
-268.311	-200.000	-0.019	0.105
-267.297	-41.704	-0.228	0.115
-266.282	-185.104	0.248	0.004
-265.267	-200.000	0.009	-0.076
-264.253	-200.000	-0.044	0.433
-263.238	73.524	-0.247	0.255
-262.224	-68.887	0.136	0.052
-261.209	-40.534	-0.244	0.125
-260.195	-137.292	0.152	0.017
-259.180	-60.031	0.078	0.033
-258.165	23.401	0.133	0.108
-257.151	62.233	0.023	-0.022
-256.136	-200.000	0.001	-0.010
-255.122	-25.778	0.197	0.114
-254.107	-56.096	-0.185	-0.081
-253.092	-145.836	0.153	0.013
-252.078	-43.627	-0.175	0.087
-251.063	800.000	-0.029	0.118
-250.049	8.650	0.135	0.100
-249.034	1.871	-0.095	0.068
-248.019	393.646	0.171	0.352
-247.005	-71.053	-0.164	0.061
-245.990	-82.463	-0.178	0.057
-244.976	60.612	-0.271	-0.265
-243.961	-200.000	0.050	-0.453
-242.946	-72.728	-0.176	-0.064
-241.932	-200.000	-0.022	-0.126
-240.917	-200.000	0.001	0.034
-239.903	104.231	0.422	0.488
-238.888	123.500	-0.193	0.238
-237.873	0.198	0.142	0.099
-236.859	200.536	-0.090	0.136
-235.844	-32.237	0.081	-0.044
-234.830	95.790	0.172	-0.193
-233.815	-72.433	0.262	-0.095
-232.800	25.722	0.187	-0.153
-231.786	-182.669	-0.097	0.002
-230.771	217.039	0.155	0.242
-229.757	427.084	-0.154	0.326
-228.742	155.691	0.031	-0.042
-227.727	-60.719	-0.093	0.039
-226.713	541.409	-0.081	0.189
-225.698	-83.204	-0.211	0.067
-224.684	-68.332	0.182	0.070
-223.669	-200.000	0.007	0.133
-222.655	-16.271	-0.084	0.053
-221.640	19.521	0.103	0.082
-220.625	-70.047	0.127	-0.047
-219.611	-20.140	-0.105	0.064
-218.596	57.032	0.162	-0.155
-217.582	92.230	-0.367	0.407
-216.567	-200.000	-0.064	-0.293
-215.552	800.000	-0.011	0.041
-214.538	65.795	-0.214	-0.213
-213.523	-159.781	-0.440	0.024
-212.509	-200.000	0.030	-0.277
-211.494	8.954	0.202	-0.150
-210.479	24.621	-0.106	-0.086
-209.465	-162.868	-0.207	0.010
-208.450	362.364	0.113	0.223
-207.436	-137.107	-0.157	-0.018
-206.421	-19.597	0.239	0.146
-205.406	-147.101	-0.164	-0.014
-204.392	-99.354	0.340	-0.084
-203.377	-22.459	-0.093	0.055
-202.363	-200.000	-0.003	-0.588
-201.348	-200.000	-0.019	-0.278
-200.333	-5.330	-0.048	0.032
-199.319	-112.756	-0.290	0.057
-198.304	-101.376	-0.173	0.042
-197.290	-200.000	-0.005	-0.127
-196.275	219.673	0.233	0.366
-195.260	800.000	-0.056	-0.229
-194.246	372.538	0.047	0.093
-193.231	85.215	0.288	-0.310
-192.217	-62.330	0.115	0.047
-191.202	-138.122	-0.239	0.026
-190.187	-19.499	-0.069	0.042
-189.173	45.874	-0.163	-0.148
-188.158	-200.000	0.012	0.279
-187.144	-118.336	-0.329	0.058
-186.129	-160.949	0.397	0.021
-185.114	-100.560	-0.125	-0.030
-184.100	-53.733	0.287	0.129
-183.085	302.266	0.116	-0.211
-182.071	97.482	-0.136	-0.153
-181.056	95.163	-0.135	-0.151
-180.042	48.174	0.142	-0.130
-179.027	-60.738	0.168	-0.070
-178.012	-152.618	-0.268	-0.019
-176.998	321.681	0.050	-0.093
-175.983	17.443	0.132	-0.103
-174.969	150.390	0.066	-0.088
-173.954	-200.000	-0.005	-0.042
-172.939	-83.035	-0.135	-0.043
-171.925	-128.494	0.284	0.040
-170.910	5.046	-0.201	0.146
-169.896	24.632	-0.233	0.189
-168.881	5.420	0.300	-0.218
-167.866	10.919	0.121	0.091
-166.852	-200.000	-0.009	-0.193
-165.837	-94.907	-0.028	0.007
-164.823	800.000	0.116	0.383
-163.808	29.981	0.206	0.173
-162.793	-42.986	0.063	-0.032
-161.779	-200.000	0.034	0.189
-160.764	-57.171	0.161	-0.069
-159.750	-121.771	0.625	-0.101
-158.735	294.609	0.043	-0.076
-157.720	-200.000	-0.038	0.334
-156.706	-200.000	-0.032	-0.171
-155.691	42.564	-0.141	-0.126
-154.677	-13.425	-0.146	0.093
-153.662	-200.000	-0.064	-0.455
-152.647	336.470	-0.039	-0.073
-151.633	-6.762	0.085	-0.057
-150.618	116.789	0.170	0.205
-149.604	-151.646	0.186	-0.013
-148.589	394.888	0.046	-0.094
-147.574	-200.000	-0.082	0.498
-146.560	112.747	0.199	0.236
-145.545	-35.971	-0.200	-0.106
-144.531	-24.869	0.135	0.079
-143.516	-28.392	0.418	0.237
-142.502	-99.214	-0.212	0.052
-141.487	56.537	0.070	0.067
-140.472	800.000	0.050	-0.163
-139.458	38.197	0.176	0.154
-138.443	188.956	-0.038	0.056
-137.429	-14.181	-0.151	0.096
-136.414	-90.793	0.162	-0.046
-135.399	52.308	0.158	-0.147
-134.385	-104.161	-0.134	0.031
-133.370	-7.000	-0.199	-0.133
-132.356	-65.733	-0.103	0.040
-131.341	-70.556	0.298	0.111
-130.326	166.830	0.119	0.166
-129.312	-46.069	-0.073	-0.035
-128.297	-92.094	0.450	0.125
-127.283	-137.758	0.313	0.034
-126.268	800.000	0.059	0.248
-125.253	322.735	0.158	-0.295
-124.239	161.746	0.167	-0.229
-123.224	12.839	-0.113	0.085
-122.210	307.539	-0.115	0.211
-121.195	800.000	0.034	-0.135
-120.180	-45.346	0.328	-0.160
