DTS Sentinel unit serial number:	SN413079Multiplexer serial number:	ORYXHardware model number:	OX4-SRSoftware version number:	ORYX F/W v4.00 Oryx Data Collector v3.7.2.0data status	okinstallation	princeton_trtdifferential loss correction	single-endedforward channel	channel 2reverse channel	N/Adate	2019/09/14time	12:51:34forward acquisition time	60.00reverse acquisition time	0.00gamma	496.2192k internal	0.2305k external	0.2305temperature offset calibration	1.0159default loss term (dB/km)	0.3790temperature slope calibration	1.0000multiplexer offset coefficient	1.0000multiplexer slope coefficient	1.0000fibre end	0.00T internal ref (°C)	38.00T ext. ref 1 (°C)	4.86T ext. ref 2 (°C)	34.35length (m)	temperature (°C)	Stokes	anti-Stokes-747.200	82.935	-0.122	-0.135
-746.185	-74.258	-0.343	0.126
-745.171	-200.000	0.018	0.166
-744.156	-8.598	-0.267	0.182
-743.142	-19.043	-0.165	0.104
-742.127	800.000	0.040	-0.134
-741.112	28.310	-0.139	0.120
-740.098	456.803	-0.161	0.365
-739.083	-200.000	-0.015	-0.153
-738.069	338.320	-0.178	0.353
-737.054	-200.000	0.088	0.513
-736.039	-78.072	-0.467	0.164
-735.025	-162.170	0.093	-0.005
-734.010	23.050	0.390	-0.326
-732.996	-112.773	-0.298	0.060
-731.981	-85.608	-0.181	-0.057
-730.966	-65.516	-0.085	0.035
-729.952	47.969	-0.059	-0.056
-728.937	25.972	0.260	-0.221
-727.923	202.643	-0.099	-0.156
-726.908	-6.440	-0.066	0.046
-725.894	-49.932	-0.237	0.114
-724.879	89.119	-0.240	-0.272
-723.864	-85.924	0.313	0.099
-722.850	-144.357	0.193	0.018
-721.835	98.055	-0.206	0.241
-720.821	-200.000	-0.042	0.274
-719.806	219.122	0.087	0.141
-718.791	-114.431	0.124	-0.024
-717.777	-108.678	-0.102	0.022
-716.762	330.903	-0.058	-0.114
-715.748	-36.654	-0.229	0.125
-714.733	-200.000	-0.006	0.081
-713.718	35.004	0.101	-0.090
-712.704	-2.083	-0.081	-0.058
-711.689	440.113	-0.071	-0.158
-710.675	-200.000	0.002	0.123
-709.660	56.766	0.059	-0.058
-708.645	235.035	-0.093	0.156
-707.631	-200.000	-0.043	-0.237
-706.616	43.515	-0.151	-0.140
-705.602	-42.096	0.227	0.118
-704.587	158.780	0.220	-0.310
-703.572	175.945	-0.172	-0.253
-702.558	-39.849	-0.352	-0.187
-701.543	308.777	-0.043	-0.082
-700.529	-15.792	-0.239	-0.155
-699.514	31.400	-0.149	0.130
-698.499	800.000	-0.032	0.109
-697.485	-111.520	0.341	-0.070
-696.470	-4.500	0.067	0.047
-695.456	308.788	0.083	-0.157
-694.441	39.598	0.228	-0.207
-693.426	-200.000	-0.073	0.397
-692.412	-200.000	0.016	0.191
-691.397	329.451	-0.059	-0.116
-690.383	800.000	-0.029	0.086
-689.368	-39.330	-0.241	0.129
-688.354	-96.098	-0.214	0.058
-687.339	-40.120	0.191	0.101
-686.324	800.000	0.043	0.159
-685.310	62.603	0.208	0.211
-684.295	-59.631	-0.192	0.084
-683.281	800.000	0.065	-0.270
-682.266	253.699	-0.057	0.098
-681.251	-143.084	0.138	0.013
-680.237	-200.000	-0.050	-0.339
-679.222	-200.000	-0.037	-0.336
-678.208	309.437	0.066	-0.125
-677.193	-132.350	-0.277	0.036
-676.178	800.000	-0.073	0.208
-675.164	-67.973	0.159	-0.063
-674.149	-16.528	-0.326	0.210
-673.135	-126.481	0.358	-0.054
-672.120	-79.470	0.115	0.039
-671.105	800.000	-0.032	-0.112
-670.091	-162.724	0.156	0.008
-669.076	349.421	-0.093	-0.187
-668.062	53.112	-0.118	0.115
-667.047	-147.116	0.255	0.022
-666.032	-200.000	-0.006	0.332
-665.018	-200.000	-0.080	-0.373
-664.003	212.264	0.157	0.251
-662.989	-140.102	-0.261	0.028
-661.974	-166.054	0.110	0.005
-660.959	352.121	-0.020	-0.040
-659.945	-200.000	0.044	-0.289
-658.930	525.049	-0.061	-0.146
-657.916	800.000	-0.097	0.312
-656.901	-158.628	-0.226	-0.013
-655.886	91.380	-0.206	0.235
-654.872	-200.000	0.008	-0.126
-653.857	-90.320	0.396	0.117
-652.843	-125.784	0.195	0.030
-651.828	-52.891	-0.284	0.133
-650.814	-200.000	0.036	0.191
-649.799	-100.314	0.152	0.038
-648.784	-200.000	-0.022	-0.237
-647.770	244.960	-0.230	0.393
-646.755	14.129	0.128	0.101
-645.741	800.000	0.008	-0.032
-644.726	800.000	-0.064	-0.270
-643.711	800.000	0.061	-0.196
-642.697	49.279	0.162	-0.154
-641.682	800.000	-0.062	-0.201
-640.668	84.917	-0.190	-0.211
-639.653	-200.000	0.016	-0.115
-638.638	-200.000	-0.014	-0.429
-637.624	-143.320	0.321	0.031
-636.609	293.853	0.093	-0.172
-635.595	10.317	0.092	0.071
-634.580	-61.168	0.236	0.101
-633.565	-103.037	-0.137	0.033
-632.551	46.735	-0.090	0.085
-631.536	-129.210	0.170	-0.024
-630.522	800.000	-0.014	-0.056
-629.507	-43.721	0.138	-0.070
-628.492	-200.000	-0.014	0.081
-627.478	180.132	0.075	0.112
-626.463	-108.521	0.312	-0.068
-625.449	-57.649	0.204	0.091
-624.434	-71.999	0.237	0.089
-623.419	730.102	0.042	-0.114
-622.405	487.331	-0.111	-0.256
-621.390	-63.472	0.319	0.133
-620.376	458.488	0.080	-0.180
-619.361	141.861	0.231	-0.310
-618.346	-15.599	0.230	-0.149
-617.332	-200.000	0.016	0.072
-616.317	90.505	-0.303	-0.344
-615.303	800.000	0.040	0.170
-614.288	122.082	-0.209	0.264
-613.273	111.503	-0.056	0.069
-612.259	-41.430	-0.137	-0.071
-611.244	33.069	0.157	0.138
-610.230	-147.346	-0.171	-0.015
-609.215	800.000	-0.060	0.200
-608.201	-130.931	-0.410	0.055
-607.186	-97.140	0.039	-0.010
-606.171	-62.263	-0.384	-0.162
-605.157	411.217	0.088	-0.189
-604.142	-42.273	-0.232	0.120
-603.128	-82.771	-0.386	-0.126
-602.113	-150.806	-0.207	0.016
-601.098	81.822	-0.135	0.148
-600.084	85.521	-0.039	0.043
-599.069	-42.087	-0.144	0.074
-598.055	54.968	0.131	-0.128
-597.040	189.966	0.078	-0.118
-596.025	800.000	-0.127	-0.388
-595.011	366.838	0.042	-0.085
-593.996	2.241	-0.083	-0.061
-592.982	6.655	-0.275	-0.207
-591.967	-97.562	-0.306	-0.080
-590.952	-32.725	-0.179	0.101
-589.938	-200.000	0.032	0.202
-588.923	101.233	-0.231	-0.272
-587.909	-189.115	-0.062	-0.001
-586.894	148.913	-0.261	-0.357
-585.879	-30.034	0.109	-0.063
-584.865	-148.638	-0.221	-0.018
-583.850	258.254	-0.076	-0.133
-582.836	-200.000	0.000	-0.120
-581.821	103.892	-0.193	-0.229
-580.806	800.000	-0.087	-0.326
-579.792	123.674	0.235	0.298
-578.777	107.811	-0.388	0.468
-577.763	-200.000	-0.004	0.022
-576.748	-34.132	-0.222	0.123
-575.733	-146.225	0.357	0.032
-574.719	-200.000	-0.011	-0.142
-573.704	363.578	0.054	-0.111
-572.690	-74.775	-0.262	-0.095
-571.675	-40.159	-0.191	-0.101
-570.661	-55.549	0.067	-0.030
-569.646	39.510	-0.030	-0.027
-568.631	62.184	0.215	0.217
-567.617	-40.603	0.171	0.089
-566.602	-173.752	0.300	-0.009
-565.588	-12.715	0.128	0.084
-564.573	-144.722	0.034	0.003
-563.558	271.191	0.115	-0.204
-562.544	553.939	-0.148	0.359
-561.529	-97.142	-0.153	0.040
-560.515	-106.778	0.239	-0.054
-559.500	-134.400	0.071	0.009
-558.485	-153.556	0.189	0.013
-557.471	-200.000	0.055	-0.253
-556.456	638.119	-0.050	-0.129
-555.442	-110.867	0.081	-0.017
-554.427	-200.000	-0.028	0.308
-553.412	-40.673	-0.113	0.059
-552.398	515.338	-0.037	0.087
-551.383	-138.425	0.108	-0.012
-550.369	69.387	0.254	-0.264
-549.354	27.756	-0.055	-0.047
-548.339	800.000	-0.047	-0.193
-547.325	800.000	0.031	0.095
-546.310	-23.432	0.349	0.212
-545.296	800.000	0.010	0.031
-544.281	260.350	-0.097	0.170
-543.266	82.555	0.237	-0.259
-542.252	22.720	-0.140	0.116
-541.237	800.000	-0.065	-0.202
-540.223	58.483	-0.147	-0.145
-539.208	145.191	-0.161	0.218
-538.193	-200.000	0.036	-0.305
-537.179	10.365	-0.182	-0.140
-536.164	-18.189	0.056	-0.035
-535.150	-200.000	-0.025	0.160
-534.135	170.821	-0.110	-0.159
-533.121	-95.687	0.299	-0.081
-532.106	97.101	-0.045	0.053
-531.091	-111.130	-0.259	-0.054
-530.077	-68.446	-0.063	-0.025
-529.062	379.374	-0.029	-0.061
-528.048	-162.367	-0.240	0.012
-527.033	-84.690	-0.430	-0.137
-526.018	-129.432	0.268	-0.037
-525.004	-200.000	0.014	0.091
-523.989	-92.392	0.104	-0.029
-522.975	-62.802	0.156	-0.065
-521.960	-200.000	0.029	0.151
-520.945	-39.474	0.188	0.099
-519.931	-200.000	-0.010	-0.138
-518.916	130.525	0.088	-0.113
-517.902	-115.568	0.017	0.003
-516.887	-200.000	-0.039	-0.292
-515.872	-102.724	-0.182	0.044
-514.858	466.038	0.050	0.114
-513.843	-163.402	0.393	0.019
-512.829	37.907	0.189	0.170
-511.814	78.380	0.149	-0.161
-510.799	-145.148	-0.081	0.007
-509.785	-71.488	-0.039	0.015
-508.770	-200.000	-0.006	0.137
-507.756	-42.686	0.246	0.126
-506.741	800.000	-0.059	-0.218
-505.726	-41.267	-0.092	-0.048
-504.712	-79.335	0.226	-0.077
-503.697	-168.359	-0.301	-0.012
-502.683	-52.605	-0.301	-0.140
-501.668	271.909	0.043	0.076
-500.653	-101.954	-0.095	0.023
-499.639	506.894	0.055	0.129
-498.624	-46.202	-0.426	-0.211
-497.610	92.921	0.154	-0.175
-496.595	110.928	-0.259	0.314
-495.581	-200.000	0.003	0.229
-494.566	86.382	-0.058	-0.064
-493.551	-40.528	0.235	0.123
-492.537	183.561	-0.178	-0.265
-491.522	-42.392	-0.212	0.109
-490.508	19.492	-0.098	0.080
-489.493	368.848	0.034	-0.069
-488.478	-144.128	-0.171	-0.016
-487.464	277.986	0.095	-0.171
-486.449	800.000	-0.072	0.269
-485.435	212.057	-0.246	-0.390
-484.420	800.000	-0.048	0.157
-483.405	-120.911	0.231	-0.039
-482.391	-46.319	0.217	0.108
-481.376	-145.182	0.264	-0.024
-480.362	-68.221	-0.108	-0.042
-479.347	98.068	-0.250	-0.290
-478.332	289.660	0.294	-0.537
-477.318	-14.057	-0.281	0.183
-476.303	553.402	-0.035	0.085
-475.289	20.032	0.283	0.229
-474.274	32.901	-0.020	0.017
-473.259	30.836	-0.068	-0.059
-472.245	-159.915	0.054	-0.003
-471.230	-133.483	0.237	0.030
-470.216	-200.000	0.041	-0.207
-469.201	-200.000	-0.004	-0.181
-468.186	60.104	0.158	-0.157
-467.172	-59.319	-0.154	-0.067
-466.157	800.000	-0.132	0.385
-465.143	258.396	-0.030	0.052
-464.128	103.797	0.098	0.116
-463.113	380.966	-0.077	-0.159
-462.099	-129.081	0.093	-0.013
-461.084	-200.000	0.012	0.102
-460.070	-144.198	0.057	-0.005
-459.055	-192.224	0.282	0.003
-458.040	800.000	-0.020	0.059
-457.026	180.587	0.073	-0.108
-456.011	-200.000	0.022	-0.274
-454.997	241.307	-0.106	-0.178
-453.982	-6.669	-0.039	-0.027
-452.968	89.473	-0.252	0.283
-451.953	6.024	0.283	0.211
-450.938	-70.535	-0.092	0.035
-449.924	-90.722	-0.234	-0.068
-448.909	-200.000	0.014	-0.110
-447.895	800.000	0.118	-0.358
-446.880	208.671	0.127	-0.200
-445.865	-49.908	-0.271	-0.129
-444.851	232.659	0.034	0.056
-443.836	-147.395	0.169	0.014
-442.822	401.288	0.056	0.118
-441.807	-24.637	0.202	-0.121
-440.792	-200.000	-0.063	0.314
-439.778	-151.707	0.256	0.019
-438.763	-200.000	-0.026	-0.117
-437.749	-66.431	0.138	-0.055
-436.734	20.906	-0.206	0.168
-435.719	352.401	-0.078	-0.156
-434.705	0.328	-0.186	0.134
-433.690	75.601	-0.079	0.084
-432.676	5.028	0.309	-0.229
-431.661	-150.241	0.469	-0.036
-430.646	9.567	-0.175	-0.134
-429.632	-7.792	0.132	0.090
-428.617	-149.343	0.160	0.013
-427.603	-167.593	-0.448	0.018
-426.588	219.079	0.098	0.157
-425.573	-139.049	0.567	-0.062
-424.559	401.758	0.032	-0.067
-423.544	176.503	-0.171	0.249
-422.530	-62.273	-0.116	0.049
-421.515	-148.809	0.171	-0.014
-420.500	96.563	0.329	0.379
-419.486	91.620	-0.088	0.100
-418.471	16.976	0.196	-0.156
-417.457	800.000	0.063	-0.182
-416.442	-200.000	0.018	0.402
-415.428	-200.000	-0.109	0.593
-414.413	139.851	-0.096	-0.127
-413.398	-71.314	-0.162	0.061
-412.384	-200.000	-0.001	-0.039
-411.369	-200.000	0.038	0.175
-410.355	-152.521	-0.196	0.014
-409.340	-39.502	-0.009	-0.005
-408.325	88.538	0.277	-0.309
-407.311	800.000	0.201	0.610
-406.296	197.905	0.106	-0.162
-405.282	66.606	0.158	0.161
-404.267	800.000	-0.044	0.149
-403.252	126.100	-0.020	-0.026
-402.238	29.775	-0.130	0.111
-401.223	444.232	0.072	-0.159
-400.209	-200.000	-0.008	-0.574
-399.194	67.677	0.125	0.128
-398.179	32.678	0.314	0.273
-397.165	-200.000	-0.048	0.235
-396.150	-72.431	0.118	-0.044
-395.136	73.853	0.214	-0.225
-394.121	-27.003	-0.140	0.082
-393.106	-160.220	0.098	-0.005
-392.092	-198.494	0.395	0.002
-391.077	800.000	0.072	0.218
-390.063	800.000	-0.015	0.048
-389.048	-200.000	0.064	-0.339
-388.033	-200.000	0.028	-0.131
-387.019	41.433	-0.190	0.173
-386.004	150.080	-0.030	0.040
-384.990	-16.084	-0.093	-0.059
-383.975	-44.975	-0.285	-0.142
-382.960	-42.457	-0.218	-0.112
-381.946	-148.066	0.258	-0.021
-380.931	-200.000	0.044	-0.214
-379.917	-119.375	0.261	0.046
-378.902	-200.000	0.032	0.311
-377.888	61.970	-0.271	-0.271
-376.873	-88.377	0.313	-0.094
-375.858	-200.000	-0.022	0.131
-374.844	-109.235	0.236	-0.050
-373.829	-144.405	-0.261	-0.024
-372.815	75.593	-0.185	0.196
-371.800	-82.893	0.018	0.006
-370.785	-91.116	0.226	-0.065
-369.771	-200.000	-0.010	-0.045
-368.756	33.693	-0.195	-0.170
-367.742	-180.261	-0.227	0.005
-366.727	-200.000	0.035	0.361
-365.712	231.199	0.006	-0.010
-364.698	-200.000	-0.011	0.061
-363.683	-35.732	-0.128	-0.069
-362.669	215.964	-0.124	0.198
-361.654	746.134	-0.031	0.085
-360.639	154.600	0.187	0.258
-359.625	-200.000	0.047	0.222
-358.610	502.321	-0.029	0.068
-357.596	163.233	-0.032	-0.045
-356.581	-126.446	-0.315	0.047
-355.566	10.956	-0.273	-0.209
-354.552	58.518	0.083	-0.082
-353.537	-118.696	0.142	-0.025
-352.523	61.726	0.217	-0.216
-351.508	38.261	-0.222	0.198
-350.493	87.679	0.070	0.078
-349.479	135.770	-0.262	-0.342
-348.464	-200.000	-0.024	0.173
-347.450	-13.925	0.168	0.109
-346.435	-200.000	0.010	0.083
-345.420	20.207	-0.095	-0.077
-344.406	-33.730	-0.071	-0.039
-343.391	404.245	-0.095	-0.202
-342.377	-143.180	0.123	0.012
-341.362	-92.371	0.292	-0.082
-340.348	-61.754	0.168	-0.071
-339.333	171.126	0.191	0.275
-338.318	107.377	0.064	-0.077
-337.304	8.386	-0.117	0.088
-336.289	-149.809	-0.168	0.013
-335.275	800.000	0.162	-0.473
-334.260	119.388	0.017	-0.021
-333.245	800.000	-0.056	-0.190
-332.231	137.793	0.043	0.056
-331.216	-48.980	-0.162	0.078
-330.202	29.517	-0.193	-0.164
-329.187	351.337	0.160	-0.317
-328.172	93.362	0.102	-0.116
-327.158	-200.000	0.007	0.074
-326.143	-60.477	0.137	-0.058
-325.129	218.444	-0.078	-0.125
-324.114	239.741	0.156	0.261
-323.099	-200.000	-0.054	0.255
-322.085	-200.000	-0.398	0.001
-321.070	120.579	-0.127	-0.158
-320.056	78.803	0.211	-0.226
-319.041	125.833	-0.231	0.292
-318.026	35.352	-0.119	0.104
-317.012	-200.000	0.008	-0.233
-315.997	-9.762	-0.159	-0.106
-314.983	-27.563	-0.380	0.221
-313.968	143.309	0.159	-0.212
-312.953	800.000	0.038	-0.107
-311.939	60.664	0.126	-0.125
-310.924	-69.155	0.351	0.135
-309.910	-72.515	0.236	-0.087
-308.895	-120.440	0.353	-0.060
-307.880	-30.284	-0.378	0.215
-306.866	56.060	-0.036	-0.035
-305.851	800.000	0.062	-0.239
-304.837	-44.448	-0.326	-0.163
-303.822	-104.444	-0.103	-0.024
-302.807	-200.000	0.011	0.097
-301.793	421.180	-0.059	0.126
-300.778	-68.051	-0.197	-0.077
-299.764	-129.387	0.376	0.052
-298.749	655.905	-0.101	0.259
-297.735	800.000	-0.045	0.183
-296.720	-200.000	0.022	-0.157
-295.705	92.357	-0.345	-0.389
-294.691	800.000	0.030	-0.109
-293.676	357.202	0.082	0.164
-292.662	288.144	0.122	0.220
-291.647	248.235	0.214	0.363
-290.632	800.000	-0.049	0.209
-289.618	-160.444	-0.426	0.023
-288.603	305.270	-0.159	0.295
-287.589	71.250	0.059	0.062
-286.574	117.347	-0.046	0.057
-285.559	150.498	-0.160	-0.217
-284.545	-113.832	0.171	0.033
-283.530	5.626	0.394	0.291
-282.516	-200.000	0.057	0.251
-281.501	-14.401	0.163	0.105
-280.486	-133.850	0.188	0.023
-279.472	-28.233	-0.315	0.182
-278.457	-63.120	-0.089	-0.037
-277.443	101.252	-0.008	0.010
-276.428	-34.334	-0.369	0.202
-275.413	800.000	0.070	0.262
-274.399	284.395	-0.254	-0.456
-273.384	-60.411	0.129	0.055
-272.370	-80.660	0.088	-0.029
-271.355	-76.014	0.241	0.085
-270.340	333.650	-0.047	0.092
-269.326	-34.631	-0.247	-0.135
-268.311	789.826	0.052	0.142
-267.297	-175.125	0.273	-0.008
-266.282	-74.109	0.147	-0.053
-265.267	-1.513	0.197	-0.139
-264.253	57.615	0.118	0.115
-263.238	-200.000	-0.016	0.106
-262.224	-200.000	0.019	-0.091
-261.209	-200.000	-0.001	-0.125
-260.195	24.795	-0.161	0.133
-259.180	-78.436	-0.420	0.144
-258.165	800.000	-0.013	0.044
-257.151	800.000	0.020	-0.081
-256.136	144.358	-0.246	0.329
-255.122	-68.086	-0.110	-0.043
-254.107	-66.802	0.201	-0.079
-253.092	54.139	0.124	0.119
-252.078	619.896	0.034	-0.085
-251.063	232.652	0.096	0.157
-250.049	-47.304	0.110	0.053
-249.034	506.844	-0.111	0.256
-248.019	-200.000	-0.067	-0.365
-247.005	507.760	-0.142	0.328
-245.990	-103.314	-0.282	-0.066
-244.976	800.000	0.066	0.218
-243.961	19.366	-0.140	0.113
-242.946	-81.485	0.299	-0.098
-241.932	-16.300	-0.182	-0.115
-240.917	193.305	-0.110	0.166
-239.903	360.589	0.158	0.316
-238.888	341.266	-0.131	0.256
-237.873	70.921	-0.137	-0.141
-236.859	-6.629	0.085	0.058
-235.844	363.663	-0.036	0.072
-234.830	-70.797	0.241	-0.091
-233.815	800.000	0.039	0.152
-232.800	-200.000	0.024	0.341
-231.786	-85.635	0.194	-0.060
-230.771	-29.798	0.206	-0.117
-229.757	-200.000	-0.031	0.153
-228.742	-82.103	-0.224	-0.073
-227.727	570.588	-0.151	-0.367
-226.713	-110.940	-0.263	0.054
-225.698	-200.000	0.073	-0.385
-224.684	800.000	0.038	-0.165
-223.669	-18.799	0.245	-0.152
-222.655	-130.885	-0.083	-0.011
-221.640	481.651	-0.087	-0.197
-220.625	-104.970	-0.240	0.055
-219.611	25.700	-0.110	0.091
-218.596	-129.896	-0.320	0.044
-217.582	-101.770	-0.051	-0.012
-216.567	-37.105	0.191	0.102
-215.552	-200.000	0.079	0.458
-214.538	-71.915	0.270	0.100
-213.523	590.081	0.044	0.108
-212.509	800.000	0.092	-0.283
-211.494	247.751	0.100	0.169
-210.479	-107.722	0.154	-0.034
-209.465	37.065	0.267	-0.235
-208.450	-200.000	0.050	0.223
-207.436	800.000	0.057	0.196
-206.421	123.924	-0.184	-0.230
-205.406	-200.000	0.011	-0.181
-204.392	-145.677	-0.340	-0.030
-203.377	121.474	0.099	0.123
-202.363	353.380	0.140	0.276
-201.348	-92.238	0.313	-0.088
-200.333	800.000	-0.079	-0.219
-199.319	-96.213	0.128	-0.034
-198.304	79.499	0.256	0.274
-197.290	-200.000	0.013	0.374
-196.275	46.782	-0.203	-0.187
-195.260	420.172	-0.131	0.280
-194.246	-163.776	-0.390	-0.018
-193.231	256.964	0.108	0.186
-192.217	-167.104	-0.201	-0.008
-191.202	114.879	0.136	0.165
-190.187	6.579	0.137	0.101
-189.173	341.279	-0.029	0.057
-188.158	606.797	0.046	0.114
-187.144	-200.000	0.001	0.201
-186.129	-54.433	0.058	0.026
-185.114	271.132	-0.138	-0.241
-184.100	463.571	0.016	-0.036
-183.085	-11.004	-0.080	-0.053
-182.071	-200.000	-0.068	-0.418
-181.056	-2.030	-0.282	-0.197
-180.042	-200.000	-0.029	-0.279
-179.027	-92.624	0.288	0.080
-178.012	75.968	-0.146	0.154
-176.998	-200.000	0.010	-0.077
-175.983	-88.033	-0.074	0.022
-174.969	800.000	-0.124	0.353
-173.954	-146.596	0.221	0.019
-172.939	33.734	-0.048	-0.041
-171.925	-62.635	-0.168	0.070
-170.910	-147.136	0.159	0.014
-169.896	-120.342	0.128	0.022
-168.881	800.000	0.154	-0.453
-167.866	-200.000	0.013	0.349
-166.852	-200.000	-0.045	0.307
-165.837	800.000	-0.057	-0.188
-164.823	-176.384	0.119	-0.003
-163.808	-200.000	-0.013	-0.197
-162.793	27.443	-0.122	0.102
-161.779	-200.000	-0.028	-0.214
-160.764	-68.759	-0.259	0.100
-159.750	44.614	0.272	0.249
-158.735	-200.000	0.008	-0.096
-157.720	-200.000	-0.065	0.330
-156.706	-33.962	0.152	0.083
-155.691	5.964	0.119	-0.087
-154.677	99.337	-0.108	-0.124
-153.662	0.524	-0.062	-0.044
-152.647	-166.897	-0.142	0.006
-151.633	208.668	0.105	0.163
-150.618	131.194	0.174	0.222
-149.604	-200.000	0.009	-0.194
-148.589	-128.302	-0.205	-0.029
-147.574	235.963	0.172	-0.282
-146.560	-200.000	-0.027	0.178
-145.545	-200.000	0.006	0.330
-144.531	-121.918	0.136	-0.022
-143.516	-200.000	-0.016	0.171
-142.502	800.000	-0.055	0.176
-141.487	-89.895	0.272	0.079
-140.472	658.107	0.119	0.304
-139.458	-2.319	0.308	0.215
-138.443	-200.000	-0.027	0.123
-137.429	-104.684	-0.295	-0.068
-136.414	215.376	-0.075	-0.118
-135.399	-200.000	-0.004	-0.114
-134.385	800.000	-0.081	0.346
-133.370	-162.256	-0.308	0.015
-132.356	81.666	-0.170	0.183
-131.341	344.982	-0.080	-0.157
-130.326	325.145	0.113	-0.214
-129.312	474.195	0.023	0.051
-128.297	-131.999	0.216	0.028
-127.283	-200.000	0.055	0.317
-126.268	-61.617	-0.264	-0.110
-125.253	-66.867	-0.356	0.140
-124.239	-200.000	0.015	-0.130
-123.224	-26.028	0.347	0.203
-122.210	27.325	-0.088	0.073
-121.195	-113.702	-0.191	-0.037
