DTS Sentinel unit serial number:	SN413079Multiplexer serial number:	ORYXHardware model number:	OX4-SRSoftware version number:	ORYX F/W v4.00 Oryx Data Collector v3.7.2.0data status	okinstallation	princeton_trtdifferential loss correction	single-endedforward channel	channel 2reverse channel	N/Adate	2019/09/13time	15:59:35forward acquisition time	60.00reverse acquisition time	0.00gamma	496.2192k internal	0.2316k external	0.2316temperature offset calibration	1.0208default loss term (dB/km)	0.3790temperature slope calibration	1.0000multiplexer offset coefficient	1.0000multiplexer slope coefficient	1.0000fibre end	0.00T internal ref (°C)	34.62T ext. ref 1 (°C)	4.81T ext. ref 2 (°C)	31.20length (m)	temperature (°C)	Stokes	anti-Stokes-747.200	169.407	0.140	0.203
-746.185	-103.701	-0.474	0.113
-745.171	-200.000	0.015	-0.079
-744.156	34.026	-0.226	0.199
-743.142	-131.900	0.178	0.024
-742.127	411.538	0.055	-0.118
-741.112	-200.000	-0.002	-0.202
-740.098	800.000	0.064	0.251
-739.083	-200.000	0.042	-0.318
-738.069	-135.600	0.164	0.020
-737.054	-144.261	-0.140	-0.013
-736.039	-200.000	0.001	0.148
-735.025	-200.000	0.093	0.449
-734.010	-147.808	-0.193	-0.016
-732.996	-130.975	-0.366	0.050
-731.981	72.079	0.060	0.063
-730.966	-8.941	0.134	-0.091
-729.952	-109.825	-0.186	-0.040
-728.937	316.826	-0.148	-0.283
-727.923	-91.028	-0.056	0.016
-726.908	-19.255	0.195	0.123
-725.894	-144.092	-0.396	0.038
-724.879	-135.586	-0.531	0.064
-723.864	221.282	0.123	-0.200
-722.850	-200.000	-0.012	-0.167
-721.835	79.619	0.070	-0.076
-720.821	558.854	-0.126	-0.307
-719.806	7.179	-0.215	0.162
-718.791	-167.881	-0.279	0.011
-717.777	-167.596	-0.280	0.011
-716.762	-200.000	-0.054	-0.293
-715.748	-200.000	-0.002	-0.154
-714.733	-127.053	-0.081	-0.012
-713.718	-18.547	0.029	0.018
-712.704	435.823	-0.059	-0.130
-711.689	16.868	0.028	-0.022
-710.675	800.000	0.016	-0.051
-709.660	548.117	-0.019	-0.046
-708.645	345.519	0.134	-0.267
-707.631	-200.000	-0.198	-0.000
-706.616	629.833	-0.059	-0.152
-705.602	210.381	-0.169	-0.269
-704.587	63.020	0.214	-0.217
-703.572	800.000	-0.055	0.173
-702.558	1.662	0.143	0.104
-701.543	508.776	-0.125	0.293
-700.529	234.226	0.078	0.129
-699.514	-200.000	0.355	0.002
-698.499	-147.728	0.334	0.028
-697.485	-55.629	-0.244	-0.111
-696.470	-127.770	-0.440	-0.064
-695.456	-200.000	0.031	0.282
-694.441	-69.579	-0.210	0.081
-693.426	-4.152	-0.249	-0.174
-692.412	-143.206	-0.256	0.025
-691.397	-200.000	-0.036	0.284
-690.383	84.128	-0.106	0.117
-689.368	-21.871	0.099	-0.061
-688.354	-200.000	0.010	0.122
-687.339	81.336	0.150	-0.164
-686.324	577.853	-0.113	0.278
-685.310	-136.932	-0.329	0.038
-684.295	-101.326	0.053	0.013
-683.281	-38.637	0.175	-0.094
-682.266	800.000	0.078	-0.248
-681.251	800.000	-0.058	-0.225
-680.237	-91.965	0.472	-0.135
-679.222	315.219	-0.187	0.356
-678.208	-126.543	-0.241	0.036
-677.193	-59.663	-0.158	-0.068
-676.178	-200.000	-0.030	0.290
-675.164	800.000	0.025	-0.088
-674.149	800.000	-0.104	-0.378
-673.135	100.955	-0.052	-0.061
-672.120	324.392	0.097	-0.187
-671.105	-87.875	0.102	0.031
-670.091	-24.287	0.237	-0.143
-669.076	800.000	0.006	0.025
-668.062	637.456	-0.086	0.220
-667.047	800.000	-0.050	-0.159
-666.032	-106.683	-0.271	0.061
-665.018	138.139	0.158	0.209
-664.003	60.496	0.109	0.109
-662.989	-200.000	-0.033	-0.224
-661.974	-81.576	0.267	-0.089
-660.959	-44.246	-0.238	0.120
-659.945	-44.946	-0.205	0.103
-658.930	800.000	-0.099	0.342
-657.916	-45.845	0.170	0.085
-656.901	-192.141	0.261	0.003
-655.886	800.000	0.084	-0.238
-654.872	-70.937	0.188	-0.072
-653.857	84.025	0.178	0.196
-652.843	-200.000	-0.031	0.188
-651.828	-70.960	-0.209	-0.079
-650.814	800.000	0.088	-0.264
-649.799	64.760	0.041	0.041
-648.784	247.164	-0.094	0.160
-647.770	-36.935	0.239	-0.130
-646.755	800.000	-0.020	-0.059
-645.741	-200.000	0.034	-0.208
-644.726	-143.006	-0.158	-0.015
-643.711	657.783	0.053	-0.138
-642.697	800.000	0.096	-0.277
-641.682	-71.340	0.174	0.066
-640.668	-117.057	0.075	-0.014
-639.653	-200.000	-0.000	-0.082
-638.638	-10.076	-0.432	0.290
-637.624	87.455	0.121	0.135
-636.609	34.322	0.411	-0.362
-635.595	157.007	-0.203	0.283
-634.580	-200.000	0.007	-0.142
-633.565	501.526	0.056	0.132
-632.551	49.043	-0.090	0.085
-631.536	-138.389	-0.308	0.034
-630.522	65.181	-0.214	-0.218
-629.507	-200.000	0.024	0.238
-628.492	800.000	0.050	0.196
-627.478	24.419	0.197	-0.164
-626.463	115.979	0.185	-0.228
-625.449	-137.459	0.196	-0.022
-624.434	800.000	0.067	-0.212
-623.419	10.495	0.247	-0.190
-622.405	-200.000	0.035	-0.192
-621.390	800.000	0.087	0.340
-620.376	-87.756	-0.233	0.071
-619.361	-40.748	-0.257	0.134
-618.346	-35.850	0.207	0.113
-617.332	150.306	0.081	0.111
-616.317	-0.108	-0.156	-0.112
-615.303	-200.000	0.002	-0.113
-614.288	-6.374	0.158	-0.108
-613.273	-200.000	0.056	-0.274
-612.259	-102.794	0.163	-0.039
-611.244	-200.000	0.003	0.047
-610.230	14.873	-0.264	-0.208
-609.215	127.100	0.034	0.043
-608.201	494.711	-0.067	0.155
-607.186	-65.453	-0.229	0.093
-606.171	116.076	-0.131	0.161
-605.157	25.755	-0.007	0.006
-604.142	35.288	-0.139	0.122
-603.128	223.348	0.162	0.263
-602.113	140.524	0.224	-0.297
-601.098	158.037	-0.119	0.167
-600.084	268.445	-0.072	0.127
-599.069	-47.308	0.111	0.054
-598.055	693.087	-0.118	-0.313
-597.040	-57.902	-0.207	-0.091
-596.025	-155.199	-0.047	0.003
-595.011	47.907	0.031	-0.029
-593.996	-200.000	0.010	-0.067
-592.982	-197.697	-0.138	0.001
-591.967	-150.980	0.353	0.027
-590.952	800.000	-0.071	-0.257
-589.938	23.987	0.119	0.099
-588.923	9.891	-0.197	0.150
-587.909	395.784	0.152	-0.319
-586.894	800.000	-0.066	-0.255
-585.879	-200.000	0.020	0.353
-584.865	-200.000	-0.006	0.032
-583.850	800.000	-0.060	0.180
-582.836	-200.000	-0.016	0.189
-581.821	305.780	0.123	0.231
-580.806	140.948	0.107	0.142
-579.792	529.655	0.139	-0.331
-578.777	-200.000	-0.010	-0.091
-577.763	-200.000	-0.032	-0.174
-576.748	-81.837	-0.259	-0.085
-575.733	-47.293	-0.238	-0.117
-574.719	292.587	0.099	-0.181
-573.704	-45.828	0.132	-0.065
-572.690	576.411	0.066	-0.163
-571.675	154.610	0.091	-0.126
-570.661	46.624	0.116	-0.108
-569.646	71.922	0.200	0.209
-568.631	59.811	-0.134	-0.133
-567.617	-192.460	-0.299	-0.003
-566.602	-13.614	0.038	-0.025
-565.588	463.691	-0.111	-0.249
-564.573	121.511	0.017	-0.022
-563.558	-47.926	-0.342	0.167
-562.544	-125.542	-0.218	0.033
-561.529	63.774	0.137	0.139
-560.515	-90.910	0.334	-0.097
-559.500	-34.821	-0.272	0.149
-558.485	-97.537	-0.052	0.013
-557.471	99.490	0.069	0.080
-556.456	-200.000	-0.024	-0.497
-555.442	-76.729	0.127	0.045
-554.427	-144.642	-0.185	0.017
-553.412	-64.353	-0.234	-0.096
-552.398	-139.824	0.321	-0.034
-551.383	-200.000	0.035	0.261
-550.369	109.042	0.104	-0.126
-549.354	-155.242	-0.306	-0.020
-548.339	-136.873	-0.199	-0.023
-547.325	-200.000	-0.067	-0.419
-546.310	135.626	-0.162	-0.211
-545.296	-58.394	0.090	0.039
-544.281	50.912	0.069	0.065
-543.266	75.905	0.080	0.085
-542.252	-200.000	-0.021	-0.225
-541.237	-36.011	-0.101	-0.055
-540.223	782.413	-0.057	0.157
-539.208	-200.000	-0.010	0.327
-538.193	245.180	-0.102	-0.172
-537.179	31.111	-0.195	0.168
-536.164	91.451	-0.270	-0.305
-535.150	-79.497	-0.042	0.014
-534.135	-29.590	0.118	0.068
-533.121	-92.339	-0.059	0.017
-532.106	116.908	0.062	-0.076
-531.091	-94.818	0.150	0.041
-530.077	302.277	-0.095	0.177
-529.062	-53.270	0.245	0.113
-528.048	84.508	-0.166	-0.182
-527.033	-97.859	0.197	-0.051
-526.018	800.000	-0.027	-0.113
-525.004	-85.333	-0.276	-0.086
-523.989	-130.259	0.124	0.017
-522.975	-60.133	-0.187	-0.080
-521.960	-2.347	-0.126	0.089
-520.945	-39.220	-0.224	0.118
-519.931	78.195	-0.063	0.067
-518.916	556.881	0.040	-0.097
-517.902	-200.000	-0.049	-0.228
-516.887	-200.000	0.021	-0.287
-515.872	-73.267	0.277	-0.102
-514.858	-200.000	-0.037	-0.273
-513.843	-125.422	-0.091	-0.014
-512.829	-90.861	0.139	0.040
-511.814	-68.746	-0.297	-0.115
-510.799	-73.752	0.079	0.029
-509.785	-170.639	0.249	-0.009
-508.770	-200.000	0.058	0.333
-507.756	-142.375	0.202	0.020
-506.741	188.363	-0.070	0.105
-505.726	-72.398	-0.110	-0.041
-504.712	102.834	0.246	0.290
-503.697	-53.691	0.277	-0.127
-502.683	-38.741	-0.048	0.026
-501.668	800.000	-0.150	0.467
-500.653	-155.331	0.535	0.035
-499.639	-200.000	-0.048	0.275
-498.624	222.170	-0.186	0.300
-497.610	-110.255	-0.307	-0.064
-496.595	-123.621	0.132	0.021
-495.581	577.995	-0.073	-0.179
-494.566	-87.487	0.255	-0.077
-493.551	-182.212	-0.362	0.007
-492.537	-168.515	0.155	0.006
-491.522	141.878	0.093	-0.124
-490.508	-200.000	0.006	0.030
-489.493	-200.000	-0.022	-0.116
-488.478	310.915	-0.036	-0.068
-487.464	-200.000	0.003	0.195
-486.449	147.087	0.180	-0.243
-485.435	800.000	0.101	0.302
-484.420	-89.475	0.212	-0.063
-483.405	-200.000	-0.015	0.201
-482.391	-66.015	-0.284	-0.114
-481.376	-135.067	-0.151	-0.018
-480.362	800.000	0.029	0.103
-479.347	-48.172	-0.134	0.065
-478.332	-29.425	0.032	0.018
-477.318	-57.453	0.304	-0.134
-476.303	168.233	0.070	-0.100
-475.289	70.686	-0.358	0.372
-474.274	-108.576	-0.218	0.047
-473.259	-200.000	-0.064	-0.314
-472.245	601.878	0.110	0.273
-471.230	27.177	-0.117	-0.099
-470.216	-29.558	-0.212	0.122
-469.201	-60.419	0.284	-0.121
-468.186	82.829	-0.118	-0.129
-467.172	259.957	0.206	-0.357
-466.157	-7.876	0.217	-0.146
-465.143	-200.000	-0.044	0.286
-464.128	-142.652	-0.144	0.014
-463.113	495.091	0.093	-0.214
-462.099	361.976	0.068	0.136
-461.084	-151.428	0.056	-0.004
-460.070	-200.000	-0.028	0.360
-459.055	800.000	0.017	0.074
-458.040	674.263	0.070	-0.183
-457.026	-200.000	0.071	-0.376
-456.011	332.002	0.090	-0.174
-454.997	-200.000	-0.004	-0.266
-453.982	7.016	-0.208	-0.156
-452.968	-160.695	-0.222	0.012
-451.953	-52.502	-0.188	-0.087
-450.938	800.000	0.079	-0.317
-449.924	-200.000	-0.026	0.236
-448.909	-24.543	-0.074	0.044
-447.895	-100.167	-0.383	-0.095
-446.880	-40.801	0.176	0.091
-445.865	-27.624	0.172	0.100
-444.851	-32.928	-0.133	0.074
-443.836	-200.000	-0.047	-0.212
-442.822	-61.498	0.202	-0.085
-441.807	120.696	0.115	-0.143
-440.792	2.008	0.115	-0.083
-439.778	-200.000	-0.004	-0.129
-438.763	-50.893	0.091	-0.043
-437.749	800.000	0.110	0.354
-436.734	-12.848	0.196	-0.128
-435.719	-92.165	0.101	0.028
-434.705	62.788	-0.234	-0.234
-433.690	-83.670	-0.061	-0.019
-432.676	101.668	-0.128	-0.149
-431.661	-200.000	0.002	-0.061
-430.646	-116.756	0.114	0.021
-429.632	-200.000	0.012	0.170
-428.617	-85.025	-0.266	0.083
-427.603	-15.418	-0.190	-0.121
-426.588	-170.746	-0.117	-0.004
-425.573	-200.000	-0.018	0.320
-424.559	577.711	-0.074	0.181
-423.544	-77.040	-0.023	-0.008
-422.530	-79.848	-0.259	-0.087
-421.515	563.485	0.067	0.162
-420.500	800.000	-0.059	-0.186
-419.486	303.302	-0.110	-0.203
-418.471	-111.578	0.219	-0.044
-417.457	440.712	-0.038	0.082
-416.442	-99.123	0.287	-0.073
-415.428	-128.241	-0.289	0.041
-414.413	-37.536	-0.229	0.122
-413.398	-66.184	-0.245	0.098
-412.384	-103.685	0.399	0.094
-411.369	149.163	0.168	0.227
-410.355	51.662	-0.194	-0.184
-409.340	96.272	-0.153	0.175
-408.325	-2.362	0.199	-0.140
-407.311	-75.228	-0.130	-0.046
-406.296	-200.000	-0.049	-0.265
-405.282	-57.558	0.016	0.007
-404.267	-200.000	0.024	0.115
-403.252	78.830	0.063	-0.068
-402.238	-200.000	0.003	0.148
-401.223	268.251	0.080	-0.141
-400.209	-43.352	0.039	-0.020
-399.194	17.696	-0.063	-0.050
-398.179	107.884	-0.144	-0.171
-397.165	-200.000	-0.003	0.149
-396.150	110.819	-0.257	0.309
-395.136	513.635	-0.116	-0.269
-394.121	800.000	0.012	-0.040
-393.106	800.000	0.023	-0.071
-392.092	-93.096	-0.042	-0.012
-391.077	436.941	-0.066	-0.143
-390.063	23.261	-0.135	0.111
-389.048	87.549	0.183	-0.202
-388.033	-102.434	0.300	0.072
-387.019	11.878	0.308	-0.236
-386.004	-118.874	-0.282	0.050
-384.990	151.816	0.127	0.174
-383.975	-42.253	-0.145	0.074
-382.960	113.786	-0.113	-0.137
-381.946	29.091	0.491	-0.416
-380.931	-63.777	-0.249	-0.102
-379.917	17.571	0.243	0.193
-378.902	-4.881	-0.154	-0.106
-377.888	106.014	-0.186	-0.220
-376.873	-7.198	0.298	0.201
-375.858	-109.664	0.051	-0.011
-374.844	800.000	0.110	0.346
-373.829	-95.258	0.313	0.084
-372.815	-60.877	0.231	-0.097
-371.800	-200.000	0.009	0.092
-370.785	-88.491	-0.270	0.080
-369.771	335.555	-0.009	0.018
-368.756	-53.703	0.148	0.068
-367.742	-200.000	0.022	0.230
-366.727	-166.198	-0.249	-0.011
-365.712	17.932	-0.144	-0.114
-364.698	177.322	0.051	0.074
-363.683	-95.769	0.139	-0.037
-362.669	-24.837	0.218	0.129
-361.654	-200.000	0.027	0.152
-360.639	-140.527	-0.256	-0.027
-359.625	-93.492	-0.124	0.034
-358.610	123.221	0.163	-0.204
-357.596	-53.049	0.081	0.037
-356.581	-54.828	-0.529	-0.238
-355.566	48.753	-0.249	0.233
-354.552	118.714	0.193	0.238
-353.537	188.385	0.270	0.402
-352.523	106.393	0.117	-0.138
-351.508	39.022	0.185	0.165
-350.493	800.000	-0.117	-0.387
-349.479	-200.000	-0.008	0.125
-348.464	88.147	-0.107	0.119
-347.450	-127.379	0.346	0.050
-346.435	-200.000	-0.042	0.321
-345.420	-41.271	0.182	-0.094
-344.406	276.688	-0.016	0.028
-343.391	-78.083	0.403	0.138
-342.377	-136.826	0.268	-0.031
-341.362	-134.428	-0.390	0.048
-340.348	-172.753	-0.224	0.007
-339.333	-107.382	-0.381	0.083
-338.318	467.846	0.152	-0.339
-337.304	126.240	0.065	-0.082
-336.289	-36.428	0.142	-0.076
-335.275	-147.144	0.186	0.016
-334.260	296.619	0.090	0.164
-333.245	64.766	0.251	0.253
-332.231	124.421	0.019	0.023
-331.216	-89.881	0.339	0.099
-330.202	25.127	-0.055	-0.045
-329.187	-155.945	-0.161	0.010
-328.172	-108.308	-0.221	-0.047
-327.158	-200.000	0.016	0.092
-326.143	-200.000	-0.021	0.107
-325.129	-130.609	-0.193	0.026
-324.114	-13.667	0.144	-0.093
-323.099	124.167	-0.178	-0.222
-322.085	111.467	0.131	0.157
-321.070	6.640	0.080	0.059
-320.056	-200.000	-0.006	-0.377
-319.041	98.567	0.133	0.153
-318.026	-200.000	-0.008	0.154
-317.012	800.000	-0.051	0.160
-315.997	5.526	0.137	0.100
-314.983	-200.000	-0.003	-0.142
-313.968	-148.053	-0.384	-0.032
-312.953	-200.000	-0.027	-0.161
-311.939	-53.624	-0.024	0.011
-310.924	-200.000	-0.031	0.179
-309.910	-85.309	0.398	0.124
-308.895	-6.307	0.197	0.134
-307.880	-163.223	0.236	0.011
-306.866	29.770	0.054	-0.046
-305.851	-116.627	-0.202	-0.037
-304.837	43.883	-0.174	-0.159
-303.822	-146.241	0.226	0.020
-302.807	193.364	0.043	-0.065
-301.793	47.004	0.199	0.184
-300.778	129.471	-0.053	0.067
-299.764	-156.248	0.083	-0.005
-298.749	181.372	-0.053	0.077
-297.735	162.493	0.157	-0.219
-296.720	-85.694	0.049	-0.015
-295.705	-105.234	-0.069	0.016
-294.691	-10.306	-0.303	-0.200
-293.676	534.644	0.104	-0.245
-292.662	522.071	0.044	-0.103
-291.647	-200.000	-0.003	0.185
-290.632	800.000	-0.116	0.453
-289.618	-121.922	0.517	0.085
-288.603	609.380	0.185	-0.460
-287.589	-89.325	-0.484	0.142
-286.574	-200.000	-0.014	-0.075
-285.559	-21.077	0.111	0.068
-284.545	28.144	-0.102	-0.086
-283.530	-200.000	-0.021	-0.149
-282.516	-42.917	-0.205	-0.103
-281.501	312.826	0.082	-0.154
-280.486	-181.252	-0.258	-0.005
-279.472	-200.000	-0.055	0.258
-278.457	100.237	-0.147	0.169
-277.443	-200.000	0.016	0.070
-276.428	36.282	0.197	0.173
-275.413	41.763	-0.122	-0.110
-274.399	24.191	0.228	0.187
-273.384	-200.000	0.004	-0.288
-272.370	-39.799	-0.185	0.096
-271.355	-138.442	-0.347	0.038
-270.340	-200.000	0.018	-0.114
-269.326	-200.000	-0.048	0.465
-268.311	242.149	0.140	0.232
-267.297	-188.092	0.082	0.001
-266.282	188.245	0.143	-0.213
-265.267	166.454	0.217	-0.306
-264.253	22.264	-0.430	-0.349
-263.238	-89.306	0.367	0.108
-262.224	47.315	0.121	-0.112
-261.209	37.318	-0.157	-0.138
-260.195	463.007	0.028	-0.063
-259.180	-144.575	-0.267	-0.024
-258.165	-200.000	0.055	-0.269
-257.151	800.000	-0.111	0.435
-256.136	-29.919	0.202	0.115
-255.122	800.000	-0.024	-0.084
-254.107	-31.092	-0.273	-0.153
-253.092	-83.084	-0.162	0.052
-252.078	143.264	0.146	-0.193
-251.063	36.787	0.134	-0.118
-250.049	31.423	-0.225	0.192
-249.034	-200.000	-0.029	-0.141
-248.019	64.150	-0.069	-0.069
-247.005	134.403	-0.225	0.290
-245.990	800.000	0.114	0.462
-244.976	405.651	-0.091	0.190
-243.961	495.966	0.093	0.212
-242.946	-161.724	0.079	0.004
-241.932	-200.000	-0.032	-0.207
-240.917	800.000	-0.091	-0.276
-239.903	7.250	-0.167	-0.124
-238.888	465.174	-0.056	0.125
-237.873	299.359	-0.169	-0.309
-236.859	17.504	-0.114	-0.090
-235.844	118.769	0.114	0.140
-234.830	49.135	0.027	-0.025
-233.815	-13.186	0.150	0.097
-232.800	-122.310	0.232	-0.038
-231.786	344.800	-0.046	0.091
-230.771	-200.000	-0.007	-0.247
-229.757	326.932	-0.103	-0.196
-228.742	-200.000	-0.026	0.352
-227.727	-27.807	0.032	0.019
-226.713	-21.490	-0.168	-0.102
-225.698	-144.374	0.454	-0.042
-224.684	-200.000	0.021	-0.294
-223.669	636.838	-0.100	0.253
-222.655	-200.000	-0.013	-0.540
-221.640	-200.000	-0.030	-0.333
-220.625	-57.305	0.178	0.078
-219.611	-14.085	0.108	0.069
-218.596	319.301	0.047	0.089
-217.582	-198.489	-0.150	0.001
-216.567	-118.801	0.139	0.024
-215.552	-200.000	-0.160	-0.001
-214.538	152.096	0.059	0.079
-213.523	168.273	-0.245	0.346
-212.509	-46.728	0.257	0.125
-211.494	576.042	-0.037	-0.090
-210.479	-82.750	-0.115	-0.037
-209.465	800.000	0.012	0.041
-208.450	-111.300	-0.092	-0.019
-207.436	121.186	-0.245	0.302
-206.421	-10.606	0.165	0.108
-205.406	-62.596	0.193	0.079
-204.392	71.645	0.052	-0.054
-203.377	306.315	0.033	0.062
-202.363	40.613	0.141	0.126
-201.348	-34.198	0.174	0.095
-200.333	-115.495	0.210	0.039
-199.319	97.737	0.315	0.360
-198.304	286.865	0.173	0.310
-197.290	361.383	0.178	0.354
-196.275	97.068	-0.269	-0.306
-195.260	-83.953	0.356	-0.112
-194.246	-200.000	-0.005	-0.094
-193.231	-153.557	0.161	-0.011
-192.217	6.705	0.182	0.134
-191.202	51.822	-0.094	0.088
-190.187	439.390	0.222	0.480
-189.173	84.282	-0.291	0.316
-188.158	-98.624	0.134	-0.034
-187.144	216.033	-0.055	-0.087
-186.129	329.315	-0.099	0.188
-185.114	-79.589	-0.187	-0.063
-184.100	91.802	0.121	-0.135
-183.085	-59.415	-0.161	-0.069
-182.071	-200.000	0.000	0.086
-181.056	-164.246	0.012	0.001
-180.042	530.797	-0.151	-0.354
-179.027	-200.000	-0.049	-0.218
-178.012	-67.910	-0.163	0.063
-176.998	-101.711	-0.103	-0.025
-175.983	234.757	-0.131	0.215
-174.969	-104.414	0.154	-0.035
-173.954	-124.056	0.084	-0.013
-172.939	313.334	0.097	0.180
-171.925	-153.288	-0.097	-0.007
-170.910	-114.578	-0.238	-0.045
-169.896	-200.000	0.038	0.401
-168.881	800.000	0.115	0.417
-167.866	-145.448	-0.195	-0.017
-166.852	-119.557	0.334	-0.057
-165.837	-200.000	0.009	0.107
-164.823	-200.000	0.027	0.300
-163.808	-200.000	0.046	-0.214
-162.793	-87.564	0.147	-0.044
-161.779	-4.518	-0.323	-0.221
-160.764	-200.000	0.042	-0.306
-159.750	-200.000	0.005	0.194
-158.735	-200.000	-0.020	0.161
-157.720	-78.931	-0.202	0.068
-156.706	194.728	-0.085	0.128
-155.691	12.112	0.356	-0.272
-154.677	-161.645	-0.276	-0.014
-153.662	273.838	-0.059	-0.103
-152.647	-107.856	-0.094	-0.020
-151.633	-36.436	-0.090	0.048
-150.618	114.891	-0.176	0.212
-149.604	-32.350	-0.305	0.168
-148.589	-49.050	0.221	-0.104
-147.574	0.667	-0.213	0.151
-146.560	-177.878	-0.198	0.005
-145.545	-69.500	-0.142	-0.054
-144.531	19.228	0.170	0.135
-143.516	547.190	0.052	-0.123
-142.502	-95.344	0.045	-0.012
-141.487	129.493	-0.034	0.043
-140.472	-81.313	-0.241	0.079
-139.458	116.663	0.151	0.183
-138.443	-121.547	0.072	-0.012
-137.429	53.738	-0.290	-0.276
-136.414	81.549	-0.038	-0.041
-135.399	-200.000	0.035	0.220
-134.385	-200.000	-0.030	-0.183
-133.370	19.517	0.204	0.162
-132.356	245.802	0.071	0.119
-131.341	161.924	-0.181	0.250
-130.326	36.665	0.169	-0.148
-129.312	96.725	-0.334	-0.378
-128.297	-62.869	-0.134	-0.055
-127.283	-82.047	0.163	0.053
-126.268	-22.032	-0.065	-0.039
-125.253	-200.000	-0.034	-0.363
-124.239	185.048	-0.080	0.117
-123.224	-200.000	-0.001	-0.167
-122.210	-35.054	0.216	0.117
