DTS Sentinel unit serial number:	SN413079Multiplexer serial number:	ORYXHardware model number:	OX4-SRSoftware version number:	ORYX F/W v4.00 Oryx Data Collector v3.7.2.0data status	okinstallation	princeton_trtdifferential loss correction	single-endedforward channel	channel 2reverse channel	N/Adate	2019/09/19time	07:43:35forward acquisition time	60.00reverse acquisition time	0.00gamma	496.2192k internal	0.2351k external	0.2351temperature offset calibration	1.0009default loss term (dB/km)	0.3790temperature slope calibration	1.0000multiplexer offset coefficient	1.0000multiplexer slope coefficient	1.0000fibre end	0.00T internal ref (°C)	19.45T ext. ref 1 (°C)	0.56T ext. ref 2 (°C)	14.58length (m)	temperature (°C)	Stokes	anti-Stokes-747.200	56.217	-0.144	-0.140
-746.185	-200.000	0.004	-0.028
-745.171	-93.313	-0.238	0.066
-744.156	800.000	-0.058	-0.212
-743.142	-94.817	-0.099	0.027
-742.127	-65.455	-0.250	0.100
-741.112	-186.858	0.108	-0.001
-740.098	-113.158	-0.261	0.051
-739.083	-135.267	0.121	0.015
-738.069	-200.000	-0.025	0.141
-737.054	-47.897	-0.065	-0.031
-736.039	-8.639	-0.494	-0.331
-735.025	660.625	-0.032	0.082
-734.010	800.000	-0.068	0.272
-732.996	-33.268	-0.195	-0.108
-731.981	-75.017	-0.236	-0.084
-730.966	-94.294	-0.231	0.063
-729.952	36.041	0.221	0.194
-728.937	-64.701	-0.294	-0.119
-727.923	180.736	0.048	-0.070
-726.908	-200.000	-0.055	-0.285
-725.894	-20.974	0.134	-0.082
-724.879	-200.000	0.007	0.335
-723.864	-200.000	0.057	-0.258
-722.850	-200.000	0.064	0.354
-721.835	-67.636	-0.345	-0.135
-720.821	-77.336	-0.460	0.160
-719.806	-51.873	-0.249	0.115
-718.791	24.702	-0.182	0.150
-717.777	194.070	-0.223	-0.336
-716.762	-200.000	0.062	-0.301
-715.748	-103.441	0.264	-0.062
-714.733	-132.827	0.260	0.033
-713.718	-27.970	-0.066	0.038
-712.704	-186.049	0.060	0.001
-711.689	306.286	0.088	0.163
-710.675	156.190	0.029	0.040
-709.660	800.000	-0.027	-0.106
-708.645	3.283	0.304	-0.221
-707.631	-7.383	-0.323	-0.218
-706.616	-27.693	0.383	-0.222
-705.602	-200.000	0.009	0.492
-704.587	-70.209	0.300	-0.114
-703.572	-200.000	0.085	-0.425
-702.558	425.501	0.075	-0.160
-701.543	800.000	0.113	0.365
-700.529	800.000	0.054	0.218
-699.514	-3.543	0.083	0.058
-698.499	16.138	0.148	0.116
-697.485	-180.296	-0.067	-0.001
-696.470	89.346	-0.040	0.045
-695.456	-62.917	-0.256	0.106
-694.441	-70.722	0.269	-0.101
-693.426	-92.701	0.015	-0.004
-692.412	-200.000	0.001	-0.254
-691.397	-83.117	-0.291	0.093
-690.383	91.098	0.082	0.092
-689.368	25.363	0.215	-0.178
-688.354	123.541	-0.317	-0.395
-687.339	294.725	-0.067	-0.122
-686.324	157.419	-0.039	-0.054
-685.310	152.565	0.216	0.294
-684.295	-117.862	-0.411	-0.073
-683.281	136.128	-0.029	-0.038
-682.266	-32.679	-0.484	-0.268
-681.251	46.312	0.059	-0.055
-680.237	-64.338	-0.330	-0.133
-679.222	-34.987	0.163	-0.089
-678.208	10.387	0.210	-0.159
-677.193	35.548	-0.125	0.109
-676.178	-19.225	-0.108	0.066
-675.164	-200.000	0.049	0.360
-674.149	-117.538	0.346	-0.062
-673.135	79.858	-0.226	0.241
-672.120	-1.945	0.219	-0.153
-671.105	-200.000	-0.001	0.056
-670.091	94.056	-0.055	0.062
-669.076	-200.000	-0.016	0.085
-668.062	16.365	-0.046	0.036
-667.047	800.000	0.073	-0.209
-666.032	163.147	0.163	-0.228
-665.018	-200.000	-0.029	-0.137
-664.003	8.703	0.085	-0.064
-662.989	780.449	-0.049	0.132
-661.974	-49.002	-0.219	0.104
-660.959	-77.974	0.213	-0.073
-659.945	-95.286	-0.353	-0.094
-658.930	-92.660	0.230	-0.064
-657.916	-200.000	0.033	-0.326
-656.901	-125.679	-0.127	0.019
-655.886	788.083	0.067	-0.182
-654.872	-124.063	-0.088	0.014
-653.857	800.000	-0.028	0.114
-652.843	-200.000	0.009	0.291
-651.828	72.527	0.045	-0.047
-650.814	-105.219	-0.130	-0.029
-649.799	270.628	-0.071	-0.125
-648.784	-200.000	0.000	0.184
-647.770	78.185	-0.110	-0.116
-646.755	71.028	0.198	-0.204
-645.741	168.137	-0.158	-0.224
-644.726	800.000	-0.042	-0.174
-643.711	277.914	-0.200	-0.353
-642.697	203.775	0.098	-0.151
-641.682	186.954	-0.107	0.158
-640.668	-103.475	-0.139	-0.033
-639.653	48.922	0.154	0.144
-638.638	-125.659	-0.075	-0.011
-637.624	79.988	-0.231	0.246
-636.609	-103.585	0.319	-0.074
-635.595	5.027	0.352	0.257
-634.580	168.113	-0.176	0.248
-633.565	-200.000	-0.058	-0.441
-632.551	-140.985	-0.177	-0.018
-631.536	123.033	-0.025	-0.031
-630.522	-200.000	-0.037	0.171
-629.507	-200.000	-0.001	-0.163
-628.492	355.627	-0.031	-0.061
-627.478	-200.000	-0.331	-0.001
-626.463	-179.313	-0.124	-0.003
-625.449	119.357	0.109	-0.134
-624.434	-200.000	0.011	-0.084
-623.419	-108.874	-0.164	-0.035
-622.405	-44.134	-0.177	-0.088
-621.390	65.807	0.119	-0.120
-620.376	-98.930	0.165	-0.042
-619.361	525.423	-0.042	0.097
-618.346	-6.235	-0.265	-0.180
-617.332	-86.267	0.022	0.007
-616.317	-200.000	0.001	-0.202
-615.303	9.295	0.081	-0.061
-614.288	-200.000	0.005	0.163
-613.273	-25.834	0.101	-0.059
-612.259	800.000	-0.027	0.076
-611.244	54.837	0.035	0.034
-610.230	155.236	-0.133	0.182
-609.215	118.904	-0.060	-0.074
-608.201	800.000	0.050	-0.162
-607.186	23.498	0.125	0.102
-606.171	-200.000	0.013	-0.075
-605.157	11.229	0.152	-0.115
-604.142	-97.751	0.143	-0.037
-603.128	-134.047	-0.358	-0.044
-602.113	-69.597	-0.375	0.142
-601.098	-103.644	-0.307	-0.071
-600.084	-200.000	0.013	-0.085
-599.069	25.328	-0.184	-0.152
-598.055	800.000	-0.080	0.226
-597.040	-200.000	-0.016	-0.291
-596.025	-121.580	0.291	-0.048
-595.011	-66.852	0.122	0.048
-593.996	128.367	0.332	-0.420
-592.982	11.737	-0.282	-0.215
-591.967	79.113	0.134	0.142
-590.952	800.000	0.066	-0.198
-589.938	-109.770	-0.123	0.026
-588.923	-92.789	0.175	-0.049
-587.909	-16.523	0.471	-0.296
-586.894	-49.925	-0.245	0.115
-585.879	-8.372	0.124	-0.083
-584.865	-168.466	-0.332	0.013
-583.850	11.512	-0.188	0.143
-582.836	-26.128	0.101	-0.059
-581.821	-88.598	0.301	0.089
-580.806	106.231	-0.057	0.067
-579.792	106.318	-0.153	-0.179
-578.777	-110.184	0.331	-0.069
-577.763	-95.348	0.253	0.067
-576.748	-110.398	-0.313	-0.064
-575.733	-117.011	0.156	-0.028
-574.719	16.118	0.125	-0.098
-573.704	800.000	0.040	-0.158
-572.690	366.295	-0.116	-0.232
-571.675	183.129	0.116	-0.170
-570.661	-51.091	-0.097	0.045
-569.646	-143.333	-0.121	0.012
-568.631	83.959	-0.054	0.058
-567.617	77.099	-0.059	0.062
-566.602	-93.964	0.240	0.065
-565.588	-94.084	-0.158	0.043
-564.573	-28.459	0.234	-0.134
-563.558	800.000	0.084	-0.234
-562.544	543.446	0.172	0.407
-561.529	-200.000	-0.053	-0.282
-560.515	-86.812	0.198	-0.060
-559.500	-75.718	-0.260	-0.091
-558.485	-104.684	-0.306	-0.070
-557.471	-18.049	0.250	-0.155
-556.456	-142.153	0.287	0.028
-555.442	219.849	0.028	0.044
-554.427	-84.826	-0.175	0.055
-553.412	-24.601	-0.103	0.061
-552.398	134.879	-0.061	-0.078
-551.383	241.705	-0.247	-0.408
-550.369	-41.043	0.141	0.072
-549.354	-200.000	0.005	0.243
-548.339	5.891	-0.153	0.112
-547.325	289.349	0.155	0.279
-546.310	161.635	0.293	-0.406
-545.296	7.280	-0.232	-0.172
-544.281	3.524	0.257	-0.186
-543.266	504.330	0.063	0.145
-542.252	-64.696	-0.106	0.043
-541.237	83.249	0.139	-0.150
-540.223	800.000	-0.072	0.273
-539.208	-35.599	-0.141	-0.076
-538.193	-186.909	-0.355	0.005
-537.179	-200.000	0.001	0.022
-536.164	172.335	0.143	0.203
-535.150	206.213	-0.318	0.490
-534.135	-189.233	0.075	0.001
-533.121	-200.000	0.032	-0.146
-532.106	431.328	0.018	0.038
-531.091	800.000	0.004	0.016
-530.077	221.257	-0.087	-0.139
-529.062	-200.000	0.023	-0.125
-528.048	546.110	0.069	-0.162
-527.033	800.000	0.066	-0.194
-526.018	65.521	-0.102	-0.102
-525.004	64.816	-0.098	0.098
-523.989	261.847	0.098	0.167
-522.975	-200.000	0.055	0.407
-521.960	-68.705	0.523	0.200
-520.945	-102.967	-0.233	-0.055
-519.931	186.336	-0.040	-0.058
-518.916	800.000	-0.049	-0.199
-517.902	-200.000	-0.011	-0.150
-516.887	-140.654	0.101	0.010
-515.872	306.857	0.057	0.105
-514.858	-118.261	0.213	0.037
-513.843	502.044	0.077	0.176
-512.829	-26.592	0.063	-0.037
-511.814	-72.751	-0.329	-0.120
-510.799	73.975	0.124	-0.128
-509.785	-4.048	0.327	0.224
-508.770	-21.847	-0.228	-0.137
-507.756	800.000	0.120	-0.374
-506.741	-70.809	0.249	0.093
-505.726	395.992	-0.096	-0.198
-504.712	800.000	-0.074	0.246
-503.697	92.151	0.179	-0.200
-502.683	-200.000	-0.055	0.384
-501.668	114.196	0.117	-0.141
-500.653	-66.404	0.200	-0.078
-499.639	324.844	-0.079	-0.148
-498.624	63.864	-0.307	0.305
-497.610	-145.525	0.090	0.008
-496.595	14.526	-0.046	-0.036
-495.581	800.000	-0.101	0.294
-494.566	-200.000	0.012	-0.144
-493.551	128.202	0.036	0.045
-492.537	-87.867	0.215	0.064
-491.522	-133.530	0.169	0.021
-490.508	800.000	-0.104	0.294
-489.493	-200.000	0.048	-0.277
-488.478	100.598	-0.050	0.058
-487.464	-200.000	-0.023	-0.120
-486.449	-200.000	-0.040	-0.345
-485.435	88.847	-0.061	0.067
-484.420	-91.352	-0.021	-0.006
-483.405	-143.872	-0.352	-0.033
-482.391	112.682	0.163	-0.195
-481.376	-183.484	0.140	-0.002
-480.362	79.905	0.151	0.160
-479.347	11.352	-0.044	0.033
-478.332	-48.123	-0.127	0.061
-477.318	-61.670	0.079	0.033
-476.303	62.539	0.187	-0.184
-475.289	-200.000	-0.045	0.224
-474.274	746.533	-0.055	0.147
-473.259	554.941	0.042	0.100
-472.245	99.579	0.113	0.129
-471.230	-0.337	-0.257	0.180
-470.216	-17.881	-0.245	-0.152
-469.201	82.182	0.101	0.108
-468.186	800.000	0.063	0.230
-467.172	193.012	0.114	0.171
-466.157	-107.479	0.207	-0.045
-465.143	-15.142	0.128	0.081
-464.128	-200.000	-0.021	0.131
-463.113	488.615	0.155	0.350
-462.099	192.206	0.073	-0.108
-461.084	-200.000	0.024	-0.322
-460.070	-52.978	0.141	-0.064
-459.055	-177.140	-0.283	0.007
-458.040	24.146	0.337	0.275
-457.026	26.156	-0.233	0.192
-456.011	703.979	0.094	-0.245
-454.997	-54.424	-0.127	0.057
-453.982	11.711	0.132	-0.100
-452.968	-88.461	-0.084	0.025
-451.953	-200.000	-0.059	-0.362
-450.938	800.000	-0.031	0.120
-449.924	-155.785	0.208	-0.013
-448.909	-51.800	-0.182	0.084
-447.895	231.070	0.240	0.388
-446.880	-89.797	-0.173	0.050
-445.865	-200.000	-0.058	-0.270
-444.851	24.379	0.218	-0.178
-443.836	88.162	0.155	0.169
-442.822	800.000	-0.113	-0.322
-441.807	800.000	0.090	-0.359
-440.792	63.338	-0.264	0.261
-439.778	-169.651	0.118	-0.004
-438.763	-200.000	0.028	-0.264
-437.749	-167.912	-0.244	0.009
-436.734	19.253	-0.159	-0.126
-435.719	-78.022	0.152	0.052
-434.705	-73.795	0.268	0.096
-433.690	652.514	-0.093	-0.235
-432.676	-200.000	-0.004	0.020
-431.661	800.000	-0.046	-0.138
-430.646	-88.475	-0.077	0.023
-429.632	-148.612	-0.176	0.014
-428.617	-37.396	-0.249	-0.131
-427.603	-22.878	0.076	-0.045
-426.588	232.921	0.074	-0.120
-425.573	-105.633	-0.155	-0.035
-424.559	-4.717	-0.120	-0.082
-423.544	-200.000	0.033	0.173
-422.530	285.994	-0.023	-0.040
-421.515	5.250	-0.046	-0.033
-420.500	-155.141	0.159	0.010
-419.486	-158.575	-0.077	0.004
-418.471	800.000	0.112	0.345
-417.457	-28.616	-0.137	0.078
-416.442	800.000	0.066	0.207
-415.428	30.225	-0.051	-0.042
-414.413	6.537	-0.154	0.113
-413.398	-200.000	0.006	-0.425
-412.384	-140.152	0.036	0.004
-411.369	-133.043	-0.155	0.019
-410.355	-73.041	-0.304	0.110
-409.340	64.965	-0.298	0.297
-408.325	-90.359	-0.248	-0.071
-407.311	800.000	-0.069	0.200
-406.296	-200.000	-0.017	-0.224
-405.282	-8.615	-0.147	0.097
-404.267	-69.391	0.086	-0.032
-403.252	71.353	0.302	-0.308
-402.238	36.195	-0.087	-0.076
-401.223	-71.374	0.109	0.040
-400.209	-200.000	0.017	-0.128
-399.194	160.856	-0.076	-0.104
-398.179	9.449	-0.027	0.020
-397.165	25.416	-0.334	0.273
-396.150	-144.307	-0.160	-0.015
-395.136	-158.209	-0.435	0.025
-394.121	15.019	-0.056	0.043
-393.106	-11.128	0.240	0.156
-392.092	352.915	0.166	0.324
-391.077	800.000	-0.067	-0.195
-390.063	185.796	0.133	-0.195
-389.048	-72.464	-0.221	0.080
-388.033	468.821	0.106	0.234
-387.019	800.000	-0.068	0.255
-386.004	-200.000	0.074	-0.412
-384.990	-22.347	0.183	0.109
-383.975	370.716	-0.083	-0.166
-382.960	465.782	-0.077	-0.170
-381.946	199.265	0.317	0.477
-380.931	-200.000	-0.038	-0.347
-379.917	306.409	-0.042	-0.077
-378.902	482.099	0.052	-0.117
-377.888	100.102	0.278	0.317
-376.873	-169.676	-0.277	0.010
-375.858	36.446	-0.188	0.163
-374.844	-97.707	0.259	0.066
-373.829	-200.000	-0.034	0.380
-372.815	271.183	0.258	0.447
-371.800	-200.000	0.007	-0.112
-370.785	80.015	0.198	0.209
-369.771	-144.293	0.082	0.008
-368.756	-200.000	-0.045	0.253
-367.742	-116.405	-0.288	-0.052
-366.727	-109.788	0.487	-0.101
-365.712	180.888	-0.104	-0.149
-364.698	437.989	-0.031	-0.067
-363.683	-200.000	-0.043	0.231
-362.669	800.000	-0.036	-0.136
-361.654	-130.381	0.080	-0.011
-360.639	-200.000	-0.016	-0.256
-359.625	-15.128	-0.225	0.141
-358.610	-171.455	-0.170	-0.006
-357.596	9.460	-0.199	0.148
-356.581	85.443	-0.122	0.131
-355.566	121.908	-0.043	0.053
-354.552	377.316	-0.005	0.010
-353.537	403.565	-0.030	0.062
-352.523	800.000	0.098	0.370
-351.508	535.968	0.074	0.172
-350.493	-124.958	0.261	-0.040
-349.479	-89.390	-0.330	0.095
-348.464	-6.066	-0.194	-0.130
-347.450	-200.000	-0.044	-0.335
-346.435	-174.517	-0.182	-0.005
-345.420	-200.000	-0.104	0.461
-344.406	-89.314	0.267	0.077
-343.391	-69.567	0.129	0.049
-342.377	-15.978	-0.357	-0.223
-341.362	-122.768	-0.064	0.010
-340.348	279.497	0.026	-0.046
-339.333	-168.322	-0.250	0.009
-338.318	-200.000	-0.010	-0.101
-337.304	-89.534	-0.289	-0.084
-336.289	800.000	0.005	0.017
-335.275	-43.199	-0.139	0.069
-334.260	800.000	0.064	-0.211
-333.245	459.336	-0.108	0.236
-332.231	-137.285	-0.270	-0.030
-331.216	-200.000	0.009	0.046
-330.202	296.806	0.059	-0.106
-329.187	202.783	-0.134	0.203
-328.172	-134.999	-0.313	-0.037
-327.158	-34.744	0.288	0.154
-326.143	10.681	-0.241	0.180
-325.129	-42.101	-0.212	-0.106
-324.114	-112.816	-0.173	0.034
-323.099	41.226	0.197	-0.175
-322.085	185.416	-0.082	-0.119
-321.070	-60.765	0.277	-0.115
-320.056	33.758	-0.150	-0.128
-319.041	-152.032	0.234	0.017
-318.026	-45.685	-0.350	0.170
-317.012	-94.654	0.367	0.098
-315.997	397.729	0.079	-0.163
-314.983	-6.562	-0.197	0.132
-313.968	-120.208	-0.072	0.012
-312.953	-75.359	0.308	-0.108
-311.939	800.000	-0.115	0.486
-310.924	-141.164	0.240	-0.024
-309.910	-123.536	0.459	-0.072
-308.895	-147.520	0.283	-0.023
-307.880	76.710	0.154	-0.160
-306.866	-110.446	-0.187	0.038
-305.851	-197.488	0.233	0.001
-304.837	-77.135	0.376	-0.128
-303.822	202.038	0.155	-0.234
-302.807	363.259	-0.120	-0.237
-301.793	182.939	-0.076	-0.111
-300.778	-200.000	-0.024	0.461
-299.764	-71.569	0.292	-0.107
-298.749	80.534	0.137	-0.145
-297.735	62.333	0.083	0.081
-296.720	29.788	0.300	0.251
-295.705	-158.593	-0.086	0.005
-294.691	-93.798	0.114	0.031
-293.676	800.000	-0.081	0.309
-292.662	77.651	-0.132	-0.137
-291.647	589.473	-0.097	0.234
-290.632	-200.000	-0.001	0.202
-289.618	38.374	0.097	0.085
-288.603	27.476	0.066	-0.054
-287.589	-70.787	-0.183	0.068
-286.574	134.804	0.075	0.095
-285.559	800.000	-0.082	-0.222
-284.545	-72.747	0.323	0.117
-283.530	800.000	-0.086	-0.260
-282.516	-118.746	0.297	0.051
-281.501	800.000	-0.029	-0.100
-280.486	-26.009	0.322	-0.186
-279.472	399.717	0.157	-0.323
-278.457	70.773	-0.250	-0.254
-277.443	800.000	0.080	-0.227
-276.428	656.035	0.128	0.321
-275.413	582.298	0.111	0.266
-274.399	161.960	0.061	-0.083
-273.384	-134.071	-0.129	-0.016
-272.370	800.000	-0.166	-0.498
-271.355	-6.573	0.065	-0.043
-270.340	39.912	0.119	0.105
-269.326	57.028	0.098	-0.094
-268.311	-200.000	-0.001	-0.044
-267.297	-91.337	0.175	0.049
-266.282	-72.950	-0.291	-0.105
-265.267	660.878	0.054	0.137
-264.253	79.817	-0.091	0.096
-263.238	-113.979	-0.246	-0.047
-262.224	-182.383	0.156	-0.003
-261.209	-200.000	0.035	-0.286
-260.195	351.868	0.090	0.175
-259.180	-110.525	0.179	0.036
-258.165	414.697	0.114	-0.237
-257.151	48.115	-0.386	0.353
-256.136	-101.229	-0.075	-0.018
-255.122	-53.859	-0.146	-0.065
-254.107	-87.815	-0.264	-0.078
-253.092	-12.659	0.178	-0.114
-252.078	43.590	0.241	0.215
-251.063	-103.767	-0.389	0.089
-250.049	-80.338	0.408	0.133
-249.034	-200.000	-0.020	0.175
-248.019	-16.249	0.263	0.164
-247.005	327.572	0.168	0.315
-245.990	-200.000	0.004	-0.145
-244.976	-92.576	-0.201	0.055
-243.961	174.204	0.224	0.317
-242.946	-132.586	-0.518	-0.065
-241.932	-200.000	0.055	-0.343
-240.917	-200.000	-0.045	0.266
-239.903	200.533	-0.204	-0.306
-238.888	-78.055	-0.308	0.104
-237.873	-134.056	-0.289	0.035
-236.859	245.062	0.054	-0.088
-235.844	-53.993	0.204	-0.091
-234.830	227.184	0.157	0.249
-233.815	2.218	-0.086	-0.061
-232.800	-77.461	-0.168	-0.057
-231.786	-161.643	-0.107	-0.005
-230.771	261.219	-0.140	0.237
-229.757	791.564	-0.093	0.250
-228.742	-77.013	-0.202	-0.069
-227.727	135.926	0.257	-0.328
-226.713	368.273	0.114	0.226
-225.698	-75.576	-0.106	0.037
-224.684	-200.000	0.018	0.295
-223.669	-200.000	0.064	0.336
-222.655	565.097	-0.106	0.251
-221.640	263.039	0.190	0.322
-220.625	-13.734	0.116	-0.073
-219.611	-97.199	-0.044	-0.011
-218.596	778.987	-0.064	0.172
-217.582	-69.266	-0.138	-0.052
-216.567	308.586	0.175	0.319
-215.552	-0.497	-0.236	-0.164
-214.538	-89.506	0.119	0.034
-213.523	-200.000	0.003	0.106
-212.509	800.000	0.054	-0.223
-211.494	-200.000	-0.006	-0.133
-210.479	98.981	0.153	0.172
-209.465	504.889	0.095	-0.215
-208.450	233.753	0.210	0.338
-207.436	264.546	-0.099	0.169
-206.421	-200.000	-0.016	-0.179
-205.406	16.252	0.217	0.167
-204.392	-32.767	0.241	0.131
-203.377	60.568	-0.143	0.138
-202.363	594.704	0.063	0.153
-201.348	-146.249	0.185	0.016
-200.333	-52.125	0.202	0.092
-199.319	-1.350	0.279	0.193
-198.304	-200.000	0.017	-0.112
-197.290	800.000	0.038	-0.118
-196.275	-92.839	0.058	0.016
-195.260	-200.000	-0.054	0.279
-194.246	-113.047	-0.216	0.042
-193.231	-26.123	0.155	0.089
-192.217	75.413	0.176	-0.181
-191.202	-79.048	0.126	-0.042
-190.187	-200.000	0.015	0.195
-189.173	-19.836	-0.296	0.179
-188.158	-48.706	0.036	0.017
-187.144	25.514	0.186	0.151
-186.129	-58.117	0.290	-0.124
-185.114	-169.578	-0.585	-0.021
-184.100	-71.770	-0.222	0.081
-183.085	-200.000	0.030	-0.292
-182.071	86.880	-0.165	-0.178
-181.056	-200.000	0.035	0.359
-180.042	-35.602	0.517	-0.274
-179.027	150.971	0.301	-0.400
-178.012	675.323	0.079	-0.199
-176.998	-75.789	-0.305	-0.105
-175.983	-23.921	-0.084	-0.049
-174.969	103.714	-0.138	-0.158
-173.954	-200.000	0.013	-0.195
-172.939	800.000	-0.106	0.325
-171.925	-10.222	-0.204	0.132
-170.910	258.102	0.254	-0.427
-169.896	-133.035	0.125	-0.015
-168.881	-95.375	-0.238	-0.062
-167.866	102.304	-0.016	-0.018
-166.852	-200.000	-0.009	0.206
-165.837	102.059	-0.054	0.062
-164.823	89.730	0.082	0.089
-163.808	-98.696	-0.221	0.055
-162.793	-128.289	-0.418	-0.058
-161.779	-200.000	0.003	-0.035
-160.764	-167.362	-0.223	-0.009
-159.750	65.104	-0.256	-0.253
-158.735	-200.000	0.101	-0.449
-157.720	-43.678	0.092	-0.045
-156.706	244.186	0.145	-0.237
-155.691	-138.884	0.296	-0.031
-154.677	18.197	0.027	-0.021
-153.662	-167.826	-0.118	0.005
-152.647	-20.681	0.140	-0.084
-151.633	-12.683	0.303	0.192
-150.618	160.311	0.168	0.228
-149.604	-122.526	-0.288	-0.046
-148.589	-200.000	-0.053	-0.312
-147.574	208.876	0.075	-0.114
-146.560	5.072	0.156	-0.112
-145.545	-200.000	-0.037	0.220
-144.531	408.516	0.058	-0.119
-143.516	335.755	-0.082	0.155
-142.502	-95.786	0.129	0.034
-141.487	-23.774	0.265	0.155
-140.472	-77.003	-0.160	-0.054
-139.458	-114.300	-0.328	0.062
-138.443	-166.954	-0.200	0.008
-137.429	-103.059	0.037	0.009
-136.414	-59.219	-0.498	-0.209
-135.399	-143.314	-0.158	0.015
-134.385	-200.000	-0.044	0.257
-133.370	-82.612	-0.154	0.049
-132.356	-200.000	-0.034	0.169
-131.341	-200.000	0.021	-0.114
-130.326	-122.444	0.313	0.050
-129.312	-53.143	0.256	-0.114
-128.297	800.000	-0.076	0.287
-127.283	86.672	0.122	0.131
-126.268	48.773	-0.221	-0.202
-125.253	436.805	0.096	0.205
-124.239	175.623	0.237	0.335
-123.224	715.848	0.031	-0.081
-122.210	66.226	-0.105	-0.104
-121.195	-200.000	0.051	0.311
