DTS Sentinel unit serial number:	SN413079Multiplexer serial number:	ORYXHardware model number:	OX4-SRSoftware version number:	ORYX F/W v4.00 Oryx Data Collector v3.7.2.0data status	okinstallation	princeton_trtdifferential loss correction	single-endedforward channel	channel 2reverse channel	N/Adate	2019/09/14time	04:51:34forward acquisition time	60.00reverse acquisition time	0.00gamma	496.2192k internal	0.2335k external	0.2335temperature offset calibration	1.0131default loss term (dB/km)	0.3790temperature slope calibration	1.0000multiplexer offset coefficient	1.0000multiplexer slope coefficient	1.0000fibre end	0.00T internal ref (°C)	26.81T ext. ref 1 (°C)	3.36T ext. ref 2 (°C)	21.98length (m)	temperature (°C)	Stokes	anti-Stokes-747.200	85.763	0.142	0.156
-746.185	-73.183	0.082	-0.030
-745.171	-120.116	-0.074	0.013
-744.156	-200.000	-0.334	0.001
-743.142	-114.012	-0.107	-0.021
-742.127	-200.000	-0.012	0.079
-741.112	498.478	-0.109	0.252
-740.098	38.258	0.026	-0.024
-739.083	-200.000	0.034	-0.203
-738.069	-131.747	-0.314	0.041
-737.054	647.888	-0.150	0.385
-736.039	-72.784	-0.058	-0.022
-735.025	98.620	0.047	0.054
-734.010	800.000	0.039	0.117
-732.996	394.741	-0.177	-0.370
-731.981	3.148	0.203	0.148
-730.966	-126.810	0.076	-0.011
-729.952	-145.825	-0.221	-0.020
-728.937	-67.584	-0.300	-0.118
-727.923	-22.289	0.398	0.242
-726.908	-200.000	-0.086	-0.438
-725.894	192.486	-0.085	-0.129
-724.879	60.576	-0.318	-0.316
-723.864	-64.326	-0.273	0.112
-722.850	49.670	0.136	0.129
-721.835	6.446	-0.316	-0.235
-720.821	-200.000	-0.039	-0.176
-719.806	304.481	0.072	-0.134
-718.791	-100.996	-0.158	-0.039
-717.777	-109.680	-0.309	0.065
-716.762	-200.000	-0.001	-0.221
-715.748	600.861	0.036	-0.090
-714.733	-168.209	-0.103	-0.004
-713.718	4.620	-0.101	0.074
-712.704	800.000	-0.051	-0.208
-711.689	800.000	-0.135	-0.409
-710.675	-200.000	0.016	0.093
-709.660	-71.787	-0.364	-0.136
-708.645	-173.400	0.200	-0.006
-707.631	347.256	0.052	-0.102
-706.616	-200.000	-0.001	-0.032
-705.602	-200.000	0.009	0.169
-704.587	-28.592	0.071	-0.041
-703.572	-200.000	0.012	-0.364
-702.558	419.665	0.035	0.076
-701.543	-200.000	-0.027	-0.234
-700.529	62.722	0.204	-0.205
-699.514	206.374	0.110	-0.171
-698.499	-32.235	-0.060	-0.034
-697.485	-65.385	0.079	-0.032
-696.470	-200.000	-0.000	0.141
-695.456	480.983	-0.169	0.385
-694.441	47.550	-0.251	0.235
-693.426	245.317	-0.189	0.319
-692.412	81.431	0.228	-0.247
-691.397	-200.000	-0.009	0.083
-690.383	-200.000	0.010	0.080
-689.368	-200.000	0.032	0.351
-688.354	-51.086	-0.027	0.013
-687.339	-50.013	0.156	0.074
-686.324	420.984	0.041	-0.088
-685.310	29.593	-0.056	0.047
-684.295	-129.701	0.068	0.009
-683.281	800.000	-0.087	-0.354
-682.266	800.000	0.155	0.450
-681.251	-130.002	-0.358	0.049
-680.237	159.767	-0.216	-0.301
-679.222	-155.912	0.168	0.011
-678.208	-107.302	0.332	-0.073
-677.193	329.903	0.106	-0.205
-676.178	-101.453	-0.222	0.054
-675.164	295.337	0.109	0.200
-674.149	3.279	0.205	-0.149
-673.135	178.041	-0.162	-0.237
-672.120	-159.504	-0.402	0.022
-671.105	248.179	0.046	-0.079
-670.091	-73.708	-0.270	0.098
-669.076	-7.967	0.344	0.232
-668.062	-123.462	-0.295	-0.047
-667.047	-63.684	0.224	-0.092
-666.032	-69.419	-0.337	0.130
-665.018	800.000	0.098	0.339
-664.003	695.193	0.058	0.153
-662.989	515.287	-0.069	-0.162
-661.974	-50.065	0.311	0.148
-660.959	800.000	-0.187	0.666
-659.945	241.388	0.127	0.212
-658.930	394.545	0.049	-0.102
-657.916	-200.000	-0.057	0.361
-656.901	-200.000	0.013	0.188
-655.886	-200.000	-0.004	0.170
-654.872	394.381	-0.116	-0.242
-653.857	800.000	-0.032	-0.124
-652.843	38.923	-0.135	0.121
-651.828	542.353	0.145	0.347
-650.814	-12.437	-0.247	-0.161
-649.799	-103.548	-0.313	0.074
-648.784	-200.000	-0.444	0.002
-647.770	30.964	0.143	-0.122
-646.755	-65.685	0.153	0.061
-645.741	119.668	-0.331	-0.411
-644.726	99.552	0.025	-0.029
-643.711	553.680	0.046	0.110
-642.697	42.271	-0.149	0.135
-641.682	-108.375	0.133	0.029
-640.668	-200.000	-0.027	-0.122
-639.653	800.000	-0.023	-0.099
-638.638	598.356	-0.051	0.126
-637.624	175.865	-0.158	-0.230
-636.609	697.776	-0.041	0.108
-635.595	21.838	-0.180	0.147
-634.580	-27.329	0.102	-0.059
-633.565	-108.663	0.423	0.091
-632.551	-60.519	0.282	0.120
-631.536	110.023	0.105	-0.126
-630.522	-200.000	-0.006	-0.203
-629.507	-120.451	-0.247	-0.042
-628.492	143.236	-0.154	-0.204
-627.478	-126.000	0.327	0.049
-626.463	-200.000	0.009	-0.223
-625.449	726.836	-0.096	0.257
-624.434	494.551	-0.076	0.173
-623.419	-144.682	0.081	0.007
-622.405	661.015	0.168	0.432
-621.390	-73.513	-0.250	0.091
-620.376	23.268	0.241	0.198
-619.361	265.069	0.066	-0.115
-618.346	800.000	0.024	0.084
-617.332	-105.840	-0.553	0.125
-616.317	206.820	0.147	-0.230
-615.303	74.718	0.358	-0.376
-614.288	166.941	-0.151	-0.214
-613.273	-113.586	-0.159	-0.031
-612.259	20.024	0.230	-0.185
-611.244	800.000	-0.042	-0.148
-610.230	240.524	-0.029	0.049
-609.215	52.761	-0.311	-0.297
-608.201	-200.000	-0.033	0.294
-607.186	132.926	-0.213	0.274
-606.171	-200.000	0.013	0.063
-605.157	-192.143	-0.232	0.002
-604.142	-158.254	-0.199	0.012
-603.128	-154.687	0.145	0.010
-602.113	-124.031	0.264	-0.041
-601.098	-25.763	-0.228	-0.135
-600.084	107.203	-0.212	-0.251
-599.069	385.358	0.150	-0.310
-598.055	-53.698	0.152	-0.070
-597.040	16.095	0.130	0.102
-596.025	-10.794	0.276	-0.182
-595.011	-73.536	-0.175	-0.064
-593.996	-69.677	-0.270	0.103
-592.982	-200.000	-0.019	0.100
-591.967	-74.893	-0.209	-0.075
-590.952	390.594	0.099	-0.206
-589.938	374.039	-0.139	0.283
-588.923	800.000	0.104	0.346
-587.909	62.750	-0.056	-0.056
-586.894	800.000	0.069	-0.210
-585.879	20.828	0.084	0.068
-584.865	-189.339	-0.341	0.004
-583.850	335.283	0.132	-0.255
-582.836	401.847	0.040	0.083
-581.821	800.000	-0.050	-0.165
-580.806	-71.112	0.262	-0.098
-579.792	168.158	-0.154	0.219
-578.777	399.853	-0.194	-0.407
-577.763	-44.961	0.284	0.141
-576.748	218.823	-0.190	0.304
-575.733	-33.655	-0.222	0.122
-574.719	505.779	0.164	-0.379
-573.704	-66.383	-0.286	-0.113
-572.690	-99.365	0.049	-0.012
-571.675	800.000	0.052	0.210
-570.661	-133.518	0.149	0.019
-569.646	249.337	0.161	0.272
-568.631	800.000	-0.091	-0.317
-567.617	-195.644	0.229	0.002
-566.602	585.205	0.198	0.487
-565.588	384.836	0.062	-0.127
-564.573	800.000	-0.068	-0.210
-563.558	-120.069	0.212	0.036
-562.544	-16.933	-0.251	0.158
-561.529	-200.000	-0.015	0.357
-560.515	741.642	0.041	-0.110
-559.500	-81.514	0.114	0.037
-558.485	-84.560	0.290	0.091
-557.471	375.793	0.086	0.175
-556.456	-47.625	0.339	-0.164
-555.442	-200.000	-0.018	0.235
-554.427	800.000	0.071	0.288
-553.412	-75.270	-0.230	0.082
-552.398	-200.000	0.002	0.114
-551.383	-144.325	0.503	-0.047
-550.369	162.433	-0.039	0.054
-549.354	-200.000	0.006	0.128
-548.339	-110.002	-0.247	-0.052
-547.325	-155.246	0.283	-0.018
-546.310	251.196	-0.125	0.212
-545.296	-200.000	-0.012	-0.115
-544.281	-135.266	0.225	-0.027
-543.266	-200.000	0.060	0.372
-542.252	-200.000	-0.001	-0.135
-541.237	800.000	0.111	-0.387
-540.223	-43.404	0.041	-0.021
-539.208	-6.600	-0.197	-0.134
-538.193	735.212	0.180	0.480
-537.179	73.868	-0.091	-0.095
-536.164	484.673	-0.128	-0.291
-535.150	123.829	0.035	-0.044
-534.135	25.403	-0.256	-0.212
-533.121	393.570	-0.032	-0.067
-532.106	239.312	-0.023	-0.037
-531.091	-60.186	-0.237	-0.101
-530.077	-138.925	0.230	-0.025
-529.062	-0.635	0.198	-0.140
-528.048	-153.876	-0.067	0.005
-527.033	594.618	-0.066	0.163
-526.018	313.123	-0.056	0.104
-525.004	800.000	0.022	-0.078
-523.989	-200.000	0.005	0.414
-522.975	-66.947	-0.288	-0.113
-521.960	-103.872	-0.060	-0.014
-520.945	800.000	0.144	0.434
-519.931	64.597	0.219	0.220
-518.916	-44.489	0.290	0.145
-517.902	-200.000	-0.067	-0.310
-516.887	-15.035	-0.301	0.192
-515.872	87.085	0.192	-0.211
-514.858	-37.774	-0.179	0.095
-513.843	91.946	-0.275	-0.309
-512.829	216.168	0.026	-0.041
-511.814	157.968	0.182	0.251
-510.799	143.955	0.127	0.168
-509.785	-66.960	-0.365	0.143
-508.770	-41.871	0.179	-0.091
-507.756	269.568	0.162	-0.283
-506.741	-123.782	-0.369	0.058
-505.726	13.271	-0.129	0.100
-504.712	-200.000	-0.021	-0.165
-503.697	41.531	-0.115	0.104
-502.683	9.946	0.296	0.224
-501.668	-147.650	-0.257	-0.022
-500.653	-43.900	-0.139	0.069
-499.639	575.022	-0.048	-0.117
-498.624	146.614	0.138	-0.184
-497.610	-200.000	0.014	-0.175
-496.595	328.870	0.051	-0.098
-495.581	-89.100	0.096	0.028
-494.566	-80.272	-0.153	-0.051
-493.551	-58.540	0.188	0.081
-492.537	159.450	0.107	0.148
-491.522	800.000	0.007	0.018
-490.508	-89.496	0.134	0.039
-489.493	-92.168	-0.155	0.043
-488.478	-200.000	0.026	0.132
-487.464	244.138	0.126	0.211
-486.449	-167.352	-0.266	-0.011
-485.435	322.349	-0.098	-0.185
-484.420	-141.549	-0.109	-0.011
-483.405	-64.699	0.087	0.035
-482.391	64.643	-0.099	0.099
-481.376	-109.343	0.237	0.050
-480.362	378.289	0.054	-0.111
-479.347	347.943	-0.154	-0.302
-478.332	-200.000	-0.052	-0.432
-477.318	-200.000	0.045	-0.231
-476.303	751.774	-0.028	0.075
-475.289	-200.000	0.043	-0.188
-474.274	-134.161	0.219	-0.027
-473.259	300.223	0.079	0.145
-472.245	58.846	0.096	-0.094
-471.230	-59.838	0.136	-0.058
-470.216	272.195	-0.160	0.281
-469.201	113.248	-0.135	-0.163
-468.186	-69.054	-0.249	-0.095
-467.172	-38.133	-0.150	0.079
-466.157	-78.118	0.292	0.100
-465.143	-167.738	0.272	-0.011
-464.128	-44.237	0.130	-0.065
-463.113	249.663	-0.072	-0.121
-462.099	800.000	0.085	-0.321
-461.084	-113.043	-0.039	-0.008
-460.070	-142.979	0.285	0.027
-459.055	-180.236	0.370	-0.008
-458.040	669.422	0.105	0.270
-457.026	-169.768	-0.124	0.004
-456.011	-79.958	0.485	-0.162
-454.997	-200.000	0.002	0.328
-453.982	115.947	-0.209	0.254
-452.968	-30.170	0.193	-0.109
-451.953	-200.000	0.016	-0.220
-450.938	553.555	0.036	0.085
-449.924	489.175	0.099	-0.224
-448.909	-55.256	0.063	0.028
-447.895	-32.842	-0.143	-0.079
-446.880	-200.000	0.007	-0.135
-445.865	-98.920	0.087	0.022
-444.851	28.632	0.089	-0.075
-443.836	-28.105	-0.038	0.022
-442.822	-50.569	-0.365	0.171
-441.807	-200.000	-0.009	-0.075
-440.792	-200.000	-0.012	0.100
-439.778	-194.355	0.163	-0.001
-438.763	-161.580	-0.268	-0.014
-437.749	800.000	0.047	0.176
-436.734	-200.000	0.036	-0.167
-435.719	-104.329	0.073	-0.017
-434.705	800.000	-0.095	-0.311
-433.690	667.783	0.019	-0.049
-432.676	800.000	-0.030	-0.091
-431.661	-27.855	0.262	-0.151
-430.646	11.703	-0.152	-0.116
-429.632	19.111	0.237	0.188
-428.617	85.293	0.223	-0.243
-427.603	142.524	-0.047	-0.062
-426.588	800.000	-0.053	0.152
-425.573	-27.161	0.336	-0.194
-424.559	800.000	0.062	0.223
-423.544	-200.000	0.032	0.242
-422.530	-185.391	0.244	-0.004
-421.515	-200.000	0.004	0.294
-420.500	-200.000	0.019	0.234
-419.486	-200.000	0.024	-0.279
-418.471	-154.560	0.302	0.020
-417.457	-78.178	0.082	-0.028
-416.442	125.426	0.138	0.173
-415.428	-100.991	-0.219	-0.053
-414.413	-144.998	-0.407	-0.037
-413.398	393.736	0.027	0.056
-412.384	136.062	-0.076	0.098
-411.369	-145.745	-0.094	-0.008
-410.355	308.752	-0.094	-0.174
-409.340	-129.744	-0.306	-0.042
-408.325	34.760	0.148	-0.129
-407.311	800.000	0.057	0.208
-406.296	-146.311	0.120	-0.010
-405.282	-200.000	0.009	0.101
-404.267	779.211	0.134	0.363
-403.252	701.045	-0.089	-0.232
-402.238	800.000	0.108	-0.412
-401.223	672.884	0.199	0.511
-400.209	800.000	0.063	0.212
-399.194	180.750	-0.151	0.219
-398.179	54.614	0.194	0.185
-397.165	-48.889	0.283	-0.134
-396.150	-155.894	-0.198	-0.012
-395.136	229.968	0.051	-0.083
-394.121	-8.338	-0.121	0.081
-393.106	525.990	-0.066	-0.154
-392.092	-25.252	-0.027	-0.016
-391.077	707.272	0.080	-0.209
-390.063	800.000	0.073	0.199
-389.048	348.149	0.159	0.310
-388.033	-35.436	0.066	0.035
-387.019	800.000	0.013	0.037
-386.004	-200.000	0.013	0.130
-384.990	-200.000	0.027	0.376
-383.975	800.000	-0.055	0.154
-382.960	-120.150	-0.079	0.013
-381.946	226.887	-0.097	0.156
-380.931	-200.000	-0.009	-0.044
-379.917	296.760	0.145	0.263
-378.902	-107.440	-0.440	0.096
-377.888	-200.000	-0.017	-0.087
-376.873	180.889	-0.117	0.170
-375.858	113.585	0.370	0.445
-374.844	36.076	0.096	-0.084
-373.829	-200.000	0.031	0.134
-372.815	-58.428	0.384	-0.165
-371.800	800.000	-0.035	0.103
-370.785	-17.976	-0.240	-0.149
-369.771	-130.450	-0.191	0.026
-368.756	152.959	-0.017	-0.024
-367.742	-122.099	-0.132	-0.022
-366.727	108.363	-0.158	-0.187
-365.712	800.000	0.064	-0.267
-364.698	-50.721	0.155	-0.072
-363.683	800.000	-0.038	-0.108
-362.669	800.000	-0.029	-0.125
-361.654	-123.293	-0.310	-0.049
-360.639	-67.129	0.138	-0.054
-359.625	-89.356	-0.129	0.038
-358.610	-19.335	-0.129	-0.079
-357.596	173.749	-0.157	0.225
-356.581	341.984	-0.079	0.152
-355.566	191.165	0.080	-0.120
-354.552	246.576	-0.123	0.205
-353.537	-6.715	0.166	0.112
-352.523	724.673	0.139	-0.366
-351.508	800.000	0.089	-0.366
-350.493	-200.000	0.005	0.226
-349.479	106.269	0.120	0.140
-348.464	-200.000	0.015	0.107
-347.450	31.672	0.240	0.204
-346.435	800.000	-0.048	0.157
-345.420	-200.000	0.038	0.215
-344.406	-200.000	-0.015	0.254
-343.391	800.000	-0.028	0.117
-342.377	155.071	-0.089	0.121
-341.362	-125.157	-0.280	-0.042
-340.348	-200.000	0.040	0.226
-339.333	-111.179	0.075	-0.015
-338.318	43.417	-0.148	-0.134
-337.304	-200.000	-0.026	0.500
-336.289	-44.954	-0.417	-0.205
-335.275	-194.754	-0.135	-0.001
-334.260	-70.177	0.130	-0.049
-333.245	-24.041	0.242	-0.143
-332.231	-69.682	0.220	-0.083
-331.216	-75.751	-0.228	0.080
-330.202	-200.000	-0.004	0.132
-329.187	-69.860	0.156	0.059
-328.172	164.186	-0.212	0.295
-327.158	-132.520	-0.194	0.025
-326.143	7.432	-0.230	0.170
-325.129	800.000	-0.091	-0.261
-324.114	-73.846	-0.253	-0.091
-323.099	800.000	-0.039	0.155
-322.085	-70.319	-0.195	-0.073
-321.070	-200.000	0.045	-0.266
-320.056	-107.893	0.274	0.059
-319.041	310.963	0.100	-0.184
-318.026	178.437	0.177	-0.255
-317.012	266.591	-0.191	-0.329
-315.997	-200.000	-0.061	0.299
-314.983	-96.172	-0.325	0.085
-313.968	94.654	0.102	0.114
-312.953	-200.000	0.073	0.350
-311.939	592.336	0.068	-0.167
-310.924	768.793	-0.087	0.234
-309.910	-145.068	-0.281	0.025
-308.895	231.668	0.134	-0.216
-307.880	79.253	0.029	0.031
-306.866	-89.904	-0.182	-0.052
-305.851	297.033	-0.164	-0.298
-304.837	-200.000	0.009	0.258
-303.822	-37.838	-0.104	-0.055
-302.807	80.179	0.110	-0.117
-301.793	-117.619	-0.038	-0.007
-300.778	114.054	-0.084	0.101
-299.764	-150.987	-0.293	0.022
-298.749	58.516	0.052	0.051
-297.735	-200.000	0.049	-0.000
-296.720	65.475	0.169	0.169
-295.705	800.000	0.054	0.170
-294.691	-92.346	0.336	0.093
-293.676	-200.000	0.001	-0.343
-292.662	301.443	0.027	-0.049
-291.647	209.885	0.272	0.421
-290.632	274.922	-0.066	0.115
-289.618	102.842	-0.126	-0.146
-288.603	102.681	-0.060	-0.070
-287.589	-200.000	-0.007	0.365
-286.574	274.603	0.104	0.182
-285.559	546.434	-0.173	-0.409
-284.545	-106.158	0.199	0.044
-283.530	800.000	-0.063	0.187
-282.516	29.759	-0.199	0.168
-281.501	370.354	0.120	-0.240
-280.486	70.502	0.103	0.105
-279.472	193.171	0.101	0.151
-278.457	-80.073	-0.333	0.110
-277.443	-200.000	0.038	0.178
-276.428	-35.007	0.197	-0.106
-275.413	-200.000	-0.044	-0.380
-274.399	-198.701	0.135	-0.001
-273.384	-24.043	0.259	0.153
-272.370	-156.350	-0.185	0.011
-271.355	-175.268	-0.290	0.008
-270.340	-54.849	0.194	0.086
-269.326	-200.000	-0.023	-0.464
-268.311	-120.516	0.320	0.054
-267.297	-39.430	-0.159	-0.082
-266.282	800.000	-0.052	-0.153
-265.267	-200.000	0.037	-0.342
-264.253	-159.472	0.113	-0.006
-263.238	104.082	-0.229	-0.265
-262.224	-93.013	0.033	-0.009
-261.209	-200.000	0.032	0.282
-260.195	531.965	0.034	0.080
-259.180	-34.736	-0.037	-0.020
-258.165	800.000	-0.053	-0.174
-257.151	35.898	0.164	-0.142
-256.136	-200.000	0.019	0.172
-255.122	-141.036	-0.339	-0.034
-254.107	800.000	0.088	0.305
-253.092	7.798	0.037	-0.028
-252.078	800.000	-0.071	0.203
-251.063	-137.165	0.293	-0.033
-250.049	-13.787	0.135	-0.086
-249.034	-143.749	0.240	0.022
-248.019	800.000	0.021	0.070
-247.005	154.170	0.026	-0.035
-245.990	588.624	0.071	0.173
-244.976	-70.099	0.261	-0.098
-243.961	100.854	0.190	0.217
-242.946	234.404	-0.162	-0.262
-241.932	-0.135	-0.136	0.096
-240.917	-99.132	-0.286	0.071
-239.903	-200.000	0.037	0.406
-238.888	-200.000	-0.021	0.124
-237.873	-39.192	-0.140	-0.072
-236.859	128.493	0.107	-0.134
-235.844	-36.035	-0.303	0.161
-234.830	368.232	0.082	0.162
-233.815	128.513	0.120	-0.150
-232.800	305.206	0.105	0.193
-231.786	-131.615	-0.354	-0.046
-230.771	-108.278	0.316	-0.067
-229.757	-121.821	0.230	-0.037
-228.742	800.000	-0.014	0.039
-227.727	79.074	0.253	-0.267
-226.713	800.000	-0.108	0.333
-225.698	107.043	-0.060	-0.071
-224.684	-47.720	-0.339	-0.162
-223.669	800.000	0.103	-0.338
-222.655	-200.000	0.009	-0.286
-221.640	-200.000	0.005	-0.163
-220.625	-200.000	-0.018	0.107
-219.611	800.000	0.050	-0.175
-218.596	-200.000	-0.021	-0.301
-217.582	-184.743	0.254	-0.004
-216.567	-87.464	-0.631	-0.188
-215.552	-117.840	0.439	-0.078
-214.538	-101.668	0.107	-0.025
-213.523	-99.848	-0.190	0.047
-212.509	-111.185	-0.333	0.067
-211.494	-200.000	0.030	-0.213
-210.479	800.000	0.082	0.348
-209.465	197.661	-0.115	0.172
-208.450	-115.667	0.063	0.012
-207.436	800.000	-0.075	0.317
-206.421	-62.224	0.079	-0.032
-205.406	4.142	-0.288	-0.207
-204.392	-60.240	-0.055	0.023
-203.377	-200.000	0.027	-0.318
-202.363	208.732	-0.100	0.154
-201.348	-151.085	0.012	0.001
-200.333	270.533	0.093	-0.161
-199.319	527.454	-0.024	-0.055
-198.304	24.707	-0.164	0.133
-197.290	-93.811	0.239	-0.065
-196.275	-175.904	0.312	0.008
-195.260	27.257	0.046	-0.038
-194.246	-200.000	0.000	-0.081
-193.231	218.961	0.223	-0.350
-192.217	-91.218	-0.216	0.061
-191.202	27.555	-0.104	-0.086
-190.187	56.288	0.178	-0.170
-189.173	-198.283	0.208	0.001
-188.158	-105.283	0.204	-0.046
-187.144	-200.000	-0.003	0.293
-186.129	56.357	-0.174	-0.166
-185.114	43.701	-0.117	-0.105
-184.100	-97.081	0.128	-0.033
-183.085	-48.465	0.143	-0.068
-182.071	129.066	-0.057	0.072
-181.056	667.079	0.126	-0.319
-180.042	130.315	-0.114	-0.143
-179.027	-84.495	-0.098	-0.031
-178.012	-55.304	-0.254	-0.112
-176.998	-39.777	-0.291	-0.149
-175.983	-34.956	-0.210	-0.113
-174.969	-200.000	-0.043	0.398
-173.954	-200.000	0.022	0.153
-172.939	-200.000	0.019	-0.246
-171.925	-4.870	-0.222	-0.151
-170.910	-200.000	-0.014	0.086
-169.896	362.951	0.068	-0.135
-168.881	607.821	0.131	-0.322
-167.866	-13.334	0.125	0.079
-166.852	370.078	-0.087	-0.173
-165.837	-20.099	-0.032	0.019
-164.823	-39.231	-0.262	-0.135
-163.808	84.507	0.197	-0.212
-162.793	-20.409	-0.072	0.043
-161.779	-46.177	0.250	-0.121
-160.764	109.293	-0.125	0.147
-159.750	-112.001	0.414	-0.082
-158.735	-200.000	-0.039	-0.218
-157.720	-91.742	-0.121	-0.034
-156.706	-200.000	0.062	0.285
-155.691	21.204	0.068	-0.054
-154.677	-43.930	-0.106	0.052
-153.662	-94.872	-0.280	0.074
-152.647	-65.928	-0.169	-0.066
-151.633	-167.635	-0.309	0.012
-150.618	-53.697	0.470	-0.211
-149.604	-25.933	-0.297	0.172
-148.589	-7.072	0.099	0.066
-147.574	-77.325	0.238	0.081
-146.560	292.166	0.114	0.205
-145.545	55.584	-0.180	0.171
-144.531	-141.869	0.354	0.035
-143.516	-52.526	-0.445	0.202
-142.502	-69.511	0.192	0.072
-141.487	235.944	-0.108	0.175
-140.472	800.000	0.051	-0.142
-139.458	529.981	-0.090	0.208
-138.443	-4.388	0.177	0.120
-137.429	400.124	0.179	0.368
-136.414	800.000	0.016	0.047
-135.399	-200.000	-0.016	0.192
-134.385	-75.489	0.457	0.159
-133.370	-14.548	0.194	-0.123
-132.356	-9.212	-0.168	0.110
-131.341	-77.515	0.369	-0.125
-130.326	-159.823	-0.245	0.013
-129.312	800.000	-0.128	-0.362
-128.297	800.000	-0.097	-0.292
-127.283	-115.925	0.120	-0.022
-126.268	800.000	-0.016	-0.067
-125.253	-111.888	-0.458	-0.091
-124.239	-29.841	-0.296	-0.165
-123.224	711.764	-0.159	0.413
-122.210	123.686	-0.207	0.255
