DTS Sentinel unit serial number:	SN413079Multiplexer serial number:	ORYXHardware model number:	OX4-SRSoftware version number:	ORYX F/W v4.00 Oryx Data Collector v3.7.2.0data status	okinstallation	princeton_trtdifferential loss correction	single-endedforward channel	channel 2reverse channel	N/Adate	2019/09/13time	03:51:34forward acquisition time	60.00reverse acquisition time	0.00gamma	496.2192k internal	0.2336k external	0.2336temperature offset calibration	1.0187default loss term (dB/km)	0.3790temperature slope calibration	1.0000multiplexer offset coefficient	1.0000multiplexer slope coefficient	1.0000fibre end	0.00T internal ref (°C)	27.12T ext. ref 1 (°C)	4.07T ext. ref 2 (°C)	21.41length (m)	temperature (°C)	Stokes	anti-Stokes-747.200	-200.000	0.011	0.205
-746.185	-200.000	-0.043	0.313
-745.171	-115.469	0.433	-0.082
-744.156	12.709	0.093	-0.072
-743.142	-7.736	0.371	0.251
-742.127	681.852	0.021	-0.054
-741.112	-26.658	0.351	-0.206
-740.098	284.214	0.112	-0.202
-739.083	485.061	0.049	0.111
-738.069	-200.000	0.008	0.067
-737.054	195.856	-0.056	-0.086
-736.039	-9.791	-0.212	-0.142
-735.025	-72.925	-0.210	0.078
-734.010	-38.118	-0.541	-0.288
-732.996	-200.000	-0.051	-0.285
-731.981	-9.999	-0.256	-0.171
-730.966	317.388	0.147	0.279
-729.952	800.000	0.068	-0.209
-728.937	-200.000	-0.034	-0.208
-727.923	120.626	0.100	0.125
-726.908	345.704	-0.143	-0.281
-725.894	-135.589	-0.052	0.006
-724.879	-87.907	0.217	0.066
-723.864	-147.019	-0.199	-0.017
-722.850	-200.000	-0.016	0.285
-721.835	-106.674	-0.080	-0.018
-720.821	116.285	-0.013	0.016
-719.806	409.246	-0.046	-0.097
-718.791	104.393	-0.068	0.080
-717.777	165.481	-0.076	-0.108
-716.762	310.616	0.063	0.119
-715.748	800.000	-0.047	0.139
-714.733	800.000	0.048	-0.158
-713.718	486.645	-0.048	0.111
-712.704	-200.000	-0.039	-0.275
-711.689	-160.740	0.246	-0.013
-710.675	67.930	0.136	0.139
-709.660	24.367	-0.117	0.097
-708.645	58.749	0.185	-0.182
-707.631	-69.640	0.131	0.050
-706.616	548.937	-0.145	-0.348
-705.602	-108.790	-0.194	0.042
-704.587	-11.108	0.102	0.067
-703.572	-90.589	0.294	0.085
-702.558	-200.000	-0.021	0.096
-701.543	-165.907	-0.196	0.008
-700.529	-167.164	0.046	-0.002
-699.514	174.934	0.026	0.038
-698.499	-200.000	-0.085	-0.000
-697.485	228.244	-0.099	-0.161
-696.470	-125.991	-0.177	0.027
-695.456	131.378	0.170	0.218
-694.441	-30.219	0.193	0.110
-693.426	800.000	-0.012	0.043
-692.412	41.039	-0.194	0.176
-691.397	68.010	-0.078	-0.080
-690.383	52.049	0.211	0.201
-689.368	128.361	-0.181	-0.231
-688.354	-200.000	-0.007	0.114
-687.339	26.624	-0.294	-0.247
-686.324	372.257	0.047	0.096
-685.310	-2.288	0.300	-0.211
-684.295	-200.000	0.043	0.366
-683.281	416.541	0.142	0.304
-682.266	133.995	-0.150	-0.195
-681.251	260.415	0.094	-0.163
-680.237	78.600	0.325	-0.348
-679.222	-52.456	-0.274	-0.127
-678.208	-7.510	0.229	0.155
-677.193	130.080	0.122	-0.156
-676.178	-196.304	0.269	0.002
-675.164	-200.000	0.004	-0.093
-674.149	-200.000	-0.047	-0.346
-673.135	96.806	-0.053	-0.060
-672.120	800.000	-0.053	-0.205
-671.105	-200.000	0.029	-0.135
-670.091	800.000	0.110	-0.361
-669.076	-28.955	-0.105	-0.061
-668.062	-53.385	-0.494	-0.227
-667.047	-162.284	0.171	0.009
-666.032	-200.000	-0.029	-0.139
-665.018	410.780	0.182	0.387
-664.003	-169.198	0.066	0.002
-662.989	375.946	0.127	0.259
-661.974	800.000	0.114	0.401
-660.959	-5.816	-0.189	-0.130
-659.945	625.315	-0.044	-0.112
-658.930	48.435	0.152	-0.142
-657.916	47.747	-0.097	0.091
-656.901	219.749	0.107	-0.171
-655.886	-49.680	-0.122	-0.058
-654.872	166.815	0.117	0.167
-653.857	485.155	-0.106	-0.242
-652.843	-134.545	-0.287	-0.035
-651.828	-200.000	0.037	0.186
-650.814	108.467	0.244	0.292
-649.799	88.585	-0.163	-0.181
-648.784	5.501	-0.175	-0.129
-647.770	115.852	-0.157	-0.192
-646.755	98.811	-0.303	-0.350
-645.741	61.581	0.071	0.071
-644.726	-78.740	0.222	-0.076
-643.711	9.120	-0.050	-0.038
-642.697	49.174	0.232	0.218
-641.682	-38.507	-0.222	0.117
-640.668	23.429	-0.103	0.085
-639.653	177.514	0.169	0.246
-638.638	-64.610	0.164	0.066
-637.624	800.000	-0.066	-0.264
-636.609	-106.326	-0.354	-0.079
-635.595	-108.858	0.208	-0.045
-634.580	-116.709	-0.150	-0.028
-633.565	540.792	-0.055	-0.130
-632.551	-66.290	0.149	-0.059
-631.536	-113.351	0.025	-0.005
-630.522	-53.675	0.049	0.023
-629.507	-200.000	0.031	0.264
-628.492	-200.000	-0.045	0.216
-627.478	-139.332	0.264	-0.028
-626.463	-146.247	-0.214	0.019
-625.449	-161.859	0.256	-0.013
-624.434	-148.077	-0.158	-0.013
-623.419	-200.000	0.007	-0.140
-622.405	-86.573	0.187	-0.057
-621.390	800.000	-0.044	-0.179
-620.376	-200.000	0.028	0.171
-619.361	284.591	-0.106	-0.190
-618.346	-103.230	-0.334	0.079
-617.332	800.000	-0.054	-0.151
-616.317	78.590	-0.103	-0.110
-615.303	369.835	-0.091	-0.184
-614.288	-95.287	0.257	0.069
-613.273	-200.000	-0.061	-0.312
-612.259	-68.174	0.235	-0.091
-611.244	-151.094	0.121	0.009
-610.230	-200.000	0.074	-0.329
-609.215	0.589	-0.122	0.087
-608.201	209.584	0.048	-0.076
-607.186	122.308	-0.107	0.134
-606.171	650.714	-0.083	-0.212
-605.157	50.043	-0.132	-0.124
-604.142	-200.000	-0.003	-0.112
-603.128	-64.992	-0.223	0.090
-602.113	466.899	0.098	0.220
-601.098	53.878	0.107	-0.103
-600.084	800.000	-0.080	-0.318
-599.069	390.425	-0.043	-0.089
-598.055	-110.880	-0.013	-0.003
-597.040	638.346	-0.088	-0.223
-596.025	399.012	-0.050	0.105
-595.011	17.153	-0.336	0.266
-593.996	-200.000	0.004	-0.138
-592.982	-200.000	0.010	-0.355
-591.967	-200.000	-0.032	-0.147
-590.952	-200.000	-0.034	-0.157
-589.938	-200.000	-0.014	-0.154
-588.923	46.671	-0.091	-0.085
-587.909	-200.000	0.009	0.134
-586.894	36.242	0.051	-0.045
-585.879	800.000	-0.082	-0.305
-584.865	800.000	0.052	-0.168
-583.850	-145.421	0.121	-0.011
-582.836	640.734	-0.056	0.142
-581.821	95.575	-0.295	-0.336
-580.806	-87.342	-0.276	0.083
-579.792	-104.732	-0.261	-0.060
-578.777	16.148	-0.150	-0.118
-577.763	761.487	0.065	0.176
-576.748	800.000	0.097	0.392
-575.733	316.905	0.034	-0.064
-574.719	-100.635	0.138	0.034
-573.704	-17.808	-0.138	0.087
-572.690	50.918	-0.081	-0.077
-571.675	116.316	-0.120	-0.146
-570.661	-124.811	-0.149	0.023
-569.646	-112.418	-0.331	0.066
-568.631	-53.137	-0.166	0.076
-567.617	504.617	-0.086	0.198
-566.602	122.141	-0.472	0.587
-565.588	192.807	-0.077	0.115
-564.573	48.678	-0.105	0.098
-563.558	-115.974	-0.223	-0.041
-562.544	-185.463	-0.346	-0.005
-561.529	9.543	-0.205	-0.155
-560.515	9.889	-0.154	-0.117
-559.500	800.000	-0.062	-0.201
-558.485	-200.000	-0.028	-0.127
-557.471	89.780	0.210	-0.233
-556.456	118.284	0.224	0.275
-555.442	-200.000	0.034	0.357
-554.427	560.509	0.116	0.279
-553.412	443.384	0.039	0.086
-552.398	800.000	0.063	0.211
-551.383	-96.553	-0.169	-0.044
-550.369	237.754	0.063	-0.104
-549.354	44.189	0.149	-0.136
-548.339	-150.307	-0.059	0.005
-547.325	800.000	-0.016	0.065
-546.310	239.683	-0.163	0.271
-545.296	-46.284	0.177	0.087
-544.281	-200.000	-0.005	0.438
-543.266	-50.099	-0.088	-0.042
-542.252	488.735	0.146	-0.332
-541.237	800.000	0.021	-0.085
-540.223	-200.000	0.001	0.020
-539.208	-200.000	-0.018	0.272
-538.193	-124.631	-0.048	-0.007
-537.179	272.794	-0.137	0.242
-536.164	-50.767	0.106	-0.050
-535.150	-200.000	-0.006	-0.074
-534.135	-111.586	-0.165	-0.033
-533.121	-135.043	-0.333	0.040
-532.106	-156.451	-0.142	0.009
-531.091	-133.745	-0.157	0.020
-530.077	-200.000	-0.000	-0.294
-529.062	121.289	0.142	-0.176
-528.048	-200.000	0.022	-0.142
-527.033	200.581	-0.098	-0.150
-526.018	141.874	0.030	0.039
-525.004	-16.543	0.186	0.117
-523.989	800.000	0.143	0.396
-522.975	-116.811	-0.264	-0.048
-521.960	370.679	-0.037	-0.075
-520.945	-74.179	0.262	0.094
-519.931	-15.987	0.172	-0.109
-518.916	-200.000	0.022	-0.143
-517.902	41.568	-0.093	-0.084
-516.887	154.435	0.045	0.062
-515.872	-122.203	-0.169	0.028
-514.858	-200.000	-0.014	0.417
-513.843	-195.473	0.151	0.001
-512.829	-200.000	-0.041	-0.202
-511.814	-81.268	-0.284	-0.093
-510.799	380.122	-0.043	-0.087
-509.785	-1.806	-0.273	-0.191
-508.770	220.030	-0.124	-0.198
-507.756	-152.331	0.427	0.031
-506.741	-76.819	-0.207	0.072
-505.726	4.289	0.118	0.086
-504.712	368.881	0.102	-0.205
-503.697	-200.000	-0.040	-0.197
-502.683	80.393	0.099	0.106
-501.668	-66.451	0.252	-0.100
-500.653	221.247	-0.033	-0.052
-499.639	183.435	-0.131	-0.192
-498.624	-64.197	-0.075	0.030
-497.610	180.356	0.217	0.317
-496.595	212.505	0.216	0.339
-495.581	-78.813	-0.110	0.037
-494.566	-200.000	0.097	0.425
-493.551	31.026	-0.197	-0.168
-492.537	-200.000	0.024	0.133
-491.522	-200.000	-0.001	-0.212
-490.508	-38.737	0.184	0.097
-489.493	127.705	-0.155	-0.196
-488.478	800.000	-0.099	-0.277
-487.464	-17.765	-0.180	0.112
-486.449	566.449	0.066	-0.159
-485.435	423.900	0.081	0.173
-484.420	-167.767	-0.350	0.014
-483.405	800.000	-0.119	-0.394
-482.391	-200.000	0.013	-0.099
-481.376	800.000	-0.079	0.221
-480.362	-159.747	-0.293	-0.016
-479.347	23.606	0.118	-0.096
-478.332	-200.000	0.021	0.189
-477.318	-20.461	0.176	0.108
-476.303	95.139	-0.157	-0.177
-475.289	-200.000	-0.011	0.435
-474.274	-63.996	-0.151	0.061
-473.259	0.090	0.196	0.139
-472.245	-6.081	0.143	-0.097
-471.230	17.520	0.189	0.149
-470.216	172.054	-0.072	-0.104
-469.201	6.955	0.139	-0.103
-468.186	-115.260	0.213	-0.040
-467.172	140.210	-0.201	-0.264
-466.157	42.055	0.308	-0.278
-465.143	76.868	-0.141	-0.149
-464.128	-171.067	0.300	-0.010
-463.113	800.000	0.088	0.300
-462.099	800.000	-0.042	0.122
-461.084	800.000	-0.032	-0.109
-460.070	800.000	0.064	-0.191
-459.055	607.557	-0.070	0.173
-458.040	264.431	-0.072	-0.125
-457.026	-12.521	-0.355	0.230
-456.011	-135.546	0.199	-0.023
-454.997	173.945	0.179	-0.257
-453.982	-85.348	0.362	0.112
-452.968	-130.939	0.093	0.012
-451.953	222.981	0.137	-0.220
-450.938	9.257	-0.093	-0.070
-449.924	-200.000	-0.038	0.290
-448.909	116.353	0.128	-0.155
-447.895	-200.000	-0.005	0.072
-446.880	-115.818	-0.176	0.033
-445.865	-110.160	-0.110	-0.023
-444.851	-200.000	-0.006	-0.026
-443.836	-56.733	0.514	0.226
-442.822	-11.992	-0.405	0.264
-441.807	-200.000	0.008	-0.135
-440.792	800.000	0.075	-0.301
-439.778	-133.538	0.162	0.020
-438.763	279.085	-0.196	0.346
-437.749	800.000	0.033	-0.136
-436.734	431.577	0.159	-0.342
-435.719	289.356	-0.103	0.185
-434.705	247.781	-0.136	0.228
-433.690	-200.000	0.009	-0.467
-432.676	213.727	-0.053	-0.084
-431.661	230.082	-0.088	-0.142
-430.646	-171.065	0.473	0.016
-429.632	31.901	0.024	0.020
-428.617	718.378	0.040	-0.105
-427.603	67.798	0.200	-0.202
-426.588	474.648	-0.074	0.166
-425.573	688.975	0.114	0.296
-424.559	-92.301	0.275	-0.077
-423.544	550.010	-0.016	0.037
-422.530	23.847	-0.161	-0.131
-421.515	800.000	-0.063	-0.204
-420.500	-70.662	0.144	-0.054
-419.486	-138.049	-0.397	-0.044
-418.471	343.092	0.105	-0.203
-417.457	-45.635	0.213	0.104
-416.442	-200.000	-0.017	0.118
-415.428	-98.496	-0.179	-0.045
-414.413	-200.000	-0.090	0.403
-413.398	-200.000	-0.056	-0.278
-412.384	28.773	0.165	0.138
-411.369	3.582	-0.244	0.177
-410.355	-1.669	-0.143	-0.100
-409.340	-135.694	0.367	0.043
-408.325	-200.000	-0.012	0.228
-407.311	-22.889	0.058	0.035
-406.296	-200.000	-0.030	-0.172
-405.282	67.523	-0.060	0.061
-404.267	-200.000	0.013	-0.205
-403.252	-200.000	0.013	0.253
-402.238	-45.819	0.075	0.037
-401.223	53.218	0.208	-0.197
-400.209	-98.004	0.282	-0.072
-399.194	287.646	0.090	-0.161
-398.179	-200.000	-0.051	-0.570
-397.165	-51.385	0.274	-0.127
-396.150	44.405	-0.362	0.330
-395.136	-21.974	0.183	-0.110
-394.121	129.057	0.096	0.122
-393.106	-125.045	0.084	0.013
-392.092	97.678	0.080	0.091
-391.077	-69.440	-0.210	0.080
-390.063	800.000	0.047	-0.196
-389.048	259.620	0.185	0.316
-388.033	-200.000	-0.004	-0.354
-387.019	-147.405	0.284	0.024
-386.004	-133.010	-0.080	0.010
-384.990	-92.568	-0.208	0.058
-383.975	-132.889	0.024	-0.003
-382.960	95.496	-0.124	0.140
-381.946	196.443	0.171	-0.258
-380.931	73.747	-0.049	-0.050
-379.917	-200.000	-0.031	0.154
-378.902	-200.000	0.001	0.128
-377.888	-31.991	-0.159	-0.088
-376.873	-80.875	-0.282	0.092
-375.858	549.326	0.114	0.270
-374.844	-200.000	-0.000	0.098
-373.829	58.417	0.294	0.286
-372.815	42.429	-0.224	-0.202
-371.800	-107.585	0.046	0.010
-370.785	320.299	-0.109	-0.205
-369.771	800.000	-0.036	-0.105
-368.756	102.574	-0.082	0.095
-367.742	96.057	0.103	0.116
-366.727	22.710	-0.103	0.083
-365.712	-39.888	-0.052	-0.027
-364.698	-140.239	0.179	-0.019
-363.683	-50.195	-0.108	-0.051
-362.669	-113.349	0.276	-0.054
-361.654	-200.000	-0.001	0.067
-360.639	-200.000	0.016	-0.140
-359.625	-69.968	-0.242	0.091
-358.610	-5.704	-0.142	0.096
-357.596	21.880	-0.110	0.089
-356.581	-200.000	-0.020	-0.146
-355.566	800.000	0.015	-0.046
-354.552	-121.920	-0.166	-0.027
-353.537	-87.725	0.125	0.037
-352.523	-33.169	-0.338	-0.185
-351.508	800.000	-0.073	0.277
-350.493	-1.656	0.170	0.119
-349.479	245.851	-0.095	0.158
-348.464	179.099	0.137	0.199
-347.450	-32.857	0.138	0.076
-346.435	706.063	0.121	-0.316
-345.420	434.593	-0.030	0.065
-344.406	265.167	-0.118	0.203
-343.391	-200.000	-0.043	-0.280
-342.377	-200.000	0.014	-0.207
-341.362	-60.848	0.193	0.081
-340.348	29.400	0.117	-0.098
-339.333	-52.072	-0.251	-0.115
-338.318	-59.845	0.368	0.156
-337.304	81.537	-0.049	0.053
-336.289	340.876	0.048	0.093
-335.275	-80.883	0.539	0.177
-334.260	442.361	-0.085	0.183
-333.245	157.116	0.282	0.385
-332.231	-200.000	0.017	0.108
-331.216	-91.202	0.372	0.105
-330.202	729.916	-0.094	0.247
-329.187	-29.237	0.073	0.041
-328.172	-116.002	-0.216	-0.040
-327.158	-35.016	0.117	-0.063
-326.143	126.062	-0.150	-0.187
-325.129	272.574	-0.073	-0.128
-324.114	154.051	-0.118	0.160
-323.099	-118.732	0.124	0.022
-322.085	-97.694	0.130	0.033
-321.070	121.629	0.111	0.137
-320.056	-9.304	-0.201	-0.133
-319.041	-97.247	-0.098	0.025
-318.026	219.637	0.123	0.195
-317.012	-65.890	-0.178	0.070
-315.997	98.966	0.082	-0.094
-314.983	36.218	-0.059	0.052
-313.968	-74.665	-0.093	0.033
-312.953	800.000	0.076	0.221
-311.939	568.524	0.133	-0.320
-310.924	-200.000	0.006	0.177
-309.910	-83.480	0.202	0.064
-308.895	150.031	0.227	0.304
-307.880	296.596	-0.190	0.344
-306.866	-54.854	0.265	-0.118
-305.851	-16.138	0.157	-0.099
-304.837	-200.000	0.033	-0.180
-303.822	-134.087	-0.414	-0.050
-302.807	-14.276	0.164	0.104
-301.793	-74.286	-0.298	0.106
-300.778	83.395	0.149	-0.160
-299.764	-48.848	-0.015	0.007
-298.749	-136.501	-0.091	0.010
-297.735	273.194	-0.171	-0.297
-296.720	257.281	-0.020	0.034
-295.705	14.507	-0.144	-0.111
-294.691	128.910	0.115	0.144
-293.676	-125.685	-0.216	0.032
-292.662	152.557	-0.186	-0.251
-291.647	-200.000	0.007	0.052
-290.632	227.334	-0.170	-0.272
-289.618	-34.656	0.222	-0.120
-288.603	638.952	0.008	0.020
-287.589	119.643	-0.177	0.216
-286.574	-47.750	0.265	-0.127
-285.559	38.960	-0.150	0.133
-284.545	800.000	-0.116	-0.349
-283.530	800.000	0.055	-0.164
-282.516	-200.000	0.002	0.228
-281.501	125.734	-0.028	0.035
-280.486	387.517	0.129	-0.264
-279.472	800.000	-0.025	-0.105
-278.457	54.633	-0.091	-0.086
-277.443	625.526	0.082	-0.203
-276.428	-139.960	0.217	-0.023
-275.413	-25.795	0.166	-0.097
-274.399	194.158	0.217	0.325
-273.384	-200.000	0.003	-0.234
-272.370	-40.085	-0.190	-0.098
-271.355	17.961	-0.205	-0.161
-270.340	-200.000	-0.018	-0.315
-269.326	-25.935	0.341	0.198
-268.311	-200.000	0.034	-0.198
-267.297	800.000	0.130	-0.386
-266.282	-45.485	-0.099	-0.048
-265.267	-106.543	-0.174	0.038
-264.253	-106.480	-0.327	-0.072
-263.238	209.605	0.162	0.251
-262.224	146.498	-0.105	0.139
-261.209	105.646	0.288	0.336
-260.195	-126.168	0.245	-0.036
-259.180	-187.023	0.145	-0.002
-258.165	105.064	0.188	0.219
-257.151	-93.987	-0.142	-0.038
-256.136	-200.000	0.012	-0.158
-255.122	40.281	-0.246	-0.218
-254.107	-83.291	0.157	-0.050
-253.092	181.792	-0.145	0.211
-252.078	800.000	0.040	-0.117
-251.063	415.949	-0.088	0.185
-250.049	-109.170	-0.294	-0.062
-249.034	33.905	0.159	-0.137
-248.019	-6.989	-0.220	0.147
-247.005	-76.137	0.259	-0.090
-245.990	-125.211	0.250	0.038
-244.976	-200.000	0.005	0.286
-243.961	153.608	0.075	-0.101
-242.946	442.377	0.087	-0.187
-241.932	-9.120	-0.136	0.090
-240.917	800.000	-0.070	0.233
-239.903	19.435	-0.182	0.144
-238.888	371.521	0.104	-0.208
-237.873	-200.000	0.046	-0.231
-236.859	5.557	-0.084	-0.061
-235.844	522.473	-0.121	-0.281
-234.830	364.645	-0.129	0.255
-233.815	-26.985	-0.200	-0.115
-232.800	-121.696	-0.173	-0.028
-231.786	242.369	0.195	-0.321
-230.771	800.000	-0.062	0.173
-229.757	149.903	-0.159	0.213
-228.742	-200.000	-0.012	-0.112
-227.727	-200.000	-0.011	-0.053
-226.713	23.072	0.384	0.310
-225.698	324.014	0.063	0.119
-224.684	-43.678	-0.160	-0.079
-223.669	-70.402	0.229	-0.085
-222.655	43.619	-0.205	-0.184
-221.640	623.282	-0.085	-0.211
-220.625	90.289	0.283	0.312
-219.611	-138.648	0.338	-0.036
-218.596	116.845	0.155	0.187
-217.582	37.722	-0.285	0.249
-216.567	-116.337	0.364	0.066
-215.552	-79.738	-0.048	-0.016
-214.538	-200.000	-0.004	0.294
-213.523	71.392	0.182	0.186
-212.509	-26.301	0.213	0.123
-211.494	-79.717	0.315	-0.104
-210.479	18.158	-0.241	-0.189
-209.465	-42.222	-0.350	0.176
-208.450	800.000	-0.033	0.131
-207.436	330.410	-0.075	0.141
-206.421	-200.000	0.023	-0.234
-205.406	-116.735	0.376	0.068
-204.392	273.907	0.101	0.176
-203.377	800.000	-0.033	0.123
-202.363	166.790	0.300	0.418
-201.348	-23.915	-0.156	0.092
-200.333	350.104	-0.099	0.193
-199.319	800.000	0.087	0.332
-198.304	497.180	0.138	0.311
-197.290	35.104	-0.177	0.153
-196.275	-200.000	0.015	-0.232
-195.260	119.571	-0.053	-0.064
-194.246	-200.000	0.054	0.374
-193.231	-200.000	-0.084	0.365
-192.217	122.080	-0.222	0.272
-191.202	780.901	0.093	0.251
-190.187	-28.604	-0.164	0.093
-189.173	-200.000	-0.021	-0.271
-188.158	47.343	-0.012	-0.011
-187.144	-200.000	0.009	-0.185
-186.129	-190.070	0.253	0.003
-185.114	-97.792	0.253	-0.064
-184.100	233.985	0.151	-0.244
-183.085	-30.774	-0.098	0.054
-182.071	125.002	0.162	0.200
-181.056	-200.000	0.017	-0.142
-180.042	-104.112	-0.069	-0.016
-179.027	22.479	0.137	-0.110
-178.012	-69.180	0.258	-0.097
-176.998	-27.848	0.039	-0.022
-175.983	455.786	0.055	-0.119
-174.969	800.000	-0.045	-0.175
-173.954	60.072	0.315	-0.306
-172.939	-26.800	0.152	0.087
-171.925	-105.655	-0.148	0.033
-170.910	-17.384	0.067	0.042
-169.896	190.623	-0.075	-0.110
-168.881	137.758	-0.074	-0.095
-167.866	-91.460	-0.050	-0.014
-166.852	66.075	-0.081	0.081
-165.837	800.000	-0.058	-0.174
-164.823	314.979	-0.044	-0.081
-163.808	-200.000	0.034	0.233
-162.793	48.647	0.162	-0.149
-161.779	320.864	-0.139	0.260
-160.764	430.571	-0.059	0.125
-159.750	160.598	-0.203	0.279
-158.735	329.285	-0.044	0.083
-157.720	69.898	0.132	-0.133
-156.706	217.154	0.087	0.136
-155.691	87.860	0.138	-0.151
-154.677	-101.138	-0.207	-0.050
-153.662	-131.346	0.089	0.012
-152.647	-13.748	0.180	0.115
-151.633	800.000	-0.074	-0.222
-150.618	800.000	0.051	0.149
-149.604	-140.644	0.329	-0.033
-148.589	-24.156	-0.142	-0.083
-147.574	800.000	-0.010	-0.032
-146.560	164.744	-0.205	0.284
-145.545	-131.387	0.291	-0.038
-144.531	-200.000	0.024	-0.248
-143.516	123.895	-0.206	0.254
-142.502	-200.000	0.046	0.226
-141.487	-200.000	-0.026	-0.510
-140.472	-200.000	-0.024	-0.411
-139.458	372.705	-0.159	0.316
-138.443	301.929	-0.102	0.185
-137.429	-66.390	-0.165	0.064
-136.414	-92.577	-0.100	0.028
-135.399	-109.463	0.087	0.018
-134.385	312.309	-0.077	-0.142
-133.370	800.000	-0.047	-0.190
-132.356	-158.097	-0.084	0.005
-131.341	-200.000	-0.027	-0.160
-130.326	154.808	0.114	0.154
-129.312	-116.231	0.140	-0.026
-128.297	149.083	-0.132	0.175
-127.283	7.655	-0.192	0.141
-126.268	424.286	-0.042	0.088
-125.253	422.727	0.065	-0.136
-124.239	273.761	-0.134	-0.233
-123.224	631.164	-0.059	0.146
-122.210	243.626	0.041	-0.067
