DTS Sentinel unit serial number:	SN413079Multiplexer serial number:	ORYXHardware model number:	OX4-SRSoftware version number:	ORYX F/W v4.00 Oryx Data Collector v3.7.2.0data status	okinstallation	princeton_trtdifferential loss correction	single-endedforward channel	channel 2reverse channel	N/Adate	2019/09/12time	14:41:10forward acquisition time	60.00reverse acquisition time	0.00gamma	496.2192k internal	0.2301k external	0.2301temperature offset calibration	1.0083default loss term (dB/km)	0.3790temperature slope calibration	1.0000multiplexer offset coefficient	1.0000multiplexer slope coefficient	1.0000fibre end	0.00T internal ref (°C)	40.12T ext. ref 1 (°C)	2.27T ext. ref 2 (°C)	36.99length (m)	temperature (°C)	Stokes	anti-Stokes-747.200	-130.739	0.248	0.034
-746.185	35.892	0.193	0.173
-745.171	-85.832	0.480	0.152
-744.156	345.835	0.104	0.209
-743.142	410.122	0.076	0.164
-742.127	-200.000	-0.098	0.548
-741.112	71.865	0.232	0.246
-740.098	-200.000	-0.091	0.530
-739.083	-70.903	-0.398	-0.153
-738.069	469.670	-0.032	-0.073
-737.054	-140.219	-0.255	-0.027
-736.039	-105.082	-0.416	0.097
-735.025	-89.863	0.303	-0.090
-734.010	80.761	-0.341	0.375
-732.996	44.153	-0.199	0.186
-731.981	-69.080	-0.357	-0.140
-730.966	-55.495	-0.440	-0.201
-729.952	-43.375	0.085	-0.044
-728.937	462.982	-0.050	0.113
-727.923	322.212	0.158	-0.307
-726.908	-161.140	0.192	0.010
-725.894	-73.194	0.214	0.080
-724.879	-16.755	-0.305	-0.196
-723.864	-55.291	-0.309	-0.142
-722.850	41.599	-0.135	-0.124
-721.835	-92.727	0.047	0.013
-720.821	-43.030	-0.048	-0.025
-719.806	345.962	-0.164	0.328
-718.791	172.541	0.055	-0.080
-717.777	-119.353	-0.277	-0.049
-716.762	176.581	-0.141	-0.208
-715.748	425.463	0.079	0.173
-714.733	800.000	-0.161	0.514
-713.718	-200.000	0.049	0.227
-712.704	-69.600	0.135	0.053
-711.689	-145.565	-0.404	0.037
-710.675	147.966	0.037	-0.051
-709.660	-200.000	0.012	0.241
-708.645	69.681	0.218	0.228
-707.631	5.819	0.041	-0.031
-706.616	-108.634	-0.398	-0.087
-705.602	-200.000	-0.028	0.246
-704.587	-200.000	0.015	-0.101
-703.572	800.000	0.024	-0.105
-702.558	-21.830	-0.117	-0.073
-701.543	800.000	0.006	-0.020
-700.529	248.187	-0.122	0.211
-699.514	-133.736	0.375	0.048
-698.499	62.718	-0.098	-0.099
-697.485	5.278	0.242	0.181
-696.470	-38.456	-0.340	0.183
-695.456	546.491	0.029	-0.070
-694.441	-56.662	-0.201	-0.091
-693.426	129.081	0.121	0.157
-692.412	53.588	0.086	-0.084
-691.397	2.833	-0.133	-0.098
-690.383	-55.571	-0.638	-0.291
-689.368	23.883	0.192	-0.161
-688.354	800.000	0.077	-0.336
-687.339	79.438	-0.104	-0.114
-686.324	-200.000	0.004	-0.061
-685.310	48.450	-0.087	-0.083
-684.295	-16.138	0.126	-0.081
-683.281	-200.000	0.018	-0.136
-682.266	-48.916	-0.298	-0.145
-681.251	-53.973	-0.191	-0.088
-680.237	-200.000	-0.062	0.469
-679.222	-69.121	0.194	0.076
-678.208	136.719	0.335	-0.445
-677.193	54.386	-0.136	-0.133
-676.178	-200.000	0.004	-0.152
-675.164	800.000	0.032	-0.092
-674.149	84.167	-0.113	-0.126
-673.135	-200.000	-0.041	0.339
-672.120	-200.000	-0.035	0.180
-671.105	46.111	0.149	-0.140
-670.091	800.000	-0.053	0.186
-669.076	800.000	-0.070	-0.235
-668.062	147.402	-0.083	0.114
-667.047	196.305	0.086	-0.133
-666.032	-29.502	-0.354	-0.206
-665.018	-104.889	-0.353	0.082
-664.003	-23.798	-0.200	-0.122
-662.989	198.958	-0.178	0.278
-661.974	-200.000	0.024	0.410
-660.959	38.031	-0.254	-0.230
-659.945	118.784	0.166	0.208
-658.930	-200.000	-0.021	-0.113
-657.916	482.498	0.126	-0.290
-656.901	-66.488	0.182	0.074
-655.886	-154.276	-0.039	0.003
-654.872	457.820	0.132	-0.297
-653.857	-42.563	-0.388	-0.201
-652.843	800.000	-0.081	0.348
-651.828	195.127	0.094	-0.144
-650.814	-144.046	-0.205	0.020
-649.799	-200.000	0.190	-0.000
-648.784	-200.000	-0.014	-0.136
-647.770	-135.898	-0.124	-0.015
-646.755	800.000	0.015	0.059
-645.741	-200.000	0.003	0.177
-644.726	36.891	-0.166	0.149
-643.711	-67.898	-0.051	0.020
-642.697	-66.221	0.137	-0.055
-641.682	143.151	-0.155	0.210
-640.668	-32.782	-0.206	-0.116
-639.653	75.598	0.138	-0.148
-638.638	267.570	-0.135	0.240
-637.624	207.232	0.275	-0.435
-636.609	166.397	-0.133	0.192
-635.595	53.995	0.116	0.113
-634.580	81.544	0.197	-0.216
-633.565	-58.725	0.112	0.049
-632.551	-21.421	-0.322	0.199
-631.536	633.726	0.101	0.261
-630.522	-100.204	0.162	0.041
-629.507	-113.868	-0.104	0.021
-628.492	22.442	-0.190	0.158
-627.478	275.108	0.247	0.444
-626.463	-200.000	0.049	0.331
-625.449	569.974	0.127	0.313
-624.434	-92.507	0.331	0.094
-623.419	98.861	-0.072	-0.085
-622.405	800.000	0.091	-0.388
-621.390	77.184	0.074	0.080
-620.376	-76.205	-0.371	-0.133
-619.361	800.000	-0.042	-0.126
-618.346	-84.031	0.098	-0.031
-617.332	71.898	0.106	-0.111
-616.317	-53.014	-0.200	0.094
-615.303	-200.000	-0.061	-0.335
-614.288	-200.000	0.004	0.083
-613.273	-72.640	0.165	0.062
-612.259	7.920	0.059	-0.045
-611.244	279.844	-0.169	-0.306
-610.230	-31.628	-0.316	-0.180
-609.215	-110.615	-0.089	0.019
-608.201	800.000	0.017	0.066
-607.186	-189.769	-0.307	0.004
-606.171	215.913	0.055	0.089
-605.157	-78.950	-0.125	-0.043
-604.142	-12.386	0.115	0.076
-603.128	120.422	0.073	0.092
-602.113	-42.407	0.173	-0.090
-601.098	-117.354	-0.175	0.032
-600.084	-41.291	-0.263	-0.138
-599.069	713.469	0.043	0.116
-598.055	800.000	-0.068	-0.242
-597.040	395.607	-0.080	-0.170
-596.025	-105.452	0.371	-0.086
-595.011	562.419	0.032	-0.078
-593.996	79.342	0.261	0.284
-592.982	195.402	-0.194	-0.299
-591.967	-175.995	-0.485	0.013
-590.952	-200.000	0.005	0.074
-589.938	-25.623	-0.419	0.251
-588.923	-132.816	0.181	-0.023
-587.909	800.000	-0.014	-0.055
-586.894	-13.112	-0.281	-0.185
-585.879	-200.000	0.002	0.041
-584.865	-68.038	0.171	-0.067
-583.850	-125.005	-0.144	0.022
-582.836	13.547	0.072	0.057
-581.821	-165.155	-0.133	-0.006
-580.806	96.660	-0.216	-0.251
-579.792	-53.600	0.100	-0.046
-578.777	263.104	-0.131	0.231
-577.763	604.275	-0.075	0.188
-576.748	-142.826	-0.149	0.015
-575.733	-106.875	-0.269	0.060
-574.719	-104.503	-0.199	0.047
-573.704	69.846	0.147	-0.154
-572.690	153.165	-0.195	0.270
-571.675	-200.000	0.055	0.273
-570.661	87.376	0.130	-0.145
-569.646	74.814	0.238	-0.254
-568.631	-98.969	0.411	0.106
-567.617	-91.398	0.130	0.037
-566.602	296.094	-0.105	-0.195
-565.588	130.138	-0.266	-0.345
-564.573	800.000	-0.099	0.289
-563.558	-8.302	0.195	0.133
-562.544	39.020	-0.133	0.121
-561.529	455.042	-0.160	-0.359
-560.515	-200.000	-0.001	-0.383
-559.500	-94.770	0.155	0.043
-558.485	-200.000	0.008	-0.103
-557.471	-34.954	-0.093	0.051
-556.456	-58.542	0.284	-0.125
-555.442	-73.424	0.309	0.114
-554.427	311.210	-0.027	-0.051
-553.412	-34.409	-0.203	-0.113
-552.398	273.898	0.007	0.013
-551.383	19.127	0.217	-0.176
-550.369	288.994	0.048	-0.087
-549.354	153.378	0.144	0.199
-548.339	-50.399	0.267	0.128
-547.325	800.000	0.057	-0.177
-546.310	673.447	-0.045	-0.118
-545.296	-90.848	0.096	-0.028
-544.281	-200.000	0.024	0.379
-543.266	53.911	-0.358	0.348
-542.252	205.381	0.051	0.080
-541.237	-48.242	0.171	-0.084
-540.223	140.966	0.041	-0.055
-539.208	-200.000	0.001	0.153
-538.193	-200.000	-0.025	-0.240
-537.179	800.000	-0.030	0.084
-536.164	447.240	0.044	-0.098
-535.150	-162.506	-0.410	-0.020
-534.135	-93.354	-0.095	-0.027
-533.121	-200.000	0.016	0.339
-532.106	-68.064	-0.084	-0.033
-531.091	138.098	-0.036	-0.048
-530.077	-54.709	0.151	0.069
-529.062	-200.000	-0.018	-0.126
-528.048	138.413	-0.061	-0.081
-527.033	-81.744	0.338	-0.112
-526.018	-81.306	-0.239	0.080
-525.004	-42.385	-0.072	-0.037
-523.989	800.000	0.051	-0.146
-522.975	-200.000	-0.049	-0.286
-521.960	-61.432	0.229	0.097
-520.945	-56.508	-0.253	0.113
-519.931	-92.878	-0.282	-0.079
-518.916	-117.287	0.184	-0.034
-517.902	-133.647	-0.099	-0.012
-516.887	-200.000	-0.011	-0.408
-515.872	800.000	-0.064	0.262
-514.858	64.812	0.173	-0.177
-513.843	-64.418	0.203	0.083
-512.829	93.210	-0.233	-0.266
-511.814	80.129	0.048	-0.053
-510.799	190.507	-0.031	0.047
-509.785	-148.371	-0.238	0.020
-508.770	483.637	-0.062	-0.143
-507.756	-130.040	0.191	0.026
-506.741	204.140	-0.127	0.199
-505.726	-78.906	-0.189	-0.065
-504.712	-200.000	0.001	-0.130
-503.697	-200.000	0.036	-0.193
-502.683	-118.807	-0.349	-0.062
-501.668	-200.000	0.062	-0.306
-500.653	29.532	0.180	-0.154
-499.639	-70.843	0.232	0.089
-498.624	-200.000	0.027	0.344
-497.610	-200.000	0.032	-0.199
-496.595	-56.256	0.021	0.009
-495.581	196.223	0.271	-0.417
-494.566	-148.905	-0.057	-0.005
-493.551	-21.346	-0.077	-0.048
-492.537	367.439	-0.092	-0.187
-491.522	-152.148	-0.036	0.003
-490.508	3.857	-0.246	-0.181
-489.493	-200.000	-0.170	-0.000
-488.478	-67.309	-0.344	0.136
-487.464	-21.160	-0.137	0.085
-486.449	-71.892	-0.124	-0.047
-485.435	-55.754	-0.206	0.093
-484.420	-12.292	0.225	-0.149
-483.405	-24.225	0.107	0.064
-482.391	-141.707	0.121	0.012
-481.376	-44.982	-0.229	0.115
-480.362	-26.546	0.041	-0.024
-479.347	-173.617	0.167	0.005
-478.332	-148.608	-0.417	-0.034
-477.318	-38.502	0.180	0.096
-476.303	-200.000	-0.018	0.108
-475.289	-10.506	0.193	0.129
-474.274	-77.110	-0.205	-0.072
-473.259	-200.000	-0.001	-0.198
-472.245	-200.000	-0.043	-0.299
-471.230	254.866	-0.079	-0.137
-470.216	31.348	0.208	0.180
-469.201	-0.602	-0.236	0.169
-468.186	-97.718	-0.618	-0.161
-467.172	-21.816	-0.172	-0.106
-466.157	-200.000	0.063	0.287
-465.143	-74.194	0.138	0.050
-464.128	-113.201	-0.155	-0.031
-463.113	-200.000	0.008	-0.077
-462.099	-14.787	-0.032	0.021
-461.084	-19.130	-0.149	-0.094
-460.070	334.016	0.064	0.125
-459.055	-200.000	0.023	0.168
-458.040	72.527	0.227	0.239
-457.026	-36.705	-0.304	-0.164
-456.011	156.736	0.226	-0.315
-454.997	321.683	0.142	0.272
-453.982	-38.923	0.248	0.132
-452.968	-8.126	0.148	0.101
-451.953	-31.859	0.113	-0.064
-450.938	-33.920	0.333	0.185
-449.924	-200.000	-0.013	-0.072
-448.909	211.564	0.081	0.129
-447.895	124.817	0.211	0.268
-446.880	-147.953	0.110	0.009
-445.865	83.865	0.113	0.124
-444.851	60.465	0.110	-0.110
-443.836	-168.236	0.217	-0.008
-442.822	78.817	0.187	0.201
-441.807	46.825	-0.126	0.118
-440.792	1.615	-0.140	-0.102
-439.778	84.669	0.102	-0.113
-438.763	-135.690	0.230	0.027
-437.749	-89.037	0.192	-0.057
-436.734	25.470	0.275	-0.230
-435.719	-40.361	0.187	0.098
-434.705	201.606	-0.097	-0.151
-433.690	-100.370	0.242	0.060
-432.676	-200.000	-0.007	0.200
-431.661	-28.202	0.074	0.043
-430.646	800.000	0.121	0.405
-429.632	-23.183	-0.272	-0.165
-428.617	-128.049	-0.374	-0.054
-427.603	398.943	-0.080	0.169
-426.588	-97.306	-0.106	-0.028
-425.573	-200.000	0.014	-0.534
-424.559	265.151	0.043	0.076
-423.544	695.816	-0.092	0.243
-422.530	10.160	-0.051	-0.039
-421.515	-84.401	0.491	0.156
-420.500	168.575	-0.120	0.172
-419.486	-34.401	-0.220	-0.121
-418.471	800.000	-0.017	0.064
-417.457	665.982	0.121	-0.315
-416.442	-200.000	-0.021	-0.245
-415.428	800.000	0.061	0.257
-414.413	-200.000	0.015	-0.089
-413.398	124.147	0.174	-0.220
-412.384	183.521	0.049	-0.073
-411.369	-200.000	0.019	-0.098
-410.355	-113.130	0.190	0.038
-409.340	92.189	-0.131	0.148
-408.325	130.959	0.049	0.064
-407.311	-94.914	-0.077	0.021
-406.296	-200.000	0.002	-0.127
-405.282	800.000	0.094	-0.357
-404.267	4.305	-0.267	0.196
-403.252	268.934	-0.090	0.158
-402.238	-108.397	0.136	-0.030
-401.223	-63.786	0.056	-0.023
-400.209	118.168	-0.074	-0.092
-399.194	41.280	0.187	0.170
-398.179	321.453	-0.088	-0.169
-397.165	302.018	-0.201	-0.374
-396.150	352.598	0.163	-0.325
-395.136	605.945	0.119	0.297
-394.121	-200.000	0.045	0.218
-393.106	216.499	-0.059	0.095
-392.092	-141.114	-0.061	0.006
-391.077	62.705	0.190	-0.191
-390.063	-200.000	-0.032	-0.195
-389.048	215.874	-0.047	-0.076
-388.033	-200.000	0.020	0.187
-387.019	800.000	-0.073	0.293
-386.004	-200.000	-0.057	0.258
-384.990	608.269	0.020	-0.051
-383.975	-200.000	-0.029	-0.195
-382.960	-91.250	-0.226	-0.065
-381.946	178.262	-0.272	-0.399
-380.931	-15.831	-0.219	-0.140
-379.917	-156.987	0.246	0.015
-378.902	36.340	0.013	0.012
-377.888	-77.323	0.191	0.067
-376.873	-12.205	0.243	0.160
-375.858	-137.289	-0.099	0.011
-374.844	-200.000	-0.006	0.077
-373.829	45.238	-0.108	0.100
-372.815	-200.000	0.020	-0.452
-371.800	-109.858	0.107	0.023
-370.785	83.268	0.131	-0.143
-369.771	-200.000	0.018	0.110
-368.756	-200.000	0.011	0.231
-367.742	-139.873	-0.237	0.025
-366.727	-200.000	-0.022	0.331
-365.712	15.569	-0.209	0.165
-364.698	-39.350	0.253	-0.133
-363.683	-116.122	-0.222	0.042
-362.669	-124.033	0.256	0.040
-361.654	-135.175	0.015	-0.002
-360.639	124.736	0.116	0.147
-359.625	122.643	0.116	0.146
-358.610	800.000	0.139	0.392
-357.596	-171.349	0.335	0.011
-356.581	-52.903	-0.091	0.042
-355.566	109.683	-0.102	0.122
-354.552	-83.915	-0.276	-0.088
-353.537	-200.000	-0.136	0.000
-352.523	-0.825	0.107	0.076
-351.508	390.768	-0.089	-0.186
-350.493	140.220	-0.138	-0.183
-349.479	0.809	-0.155	-0.112
-348.464	-200.000	-0.024	0.381
-347.450	-200.000	-0.001	-0.058
-346.435	0.419	0.077	-0.055
-345.420	-99.279	0.394	-0.100
-344.406	174.140	-0.155	-0.225
-343.391	800.000	-0.014	0.042
-342.377	21.676	0.209	-0.171
-341.362	-35.156	0.215	0.117
-340.348	-200.000	0.040	0.202
-339.333	-90.817	-0.190	-0.055
-338.318	-126.615	0.222	0.033
-337.304	72.125	-0.102	0.106
-336.289	239.587	-0.096	0.160
-335.275	43.200	-0.230	-0.211
-334.260	800.000	0.031	0.125
-333.245	-149.349	0.228	0.018
-332.231	-35.155	0.219	-0.120
-331.216	215.278	0.045	0.072
-330.202	43.544	0.034	-0.031
-329.187	-200.000	-0.005	0.288
-328.172	800.000	0.034	0.104
-327.158	39.708	-0.191	0.172
-326.143	800.000	-0.069	0.295
-325.129	565.862	0.037	-0.090
-324.114	425.679	0.044	-0.094
-323.099	-52.626	0.221	0.102
-322.085	-79.150	0.386	0.131
-321.070	800.000	0.077	-0.302
-320.056	382.896	-0.204	0.420
-319.041	-192.820	-0.048	0.000
-318.026	-200.000	-0.016	-0.081
-317.012	800.000	0.016	0.054
-315.997	800.000	-0.028	-0.087
-314.983	800.000	0.061	-0.191
-313.968	-200.000	-0.031	0.183
-312.953	165.407	-0.106	0.151
-311.939	-52.202	-0.064	0.030
-310.924	-3.565	-0.056	-0.039
-309.910	43.510	0.128	0.117
-308.895	309.488	-0.127	0.238
-307.880	-14.077	-0.149	0.096
-306.866	-200.000	-0.006	-0.109
-305.851	800.000	0.043	-0.145
-304.837	-200.000	-0.013	-0.075
-303.822	119.990	-0.123	-0.153
-302.807	-43.400	0.242	0.123
-301.793	-104.967	0.063	0.015
-300.778	-37.079	0.280	0.150
-299.764	-200.000	0.038	0.265
-298.749	-200.000	-0.043	-0.266
-297.735	-67.405	0.251	-0.099
-296.720	94.477	-0.151	-0.172
-295.705	800.000	0.013	0.045
-294.691	10.609	0.091	-0.070
-293.676	-200.000	-0.014	-0.135
-292.662	-99.500	0.270	-0.068
-291.647	-158.109	-0.220	-0.013
-290.632	-30.344	0.230	-0.131
-289.618	-200.000	0.004	0.313
-288.603	-47.130	0.082	0.040
-287.589	-200.000	-0.016	-0.086
-286.574	29.382	0.178	-0.151
-285.559	-98.258	0.259	0.067
-284.545	-200.000	0.023	-0.177
-283.530	757.755	-0.125	0.339
-282.516	-35.910	-0.386	0.209
-281.501	435.952	-0.131	-0.285
-280.486	-67.912	0.064	0.025
-279.472	800.000	0.152	-0.439
-278.457	556.122	-0.034	0.082
-277.443	-86.779	-0.072	-0.022
-276.428	161.245	0.067	-0.094
-275.413	-74.688	-0.203	0.073
-274.399	800.000	-0.226	0.732
-273.384	-91.404	0.244	0.070
-272.370	-200.000	-0.086	-0.527
-271.355	-76.865	-0.285	-0.100
-270.340	-200.000	0.011	-0.054
-269.326	800.000	-0.126	-0.403
-268.311	42.842	-0.119	0.108
-267.297	-110.920	0.229	0.047
-266.282	390.731	-0.113	0.235
-265.267	-200.000	-0.015	0.127
-264.253	-139.389	-0.235	0.025
-263.238	777.392	0.124	-0.339
-262.224	69.966	-0.040	-0.041
-261.209	-17.467	0.082	0.051
-260.195	-180.034	0.035	0.001
-259.180	800.000	-0.062	0.194
-258.165	-109.241	-0.384	-0.082
-257.151	66.652	-0.158	0.161
-256.136	-80.714	0.119	0.040
-255.122	-21.217	0.357	-0.218
-254.107	-200.000	-0.007	-0.199
-253.092	-130.753	-0.305	-0.041
-252.078	-200.000	0.031	0.248
-251.063	462.259	-0.210	0.468
-250.049	1.511	0.168	-0.121
-249.034	-3.019	-0.317	-0.221
-248.019	800.000	-0.077	-0.305
-247.005	-189.112	-0.262	-0.003
-245.990	-200.000	0.040	-0.436
-244.976	-62.994	0.164	-0.068
-243.961	-200.000	0.013	0.232
-242.946	83.156	0.194	-0.211
-241.932	-9.971	-0.151	0.100
-240.917	334.635	-0.196	0.379
-239.903	43.066	0.205	-0.187
-238.888	-72.654	0.076	0.028
-237.873	4.993	-0.268	-0.197
-236.859	-16.591	0.064	0.040
-235.844	-162.011	-0.288	-0.015
-234.830	152.629	-0.200	-0.274
-233.815	-28.311	-0.192	-0.111
-232.800	33.944	-0.260	-0.227
-231.786	-6.186	-0.244	-0.167
-230.771	-103.873	0.567	-0.132
-229.757	15.676	-0.074	-0.058
-228.742	800.000	0.060	0.171
-227.727	-68.878	-0.270	0.104
-226.713	21.262	0.326	-0.265
-225.698	-200.000	0.024	0.425
-224.684	-200.000	0.005	0.089
-223.669	-100.560	0.140	-0.035
-222.655	230.707	0.105	-0.172
-221.640	91.124	0.171	-0.191
-220.625	-4.282	-0.059	-0.041
-219.611	-7.632	-0.379	-0.256
-218.596	-200.000	0.002	0.110
-217.582	-133.177	0.251	0.032
-216.567	-153.436	0.248	0.017
-215.552	-106.813	0.244	0.054
-214.538	-144.422	-0.262	0.024
-213.523	-109.797	-0.180	0.038
-212.509	112.556	0.158	0.191
-211.494	800.000	-0.071	0.210
-210.479	120.751	0.113	-0.140
-209.465	24.017	-0.128	0.106
-208.450	3.158	0.063	-0.046
-207.436	-140.364	0.468	-0.049
-206.421	-200.000	0.001	0.101
-205.406	-124.991	0.397	0.061
-204.392	800.000	0.039	0.125
-203.377	439.048	-0.154	-0.336
-202.363	-39.870	-0.205	0.107
-201.348	-18.683	0.191	-0.119
-200.333	275.342	0.102	-0.181
-199.319	329.488	0.152	0.292
-198.304	-11.674	0.171	0.112
-197.290	-200.000	0.003	-0.229
-196.275	107.167	-0.293	-0.348
-195.260	-146.544	0.208	-0.018
-194.246	-77.549	0.136	0.047
-193.231	106.203	-0.168	0.199
-192.217	-200.000	0.059	0.391
-191.202	-64.464	-0.120	0.048
-190.187	-10.276	0.218	-0.144
-189.173	-48.599	-0.325	-0.156
-188.158	800.000	0.064	0.196
-187.144	-27.142	0.276	0.160
-186.129	-110.502	-0.303	-0.063
-185.114	-192.087	0.154	0.001
-184.100	375.248	0.103	-0.210
-183.085	-129.085	-0.073	0.010
-182.071	55.186	0.249	0.240
-181.056	603.008	-0.006	0.015
-180.042	-13.599	0.189	0.122
-179.027	-50.941	0.183	0.086
-178.012	-23.514	-0.296	-0.177
-176.998	-128.656	0.274	0.039
-175.983	-45.252	-0.160	0.079
-174.969	-164.752	-0.327	-0.015
-173.954	800.000	-0.048	-0.181
-172.939	-153.318	0.045	0.003
-171.925	-64.811	0.060	0.024
-170.910	95.946	0.179	0.203
-169.896	122.917	-0.249	-0.311
-168.881	-87.009	0.339	-0.103
-167.866	80.555	-0.216	0.232
-166.852	-87.942	0.266	0.080
-165.837	-17.118	-0.232	-0.146
-164.823	-200.000	-0.015	-0.238
-163.808	62.419	0.134	0.133
-162.793	-200.000	0.034	-0.226
-161.779	-57.712	0.195	-0.085
-160.764	-200.000	-0.061	0.302
-159.750	311.690	-0.047	0.087
-158.735	-200.000	0.077	0.418
-157.720	-106.778	-0.190	-0.042
-156.706	190.061	-0.330	0.493
-155.691	292.552	0.121	0.220
-154.677	105.023	-0.303	0.356
-153.662	-7.966	-0.068	-0.046
-152.647	228.391	-0.074	-0.120
-151.633	69.201	0.182	-0.187
-150.618	-200.000	0.069	0.453
-149.604	59.169	0.144	-0.141
-148.589	-77.735	0.329	0.113
-147.574	44.123	-0.179	0.163
-146.560	-137.215	0.178	-0.020
-145.545	210.437	0.063	-0.098
-144.531	-36.499	-0.240	-0.129
-143.516	-200.000	0.069	0.374
-142.502	103.212	0.117	0.137
-141.487	-200.000	-0.049	-0.258
-140.472	-84.171	0.084	-0.026
-139.458	-200.000	0.026	-0.218
-138.443	-65.044	-0.097	-0.039
-137.429	87.420	-0.229	0.252
-136.414	-144.978	-0.467	0.042
-135.399	188.455	0.098	-0.146
-134.385	-91.932	0.145	-0.041
-133.370	-200.000	0.019	-0.083
-132.356	-200.000	-0.031	-0.548
-131.341	442.967	0.031	0.068
-130.326	-46.720	0.187	0.091
-129.312	-64.446	0.137	0.055
-128.297	172.321	-0.179	-0.256
-127.283	-54.090	-0.153	0.069
-126.268	800.000	0.060	0.239
-125.253	-187.995	0.244	-0.003
-124.239	-82.011	-0.279	-0.091
-123.224	29.724	0.281	-0.238
-122.210	-148.469	-0.093	-0.008
-121.195	-97.292	-0.053	-0.014
