DTS Sentinel unit serial number:	SN413079Multiplexer serial number:	ORYXHardware model number:	OX4-SRSoftware version number:	ORYX F/W v4.00 Oryx Data Collector v3.7.2.0data status	okinstallation	princeton_trtdifferential loss correction	single-endedforward channel	channel 2reverse channel	N/Adate	2019/09/16time	16:27:35forward acquisition time	60.00reverse acquisition time	0.00gamma	496.2192k internal	0.2301k external	0.2301temperature offset calibration	0.9944default loss term (dB/km)	0.3790temperature slope calibration	1.0000multiplexer offset coefficient	1.0000multiplexer slope coefficient	1.0000fibre end	0.00T internal ref (°C)	40.28T ext. ref 1 (°C)	15.08T ext. ref 2 (°C)	34.06length (m)	temperature (°C)	Stokes	anti-Stokes-747.200	-13.341	-0.181	-0.120
-746.185	542.549	-0.097	0.236
-745.171	15.266	-0.193	0.154
-744.156	-200.000	0.024	0.230
-743.142	-188.654	-0.388	0.005
-742.127	-86.303	-0.407	0.128
-741.112	131.027	-0.105	0.138
-740.098	-200.000	0.003	0.178
-739.083	223.876	-0.090	0.149
-738.069	800.000	-0.075	0.287
-737.054	101.616	-0.178	0.211
-736.039	-200.000	-0.041	0.255
-735.025	161.007	-0.106	-0.150
-734.010	-73.335	-0.158	-0.059
-732.996	67.608	0.343	0.357
-731.981	-100.166	0.206	-0.052
-730.966	122.950	0.124	-0.158
-729.952	373.681	-0.031	0.065
-728.937	-141.775	-0.113	0.012
-727.923	-81.969	-0.175	0.058
-726.908	-200.000	0.024	-0.141
-725.894	-81.455	0.200	0.067
-724.879	-119.585	-0.114	0.020
-723.864	800.000	0.119	0.388
-722.850	101.533	0.087	-0.103
-721.835	28.499	0.264	0.227
-720.821	-75.927	0.583	0.210
-719.806	-200.000	-0.040	-0.347
-718.791	635.096	-0.101	-0.262
-717.777	-200.000	0.034	0.181
-716.762	-146.571	0.194	0.017
-715.748	-58.353	-0.159	0.070
-714.733	-62.715	-0.149	-0.063
-713.718	314.798	-0.300	-0.576
-712.704	-200.000	-0.007	-0.141
-711.689	94.695	-0.308	-0.356
-710.675	51.681	-0.166	-0.160
-709.660	337.788	-0.139	0.275
-708.645	-55.914	-0.179	-0.081
-707.631	-9.661	0.091	0.062
-706.616	-127.756	-0.582	0.086
-705.602	-87.756	0.275	0.084
-704.587	-69.449	-0.263	0.103
-703.572	800.000	-0.073	0.320
-702.558	348.765	-0.032	0.063
-701.543	800.000	0.016	0.062
-700.529	-30.391	0.110	-0.064
-699.514	-148.944	-0.327	0.027
-698.499	34.297	0.261	-0.232
-697.485	-200.000	0.019	-0.207
-696.470	254.391	-0.218	-0.379
-695.456	-78.625	0.120	0.042
-694.441	-157.097	-0.187	-0.012
-693.426	-47.556	-0.212	-0.105
-692.412	-200.000	0.034	0.217
-691.397	-200.000	-0.001	-0.112
-690.383	-5.362	-0.232	-0.162
-689.368	-200.000	0.062	-0.323
-688.354	-200.000	-0.043	-0.492
-687.339	-24.575	0.214	0.129
-686.324	-144.911	-0.433	-0.040
-685.310	72.951	-0.109	0.116
-684.295	15.145	-0.163	-0.130
-683.281	20.025	-0.240	0.197
-682.266	152.179	0.143	-0.198
-681.251	-6.388	-0.087	0.061
-680.237	551.190	-0.040	-0.099
-679.222	182.037	0.043	0.064
-678.208	-200.000	0.016	0.364
-677.193	434.987	0.112	-0.247
-676.178	133.985	0.175	-0.231
-675.164	8.250	-0.384	-0.293
-674.149	-67.159	0.232	0.093
-673.135	159.602	-0.239	-0.338
-672.120	116.403	0.083	-0.104
-671.105	-108.109	0.142	-0.031
-670.091	-200.000	0.032	0.338
-669.076	-77.442	-0.121	-0.043
-668.062	82.924	-0.097	-0.107
-667.047	800.000	0.134	-0.575
-666.032	-46.246	-0.253	-0.127
-665.018	-105.561	0.127	0.029
-664.003	696.038	-0.054	-0.143
-662.989	18.380	0.073	-0.059
-661.974	220.139	0.081	0.132
-660.959	69.579	-0.229	-0.240
-659.945	-127.241	0.183	0.027
-658.930	-129.926	0.125	-0.017
-657.916	79.983	-0.253	0.277
-656.901	-96.671	-0.198	0.053
-655.886	119.929	-0.343	0.432
-654.872	117.307	0.273	-0.341
-653.857	-200.000	-0.010	-0.095
-652.843	369.487	-0.130	0.267
-651.828	-157.342	0.325	-0.020
-650.814	-58.851	-0.290	0.127
-649.799	-73.488	-0.114	-0.042
-648.784	-187.855	0.140	-0.002
-647.770	26.996	-0.278	-0.237
-646.755	800.000	-0.133	0.413
-645.741	-20.276	-0.363	0.227
-644.726	172.114	-0.114	0.167
-643.711	-155.773	0.083	-0.005
-642.697	800.000	-0.078	0.294
-641.682	-184.573	-0.234	0.004
-640.668	13.194	0.422	0.332
-639.653	240.202	0.125	-0.211
-638.638	447.595	-0.010	-0.023
-637.624	-53.485	-0.122	0.057
-636.609	-181.293	-0.433	-0.009
-635.595	-129.182	-0.255	-0.036
-634.580	-134.375	-0.457	-0.057
-633.565	-200.000	-0.003	-0.082
-632.551	-106.250	-0.282	0.064
-631.536	-200.000	0.093	0.000
-630.522	-115.291	0.211	-0.040
-629.507	5.185	0.182	-0.136
-628.492	664.730	-0.032	0.083
-627.478	100.127	-0.242	0.285
-626.463	-155.425	0.144	-0.009
-625.449	800.000	0.052	-0.191
-624.434	-52.333	-0.169	0.080
-623.419	-98.555	-0.309	0.080
-622.405	-200.000	0.020	0.148
-621.390	14.115	-0.285	0.225
-620.376	-13.300	-0.204	0.134
-619.361	800.000	0.097	-0.302
-618.346	-200.000	0.018	0.213
-617.332	173.830	-0.171	-0.250
-616.317	-33.069	0.301	0.169
-615.303	519.972	0.151	-0.359
-614.288	122.678	0.220	0.279
-613.273	-141.252	-0.143	-0.015
-612.259	133.600	0.159	0.208
-611.244	107.948	-0.176	0.213
-610.230	-104.451	0.093	-0.022
-609.215	221.606	-0.051	-0.084
-608.201	32.659	-0.063	-0.055
-607.186	29.021	0.237	0.204
-606.171	-42.641	-0.076	0.039
-605.157	-82.308	0.377	-0.124
-604.142	-42.457	0.090	-0.046
-603.128	20.494	-0.206	-0.169
-602.113	7.533	0.133	-0.101
-601.098	-158.437	0.357	-0.021
-600.084	511.141	-0.008	-0.020
-599.069	-154.762	-0.053	0.004
-598.055	-51.860	-0.127	0.060
-597.040	-109.627	-0.145	0.031
-596.025	-37.229	-0.181	0.098
-595.011	6.011	-0.293	-0.220
-593.996	-18.937	-0.177	-0.111
-592.982	286.841	-0.139	-0.254
-591.967	-28.774	-0.366	0.213
-590.952	-74.044	-0.109	-0.040
-589.938	-33.859	0.448	-0.250
-588.923	-9.837	-0.283	0.191
-587.909	59.377	0.175	-0.174
-586.894	-200.000	-0.133	-0.000
-585.879	-63.928	-0.330	0.137
-584.865	105.484	0.079	0.095
-583.850	-200.000	-0.030	-0.219
-582.836	-150.170	-0.282	0.022
-581.821	580.890	0.108	0.267
-580.806	-63.957	0.250	0.103
-579.792	5.414	-0.306	-0.229
-578.777	171.746	-0.109	0.158
-577.763	126.941	0.159	0.204
-576.748	422.560	-0.113	0.245
-575.733	61.585	-0.152	-0.153
-574.719	7.051	0.089	-0.067
-573.704	227.941	-0.060	0.099
-572.690	800.000	0.059	-0.210
-571.675	-164.250	0.139	-0.006
-570.661	-49.066	0.211	0.102
-569.646	403.471	0.050	-0.106
-568.631	-123.874	-0.124	0.020
-567.617	-27.801	-0.452	-0.265
-566.602	152.863	-0.022	0.030
-565.588	237.696	-0.183	-0.307
-564.573	24.344	-0.416	-0.348
-563.558	-25.914	0.148	0.088
-562.544	-132.523	-0.432	-0.056
-561.529	-84.224	-0.324	-0.104
-560.515	-1.739	0.176	0.125
-559.500	-50.749	0.105	-0.050
-558.485	111.310	0.359	0.438
-557.471	376.933	0.079	0.163
-556.456	41.782	0.166	-0.152
-555.442	646.727	-0.094	-0.243
-554.427	-103.356	0.460	-0.110
-553.412	-200.000	-0.008	0.178
-552.398	-25.512	0.175	0.105
-551.383	-86.078	0.343	0.107
-550.369	263.996	0.121	-0.212
-549.354	-96.297	-0.189	0.051
-548.339	-200.000	-0.033	0.235
-547.325	-108.473	0.182	0.040
-546.310	-200.000	-0.012	-0.186
-545.296	-79.109	-0.081	-0.028
-544.281	243.152	-0.034	0.058
-543.266	-19.492	0.217	0.136
-542.252	422.266	0.094	0.203
-541.237	11.998	0.047	0.036
-540.223	92.710	-0.011	0.012
-539.208	101.220	-0.240	-0.282
-538.193	20.392	0.369	0.301
-537.179	-9.705	0.053	-0.036
-536.164	800.000	0.073	0.252
-535.150	129.911	0.040	0.052
-534.135	800.000	-0.045	0.157
-533.121	-84.480	-0.342	0.109
-532.106	-8.368	-0.176	-0.120
-531.091	89.025	-0.069	0.077
-530.077	-200.000	-0.002	-0.311
-529.062	-200.000	-0.018	-0.248
-528.048	26.799	-0.302	0.255
-527.033	302.809	0.042	0.079
-526.018	-54.929	-0.134	0.061
-525.004	-200.000	-0.003	-0.065
-523.989	465.662	0.115	-0.260
-522.975	-200.000	0.010	0.212
-521.960	-129.428	-0.299	-0.042
-520.945	13.857	0.112	0.088
-519.931	14.978	0.143	0.113
-518.916	-49.167	0.063	0.031
-517.902	-142.000	-0.165	0.017
-516.887	-178.253	-0.235	-0.006
-515.872	564.148	-0.129	0.316
-514.858	192.009	-0.159	0.243
-513.843	-200.000	-0.047	-0.246
-512.829	48.819	0.114	-0.108
-511.814	783.373	0.039	0.107
-510.799	99.999	-0.303	-0.355
-509.785	-14.811	-0.020	-0.013
-508.770	-89.730	-0.136	-0.040
-507.756	-200.000	0.002	0.314
-506.741	133.115	0.051	-0.066
-505.726	-107.692	0.153	0.034
-504.712	-200.000	-0.008	0.144
-503.697	-49.896	-0.251	0.120
-502.683	-135.588	0.107	-0.013
-501.668	80.838	-0.138	-0.150
-500.653	800.000	-0.060	0.203
-499.639	-200.000	-0.023	0.179
-498.624	459.119	-0.059	-0.133
-497.610	-50.155	0.301	-0.144
-496.595	83.056	0.326	0.358
-495.581	-200.000	-0.060	0.279
-494.566	66.937	0.153	-0.157
-493.551	-200.000	0.020	0.103
-492.537	731.274	-0.043	0.116
-491.522	-117.290	0.322	0.059
-490.508	-118.950	0.083	0.015
-489.493	-200.000	0.041	0.329
-488.478	-55.354	-0.229	-0.104
-487.464	-121.863	-0.428	-0.071
-486.449	368.239	0.158	-0.323
-485.435	-200.000	0.209	0.000
-484.420	97.449	-0.140	-0.162
-483.405	-131.195	-0.098	-0.013
-482.391	-147.540	-0.261	-0.022
-481.376	800.000	-0.072	-0.206
-480.362	167.971	-0.068	0.097
-479.347	-64.859	-0.075	-0.031
-478.332	162.590	0.122	0.172
-477.318	766.931	-0.113	-0.310
-476.303	126.728	0.227	0.290
-475.289	164.235	0.062	0.088
-474.274	161.782	0.071	0.101
-473.259	-140.209	0.257	0.027
-472.245	50.736	-0.142	-0.136
-471.230	258.563	0.078	0.135
-470.216	-102.211	-0.013	-0.003
-469.201	-148.097	0.124	0.010
-468.186	-200.000	0.001	-0.292
-467.172	150.723	0.139	-0.191
-466.157	-97.003	0.220	0.058
-465.143	800.000	0.031	0.101
-464.128	-122.170	-0.143	-0.024
-463.113	-6.497	0.105	0.072
-462.099	-151.438	0.395	-0.030
-461.084	-200.000	-0.015	0.262
-460.070	-67.617	-0.101	-0.040
-459.055	43.283	-0.175	-0.161
-458.040	-152.121	-0.190	0.014
-457.026	49.127	-0.288	-0.273
-456.011	-200.000	0.012	0.283
-454.997	5.004	-0.073	-0.054
-453.982	266.264	0.117	0.205
-452.968	-47.922	0.169	0.083
-451.953	-114.094	-0.409	-0.080
-450.938	128.048	-0.287	-0.368
-449.924	298.504	0.117	-0.217
-448.909	-92.558	-0.318	-0.090
-447.895	371.755	0.070	-0.144
-446.880	4.727	0.211	0.157
-445.865	-113.198	0.206	0.041
-444.851	-88.630	-0.267	0.080
-443.836	32.375	-0.059	0.052
-442.822	263.054	-0.191	-0.334
-441.807	800.000	-0.029	-0.105
-440.792	407.292	-0.045	0.095
-439.778	190.845	-0.251	0.380
-438.763	81.228	0.151	-0.164
-437.749	101.721	0.077	0.091
-436.734	-161.824	0.390	-0.020
-435.719	320.822	-0.158	-0.303
-434.705	105.503	-0.122	-0.146
-433.690	244.610	0.068	-0.115
-432.676	-18.114	-0.076	0.048
-431.661	520.652	0.092	0.217
-430.646	800.000	0.053	0.231
-429.632	-21.522	-0.117	-0.072
-428.617	103.571	-0.094	0.111
-427.603	-83.547	0.225	-0.073
-426.588	100.256	0.081	0.094
-425.573	-77.541	0.215	0.075
-424.559	-200.000	-0.008	-0.110
-423.544	800.000	-0.084	0.260
-422.530	800.000	0.039	-0.127
-421.515	-100.120	-0.193	-0.048
-420.500	-200.000	0.001	0.291
-419.486	-85.284	0.073	0.023
-418.471	-200.000	-0.007	-0.055
-417.457	43.708	-0.153	-0.141
-416.442	-111.024	0.079	0.016
-415.428	108.410	0.164	-0.197
-414.413	83.117	-0.160	-0.175
-413.398	94.893	-0.010	0.012
-412.384	800.000	-0.067	-0.213
-411.369	-127.880	-0.108	0.016
-410.355	21.892	-0.175	-0.143
-409.340	-200.000	0.013	0.111
-408.325	11.259	-0.148	-0.114
-407.311	-200.000	-0.021	0.139
-406.296	-69.063	0.215	-0.083
-405.282	-24.047	0.112	-0.067
-404.267	-200.000	0.015	0.174
-403.252	-200.000	0.009	0.044
-402.238	136.534	-0.098	-0.128
-401.223	-42.528	0.098	-0.050
-400.209	118.667	-0.101	0.125
-399.194	120.870	0.033	-0.041
-398.179	133.199	-0.127	0.165
-397.165	135.889	-0.226	0.296
-396.150	89.555	0.145	0.163
-395.136	-158.577	0.137	0.008
-394.121	-200.000	0.010	-0.338
-393.106	78.124	0.206	-0.221
-392.092	182.232	-0.087	-0.129
-391.077	140.943	0.087	-0.116
-390.063	-178.465	-0.103	-0.002
-389.048	-47.159	0.246	0.120
-388.033	-81.334	0.054	0.018
-387.019	502.399	-0.119	-0.277
-386.004	140.263	-0.005	0.007
-384.990	241.267	0.042	-0.071
-383.975	146.701	0.126	-0.171
-382.960	-200.000	0.016	-0.283
-381.946	189.283	-0.181	-0.273
-380.931	-200.000	0.003	-0.128
-379.917	152.998	-0.081	-0.112
-378.902	-200.000	-0.021	-0.198
-377.888	278.255	-0.080	0.144
-376.873	100.399	0.014	-0.017
-375.858	-0.627	0.297	0.211
-374.844	625.398	-0.073	0.186
-373.829	332.623	-0.063	0.123
-372.815	-200.000	-0.009	0.055
-371.800	302.247	-0.091	0.168
-370.785	800.000	-0.130	-0.459
-369.771	-54.492	0.305	0.139
-368.756	-115.691	-0.473	-0.089
-367.742	-146.538	-0.199	0.017
-366.727	117.059	0.123	0.152
-365.712	-140.027	0.047	-0.005
-364.698	-1.335	0.148	-0.105
-363.683	-39.057	-0.034	0.018
-362.669	-45.612	0.415	0.206
-361.654	-27.512	0.272	-0.159
-360.639	296.924	-0.131	0.241
-359.625	-200.000	-0.019	0.284
-358.610	14.407	-0.213	0.167
-357.596	291.388	-0.016	0.029
-356.581	-63.500	0.226	0.093
-355.566	800.000	0.062	0.271
-354.552	800.000	0.058	0.212
-353.537	-65.406	0.294	0.119
-352.523	6.978	0.110	0.083
-351.508	800.000	0.055	0.169
-350.493	-44.577	-0.227	-0.114
-349.479	-25.244	-0.159	0.095
-348.464	800.000	-0.086	-0.247
-347.450	306.049	0.087	-0.162
-346.435	-200.000	-0.006	0.034
-345.420	-72.213	0.084	0.031
-344.406	257.821	-0.242	-0.417
-343.391	230.121	0.092	-0.152
-342.377	-73.337	0.071	-0.026
-341.362	-37.493	0.168	-0.090
-340.348	800.000	-0.023	0.078
-339.333	134.052	-0.109	0.142
-338.318	-200.000	-0.020	-0.180
-337.304	55.265	0.093	0.090
-336.289	800.000	0.094	-0.349
-335.275	-50.922	0.125	-0.059
-334.260	122.694	0.172	0.216
-333.245	-200.000	0.079	0.373
-332.231	571.621	0.181	0.442
-331.216	50.523	-0.175	-0.166
-330.202	-36.681	-0.073	0.039
-329.187	-129.452	0.029	-0.004
-328.172	-82.468	-0.504	-0.164
-327.158	64.329	0.305	-0.309
-326.143	356.911	0.068	0.135
-325.129	176.013	0.148	-0.215
-324.114	800.000	0.111	0.327
-323.099	-35.057	0.014	-0.008
-322.085	306.157	-0.059	-0.111
-321.070	44.917	-0.278	0.256
-320.056	-36.174	0.282	-0.152
-319.041	-29.218	0.122	0.070
-318.026	-77.580	0.317	-0.110
-317.012	-52.559	0.260	0.121
-315.997	800.000	-0.068	-0.208
-314.983	-40.821	0.156	-0.081
-313.968	-75.449	-0.433	0.155
-312.953	800.000	0.059	-0.238
-311.939	346.649	-0.105	-0.208
-310.924	20.313	0.114	-0.092
-309.910	-200.000	-0.006	0.225
-308.895	-131.544	0.261	0.034
-307.880	-200.000	-0.015	-0.143
-306.866	-200.000	-0.015	-0.086
-305.851	-118.174	-0.246	-0.044
-304.837	19.493	0.112	0.090
-303.822	-110.510	0.200	-0.042
-302.807	-200.000	0.007	0.053
-301.793	800.000	0.074	-0.283
-300.778	-200.000	-0.029	-0.156
-299.764	-65.353	0.160	-0.065
-298.749	160.909	-0.148	0.207
-297.735	494.956	0.072	0.166
-296.720	16.814	-0.146	0.116
-295.705	64.962	0.129	0.131
-294.691	-56.332	0.469	-0.209
-293.676	-200.000	0.039	-0.240
-292.662	15.812	-0.321	-0.253
-291.647	-200.000	0.017	-0.130
-290.632	8.838	-0.232	0.175
-289.618	249.073	0.211	0.358
-288.603	346.315	-0.024	-0.047
-287.589	-0.009	0.103	-0.073
-286.574	-200.000	0.035	0.223
-285.559	-16.260	0.077	0.049
-284.545	177.281	-0.071	-0.104
-283.530	-63.397	0.171	-0.071
-282.516	800.000	-0.033	-0.139
-281.501	-48.259	0.346	-0.167
-280.486	800.000	0.018	-0.070
-279.472	-200.000	-0.008	0.211
-278.457	-200.000	0.011	0.062
-277.443	246.689	0.258	-0.436
-276.428	-106.177	-0.141	0.032
-275.413	69.187	-0.248	-0.255
-274.399	42.505	0.179	0.163
-273.384	244.200	-0.124	0.208
-272.370	472.717	-0.035	0.080
-271.355	800.000	-0.052	0.183
-270.340	47.088	-0.143	-0.133
-269.326	-110.872	-0.281	0.058
-268.311	96.224	-0.159	-0.182
-267.297	134.734	-0.178	-0.231
-266.282	800.000	-0.056	-0.190
-265.267	192.434	-0.061	-0.091
-264.253	-86.706	-0.082	-0.025
-263.238	-70.666	-0.290	0.110
-262.224	-75.880	-0.233	0.083
-261.209	-39.744	0.260	-0.136
-260.195	-200.000	0.007	0.484
-259.180	163.188	-0.124	0.174
-258.165	81.763	-0.114	-0.124
-257.151	-200.000	0.055	-0.252
-256.136	-200.000	-0.020	0.098
-255.122	-64.274	0.145	0.059
-254.107	556.104	-0.133	0.320
-253.092	-187.838	-0.404	-0.005
-252.078	800.000	0.058	-0.162
-251.063	214.657	0.275	-0.436
-250.049	-81.516	0.222	-0.073
-249.034	-200.000	-0.015	0.207
-248.019	64.410	-0.115	-0.115
-247.005	-200.000	-0.015	-0.135
-245.990	-87.242	-0.289	0.088
-244.976	-125.832	-0.164	0.025
-243.961	238.051	-0.083	-0.137
-242.946	-200.000	0.010	0.158
-241.932	-151.440	0.280	0.021
-240.917	-55.001	0.071	-0.032
-239.903	184.422	-0.119	0.177
-238.888	115.013	0.109	0.133
-237.873	-67.025	0.221	0.087
-236.859	-102.481	-0.426	0.102
-235.844	5.725	0.187	-0.138
-234.830	-77.947	-0.179	-0.062
-233.815	122.366	-0.117	-0.147
-232.800	99.224	-0.070	0.081
-231.786	800.000	0.097	0.362
-230.771	-96.353	0.156	0.041
-229.757	-125.811	0.171	-0.026
-228.742	800.000	-0.069	-0.295
-227.727	-18.992	0.206	0.128
-226.713	-200.000	-0.025	0.435
-225.698	-200.000	0.009	0.149
-224.684	-87.768	0.252	-0.076
-223.669	-200.000	-0.044	0.208
-222.655	353.105	0.116	0.230
-221.640	-200.000	0.023	-0.116
-220.625	-103.528	0.367	-0.086
-219.611	48.481	-0.304	0.284
-218.596	-129.925	0.152	0.021
-217.582	450.022	0.137	0.303
-216.567	-64.974	0.174	-0.070
-215.552	250.759	-0.037	-0.063
-214.538	-83.648	-0.332	-0.106
-213.523	800.000	0.042	0.146
-212.509	800.000	0.133	-0.398
-211.494	-12.775	0.124	0.081
-210.479	195.808	-0.243	0.368
-209.465	-200.000	-0.018	-0.138
-208.450	425.676	0.135	0.290
-207.436	178.056	0.042	0.061
-206.421	347.255	0.045	-0.088
-205.406	-121.437	0.156	0.026
-204.392	-79.603	0.258	0.087
-203.377	800.000	-0.069	-0.226
-202.363	-147.435	0.059	-0.005
-201.348	-62.988	0.282	-0.116
-200.333	76.376	-0.264	-0.279
-199.319	19.452	0.157	0.126
-198.304	-134.380	-0.103	0.013
-197.290	800.000	0.097	-0.291
-196.275	-50.907	0.151	-0.071
-195.260	-200.000	-0.020	-0.197
-194.246	129.697	0.251	-0.320
-193.231	-200.000	-0.013	-0.093
-192.217	-200.000	0.040	-0.187
-191.202	-200.000	0.033	-0.297
-190.187	-20.973	0.247	-0.151
-189.173	63.444	0.071	0.071
-188.158	143.172	0.033	0.044
-187.144	800.000	-0.107	-0.376
-186.129	800.000	0.082	-0.331
-185.114	57.504	-0.142	-0.138
-184.100	101.889	-0.182	-0.212
-183.085	38.359	0.090	-0.080
-182.071	215.627	0.158	0.250
-181.056	-119.390	0.106	-0.018
-180.042	-2.100	0.190	0.133
-179.027	-38.144	0.195	-0.103
-178.012	-73.071	-0.285	0.104
-176.998	-200.000	-0.017	0.267
-175.983	96.575	0.075	0.085
-174.969	-52.196	-0.137	-0.063
-173.954	189.821	0.107	0.160
-172.939	8.785	0.059	-0.044
-171.925	-78.534	0.064	0.022
-170.910	596.407	0.039	0.097
-169.896	-79.042	-0.321	-0.109
-168.881	-44.593	0.202	-0.101
-167.866	356.456	0.087	0.173
-166.852	-89.167	0.206	0.061
-165.837	-200.000	-0.031	-0.221
-164.823	689.032	-0.065	0.169
-163.808	-65.977	0.205	-0.082
-162.793	234.158	-0.052	-0.086
-161.779	-105.551	0.106	0.024
-160.764	8.454	0.147	-0.110
-159.750	718.668	-0.084	0.223
-158.735	-200.000	-0.013	0.246
-157.720	-108.372	0.144	0.031
-156.706	432.171	-0.107	-0.231
-155.691	13.340	-0.227	0.175
-154.677	800.000	0.066	-0.199
-153.662	-71.782	-0.137	-0.051
-152.647	-110.011	0.390	0.081
-151.633	-98.101	0.231	-0.059
-150.618	-144.024	0.070	0.007
-149.604	-41.254	-0.304	0.156
-148.589	43.540	-0.069	0.063
-147.574	-94.587	0.142	-0.039
-146.560	314.884	-0.165	-0.309
-145.545	1.852	-0.152	-0.109
-144.531	5.589	-0.273	0.201
-143.516	-126.520	0.306	0.045
-142.502	290.501	0.062	0.113
-141.487	-15.342	-0.192	-0.122
-140.472	-200.000	-0.000	0.118
-139.458	67.773	0.042	-0.043
-138.443	607.362	-0.136	0.337
-137.429	-54.509	0.289	-0.130
-136.414	-200.000	-0.009	-0.115
-135.399	78.495	0.149	-0.159
-134.385	41.668	0.179	-0.161
-133.370	-169.970	-0.466	-0.017
-132.356	154.259	0.062	0.084
-131.341	-150.295	0.243	-0.019
-130.326	-183.882	0.134	-0.002
-129.312	143.049	-0.193	0.255
-128.297	10.864	0.140	-0.106
-127.283	-57.812	-0.098	0.043
-126.268	-56.784	0.244	-0.107
-125.253	-200.000	-0.016	0.134
-124.239	800.000	-0.082	0.287
-123.224	-81.502	0.229	0.075
-122.210	-44.380	-0.164	0.082
-121.195	-200.000	-0.031	0.294
