DTS Sentinel unit serial number:	SN413079Multiplexer serial number:	ORYXHardware model number:	OX4-SRSoftware version number:	ORYX F/W v4.00 Oryx Data Collector v3.7.2.0data status	okinstallation	princeton_trtdifferential loss correction	single-endedforward channel	channel 2reverse channel	N/Adate	2019/09/17time	07:23:34forward acquisition time	60.00reverse acquisition time	0.00gamma	496.2192k internal	0.2334k external	0.2334temperature offset calibration	0.9975default loss term (dB/km)	0.3790temperature slope calibration	1.0000multiplexer offset coefficient	1.0000multiplexer slope coefficient	1.0000fibre end	0.00T internal ref (°C)	27.20T ext. ref 1 (°C)	0.12T ext. ref 2 (°C)	21.48length (m)	temperature (°C)	Stokes	anti-Stokes-747.200	-152.364	0.194	-0.014
-746.185	-200.000	0.041	0.189
-745.171	434.728	0.148	0.324
-744.156	-74.259	-0.405	-0.147
-743.142	139.126	0.014	-0.018
-742.127	-200.000	0.006	0.070
-741.112	800.000	-0.105	0.431
-740.098	567.580	-0.057	0.140
-739.083	-200.000	0.025	0.140
-738.069	74.170	-0.111	-0.117
-737.054	780.437	0.077	-0.211
-736.039	-128.068	-0.236	0.034
-735.025	-83.226	-0.163	0.053
-734.010	-117.938	-0.208	-0.037
-732.996	112.644	-0.232	0.283
-731.981	-137.557	-0.335	0.038
-730.966	800.000	0.057	-0.220
-729.952	-163.851	-0.364	0.017
-728.937	-70.985	-0.328	-0.124
-727.923	-75.665	-0.103	-0.037
-726.908	118.996	0.036	0.045
-725.894	-58.035	-0.022	0.010
-724.879	-56.022	-0.166	0.074
-723.864	115.804	-0.149	0.184
-722.850	-200.000	0.028	-0.258
-721.835	546.527	-0.162	-0.389
-720.821	-96.898	-0.197	0.052
-719.806	72.118	-0.054	0.056
-718.791	-200.000	0.013	0.252
-717.777	800.000	-0.015	-0.054
-716.762	134.273	-0.097	0.127
-715.748	800.000	-0.046	-0.178
-714.733	23.082	0.242	0.199
-713.718	79.649	0.133	-0.143
-712.704	57.818	-0.163	-0.160
-711.689	-48.947	-0.118	0.057
-710.675	59.230	-0.129	0.127
-709.660	-99.564	-0.043	-0.011
-708.645	394.868	-0.032	-0.067
-707.631	-189.574	0.539	0.006
-706.616	34.026	-0.194	-0.170
-705.602	304.431	0.213	-0.397
-704.587	-95.277	-0.351	-0.095
-703.572	-30.059	0.043	0.024
-702.558	-15.391	-0.138	-0.088
-701.543	141.650	0.126	0.168
-700.529	651.197	-0.067	0.173
-699.514	156.014	-0.145	0.200
-698.499	26.066	0.149	0.125
-697.485	591.934	0.081	0.201
-696.470	39.413	-0.198	0.178
-695.456	-200.000	-0.048	-0.221
-694.441	-88.609	-0.076	-0.023
-693.426	241.251	-0.175	-0.293
-692.412	-200.000	0.032	0.282
-691.397	-86.535	-0.259	0.080
-690.383	74.219	-0.078	0.082
-689.368	-200.000	-0.080	-0.562
-688.354	227.074	-0.178	0.289
-687.339	321.232	-0.103	-0.196
-686.324	298.198	-0.171	-0.315
-685.310	-200.000	-0.053	-0.253
-684.295	-200.000	-0.054	0.246
-683.281	-22.820	0.239	-0.145
-682.266	-107.613	-0.219	0.048
-681.251	800.000	0.106	-0.345
-680.237	117.680	-0.152	-0.187
-679.222	170.504	-0.176	-0.253
-678.208	25.962	-0.150	0.126
-677.193	-200.000	-0.005	0.053
-676.178	236.020	0.096	-0.160
-675.164	191.984	0.077	-0.117
-674.149	-42.027	0.219	-0.113
-673.135	800.000	-0.113	-0.341
-672.120	52.220	-0.102	-0.098
-671.105	9.046	0.237	0.179
-670.091	507.211	0.120	-0.279
-669.076	181.380	-0.062	0.091
-668.062	-151.885	-0.310	0.023
-667.047	499.170	-0.171	-0.394
-666.032	-116.793	0.173	-0.032
-665.018	-104.890	0.311	-0.072
-664.003	-111.253	0.074	-0.015
-662.989	800.000	0.115	0.347
-661.974	-200.000	-0.102	-0.455
-660.959	316.749	0.113	0.213
-659.945	175.578	-0.134	-0.195
-658.930	127.748	-0.120	-0.153
-657.916	-99.142	0.089	-0.023
-656.901	800.000	-0.085	-0.331
-655.886	276.957	0.102	0.182
-654.872	242.002	0.108	-0.181
-653.857	325.577	0.124	-0.238
-652.843	13.050	0.121	0.094
-651.828	-200.000	-0.005	0.036
-650.814	143.955	-0.112	-0.149
-649.799	-161.602	-0.235	0.012
-648.784	-180.727	-0.277	0.006
-647.770	-70.421	-0.367	-0.139
-646.755	137.035	0.199	-0.261
-645.741	-140.712	-0.207	-0.021
-644.726	-0.373	0.123	-0.087
-643.711	-116.034	-0.182	0.034
-642.697	25.731	0.026	-0.022
-641.682	-52.716	0.150	0.069
-640.668	-103.112	-0.219	0.052
-639.653	383.144	-0.135	-0.278
-638.638	85.916	-0.173	-0.191
-637.624	88.993	-0.143	0.159
-636.609	-82.702	0.498	0.161
-635.595	18.282	-0.197	-0.158
-634.580	78.681	-0.218	-0.233
-633.565	-36.761	0.198	0.106
-632.551	-152.112	0.287	-0.021
-631.536	111.210	0.129	-0.156
-630.522	800.000	0.026	-0.101
-629.507	-200.000	-0.031	0.208
-628.492	39.664	0.152	-0.137
-627.478	-95.181	-0.123	0.033
-626.463	216.943	0.062	0.099
-625.449	-140.911	-0.115	-0.012
-624.434	-105.082	0.134	0.031
-623.419	800.000	-0.022	0.094
-622.405	-64.521	-0.054	0.022
-621.390	18.902	-0.058	0.047
-620.376	-200.000	0.022	0.168
-619.361	223.352	-0.074	-0.119
-618.346	114.928	0.058	0.071
-617.332	800.000	0.037	-0.144
-616.317	364.310	0.070	0.141
-615.303	302.677	-0.199	-0.368
-614.288	8.523	0.214	0.161
-613.273	-69.444	0.095	0.036
-612.259	282.576	-0.067	0.120
-611.244	-64.357	0.149	-0.061
-610.230	647.746	-0.076	0.195
-609.215	246.159	-0.104	-0.175
-608.201	-150.946	-0.036	0.003
-607.186	18.759	-0.113	-0.091
-606.171	-60.376	-0.318	-0.135
-605.157	800.000	0.062	0.178
-604.142	25.483	0.278	0.231
-603.128	800.000	0.056	-0.240
-602.113	800.000	-0.037	-0.110
-601.098	800.000	0.071	-0.207
-600.084	-76.891	-0.184	-0.064
-599.069	-200.000	-0.028	-0.123
-598.055	22.910	-0.112	-0.092
-597.040	-124.761	-0.354	0.055
-596.025	-79.146	0.228	-0.077
-595.011	373.168	-0.079	-0.161
-593.996	250.650	-0.178	-0.302
-592.982	-200.000	-0.014	0.104
-591.967	-200.000	0.035	0.207
-590.952	325.958	0.160	-0.305
-589.938	-200.000	0.023	-0.232
-588.923	274.137	0.072	-0.127
-587.909	-43.394	0.258	0.130
-586.894	30.174	0.297	0.253
-585.879	30.314	-0.127	0.108
-584.865	28.370	0.161	0.136
-583.850	294.730	-0.088	-0.160
-582.836	125.707	-0.070	0.088
-581.821	800.000	0.109	0.350
-580.806	800.000	-0.078	-0.222
-579.792	74.503	-0.131	-0.137
-578.777	-200.000	0.021	0.115
-577.763	-76.825	-0.255	0.089
-576.748	269.178	-0.113	-0.198
-575.733	32.962	-0.095	0.082
-574.719	187.418	0.116	0.173
-573.704	-63.224	-0.071	-0.029
-572.690	23.630	0.225	0.185
-571.675	170.300	-0.154	0.220
-570.661	-76.839	-0.268	0.094
-569.646	86.605	-0.087	0.096
-568.631	628.975	-0.053	-0.133
-567.617	104.448	0.130	0.153
-566.602	442.278	-0.018	-0.038
-565.588	-135.946	0.255	-0.030
-564.573	-25.952	-0.238	-0.140
-563.558	140.941	0.041	0.054
-562.544	-38.701	-0.067	-0.035
-561.529	4.486	0.158	-0.116
-560.515	-163.182	-0.081	0.004
-559.500	-167.026	-0.167	-0.007
-558.485	60.989	-0.222	-0.220
-557.471	361.953	0.062	0.124
-556.456	-130.921	0.165	0.022
-555.442	-75.236	-0.418	-0.149
-554.427	458.849	0.067	-0.149
-553.412	-200.000	0.008	-0.157
-552.398	606.296	0.122	-0.304
-551.383	42.566	-0.075	0.068
-550.369	-34.463	0.471	-0.257
-549.354	800.000	-0.083	0.237
-548.339	-53.271	0.177	-0.081
-547.325	68.983	-0.170	0.175
-546.310	-76.016	-0.022	0.008
-545.296	223.575	-0.161	0.259
-544.281	-106.982	0.215	-0.047
-543.266	-200.000	-0.028	-0.152
-542.252	800.000	-0.075	0.253
-541.237	-200.000	0.010	0.278
-540.223	410.936	-0.086	-0.182
-539.208	229.121	0.142	-0.231
-538.193	180.589	0.068	-0.099
-537.179	338.624	-0.069	0.133
-536.164	722.351	-0.037	-0.098
-535.150	-49.535	-0.154	-0.073
-534.135	-200.000	0.051	0.298
-533.121	-104.111	-0.190	-0.044
-532.106	-88.600	0.184	0.055
-531.091	415.442	0.131	0.277
-530.077	4.438	0.448	0.328
-529.062	418.041	-0.156	0.332
-528.048	800.000	0.116	-0.337
-527.033	-108.012	-0.320	0.069
-526.018	-200.000	-0.006	0.081
-525.004	800.000	-0.088	-0.285
-523.989	-31.001	0.216	0.121
-522.975	-200.000	0.015	0.120
-521.960	-88.200	-0.140	-0.042
-520.945	112.691	-0.168	-0.203
-519.931	79.873	0.155	0.166
-518.916	49.436	0.316	0.296
-517.902	-69.574	-0.369	0.141
-516.887	-200.000	0.017	0.260
-515.872	142.348	0.034	0.045
-514.858	-87.400	-0.151	0.046
-513.843	800.000	0.053	0.190
-512.829	576.891	-0.099	-0.242
-511.814	800.000	0.130	0.497
-510.799	420.202	0.108	-0.231
-509.785	59.987	-0.241	0.237
-508.770	-126.989	-0.339	-0.050
-507.756	143.145	0.184	0.244
-506.741	-93.530	-0.252	0.069
-505.726	800.000	-0.032	-0.103
-504.712	258.972	-0.084	-0.145
-503.697	-133.629	-0.090	-0.011
-502.683	-145.071	-0.252	-0.023
-501.668	87.624	-0.108	-0.119
-500.653	800.000	0.112	0.315
-499.639	76.523	-0.163	0.172
-498.624	-75.708	0.094	-0.033
-497.610	-30.434	0.202	0.114
-496.595	-56.155	0.264	0.117
-495.581	-67.061	-0.154	0.060
-494.566	-78.764	-0.274	-0.093
-493.551	45.498	0.093	-0.086
-492.537	-114.338	-0.405	-0.078
-491.522	-36.554	-0.354	0.190
-490.508	273.255	-0.121	0.213
-489.493	-200.000	-0.040	0.224
-488.478	23.642	0.246	-0.201
-487.464	48.943	-0.070	0.065
-486.449	-200.000	-0.063	-0.307
-485.435	-141.085	0.090	-0.009
-484.420	79.746	-0.094	0.101
-483.405	-80.295	-0.256	0.085
-482.391	-103.199	0.137	-0.032
-481.376	2.131	0.261	-0.188
-480.362	289.894	0.082	0.148
-479.347	104.288	0.186	-0.218
-478.332	-29.051	-0.170	-0.097
-477.318	-45.903	-0.243	0.119
-476.303	-200.000	0.057	-0.290
-475.289	174.933	0.118	-0.169
-474.274	-100.946	-0.048	-0.012
-473.259	-74.397	-0.288	-0.103
-472.245	122.710	0.178	0.221
-471.230	-182.564	0.120	-0.002
-470.216	-200.000	-0.014	0.199
-469.201	800.000	0.102	-0.399
-468.186	225.587	-0.203	-0.327
-467.172	800.000	0.051	-0.139
-466.157	-28.392	0.422	0.242
-465.143	-66.532	-0.397	-0.157
-464.128	-132.881	0.301	-0.038
-463.113	186.937	-0.066	-0.098
-462.099	-16.985	-0.269	0.169
-461.084	0.365	-0.165	0.117
-460.070	709.349	-0.097	-0.255
-459.055	83.291	-0.189	0.204
-458.040	-154.933	-0.182	0.012
-457.026	-167.742	-0.222	-0.009
-456.011	-87.601	-0.316	0.095
-454.997	-127.044	-0.201	0.029
-453.982	193.249	0.219	-0.329
-452.968	21.636	-0.255	0.206
-451.953	-73.675	-0.247	-0.090
-450.938	162.568	0.045	0.063
-449.924	-75.550	0.149	0.053
-448.909	-31.873	-0.221	-0.123
-447.895	-200.000	0.027	-0.221
-446.880	59.993	-0.089	0.088
-445.865	-200.000	-0.043	-0.321
-444.851	10.482	0.314	0.237
-443.836	-117.577	0.262	0.047
-442.822	-52.311	0.197	0.091
-441.807	-105.406	-0.165	0.037
-440.792	527.648	-0.118	-0.276
-439.778	-92.749	-0.218	0.061
-438.763	800.000	-0.149	-0.462
-437.749	-25.486	0.150	0.088
-436.734	77.877	0.190	-0.201
-435.719	800.000	-0.035	0.102
-434.705	-109.650	-0.229	0.048
-433.690	53.843	0.053	-0.051
-432.676	189.729	0.141	-0.210
-431.661	-42.229	0.267	-0.135
-430.646	-14.152	0.173	-0.111
-429.632	-113.935	0.335	-0.065
-428.617	325.958	0.102	0.195
-427.603	0.354	-0.156	0.111
-426.588	-120.807	-0.227	-0.038
-425.573	-200.000	-0.004	0.049
-424.559	-86.632	0.187	-0.057
-423.544	-52.073	0.184	0.085
-422.530	-6.391	-0.242	0.164
-421.515	-45.670	-0.246	-0.121
-420.500	-124.886	0.195	-0.030
-419.486	-80.295	-0.297	0.099
-418.471	-121.757	0.102	0.017
-417.457	-200.000	-0.001	-0.062
-416.442	-200.000	-0.074	0.341
-415.428	118.771	-0.246	-0.302
-414.413	-68.051	-0.232	-0.090
-413.398	-200.000	0.052	0.301
-412.384	-130.893	0.086	0.011
-411.369	111.439	-0.203	-0.242
-410.355	467.775	-0.038	-0.084
-409.340	274.946	0.175	0.307
-408.325	-78.885	0.120	0.041
-407.311	800.000	-0.046	-0.178
-406.296	26.222	0.194	0.161
-405.282	-16.808	-0.185	0.116
-404.267	42.017	-0.442	-0.398
-403.252	-23.237	-0.090	-0.054
-402.238	-126.727	-0.100	-0.015
-401.223	676.050	-0.112	0.288
-400.209	131.721	0.056	0.072
-399.194	-10.655	-0.216	-0.142
-398.179	85.773	0.209	-0.228
-397.165	24.164	-0.205	-0.168
-396.150	-104.442	-0.021	-0.005
-395.136	77.150	0.206	-0.217
-394.121	-75.360	-0.108	-0.038
-393.106	-63.059	0.425	0.174
-392.092	-48.266	0.116	-0.055
-391.077	800.000	-0.035	0.146
-390.063	-200.000	0.016	0.222
-389.048	101.459	0.050	-0.058
-388.033	144.982	-0.186	-0.247
-387.019	-3.783	-0.087	0.060
-386.004	-25.224	0.125	0.074
-384.990	29.926	0.097	0.082
-383.975	192.461	-0.047	-0.070
-382.960	-114.754	-0.158	0.030
-381.946	800.000	-0.030	0.096
-380.931	-200.000	-0.040	-0.241
-379.917	-90.840	-0.265	0.076
-378.902	744.170	0.185	-0.493
-377.888	218.132	-0.046	-0.073
-376.873	321.405	-0.095	0.179
-375.858	-145.401	-0.043	-0.004
-374.844	363.561	0.124	0.246
-373.829	290.305	-0.140	-0.251
-372.815	22.751	-0.081	0.065
-371.800	372.028	0.065	0.131
-370.785	-163.130	0.270	-0.013
-369.771	-200.000	-0.000	-0.111
-368.756	133.762	0.077	-0.098
-367.742	-62.199	-0.029	0.012
-366.727	32.995	-0.189	0.162
-365.712	800.000	-0.090	0.355
-364.698	-131.409	0.044	0.006
-363.683	-140.411	0.232	-0.024
-362.669	-132.147	-0.231	-0.030
-361.654	336.641	-0.135	0.260
-360.639	-54.167	0.262	-0.118
-359.625	2.889	0.113	-0.081
-358.610	-200.000	-0.024	0.157
-357.596	-200.000	-0.007	0.031
-356.581	-29.926	0.178	0.100
-355.566	97.829	0.087	-0.099
-354.552	47.853	0.095	-0.088
-353.537	455.029	-0.165	0.363
-352.523	-107.836	0.196	-0.042
-351.508	23.072	0.163	-0.133
-350.493	-5.504	-0.182	0.124
-349.479	800.000	-0.021	-0.087
-348.464	575.049	0.096	-0.231
-347.450	-119.379	-0.336	0.058
-346.435	-64.800	0.157	0.063
-345.420	-172.672	-0.118	-0.004
-344.406	-200.000	-0.017	-0.103
-343.391	-106.370	0.168	0.037
-342.377	54.625	0.153	-0.146
-341.362	-117.398	0.343	0.061
-340.348	285.023	-0.106	-0.189
-339.333	-200.000	-0.007	-0.031
-338.318	-70.545	-0.107	0.040
-337.304	183.851	0.039	0.057
-336.289	-119.780	-0.118	0.020
-335.275	-68.534	-0.053	0.020
-334.260	302.321	0.049	-0.090
-333.245	-128.122	-0.165	-0.023
-332.231	-118.055	0.100	-0.018
-331.216	67.719	-0.116	-0.118
-330.202	56.628	0.088	-0.085
-329.187	-112.354	0.288	-0.057
-328.172	0.650	0.458	0.324
-327.158	701.438	-0.070	0.183
-326.143	214.256	0.150	-0.234
-325.129	-200.000	-0.035	-0.156
-324.114	800.000	0.026	0.109
-323.099	-200.000	0.037	0.406
-322.085	85.324	0.097	0.106
-321.070	800.000	-0.005	-0.018
-320.056	7.953	0.275	-0.204
-319.041	-47.095	0.076	0.037
-318.026	-200.000	0.003	0.033
-317.012	-77.507	0.305	-0.105
-315.997	157.298	0.161	-0.220
-314.983	-145.832	-0.246	-0.022
-313.968	-200.000	-0.016	0.109
-312.953	800.000	-0.104	-0.289
-311.939	88.510	0.067	-0.074
-310.924	-112.483	0.198	-0.039
-309.910	-200.000	0.031	-0.195
-308.895	-128.928	-0.088	-0.012
-307.880	37.154	0.066	0.058
-306.866	-38.136	-0.262	0.137
-305.851	-112.473	-0.018	-0.004
-304.837	76.439	0.046	0.048
-303.822	334.714	-0.109	0.208
-302.807	184.950	0.103	-0.151
-301.793	21.196	0.265	-0.213
-300.778	180.249	-0.089	0.129
-299.764	68.597	-0.117	0.119
-298.749	-119.253	-0.072	-0.012
-297.735	800.000	-0.101	0.309
-296.720	770.181	-0.075	0.202
-295.705	-200.000	0.006	-0.128
-294.691	-95.159	0.355	0.095
-293.676	85.958	0.212	0.230
-292.662	352.005	-0.218	-0.426
-291.647	11.325	-0.248	-0.188
-290.632	-200.000	0.014	-0.358
-289.618	800.000	-0.099	0.383
-288.603	150.012	-0.053	0.071
-287.589	101.799	-0.287	0.330
-286.574	-22.033	-0.115	-0.069
-285.559	-105.726	0.155	0.035
-284.545	-111.741	0.146	0.029
-283.530	-200.000	-0.014	-0.174
-282.516	-25.459	0.154	-0.090
-281.501	-30.846	-0.310	-0.173
-280.486	426.488	-0.179	0.381
-279.472	22.992	0.165	-0.133
-278.457	211.612	0.118	-0.184
-277.443	-117.961	-0.107	0.019
-276.428	145.674	0.082	-0.109
-275.413	510.041	-0.061	0.139
-274.399	482.785	-0.038	-0.085
-273.384	41.284	-0.043	-0.038
-272.370	-200.000	0.053	-0.344
-271.355	800.000	0.023	-0.070
-270.340	800.000	0.060	0.195
-269.326	800.000	-0.082	-0.285
-268.311	-36.702	0.301	0.159
-267.297	-3.101	0.115	0.079
-266.282	-46.051	-0.417	0.203
-265.267	70.369	-0.085	-0.086
-264.253	3.988	0.130	0.094
-263.238	384.231	0.031	0.063
-262.224	800.000	-0.136	0.378
-261.209	-200.000	0.035	-0.206
-260.195	585.451	-0.101	-0.244
-259.180	-142.043	0.041	-0.004
-258.165	-200.000	0.122	-0.000
-257.151	87.287	-0.171	0.186
-256.136	-200.000	0.025	0.166
-255.122	112.331	-0.137	0.164
-254.107	184.020	0.177	0.259
-253.092	-200.000	-0.014	0.276
-252.078	127.736	0.229	-0.287
-251.063	-99.323	0.247	0.061
-250.049	25.365	-0.100	0.082
-249.034	-200.000	0.002	0.101
-248.019	-90.072	0.144	0.041
-247.005	175.960	0.149	-0.213
-245.990	-47.858	-0.085	0.040
-244.976	11.587	0.037	0.028
-243.961	-62.498	0.075	0.031
-242.946	103.450	-0.220	0.255
-241.932	91.112	-0.164	0.181
-240.917	800.000	0.017	0.065
-239.903	-28.828	-0.202	0.114
-238.888	-41.933	0.323	-0.163
-237.873	314.410	0.039	-0.071
-236.859	-110.780	0.348	-0.071
-235.844	-158.379	-0.195	0.011
-234.830	-144.893	0.305	0.027
-233.815	637.486	0.052	-0.130
-232.800	-200.000	0.005	-0.152
-231.786	-89.017	-0.280	-0.082
-230.771	-140.314	-0.037	-0.004
-229.757	-105.704	0.232	-0.052
-228.742	-133.936	0.250	-0.031
-227.727	-2.788	0.269	0.185
-226.713	32.498	-0.177	-0.151
-225.698	-111.181	0.197	0.040
-224.684	-200.000	0.071	-0.335
-223.669	-35.528	0.149	-0.080
-222.655	-200.000	-0.024	0.396
-221.640	-135.953	-0.169	-0.020
-220.625	-200.000	0.051	0.228
-219.611	29.265	0.277	-0.232
-218.596	81.892	-0.177	-0.188
-217.582	-52.103	-0.241	0.110
-216.567	-39.649	0.250	0.129
-215.552	491.540	0.210	-0.474
-214.538	800.000	-0.045	0.130
-213.523	114.002	0.260	-0.312
-212.509	800.000	-0.033	0.093
-211.494	-94.397	-0.112	-0.030
-210.479	-6.929	-0.188	-0.126
-209.465	-17.768	0.185	-0.115
-208.450	-83.414	-0.131	-0.041
-207.436	658.680	-0.101	-0.256
-206.421	-196.378	0.084	-0.001
-205.406	35.765	0.186	0.161
-204.392	513.755	0.162	-0.373
-203.377	126.600	-0.142	0.176
-202.363	110.024	0.174	0.205
-201.348	-114.645	0.234	-0.044
-200.333	800.000	-0.056	0.198
-199.319	-55.666	0.165	0.073
-198.304	-64.534	-0.210	-0.084
-197.290	169.540	0.115	-0.162
-196.275	-200.000	0.025	0.127
-195.260	-138.393	0.145	0.016
-194.246	-107.606	0.247	-0.053
-193.231	218.295	-0.132	0.208
-192.217	-130.645	-0.222	0.029
-191.202	-129.571	0.316	-0.043
-190.187	-28.749	-0.181	-0.103
-189.173	498.898	-0.068	0.155
-188.158	-98.613	0.275	0.069
-187.144	800.000	-0.043	-0.165
-186.129	44.644	0.182	-0.164
-185.114	-52.832	0.226	0.103
-184.100	-200.000	-0.012	-0.184
-183.085	61.240	-0.081	-0.079
-182.071	800.000	-0.054	-0.202
-181.056	495.997	0.024	0.054
-180.042	348.843	0.077	0.150
-179.027	-152.387	-0.042	0.003
-178.012	-39.766	0.157	-0.081
-176.998	330.161	0.081	-0.153
-175.983	108.419	0.254	-0.298
-174.969	4.765	0.186	0.134
-173.954	28.540	0.121	0.101
-172.939	-200.000	0.029	0.211
-171.925	-56.011	0.044	-0.019
-170.910	48.717	0.254	0.234
-169.896	-50.067	-0.240	-0.112
-168.881	-47.381	0.085	0.041
-167.866	-33.290	-0.409	0.222
-166.852	29.293	0.335	0.279
-165.837	-7.997	-0.206	0.137
-164.823	-88.876	-0.072	-0.021
-163.808	-174.877	0.291	0.008
-162.793	-200.000	0.017	0.444
-161.779	-161.158	0.270	0.014
-160.764	-68.804	-0.435	0.165
-159.750	-31.003	-0.265	-0.147
-158.735	-138.071	0.190	0.021
-157.720	-42.656	-0.090	-0.045
-156.706	800.000	-0.089	0.295
-155.691	-16.849	-0.105	0.065
-154.677	299.119	-0.133	0.241
-153.662	83.996	0.140	-0.150
-152.647	133.980	0.182	-0.232
-151.633	-14.377	0.166	0.105
-150.618	-200.000	0.021	-0.345
-149.604	800.000	0.030	-0.120
-148.589	-200.000	-0.025	-0.151
-147.574	392.431	0.049	0.100
-146.560	-200.000	0.009	0.037
-145.545	-40.586	-0.189	-0.097
-144.531	-98.778	-0.149	-0.037
-143.516	120.392	0.013	0.016
-142.502	-87.734	-0.317	-0.094
-141.487	-200.000	0.011	0.241
-140.472	370.757	0.228	0.453
-139.458	-200.000	0.019	0.176
-138.443	-200.000	0.072	0.309
-137.429	389.535	0.178	0.361
-136.414	800.000	-0.055	-0.214
-135.399	248.109	0.122	0.203
-134.385	-169.568	-0.182	-0.006
-133.370	-125.007	0.101	-0.015
-132.356	-117.387	-0.089	-0.016
-131.341	161.179	-0.042	0.058
-130.326	-36.091	0.157	-0.083
-129.312	10.655	0.054	-0.041
-128.297	-200.000	-0.014	0.482
-127.283	-153.561	0.348	0.024
-126.268	-137.241	0.334	-0.037
-125.253	532.455	-0.088	-0.205
-124.239	32.970	-0.142	-0.121
-123.224	-47.092	-0.149	-0.071
-122.210	-69.372	0.215	-0.081
-121.195	494.293	0.112	0.253
