DTS Sentinel unit serial number:	SN413079Multiplexer serial number:	ORYXHardware model number:	OX4-SRSoftware version number:	ORYX F/W v4.00 Oryx Data Collector v3.7.2.0data status	okinstallation	princeton_trtdifferential loss correction	single-endedforward channel	channel 2reverse channel	N/Adate	2019/09/11time	10:29:11forward acquisition time	60.00reverse acquisition time	0.00gamma	496.2192k internal	0.2311k external	0.2311temperature offset calibration	0.9973default loss term (dB/km)	0.3790temperature slope calibration	1.0000multiplexer offset coefficient	1.0000multiplexer slope coefficient	1.0000fibre end	0.00T internal ref (°C)	36.31T ext. ref 1 (°C)	0.15T ext. ref 2 (°C)	32.91length (m)	temperature (°C)	Stokes	anti-Stokes-747.200	-170.581	-0.238	0.008
-746.185	261.453	-0.049	0.087
-745.171	112.205	0.153	0.188
-744.156	-200.000	-0.012	0.315
-743.142	534.303	0.077	-0.186
-742.127	-93.357	-0.121	-0.034
-741.112	-200.000	0.004	-0.069
-740.098	31.249	0.166	0.144
-739.083	800.000	-0.019	-0.080
-738.069	-123.055	0.153	0.025
-737.054	-44.247	-0.196	-0.100
-736.039	-120.961	-0.184	-0.031
-735.025	-116.906	-0.178	-0.033
-734.010	-44.321	-0.269	-0.137
-732.996	145.188	0.073	0.100
-731.981	-82.224	0.214	-0.071
-730.966	-154.714	-0.448	-0.030
-729.952	800.000	-0.083	-0.248
-728.937	75.662	0.260	-0.279
-727.923	78.542	-0.176	0.191
-726.908	-131.306	-0.359	-0.048
-725.894	-200.000	-0.016	0.147
-724.879	-6.857	0.230	0.158
-723.864	-200.000	-0.063	0.295
-722.850	-200.000	-0.012	-0.220
-721.835	124.025	0.148	-0.189
-720.821	-26.702	-0.178	0.105
-719.806	-43.701	-0.113	0.058
-718.791	800.000	0.091	-0.317
-717.777	515.531	-0.092	-0.218
-716.762	84.431	0.034	-0.037
-715.748	-79.569	-0.461	0.158
-714.733	-4.535	-0.254	0.178
-713.718	800.000	-0.100	-0.288
-712.704	83.429	0.044	-0.048
-711.689	-124.311	-0.348	-0.055
-710.675	-34.414	0.072	-0.040
-709.660	60.422	0.211	-0.212
-708.645	-27.773	0.064	0.037
-707.631	-200.000	-0.018	0.141
-706.616	392.790	0.202	0.425
-705.602	-105.170	-0.322	-0.075
-704.587	-18.985	-0.272	0.171
-703.572	630.984	0.058	0.148
-702.558	-127.891	0.082	-0.012
-701.543	-102.870	-0.314	0.076
-700.529	-130.921	-0.194	0.026
-699.514	800.000	-0.080	-0.235
-698.499	77.300	0.170	-0.183
-697.485	-42.271	0.183	0.094
-696.470	-77.490	0.233	-0.082
-695.456	-148.843	0.316	-0.026
-694.441	-126.776	-0.133	-0.020
-693.426	539.713	0.133	-0.320
-692.412	558.349	-0.031	0.075
-691.397	-200.000	0.003	-0.082
-690.383	-34.119	0.359	-0.200
-689.368	-23.801	-0.310	-0.188
-688.354	126.968	0.114	-0.146
-687.339	513.530	-0.112	0.265
-686.324	-189.582	-0.121	0.001
-685.310	-200.000	0.041	-0.196
-684.295	-90.148	0.230	0.068
-683.281	-82.728	-0.152	-0.050
-682.266	-200.000	0.006	-0.073
-681.251	-91.868	0.091	0.026
-680.237	800.000	0.119	0.360
-679.222	451.141	-0.108	-0.242
-678.208	40.376	0.188	-0.171
-677.193	463.178	-0.074	0.168
-676.178	216.575	0.194	0.313
-675.164	-13.335	0.110	0.072
-674.149	128.444	-0.048	-0.061
-673.135	157.080	0.037	-0.052
-672.120	-151.072	-0.201	-0.015
-671.105	409.675	-0.148	0.318
-670.091	-200.000	-0.025	-0.139
-669.076	-104.587	-0.177	-0.041
-668.062	-200.000	-0.068	-0.443
-667.047	256.745	-0.110	0.191
-666.032	169.254	-0.049	-0.070
-665.018	-200.000	-0.043	-0.328
-664.003	146.229	0.014	-0.019
-662.989	-200.000	0.008	0.111
-661.974	-200.000	-0.041	0.385
-660.959	-84.511	-0.209	0.067
-659.945	-0.923	0.186	0.133
-658.930	74.111	-0.081	0.086
-657.916	22.191	0.076	-0.063
-656.901	-124.362	-0.376	0.059
-655.886	197.835	-0.147	0.228
-654.872	189.936	0.100	-0.151
-653.857	-200.000	-0.018	-0.200
-652.843	344.265	0.034	0.067
-651.828	36.624	-0.014	0.012
-650.814	800.000	-0.057	-0.221
-649.799	-89.474	0.299	0.089
-648.784	-142.750	0.108	0.011
-647.770	-200.000	0.038	-0.257
-646.755	800.000	-0.038	-0.133
-645.741	51.262	0.089	-0.086
-644.726	-86.417	-0.069	-0.021
-643.711	87.329	0.094	0.105
-642.697	-200.000	-0.103	0.517
-641.682	137.417	-0.139	0.184
-640.668	175.874	0.065	-0.095
-639.653	-200.000	-0.005	-0.052
-638.638	800.000	-0.083	-0.315
-637.624	63.207	0.111	-0.113
-636.609	-29.764	-0.133	-0.077
-635.595	43.146	-0.161	0.148
-634.580	35.710	-0.303	-0.269
-633.565	-112.683	0.130	-0.026
-632.551	-104.953	-0.282	0.065
-631.536	-21.976	-0.362	-0.222
-630.522	-134.265	-0.155	0.019
-629.507	-161.251	-0.145	-0.008
-628.492	-167.642	0.392	0.016
-627.478	511.123	-0.041	-0.096
-626.463	800.000	-0.094	-0.317
-625.449	148.430	0.142	0.193
-624.434	-37.724	0.476	-0.256
-623.419	-139.669	0.267	0.029
-622.405	38.829	-0.059	0.054
-621.390	800.000	-0.108	0.392
-620.376	4.764	0.283	-0.210
-619.361	-95.785	0.127	0.034
-618.346	-200.000	0.003	0.067
-617.332	263.846	-0.168	-0.295
-616.317	-200.000	0.031	0.156
-615.303	55.503	-0.193	0.189
-614.288	-57.136	0.124	-0.055
-613.273	800.000	-0.074	0.256
-612.259	92.902	-0.040	0.046
-611.244	109.176	0.112	0.136
-610.230	-200.000	-0.023	-0.104
-609.215	-200.000	-0.033	-0.432
-608.201	-200.000	-0.054	-0.245
-607.186	-83.123	-0.116	0.038
-606.171	-159.032	-0.233	-0.013
-605.157	-21.916	-0.198	0.122
-604.142	800.000	0.096	-0.380
-603.128	-80.608	0.207	-0.069
-602.113	-200.000	-0.028	0.202
-601.098	427.217	-0.089	0.194
-600.084	110.551	-0.096	0.117
-599.069	84.709	0.143	-0.158
-598.055	-105.547	0.392	0.090
-597.040	-94.119	0.103	-0.029
-596.025	-200.000	-0.018	0.225
-595.011	-90.955	-0.149	-0.043
-593.996	-9.493	-0.114	-0.077
-592.982	625.447	0.067	-0.170
-591.967	-71.025	0.040	0.015
-590.952	17.106	-0.032	0.025
-589.938	368.976	-0.113	0.231
-588.923	-83.178	0.088	0.029
-587.909	146.873	0.199	0.270
-586.894	80.257	0.174	-0.189
-585.879	212.589	-0.162	0.258
-584.865	-141.265	0.144	-0.015
-583.850	-25.708	0.234	0.139
-582.836	138.167	-0.181	-0.239
-581.821	110.731	0.113	-0.137
-580.806	308.296	-0.070	0.132
-579.792	800.000	-0.064	0.192
-578.777	800.000	-0.038	0.133
-577.763	-147.098	-0.475	0.041
-576.748	800.000	0.112	0.410
-575.733	54.213	0.151	-0.146
-574.719	109.534	-0.269	0.325
-573.704	-29.736	0.054	0.031
-572.690	-118.399	-0.465	0.083
-571.675	800.000	-0.054	-0.169
-570.661	449.500	0.049	0.108
-569.646	-156.366	-0.331	-0.021
-568.631	-200.000	0.087	-0.472
-567.617	-200.000	-0.041	0.295
-566.602	-87.952	-0.336	0.102
-565.588	248.598	-0.225	0.384
-564.573	217.495	-0.217	0.348
-563.558	557.286	-0.054	0.131
-562.544	-174.369	-0.043	-0.001
-561.529	-119.843	-0.207	-0.036
-560.515	16.092	-0.233	-0.185
-559.500	584.003	0.066	0.164
-558.485	-200.000	-0.009	-0.131
-557.471	-128.540	0.149	-0.021
-556.456	-200.000	-0.062	0.394
-555.442	-70.230	0.107	-0.041
-554.427	298.179	-0.076	-0.141
-553.412	-35.812	-0.107	0.058
-552.398	-118.446	-0.290	-0.052
-551.383	-57.036	-0.191	0.085
-550.369	143.057	0.119	-0.159
-549.354	186.386	0.293	0.440
-548.339	87.891	-0.346	0.386
-547.325	-186.409	-0.163	-0.002
-546.310	-17.724	0.107	0.067
-545.296	-86.707	0.191	-0.059
-544.281	-91.799	-0.197	-0.056
-543.266	9.103	0.288	0.219
-542.252	-200.000	-0.001	-0.069
-541.237	-95.322	-0.077	-0.021
-540.223	17.116	0.090	0.072
-539.208	-130.720	0.368	-0.050
-538.193	-99.957	-0.337	0.085
-537.179	800.000	-0.075	-0.292
-536.164	320.861	0.121	-0.232
-535.150	169.901	-0.258	-0.372
-534.135	43.488	-0.063	-0.058
-533.121	-69.279	-0.232	-0.090
-532.106	-46.296	0.233	-0.115
-531.091	800.000	-0.063	-0.221
-530.077	272.094	0.036	-0.064
-529.062	-147.562	-0.294	0.025
-528.048	16.905	0.057	0.045
-527.033	-200.000	-0.004	0.065
-526.018	70.247	0.205	0.213
-525.004	651.218	0.119	-0.307
-523.989	-27.018	0.156	-0.091
-522.975	196.577	-0.130	0.200
-521.960	-31.205	0.165	0.094
-520.945	-90.243	-0.389	0.114
-519.931	-115.618	0.287	0.054
-518.916	-200.000	-0.036	0.433
-517.902	-91.587	-0.241	0.069
-516.887	-172.168	-0.403	0.013
-515.872	95.623	0.047	0.054
-514.858	401.656	0.036	-0.075
-513.843	44.934	0.105	-0.097
-512.829	-73.771	-0.235	-0.086
-511.814	-40.780	0.150	-0.078
-510.799	-121.376	-0.111	0.019
-509.785	-94.708	-0.190	0.052
-508.770	-128.783	-0.218	0.031
-507.756	144.246	0.126	-0.170
-506.741	205.347	-0.068	-0.107
-505.726	-194.637	0.291	0.002
-504.712	177.430	0.198	0.290
-503.697	-58.250	0.117	0.051
-502.683	224.534	0.083	0.136
-501.668	-200.000	0.001	-0.076
-500.653	-179.571	-0.209	-0.005
-499.639	83.408	-0.101	-0.111
-498.624	654.579	0.174	0.448
-497.610	61.610	0.235	-0.235
-496.595	-98.445	0.106	-0.027
-495.581	532.624	0.086	0.205
-494.566	-200.000	0.017	-0.212
-493.551	800.000	0.014	-0.059
-492.537	-125.694	-0.211	0.032
-491.522	311.439	0.158	0.297
-490.508	-180.948	-0.235	0.005
-489.493	223.686	-0.133	-0.216
-488.478	212.234	-0.085	-0.134
-487.464	-98.498	-0.065	-0.017
-486.449	800.000	-0.080	-0.317
-485.435	-156.451	-0.129	0.008
-484.420	-200.000	-0.034	-0.154
-483.405	414.870	-0.239	0.512
-482.391	96.840	-0.096	-0.110
-481.376	-114.998	-0.371	-0.071
-480.362	16.359	0.140	-0.111
-479.347	99.679	-0.060	-0.070
-478.332	800.000	-0.047	0.198
-477.318	80.106	0.195	0.211
-476.303	-1.626	-0.093	0.066
-475.289	75.163	-0.154	0.163
-474.274	55.815	0.090	-0.088
-473.259	-200.000	-0.046	-0.255
-472.245	-115.373	-0.120	-0.023
-471.230	264.213	0.126	-0.220
-470.216	-200.000	-0.017	-0.222
-469.201	-27.483	0.131	-0.077
-468.186	13.547	-0.100	0.078
-467.172	146.779	0.064	0.086
-466.157	-13.015	0.128	-0.083
-465.143	-131.832	0.195	0.026
-464.128	-34.300	-0.346	0.191
-463.113	-200.000	0.014	-0.227
-462.099	-112.904	0.301	0.060
-461.084	-25.449	0.173	-0.103
-460.070	15.971	-0.162	-0.128
-459.055	800.000	0.052	0.161
-458.040	-4.616	-0.094	-0.065
-457.026	-66.523	-0.058	0.023
-456.011	-91.993	-0.155	-0.044
-454.997	67.072	-0.065	0.067
-453.982	143.069	0.071	-0.095
-452.968	629.631	0.072	0.184
-451.953	800.000	-0.055	0.185
-450.938	-132.059	0.190	-0.025
-449.924	-200.000	-0.002	-0.158
-448.909	-200.000	0.021	0.148
-447.895	-200.000	0.001	0.083
-446.880	64.115	-0.139	-0.140
-445.865	139.021	0.139	0.183
-444.851	-166.744	0.159	-0.007
-443.836	-200.000	0.006	-0.173
-442.822	800.000	0.061	-0.252
-441.807	-52.878	-0.247	-0.114
-440.792	464.595	-0.080	-0.180
-439.778	800.000	-0.055	0.155
-438.763	222.889	0.088	-0.142
-437.749	-83.013	-0.218	-0.070
-436.734	83.808	-0.213	-0.233
-435.719	800.000	0.056	-0.227
-434.705	-200.000	0.024	0.216
-433.690	-200.000	0.013	0.255
-432.676	161.968	0.162	-0.227
-431.661	131.456	-0.182	-0.234
-430.646	-79.678	0.207	-0.070
-429.632	-78.103	0.264	-0.091
-428.617	-200.000	0.035	0.275
-427.603	-144.709	-0.097	0.009
-426.588	-126.937	0.038	0.006
-425.573	-165.225	0.536	-0.024
-424.559	70.375	-0.050	0.052
-423.544	-142.140	0.121	0.012
-422.530	82.483	0.356	-0.387
-421.515	-86.576	-0.187	-0.058
-420.500	-73.141	0.239	0.088
-419.486	-200.000	-0.003	-0.193
-418.471	-110.364	-0.069	0.014
-417.457	800.000	-0.028	-0.089
-416.442	147.578	0.018	-0.024
-415.428	-133.155	-0.226	-0.029
-414.413	-99.063	-0.146	-0.037
-413.398	-64.423	0.146	0.059
-412.384	-106.304	0.123	0.028
-411.369	-84.558	0.264	-0.083
-410.355	-31.031	-0.102	-0.058
-409.340	800.000	-0.071	0.206
-408.325	-200.000	-0.048	-0.318
-407.311	709.485	-0.065	-0.171
-406.296	-145.537	-0.229	0.021
-405.282	-200.000	0.103	0.000
-404.267	174.692	-0.077	-0.111
-403.252	28.202	-0.249	-0.211
-402.238	-7.116	0.131	0.089
-401.223	-102.466	0.150	0.036
-400.209	-200.000	-0.080	0.435
-399.194	110.482	-0.072	0.087
-398.179	465.856	0.144	0.323
-397.165	32.428	-0.306	-0.265
-396.150	-89.022	0.383	0.113
-395.136	-200.000	0.007	0.220
-394.121	-127.688	0.017	-0.002
-393.106	38.738	0.099	-0.089
-392.092	362.485	0.035	-0.070
-391.077	132.076	0.128	-0.165
-390.063	-200.000	0.038	-0.192
-389.048	-200.000	0.036	-0.198
-388.033	-43.714	0.187	-0.094
-387.019	78.352	0.144	0.154
-386.004	-121.620	-0.192	-0.032
-384.990	-151.282	-0.240	0.018
-383.975	-200.000	-0.050	-0.367
-382.960	-40.993	0.124	-0.064
-381.946	-67.683	-0.240	-0.094
-380.931	25.552	0.028	-0.024
-379.917	-68.827	-0.044	-0.017
-378.902	-31.134	0.175	-0.099
-377.888	-200.000	0.006	-0.235
-376.873	-97.255	-0.245	0.064
-375.858	-27.777	0.312	-0.181
-374.844	-200.000	-0.001	-0.094
-373.829	148.399	-0.016	-0.021
-372.815	151.703	0.216	-0.294
-371.800	-13.174	-0.502	0.326
-370.785	323.057	0.027	0.051
-369.771	800.000	-0.065	-0.271
-368.756	150.088	0.089	0.121
-367.742	-6.982	-0.033	-0.022
-366.727	93.964	-0.167	0.189
-365.712	268.019	-0.133	0.233
-364.698	-200.000	-0.022	-0.099
-363.683	-200.000	0.015	-0.081
-362.669	144.365	-0.110	-0.147
-361.654	-104.599	-0.173	-0.040
-360.639	-169.798	0.144	-0.005
-359.625	800.000	0.085	0.332
-358.610	-56.516	-0.233	0.104
-357.596	352.929	0.095	-0.189
-356.581	-200.000	-0.025	-0.137
-355.566	54.068	0.166	-0.160
-354.552	-98.352	-0.139	-0.036
-353.537	172.225	0.161	-0.231
-352.523	-27.788	-0.150	-0.087
-351.508	30.831	-0.195	0.167
-350.493	-200.000	0.013	-0.091
-349.479	220.921	0.015	0.024
-348.464	-200.000	0.018	0.291
-347.450	388.958	-0.027	0.056
-346.435	-76.302	0.233	0.082
-345.420	30.882	0.169	-0.145
-344.406	800.000	0.050	0.198
-343.391	-20.277	0.325	-0.200
-342.377	132.598	-0.119	0.153
-341.362	493.364	-0.127	0.291
-340.348	-107.165	0.179	0.039
-339.333	-78.119	-0.072	0.025
-338.318	-200.000	0.039	-0.229
-337.304	234.912	0.102	-0.169
-336.289	-200.000	-0.031	0.457
-335.275	-200.000	-0.015	-0.243
-334.260	-55.648	-0.222	-0.099
-333.245	-29.689	-0.344	0.196
-332.231	-200.000	0.006	0.339
-331.216	-2.585	0.181	0.127
-330.202	409.979	0.160	0.340
-329.187	299.130	0.106	0.196
-328.172	7.270	0.160	0.120
-327.158	-82.026	0.341	0.111
-326.143	100.538	-0.139	-0.161
-325.129	239.199	-0.127	-0.211
-324.114	39.747	-0.133	0.119
-323.099	-105.009	0.202	-0.046
-322.085	736.831	0.055	0.148
-321.070	39.750	0.093	0.083
-320.056	-0.188	0.090	0.064
-319.041	31.722	-0.160	-0.138
-318.026	-50.162	-0.219	0.104
-317.012	123.920	-0.157	-0.196
-315.997	800.000	-0.034	-0.117
-314.983	125.028	0.225	0.283
-313.968	-200.000	0.053	0.262
-312.953	-140.179	-0.050	0.005
-311.939	48.948	-0.118	0.111
-310.924	-200.000	0.077	-0.341
-309.910	-200.000	-0.023	0.150
-308.895	374.181	-0.101	0.206
-307.880	40.179	0.172	-0.154
-306.866	-200.000	-0.016	-0.431
-305.851	195.140	-0.089	0.136
-304.837	439.655	-0.133	0.289
-303.822	-200.000	0.014	0.173
-302.807	-200.000	-0.010	0.205
-301.793	680.420	-0.079	0.205
-300.778	-34.822	-0.204	0.111
-299.764	43.232	-0.185	0.168
-298.749	-112.510	-0.219	0.044
-297.735	226.354	-0.199	-0.322
-296.720	4.928	0.124	-0.091
-295.705	77.649	0.136	0.145
-294.691	356.499	0.044	-0.087
-293.676	-54.907	0.223	0.100
-292.662	11.743	0.291	0.223
-291.647	-51.488	0.263	-0.122
-290.632	236.380	0.164	-0.270
-289.618	348.466	0.102	-0.200
-288.603	-163.309	0.104	0.005
-287.589	-68.268	0.267	-0.103
-286.574	-200.000	0.020	-0.221
-285.559	248.289	0.099	-0.167
-284.545	-200.000	0.006	0.219
-283.530	-200.000	-0.036	-0.328
-282.516	-124.884	-0.145	-0.022
-281.501	-10.335	0.149	0.099
-280.486	346.432	0.063	0.124
-279.472	-200.000	-0.038	-0.189
-278.457	-46.933	-0.049	-0.024
-277.443	-95.972	0.090	0.024
-276.428	-43.550	0.158	0.080
-275.413	364.501	0.112	-0.224
-274.399	719.516	0.053	0.141
-273.384	180.235	-0.303	0.443
-272.370	-147.880	0.124	0.010
-271.355	800.000	0.070	-0.257
-270.340	-183.661	0.334	-0.006
-269.326	-39.358	0.125	0.065
-268.311	800.000	-0.023	0.069
-267.297	-169.429	0.337	-0.012
-266.282	153.406	-0.193	0.263
-265.267	56.353	-0.198	-0.191
-264.253	-101.216	0.241	-0.059
-263.238	-104.561	0.169	-0.039
-262.224	166.091	-0.060	-0.085
-261.209	-61.086	0.236	-0.099
-260.195	-200.000	-0.014	-0.092
-259.180	150.658	0.026	-0.035
-258.165	430.238	-0.170	-0.367
-257.151	96.209	0.174	-0.198
-256.136	800.000	-0.096	0.406
-255.122	-122.590	0.291	-0.047
-254.107	-200.000	0.042	-0.191
-253.092	-160.056	0.129	0.007
-252.078	168.019	-0.157	-0.222
-251.063	6.652	-0.278	0.206
-250.049	-58.013	-0.217	0.094
-249.034	-153.576	-0.377	-0.026
-248.019	254.714	-0.069	-0.117
-247.005	26.781	0.103	0.086
-245.990	23.115	-0.157	0.129
-244.976	-200.000	-0.002	0.100
-243.961	559.446	0.050	0.120
-242.946	-200.000	0.005	0.106
-241.932	800.000	-0.008	0.027
-240.917	534.630	0.064	0.152
-239.903	93.957	-0.198	-0.224
-238.888	58.967	0.217	-0.212
-237.873	-200.000	-0.036	0.277
-236.859	176.697	-0.119	-0.172
-235.844	-68.984	0.191	-0.073
-234.830	-16.585	0.099	0.062
-233.815	189.414	-0.106	0.158
-232.800	-167.419	0.253	0.010
-231.786	27.757	0.165	-0.138
-230.771	88.065	0.145	-0.160
-229.757	-200.000	0.029	0.205
-228.742	-86.744	-0.114	0.035
-227.727	202.141	0.153	-0.234
-226.713	-48.564	0.192	0.092
-225.698	-175.393	-0.128	0.003
-224.684	-19.263	0.210	-0.130
-223.669	-86.054	0.157	0.048
-222.655	209.906	0.149	-0.233
-221.640	362.223	-0.158	-0.316
-220.625	16.716	0.331	0.260
-219.611	-200.000	-0.048	0.259
-218.596	78.137	0.323	-0.342
-217.582	292.428	0.163	-0.296
-216.567	144.897	-0.112	0.148
-215.552	-41.719	-0.209	0.107
-214.538	-27.469	0.121	0.070
-213.523	440.468	-0.029	-0.062
-212.509	800.000	0.083	0.312
-211.494	138.654	0.151	0.197
-210.479	33.842	0.151	-0.130
-209.465	-13.858	0.296	-0.190
-208.450	60.841	0.082	0.081
-207.436	7.761	-0.113	-0.084
-206.421	-104.769	-0.364	-0.083
-205.406	-4.592	0.257	0.176
-204.392	800.000	0.022	0.062
-203.377	38.288	-0.250	0.222
-202.363	800.000	-0.067	-0.190
-201.348	800.000	0.021	0.073
-200.333	800.000	0.063	0.237
-199.319	120.394	-0.101	-0.124
-198.304	165.155	-0.209	0.294
-197.290	192.099	0.098	-0.147
-196.275	800.000	0.086	-0.288
-195.260	44.421	0.041	0.037
-194.246	-72.784	0.251	-0.092
-193.231	800.000	-0.013	0.042
-192.217	760.730	0.127	0.341
-191.202	-106.921	-0.503	0.111
-190.187	311.830	0.015	-0.028
-189.173	800.000	0.054	0.155
-188.158	800.000	-0.080	0.219
-187.144	-30.722	0.066	0.037
-186.129	-130.106	-0.109	-0.015
-185.114	-18.777	0.128	-0.079
-184.100	45.302	0.074	0.068
-183.085	-150.128	0.282	0.022
-182.071	5.986	-0.065	0.047
-181.056	-200.000	-0.003	-0.410
-180.042	287.456	0.184	-0.330
-179.027	-163.362	-0.236	0.011
-178.012	800.000	0.039	-0.150
-176.998	-200.000	0.032	-0.214
-175.983	-35.040	0.029	-0.016
-174.969	20.891	-0.230	0.185
-173.954	-55.268	0.081	-0.036
-172.939	206.837	-0.118	0.182
-171.925	60.859	-0.174	0.171
-170.910	380.104	-0.198	0.403
-169.896	-16.953	0.096	-0.060
-168.881	298.280	0.095	0.174
-167.866	-200.000	-0.023	0.135
-166.852	-173.035	0.027	0.001
-165.837	-9.827	-0.111	-0.073
-164.823	161.857	0.141	-0.196
-163.808	-105.995	0.182	0.041
-162.793	84.562	-0.234	-0.255
-161.779	-161.520	-0.351	-0.018
-160.764	216.660	0.136	0.215
-159.750	800.000	-0.051	-0.192
-158.735	-200.000	-0.054	0.263
-157.720	16.000	-0.362	-0.283
-156.706	70.864	-0.178	-0.183
-155.691	-200.000	0.014	0.288
-154.677	-9.655	-0.136	0.090
-153.662	-111.063	0.353	-0.072
-152.647	242.123	0.028	0.046
-151.633	42.141	0.231	-0.208
-150.618	111.190	0.037	-0.044
-149.604	-7.790	-0.076	0.051
-148.589	-122.245	0.067	0.011
-147.574	-77.839	-0.192	-0.066
-146.560	730.971	-0.119	0.316
-145.545	-118.852	0.193	-0.034
-144.531	-116.849	0.700	-0.127
-143.516	67.105	0.098	-0.099
-142.502	-9.390	-0.099	0.066
-141.487	33.866	-0.208	-0.180
-140.472	52.343	0.173	-0.164
-139.458	22.740	0.222	0.180
-138.443	-25.745	-0.163	-0.096
-137.429	27.755	0.391	-0.326
-136.414	151.137	0.104	0.140
-135.399	605.483	0.080	0.197
-134.385	141.288	-0.162	0.213
-133.370	-127.050	-0.279	-0.041
-132.356	-77.396	0.080	-0.028
-131.341	-137.092	0.180	0.020
-130.326	-200.000	-0.064	0.331
-129.312	-81.119	0.141	-0.046
-128.297	144.060	-0.246	0.325
-127.283	53.903	-0.156	0.148
-126.268	-200.000	0.069	-0.477
-125.253	-179.428	-0.191	0.004
-124.239	800.000	0.067	0.248
-123.224	133.982	-0.069	0.088
-122.210	-126.568	-0.383	0.056
-121.195	311.902	-0.091	-0.169
