DTS Sentinel unit serial number:	SN413079Multiplexer serial number:	ORYXHardware model number:	OX4-SRSoftware version number:	ORYX F/W v4.00 Oryx Data Collector v3.7.2.0data status	okinstallation	princeton_trtdifferential loss correction	single-endedforward channel	channel 2reverse channel	N/Adate	2019/09/16time	15:35:35forward acquisition time	60.00reverse acquisition time	0.00gamma	496.2192k internal	0.2298k external	0.2298temperature offset calibration	0.9940default loss term (dB/km)	0.3790temperature slope calibration	1.0000multiplexer offset coefficient	1.0000multiplexer slope coefficient	1.0000fibre end	0.00T internal ref (°C)	41.14T ext. ref 1 (°C)	14.71T ext. ref 2 (°C)	36.81length (m)	temperature (°C)	Stokes	anti-Stokes-747.200	-62.558	0.393	0.166
-746.185	-200.000	-0.002	0.163
-745.171	-200.000	-0.000	0.190
-744.156	-128.495	-0.230	-0.033
-743.142	-32.939	0.379	-0.215
-742.127	14.997	0.246	-0.197
-741.112	-200.000	0.034	-0.194
-740.098	800.000	-0.149	0.422
-739.083	113.595	0.095	-0.118
-738.069	289.147	-0.082	0.152
-737.054	153.770	-0.234	-0.327
-736.039	-132.715	-0.208	0.027
-735.025	-200.000	0.018	0.148
-734.010	-200.000	-0.002	-0.166
-732.996	-200.000	0.025	-0.126
-731.981	-200.000	0.026	-0.131
-730.966	-111.680	-0.128	0.027
-729.952	-99.596	0.048	0.012
-728.937	-153.789	0.333	-0.023
-727.923	800.000	-0.073	-0.274
-726.908	-17.883	0.292	-0.187
-725.894	20.814	-0.243	-0.200
-724.879	-47.089	-0.216	0.107
-723.864	314.782	0.042	0.080
-722.850	-200.000	-0.001	0.316
-721.835	-44.655	-0.213	-0.109
-720.821	-29.369	-0.094	-0.055
-719.806	-128.526	0.069	0.010
-718.791	-95.960	-0.444	-0.121
-717.777	118.032	-0.029	0.036
-716.762	-61.019	-0.276	-0.119
-715.748	372.075	-0.094	-0.195
-714.733	22.928	0.178	-0.149
-713.718	269.933	-0.056	0.101
-712.704	-123.960	-0.058	0.009
-711.689	-66.200	0.106	-0.043
-710.675	-189.176	0.406	-0.005
-709.660	-200.000	-0.010	-0.085
-708.645	-19.985	-0.055	0.035
-707.631	-147.369	0.066	0.006
-706.616	-116.907	0.044	0.008
-705.602	89.814	0.136	-0.154
-704.587	-95.120	-0.185	0.051
-703.572	-83.751	-0.272	-0.089
-702.558	-81.664	0.150	-0.050
-701.543	-99.439	0.359	0.092
-700.529	623.159	-0.138	0.354
-699.514	-79.616	0.348	0.120
-698.499	-99.687	0.183	0.047
-697.485	113.785	0.142	0.175
-696.470	-11.718	-0.305	0.204
-695.456	63.535	0.305	0.312
-694.441	126.723	0.059	0.076
-693.426	38.905	-0.074	-0.067
-692.412	-2.105	0.024	0.017
-691.397	-200.000	0.011	0.365
-690.383	24.081	-0.217	-0.183
-689.368	-200.000	0.019	-0.167
-688.354	173.606	0.131	-0.193
-687.339	0.383	0.183	0.133
-686.324	54.767	-0.339	0.334
-685.310	-132.227	-0.296	0.039
-684.295	41.679	-0.219	-0.202
-683.281	179.572	0.059	-0.088
-682.266	41.397	-0.122	0.112
-681.251	-200.000	-0.013	-0.122
-680.237	-200.000	-0.019	-0.195
-679.222	-27.649	-0.318	0.188
-678.208	125.303	-0.210	-0.270
-677.193	420.557	-0.058	0.127
-676.178	-16.294	0.107	-0.069
-675.164	27.905	-0.298	-0.256
-674.149	-200.000	0.018	0.133
-673.135	-200.000	-0.016	0.397
-672.120	800.000	-0.111	-0.325
-671.105	-150.075	-0.172	-0.014
-670.091	421.219	-0.131	0.286
-669.076	800.000	0.037	-0.151
-668.062	-43.160	-0.073	0.038
-667.047	478.246	-0.030	-0.070
-666.032	-8.970	0.220	0.150
-665.018	800.000	0.135	-0.523
-664.003	-142.030	-0.413	-0.042
-662.989	52.518	-0.180	0.175
-661.974	260.357	-0.230	-0.404
-660.959	-200.000	0.042	-0.232
-659.945	15.481	-0.263	0.210
-658.930	-95.922	-0.142	0.039
-657.916	-83.125	0.427	-0.140
-656.901	-67.219	0.308	0.123
-655.886	418.485	0.035	-0.076
-654.872	0.693	0.045	0.033
-653.857	22.913	-0.113	-0.094
-652.843	-22.024	0.040	0.025
-651.828	109.373	-0.067	0.082
-650.814	155.905	-0.141	-0.198
-649.799	-200.000	0.013	0.119
-648.784	800.000	0.004	0.018
-647.770	-200.000	-0.032	-0.450
-646.755	338.098	-0.036	-0.071
-645.741	-142.951	-0.356	-0.035
-644.726	207.930	0.137	-0.217
-643.711	59.862	-0.037	-0.037
-642.697	-20.479	-0.141	-0.088
-641.682	-200.000	-0.014	-0.083
-640.668	-200.000	0.004	0.317
-639.653	150.183	0.127	0.175
-638.638	-0.303	-0.119	-0.086
-637.624	369.739	0.117	-0.242
-636.609	-128.662	-0.171	-0.025
-635.595	-100.561	0.451	0.113
-634.580	-131.410	-0.439	0.059
-633.565	289.682	0.107	-0.198
-632.551	-48.914	-0.365	0.178
-631.536	188.316	0.182	0.277
-630.522	-49.125	-0.239	-0.116
-629.507	-113.060	-0.206	-0.041
-628.492	-120.169	0.280	0.049
-627.478	-12.930	-0.300	-0.199
-626.463	137.022	0.157	-0.209
-625.449	-103.286	0.035	0.008
-624.434	55.921	-0.254	-0.251
-623.419	-200.000	0.010	-0.087
-622.405	632.212	0.116	0.298
-621.390	-34.620	-0.219	-0.122
-620.376	-23.107	-0.356	0.218
-619.361	61.076	0.120	0.121
-618.346	345.574	-0.043	-0.085
-617.332	183.504	-0.132	-0.199
-616.317	-79.452	0.161	-0.055
-615.303	314.333	-0.083	-0.160
-614.288	-200.000	-0.017	0.240
-613.273	-54.777	-0.046	-0.021
-612.259	-113.870	0.453	-0.089
-611.244	95.378	-0.206	0.238
-610.230	65.405	-0.110	-0.113
-609.215	-73.884	0.100	0.037
-608.201	-89.691	-0.217	-0.065
-607.186	-200.000	-0.055	0.295
-606.171	-112.421	0.422	-0.086
-605.157	262.570	-0.160	-0.281
-604.142	55.402	-0.053	0.053
-603.128	800.000	-0.081	0.258
-602.113	170.868	0.279	-0.405
-601.098	-158.986	-0.213	0.012
-600.084	42.977	-0.333	-0.308
-599.069	82.636	-0.144	0.159
-598.055	-54.664	0.326	0.150
-597.040	-72.668	0.307	-0.115
-596.025	-147.475	-0.322	0.028
-595.011	800.000	0.059	0.197
-593.996	-152.248	-0.202	-0.015
-592.982	-38.109	-0.118	-0.064
-591.967	-200.000	-0.015	0.095
-590.952	-24.266	-0.131	0.079
-589.938	-167.268	0.278	-0.011
-588.923	-172.707	-0.136	-0.004
-587.909	-15.273	-0.198	0.129
-586.894	-200.000	0.034	0.196
-585.879	-157.803	0.198	0.012
-584.865	800.000	-0.049	0.166
-583.850	-177.008	0.325	-0.008
-582.836	-43.002	-0.067	-0.034
-581.821	579.725	-0.085	0.211
-580.806	397.782	-0.041	0.087
-579.792	12.217	0.152	0.119
-578.777	-33.346	-0.069	-0.039
-577.763	93.090	-0.064	-0.074
-576.748	67.900	0.095	0.099
-575.733	323.540	0.173	-0.335
-574.719	-200.000	-0.003	-0.273
-573.704	-30.630	-0.106	0.061
-572.690	-92.728	-0.094	0.027
-571.675	31.686	-0.173	-0.151
-570.661	-67.338	-0.315	-0.125
-569.646	160.383	0.225	-0.319
-568.631	-108.134	-0.175	-0.038
-567.617	364.996	-0.071	-0.146
-566.602	19.717	0.150	0.123
-565.588	-89.215	0.278	0.083
-564.573	-23.406	0.100	-0.061
-563.558	-192.505	-0.301	0.003
-562.544	-84.030	0.430	0.139
-561.529	188.181	-0.101	-0.153
-560.515	743.387	0.056	-0.152
-559.500	-200.000	-0.039	-0.427
-558.485	-200.000	-0.025	-0.232
-557.471	-200.000	0.025	-0.549
-556.456	-82.998	-0.347	0.113
-555.442	800.000	0.118	0.454
-554.427	-200.000	-0.028	-0.196
-553.412	-11.718	-0.438	-0.291
-552.398	800.000	0.107	-0.360
-551.383	151.385	0.129	0.178
-550.369	-158.436	0.188	-0.011
-549.354	-200.000	0.029	0.166
-548.339	29.725	-0.049	-0.042
-547.325	100.607	-0.104	-0.123
-546.310	-14.866	0.229	0.149
-545.296	-110.750	0.450	0.094
-544.281	-151.599	0.230	0.017
-543.266	800.000	-0.010	0.029
-542.252	-182.413	0.239	-0.004
-541.237	74.913	-0.052	-0.055
-540.223	-39.516	0.132	-0.070
-539.208	-200.000	-0.004	-0.133
-538.193	-200.000	0.051	-0.232
-537.179	64.913	-0.068	-0.070
-536.164	-200.000	-0.013	-0.221
-535.150	-1.565	0.239	0.170
-534.135	539.973	-0.014	-0.035
-533.121	-111.256	-0.259	-0.054
-532.106	-200.000	-0.056	-0.366
-531.091	381.440	0.094	-0.195
-530.077	410.674	0.090	-0.194
-529.062	-200.000	-0.046	-0.227
-528.048	-153.789	0.109	0.008
-527.033	-60.317	-0.323	0.139
-526.018	-126.817	0.456	0.068
-525.004	-138.611	-0.099	0.011
-523.989	-171.609	-0.147	-0.005
-522.975	70.383	0.128	0.134
-521.960	207.938	-0.142	-0.225
-520.945	-21.256	-0.091	0.056
-519.931	-200.000	-0.039	0.233
-518.916	4.262	0.183	-0.136
-517.902	-200.000	0.011	0.301
-516.887	-42.125	0.208	-0.108
-515.872	800.000	0.050	0.216
-514.858	-108.376	-0.387	0.084
-513.843	-7.856	0.218	-0.149
-512.829	-77.446	0.200	0.070
-511.814	668.724	0.079	0.206
-510.799	-200.000	-0.006	0.197
-509.785	-109.130	-0.186	-0.040
-508.770	8.661	-0.009	-0.007
-507.756	34.187	0.090	0.080
-506.741	-200.000	-0.129	0.586
-505.726	-103.373	-0.664	-0.158
-504.712	-200.000	0.011	-0.163
-503.697	363.153	0.019	0.039
-502.683	241.489	-0.106	0.179
-501.668	-52.969	-0.273	-0.127
-500.653	-200.000	-0.020	-0.361
-499.639	-200.000	-0.006	-0.102
-498.624	118.430	-0.271	0.338
-497.610	519.049	-0.108	0.256
-496.595	126.588	0.163	0.209
-495.581	-25.407	0.379	-0.227
-494.566	-121.482	-0.291	0.049
-493.551	-95.445	0.190	-0.052
-492.537	-200.000	0.009	0.565
-491.522	-131.015	0.421	0.057
-490.508	-93.694	-0.093	0.026
-489.493	-168.552	0.269	0.010
-488.478	-184.663	0.230	0.004
-487.464	103.357	-0.249	0.296
-486.449	-73.528	0.252	0.093
-485.435	170.178	-0.052	-0.076
-484.420	-34.951	-0.347	0.192
-483.405	-186.197	-0.284	-0.004
-482.391	-200.000	-0.038	-0.201
-481.376	232.188	-0.117	-0.193
-480.362	32.684	-0.175	-0.153
-479.347	-200.000	-0.025	-0.223
-478.332	-45.122	0.160	-0.081
-477.318	82.538	-0.189	0.207
-476.303	89.636	-0.115	-0.129
-475.289	-83.913	-0.128	-0.041
-474.274	-24.344	-0.103	0.062
-473.259	-177.969	0.432	-0.010
-472.245	-200.000	-0.021	-0.247
-471.230	202.270	-0.077	0.121
-470.216	-200.000	-0.003	-0.088
-469.201	353.344	0.141	0.283
-468.186	113.176	0.357	-0.437
-467.172	800.000	0.197	-0.564
-466.157	-88.445	-0.136	-0.041
-465.143	11.406	0.127	0.098
-464.128	-200.000	0.008	-0.151
-463.113	-200.000	-0.022	-0.129
-462.099	-135.787	0.181	-0.022
-461.084	111.111	0.224	-0.272
-460.070	106.501	0.089	0.106
-459.055	-200.000	-0.048	-0.247
-458.040	421.568	-0.134	-0.291
-457.026	-200.000	0.002	-0.038
-456.011	-40.964	0.101	0.053
-454.997	124.889	-0.103	0.130
-453.982	-93.882	-0.042	0.012
-452.968	-121.896	0.271	0.045
-451.953	-66.661	0.137	0.055
-450.938	-69.730	-0.156	-0.060
-449.924	-200.000	-0.020	-0.163
-448.909	78.363	-0.080	-0.086
-447.895	-46.071	-0.237	-0.118
-446.880	231.801	-0.048	-0.079
-445.865	-200.000	0.017	0.163
-444.851	427.940	-0.133	0.289
-443.836	21.256	-0.090	0.074
-442.822	7.166	-0.055	-0.042
-441.807	154.198	0.103	0.143
-440.792	-64.269	-0.227	-0.093
-439.778	475.147	0.092	-0.210
-438.763	88.876	-0.102	-0.114
-437.749	-90.608	-0.333	0.097
-436.734	-12.005	0.089	0.059
-435.719	-52.517	0.200	-0.093
-434.705	-22.852	-0.217	-0.132
-433.690	-32.304	0.090	-0.050
-432.676	-200.000	-0.004	-0.075
-431.661	-200.000	0.073	-0.369
-430.646	-65.003	-0.104	0.042
-429.632	117.600	-0.144	-0.179
-428.617	128.655	-0.039	-0.050
-427.603	-128.961	-0.390	-0.055
-426.588	-87.296	0.113	0.035
-425.573	-62.593	-0.150	0.063
-424.559	29.089	-0.140	0.120
-423.544	732.675	-0.061	0.164
-422.530	-102.387	-0.244	0.059
-421.515	-200.000	0.010	-0.254
-420.500	71.967	0.330	-0.346
-419.486	-58.616	0.266	-0.116
-418.471	184.427	0.174	0.260
-417.457	183.518	-0.087	-0.129
-416.442	-200.000	0.053	0.288
-415.428	31.216	-0.307	0.265
-414.413	105.886	0.187	0.222
-413.398	0.204	0.049	0.035
-412.384	282.831	0.039	-0.071
-411.369	800.000	-0.163	0.517
-410.355	-130.492	0.219	0.030
-409.340	-105.421	0.180	-0.041
-408.325	-200.000	-0.013	-0.150
-407.311	142.953	0.308	-0.412
-406.296	-112.597	-0.154	-0.031
-405.282	688.319	-0.086	-0.225
-404.267	800.000	0.063	0.225
-403.252	625.413	0.087	-0.221
-402.238	-89.433	0.319	-0.094
-401.223	-61.945	-0.230	-0.097
-400.209	50.141	0.352	0.334
-399.194	-61.421	-0.171	0.072
-398.179	125.598	0.156	0.198
-397.165	-31.695	0.085	0.048
-396.150	-158.456	0.179	-0.010
-395.136	-200.000	-0.019	0.102
-394.121	178.306	-0.080	-0.117
-393.106	10.274	0.186	-0.142
-392.092	-200.000	-0.039	-0.252
-391.077	43.814	-0.072	-0.066
-390.063	-37.301	0.235	-0.126
-389.048	-147.552	-0.061	-0.005
-388.033	-25.855	0.273	0.162
-387.019	-200.000	0.049	-0.271
-386.004	800.000	-0.061	0.256
-384.990	471.887	-0.061	0.138
-383.975	-94.916	-0.217	-0.059
-382.960	800.000	0.021	0.071
-381.946	235.387	0.031	0.051
-380.931	-200.000	-0.049	0.449
-379.917	199.274	0.130	-0.201
-378.902	51.424	-0.039	-0.038
-377.888	-143.164	0.300	0.029
-376.873	277.412	-0.062	-0.112
-375.858	31.092	-0.020	0.017
-374.844	159.609	-0.204	0.285
-373.829	-179.721	-0.404	-0.009
-372.815	349.246	0.090	-0.178
-371.800	-46.345	-0.168	0.083
-370.785	198.740	-0.079	0.122
-369.771	800.000	-0.046	0.184
-368.756	210.605	0.119	0.188
-367.742	88.616	0.118	0.132
-366.727	-52.529	-0.195	0.091
-365.712	-200.000	0.036	-0.290
-364.698	178.079	-0.070	-0.103
-363.683	63.344	-0.080	0.080
-362.669	-14.610	0.174	0.112
-361.654	190.046	0.253	-0.382
-360.639	187.629	0.137	-0.205
-359.625	530.678	-0.041	0.098
-358.610	193.131	0.028	0.043
-357.596	144.527	0.193	0.260
-356.581	681.819	-0.013	-0.034
-355.566	-31.073	0.306	-0.174
-354.552	-200.000	-0.009	-0.129
-353.537	-151.224	-0.264	0.020
-352.523	-52.286	0.111	0.052
-351.508	151.765	-0.207	0.284
-350.493	800.000	-0.050	0.188
-349.479	-200.000	0.009	0.153
-348.464	-200.000	-0.002	0.146
-347.450	1.885	-0.244	-0.177
-346.435	800.000	0.016	0.066
-345.420	30.106	0.106	0.091
-344.406	-200.000	0.044	0.329
-343.391	-143.265	0.221	0.021
-342.377	-127.842	0.169	-0.024
-341.362	-14.114	0.290	-0.188
-340.348	-8.598	-0.143	0.097
-339.333	-3.561	-0.079	0.055
-338.318	-104.432	0.200	-0.046
-337.304	257.563	-0.169	0.291
-336.289	-200.000	-0.041	0.300
-335.275	800.000	-0.098	0.372
-334.260	-108.190	0.091	0.020
-333.245	800.000	-0.041	-0.137
-332.231	53.319	-0.194	-0.187
-331.216	-26.659	0.362	-0.213
-330.202	800.000	-0.112	0.322
-329.187	-41.940	-0.153	-0.079
-328.172	800.000	0.026	0.087
-327.158	405.809	0.124	0.262
-326.143	795.241	0.040	0.109
-325.129	800.000	0.080	0.332
-324.114	339.008	-0.067	0.132
-323.099	16.848	-0.069	0.055
-322.085	-5.920	0.282	0.194
-321.070	163.488	-0.112	-0.158
-320.056	310.979	-0.119	0.223
-319.041	-200.000	-0.034	0.363
-318.026	-133.806	-0.132	0.016
-317.012	-68.801	0.152	-0.059
-315.997	-151.812	0.117	0.009
-314.983	7.614	-0.111	0.084
-313.968	-14.536	0.348	0.225
-312.953	-200.000	-0.009	0.386
-311.939	186.593	0.040	-0.060
-310.924	-88.527	0.393	-0.118
-309.910	-92.400	0.241	0.068
-308.895	-75.772	0.196	0.070
-307.880	327.960	0.108	0.209
-306.866	21.692	0.135	0.110
-305.851	400.031	0.116	0.243
-304.837	-35.621	-0.072	-0.039
-303.822	58.270	0.189	-0.186
-302.807	186.189	-0.042	-0.063
-301.793	-200.000	-0.011	0.288
-300.778	464.170	0.093	-0.208
-299.764	-19.637	0.319	-0.198
-298.749	5.744	0.203	0.151
-297.735	-53.069	-0.138	0.064
-296.720	-200.000	-0.015	0.520
-295.705	541.650	0.093	-0.222
-294.691	-200.000	0.042	-0.196
-293.676	-87.543	0.206	0.062
-292.662	-89.699	0.299	-0.088
-291.647	81.305	-0.179	-0.195
-290.632	-47.256	-0.187	-0.091
-289.618	-73.190	0.405	0.149
-288.603	-69.751	0.068	0.026
-287.589	-200.000	-0.022	0.459
-286.574	-50.915	0.094	-0.044
-285.559	2.887	-0.233	-0.169
-284.545	-23.716	-0.263	-0.158
-283.530	-47.979	-0.317	0.154
-282.516	-98.423	0.385	0.099
-281.501	-138.236	-0.190	0.021
-280.486	-109.721	-0.212	0.045
-279.472	677.111	-0.049	0.128
-278.457	37.767	-0.167	-0.148
-277.443	-50.020	-0.029	-0.014
-276.428	-85.157	-0.089	-0.028
-275.413	800.000	0.075	-0.211
-274.399	400.169	0.206	-0.434
-273.384	186.384	0.118	0.176
-272.370	113.688	0.088	-0.107
-271.355	6.912	-0.130	0.097
-270.340	-181.782	0.207	0.004
-269.326	-200.000	-0.020	0.305
-268.311	-110.790	-0.267	-0.055
-267.297	43.566	-0.061	0.056
-266.282	-140.612	0.027	-0.003
-265.267	302.926	-0.149	-0.276
-264.253	88.192	-0.172	0.191
-263.238	-32.387	-0.127	-0.071
-262.224	-176.281	0.402	0.011
-261.209	-129.217	0.152	-0.021
-260.195	-89.952	-0.243	0.071
-259.180	800.000	0.004	0.014
-258.165	-87.344	0.290	0.088
-257.151	110.296	-0.152	-0.183
-256.136	-115.419	-0.152	-0.029
-255.122	800.000	-0.070	0.281
-254.107	19.159	-0.215	-0.173
-253.092	-200.000	-0.029	0.261
-252.078	-2.436	-0.164	-0.115
-251.063	289.022	0.128	0.232
-250.049	-182.910	-0.131	0.002
-249.034	7.577	0.165	0.124
-248.019	-200.000	0.011	0.162
-247.005	-100.297	0.340	-0.084
-245.990	274.284	-0.181	0.320
-244.976	-24.237	0.202	0.121
-243.961	-200.000	0.059	0.292
-242.946	270.071	-0.214	-0.377
-241.932	11.083	-0.139	0.106
-240.917	800.000	0.029	0.080
-239.903	-124.101	0.126	-0.020
-238.888	-3.921	-0.115	0.080
-237.873	71.843	-0.280	-0.292
-236.859	-73.583	0.138	0.050
-235.844	47.508	0.143	-0.134
-234.830	232.248	0.178	0.293
-233.815	-200.000	-0.007	0.299
-232.800	214.257	-0.138	-0.218
-231.786	-52.154	-0.257	-0.119
-230.771	485.944	-0.150	-0.343
-229.757	-16.610	0.069	0.044
-228.742	306.978	0.035	-0.065
-227.727	417.800	-0.142	0.303
-226.713	-98.134	0.126	-0.032
-225.698	407.587	-0.096	0.204
-224.684	14.925	-0.212	0.166
-223.669	259.477	0.091	0.157
-222.655	679.051	-0.011	-0.029
-221.640	-49.386	-0.132	0.063
-220.625	-200.000	-0.042	-0.189
-219.611	186.656	0.084	0.125
-218.596	83.040	0.107	-0.116
-217.582	2.076	-0.272	0.196
-216.567	405.978	-0.209	0.441
-215.552	243.016	-0.065	0.108
-214.538	340.064	-0.055	-0.106
-213.523	-95.635	-0.141	0.038
-212.509	240.121	0.127	0.211
-211.494	106.171	-0.292	-0.346
-210.479	-153.027	0.080	-0.006
-209.465	-53.648	-0.212	0.097
-208.450	800.000	0.058	-0.166
-207.436	101.768	-0.191	-0.223
-206.421	90.350	-0.044	-0.050
-205.406	27.172	0.067	-0.056
-204.392	22.133	-0.378	-0.308
-203.377	49.982	-0.118	0.111
-202.363	477.446	0.190	-0.429
-201.348	469.894	0.118	0.265
-200.333	-200.000	0.011	0.257
-199.319	-200.000	-0.039	0.240
-198.304	199.881	0.067	0.103
-197.290	-35.177	-0.206	0.112
-196.275	-99.427	-0.138	0.035
-195.260	-59.344	-0.062	-0.027
-194.246	88.756	-0.093	-0.103
-193.231	-128.002	-0.213	0.031
-192.217	31.287	-0.068	-0.059
-191.202	-12.636	0.083	0.054
-190.187	-32.011	0.239	-0.133
-189.173	94.254	-0.068	-0.077
-188.158	406.989	0.177	-0.374
-187.144	43.033	0.019	-0.018
-186.129	-200.000	-0.087	0.435
-185.114	-55.347	-0.200	-0.090
-184.100	800.000	-0.057	0.244
-183.085	333.674	-0.103	0.200
-182.071	-4.330	-0.130	0.090
-181.056	-105.389	0.245	0.056
-180.042	-200.000	0.036	0.218
-179.027	400.018	-0.161	-0.338
-178.012	-200.000	0.013	-0.409
-176.998	-44.240	0.285	-0.142
-175.983	-34.294	0.065	-0.036
-174.969	800.000	-0.068	-0.217
-173.954	-189.336	0.099	-0.001
-172.939	430.830	-0.071	-0.152
-171.925	7.749	0.115	-0.086
-170.910	49.105	-0.205	-0.193
-169.896	69.597	0.086	-0.088
-168.881	216.365	0.071	-0.112
-167.866	-200.000	-0.007	-0.141
-166.852	-200.000	0.017	0.376
-165.837	-108.971	0.102	0.022
-164.823	46.113	-0.074	-0.069
-163.808	177.732	-0.085	-0.124
-162.793	-27.942	0.170	0.098
-161.779	-34.737	0.107	0.058
-160.764	611.030	0.077	-0.193
-159.750	-85.059	0.257	0.080
-158.735	-200.000	0.006	-0.563
-157.720	63.951	0.155	-0.155
-156.706	-55.972	-0.183	-0.081
-155.691	393.888	-0.043	0.088
-154.677	-200.000	-0.008	0.108
-153.662	-155.492	0.189	-0.012
-152.647	233.718	0.106	-0.174
-151.633	-200.000	-0.025	-0.304
-150.618	-200.000	0.032	0.616
-149.604	-40.654	-0.092	-0.047
-148.589	16.824	0.170	-0.134
-147.574	-12.582	-0.182	0.118
-146.560	800.000	-0.023	0.082
-145.545	-200.000	-0.011	-0.261
-144.531	-200.000	0.038	-0.310
-143.516	485.908	0.077	-0.174
-142.502	-200.000	0.027	0.174
-141.487	-167.570	-0.104	-0.004
-140.472	800.000	0.042	-0.181
-139.458	436.711	0.117	-0.255
-138.443	-77.284	0.120	0.042
-137.429	-200.000	-0.035	0.232
-136.414	-71.372	0.194	-0.073
-135.399	248.898	-0.169	-0.285
-134.385	-106.797	0.226	-0.050
-133.370	-119.572	0.348	0.060
-132.356	366.720	0.149	0.299
-131.341	-91.383	-0.392	-0.112
-130.326	-45.482	-0.070	-0.035
-129.312	147.234	0.095	-0.127
-128.297	29.114	-0.169	-0.143
-127.283	-200.000	0.010	0.300
-126.268	-78.759	0.100	0.034
-125.253	-200.000	0.076	0.407
-124.239	-200.000	0.009	-0.055
-123.224	800.000	-0.051	0.150
-122.210	-84.728	-0.452	0.142
