DTS Sentinel unit serial number:	SN413079Multiplexer serial number:	ORYXHardware model number:	OX4-SRSoftware version number:	ORYX F/W v4.00 Oryx Data Collector v3.7.2.0data status	okinstallation	princeton_trtdifferential loss correction	single-endedforward channel	channel 2reverse channel	N/Adate	2019/09/12time	12:05:11forward acquisition time	60.00reverse acquisition time	0.00gamma	496.2192k internal	0.2299k external	0.2299temperature offset calibration	1.0077default loss term (dB/km)	0.3790temperature slope calibration	1.0000multiplexer offset coefficient	1.0000multiplexer slope coefficient	1.0000fibre end	0.00T internal ref (°C)	40.48T ext. ref 1 (°C)	2.04T ext. ref 2 (°C)	37.34length (m)	temperature (°C)	Stokes	anti-Stokes-747.200	-120.002	0.337	0.059
-746.185	-105.034	-0.209	0.049
-745.171	164.887	0.264	0.380
-744.156	105.571	0.200	0.241
-743.142	101.410	-0.046	0.055
-742.127	-150.958	0.297	0.023
-741.112	-200.000	0.037	0.242
-740.098	800.000	-0.130	0.443
-739.083	-200.000	-0.010	0.100
-738.069	242.967	0.050	0.085
-737.054	-102.449	0.068	0.017
-736.039	-95.272	-0.426	0.117
-735.025	311.505	0.111	0.213
-734.010	-200.000	0.015	-0.189
-732.996	-40.210	0.012	-0.006
-731.981	-200.000	0.053	0.297
-730.966	677.185	0.121	0.321
-729.952	-160.875	-0.498	0.027
-728.937	119.903	-0.108	0.137
-727.923	64.620	0.347	-0.357
-726.908	100.897	-0.100	-0.119
-725.894	-40.116	0.265	0.141
-724.879	-200.000	0.020	0.130
-723.864	88.290	0.049	0.055
-722.850	-18.935	0.146	-0.092
-721.835	3.647	-0.209	-0.155
-720.821	142.800	-0.044	0.059
-719.806	-200.000	0.007	0.135
-718.791	-75.765	-0.155	0.056
-717.777	343.255	0.077	-0.153
-716.762	-200.000	-0.198	-0.000
-715.748	-89.568	-0.365	0.109
-714.733	-163.314	0.244	-0.012
-713.718	191.684	-0.089	-0.136
-712.704	800.000	0.054	-0.168
-711.689	243.158	-0.155	-0.265
-710.675	0.006	0.045	0.032
-709.660	-59.795	-0.456	0.199
-708.645	-139.903	0.476	-0.051
-707.631	-70.405	-0.165	0.064
-706.616	-200.000	-0.001	-0.005
-705.602	-2.679	-0.050	0.036
-704.587	-147.261	0.125	0.011
-703.572	-63.676	0.059	-0.025
-702.558	-118.058	0.148	0.027
-701.543	-131.685	0.401	-0.054
-700.529	48.163	-0.301	-0.287
-699.514	-102.768	-0.336	-0.082
-698.499	477.616	0.032	-0.075
-697.485	-65.463	-0.207	0.085
-696.470	-200.000	-0.039	0.264
-695.456	-79.835	-0.400	-0.137
-694.441	-167.182	0.370	-0.015
-693.426	146.927	-0.092	-0.126
-692.412	107.807	0.076	0.093
-691.397	-171.296	0.332	0.011
-690.383	483.020	0.159	-0.367
-689.368	313.561	0.113	-0.216
-688.354	-51.534	0.033	-0.016
-687.339	-200.000	0.035	0.245
-686.324	501.791	-0.028	-0.065
-685.310	-191.637	-0.155	0.002
-684.295	160.918	-0.077	-0.109
-683.281	800.000	0.034	-0.137
-682.266	-200.000	0.007	0.088
-681.251	49.395	0.234	-0.224
-680.237	40.066	0.286	0.262
-679.222	-85.331	0.045	0.014
-678.208	-200.000	0.049	-0.257
-677.193	680.112	0.046	-0.122
-676.178	-37.761	-0.261	0.141
-675.164	57.523	-0.066	0.065
-674.149	800.000	0.071	0.229
-673.135	608.004	-0.106	0.269
-672.120	-148.571	0.366	0.030
-671.105	49.867	0.130	-0.125
-670.091	67.978	-0.051	-0.054
-669.076	637.686	0.110	0.285
-668.062	-109.341	0.172	-0.037
-667.047	-200.000	-0.011	0.157
-666.032	-26.479	0.089	-0.053
-665.018	-58.543	0.325	-0.143
-664.003	-128.805	0.171	0.024
-662.989	607.778	-0.166	-0.422
-661.974	624.026	0.106	-0.273
-660.959	-134.092	-0.068	-0.009
-659.945	-200.000	0.031	-0.425
-658.930	27.182	0.086	-0.073
-657.916	370.374	-0.091	-0.187
-656.901	431.176	-0.095	0.208
-655.886	-33.658	-0.124	-0.070
-654.872	51.854	-0.206	-0.200
-653.857	800.000	0.049	0.185
-652.843	-134.751	-0.133	-0.016
-651.828	-200.000	-0.093	-0.473
-650.814	800.000	0.033	-0.145
-649.799	12.484	-0.041	-0.032
-648.784	-88.394	0.337	0.102
-647.770	800.000	0.055	-0.170
-646.755	-52.330	-0.246	0.116
-645.741	705.376	-0.088	-0.236
-644.726	-163.902	0.208	0.010
-643.711	-150.152	-0.572	-0.045
-642.697	-92.394	0.236	-0.068
-641.682	800.000	-0.075	-0.278
-640.668	800.000	-0.076	-0.319
-639.653	-200.000	-0.012	0.062
-638.638	-200.000	-0.018	-0.229
-637.624	-96.116	0.214	-0.058
-636.609	800.000	-0.012	-0.053
-635.595	-146.595	-0.070	0.006
-634.580	462.585	0.016	-0.037
-633.565	800.000	0.070	-0.236
-632.551	-200.000	0.006	0.177
-631.536	-127.938	0.248	0.036
-630.522	-115.746	0.363	-0.069
-629.507	127.540	-0.101	0.130
-628.492	34.945	-0.128	0.114
-627.478	800.000	0.028	0.082
-626.463	-154.112	-0.346	0.024
-625.449	-134.120	0.025	-0.003
-624.434	-92.040	0.300	-0.086
-623.419	-200.000	0.015	0.167
-622.405	-97.501	-0.227	0.060
-621.390	-200.000	0.004	0.074
-620.376	5.165	-0.102	0.076
-619.361	82.338	0.278	0.306
-618.346	-200.000	-0.039	-0.244
-617.332	-200.000	-0.012	0.156
-616.317	84.238	0.065	-0.073
-615.303	-62.299	-0.290	0.123
-614.288	-65.036	-0.333	0.136
-613.273	-200.000	-0.055	0.273
-612.259	800.000	0.031	-0.111
-611.244	174.916	0.205	0.301
-610.230	-154.331	-0.092	0.006
-609.215	235.502	-0.094	0.158
-608.201	-25.637	0.320	0.192
-607.186	609.439	-0.042	-0.107
-606.171	14.205	-0.178	0.141
-605.157	44.607	0.204	0.191
-604.142	105.274	0.261	0.313
-603.128	-119.551	0.117	0.021
-602.113	36.418	0.200	-0.179
-601.098	-59.279	0.132	0.058
-600.084	-17.421	0.173	-0.110
-599.069	110.841	-0.113	0.138
-598.055	800.000	-0.101	0.300
-597.040	237.914	0.033	-0.056
-596.025	109.058	-0.030	0.036
-595.011	155.069	0.287	0.401
-593.996	-136.246	-0.145	0.017
-592.982	46.006	0.083	-0.078
-591.967	-163.470	-0.362	0.017
-590.952	800.000	-0.174	0.494
-589.938	112.994	0.059	0.073
-588.923	-12.814	-0.137	-0.091
-587.909	-200.000	0.027	-0.123
-586.894	-200.000	-0.024	0.205
-585.879	14.395	-0.032	0.025
-584.865	-27.942	-0.244	-0.143
-583.850	-107.175	-0.164	-0.037
-582.836	-55.426	-0.294	0.134
-581.821	47.883	-0.148	-0.140
-580.806	192.818	0.190	0.291
-579.792	56.242	-0.231	0.228
-578.777	-74.800	-0.244	0.089
-577.763	-19.196	0.267	0.168
-576.748	371.012	-0.149	-0.306
-575.733	-200.000	0.020	0.303
-574.719	107.199	0.093	-0.112
-573.704	80.601	-0.091	0.099
-572.690	-50.124	-0.078	0.038
-571.675	55.347	-0.173	-0.169
-570.661	-126.928	0.262	0.039
-569.646	147.271	0.194	-0.265
-568.631	-144.447	-0.172	0.016
-567.617	-200.000	0.006	0.343
-566.602	454.377	0.030	-0.066
-565.588	-0.098	0.077	0.056
-564.573	-200.000	0.015	-0.184
-563.558	-187.660	-0.127	-0.002
-562.544	-173.616	0.078	0.002
-561.529	313.751	-0.086	0.164
-560.515	-7.206	0.177	-0.121
-559.500	-124.856	0.234	0.037
-558.485	654.556	-0.175	-0.456
-557.471	29.434	-0.285	0.245
-556.456	751.271	-0.126	-0.345
-555.442	309.420	0.163	0.308
-554.427	347.192	0.141	-0.281
-553.412	379.988	-0.040	0.083
-552.398	94.796	-0.067	0.078
-551.383	94.978	0.167	0.193
-550.369	344.190	0.090	-0.179
-549.354	-99.561	-0.282	0.072
-548.339	27.384	0.185	-0.157
-547.325	-200.000	0.015	0.277
-546.310	-24.053	-0.185	0.112
-545.296	26.987	0.305	-0.259
-544.281	-65.880	0.190	0.077
-543.266	76.848	0.148	-0.159
-542.252	800.000	0.020	-0.084
-541.237	-37.504	0.120	0.065
-540.223	410.604	-0.056	-0.120
-539.208	800.000	0.053	-0.149
-538.193	-160.700	-0.306	0.016
-537.179	-200.000	0.008	0.197
-536.164	415.855	-0.071	-0.154
-535.150	16.431	-0.082	-0.065
-534.135	321.184	0.126	-0.242
-533.121	-76.712	0.171	0.061
-532.106	-24.000	0.114	-0.069
-531.091	-60.837	-0.118	0.051
-530.077	-54.162	0.259	-0.119
-529.062	-55.728	-0.165	0.075
-528.048	800.000	-0.101	0.352
-527.033	186.056	-0.124	0.187
-526.018	49.671	-0.393	0.374
-525.004	603.748	-0.075	-0.189
-523.989	-200.000	0.017	-0.083
-522.975	-151.699	-0.538	-0.040
-521.960	800.000	-0.087	-0.247
-520.945	-171.425	-0.270	-0.009
-519.931	-200.000	-0.009	0.373
-518.916	-146.736	0.235	0.021
-517.902	-1.388	-0.311	0.222
-516.887	-28.014	0.103	-0.060
-515.872	48.263	-0.177	0.168
-514.858	-50.338	0.259	-0.124
-513.843	-200.000	0.061	-0.326
-512.829	7.650	-0.164	-0.124
-511.814	-122.669	-0.195	-0.032
-510.799	-200.000	-0.188	-0.001
-509.785	-200.000	-0.001	-0.078
-508.770	-75.972	0.247	0.088
-507.756	-200.000	-0.038	0.254
-506.741	309.128	0.212	0.401
-505.726	-110.687	-0.072	0.015
-504.712	-200.000	-0.005	0.057
-503.697	-40.432	-0.309	0.162
-502.683	-49.965	0.098	-0.047
-501.668	-200.000	-0.030	-0.380
-500.653	188.479	0.088	-0.133
-499.639	8.617	0.193	-0.147
-498.624	800.000	-0.070	0.199
-497.610	147.111	-0.276	-0.375
-496.595	-108.648	-0.238	-0.052
-495.581	-24.371	-0.128	0.077
-494.566	-16.576	-0.092	0.059
-493.551	56.113	0.088	0.086
-492.537	-200.000	0.086	-0.500
-491.522	557.117	0.055	-0.133
-490.508	332.880	0.017	0.033
-489.493	-200.000	0.016	-0.272
-488.478	-200.000	0.009	-0.183
-487.464	-7.327	-0.374	0.256
-486.449	681.862	-0.172	0.453
-485.435	25.285	-0.231	-0.194
-484.420	-200.000	-0.130	0.668
-483.405	395.003	-0.115	-0.242
-482.391	-190.508	-0.496	0.005
-481.376	-132.647	-0.192	0.025
-480.362	-200.000	0.021	0.180
-479.347	-78.894	-0.025	-0.009
-478.332	-27.521	0.335	-0.197
-477.318	12.075	-0.230	-0.179
-476.303	-32.206	-0.281	-0.159
-475.289	-34.271	0.182	-0.101
-474.274	-200.000	0.018	-0.095
-473.259	9.395	0.372	-0.284
-472.245	-30.383	0.246	0.141
-471.230	19.392	-0.372	0.301
-470.216	-134.682	0.256	-0.032
-469.201	-200.000	0.029	0.181
-468.186	-181.145	-0.181	0.004
-467.172	-72.099	-0.111	-0.042
-466.157	-46.100	-0.058	-0.029
-465.143	439.082	-0.081	-0.179
-464.128	-187.876	0.243	0.003
-463.113	800.000	-0.003	-0.012
-462.099	-109.641	0.193	-0.041
-461.084	461.052	0.126	-0.283
-460.070	796.342	-0.132	-0.366
-459.055	-200.000	0.043	-0.260
-458.040	507.967	-0.038	-0.089
-457.026	-200.000	0.007	-0.042
-456.011	-17.432	0.194	0.123
-454.997	61.223	0.109	0.109
-453.982	33.476	0.246	0.216
-452.968	-36.227	-0.294	0.160
-451.953	800.000	-0.054	-0.226
-450.938	38.576	-0.283	0.254
-449.924	-75.971	-0.293	0.105
-448.909	-200.000	-0.012	-0.192
-447.895	289.461	-0.073	-0.133
-446.880	-200.000	0.003	0.083
-445.865	49.035	0.024	-0.023
-444.851	436.266	0.122	-0.267
-443.836	512.783	-0.070	-0.163
-442.822	-200.000	-0.016	-0.152
-441.807	800.000	-0.033	-0.140
-440.792	800.000	-0.133	0.459
-439.778	56.959	0.081	0.080
-438.763	-200.000	0.009	0.192
-437.749	-100.466	0.215	-0.054
-436.734	-200.000	0.084	-0.442
-435.719	-200.000	-0.063	0.377
-434.705	-16.522	0.179	0.114
-433.690	-28.251	-0.216	0.126
-432.676	-109.306	0.439	-0.094
-431.661	800.000	0.019	-0.072
-430.646	-200.000	0.043	-0.207
-429.632	800.000	-0.025	0.086
-428.617	417.508	0.224	-0.481
-427.603	-64.590	0.301	0.123
-426.588	1.286	0.243	0.176
-425.573	161.578	-0.204	-0.287
-424.559	-79.561	-0.120	0.041
-423.544	-125.728	0.322	0.049
-422.530	149.262	0.101	-0.138
-421.515	153.414	-0.041	-0.056
-420.500	800.000	0.058	-0.196
-419.486	-33.271	0.317	-0.177
-418.471	-117.713	-0.188	-0.034
-417.457	-73.439	0.199	0.073
-416.442	-200.000	-0.023	-0.162
-415.428	88.316	0.073	-0.082
-414.413	282.861	0.105	0.189
-413.398	-77.062	0.248	0.087
-412.384	-63.449	0.218	-0.090
-411.369	101.933	0.098	0.116
-410.355	293.166	0.092	-0.170
-409.340	800.000	-0.115	0.367
-408.325	-119.985	0.085	0.015
-407.311	-173.181	0.175	-0.005
-406.296	3.146	0.334	0.245
-405.282	-52.774	0.224	0.104
-404.267	314.970	-0.117	0.223
-403.252	-200.000	0.055	0.317
-402.238	800.000	-0.099	0.332
-401.223	-200.000	0.033	-0.218
-400.209	87.848	0.115	0.128
-399.194	-200.000	0.005	0.183
-398.179	169.260	-0.085	-0.123
-397.165	188.131	0.050	-0.075
-396.150	-22.158	0.156	-0.095
-395.136	-74.905	-0.237	0.086
-394.121	-13.413	0.249	0.162
-393.106	-184.520	-0.231	-0.004
-392.092	-29.883	0.246	-0.141
-391.077	-190.009	0.375	0.004
-390.063	307.715	0.011	0.021
-389.048	-200.000	0.013	-0.220
-388.033	-109.908	0.206	-0.043
-387.019	800.000	-0.034	-0.142
-386.004	800.000	0.010	-0.039
-384.990	800.000	-0.061	0.192
-383.975	-111.311	0.094	0.019
-382.960	-125.058	-0.416	0.064
-381.946	-113.148	-0.095	0.019
-380.931	79.100	-0.110	-0.118
-379.917	-200.000	0.060	-0.345
-378.902	328.603	-0.043	0.083
-377.888	111.001	0.133	0.161
-376.873	800.000	-0.091	-0.312
-375.858	645.060	-0.042	-0.107
-374.844	800.000	-0.043	-0.124
-373.829	340.905	-0.145	0.284
-372.815	371.254	0.137	-0.280
-371.800	-71.139	0.325	-0.123
-370.785	-105.977	0.268	-0.061
-369.771	194.393	-0.113	-0.172
-368.756	196.889	0.203	-0.311
-367.742	-193.301	0.083	0.001
-366.727	442.182	-0.080	-0.175
-365.712	-6.821	0.078	-0.054
-364.698	417.792	0.128	0.274
-363.683	-14.588	-0.082	-0.053
-362.669	270.658	0.093	0.165
-361.654	-95.065	0.278	0.075
-360.639	52.944	0.145	0.140
-359.625	-40.090	-0.265	-0.139
-358.610	-200.000	0.065	-0.349
-357.596	60.867	0.201	-0.201
-356.581	-168.095	0.320	-0.013
-355.566	-8.083	-0.254	0.172
-354.552	115.625	-0.186	0.229
-353.537	-58.029	0.248	0.109
-352.523	131.908	-0.075	0.097
-351.508	-118.507	-0.210	-0.037
-350.493	-200.000	-0.004	-0.232
-349.479	-143.036	-0.240	-0.023
-348.464	-151.344	-0.179	0.013
-347.450	6.876	0.210	-0.157
-346.435	-47.421	0.360	-0.176
-345.420	155.711	-0.175	-0.242
-344.406	-87.837	-0.321	0.097
-343.391	-200.000	-0.021	0.099
-342.377	-177.410	-0.244	0.006
-341.362	168.160	0.087	-0.124
-340.348	800.000	-0.045	-0.145
-339.333	-52.552	0.100	0.046
-338.318	120.012	0.014	0.018
-337.304	160.810	0.152	0.213
-336.289	-73.528	-0.057	-0.021
-335.275	-130.019	-0.070	-0.010
-334.260	-82.866	-0.201	-0.065
-333.245	38.203	-0.267	0.239
-332.231	-95.203	0.104	-0.028
-331.216	87.176	-0.136	0.151
-330.202	800.000	0.030	-0.099
-329.187	-51.090	-0.298	0.140
-328.172	-72.136	-0.108	0.040
-327.158	566.315	-0.070	-0.169
-326.143	236.301	-0.170	-0.282
-325.129	-64.877	0.225	-0.091
-324.114	162.646	0.073	-0.103
-323.099	-12.093	-0.106	0.070
-322.085	170.973	0.035	0.050
-321.070	399.885	0.111	-0.233
-320.056	332.183	-0.156	-0.302
-319.041	390.579	-0.117	0.245
-318.026	5.698	-0.246	-0.182
-317.012	-61.447	-0.220	-0.093
-315.997	-26.656	0.122	0.072
-314.983	-200.000	0.014	0.091
-313.968	176.316	-0.057	-0.082
-312.953	-26.381	0.140	0.083
-311.939	190.307	0.076	0.114
-310.924	-45.563	-0.372	0.185
-309.910	-200.000	0.023	0.118
-308.895	132.218	-0.204	0.264
-307.880	-27.370	0.045	-0.026
-306.866	-124.768	0.286	-0.044
-305.851	-143.320	-0.519	0.050
-304.837	50.789	-0.210	-0.199
-303.822	-166.068	0.259	0.011
-302.807	-200.000	0.008	0.125
-301.793	-120.873	-0.265	0.045
-300.778	19.749	0.157	0.127
-299.764	-120.709	-0.245	0.042
-298.749	-200.000	0.033	0.269
-297.735	-200.000	0.009	0.121
-296.720	232.434	0.035	0.057
-295.705	-115.406	0.141	-0.027
-294.691	800.000	-0.095	0.301
-293.676	627.478	-0.027	0.069
-292.662	131.301	-0.076	0.098
-291.647	326.165	0.067	0.129
-290.632	539.661	-0.006	-0.014
-289.618	93.810	0.153	0.174
-288.603	-134.417	-0.173	-0.021
-287.589	243.505	-0.148	-0.249
-286.574	77.097	0.143	0.152
-285.559	45.561	0.133	-0.123
-284.545	413.543	-0.145	-0.310
-283.530	-49.623	-0.226	-0.108
-282.516	-151.727	-0.209	0.015
-281.501	569.956	-0.169	0.412
-280.486	67.846	-0.241	0.246
-279.472	6.463	-0.256	-0.191
-278.457	-70.426	0.231	-0.088
-277.443	-147.879	0.171	0.014
-276.428	198.347	-0.035	-0.054
-275.413	446.664	0.146	0.322
-274.399	-39.369	0.393	0.207
-273.384	275.420	0.145	0.258
-272.370	-153.208	0.186	0.013
-271.355	-25.167	0.135	-0.080
-270.340	-200.000	-0.095	0.435
-269.326	800.000	0.024	0.082
-268.311	174.972	0.113	0.164
-267.297	-200.000	0.073	0.347
-266.282	-117.162	-0.230	-0.042
-265.267	-48.376	0.199	0.096
-264.253	-44.233	0.202	-0.101
-263.238	549.973	-0.160	-0.384
-262.224	103.860	-0.231	-0.272
-261.209	21.830	-0.100	-0.082
-260.195	-32.084	0.262	0.147
-259.180	800.000	-0.204	0.577
-258.165	-200.000	0.038	0.322
-257.151	6.933	0.197	-0.147
-256.136	-184.898	0.375	-0.006
-255.122	-200.000	0.072	-0.358
-254.107	-47.375	0.109	-0.053
-253.092	-18.361	-0.224	0.140
-252.078	-59.235	0.121	0.052
-251.063	-5.874	-0.186	0.128
-250.049	-78.657	-0.170	0.058
-249.034	60.158	-0.166	-0.164
-248.019	-89.506	-0.148	0.043
-247.005	-79.744	-0.416	0.140
-245.990	56.257	-0.234	-0.227
-244.976	800.000	0.057	-0.249
-243.961	800.000	0.070	-0.225
-242.946	4.860	-0.077	-0.056
-241.932	800.000	-0.058	0.230
-240.917	800.000	0.088	0.315
-239.903	-57.028	-0.164	0.073
-238.888	-200.000	0.014	0.167
-237.873	-200.000	0.025	0.139
-236.859	61.172	0.223	-0.221
-235.844	523.012	0.128	-0.301
-234.830	-200.000	0.011	-0.096
-233.815	95.090	0.139	0.159
-232.800	800.000	0.091	0.364
-231.786	-200.000	-0.005	0.192
-230.771	1.530	0.078	0.056
-229.757	-98.086	-0.029	0.007
-228.742	29.865	-0.089	-0.076
-227.727	-200.000	0.010	0.175
-226.713	-13.865	-0.258	-0.167
-225.698	-126.666	-0.059	0.009
-224.684	-200.000	-0.003	-0.511
-223.669	-110.259	0.320	-0.067
-222.655	-200.000	-0.015	0.150
-221.640	-64.616	0.206	0.084
-220.625	43.578	0.179	-0.164
-219.611	260.557	-0.015	0.025
-218.596	-200.000	0.048	0.218
-217.582	-130.693	0.096	0.013
-216.567	41.033	0.159	-0.144
-215.552	483.416	0.013	-0.029
-214.538	-85.447	0.231	0.072
-213.523	137.476	0.142	0.186
-212.509	-22.755	-0.140	-0.085
-211.494	-5.444	-0.182	-0.125
-210.479	264.442	0.062	-0.109
-209.465	-111.059	0.249	-0.051
-208.450	-140.001	0.095	0.010
-207.436	-71.127	-0.043	-0.016
-206.421	-200.000	-0.015	-0.356
-205.406	172.028	-0.030	0.043
-204.392	-200.000	0.038	-0.172
-203.377	-200.000	0.034	-0.192
-202.363	327.885	-0.179	-0.343
-201.348	253.497	0.113	-0.193
-200.333	89.599	0.142	-0.158
-199.319	800.000	-0.021	-0.069
-198.304	-126.651	-0.149	0.022
-197.290	145.826	0.165	0.221
-196.275	159.227	-0.094	0.130
-195.260	11.804	-0.256	0.196
-194.246	59.951	-0.105	0.104
-193.231	-92.846	0.141	-0.039
-192.217	444.017	-0.069	0.151
-191.202	-200.000	0.014	-0.186
-190.187	18.726	0.111	-0.089
-189.173	-139.871	-0.099	0.011
-188.158	-19.627	-0.018	0.011
-187.144	66.012	0.205	-0.208
-186.129	-98.966	0.152	-0.038
-185.114	-100.521	0.094	-0.023
-184.100	-200.000	0.039	-0.205
-183.085	73.555	0.117	-0.122
-182.071	286.341	-0.109	-0.196
-181.056	-109.005	-0.157	0.033
-180.042	339.283	0.047	0.092
-179.027	663.061	0.042	0.108
-178.012	484.655	-0.172	-0.392
-176.998	-129.845	-0.116	0.016
-175.983	714.296	0.058	-0.153
-174.969	-200.000	-0.074	-0.358
-173.954	140.271	-0.047	-0.062
-172.939	-200.000	-0.052	-0.297
-171.925	505.813	0.071	0.165
-170.910	-200.000	0.006	0.074
-169.896	64.319	0.261	0.263
-168.881	-29.048	0.093	-0.053
-167.866	-79.270	-0.177	-0.060
-166.852	-200.000	-0.007	0.303
-165.837	12.021	-0.235	0.180
-164.823	-32.358	0.192	0.107
-163.808	340.289	0.152	-0.295
-162.793	703.991	0.060	-0.158
-161.779	89.680	0.206	-0.229
-160.764	178.607	-0.068	-0.099
-159.750	109.927	-0.132	-0.158
-158.735	189.682	0.130	-0.194
-157.720	570.945	0.171	-0.415
-156.706	-41.698	-0.036	0.019
-155.691	324.538	0.110	0.209
-154.677	800.000	-0.037	0.112
-153.662	-200.000	0.033	0.209
-152.647	-200.000	-0.023	0.246
-151.633	311.382	0.104	0.194
-150.618	12.530	0.041	-0.031
-149.604	-181.438	0.186	-0.004
-148.589	-62.571	0.194	-0.080
-147.574	-86.752	-0.237	0.072
-146.560	-200.000	0.020	0.198
-145.545	631.736	0.068	0.172
-144.531	233.890	-0.035	-0.058
-143.516	27.633	0.160	-0.134
-142.502	-26.668	-0.194	0.113
-141.487	81.127	-0.020	0.022
-140.472	336.673	-0.126	0.244
-139.458	32.626	0.246	0.212
-138.443	93.210	0.086	-0.097
-137.429	18.838	0.043	-0.034
-136.414	145.539	0.240	0.320
-135.399	4.608	0.052	0.038
-134.385	-88.670	0.135	-0.040
-133.370	169.431	0.080	-0.114
-132.356	800.000	0.035	-0.108
-131.341	234.131	-0.145	-0.237
-130.326	251.438	-0.206	-0.349
-129.312	35.621	0.100	0.088
-128.297	800.000	0.046	0.153
-127.283	-12.442	0.325	0.212
-126.268	-68.975	0.183	0.070
-125.253	-158.209	-0.180	0.010
-124.239	144.885	0.373	-0.497
-123.224	-200.000	0.020	-0.106
-122.210	6.810	-0.109	0.081
-121.195	-200.000	-0.021	0.153
-120.180	800.000	-0.007	-0.027
