DTS Sentinel unit serial number:	SN413079Multiplexer serial number:	ORYXHardware model number:	OX4-SRSoftware version number:	ORYX F/W v4.00 Oryx Data Collector v3.7.2.0data status	okinstallation	princeton_trtdifferential loss correction	single-endedforward channel	channel 2reverse channel	N/Adate	2019/09/11time	12:17:10forward acquisition time	60.00reverse acquisition time	0.00gamma	496.2192k internal	0.2300k external	0.2300temperature offset calibration	0.9968default loss term (dB/km)	0.3790temperature slope calibration	1.0000multiplexer offset coefficient	1.0000multiplexer slope coefficient	1.0000fibre end	0.00T internal ref (°C)	39.98T ext. ref 1 (°C)	0.23T ext. ref 2 (°C)	38.18length (m)	temperature (°C)	Stokes	anti-Stokes-747.200	162.680	0.176	0.252
-746.185	-123.005	-0.060	-0.010
-745.171	613.186	-0.156	0.398
-744.156	-200.000	0.049	0.246
-743.142	-200.000	-0.029	0.167
-742.127	5.059	0.131	-0.099
-741.112	377.555	-0.090	0.188
-740.098	-166.611	-0.360	-0.015
-739.083	-7.293	-0.144	0.099
-738.069	494.834	0.042	-0.099
-737.054	58.593	0.052	0.052
-736.039	582.616	0.025	-0.063
-735.025	-28.327	-0.167	0.098
-734.010	-3.763	-0.084	0.059
-732.996	800.000	0.084	0.273
-731.981	-136.078	0.155	-0.019
-730.966	-200.000	-0.019	-0.091
-729.952	462.061	-0.058	-0.131
-728.937	83.610	0.232	-0.258
-727.923	-44.403	-0.223	-0.114
-726.908	-71.455	0.280	-0.107
-725.894	-74.706	-0.624	-0.229
-724.879	800.000	0.032	-0.130
-723.864	-27.329	-0.322	0.191
-722.850	-200.000	-0.012	-0.234
-721.835	-128.948	0.394	-0.056
-720.821	-22.790	-0.165	-0.102
-719.806	-69.028	-0.146	-0.057
-718.791	-112.891	0.133	-0.027
-717.777	280.268	0.054	0.098
-716.762	-200.000	-0.005	0.106
-715.748	159.829	0.092	-0.131
-714.733	82.881	0.153	-0.170
-713.718	800.000	-0.018	0.060
-712.704	102.603	0.167	-0.199
-711.689	77.522	-0.350	-0.380
-710.675	135.189	-0.074	0.098
-709.660	-112.249	0.258	-0.053
-708.645	237.750	0.058	-0.098
-707.631	28.280	0.142	-0.122
-706.616	245.478	0.103	0.176
-705.602	-142.164	-0.217	0.022
-704.587	-200.000	-0.054	-0.255
-703.572	800.000	-0.086	-0.360
-702.558	-189.491	0.256	0.003
-701.543	20.553	0.187	-0.154
-700.529	-200.000	0.011	0.090
-699.514	335.361	0.225	0.444
-698.499	-200.000	-0.006	0.057
-697.485	-183.160	0.199	0.004
-696.470	-43.194	0.100	-0.051
-695.456	-105.635	0.244	0.056
-694.441	-153.640	0.206	0.014
-693.426	-81.971	0.290	-0.097
-692.412	800.000	0.065	-0.267
-691.397	-58.383	-0.122	-0.054
-690.383	-71.949	-0.306	-0.116
-689.368	263.347	0.052	0.092
-688.354	-135.245	-0.279	-0.034
-687.339	-45.812	0.071	0.036
-686.324	193.015	0.130	0.199
-685.310	245.587	0.027	0.046
-684.295	716.908	-0.038	0.101
-683.281	-21.086	0.033	-0.021
-682.266	-63.711	-0.300	0.125
-681.251	127.838	0.117	0.151
-680.237	215.100	0.154	-0.248
-679.222	-97.014	0.133	0.035
-678.208	645.885	0.102	-0.266
-677.193	450.291	0.086	0.193
-676.178	-26.192	0.283	-0.169
-675.164	43.974	0.183	0.171
-674.149	492.189	0.077	0.180
-673.135	589.745	-0.011	0.027
-672.120	800.000	0.062	-0.216
-671.105	800.000	0.007	-0.023
-670.091	-200.000	-0.022	-0.105
-669.076	-112.144	-0.173	-0.035
-668.062	-11.096	0.251	0.168
-667.047	-200.000	-0.009	0.062
-666.032	51.405	-0.238	-0.230
-665.018	-152.408	-0.165	0.012
-664.003	629.210	0.126	-0.324
-662.989	42.990	-0.056	-0.052
-661.974	-200.000	-0.008	0.100
-660.959	-147.729	-0.207	-0.018
-659.945	-200.000	0.004	-0.200
-658.930	129.449	0.150	-0.195
-657.916	40.786	0.135	-0.124
-656.901	395.127	-0.034	0.071
-655.886	-200.000	0.007	-0.083
-654.872	-200.000	0.047	0.256
-653.857	785.579	-0.139	-0.388
-652.843	-200.000	0.030	-0.168
-651.828	108.845	0.113	-0.138
-650.814	-11.653	0.249	-0.167
-649.799	-123.077	-0.221	0.036
-648.784	800.000	0.061	0.267
-647.770	800.000	-0.035	0.145
-646.755	-23.143	0.174	-0.106
-645.741	708.517	0.129	-0.346
-644.726	-200.000	0.026	0.163
-643.711	800.000	0.035	-0.139
-642.697	-172.379	0.079	0.003
-641.682	307.562	-0.149	-0.283
-640.668	384.334	-0.131	-0.274
-639.653	645.587	-0.062	0.160
-638.638	28.638	0.339	0.292
-637.624	489.552	-0.088	-0.205
-636.609	-200.000	0.018	-0.098
-635.595	-200.000	0.027	0.189
-634.580	6.070	-0.301	-0.227
-633.565	9.162	-0.403	-0.309
-632.551	2.913	0.378	0.279
-631.536	-29.798	-0.347	0.201
-630.522	800.000	0.075	-0.220
-629.507	-108.686	0.213	-0.046
-628.492	233.340	0.212	-0.354
-627.478	200.402	0.048	0.075
-626.463	-66.706	-0.170	-0.068
-625.449	-32.804	0.328	-0.185
-624.434	-62.537	-0.202	-0.085
-623.419	-108.301	0.093	0.020
-622.405	-200.000	-0.012	-0.310
-621.390	-189.467	-0.382	0.005
-620.376	147.775	0.089	0.121
-619.361	618.416	-0.042	-0.107
-618.346	-200.000	0.021	0.100
-617.332	800.000	-0.030	-0.121
-616.317	748.789	-0.096	0.264
-615.303	-108.605	-0.177	0.039
-614.288	227.991	0.118	-0.195
-613.273	-70.218	0.112	-0.043
-612.259	62.639	-0.241	0.245
-611.244	800.000	0.062	-0.197
-610.230	800.000	-0.092	-0.281
-609.215	16.381	0.120	-0.096
-608.201	-19.378	0.075	-0.047
-607.186	800.000	0.063	-0.249
-606.171	324.906	-0.050	0.098
-605.157	-108.694	0.133	0.029
-604.142	24.423	0.120	-0.101
-603.128	-75.912	-0.330	-0.119
-602.113	0.360	0.212	-0.153
-601.098	800.000	0.062	-0.273
-600.084	-54.415	-0.295	-0.136
-599.069	386.832	-0.047	0.099
-598.055	-95.741	0.165	0.045
-597.040	-53.286	0.339	-0.158
-596.025	-21.392	-0.188	-0.116
-595.011	800.000	-0.152	-0.441
-593.996	800.000	0.112	0.395
-592.982	-200.000	-0.049	0.494
-591.967	-200.000	0.005	0.237
-590.952	-176.585	-0.128	-0.003
-589.938	-50.398	-0.034	-0.016
-588.923	-121.640	0.337	-0.057
-587.909	281.498	0.082	-0.148
-586.894	-24.423	-0.221	-0.134
-585.879	147.592	-0.073	-0.099
-584.865	-200.000	0.007	-0.072
-583.850	105.006	0.074	-0.089
-582.836	-95.507	-0.477	0.130
-581.821	-25.199	-0.254	-0.152
-580.806	-200.000	-0.006	0.033
-579.792	-158.050	-0.241	-0.014
-578.777	596.593	0.029	-0.072
-577.763	218.940	0.041	-0.066
-576.748	-44.911	0.150	-0.076
-575.733	-87.750	-0.222	0.068
-574.719	-91.815	0.383	-0.110
-573.704	11.105	0.136	-0.106
-572.690	191.562	-0.070	0.107
-571.675	-173.074	-0.280	-0.009
-570.661	19.428	0.090	0.073
-569.646	-97.528	0.239	0.063
-568.631	-59.025	-0.258	-0.113
-567.617	202.812	-0.099	-0.154
-566.602	-139.831	-0.186	-0.020
-565.588	-200.000	0.005	-0.443
-564.573	142.977	-0.265	0.357
-563.558	-27.702	0.424	0.249
-562.544	-100.641	0.073	-0.018
-561.529	65.305	0.252	0.258
-560.515	-66.743	-0.258	0.103
-559.500	39.295	0.322	0.292
-558.485	-123.321	-0.245	-0.040
-557.471	18.621	0.115	-0.093
-556.456	-200.000	0.007	-0.396
-555.442	-81.027	0.153	-0.051
-554.427	-69.157	-0.170	-0.066
-553.412	-200.000	-0.010	-0.090
-552.398	-34.998	-0.068	0.038
-551.383	537.040	-0.086	-0.206
-550.369	115.938	-0.127	-0.157
-549.354	-56.489	0.320	-0.144
-548.339	-11.176	0.030	0.020
-547.325	-62.829	-0.240	-0.101
-546.310	-71.118	-0.373	-0.142
-545.296	-29.169	0.193	0.112
-544.281	106.180	-0.098	0.118
-543.266	617.288	0.085	0.217
-542.252	148.220	0.129	-0.177
-541.237	136.145	-0.184	0.242
-540.223	26.221	0.272	-0.230
-539.208	-114.352	0.394	-0.077
-538.193	-17.994	-0.174	-0.110
-537.179	-200.000	0.001	-0.248
-536.164	-200.000	0.005	-0.206
-535.150	5.283	0.087	-0.065
-534.135	-23.945	0.316	-0.191
-533.121	-200.000	-0.001	-0.226
-532.106	-133.538	-0.105	-0.013
-531.091	-34.243	0.111	0.061
-530.077	-190.665	0.103	0.001
-529.062	221.474	0.236	-0.384
-528.048	145.119	0.182	-0.246
-527.033	-188.203	-0.137	-0.002
-526.018	-200.000	0.008	-0.172
-525.004	-93.210	0.172	-0.048
-523.989	800.000	0.040	0.114
-522.975	-62.917	0.170	-0.071
-521.960	-61.350	0.157	0.067
-520.945	-200.000	0.037	0.222
-519.931	-78.925	0.331	-0.114
-518.916	-55.568	0.246	-0.111
-517.902	-125.678	0.022	-0.003
-516.887	-95.893	-0.042	-0.011
-515.872	-146.840	-0.195	-0.017
-514.858	104.093	-0.156	-0.185
-513.843	-200.000	0.029	0.282
-512.829	-55.911	0.074	-0.033
-511.814	-78.108	-0.385	0.134
-510.799	-158.874	-0.229	-0.013
-509.785	-200.000	0.014	-0.148
-508.770	-200.000	0.004	0.383
-507.756	800.000	0.127	0.515
-506.741	249.532	-0.098	0.168
-505.726	-200.000	-0.030	0.168
-504.712	-80.990	0.137	-0.046
-503.697	17.218	-0.262	-0.210
-502.683	176.424	-0.150	0.221
-501.668	41.743	0.346	0.317
-500.653	345.260	-0.135	-0.269
-499.639	-100.394	0.331	0.083
-498.624	-121.622	-0.240	-0.040
-497.610	-148.060	0.277	0.023
-496.595	216.782	-0.157	0.252
-495.581	-48.036	-0.390	0.190
-494.566	-175.839	-0.627	0.017
-493.551	5.629	0.253	-0.189
-492.537	-57.393	-0.486	0.216
-491.522	120.015	0.092	-0.115
-490.508	-34.621	-0.052	0.029
-489.493	-200.000	0.007	-0.227
-488.478	251.915	0.081	0.139
-487.464	-75.571	-0.126	-0.045
-486.449	114.219	0.029	-0.036
-485.435	800.000	-0.064	0.252
-484.420	176.566	-0.191	-0.280
-483.405	-200.000	-0.060	-0.352
-482.391	-200.000	0.024	0.424
-481.376	-121.044	-0.248	0.042
-480.362	-77.638	-0.049	-0.017
-479.347	-64.519	-0.078	-0.032
-478.332	255.717	0.005	0.009
-477.318	800.000	0.011	-0.041
-476.303	566.338	-0.121	0.297
-475.289	-97.739	-0.275	0.072
-474.274	-193.105	-0.295	-0.003
-473.259	-52.615	0.101	-0.047
-472.245	-69.857	0.223	-0.086
-471.230	-104.346	0.154	0.036
-470.216	-200.000	-0.010	-0.119
-469.201	97.885	-0.199	-0.231
-468.186	800.000	-0.094	-0.324
-467.172	800.000	-0.081	0.332
-466.157	-200.000	-0.059	0.272
-465.143	-69.479	-0.028	0.011
-464.128	-200.000	-0.025	-0.363
-463.113	256.979	-0.028	0.048
-462.099	-200.000	0.018	0.155
-461.084	-86.598	-0.502	0.155
-460.070	-200.000	-0.047	-0.289
-459.055	-19.753	-0.252	0.157
-458.040	138.754	-0.157	-0.208
-457.026	-31.984	0.359	-0.202
-456.011	-200.000	-0.314	-0.001
-454.997	-135.014	0.320	-0.039
-453.982	800.000	-0.187	0.545
-452.968	70.451	0.189	0.197
-451.953	800.000	-0.127	0.489
-450.938	-65.145	-0.131	-0.053
-449.924	56.866	0.141	-0.139
-448.909	800.000	0.156	-0.533
-447.895	-93.614	-0.213	0.059
-446.880	43.409	-0.245	-0.225
-445.865	-200.000	-0.030	-0.245
-444.851	-43.078	0.107	-0.055
-443.836	156.833	0.187	-0.260
-442.822	238.515	0.027	-0.045
-441.807	-113.515	-0.079	-0.016
-440.792	-200.000	0.004	-0.087
-439.778	-99.533	0.194	0.049
-438.763	-155.881	-0.101	-0.006
-437.749	-69.039	-0.193	-0.075
-436.734	-182.590	0.495	0.009
-435.719	60.657	0.177	0.177
-434.705	265.606	0.068	-0.120
-433.690	372.884	-0.080	0.164
-432.676	30.913	-0.061	0.053
-431.661	-200.000	-0.003	0.492
-430.646	800.000	0.007	-0.021
-429.632	187.871	-0.067	-0.101
-428.617	224.536	0.236	0.385
-427.603	14.277	0.028	0.022
-426.588	-200.000	0.000	0.003
-425.573	241.319	-0.050	0.085
-424.559	296.887	0.117	-0.216
-423.544	151.374	-0.134	-0.184
-422.530	-140.397	0.280	0.029
-421.515	-2.176	-0.090	0.063
-420.500	800.000	-0.106	0.461
-419.486	111.501	0.142	0.172
-418.471	-57.451	0.146	-0.065
-417.457	-200.000	-0.032	-0.187
-416.442	-200.000	-0.023	-0.156
-415.428	-154.326	0.022	0.002
-414.413	-200.000	-0.023	-0.311
-413.398	133.585	-0.121	-0.158
-412.384	800.000	0.043	0.149
-411.369	-200.000	0.004	-0.125
-410.355	-107.554	-0.371	0.082
-409.340	82.241	-0.126	-0.138
-408.325	-98.596	0.089	0.023
-407.311	213.270	0.119	0.190
-406.296	-65.110	-0.205	-0.083
-405.282	135.277	0.125	-0.164
-404.267	198.702	-0.181	-0.279
-403.252	-200.000	-0.037	-0.166
-402.238	800.000	-0.079	0.266
-401.223	16.387	0.098	0.078
-400.209	-46.708	-0.125	-0.062
-399.194	9.620	0.157	-0.120
-398.179	800.000	0.074	0.211
-397.165	499.120	-0.023	0.053
-396.150	-200.000	0.011	0.146
-395.136	-84.819	-0.064	0.020
-394.121	173.838	-0.124	-0.181
-393.106	-113.569	0.267	-0.052
-392.092	123.371	0.231	0.292
-391.077	111.328	-0.044	0.054
-390.063	-177.574	-0.118	-0.003
-389.048	273.798	0.196	0.349
-388.033	226.672	-0.005	-0.008
-387.019	-29.376	0.172	-0.099
-386.004	222.782	-0.105	-0.169
-384.990	-118.041	0.038	0.007
-383.975	-200.000	-0.014	-0.073
-382.960	-24.356	-0.237	-0.142
-381.946	-60.417	-0.176	-0.075
-380.931	59.179	-0.412	-0.408
-379.917	-200.000	-0.006	-0.339
-378.902	-30.563	-0.102	0.058
-377.888	78.857	0.124	-0.133
-376.873	223.466	0.066	-0.107
-375.858	20.605	0.277	-0.226
-374.844	-6.723	0.046	-0.032
-373.829	-99.681	-0.104	-0.026
-372.815	481.385	-0.119	0.271
-371.800	-25.205	0.087	-0.052
-370.785	-119.010	-0.226	-0.040
-369.771	54.447	0.276	-0.267
-368.756	-200.000	0.029	0.176
-367.742	800.000	-0.035	-0.134
-366.727	-67.555	-0.130	-0.051
-365.712	-181.730	0.096	-0.002
-364.698	152.166	0.136	0.187
-363.683	160.067	0.081	0.113
-362.669	-200.000	-0.049	-0.242
-361.654	-200.000	0.073	0.400
-360.639	-200.000	-0.002	-0.029
-359.625	-88.684	0.239	-0.071
-358.610	40.407	-0.050	0.045
-357.596	255.303	-0.082	0.142
-356.581	299.975	0.138	-0.255
-355.566	191.325	0.017	0.026
-354.552	-161.730	-0.177	0.009
-353.537	-16.281	-0.090	-0.057
-352.523	70.771	-0.136	0.141
-351.508	800.000	0.027	0.114
-350.493	218.063	0.134	0.214
-349.479	-80.891	-0.185	0.062
-348.464	115.768	0.238	0.293
-347.450	-118.433	-0.255	-0.045
-346.435	26.196	-0.054	0.045
-345.420	-200.000	-0.005	0.287
-344.406	113.369	0.085	0.104
-343.391	-165.086	0.128	0.006
-342.377	344.718	0.128	0.253
-341.362	-124.083	-0.294	-0.046
-340.348	-200.000	0.007	0.086
-339.333	479.345	-0.129	-0.294
-338.318	-3.646	-0.079	-0.055
-337.304	137.569	0.103	-0.135
-336.289	-69.368	-0.299	-0.115
-335.275	22.623	0.163	0.134
-334.260	-200.000	-0.023	0.143
-333.245	-38.134	0.308	0.164
-332.231	-19.454	0.266	0.165
-331.216	441.657	-0.146	-0.320
-330.202	-14.239	0.332	0.215
-329.187	6.920	-0.119	0.089
-328.172	6.055	-0.022	-0.017
-327.158	-200.000	-0.007	0.296
-326.143	25.224	-0.218	-0.182
-325.129	800.000	0.093	-0.275
-324.114	-87.335	0.033	0.010
-323.099	-200.000	0.026	-0.241
-322.085	188.073	0.112	-0.168
-321.070	-6.944	0.087	-0.060
-320.056	-32.304	0.287	0.161
-319.041	25.114	0.146	-0.122
-318.026	-153.458	0.234	-0.016
-317.012	113.678	-0.055	-0.067
-315.997	586.794	0.142	-0.350
-314.983	800.000	0.032	0.122
-313.968	-200.000	-0.045	0.308
-312.953	-200.000	-0.012	0.201
-311.939	-80.591	0.139	-0.046
-310.924	800.000	0.066	-0.218
-309.910	-31.541	-0.181	0.102
-308.895	-18.110	-0.075	0.047
-307.880	-164.990	0.424	-0.019
-306.866	-117.825	0.210	-0.038
-305.851	-58.982	-0.180	0.078
-304.837	800.000	-0.059	-0.168
-303.822	800.000	-0.073	0.250
-302.807	-27.031	-0.150	0.088
-301.793	800.000	-0.046	0.165
-300.778	-142.961	0.228	-0.022
-299.764	27.340	-0.108	-0.091
-298.749	800.000	-0.079	0.290
-297.735	314.589	0.146	0.276
-296.720	-58.340	-0.059	-0.026
-295.705	33.772	-0.137	0.120
-294.691	-200.000	-0.088	-0.438
-293.676	-178.269	-0.127	0.003
-292.662	35.110	0.335	0.294
-291.647	-153.379	-0.330	0.023
-290.632	-2.035	0.161	-0.114
-289.618	593.509	0.021	0.053
-288.603	800.000	-0.060	0.172
-287.589	-80.463	0.257	-0.086
-286.574	-104.278	0.184	-0.043
-285.559	798.690	-0.049	-0.136
-284.545	26.198	0.240	-0.201
-283.530	-106.002	-0.380	-0.086
-282.516	-66.134	0.239	-0.095
-281.501	-200.000	0.054	-0.265
-280.486	90.214	0.203	-0.227
-279.472	-200.000	0.042	0.362
-278.457	-136.258	0.201	-0.024
-277.443	800.000	0.050	0.140
-276.428	1.515	-0.257	-0.185
-275.413	800.000	-0.101	-0.283
-274.399	-0.770	-0.049	-0.035
-273.384	45.240	-0.106	-0.098
-272.370	-67.205	0.333	0.131
-271.355	190.709	0.094	-0.141
-270.340	257.374	-0.200	0.345
-269.326	-126.969	-0.303	-0.045
-268.311	325.454	-0.134	0.256
-267.297	799.403	-0.108	-0.297
-266.282	11.380	0.602	0.462
-265.267	90.657	-0.073	0.082
-264.253	346.268	-0.045	0.089
-263.238	334.912	-0.100	0.194
-262.224	-31.553	-0.267	0.150
-261.209	-200.000	-0.065	0.380
-260.195	-123.570	-0.444	-0.071
-259.180	-200.000	-0.032	-0.273
-258.165	-149.196	-0.360	0.029
-257.151	-128.224	-0.295	-0.042
-256.136	800.000	0.054	0.202
-255.122	800.000	-0.062	0.203
-254.107	-200.000	0.018	-0.185
-253.092	518.670	-0.053	0.124
-252.078	425.951	-0.066	0.142
-251.063	-125.828	0.399	-0.060
-250.049	800.000	0.071	0.294
-249.034	142.535	-0.079	0.105
-248.019	49.150	-0.083	-0.078
-247.005	48.118	-0.090	0.085
-245.990	-24.567	-0.390	0.232
-244.976	-69.625	0.139	0.053
-243.961	-23.255	0.141	0.085
-242.946	-200.000	0.003	0.044
-241.932	-159.068	-0.321	-0.018
-240.917	-15.683	-0.067	-0.043
-239.903	-68.773	-0.152	-0.059
-238.888	196.269	0.176	-0.268
-237.873	-94.910	-0.046	0.013
-236.859	-200.000	0.023	-0.216
-235.844	-152.494	0.144	0.010
-234.830	-200.000	0.025	0.187
-233.815	-72.797	-0.297	0.110
-232.800	489.308	0.036	0.082
-231.786	-200.000	0.056	0.280
-230.771	29.385	0.203	-0.172
-229.757	11.605	-0.177	0.136
-228.742	800.000	0.024	-0.102
-227.727	-30.196	0.432	-0.245
-226.713	-73.267	-0.190	0.069
-225.698	-200.000	-0.012	0.119
-224.684	-101.007	0.056	-0.014
-223.669	658.231	0.073	0.188
-222.655	-89.080	-0.211	0.062
-221.640	-173.926	-0.093	0.003
-220.625	-147.165	0.094	-0.008
-219.611	-24.832	0.292	-0.173
-218.596	-200.000	0.005	-0.092
-217.582	419.099	-0.139	0.297
-216.567	36.378	-0.021	-0.018
-215.552	-161.236	0.384	0.020
-214.538	800.000	-0.081	0.240
-213.523	-60.292	0.284	0.121
-212.509	44.542	-0.066	0.060
-211.494	-115.627	-0.163	-0.031
-210.479	-34.309	0.367	0.201
-209.465	-172.790	0.169	-0.005
-208.450	-200.000	-0.001	-0.185
-207.436	12.426	0.092	0.071
-206.421	-71.589	0.493	0.184
-205.406	800.000	0.056	0.187
-204.392	11.023	-0.097	0.074
-203.377	292.155	-0.072	-0.131
-202.363	30.520	0.289	-0.247
-201.348	-141.093	-0.043	-0.004
-200.333	-181.301	0.202	-0.004
-199.319	-200.000	-0.019	0.117
-198.304	103.096	-0.056	0.065
-197.290	270.963	-0.168	0.295
-196.275	-102.329	-0.121	-0.029
-195.260	-200.000	0.082	0.467
-194.246	43.881	-0.058	0.053
-193.231	267.810	0.139	-0.243
-192.217	38.802	-0.073	-0.065
-191.202	-92.598	0.278	0.078
-190.187	-135.788	0.206	0.024
-189.173	64.950	0.028	-0.028
-188.158	-129.928	-0.244	-0.033
-187.144	-63.262	0.347	-0.143
-186.129	-113.306	0.115	0.023
-185.114	-136.423	0.192	-0.022
-184.100	-15.599	0.253	-0.161
-183.085	528.336	0.146	0.343
-182.071	167.095	0.115	-0.163
-181.056	800.000	0.048	0.150
-180.042	40.552	-0.118	-0.106
-179.027	-86.315	-0.323	-0.099
-178.012	6.476	0.082	-0.061
-176.998	-200.000	0.034	-0.292
-175.983	800.000	0.132	-0.414
-174.969	-75.792	-0.183	-0.065
-173.954	-125.388	0.186	0.028
-172.939	67.714	0.103	0.105
-171.925	-150.379	0.381	0.029
-170.910	251.554	-0.165	0.280
-169.896	78.818	-0.143	0.152
-168.881	-200.000	0.001	0.152
-167.866	-82.329	0.274	0.089
-166.852	284.421	-0.053	0.095
-165.837	-62.575	-0.244	0.101
-164.823	46.284	0.130	0.120
-163.808	-82.482	-0.283	0.092
-162.793	-85.242	-0.208	-0.065
-161.779	-54.919	0.082	0.037
-160.764	-63.788	0.289	-0.118
-159.750	120.983	-0.303	-0.376
-158.735	-200.000	-0.053	0.268
-157.720	800.000	0.096	-0.349
-156.706	20.725	-0.231	0.187
-155.691	298.772	0.084	-0.153
-154.677	-200.000	-0.024	0.159
-153.662	31.070	-0.310	0.265
-152.647	154.554	-0.135	0.185
-151.633	70.102	0.202	0.208
-150.618	-200.000	0.018	0.155
-149.604	-63.771	-0.154	0.063
-148.589	-30.770	-0.323	0.182
-147.574	30.834	0.121	-0.103
-146.560	125.919	0.059	0.075
-145.545	800.000	0.079	0.286
-144.531	162.158	0.118	0.164
-143.516	-136.271	-0.208	0.024
-142.502	355.358	-0.072	0.142
-141.487	140.433	0.311	-0.409
-140.472	-200.000	0.007	0.185
-139.458	800.000	0.076	0.312
-138.443	-72.386	-0.382	0.141
-137.429	74.219	-0.059	-0.062
-136.414	632.154	-0.093	0.235
-135.399	82.323	-0.133	-0.144
-134.385	-30.052	0.160	0.091
-133.370	-120.797	-0.331	0.056
-132.356	-140.981	0.162	0.017
-131.341	595.915	-0.133	0.328
-130.326	-134.602	-0.130	-0.016
-129.312	-81.538	0.177	-0.058
-128.297	338.680	-0.084	0.163
-127.283	103.329	-0.039	0.045
-126.268	329.107	0.112	0.213
-125.253	208.902	0.095	-0.148
-124.239	-36.242	0.132	0.071
-123.224	-54.970	0.360	-0.162
-122.210	305.659	0.058	0.108
