DTS Sentinel unit serial number:	SN413079Multiplexer serial number:	ORYXHardware model number:	OX4-SRSoftware version number:	ORYX F/W v4.00 Oryx Data Collector v3.7.2.0data status	okinstallation	princeton_trtdifferential loss correction	single-endedforward channel	channel 2reverse channel	N/Adate	2019/09/14time	12:35:35forward acquisition time	60.00reverse acquisition time	0.00gamma	496.2192k internal	0.2306k external	0.2306temperature offset calibration	1.0153default loss term (dB/km)	0.3790temperature slope calibration	1.0000multiplexer offset coefficient	1.0000multiplexer slope coefficient	1.0000fibre end	0.00T internal ref (°C)	38.00T ext. ref 1 (°C)	4.79T ext. ref 2 (°C)	34.03length (m)	temperature (°C)	Stokes	anti-Stokes-747.200	-200.000	0.046	0.311
-746.185	32.028	0.099	0.087
-745.171	-54.171	-0.313	-0.145
-744.156	14.683	-0.135	-0.107
-743.142	522.610	-0.050	0.118
-742.127	345.410	0.139	0.278
-741.112	-55.400	-0.028	0.013
-740.098	776.497	0.143	0.397
-739.083	800.000	0.011	-0.032
-738.069	60.376	0.034	0.035
-737.054	-200.000	0.007	-0.111
-736.039	15.402	-0.239	-0.191
-735.025	-99.653	0.256	-0.065
-734.010	105.480	0.094	-0.113
-732.996	542.404	-0.186	-0.450
-731.981	115.811	0.025	0.031
-730.966	-5.703	-0.129	-0.090
-729.952	429.684	0.052	-0.115
-728.937	13.600	-0.216	-0.170
-727.923	800.000	-0.052	0.201
-726.908	37.969	0.169	0.152
-725.894	261.437	-0.166	-0.293
-724.879	254.123	-0.182	-0.317
-723.864	-200.000	0.041	-0.205
-722.850	167.120	0.156	-0.225
-721.835	-148.077	-0.278	0.023
-720.821	-200.000	0.008	0.130
-719.806	48.454	-0.165	-0.157
-718.791	800.000	-0.041	0.121
-717.777	-176.785	0.372	0.010
-716.762	-200.000	-0.032	-0.235
-715.748	-200.000	0.003	-0.025
-714.733	800.000	-0.075	-0.218
-713.718	-180.563	-0.456	-0.010
-712.704	49.688	0.180	-0.173
-711.689	-54.577	-0.195	0.090
-710.675	360.287	0.066	-0.134
-709.660	-55.354	-0.222	0.101
-708.645	800.000	-0.086	-0.332
-707.631	-200.000	0.094	-0.458
-706.616	166.676	0.096	0.139
-705.602	152.849	-0.191	0.265
-704.587	484.543	-0.118	0.274
-703.572	13.577	0.185	-0.146
-702.558	-189.321	-0.349	-0.004
-701.543	-22.177	0.111	-0.068
-700.529	-11.205	-0.200	0.134
-699.514	-107.363	-0.242	-0.054
-698.499	26.958	-0.181	0.154
-697.485	-40.362	-0.165	-0.087
-696.470	49.339	-0.138	-0.132
-695.456	313.651	0.057	0.109
-694.441	-200.000	0.042	-0.191
-693.426	-200.000	-0.022	-0.211
-692.412	-200.000	-0.052	-0.328
-691.397	-55.159	-0.140	0.064
-690.383	-102.274	0.206	0.050
-689.368	167.412	0.182	0.263
-688.354	-61.763	0.335	-0.142
-687.339	-11.356	-0.073	-0.049
-686.324	463.316	0.184	0.417
-685.310	212.786	-0.241	0.385
-684.295	800.000	-0.085	-0.294
-683.281	-200.000	-0.249	-0.000
-682.266	800.000	-0.104	0.332
-681.251	-48.508	0.285	0.139
-680.237	-66.771	0.360	0.145
-679.222	-5.460	0.096	-0.067
-678.208	-61.700	-0.413	-0.176
-677.193	-31.627	-0.098	0.056
-676.178	-78.284	-0.301	-0.105
-675.164	106.105	0.277	-0.333
-674.149	48.615	0.202	-0.192
-673.135	-93.124	0.459	0.130
-672.120	-66.001	0.091	-0.037
-671.105	-200.000	-0.335	-0.002
-670.091	-200.000	0.006	-0.383
-669.076	-75.686	-0.081	0.029
-668.062	800.000	-0.034	0.144
-667.047	-0.211	-0.021	-0.015
-666.032	-200.000	0.038	0.252
-665.018	-32.022	0.263	-0.149
-664.003	-200.000	-0.016	0.230
-662.989	-15.832	-0.224	0.145
-661.974	485.921	-0.106	0.245
-660.959	142.703	-0.198	-0.266
-659.945	-4.222	-0.105	-0.073
-658.930	59.061	-0.195	0.194
-657.916	-22.718	0.132	-0.081
-656.901	46.422	-0.025	0.024
-655.886	-200.000	0.102	0.493
-654.872	116.848	0.068	0.084
-653.857	800.000	-0.037	0.115
-652.843	352.002	0.079	0.159
-651.828	230.340	-0.139	-0.231
-650.814	-56.828	-0.077	-0.035
-649.799	-49.997	0.186	-0.090
-648.784	-200.000	0.026	0.371
-647.770	314.945	-0.099	0.189
-646.755	307.277	-0.092	-0.175
-645.741	98.439	-0.075	-0.088
-644.726	-68.517	0.150	0.059
-643.711	251.906	-0.148	0.255
-642.697	106.792	-0.067	0.081
-641.682	278.022	0.128	-0.230
-640.668	-200.000	-0.035	-0.304
-639.653	-200.000	-0.013	0.309
-638.638	155.669	-0.102	-0.142
-637.624	29.355	-0.114	0.098
-636.609	-14.619	0.202	0.131
-635.595	73.463	0.076	-0.081
-634.580	16.175	-0.205	0.164
-633.565	172.667	-0.079	-0.115
-632.551	-5.622	-0.264	0.183
-631.536	201.607	-0.047	-0.074
-630.522	-10.943	-0.196	0.131
-629.507	-189.705	-0.433	0.005
-628.492	-31.135	-0.259	0.148
-627.478	-109.294	0.136	-0.029
-626.463	800.000	0.053	-0.171
-625.449	-140.601	-0.132	-0.014
-624.434	-85.984	0.323	0.101
-623.419	21.812	-0.138	-0.114
-622.405	187.861	-0.161	-0.244
-621.390	-74.439	0.410	-0.150
-620.376	346.086	0.061	-0.122
-619.361	84.995	0.134	0.148
-618.346	-165.022	-0.321	-0.014
-617.332	246.300	0.105	0.180
-616.317	-31.231	0.373	0.213
-615.303	259.241	0.039	0.068
-614.288	-79.440	0.443	-0.151
-613.273	-21.237	0.145	-0.090
-612.259	-56.907	-0.201	0.090
-611.244	-91.479	-0.317	-0.092
-610.230	-200.000	0.021	0.156
-609.215	224.609	-0.049	0.080
-608.201	-200.000	-0.043	0.248
-607.186	72.464	-0.184	0.194
-606.171	-25.001	-0.179	-0.108
-605.157	124.831	0.185	-0.235
-604.142	145.714	0.201	-0.273
-603.128	-200.000	-0.003	-0.025
-602.113	-81.597	-0.094	-0.031
-601.098	40.844	-0.421	-0.385
-600.084	199.237	0.117	-0.181
-599.069	-71.248	0.102	-0.039
-598.055	254.800	0.065	-0.113
-597.040	613.338	-0.098	-0.249
-596.025	99.255	0.050	-0.059
-595.011	-118.876	-0.125	-0.022
-593.996	-200.000	-0.015	0.112
-592.982	159.920	0.302	0.426
-591.967	-193.193	-0.061	0.001
-590.952	189.029	-0.171	0.259
-589.938	-44.631	-0.339	0.171
-588.923	91.336	0.183	0.208
-587.909	273.184	0.038	-0.068
-586.894	-200.000	-0.009	-0.075
-585.879	-200.000	0.028	-0.441
-584.865	-200.000	0.002	0.508
-583.850	-4.286	0.284	-0.199
-582.836	-200.000	0.024	-0.290
-581.821	635.408	0.114	-0.292
-580.806	-168.694	0.020	-0.001
-579.792	164.781	0.173	-0.247
-578.777	-197.108	-0.157	0.001
-577.763	-118.636	0.197	0.035
-576.748	567.646	-0.060	0.148
-575.733	4.494	0.323	-0.239
-574.719	195.223	0.079	-0.121
-573.704	-200.000	0.031	0.264
-572.690	-79.652	0.209	-0.071
-571.675	-13.170	-0.154	0.101
-570.661	95.910	0.182	0.210
-569.646	98.337	-0.225	-0.262
-568.631	301.574	0.163	-0.304
-567.617	-200.000	0.011	-0.099
-566.602	-69.045	-0.161	-0.063
-565.588	-115.671	0.084	0.016
-564.573	100.222	-0.189	-0.222
-563.558	-75.403	-0.346	0.125
-562.544	-90.863	-0.205	0.060
-561.529	800.000	0.117	0.395
-560.515	-200.000	0.012	0.078
-559.500	-200.000	0.028	0.126
-558.485	31.956	-0.175	-0.152
-557.471	39.559	-0.181	-0.164
-556.456	-89.823	0.310	0.091
-555.442	-62.388	-0.188	0.079
-554.427	800.000	-0.124	0.351
-553.412	-1.516	0.112	0.080
-552.398	695.963	-0.062	-0.163
-551.383	-108.084	-0.093	0.020
-550.369	-89.485	0.251	0.075
-549.354	-50.014	-0.105	-0.050
-548.339	-123.275	-0.174	-0.028
-547.325	7.964	-0.095	0.072
-546.310	-187.328	-0.216	0.003
-545.296	-101.122	-0.081	0.020
-544.281	-200.000	-0.005	-0.044
-543.266	800.000	-0.060	0.188
-542.252	-74.401	0.078	-0.028
-541.237	800.000	-0.060	-0.188
-540.223	296.345	-0.086	-0.159
-539.208	136.640	0.020	-0.027
-538.193	-47.096	-0.248	-0.122
-537.179	170.804	0.124	0.179
-536.164	-104.808	-0.398	-0.092
-535.150	87.622	-0.160	-0.179
-534.135	800.000	-0.034	0.138
-533.121	-153.387	-0.109	-0.008
-532.106	407.044	0.068	-0.145
-531.091	-141.940	0.326	-0.033
-530.077	-59.565	0.091	0.039
-529.062	800.000	0.019	0.084
-528.048	-200.000	-0.044	0.577
-527.033	800.000	-0.099	-0.345
-526.018	-57.935	0.194	0.086
-525.004	-68.083	0.441	0.173
-523.989	433.332	0.105	-0.230
-522.975	-200.000	-0.047	-0.240
-521.960	-100.948	0.071	-0.018
-520.945	-155.224	0.078	0.005
-519.931	-151.967	0.135	-0.010
-518.916	-97.778	-0.129	0.034
-517.902	800.000	0.025	0.075
-516.887	-200.000	-0.002	0.016
-515.872	-30.728	-0.105	0.060
-514.858	-1.991	-0.274	0.194
-513.843	-94.557	0.375	0.103
-512.829	-72.980	-0.090	-0.033
-511.814	328.237	0.067	-0.129
-510.799	-187.359	0.116	0.002
-509.785	-55.617	-0.046	0.021
-508.770	-18.252	-0.348	-0.219
-507.756	37.249	-0.098	-0.088
-506.741	12.348	-0.199	-0.155
-505.726	-200.000	0.024	-0.111
-504.712	673.282	-0.084	-0.218
-503.697	647.302	0.124	0.320
-502.683	-69.082	-0.241	0.093
-501.668	687.037	-0.147	0.388
-500.653	25.464	0.091	-0.077
-499.639	390.667	0.147	0.307
-498.624	800.000	0.023	-0.100
-497.610	-166.458	0.119	0.005
-496.595	800.000	0.087	-0.380
-495.581	96.028	0.161	0.185
-494.566	-200.000	0.003	0.064
-493.551	778.631	-0.049	0.136
-492.537	135.956	0.270	0.354
-491.522	-44.096	0.279	0.141
-490.508	-200.000	-0.011	-0.069
-489.493	-0.864	-0.193	0.137
-488.478	-200.000	0.000	-0.114
-487.464	315.617	0.077	0.147
-486.449	-73.553	-0.079	-0.029
-485.435	-55.947	-0.185	0.083
-484.420	800.000	0.027	0.076
-483.405	105.379	-0.116	0.138
-482.391	33.268	-0.242	0.212
-481.376	138.600	-0.211	-0.279
-480.362	800.000	-0.060	0.235
-479.347	10.039	-0.206	-0.158
-478.332	-43.594	-0.202	0.102
-477.318	-40.855	0.202	-0.105
-476.303	-100.931	-0.129	-0.032
-475.289	172.032	-0.040	-0.058
-474.274	-23.397	-0.112	-0.068
-473.259	-67.475	0.240	0.095
-472.245	52.740	-0.174	-0.167
-471.230	-50.683	0.230	-0.109
-470.216	-200.000	-0.021	0.297
-469.201	-200.000	0.030	0.408
-468.186	211.568	0.125	0.198
-467.172	24.722	-0.078	0.065
-466.157	239.732	0.167	0.280
-465.143	9.413	-0.254	0.193
-464.128	339.735	0.108	0.212
-463.113	-200.000	-0.060	-0.308
-462.099	800.000	-0.087	0.260
-461.084	-96.100	-0.134	0.036
-460.070	481.314	-0.052	0.118
-459.055	357.163	-0.049	0.097
-458.040	-200.000	-0.019	-0.122
-457.026	-200.000	-0.029	-0.331
-456.011	-24.759	0.147	-0.088
-454.997	-200.000	0.270	-0.000
-453.982	800.000	-0.020	-0.082
-452.968	-62.970	0.325	0.135
-451.953	90.353	-0.066	-0.074
-450.938	315.043	-0.175	0.331
-449.924	120.288	-0.128	0.160
-448.909	570.532	0.011	0.026
-447.895	-169.866	0.249	0.009
-446.880	87.239	0.310	0.345
-445.865	147.043	-0.076	0.103
-444.851	-51.402	-0.103	-0.049
-443.836	-119.244	0.068	0.012
-442.822	-148.113	0.243	-0.020
-441.807	-49.682	0.101	0.049
-440.792	501.883	-0.054	-0.124
-439.778	41.444	0.019	0.017
-438.763	-90.329	-0.226	-0.066
-437.749	309.177	-0.066	0.124
-436.734	-200.000	-0.007	-0.210
-435.719	197.186	-0.087	-0.133
-434.705	-154.417	-0.146	-0.010
-433.690	645.986	0.064	0.165
-432.676	-83.002	0.449	0.145
-431.661	800.000	-0.123	0.450
-430.646	-200.000	0.027	-0.220
-429.632	107.477	-0.175	-0.209
-428.617	508.450	0.013	-0.031
-427.603	-141.851	0.117	-0.012
-426.588	-172.056	0.311	-0.010
-425.573	-200.000	0.006	-0.297
-424.559	800.000	0.053	-0.233
-423.544	55.589	-0.145	-0.142
-422.530	-24.057	-0.058	-0.035
-421.515	2.964	-0.219	0.160
-420.500	5.399	0.083	0.061
-419.486	115.404	0.038	-0.047
-418.471	241.658	-0.137	0.230
-417.457	800.000	0.085	0.306
-416.442	40.625	-0.281	-0.255
-415.428	-0.234	0.096	0.069
-414.413	446.411	-0.037	0.082
-413.398	466.637	-0.038	0.085
-412.384	753.946	-0.123	-0.334
-411.369	465.829	-0.154	0.346
-410.355	-82.213	-0.051	0.017
-409.340	-193.646	-0.115	0.001
-408.325	800.000	-0.098	-0.395
-407.311	198.474	0.291	-0.446
-406.296	144.225	-0.176	-0.236
-405.282	-32.215	0.205	0.115
-404.267	59.753	-0.125	-0.124
-403.252	-200.000	0.023	-0.178
-402.238	-36.564	-0.042	0.023
-401.223	188.480	0.058	0.087
-400.209	-200.000	-0.077	0.000
-399.194	312.343	0.083	-0.157
-398.179	157.627	0.235	0.326
-397.165	560.633	-0.092	-0.222
-396.150	322.290	-0.027	0.051
-395.136	-159.569	-0.178	0.010
-394.121	-111.695	0.072	0.015
-393.106	-116.644	-0.297	0.055
-392.092	-149.546	0.235	0.019
-391.077	1.338	0.219	0.158
-390.063	800.000	0.050	-0.215
-389.048	78.905	0.180	-0.193
-388.033	566.443	-0.086	-0.210
-387.019	109.106	0.158	-0.190
-386.004	-99.474	-0.252	0.064
-384.990	800.000	-0.035	-0.129
-383.975	-64.455	0.118	-0.048
-382.960	-82.267	0.381	0.124
-381.946	-112.349	-0.204	0.041
-380.931	78.236	-0.136	-0.145
-379.917	59.967	0.143	-0.142
-378.902	-54.595	0.390	0.177
-377.888	800.000	0.037	-0.106
-376.873	108.441	0.202	0.242
-375.858	-200.000	-0.009	-0.046
-374.844	-200.000	-0.004	-0.195
-373.829	800.000	-0.085	0.261
-372.815	3.873	-0.187	0.137
-371.800	800.000	-0.085	0.271
-370.785	209.976	-0.156	0.245
-369.771	79.556	-0.281	-0.302
-368.756	47.236	-0.208	-0.195
-367.742	800.000	0.072	0.219
-366.727	-115.650	0.109	0.021
-365.712	242.697	0.103	0.173
-364.698	-126.652	0.213	-0.032
-363.683	351.479	-0.102	-0.202
-362.669	800.000	0.103	-0.303
-361.654	-23.992	-0.236	0.141
-360.639	86.250	0.208	0.229
-359.625	800.000	0.084	-0.248
-358.610	513.455	-0.094	-0.220
-357.596	-44.382	0.136	-0.068
-356.581	14.788	0.193	-0.151
-355.566	-200.000	-0.008	-0.112
-354.552	-127.778	-0.045	-0.006
-353.537	34.158	0.292	-0.255
-352.523	-200.000	-0.025	0.165
-351.508	336.856	-0.041	0.080
-350.493	800.000	-0.091	-0.259
-349.479	1.718	0.292	0.211
-348.464	-121.039	-0.226	-0.038
-347.450	72.699	-0.197	0.205
-346.435	-36.993	0.177	-0.095
-345.420	-84.175	0.235	0.075
-344.406	-131.073	-0.248	0.033
-343.391	-127.860	0.061	-0.009
-342.377	-12.853	-0.292	-0.190
-341.362	-69.801	0.169	-0.065
-340.348	-200.000	-0.005	0.208
-339.333	-59.499	-0.316	-0.136
-338.318	-76.375	0.195	0.069
-337.304	7.391	-0.288	-0.216
-336.289	614.115	0.049	-0.122
-335.275	-200.000	0.024	-0.259
-334.260	-9.114	-0.133	-0.089
-333.245	-129.687	-0.298	-0.041
-332.231	143.061	-0.241	0.321
-331.216	800.000	0.117	-0.337
-330.202	800.000	-0.072	0.273
-329.187	-51.735	-0.380	0.177
-328.172	71.987	0.038	0.039
-327.158	-48.085	-0.134	-0.065
-326.143	5.680	0.090	0.066
-325.129	-160.176	0.162	-0.009
-324.114	-79.008	0.240	-0.082
-323.099	528.925	-0.067	-0.159
-322.085	563.302	0.122	0.296
-321.070	409.238	0.026	-0.056
-320.056	-100.081	0.078	0.019
-319.041	-12.575	0.095	0.062
-318.026	-45.560	-0.292	-0.145
-317.012	275.176	0.041	0.073
-315.997	-200.000	-0.016	0.138
-314.983	187.894	0.073	-0.110
-313.968	105.981	0.311	0.368
-312.953	800.000	0.057	0.214
-311.939	167.868	-0.132	-0.188
-310.924	-147.620	-0.196	-0.017
-309.910	-187.185	-0.453	0.006
-308.895	800.000	0.040	0.121
-307.880	-200.000	0.048	-0.293
-306.866	-34.444	-0.282	-0.154
-305.851	-178.322	-0.205	-0.005
-304.837	-3.404	0.227	-0.158
-303.822	800.000	-0.048	-0.168
-302.807	13.186	0.226	0.175
-301.793	800.000	0.040	0.156
-300.778	169.524	-0.375	0.536
-299.764	-8.887	0.071	0.047
-298.749	50.138	-0.207	0.195
-297.735	800.000	0.048	0.148
-296.720	39.264	0.062	-0.055
-295.705	-171.443	-0.047	0.002
-294.691	312.418	-0.164	-0.307
-293.676	562.057	-0.070	0.170
-292.662	37.714	0.149	0.133
-291.647	281.184	-0.133	-0.239
-290.632	-200.000	0.004	0.340
-289.618	-200.000	0.037	-0.297
-288.603	-35.222	-0.093	-0.051
-287.589	46.459	0.180	-0.167
-286.574	-70.411	0.193	-0.073
-285.559	38.844	-0.067	-0.060
-284.545	0.568	0.116	-0.083
-283.530	232.461	-0.182	-0.298
-282.516	-200.000	0.034	0.238
-281.501	88.721	-0.145	-0.161
-280.486	-129.471	0.038	0.005
-279.472	800.000	-0.035	0.127
-278.457	-115.467	-0.132	0.025
-277.443	-96.796	0.134	-0.035
-276.428	800.000	0.023	-0.095
-275.413	-106.792	-0.083	0.018
-274.399	109.261	-0.219	-0.262
-273.384	83.573	0.116	-0.126
-272.370	-200.000	0.117	-0.522
-271.355	30.685	-0.157	-0.134
-270.340	580.188	-0.013	-0.032
-269.326	-17.702	-0.090	-0.056
-268.311	-40.806	0.265	0.137
-267.297	99.587	0.152	0.176
-266.282	-48.981	-0.036	-0.017
-265.267	-200.000	0.071	-0.315
-264.253	-2.414	0.204	0.143
-263.238	-125.286	-0.180	-0.028
-262.224	55.849	-0.116	0.113
-261.209	-9.628	0.287	0.191
-260.195	-200.000	0.010	0.152
-259.180	-148.578	0.271	0.022
-258.165	-59.407	0.185	-0.079
-257.151	36.370	-0.145	0.128
-256.136	-20.999	0.027	0.017
-255.122	107.202	-0.134	0.159
-254.107	102.175	0.137	-0.160
-253.092	-105.294	0.267	0.061
-252.078	497.312	-0.087	0.199
-251.063	-200.000	0.022	-0.179
-250.049	800.000	0.022	-0.082
-249.034	117.709	-0.015	-0.019
-248.019	800.000	0.015	-0.056
-247.005	13.756	-0.246	0.191
-245.990	-34.769	0.051	-0.028
-244.976	-55.302	0.252	-0.113
-243.961	113.409	0.283	-0.343
-242.946	800.000	-0.093	-0.344
-241.932	59.690	-0.120	-0.118
-240.917	532.983	0.081	0.190
-239.903	-32.074	0.205	0.114
-238.888	57.577	0.156	0.152
-237.873	-130.581	0.202	-0.027
-236.859	69.416	0.193	0.198
-235.844	21.269	0.158	0.128
-234.830	-200.000	-0.000	0.214
-233.815	23.973	-0.317	0.261
-232.800	616.285	0.131	0.329
-231.786	34.171	-0.176	0.153
-230.771	-82.235	-0.184	0.060
-229.757	472.632	0.097	-0.218
-228.742	-30.848	0.389	0.219
-227.727	-200.000	-0.003	-0.019
-226.713	156.868	-0.213	-0.293
-225.698	140.727	-0.152	-0.201
-224.684	-200.000	-0.038	0.173
-223.669	800.000	-0.091	-0.293
-222.655	-200.000	0.006	0.032
-221.640	656.170	0.063	0.162
-220.625	-83.710	0.186	0.059
-219.611	-44.895	0.193	-0.096
-218.596	-3.576	0.274	-0.190
-217.582	-200.000	-0.046	0.216
-216.567	30.696	-0.101	0.086
-215.552	-14.339	0.035	0.022
-214.538	-39.479	-0.155	0.081
-213.523	82.548	-0.114	0.123
-212.509	313.920	0.145	-0.271
-211.494	104.486	-0.240	-0.282
-210.479	49.991	0.138	-0.130
-209.465	-200.000	0.012	-0.195
-208.450	800.000	0.046	-0.172
-207.436	800.000	-0.014	-0.050
-206.421	-29.404	0.125	0.072
-205.406	-200.000	0.021	0.113
-204.392	-21.481	0.052	-0.032
-203.377	-166.567	0.186	0.008
-202.363	20.913	-0.234	-0.189
-201.348	121.807	0.076	0.094
-200.333	800.000	-0.017	0.056
-199.319	800.000	0.059	-0.181
-198.304	800.000	0.068	0.187
-197.290	413.907	-0.044	0.092
-196.275	5.802	-0.429	-0.316
-195.260	152.502	-0.215	-0.292
-194.246	-120.879	-0.054	-0.009
-193.231	388.164	-0.025	-0.052
-192.217	-111.030	-0.112	0.023
-191.202	-108.501	0.241	0.052
-190.187	104.024	-0.061	-0.072
-189.173	176.668	0.096	-0.138
-188.158	66.335	0.255	-0.258
-187.144	79.668	0.141	-0.151
-186.129	-62.512	-0.190	0.079
-185.114	-48.152	-0.104	0.050
-184.100	-79.898	0.163	-0.055
-183.085	-200.000	0.023	0.321
-182.071	686.121	-0.024	-0.063
-181.056	-143.430	0.314	0.030
-180.042	-65.844	0.214	0.085
-179.027	-200.000	0.049	0.225
-178.012	63.727	0.378	0.378
-176.998	-44.183	0.246	-0.123
-175.983	-10.644	0.247	0.162
-174.969	257.642	0.147	0.251
-173.954	-200.000	0.036	0.170
-172.939	-115.688	-0.199	-0.037
-171.925	800.000	-0.020	-0.085
-170.910	-21.273	-0.114	-0.069
-169.896	9.972	0.180	-0.136
-168.881	12.409	-0.157	-0.120
-167.866	629.574	-0.041	-0.103
-166.852	166.088	-0.057	0.081
-165.837	-200.000	-0.005	-0.232
-164.823	238.770	0.179	0.296
-163.808	-200.000	-0.007	0.118
-162.793	-200.000	-0.020	-0.120
-161.779	-52.147	-0.412	0.190
-160.764	206.887	-0.149	0.231
-159.750	800.000	-0.050	-0.167
-158.735	800.000	-0.161	-0.449
-157.720	-141.965	0.206	0.020
-156.706	-93.157	-0.308	0.085
-155.691	-200.000	-0.018	0.115
-154.677	-7.261	0.128	0.086
-153.662	248.695	0.083	0.139
-152.647	-150.513	0.201	-0.015
-151.633	-200.000	-0.004	-0.097
-150.618	-47.496	0.045	0.022
-149.604	-47.772	0.229	-0.110
-148.589	55.176	-0.082	-0.079
-147.574	-200.000	0.006	-0.108
-146.560	33.510	0.201	-0.173
-145.545	75.225	-0.175	-0.184
-144.531	19.230	0.109	-0.087
-143.516	742.231	-0.061	0.164
-142.502	462.172	0.160	-0.355
-141.487	6.723	-0.153	0.113
-140.472	649.564	0.032	0.082
-139.458	-132.797	-0.208	-0.026
-138.443	-61.883	-0.233	-0.097
-137.429	-98.618	-0.187	0.047
-136.414	-92.305	-0.158	0.044
-135.399	20.828	-0.381	-0.307
-134.385	120.058	-0.081	-0.100
-133.370	323.935	-0.083	0.157
-132.356	249.716	0.075	0.126
-131.341	-24.556	0.155	-0.092
-130.326	-200.000	0.031	0.226
-129.312	10.750	-0.214	-0.162
-128.297	-33.951	-0.209	-0.114
-127.283	667.504	0.026	0.067
-126.268	17.647	-0.171	-0.135
-125.253	-139.940	0.274	-0.029
-124.239	-200.000	-0.037	-0.194
-123.224	-200.000	-0.049	0.272
-122.210	-39.432	-0.061	0.032
-121.195	800.000	-0.058	-0.253
-120.180	-36.486	-0.223	-0.119
