DTS Sentinel unit serial number:	SN413079Multiplexer serial number:	ORYXHardware model number:	OX4-SRSoftware version number:	ORYX F/W v4.00 Oryx Data Collector v3.7.2.0data status	okinstallation	princeton_trtdifferential loss correction	single-endedforward channel	channel 2reverse channel	N/Adate	2019/09/19time	02:07:35forward acquisition time	60.00reverse acquisition time	0.00gamma	496.2192k internal	0.2353k external	0.2353temperature offset calibration	1.0020default loss term (dB/km)	0.3790temperature slope calibration	1.0000multiplexer offset coefficient	1.0000multiplexer slope coefficient	1.0000fibre end	0.00T internal ref (°C)	21.19T ext. ref 1 (°C)	0.69T ext. ref 2 (°C)	14.85length (m)	temperature (°C)	Stokes	anti-Stokes-747.200	117.625	0.080	0.098
-746.185	11.669	-0.231	-0.177
-745.171	800.000	0.058	0.194
-744.156	-0.146	-0.067	-0.048
-743.142	62.498	0.105	0.104
-742.127	551.558	-0.051	0.121
-741.112	-200.000	0.032	0.335
-740.098	49.847	0.173	0.162
-739.083	-200.000	-0.009	0.235
-738.069	2.338	-0.340	0.245
-737.054	329.203	0.141	0.271
-736.039	255.121	0.159	-0.271
-735.025	-200.000	0.043	0.288
-734.010	-64.822	-0.191	-0.077
-732.996	321.028	-0.105	-0.199
-731.981	-200.000	-0.040	-0.205
-730.966	72.883	-0.050	-0.052
-729.952	-36.552	-0.425	-0.228
-728.937	597.483	-0.018	0.044
-727.923	153.837	-0.201	-0.275
-726.908	800.000	-0.022	-0.062
-725.894	-19.498	0.115	0.071
-724.879	-200.000	0.004	-0.296
-723.864	329.871	0.011	-0.021
-722.850	-200.000	-0.015	-0.183
-721.835	76.456	-0.259	0.274
-720.821	137.773	-0.143	0.186
-719.806	698.310	0.023	0.061
-718.791	-74.807	-0.175	-0.063
-717.777	-200.000	0.008	0.117
-716.762	800.000	0.056	0.176
-715.748	-106.062	0.171	-0.038
-714.733	-84.199	0.184	-0.058
-713.718	-200.000	0.006	-0.193
-712.704	-200.000	-0.003	0.087
-711.689	-200.000	0.009	0.109
-710.675	99.953	-0.180	-0.207
-709.660	-200.000	0.006	-0.262
-708.645	-45.243	0.294	0.145
-707.631	662.162	0.034	-0.087
-706.616	225.547	-0.218	-0.351
-705.602	749.261	0.095	0.255
-704.587	-47.380	0.206	-0.100
-703.572	-184.886	-0.324	-0.005
-702.558	81.014	0.239	0.257
-701.543	800.000	0.135	-0.376
-700.529	800.000	0.101	0.342
-699.514	-200.000	-0.004	0.143
-698.499	-32.096	-0.271	0.151
-697.485	-120.054	-0.284	0.048
-696.470	-200.000	0.039	-0.322
-695.456	-200.000	-0.001	0.110
-694.441	758.565	0.042	0.112
-693.426	-96.531	0.356	0.093
-692.412	102.988	0.144	-0.168
-691.397	8.578	-0.141	0.106
-690.383	-38.371	-0.123	-0.065
-689.368	-136.299	-0.013	-0.002
-688.354	30.153	-0.163	-0.139
-687.339	-58.270	-0.126	-0.055
-686.324	172.294	-0.185	-0.264
-685.310	40.116	-0.159	-0.142
-684.295	149.089	-0.079	0.106
-683.281	186.415	0.085	0.125
-682.266	149.313	0.248	-0.334
-681.251	13.064	0.230	-0.177
-680.237	42.112	0.277	-0.250
-679.222	637.554	0.033	-0.084
-678.208	-74.842	0.280	0.100
-677.193	-133.935	-0.402	0.050
-676.178	292.016	0.056	0.102
-675.164	-127.554	0.189	-0.027
-674.149	-200.000	-0.006	0.282
-673.135	-110.478	-0.047	-0.010
-672.120	482.850	-0.083	0.187
-671.105	-136.171	-0.162	-0.019
-670.091	156.186	-0.123	0.169
-669.076	223.180	0.084	0.135
-668.062	-133.473	-0.049	0.006
-667.047	800.000	-0.044	-0.122
-666.032	-117.165	0.076	-0.014
-665.018	-111.963	0.185	0.037
-664.003	-200.000	-0.013	0.189
-662.989	-200.000	0.017	0.370
-661.974	172.743	0.037	0.053
-660.959	169.885	0.175	0.249
-659.945	-50.153	-0.074	-0.035
-658.930	68.522	-0.316	-0.322
-657.916	615.692	-0.173	0.431
-656.901	113.189	-0.130	-0.157
-655.886	-200.000	-0.059	-0.390
-654.872	-24.619	-0.271	0.160
-653.857	294.681	0.200	-0.364
-652.843	-200.000	-0.002	-0.309
-651.828	800.000	-0.063	-0.234
-650.814	124.731	0.192	-0.240
-649.799	278.421	0.148	-0.262
-648.784	50.213	0.130	0.122
-647.770	-78.191	-0.130	0.044
-646.755	20.826	0.351	0.282
-645.741	125.571	-0.195	-0.245
-644.726	684.418	-0.096	-0.249
-643.711	-12.633	-0.118	-0.076
-642.697	47.054	-0.051	0.047
-641.682	800.000	-0.064	-0.186
-640.668	800.000	0.088	-0.299
-639.653	-200.000	-0.054	-0.237
-638.638	-65.521	-0.354	0.141
-637.624	-15.506	0.134	-0.085
-636.609	-92.760	-0.225	-0.063
-635.595	800.000	0.118	-0.365
-634.580	7.469	0.097	0.072
-633.565	-200.000	0.001	-0.125
-632.551	-146.970	0.197	0.017
-631.536	-85.233	0.300	0.093
-630.522	-68.001	-0.077	0.030
-629.507	686.061	-0.058	-0.151
-628.492	-46.896	-0.018	-0.009
-627.478	309.669	-0.091	-0.170
-626.463	68.247	0.117	-0.119
-625.449	64.899	-0.076	0.076
-624.434	-126.444	-0.466	-0.069
-623.419	729.646	-0.083	-0.219
-622.405	184.338	-0.049	-0.072
-621.390	315.954	0.105	-0.197
-620.376	-0.376	0.153	-0.108
-619.361	-113.915	-0.176	0.034
-618.346	800.000	0.035	0.116
-617.332	60.475	-0.092	0.091
-616.317	-134.720	-0.242	0.029
-615.303	582.842	-0.096	-0.233
-614.288	-40.665	0.194	0.100
-613.273	294.416	0.049	0.089
-612.259	-64.922	-0.063	-0.025
-611.244	-33.548	0.168	0.092
-610.230	1.697	-0.230	-0.165
-609.215	-100.859	0.133	-0.032
-608.201	-2.463	-0.131	-0.091
-607.186	-137.699	0.406	-0.045
-606.171	-200.000	0.030	0.207
-605.157	-54.545	-0.245	-0.110
-604.142	-83.273	-0.317	0.101
-603.128	-200.000	-0.081	0.430
-602.113	-3.832	-0.064	-0.044
-601.098	14.673	-0.202	0.156
-600.084	136.022	-0.011	0.014
-599.069	-175.356	0.195	-0.005
-598.055	-141.694	-0.426	-0.042
-597.040	-61.573	-0.125	0.052
-596.025	-11.389	0.134	0.087
-595.011	-28.233	-0.553	0.316
-593.996	-32.256	0.486	-0.269
-592.982	68.197	-0.079	0.080
-591.967	-30.132	0.172	-0.097
-590.952	-78.466	-0.058	-0.020
-589.938	166.806	0.176	-0.247
-588.923	97.312	-0.212	0.241
-587.909	188.571	-0.085	-0.126
-586.894	-200.000	-0.023	-0.191
-585.879	100.242	-0.139	0.160
-584.865	800.000	-0.067	-0.293
-583.850	85.891	0.176	-0.192
-582.836	25.342	0.055	-0.045
-581.821	-17.147	-0.315	0.197
-580.806	-61.662	-0.287	0.119
-579.792	519.371	-0.078	-0.180
-578.777	-136.305	-0.162	0.019
-577.763	800.000	-0.042	-0.135
-576.748	-84.477	0.110	-0.034
-575.733	317.883	0.124	-0.233
-574.719	519.865	0.121	-0.282
-573.704	226.275	-0.118	0.190
-572.690	-200.000	-0.041	0.206
-571.675	166.805	0.294	0.413
-570.661	57.683	0.055	0.053
-569.646	20.443	-0.186	-0.149
-568.631	16.509	0.195	-0.153
-567.617	253.536	-0.192	-0.325
-566.602	24.824	0.275	-0.225
-565.588	800.000	0.021	0.060
-564.573	-79.660	-0.224	0.075
-563.558	-63.202	-0.149	-0.061
-562.544	-10.537	0.051	-0.034
-561.529	-200.000	0.026	-0.149
-560.515	196.743	-0.159	-0.240
-559.500	19.660	0.033	-0.027
-558.485	-62.846	-0.063	0.026
-557.471	118.286	0.104	-0.127
-556.456	-55.994	-0.538	-0.238
-555.442	80.250	0.062	-0.066
-554.427	133.384	-0.195	0.250
-553.412	-144.236	0.083	0.008
-552.398	64.829	-0.046	-0.046
-551.383	128.264	-0.174	-0.219
-550.369	357.984	0.076	0.150
-549.354	524.049	-0.063	-0.146
-548.339	-58.532	-0.392	-0.168
-547.325	145.063	-0.087	-0.116
-546.310	-66.631	0.397	-0.156
-545.296	-110.854	-0.242	-0.049
-544.281	-49.125	-0.154	0.073
-543.266	800.000	-0.058	0.187
-542.252	-83.321	-0.170	0.054
-541.237	172.799	-0.154	-0.219
-540.223	-200.000	-0.024	0.105
-539.208	-200.000	0.037	-0.185
-538.193	12.410	-0.124	-0.094
-537.179	-71.060	-0.066	-0.025
-536.164	249.137	0.117	-0.196
-535.150	99.057	0.072	-0.082
-534.135	10.423	0.206	-0.155
-533.121	367.437	0.113	-0.226
-532.106	74.102	0.222	-0.230
-531.091	-33.426	-0.227	-0.124
-530.077	-60.696	0.303	-0.127
-529.062	71.152	-0.181	-0.185
-528.048	-200.000	0.012	-0.053
-527.033	-200.000	-0.003	0.144
-526.018	-147.262	0.041	0.003
-525.004	-200.000	-0.013	0.097
-523.989	91.365	-0.228	-0.253
-522.975	-86.232	0.528	0.161
-521.960	-200.000	0.043	0.288
-520.945	-3.666	-0.069	-0.047
-519.931	800.000	-0.065	-0.200
-518.916	226.926	-0.074	0.118
-517.902	-200.000	0.031	-0.191
-516.887	-54.447	0.186	0.083
-515.872	762.970	0.079	-0.212
-514.858	-110.396	0.207	0.042
-513.843	-47.799	0.251	0.120
-512.829	-129.540	-0.578	-0.079
-511.814	-67.426	-0.232	-0.090
-510.799	51.588	0.078	0.073
-509.785	800.000	0.068	0.237
-508.770	81.658	-0.197	0.211
-507.756	72.697	0.130	0.135
-506.741	800.000	-0.016	0.060
-505.726	-49.815	-0.224	0.105
-504.712	-98.587	0.013	-0.003
-503.697	60.271	-0.162	0.159
-502.683	20.759	-0.129	-0.103
-501.668	341.635	-0.098	-0.188
-500.653	14.769	0.118	0.091
-499.639	-106.956	-0.128	0.028
-498.624	674.868	-0.030	-0.076
-497.610	800.000	0.088	0.273
-496.595	800.000	0.092	0.363
-495.581	-76.450	-0.197	-0.068
-494.566	-99.265	-0.044	0.011
-493.551	141.705	0.190	-0.248
-492.537	-120.929	-0.574	0.095
-491.522	-21.820	0.140	0.084
-490.508	-101.853	0.183	0.044
-489.493	-200.000	-0.027	0.244
-488.478	201.797	-0.116	0.176
-487.464	-6.544	-0.238	0.160
-486.449	680.831	0.161	-0.413
-485.435	-134.766	-0.157	0.019
-484.420	59.362	0.199	0.193
-483.405	346.322	-0.062	-0.120
-482.391	72.295	0.299	-0.308
-481.376	603.734	-0.067	-0.165
-480.362	-53.696	-0.222	-0.100
-479.347	55.239	-0.055	0.052
-478.332	145.580	-0.093	0.123
-477.318	800.000	0.036	0.121
-476.303	-200.000	-0.039	-0.221
-475.289	31.168	-0.148	0.125
-474.274	-71.749	-0.184	-0.068
-473.259	-44.948	0.262	-0.129
-472.245	-13.714	0.218	0.139
-471.230	95.601	0.258	0.290
-470.216	-148.985	-0.298	-0.024
-469.201	-7.732	0.360	0.240
-468.186	601.737	0.054	0.134
-467.172	800.000	0.053	-0.155
-466.157	213.946	-0.147	-0.229
-465.143	-119.999	-0.130	-0.022
-464.128	-108.215	-0.148	0.032
-463.113	-114.747	-0.321	-0.060
-462.099	374.955	-0.125	0.252
-461.084	770.222	-0.004	-0.010
-460.070	41.378	-0.058	-0.052
-459.055	-200.000	0.011	-0.078
-458.040	194.585	0.204	0.305
-457.026	157.212	0.052	0.071
-456.011	201.616	-0.248	-0.376
-454.997	159.129	-0.048	0.065
-453.982	229.125	-0.125	0.201
-452.968	149.898	-0.084	-0.112
-451.953	-200.000	-0.000	0.177
-450.938	226.602	-0.332	0.531
-449.924	-13.683	0.427	-0.272
-448.909	-113.500	-0.271	0.052
-447.895	-62.571	0.262	0.107
-446.880	714.003	0.072	0.189
-445.865	-2.770	0.094	-0.065
-444.851	15.639	0.220	-0.171
-443.836	596.015	-0.120	-0.293
-442.822	192.203	0.011	-0.017
-441.807	-123.210	0.184	-0.029
-440.792	-200.000	-0.072	0.388
-439.778	-74.574	-0.299	0.106
-438.763	-83.370	0.520	-0.164
-437.749	250.818	-0.143	0.240
-436.734	-38.498	-0.146	0.076
-435.719	-94.210	-0.048	0.013
-434.705	800.000	-0.080	0.324
-433.690	103.525	-0.270	0.313
-432.676	-89.832	0.140	-0.040
-431.661	213.405	-0.065	-0.102
-430.646	-10.033	0.072	-0.047
-429.632	-200.000	0.002	-0.142
-428.617	-200.000	-0.034	0.275
-427.603	-17.594	0.206	-0.127
-426.588	33.345	-0.141	-0.121
-425.573	27.165	0.250	0.207
-424.559	-145.958	-0.175	0.015
-423.544	71.141	0.142	-0.145
-422.530	-76.846	0.264	-0.091
-421.515	63.232	0.247	-0.244
-420.500	-6.850	0.052	0.035
-419.486	229.369	0.165	0.265
-418.471	-28.508	0.212	-0.120
-417.457	348.359	0.216	-0.419
-416.442	-137.666	-0.350	0.039
-415.428	-200.000	0.030	0.267
-414.413	2.833	-0.120	0.086
-413.398	565.695	0.085	-0.202
-412.384	-200.000	0.044	-0.220
-411.369	-200.000	-0.049	-0.337
-410.355	151.593	0.065	-0.087
-409.340	-100.164	0.471	-0.115
-408.325	-200.000	0.074	-0.401
-407.311	-80.250	0.277	0.091
-406.296	-200.000	0.006	-0.239
-405.282	-145.192	0.357	-0.032
-404.267	-200.000	0.007	0.085
-403.252	-200.000	0.497	0.001
-402.238	334.459	-0.088	0.167
-401.223	33.036	-0.252	0.215
-400.209	80.665	-0.146	-0.155
-399.194	-200.000	0.028	-0.184
-398.179	249.954	0.125	-0.209
-397.165	-92.047	-0.078	0.022
-396.150	-103.762	-0.256	-0.059
-395.136	50.200	-0.270	0.251
-394.121	241.193	0.169	-0.278
-393.106	3.343	0.100	-0.071
-392.092	-28.086	-0.229	0.131
-391.077	166.561	0.207	-0.289
-390.063	800.000	0.029	-0.082
-389.048	-31.632	-0.250	0.138
-388.033	-121.185	-0.050	-0.008
-387.019	67.108	-0.052	0.052
-386.004	-200.000	-0.011	0.281
-384.990	800.000	-0.074	-0.285
-383.975	800.000	0.061	0.205
-382.960	-91.596	0.118	0.033
-381.946	92.941	-0.228	0.253
-380.931	-138.607	-0.096	0.010
-379.917	-130.008	0.437	0.059
-378.902	-99.057	0.259	0.065
-377.888	169.843	-0.162	-0.227
-376.873	-25.258	-0.249	-0.145
-375.858	125.367	0.087	0.108
-374.844	514.494	0.108	0.249
-373.829	-200.000	0.009	-0.385
-372.815	-200.000	0.031	-0.387
-371.800	-200.000	-0.004	0.023
-370.785	13.221	-0.388	-0.296
-369.771	11.996	0.260	0.196
-368.756	-200.000	-0.028	0.141
-367.742	-200.000	-0.047	-0.400
-366.727	-200.000	-0.006	0.087
-365.712	97.097	0.169	-0.191
-364.698	-200.000	-0.041	0.299
-363.683	-200.000	-0.046	0.251
-362.669	-140.171	0.206	0.021
-361.654	800.000	0.052	-0.160
-360.639	243.156	-0.041	0.068
-359.625	19.704	0.081	0.064
-358.610	-200.000	-0.024	0.337
-357.596	-115.237	-0.199	-0.037
-356.581	-200.000	-0.019	-0.220
-355.566	3.921	0.306	-0.220
-354.552	-66.962	0.181	0.070
-353.537	110.322	-0.182	0.214
-352.523	-200.000	0.094	0.529
-351.508	545.102	-0.121	0.284
-350.493	-200.000	0.042	-0.188
-349.479	74.218	0.254	0.262
-348.464	-45.263	0.318	0.155
-347.450	800.000	-0.034	0.097
-346.435	800.000	-0.124	-0.340
-345.420	462.989	-0.136	-0.298
-344.406	4.820	0.198	-0.143
-343.391	-111.118	-0.222	-0.045
-342.377	-200.000	-0.028	-0.269
-341.362	173.260	-0.117	-0.166
-340.348	13.849	0.344	0.262
-339.333	440.222	-0.072	-0.155
-338.318	-117.515	-0.218	0.039
-337.304	-200.000	-0.044	-0.224
-336.289	800.000	0.054	0.181
-335.275	-94.367	-0.240	-0.064
-334.260	-101.789	0.123	-0.029
-333.245	-1.731	0.187	0.129
-332.231	198.412	-0.068	-0.103
-331.216	-95.191	-0.194	0.051
-330.202	-73.095	0.158	0.057
-329.187	-73.656	-0.167	-0.060
-328.172	-38.566	-0.146	0.076
-327.158	-200.000	0.031	-0.179
-326.143	21.607	0.120	-0.096
-325.129	14.607	-0.049	0.037
-324.114	-32.796	0.093	0.050
-323.099	0.195	-0.198	-0.139
-322.085	277.872	-0.236	0.412
-321.070	-200.000	0.084	0.383
-320.056	-159.697	0.100	-0.005
-319.041	-200.000	0.014	-0.110
-318.026	-45.917	-0.497	-0.240
-317.012	-200.000	-0.011	0.181
-315.997	800.000	0.057	-0.222
-314.983	270.110	-0.120	-0.208
-313.968	-176.315	0.044	-0.001
-312.953	203.641	0.186	0.283
-311.939	-116.470	0.449	-0.081
-310.924	-18.905	-0.151	0.092
-309.910	-143.719	0.168	0.016
-308.895	26.851	0.091	0.075
-307.880	337.627	0.076	-0.145
-306.866	800.000	0.085	0.244
-305.851	800.000	-0.059	0.234
-304.837	-39.022	0.321	0.166
-303.822	800.000	-0.058	-0.160
-302.807	-189.289	0.228	-0.003
-301.793	37.812	0.314	0.274
-300.778	13.797	0.324	-0.247
-299.764	21.097	-0.218	0.173
-298.749	-23.741	-0.286	-0.168
-297.735	409.799	0.050	0.104
-296.720	-200.000	-0.284	0.000
-295.705	-175.382	0.058	-0.002
-294.691	130.144	-0.155	0.194
-293.676	36.060	0.137	0.118
-292.662	-150.743	-0.169	-0.013
-291.647	-40.127	-0.217	-0.111
-290.632	-132.338	-0.197	0.025
-289.618	-15.696	-0.270	-0.169
-288.603	-136.003	-0.161	0.019
-287.589	289.533	-0.076	-0.136
-286.574	81.945	0.103	0.109
-285.559	340.057	-0.221	0.422
-284.545	165.401	0.072	-0.099
-283.530	615.012	0.109	0.267
-282.516	-67.461	-0.096	-0.037
-281.501	-36.857	0.057	0.030
-280.486	-95.766	0.151	-0.040
-279.472	-120.195	0.056	0.009
-278.457	-12.082	-0.080	-0.051
-277.443	-107.485	-0.274	-0.059
-276.428	-112.093	0.057	0.011
-275.413	35.597	0.170	0.146
-274.399	800.000	-0.086	0.312
-273.384	86.493	0.226	-0.244
-272.370	83.963	0.304	0.325
-271.355	-200.000	-0.039	0.364
-270.340	125.916	0.049	-0.060
-269.326	92.635	-0.126	-0.139
-268.311	-55.339	0.262	-0.115
-267.297	-19.057	-0.391	-0.238
-266.282	-26.133	0.215	-0.124
-265.267	469.615	-0.015	-0.033
-264.253	-108.983	0.188	0.039
-263.238	-121.815	0.065	0.010
-262.224	-14.404	0.251	-0.158
-261.209	150.322	0.198	0.263
-260.195	-200.000	0.004	0.051
-259.180	800.000	-0.074	0.300
-258.165	800.000	0.066	0.225
-257.151	98.012	-0.042	-0.048
-256.136	-12.172	0.444	0.284
-255.122	97.389	-0.204	0.229
-254.107	11.663	0.180	0.135
-253.092	54.395	0.110	0.104
-252.078	98.213	0.271	0.305
-251.063	391.294	-0.120	0.244
-250.049	-158.419	0.055	0.003
-249.034	-116.179	0.148	0.027
-248.019	-200.000	-0.065	-0.321
-247.005	-60.566	-0.208	-0.086
-245.990	-200.000	0.010	-0.045
-244.976	640.996	0.109	0.271
-243.961	-110.219	0.366	0.075
-242.946	-30.730	-0.266	0.147
-241.932	-32.187	0.172	-0.094
-240.917	-200.000	0.047	-0.225
-239.903	-200.000	0.058	-0.318
-238.888	-111.064	0.223	-0.045
-237.873	-72.012	-0.362	0.132
-236.859	-200.000	-0.035	-0.207
-235.844	684.520	-0.104	0.265
-234.830	274.226	-0.213	-0.369
-233.815	146.299	-0.187	-0.245
-232.800	-1.626	0.159	0.109
-231.786	800.000	0.082	0.285
-230.771	163.884	0.214	-0.294
-229.757	-71.054	0.227	-0.084
-228.742	-179.923	-0.209	0.004
-227.727	45.386	-0.065	-0.059
-226.713	249.173	0.162	0.268
-225.698	12.262	-0.093	0.070
-224.684	-104.131	-0.236	-0.054
-223.669	-200.000	0.006	-0.086
-222.655	356.083	0.052	0.102
-221.640	-88.916	-0.039	0.011
-220.625	-200.000	-0.013	0.154
-219.611	-15.249	0.198	0.124
-218.596	-22.948	0.029	0.017
-217.582	800.000	0.085	0.321
-216.567	-118.865	0.424	0.073
-215.552	-36.137	-0.052	0.027
-214.538	-76.486	-0.269	-0.092
-213.523	800.000	-0.115	0.373
-212.509	-200.000	0.073	-0.379
-211.494	-1.824	0.254	0.175
-210.479	-129.876	-0.308	0.041
-209.465	127.189	0.175	0.217
-208.450	800.000	0.024	-0.075
-207.436	61.020	-0.103	-0.099
-206.421	-200.000	-0.049	0.395
-205.406	800.000	-0.063	0.181
-204.392	800.000	0.032	0.119
-203.377	-6.520	0.178	0.118
-202.363	-88.488	-0.279	-0.081
-201.348	54.268	-0.099	-0.093
-200.333	21.909	0.132	-0.105
-199.319	800.000	-0.061	0.179
-198.304	-188.056	-0.053	0.001
-197.290	41.523	0.104	0.092
-196.275	133.271	-0.076	0.096
-195.260	-200.000	-0.039	0.386
-194.246	-135.947	-0.141	0.016
-193.231	-13.907	-0.282	-0.178
-192.217	49.189	0.102	-0.093
-191.202	-200.000	0.004	-0.451
-190.187	-200.000	-0.001	0.177
-189.173	-10.944	-0.334	-0.215
-188.158	-200.000	-0.030	-0.144
-187.144	-101.726	0.482	-0.114
-186.129	140.773	-0.076	0.098
-185.114	218.360	-0.095	0.148
-184.100	-58.779	0.411	0.173
-183.085	-44.158	0.278	-0.136
-182.071	-175.573	-0.227	0.006
-181.056	-200.000	-0.010	0.049
-180.042	160.356	0.158	-0.216
-179.027	447.892	-0.025	0.054
-178.012	356.638	-0.192	0.373
-176.998	297.253	0.078	0.139
-175.983	-122.214	-0.292	0.047
-174.969	-77.062	0.076	-0.026
-173.954	182.382	0.118	-0.169
-172.939	800.000	-0.031	0.089
-171.925	-59.080	0.228	-0.096
-170.910	800.000	0.080	0.215
-169.896	-88.795	-0.174	-0.050
-168.881	159.391	-0.247	-0.336
-167.866	98.264	0.221	0.248
-166.852	-200.000	-0.077	0.383
-165.837	436.295	0.075	-0.159
-164.823	47.627	0.065	0.059
-163.808	-23.664	-0.185	0.108
-162.793	-52.624	0.088	0.040
-161.779	45.387	0.143	0.128
-160.764	-191.290	0.048	0.000
-159.750	-200.000	0.020	0.272
-158.735	144.945	0.144	0.188
-157.720	304.226	-0.116	0.209
-156.706	-143.714	0.110	-0.010
-155.691	4.538	0.241	-0.172
-154.677	-200.000	0.023	-0.180
-153.662	-55.152	0.359	-0.157
-152.647	-200.000	-0.020	-0.508
-151.633	-4.564	0.054	-0.037
-150.618	37.818	-0.062	0.053
-149.604	-173.988	-0.153	-0.004
-148.589	-200.000	-0.031	0.164
-147.574	398.426	0.037	0.076
-146.560	625.011	0.051	0.126
-145.545	-200.000	-0.011	0.102
-144.531	91.652	0.106	0.117
-143.516	168.508	-0.156	0.217
-142.502	-200.000	0.074	-0.366
-141.487	-56.042	-0.125	0.054
-140.472	-135.596	0.189	0.022
-139.458	233.433	-0.069	-0.110
-138.443	207.972	-0.070	-0.107
-137.429	73.370	0.133	0.136
-136.414	-164.214	-0.391	0.018
-135.399	800.000	0.081	0.229
-134.385	198.405	0.078	-0.116
-133.370	-200.000	0.023	-0.259
-132.356	95.064	-0.103	-0.115
-131.341	-51.750	0.224	0.102
-130.326	182.866	0.040	0.058
-129.312	-200.000	-0.029	-0.186
-128.297	273.578	-0.038	-0.065
-127.283	-65.417	0.048	-0.019
-126.268	2.801	-0.180	0.127
-125.253	-9.002	-0.125	-0.081
-124.239	-140.221	0.207	0.021
-123.224	-10.324	0.066	0.043
-122.210	-200.000	0.043	0.284
-121.195	188.908	-0.134	0.196
-120.180	-53.108	-0.311	-0.139
