DTS Sentinel unit serial number:	SN413079Multiplexer serial number:	ORYXHardware model number:	OX4-SRSoftware version number:	ORYX F/W v4.00 Oryx Data Collector v3.7.2.0data status	okinstallation	princeton_trtdifferential loss correction	single-endedforward channel	channel 2reverse channel	N/Adate	2019/09/16time	00:39:35forward acquisition time	60.00reverse acquisition time	0.00gamma	496.2192k internal	0.2337k external	0.2337temperature offset calibration	0.9962default loss term (dB/km)	0.3790temperature slope calibration	1.0000multiplexer offset coefficient	1.0000multiplexer slope coefficient	1.0000fibre end	0.00T internal ref (°C)	27.50T ext. ref 1 (°C)	9.62T ext. ref 2 (°C)	21.54length (m)	temperature (°C)	Stokes	anti-Stokes-747.200	578.014	-0.064	0.157
-746.185	133.547	0.248	0.322
-745.171	120.210	0.265	0.330
-744.156	327.685	-0.117	0.225
-743.142	-154.741	-0.037	-0.002
-742.127	-37.018	-0.014	0.008
-741.112	87.839	-0.172	0.191
-740.098	-110.393	-0.332	0.069
-739.083	723.270	-0.008	0.020
-738.069	175.576	0.064	-0.093
-737.054	-200.000	0.013	0.109
-736.039	-138.493	0.326	-0.036
-735.025	800.000	0.088	0.372
-734.010	-200.000	-0.004	0.283
-732.996	758.810	-0.090	-0.246
-731.981	800.000	-0.056	0.205
-730.966	-172.022	-0.194	0.006
-729.952	-172.031	0.285	-0.009
-728.937	-200.000	0.010	-0.113
-727.923	800.000	0.020	-0.065
-726.908	800.000	0.034	0.098
-725.894	-200.000	0.027	-0.200
-724.879	-200.000	0.016	0.275
-723.864	800.000	-0.036	0.113
-722.850	225.046	-0.110	-0.179
-721.835	-105.963	-0.155	-0.035
-720.821	-159.904	-0.391	0.021
-719.806	-69.384	0.187	0.072
-718.791	-167.891	0.066	-0.003
-717.777	-200.000	0.025	-0.186
-716.762	-57.692	-0.167	-0.073
-715.748	-72.806	-0.091	-0.034
-714.733	-45.241	-0.199	0.099
-713.718	302.658	0.101	0.187
-712.704	-61.899	0.146	0.061
-711.689	123.477	-0.052	-0.066
-710.675	-171.393	-0.330	-0.011
-709.660	-115.788	-0.349	-0.066
-708.645	-54.838	-0.279	-0.126
-707.631	63.149	0.090	-0.090
-706.616	800.000	-0.012	0.048
-705.602	253.913	0.128	0.220
-704.587	-38.339	0.140	0.074
-703.572	80.164	0.190	0.205
-702.558	103.574	-0.081	-0.096
-701.543	-98.664	-0.070	0.018
-700.529	18.560	0.222	0.177
-699.514	319.576	-0.125	-0.238
-698.499	150.833	0.046	0.063
-697.485	-14.960	0.065	0.042
-696.470	14.469	0.148	-0.115
-695.456	222.906	0.083	-0.134
-694.441	800.000	-0.104	0.307
-693.426	96.143	0.072	0.083
-692.412	-200.000	-0.008	-0.074
-691.397	39.634	-0.277	-0.248
-690.383	-200.000	0.302	0.001
-689.368	151.699	0.166	0.226
-688.354	-200.000	0.027	0.245
-687.339	11.503	-0.174	-0.134
-686.324	170.372	-0.193	0.276
-685.310	79.601	-0.168	0.180
-684.295	202.913	-0.111	-0.172
-683.281	313.496	-0.176	-0.332
-682.266	-158.941	0.213	0.012
-681.251	79.377	-0.301	-0.323
-680.237	1.797	-0.216	0.156
-679.222	-132.627	-0.333	0.043
-678.208	-52.294	0.296	0.137
-677.193	-98.466	-0.142	-0.036
-676.178	-80.877	-0.297	-0.099
-675.164	-94.596	-0.092	0.025
-674.149	-200.000	-0.001	-0.048
-673.135	-79.902	-0.076	0.026
-672.120	-153.327	-0.180	0.013
-671.105	-200.000	0.020	-0.257
-670.091	-125.867	0.133	-0.020
-669.076	162.918	0.179	-0.252
-668.062	-79.432	0.116	-0.039
-667.047	89.966	-0.075	-0.083
-666.032	-62.900	-0.161	0.067
-665.018	-75.894	-0.075	0.027
-664.003	-170.617	0.130	-0.005
-662.989	-151.022	-0.119	0.009
-661.974	-105.438	-0.263	-0.060
-660.959	-200.000	0.042	0.185
-659.945	-85.892	-0.201	0.062
-658.930	-200.000	-0.019	0.091
-657.916	-111.851	0.241	0.049
-656.901	-97.052	-0.152	-0.040
-655.886	-200.000	0.009	-0.385
-654.872	-110.429	-0.348	-0.072
-653.857	-92.752	0.057	0.016
-652.843	40.158	0.047	0.043
-651.828	-9.641	-0.094	-0.062
-650.814	99.906	-0.270	-0.312
-649.799	-200.000	-0.003	0.403
-648.784	-81.452	-0.143	-0.047
-647.770	-122.710	0.050	-0.008
-646.755	-200.000	-0.008	0.152
-645.741	-31.782	0.095	-0.053
-644.726	42.752	-0.076	-0.069
-643.711	27.346	0.102	0.086
-642.697	800.000	0.049	0.149
-641.682	-200.000	-0.015	0.191
-640.668	-15.233	-0.149	0.095
-639.653	12.022	0.155	-0.119
-638.638	-200.000	0.009	-0.236
-637.624	21.312	0.032	-0.026
-636.609	-130.623	0.228	0.031
-635.595	-160.530	-0.207	-0.011
-634.580	-159.238	0.432	0.024
-633.565	-200.000	-0.042	0.212
-632.551	-11.701	-0.154	0.101
-631.536	195.133	-0.198	-0.301
-630.522	15.375	-0.152	0.119
-629.507	607.471	-0.121	-0.301
-628.492	90.623	0.253	-0.283
-627.478	435.032	0.022	0.047
-626.463	-200.000	-0.013	0.353
-625.449	400.360	-0.081	0.170
-624.434	-46.553	0.156	-0.076
-623.419	-95.122	-0.183	0.049
-622.405	-200.000	-0.036	0.270
-621.390	205.647	0.125	0.194
-620.376	-148.400	-0.133	0.011
-619.361	-200.000	-0.030	-0.443
-618.346	-138.123	-0.355	-0.039
-617.332	254.419	-0.068	-0.117
-616.317	-200.000	0.000	-0.449
-615.303	296.006	0.151	0.276
-614.288	-169.252	0.578	0.021
-613.273	-88.319	-0.250	-0.075
-612.259	-200.000	0.352	-0.001
-611.244	557.381	0.132	0.318
-610.230	139.676	0.128	-0.168
-609.215	-46.444	0.159	0.078
-608.201	-55.826	-0.218	0.097
-607.186	-200.000	-0.028	-0.128
-606.171	-39.558	0.135	0.070
-605.157	154.219	-0.131	-0.180
-604.142	-101.306	0.242	0.059
-603.128	135.985	0.236	-0.307
-602.113	800.000	-0.106	0.342
-601.098	30.349	0.086	0.074
-600.084	-76.631	0.198	0.069
-599.069	-200.000	-0.023	0.140
-598.055	280.581	0.109	-0.194
-597.040	220.384	0.046	0.074
-596.025	-200.000	0.009	0.042
-595.011	476.191	0.061	0.138
-593.996	-44.656	0.298	0.148
-592.982	-126.411	-0.270	-0.040
-591.967	800.000	-0.022	-0.075
-590.952	-117.435	-0.208	0.037
-589.938	104.942	-0.167	-0.197
-588.923	-200.000	-0.037	-0.217
-587.909	255.096	-0.115	0.196
-586.894	182.671	0.171	0.252
-585.879	11.876	-0.256	0.196
-584.865	-106.512	0.177	0.039
-583.850	-100.399	0.018	-0.004
-582.836	-98.199	0.379	0.097
-581.821	42.325	-0.177	-0.161
-580.806	264.721	-0.144	-0.250
-579.792	800.000	-0.140	-0.487
-578.777	735.210	-0.059	-0.157
-577.763	35.564	-0.113	0.099
-576.748	398.893	0.095	0.198
-575.733	-200.000	-0.031	-0.164
-574.719	-200.000	-0.043	0.294
-573.704	181.256	-0.121	-0.177
-572.690	48.452	0.139	-0.129
-571.675	-200.000	0.008	0.097
-570.661	-68.872	0.223	0.086
-569.646	-11.927	-0.103	0.068
-568.631	445.625	-0.009	0.021
-567.617	-85.202	0.109	0.034
-566.602	800.000	0.021	-0.089
-565.588	-79.807	0.238	0.080
-564.573	216.777	0.132	0.210
-563.558	0.258	-0.096	0.069
-562.544	127.944	-0.047	0.059
-561.529	-46.267	-0.295	-0.145
-560.515	313.748	0.141	-0.264
-559.500	-200.000	-0.051	0.371
-558.485	-107.226	-0.331	0.073
-557.471	-187.348	0.126	-0.002
-556.456	-71.639	0.254	-0.095
-555.442	24.859	0.250	-0.207
-554.427	-140.787	-0.193	0.020
-553.412	-200.000	0.018	-0.175
-552.398	-200.000	0.058	0.390
-551.383	-39.972	-0.125	0.065
-550.369	196.330	-0.158	-0.240
-549.354	-105.125	0.325	0.074
-548.339	-119.447	-0.197	0.034
-547.325	-43.617	0.281	-0.141
-546.310	-118.100	-0.388	0.069
-545.296	389.683	0.072	0.148
-544.281	75.363	0.156	0.164
-543.266	250.708	0.085	-0.144
-542.252	108.821	0.084	0.100
-541.237	-144.740	-0.177	-0.016
-540.223	166.022	-0.075	-0.106
-539.208	108.789	-0.117	0.139
-538.193	-83.677	-0.079	-0.025
-537.179	800.000	0.063	-0.178
-536.164	121.756	0.207	-0.256
-535.150	-92.420	0.032	0.009
-534.135	106.378	0.069	-0.081
-533.121	105.373	-0.039	-0.046
-532.106	-200.000	-0.033	-0.241
-531.091	-4.028	0.132	-0.091
-530.077	-200.000	-0.074	0.391
-529.062	-200.000	0.021	0.281
-528.048	238.941	-0.079	0.130
-527.033	-84.973	-0.135	-0.042
-526.018	-26.741	-0.230	0.134
-525.004	800.000	0.060	0.190
-523.989	27.382	-0.152	-0.127
-522.975	800.000	0.163	0.500
-521.960	66.585	0.177	-0.179
-520.945	800.000	0.050	-0.150
-519.931	755.021	-0.069	-0.187
-518.916	-75.515	0.094	-0.033
-517.902	-95.967	-0.126	0.033
-516.887	800.000	0.089	-0.273
-515.872	-200.000	-0.013	-0.107
-514.858	800.000	0.038	-0.143
-513.843	800.000	0.079	-0.240
-512.829	187.688	-0.108	0.161
-511.814	302.580	0.076	-0.141
-510.799	-100.879	0.273	-0.067
-509.785	-141.125	-0.170	-0.017
-508.770	-112.182	-0.220	0.044
-507.756	81.899	0.134	0.144
-506.741	-200.000	0.044	-0.222
-505.726	-92.827	-0.528	0.147
-504.712	21.741	0.114	0.092
-503.697	-181.872	-0.310	0.006
-502.683	-16.835	-0.220	0.138
-501.668	590.596	-0.136	-0.333
-500.653	-85.790	0.223	0.069
-499.639	-200.000	-0.015	0.115
-498.624	-135.275	-0.361	0.043
-497.610	-37.925	-0.077	0.041
-496.595	-149.455	-0.473	-0.037
-495.581	-5.055	0.426	-0.291
-494.566	372.287	-0.121	0.244
-493.551	403.760	-0.088	-0.185
-492.537	121.581	-0.123	-0.153
-491.522	800.000	0.069	-0.202
-490.508	-200.000	0.081	-0.410
-489.493	77.059	0.070	0.074
-488.478	189.635	0.051	-0.077
-487.464	-75.799	-0.246	0.086
-486.449	-125.825	-0.045	0.007
-485.435	-200.000	0.064	0.501
-484.420	-78.692	0.143	-0.049
-483.405	-159.415	-0.277	-0.015
-482.391	-64.747	0.029	0.012
-481.376	435.340	0.228	0.493
-480.362	-130.802	0.387	0.052
-479.347	410.916	0.091	0.193
-478.332	800.000	0.018	-0.063
-477.318	-150.724	0.296	0.022
-476.303	800.000	0.095	-0.343
-475.289	-16.086	-0.045	-0.029
-474.274	-200.000	-0.007	0.129
-473.259	60.134	0.193	0.190
-472.245	-200.000	-0.028	-0.403
-471.230	-200.000	-0.019	-0.421
-470.216	-116.422	0.181	0.033
-469.201	167.988	0.104	-0.146
-468.186	362.379	-0.157	0.312
-467.172	70.156	-0.111	0.114
-466.157	-200.000	-0.018	-0.276
-465.143	4.180	0.396	-0.287
-464.128	22.743	0.173	0.141
-463.113	42.761	0.096	0.086
-462.099	-20.396	0.031	-0.019
-461.084	0.522	0.157	0.112
-460.070	151.460	-0.163	0.220
-459.055	-200.000	0.009	-0.481
-458.040	-170.740	0.214	-0.007
-457.026	-200.000	-0.040	-0.233
-456.011	-13.747	-0.129	-0.083
-454.997	-25.323	0.075	-0.044
-453.982	-150.521	0.315	-0.024
-452.968	73.569	0.202	0.209
-451.953	-9.033	0.161	0.107
-450.938	-200.000	-0.021	0.282
-449.924	-63.087	0.345	-0.141
-448.909	-200.000	0.048	-0.254
-447.895	-200.000	0.037	-0.211
-446.880	-154.416	-0.267	0.018
-445.865	419.690	-0.101	0.215
-444.851	-200.000	-0.018	-0.122
-443.836	378.498	0.038	-0.078
-442.822	-200.000	-0.011	0.160
-441.807	-127.611	-0.067	-0.010
-440.792	-57.434	0.210	0.091
-439.778	36.967	0.120	0.105
-438.763	194.361	-0.107	0.161
-437.749	-200.000	-0.020	0.200
-436.734	-47.596	-0.048	-0.023
-435.719	-200.000	-0.027	0.234
-434.705	-200.000	-0.020	0.103
-433.690	107.748	0.041	-0.048
-432.676	601.946	0.154	0.379
-431.661	-143.842	0.212	-0.020
-430.646	24.589	0.240	0.197
-429.632	-36.165	-0.355	-0.190
-428.617	436.414	0.100	-0.216
-427.603	21.427	0.074	0.059
-426.588	-200.000	-0.009	-0.041
-425.573	155.482	-0.125	-0.171
-424.559	35.100	-0.088	-0.077
-423.544	299.878	-0.234	-0.427
-422.530	33.503	-0.135	-0.116
-421.515	-200.000	0.001	0.028
-420.500	262.235	0.056	-0.096
-419.486	74.073	-0.164	-0.170
-418.471	-200.000	-0.003	-0.270
-417.457	37.119	-0.101	-0.089
-416.442	-61.514	0.231	-0.096
-415.428	51.982	-0.113	-0.106
-414.413	-69.750	-0.123	0.046
-413.398	447.346	0.031	-0.068
-412.384	800.000	-0.097	0.374
-411.369	71.191	-0.023	-0.024
-410.355	800.000	0.023	-0.082
-409.340	-114.681	0.266	-0.050
-408.325	191.024	0.144	-0.214
-407.311	272.575	0.165	0.289
-406.296	250.455	-0.065	-0.109
-405.282	800.000	-0.061	0.233
-404.267	-21.387	-0.173	-0.105
-403.252	756.057	0.042	0.113
-402.238	-46.025	-0.339	-0.165
-401.223	-93.035	0.071	0.020
-400.209	-56.000	0.115	-0.051
-399.194	162.176	-0.088	-0.122
-398.179	132.048	-0.114	0.145
-397.165	83.793	0.163	-0.177
-396.150	800.000	0.104	-0.283
-395.136	74.391	0.200	-0.208
-394.121	13.557	-0.149	0.114
-393.106	-200.000	0.002	-0.086
-392.092	-200.000	0.015	-0.275
-391.077	244.095	-0.019	0.031
-390.063	402.124	0.185	0.386
-389.048	114.881	0.044	0.053
-388.033	-80.861	0.313	-0.103
-387.019	-200.000	-0.040	0.310
-386.004	800.000	-0.074	-0.233
-384.990	-200.000	-0.019	0.290
-383.975	-93.892	-0.433	-0.118
-382.960	-177.730	0.383	0.009
-381.946	242.388	0.177	-0.292
-380.931	1.613	0.143	-0.102
-379.917	800.000	0.047	-0.194
-378.902	-200.000	-0.016	-0.188
-377.888	-1.245	-0.069	-0.048
-376.873	583.648	-0.012	-0.030
-375.858	219.906	-0.053	-0.084
-374.844	188.037	0.207	0.306
-373.829	124.520	-0.338	0.421
-372.815	527.691	-0.067	0.156
-371.800	114.556	0.151	-0.182
-370.785	-200.000	0.030	-0.198
-369.771	663.946	0.129	0.330
-368.756	-12.755	-0.142	0.091
-367.742	177.925	0.085	-0.123
-366.727	-14.851	0.200	0.127
-365.712	344.524	-0.112	-0.218
-364.698	139.758	-0.242	-0.315
-363.683	800.000	0.076	0.242
-362.669	135.173	-0.037	0.047
-361.654	572.301	-0.093	0.223
-360.639	800.000	0.071	0.206
-359.625	800.000	0.119	0.424
-358.610	687.511	-0.125	-0.323
-357.596	52.307	-0.152	-0.143
-356.581	188.452	0.152	0.225
-355.566	343.405	0.117	0.228
-354.552	53.874	0.270	-0.257
-353.537	84.265	-0.083	0.089
-352.523	800.000	-0.050	-0.164
-351.508	-0.485	-0.244	-0.171
-350.493	-200.000	-0.037	-0.282
-349.479	-173.968	0.304	0.009
-348.464	-200.000	-0.014	-0.304
-347.450	-200.000	0.063	-0.315
-346.435	210.850	-0.099	0.154
-345.420	110.855	-0.092	-0.109
-344.406	508.630	-0.003	0.006
-343.391	78.870	-0.175	-0.185
-342.377	-200.000	0.036	0.262
-341.362	60.560	-0.244	0.239
-340.348	209.985	-0.122	0.188
-339.333	-85.881	-0.105	0.032
-338.318	67.668	0.088	-0.089
-337.304	4.811	-0.242	0.176
-336.289	67.909	0.127	0.128
-335.275	5.819	-0.098	0.072
-334.260	-100.955	-0.296	0.072
-333.245	-33.035	0.060	-0.033
-332.231	487.162	-0.038	0.086
-331.216	-200.000	-0.009	0.469
-330.202	58.597	-0.131	-0.127
-329.187	-169.728	-0.252	0.009
-328.172	120.627	0.128	0.157
-327.158	-64.741	0.305	0.122
-326.143	223.732	0.141	0.225
-325.129	-145.975	0.524	0.046
-324.114	-200.000	-0.043	0.356
-323.099	-63.124	-0.107	-0.044
-322.085	121.013	0.145	0.179
-321.070	2.998	-0.213	0.153
-320.056	800.000	-0.037	-0.159
-319.041	800.000	0.067	0.214
-318.026	-152.219	-0.202	-0.014
-317.012	-104.081	0.281	0.065
-315.997	319.866	-0.135	0.253
-314.983	-200.000	-0.038	0.283
-313.968	671.409	-0.062	-0.160
-312.953	800.000	-0.054	0.220
-311.939	-5.379	-0.226	0.153
-310.924	-105.281	0.480	0.108
-309.910	70.992	-0.261	0.267
-308.895	67.076	0.031	-0.031
-307.880	51.087	-0.235	-0.220
-306.866	-200.000	-0.004	-0.105
-305.851	21.818	-0.097	0.078
-304.837	-200.000	-0.024	-0.475
-303.822	-102.445	0.095	-0.022
-302.807	-128.104	-0.219	0.031
-301.793	29.023	0.285	-0.238
-300.778	746.221	0.071	-0.190
-299.764	-200.000	-0.082	0.444
-298.749	-200.000	-0.032	-0.223
-297.735	-200.000	-0.046	-0.316
-296.720	-85.558	-0.244	0.075
-295.705	-10.762	0.281	0.183
-294.691	285.783	-0.105	-0.187
-293.676	-76.692	-0.180	0.062
-292.662	-200.000	-0.010	-0.129
-291.647	-110.201	-0.243	-0.050
-290.632	268.255	-0.019	-0.033
-289.618	67.412	0.112	0.113
-288.603	-67.644	-0.169	0.065
-287.589	800.000	-0.091	0.249
-286.574	459.482	-0.089	-0.196
-285.559	-200.000	0.011	0.365
-284.545	432.288	-0.171	0.365
-283.530	-71.400	-0.196	0.072
-282.516	-200.000	-0.020	0.194
-281.501	800.000	-0.066	0.258
-280.486	14.437	0.128	-0.098
-279.472	-200.000	0.016	-0.278
-278.457	-13.445	-0.250	0.160
-277.443	89.675	0.077	-0.084
-276.428	284.774	0.182	-0.322
-275.413	-106.256	0.187	0.041
-274.399	219.826	0.136	-0.215
-273.384	367.012	0.098	-0.194
-272.370	-200.000	0.005	0.211
-271.355	432.318	0.079	-0.169
-270.340	-7.262	-0.244	-0.163
-269.326	-49.627	0.148	-0.069
-268.311	94.956	-0.079	0.089
-267.297	-200.000	0.077	-0.406
-266.282	223.646	-0.054	-0.086
-265.267	280.989	-0.106	-0.187
-264.253	-100.953	0.178	0.043
-263.238	-141.957	-0.419	0.041
-262.224	-200.000	0.038	0.210
-261.209	131.275	0.157	0.198
-260.195	769.288	-0.034	0.092
-259.180	800.000	-0.029	0.084
-258.165	800.000	0.068	0.263
-257.151	-65.908	-0.439	0.173
-256.136	-117.768	0.264	-0.047
-255.122	-34.602	-0.152	-0.082
-254.107	-7.833	0.161	-0.107
-253.092	-85.700	-0.277	-0.085
-252.078	194.148	0.168	0.251
-251.063	-55.228	-0.164	0.073
-250.049	195.654	-0.161	0.241
-249.034	-88.231	-0.069	-0.020
-248.019	248.195	0.019	0.031
-247.005	346.737	0.227	-0.440
-245.990	-145.323	-0.281	-0.025
-244.976	-59.159	-0.411	-0.175
-243.961	-21.030	0.146	-0.088
-242.946	-73.005	0.286	0.103
-241.932	-200.000	-0.006	0.089
-240.917	-200.000	-0.027	-0.135
-239.903	-200.000	0.007	-0.114
-238.888	661.850	-0.011	0.029
-237.873	-165.220	0.180	0.008
-236.859	578.987	-0.066	0.159
-235.844	-34.457	-0.193	-0.104
-234.830	245.924	-0.184	0.306
-233.815	-25.687	0.275	0.160
-232.800	-200.000	0.004	-0.274
-231.786	242.826	-0.138	0.227
-230.771	-20.908	0.338	0.203
-229.757	-118.587	-0.209	0.036
-228.742	73.896	-0.189	-0.195
-227.727	-200.000	-0.016	-0.220
-226.713	-39.612	-0.214	-0.110
-225.698	-113.252	0.540	0.104
-224.684	-125.769	-0.089	0.013
-223.669	-90.456	-0.126	0.036
-222.655	10.228	0.222	0.166
-221.640	-200.000	-0.074	-0.385
-220.625	-34.920	0.142	0.076
-219.611	-142.583	0.401	-0.039
-218.596	-83.978	-0.438	-0.137
-217.582	-200.000	-0.001	0.214
-216.567	-87.262	-0.071	0.021
-215.552	529.024	0.111	-0.258
-214.538	-18.868	-0.218	0.133
-213.523	9.911	-0.009	0.007
-212.509	210.926	-0.178	-0.274
-211.494	308.808	0.163	0.299
-210.479	246.414	0.095	-0.158
-209.465	800.000	0.025	-0.091
-208.450	69.747	0.187	-0.190
-207.436	-200.000	0.019	-0.273
-206.421	-200.000	0.054	-0.285
-205.406	-200.000	-0.028	-0.249
-204.392	674.613	0.029	0.074
-203.377	-200.000	0.039	0.338
-202.363	-113.926	-0.258	0.049
-201.348	-200.000	-0.015	0.199
-200.333	181.114	-0.096	0.138
-199.319	800.000	0.066	-0.228
-198.304	800.000	0.036	-0.101
-197.290	-200.000	0.041	-0.241
-196.275	-5.808	0.094	-0.063
-195.260	405.999	0.031	0.063
-194.246	-200.000	0.061	-0.459
-193.231	800.000	0.086	-0.356
-192.217	800.000	-0.050	-0.206
-191.202	-79.766	0.104	0.035
-190.187	-50.060	-0.172	-0.080
-189.173	288.631	0.173	-0.309
-188.158	800.000	0.030	-0.106
-187.144	-200.000	-0.002	0.103
-186.129	161.190	0.111	0.152
-185.114	800.000	0.036	-0.147
-184.100	-116.131	0.110	-0.020
-183.085	-55.160	-0.111	0.049
-182.071	182.032	-0.054	0.078
-181.056	289.593	0.041	-0.074
-180.042	-94.634	-0.040	-0.011
-179.027	800.000	0.071	-0.282
-178.012	800.000	0.033	0.124
-176.998	-200.000	0.070	0.447
-175.983	-200.000	0.014	0.243
-174.969	389.288	-0.080	0.163
-173.954	-71.507	0.234	0.086
-172.939	-200.000	0.039	0.229
-171.925	-200.000	0.035	0.374
-170.910	-32.429	0.179	0.098
-169.896	-200.000	0.012	0.125
-168.881	-126.576	-0.427	0.062
-167.866	1.159	0.239	-0.169
-166.852	212.741	-0.131	-0.203
-165.837	39.109	0.147	-0.129
-164.823	90.557	-0.215	0.236
-163.808	-200.000	-0.039	0.275
-162.793	213.003	0.195	-0.302
-161.779	-58.324	0.085	0.036
-160.764	-27.572	-0.218	-0.124
-159.750	-96.783	-0.148	-0.038
-158.735	8.867	-0.175	0.129
-157.720	-200.000	0.022	0.259
-156.706	-76.129	-0.235	-0.081
-155.691	395.309	-0.117	-0.240
-154.677	-150.058	-0.094	-0.007
-153.662	117.553	-0.305	0.368
-152.647	151.108	0.124	-0.166
-151.633	-83.334	-0.209	-0.066
-150.618	-200.000	0.025	0.169
-149.604	-130.644	-0.287	0.038
-148.589	53.989	-0.218	0.205
-147.574	24.771	-0.145	-0.118
-146.560	53.595	-0.184	-0.173
-145.545	39.355	0.082	0.072
-144.531	141.969	0.083	0.108
-143.516	-180.481	0.032	-0.001
-142.502	-2.701	-0.119	-0.081
-141.487	-93.807	0.343	-0.093
-140.472	291.032	0.110	-0.196
-139.458	327.989	0.053	0.099
-138.443	-49.404	-0.271	0.127
-137.429	-108.034	-0.100	-0.021
-136.414	78.067	-0.336	0.351
-135.399	132.894	-0.212	0.269
-134.385	800.000	-0.073	-0.217
-133.370	-51.785	0.084	0.039
-132.356	-200.000	-0.018	0.207
-131.341	82.321	0.305	0.325
-130.326	-91.967	-0.090	0.025
-129.312	-57.984	-0.204	-0.087
-128.297	-0.557	0.019	0.013
-127.283	44.359	0.249	-0.224
-126.268	-173.055	-0.214	-0.006
-125.253	84.790	0.027	-0.029
-124.239	-138.546	-0.297	-0.032
-123.224	-26.923	-0.158	0.090
-122.210	-49.933	0.171	0.079
