DTS Sentinel unit serial number:	SN413079Multiplexer serial number:	ORYXHardware model number:	OX4-SRSoftware version number:	ORYX F/W v4.00 Oryx Data Collector v3.7.2.0data status	okinstallation	princeton_trtdifferential loss correction	single-endedforward channel	channel 2reverse channel	N/Adate	2019/09/16time	02:51:34forward acquisition time	60.00reverse acquisition time	0.00gamma	496.2192k internal	0.2334k external	0.2334temperature offset calibration	0.9970default loss term (dB/km)	0.3790temperature slope calibration	1.0000multiplexer offset coefficient	1.0000multiplexer slope coefficient	1.0000fibre end	0.00T internal ref (°C)	27.75T ext. ref 1 (°C)	10.36T ext. ref 2 (°C)	22.20length (m)	temperature (°C)	Stokes	anti-Stokes-747.200	-2.127	0.100	-0.070
-746.185	-160.424	-0.267	-0.014
-745.171	644.846	0.049	0.126
-744.156	135.250	-0.096	0.125
-743.142	-51.179	0.130	-0.061
-742.127	-5.013	-0.157	-0.109
-741.112	213.576	0.192	0.304
-740.098	-200.000	-0.026	0.163
-739.083	486.118	-0.098	0.224
-738.069	368.508	0.183	0.371
-737.054	-98.283	-0.216	0.056
-736.039	-30.659	-0.070	0.040
-735.025	-200.000	0.018	0.201
-734.010	-162.560	0.384	-0.019
-732.996	-77.885	-0.178	0.062
-731.981	-126.482	-0.033	0.005
-730.966	109.229	0.058	0.069
-729.952	800.000	0.052	-0.149
-728.937	-200.000	0.161	-0.000
-727.923	9.555	-0.273	-0.208
-726.908	-61.627	-0.262	0.111
-725.894	-69.382	0.076	-0.029
-724.879	-200.000	0.017	-0.097
-723.864	800.000	0.084	-0.279
-722.850	-99.358	0.298	0.075
-721.835	-78.774	-0.158	-0.054
-720.821	-79.464	-0.342	0.116
-719.806	-200.000	-0.058	-0.513
-718.791	-48.258	-0.308	-0.149
-717.777	-11.199	-0.299	-0.198
-716.762	156.680	-0.148	-0.205
-715.748	-110.495	0.114	-0.024
-714.733	1.421	0.088	-0.063
-713.718	800.000	0.103	-0.295
-712.704	-103.723	0.181	-0.043
-711.689	800.000	0.106	0.335
-710.675	34.503	0.120	-0.105
-709.660	415.124	0.136	0.291
-708.645	515.921	0.028	0.065
-707.631	510.815	-0.062	-0.144
-706.616	-173.110	0.133	-0.004
-705.602	68.195	-0.102	-0.105
-704.587	-200.000	0.041	0.299
-703.572	-61.164	-0.096	0.041
-702.558	793.542	0.100	-0.277
-701.543	-8.779	-0.248	-0.167
-700.529	243.271	-0.057	-0.096
-699.514	-4.407	-0.193	0.134
-698.499	432.198	-0.112	-0.244
-697.485	720.287	0.044	0.117
-696.470	-11.029	0.139	0.092
-695.456	128.850	-0.128	0.164
-694.441	-200.000	-0.000	-0.091
-693.426	-84.245	0.271	-0.086
-692.412	-200.000	0.016	-0.220
-691.397	168.209	-0.088	-0.126
-690.383	-200.000	0.011	0.065
-689.368	-200.000	-0.001	-0.228
-688.354	-15.632	0.233	-0.149
-687.339	109.692	0.020	-0.024
-686.324	-127.948	-0.569	0.082
-685.310	101.000	-0.293	0.341
-684.295	603.054	-0.108	0.270
-683.281	409.363	-0.116	-0.247
-682.266	379.294	0.107	-0.221
-681.251	-13.135	0.083	0.054
-680.237	-200.000	-0.027	0.368
-679.222	-115.766	-0.123	-0.023
-678.208	90.387	-0.145	-0.163
-677.193	-200.000	-0.015	0.507
-676.178	-200.000	0.015	0.069
-675.164	564.553	-0.113	0.275
-674.149	-133.397	-0.119	0.015
-673.135	-200.000	0.017	0.085
-672.120	-200.000	-0.026	-0.128
-671.105	789.850	0.035	0.095
-670.091	103.431	0.179	-0.211
-669.076	52.443	-0.056	0.054
-668.062	-152.892	0.437	-0.031
-667.047	-106.536	-0.319	-0.071
-666.032	85.095	0.180	0.197
-665.018	-20.031	-0.073	-0.045
-664.003	-15.399	-0.189	-0.121
-662.989	-71.746	0.088	0.033
-661.974	-76.709	-0.266	-0.094
-660.959	-55.220	0.035	0.016
-659.945	800.000	0.037	0.104
-658.930	558.750	0.084	0.203
-657.916	-93.825	-0.189	-0.052
-656.901	8.011	-0.273	0.205
-655.886	46.804	-0.139	0.130
-654.872	10.536	0.094	0.072
-653.857	10.834	0.314	0.240
-652.843	-200.000	0.038	0.220
-651.828	485.154	-0.065	0.147
-650.814	-169.306	0.230	-0.008
-649.799	-117.817	-0.354	-0.064
-648.784	-76.005	-0.367	0.130
-647.770	-200.000	-0.022	-0.154
-646.755	-97.004	0.176	-0.046
-645.741	-91.983	-0.324	-0.092
-644.726	-117.558	-0.269	0.049
-643.711	-200.000	0.011	-0.097
-642.697	227.573	-0.166	-0.271
-641.682	-45.157	0.397	0.198
-640.668	110.693	-0.334	0.402
-639.653	-137.542	-0.091	0.010
-638.638	-167.581	0.103	0.004
-637.624	800.000	-0.053	0.184
-636.609	-55.086	0.146	-0.066
-635.595	-87.456	0.160	-0.049
-634.580	78.187	-0.121	0.129
-633.565	14.539	-0.242	0.189
-632.551	-131.774	0.201	0.026
-631.536	-64.315	0.332	0.135
-630.522	-23.154	-0.120	-0.073
-629.507	61.499	0.068	0.068
-628.492	89.731	0.021	-0.023
-627.478	800.000	-0.103	0.310
-626.463	118.506	-0.142	-0.175
-625.449	-101.377	0.154	0.038
-624.434	108.331	0.155	0.185
-623.419	-29.045	-0.242	0.139
-622.405	800.000	-0.082	-0.289
-621.390	-98.800	-0.109	-0.028
-620.376	71.725	0.060	0.062
-619.361	-88.224	-0.072	0.022
-618.346	800.000	-0.104	0.425
-617.332	-94.015	-0.185	-0.051
-616.317	172.580	-0.173	0.249
-615.303	-200.000	-0.011	-0.347
-614.288	-109.723	-0.140	-0.030
-613.273	-41.705	-0.088	-0.045
-612.259	-155.936	-0.169	-0.011
-611.244	508.391	0.114	0.266
-610.230	83.151	-0.225	-0.245
-609.215	-179.914	-0.127	0.003
-608.201	332.447	-0.196	0.378
-607.186	800.000	0.078	0.247
-606.171	37.893	-0.457	-0.406
-605.157	263.770	0.081	-0.140
-604.142	-52.782	-0.024	0.011
-603.128	48.327	-0.378	0.354
-602.113	44.259	0.113	0.104
-601.098	-111.393	0.370	-0.075
-600.084	-162.347	-0.265	0.013
-599.069	469.755	-0.063	-0.141
-598.055	-140.180	-0.104	0.011
-597.040	-200.000	-0.009	-0.240
-596.025	786.425	-0.118	-0.324
-595.011	-69.824	-0.167	0.064
-593.996	-182.812	-0.035	-0.001
-592.982	-77.132	-0.131	-0.046
-591.967	-63.023	0.292	0.120
-590.952	-200.000	0.004	0.115
-589.938	-135.139	0.210	0.025
-588.923	-113.108	0.081	-0.016
-587.909	-200.000	-0.013	-0.340
-586.894	-64.360	-0.135	0.055
-585.879	45.001	-0.093	-0.085
-584.865	800.000	-0.094	0.333
-583.850	19.832	-0.058	0.047
-582.836	800.000	0.065	0.196
-581.821	-200.000	0.035	-0.268
-580.806	-200.000	-0.013	0.218
-579.792	-200.000	0.037	-0.340
-578.777	-200.000	-0.038	-0.239
-577.763	-186.134	0.175	-0.003
-576.748	207.790	0.162	0.252
-575.733	80.044	0.228	0.245
-574.719	-20.978	0.238	0.146
-573.704	-36.904	-0.325	-0.174
-572.690	426.742	-0.060	-0.129
-571.675	281.743	-0.218	0.390
-570.661	335.805	-0.159	-0.309
-569.646	800.000	-0.130	-0.390
-568.631	-200.000	-0.020	-0.268
-567.617	36.238	0.150	0.132
-566.602	776.537	-0.048	-0.130
-565.588	136.635	-0.036	-0.047
-564.573	-29.123	0.298	0.171
-563.558	518.469	-0.046	0.109
-562.544	-172.751	-0.326	-0.010
-561.529	36.292	-0.230	-0.203
-560.515	-162.341	-0.431	0.021
-559.500	-2.397	-0.103	-0.072
-558.485	800.000	-0.100	-0.292
-557.471	400.990	-0.062	0.130
-556.456	-152.900	-0.186	0.013
-555.442	-200.000	0.002	-0.302
-554.427	-58.485	0.418	-0.181
-553.412	76.054	-0.090	0.095
-552.398	-53.305	-0.195	0.089
-551.383	-169.657	0.237	0.009
-550.369	-49.350	-0.034	0.016
-549.354	-200.000	0.068	-0.374
-548.339	-200.000	0.036	0.375
-547.325	-40.547	0.268	-0.139
-546.310	-116.201	-0.269	0.050
-545.296	-200.000	0.020	-0.201
-544.281	-87.862	0.134	0.040
-543.266	134.727	-0.215	-0.278
-542.252	-96.517	0.205	-0.054
-541.237	-125.695	-0.103	-0.016
-540.223	-5.738	0.159	0.109
-539.208	-62.872	0.311	-0.128
-538.193	800.000	0.107	-0.342
-537.179	-200.000	0.019	-0.178
-536.164	794.020	-0.075	0.207
-535.150	-94.822	0.234	-0.063
-534.135	-73.920	0.095	-0.034
-533.121	-200.000	-0.024	0.192
-532.106	-45.042	0.184	0.091
-531.091	45.206	-0.118	0.108
-530.077	-89.556	-0.204	-0.060
-529.062	-17.417	-0.167	0.105
-528.048	-200.000	0.027	-0.158
-527.033	800.000	0.045	-0.134
-526.018	-33.814	-0.191	-0.105
-525.004	-48.886	-0.155	0.074
-523.989	-169.251	0.059	-0.002
-522.975	800.000	0.049	-0.142
-521.960	14.209	-0.197	0.153
-520.945	800.000	-0.039	0.159
-519.931	777.427	0.124	-0.338
-518.916	563.239	0.144	-0.348
-517.902	115.704	0.112	-0.137
-516.887	-200.000	0.056	-0.275
-515.872	-185.519	0.232	-0.004
-514.858	374.786	-0.161	-0.327
-513.843	-60.090	0.118	-0.050
-512.829	-200.000	0.043	0.218
-511.814	107.078	-0.208	0.246
-510.799	-91.718	-0.304	0.086
-509.785	123.519	-0.104	-0.130
-508.770	-130.480	0.121	0.016
-507.756	57.137	0.264	0.257
-506.741	6.345	0.180	0.133
-505.726	-200.000	-0.021	0.383
-504.712	800.000	-0.026	-0.084
-503.697	-53.691	0.154	-0.070
-502.683	-101.140	0.140	0.034
-501.668	-64.196	-0.165	-0.067
-500.653	-101.653	-0.001	-0.000
-499.639	-38.823	0.122	-0.064
-498.624	2.754	0.275	0.199
-497.610	100.846	0.025	0.029
-496.595	800.000	-0.107	-0.313
-495.581	-125.875	-0.227	-0.034
-494.566	-200.000	-0.002	-0.117
-493.551	-136.427	0.050	-0.006
-492.537	-32.326	-0.141	0.078
-491.522	800.000	0.053	-0.169
-490.508	0.727	-0.211	0.150
-489.493	41.559	-0.237	0.214
-488.478	-115.606	0.203	-0.038
-487.464	-51.766	0.323	0.150
-486.449	-200.000	0.001	0.227
-485.435	69.231	-0.164	0.168
-484.420	458.208	0.130	0.287
-483.405	544.816	-0.035	-0.083
-482.391	-100.927	0.190	0.047
-481.376	13.205	-0.044	-0.034
-480.362	-86.159	0.174	0.053
-479.347	-145.511	0.248	0.022
-478.332	-35.202	-0.243	-0.132
-477.318	432.296	-0.025	0.054
-476.303	-55.761	-0.179	-0.080
-475.289	268.317	0.100	0.175
-474.274	-157.213	-0.184	0.011
-473.259	-65.648	-0.243	-0.097
-472.245	-200.000	-0.010	-0.056
-471.230	310.202	0.141	-0.263
-470.216	800.000	0.136	0.534
-469.201	-155.231	-0.186	0.012
-468.186	-200.000	0.054	-0.246
-467.172	-98.247	-0.237	0.061
-466.157	-200.000	-0.002	0.260
-465.143	642.006	-0.128	-0.325
-464.128	-28.740	0.150	-0.086
-463.113	294.484	-0.155	0.281
-462.099	-61.144	-0.065	0.027
-461.084	-200.000	0.000	0.083
-460.070	-1.190	-0.265	-0.186
-459.055	-53.758	0.189	-0.086
-458.040	-55.659	0.192	0.086
-457.026	-9.658	0.058	0.038
-456.011	55.634	0.131	0.126
-454.997	-200.000	0.030	0.207
-453.982	104.639	-0.097	-0.114
-452.968	11.671	0.286	0.218
-451.953	-200.000	0.010	0.464
-450.938	-27.736	0.073	0.042
-449.924	800.000	-0.067	0.194
-448.909	-200.000	-0.002	-0.178
-447.895	800.000	-0.042	-0.143
-446.880	-200.000	0.001	0.293
-445.865	-190.494	-0.162	0.002
-444.851	-200.000	-0.015	0.154
-443.836	-73.453	-0.156	0.057
-442.822	120.266	-0.125	0.154
-441.807	-90.069	-0.222	-0.064
-440.792	700.049	0.070	0.183
-439.778	7.832	0.176	0.131
-438.763	-113.707	-0.117	-0.023
-437.749	162.170	0.068	0.095
-436.734	800.000	-0.065	-0.179
-435.719	-43.917	-0.091	-0.045
-434.705	800.000	-0.011	0.036
-433.690	-117.534	0.272	-0.049
-432.676	800.000	-0.092	0.365
-431.661	181.439	0.106	-0.155
-430.646	-114.719	0.500	0.095
-429.632	-75.108	0.556	0.197
-428.617	317.624	-0.037	-0.069
-427.603	37.909	-0.444	0.392
-426.588	800.000	0.103	-0.291
-425.573	112.023	0.170	0.204
-424.559	-123.165	-0.269	0.043
-423.544	82.221	0.082	-0.089
-422.530	276.562	-0.151	0.267
-421.515	3.985	0.069	0.050
-420.500	20.923	-0.328	0.264
-419.486	800.000	0.072	0.236
-418.471	-115.574	0.174	0.032
-417.457	800.000	-0.100	0.280
-416.442	800.000	0.033	-0.132
-415.428	-127.626	-0.433	-0.062
-414.413	800.000	0.089	-0.288
-413.398	-200.000	-0.060	-0.283
-412.384	-115.191	-0.186	-0.035
-411.369	-65.216	-0.125	-0.050
-410.355	765.329	-0.099	-0.268
-409.340	-103.875	-0.238	-0.055
-408.325	-200.000	0.024	0.274
-407.311	79.396	-0.199	0.212
-406.296	800.000	-0.037	-0.127
-405.282	70.373	0.077	0.079
-404.267	-84.721	0.274	-0.086
-403.252	762.509	-0.094	0.252
-402.238	92.918	0.122	0.136
-401.223	27.301	0.249	0.207
-400.209	-200.000	0.019	-0.119
-399.194	-200.000	-0.020	0.231
-398.179	69.817	0.045	0.046
-397.165	-63.291	0.308	-0.126
-396.150	-127.475	0.500	0.072
-395.136	138.646	-0.148	-0.193
-394.121	3.320	-0.282	0.203
-393.106	-21.528	0.406	-0.246
-392.092	800.000	-0.084	-0.293
-391.077	-108.928	-0.052	0.011
-390.063	89.259	0.133	0.147
-389.048	-26.461	-0.359	-0.209
-388.033	-200.000	0.001	-0.488
-387.019	-134.584	0.213	0.026
-386.004	30.911	0.101	-0.086
-384.990	-200.000	-0.001	-0.066
-383.975	-148.298	-0.319	-0.026
-382.960	-200.000	0.012	-0.334
-381.946	143.247	0.240	0.316
-380.931	-81.408	-0.160	-0.052
-379.917	-90.539	0.384	-0.110
-378.902	-116.861	-0.201	-0.037
-377.888	800.000	-0.075	0.231
-376.873	800.000	0.045	-0.192
-375.858	-14.051	-0.169	-0.108
-374.844	-162.611	0.247	-0.012
-373.829	48.853	-0.217	0.202
-372.815	800.000	0.058	-0.211
-371.800	-186.815	0.286	-0.004
-370.785	-141.668	-0.198	0.020
-369.771	142.469	0.201	0.264
-368.756	-102.852	-0.241	0.057
-367.742	-44.556	-0.062	-0.031
-366.727	147.280	0.164	0.218
-365.712	-87.018	-0.281	-0.085
-364.698	27.487	-0.178	0.148
-363.683	698.715	0.069	-0.180
-362.669	128.501	0.237	-0.299
-361.654	36.681	0.491	0.429
-360.639	-191.420	0.189	0.002
-359.625	-57.667	0.360	-0.156
-358.610	-167.093	-0.146	0.006
-357.596	-200.000	0.036	-0.368
-356.581	-85.112	-0.176	-0.054
-355.566	86.753	-0.159	-0.174
-354.552	-97.949	0.443	-0.113
-353.537	-200.000	-0.025	-0.333
-352.523	-88.992	0.301	0.088
-351.508	61.691	-0.149	-0.147
-350.493	638.597	-0.038	-0.097
-349.479	800.000	-0.094	-0.264
-348.464	123.194	0.117	0.146
-347.450	-200.000	0.014	-0.164
-346.435	70.578	0.198	-0.203
-345.420	36.776	0.129	0.113
-344.406	-200.000	-0.016	0.177
-343.391	2.937	-0.102	0.073
-342.377	-184.189	0.215	0.004
-341.362	403.688	-0.147	-0.306
-340.348	-119.877	-0.387	0.066
-339.333	47.093	-0.071	-0.065
-338.318	726.391	-0.047	-0.124
-337.304	-200.000	0.014	-0.110
-336.289	-22.441	-0.242	-0.145
-335.275	97.497	-0.106	-0.120
-334.260	800.000	-0.043	-0.155
-333.245	-30.706	0.072	0.040
-332.231	-0.855	0.275	-0.193
-331.216	-125.514	-0.326	-0.049
-330.202	59.187	0.163	0.158
-329.187	615.773	0.155	-0.385
-328.172	-68.474	0.379	0.145
-327.158	3.120	0.052	-0.037
-326.143	800.000	0.054	-0.154
-325.129	-42.272	-0.265	-0.134
-324.114	54.712	-0.227	-0.217
-323.099	-200.000	0.029	0.179
-322.085	45.983	0.183	0.168
-321.070	-200.000	-0.033	0.199
-320.056	194.149	0.201	0.302
-319.041	60.794	0.166	0.162
-318.026	-200.000	0.011	0.259
-317.012	-195.733	0.202	-0.001
-315.997	464.016	-0.057	0.126
-314.983	-200.000	-0.080	0.368
-313.968	-46.696	-0.291	-0.141
-312.953	61.307	0.035	0.034
-311.939	-200.000	-0.014	0.118
-310.924	-3.685	-0.218	-0.150
-309.910	266.455	-0.036	-0.063
-308.895	-200.000	-0.009	0.042
-307.880	14.663	-0.288	0.222
-306.866	800.000	-0.082	0.267
-305.851	82.996	-0.221	0.238
-304.837	-200.000	-0.014	0.215
-303.822	60.015	0.159	-0.155
-302.807	800.000	-0.089	0.384
-301.793	-79.436	-0.205	0.068
-300.778	-36.680	0.358	-0.190
-299.764	74.801	-0.136	0.142
-298.749	53.046	-0.114	-0.107
-297.735	95.844	0.079	-0.090
-296.720	263.303	0.103	0.176
-295.705	354.724	-0.069	-0.136
-294.691	33.914	0.429	-0.369
-293.676	-46.796	0.063	-0.030
-292.662	-200.000	-0.005	-0.338
-291.647	0.007	-0.105	0.074
-290.632	800.000	0.042	0.149
-289.618	-200.000	-0.046	0.489
-288.603	113.920	0.109	-0.131
-287.589	138.723	0.140	-0.181
-286.574	-114.145	0.169	0.032
-285.559	7.837	-0.129	-0.095
-284.545	-52.244	-0.096	0.044
-283.530	93.905	-0.028	0.031
-282.516	-0.461	-0.314	-0.220
-281.501	-99.963	-0.177	-0.043
-280.486	-200.000	0.034	0.230
-279.472	315.722	-0.086	0.159
-278.457	-195.556	-0.191	0.001
-277.443	-86.104	0.369	0.113
-276.428	109.013	0.375	0.443
-275.413	-22.657	0.337	0.201
-274.399	-39.509	0.075	0.039
-273.384	-200.000	-0.012	0.086
-272.370	167.727	0.126	-0.177
-271.355	800.000	-0.044	0.123
-270.340	-64.417	-0.262	0.105
-269.326	-200.000	-0.005	0.091
-268.311	24.841	0.016	-0.013
-267.297	243.394	-0.077	0.127
-266.282	602.408	0.101	-0.248
-265.267	-200.000	-0.006	-0.183
-264.253	-41.035	0.147	0.075
-263.238	-6.667	0.233	-0.156
-262.224	-200.000	0.056	0.275
-261.209	-27.900	-0.202	0.115
-260.195	276.850	-0.155	0.271
-259.180	263.790	0.178	-0.305
-258.165	270.190	-0.192	-0.332
-257.151	-177.008	0.100	0.002
-256.136	69.217	0.296	-0.301
-255.122	356.655	0.135	0.265
-254.107	-123.800	0.112	-0.017
-253.092	1.498	0.046	0.033
-252.078	155.469	-0.284	-0.386
-251.063	20.277	-0.097	-0.078
-250.049	218.308	-0.031	0.049
-249.034	3.344	0.218	0.157
-248.019	64.530	-0.051	0.051
-247.005	37.558	0.024	-0.021
-245.990	-200.000	0.048	0.307
-244.976	-85.447	0.292	-0.090
-243.961	-200.000	-0.048	-0.225
-242.946	179.572	0.075	-0.109
-241.932	-21.282	-0.394	-0.237
-240.917	-113.497	0.569	0.110
-239.903	-200.000	-0.015	-0.210
-238.888	223.631	-0.125	-0.199
-237.873	-200.000	0.017	0.191
-236.859	45.765	0.150	0.137
-235.844	-200.000	-0.001	0.010
-234.830	800.000	0.080	0.254
-233.815	-8.119	-0.071	0.047
-232.800	-64.398	0.073	-0.029
-231.786	-153.354	0.124	0.008
-230.771	-111.428	-0.088	-0.018
-229.757	115.078	-0.282	-0.339
-228.742	74.431	-0.122	-0.126
-227.727	-30.834	0.161	0.089
-226.713	799.096	0.030	-0.081
-225.698	239.060	-0.096	0.157
-224.684	-200.000	-0.044	0.197
-223.669	-62.990	0.117	0.048
-222.655	10.311	0.272	0.204
-221.640	-150.661	-0.108	-0.008
-220.625	-94.561	0.083	-0.022
-219.611	268.499	-0.111	-0.192
-218.596	800.000	0.094	-0.267
-217.582	392.318	-0.096	0.197
-216.567	-21.755	0.195	0.117
-215.552	-170.012	0.303	-0.011
-214.538	132.082	0.107	-0.135
-213.523	800.000	-0.133	0.389
-212.509	-200.000	0.006	0.228
-211.494	268.751	-0.243	0.419
-210.479	-142.499	0.202	0.020
-209.465	141.898	-0.107	0.140
-208.450	282.390	-0.040	0.071
-207.436	330.880	0.155	-0.294
-206.421	157.527	-0.266	0.362
-205.406	-1.161	0.169	-0.118
-204.392	-200.000	0.045	-0.213
-203.377	380.322	0.165	-0.333
-202.363	-92.924	0.111	-0.031
-201.348	-150.199	-0.133	0.010
-200.333	-200.000	-0.002	-0.111
-199.319	-86.527	-0.067	0.020
-198.304	-200.000	-0.039	-0.196
-197.290	-68.204	-0.099	-0.038
-196.275	-40.306	0.100	0.051
-195.260	211.552	-0.095	-0.147
-194.246	-27.651	0.132	-0.076
-193.231	-85.519	0.212	-0.065
-192.217	337.279	-0.086	-0.164
-191.202	-115.710	0.212	-0.039
-190.187	-80.469	-0.329	0.108
-189.173	-132.688	-0.161	-0.020
-188.158	-103.772	0.250	-0.058
-187.144	86.990	0.167	-0.181
-186.129	-200.000	0.019	0.318
-185.114	393.155	0.082	0.167
-184.100	-2.417	0.097	-0.067
-183.085	233.386	0.030	0.048
-182.071	-200.000	0.021	0.122
-181.056	120.959	0.077	-0.094
-180.042	-93.229	0.138	0.038
-179.027	25.468	0.337	-0.276
-178.012	-4.537	-0.194	0.132
-176.998	-195.414	-0.230	0.002
-175.983	-152.453	0.117	0.008
-174.969	-5.026	0.201	0.136
-173.954	800.000	0.145	-0.400
-172.939	137.389	-0.172	-0.221
-171.925	-109.150	-0.167	0.035
-170.910	-104.628	-0.062	0.014
-169.896	-200.000	-0.019	-0.295
-168.881	-52.135	0.271	0.124
-167.866	-200.000	-0.013	-0.328
-166.852	-200.000	-0.003	-0.170
-165.837	201.768	-0.103	0.155
-164.823	-84.923	0.189	-0.058
-163.808	457.296	0.107	0.233
-162.793	-112.352	-0.196	-0.039
-161.779	-130.211	-0.591	-0.079
-160.764	-76.171	-0.250	0.087
-159.750	273.082	0.160	-0.278
-158.735	-175.613	0.119	0.003
-157.720	17.799	-0.055	-0.043
-156.706	-98.448	-0.236	0.059
-155.691	-104.734	0.170	-0.038
-154.677	800.000	0.122	-0.345
-153.662	9.761	-0.184	0.137
-152.647	4.571	0.132	0.095
-151.633	-200.000	0.023	-0.195
-150.618	-43.197	0.137	-0.068
-149.604	-200.000	0.052	-0.347
-148.589	497.094	0.137	-0.309
-147.574	104.784	0.147	0.170
-146.560	77.438	0.296	-0.309
-145.545	132.935	-0.152	-0.193
-144.531	221.438	0.038	0.061
-143.516	-192.976	0.349	0.003
-142.502	272.120	-0.089	-0.154
-141.487	-200.000	0.042	0.372
-140.472	-22.355	0.184	-0.109
-139.458	-131.717	-0.107	0.014
-138.443	523.498	0.036	-0.083
-137.429	-57.059	0.298	0.129
-136.414	84.293	-0.030	0.032
-135.399	33.787	0.148	-0.126
-134.385	-178.522	0.198	0.004
-133.370	539.586	0.104	0.242
-132.356	-90.339	0.316	-0.090
-131.341	800.000	-0.034	-0.127
-130.326	206.180	-0.077	0.118
-129.312	346.079	-0.127	0.245
-128.297	-76.142	0.249	0.086
-127.283	800.000	0.027	0.092
-126.268	34.856	0.091	0.078
-125.253	97.414	0.115	0.129
-124.239	-200.000	-0.016	-0.192
-123.224	-200.000	0.075	-0.334
-122.210	-71.607	-0.095	-0.035
-121.195	355.762	-0.147	-0.287
