DTS Sentinel unit serial number:	SN413079Multiplexer serial number:	ORYXHardware model number:	OX4-SRSoftware version number:	ORYX F/W v4.00 Oryx Data Collector v3.7.2.0data status	okinstallation	princeton_trtdifferential loss correction	single-endedforward channel	channel 2reverse channel	N/Adate	2019/09/19time	11:35:34forward acquisition time	60.00reverse acquisition time	0.00gamma	496.2192k internal	0.2340k external	0.2340temperature offset calibration	1.0012default loss term (dB/km)	0.3790temperature slope calibration	1.0000multiplexer offset coefficient	1.0000multiplexer slope coefficient	1.0000fibre end	0.00T internal ref (°C)	25.50T ext. ref 1 (°C)	0.81T ext. ref 2 (°C)	21.28length (m)	temperature (°C)	Stokes	anti-Stokes-747.200	800.000	0.074	-0.240
-746.185	-24.819	-0.300	0.179
-745.171	-116.456	0.104	0.019
-744.156	800.000	-0.123	0.408
-743.142	117.732	-0.057	-0.070
-742.127	-108.476	0.147	-0.032
-741.112	-28.215	0.389	0.225
-740.098	-99.050	-0.541	0.138
-739.083	-127.980	-0.339	0.049
-738.069	287.687	-0.133	0.241
-737.054	64.003	0.119	-0.120
-736.039	32.873	-0.267	-0.231
-735.025	-200.000	-0.028	0.245
-734.010	-200.000	-0.051	-0.235
-732.996	77.262	-0.252	-0.269
-731.981	-43.173	-0.147	0.075
-730.966	-188.456	-0.230	-0.003
-729.952	-176.973	-0.404	-0.010
-728.937	116.236	-0.187	-0.229
-727.923	-11.451	0.162	-0.107
-726.908	-200.000	0.005	0.039
-725.894	-156.110	-0.352	0.022
-724.879	-200.000	-0.024	-0.413
-723.864	57.348	0.065	-0.064
-722.850	-155.093	-0.091	-0.006
-721.835	-200.000	-0.025	0.424
-720.821	-90.493	-0.220	0.064
-719.806	-67.507	-0.281	-0.111
-718.791	81.067	-0.171	0.185
-717.777	-53.222	-0.156	-0.072
-716.762	-77.244	-0.349	-0.122
-715.748	-19.426	-0.098	0.061
-714.733	88.073	0.162	-0.180
-713.718	307.325	0.078	0.146
-712.704	48.444	0.023	0.021
-711.689	800.000	0.122	-0.402
-710.675	-64.510	-0.089	0.036
-709.660	-93.006	0.177	-0.049
-708.645	25.939	-0.260	0.217
-707.631	-200.000	-0.006	-0.125
-706.616	-200.000	-0.017	-0.238
-705.602	800.000	0.041	-0.127
-704.587	251.371	0.050	0.085
-703.572	192.329	-0.191	-0.288
-702.558	-40.367	-0.368	-0.192
-701.543	3.835	0.059	0.043
-700.529	-133.529	-0.314	0.039
-699.514	101.417	-0.234	-0.273
-698.499	10.356	-0.185	-0.141
-697.485	25.986	-0.134	-0.112
-696.470	74.466	-0.139	0.146
-695.456	800.000	0.026	0.112
-694.441	39.918	0.105	-0.094
-693.426	126.944	0.055	0.069
-692.412	-96.762	-0.212	-0.056
-691.397	800.000	0.062	0.193
-690.383	-32.251	0.220	0.123
-689.368	-69.836	0.152	0.058
-688.354	-95.910	0.244	-0.065
-687.339	800.000	0.048	0.148
-686.324	-180.321	-0.209	-0.004
-685.310	68.199	0.103	0.106
-684.295	161.792	-0.189	-0.265
-683.281	800.000	-0.032	0.126
-682.266	-139.108	-0.073	-0.008
-681.251	-4.301	0.149	-0.103
-680.237	800.000	-0.108	-0.305
-679.222	-52.296	0.196	0.091
-678.208	243.979	-0.082	-0.138
-677.193	-200.000	-0.034	-0.174
-676.178	-7.741	0.107	-0.072
-675.164	46.562	0.086	-0.080
-674.149	-176.898	-0.255	-0.006
-673.135	52.596	-0.070	0.067
-672.120	380.575	-0.078	-0.160
-671.105	12.968	-0.226	0.175
-670.091	-47.336	-0.203	0.099
-669.076	800.000	-0.036	-0.129
-668.062	-68.765	-0.170	-0.066
-667.047	-175.151	-0.181	-0.005
-666.032	-111.735	-0.328	-0.066
-665.018	-103.529	-0.058	0.014
-664.003	-37.333	-0.348	0.186
-662.989	-83.611	0.229	0.073
-661.974	107.757	0.357	-0.425
-660.959	49.434	-0.137	0.129
-659.945	-66.149	0.126	0.050
-658.930	-59.930	0.123	0.053
-657.916	800.000	-0.035	0.146
-656.901	458.778	0.026	0.058
-655.886	-200.000	-0.002	-0.239
-654.872	-138.190	-0.247	-0.027
-653.857	8.864	-0.311	-0.235
-652.843	-200.000	0.061	-0.314
-651.828	-78.042	-0.262	0.090
-650.814	-137.367	0.540	-0.061
-649.799	-44.454	0.371	0.185
-648.784	-200.000	-0.006	0.050
-647.770	-44.966	-0.162	0.080
-646.755	115.268	-0.349	-0.426
-645.741	190.468	-0.144	-0.216
-644.726	410.081	0.008	0.017
-643.711	607.231	0.100	0.249
-642.697	-200.000	-0.023	-0.509
-641.682	95.684	0.122	0.139
-640.668	-200.000	0.007	-0.184
-639.653	-146.484	-0.178	0.016
-638.638	135.498	0.133	0.173
-637.624	-79.168	0.209	-0.071
-636.609	84.324	-0.115	-0.126
-635.595	149.074	0.086	-0.117
-634.580	23.687	-0.418	-0.344
-633.565	-132.458	-0.153	-0.020
-632.551	-200.000	-0.002	0.138
-631.536	56.323	-0.160	-0.156
-630.522	-73.563	0.177	-0.064
-629.507	800.000	-0.088	-0.274
-628.492	-9.996	-0.126	-0.083
-627.478	-83.724	0.194	0.062
-626.463	-200.000	-0.004	0.022
-625.449	-200.000	-0.007	0.090
-624.434	-200.000	-0.007	-0.099
-623.419	-200.000	0.010	0.233
-622.405	-200.000	0.011	-0.054
-621.390	-200.000	-0.041	0.469
-620.376	357.828	-0.099	0.196
-619.361	-66.280	0.063	0.025
-618.346	-33.980	-0.116	-0.064
-617.332	329.400	0.092	-0.177
-616.317	-200.000	-0.197	-0.000
-615.303	-46.755	-0.365	0.178
-614.288	-200.000	-0.057	-0.299
-613.273	-143.388	0.147	0.014
-612.259	50.885	0.251	0.237
-611.244	-49.198	-0.140	-0.067
-610.230	800.000	-0.047	-0.142
-609.215	256.869	0.151	0.258
-608.201	-200.000	0.028	0.341
-607.186	-200.000	-0.003	-0.140
-606.171	-117.240	-0.202	-0.037
-605.157	163.371	0.092	-0.130
-604.142	103.381	-0.156	-0.182
-603.128	31.345	0.076	0.065
-602.113	227.120	0.124	-0.201
-601.098	-34.892	-0.013	-0.007
-600.084	128.124	0.172	0.218
-599.069	-30.057	-0.202	-0.114
-598.055	-50.620	0.372	0.175
-597.040	-9.227	0.132	-0.088
-596.025	-1.524	0.290	0.204
-595.011	141.497	-0.272	0.359
-593.996	-200.000	-0.044	-0.300
-592.982	-200.000	-0.074	0.412
-591.967	-71.206	-0.303	0.113
-590.952	371.797	-0.082	0.166
-589.938	-200.000	-0.016	0.184
-588.923	243.110	0.172	-0.287
-587.909	666.864	0.053	-0.135
-586.894	636.914	0.089	0.224
-585.879	98.531	-0.122	0.140
-584.865	-65.049	-0.443	0.178
-583.850	-142.518	0.373	0.037
-582.836	-50.517	-0.008	-0.004
-581.821	-200.000	-0.044	-0.312
-580.806	-156.672	0.177	0.011
-579.792	-61.706	-0.113	0.047
-578.777	-19.987	0.135	0.083
-577.763	78.752	0.139	-0.148
-576.748	-78.351	-0.106	0.036
-575.733	-39.745	-0.125	0.065
-574.719	167.615	-0.058	-0.082
-573.704	388.903	-0.066	-0.135
-572.690	151.820	0.079	0.107
-571.675	-24.416	0.236	0.140
-570.661	-64.522	-0.317	-0.128
-569.646	-58.140	0.167	0.073
-568.631	-200.000	-0.023	0.203
-567.617	-5.550	-0.208	0.142
-566.602	800.000	0.144	0.579
-565.588	-116.859	-0.426	0.078
-564.573	-130.922	-0.074	0.010
-563.558	377.294	-0.040	0.081
-562.544	-95.367	-0.214	0.057
-561.529	-19.686	-0.084	-0.052
-560.515	-170.500	-0.225	0.008
-559.500	452.583	-0.103	-0.226
-558.485	-171.618	0.282	0.009
-557.471	-137.825	-0.095	0.011
-556.456	4.967	-0.097	-0.071
-555.442	46.041	0.126	0.116
-554.427	-200.000	0.004	-0.030
-553.412	-15.044	-0.465	0.296
-552.398	-38.406	-0.124	0.065
-551.383	-200.000	0.006	0.163
-550.369	-52.577	0.040	0.018
-549.354	-200.000	0.032	-0.657
-548.339	-200.000	-0.010	-0.303
-547.325	-44.491	0.125	-0.062
-546.310	-70.013	-0.217	-0.082
-545.296	608.485	-0.058	-0.144
-544.281	-2.954	-0.176	-0.122
-543.266	54.256	0.145	-0.139
-542.252	29.688	-0.118	-0.100
-541.237	-86.370	0.175	-0.053
-540.223	800.000	-0.106	-0.337
-539.208	-59.827	-0.344	0.146
-538.193	3.285	-0.241	-0.175
-537.179	800.000	-0.070	0.206
-536.164	-81.550	0.322	-0.105
-535.150	-66.848	-0.419	-0.165
-534.135	653.971	0.081	0.207
-533.121	-200.000	-0.029	0.240
-532.106	-93.974	-0.187	-0.051
-531.091	-43.281	0.150	0.075
-530.077	4.461	-0.114	-0.083
-529.062	706.805	-0.026	-0.068
-528.048	-47.616	0.276	0.133
-527.033	-76.401	0.324	0.113
-526.018	14.324	-0.275	-0.213
-525.004	-200.000	0.085	0.419
-523.989	86.797	0.188	-0.206
-522.975	800.000	-0.073	0.223
-521.960	-200.000	-0.031	0.141
-520.945	0.235	0.234	-0.166
-519.931	-200.000	-0.035	-0.430
-518.916	112.748	-0.293	-0.353
-517.902	-91.615	0.095	-0.027
-516.887	252.908	0.120	-0.203
-515.872	-16.329	-0.371	-0.234
-514.858	540.982	0.068	0.161
-513.843	800.000	0.081	-0.239
-512.829	74.801	-0.282	-0.295
-511.814	-69.940	-0.303	-0.115
-510.799	-135.104	0.117	0.014
-509.785	-41.078	-0.107	-0.055
-508.770	-98.129	0.090	-0.023
-507.756	800.000	0.144	0.519
-506.741	-41.078	0.120	-0.062
-505.726	-200.000	0.009	-0.306
-504.712	-200.000	0.046	-0.243
-503.697	-200.000	-0.009	0.056
-502.683	224.390	0.037	-0.059
-501.668	-200.000	0.026	-0.193
-500.653	727.131	0.147	-0.390
-499.639	800.000	0.033	-0.101
-498.624	-23.674	-0.134	-0.080
-497.610	-104.809	0.173	0.040
-496.595	311.449	-0.180	0.335
-495.581	-200.000	-0.052	0.332
-494.566	302.076	-0.126	0.230
-493.551	-200.000	-0.026	-0.367
-492.537	410.358	-0.088	0.185
-491.522	800.000	0.056	-0.178
-490.508	-140.557	-0.209	0.022
-489.493	27.626	-0.138	0.115
-488.478	80.891	-0.175	0.188
-487.464	-37.168	0.339	0.180
-486.449	71.874	-0.247	0.255
-485.435	-135.589	0.165	-0.019
-484.420	-66.945	-0.113	-0.044
-483.405	522.431	-0.125	-0.292
-482.391	598.819	-0.108	0.265
-481.376	140.976	-0.328	-0.431
-480.362	-200.000	-0.012	-0.164
-479.347	-53.638	-0.074	0.034
-478.332	-197.658	-0.104	0.001
-477.318	-65.162	-0.445	0.178
-476.303	-200.000	-0.003	-0.041
-475.289	-20.194	0.168	0.103
-474.274	800.000	0.068	0.230
-473.259	118.871	0.105	0.129
-472.245	-158.514	-0.232	-0.013
-471.230	219.951	-0.023	-0.036
-470.216	-51.969	0.331	-0.153
-469.201	800.000	-0.069	0.267
-468.186	661.595	-0.153	0.390
-467.172	800.000	0.047	0.142
-466.157	-42.532	-0.348	-0.176
-465.143	-100.115	0.041	-0.010
-464.128	-23.464	-0.199	-0.118
-463.113	3.367	-0.322	-0.233
-462.099	-200.000	0.017	0.089
-461.084	155.775	0.014	0.020
-460.070	598.983	-0.088	0.217
-459.055	-67.938	0.062	-0.024
-458.040	59.572	0.084	-0.082
-457.026	-200.000	-0.029	-0.491
-456.011	292.177	-0.116	-0.210
-454.997	6.555	0.232	-0.171
-453.982	800.000	0.124	-0.425
-452.968	-129.585	0.224	0.031
-451.953	-200.000	0.026	-0.209
-450.938	800.000	0.043	-0.133
-449.924	-97.868	-0.164	0.042
-448.909	110.857	0.180	0.214
-447.895	-164.103	0.206	-0.009
-446.880	18.183	-0.224	0.177
-445.865	-200.000	0.035	-0.220
-444.851	635.287	0.132	-0.332
-443.836	-34.054	0.155	-0.085
-442.822	2.956	0.169	-0.122
-441.807	-139.154	-0.487	0.052
-440.792	800.000	-0.139	0.391
-439.778	-16.741	0.182	0.114
-438.763	-143.831	-0.267	0.025
-437.749	772.799	0.102	0.276
-436.734	-200.000	0.024	0.264
-435.719	-192.762	-0.431	0.004
-434.705	800.000	-0.081	-0.240
-433.690	-40.549	0.138	-0.071
-432.676	800.000	0.035	0.151
-431.661	800.000	0.058	0.183
-430.646	-4.300	0.127	0.087
-429.632	232.259	0.048	-0.078
-428.617	-20.938	-0.139	0.084
-427.603	-200.000	-0.075	-0.371
-426.588	-200.000	-0.022	-0.205
-425.573	213.029	0.338	0.529
-424.559	517.398	0.129	0.298
-423.544	-200.000	0.027	0.232
-422.530	395.668	-0.133	0.274
-421.515	81.491	0.151	0.162
-420.500	441.776	-0.085	0.184
-419.486	-200.000	-0.057	0.291
-418.471	167.619	0.096	0.136
-417.457	457.654	0.006	0.012
-416.442	763.507	-0.079	-0.212
-415.428	-30.106	-0.510	-0.287
-414.413	-200.000	0.001	0.051
-413.398	-200.000	-0.010	-0.103
-412.384	-123.165	0.188	-0.030
-411.369	6.705	0.160	-0.118
-410.355	-200.000	-0.023	0.235
-409.340	-54.706	0.327	-0.146
-408.325	-10.757	-0.167	0.110
-407.311	-59.066	0.173	-0.074
-406.296	172.759	0.225	-0.320
-405.282	-112.032	0.113	-0.022
-404.267	118.839	0.016	-0.019
-403.252	-101.748	0.084	0.020
-402.238	-5.965	-0.111	-0.075
-401.223	-159.736	-0.266	-0.014
-400.209	799.649	-0.083	-0.226
-399.194	800.000	-0.103	-0.386
-398.179	-60.492	0.351	-0.147
-397.165	-67.013	-0.379	0.148
-396.150	-136.256	-0.191	-0.022
-395.136	160.006	-0.132	-0.182
-394.121	-200.000	-0.045	-0.211
-393.106	-200.000	0.008	-0.193
-392.092	-200.000	-0.318	0.000
-391.077	-54.725	0.202	-0.090
-390.063	279.851	-0.175	-0.309
-389.048	-18.346	0.090	-0.056
-388.033	-96.109	-0.156	0.041
-387.019	-200.000	-0.013	0.078
-386.004	-16.119	0.143	-0.090
-384.990	540.769	-0.106	-0.250
-383.975	407.159	0.153	-0.319
-382.960	98.534	-0.079	0.090
-381.946	-149.053	0.606	-0.048
-380.931	-157.728	0.120	-0.007
-379.917	800.000	0.115	0.354
-378.902	-190.761	0.137	-0.001
-377.888	244.740	-0.129	-0.214
-376.873	504.503	0.027	0.062
-375.858	-16.996	0.229	0.143
-374.844	96.190	-0.203	0.229
-373.829	521.176	-0.076	-0.177
-372.815	9.259	0.176	0.131
-371.800	-200.000	0.010	-0.079
-370.785	-200.000	-0.001	0.040
-369.771	-147.372	-0.176	-0.015
-368.756	-97.443	0.125	-0.032
-367.742	12.358	0.242	-0.184
-366.727	25.371	-0.345	0.283
-365.712	-200.000	-0.004	0.060
-364.698	-129.838	0.430	0.058
-363.683	-128.990	0.130	0.018
-362.669	82.599	-0.151	-0.162
-361.654	-65.362	-0.141	0.056
-360.639	147.247	-0.067	0.088
-359.625	800.000	0.055	0.220
-358.610	-200.000	0.032	0.180
-357.596	216.471	0.206	0.324
-356.581	-200.000	-0.019	-0.222
-355.566	-97.648	0.339	-0.087
-354.552	48.189	0.357	0.330
-353.537	298.521	0.200	0.364
-352.523	-13.737	0.157	-0.100
-351.508	350.016	-0.116	0.226
-350.493	-106.800	0.335	-0.073
-349.479	335.582	-0.035	0.067
-348.464	-130.270	0.219	-0.029
-347.450	-200.000	0.031	0.230
-346.435	-200.000	-0.010	0.172
-345.420	-137.769	-0.262	0.029
-344.406	79.791	-0.161	-0.170
-343.391	-20.082	-0.210	-0.128
-342.377	28.190	-0.056	0.047
-341.362	800.000	0.013	0.046
-340.348	94.535	-0.287	-0.322
-339.333	-45.457	-0.175	0.086
-338.318	-14.251	0.139	0.088
-337.304	-200.000	-0.001	-0.064
-336.289	-118.056	0.026	0.005
-335.275	-7.162	-0.017	0.011
-334.260	-200.000	-0.021	0.256
-333.245	-87.978	0.310	0.092
-332.231	-64.253	0.025	0.010
-331.216	-155.361	0.282	0.018
-330.202	7.085	0.149	-0.109
-329.187	-200.000	-0.023	0.109
-328.172	-200.000	0.028	0.326
-327.158	175.458	-0.117	0.167
-326.143	-200.000	-0.013	-0.301
-325.129	-132.608	-0.377	-0.048
-324.114	-22.774	0.354	0.211
-323.099	66.734	-0.187	-0.188
-322.085	800.000	-0.065	0.220
-321.070	-83.607	0.256	-0.081
-320.056	249.613	0.212	0.354
-319.041	800.000	-0.114	-0.450
-318.026	526.605	0.043	0.100
-317.012	-200.000	-0.030	0.294
-315.997	-200.000	-0.004	-0.031
-314.983	57.683	0.253	-0.244
-313.968	104.635	-0.159	-0.185
-312.953	52.670	0.203	-0.191
-311.939	800.000	0.123	0.348
-310.924	-200.000	-0.004	-0.133
-309.910	800.000	0.061	-0.166
-308.895	81.966	0.055	-0.059
-307.880	110.055	-0.018	0.021
-306.866	-152.284	-0.193	0.014
-305.851	383.925	-0.038	-0.078
-304.837	158.841	0.114	0.157
-303.822	401.766	0.084	0.173
-302.807	329.814	0.078	0.147
-301.793	-10.710	0.280	-0.183
-300.778	800.000	-0.049	-0.161
-299.764	211.247	0.134	-0.208
-298.749	-200.000	-0.034	-0.293
-297.735	-167.144	0.260	0.010
-296.720	175.087	-0.133	0.190
-295.705	175.710	-0.135	-0.193
-294.691	-132.671	0.159	-0.020
-293.676	-200.000	-0.013	-0.237
-292.662	-87.878	0.381	0.113
-291.647	-52.282	-0.294	0.134
-290.632	-87.313	0.115	0.034
-289.618	-200.000	0.001	-0.097
-288.603	11.717	-0.130	-0.098
-287.589	298.413	-0.089	0.160
-286.574	48.400	0.182	-0.168
-285.559	-84.912	0.228	0.070
-284.545	-7.252	0.099	0.066
-283.530	-200.000	0.008	0.091
-282.516	641.407	0.093	-0.234
-281.501	-4.845	-0.181	-0.123
-280.486	-88.989	0.256	0.075
-279.472	-200.000	-0.042	-0.230
-278.457	-200.000	-0.005	-0.092
-277.443	-154.308	0.083	0.006
-276.428	-158.798	-0.276	0.016
-275.413	-93.247	0.143	-0.039
-274.399	-200.000	-0.076	0.389
-273.384	291.961	-0.049	0.088
-272.370	-200.000	0.034	-0.147
-271.355	-200.000	-0.017	0.237
-270.340	-24.384	-0.209	-0.122
-269.326	47.154	0.395	-0.361
-268.311	173.063	-0.107	0.152
-267.297	-140.447	-0.260	-0.027
-266.282	149.101	-0.176	-0.235
-265.267	-64.054	-0.242	0.097
-264.253	132.513	-0.026	-0.033
-263.238	-12.634	0.202	0.130
-262.224	382.987	0.331	0.670
-261.209	50.922	-0.368	-0.343
-260.195	127.005	0.186	-0.231
-259.180	-200.000	-0.053	0.269
-258.165	-121.991	0.033	0.005
-257.151	-60.694	0.062	-0.026
-256.136	658.100	0.079	-0.201
-255.122	800.000	-0.068	-0.207
-254.107	-107.687	-0.118	0.025
-253.092	-170.048	-0.073	0.003
-252.078	-200.000	0.003	0.133
-251.063	133.440	0.394	0.501
-250.049	57.466	0.137	0.132
-249.034	-3.308	0.111	-0.076
-248.019	54.989	-0.119	-0.113
-247.005	800.000	0.019	0.077
-245.990	-31.266	-0.115	0.064
-244.976	98.990	-0.187	-0.213
-243.961	151.328	0.110	-0.147
-242.946	294.344	0.030	0.053
-241.932	-77.852	-0.197	-0.067
-240.917	-200.000	0.017	0.190
-239.903	-144.271	0.027	0.002
-238.888	-200.000	0.020	-0.132
-237.873	-65.300	0.137	-0.054
-236.859	82.066	-0.187	-0.199
-235.844	-200.000	0.022	0.242
-234.830	-91.053	0.011	-0.003
-233.815	292.080	-0.103	0.185
-232.800	-168.138	0.096	-0.004
-231.786	18.851	-0.378	0.297
-230.771	473.476	0.075	0.166
-229.757	-147.750	-0.192	0.016
-228.742	458.064	0.099	0.216
-227.727	-39.100	0.259	0.134
-226.713	647.055	0.144	-0.362
-225.698	50.332	0.107	-0.099
-224.684	800.000	0.005	0.013
-223.669	-154.838	0.132	0.009
-222.655	325.169	-0.126	0.237
-221.640	800.000	0.029	-0.096
-220.625	114.586	-0.152	0.182
-219.611	800.000	0.041	-0.114
-218.596	168.849	0.208	0.291
-217.582	-109.587	-0.100	0.021
-216.567	-152.533	-0.120	-0.008
-215.552	-200.000	0.013	-0.156
-214.538	-128.075	0.228	-0.032
-213.523	800.000	-0.068	0.235
-212.509	153.407	0.227	0.305
-211.494	22.279	-0.130	0.104
-210.479	-8.399	0.265	-0.175
-209.465	-56.583	-0.298	0.130
-208.450	-83.665	0.231	0.073
-207.436	800.000	-0.059	-0.178
-206.421	-76.077	-0.027	0.009
-205.406	-78.112	0.080	-0.027
-204.392	71.132	-0.219	-0.223
-203.377	800.000	0.078	0.313
-202.363	177.603	-0.110	0.157
-201.348	362.961	0.117	-0.230
-200.333	800.000	0.070	-0.220
-199.319	-200.000	0.002	-0.359
-198.304	-114.222	-0.194	0.037
-197.290	-1.583	0.384	-0.266
-196.275	302.325	0.151	-0.274
-195.260	-107.899	0.145	-0.031
-194.246	-39.952	-0.198	0.101
-193.231	76.749	0.132	0.137
-192.217	553.054	0.105	0.247
-191.202	-186.902	-0.093	0.001
-190.187	-100.285	0.077	0.019
-189.173	-171.169	0.173	0.006
-188.158	800.000	-0.037	0.117
-187.144	-71.449	0.101	-0.037
-186.129	88.557	0.098	-0.106
-185.114	800.000	-0.037	-0.115
-184.100	51.357	0.244	0.228
-183.085	800.000	-0.053	0.183
-182.071	350.407	0.163	-0.316
-181.056	-126.703	-0.240	0.035
-180.042	800.000	0.044	-0.187
-179.027	-200.000	0.010	0.187
-178.012	-138.563	0.255	-0.027
-176.998	300.680	-0.036	-0.065
-175.983	-43.200	-0.130	-0.064
-174.969	-200.000	0.053	-0.316
-173.954	54.826	0.209	-0.197
-172.939	800.000	0.101	0.308
-171.925	-200.000	-0.033	0.221
-170.910	800.000	-0.034	-0.105
-169.896	92.233	0.137	-0.151
-168.881	70.981	-0.452	0.459
-167.866	65.361	0.108	0.107
-166.852	285.447	0.174	0.308
-165.837	73.964	0.126	0.129
-164.823	-200.000	-0.011	-0.238
-163.808	285.919	0.191	0.338
-162.793	362.219	0.211	-0.414
-161.779	-200.000	-0.042	-0.437
-160.764	3.148	0.166	0.119
-159.750	100.245	-0.189	0.215
-158.735	115.463	-0.077	0.092
-157.720	239.814	-0.215	0.352
-156.706	508.022	0.155	-0.352
-155.691	-46.993	0.065	0.031
-154.677	800.000	0.058	0.161
-153.662	-200.000	0.010	0.072
-152.647	-90.728	-0.027	0.008
-151.633	-128.258	-0.445	-0.062
-150.618	-200.000	0.033	-0.169
-149.604	235.562	0.150	-0.242
-148.589	-29.443	-0.229	0.129
-147.574	-177.225	-0.376	-0.009
-146.560	-10.668	-0.158	-0.102
-145.545	-34.959	0.177	0.095
-144.531	178.433	0.100	0.142
-143.516	-161.281	0.412	0.021
-142.502	-134.012	0.184	0.022
-141.487	85.596	-0.147	-0.158
-140.472	294.159	0.179	-0.320
-139.458	107.738	0.413	-0.482
-138.443	-114.588	0.084	0.016
-137.429	20.344	0.132	0.104
-136.414	-61.675	-0.268	-0.110
-135.399	117.165	0.081	-0.097
-134.385	618.234	-0.029	0.072
-133.370	-73.194	0.087	0.031
-132.356	42.967	-0.207	0.185
-131.341	-35.933	-0.055	0.029
-130.326	458.565	0.098	-0.214
-129.312	-200.000	0.003	0.244
-128.297	17.252	0.028	0.022
-127.283	-134.135	-0.054	0.007
-126.268	20.135	0.287	-0.227
-125.253	89.820	0.167	-0.182
-124.239	-38.442	-0.337	0.175
-123.224	-22.547	-0.235	-0.139
-122.210	59.494	-0.085	0.082
-121.195	-98.554	0.195	0.049
