DTS Sentinel unit serial number:	SN413079Multiplexer serial number:	ORYXHardware model number:	OX4-SRSoftware version number:	ORYX F/W v4.00 Oryx Data Collector v3.7.2.0data status	okinstallation	princeton_trtdifferential loss correction	single-endedforward channel	channel 2reverse channel	N/Adate	2019/09/17time	21:43:34forward acquisition time	60.00reverse acquisition time	0.00gamma	496.2192k internal	0.2342k external	0.2342temperature offset calibration	0.9984default loss term (dB/km)	0.3790temperature slope calibration	1.0000multiplexer offset coefficient	1.0000multiplexer slope coefficient	1.0000fibre end	0.00T internal ref (°C)	26.62T ext. ref 1 (°C)	0.18T ext. ref 2 (°C)	19.23length (m)	temperature (°C)	Stokes	anti-Stokes-747.200	-200.000	0.006	0.181
-746.185	-2.622	-0.133	-0.093
-745.171	-79.411	0.083	0.028
-744.156	369.885	-0.117	-0.238
-743.142	800.000	0.085	0.245
-742.127	-200.000	0.030	0.306
-741.112	28.995	-0.184	0.156
-740.098	1.032	-0.235	0.169
-739.083	200.824	0.194	0.299
-738.069	-200.000	0.003	0.303
-737.054	800.000	0.002	-0.005
-736.039	-200.000	-0.008	-0.350
-735.025	-68.953	-0.031	0.012
-734.010	-8.687	-0.165	-0.111
-732.996	-25.588	-0.438	-0.259
-731.981	-159.321	0.606	-0.034
-730.966	46.245	-0.254	-0.236
-729.952	64.318	-0.393	-0.396
-728.937	-65.153	-0.354	-0.143
-727.923	301.934	-0.117	-0.216
-726.908	280.369	0.137	0.244
-725.894	-34.135	-0.170	-0.094
-724.879	-200.000	-0.017	0.125
-723.864	-200.000	-0.021	-0.240
-722.850	-2.282	-0.150	-0.106
-721.835	-76.776	-0.128	0.045
-720.821	75.996	0.063	-0.067
-719.806	192.684	0.042	-0.063
-718.791	32.550	0.143	-0.124
-717.777	-200.000	-0.039	-0.188
-716.762	-2.077	-0.124	-0.087
-715.748	10.400	0.022	0.017
-714.733	800.000	0.067	-0.224
-713.718	-82.456	-0.314	-0.102
-712.704	-168.975	-0.218	-0.008
-711.689	96.228	-0.208	-0.238
-710.675	-42.857	-0.189	-0.096
-709.660	151.166	0.170	0.231
-708.645	-136.926	0.159	-0.018
-707.631	800.000	-0.145	-0.403
-706.616	-46.512	0.222	0.109
-705.602	514.805	-0.042	0.097
-704.587	153.269	0.059	0.081
-703.572	35.388	0.380	-0.333
-702.558	-75.559	-0.343	-0.122
-701.543	113.412	0.011	-0.013
-700.529	455.827	0.037	0.082
-699.514	248.482	-0.175	0.297
-698.499	-23.026	-0.053	-0.032
-697.485	800.000	0.067	0.240
-696.470	183.076	0.104	-0.153
-695.456	-200.000	-0.059	-0.278
-694.441	-200.000	-0.035	-0.314
-693.426	-98.302	-0.039	0.010
-692.412	308.767	-0.052	-0.098
-691.397	-200.000	0.060	-0.362
-690.383	-78.420	-0.226	0.078
-689.368	563.993	-0.077	-0.187
-688.354	-93.861	-0.094	0.026
-687.339	161.640	0.263	-0.367
-686.324	-59.477	0.230	-0.099
-685.310	67.304	-0.164	-0.167
-684.295	-75.321	0.084	0.030
-683.281	388.108	0.066	-0.137
-682.266	284.498	-0.075	0.135
-681.251	603.691	-0.061	-0.151
-680.237	558.042	-0.104	-0.250
-679.222	2.434	0.147	0.106
-678.208	-89.347	-0.184	-0.054
-677.193	-200.000	0.038	-0.218
-676.178	-46.465	0.091	0.045
-675.164	79.445	-0.124	-0.132
-674.149	800.000	-0.122	0.424
-673.135	39.849	0.294	0.263
-672.120	-200.000	0.018	-0.151
-671.105	37.884	-0.081	0.072
-670.091	800.000	0.176	-0.506
-669.076	-94.625	0.246	0.067
-668.062	573.251	-0.034	0.082
-667.047	208.211	0.080	0.125
-666.032	-200.000	0.013	-0.091
-665.018	517.419	0.122	0.285
-664.003	-109.487	-0.158	-0.033
-662.989	-135.425	-0.289	0.034
-661.974	27.322	-0.188	0.158
-660.959	241.588	0.003	0.005
-659.945	-126.122	-0.119	-0.018
-658.930	-29.646	-0.104	0.059
-657.916	6.138	0.151	-0.112
-656.901	36.061	0.177	-0.156
-655.886	57.298	0.201	0.196
-654.872	606.358	-0.039	-0.097
-653.857	-200.000	0.026	-0.148
-652.843	-148.711	-0.052	-0.004
-651.828	-185.487	0.204	-0.003
-650.814	303.120	0.057	0.106
-649.799	-87.678	0.316	-0.095
-648.784	-200.000	0.056	-0.316
-647.770	800.000	-0.075	0.215
-646.755	-156.040	-0.306	-0.019
-645.741	498.803	0.091	0.210
-644.726	800.000	0.080	0.277
-643.711	165.613	0.264	-0.372
-642.697	219.589	0.011	0.017
-641.682	604.492	0.111	0.277
-640.668	-43.389	0.072	0.036
-639.653	-10.375	0.078	-0.052
-638.638	52.507	-0.026	-0.025
-637.624	-200.000	-0.001	-0.141
-636.609	-200.000	0.014	-0.076
-635.595	-200.000	0.022	0.122
-634.580	235.745	-0.134	-0.221
-633.565	-46.166	-0.039	0.019
-632.551	-200.000	-0.009	-0.071
-631.536	312.218	0.157	0.295
-630.522	-0.166	0.212	0.150
-629.507	-156.776	0.130	-0.008
-628.492	-200.000	0.035	0.466
-627.478	406.079	-0.169	-0.356
-626.463	146.638	0.049	0.066
-625.449	-22.251	0.187	0.113
-624.434	348.073	-0.047	0.093
-623.419	-44.928	0.083	0.041
-622.405	-200.000	0.044	0.206
-621.390	-45.261	-0.205	0.101
-620.376	-181.858	-0.223	0.004
-619.361	800.000	0.049	-0.212
-618.346	-200.000	0.095	-0.455
-617.332	-50.057	-0.106	0.050
-616.317	142.756	0.147	-0.194
-615.303	800.000	0.106	0.390
-614.288	-56.221	0.188	0.083
-613.273	-113.912	-0.085	-0.016
-612.259	315.147	-0.094	-0.177
-611.244	-169.062	0.199	-0.007
-610.230	63.322	-0.231	-0.231
-609.215	379.908	-0.243	-0.496
-608.201	459.510	-0.078	-0.173
-607.186	-200.000	-0.006	-0.064
-606.171	-186.871	0.263	0.004
-605.157	26.644	-0.144	0.120
-604.142	-110.989	-0.263	0.054
-603.128	148.308	-0.145	0.195
-602.113	-200.000	0.007	0.300
-601.098	447.785	0.089	0.194
-600.084	55.661	-0.445	0.429
-599.069	-200.000	0.052	0.258
-598.055	142.233	0.095	0.125
-597.040	-142.951	0.158	-0.015
-596.025	-134.716	-0.151	-0.018
-595.011	70.788	0.143	-0.148
-593.996	-200.000	0.017	0.300
-592.982	210.440	-0.069	0.108
-591.967	4.698	-0.211	-0.154
-590.952	718.419	0.028	-0.074
-589.938	29.072	-0.157	0.132
-588.923	-122.383	-0.207	-0.034
-587.909	-127.157	-0.160	-0.023
-586.894	-46.071	-0.205	-0.100
-585.879	-6.384	-0.220	-0.149
-584.865	800.000	0.052	-0.147
-583.850	34.823	0.109	-0.095
-582.836	-173.225	-0.160	-0.005
-581.821	-7.656	-0.115	0.077
-580.806	202.882	0.122	-0.187
-579.792	-200.000	0.030	-0.139
-578.777	-200.000	0.012	0.076
-577.763	-200.000	0.039	-0.401
-576.748	800.000	-0.016	0.057
-575.733	602.781	0.078	-0.193
-574.719	-7.403	-0.421	-0.283
-573.704	-90.461	-0.179	0.052
-572.690	228.189	-0.054	-0.087
-571.675	-148.788	-0.071	-0.006
-570.661	-104.123	0.245	0.057
-569.646	-200.000	-0.005	0.157
-568.631	70.800	-0.039	-0.040
-567.617	-165.833	0.144	0.006
-566.602	208.039	0.069	0.107
-565.588	86.023	0.127	-0.139
-564.573	231.996	-0.059	0.097
-563.558	322.285	0.098	-0.185
-562.544	-80.292	0.019	-0.006
-561.529	-200.000	-0.012	0.165
-560.515	32.735	0.080	-0.069
-559.500	-72.036	0.076	-0.028
-558.485	165.801	-0.124	0.174
-557.471	7.369	0.126	-0.093
-556.456	236.123	-0.137	0.225
-555.442	-200.000	0.056	0.415
-554.427	407.713	-0.189	-0.397
-553.412	-1.801	-0.206	-0.144
-552.398	-76.963	0.091	-0.032
-551.383	-200.000	0.030	-0.225
-550.369	-158.899	-0.285	-0.016
-549.354	-124.946	-0.202	0.031
-548.339	441.184	-0.107	-0.233
-547.325	-105.988	0.213	-0.048
-546.310	543.109	-0.173	0.409
-545.296	800.000	-0.025	-0.103
-544.281	800.000	0.028	-0.112
-543.266	434.448	-0.074	0.160
-542.252	77.011	0.123	0.130
-541.237	112.309	-0.081	-0.098
-540.223	-108.102	-0.065	-0.014
-539.208	800.000	-0.099	0.310
-538.193	-89.590	0.211	0.061
-537.179	800.000	0.111	0.398
-536.164	800.000	0.020	-0.085
-535.150	800.000	-0.137	0.380
-534.135	-157.887	0.323	0.019
-533.121	800.000	0.029	0.117
-532.106	800.000	0.064	-0.190
-531.091	10.323	-0.261	-0.197
-530.077	-200.000	-0.052	0.320
-529.062	800.000	0.056	-0.201
-528.048	35.739	0.093	0.081
-527.033	-72.681	0.244	-0.089
-526.018	-36.560	-0.216	-0.115
-525.004	800.000	-0.048	0.156
-523.989	105.264	-0.129	-0.151
-522.975	800.000	-0.033	-0.099
-521.960	-117.847	0.134	0.024
-520.945	140.354	0.122	0.160
-519.931	800.000	-0.066	0.243
-518.916	-200.000	-0.022	-0.277
-517.902	-132.188	0.051	-0.007
-516.887	-200.000	-0.026	-0.119
-515.872	-31.860	-0.211	0.117
-514.858	12.642	-0.071	0.054
-513.843	-57.498	0.187	-0.081
-512.829	16.183	0.056	0.044
-511.814	-14.984	-0.178	-0.113
-510.799	-200.000	-0.020	0.139
-509.785	290.509	0.145	-0.261
-508.770	-16.985	-0.235	0.147
-507.756	179.080	0.052	0.075
-506.741	800.000	-0.070	-0.234
-505.726	-200.000	0.011	0.354
-504.712	-200.000	-0.019	-0.298
-503.697	-38.361	-0.545	-0.286
-502.683	-88.033	0.342	0.102
-501.668	-32.744	0.186	-0.102
-500.653	-200.000	-0.014	0.309
-499.639	-6.593	0.114	-0.077
-498.624	-125.165	0.088	0.013
-497.610	-12.208	-0.071	-0.046
-496.595	387.931	0.203	-0.417
-495.581	89.922	-0.156	-0.173
-494.566	46.934	0.089	0.082
-493.551	10.696	-0.133	-0.101
-492.537	-119.582	0.128	-0.022
-491.522	-200.000	-0.025	-0.140
-490.508	-116.260	-0.303	-0.056
-489.493	-200.000	0.011	-0.266
-488.478	-161.730	0.295	0.015
-487.464	-200.000	-0.002	-0.021
-486.449	800.000	0.081	0.317
-485.435	-71.006	-0.388	0.145
-484.420	800.000	0.124	-0.347
-483.405	96.932	0.096	0.109
-482.391	288.521	-0.093	-0.167
-481.376	-200.000	0.028	-0.175
-480.362	800.000	-0.064	-0.234
-479.347	-200.000	0.035	0.263
-478.332	198.938	0.068	0.104
-477.318	352.224	-0.167	-0.327
-476.303	11.790	-0.060	0.045
-475.289	-200.000	-0.004	0.163
-474.274	206.288	-0.113	0.174
-473.259	26.123	-0.080	-0.066
-472.245	-73.754	0.350	0.126
-471.230	171.840	-0.071	0.101
-470.216	-200.000	0.006	0.029
-469.201	4.687	-0.126	0.092
-468.186	-123.218	0.403	0.064
-467.172	-27.212	0.122	0.070
-466.157	-66.218	-0.099	-0.039
-465.143	-167.452	0.183	0.007
-464.128	-200.000	0.016	-0.300
-463.113	-190.198	0.421	0.005
-462.099	-47.540	-0.316	-0.152
-461.084	800.000	0.049	0.198
-460.070	-79.177	0.211	-0.071
-459.055	531.653	0.051	-0.118
-458.040	-200.000	-0.060	0.374
-457.026	132.334	-0.102	-0.130
-456.011	800.000	-0.068	0.291
-454.997	-12.848	0.194	-0.125
-453.982	-32.997	0.097	0.053
-452.968	800.000	-0.106	-0.393
-451.953	800.000	-0.015	-0.042
-450.938	104.846	0.073	-0.086
-449.924	-39.640	-0.206	0.107
-448.909	-43.694	0.170	-0.085
-447.895	800.000	0.051	0.197
-446.880	1.867	-0.121	-0.086
-445.865	145.440	-0.028	-0.037
-444.851	3.795	-0.100	0.072
-443.836	-15.133	0.197	0.125
-442.822	57.070	0.183	0.176
-441.807	346.467	0.081	-0.158
-440.792	14.685	0.237	-0.183
-439.778	-125.811	-0.287	0.043
-438.763	-10.486	0.107	0.070
-437.749	-116.305	-0.250	-0.046
-436.734	-200.000	-0.010	0.071
-435.719	47.889	-0.091	0.084
-434.705	800.000	0.058	0.168
-433.690	-145.157	-0.196	0.018
-432.676	800.000	-0.099	0.305
-431.661	-61.066	0.250	0.105
-430.646	800.000	-0.083	-0.334
-429.632	800.000	-0.020	0.062
-428.617	31.588	0.107	0.091
-427.603	-200.000	-0.019	-0.290
-426.588	24.992	0.284	-0.233
-425.573	-145.500	-0.071	-0.006
-424.559	72.454	0.285	0.294
-423.544	800.000	-0.083	-0.275
-422.530	-32.167	0.031	0.017
-421.515	-200.000	0.050	-0.374
-420.500	-200.000	0.003	0.129
-419.486	-200.000	-0.008	-0.261
-418.471	-150.643	0.065	-0.005
-417.457	117.880	-0.111	-0.135
-416.442	-200.000	-0.019	-0.313
-415.428	800.000	0.055	-0.206
-414.413	710.628	0.094	-0.245
-413.398	38.444	-0.139	-0.123
-412.384	619.570	0.083	0.205
-411.369	-44.279	0.199	0.098
-410.355	755.681	0.099	0.264
-409.340	-164.119	0.303	-0.014
-408.325	800.000	-0.079	0.238
-407.311	-134.476	-0.077	0.009
-406.296	-43.322	-0.314	-0.157
-405.282	-106.897	-0.138	-0.030
-404.267	126.120	0.095	0.119
-403.252	290.879	0.263	0.473
-402.238	-127.714	-0.126	0.018
-401.223	-200.000	0.020	0.208
-400.209	-200.000	-0.013	-0.378
-399.194	-78.366	0.344	-0.117
-398.179	184.586	-0.125	0.182
-397.165	-45.385	0.254	0.124
-396.150	-59.484	-0.094	0.040
-395.136	-200.000	0.013	-0.290
-394.121	-200.000	0.079	-0.406
-393.106	-60.532	-0.056	-0.024
-392.092	-192.530	-0.195	0.002
-391.077	45.462	0.092	0.084
-390.063	-56.510	0.148	0.065
-389.048	-200.000	-0.009	-0.095
-388.033	-103.981	0.037	-0.008
-387.019	-132.027	-0.171	0.022
-386.004	159.944	0.044	0.061
-384.990	-141.167	-0.027	0.003
-383.975	-24.601	-0.347	0.204
-382.960	35.299	-0.054	-0.046
-381.946	-200.000	0.210	-0.000
-380.931	-132.765	-0.140	-0.018
-379.917	-96.163	0.337	0.088
-378.902	102.196	-0.067	0.078
-377.888	-23.750	0.171	-0.101
-376.873	23.261	0.221	0.179
-375.858	-65.415	0.015	-0.006
-374.844	277.217	0.115	-0.202
-373.829	-107.031	-0.037	0.008
-372.815	-175.431	-0.146	0.004
-371.800	132.093	0.109	0.138
-370.785	-121.131	0.036	-0.006
-369.771	-200.000	-0.031	0.281
-368.756	-6.263	0.074	0.050
-367.742	800.000	-0.092	0.291
-366.727	800.000	0.029	-0.082
-365.712	-200.000	-0.075	-0.342
-364.698	321.975	-0.166	-0.312
-363.683	-67.021	-0.099	-0.039
-362.669	-74.010	-0.238	0.085
-361.654	-140.098	-0.258	-0.027
-360.639	-87.718	-0.051	0.015
-359.625	23.470	0.234	-0.190
-358.610	324.321	0.111	-0.210
-357.596	800.000	0.083	0.271
-356.581	-64.573	-0.031	0.012
-355.566	-200.000	-0.026	0.129
-354.552	246.453	-0.079	0.131
-353.537	-200.000	0.031	0.489
-352.523	245.659	-0.152	-0.252
-351.508	383.994	0.072	0.146
-350.493	-71.010	-0.224	-0.083
-349.479	133.302	0.231	0.295
-348.464	-200.000	0.049	0.294
-347.450	2.134	0.159	-0.114
-346.435	-200.000	-0.030	0.162
-345.420	-143.462	-0.162	0.015
-344.406	-7.091	0.205	0.137
-343.391	-149.001	-0.118	0.009
-342.377	27.272	-0.333	-0.276
-341.362	221.300	-0.155	-0.245
-340.348	-41.042	0.227	-0.115
-339.333	-200.000	-0.079	-0.430
-338.318	-47.269	0.196	-0.094
-337.304	-124.133	-0.188	-0.029
-336.289	290.747	0.107	0.192
-335.275	449.431	0.074	0.162
-334.260	-200.000	-0.048	0.240
-333.245	83.313	0.151	-0.162
-332.231	754.370	-0.106	-0.282
-331.216	460.715	-0.027	-0.060
-330.202	-47.293	0.066	0.032
-329.187	-38.653	0.114	0.059
-328.172	198.992	-0.130	0.197
-327.158	-29.760	-0.236	-0.133
-326.143	292.966	-0.178	0.321
-325.129	-23.767	0.203	-0.120
-324.114	566.203	-0.025	-0.061
-323.099	-6.741	0.113	0.076
-322.085	94.183	-0.091	-0.102
-321.070	-86.197	-0.052	-0.016
-320.056	-200.000	-0.089	-0.000
-319.041	-74.101	0.251	0.090
-318.026	225.482	-0.066	-0.105
-317.012	186.165	0.079	-0.116
-315.997	-200.000	-0.019	0.377
-314.983	444.662	-0.141	0.305
-313.968	-147.111	-0.286	-0.024
-312.953	-19.337	0.100	-0.061
-311.939	800.000	-0.142	-0.521
-310.924	-200.000	-0.014	0.139
-309.910	-200.000	-0.042	0.265
-308.895	-106.669	0.169	-0.037
-307.880	-200.000	-0.000	-0.142
-306.866	-200.000	-0.008	-0.518
-305.851	-1.624	0.220	-0.153
-304.837	-200.000	-0.034	-0.171
-303.822	-158.166	-0.333	-0.019
-302.807	800.000	0.078	-0.237
-301.793	160.916	0.145	-0.199
-300.778	-144.030	0.204	-0.019
-299.764	150.205	-0.128	0.172
-298.749	222.406	-0.039	-0.062
-297.735	47.984	-0.143	-0.132
-296.720	-80.934	0.261	-0.085
-295.705	-46.872	0.104	-0.050
-294.691	-73.825	0.082	0.029
-293.676	-66.174	-0.132	-0.052
-292.662	100.644	0.067	-0.077
-291.647	-200.000	-0.011	-0.191
-290.632	94.192	-0.170	0.190
-289.618	402.367	-0.059	0.121
-288.603	-83.366	-0.102	0.032
-287.589	311.739	-0.082	0.151
-286.574	353.157	-0.118	-0.230
-285.559	-27.176	0.285	-0.163
-284.545	-141.579	-0.362	-0.036
-283.530	-71.628	-0.182	-0.067
-282.516	-154.663	0.075	0.005
-281.501	-24.387	0.075	0.044
-280.486	97.769	-0.087	-0.098
-279.472	-200.000	-0.052	-0.342
-278.457	72.441	0.146	-0.150
-277.443	-63.393	-0.117	-0.048
-276.428	800.000	-0.078	0.237
-275.413	725.523	-0.061	-0.161
-274.399	-90.184	0.147	0.042
-273.384	-200.000	-0.037	0.301
-272.370	-66.583	0.194	-0.076
-271.355	64.577	-0.093	-0.093
-270.340	67.660	0.036	0.036
-269.326	-200.000	-0.012	0.216
-268.311	-95.992	0.220	0.058
-267.297	408.454	0.141	-0.293
-266.282	-108.432	-0.031	-0.007
-265.267	3.900	0.081	0.058
-264.253	-72.835	0.217	0.078
-263.238	275.253	-0.204	-0.355
-262.224	-117.263	-0.147	0.026
-261.209	-17.154	-0.120	0.075
-260.195	800.000	-0.055	0.201
-259.180	-100.389	0.427	0.104
-258.165	-71.934	0.079	-0.029
-257.151	-3.586	0.216	-0.148
-256.136	-125.938	0.080	-0.012
-255.122	91.746	-0.098	-0.108
-254.107	-58.976	0.273	0.116
-253.092	-200.000	0.072	0.320
-252.078	173.830	0.167	-0.237
-251.063	369.428	0.132	-0.262
-250.049	187.301	-0.161	-0.235
-249.034	-172.362	0.221	0.007
-248.019	-155.857	-0.303	-0.019
-247.005	22.741	-0.024	0.020
-245.990	-24.017	0.200	0.117
-244.976	346.773	0.066	0.127
-243.961	-109.972	0.259	0.053
-242.946	-200.000	-0.032	0.335
-241.932	-47.611	0.195	-0.093
-240.917	423.506	0.042	-0.088
-239.903	-112.380	0.114	-0.022
-238.888	-61.761	-0.056	0.023
-237.873	64.500	0.085	0.084
-236.859	417.160	0.082	0.171
-235.844	-32.888	0.256	-0.140
-234.830	-139.999	0.130	0.013
-233.815	-200.000	-0.001	-0.263
-232.800	-200.000	0.009	-0.066
-231.786	-200.000	-0.065	-0.000
-230.771	-81.965	-0.067	-0.021
-229.757	-172.867	-0.257	-0.008
-228.742	176.918	0.147	0.209
-227.727	-20.572	-0.151	-0.091
-226.713	-57.392	-0.221	0.095
-225.698	-138.319	-0.302	-0.033
-224.684	584.292	-0.119	-0.286
-223.669	-158.580	0.105	0.006
-222.655	138.357	-0.176	0.226
-221.640	321.296	0.046	0.087
-220.625	-29.232	0.291	-0.164
-219.611	-120.500	0.143	0.024
-218.596	-200.000	-0.010	-0.083
-217.582	-200.000	-0.035	-0.180
-216.567	131.121	0.131	0.165
-215.552	-30.015	0.197	0.110
-214.538	-35.592	0.293	-0.156
-213.523	-200.000	0.010	-0.071
-212.509	-116.272	0.235	-0.043
-211.494	141.552	-0.096	-0.124
-210.479	-15.380	0.265	-0.166
-209.465	76.945	-0.232	0.242
-208.450	800.000	-0.104	0.375
-207.436	-21.368	0.115	0.069
-206.421	-44.619	-0.286	0.140
-205.406	127.041	-0.217	-0.270
-204.392	-81.285	-0.020	0.006
-203.377	-157.622	0.190	0.011
-202.363	33.985	0.031	0.026
-201.348	-200.000	0.015	0.300
-200.333	173.622	0.168	0.238
-199.319	-141.992	0.176	-0.017
-198.304	-15.646	-0.124	0.078
-197.290	-134.516	-0.089	-0.011
-196.275	293.308	0.006	0.011
-195.260	-170.473	-0.242	-0.008
-194.246	105.872	0.111	0.129
-193.231	-200.000	-0.008	0.257
-192.217	-184.078	-0.294	-0.005
-191.202	311.016	-0.100	0.183
-190.187	-200.000	0.022	0.162
-189.173	75.147	0.107	-0.110
-188.158	322.472	0.124	0.232
-187.144	428.925	-0.082	-0.173
-186.129	-159.081	0.146	-0.008
-185.114	-43.596	-0.260	0.129
-184.100	-52.501	0.098	0.044
-183.085	-153.430	-0.357	-0.024
-182.071	99.711	-0.247	-0.281
-181.056	800.000	0.070	0.240
-180.042	800.000	-0.066	0.180
-179.027	6.961	0.336	-0.246
-178.012	-73.213	0.180	-0.065
-176.998	-93.767	-0.314	0.085
-175.983	54.478	-0.157	-0.148
-174.969	800.000	0.067	0.224
-173.954	-200.000	0.006	0.046
-172.939	-200.000	-0.040	0.222
-171.925	-200.000	0.017	-0.182
-170.910	-21.713	-0.298	0.178
-169.896	-132.265	0.348	-0.044
-168.881	-200.000	0.209	-0.000
-167.866	-200.000	0.009	-0.168
-166.852	-8.214	-0.282	0.186
-165.837	60.550	-0.124	0.120
-164.823	-165.247	-0.137	-0.006
-163.808	-164.503	0.228	0.010
-162.793	302.409	-0.202	-0.366
-161.779	-200.000	0.033	-0.209
-160.764	-152.776	-0.175	-0.012
-159.750	800.000	0.143	0.404
-158.735	484.229	-0.144	0.321
-157.720	-97.249	0.091	-0.023
-156.706	40.843	-0.149	-0.131
-155.691	-31.870	-0.097	0.053
-154.677	-50.735	-0.328	0.151
-153.662	-2.042	0.274	0.188
-152.647	137.417	-0.165	0.212
-151.633	800.000	-0.100	0.278
-150.618	-77.569	0.122	0.041
-149.604	-26.560	-0.194	-0.111
-148.589	-200.000	0.023	0.212
-147.574	-200.000	-0.024	0.159
-146.560	-27.693	0.063	-0.036
-145.545	-96.517	-0.401	-0.104
-144.531	43.447	0.083	-0.074
-143.516	172.828	0.135	0.190
-142.502	-102.584	0.162	-0.038
-141.487	-33.057	-0.082	-0.044
-140.472	-29.465	0.248	-0.139
-139.458	-200.000	-0.022	-0.169
-138.443	-60.041	0.229	0.096
-137.429	-200.000	-0.029	0.189
-136.414	68.308	0.224	0.225
-135.399	-169.569	0.398	0.014
-134.385	219.245	-0.102	0.159
-133.370	354.161	0.181	-0.352
-132.356	-87.440	-0.312	0.092
-131.341	135.694	0.245	-0.311
-130.326	-84.856	-0.128	0.039
-129.312	795.784	0.029	0.078
-128.297	137.513	0.073	-0.094
-127.283	259.942	-0.035	0.059
-126.268	-200.000	-0.038	-0.319
-125.253	800.000	0.019	-0.082
-124.239	462.481	-0.077	0.167
-123.224	-24.961	0.340	0.197
-122.210	-65.932	0.341	0.133
