DTS Sentinel unit serial number:	SN413079Multiplexer serial number:	ORYXHardware model number:	OX4-SRSoftware version number:	ORYX F/W v4.00 Oryx Data Collector v3.7.2.0data status	okinstallation	princeton_trtdifferential loss correction	single-endedforward channel	channel 2reverse channel	N/Adate	2019/09/15time	12:51:35forward acquisition time	60.00reverse acquisition time	0.00gamma	496.2192k internal	0.2310k external	0.2310temperature offset calibration	1.0005default loss term (dB/km)	0.3790temperature slope calibration	1.0000multiplexer offset coefficient	1.0000multiplexer slope coefficient	1.0000fibre end	0.00T internal ref (°C)	36.06T ext. ref 1 (°C)	5.02T ext. ref 2 (°C)	34.10length (m)	temperature (°C)	Stokes	anti-Stokes-747.200	800.000	-0.119	0.358
-746.185	57.317	-0.220	0.218
-745.171	-122.845	-0.246	0.040
-744.156	104.445	-0.049	-0.059
-743.142	-111.203	0.317	0.066
-742.127	53.584	-0.166	0.162
-741.112	317.779	-0.041	0.079
-740.098	-200.000	-0.059	0.329
-739.083	145.116	0.171	0.232
-738.069	144.927	-0.283	0.384
-737.054	89.423	-0.045	-0.051
-736.039	-200.000	-0.003	-0.024
-735.025	52.642	0.243	-0.235
-734.010	108.075	0.304	-0.368
-732.996	-16.285	-0.178	0.115
-731.981	-80.798	-0.236	0.080
-730.966	-128.326	-0.393	-0.057
-729.952	800.000	-0.061	-0.203
-728.937	-126.320	0.079	-0.012
-727.923	800.000	-0.126	-0.537
-726.908	-200.000	0.005	-0.072
-725.894	32.047	-0.266	0.233
-724.879	-141.433	0.077	0.008
-723.864	304.919	-0.049	-0.093
-722.850	-79.562	-0.076	0.026
-721.835	-198.395	-0.678	-0.004
-720.821	435.413	-0.257	-0.566
-719.806	-200.000	-0.009	0.078
-718.791	0.402	-0.328	-0.238
-717.777	333.572	-0.092	-0.180
-716.762	-43.800	-0.096	-0.049
-715.748	-88.829	-0.322	0.097
-714.733	800.000	-0.088	0.257
-713.718	-80.441	-0.229	-0.077
-712.704	800.000	0.042	-0.150
-711.689	-121.539	0.097	-0.016
-710.675	-40.109	0.268	0.142
-709.660	379.179	0.043	0.090
-708.645	-200.000	0.011	0.048
-707.631	-96.573	-0.239	0.064
-706.616	173.245	-0.229	-0.335
-705.602	-44.117	-0.145	0.074
-704.587	71.341	-0.188	0.198
-703.572	112.755	0.116	-0.142
-702.558	572.996	-0.043	-0.107
-701.543	208.949	0.059	-0.094
-700.529	-14.139	-0.059	0.038
-699.514	-122.221	0.176	0.029
-698.499	-153.635	0.165	-0.012
-697.485	80.839	0.252	-0.275
-696.470	-65.720	-0.417	-0.169
-695.456	800.000	-0.020	0.080
-694.441	-89.381	0.264	0.079
-693.426	-200.000	0.044	-0.382
-692.412	328.793	0.141	-0.275
-691.397	11.987	-0.046	0.036
-690.383	-200.000	-0.022	-0.150
-689.368	800.000	-0.046	0.153
-688.354	14.031	-0.113	0.089
-687.339	38.957	0.203	0.184
-686.324	242.277	-0.202	0.343
-685.310	561.197	-0.045	0.109
-684.295	88.149	-0.047	0.053
-683.281	-57.621	-0.202	0.090
-682.266	-200.000	0.007	0.168
-681.251	253.601	-0.140	0.243
-680.237	165.802	-0.175	0.251
-679.222	-79.016	-0.280	0.096
-678.208	-60.847	-0.259	0.111
-677.193	23.093	-0.219	0.182
-676.178	172.862	-0.208	-0.303
-675.164	155.901	-0.116	0.162
-674.149	525.299	-0.039	0.094
-673.135	-200.000	-0.028	0.161
-672.120	-200.000	-0.004	-0.278
-671.105	-142.323	-0.338	-0.034
-670.091	768.229	-0.076	-0.208
-669.076	-18.764	-0.399	-0.252
-668.062	-27.237	-0.095	-0.056
-667.047	-159.503	-0.599	0.034
-666.032	39.855	-0.136	0.124
-665.018	296.712	-0.099	-0.184
-664.003	47.519	0.062	0.058
-662.989	-20.908	0.106	0.066
-661.974	586.803	-0.046	-0.114
-660.959	-72.641	0.148	0.055
-659.945	-200.000	0.030	0.161
-658.930	-24.404	-0.430	-0.259
-657.916	-139.303	0.194	-0.021
-656.901	-37.910	-0.168	-0.091
-655.886	-75.329	-0.319	-0.115
-654.872	-140.889	0.027	-0.003
-653.857	68.183	0.215	0.223
-652.843	-2.714	0.152	0.107
-651.828	-82.683	-0.093	0.031
-650.814	-7.175	-0.302	0.207
-649.799	-200.000	0.015	-0.100
-648.784	-200.000	-0.040	-0.232
-647.770	-82.424	-0.058	-0.019
-646.755	125.511	-0.269	0.343
-645.741	-200.000	-0.042	0.282
-644.726	180.443	-0.033	-0.048
-643.711	778.557	-0.051	0.142
-642.697	800.000	-0.086	-0.288
-641.682	234.602	-0.021	0.036
-640.668	96.768	-0.035	0.040
-639.653	25.379	0.077	-0.064
-638.638	21.282	0.102	0.084
-637.624	800.000	0.061	0.194
-636.609	-42.398	-0.268	0.138
-635.595	-115.432	0.088	-0.017
-634.580	-66.231	0.272	0.110
-633.565	-200.000	0.076	-0.367
-632.551	-200.000	-0.008	-0.322
-631.536	-46.466	-0.101	-0.050
-630.522	122.335	-0.148	-0.188
-629.507	-138.825	-0.384	-0.042
-628.492	-20.001	-0.069	0.043
-627.478	56.547	0.218	0.214
-626.463	-182.060	0.329	0.006
-625.449	25.625	0.144	0.121
-624.434	227.573	0.031	-0.050
-623.419	-137.489	0.217	0.025
-622.405	-200.000	0.066	0.387
-621.390	8.455	-0.184	0.140
-620.376	222.966	-0.251	-0.409
-619.361	403.343	-0.085	-0.180
-618.346	225.327	0.163	-0.267
-617.332	800.000	-0.099	-0.299
-616.317	-200.000	0.016	-0.261
-615.303	-121.883	0.265	-0.044
-614.288	-67.207	-0.100	0.040
-613.273	-105.354	0.191	-0.044
-612.259	53.591	0.026	-0.025
-611.244	-131.021	0.195	-0.026
-610.230	149.799	-0.142	0.195
-609.215	-200.000	-0.009	-0.164
-608.201	-109.967	-0.334	-0.071
-607.186	488.736	0.087	-0.201
-606.171	636.721	-0.071	0.182
-605.157	800.000	0.116	-0.429
-604.142	-56.910	-0.105	0.047
-603.128	-200.000	-0.061	-0.334
-602.113	63.627	-0.197	-0.200
-601.098	-142.729	0.112	-0.011
-600.084	100.407	-0.051	-0.060
-599.069	470.716	0.075	0.170
-598.055	-200.000	0.053	0.303
-597.040	714.028	-0.051	0.137
-596.025	-20.903	-0.169	0.105
-595.011	90.846	-0.180	0.204
-593.996	-200.000	-0.005	-0.138
-592.982	-200.000	-0.330	-0.001
-591.967	-200.000	-0.005	-0.169
-590.952	393.218	-0.145	0.304
-589.938	-67.019	-0.094	0.037
-588.923	44.937	-0.100	-0.093
-587.909	-200.000	-0.012	0.142
-586.894	-200.000	0.091	0.535
-585.879	-200.000	-0.009	0.042
-584.865	-9.252	-0.119	0.080
-583.850	-120.400	0.197	0.034
-582.836	-102.891	-0.034	0.008
-581.821	800.000	-0.053	0.203
-580.806	-61.467	-0.400	0.170
-579.792	133.797	-0.193	0.252
-578.777	-200.000	0.020	-0.258
-577.763	761.574	0.153	-0.418
-576.748	800.000	0.090	-0.307
-575.733	800.000	0.016	-0.064
-574.719	407.051	0.073	-0.156
-573.704	-168.643	0.129	0.005
-572.690	-65.354	0.306	-0.124
-571.675	35.052	-0.240	0.212
-570.661	-200.000	0.020	0.218
-569.646	17.766	-0.063	-0.051
-568.631	-13.556	0.147	0.096
-567.617	-93.919	0.233	0.065
-566.602	143.444	0.136	-0.183
-565.588	112.109	0.069	0.085
-564.573	800.000	-0.147	0.511
-563.558	-51.504	-0.237	-0.112
-562.544	91.988	-0.058	0.066
-561.529	-140.563	0.093	-0.010
-560.515	215.491	-0.154	-0.247
-559.500	152.169	0.192	-0.265
-558.485	-53.270	-0.105	0.049
-557.471	-131.677	-0.175	0.023
-556.456	800.000	0.036	0.101
-555.442	-36.021	0.249	0.136
-554.427	-200.000	0.028	0.224
-553.412	-124.419	-0.187	-0.029
-552.398	164.431	-0.091	-0.130
-551.383	-31.593	0.166	-0.094
-550.369	-75.059	-0.349	0.126
-549.354	-105.166	-0.483	-0.111
-548.339	-79.601	0.172	0.058
-547.325	800.000	-0.073	-0.270
-546.310	120.338	-0.144	-0.181
-545.296	-44.137	-0.240	0.121
-544.281	-200.000	0.008	0.189
-543.266	133.010	0.215	-0.280
-542.252	92.237	-0.093	0.106
-541.237	66.144	0.179	0.183
-540.223	-200.000	0.013	0.196
-539.208	488.359	-0.046	-0.106
-538.193	-142.838	0.391	0.038
-537.179	-82.052	-0.202	0.066
-536.164	-131.077	0.019	-0.003
-535.150	-43.364	-0.082	-0.042
-534.135	-121.275	0.173	0.029
-533.121	-117.144	-0.077	0.014
-532.106	-2.186	0.135	-0.095
-531.091	-84.728	-0.112	-0.036
-530.077	37.860	0.171	0.153
-529.062	-200.000	0.003	0.103
-528.048	-38.170	-0.048	-0.026
-527.033	-200.000	0.022	0.246
-526.018	-200.000	0.016	0.195
-525.004	483.621	-0.086	0.197
-523.989	270.254	-0.136	-0.241
-522.975	800.000	-0.103	-0.409
-521.960	-123.654	0.039	0.006
-520.945	800.000	0.047	-0.150
-519.931	28.823	-0.278	0.237
-518.916	-200.000	0.066	0.325
-517.902	-200.000	-0.020	-0.240
-516.887	-117.531	0.136	0.025
-515.872	-200.000	-0.031	-0.193
-514.858	68.526	0.114	-0.118
-513.843	-200.000	0.007	-0.255
-512.829	-89.967	0.155	0.045
-511.814	-39.972	-0.162	0.085
-510.799	-61.967	-0.085	-0.036
-509.785	-200.000	0.012	-0.200
-508.770	-200.000	-0.037	-0.258
-507.756	-51.424	-0.247	-0.116
-506.741	800.000	0.071	-0.256
-505.726	-115.637	0.036	0.007
-504.712	123.156	0.192	0.241
-503.697	-94.836	0.216	-0.059
-502.683	-34.579	-0.061	0.034
-501.668	-200.000	-0.013	-0.138
-500.653	3.916	0.174	-0.128
-499.639	-143.464	-0.358	-0.034
-498.624	283.873	-0.118	0.214
-497.610	6.330	0.096	0.071
-496.595	-68.673	0.116	0.045
-495.581	193.074	0.104	0.158
-494.566	-200.000	0.014	-0.448
-493.551	-66.703	0.226	-0.090
-492.537	502.523	0.058	-0.135
-491.522	785.603	0.138	-0.379
-490.508	171.358	-0.156	-0.224
-489.493	-200.000	-0.007	-0.129
-488.478	56.309	-0.035	-0.034
-487.464	24.560	0.215	0.179
-486.449	487.616	-0.129	0.296
-485.435	-114.466	0.208	-0.040
-484.420	-3.111	-0.140	-0.098
-483.405	181.556	-0.157	-0.232
-482.391	-57.133	0.131	0.058
-481.376	764.602	0.052	0.143
-480.362	67.498	0.183	0.188
-479.347	186.035	0.033	-0.050
-478.332	-170.861	0.243	0.008
-477.318	311.288	-0.103	0.195
-476.303	-95.159	-0.297	0.080
-475.289	61.482	0.084	-0.084
-474.274	-200.000	-0.028	-0.224
-473.259	-193.960	-0.309	0.003
-472.245	-84.072	-0.504	0.161
-471.230	-109.395	0.560	-0.119
-470.216	-200.000	-0.002	-0.242
-469.201	73.939	0.280	-0.295
-468.186	-41.697	0.148	0.076
-467.172	-200.000	-0.030	-0.309
-466.157	266.980	0.153	-0.269
-465.143	-200.000	0.028	-0.244
-464.128	-116.998	0.050	-0.009
-463.113	-78.640	0.181	0.062
-462.099	-200.000	-0.041	-0.190
-461.084	-101.164	0.333	0.082
-460.070	96.874	-0.070	0.081
-459.055	-200.000	0.008	0.065
-458.040	800.000	-0.069	0.282
-457.026	-134.302	-0.347	-0.043
-456.011	32.049	-0.255	0.220
-454.997	800.000	-0.035	0.122
-453.982	69.082	0.303	-0.313
-452.968	325.288	0.184	-0.353
-451.953	167.466	-0.285	-0.406
-450.938	-52.604	-0.231	-0.107
-449.924	-39.221	-0.182	-0.096
-448.909	-70.590	-0.147	-0.056
-447.895	800.000	0.114	0.437
-446.880	183.572	-0.040	0.059
-445.865	-85.133	0.358	-0.112
-444.851	6.359	-0.178	-0.133
-443.836	-30.835	-0.077	0.044
-442.822	125.950	-0.311	-0.395
-441.807	111.883	-0.131	-0.158
-440.792	800.000	-0.138	-0.441
-439.778	800.000	0.073	0.213
-438.763	800.000	-0.139	-0.403
-437.749	-200.000	0.017	-0.401
-436.734	-37.404	0.083	-0.045
-435.719	24.515	-0.122	0.101
-434.705	27.565	0.230	-0.194
-433.690	-34.956	-0.142	0.078
-432.676	-200.000	-0.057	0.391
-431.661	-200.000	0.044	0.379
-430.646	378.278	-0.057	0.118
-429.632	-39.266	-0.367	-0.193
-428.617	800.000	0.056	-0.219
-427.603	252.129	-0.145	-0.248
-426.588	-138.966	-0.155	-0.017
-425.573	434.844	-0.100	0.217
-424.559	-25.105	-0.270	-0.161
-423.544	800.000	-0.111	-0.345
-422.530	-125.420	-0.042	-0.006
-421.515	-113.531	-0.195	-0.038
-420.500	235.946	-0.182	0.302
-419.486	9.534	0.140	-0.106
-418.471	-46.417	-0.101	0.050
-417.457	103.669	0.116	-0.137
-416.442	-200.000	-0.048	-0.249
-415.428	-200.000	-0.051	-0.281
-414.413	800.000	0.053	-0.174
-413.398	-154.083	0.284	0.019
-412.384	-124.673	0.206	0.032
-411.369	179.016	-0.091	-0.133
-410.355	2.737	-0.183	0.133
-409.340	-14.046	-0.070	0.046
-408.325	-97.348	-0.112	0.029
-407.311	-61.550	-0.413	0.174
-406.296	178.013	0.200	-0.292
-405.282	467.976	0.023	-0.051
-404.267	-119.290	-0.035	-0.006
-403.252	-200.000	0.029	-0.225
-402.238	476.278	0.234	0.530
-401.223	116.151	0.110	-0.135
-400.209	63.093	0.145	0.145
-399.194	-9.070	0.168	0.112
-398.179	-32.097	-0.265	0.149
-397.165	95.207	-0.052	0.059
-396.150	-200.000	-0.007	-0.126
-395.136	-59.270	0.126	-0.054
-394.121	72.425	-0.159	0.166
-393.106	-106.682	-0.081	-0.018
-392.092	174.727	-0.106	-0.154
-391.077	179.165	-0.140	-0.206
-390.063	-161.697	0.285	0.015
-389.048	27.625	0.164	-0.138
-388.033	127.008	0.097	-0.123
-387.019	-200.000	0.008	-0.064
-386.004	-200.000	0.040	0.259
-384.990	71.881	0.178	-0.185
-383.975	12.328	-0.255	-0.197
-382.960	242.978	0.123	-0.206
-381.946	104.024	-0.197	0.232
-380.931	-200.000	0.025	0.267
-379.917	-101.187	0.030	0.007
-378.902	-167.088	0.220	0.009
-377.888	230.747	-0.094	0.154
-376.873	-152.618	-0.032	0.002
-375.858	96.369	0.037	0.043
-374.844	-200.000	-0.035	-0.194
-373.829	-139.301	0.308	-0.033
-372.815	302.349	0.055	-0.102
-371.800	-137.821	0.370	0.041
-370.785	48.322	0.046	0.043
-369.771	749.491	0.040	0.108
-368.756	-37.411	-0.091	-0.049
-367.742	-4.273	-0.057	0.040
-366.727	11.489	-0.205	-0.157
-365.712	-136.268	-0.169	0.020
-364.698	-23.247	-0.057	0.034
-363.683	65.423	-0.017	-0.017
-362.669	-200.000	-0.005	0.351
-361.654	-72.896	0.159	-0.058
-360.639	521.792	-0.131	-0.309
-359.625	-46.705	-0.258	-0.126
-358.610	46.811	-0.037	-0.034
-357.596	-165.537	-0.124	0.005
-356.581	97.265	-0.013	0.015
-355.566	257.490	0.238	0.410
-354.552	-33.163	-0.460	0.255
-353.537	146.159	-0.109	-0.146
-352.523	-171.278	0.113	-0.004
-351.508	-184.471	0.105	-0.002
-350.493	-35.439	-0.174	0.095
-349.479	-27.731	-0.127	0.074
-348.464	55.408	0.185	-0.179
-347.450	-36.188	-0.169	0.091
-346.435	-72.552	-0.173	-0.064
-345.420	22.106	0.175	-0.143
-344.406	-147.247	-0.313	-0.027
-343.391	800.000	-0.097	0.353
-342.377	-82.661	-0.202	-0.065
-341.362	-200.000	-0.033	0.189
-340.348	800.000	-0.102	0.401
-339.333	-81.801	0.455	0.149
-338.318	71.854	0.099	0.103
-337.304	-200.000	0.009	0.046
-336.289	440.493	-0.082	0.179
-335.275	-200.000	-0.010	0.152
-334.260	-2.414	-0.064	-0.045
-333.245	95.833	0.154	-0.176
-332.231	-200.000	0.047	-0.226
-331.216	208.201	-0.105	0.164
-330.202	98.734	0.209	0.241
-329.187	149.033	-0.122	-0.165
-328.172	-200.000	-0.005	-0.093
-327.158	-107.353	-0.214	-0.047
-326.143	-131.896	-0.145	-0.019
-325.129	-145.614	0.178	-0.016
-324.114	-33.480	0.166	0.092
-323.099	116.708	0.205	0.251
-322.085	161.911	0.241	-0.338
-321.070	-133.997	0.298	0.037
-320.056	-200.000	-0.361	-0.001
-319.041	183.808	-0.150	0.222
-318.026	-5.853	-0.244	0.167
-317.012	-18.790	0.278	-0.173
-315.997	-137.696	-0.142	-0.016
-314.983	-138.265	-0.244	-0.027
-313.968	-200.000	-0.017	-0.279
-312.953	765.017	-0.077	0.209
-311.939	346.591	0.120	0.235
-310.924	-50.830	-0.158	-0.074
-309.910	102.028	0.135	0.157
-308.895	-115.584	-0.129	0.024
-307.880	-145.647	0.215	-0.019
-306.866	18.303	-0.303	-0.242
-305.851	373.511	-0.080	-0.162
-304.837	-87.176	-0.130	-0.039
-303.822	161.927	0.152	-0.212
-302.807	-166.650	-0.170	-0.007
-301.793	77.097	0.171	-0.181
-300.778	-66.725	-0.050	0.020
-299.764	-200.000	0.009	-0.220
-298.749	-68.219	0.133	0.052
-297.735	268.558	-0.072	-0.126
-296.720	-179.329	0.225	0.005
-295.705	-200.000	0.046	0.275
-294.691	133.074	0.022	0.029
-293.676	20.499	0.146	0.118
-292.662	-200.000	-0.060	0.402
-291.647	-122.352	0.090	-0.015
-290.632	-101.237	-0.053	-0.013
-289.618	590.330	0.159	0.390
-288.603	16.069	0.042	-0.033
-287.589	-200.000	0.046	-0.361
-286.574	-25.749	-0.154	0.090
-285.559	-133.390	-0.420	-0.053
-284.545	800.000	0.062	0.173
-283.530	-123.864	0.377	0.059
-282.516	-102.283	0.321	0.077
-281.501	800.000	0.049	0.162
-280.486	-120.321	0.020	0.003
-279.472	37.296	0.127	0.112
-278.457	253.443	0.092	-0.157
-277.443	-21.903	0.448	0.271
-276.428	800.000	0.048	0.154
-275.413	-200.000	0.007	0.090
-274.399	-66.437	0.405	-0.161
-273.384	182.779	-0.166	0.244
-272.370	4.900	-0.273	-0.200
-271.355	282.411	0.188	0.336
-270.340	-94.159	-0.328	-0.090
-269.326	188.126	0.012	-0.017
-268.311	646.394	0.118	-0.301
-267.297	27.900	0.434	0.365
-266.282	75.745	-0.187	0.197
-265.267	-24.985	0.071	-0.042
-264.253	-168.223	0.144	-0.006
-263.238	88.430	0.315	0.349
-262.224	-200.000	-0.061	0.335
-261.209	335.532	0.131	0.252
-260.195	76.279	0.098	0.103
-259.180	-24.174	-0.115	0.069
-258.165	-200.000	0.002	-0.289
-257.151	-200.000	-0.037	0.207
-256.136	86.900	0.152	-0.167
-255.122	800.000	-0.058	0.169
-254.107	-84.049	-0.249	0.079
-253.092	-200.000	0.035	-0.175
-252.078	146.270	-0.139	0.186
-251.063	800.000	-0.052	0.162
-250.049	11.524	-0.037	-0.029
-249.034	-39.711	-0.336	0.175
-248.019	800.000	-0.115	0.331
-247.005	-25.508	-0.249	0.146
-245.990	78.775	0.049	-0.052
-244.976	191.590	0.113	-0.170
-243.961	-95.618	-0.275	0.073
-242.946	-179.533	0.106	-0.002
-241.932	128.423	-0.119	0.150
-240.917	-159.827	0.277	0.015
-239.903	-142.834	0.256	0.025
-238.888	-200.000	-0.001	0.008
-237.873	95.624	0.101	-0.115
-236.859	-95.881	0.296	-0.079
-235.844	-151.973	0.183	0.013
-234.830	20.667	-0.182	0.147
-233.815	-71.627	0.186	0.069
-232.800	-125.947	-0.186	0.028
-231.786	800.000	-0.072	0.305
-230.771	157.502	0.048	-0.066
-229.757	451.628	-0.018	0.040
-228.742	51.561	0.156	0.147
-227.727	800.000	0.076	0.232
-226.713	-113.157	0.317	0.062
-225.698	-200.000	0.008	-0.188
-224.684	21.031	0.161	0.130
-223.669	573.433	0.052	-0.127
-222.655	2.161	0.130	0.093
-221.640	56.619	-0.241	0.234
-220.625	-200.000	0.032	-0.276
-219.611	-98.421	0.262	-0.067
-218.596	141.019	-0.109	-0.143
-217.582	83.068	0.210	-0.227
-216.567	438.598	0.111	-0.241
-215.552	139.558	0.181	0.237
-214.538	-145.604	0.234	0.021
-213.523	-138.985	-0.197	0.021
-212.509	-144.610	-0.045	-0.004
-211.494	-120.835	-0.230	-0.038
-210.479	-123.670	0.078	0.012
-209.465	-134.058	0.197	-0.024
-208.450	-101.522	-0.025	0.006
-207.436	121.336	0.025	0.030
-206.421	389.592	0.043	-0.089
-205.406	287.079	0.091	0.164
-204.392	-96.292	-0.313	-0.083
-203.377	110.881	-0.088	0.106
-202.363	58.216	-0.049	-0.048
-201.348	558.118	-0.108	0.258
-200.333	-200.000	0.033	-0.355
-199.319	-36.746	-0.474	-0.253
-198.304	800.000	-0.074	0.322
-197.290	680.883	-0.088	-0.229
-196.275	-179.797	-0.233	-0.005
-195.260	478.930	0.134	-0.301
-194.246	128.502	0.032	-0.040
-193.231	-190.340	0.090	-0.001
-192.217	186.863	-0.168	0.248
-191.202	-90.046	0.318	-0.092
-190.187	-116.868	0.466	0.085
-189.173	132.159	-0.132	-0.168
-188.158	356.113	0.081	0.161
-187.144	40.464	-0.181	-0.162
-186.129	519.322	-0.028	0.065
-185.114	95.988	0.104	0.118
-184.100	140.403	0.069	0.091
-183.085	79.940	-0.198	0.211
-182.071	-9.638	-0.254	0.168
-181.056	-200.000	-0.003	-0.267
-180.042	-200.000	-0.033	-0.301
-179.027	800.000	-0.052	0.189
-178.012	129.610	0.153	-0.194
-176.998	-94.404	-0.119	0.032
-175.983	322.025	-0.165	0.312
-174.969	-34.383	0.113	-0.062
-173.954	-200.000	-0.014	0.359
-172.939	78.728	0.111	0.118
-171.925	-200.000	0.003	0.192
-170.910	-132.582	0.087	-0.011
-169.896	-86.100	0.330	-0.101
-168.881	-54.148	0.341	-0.154
-167.866	147.364	-0.151	-0.202
-166.852	292.881	-0.112	0.202
-165.837	498.756	-0.023	-0.053
-164.823	-200.000	0.001	-0.135
-163.808	-20.684	-0.056	0.034
-162.793	-17.376	0.107	-0.067
-161.779	-56.140	0.088	-0.039
-160.764	-169.459	0.169	0.006
-159.750	800.000	0.058	0.205
-158.735	800.000	-0.076	0.270
-157.720	-156.345	0.287	0.018
-156.706	-153.685	-0.231	0.016
-155.691	-170.563	0.390	-0.013
-154.677	-52.905	-0.071	-0.032
-153.662	671.258	-0.085	0.218
-152.647	-73.551	0.119	-0.043
-151.633	-56.487	0.419	0.185
-150.618	-110.084	0.199	0.041
-149.604	-164.039	-0.044	-0.002
-148.589	-67.446	-0.288	0.112
-147.574	800.000	0.035	0.103
-146.560	-200.000	0.014	-0.132
-145.545	12.755	-0.103	-0.079
-144.531	10.121	0.038	0.029
-143.516	800.000	-0.126	0.478
-142.502	-10.043	0.210	0.138
-141.487	116.950	-0.051	-0.062
-140.472	-91.165	-0.307	-0.087
-139.458	-147.606	-0.326	-0.027
-138.443	-200.000	0.009	-0.223
-137.429	84.623	0.047	0.052
-136.414	643.154	-0.087	-0.221
-135.399	-200.000	0.010	-0.230
-134.385	-200.000	0.027	0.270
-133.370	-200.000	-0.035	-0.185
-132.356	-78.261	-0.316	0.108
-131.341	136.785	0.230	-0.298
-130.326	-200.000	0.331	0.001
-129.312	-200.000	-0.017	-0.137
-128.297	800.000	-0.056	0.213
-127.283	59.170	-0.250	0.244
-126.268	-32.798	-0.073	-0.040
-125.253	-82.400	-0.132	0.043
-124.239	-68.771	0.375	-0.144
-123.224	-172.787	-0.395	0.012
-122.210	-35.025	-0.128	0.069
