DTS Sentinel unit serial number:	SN413079Multiplexer serial number:	ORYXHardware model number:	OX4-SRSoftware version number:	ORYX F/W v4.00 Oryx Data Collector v3.7.2.0data status	okinstallation	princeton_trtdifferential loss correction	single-endedforward channel	channel 2reverse channel	N/Adate	2019/09/15time	06:47:35forward acquisition time	60.00reverse acquisition time	0.00gamma	496.2192k internal	0.2326k external	0.2326temperature offset calibration	1.0030default loss term (dB/km)	0.3790temperature slope calibration	1.0000multiplexer offset coefficient	1.0000multiplexer slope coefficient	1.0000fibre end	0.00T internal ref (°C)	30.50T ext. ref 1 (°C)	4.81T ext. ref 2 (°C)	25.51length (m)	temperature (°C)	Stokes	anti-Stokes-747.200	-130.630	-0.207	-0.028
-746.185	37.831	-0.166	-0.149
-745.171	307.826	0.152	-0.286
-744.156	-112.448	-0.207	-0.042
-743.142	589.800	0.051	0.128
-742.127	-63.446	-0.282	-0.117
-741.112	-123.838	-0.246	-0.039
-740.098	365.957	0.047	-0.096
-739.083	-98.956	0.277	0.071
-738.069	800.000	-0.149	0.421
-737.054	-200.000	0.009	-0.061
-736.039	800.000	0.051	-0.158
-735.025	-200.000	0.028	0.415
-734.010	-112.007	-0.400	-0.081
-732.996	23.016	0.132	-0.109
-731.981	800.000	0.106	0.323
-730.966	249.892	0.150	0.257
-729.952	-173.803	0.201	0.006
-728.937	632.711	0.118	-0.302
-727.923	-162.685	-0.157	-0.008
-726.908	79.509	-0.072	-0.078
-725.894	-116.723	0.161	0.030
-724.879	-62.889	-0.476	0.198
-723.864	1.016	-0.131	0.095
-722.850	-200.000	0.026	0.333
-721.835	266.083	-0.120	-0.212
-720.821	-36.474	-0.177	-0.096
-719.806	-47.993	0.115	-0.056
-718.791	58.016	-0.127	0.126
-717.777	-5.911	-0.413	-0.284
-716.762	-46.241	-0.017	0.008
-715.748	-200.000	-0.059	0.269
-714.733	125.647	-0.276	0.351
-713.718	-83.909	-0.141	-0.045
-712.704	252.126	-0.051	-0.087
-711.689	-28.141	0.522	-0.304
-710.675	-34.500	-0.148	-0.082
-709.660	474.650	0.058	-0.133
-708.645	-200.000	0.017	0.228
-707.631	-33.681	-0.063	0.035
-706.616	800.000	-0.107	0.369
-705.602	-200.000	-0.008	-0.251
-704.587	800.000	0.030	0.091
-703.572	-180.497	-0.252	-0.005
-702.558	-29.267	0.072	-0.042
-701.543	800.000	-0.123	-0.345
-700.529	227.880	0.158	-0.259
-699.514	51.754	-0.303	0.290
-698.499	-125.355	0.342	-0.053
-697.485	-200.000	-0.009	0.100
-696.470	407.885	0.073	0.154
-695.456	-200.000	-0.016	-0.179
-694.441	-188.604	0.290	0.004
-693.426	-29.570	0.148	0.085
-692.412	38.803	0.199	-0.179
-691.397	368.440	0.116	0.237
-690.383	-200.000	0.021	-0.334
-689.368	-38.157	0.249	-0.133
-688.354	109.824	0.219	-0.264
-687.339	177.307	-0.242	0.354
-686.324	48.963	0.037	0.035
-685.310	-200.000	-0.003	0.061
-684.295	-200.000	-0.001	0.109
-683.281	-48.555	0.326	-0.158
-682.266	-94.794	0.125	0.034
-681.251	-200.000	0.001	-0.080
-680.237	-144.530	-0.010	0.001
-679.222	-187.022	0.316	0.004
-678.208	89.776	-0.092	0.104
-677.193	177.507	-0.165	0.242
-676.178	-88.158	0.113	0.034
-675.164	-200.000	0.020	-0.323
-674.149	29.116	-0.309	-0.264
-673.135	-28.456	0.165	0.095
-672.120	-34.659	-0.280	-0.154
-671.105	466.369	0.069	-0.157
-670.091	-106.185	-0.274	-0.062
-669.076	75.665	0.057	0.061
-668.062	-24.111	-0.206	-0.123
-667.047	69.031	0.222	0.230
-666.032	-200.000	-0.004	-0.279
-665.018	-83.670	0.072	0.023
-664.003	-200.000	-0.007	-0.274
-662.989	800.000	-0.059	-0.180
-661.974	705.644	-0.006	-0.016
-660.959	-200.000	0.035	-0.329
-659.945	-43.167	0.161	-0.082
-658.930	190.148	-0.099	-0.149
-657.916	124.946	0.031	0.039
-656.901	206.091	-0.199	0.311
-655.886	142.830	0.118	0.158
-654.872	-200.000	0.009	0.068
-653.857	-50.062	-0.190	0.091
-652.843	800.000	0.005	-0.019
-651.828	283.748	0.015	0.026
-650.814	99.652	-0.044	-0.051
-649.799	19.074	-0.109	-0.088
-648.784	723.287	0.092	-0.246
-647.770	101.219	-0.185	-0.216
-646.755	343.379	0.031	-0.061
-645.741	272.926	-0.110	-0.196
-644.726	-200.000	0.031	0.330
-643.711	800.000	-0.033	0.111
-642.697	-137.188	-0.062	0.007
-641.682	-113.188	-0.165	0.033
-640.668	-18.341	-0.291	0.183
-639.653	-26.174	0.245	-0.145
-638.638	69.589	-0.051	-0.053
-637.624	756.769	0.122	0.331
-636.609	-14.214	0.072	-0.046
-635.595	17.727	0.067	-0.053
-634.580	-118.636	-0.141	0.025
-633.565	-200.000	-0.009	-0.113
-632.551	-170.357	-0.255	0.009
-631.536	-15.956	0.105	-0.067
-630.522	7.599	-0.091	-0.069
-629.507	-22.116	0.205	-0.125
-628.492	-30.521	-0.377	0.215
-627.478	132.749	-0.272	0.353
-626.463	-97.455	0.125	-0.033
-625.449	-50.802	-0.336	0.159
-624.434	-75.727	0.080	0.029
-623.419	-39.773	-0.238	-0.125
-622.405	800.000	-0.114	-0.342
-621.390	800.000	0.042	-0.156
-620.376	82.021	-0.155	-0.169
-619.361	189.989	-0.160	-0.241
-618.346	103.695	0.221	0.260
-617.332	-200.000	-0.039	-0.184
-616.317	-102.663	0.446	0.107
-615.303	93.675	-0.117	-0.133
-614.288	289.057	0.104	-0.189
-613.273	405.589	-0.150	-0.318
-612.259	32.986	0.317	-0.275
-611.244	-91.458	0.072	0.021
-610.230	800.000	-0.056	-0.171
-609.215	-183.466	-0.159	-0.003
-608.201	-200.000	0.011	-0.363
-607.186	-157.331	0.317	-0.019
-606.171	200.796	0.075	0.116
-605.157	2.271	-0.324	-0.235
-604.142	-200.000	0.041	-0.191
-603.128	-59.660	-0.105	0.045
-602.113	800.000	-0.075	0.234
-601.098	800.000	-0.027	0.075
-600.084	-33.601	0.186	0.103
-599.069	118.728	0.143	0.177
-598.055	-80.949	-0.148	0.049
-597.040	13.079	-0.292	-0.226
-596.025	-119.025	-0.220	0.039
-595.011	66.796	-0.169	0.173
-593.996	-200.000	0.011	-0.058
-592.982	3.359	0.110	0.081
-591.967	800.000	-0.102	0.371
-590.952	-200.000	-0.007	-0.165
-589.938	10.930	0.197	-0.151
-588.923	-116.628	0.067	-0.012
-587.909	-154.782	0.099	-0.007
-586.894	365.272	-0.203	-0.409
-585.879	112.279	-0.063	0.076
-584.865	-200.000	0.051	-0.227
-583.850	119.828	0.294	0.366
-582.836	141.161	0.197	-0.262
-581.821	329.992	-0.057	-0.111
-580.806	165.060	-0.132	0.186
-579.792	93.666	-0.491	0.558
-578.777	800.000	-0.105	0.330
-577.763	-99.860	-0.212	-0.053
-576.748	235.045	0.210	0.347
-575.733	800.000	0.114	0.344
-574.719	-200.000	-0.016	0.266
-573.704	800.000	0.072	0.291
-572.690	-158.789	0.136	-0.008
-571.675	-200.000	0.030	-0.220
-570.661	353.247	0.049	0.097
-569.646	-136.585	-0.300	-0.035
-568.631	413.091	0.079	0.168
-567.617	-200.000	-0.042	-0.192
-566.602	40.911	0.078	0.071
-565.588	-200.000	0.022	0.257
-564.573	-40.845	-0.161	0.084
-563.558	44.810	-0.146	-0.134
-562.544	185.495	0.146	0.216
-561.529	-135.658	0.102	-0.012
-560.515	100.357	0.149	0.173
-559.500	164.425	-0.154	-0.218
-558.485	-112.051	0.163	0.033
-557.471	294.789	-0.050	0.091
-556.456	-200.000	-0.035	-0.338
-555.442	-8.895	-0.039	-0.026
-554.427	-200.000	0.004	-0.073
-553.412	104.069	0.146	-0.172
-552.398	322.685	-0.072	0.138
-551.383	800.000	-0.095	0.302
-550.369	-64.342	0.107	0.044
-549.354	263.392	-0.196	-0.340
-548.339	-106.356	0.398	-0.089
-547.325	-99.618	0.166	0.042
-546.310	44.227	-0.262	0.241
-545.296	-36.794	-0.291	-0.156
-544.281	29.227	0.275	0.234
-543.266	220.268	-0.084	-0.134
-542.252	167.954	0.099	0.141
-541.237	507.794	-0.056	-0.130
-540.223	491.360	0.072	-0.165
-539.208	800.000	0.039	0.111
-538.193	619.645	0.094	0.238
-537.179	-132.514	-0.065	0.008
-536.164	-35.886	-0.028	-0.015
-535.150	-147.531	-0.127	-0.011
-534.135	-101.990	0.123	0.030
-533.121	-200.000	0.053	-0.463
-532.106	-166.847	-0.348	-0.014
-531.091	-134.789	0.339	-0.041
-530.077	-97.429	-0.394	-0.103
-529.062	-89.916	0.345	0.101
-528.048	-2.843	0.105	-0.073
-527.033	-22.472	-0.082	-0.050
-526.018	461.396	-0.121	-0.270
-525.004	-200.000	0.036	0.232
-523.989	-59.713	-0.327	-0.140
-522.975	24.045	0.134	-0.111
-521.960	-29.736	0.060	-0.034
-520.945	-81.132	-0.176	0.058
-519.931	-78.898	-0.165	-0.056
-518.916	800.000	0.061	-0.230
-517.902	246.094	0.147	0.247
-516.887	-145.524	-0.199	0.018
-515.872	262.234	-0.036	0.063
-514.858	27.400	0.085	-0.072
-513.843	305.983	0.160	0.298
-512.829	-116.711	-0.189	0.035
-511.814	-53.250	0.079	-0.036
-510.799	-137.827	-0.236	-0.026
-509.785	-200.000	0.022	-0.103
-508.770	-200.000	0.086	0.440
-507.756	156.530	0.056	-0.078
-506.741	86.261	0.171	0.188
-505.726	-34.505	-0.432	0.236
-504.712	-24.354	-0.215	-0.128
-503.697	-200.000	-0.004	0.108
-502.683	99.509	0.181	-0.210
-501.668	-200.000	-0.012	-0.162
-500.653	-116.698	0.364	0.067
-499.639	-200.000	0.009	-0.050
-498.624	3.499	-0.048	0.035
-497.610	-185.501	0.201	-0.003
-496.595	-189.064	-0.378	0.005
-495.581	22.245	0.122	-0.100
-494.566	-130.358	-0.180	0.024
-493.551	-123.711	-0.227	-0.036
-492.537	145.356	0.035	0.046
-491.522	-32.228	0.252	-0.141
-490.508	-68.766	0.069	0.026
-489.493	-46.831	0.360	-0.176
-488.478	-200.000	0.050	-0.332
-487.464	-200.000	-0.026	-0.277
-486.449	46.621	-0.152	-0.141
-485.435	-135.823	0.331	0.039
-484.420	800.000	0.053	0.230
-483.405	-109.967	-0.122	0.025
-482.391	800.000	-0.046	-0.157
-481.376	135.694	-0.012	0.015
-480.362	800.000	0.067	-0.188
-479.347	-54.765	0.120	0.054
-478.332	-23.176	-0.262	0.158
-477.318	507.127	-0.073	0.170
-476.303	58.763	0.100	0.098
-475.289	-99.316	0.232	0.058
-474.274	-112.553	-0.022	0.004
-473.259	-200.000	-0.015	0.223
-472.245	374.314	-0.095	-0.193
-471.230	25.542	0.224	-0.186
-470.216	-66.127	-0.136	-0.054
-469.201	149.463	0.118	-0.159
-468.186	12.585	-0.106	-0.082
-467.172	739.689	-0.054	0.143
-466.157	800.000	0.161	0.609
-465.143	167.525	0.088	-0.125
-464.128	337.715	-0.083	0.161
-463.113	800.000	0.032	-0.126
-462.099	148.719	0.239	0.322
-461.084	60.487	-0.295	0.291
-460.070	95.411	0.038	0.043
-459.055	-24.494	-0.343	-0.204
-458.040	73.735	0.212	-0.222
-457.026	-51.634	0.337	0.157
-456.011	80.387	0.348	-0.373
-454.997	-200.000	-0.012	0.103
-453.982	-94.798	-0.321	-0.087
-452.968	103.920	-0.131	0.153
-451.953	64.714	-0.052	0.052
-450.938	33.388	-0.085	-0.074
-449.924	-21.316	-0.195	0.119
-448.909	405.412	0.071	-0.149
-447.895	800.000	0.110	0.465
-446.880	-9.126	-0.108	0.072
-445.865	-75.648	-0.064	-0.023
-444.851	-109.433	-0.151	-0.032
-443.836	-200.000	-0.014	0.106
-442.822	-28.195	0.125	-0.072
-441.807	210.218	0.095	0.148
-440.792	-200.000	0.026	-0.189
-439.778	448.933	0.029	-0.064
-438.763	-1.686	0.199	-0.140
-437.749	50.670	-0.296	-0.279
-436.734	-200.000	0.016	0.101
-435.719	-35.451	-0.146	-0.079
-434.705	-32.741	-0.308	0.170
-433.690	-200.000	0.027	-0.131
-432.676	148.688	0.086	-0.116
-431.661	-91.570	-0.193	0.055
-430.646	-200.000	0.013	-0.062
-429.632	-77.598	-0.213	-0.073
-428.617	-200.000	0.000	0.228
-427.603	-200.000	-0.009	-0.468
-426.588	491.945	0.074	-0.168
-425.573	-12.271	-0.291	-0.190
-424.559	-72.246	-0.107	-0.040
-423.544	-137.697	0.193	-0.022
-422.530	106.506	-0.216	0.255
-421.515	557.335	0.134	0.323
-420.500	-200.000	-0.127	0.576
-419.486	755.980	-0.049	0.133
-418.471	-41.975	0.181	0.092
-417.457	-31.313	0.140	0.079
-416.442	32.218	0.177	-0.152
-415.428	570.139	0.165	-0.399
-414.413	-200.000	0.002	-0.142
-413.398	-23.651	-0.107	0.064
-412.384	257.894	-0.113	-0.194
-411.369	-64.550	0.051	-0.021
-410.355	-125.452	-0.225	-0.034
-409.340	-27.380	-0.280	0.162
-408.325	-200.000	0.017	-0.250
-407.311	48.112	0.052	-0.048
-406.296	-71.758	0.383	0.142
-405.282	-200.000	0.036	-0.261
-404.267	348.566	-0.098	0.192
-403.252	164.057	0.097	-0.136
-402.238	177.423	0.207	0.301
-401.223	575.202	0.057	-0.140
-400.209	137.202	0.159	-0.207
-399.194	-127.757	0.415	0.060
-398.179	111.336	-0.160	-0.192
-397.165	-200.000	-0.073	0.000
-396.150	800.000	-0.014	-0.042
-395.136	-200.000	0.006	-0.196
-394.121	541.245	0.095	-0.226
-393.106	39.191	-0.136	-0.121
-392.092	-200.000	-0.024	-0.189
-391.077	800.000	-0.055	-0.189
-390.063	118.934	-0.391	0.480
-389.048	-147.516	0.321	-0.027
-388.033	386.911	-0.083	-0.172
-387.019	-200.000	0.015	0.136
-386.004	-200.000	0.011	-0.128
-384.990	-1.127	0.113	0.080
-383.975	800.000	-0.084	0.258
-382.960	42.505	-0.132	0.120
-381.946	-112.301	0.128	0.026
-380.931	206.475	-0.159	0.246
-379.917	-50.716	-0.342	0.160
-378.902	-183.942	0.137	-0.002
-377.888	-200.000	-0.033	-0.285
-376.873	800.000	0.096	-0.299
-375.858	800.000	0.066	0.239
-374.844	-30.939	0.250	0.141
-373.829	-19.351	-0.073	-0.045
-372.815	-51.844	-0.079	-0.036
-371.800	-60.674	-0.264	-0.111
-370.785	667.879	-0.141	0.361
-369.771	-67.731	0.195	0.076
-368.756	57.326	0.025	0.024
-367.742	-200.000	-0.060	0.345
-366.727	-51.497	0.115	-0.053
-365.712	-200.000	0.002	-0.140
-364.698	40.276	-0.119	-0.106
-363.683	-10.907	-0.304	0.199
-362.669	43.143	-0.115	0.104
-361.654	-106.445	0.349	-0.077
-360.639	106.591	0.056	-0.067
-359.625	-97.289	0.123	-0.032
-358.610	118.481	0.336	0.412
-357.596	-200.000	-0.009	-0.289
-356.581	-112.358	-0.212	-0.042
-355.566	-122.167	-0.039	-0.006
-354.552	-48.220	-0.264	-0.127
-353.537	-77.422	-0.049	0.017
-352.523	-22.848	-0.169	-0.101
-351.508	-28.441	-0.054	0.031
-350.493	518.895	0.033	0.076
-349.479	-158.651	-0.118	-0.007
-348.464	-149.520	-0.171	-0.013
-347.450	62.347	-0.024	0.024
-346.435	800.000	-0.003	-0.010
-345.420	-166.891	0.202	-0.008
-344.406	35.559	0.056	0.048
-343.391	-59.986	-0.205	-0.087
-342.377	-69.466	-0.052	0.020
-341.362	45.471	0.127	-0.117
-340.348	-11.023	0.080	-0.053
-339.333	575.970	0.083	-0.201
-338.318	43.875	-0.208	0.189
-337.304	138.645	0.227	0.296
-336.289	-200.000	-0.052	-0.304
-335.275	231.674	0.048	0.078
-334.260	593.148	0.026	0.063
-333.245	800.000	0.070	-0.192
-332.231	-6.754	-0.281	-0.190
-331.216	-23.769	-0.073	0.043
-330.202	-55.221	0.059	-0.026
-329.187	-88.496	0.142	-0.042
-328.172	333.403	0.143	-0.275
-327.158	43.607	-0.160	0.145
-326.143	483.000	0.107	-0.241
-325.129	-121.591	0.183	-0.030
-324.114	-156.038	0.098	0.006
-323.099	-200.000	0.021	0.186
-322.085	-152.526	0.193	0.014
-321.070	-46.911	0.402	-0.195
-320.056	-60.792	0.094	0.040
-319.041	-123.933	-0.020	-0.003
-318.026	-200.000	-0.043	-0.200
-317.012	43.643	-0.021	0.019
-315.997	6.789	0.254	-0.188
-314.983	-200.000	-0.056	0.306
-313.968	-14.573	0.223	0.142
-312.953	-87.831	0.172	-0.051
-311.939	-28.954	0.114	0.065
-310.924	-95.504	-0.152	0.041
-309.910	108.508	-0.230	0.272
-308.895	-97.474	0.054	0.014
-307.880	-166.566	-0.142	0.006
-306.866	-9.572	0.132	-0.087
-305.851	-90.543	-0.068	0.020
-304.837	-200.000	-0.025	0.281
-303.822	-121.877	0.226	-0.037
-302.807	-109.510	-0.216	-0.045
-301.793	-83.004	0.133	-0.042
-300.778	312.440	-0.073	0.136
-299.764	-200.000	0.074	0.459
-298.749	800.000	-0.040	0.120
-297.735	511.772	-0.091	0.211
-296.720	-150.220	0.115	-0.009
-295.705	758.948	-0.058	0.157
-294.691	-117.167	0.249	0.045
-293.676	-200.000	-0.018	0.273
-292.662	361.368	-0.087	-0.173
-291.647	618.714	0.044	0.109
-290.632	-200.000	0.006	0.064
-289.618	-200.000	0.042	0.254
-288.603	45.489	0.215	0.197
-287.589	-70.907	0.064	-0.024
-286.574	180.715	-0.067	-0.098
-285.559	149.711	0.162	-0.217
-284.545	800.000	-0.074	-0.213
-283.530	145.678	-0.231	-0.306
-282.516	-107.445	-0.143	0.031
-281.501	-100.585	0.160	-0.039
-280.486	138.107	0.029	-0.037
-279.472	-13.013	-0.217	0.140
-278.457	800.000	-0.004	-0.011
-277.443	-110.719	0.246	0.050
-276.428	-34.487	0.322	0.174
-275.413	-200.000	0.017	0.114
-274.399	-152.023	-0.145	0.010
-273.384	-106.158	0.426	-0.095
-272.370	-73.562	0.307	-0.111
-271.355	108.056	-0.116	-0.137
-270.340	521.622	-0.208	-0.483
-269.326	-57.774	-0.202	0.088
-268.311	85.757	0.146	-0.159
-267.297	-200.000	-0.014	-0.156
-266.282	300.910	-0.119	-0.217
-265.267	308.023	0.172	0.317
-264.253	-99.982	0.132	0.033
-263.238	-200.000	0.024	-0.113
-262.224	355.198	0.048	0.094
-261.209	-153.275	-0.286	-0.020
-260.195	-10.044	-0.243	-0.160
-259.180	72.782	0.081	0.083
-258.165	800.000	0.058	0.216
-257.151	-35.059	-0.396	0.213
-256.136	-200.000	0.046	-0.330
-255.122	39.777	0.140	-0.125
-254.107	232.254	-0.122	0.198
-253.092	-122.651	-0.219	-0.035
-252.078	-71.306	-0.104	-0.038
-251.063	0.294	-0.235	0.166
-250.049	83.801	0.187	-0.202
-249.034	8.361	0.204	0.151
-248.019	-8.195	0.116	0.077
-247.005	-71.395	0.189	-0.070
-245.990	-134.143	0.015	-0.002
-244.976	-16.666	-0.278	0.174
-243.961	-55.508	-0.283	-0.126
-242.946	800.000	0.025	-0.093
-241.932	-120.346	-0.258	-0.044
-240.917	-200.000	-0.060	0.321
-239.903	250.994	-0.138	-0.232
-238.888	-5.813	0.154	0.104
-237.873	0.472	0.156	-0.111
-236.859	566.818	0.072	0.173
-235.844	21.523	0.279	0.225
-234.830	-24.602	-0.142	0.084
-233.815	-149.218	0.168	0.013
-232.800	117.391	0.115	-0.139
-231.786	800.000	-0.084	-0.275
-230.771	-200.000	-0.036	-0.275
-229.757	14.404	0.347	0.268
-228.742	-70.329	-0.045	-0.017
-227.727	-156.795	0.245	0.015
-226.713	-108.427	0.233	-0.050
-225.698	260.623	-0.037	0.064
-224.684	-200.000	0.024	-0.249
-223.669	800.000	-0.036	0.132
-222.655	473.627	0.087	0.193
-221.640	127.094	0.096	0.120
-220.625	-200.000	-0.023	-0.114
-219.611	800.000	-0.052	-0.181
-218.596	390.345	-0.088	-0.181
-217.582	-46.373	-0.112	0.054
-216.567	-129.462	0.116	-0.016
-215.552	-200.000	0.201	-0.001
-214.538	-39.860	0.192	-0.099
-213.523	800.000	-0.131	0.427
-212.509	-7.266	0.180	0.120
-211.494	-200.000	-0.011	-0.525
-210.479	-16.600	-0.061	0.038
-209.465	-162.768	-0.226	-0.011
-208.450	-118.747	0.338	-0.059
-207.436	154.129	0.021	-0.028
-206.421	-44.577	0.284	0.140
-205.406	144.594	0.189	0.249
-204.392	-179.126	-0.157	-0.003
-203.377	-156.514	-0.126	0.008
-202.363	58.555	-0.096	0.094
-201.348	23.051	-0.116	0.094
-200.333	-200.000	-0.013	0.157
-199.319	800.000	-0.114	-0.332
-198.304	-200.000	-0.013	0.218
-197.290	-11.411	0.378	-0.246
-196.275	-103.440	0.037	-0.009
-195.260	-69.216	-0.339	0.129
-194.246	257.005	-0.078	0.133
-193.231	71.576	-0.251	-0.257
-192.217	-95.817	-0.272	0.072
-191.202	-81.765	-0.091	-0.029
-190.187	283.050	-0.076	-0.134
-189.173	-200.000	0.038	0.208
-188.158	437.280	-0.050	0.107
-187.144	800.000	0.080	-0.226
-186.129	-29.506	0.166	0.094
-185.114	-78.213	-0.077	-0.026
-184.100	-200.000	-0.021	-0.279
-183.085	800.000	0.012	0.043
-182.071	109.615	-0.069	-0.082
-181.056	24.127	-0.137	0.112
-180.042	99.345	0.257	-0.293
-179.027	800.000	-0.073	0.206
-178.012	-58.530	0.075	-0.032
-176.998	-111.168	0.266	-0.054
-175.983	800.000	0.049	-0.205
-174.969	-5.514	0.048	0.032
-173.954	241.250	-0.130	-0.214
-172.939	32.023	-0.174	-0.148
-171.925	51.468	-0.035	0.033
-170.910	-200.000	-0.018	0.395
-169.896	-167.307	0.349	0.014
-168.881	-2.266	-0.187	0.130
-167.866	-23.281	-0.354	0.210
-166.852	118.789	0.203	0.248
-165.837	-101.620	0.476	-0.114
-164.823	-159.730	0.274	0.015
-163.808	-90.526	-0.265	-0.076
-162.793	-200.000	0.008	-0.065
-161.779	-70.031	0.324	-0.122
-160.764	69.189	0.131	0.133
-159.750	-200.000	0.035	-0.190
-158.735	-120.729	-0.469	-0.078
-157.720	-137.134	-0.165	-0.019
-156.706	-66.661	0.241	0.094
-155.691	800.000	0.052	0.160
-154.677	-172.458	-0.079	-0.002
-153.662	-154.263	0.113	0.007
-152.647	101.275	-0.120	0.138
-151.633	-153.746	-0.095	0.006
-150.618	-97.107	0.190	0.049
-149.604	223.430	0.049	0.078
-148.589	-15.346	0.152	-0.096
-147.574	-200.000	-0.075	0.368
-146.560	-77.005	-0.116	-0.040
-145.545	-200.000	-0.021	0.302
-144.531	-129.182	-0.182	0.025
-143.516	-64.682	-0.308	0.123
-142.502	46.532	-0.306	0.280
-141.487	-172.094	0.286	-0.009
-140.472	285.998	-0.053	-0.095
-139.458	-200.000	0.027	-0.290
-138.443	280.885	0.057	-0.100
-137.429	-102.564	-0.204	-0.048
-136.414	632.992	0.129	0.322
-135.399	428.585	0.099	0.211
-134.385	-95.482	-0.265	0.070
-133.370	800.000	-0.043	-0.183
-132.356	-47.577	0.100	0.048
-131.341	-140.261	0.349	-0.036
-130.326	180.414	0.189	0.273
-129.312	68.727	0.253	0.256
-128.297	69.599	0.077	-0.078
-127.283	-200.000	0.012	0.247
-126.268	57.332	0.021	-0.021
-125.253	-24.934	0.418	-0.244
-124.239	-85.399	-0.181	-0.056
-123.224	-14.142	0.044	0.028
-122.210	-200.000	0.063	0.459
