DTS Sentinel unit serial number:	SN413079Multiplexer serial number:	ORYXHardware model number:	OX4-SRSoftware version number:	ORYX F/W v4.00 Oryx Data Collector v3.7.2.0data status	okinstallation	princeton_trtdifferential loss correction	single-endedforward channel	channel 2reverse channel	N/Adate	2019/09/14time	15:51:35forward acquisition time	60.00reverse acquisition time	0.00gamma	496.2192k internal	0.2304k external	0.2304temperature offset calibration	1.0140default loss term (dB/km)	0.3790temperature slope calibration	1.0000multiplexer offset coefficient	1.0000multiplexer slope coefficient	1.0000fibre end	0.00T internal ref (°C)	38.70T ext. ref 1 (°C)	5.13T ext. ref 2 (°C)	33.62length (m)	temperature (°C)	Stokes	anti-Stokes-747.200	-200.000	0.010	-0.146
-746.185	191.347	0.235	0.360
-745.171	800.000	0.069	-0.277
-744.156	397.489	0.113	0.241
-743.142	-33.205	0.220	0.124
-742.127	73.003	0.296	0.315
-741.112	682.499	-0.070	-0.185
-740.098	-200.000	0.047	0.273
-739.083	62.452	-0.258	-0.263
-738.069	-63.630	0.137	-0.057
-737.054	-171.599	0.149	0.005
-736.039	-198.964	-0.268	-0.001
-735.025	-21.518	0.227	0.141
-734.010	-155.550	-0.195	-0.013
-732.996	-40.982	-0.315	0.166
-731.981	-200.000	-0.014	0.429
-730.966	-200.000	0.004	0.225
-729.952	-9.195	0.123	-0.084
-728.937	-200.000	0.002	-0.301
-727.923	35.368	-0.291	0.260
-726.908	560.392	-0.063	0.155
-725.894	-153.511	-0.206	0.015
-724.879	137.596	-0.091	-0.121
-723.864	-18.599	-0.066	0.042
-722.850	-200.000	0.004	0.336
-721.835	583.950	-0.069	0.172
-720.821	-16.944	-0.288	0.185
-719.806	59.285	0.086	-0.087
-718.791	-200.000	-0.042	-0.331
-717.777	218.125	0.104	0.169
-716.762	800.000	-0.024	0.069
-715.748	214.885	0.073	0.118
-714.733	-200.000	0.002	0.102
-713.718	-200.000	-0.036	0.355
-712.704	32.716	-0.089	0.078
-711.689	-5.297	-0.285	0.199
-710.675	-121.346	-0.087	0.015
-709.660	-146.926	0.314	-0.027
-708.645	-64.035	-0.392	-0.163
-707.631	-57.897	0.237	-0.105
-706.616	252.569	0.114	0.198
-705.602	-3.503	-0.146	0.104
-704.587	206.682	0.039	-0.061
-703.572	-200.000	-0.054	-0.497
-702.558	-67.313	-0.147	-0.059
-701.543	-200.000	0.004	-0.073
-700.529	187.280	0.090	0.136
-699.514	581.762	0.068	0.170
-698.499	-103.512	-0.159	0.038
-697.485	63.201	-0.105	0.107
-696.470	-90.339	0.241	0.071
-695.456	466.971	-0.058	-0.132
-694.441	-91.812	0.123	-0.035
-693.426	-1.281	0.326	0.234
-692.412	76.394	-0.223	0.240
-691.397	-101.473	0.068	-0.017
-690.383	86.083	0.088	0.098
-689.368	42.083	0.164	-0.151
-688.354	304.117	0.285	-0.538
-687.339	81.769	0.309	0.340
-686.324	-22.783	0.221	-0.135
-685.310	-155.392	0.273	0.018
-684.295	24.337	-0.286	-0.240
-683.281	-140.473	0.132	0.014
-682.266	-73.380	-0.181	-0.067
-681.251	11.582	-0.082	-0.064
-680.237	-127.228	0.168	-0.025
-679.222	-33.151	0.150	-0.084
-678.208	-34.384	-0.128	-0.071
-677.193	-122.423	-0.311	0.051
-676.178	217.704	-0.091	-0.147
-675.164	-30.686	0.148	0.085
-674.149	-84.270	0.329	0.106
-673.135	104.093	-0.022	-0.027
-672.120	205.925	-0.131	-0.206
-671.105	471.952	0.039	0.090
-670.091	800.000	-0.060	-0.172
-669.076	800.000	0.107	0.316
-668.062	352.444	0.090	-0.182
-667.047	800.000	0.038	-0.155
-666.032	-13.792	0.150	0.099
-665.018	92.477	-0.209	0.239
-664.003	407.358	0.085	-0.183
-662.989	-74.067	-0.323	-0.119
-661.974	61.797	-0.136	0.137
-660.959	800.000	0.043	0.135
-659.945	-69.496	-0.036	-0.014
-658.930	-200.000	0.001	-0.217
-657.916	682.821	0.109	0.289
-656.901	800.000	-0.064	0.206
-655.886	261.342	-0.049	-0.086
-654.872	-65.791	0.152	-0.062
-653.857	-197.320	-0.182	0.001
-652.843	260.454	0.074	0.129
-651.828	152.291	-0.152	0.210
-650.814	25.842	-0.203	0.172
-649.799	-19.351	0.140	-0.088
-648.784	-3.149	-0.043	0.030
-647.770	-200.000	-0.028	-0.144
-646.755	-200.000	0.050	-0.345
-645.741	-43.586	-0.109	-0.056
-644.726	14.431	0.093	0.074
-643.711	-200.000	0.014	0.177
-642.697	137.589	-0.098	-0.131
-641.682	15.692	-0.208	-0.166
-640.668	-110.383	-0.083	0.017
-639.653	640.935	-0.150	-0.387
-638.638	358.176	-0.135	-0.274
-637.624	-31.929	-0.031	0.018
-636.609	182.942	0.108	-0.161
-635.595	-168.106	-0.124	0.005
-634.580	-80.239	0.287	0.097
-633.565	-43.321	0.248	-0.127
-632.551	800.000	0.042	-0.151
-631.536	800.000	-0.129	0.440
-630.522	140.311	0.083	0.110
-629.507	-22.982	-0.379	0.231
-628.492	11.423	-0.319	-0.248
-627.478	-141.334	-0.307	0.032
-626.463	-16.311	0.379	-0.244
-625.449	-53.891	0.169	0.078
-624.434	-200.000	-0.067	0.408
-623.419	-200.000	-0.004	0.164
-622.405	499.608	-0.118	0.275
-621.390	-104.677	0.254	-0.059
-620.376	219.965	-0.011	-0.018
-619.361	434.422	0.046	0.102
-618.346	254.266	-0.109	-0.189
-617.332	393.943	0.153	-0.323
-616.317	281.208	0.013	-0.023
-615.303	-113.269	0.046	-0.009
-614.288	-200.000	-0.018	0.137
-613.273	-43.651	-0.254	0.130
-612.259	85.419	0.160	-0.178
-611.244	20.374	0.313	-0.256
-610.230	8.689	-0.089	-0.068
-609.215	8.766	0.331	0.253
-608.201	27.834	-0.093	0.079
-607.186	-7.735	0.166	-0.114
-606.171	-9.387	0.063	-0.042
-605.157	-200.000	-0.031	-0.375
-604.142	-200.000	-0.024	-0.116
-603.128	-23.708	-0.128	-0.078
-602.113	800.000	0.082	-0.236
-601.098	422.825	0.084	-0.182
-600.084	-200.000	-0.036	0.346
-599.069	-42.103	0.070	0.036
-598.055	-82.725	0.305	-0.100
-597.040	-141.166	0.093	0.010
-596.025	342.300	-0.022	-0.043
-595.011	609.871	0.040	0.101
-593.996	800.000	0.117	0.457
-592.982	15.805	-0.220	0.175
-591.967	-129.150	0.221	-0.031
-590.952	-200.000	-0.053	-0.260
-589.938	-200.000	-0.010	0.340
-588.923	68.327	-0.120	0.125
-587.909	-148.628	-0.250	0.021
-586.894	-16.730	0.209	0.134
-585.879	-200.000	-0.002	0.011
-584.865	-19.411	-0.183	0.115
-583.850	-200.000	-0.004	0.125
-582.836	-200.000	-0.018	-0.295
-581.821	-79.777	-0.246	0.084
-580.806	-54.302	0.373	-0.171
-579.792	-26.488	0.186	-0.110
-578.777	-29.056	0.263	-0.153
-577.763	-18.720	-0.125	0.079
-576.748	800.000	0.036	-0.135
-575.733	9.479	0.026	-0.020
-574.719	-29.483	0.113	-0.065
-573.704	-200.000	0.092	-0.663
-572.690	-154.539	-0.191	-0.013
-571.675	-38.165	-0.246	-0.132
-570.661	-165.444	-0.268	0.012
-569.646	272.559	-0.151	0.270
-568.631	-200.000	0.007	-0.148
-567.617	-140.816	0.323	0.034
-566.602	-158.978	0.245	0.014
-565.588	101.955	0.123	-0.145
-564.573	72.875	-0.034	0.036
-563.558	-9.615	0.322	-0.217
-562.544	377.235	0.028	-0.058
-561.529	-58.270	-0.192	-0.085
-560.515	-200.000	0.030	-0.331
-559.500	108.041	-0.050	0.060
-558.485	679.873	-0.117	0.307
-557.471	800.000	0.074	0.250
-556.456	69.614	-0.249	-0.259
-555.442	221.780	-0.145	-0.235
-554.427	-87.296	0.064	-0.020
-553.412	316.605	0.065	-0.124
-552.398	-200.000	0.038	-0.347
-551.383	-200.000	-0.020	-0.469
-550.369	502.330	-0.068	-0.158
-549.354	45.925	0.202	-0.189
-548.339	-66.771	-0.142	0.057
-547.325	-142.303	0.193	-0.019
-546.310	-50.098	-0.251	-0.120
-545.296	184.503	0.139	0.208
-544.281	800.000	-0.100	-0.369
-543.266	412.573	-0.056	0.120
-542.252	-200.000	0.009	0.419
-541.237	576.552	0.086	0.213
-540.223	800.000	0.071	0.209
-539.208	-94.411	0.252	-0.070
-538.193	565.079	0.120	0.293
-537.179	-79.415	0.089	0.030
-536.164	-86.531	0.106	0.033
-535.150	-48.944	0.188	-0.091
-534.135	800.000	0.106	-0.385
-533.121	-101.465	0.195	0.048
-532.106	261.678	-0.057	-0.100
-531.091	33.257	0.347	-0.304
-530.077	789.118	0.027	-0.075
-529.062	51.069	-0.170	0.163
-528.048	-200.000	-0.107	0.621
-527.033	-29.652	-0.135	-0.078
-526.018	13.341	0.397	0.311
-525.004	-109.996	0.505	0.107
-523.989	-124.714	0.158	0.025
-522.975	73.096	0.305	0.321
-521.960	800.000	0.075	-0.298
-520.945	-200.000	0.022	-0.264
-519.931	-40.219	-0.203	-0.106
-518.916	122.722	-0.036	0.046
-517.902	-200.000	-0.011	-0.116
-516.887	-200.000	-0.001	0.035
-515.872	459.708	0.107	0.241
-514.858	85.684	0.159	-0.176
-513.843	541.683	0.145	-0.349
-512.829	-143.626	-0.187	0.018
-511.814	800.000	0.070	0.258
-510.799	-200.000	-0.001	-0.176
-509.785	800.000	0.088	0.282
-508.770	398.978	0.090	0.189
-507.756	748.067	-0.078	-0.211
-506.741	-200.000	-0.026	0.151
-505.726	365.354	-0.004	-0.009
-504.712	522.149	-0.116	0.275
-503.697	-18.289	-0.278	-0.175
-502.683	13.511	-0.143	-0.112
-501.668	-129.381	-0.297	-0.042
-500.653	96.663	-0.056	-0.064
-499.639	-200.000	0.013	0.457
-498.624	388.169	-0.121	-0.252
-497.610	-200.000	0.006	-0.173
-496.595	-92.542	-0.317	-0.090
-495.581	-121.305	-0.315	0.053
-494.566	82.166	0.070	0.077
-493.551	-169.432	-0.192	0.007
-492.537	-23.143	-0.146	0.088
-491.522	151.720	0.029	0.040
-490.508	529.035	0.049	-0.117
-489.493	800.000	0.062	-0.243
-488.478	554.401	0.160	-0.387
-487.464	-200.000	0.022	-0.410
-486.449	18.929	-0.047	0.038
-485.435	425.675	0.150	0.326
-484.420	75.804	-0.150	0.160
-483.405	-200.000	0.009	0.107
-482.391	1.786	0.127	-0.092
-481.376	-200.000	0.022	-0.167
-480.362	203.831	-0.151	0.235
-479.347	-8.140	0.019	-0.013
-478.332	-38.033	-0.195	-0.105
-477.318	47.009	0.174	0.163
-476.303	-200.000	-0.053	0.383
-475.289	-75.706	-0.258	-0.092
-474.274	163.037	-0.074	-0.105
-473.259	93.109	0.134	-0.152
-472.245	64.541	-0.329	-0.334
-471.230	-200.000	0.021	0.208
-470.216	51.047	0.274	-0.261
-469.201	351.549	0.024	0.048
-468.186	800.000	-0.053	0.185
-467.172	54.962	0.103	0.100
-466.157	-200.000	-0.022	-0.496
-465.143	37.877	-0.045	-0.040
-464.128	75.663	-0.077	-0.082
-463.113	268.607	0.094	0.166
-462.099	-84.694	-0.157	-0.050
-461.084	-138.213	0.214	0.024
-460.070	361.910	-0.039	0.078
-459.055	-200.000	-0.091	-0.465
-458.040	318.584	-0.148	-0.283
-457.026	-200.000	-0.015	0.079
-456.011	-157.683	-0.086	0.005
-454.997	-162.378	-0.264	0.013
-453.982	1.199	-0.053	0.038
-452.968	-5.621	-0.135	-0.093
-451.953	150.592	0.319	-0.436
-450.938	-143.849	0.051	0.005
-449.924	-200.000	0.018	0.131
-448.909	800.000	-0.073	-0.207
-447.895	-35.351	0.451	0.247
-446.880	-200.000	-0.010	0.066
-445.865	454.480	-0.042	-0.094
-444.851	129.927	0.175	0.225
-443.836	-200.000	-0.006	-0.187
-442.822	-159.729	-0.077	0.004
-441.807	-84.011	0.227	0.073
-440.792	70.162	0.177	-0.184
-439.778	533.985	0.187	0.447
-438.763	-32.721	-0.072	-0.041
-437.749	534.200	-0.048	-0.115
-436.734	427.073	0.199	-0.431
-435.719	-200.000	0.030	0.155
-434.705	-69.020	0.505	0.196
-433.690	-200.000	-0.011	-0.179
-432.676	148.399	0.215	0.291
-431.661	-158.762	0.051	0.003
-430.646	-108.195	-0.343	0.075
-429.632	-70.934	-0.160	-0.061
-428.617	-200.000	-0.018	0.152
-427.603	-200.000	-0.021	0.121
-426.588	-75.611	-0.145	-0.052
-425.573	-157.837	0.085	-0.005
-424.559	504.111	0.051	-0.118
-423.544	-34.885	-0.326	0.179
-422.530	485.359	-0.118	-0.269
-421.515	39.549	0.183	-0.165
-420.500	342.701	0.055	0.108
-419.486	-200.000	0.005	0.229
-418.471	173.958	-0.090	0.130
-417.457	286.118	-0.062	0.112
-416.442	800.000	-0.080	0.267
-415.428	12.753	0.127	-0.098
-414.413	143.864	0.031	0.041
-413.398	-200.000	0.038	0.215
-412.384	14.997	0.156	0.123
-411.369	-200.000	0.041	0.183
-410.355	-59.324	0.184	0.080
-409.340	451.873	0.094	0.209
-408.325	800.000	0.052	0.155
-407.311	448.561	0.076	0.167
-406.296	-200.000	0.043	0.243
-405.282	800.000	-0.013	0.055
-404.267	-106.761	0.057	0.013
-403.252	72.373	-0.114	-0.119
-402.238	21.829	0.099	0.081
-401.223	-10.848	-0.182	-0.121
-400.209	-200.000	-0.029	-0.168
-399.194	425.670	0.191	-0.414
-398.179	-200.000	0.018	-0.144
-397.165	356.998	-0.073	-0.146
-396.150	653.793	-0.036	-0.092
-395.136	800.000	0.054	0.174
-394.121	-115.188	-0.199	0.038
-393.106	461.295	0.166	-0.373
-392.092	785.055	0.099	0.274
-391.077	47.812	-0.192	-0.180
-390.063	326.231	-0.154	0.295
-389.048	-12.476	-0.156	-0.102
-388.033	-44.474	-0.168	-0.084
-387.019	-102.852	0.095	-0.023
-386.004	43.284	-0.118	0.108
-384.990	46.758	-0.206	-0.192
-383.975	-181.143	-0.029	0.001
-382.960	234.632	0.153	0.253
-381.946	-67.090	0.233	0.092
-380.931	-200.000	0.001	-0.175
-379.917	39.839	-0.141	-0.127
-378.902	47.781	0.221	0.207
-377.888	545.108	0.115	0.276
-376.873	-200.000	-0.012	-0.237
-375.858	-179.721	-0.040	0.001
-374.844	646.319	-0.073	-0.188
-373.829	-200.000	0.016	0.147
-372.815	800.000	0.042	0.180
-371.800	359.588	0.140	-0.280
-370.785	97.759	-0.167	-0.193
-369.771	43.634	0.134	0.123
-368.756	-27.333	0.153	-0.089
-367.742	-200.000	0.029	-0.236
-366.727	-46.028	-0.335	0.166
-365.712	-75.648	0.223	-0.079
-364.698	-118.070	0.132	-0.024
-363.683	91.872	-0.148	0.168
-362.669	-39.981	-0.284	0.149
-361.654	-70.600	0.110	-0.042
-360.639	-200.000	0.007	-0.143
-359.625	24.151	-0.198	0.164
-358.610	-183.187	-0.092	0.002
-357.596	-200.000	0.015	0.161
-356.581	-54.798	-0.402	-0.182
-355.566	119.793	-0.127	0.158
-354.552	-200.000	-0.019	0.484
-353.537	239.310	-0.131	-0.218
-352.523	800.000	-0.193	0.556
-351.508	-94.673	-0.224	0.061
-350.493	277.113	-0.085	0.152
-349.479	-19.844	0.149	-0.092
-348.464	-56.061	0.257	0.115
-347.450	9.213	0.111	0.084
-346.435	-157.429	0.184	-0.011
-345.420	192.120	0.051	0.077
-344.406	541.719	0.071	-0.170
-343.391	-200.000	-0.031	-0.287
-342.377	64.757	0.185	0.187
-341.362	-46.803	0.238	0.117
-340.348	-121.740	-0.291	-0.048
-339.333	-200.000	-0.015	-0.110
-338.318	-59.381	-0.153	0.066
-337.304	392.679	0.099	0.207
-336.289	254.469	-0.129	-0.220
-335.275	-200.000	-0.007	0.211
-334.260	-155.610	-0.357	0.023
-333.245	123.957	0.068	0.085
-332.231	-110.711	-0.181	0.037
-331.216	-87.136	-0.099	0.030
-330.202	-79.730	-0.168	0.057
-329.187	-200.000	0.008	-0.206
-328.172	-91.524	-0.273	0.078
-327.158	-41.539	0.147	0.076
-326.143	1.868	0.179	0.130
-325.129	-42.098	0.146	-0.075
-324.114	800.000	0.066	-0.263
-323.099	340.557	0.117	-0.229
-322.085	-3.492	-0.383	0.267
-321.070	519.454	0.087	0.204
-320.056	-200.000	-0.020	-0.179
-319.041	-200.000	-0.010	-0.147
-318.026	279.097	0.100	0.179
-317.012	-66.613	-0.111	-0.044
-315.997	-133.268	-0.198	-0.025
-314.983	-78.864	0.257	-0.088
-313.968	237.587	-0.166	0.275
-312.953	800.000	0.044	-0.124
-311.939	139.901	0.124	0.163
-310.924	-81.539	-0.322	0.106
-309.910	75.017	0.193	0.203
-308.895	45.711	0.229	-0.212
-307.880	152.985	-0.166	-0.227
-306.866	-30.808	-0.165	0.093
-305.851	-120.300	0.149	0.025
-304.837	-33.881	-0.396	-0.218
-303.822	-200.000	0.045	0.259
-302.807	212.475	0.222	0.351
-301.793	48.953	0.144	0.136
-300.778	83.931	0.073	-0.079
-299.764	-13.642	0.173	-0.112
-298.749	-123.629	-0.229	0.036
-297.735	-156.359	0.121	-0.008
-296.720	-100.694	0.073	0.018
-295.705	169.224	-0.034	-0.048
-294.691	171.121	0.064	0.093
-293.676	-41.053	0.262	-0.135
-292.662	110.307	0.162	-0.195
-291.647	-12.223	-0.063	-0.042
-290.632	-200.000	0.008	-0.344
-289.618	-200.000	-0.032	0.231
-288.603	37.252	0.238	-0.210
-287.589	-93.654	0.163	0.045
-286.574	-107.684	-0.139	0.030
-285.559	3.751	-0.275	0.200
-284.545	800.000	-0.041	-0.140
-283.530	800.000	-0.044	-0.163
-282.516	-131.067	-0.064	0.009
-281.501	-42.442	0.172	0.088
-280.486	194.067	-0.163	-0.248
-279.472	-137.438	0.198	-0.022
-278.457	-76.547	-0.269	0.095
-277.443	-137.645	-0.207	-0.023
-276.428	800.000	-0.114	-0.442
-275.413	433.602	-0.085	0.183
-274.399	-37.027	-0.191	-0.102
-273.384	33.296	0.171	-0.148
-272.370	-146.825	0.175	0.015
-271.355	-10.614	-0.162	0.107
-270.340	29.845	-0.123	-0.104
-269.326	-176.190	0.170	0.004
-268.311	100.691	-0.088	-0.102
-267.297	-87.661	0.133	0.040
-266.282	-44.704	0.073	0.037
-265.267	8.110	0.091	-0.068
-264.253	-158.637	-0.149	0.009
-263.238	-138.559	0.407	-0.045
-262.224	-157.516	0.022	0.001
-261.209	-200.000	-0.031	0.264
-260.195	282.793	-0.096	-0.172
-259.180	472.317	-0.186	0.417
-258.165	98.774	-0.042	0.048
-257.151	38.674	-0.045	-0.040
-256.136	204.042	-0.050	-0.078
-255.122	351.944	-0.096	0.190
-254.107	-200.000	-0.060	0.285
-253.092	-131.674	0.040	-0.005
-252.078	-40.298	-0.361	0.187
-251.063	234.630	-0.007	0.012
-250.049	-110.883	0.355	0.073
-249.034	-37.546	0.345	-0.184
-248.019	-4.783	-0.344	0.237
-247.005	332.935	-0.195	-0.376
-245.990	-58.147	0.208	0.091
-244.976	-38.296	-0.208	0.110
-243.961	-200.000	0.010	0.063
-242.946	-72.643	-0.223	-0.082
-241.932	-93.924	-0.183	-0.050
-240.917	800.000	0.066	0.198
-239.903	63.679	-0.315	-0.315
-238.888	-145.263	-0.271	0.024
-237.873	800.000	0.025	-0.089
-236.859	-78.531	-0.396	0.135
-235.844	-200.000	-0.045	0.254
-234.830	-200.000	-0.012	0.259
-233.815	-26.059	-0.518	0.304
-232.800	52.084	0.061	0.058
-231.786	-5.387	-0.128	-0.088
-230.771	664.763	0.098	0.251
-229.757	800.000	-0.121	0.364
-228.742	41.045	0.132	0.119
-227.727	800.000	0.071	-0.213
-226.713	-189.489	-0.307	-0.004
-225.698	-131.425	-0.067	0.009
-224.684	2.592	0.138	0.100
-223.669	-59.726	0.191	-0.081
-222.655	-20.693	-0.088	-0.054
-221.640	800.000	0.054	-0.218
-220.625	-101.991	-0.139	0.034
-219.611	-124.222	0.176	-0.027
-218.596	323.839	0.074	0.140
-217.582	19.602	0.048	0.039
-216.567	-200.000	0.009	0.098
-215.552	-22.555	0.285	0.172
-214.538	800.000	-0.014	0.047
-213.523	-137.770	-0.142	-0.016
-212.509	-24.769	0.159	-0.094
-211.494	-87.666	-0.064	-0.019
-210.479	-119.509	-0.063	0.011
-209.465	52.799	-0.077	0.073
-208.450	14.231	-0.113	-0.088
-207.436	-130.483	0.255	-0.034
-206.421	-103.570	-0.137	-0.032
-205.406	63.786	0.222	-0.222
-204.392	-200.000	0.013	-0.112
-203.377	98.561	-0.112	0.129
-202.363	-38.035	-0.158	-0.083
-201.348	-200.000	0.057	-0.300
-200.333	-76.127	0.069	0.024
-199.319	-200.000	0.009	0.221
-198.304	-68.279	0.057	-0.022
-197.290	-75.261	0.233	-0.083
-196.275	-27.962	0.111	-0.064
-195.260	40.944	0.267	0.240
-194.246	242.362	0.066	-0.109
-193.231	-19.728	0.093	0.057
-192.217	-200.000	0.020	0.200
-191.202	-200.000	-0.009	0.078
-190.187	-73.161	0.223	-0.081
-189.173	292.560	-0.129	-0.234
-188.158	349.294	-0.062	-0.122
-187.144	432.743	-0.121	0.262
-186.129	-79.414	-0.426	-0.144
-185.114	-12.171	0.334	0.218
-184.100	800.000	0.026	-0.083
-183.085	398.686	0.103	0.215
-182.071	-81.773	0.207	-0.068
-181.056	-200.000	-0.009	-0.440
-180.042	-149.501	0.118	-0.009
-179.027	17.556	-0.143	-0.113
-178.012	-38.380	0.227	0.120
-176.998	366.274	-0.201	0.403
-175.983	115.235	-0.151	-0.183
-174.969	-15.115	0.164	-0.105
-173.954	179.480	0.199	0.290
-172.939	-55.829	-0.231	0.103
-171.925	-25.526	-0.046	-0.027
-170.910	166.680	-0.108	-0.153
-169.896	-200.000	0.014	-0.069
-168.881	635.455	0.038	0.095
-167.866	33.276	0.137	-0.118
-166.852	-101.496	0.177	0.043
-165.837	154.155	-0.161	0.219
-164.823	800.000	0.063	0.251
-163.808	0.227	0.056	0.040
-162.793	-200.000	0.027	0.132
-161.779	-75.502	-0.174	-0.062
-160.764	-117.806	0.019	0.003
-159.750	-200.000	-0.047	-0.353
-158.735	538.445	-0.101	0.240
-157.720	-77.109	-0.168	0.058
-156.706	210.464	-0.125	0.196
-155.691	-160.150	-0.060	-0.003
-154.677	-113.761	-0.228	0.044
-153.662	26.991	0.118	-0.099
-152.647	-79.505	0.188	-0.063
-151.633	-36.423	0.143	0.077
-150.618	-144.916	0.255	-0.023
-149.604	795.655	-0.234	-0.642
-148.589	-134.230	-0.505	0.062
-147.574	325.680	0.176	0.334
-146.560	54.047	-0.200	-0.191
-145.545	49.260	-0.249	-0.232
-144.531	420.045	-0.107	-0.229
-143.516	-96.140	0.242	0.064
-142.502	-166.186	0.218	0.009
-141.487	-42.486	-0.326	-0.165
-140.472	-89.466	-0.312	-0.091
-139.458	-44.015	0.197	0.098
-138.443	129.650	0.217	0.276
-137.429	139.702	0.149	-0.196
-136.414	-56.498	-0.207	-0.091
-135.399	-77.784	-0.247	0.085
-134.385	-64.499	0.108	-0.043
-133.370	-200.000	0.010	-0.113
-132.356	40.142	0.154	-0.138
-131.341	-68.031	0.237	0.092
-130.326	-29.579	-0.370	0.210
-129.312	-68.405	0.253	-0.098
-128.297	-200.000	-0.034	-0.227
-127.283	-83.694	-0.326	-0.103
-126.268	-46.710	-0.243	-0.118
-125.253	-16.511	-0.064	-0.040
-124.239	-19.112	0.223	0.138
-123.224	391.557	-0.047	0.096
-122.210	-200.000	0.026	0.191
-121.195	800.000	-0.091	-0.267
-120.180	56.431	0.216	-0.209
