DTS Sentinel unit serial number:	SN413079Multiplexer serial number:	ORYXHardware model number:	OX4-SRSoftware version number:	ORYX F/W v4.00 Oryx Data Collector v3.7.2.0data status	okinstallation	princeton_trtdifferential loss correction	single-endedforward channel	channel 2reverse channel	N/Adate	2019/09/12time	20:04:49forward acquisition time	15.00reverse acquisition time	0.00gamma	496.2192k internal	0.2327k external	0.2327temperature offset calibration	1.0154default loss term (dB/km)	0.3790temperature slope calibration	1.0000multiplexer offset coefficient	1.0000multiplexer slope coefficient	1.0000fibre end	0.00T internal ref (°C)	31.69T ext. ref 1 (°C)	3.48T ext. ref 2 (°C)	26.23length (m)	temperature (°C)	Stokes	anti-Stokes-747.200	109.507	-0.037	-0.044
-746.185	-73.810	0.122	0.045
-745.171	196.440	-0.046	-0.071
-744.156	-200.000	-0.002	-0.239
-743.142	110.632	0.167	0.203
-742.127	-71.203	0.841	-0.318
-741.112	-89.283	0.219	-0.065
-740.098	35.975	0.507	-0.450
-739.083	27.252	-0.560	-0.474
-738.069	-143.206	0.228	-0.022
-737.054	8.458	0.420	0.319
-736.039	-26.189	-0.663	-0.393
-735.025	-100.178	0.583	-0.146
-734.010	-157.132	-0.341	0.021
-732.996	31.170	0.085	-0.073
-731.981	-200.000	0.073	0.557
-730.966	-28.556	0.514	-0.299
-729.952	-41.759	-0.935	-0.483
-728.937	-200.000	0.106	-0.539
-727.923	36.447	0.111	0.099
-726.908	115.228	0.337	-0.415
-725.894	-35.063	-0.230	0.127
-724.879	-200.000	0.024	0.604
-723.864	-154.223	1.062	-0.072
-722.850	80.891	0.154	0.167
-721.835	194.129	-0.272	0.415
-720.821	-200.000	0.028	0.204
-719.806	141.122	-0.231	-0.308
-718.791	34.388	0.553	-0.486
-717.777	68.623	0.494	0.510
-716.762	45.485	-0.521	0.485
-715.748	800.000	-0.100	-0.312
-714.733	-124.258	0.475	-0.075
-713.718	-200.000	-0.112	-0.511
-712.704	-200.000	0.029	-0.444
-711.689	16.928	0.108	0.086
-710.675	-128.654	-0.480	-0.068
-709.660	29.089	-0.352	0.301
-708.645	-66.869	0.945	0.376
-707.631	-95.868	0.422	-0.113
-706.616	-112.481	0.304	0.061
-705.602	800.000	0.131	0.502
-704.587	800.000	0.111	0.374
-703.572	298.788	0.780	1.445
-702.558	7.238	0.581	-0.436
-701.543	426.465	-0.154	-0.333
-700.529	357.985	-0.088	-0.177
-699.514	-12.248	-0.091	0.060
-698.499	-200.000	-0.045	-0.449
-697.485	800.000	0.149	-0.612
-696.470	-6.337	0.563	0.386
-695.456	-200.000	-0.040	0.256
-694.441	14.595	-0.568	-0.447
-693.426	151.477	-0.196	-0.269
-692.412	791.304	0.185	-0.512
-691.397	48.461	0.871	0.820
-690.383	-158.763	-0.823	0.047
-689.368	-200.000	0.026	-0.159
-688.354	736.839	0.021	0.057
-687.339	-200.000	-0.005	-0.332
-686.324	-135.623	-0.761	0.091
-685.310	-86.781	0.363	0.112
-684.295	481.127	-0.232	-0.529
-683.281	84.619	0.512	-0.564
-682.266	-30.344	0.969	0.553
-681.251	-200.000	-0.005	1.712
-680.237	206.677	0.436	0.684
-679.222	800.000	0.253	0.711
-678.208	178.713	0.227	-0.334
-677.193	71.709	0.338	-0.353
-676.178	-200.000	-0.021	-0.422
-675.164	114.497	0.582	0.713
-674.149	800.000	-0.148	0.567
-673.135	-83.727	0.144	0.046
-672.120	-117.597	-1.022	0.185
-671.105	-74.862	0.293	-0.106
-670.091	561.708	-0.211	0.513
-669.076	-33.274	0.325	-0.181
-668.062	57.240	-0.489	0.480
-667.047	-200.000	0.125	0.633
-666.032	800.000	-0.191	0.557
-665.018	413.135	-0.235	0.502
-664.003	235.448	0.338	-0.561
-662.989	575.822	0.303	0.744
-661.974	800.000	-0.164	0.710
-660.959	-142.750	-0.995	-0.097
-659.945	106.439	0.438	-0.522
-658.930	-200.000	0.008	-0.418
-657.916	-112.008	-0.510	-0.103
-656.901	-3.972	-0.647	0.451
-655.886	-151.207	-0.096	-0.007
-654.872	800.000	0.114	-0.438
-653.857	207.304	0.289	-0.453
-652.843	-200.000	-0.056	-0.875
-651.828	-152.524	-0.150	0.011
-650.814	-110.445	-0.361	0.075
-649.799	785.094	0.238	0.656
-648.784	800.000	0.150	0.423
-647.770	-200.000	-0.039	-0.690
-646.755	-145.405	0.021	-0.002
-645.741	6.623	-0.699	0.522
-644.726	-200.000	-0.150	-0.695
-643.711	-66.715	-0.280	0.111
-642.697	-85.290	0.406	0.127
-641.682	-57.000	-0.788	0.349
-640.668	-200.000	-0.079	0.466
-639.653	-200.000	0.065	0.419
-638.638	584.178	-0.092	0.226
-637.624	35.199	-0.614	0.541
-636.609	141.327	0.330	0.439
-635.595	-24.189	0.395	0.237
-634.580	-30.139	0.433	-0.247
-633.565	-50.435	-0.238	-0.113
-632.551	800.000	0.189	-0.629
-631.536	-124.100	0.694	-0.109
-630.522	-87.714	-0.597	0.181
-629.507	-85.079	0.510	-0.160
-628.492	-118.627	-0.304	-0.054
-627.478	-200.000	0.009	1.287
-626.463	-115.058	-0.791	-0.151
-625.449	-130.296	0.447	-0.061
-624.434	166.245	0.255	-0.363
-623.419	373.807	-0.377	-0.770
-622.405	-59.626	-0.359	-0.154
-621.390	490.393	0.281	-0.646
-620.376	226.217	0.163	-0.265
-619.361	7.027	0.162	0.121
-618.346	-187.776	-0.528	-0.007
-617.332	297.484	0.307	-0.566
-616.317	-200.000	0.033	0.240
-615.303	-140.137	-0.914	-0.096
-614.288	158.664	-0.204	-0.284
-613.273	4.896	-0.412	-0.304
-612.259	800.000	-0.178	0.504
-611.244	344.520	0.278	0.547
-610.230	-152.928	-0.861	-0.061
-609.215	-2.857	-0.208	0.146
-608.201	-200.000	0.122	-0.592
-607.186	181.457	-0.384	0.567
-606.171	210.778	0.132	0.207
-605.157	57.021	0.284	0.277
-604.142	-63.641	-0.360	0.148
-603.128	62.765	0.654	-0.656
-602.113	70.885	0.356	0.370
-601.098	-52.250	-1.003	-0.466
-600.084	-102.329	0.454	-0.109
-599.069	560.038	0.322	0.779
-598.055	156.092	0.592	-0.818
-597.040	-45.551	0.694	-0.345
-596.025	-102.081	0.112	-0.027
-595.011	-97.007	0.539	0.141
-593.996	725.364	-0.134	-0.358
-592.982	-163.383	0.078	0.004
-591.967	-94.454	-0.218	0.060
-590.952	-200.000	-0.420	-0.001
-589.938	-176.631	0.677	0.017
-588.923	-122.937	-0.310	-0.050
-587.909	-163.296	0.245	-0.012
-586.894	-105.997	0.849	0.191
-585.879	-75.386	-0.331	-0.118
-584.865	492.776	0.128	-0.293
-583.850	-200.000	0.092	-0.538
-582.836	-200.000	0.003	-0.362
-581.821	183.902	-0.254	-0.377
-580.806	-148.696	0.249	-0.020
-579.792	56.737	-0.065	0.063
-578.777	-150.816	0.513	0.039
-577.763	39.016	-0.177	-0.159
-576.748	133.098	-0.284	-0.367
-575.733	-200.000	-0.020	-0.309
-574.719	167.670	0.142	0.203
-573.704	-54.974	-1.174	0.530
-572.690	22.664	-0.094	0.077
-571.675	76.469	0.342	0.363
-570.661	639.064	-0.214	-0.546
-569.646	79.872	0.198	0.213
-568.631	444.111	-0.347	0.763
-567.617	-200.000	-0.007	0.565
-566.602	444.748	0.295	-0.648
-565.588	-88.704	-0.432	-0.128
-564.573	-200.000	-0.006	-0.537
-563.558	12.797	0.099	0.077
-562.544	119.753	-0.048	-0.059
-561.529	800.000	-0.249	-0.730
-560.515	21.437	-0.613	0.499
-559.500	-200.000	0.011	0.555
-558.485	-52.451	0.483	-0.224
-557.471	-94.244	-1.349	-0.369
-556.456	29.721	-0.199	0.170
-555.442	-62.021	0.101	0.042
-554.427	-161.706	-0.484	0.025
-553.412	-200.000	-0.127	-0.615
-552.398	-28.043	-0.841	-0.487
-551.383	-148.496	-0.170	0.014
-550.369	403.254	0.100	0.210
-549.354	-30.235	-0.338	0.192
-548.339	-200.000	-0.073	-0.377
-547.325	23.578	-0.492	0.405
-546.310	279.470	0.397	0.708
-545.296	-93.507	0.358	-0.099
-544.281	-107.093	-0.550	0.121
-543.266	365.396	0.470	-0.947
-542.252	-73.850	-0.694	-0.252
-541.237	-200.000	-0.006	0.867
-540.223	-200.000	0.022	-0.314
-539.208	-37.235	-0.125	-0.067
-538.193	356.446	0.243	0.485
-537.179	-104.799	0.530	0.122
-536.164	-200.000	0.028	-0.477
-535.150	148.780	-0.168	0.227
-534.135	379.781	-0.156	-0.320
-533.121	36.265	-0.287	-0.253
-532.106	-136.459	-0.687	0.080
-531.091	10.909	0.428	0.327
-530.077	134.592	-0.608	0.789
-529.062	-200.000	0.072	-0.598
-528.048	30.551	0.679	0.581
-527.033	-107.100	-0.597	0.132
-526.018	-60.606	-0.626	0.266
-525.004	29.923	0.405	-0.345
-523.989	116.208	-0.167	0.205
-522.975	225.823	0.110	-0.177
-521.960	3.610	0.462	0.337
-520.945	100.114	0.711	0.824
-519.931	163.824	0.395	0.556
-518.916	308.870	-0.230	0.429
-517.902	-106.357	-0.482	-0.108
-516.887	-63.166	0.633	0.261
-515.872	183.367	0.405	-0.598
-514.858	203.693	-0.239	-0.370
-513.843	-35.416	-0.606	0.329
-512.829	-69.179	-0.429	-0.165
-511.814	17.051	-0.174	0.138
-510.799	-121.845	0.930	0.153
-509.785	-200.000	-0.029	-0.785
-508.770	-200.000	0.079	1.218
-507.756	416.249	0.247	0.525
-506.741	-33.021	-0.599	0.332
-505.726	246.765	-0.141	0.237
-504.712	-3.221	0.767	0.534
-503.697	171.812	0.127	0.182
-502.683	279.096	0.234	0.416
-501.668	-200.000	0.136	0.725
-500.653	179.130	-0.222	0.324
-499.639	73.062	0.572	-0.597
-498.624	-80.837	0.793	-0.263
-497.610	55.338	0.450	-0.434
-496.595	121.837	-0.519	0.647
-495.581	239.678	0.340	0.566
-494.566	-112.905	0.777	-0.154
-493.551	-12.689	0.370	-0.241
-492.537	-173.759	0.838	-0.025
-491.522	800.000	0.016	0.062
-490.508	-102.234	-0.312	-0.075
-489.493	-200.000	0.005	0.035
-488.478	-27.039	-0.246	-0.143
-487.464	42.298	-0.166	0.151
-486.449	-200.000	-0.012	0.976
-485.435	-200.000	-0.118	0.663
-484.420	24.689	0.291	0.240
-483.405	-123.339	-0.950	0.151
-482.391	-200.000	0.093	0.486
-481.376	39.723	0.965	-0.863
-480.362	-200.000	-0.061	-0.304
-479.347	-200.000	-0.002	0.089
-478.332	-35.854	-0.767	0.414
-477.318	-200.000	0.132	0.810
-476.303	-200.000	-0.146	0.691
-475.289	800.000	0.157	-0.521
-474.274	254.983	0.300	-0.513
-473.259	44.697	0.503	-0.462
-472.245	205.682	-0.075	-0.116
-471.230	35.137	0.598	0.522
-470.216	651.093	-0.230	-0.588
-469.201	62.525	-0.311	0.310
-468.186	52.634	0.345	0.328
-467.172	166.515	-0.241	0.341
-466.157	-200.000	-0.032	-0.313
-465.143	-56.126	-0.740	0.328
-464.128	27.149	-0.135	0.113
-463.113	-200.000	0.018	0.105
-462.099	647.797	-0.260	0.663
-461.084	46.519	0.642	0.594
-460.070	-84.500	0.877	0.276
-459.055	-200.000	-0.087	-0.479
-458.040	49.385	-0.136	0.127
-457.026	-16.362	0.412	0.260
-456.011	-200.000	-0.030	0.865
-454.997	-95.037	-0.445	0.120
-453.982	-166.993	0.283	-0.012
-452.968	432.772	-0.158	0.342
-451.953	-200.000	-0.093	0.521
-450.938	20.789	-0.663	0.535
-449.924	-200.000	0.017	-0.342
-448.909	-32.301	-0.660	0.367
-447.895	504.096	0.443	-1.022
-446.880	746.825	0.056	0.150
-445.865	543.198	0.191	-0.453
-444.851	146.868	0.052	0.070
-443.836	440.080	-0.229	0.498
-442.822	764.284	-0.295	0.798
-441.807	-94.921	-0.643	-0.173
-440.792	-103.132	-0.876	0.207
-439.778	-103.952	0.549	0.128
-438.763	-19.878	-0.699	0.430
-437.749	176.196	-0.177	-0.256
-436.734	-200.000	0.087	-0.927
-435.719	337.765	0.415	-0.804
-434.705	-24.899	0.900	0.532
-433.690	15.592	-0.437	-0.342
-432.676	-136.038	-0.274	-0.032
-431.661	0.462	0.560	-0.398
-430.646	-140.289	1.027	-0.107
-429.632	-198.207	0.466	0.003
-428.617	75.765	0.468	0.492
-427.603	41.508	0.606	0.546
-426.588	0.273	0.300	0.213
-425.573	-166.639	1.101	-0.046
-424.559	-176.318	0.461	-0.012
-423.544	465.709	0.369	0.823
-422.530	-200.000	-0.016	-0.528
-421.515	237.311	-0.062	0.102
-420.500	-189.866	0.771	0.009
-419.486	656.828	0.060	0.152
-418.471	800.000	0.113	-0.335
-417.457	237.340	-0.178	-0.294
-416.442	34.085	0.263	-0.228
-415.428	-200.000	0.037	0.441
-414.413	-140.196	-0.881	0.092
-413.398	-156.892	0.336	-0.021
-412.384	-12.832	0.529	-0.343
-411.369	-200.000	-0.143	0.001
-410.355	12.268	-0.183	-0.140
-409.340	-200.000	-0.050	-0.698
-408.325	-38.429	-0.680	-0.358
-407.311	156.152	-0.317	0.435
-406.296	-152.051	-0.822	0.060
-405.282	303.926	0.255	-0.471
-404.267	6.654	0.305	0.226
-403.252	-122.475	0.744	-0.120
-402.238	128.234	-0.345	0.437
-401.223	-200.000	-0.042	0.232
-400.209	-89.866	0.338	-0.098
-399.194	-200.000	0.017	-0.469
-398.179	-42.962	-0.403	-0.204
-397.165	18.313	0.273	0.217
-396.150	-200.000	0.038	0.462
-395.136	429.869	-0.271	-0.583
-394.121	-39.269	-0.403	0.210
-393.106	800.000	-0.257	-0.709
-392.092	800.000	-0.112	-0.407
-391.077	-121.232	0.315	-0.052
-390.063	-72.238	-1.028	0.379
-389.048	11.995	-0.542	0.414
-388.033	-200.000	0.065	-0.501
-387.019	-49.979	0.728	-0.343
-386.004	315.154	-0.228	-0.427
-384.990	-94.338	0.561	-0.152
-383.975	-136.142	0.038	0.004
-382.960	-54.785	-0.463	-0.208
-381.946	800.000	-0.286	1.040
-380.931	67.872	0.238	0.242
-379.917	299.987	0.248	0.455
-378.902	217.665	-0.279	-0.442
-377.888	51.468	0.865	-0.817
-376.873	-132.116	-0.731	0.094
-375.858	45.294	0.558	0.511
-374.844	-106.202	-0.368	0.082
-373.829	-40.846	-0.709	-0.365
-372.815	-66.147	0.201	0.080
-371.800	40.139	0.519	-0.463
-370.785	-144.286	-0.600	-0.056
-369.771	-2.282	0.105	0.073
-368.756	-158.941	0.773	-0.044
-367.742	-117.711	0.495	-0.089
-366.727	122.131	0.540	-0.670
-365.712	-21.437	-0.408	-0.247
-364.698	51.344	-0.533	-0.503
-363.683	672.979	-0.122	0.314
-362.669	353.339	0.289	0.569
-361.654	-200.000	0.012	-0.568
-360.639	-2.412	0.192	-0.133
-359.625	479.898	0.148	-0.333
-358.610	800.000	-0.117	-0.332
-357.596	736.613	0.202	-0.537
-356.581	-102.589	-0.817	0.194
-355.566	71.943	0.221	0.228
-354.552	-200.000	-0.027	-0.860
-353.537	-69.175	0.758	-0.290
-352.523	-157.697	0.447	-0.026
-351.508	43.593	0.368	-0.334
-350.493	-200.000	0.095	0.661
-349.479	50.043	-0.276	0.259
-348.464	800.000	0.031	0.089
-347.450	-200.000	0.038	-0.703
-346.435	800.000	-0.098	0.276
-345.420	84.223	0.144	0.156
-344.406	-126.262	0.157	-0.023
-343.391	800.000	-0.101	-0.336
-342.377	-132.700	-0.204	0.026
-341.362	-200.000	0.010	0.229
-340.348	-200.000	0.193	-1.371
-339.333	800.000	0.276	-1.107
-338.318	43.463	-0.149	-0.135
-337.304	-92.870	0.674	0.187
-336.289	-8.662	-0.542	0.361
-335.275	-93.090	0.521	0.144
-334.260	800.000	0.310	0.865
-333.245	800.000	0.065	0.237
-332.231	-32.638	0.515	0.285
-331.216	-200.000	0.082	-0.573
-330.202	122.749	0.128	0.159
-329.187	800.000	-0.098	0.383
-328.172	-54.600	-0.725	0.325
-327.158	-182.701	-0.507	0.009
-326.143	-120.288	0.757	-0.128
-325.129	-200.000	0.004	0.129
-324.114	755.368	0.288	-0.773
-323.099	355.899	-0.248	-0.489
-322.085	-21.806	0.379	0.229
-321.070	608.607	0.143	-0.353
-320.056	-67.167	0.889	-0.347
-319.041	-21.563	-0.372	-0.225
-318.026	-51.769	0.337	-0.156
-317.012	-38.886	-0.150	-0.078
-315.997	716.196	0.117	0.307
-314.983	105.613	0.475	-0.556
-313.968	671.607	-0.125	-0.322
-312.953	-128.241	-0.828	-0.117
-311.939	800.000	0.116	0.419
-310.924	-133.175	1.190	0.149
-309.910	-129.279	0.281	-0.039
-308.895	-26.248	-0.554	-0.322
-307.880	-128.919	0.341	-0.047
-306.866	800.000	0.054	-0.161
-305.851	-200.000	-0.103	-0.478
-304.837	-84.364	-0.452	-0.142
-303.822	-6.014	-0.123	-0.084
-302.807	-200.000	-0.078	0.815
-301.793	-200.000	-0.000	-0.420
-300.778	40.964	0.282	-0.252
-299.764	-18.760	-0.475	-0.293
-298.749	-154.178	0.428	-0.029
-297.735	-9.706	-0.576	0.380
-296.720	41.947	-0.376	-0.338
-295.705	247.141	0.050	0.084
-294.691	800.000	0.124	0.444
-293.676	-68.524	-0.223	0.086
-292.662	-2.752	-0.549	-0.380
-291.647	-39.840	0.239	0.124
-290.632	-55.702	-0.444	-0.196
-289.618	120.693	-0.200	-0.247
-288.603	-47.135	0.255	-0.123
-287.589	-12.323	-0.152	0.098
-286.574	-61.124	-0.834	0.348
-285.559	-44.250	0.248	-0.123
-284.545	-200.000	-0.110	-0.857
-283.530	144.828	0.199	-0.264
-282.516	14.814	0.206	0.160
-281.501	-38.017	0.182	-0.095
-280.486	-200.000	-0.101	0.446
-279.472	-93.188	0.247	-0.068
-278.457	27.776	-0.189	0.158
-277.443	378.774	-0.169	-0.342
-276.428	-153.123	0.563	0.039
-275.413	-125.398	0.909	-0.137
-274.399	423.435	0.100	-0.213
-273.384	3.699	0.935	0.675
-272.370	-133.547	0.758	0.094
-271.355	-112.196	0.204	0.041
-270.340	800.000	-0.172	0.543
-269.326	210.385	-0.080	0.125
-268.311	-2.271	0.189	0.131
-267.297	-200.000	-0.030	0.313
-266.282	262.965	0.155	-0.266
-265.267	429.258	-0.106	0.227
-264.253	11.482	-0.482	-0.365
-263.238	-200.000	0.006	-0.146
-262.224	-200.000	0.017	0.151
-261.209	311.325	-0.568	-1.053
-260.195	226.956	0.277	0.445
-259.180	27.342	-0.451	0.375
-258.165	-200.000	0.068	0.378
-257.151	19.742	-0.809	0.644
-256.136	-189.254	-0.610	-0.007
-255.122	-158.314	-0.970	-0.056
-254.107	281.453	-0.260	-0.461
-253.092	-126.524	-0.879	-0.129
-252.078	114.873	0.299	-0.361
-251.063	147.612	-0.495	-0.659
-250.049	8.429	-0.393	-0.293
-249.034	-167.719	-0.605	0.024
-248.019	-115.132	-0.623	0.117
-247.005	-200.000	-0.018	0.281
-245.990	-106.608	-0.744	-0.164
-244.976	-48.345	-0.973	-0.464
-243.961	-200.000	0.100	-0.662
-242.946	-200.000	-0.114	-0.752
-241.932	2.239	0.212	-0.151
-240.917	-200.000	-0.014	1.034
-239.903	-50.007	-0.181	-0.085
-238.888	-50.598	-0.975	-0.454
-237.873	-110.243	-0.296	0.061
-236.859	-96.493	0.961	0.251
-235.844	673.384	-0.322	0.824
-234.830	238.859	0.119	-0.196
-233.815	-171.038	0.446	-0.015
-232.800	-54.925	0.322	-0.144
-231.786	-73.017	-0.196	-0.071
-230.771	-15.914	0.075	-0.047
-229.757	-75.654	-0.464	0.163
-228.742	-40.839	-0.192	0.098
-227.727	365.812	0.223	0.445
-226.713	7.500	-0.183	-0.135
-225.698	-99.167	-0.280	0.070
-224.684	158.379	0.449	0.616
-223.669	-169.406	0.302	0.011
-222.655	-200.000	0.157	0.682
-221.640	75.110	0.268	-0.279
-220.625	112.534	0.328	-0.392
-219.611	-48.304	0.295	-0.141
-218.596	-148.986	-0.421	0.033
-217.582	-200.000	-0.205	-1.294
-216.567	27.832	-0.452	-0.376
-215.552	103.979	-0.217	0.252
-214.538	288.694	0.281	0.503
-213.523	245.589	0.462	0.768
-212.509	-62.605	-1.002	0.410
-211.494	63.907	-0.680	0.675
-210.479	92.026	-0.455	-0.506
-209.465	-157.821	0.553	-0.032
-208.450	-5.898	0.078	-0.053
-207.436	-112.328	0.345	0.068
-206.421	-200.000	0.040	0.643
-205.406	-200.000	0.162	-0.788
-204.392	-47.084	-0.465	-0.224
-203.377	-63.283	-0.752	-0.306
-202.363	-200.000	0.014	-0.096
-201.348	64.437	0.618	0.614
-200.333	-45.779	0.497	-0.242
-199.319	800.000	-0.233	-0.870
-198.304	-22.620	-0.689	0.411
-197.290	-200.000	-0.239	1.053
-196.275	-110.828	-0.602	-0.122
-195.260	56.410	0.330	-0.316
-194.246	706.750	0.073	0.191
-193.231	8.313	0.578	-0.429
-192.217	-43.647	-0.649	-0.323
-191.202	748.173	0.093	0.247
-190.187	-37.478	0.365	0.192
-189.173	191.746	-0.096	0.142
-188.158	150.177	0.345	0.461
-187.144	-59.149	0.811	-0.345
-186.129	173.585	-0.312	-0.444
-185.114	181.981	-0.607	0.882
-184.100	-108.651	-0.870	0.184
-183.085	37.103	0.252	0.220
-182.071	113.247	-0.346	0.414
-181.056	-44.060	-0.410	0.203
-180.042	-64.737	-0.718	0.287
-179.027	-23.738	-0.271	0.160
-178.012	123.546	0.413	-0.511
-176.998	-170.015	0.618	-0.022
-175.983	-200.000	-0.019	0.089
-174.969	-200.000	0.028	-0.150
-173.954	-109.001	-0.666	-0.140
-172.939	-105.299	0.758	-0.170
-171.925	-200.000	0.009	-0.472
-170.910	-113.530	0.565	0.109
-169.896	800.000	0.260	0.813
-168.881	800.000	-0.193	-0.643
-167.866	51.073	0.107	0.100
-166.852	547.218	-0.037	0.088
-165.837	84.591	0.150	-0.162
-164.823	324.443	0.340	0.640
-163.808	-67.294	0.227	0.088
-162.793	-119.778	0.128	0.022
-161.779	75.892	0.489	-0.509
-160.764	800.000	0.365	-1.080
-159.750	15.693	0.625	0.484
-158.735	-36.484	-0.563	-0.298
-157.720	-144.474	0.801	-0.073
-156.706	419.101	0.266	-0.560
-155.691	-119.684	0.014	-0.002
-154.677	74.408	-0.061	-0.063
-153.662	-74.830	0.274	0.097
-152.647	800.000	0.109	-0.423
-151.633	800.000	0.086	-0.259
-150.618	800.000	0.234	0.946
-149.604	222.205	0.250	0.397
-148.589	-200.000	-0.064	-0.697
-147.574	800.000	-0.208	-0.688
-146.560	222.322	0.311	-0.493
-145.545	138.447	0.356	0.461
-144.531	-200.000	-0.047	0.398
-143.516	-200.000	-0.003	-0.499
-142.502	155.292	-0.601	-0.814
-141.487	-90.536	-0.287	-0.082
-140.472	-17.037	-0.537	-0.334
-139.458	29.112	-0.509	-0.425
-138.443	-200.000	-0.099	0.495
-137.429	157.976	-0.259	0.354
-136.414	800.000	0.191	0.657
-135.399	-42.410	0.799	-0.401
-134.385	-200.000	0.014	-0.104
-133.370	-200.000	0.018	-0.391
-132.356	162.379	-0.145	-0.200
-131.341	101.294	-0.346	0.397
-130.326	-200.000	0.214	-1.516
-129.312	-200.000	0.007	0.528
-128.297	29.568	-0.646	-0.540
-127.283	62.978	0.525	0.517
-126.268	-101.425	-0.369	0.089
-125.253	396.252	-0.386	-0.793
-124.239	475.479	0.202	0.448
-123.224	-144.877	0.673	0.061
-122.210	800.000	-0.198	0.561
-121.195	128.257	0.164	0.205
