DTS Sentinel unit serial number:	SN413079Multiplexer serial number:	ORYXHardware model number:	OX4-SRSoftware version number:	ORYX F/W v4.00 Oryx Data Collector v3.7.2.0data status	okinstallation	princeton_trtdifferential loss correction	single-endedforward channel	channel 2reverse channel	N/Adate	2019/09/18time	09:39:34forward acquisition time	60.00reverse acquisition time	0.00gamma	496.2192k internal	0.2336k external	0.2336temperature offset calibration	0.9977default loss term (dB/km)	0.3790temperature slope calibration	1.0000multiplexer offset coefficient	1.0000multiplexer slope coefficient	1.0000fibre end	0.00T internal ref (°C)	26.70T ext. ref 1 (°C)	0.28T ext. ref 2 (°C)	23.36length (m)	temperature (°C)	Stokes	anti-Stokes-747.200	17.475	-0.301	-0.240
-746.185	-39.350	-0.028	-0.015
-745.171	-19.519	0.326	-0.203
-744.156	-114.798	-0.355	0.068
-743.142	144.908	-0.052	-0.070
-742.127	-73.017	0.109	0.040
-741.112	123.612	-0.050	-0.063
-740.098	600.630	-0.171	0.427
-739.083	152.694	-0.096	-0.131
-738.069	214.217	-0.173	-0.275
-737.054	-200.000	-0.024	-0.268
-736.039	-73.971	-0.057	-0.021
-735.025	-44.109	-0.121	0.061
-734.010	-54.431	-0.252	-0.115
-732.996	-34.234	-0.280	-0.154
-731.981	-101.658	0.328	0.080
-730.966	-157.643	0.261	0.016
-729.952	-200.000	0.009	0.216
-728.937	-38.026	-0.222	-0.118
-727.923	-18.876	0.159	-0.100
-726.908	458.858	-0.054	0.121
-725.894	14.980	-0.063	-0.049
-724.879	574.997	0.150	-0.367
-723.864	299.484	0.060	-0.111
-722.850	90.606	-0.105	0.119
-721.835	-1.967	-0.228	0.161
-720.821	48.054	0.170	0.160
-719.806	-57.427	-0.104	-0.046
-718.791	-126.391	-0.217	-0.032
-717.777	-2.498	-0.122	0.085
-716.762	800.000	-0.079	0.235
-715.748	-77.406	0.042	-0.015
-714.733	134.490	0.127	-0.165
-713.718	74.989	0.117	-0.123
-712.704	6.006	0.123	-0.091
-711.689	104.975	0.226	-0.267
-710.675	-104.741	-0.353	-0.081
-709.660	-25.224	-0.177	0.105
-708.645	-68.305	0.190	-0.074
-707.631	225.004	-0.053	0.087
-706.616	390.705	0.134	0.279
-705.602	-200.000	0.035	0.255
-704.587	-200.000	-0.007	0.034
-703.572	-122.075	-0.390	0.064
-702.558	-56.664	-0.249	0.111
-701.543	-31.832	0.102	0.058
-700.529	-131.490	-0.332	0.044
-699.514	195.304	0.102	0.155
-698.499	2.429	-0.202	-0.146
-697.485	-47.422	0.049	0.024
-696.470	4.615	0.148	0.109
-695.456	-200.000	0.051	0.313
-694.441	-42.857	0.107	-0.054
-693.426	84.141	0.076	-0.083
-692.412	-15.887	-0.338	-0.216
-691.397	-200.000	-0.026	-0.205
-690.383	-66.980	-0.036	-0.014
-689.368	-153.700	-0.141	-0.010
-688.354	404.097	-0.084	0.178
-687.339	-33.650	0.307	0.170
-686.324	-73.014	-0.047	-0.017
-685.310	-18.590	0.303	0.190
-684.295	-200.000	-0.022	0.226
-683.281	-134.104	0.363	0.045
-682.266	-45.445	-0.052	-0.026
-681.251	-200.000	-0.028	-0.327
-680.237	-200.000	-0.025	-0.162
-679.222	-86.781	-0.261	0.080
-678.208	-36.509	0.059	-0.032
-677.193	-69.505	-0.136	-0.052
-676.178	-200.000	-0.023	0.229
-675.164	9.231	0.220	0.166
-674.149	506.566	-0.045	-0.106
-673.135	-66.055	0.402	0.161
-672.120	673.180	0.134	0.348
-671.105	800.000	0.137	-0.445
-670.091	800.000	-0.082	0.234
-669.076	4.411	0.107	-0.078
-668.062	-119.054	-0.128	0.022
-667.047	-132.742	0.212	0.027
-666.032	-12.060	-0.449	0.295
-665.018	145.178	-0.152	0.203
-664.003	-178.964	0.075	-0.002
-662.989	800.000	-0.040	-0.126
-661.974	375.224	0.084	0.172
-660.959	-18.405	0.278	-0.174
-659.945	259.290	-0.048	0.083
-658.930	800.000	-0.053	-0.227
-657.916	54.131	0.089	-0.085
-656.901	-15.442	0.196	0.125
-655.886	-64.394	-0.195	-0.079
-654.872	24.056	0.165	0.136
-653.857	-57.272	-0.261	0.115
-652.843	-53.431	-0.309	-0.142
-651.828	-200.000	-0.045	0.462
-650.814	-132.463	0.191	0.025
-649.799	-60.110	-0.059	-0.025
-648.784	77.223	-0.145	-0.155
-647.770	-22.238	-0.169	-0.102
-646.755	28.326	0.132	0.112
-645.741	-200.000	-0.013	-0.085
-644.726	-86.272	0.288	0.089
-643.711	-200.000	0.036	-0.274
-642.697	-27.120	0.123	0.072
-641.682	-51.301	0.262	0.123
-640.668	-26.415	0.246	0.144
-639.653	-21.571	0.272	-0.166
-638.638	125.528	0.148	-0.187
-637.624	79.986	-0.119	0.128
-636.609	-82.804	-0.207	-0.067
-635.595	-74.426	0.205	-0.074
-634.580	-109.154	-0.070	0.015
-633.565	-200.000	0.002	-0.203
-632.551	183.511	-0.177	-0.261
-631.536	-42.891	-0.054	-0.027
-630.522	-53.756	0.082	0.037
-629.507	-64.138	-0.146	-0.060
-628.492	-200.000	0.012	-0.079
-627.478	46.827	0.203	-0.189
-626.463	800.000	-0.046	-0.193
-625.449	375.691	-0.053	-0.107
-624.434	182.219	-0.135	-0.199
-623.419	27.434	-0.108	-0.091
-622.405	-200.000	-0.023	0.246
-621.390	-200.000	-0.032	-0.167
-620.376	14.130	-0.156	-0.122
-619.361	-200.000	0.036	0.511
-618.346	-200.000	0.028	0.195
-617.332	-70.297	0.017	-0.006
-616.317	-45.238	-0.293	0.146
-615.303	-200.000	0.001	-0.238
-614.288	531.739	0.033	-0.078
-613.273	-136.976	0.317	0.036
-612.259	800.000	0.013	0.052
-611.244	-84.681	0.114	-0.036
-610.230	800.000	0.066	-0.220
-609.215	-105.070	-0.167	-0.038
-608.201	155.861	0.121	-0.167
-607.186	-146.798	0.211	-0.018
-606.171	-45.202	-0.230	0.114
-605.157	800.000	0.124	0.376
-604.142	-118.311	-0.207	0.037
-603.128	-200.000	-0.015	-0.240
-602.113	-142.623	-0.331	0.032
-601.098	-200.000	-0.022	-0.223
-600.084	-33.450	-0.125	0.069
-599.069	-26.665	0.230	0.135
-598.055	-34.460	-0.280	-0.153
-597.040	-57.086	0.163	-0.072
-596.025	-107.675	-0.030	-0.006
-595.011	800.000	0.027	0.073
-593.996	50.227	0.264	-0.249
-592.982	555.319	-0.021	0.049
-591.967	236.572	-0.139	-0.229
-590.952	-1.276	-0.198	-0.139
-589.938	23.913	-0.181	-0.149
-588.923	-137.760	-0.191	0.021
-587.909	-67.634	0.644	0.252
-586.894	-98.918	0.278	-0.071
-585.879	-113.511	0.153	-0.030
-584.865	16.097	-0.327	-0.257
-583.850	140.429	0.055	0.073
-582.836	-36.273	0.312	0.168
-581.821	-81.316	-0.260	0.085
-580.806	-73.656	0.129	-0.047
-579.792	-200.000	-0.024	0.167
-578.777	-131.514	-0.278	-0.037
-577.763	-26.935	0.238	-0.139
-576.748	43.512	-0.204	0.186
-575.733	800.000	-0.047	-0.187
-574.719	-200.000	-0.035	0.212
-573.704	157.314	0.087	-0.120
-572.690	-60.838	0.396	-0.167
-571.675	463.222	-0.122	-0.273
-570.661	137.454	-0.122	0.159
-569.646	800.000	-0.048	0.166
-568.631	-68.151	-0.041	0.016
-567.617	-47.981	-0.181	-0.087
-566.602	665.634	0.172	-0.443
-565.588	-137.145	-0.107	0.012
-564.573	800.000	0.077	-0.238
-563.558	19.905	0.186	-0.150
-562.544	-30.924	0.294	-0.166
-561.529	428.825	-0.014	0.029
-560.515	375.641	-0.065	0.133
-559.500	83.384	0.128	-0.139
-558.485	-140.447	-0.118	-0.012
-557.471	137.998	0.173	-0.227
-556.456	197.625	-0.288	0.439
-555.442	5.894	0.087	-0.064
-554.427	337.159	-0.223	-0.432
-553.412	-3.085	0.127	0.088
-552.398	486.230	0.112	0.255
-551.383	-27.122	-0.180	0.105
-550.369	96.241	-0.178	-0.203
-549.354	-200.000	-0.021	-0.444
-548.339	318.062	-0.169	0.319
-547.325	-78.632	0.447	0.152
-546.310	800.000	0.052	-0.212
-545.296	55.056	-0.189	-0.182
-544.281	255.087	-0.140	0.239
-543.266	-200.000	-0.057	0.548
-542.252	-12.101	0.048	-0.032
-541.237	-159.959	-0.232	0.013
-540.223	-117.308	-0.434	-0.079
-539.208	-200.000	-0.005	0.062
-538.193	254.086	0.206	-0.352
-537.179	-200.000	0.030	-0.192
-536.164	-200.000	0.004	-0.204
-535.150	-200.000	0.041	0.265
-534.135	-89.124	-0.346	0.102
-533.121	197.951	-0.146	-0.223
-532.106	800.000	0.104	-0.424
-531.091	229.418	-0.082	-0.133
-530.077	-161.832	0.016	-0.001
-529.062	-41.543	0.154	-0.079
-528.048	-86.722	-0.138	-0.042
-527.033	-100.700	-0.189	-0.046
-526.018	-60.872	-0.019	-0.008
-525.004	800.000	-0.058	-0.216
-523.989	-152.454	-0.094	-0.007
-522.975	261.407	0.157	-0.270
-521.960	414.671	0.064	0.136
-520.945	800.000	-0.028	0.120
-519.931	114.634	-0.070	-0.084
-518.916	65.052	-0.059	0.060
-517.902	1.139	-0.074	0.053
-516.887	-73.701	0.292	-0.106
-515.872	-72.427	0.206	0.076
-514.858	-20.151	-0.057	-0.035
-513.843	800.000	0.018	0.049
-512.829	-200.000	0.050	0.235
-511.814	-87.145	-0.209	0.063
-510.799	-16.008	-0.324	0.205
-509.785	-132.566	0.068	0.009
-508.770	-40.033	-0.377	-0.196
-507.756	140.255	0.199	0.261
-506.741	-200.000	0.028	0.218
-505.726	290.855	-0.149	-0.270
-504.712	237.373	0.137	0.227
-503.697	800.000	-0.076	0.274
-502.683	800.000	-0.037	-0.107
-501.668	-200.000	0.045	-0.303
-500.653	106.777	-0.144	-0.170
-499.639	800.000	0.016	-0.048
-498.624	-0.141	-0.314	0.222
-497.610	284.453	-0.064	0.115
-496.595	11.149	-0.216	0.164
-495.581	179.296	0.040	-0.058
-494.566	800.000	-0.019	0.065
-493.551	-141.906	-0.080	-0.008
-492.537	15.439	0.257	0.201
-491.522	80.421	-0.161	-0.173
-490.508	793.298	-0.092	-0.252
-489.493	-200.000	0.063	-0.321
-488.478	155.529	-0.183	0.250
-487.464	63.833	-0.364	-0.364
-486.449	-200.000	0.017	0.352
-485.435	-32.651	-0.190	-0.105
-484.420	415.832	0.042	-0.088
-483.405	168.117	0.125	-0.176
-482.391	510.105	-0.028	0.065
-481.376	-149.566	-0.512	0.040
-480.362	226.403	0.118	0.190
-479.347	-127.046	-0.092	0.013
-478.332	195.668	0.127	-0.192
-477.318	-124.028	-0.155	0.024
-476.303	87.938	-0.140	-0.155
-475.289	665.150	0.063	0.163
-474.274	800.000	0.080	0.289
-473.259	44.417	-0.165	0.150
-472.245	234.001	-0.034	-0.055
-471.230	-21.840	0.268	-0.162
-470.216	136.927	-0.078	0.101
-469.201	-148.836	-0.158	0.013
-468.186	-163.532	0.348	0.016
-467.172	800.000	-0.075	-0.225
-466.157	800.000	0.058	-0.217
-465.143	-61.864	0.100	-0.042
-464.128	-35.614	-0.141	-0.076
-463.113	167.578	-0.185	0.261
-462.099	94.396	0.148	0.167
-461.084	-200.000	-0.048	-0.236
-460.070	269.016	-0.101	-0.176
-459.055	800.000	-0.075	-0.254
-458.040	17.950	-0.084	0.066
-457.026	245.614	-0.145	0.243
-456.011	-164.341	0.132	-0.006
-454.997	67.282	0.215	-0.218
-453.982	800.000	-0.079	-0.262
-452.968	-200.000	0.016	0.072
-451.953	22.734	0.136	0.111
-450.938	307.564	-0.122	-0.225
-449.924	466.249	0.146	-0.324
-448.909	-200.000	0.044	-0.314
-447.895	103.917	-0.346	-0.403
-446.880	64.306	0.090	-0.090
-445.865	-4.226	-0.285	-0.196
-444.851	474.438	0.123	0.275
-443.836	-34.037	0.160	-0.087
-442.822	-74.146	0.148	0.053
-441.807	130.782	-0.010	0.013
-440.792	-182.517	0.134	0.002
-439.778	-200.000	0.066	0.366
-438.763	-165.310	-0.274	0.012
-437.749	-71.588	-0.139	0.051
-436.734	-62.785	-0.107	0.044
-435.719	-114.976	-0.193	0.036
-434.705	-15.320	0.052	0.033
-433.690	542.591	0.031	0.072
-432.676	46.259	0.155	-0.143
-431.661	-101.706	0.643	0.155
-430.646	32.894	0.016	-0.014
-429.632	-60.334	0.192	-0.081
-428.617	-200.000	0.051	-0.277
-427.603	9.800	0.185	-0.139
-426.588	-81.212	-0.215	0.070
-425.573	-159.733	-0.248	-0.014
-424.559	134.664	-0.140	0.181
-423.544	-108.825	-0.249	-0.053
-422.530	-200.000	-0.002	0.215
-421.515	800.000	0.058	0.232
-420.500	-133.029	0.088	-0.011
-419.486	-111.215	-0.291	-0.059
-418.471	423.733	-0.116	-0.246
-417.457	-200.000	-0.003	0.163
-416.442	677.920	0.046	0.118
-415.428	77.489	0.018	-0.019
-414.413	800.000	0.104	-0.398
-413.398	580.932	0.140	0.340
-412.384	-109.547	0.301	-0.063
-411.369	-200.000	0.000	0.141
-410.355	-58.859	0.170	-0.073
-409.340	21.727	0.049	0.040
-408.325	28.887	0.090	0.076
-407.311	-200.000	0.018	0.093
-406.296	-200.000	-0.065	-0.452
-405.282	30.698	-0.052	-0.044
-404.267	-200.000	-0.017	-0.225
-403.252	247.555	-0.138	0.231
-402.238	28.665	-0.326	0.273
-401.223	100.602	0.164	-0.188
-400.209	153.367	-0.134	-0.182
-399.194	-126.575	0.195	-0.029
-398.179	-200.000	-0.009	0.154
-397.165	363.804	0.067	0.133
-396.150	-66.067	-0.281	0.111
-395.136	85.881	-0.387	-0.422
-394.121	-200.000	-0.010	0.105
-393.106	426.742	-0.105	0.224
-392.092	199.075	0.092	0.139
-391.077	-147.441	0.278	0.023
-390.063	800.000	0.034	-0.131
-389.048	165.106	0.358	-0.501
-388.033	-200.000	-0.010	-0.060
-387.019	800.000	0.056	0.172
-386.004	-71.114	0.286	0.106
-384.990	-149.669	0.222	-0.017
-383.975	447.199	0.171	-0.372
-382.960	-111.182	0.364	-0.074
-381.946	52.974	0.193	0.182
-380.931	-89.675	-0.272	0.079
-379.917	79.416	-0.029	0.031
-378.902	109.675	-0.092	0.109
-377.888	-113.399	-0.256	0.050
-376.873	-53.943	0.129	0.058
-375.858	393.916	-0.014	-0.029
-374.844	-16.676	-0.167	0.104
-373.829	-47.654	0.112	0.054
-372.815	-113.767	0.363	0.070
-371.800	129.996	-0.092	-0.116
-370.785	-154.172	0.242	0.016
-369.771	-125.595	-0.214	-0.032
-368.756	16.411	0.262	-0.205
-367.742	129.709	-0.136	-0.172
-366.727	175.165	-0.050	-0.072
-365.712	-53.965	-0.360	-0.162
-364.698	-57.200	-0.102	-0.045
-363.683	29.495	0.082	-0.069
-362.669	-25.811	0.066	-0.039
-361.654	-200.000	-0.047	-0.345
-360.639	-91.633	0.235	-0.066
-359.625	42.237	0.162	-0.145
-358.610	-200.000	-0.559	0.002
-357.596	-200.000	-0.032	-0.168
-356.581	-130.421	-0.367	0.049
-355.566	-17.449	-0.184	-0.114
-354.552	44.343	-0.279	0.253
-353.537	-200.000	0.021	-0.113
-352.523	-143.241	-0.269	-0.026
-351.508	-200.000	-0.034	0.275
-350.493	386.119	0.177	-0.362
-349.479	-20.801	0.148	-0.090
-348.464	5.556	-0.168	-0.123
-347.450	202.907	0.053	0.081
-346.435	-200.000	-0.012	0.235
-345.420	12.318	-0.154	0.117
-344.406	5.877	-0.250	0.183
-343.391	-29.084	0.324	0.184
-342.377	-200.000	-0.023	0.140
-341.362	800.000	-0.049	0.190
-340.348	-2.980	0.226	-0.156
-339.333	800.000	-0.078	0.258
-338.318	-200.000	0.010	-0.226
-337.304	800.000	-0.119	0.414
-336.289	-73.300	-0.320	0.116
-335.275	-163.198	0.451	-0.021
-334.260	-15.859	-0.077	0.049
-333.245	91.046	0.197	-0.219
-332.231	168.976	-0.223	-0.315
-331.216	101.517	0.204	0.235
-330.202	51.110	-0.262	0.246
-329.187	266.330	0.154	0.265
-328.172	800.000	0.096	0.394
-327.158	-114.910	0.151	0.028
-326.143	309.622	0.149	-0.276
-325.129	-200.000	0.023	0.110
-324.114	58.704	-0.178	-0.173
-323.099	-200.000	0.007	0.050
-322.085	-8.671	-0.164	0.109
-321.070	-97.682	-0.103	-0.026
-320.056	-152.515	0.182	-0.013
-319.041	-71.187	-0.254	-0.094
-318.026	-24.263	0.280	-0.165
-317.012	120.429	-0.047	0.058
-315.997	171.424	0.251	0.356
-314.983	-200.000	-0.003	-0.191
-313.968	-105.076	-0.124	0.028
-312.953	87.232	0.164	-0.179
-311.939	159.886	-0.132	0.181
-310.924	-51.868	0.294	0.135
-309.910	-152.869	0.228	0.016
-308.895	188.305	0.096	-0.142
-307.880	31.382	0.050	-0.043
-306.866	-54.393	0.177	0.079
-305.851	27.140	0.237	0.196
-304.837	800.000	0.100	-0.426
-303.822	129.558	-0.132	-0.166
-302.807	257.368	0.229	0.389
-301.793	-82.371	-0.100	0.032
-300.778	-200.000	0.019	-0.292
-299.764	59.115	0.303	-0.294
-298.749	-29.301	0.171	0.097
-297.735	1.240	0.204	0.145
-296.720	-200.000	-0.010	0.056
-295.705	-41.161	-0.181	0.092
-294.691	-200.000	-0.003	0.190
-293.676	262.643	-0.042	-0.071
-292.662	-183.341	0.194	-0.003
-291.647	-148.247	-0.141	-0.012
-290.632	-200.000	-0.067	0.288
-289.618	208.866	0.108	-0.166
-288.603	-200.000	-0.265	0.001
-287.589	326.543	0.161	-0.304
-286.574	-200.000	0.050	0.318
-285.559	-76.517	-0.336	-0.116
-284.545	800.000	0.066	0.256
-283.530	431.593	-0.122	-0.262
-282.516	-90.723	0.452	0.129
-281.501	-200.000	0.069	0.365
-280.486	-200.000	0.054	0.337
-279.472	562.397	-0.114	0.273
-278.457	800.000	0.079	0.274
-277.443	-200.000	-0.040	-0.195
-276.428	-34.536	-0.164	-0.089
-275.413	21.059	0.155	0.124
-274.399	-200.000	-0.008	-0.044
-273.384	-111.984	0.117	-0.023
-272.370	-102.588	0.189	0.044
-271.355	-176.397	0.379	0.010
-270.340	58.329	-0.210	0.203
-269.326	-96.980	0.251	0.065
-268.311	-45.471	0.030	0.015
-267.297	207.166	0.110	-0.169
-266.282	-64.507	0.013	0.005
-265.267	-160.462	-0.254	0.013
-264.253	-122.278	-0.314	0.051
-263.238	260.013	0.100	-0.170
-262.224	-18.941	-0.154	-0.094
-261.209	-93.785	-0.288	0.078
-260.195	455.181	0.072	0.158
-259.180	415.768	0.049	-0.104
-258.165	-200.000	-0.018	-0.236
-257.151	298.367	0.094	-0.171
-256.136	107.433	-0.172	0.202
-255.122	774.457	0.042	0.112
-254.107	-200.000	0.042	0.194
-253.092	65.975	0.076	-0.076
-252.078	-112.627	0.126	-0.025
-251.063	-100.034	0.233	-0.057
-250.049	-52.198	-0.114	-0.052
-249.034	92.970	0.027	-0.030
-248.019	-25.871	-0.257	0.149
-247.005	19.648	-0.062	0.049
-245.990	-26.362	0.344	0.199
-244.976	361.469	0.015	0.029
-243.961	-200.000	-0.019	0.197
-242.946	-200.000	0.044	0.310
-241.932	198.573	0.062	-0.093
-240.917	-126.325	-0.033	-0.005
-239.903	-119.565	-0.240	-0.041
-238.888	0.437	-0.311	0.219
-237.873	-157.992	0.121	-0.007
-236.859	282.360	0.155	0.274
-235.844	162.352	0.112	0.154
-234.830	800.000	-0.056	0.204
-233.815	221.163	0.126	-0.198
-232.800	-82.237	0.254	-0.081
-231.786	-13.876	-0.355	-0.226
-230.771	-46.655	0.083	-0.040
-229.757	-12.372	0.241	0.155
-228.742	-18.816	0.083	-0.051
-227.727	376.980	-0.069	0.138
-226.713	-200.000	0.035	0.196
-225.698	-81.413	0.271	0.088
-224.684	-57.071	-0.165	-0.071
-223.669	16.744	-0.226	0.176
-222.655	157.913	-0.110	-0.150
-221.640	73.944	-0.088	0.091
-220.625	-200.000	0.021	-0.124
-219.611	267.742	-0.250	-0.431
-218.596	76.410	-0.259	0.270
-217.582	696.416	-0.105	0.271
-216.567	238.421	0.135	0.221
-215.552	227.166	0.159	0.254
-214.538	-200.000	0.025	-0.123
-213.523	-200.000	0.004	-0.039
-212.509	318.354	-0.044	-0.082
-211.494	192.597	-0.175	0.261
-210.479	205.159	-0.124	0.189
-209.465	-17.784	0.144	0.089
-208.450	60.504	0.104	-0.102
-207.436	107.255	0.318	0.372
-206.421	120.570	0.229	-0.280
-205.406	160.819	-0.148	0.204
-204.392	-134.777	-0.261	0.031
-203.377	-152.158	-0.136	-0.010
-202.363	800.000	-0.127	0.349
-201.348	123.259	-0.072	-0.089
-200.333	-200.000	-0.030	0.397
-199.319	9.914	0.112	0.084
-198.304	-200.000	-0.024	0.228
-197.290	160.998	0.071	0.098
-196.275	44.636	-0.263	0.238
-195.260	-9.329	0.108	0.071
-194.246	-47.598	-0.179	-0.085
-193.231	-2.958	-0.185	0.127
-192.217	69.861	-0.221	0.224
-191.202	-200.000	0.000	-0.215
-190.187	-122.168	0.387	-0.062
-189.173	-47.242	-0.057	0.027
-188.158	-9.370	0.387	-0.254
-187.144	-106.398	0.190	0.042
-186.129	-200.000	-0.008	-0.278
-185.114	648.612	0.115	0.289
-184.100	59.270	-0.118	0.114
-183.085	-200.000	0.023	0.303
-182.071	-20.330	0.174	0.105
-181.056	-35.602	-0.116	-0.062
-180.042	-19.754	-0.250	0.152
-179.027	30.476	-0.216	0.181
-178.012	-113.453	0.159	0.031
-176.998	22.312	0.256	-0.205
-175.983	-200.000	0.016	-0.192
-174.969	800.000	0.076	-0.251
-173.954	-200.000	0.028	-0.384
-172.939	455.116	0.049	-0.108
-171.925	-200.000	-0.027	0.197
-170.910	74.264	-0.071	-0.073
-169.896	-123.938	-0.115	0.018
-168.881	-72.770	0.124	-0.045
-167.866	217.461	0.248	0.388
-166.852	-200.000	-0.008	0.149
-165.837	-84.789	0.064	0.020
-164.823	40.952	0.200	-0.177
-163.808	-200.000	0.067	-0.344
-162.793	50.298	-0.145	0.135
-161.779	266.237	0.025	0.043
-160.764	-200.000	0.004	0.199
-159.750	310.671	-0.064	0.118
-158.735	428.285	0.104	0.220
-157.720	-200.000	0.011	-0.064
-156.706	-141.600	-0.173	-0.017
-155.691	-200.000	-0.036	-0.225
-154.677	70.550	-0.149	0.151
-153.662	-168.798	0.179	-0.007
-152.647	800.000	0.072	-0.225
-151.633	-96.066	0.209	0.054
-150.618	213.566	-0.097	0.150
-149.604	20.661	-0.258	-0.205
-148.589	95.759	0.060	0.068
-147.574	-200.000	-0.008	0.173
-146.560	800.000	0.013	0.047
-145.545	-200.000	-0.011	-0.084
-144.531	-65.790	0.044	0.017
-143.516	-111.662	0.289	-0.057
-142.502	-91.760	-0.135	-0.038
-141.487	800.000	0.052	0.189
-140.472	370.963	0.137	0.272
-139.458	-24.689	0.361	0.211
-138.443	-200.000	-0.031	0.184
-137.429	-200.000	0.036	0.193
-136.414	-121.933	-0.244	0.039
-135.399	-128.836	0.259	0.036
-134.385	-33.115	-0.098	-0.053
-133.370	-200.000	0.035	0.435
-132.356	108.351	-0.172	-0.201
-131.341	-200.000	-0.043	0.424
-130.326	11.462	-0.296	-0.223
-129.312	-24.648	0.267	-0.156
-128.297	-109.889	0.199	-0.041
-127.283	-95.842	-0.222	0.058
-126.268	-24.760	0.338	0.197
-125.253	60.266	-0.077	0.075
-124.239	-200.000	0.076	0.487
-123.224	160.493	0.102	0.140
-122.210	388.655	0.102	0.207
-121.195	-2.261	0.070	-0.048
