DTS Sentinel unit serial number:	SN413079Multiplexer serial number:	ORYXHardware model number:	OX4-SRSoftware version number:	ORYX F/W v4.00 Oryx Data Collector v3.7.2.0data status	okinstallation	princeton_trtdifferential loss correction	single-endedforward channel	channel 2reverse channel	N/Adate	2019/09/19time	06:27:35forward acquisition time	60.00reverse acquisition time	0.00gamma	496.2192k internal	0.2350k external	0.2350temperature offset calibration	1.0013default loss term (dB/km)	0.3790temperature slope calibration	1.0000multiplexer offset coefficient	1.0000multiplexer slope coefficient	1.0000fibre end	0.00T internal ref (°C)	19.05T ext. ref 1 (°C)	0.56T ext. ref 2 (°C)	12.85length (m)	temperature (°C)	Stokes	anti-Stokes-747.200	-200.000	-0.005	-0.065
-746.185	221.895	-0.128	0.206
-745.171	-200.000	-0.028	0.221
-744.156	-144.366	-0.466	0.043
-743.142	800.000	-0.053	0.166
-742.127	-200.000	0.010	0.169
-741.112	-6.386	-0.064	0.043
-740.098	800.000	-0.059	0.228
-739.083	-163.930	0.421	-0.020
-738.069	32.383	-0.252	-0.217
-737.054	-200.000	0.039	-0.341
-736.039	-50.973	-0.085	0.040
-735.025	462.999	-0.014	0.032
-734.010	-200.000	0.052	-0.295
-732.996	-81.414	-0.385	0.126
-731.981	800.000	0.060	-0.225
-730.966	56.769	-0.059	0.058
-729.952	-93.742	-0.207	-0.057
-728.937	120.028	-0.283	0.351
-727.923	-114.351	-0.200	0.038
-726.908	-57.662	0.326	-0.142
-725.894	-9.518	-0.156	0.104
-724.879	-5.431	-0.164	-0.112
-723.864	10.495	-0.214	-0.162
-722.850	18.190	-0.239	-0.190
-721.835	-127.407	-0.497	-0.072
-720.821	-52.570	-0.267	0.123
-719.806	93.041	-0.084	0.095
-718.791	-24.727	-0.104	-0.062
-717.777	-200.000	-0.068	-0.369
-716.762	-113.703	-0.115	0.022
-715.748	800.000	-0.116	0.405
-714.733	-200.000	-0.011	0.151
-713.718	100.641	-0.191	-0.222
-712.704	-82.792	0.133	0.043
-711.689	121.951	-0.104	-0.129
-710.675	-123.622	-0.187	-0.030
-709.660	-200.000	0.009	-0.140
-708.645	84.555	-0.250	-0.273
-707.631	339.515	-0.064	-0.124
-706.616	19.082	-0.034	0.027
-705.602	89.439	-0.181	-0.202
-704.587	-200.000	-0.017	-0.093
-703.572	86.561	0.101	-0.111
-702.558	800.000	0.035	-0.144
-701.543	-67.902	-0.267	-0.104
-700.529	433.361	0.150	-0.324
-699.514	-152.602	-0.102	-0.007
-698.499	-200.000	-0.051	-0.308
-697.485	450.539	-0.077	-0.170
-696.470	15.601	0.142	-0.111
-695.456	-200.000	0.007	-0.082
-694.441	-69.578	-0.166	0.063
-693.426	-148.440	0.121	0.010
-692.412	232.469	-0.061	-0.100
-691.397	-200.000	-0.038	-0.207
-690.383	-88.648	-0.354	-0.105
-689.368	-24.927	-0.077	-0.045
-688.354	-86.738	-0.089	-0.027
-687.339	-83.601	-0.454	0.145
-686.324	12.578	-0.128	-0.098
-685.310	190.591	0.205	-0.307
-684.295	-165.184	-0.185	-0.008
-683.281	800.000	0.095	-0.355
-682.266	-60.731	-0.077	-0.033
-681.251	-54.996	-0.348	-0.156
-680.237	741.158	0.099	-0.266
-679.222	31.291	0.114	-0.097
-678.208	-82.845	-0.188	0.060
-677.193	-84.702	0.177	-0.055
-676.178	734.984	0.030	-0.081
-675.164	99.233	0.161	-0.185
-674.149	-115.299	-0.126	0.024
-673.135	2.506	-0.130	0.093
-672.120	426.104	0.154	0.330
-671.105	-200.000	0.004	-0.173
-670.091	-89.390	-0.206	0.061
-669.076	223.701	-0.118	-0.189
-668.062	-22.601	-0.146	-0.088
-667.047	-94.439	0.145	-0.039
-666.032	-52.227	0.228	-0.105
-665.018	-7.310	-0.194	0.131
-664.003	58.684	-0.186	-0.182
-662.989	800.000	0.057	0.163
-661.974	-36.751	-0.094	-0.050
-660.959	32.939	-0.128	-0.111
-659.945	-72.062	-0.329	0.122
-658.930	120.591	-0.119	-0.148
-657.916	-107.921	-0.335	-0.073
-656.901	-69.615	-0.146	0.056
-655.886	35.314	-0.312	-0.272
-654.872	237.358	-0.022	0.037
-653.857	-66.042	0.213	0.085
-652.843	214.695	-0.224	-0.353
-651.828	800.000	-0.037	0.133
-650.814	800.000	-0.034	0.112
-649.799	-200.000	-0.008	-0.108
-648.784	-84.284	0.327	0.103
-647.770	-183.020	-0.117	0.002
-646.755	58.694	-0.260	-0.254
-645.741	15.237	-0.213	0.166
-644.726	800.000	-0.043	-0.124
-643.711	256.080	0.198	-0.338
-642.697	-200.000	-0.026	0.164
-641.682	-107.994	-0.396	-0.086
-640.668	644.613	0.075	0.190
-639.653	324.111	-0.110	-0.209
-638.638	263.628	-0.057	-0.099
-637.624	800.000	0.017	-0.048
-636.609	194.906	-0.014	0.021
-635.595	-18.681	0.125	-0.078
-634.580	645.514	-0.039	-0.098
-633.565	-124.544	0.165	-0.026
-632.551	800.000	0.115	0.389
-631.536	-82.348	0.194	-0.063
-630.522	24.264	0.440	-0.361
-629.507	-200.000	0.000	0.030
-628.492	-89.922	0.155	-0.045
-627.478	-200.000	0.018	-0.167
-626.463	-142.850	-0.090	0.009
-625.449	-74.317	-0.173	-0.062
-624.434	-200.000	0.019	0.098
-623.419	555.242	0.055	-0.131
-622.405	-27.669	-0.217	-0.125
-621.390	93.530	0.170	-0.192
-620.376	-200.000	0.024	0.118
-619.361	144.726	-0.151	0.200
-618.346	23.069	0.206	-0.168
-617.332	133.377	-0.238	-0.305
-616.317	-200.000	0.085	-0.376
-615.303	443.821	-0.028	0.060
-614.288	800.000	0.078	0.227
-613.273	-109.179	0.210	0.044
-612.259	800.000	0.041	0.158
-611.244	-200.000	0.017	-0.211
-610.230	-78.395	0.319	-0.109
-609.215	-107.044	0.351	0.077
-608.201	-126.346	-0.024	-0.004
-607.186	-200.000	0.008	0.157
-606.171	-96.300	-0.298	-0.078
-605.157	-74.969	0.400	0.142
-604.142	800.000	-0.041	0.128
-603.128	800.000	0.079	-0.326
-602.113	-121.596	0.312	-0.051
-601.098	277.852	0.050	0.088
-600.084	17.482	0.046	-0.037
-599.069	142.550	-0.097	-0.128
-598.055	28.052	-0.340	0.285
-597.040	-14.052	-0.188	0.120
-596.025	34.893	0.281	-0.244
-595.011	-92.376	0.199	-0.055
-593.996	800.000	-0.035	-0.120
-592.982	-109.329	0.407	0.086
-591.967	-173.549	-0.060	-0.002
-590.952	123.911	-0.196	-0.244
-589.938	-200.000	-0.057	-0.308
-588.923	-90.853	-0.023	0.007
-587.909	158.790	0.252	-0.348
-586.894	87.087	-0.209	-0.229
-585.879	-200.000	-0.005	0.063
-584.865	-51.168	-0.235	0.109
-583.850	109.566	0.155	-0.185
-582.836	446.941	-0.040	0.087
-581.821	5.123	-0.166	-0.121
-580.806	34.097	0.173	-0.150
-579.792	51.147	0.272	-0.256
-578.777	-88.310	-0.167	0.050
-577.763	170.903	0.039	-0.056
-576.748	800.000	0.026	0.106
-575.733	178.791	-0.085	-0.123
-574.719	-108.621	-0.617	0.131
-573.704	-118.044	0.211	-0.037
-572.690	46.255	0.098	0.090
-571.675	-55.772	-0.117	-0.052
-570.661	118.114	-0.168	-0.205
-569.646	-43.937	0.526	-0.262
-568.631	-200.000	0.006	-0.359
-567.617	278.764	0.045	0.080
-566.602	-129.177	0.224	-0.031
-565.588	-200.000	0.003	0.222
-564.573	-200.000	0.018	0.152
-563.558	-170.015	-0.264	0.009
-562.544	-200.000	-0.019	0.128
-561.529	-200.000	-0.028	-0.242
-560.515	-72.220	-0.282	0.104
-559.500	-95.640	-0.046	0.012
-558.485	-200.000	-0.015	-0.232
-557.471	800.000	-0.041	0.134
-556.456	-200.000	0.016	-0.116
-555.442	28.824	-0.144	-0.121
-554.427	800.000	0.076	0.231
-553.412	318.492	0.070	-0.132
-552.398	107.639	-0.229	-0.270
-551.383	-200.000	0.019	-0.161
-550.369	-152.471	0.328	-0.023
-549.354	-67.969	-0.299	0.116
-548.339	637.716	-0.119	-0.300
-547.325	265.430	0.035	0.061
-546.310	-126.727	-0.463	-0.068
-545.296	800.000	-0.046	-0.146
-544.281	468.497	-0.139	-0.308
-543.266	800.000	-0.101	0.276
-542.252	-36.813	-0.112	0.059
-541.237	56.884	-0.387	-0.373
-540.223	140.745	0.031	0.040
-539.208	46.713	-0.312	0.287
-538.193	-181.613	0.186	-0.004
-537.179	358.615	0.038	0.076
-536.164	-59.459	0.183	-0.078
-535.150	52.000	-0.153	0.145
-534.135	-47.535	0.119	-0.057
-533.121	-200.000	-0.041	0.347
-532.106	800.000	0.051	-0.179
-531.091	-126.410	-0.187	0.028
-530.077	800.000	0.020	-0.062
-529.062	33.413	-0.150	0.129
-528.048	-162.763	-0.162	0.008
-527.033	-32.264	-0.273	-0.151
-526.018	-137.176	-0.116	-0.013
-525.004	440.823	0.100	0.215
-523.989	-82.818	-0.078	0.025
-522.975	-119.588	-0.094	0.016
-521.960	-200.000	0.005	-0.156
-520.945	665.467	-0.086	0.219
-519.931	4.497	-0.184	0.133
-518.916	218.410	0.169	0.266
-517.902	477.271	0.033	-0.074
-516.887	-200.000	-0.042	0.222
-515.872	512.100	0.145	-0.333
-514.858	-200.000	-0.014	0.062
-513.843	81.585	0.372	0.399
-512.829	800.000	-0.102	-0.432
-511.814	589.380	0.075	-0.182
-510.799	180.643	-0.067	0.098
-509.785	-200.000	-0.014	0.186
-508.770	800.000	-0.028	0.090
-507.756	285.341	0.170	0.303
-506.741	-135.230	0.357	0.042
-505.726	-5.758	0.209	0.142
-504.712	-42.894	-0.150	-0.075
-503.697	-2.891	-0.233	-0.161
-502.683	94.523	-0.096	-0.108
-501.668	49.075	0.306	0.284
-500.653	774.062	-0.021	0.056
-499.639	-200.000	0.009	-0.159
-498.624	205.167	0.079	-0.121
-497.610	-49.311	0.134	0.063
-496.595	192.559	-0.134	0.200
-495.581	-200.000	-0.034	-0.192
-494.566	383.123	0.107	0.218
-493.551	93.899	0.086	0.097
-492.537	787.560	0.043	-0.116
-491.522	-0.679	-0.132	0.092
-490.508	128.316	-0.079	-0.100
-489.493	-129.072	-0.238	-0.033
-488.478	121.642	0.119	-0.146
-487.464	800.000	0.106	0.374
-486.449	705.052	-0.157	0.409
-485.435	-135.104	-0.406	0.048
-484.420	9.712	-0.121	0.091
-483.405	-31.836	-0.144	-0.080
-482.391	-77.688	-0.121	0.041
-481.376	-200.000	0.018	-0.263
-480.362	-43.789	0.183	-0.091
-479.347	800.000	-0.057	-0.235
-478.332	184.879	0.081	0.118
-477.318	-128.097	0.118	0.017
-476.303	-74.678	-0.239	0.085
-475.289	103.107	-0.274	-0.318
-474.274	-37.060	-0.165	-0.087
-473.259	549.417	0.072	-0.170
-472.245	32.160	-0.196	0.167
-471.230	335.502	0.072	-0.138
-470.216	28.240	0.335	0.280
-469.201	800.000	0.088	-0.321
-468.186	-10.726	-0.241	-0.158
-467.172	-45.293	0.027	-0.013
-466.157	-34.862	0.275	0.148
-465.143	-72.964	-0.461	0.167
-464.128	-200.000	0.022	-0.197
-463.113	-200.000	0.029	-0.220
-462.099	-49.988	-0.199	-0.093
-461.084	56.884	-0.099	-0.095
-460.070	-129.292	0.279	-0.038
-459.055	-200.000	-0.103	0.521
-458.040	-54.447	-0.142	-0.063
-457.026	169.344	0.200	0.282
-456.011	112.424	0.062	0.074
-454.997	228.695	0.135	0.217
-453.982	519.647	0.141	-0.326
-452.968	-200.000	0.031	-0.195
-451.953	135.687	-0.145	-0.186
-450.938	-126.308	-0.163	0.024
-449.924	511.758	-0.089	-0.204
-448.909	116.281	-0.209	0.253
-447.895	378.793	0.108	0.217
-446.880	100.849	0.117	0.135
-445.865	-32.235	-0.119	-0.066
-444.851	88.279	0.267	-0.292
-443.836	83.531	0.119	0.128
-442.822	196.523	-0.149	0.224
-441.807	117.900	-0.181	0.220
-440.792	-42.882	-0.195	-0.098
-439.778	795.924	-0.116	0.315
-438.763	244.287	-0.167	0.276
-437.749	106.206	0.132	0.154
-436.734	290.756	0.014	-0.026
-435.719	-200.000	-0.000	-0.234
-434.705	-96.727	0.295	-0.077
-433.690	85.890	0.111	0.121
-432.676	217.233	0.217	-0.340
-431.661	-200.000	0.000	-0.032
-430.646	-200.000	-0.039	0.218
-429.632	187.924	-0.173	0.255
-428.617	-76.752	-0.299	-0.103
-427.603	-45.111	-0.333	-0.163
-426.588	464.476	-0.186	-0.409
-425.573	295.560	0.067	-0.122
-424.559	-113.134	0.146	-0.028
-423.544	800.000	-0.077	-0.214
-422.530	-98.751	0.118	0.030
-421.515	502.351	-0.127	0.289
-420.500	229.208	-0.056	0.090
-419.486	181.120	0.075	-0.108
-418.471	-120.697	-0.204	-0.034
-417.457	800.000	-0.117	0.326
-416.442	-33.649	0.126	-0.068
-415.428	304.740	-0.121	0.221
-414.413	800.000	-0.017	0.072
-413.398	309.642	-0.051	0.093
-412.384	144.338	-0.137	0.180
-411.369	800.000	-0.041	-0.128
-410.355	226.174	-0.214	0.341
-409.340	-200.000	0.001	-0.224
-408.325	-200.000	-0.024	-0.167
-407.311	-42.281	-0.198	-0.100
-406.296	-176.833	-0.148	-0.004
-405.282	33.713	0.233	0.200
-404.267	99.865	0.143	-0.163
-403.252	-117.320	0.323	-0.058
-402.238	-138.764	-0.079	-0.008
-401.223	-200.000	0.045	0.279
-400.209	-173.889	-0.525	0.015
-399.194	-95.386	-0.315	-0.083
-398.179	800.000	0.033	-0.123
-397.165	369.432	0.084	0.167
-396.150	579.139	0.099	0.238
-395.136	118.295	0.138	0.168
-394.121	-25.275	0.245	-0.143
-393.106	-62.355	-0.166	-0.068
-392.092	465.886	0.074	-0.163
-391.077	-22.288	-0.313	-0.187
-390.063	196.293	0.224	0.336
-389.048	-200.000	-0.029	0.130
-388.033	-200.000	0.061	-0.286
-387.019	-200.000	-0.009	0.043
-386.004	-18.463	-0.206	-0.127
-384.990	54.908	0.015	-0.015
-383.975	-57.923	0.239	-0.103
-382.960	-105.838	0.212	0.047
-381.946	539.816	-0.090	-0.211
-380.931	800.000	0.157	-0.448
-379.917	-118.264	0.349	0.061
-378.902	-184.513	-0.259	0.004
-377.888	102.873	0.128	0.147
-376.873	800.000	0.040	0.147
-375.858	-183.340	0.207	0.004
-374.844	14.114	0.230	-0.177
-373.829	-58.749	-0.278	0.118
-372.815	60.255	-0.014	-0.014
-371.800	-33.508	-0.412	0.224
-370.785	-121.855	0.362	0.059
-369.771	-200.000	0.048	0.272
-368.756	-41.594	-0.106	0.054
-367.742	-86.753	0.316	0.095
-366.727	-149.790	-0.086	0.007
-365.712	-200.000	-0.039	-0.222
-364.698	-117.779	-0.191	-0.034
-363.683	529.464	-0.120	0.278
-362.669	-42.643	-0.133	0.067
-361.654	-93.880	0.523	0.142
-360.639	-70.028	-0.208	0.078
-359.625	77.400	-0.172	-0.180
-358.610	-200.000	-0.031	0.257
-357.596	-157.240	-0.555	-0.033
-356.581	50.560	0.373	0.347
-355.566	72.843	-0.048	-0.049
-354.552	480.444	-0.091	0.202
-353.537	66.481	-0.320	-0.320
-352.523	-89.515	0.230	-0.066
-351.508	-200.000	0.054	0.406
-350.493	46.724	-0.215	0.196
-349.479	-200.000	0.018	-0.083
-348.464	800.000	0.121	0.331
-347.450	-3.401	-0.174	0.119
-346.435	467.133	-0.084	-0.184
-345.420	-114.685	0.217	0.041
-344.406	21.500	-0.099	-0.080
-343.391	210.481	0.039	0.061
-342.377	-1.470	0.082	0.057
-341.362	-22.728	-0.237	0.140
-340.348	317.300	0.089	0.166
-339.333	-200.000	0.002	0.239
-338.318	-83.663	0.317	-0.099
-337.304	122.228	0.060	-0.074
-336.289	800.000	0.157	-0.610
-335.275	-86.101	-0.178	-0.054
-334.260	-55.015	0.213	-0.094
-333.245	-81.160	0.157	-0.051
-332.231	-50.198	0.218	0.101
-331.216	-200.000	0.043	0.372
-330.202	-200.000	-0.019	0.177
-329.187	-108.740	-0.267	-0.056
-328.172	73.648	0.157	0.161
-327.158	81.910	0.171	-0.182
-326.143	-200.000	-0.031	-0.265
-325.129	10.154	0.109	0.081
-324.114	267.208	0.100	0.172
-323.099	-200.000	0.004	0.247
-322.085	-200.000	-0.013	-0.104
-321.070	252.520	0.060	0.100
-320.056	-200.000	-0.011	0.070
-319.041	7.260	-0.131	-0.096
-318.026	800.000	0.091	-0.283
-317.012	-24.805	-0.165	0.096
-315.997	403.672	0.110	0.228
-314.983	-48.212	0.143	0.068
-313.968	193.163	-0.181	-0.268
-312.953	16.716	-0.066	-0.051
-311.939	430.030	-0.148	0.315
-310.924	613.355	0.014	0.035
-309.910	-200.000	-0.027	-0.287
-308.895	30.759	-0.166	-0.140
-307.880	91.096	0.079	-0.087
-306.866	-133.700	0.300	0.037
-305.851	-123.763	-0.130	0.020
-304.837	404.267	0.055	-0.114
-303.822	-70.020	-0.083	0.031
-302.807	800.000	0.049	0.179
-301.793	589.682	0.060	0.145
-300.778	-200.000	0.081	-0.459
-299.764	217.195	-0.173	-0.270
-298.749	-166.476	-0.202	-0.008
-297.735	1.638	-0.274	-0.193
-296.720	32.679	-0.340	0.288
-295.705	-150.319	0.202	0.015
-294.691	-171.420	0.131	0.004
-293.676	-78.394	-0.245	-0.082
-292.662	800.000	0.026	0.080
-291.647	-11.665	0.385	0.248
-290.632	800.000	-0.066	-0.187
-289.618	-200.000	0.026	0.222
-288.603	-200.000	0.023	0.237
-287.589	89.137	-0.185	0.202
-286.574	-106.152	-0.257	0.057
-285.559	-51.585	-0.131	0.060
-284.545	-200.000	0.009	0.098
-283.530	182.364	0.084	0.122
-282.516	-56.628	0.292	-0.127
-281.501	-200.000	0.023	-0.124
-280.486	101.556	-0.155	0.177
-279.472	-200.000	0.012	0.115
-278.457	460.211	-0.199	-0.435
-277.443	-26.437	0.046	0.027
-276.428	40.931	0.129	-0.114
-275.413	173.848	0.046	-0.065
-274.399	-78.319	0.071	0.024
-273.384	-200.000	0.039	0.209
-272.370	800.000	-0.118	-0.368
-271.355	-200.000	-0.020	0.197
-270.340	104.720	-0.127	0.147
-269.326	322.260	0.128	0.239
-268.311	63.634	-0.132	0.130
-267.297	-93.276	-0.271	-0.074
-266.282	-24.670	0.213	-0.124
-265.267	-200.000	0.032	-0.163
-264.253	262.912	0.043	0.073
-263.238	-94.775	-0.119	-0.032
-262.224	5.962	0.148	0.107
-261.209	245.927	0.227	-0.375
-260.195	146.925	0.143	0.188
-259.180	-14.725	0.049	0.031
-258.165	-200.000	0.061	-0.286
-257.151	800.000	0.120	-0.375
-256.136	-101.048	0.153	0.037
-255.122	800.000	0.066	-0.272
-254.107	-200.000	0.035	0.298
-253.092	639.886	0.024	0.059
-252.078	-173.616	-0.232	0.007
-251.063	-55.381	0.126	0.055
-250.049	-124.851	0.096	-0.015
-249.034	90.668	-0.168	-0.184
-248.019	-17.896	0.254	0.156
-247.005	546.763	0.086	-0.203
-245.990	21.111	-0.083	0.066
-244.976	-200.000	0.011	-0.131
-243.961	-66.059	-0.084	-0.033
-242.946	-28.826	-0.275	0.155
-241.932	-54.039	0.391	0.174
-240.917	-200.000	-0.004	-0.497
-239.903	235.968	0.107	0.174
-238.888	532.647	-0.084	0.195
-237.873	-151.441	-0.143	0.010
-236.859	-12.603	-0.179	-0.114
-235.844	173.539	0.223	0.315
-234.830	-82.214	0.211	-0.067
-233.815	-32.127	-0.121	-0.066
-232.800	613.400	0.049	-0.120
-231.786	144.461	-0.110	0.144
-230.771	655.397	0.077	-0.193
-229.757	-200.000	0.024	0.109
-228.742	364.715	-0.045	-0.088
-227.727	-200.000	0.022	0.189
-226.713	-158.896	0.195	-0.011
-225.698	-200.000	0.009	-0.245
-224.684	-11.887	-0.165	0.106
-223.669	-119.015	0.196	0.034
-222.655	-200.000	0.060	0.325
-221.640	195.347	0.116	-0.172
-220.625	-76.958	-0.298	0.102
-219.611	800.000	0.048	0.148
-218.596	-177.905	0.031	0.001
-217.582	260.056	-0.102	0.172
-216.567	700.902	0.096	-0.248
-215.552	-70.789	0.180	-0.066
-214.538	-118.569	-0.079	-0.014
-213.523	-28.166	-0.148	0.084
-212.509	-86.554	0.095	0.029
-211.494	-76.844	-0.124	-0.042
-210.479	-200.000	0.026	-0.320
-209.465	800.000	0.049	-0.188
-208.450	-11.573	0.256	0.165
-207.436	67.118	-0.056	-0.055
-206.421	106.638	0.089	-0.103
-205.406	-137.319	0.199	0.022
-204.392	10.795	-0.100	-0.075
-203.377	-77.169	0.058	-0.020
-202.363	-122.495	-0.483	-0.077
-201.348	800.000	-0.018	0.061
-200.333	800.000	0.100	0.375
-199.319	-100.220	0.359	0.087
-198.304	371.283	0.116	0.229
-197.290	-164.981	0.371	0.016
-196.275	-73.596	-0.294	-0.105
-195.260	-200.000	-0.048	-0.292
-194.246	184.128	0.100	0.144
-193.231	-170.887	0.239	0.008
-192.217	-30.936	-0.029	-0.016
-191.202	-56.458	0.247	-0.107
-190.187	176.777	-0.120	-0.170
-189.173	191.216	0.114	0.168
-188.158	144.663	-0.248	-0.324
-187.144	-126.874	0.163	0.023
-186.129	17.632	0.163	-0.127
-185.114	-8.334	-0.102	0.067
-184.100	-23.578	0.474	-0.278
-183.085	165.110	-0.263	0.363
-182.071	-200.000	-0.042	0.221
-181.056	800.000	-0.105	0.300
-180.042	-7.220	0.139	0.092
-179.027	-8.641	-0.198	0.130
-178.012	151.123	0.078	-0.104
-176.998	800.000	-0.064	0.263
-175.983	-157.208	-0.142	0.008
-174.969	9.557	-0.170	0.126
-173.954	-122.549	0.244	0.039
-172.939	-30.773	0.348	-0.192
-171.925	76.279	-0.233	0.241
-170.910	35.446	0.249	-0.213
-169.896	30.774	-0.073	-0.061
-168.881	480.200	-0.060	-0.133
-167.866	800.000	-0.110	0.389
-166.852	-76.165	-0.159	0.055
-165.837	800.000	0.095	0.308
-164.823	49.106	-0.131	-0.120
-163.808	-200.000	-0.056	-0.265
-162.793	-200.000	-0.013	-0.095
-161.779	-35.550	-0.323	0.171
-160.764	-65.883	0.426	0.166
-159.750	35.500	0.117	0.100
-158.735	120.883	0.203	0.246
-157.720	85.286	0.216	-0.231
-156.706	19.732	-0.277	-0.218
-155.691	-139.040	0.368	-0.039
-154.677	-200.000	0.029	0.262
-153.662	-41.415	0.165	-0.083
-152.647	-18.748	-0.088	-0.053
-151.633	147.998	0.104	0.137
-150.618	-166.070	-0.161	0.007
-149.604	-200.000	-0.047	0.286
-148.589	-200.000	0.002	-0.168
-147.574	178.611	0.216	0.307
-146.560	-46.363	-0.325	-0.156
-145.545	-164.985	0.313	0.014
-144.531	-137.089	-0.149	0.017
-143.516	-62.787	-0.284	-0.115
-142.502	39.248	0.080	-0.070
-141.487	286.515	-0.110	0.193
-140.472	-169.311	-0.161	0.006
-139.458	-187.146	-0.079	-0.001
-138.443	21.102	0.172	0.136
-137.429	188.314	-0.342	0.498
-136.414	-82.130	0.089	0.028
-135.399	82.406	-0.090	0.095
-134.385	800.000	0.016	0.050
-133.370	-19.545	0.179	0.108
-132.356	706.181	-0.154	-0.395
-131.341	-16.530	0.094	-0.058
-130.326	77.883	0.131	0.136
-129.312	-67.255	0.083	-0.032
-128.297	-200.000	0.022	-0.121
-127.283	-138.088	-0.219	-0.024
-126.268	800.000	-0.028	0.091
-125.253	198.163	0.136	-0.202
-124.239	-11.685	-0.129	0.083
-123.224	-34.108	-0.284	0.152
-122.210	-57.864	0.220	-0.094
