DTS Sentinel unit serial number:	SN413079Multiplexer serial number:	ORYXHardware model number:	OX4-SRSoftware version number:	ORYX F/W v4.00 Oryx Data Collector v3.7.2.0data status	okinstallation	princeton_trtdifferential loss correction	single-endedforward channel	channel 2reverse channel	N/Adate	2019/09/19time	01:55:35forward acquisition time	60.00reverse acquisition time	0.00gamma	496.2192k internal	0.2353k external	0.2353temperature offset calibration	1.0016default loss term (dB/km)	0.3790temperature slope calibration	1.0000multiplexer offset coefficient	1.0000multiplexer slope coefficient	1.0000fibre end	0.00T internal ref (°C)	21.31T ext. ref 1 (°C)	0.68T ext. ref 2 (°C)	14.81length (m)	temperature (°C)	Stokes	anti-Stokes-747.200	-173.334	0.066	0.002
-746.185	433.078	-0.206	0.446
-745.171	176.577	0.118	-0.171
-744.156	390.094	-0.191	-0.395
-743.142	74.740	-0.092	0.096
-742.127	-200.000	-0.054	0.331
-741.112	800.000	-0.044	0.137
-740.098	-128.338	-0.423	0.060
-739.083	-200.000	-0.051	0.444
-738.069	172.969	-0.185	0.266
-737.054	110.091	0.093	0.112
-736.039	-21.254	-0.145	-0.088
-735.025	-30.035	0.150	-0.085
-734.010	161.450	-0.090	0.126
-732.996	160.836	0.156	-0.217
-731.981	-66.289	0.128	-0.051
-730.966	-200.000	0.104	0.472
-729.952	0.036	-0.183	0.130
-728.937	-200.000	0.045	0.203
-727.923	221.328	0.108	-0.173
-726.908	-26.347	0.026	-0.015
-725.894	-200.000	-0.023	-0.124
-724.879	76.345	0.074	0.078
-723.864	377.775	0.080	-0.164
-722.850	5.501	-0.157	-0.115
-721.835	238.563	-0.134	-0.221
-720.821	396.749	0.075	-0.156
-719.806	-91.331	-0.059	0.017
-718.791	-124.390	0.190	-0.029
-717.777	88.529	0.062	0.069
-716.762	257.788	-0.291	0.499
-715.748	-63.884	0.439	0.179
-714.733	800.000	-0.092	0.276
-713.718	106.082	0.025	-0.029
-712.704	18.131	0.075	0.060
-711.689	-200.000	-0.036	0.243
-710.675	126.512	0.062	-0.079
-709.660	71.601	-0.126	0.130
-708.645	-200.000	-0.056	-0.323
-707.631	568.120	0.039	0.095
-706.616	-200.000	-0.013	0.114
-705.602	298.539	0.060	0.110
-704.587	-88.265	0.340	-0.101
-703.572	-200.000	-0.053	0.288
-702.558	-165.516	0.327	0.014
-701.543	-200.000	-0.023	-0.151
-700.529	58.417	-0.174	-0.169
-699.514	16.393	-0.168	0.132
-698.499	-63.351	0.099	0.041
-697.485	-200.000	0.023	-0.220
-696.470	-59.615	-0.075	-0.032
-695.456	-8.608	0.346	-0.231
-694.441	-43.554	0.250	0.126
-693.426	486.367	-0.102	0.231
-692.412	202.206	0.197	-0.302
-691.397	-155.340	-0.126	0.008
-690.383	149.771	0.050	0.067
-689.368	-200.000	-0.027	-0.169
-688.354	-52.113	0.052	-0.024
-687.339	-110.800	-0.156	-0.032
-686.324	-127.666	-0.302	0.043
-685.310	800.000	0.046	0.178
-684.295	12.902	-0.224	-0.172
-683.281	-44.800	-0.226	0.112
-682.266	-150.424	0.252	0.019
-681.251	395.557	0.091	-0.189
-680.237	-21.889	0.096	0.058
-679.222	107.638	-0.143	0.169
-678.208	177.995	-0.086	0.124
-677.193	264.136	-0.190	0.329
-676.178	-74.256	-0.345	-0.124
-675.164	85.732	-0.142	-0.156
-674.149	-200.000	-0.007	-0.169
-673.135	-129.492	-0.176	0.024
-672.120	-200.000	0.007	0.080
-671.105	-158.137	-0.197	-0.011
-670.091	226.609	0.163	-0.264
-669.076	71.666	-0.028	-0.029
-668.062	800.000	-0.082	0.309
-667.047	74.780	-0.142	-0.149
-666.032	-78.608	0.197	0.067
-665.018	-105.255	-0.194	0.044
-664.003	-87.455	-0.268	0.081
-662.989	-70.848	0.314	0.118
-661.974	-15.602	0.029	-0.019
-660.959	62.096	0.264	-0.262
-659.945	-36.594	-0.056	0.030
-658.930	800.000	-0.064	0.225
-657.916	-86.163	-0.148	-0.045
-656.901	91.824	0.263	-0.294
-655.886	39.876	-0.259	-0.231
-654.872	800.000	-0.061	-0.184
-653.857	-200.000	0.006	-0.182
-652.843	178.301	-0.145	0.210
-651.828	144.749	0.280	0.372
-650.814	305.705	0.091	0.167
-649.799	-200.000	0.008	0.224
-648.784	800.000	-0.016	0.054
-647.770	-132.984	0.133	-0.017
-646.755	-99.121	-0.072	-0.018
-645.741	-200.000	0.052	0.313
-644.726	-115.815	-0.269	0.050
-643.711	-65.540	-0.128	-0.051
-642.697	-50.982	0.354	0.165
-641.682	190.269	0.157	-0.234
-640.668	62.542	0.175	0.174
-639.653	264.128	-0.213	-0.368
-638.638	161.032	-0.250	-0.346
-637.624	800.000	-0.046	-0.192
-636.609	103.730	0.159	0.185
-635.595	87.114	-0.115	0.126
-634.580	356.144	-0.093	-0.184
-633.565	-200.000	-0.042	-0.220
-632.551	-200.000	-0.055	0.334
-631.536	-2.892	-0.061	-0.043
-630.522	-200.000	0.040	0.330
-629.507	256.864	-0.088	-0.151
-628.492	330.587	0.093	0.178
-627.478	-200.000	-0.021	-0.182
-626.463	200.100	0.163	0.248
-625.449	45.298	-0.124	0.113
-624.434	-200.000	0.010	-0.047
-623.419	367.495	0.223	-0.446
-622.405	-102.926	-0.287	0.068
-621.390	-200.000	0.065	0.354
-620.376	-200.000	0.022	-0.203
-619.361	-17.526	0.335	-0.209
-618.346	800.000	0.096	-0.303
-617.332	-20.148	-0.081	0.050
-616.317	-200.000	-0.023	-0.136
-615.303	203.536	0.228	-0.349
-614.288	151.197	-0.261	0.352
-613.273	214.318	0.165	0.259
-612.259	-56.859	-0.342	0.150
-611.244	92.524	0.142	0.159
-610.230	-9.384	-0.180	-0.120
-609.215	-200.000	0.004	0.333
-608.201	800.000	0.087	-0.245
-607.186	-83.169	-0.246	-0.078
-606.171	-76.447	-0.073	-0.025
-605.157	-43.929	-0.065	-0.032
-604.142	-95.132	-0.247	0.066
-603.128	800.000	0.012	0.049
-602.113	-7.917	0.175	-0.117
-601.098	-105.962	-0.256	0.057
-600.084	800.000	-0.008	0.033
-599.069	15.075	-0.048	-0.037
-598.055	49.854	-0.179	0.167
-597.040	-36.963	-0.291	0.155
-596.025	761.803	0.100	-0.270
-595.011	3.091	-0.159	-0.115
-593.996	108.215	0.061	0.072
-592.982	-200.000	0.025	-0.428
-591.967	-9.666	0.298	0.197
-590.952	88.934	0.173	-0.190
-589.938	104.410	-0.064	0.075
-588.923	-141.403	0.455	0.046
-587.909	-200.000	-0.021	0.260
-586.894	-45.355	0.167	-0.082
-585.879	-85.922	0.118	-0.036
-584.865	-17.776	0.278	-0.173
-583.850	-116.157	0.330	-0.061
-582.836	-40.649	0.022	-0.011
-581.821	170.500	-0.107	-0.151
-580.806	-75.873	0.089	-0.031
-579.792	341.938	-0.070	-0.135
-578.777	426.437	0.170	0.363
-577.763	800.000	0.085	0.253
-576.748	-42.869	-0.238	-0.120
-575.733	43.356	0.200	-0.181
-574.719	-28.355	-0.105	-0.060
-573.704	-69.694	-0.235	-0.089
-572.690	-57.383	0.177	-0.077
-571.675	800.000	-0.059	0.163
-570.661	-76.027	-0.102	-0.036
-569.646	535.987	-0.017	-0.040
-568.631	274.951	0.099	-0.174
-567.617	345.330	-0.015	0.030
-566.602	-150.353	-0.141	0.011
-565.588	56.916	-0.187	-0.181
-564.573	-200.000	0.005	-0.029
-563.558	113.505	0.380	-0.457
-562.544	-130.852	-0.165	0.022
-561.529	549.752	-0.092	-0.218
-560.515	130.859	-0.076	0.096
-559.500	-117.804	-0.189	-0.034
-558.485	-104.745	-0.327	0.074
-557.471	800.000	-0.053	0.198
-556.456	-61.822	0.327	-0.135
-555.442	-40.393	0.343	-0.176
-554.427	-52.067	0.029	-0.013
-553.412	800.000	0.074	-0.273
-552.398	800.000	-0.032	0.123
-551.383	-100.617	0.260	-0.063
-550.369	-153.883	0.302	0.020
-549.354	-36.937	0.128	0.068
-548.339	13.234	0.137	0.105
-547.325	303.789	0.106	0.194
-546.310	-94.308	-0.310	0.084
-545.296	4.671	0.038	-0.028
-544.281	126.169	-0.145	0.181
-543.266	-200.000	0.003	0.197
-542.252	-79.884	0.088	-0.029
-541.237	-16.754	-0.399	0.250
-540.223	800.000	-0.101	-0.298
-539.208	-57.421	0.448	-0.194
-538.193	-163.612	-0.084	0.004
-537.179	125.049	0.112	-0.139
-536.164	228.286	-0.052	0.084
-535.150	800.000	-0.040	0.113
-534.135	382.872	0.065	-0.133
-533.121	-200.000	-0.006	0.166
-532.106	209.914	-0.199	-0.309
-531.091	-33.808	0.118	0.065
-530.077	1.491	0.257	0.183
-529.062	106.979	0.040	0.047
-528.048	-39.953	0.296	-0.153
-527.033	81.693	0.172	-0.184
-526.018	-200.000	-0.017	0.352
-525.004	151.473	-0.110	-0.147
-523.989	-141.385	-0.140	0.014
-522.975	-200.000	-0.011	0.049
-521.960	-22.261	0.118	-0.071
-520.945	800.000	0.092	0.385
-519.931	-131.416	-0.034	0.004
-518.916	-200.000	-0.013	-0.244
-517.902	-200.000	-0.004	-0.322
-516.887	-31.811	0.072	-0.040
-515.872	-200.000	0.004	0.077
-514.858	4.374	-0.096	0.070
-513.843	346.707	0.038	0.073
-512.829	-60.492	0.188	0.079
-511.814	293.264	-0.049	-0.088
-510.799	80.153	-0.045	0.048
-509.785	-134.102	-0.111	0.014
-508.770	273.861	-0.132	0.231
-507.756	-182.525	0.160	0.003
-506.741	-111.816	-0.287	0.057
-505.726	50.006	0.173	0.161
-504.712	719.166	-0.131	-0.343
-503.697	258.435	0.164	0.279
-502.683	-86.119	0.211	-0.064
-501.668	-45.608	-0.126	0.061
-500.653	277.529	-0.066	0.117
-499.639	800.000	-0.092	-0.313
-498.624	12.524	-0.204	-0.155
-497.610	120.901	-0.155	-0.191
-496.595	2.870	0.108	0.077
-495.581	363.980	0.144	0.285
-494.566	-33.383	0.255	0.140
-493.551	-73.031	0.185	-0.067
-492.537	800.000	-0.107	0.411
-491.522	-28.900	0.075	-0.043
-490.508	49.110	-0.177	-0.164
-489.493	180.320	0.194	0.282
-488.478	-89.658	-0.370	-0.107
-487.464	800.000	0.118	0.331
-486.449	-61.397	0.222	0.092
-485.435	-44.029	0.138	0.069
-484.420	-101.414	-0.277	-0.067
-483.405	-123.402	-0.300	-0.047
-482.391	142.882	0.209	-0.275
-481.376	-200.000	-0.017	-0.125
-480.362	443.501	-0.057	-0.123
-479.347	-200.000	0.027	-0.454
-478.332	-104.310	-0.313	0.072
-477.318	181.277	-0.095	0.138
-476.303	-86.085	-0.422	0.129
-475.289	523.241	-0.183	0.423
-474.274	424.495	-0.150	0.317
-473.259	99.318	-0.185	0.211
-472.245	800.000	0.050	-0.200
-471.230	-91.580	-0.290	-0.082
-470.216	-183.565	-0.421	-0.007
-469.201	-91.310	0.313	-0.088
-468.186	-147.453	0.511	0.043
-467.172	-132.489	0.183	-0.023
-466.157	106.828	0.062	0.073
-465.143	-62.019	0.099	0.041
-464.128	-23.865	0.281	0.166
-463.113	134.205	-0.300	-0.383
-462.099	-200.000	0.000	-0.072
-461.084	-200.000	0.019	0.162
-460.070	-151.297	-0.324	0.024
-459.055	800.000	0.043	-0.181
-458.040	-113.869	0.400	0.077
-457.026	171.197	-0.197	-0.279
-456.011	-200.000	-0.017	-0.234
-454.997	800.000	0.065	-0.229
-453.982	-200.000	-0.007	0.076
-452.968	800.000	0.053	-0.151
-451.953	800.000	-0.087	-0.255
-450.938	57.939	0.153	-0.148
-449.924	-200.000	-0.018	-0.161
-448.909	293.975	-0.066	-0.119
-447.895	750.705	-0.046	0.123
-446.880	343.950	-0.109	0.210
-445.865	800.000	-0.090	0.342
-444.851	218.368	0.216	0.339
-443.836	-166.029	0.258	-0.011
-442.822	-151.500	0.271	-0.020
-441.807	-200.000	-0.032	-0.176
-440.792	138.504	-0.164	-0.212
-439.778	-71.314	0.443	-0.164
-438.763	-137.998	-0.241	0.027
-437.749	16.834	-0.123	0.096
-436.734	-75.166	-0.417	0.147
-435.719	211.408	0.198	0.307
-434.705	-67.603	-0.242	-0.093
-433.690	352.107	0.077	-0.151
-432.676	-52.543	0.130	0.059
-431.661	-119.035	-0.448	0.077
-430.646	-53.054	-0.219	-0.099
-429.632	69.595	-0.189	-0.192
-428.617	-5.957	0.142	0.096
-427.603	153.717	0.158	-0.213
-426.588	375.167	-0.048	-0.097
-425.573	619.097	-0.100	0.247
-424.559	-49.903	-0.359	-0.168
-423.544	-200.000	0.004	-0.375
-422.530	350.615	-0.100	-0.195
-421.515	440.277	0.145	0.313
-420.500	-40.484	0.419	-0.214
-419.486	654.520	-0.016	0.041
-418.471	-74.198	0.160	-0.057
-417.457	-132.738	0.358	0.045
-416.442	688.882	0.113	0.291
-415.428	-158.851	-0.412	0.023
-414.413	106.057	-0.234	-0.273
-413.398	-65.864	-0.333	0.131
-412.384	-22.265	-0.071	-0.042
-411.369	44.706	-0.151	-0.137
-410.355	-68.445	0.136	-0.052
-409.340	-200.000	0.096	0.421
-408.325	36.508	-0.271	0.235
-407.311	168.099	0.051	-0.071
-406.296	83.796	0.104	0.112
-405.282	373.678	0.071	-0.142
-404.267	59.429	0.104	0.101
-403.252	383.131	-0.085	-0.171
-402.238	38.081	0.118	-0.103
-401.223	701.068	0.078	-0.202
-400.209	-200.000	-0.014	0.101
-399.194	-68.536	0.117	-0.045
-398.179	-192.023	-0.149	0.001
-397.165	128.134	0.132	0.165
-396.150	92.890	0.079	-0.087
-395.136	162.369	0.259	-0.357
-394.121	800.000	0.088	-0.302
-393.106	-51.713	0.121	-0.055
-392.092	-28.715	0.395	0.223
-391.077	-23.146	0.155	-0.092
-390.063	-53.352	-0.271	0.122
-389.048	124.782	0.297	-0.368
-388.033	707.952	-0.031	-0.081
-387.019	-117.858	-0.173	-0.030
-386.004	-200.000	0.008	0.066
-384.990	-15.716	0.273	0.171
-383.975	-200.000	-0.002	0.091
-382.960	-81.184	-0.231	0.075
-381.946	-200.000	0.008	0.165
-380.931	-105.940	0.074	0.016
-379.917	17.454	0.028	-0.022
-378.902	-124.216	0.282	0.043
-377.888	173.998	0.236	-0.334
-376.873	-44.237	-0.297	0.146
-375.858	-96.563	-0.048	0.013
-374.844	-115.288	-0.263	0.049
-373.829	800.000	-0.122	0.445
-372.815	570.860	0.075	0.180
-371.800	151.187	0.195	0.261
-370.785	-185.666	-0.332	-0.005
-369.771	400.589	0.048	0.099
-368.756	62.138	-0.132	0.130
-367.742	37.940	0.301	0.263
-366.727	384.709	-0.046	-0.092
-365.712	-200.000	-0.035	0.270
-364.698	800.000	0.022	-0.083
-363.683	-70.329	0.215	0.080
-362.669	107.321	-0.082	-0.095
-361.654	800.000	-0.035	-0.118
-360.639	-113.616	-0.245	-0.047
-359.625	10.117	-0.068	-0.051
-358.610	-111.485	0.125	-0.025
-357.596	-200.000	0.024	0.172
-356.581	5.366	0.188	0.136
-355.566	134.286	0.131	0.167
-354.552	-156.775	0.056	0.003
-353.537	105.821	0.075	0.087
-352.523	-39.038	-0.184	0.095
-351.508	-200.000	0.000	0.130
-350.493	79.272	0.056	0.059
-349.479	197.094	-0.068	-0.102
-348.464	800.000	0.154	-0.444
-347.450	-44.080	-0.221	0.109
-346.435	178.476	-0.062	0.089
-345.420	6.763	0.093	-0.068
-344.406	800.000	-0.068	0.227
-343.391	-175.812	-0.138	-0.004
-342.377	68.877	0.222	0.224
-341.362	-200.000	0.055	0.275
-340.348	136.240	-0.080	-0.102
-339.333	800.000	-0.063	0.253
-338.318	348.703	0.174	-0.337
-337.304	40.824	0.158	0.140
-336.289	-43.973	-0.371	0.183
-335.275	-200.000	-0.009	-0.146
-334.260	-39.411	-0.115	-0.059
-333.245	800.000	-0.071	0.222
-332.231	-120.995	-0.319	-0.053
-331.216	-155.103	0.262	0.017
-330.202	800.000	-0.079	-0.242
-329.187	-121.625	0.088	0.014
-328.172	85.467	-0.214	-0.231
-327.158	42.354	-0.221	-0.197
-326.143	283.125	0.111	-0.195
-325.129	86.091	0.187	-0.202
-324.114	586.199	-0.058	0.141
-323.099	-42.353	0.311	-0.156
-322.085	-69.914	0.416	-0.156
-321.070	-200.000	0.001	0.103
-320.056	-168.599	-0.342	0.013
-319.041	364.767	0.091	-0.180
-318.026	-155.056	-0.134	-0.009
-317.012	-52.147	-0.247	-0.112
-315.997	800.000	0.078	0.229
-314.983	-10.455	-0.136	-0.088
-313.968	-43.828	-0.097	-0.048
-312.953	-200.000	-0.029	-0.224
-311.939	391.380	0.045	-0.092
-310.924	154.598	0.188	-0.253
-309.910	-65.715	-0.388	-0.152
-308.895	160.239	-0.208	0.285
-307.880	-182.551	0.059	-0.001
-306.866	-128.833	-0.235	-0.032
-305.851	-200.000	0.011	0.066
-304.837	-200.000	-0.033	0.165
-303.822	800.000	-0.082	0.249
-302.807	476.172	0.074	0.164
-301.793	-76.572	0.193	0.066
-300.778	800.000	-0.065	0.228
-299.764	13.893	0.157	0.120
-298.749	-37.678	-0.214	0.112
-297.735	107.798	0.227	-0.265
-296.720	-8.390	0.090	-0.059
-295.705	-200.000	0.028	0.147
-294.691	29.435	0.192	-0.160
-293.676	-155.332	0.478	0.030
-292.662	54.623	-0.098	-0.092
-291.647	166.271	-0.181	0.251
-290.632	800.000	-0.081	0.312
-289.618	-200.000	-0.015	0.193
-288.603	22.690	0.146	0.117
-287.589	116.929	0.245	0.294
-286.574	-112.653	-0.202	-0.039
-285.559	-200.000	0.023	0.185
-284.545	-62.682	-0.266	-0.108
-283.530	114.214	-0.051	-0.060
-282.516	96.345	-0.042	-0.048
-281.501	-200.000	0.020	-0.322
-280.486	-145.955	0.093	0.008
-279.472	117.444	-0.236	0.284
-278.457	-200.000	0.012	-0.107
-277.443	-200.000	-0.058	0.290
-276.428	-200.000	0.019	-0.228
-275.413	800.000	-0.060	0.210
-274.399	-200.000	0.004	0.108
-273.384	-164.427	0.093	-0.004
-272.370	49.548	0.237	0.218
-271.355	146.676	-0.237	0.312
-270.340	55.891	0.144	-0.137
-269.326	-23.457	0.222	-0.130
-268.311	415.790	0.048	-0.099
-267.297	-126.238	-0.211	0.031
-266.282	527.656	0.076	0.176
-265.267	-6.589	0.107	0.071
-264.253	-187.528	-0.210	-0.003
-263.238	-200.000	0.045	0.226
-262.224	-14.843	-0.071	0.044
-261.209	800.000	0.038	-0.142
-260.195	-65.886	-0.239	0.094
-259.180	-71.252	-0.173	-0.063
-258.165	202.009	0.040	0.060
-257.151	-0.028	-0.425	-0.296
-256.136	800.000	0.059	-0.232
-255.122	-128.342	-0.232	0.032
-254.107	-104.578	-0.179	-0.040
-253.092	-145.713	0.265	0.023
-252.078	107.086	0.051	0.059
-251.063	-200.000	-0.027	0.179
-250.049	62.257	-0.041	0.040
-249.034	-66.465	0.438	0.170
-248.019	-108.315	-0.365	-0.077
-247.005	-175.025	0.195	0.005
-245.990	-23.641	0.107	-0.063
-244.976	800.000	-0.091	-0.267
-243.961	-200.000	-0.018	-0.189
-242.946	258.867	-0.014	-0.023
-241.932	-43.485	-0.376	-0.186
-240.917	800.000	0.100	-0.274
-239.903	561.580	0.038	-0.090
-238.888	30.076	-0.185	-0.155
-237.873	800.000	0.091	-0.386
-236.859	-142.023	0.282	-0.027
-235.844	42.083	0.391	0.347
-234.830	79.366	-0.161	0.169
-233.815	-13.808	-0.085	0.054
-232.800	-200.000	-0.029	-0.312
-231.786	-43.549	-0.327	-0.161
-230.771	408.540	-0.118	-0.243
-229.757	-61.964	0.076	-0.031
-228.742	36.486	0.142	0.123
-227.727	-200.000	0.081	0.382
-226.713	-200.000	-0.032	0.336
-225.698	406.409	0.116	0.240
-224.684	-97.331	-0.161	0.041
-223.669	-200.000	-0.024	0.111
-222.655	-120.580	-0.203	-0.034
-221.640	-54.028	-0.502	0.223
-220.625	-200.000	0.038	0.199
-219.611	72.641	0.169	-0.172
-218.596	-80.129	0.069	0.023
-217.582	-178.952	-0.380	0.008
-216.567	-103.137	-0.191	0.044
-215.552	800.000	-0.136	-0.394
-214.538	329.984	0.192	-0.361
-213.523	14.162	0.140	-0.106
-212.509	-79.665	0.186	0.061
-211.494	-79.144	0.197	-0.065
-210.479	74.739	0.025	0.026
-209.465	213.788	-0.065	-0.100
-208.450	102.880	0.233	0.266
-207.436	-132.082	0.057	-0.007
-206.421	-200.000	0.061	0.344
-205.406	-143.833	0.500	-0.046
-204.392	-141.626	0.099	0.010
-203.377	207.504	-0.287	0.438
-202.363	-65.128	0.359	-0.141
-201.348	129.829	0.177	-0.221
-200.333	-200.000	-0.002	-0.139
-199.319	-200.000	-0.038	-0.184
-198.304	166.611	0.178	0.246
-197.290	-34.228	0.056	0.030
-196.275	-117.526	0.438	0.077
-195.260	659.024	0.165	-0.414
-194.246	29.014	-0.231	0.191
-193.231	38.658	0.120	0.104
-192.217	-91.974	0.074	-0.020
-191.202	-192.972	0.109	-0.001
-190.187	800.000	-0.037	-0.137
-189.173	43.725	0.147	-0.132
-188.158	-86.605	0.293	0.088
-187.144	-128.838	-0.224	0.031
-186.129	42.655	-0.306	-0.272
-185.114	-99.286	0.244	-0.060
-184.100	-200.000	0.001	0.037
-183.085	243.264	-0.121	0.198
-182.071	335.564	0.044	-0.083
-181.056	104.379	0.130	0.149
-180.042	1.134	-0.262	-0.183
-179.027	510.266	0.134	0.304
-178.012	-130.229	-0.425	-0.056
-176.998	-94.484	-0.285	0.076
-175.983	762.380	-0.120	-0.318
-174.969	800.000	-0.075	-0.240
-173.954	-56.355	0.239	0.103
-172.939	-200.000	0.039	-0.298
-171.925	-200.000	-0.017	0.210
-170.910	305.525	-0.071	0.128
-169.896	-200.000	0.027	0.128
-168.881	-108.320	-0.241	0.051
-167.866	-64.546	0.181	0.072
-166.852	655.974	0.037	0.094
-165.837	-156.607	-0.184	-0.011
-164.823	-161.583	0.064	0.003
-163.808	-200.000	-0.013	-0.182
-162.793	-200.000	0.002	0.157
-161.779	-39.411	0.243	-0.124
-160.764	516.796	0.056	0.127
-159.750	800.000	-0.174	-0.512
-158.735	-45.740	-0.202	0.097
-157.720	-144.284	-0.275	-0.025
-156.706	-200.000	0.036	-0.190
-155.691	-34.203	0.254	-0.136
-154.677	587.223	-0.169	0.405
-153.662	-149.129	-0.055	-0.004
-152.647	800.000	-0.045	0.133
-151.633	-200.000	-0.061	-0.349
-150.618	-133.423	-0.071	0.009
-149.604	800.000	0.062	0.209
-148.589	7.556	-0.129	-0.094
-147.574	294.322	-0.085	0.152
-146.560	319.983	0.176	-0.325
-145.545	-49.305	-0.303	0.141
-144.531	-146.176	-0.070	0.006
-143.516	102.549	0.260	-0.296
-142.502	-200.000	0.061	-0.307
-141.487	45.139	-0.145	0.130
-140.472	64.205	-0.138	0.135
-139.458	-28.295	-0.196	-0.110
-138.443	49.360	0.043	0.039
-137.429	-200.000	-0.010	0.232
-136.414	-50.896	-0.245	-0.112
-135.399	-50.917	0.210	-0.096
-134.385	216.761	0.150	-0.233
-133.370	-60.262	0.045	-0.019
-132.356	51.495	0.214	0.198
-131.341	19.332	-0.047	0.037
-130.326	-80.739	-0.098	0.032
-129.312	228.983	-0.068	-0.108
-128.297	12.553	0.286	-0.214
-127.283	-110.702	0.337	-0.068
-126.268	-200.000	-0.015	-0.174
-125.253	227.769	-0.204	0.324
-124.239	697.914	0.112	0.286
-123.224	113.680	0.161	-0.191
-122.210	800.000	0.013	-0.055
-121.195	-170.848	-0.138	-0.005
