DTS Sentinel unit serial number:	SN413079Multiplexer serial number:	ORYXHardware model number:	OX4-SRSoftware version number:	ORYX F/W v4.00 Oryx Data Collector v3.7.2.0data status	okinstallation	princeton_trtdifferential loss correction	single-endedforward channel	channel 2reverse channel	N/Adate	2019/09/18time	15:23:35forward acquisition time	60.00reverse acquisition time	0.00gamma	496.2192k internal	0.2315k external	0.2315temperature offset calibration	0.9998default loss term (dB/km)	0.3790temperature slope calibration	1.0000multiplexer offset coefficient	1.0000multiplexer slope coefficient	1.0000fibre end	0.00T internal ref (°C)	35.89T ext. ref 1 (°C)	0.76T ext. ref 2 (°C)	34.03length (m)	temperature (°C)	Stokes	anti-Stokes-747.200	7.575	0.299	0.227
-746.185	-200.000	0.024	0.268
-745.171	-99.184	-0.231	0.059
-744.156	34.292	-0.038	0.034
-743.142	141.315	-0.029	0.039
-742.127	800.000	-0.049	0.178
-741.112	800.000	0.032	-0.114
-740.098	151.695	-0.097	-0.134
-739.083	-112.091	0.215	-0.044
-738.069	800.000	-0.113	0.410
-737.054	-77.443	0.245	-0.086
-736.039	17.696	-0.340	-0.274
-735.025	66.620	-0.213	0.219
-734.010	-51.111	-0.348	0.165
-732.996	-44.522	-0.466	-0.236
-731.981	-200.000	0.071	0.356
-730.966	-105.002	-0.146	-0.034
-729.952	-200.000	0.011	-0.243
-728.937	-200.000	0.064	0.287
-727.923	-118.539	-0.113	-0.020
-726.908	398.344	-0.097	0.206
-725.894	-200.000	0.016	0.098
-724.879	-61.838	0.105	0.044
-723.864	156.915	0.088	0.124
-722.850	-65.888	0.118	0.048
-721.835	611.023	0.079	-0.201
-720.821	-136.884	-0.537	-0.062
-719.806	-200.000	0.028	0.413
-718.791	711.036	0.089	-0.239
-717.777	30.637	0.100	-0.087
-716.762	-18.881	-0.183	0.116
-715.748	-200.000	-0.038	-0.316
-714.733	404.208	-0.096	-0.204
-713.718	62.746	-0.220	-0.223
-712.704	-25.717	-0.193	0.115
-711.689	69.302	-0.242	-0.252
-710.675	374.934	0.064	0.132
-709.660	-200.000	0.000	0.163
-708.645	-87.475	0.306	-0.094
-707.631	-145.922	-0.239	-0.021
-706.616	-134.559	-0.373	-0.046
-705.602	800.000	0.028	-0.088
-704.587	800.000	0.048	0.160
-703.572	800.000	-0.111	0.345
-702.558	-170.157	-0.149	0.005
-701.543	76.975	0.091	0.098
-700.529	272.703	0.119	0.212
-699.514	-100.637	0.424	0.106
-698.499	-177.674	-0.049	0.001
-697.485	-89.224	0.094	-0.028
-696.470	171.848	0.161	0.234
-695.456	316.131	-0.175	0.335
-694.441	-64.038	-0.192	0.079
-693.426	-200.000	0.013	-0.254
-692.412	263.563	-0.123	-0.216
-691.397	-200.000	0.039	-0.250
-690.383	471.465	-0.043	-0.098
-689.368	-3.468	-0.076	-0.054
-688.354	-145.707	0.140	-0.013
-687.339	-172.139	-0.098	0.003
-686.324	-191.399	-0.146	0.001
-685.310	459.692	0.168	-0.378
-684.295	290.685	-0.097	0.177
-683.281	-49.138	0.081	0.039
-682.266	270.293	0.037	0.065
-681.251	161.400	-0.190	0.268
-680.237	93.715	0.112	0.128
-679.222	-200.000	-0.026	-0.185
-678.208	-65.578	0.256	-0.104
-677.193	83.648	-0.130	-0.143
-676.178	800.000	-0.086	-0.358
-675.164	-73.011	-0.281	-0.104
-674.149	-200.000	0.015	-0.126
-673.135	6.224	-0.107	0.080
-672.120	-135.251	-0.161	-0.020
-671.105	-9.029	-0.384	-0.260
-670.091	201.895	0.084	0.131
-669.076	-200.000	0.026	0.256
-668.062	543.177	0.062	0.150
-667.047	-200.000	-0.010	-0.159
-666.032	-22.307	-0.280	-0.171
-665.018	-200.000	-0.048	-0.248
-664.003	-34.885	-0.327	-0.180
-662.989	-107.208	0.174	0.039
-661.974	-142.794	-0.140	-0.014
-660.959	-126.468	-0.174	-0.026
-659.945	-200.000	-0.004	0.196
-658.930	301.818	-0.091	0.169
-657.916	18.655	-0.161	0.130
-656.901	76.739	-0.193	0.207
-655.886	-148.100	0.204	0.017
-654.872	57.541	0.103	-0.102
-653.857	-161.463	-0.166	0.009
-652.843	20.350	-0.174	0.142
-651.828	-93.589	0.199	0.056
-650.814	-125.330	-0.152	-0.023
-649.799	12.255	0.177	-0.138
-648.784	-42.115	-0.076	-0.039
-647.770	-200.000	-0.012	-0.087
-646.755	128.775	-0.170	-0.219
-645.741	96.526	0.366	0.423
-644.726	69.035	0.174	-0.180
-643.711	25.243	0.136	-0.114
-642.697	66.976	0.161	0.165
-641.682	800.000	-0.045	-0.147
-640.668	146.997	0.177	-0.240
-639.653	95.840	0.189	-0.218
-638.638	-27.740	-0.216	-0.126
-637.624	230.694	-0.014	-0.024
-636.609	-134.191	0.253	0.032
-635.595	-103.909	-0.170	-0.040
-634.580	-200.000	-0.017	0.167
-633.565	-200.000	-0.033	0.299
-632.551	-39.605	0.198	-0.105
-631.536	12.158	-0.012	-0.009
-630.522	-27.851	-0.204	0.119
-629.507	349.656	-0.082	-0.162
-628.492	-81.870	-0.128	0.042
-627.478	-85.724	-0.182	-0.057
-626.463	-139.190	0.335	-0.036
-625.449	7.913	-0.113	0.086
-624.434	-200.000	0.048	-0.274
-623.419	-200.000	-0.040	0.226
-622.405	-21.616	0.205	0.126
-621.390	-82.046	-0.358	-0.118
-620.376	64.762	-0.053	-0.054
-619.361	45.956	0.135	-0.126
-618.346	-165.940	0.318	0.014
-617.332	-14.480	-0.148	-0.096
-616.317	-15.935	-0.125	-0.080
-615.303	-105.376	-0.452	0.104
-614.288	-17.677	-0.069	-0.044
-613.273	140.464	-0.150	-0.200
-612.259	800.000	0.032	0.126
-611.244	-91.892	-0.152	-0.043
-610.230	800.000	-0.029	0.090
-609.215	220.963	-0.054	-0.088
-608.201	-200.000	0.024	0.107
-607.186	140.710	0.060	0.080
-606.171	16.755	0.154	0.123
-605.157	286.574	0.170	-0.309
-604.142	116.916	0.198	0.245
-603.128	-175.106	-0.356	0.010
-602.113	-117.718	-0.206	-0.037
-601.098	-117.691	0.341	-0.062
-600.084	-12.974	-0.280	0.184
-599.069	-200.000	-0.028	0.430
-598.055	-200.000	-0.001	0.081
-597.040	-103.702	-0.144	-0.034
-596.025	28.261	0.247	-0.210
-595.011	-44.578	0.149	-0.075
-593.996	800.000	-0.035	-0.133
-592.982	58.359	0.280	0.277
-591.967	190.234	0.046	-0.069
-590.952	-0.425	0.196	0.141
-589.938	-200.000	0.010	-0.079
-588.923	-83.882	0.562	-0.180
-587.909	55.751	-0.185	-0.181
-586.894	-22.453	0.088	0.053
-585.879	209.109	-0.104	0.164
-584.865	-200.000	0.091	-0.433
-583.850	-200.000	0.026	-0.206
-582.836	-91.591	-0.080	-0.023
-581.821	-22.954	0.122	-0.074
-580.806	-30.383	0.261	-0.149
-579.792	800.000	-0.023	0.088
-578.777	-200.000	0.025	0.222
-577.763	5.526	-0.180	-0.134
-576.748	344.242	-0.206	-0.407
-575.733	272.792	0.094	-0.167
-574.719	26.217	-0.124	0.104
-573.704	163.979	0.167	-0.236
-572.690	-200.000	-0.035	-0.183
-571.675	-110.807	-0.379	0.079
-570.661	117.925	-0.096	0.119
-569.646	-108.806	0.290	0.063
-568.631	4.855	-0.141	-0.104
-567.617	218.547	0.280	-0.450
-566.602	-200.000	0.011	0.142
-565.588	403.803	-0.098	-0.207
-564.573	339.503	-0.217	-0.425
-563.558	250.919	0.139	-0.239
-562.544	-3.062	0.122	-0.086
-561.529	68.184	0.087	-0.090
-560.515	-200.000	-0.030	0.288
-559.500	121.178	-0.031	-0.039
-558.485	443.372	-0.069	0.152
-557.471	-152.322	-0.093	-0.007
-556.456	-140.620	-0.148	-0.015
-555.442	-57.757	-0.204	-0.090
-554.427	-60.123	0.213	-0.092
-553.412	736.392	-0.164	0.441
-552.398	800.000	-0.071	-0.226
-551.383	-200.000	0.009	0.378
-550.369	117.793	-0.199	-0.246
-549.354	-200.000	-0.075	0.481
-548.339	-200.000	0.010	0.278
-547.325	300.741	0.187	0.346
-546.310	-151.956	0.291	-0.021
-545.296	800.000	-0.004	0.014
-544.281	-71.641	-0.423	-0.159
-543.266	-32.074	0.123	-0.069
-542.252	-71.350	0.088	-0.033
-541.237	-11.633	-0.189	0.125
-540.223	-200.000	0.012	0.087
-539.208	-200.000	-0.007	-0.173
-538.193	-76.781	-0.220	0.077
-537.179	41.714	0.087	-0.079
-536.164	-200.000	0.042	0.184
-535.150	800.000	-0.070	-0.267
-534.135	-177.792	-0.240	0.006
-533.121	-200.000	0.001	-0.181
-532.106	46.989	0.204	-0.190
-531.091	-200.000	0.011	0.230
-530.077	697.603	0.117	0.310
-529.062	51.964	0.036	0.034
-528.048	800.000	0.042	-0.131
-527.033	-24.386	0.067	0.040
-526.018	577.540	-0.102	-0.251
-525.004	94.282	-0.395	-0.450
-523.989	-200.000	0.020	-0.131
-522.975	67.301	0.029	-0.029
-521.960	-43.822	-0.126	0.064
-520.945	800.000	0.023	-0.095
-519.931	800.000	-0.064	0.257
-518.916	-200.000	-0.006	-0.236
-517.902	-200.000	-0.022	-0.095
-516.887	-100.181	-0.436	-0.109
-515.872	-61.154	-0.267	-0.113
-514.858	46.141	0.177	0.165
-513.843	-64.438	-0.081	0.033
-512.829	800.000	0.067	-0.210
-511.814	-200.000	0.003	0.226
-510.799	136.316	-0.156	0.205
-509.785	227.088	0.142	-0.232
-508.770	148.285	-0.198	0.268
-507.756	74.346	-0.123	0.130
-506.741	169.488	0.061	-0.087
-505.726	800.000	0.086	-0.348
-504.712	598.842	0.068	0.169
-503.697	-169.988	0.563	0.020
-502.683	795.992	-0.089	0.245
-501.668	800.000	-0.042	-0.178
-500.653	-200.000	0.015	-0.097
-499.639	-79.921	0.109	0.037
-498.624	-200.000	-0.004	-0.139
-497.610	-2.877	-0.128	-0.090
-496.595	195.833	-0.096	-0.147
-495.581	108.600	-0.112	-0.134
-494.566	17.803	-0.392	-0.313
-493.551	-136.378	-0.314	-0.037
-492.537	357.287	0.222	-0.444
-491.522	-12.858	-0.122	0.080
-490.508	-90.859	-0.440	-0.127
-489.493	-45.870	0.278	0.138
-488.478	-101.789	-0.423	0.103
-487.464	159.617	-0.239	-0.334
-486.449	-200.000	0.031	-0.223
-485.435	74.423	-0.015	0.016
-484.420	79.182	0.136	-0.147
-483.405	48.800	-0.109	0.103
-482.391	-106.835	0.275	-0.061
-481.376	-200.000	-0.012	0.065
-480.362	-38.107	0.113	0.060
-479.347	-12.640	0.150	0.098
-478.332	47.923	0.273	-0.256
-477.318	-52.996	0.105	-0.049
-476.303	99.769	-0.186	0.216
-475.289	800.000	0.060	-0.243
-474.274	-135.417	0.216	0.026
-473.259	-41.554	0.177	-0.091
-472.245	-137.693	-0.340	0.038
-471.230	-200.000	-0.047	0.332
-470.216	-200.000	0.019	0.113
-469.201	-200.000	-0.014	-0.174
-468.186	356.757	0.075	-0.150
-467.172	-200.000	-0.007	-0.083
-466.157	57.716	-0.073	-0.071
-465.143	258.038	-0.110	0.189
-464.128	-200.000	0.046	-0.334
-463.113	800.000	-0.107	-0.299
-462.099	23.300	-0.191	-0.158
-461.084	-200.000	-0.010	0.115
-460.070	-106.800	0.169	-0.037
-459.055	69.462	-0.208	-0.214
-458.040	250.070	0.137	-0.233
-457.026	-114.525	0.208	0.040
-456.011	-20.382	-0.155	-0.095
-454.997	-81.249	-0.214	0.071
-453.982	-186.449	0.459	0.007
-452.968	209.576	0.027	-0.043
-451.953	165.952	0.136	-0.193
-450.938	-200.000	-0.025	0.323
-449.924	-3.572	0.455	0.317
-448.909	-71.541	0.117	0.044
-447.895	59.555	0.272	0.268
-446.880	124.634	-0.278	0.350
-445.865	-200.000	-0.028	0.474
-444.851	-103.614	-0.318	0.075
-443.836	-200.000	0.012	0.117
-442.822	-154.947	0.232	0.015
-441.807	800.000	0.096	-0.369
-440.792	437.520	-0.037	0.080
-439.778	-200.000	-0.014	0.064
-438.763	-52.822	0.283	-0.130
-437.749	800.000	0.068	-0.189
-436.734	-50.980	-0.087	0.041
-435.719	213.076	-0.140	-0.222
-434.705	-200.000	0.026	0.217
-433.690	127.219	-0.065	0.082
-432.676	800.000	-0.034	0.123
-431.661	292.172	0.088	-0.161
-430.646	-200.000	0.005	-0.132
-429.632	-106.966	0.213	0.047
-428.617	97.632	0.289	0.332
-427.603	365.506	0.117	-0.235
-426.588	-42.042	-0.161	0.083
-425.573	284.511	0.098	0.176
-424.559	-13.740	-0.142	-0.092
-423.544	623.435	0.026	-0.065
-422.530	-200.000	-0.027	-0.131
-421.515	49.108	-0.079	0.074
-420.500	800.000	-0.079	0.308
-419.486	-26.809	-0.415	-0.243
-418.471	44.197	0.186	-0.170
-417.457	337.245	-0.061	-0.119
-416.442	-200.000	-0.012	0.305
-415.428	517.962	0.081	0.189
-414.413	800.000	-0.072	0.286
-413.398	-200.000	0.034	0.444
-412.384	-167.165	0.300	0.012
-411.369	-118.472	0.088	-0.016
-410.355	133.605	-0.196	0.253
-409.340	800.000	0.095	0.335
-408.325	-200.000	-0.008	0.381
-407.311	-85.486	-0.310	-0.097
-406.296	27.221	-0.160	0.134
-405.282	217.789	-0.224	-0.357
-404.267	129.672	-0.185	-0.236
-403.252	800.000	0.060	0.193
-402.238	800.000	-0.019	-0.055
-401.223	76.700	-0.206	0.218
-400.209	-130.760	0.054	0.007
-399.194	-3.605	-0.151	0.105
-398.179	-32.995	0.118	-0.065
-397.165	437.222	0.115	0.251
-396.150	-200.000	0.001	0.048
-395.136	-113.733	-0.254	0.049
-394.121	-123.799	0.139	0.022
-393.106	152.044	0.065	-0.089
-392.092	222.214	0.063	0.101
-391.077	-44.528	0.240	-0.120
-390.063	119.453	-0.261	0.323
-389.048	239.505	0.127	-0.212
-388.033	-61.728	0.092	0.038
-387.019	-83.006	-0.035	0.011
-386.004	124.968	-0.173	0.218
-384.990	-200.000	0.047	0.279
-383.975	800.000	-0.146	-0.417
-382.960	-110.049	-0.235	0.049
-381.946	256.645	0.116	-0.199
-380.931	-57.732	-0.246	0.107
-379.917	-200.000	-0.032	-0.182
-378.902	-200.000	-0.030	0.132
-377.888	181.142	-0.088	-0.129
-376.873	269.933	-0.055	0.096
-375.858	60.779	-0.098	0.097
-374.844	-88.870	0.254	-0.075
-373.829	283.079	0.191	0.343
-372.815	-132.069	0.320	0.042
-371.800	61.178	0.306	0.304
-370.785	14.748	-0.215	-0.168
-369.771	504.549	0.046	0.106
-368.756	-117.016	-0.306	0.056
-367.742	800.000	0.084	-0.354
-366.727	-40.577	-0.068	0.035
-365.712	273.648	-0.132	0.233
-364.698	5.896	0.067	0.049
-363.683	-200.000	-0.013	-0.179
-362.669	-200.000	0.005	0.046
-361.654	-200.000	0.007	0.171
-360.639	-159.350	0.124	-0.007
-359.625	-114.926	-0.331	-0.063
-358.610	-165.692	-0.129	0.006
-357.596	-184.713	-0.249	-0.004
-356.581	390.810	-0.065	-0.134
-355.566	-123.734	-0.400	-0.063
-354.552	2.389	0.120	-0.087
-353.537	100.427	-0.163	0.189
-352.523	-160.864	-0.199	-0.010
-351.508	12.967	0.071	0.054
-350.493	800.000	-0.073	-0.232
-349.479	32.861	-0.131	0.113
-348.464	800.000	-0.097	0.343
-347.450	-82.146	0.245	0.080
-346.435	-200.000	-0.003	-0.100
-345.420	-84.345	-0.112	0.035
-344.406	212.724	0.085	-0.133
-343.391	-200.000	-0.012	0.255
-342.377	-86.966	-0.271	-0.082
-341.362	155.866	-0.077	-0.106
-340.348	721.168	0.045	0.119
-339.333	-200.000	-0.014	-0.164
-338.318	-200.000	0.029	-0.227
-337.304	-52.376	0.011	-0.005
-336.289	-200.000	-0.058	-0.268
-335.275	385.684	-0.116	-0.238
-334.260	164.075	0.175	0.246
-333.245	-19.602	0.188	0.116
-332.231	93.347	-0.087	-0.098
-331.216	-200.000	-0.456	0.002
-330.202	-200.000	-0.010	-0.057
-329.187	-200.000	0.002	-0.008
-328.172	-126.739	0.179	0.026
-327.158	759.836	0.008	-0.023
-326.143	88.672	-0.192	0.213
-325.129	283.708	0.186	0.334
-324.114	-186.641	-0.048	-0.001
-323.099	-200.000	-0.035	0.211
-322.085	155.168	-0.245	0.337
-321.070	-15.501	-0.257	0.164
-320.056	25.654	-0.091	0.075
-319.041	96.692	0.238	0.272
-318.026	159.712	-0.121	0.168
-317.012	-1.992	0.224	-0.157
-315.997	103.768	0.146	0.171
-314.983	-153.757	-0.193	0.013
-313.968	3.254	0.102	-0.074
-312.953	216.019	-0.280	-0.444
-311.939	115.807	-0.094	0.115
-310.924	11.389	-0.057	-0.043
-309.910	-37.809	-0.153	-0.081
-308.895	-140.275	-0.259	-0.027
-307.880	-140.144	0.185	-0.019
-306.866	-200.000	-0.021	-0.377
-305.851	-23.907	-0.268	-0.160
-304.837	313.213	0.074	-0.138
-303.822	-92.067	0.078	0.022
-302.807	-200.000	0.050	0.249
-301.793	800.000	-0.189	-0.564
-300.778	30.296	0.220	-0.187
-299.764	420.208	0.118	0.251
-298.749	-200.000	-0.041	-0.316
-297.735	17.321	-0.110	0.087
-296.720	-162.866	0.349	0.017
-295.705	98.635	0.052	-0.059
-294.691	137.172	0.065	0.084
-293.676	800.000	0.057	0.159
-292.662	77.437	-0.084	-0.089
-291.647	297.375	0.066	-0.121
-290.632	800.000	0.034	-0.140
-289.618	-200.000	-0.011	-0.054
-288.603	-55.998	-0.169	-0.075
-287.589	-200.000	0.001	-0.279
-286.574	179.556	0.214	0.312
-285.559	50.979	-0.183	-0.173
-284.545	259.561	-0.194	-0.334
-283.530	-93.482	0.238	0.066
-282.516	11.649	0.103	-0.078
-281.501	68.173	0.138	0.140
-280.486	-8.178	0.214	-0.143
-279.472	-136.601	0.209	-0.024
-278.457	-62.049	0.494	-0.205
-277.443	10.814	-0.211	-0.160
-276.428	226.260	0.116	-0.188
-275.413	-200.000	-0.203	-0.000
-274.399	40.851	-0.336	-0.301
-273.384	800.000	-0.046	-0.168
-272.370	74.625	-0.079	0.082
-271.355	-42.401	0.089	0.045
-270.340	-200.000	-0.013	0.323
-269.326	-119.242	-0.278	0.048
-268.311	-76.427	-0.284	0.099
-267.297	-108.855	0.322	-0.068
-266.282	2.239	-0.205	-0.147
-265.267	-200.000	0.036	0.161
-264.253	-3.427	-0.306	-0.212
-263.238	113.873	0.159	-0.192
-262.224	-93.347	-0.326	-0.090
-261.209	738.891	0.129	0.344
-260.195	-200.000	-0.028	-0.284
-259.180	375.418	-0.005	0.010
-258.165	-46.598	0.093	-0.046
-257.151	-200.000	-0.047	0.270
-256.136	-112.390	0.348	-0.069
-255.122	201.749	-0.063	-0.097
-254.107	-129.253	0.068	0.009
-253.092	26.772	-0.230	-0.191
-252.078	-200.000	0.006	0.208
-251.063	-131.398	-0.119	-0.016
-250.049	57.806	0.100	0.097
-249.034	241.522	-0.283	0.471
-248.019	306.310	0.111	0.205
-247.005	55.584	0.132	0.127
-245.990	-108.172	0.096	0.021
-244.976	-200.000	-0.022	-0.210
-243.961	800.000	0.031	0.116
-242.946	85.901	-0.304	-0.333
-241.932	136.744	-0.115	-0.149
-240.917	-108.439	0.108	0.023
-239.903	800.000	0.112	-0.434
-238.888	355.435	-0.122	-0.241
-237.873	157.365	0.167	-0.230
-236.859	-200.000	-0.052	0.373
-235.844	-200.000	-0.021	0.220
-234.830	-126.580	0.057	0.008
-233.815	152.286	0.088	0.119
-232.800	-200.000	0.001	0.102
-231.786	69.187	0.306	-0.313
-230.771	800.000	0.041	0.122
-229.757	-96.432	-0.092	0.024
-228.742	-151.705	-0.090	0.007
-227.727	113.717	0.075	0.091
-226.713	800.000	0.056	-0.155
-225.698	-55.950	-0.125	0.056
-224.684	-147.813	0.149	-0.012
-223.669	-159.106	0.330	-0.019
-222.655	800.000	0.062	-0.258
-221.640	-8.963	0.463	-0.308
-220.625	23.386	0.146	-0.119
-219.611	598.223	0.085	-0.209
-218.596	-77.445	0.254	-0.088
-217.582	-166.329	0.202	-0.008
-216.567	14.637	0.235	-0.182
-215.552	-42.240	-0.060	0.030
-214.538	218.341	-0.210	0.333
-213.523	280.321	0.051	0.090
-212.509	-74.658	-0.205	0.073
-211.494	47.463	0.118	-0.109
-210.479	-107.213	0.142	-0.031
-209.465	-34.696	0.167	-0.091
-208.450	283.926	0.104	0.186
-207.436	-161.020	-0.205	-0.011
-206.421	-200.000	0.058	0.387
-205.406	800.000	0.052	0.150
-204.392	-79.491	0.112	0.037
-203.377	-58.595	0.214	0.092
-202.363	324.921	0.085	0.160
-201.348	585.882	0.115	0.281
-200.333	272.299	0.050	0.087
-199.319	88.380	0.384	0.423
-198.304	101.272	-0.096	-0.111
-197.290	309.369	-0.199	-0.368
-196.275	674.608	0.108	0.278
-195.260	-43.032	0.127	-0.064
-194.246	123.726	0.159	-0.198
-193.231	49.216	0.212	-0.198
-192.217	31.150	-0.157	0.134
-191.202	-27.746	0.156	0.090
-190.187	800.000	0.056	0.219
-189.173	-1.651	0.120	-0.084
-188.158	-42.947	0.427	0.215
-187.144	800.000	0.127	-0.384
-186.129	-25.150	-0.312	-0.183
-185.114	-123.111	0.154	-0.024
-184.100	-200.000	-0.037	0.286
-183.085	-54.729	-0.127	0.057
-182.071	-21.336	0.113	0.069
-181.056	43.147	-0.094	-0.085
-180.042	108.374	-0.060	0.071
-179.027	31.679	0.212	-0.181
-178.012	53.270	-0.038	0.036
-176.998	-153.868	-0.267	0.018
-175.983	-78.309	0.198	0.067
-174.969	258.766	0.232	0.397
-173.954	-20.091	-0.181	-0.111
-172.939	445.235	-0.056	-0.121
-171.925	-112.992	0.277	-0.054
-170.910	121.253	-0.147	0.181
-169.896	23.084	-0.175	-0.143
-168.881	800.000	0.114	0.333
-167.866	-200.000	0.004	0.142
-166.852	-200.000	-0.041	0.341
-165.837	-200.000	-0.013	0.501
-164.823	101.374	0.118	-0.136
-163.808	-51.944	0.139	0.064
-162.793	98.529	0.128	0.146
-161.779	137.924	-0.190	0.247
-160.764	-191.341	0.208	0.002
-159.750	-75.136	-0.106	-0.037
-158.735	113.560	-0.250	0.301
-157.720	-117.791	0.238	-0.042
-156.706	-156.649	-0.292	-0.018
-155.691	182.201	0.062	-0.091
-154.677	800.000	-0.136	0.373
-153.662	-30.738	0.188	0.106
-152.647	697.910	-0.082	0.214
-151.633	669.766	-0.059	0.152
-150.618	-74.808	0.296	0.105
-149.604	-6.105	0.118	0.080
-148.589	800.000	-0.056	0.174
-147.574	-10.886	0.109	-0.071
-146.560	-200.000	0.026	-0.169
-145.545	220.045	0.081	0.128
-144.531	-200.000	-0.035	-0.188
-143.516	95.843	-0.184	-0.208
-142.502	800.000	0.068	0.191
-141.487	56.470	-0.228	-0.220
-140.472	5.483	-0.144	-0.105
-139.458	-98.397	-0.132	0.033
-138.443	141.453	-0.059	0.077
-137.429	163.392	-0.186	-0.259
-136.414	-200.000	-0.039	-0.188
-135.399	632.848	-0.070	-0.175
-134.385	32.189	0.336	-0.287
-133.370	185.947	0.098	-0.144
-132.356	128.709	0.215	-0.271
-131.341	-200.000	-0.025	0.178
-130.326	800.000	0.083	0.265
-129.312	-28.519	0.144	0.082
-128.297	-184.254	-0.174	0.003
-127.283	-122.840	0.365	-0.058
-126.268	-16.081	-0.286	-0.180
-125.253	800.000	0.085	-0.279
-124.239	800.000	-0.135	0.410
-123.224	-200.000	-0.047	0.233
-122.210	-41.959	0.118	0.060
