DTS Sentinel unit serial number:	SN413079Multiplexer serial number:	ORYXHardware model number:	OX4-SRSoftware version number:	ORYX F/W v4.00 Oryx Data Collector v3.7.2.0data status	okinstallation	princeton_trtdifferential loss correction	single-endedforward channel	channel 2reverse channel	N/Adate	2019/09/16time	04:43:35forward acquisition time	60.00reverse acquisition time	0.00gamma	496.2192k internal	0.2335k external	0.2335temperature offset calibration	0.9979default loss term (dB/km)	0.3790temperature slope calibration	1.0000multiplexer offset coefficient	1.0000multiplexer slope coefficient	1.0000fibre end	0.00T internal ref (°C)	27.19T ext. ref 1 (°C)	10.90T ext. ref 2 (°C)	21.46length (m)	temperature (°C)	Stokes	anti-Stokes-747.200	800.000	0.123	0.383
-746.185	-177.901	0.212	-0.005
-745.171	-200.000	-0.007	0.134
-744.156	-200.000	-0.083	0.511
-743.142	-94.903	0.211	0.057
-742.127	-200.000	-0.086	0.397
-741.112	-125.044	0.059	-0.009
-740.098	-158.133	-0.319	0.019
-739.083	57.500	0.070	0.068
-738.069	-47.328	-0.203	0.099
-737.054	-200.000	-0.024	0.428
-736.039	800.000	0.038	-0.134
-735.025	-46.983	0.253	-0.124
-734.010	-99.427	-0.111	0.028
-732.996	-38.438	-0.382	-0.203
-731.981	125.111	-0.121	0.153
-730.966	-108.887	0.308	-0.066
-729.952	-200.000	0.012	-0.400
-728.937	-103.008	-0.137	0.033
-727.923	-37.677	0.330	-0.177
-726.908	528.461	-0.044	0.104
-725.894	-200.000	0.035	-0.562
-724.879	1.957	0.370	-0.268
-723.864	27.116	0.229	-0.193
-722.850	468.443	-0.089	-0.200
-721.835	107.538	0.212	-0.253
-720.821	-110.276	-0.142	-0.030
-719.806	-102.464	-0.232	0.056
-718.791	54.023	0.147	0.142
-717.777	22.410	0.096	0.079
-716.762	-200.000	0.045	-0.280
-715.748	351.583	-0.092	-0.183
-714.733	-149.313	0.125	0.010
-713.718	691.954	0.239	0.627
-712.704	800.000	0.055	0.210
-711.689	-200.000	-0.024	0.199
-710.675	582.736	0.015	-0.038
-709.660	204.237	0.071	-0.110
-708.645	-126.226	-0.033	-0.005
-707.631	45.438	0.017	0.016
-706.616	-150.244	0.122	-0.009
-705.602	-6.432	-0.416	-0.285
-704.587	-115.057	-0.224	-0.043
-703.572	-200.000	0.022	-0.260
-702.558	261.372	0.113	-0.196
-701.543	91.717	0.118	0.133
-700.529	100.807	-0.148	-0.173
-699.514	-44.139	-0.384	-0.193
-698.499	93.648	0.131	0.149
-697.485	-200.000	-0.012	0.072
-696.470	-200.000	-0.020	-0.103
-695.456	60.958	-0.212	-0.211
-694.441	-200.000	0.002	-0.034
-693.426	-200.000	-0.061	0.415
-692.412	-23.772	-0.320	-0.192
-691.397	0.541	-0.170	-0.122
-690.383	800.000	-0.005	-0.020
-689.368	-200.000	0.068	-0.369
-688.354	-200.000	-0.249	-0.001
-687.339	8.315	-0.302	0.228
-686.324	349.512	0.265	0.524
-685.310	149.338	-0.129	-0.175
-684.295	800.000	-0.038	-0.152
-683.281	800.000	-0.071	-0.215
-682.266	62.738	0.045	-0.045
-681.251	108.123	-0.159	-0.190
-680.237	-62.568	0.303	0.126
-679.222	394.672	0.072	-0.151
-678.208	-12.597	-0.332	0.217
-677.193	56.782	0.315	-0.308
-676.178	-25.355	0.050	-0.030
-675.164	216.819	0.263	-0.420
-674.149	-200.000	-0.010	-0.043
-673.135	411.697	-0.084	-0.179
-672.120	28.295	-0.173	-0.146
-671.105	141.374	-0.183	-0.242
-670.091	420.887	-0.133	0.285
-669.076	106.404	-0.304	-0.361
-668.062	-200.000	0.025	0.115
-667.047	-115.214	-0.304	-0.058
-666.032	-200.000	0.016	0.152
-665.018	26.910	-0.046	-0.038
-664.003	-67.913	0.196	-0.077
-662.989	-43.816	0.173	-0.087
-661.974	-107.101	-0.148	-0.033
-660.959	-200.000	0.057	-0.271
-659.945	217.296	-0.235	-0.376
-658.930	351.186	0.120	-0.238
-657.916	284.738	0.187	-0.337
-656.901	800.000	0.083	-0.242
-655.886	7.267	-0.142	-0.106
-654.872	-64.998	-0.228	-0.092
-653.857	-77.657	-0.337	0.117
-652.843	20.458	0.068	0.055
-651.828	94.727	0.086	0.098
-650.814	800.000	-0.012	-0.041
-649.799	197.822	0.200	-0.305
-648.784	800.000	-0.078	-0.309
-647.770	800.000	-0.052	-0.225
-646.755	-59.585	-0.190	-0.082
-645.741	-200.000	-0.022	0.299
-644.726	-154.768	-0.370	-0.025
-643.711	-134.348	-0.025	-0.003
-642.697	-94.923	0.474	-0.128
-641.682	-200.000	-0.027	-0.269
-640.668	797.172	0.096	-0.265
-639.653	800.000	-0.060	0.240
-638.638	800.000	-0.088	-0.275
-637.624	-122.181	0.151	0.025
-636.609	4.205	0.203	0.149
-635.595	316.593	-0.077	0.146
-634.580	772.620	0.046	-0.126
-633.565	-200.000	0.034	-0.569
-632.551	-91.403	-0.239	-0.068
-631.536	-83.269	0.034	0.011
-630.522	-133.073	-0.034	-0.004
-629.507	800.000	-0.015	0.060
-628.492	-195.150	-0.267	0.002
-627.478	-161.325	-0.217	-0.011
-626.463	-140.203	-0.098	-0.010
-625.449	-73.851	0.484	-0.176
-624.434	-115.635	-0.158	-0.030
-623.419	-88.162	-0.208	0.062
-622.405	114.244	0.263	-0.321
-621.390	648.780	-0.113	0.288
-620.376	12.093	-0.142	-0.109
-619.361	-156.689	-0.187	-0.012
-618.346	-94.461	-0.119	0.033
-617.332	-200.000	-0.018	-0.395
-616.317	47.098	-0.185	-0.172
-615.303	-96.763	-0.217	0.057
-614.288	-86.499	0.071	-0.022
-613.273	-194.859	0.359	-0.003
-612.259	-200.000	0.030	0.460
-611.244	-51.560	-0.277	-0.129
-610.230	-200.000	0.042	-0.234
-609.215	39.184	0.077	0.069
-608.201	-118.726	-0.233	0.041
-607.186	-200.000	0.023	0.110
-606.171	356.178	0.103	-0.205
-605.157	-32.499	-0.156	-0.087
-604.142	-157.944	-0.032	0.002
-603.128	-189.664	-0.313	0.004
-602.113	233.986	0.111	-0.182
-601.098	-200.000	-0.006	0.120
-600.084	-10.121	-0.213	0.142
-599.069	206.948	-0.165	0.257
-598.055	800.000	-0.099	-0.314
-597.040	-170.422	-0.094	0.003
-596.025	444.301	0.087	0.191
-595.011	-62.581	-0.296	0.123
-593.996	-200.000	-0.030	-0.184
-592.982	-107.310	0.232	-0.051
-591.967	190.031	-0.069	0.103
-590.952	-33.767	0.172	0.095
-589.938	-126.143	0.031	0.005
-588.923	-27.979	-0.511	-0.295
-587.909	30.512	0.348	0.297
-586.894	272.035	-0.147	0.258
-585.879	168.204	0.061	-0.087
-584.865	-36.946	-0.208	0.111
-583.850	-127.686	-0.286	-0.041
-582.836	142.855	-0.316	-0.419
-581.821	128.906	-0.069	-0.088
-580.806	132.604	0.078	0.100
-579.792	120.783	-0.084	0.104
-578.777	45.231	-0.206	0.189
-577.763	-200.000	-0.038	0.202
-576.748	-12.535	-0.578	-0.377
-575.733	-175.401	-0.448	-0.012
-574.719	-49.011	0.119	-0.057
-573.704	100.803	0.183	-0.212
-572.690	-2.506	-0.175	-0.123
-571.675	133.516	-0.174	-0.224
-570.661	173.096	0.151	-0.218
-569.646	-163.718	-0.252	0.012
-568.631	-130.758	-0.093	-0.012
-567.617	231.767	0.129	0.212
-566.602	727.760	0.085	-0.227
-565.588	88.696	-0.137	-0.152
-564.573	800.000	0.054	-0.158
-563.558	-200.000	-0.113	0.521
-562.544	-25.932	-0.263	0.155
-561.529	727.484	-0.125	-0.332
-560.515	99.859	-0.213	-0.246
-559.500	800.000	-0.041	-0.122
-558.485	-123.047	-0.370	-0.059
-557.471	151.950	0.284	0.386
-556.456	-200.000	0.001	-0.200
-555.442	29.297	-0.153	-0.130
-554.427	96.099	-0.211	0.240
-553.412	-170.673	-0.386	0.013
-552.398	76.709	0.219	0.232
-551.383	-123.745	-0.178	-0.028
-550.369	800.000	0.086	0.354
-549.354	800.000	-0.045	-0.193
-548.339	800.000	0.090	-0.324
-547.325	-37.282	-0.163	-0.087
-546.310	-74.881	0.255	0.091
-545.296	-153.566	0.174	0.012
-544.281	72.901	0.082	-0.085
-543.266	800.000	0.082	0.301
-542.252	-200.000	0.054	0.258
-541.237	-27.762	0.214	0.124
-540.223	114.497	-0.134	-0.163
-539.208	-49.607	0.276	-0.131
-538.193	-163.823	0.233	0.011
-537.179	71.172	-0.097	0.101
-536.164	-1.424	-0.123	-0.086
-535.150	-200.000	-0.045	-0.000
-534.135	800.000	-0.086	-0.281
-533.121	88.523	-0.050	0.055
-532.106	-157.758	-0.188	0.011
-531.091	73.981	0.125	-0.131
-530.077	39.793	0.305	-0.273
-529.062	-112.060	0.276	0.055
-528.048	-200.000	-0.032	-0.182
-527.033	71.192	0.056	0.058
-526.018	-200.000	0.016	0.157
-525.004	-200.000	0.053	0.230
-523.989	-200.000	-0.003	0.223
-522.975	118.304	-0.180	0.222
-521.960	800.000	0.108	0.314
-520.945	-111.329	-0.238	-0.048
-519.931	609.642	-0.143	0.356
-518.916	293.018	-0.129	-0.235
-517.902	800.000	-0.107	0.317
-516.887	-53.666	-0.257	0.117
-515.872	-200.000	-0.017	-0.090
-514.858	-144.035	0.336	0.031
-513.843	30.139	0.068	0.058
-512.829	95.094	-0.082	0.093
-511.814	-106.759	0.138	0.031
-510.799	152.378	-0.034	0.047
-509.785	474.089	-0.069	-0.155
-508.770	167.662	0.124	-0.176
-507.756	580.155	-0.019	-0.047
-506.741	-140.066	0.174	0.018
-505.726	-131.026	-0.247	0.033
-504.712	283.299	0.095	0.169
-503.697	54.705	-0.065	0.063
-502.683	-166.213	0.221	0.009
-501.668	38.665	-0.251	-0.223
-500.653	-200.000	0.012	-0.063
-499.639	67.524	-0.236	0.240
-498.624	113.322	0.280	-0.338
-497.610	-69.690	0.047	-0.018
-496.595	-76.105	0.181	-0.064
-495.581	50.264	0.186	-0.174
-494.566	-42.859	-0.160	0.081
-493.551	800.000	-0.055	-0.206
-492.537	26.922	-0.019	-0.016
-491.522	1.997	-0.167	-0.120
-490.508	-200.000	-0.014	-0.266
-489.493	263.957	0.057	0.098
-488.478	776.988	0.040	-0.108
-487.464	-81.503	-0.165	-0.054
-486.449	70.441	-0.173	-0.177
-485.435	-200.000	0.078	0.427
-484.420	800.000	-0.009	0.026
-483.405	800.000	0.019	-0.060
-482.391	332.541	-0.125	-0.240
-481.376	-200.000	0.018	0.225
-480.362	-200.000	-0.010	-0.069
-479.347	75.471	-0.052	0.055
-478.332	86.206	0.144	0.158
-477.318	-200.000	-0.032	0.274
-476.303	-200.000	0.031	-0.182
-475.289	38.526	0.073	0.065
-474.274	-57.543	-0.229	-0.100
-473.259	354.138	0.055	-0.108
-472.245	23.666	0.330	-0.270
-471.230	-148.046	0.232	0.019
-470.216	-137.420	0.251	-0.028
-469.201	547.277	0.038	0.090
-468.186	-187.960	-0.293	-0.004
-467.172	800.000	-0.008	-0.033
-466.157	-49.658	-0.143	0.068
-465.143	-185.694	0.255	-0.004
-464.128	100.858	0.075	0.087
-463.113	6.794	-0.121	0.089
-462.099	654.152	0.061	-0.156
-461.084	153.344	0.226	0.308
-460.070	-34.669	-0.231	-0.125
-459.055	-200.000	0.304	0.001
-458.040	-200.000	0.011	0.227
-457.026	-74.854	-0.030	0.011
-456.011	159.413	-0.134	0.185
-454.997	-55.049	-0.307	-0.137
-453.982	-124.945	0.081	-0.012
-452.968	-67.628	0.181	-0.070
-451.953	459.372	-0.187	-0.413
-450.938	800.000	0.026	0.083
-449.924	106.344	-0.094	-0.111
-448.909	150.183	-0.163	-0.220
-447.895	-145.429	-0.195	0.017
-446.880	800.000	0.043	-0.140
-445.865	7.437	-0.098	0.073
-444.851	281.099	-0.225	0.399
-443.836	-84.125	0.410	0.129
-442.822	-83.122	-0.207	0.066
-441.807	237.163	-0.063	-0.104
-440.792	-155.246	0.167	-0.011
-439.778	-99.760	0.179	-0.044
-438.763	-113.428	-0.215	-0.042
-437.749	13.028	0.193	0.149
-436.734	-7.910	-0.186	-0.124
-435.719	-200.000	0.032	-0.153
-434.705	150.833	-0.135	0.182
-433.690	-150.842	0.222	-0.017
-432.676	676.783	-0.050	-0.128
-431.661	-27.679	0.242	0.139
-430.646	150.090	0.083	0.111
-429.632	-25.774	-0.030	0.018
-428.617	-92.104	0.137	-0.039
-427.603	-80.092	-0.274	0.091
-426.588	-200.000	-0.037	0.234
-425.573	62.640	0.248	-0.246
-424.559	800.000	-0.011	-0.035
-423.544	-200.000	0.001	-0.045
-422.530	-200.000	0.012	-0.148
-421.515	87.223	0.359	-0.394
-420.500	-116.677	-0.037	-0.007
-419.486	274.432	0.117	0.205
-418.471	800.000	-0.079	-0.247
-417.457	-200.000	-0.015	-0.134
-416.442	-149.351	0.183	0.014
-415.428	344.605	0.132	0.256
-414.413	-123.015	-0.200	-0.032
-413.398	293.098	0.057	0.104
-412.384	53.298	0.181	0.172
-411.369	-161.080	-0.075	-0.004
-410.355	82.900	0.118	0.127
-409.340	800.000	-0.076	0.242
-408.325	48.187	0.246	-0.228
-407.311	-79.982	-0.097	0.032
-406.296	800.000	0.070	0.277
-405.282	-113.800	0.216	-0.042
-404.267	-24.379	-0.311	-0.184
-403.252	-200.000	0.026	-0.143
-402.238	725.931	-0.060	0.158
-401.223	-200.000	0.061	0.379
-400.209	39.722	-0.173	-0.154
-399.194	770.507	0.063	-0.169
-398.179	-200.000	0.008	0.151
-397.165	19.634	0.211	-0.169
-396.150	11.948	0.104	0.079
-395.136	-200.000	0.045	0.245
-394.121	-141.356	0.140	-0.014
-393.106	-200.000	0.004	0.202
-392.092	73.961	0.170	0.177
-391.077	142.927	-0.199	-0.262
-390.063	-11.350	0.089	-0.058
-389.048	-68.673	0.083	-0.032
-388.033	-200.000	0.018	0.289
-387.019	-37.423	0.274	-0.145
-386.004	127.356	0.314	-0.395
-384.990	-200.000	-0.047	-0.278
-383.975	-200.000	-0.017	-0.102
-382.960	65.143	-0.094	-0.094
-381.946	800.000	0.102	0.312
-380.931	203.212	0.042	0.064
-379.917	-22.304	0.225	-0.135
-378.902	-104.999	-0.454	-0.103
-377.888	680.614	-0.092	0.237
-376.873	61.990	0.101	-0.100
-375.858	-104.979	-0.135	0.031
-374.844	131.498	0.072	-0.092
-373.829	676.352	0.127	-0.327
-372.815	117.329	0.127	0.154
-371.800	-200.000	-0.006	-0.190
-370.785	177.360	-0.078	0.112
-369.771	-90.123	0.171	0.049
-368.756	17.989	-0.144	0.114
-367.742	-188.428	0.170	0.002
-366.727	91.299	0.130	0.144
-365.712	669.598	-0.085	0.217
-364.698	9.494	-0.282	0.211
-363.683	-60.242	0.285	0.120
-362.669	356.039	0.080	0.158
-361.654	454.892	0.161	0.354
-360.639	534.063	-0.081	-0.189
-359.625	36.636	-0.190	0.166
-358.610	44.086	-0.074	0.067
-357.596	-110.937	-0.161	-0.033
-356.581	-79.518	0.197	0.066
-355.566	-200.000	0.033	0.197
-354.552	-61.026	0.243	-0.102
-353.537	60.245	-0.063	-0.062
-352.523	37.989	-0.242	-0.213
-351.508	155.945	0.371	0.506
-350.493	-200.000	-0.007	0.120
-349.479	120.162	0.128	-0.157
-348.464	800.000	-0.054	0.196
-347.450	558.825	0.032	-0.076
-346.435	50.739	-0.103	0.096
-345.420	-200.000	0.039	0.273
-344.406	115.857	-0.078	0.094
-343.391	682.574	0.069	-0.179
-342.377	-124.447	0.030	0.005
-341.362	0.438	0.039	0.028
-340.348	256.222	-0.151	-0.257
-339.333	-200.000	-0.010	-0.310
-338.318	-38.865	0.323	-0.168
-337.304	-34.706	0.176	-0.095
-336.289	46.073	0.176	0.161
-335.275	-30.352	0.045	-0.025
-334.260	800.000	-0.139	0.428
-333.245	275.759	0.146	0.257
-332.231	-59.592	-0.235	-0.100
-331.216	-82.124	0.156	0.050
-330.202	32.961	0.217	0.186
-329.187	43.738	0.197	0.178
-328.172	-17.169	-0.116	0.072
-327.158	800.000	0.124	-0.445
-326.143	-200.000	-0.004	-0.198
-325.129	-7.331	-0.024	-0.016
-324.114	-173.849	0.108	-0.003
-323.099	302.671	0.058	-0.105
-322.085	162.745	-0.107	0.148
-321.070	461.914	0.101	-0.222
-320.056	-123.045	-0.250	0.040
-319.041	-106.293	0.089	-0.020
-318.026	-200.000	0.022	0.224
-317.012	800.000	0.038	0.137
-315.997	267.032	0.025	-0.042
-314.983	406.778	-0.104	0.217
-313.968	-72.804	0.202	-0.074
-312.953	17.139	-0.131	-0.102
-311.939	-54.904	0.122	0.055
-310.924	413.524	0.049	-0.104
-309.910	640.088	-0.047	0.117
-308.895	-63.450	0.198	0.081
-307.880	-169.358	0.435	-0.016
-306.866	180.624	-0.146	-0.212
-305.851	91.172	-0.064	-0.071
-304.837	239.410	-0.142	-0.233
-303.822	-200.000	-0.000	-0.105
-302.807	-77.494	0.117	0.040
-301.793	-68.560	-0.270	0.103
-300.778	-146.607	0.186	-0.016
-299.764	16.458	-0.174	-0.136
-298.749	91.137	-0.089	0.098
-297.735	-91.580	0.115	0.032
-296.720	-200.000	0.001	-0.069
-295.705	-72.411	-0.226	0.082
-294.691	-36.264	-0.343	-0.182
-293.676	204.086	0.140	0.214
-292.662	-115.768	0.163	0.030
-291.647	26.076	-0.097	0.080
-290.632	-83.082	0.196	-0.062
-289.618	-200.000	-0.019	0.095
-288.603	-36.083	0.185	-0.098
-287.589	89.392	-0.170	0.187
-286.574	-200.000	0.017	-0.226
-285.559	-200.000	-0.014	-0.064
-284.545	-50.445	0.252	-0.117
-283.530	572.523	0.076	-0.183
-282.516	-44.119	-0.131	0.065
-281.501	-108.436	-0.368	0.078
-280.486	180.215	0.175	-0.253
-279.472	2.136	-0.065	-0.046
-278.457	80.944	-0.164	0.175
-277.443	35.137	-0.240	-0.207
-276.428	-200.000	-0.022	0.204
-275.413	341.199	-0.156	0.301
-274.399	-172.084	-0.106	-0.003
-273.384	48.387	0.147	-0.135
-272.370	-21.019	-0.155	0.093
-271.355	-47.228	0.313	-0.150
-270.340	558.775	-0.067	0.158
-269.326	-70.939	-0.016	-0.006
-268.311	65.787	0.169	0.169
-267.297	461.209	-0.098	0.216
-266.282	-152.010	0.304	0.022
-265.267	800.000	0.075	0.259
-264.253	64.357	0.101	0.101
-263.238	5.099	-0.182	0.132
-262.224	-200.000	-0.036	-0.362
-261.209	-164.916	-0.278	0.012
-260.195	-119.138	0.273	0.047
-259.180	-59.580	-0.181	0.077
-258.165	217.141	-0.151	-0.237
-257.151	-65.002	-0.086	0.034
-256.136	-65.331	-0.295	-0.117
-255.122	393.410	-0.148	-0.303
-254.107	-160.359	0.366	-0.019
-253.092	800.000	0.024	-0.079
-252.078	-200.000	0.002	-0.150
-251.063	-200.000	0.003	0.076
-250.049	180.977	-0.201	-0.292
-249.034	-200.000	-0.001	-0.143
-248.019	172.754	0.289	-0.409
-247.005	223.242	-0.229	-0.364
-245.990	-180.644	-0.064	-0.001
-244.976	279.841	0.120	0.210
-243.961	-200.000	0.059	0.289
-242.946	-33.832	-0.119	0.064
-241.932	137.992	-0.063	0.081
-240.917	-47.554	0.084	-0.040
-239.903	-8.955	0.299	0.197
-238.888	-200.000	-0.098	0.452
-237.873	765.260	-0.080	-0.214
-236.859	172.110	0.073	0.103
-235.844	4.532	-0.308	0.222
-234.830	-200.000	0.042	-0.198
-233.815	80.765	-0.102	0.108
-232.800	104.362	0.166	0.192
-231.786	76.920	-0.104	-0.109
-230.771	-200.000	0.017	0.123
-229.757	354.899	-0.219	0.428
-228.742	514.337	-0.045	-0.104
-227.727	800.000	0.044	-0.186
-226.713	399.435	0.045	-0.093
-225.698	132.896	0.015	0.020
-224.684	-17.622	0.237	-0.146
-223.669	-200.000	0.014	-0.089
-222.655	-123.189	0.158	0.025
-221.640	-2.624	0.093	0.064
-220.625	-49.666	-0.090	0.042
-219.611	-46.296	-0.135	-0.065
-218.596	-67.351	0.185	0.072
-217.582	-200.000	-0.063	0.342
-216.567	287.310	0.200	0.355
-215.552	-17.778	-0.200	-0.124
-214.538	581.089	0.092	0.223
-213.523	-200.000	0.022	-0.215
-212.509	-200.000	0.052	-0.274
-211.494	-196.259	0.300	-0.002
-210.479	-141.672	-0.251	0.025
-209.465	-75.451	0.400	-0.140
-208.450	-200.000	-0.048	0.290
-207.436	-67.649	-0.369	-0.142
-206.421	800.000	-0.080	-0.241
-205.406	93.550	0.152	0.169
-204.392	-139.266	0.103	-0.011
-203.377	9.334	0.044	0.033
-202.363	-112.239	0.266	-0.052
-201.348	-15.219	-0.015	0.009
-200.333	-69.956	0.392	0.147
-199.319	146.823	-0.225	0.297
-198.304	800.000	-0.073	0.224
-197.290	388.492	-0.149	0.304
-196.275	800.000	0.030	0.087
-195.260	9.269	-0.133	0.099
-194.246	-21.406	0.150	0.090
-193.231	308.094	-0.137	0.252
-192.217	362.225	0.064	0.126
-191.202	-193.212	0.132	-0.001
-190.187	-46.260	0.432	-0.209
-189.173	-200.000	0.000	0.081
-188.158	-147.194	0.164	0.014
-187.144	9.176	0.214	0.159
-186.129	705.437	-0.069	0.180
-185.114	-200.000	-0.073	-0.346
-184.100	-200.000	-0.036	-0.255
-183.085	-111.836	0.241	0.048
-182.071	-56.447	-0.287	0.125
-181.056	-127.789	0.270	0.038
-180.042	-200.000	0.032	0.345
-179.027	-75.727	0.407	-0.142
-178.012	-41.594	0.186	-0.094
-176.998	-30.199	0.175	0.097
-175.983	13.523	-0.141	0.107
-174.969	-200.000	0.055	-0.377
-173.954	-200.000	-0.031	-0.265
-172.939	527.890	0.081	-0.187
-171.925	-82.749	0.327	0.104
-170.910	79.800	-0.243	0.257
-169.896	-62.135	-0.129	0.053
-168.881	-200.000	-0.039	-0.408
-167.866	800.000	-0.061	0.252
-166.852	-75.710	-0.168	0.059
-165.837	-200.000	0.034	-0.152
-164.823	-137.704	-0.160	0.018
-163.808	-103.441	0.098	0.023
-162.793	-200.000	0.020	0.368
-161.779	800.000	-0.052	-0.143
-160.764	88.873	-0.176	-0.192
-159.750	-200.000	0.055	-0.339
-158.735	146.767	-0.090	0.118
-157.720	-166.965	-0.286	-0.011
-156.706	112.402	0.178	-0.212
-155.691	-34.215	0.317	0.171
-154.677	233.667	-0.064	0.103
-153.662	132.344	0.109	0.138
-152.647	276.108	-0.102	-0.178
-151.633	-122.077	-0.059	-0.010
-150.618	93.576	-0.030	-0.034
-149.604	800.000	-0.035	0.123
-148.589	-5.799	0.198	0.133
-147.574	-75.841	-0.331	-0.115
-146.560	-132.057	0.258	-0.033
-145.545	-200.000	0.001	0.008
-144.531	-175.487	-0.318	0.008
-143.516	-52.491	0.178	0.081
-142.502	-94.667	-0.343	-0.091
-141.487	-200.000	-0.009	0.124
-140.472	-123.936	0.115	0.018
-139.458	14.358	-0.135	0.103
-138.443	-21.992	0.093	-0.055
-137.429	-91.347	-0.265	0.074
-136.414	-200.000	-0.009	-0.175
-135.399	132.298	0.190	0.240
-134.385	285.766	0.122	0.215
-133.370	-140.620	0.223	0.023
-132.356	156.696	-0.109	0.147
-131.341	-200.000	-0.020	0.115
-130.326	800.000	0.018	0.067
-129.312	360.180	0.140	-0.274
-128.297	483.826	-0.070	0.155
-127.283	800.000	0.108	0.324
-126.268	-183.933	-0.258	-0.004
-125.253	-94.146	-0.165	-0.044
-124.239	403.134	0.121	0.250
-123.224	428.374	-0.103	-0.218
-122.210	587.892	0.048	-0.116
