DTS Sentinel unit serial number:	SN413079Multiplexer serial number:	ORYXHardware model number:	OX4-SRSoftware version number:	ORYX F/W v4.00 Oryx Data Collector v3.7.2.0data status	okinstallation	princeton_trtdifferential loss correction	single-endedforward channel	channel 2reverse channel	N/Adate	2019/09/18time	20:27:34forward acquisition time	60.00reverse acquisition time	0.00gamma	496.2192k internal	0.2336k external	0.2336temperature offset calibration	1.0036default loss term (dB/km)	0.3790temperature slope calibration	1.0000multiplexer offset coefficient	1.0000multiplexer slope coefficient	1.0000fibre end	0.00T internal ref (°C)	28.44T ext. ref 1 (°C)	0.98T ext. ref 2 (°C)	19.25length (m)	temperature (°C)	Stokes	anti-Stokes-747.200	80.744	-0.082	-0.089
-746.185	800.000	0.094	0.264
-745.171	271.612	-0.206	0.365
-744.156	777.640	-0.095	0.260
-743.142	-101.211	0.176	-0.043
-742.127	-200.000	0.006	0.096
-741.112	-96.017	-0.152	0.041
-740.098	-200.000	-0.056	0.373
-739.083	182.681	-0.149	-0.220
-738.069	-200.000	0.090	0.601
-737.054	-92.649	-0.175	-0.049
-736.039	-16.030	-0.374	-0.239
-735.025	-42.492	0.297	-0.152
-734.010	3.126	-0.068	0.050
-732.996	254.392	-0.134	-0.230
-731.981	-77.735	-0.309	0.107
-730.966	-10.895	-0.221	0.146
-729.952	-40.368	-0.110	-0.057
-728.937	-200.000	-0.048	-0.297
-727.923	68.643	-0.210	0.216
-726.908	-102.592	-0.134	-0.032
-725.894	36.040	-0.158	0.139
-724.879	509.030	-0.124	0.289
-723.864	94.894	-0.100	-0.114
-722.850	-194.030	0.162	0.001
-721.835	-200.000	-0.007	0.048
-720.821	582.371	-0.027	0.067
-719.806	276.334	-0.181	0.323
-718.791	800.000	-0.108	-0.307
-717.777	86.029	0.147	-0.162
-716.762	-200.000	0.051	-0.416
-715.748	145.229	-0.135	-0.181
-714.733	-58.289	0.170	-0.074
-713.718	170.609	-0.044	0.064
-712.704	-200.000	0.008	0.121
-711.689	-81.425	0.078	-0.026
-710.675	-96.885	0.339	-0.089
-709.660	-35.783	-0.620	0.337
-708.645	-166.291	-0.404	0.017
-707.631	800.000	0.030	0.123
-706.616	-120.402	0.406	-0.069
-705.602	-66.633	0.199	-0.079
-704.587	-54.496	0.139	-0.063
-703.572	111.782	-0.099	0.119
-702.558	58.766	-0.227	0.223
-701.543	-200.000	-0.002	0.088
-700.529	-74.936	-0.140	0.050
-699.514	40.102	0.157	0.141
-698.499	307.521	0.233	-0.435
-697.485	-145.758	-0.268	-0.024
-696.470	-52.178	0.292	0.136
-695.456	36.370	-0.252	-0.223
-694.441	1.879	0.293	-0.212
-693.426	-137.811	-0.193	-0.022
-692.412	-200.000	0.006	0.114
-691.397	13.486	0.208	0.162
-690.383	98.523	0.179	-0.207
-689.368	227.284	0.060	0.098
-688.354	-84.447	-0.092	-0.029
-687.339	-59.021	0.177	-0.077
-686.324	-49.114	0.247	-0.118
-685.310	210.143	-0.012	-0.019
-684.295	800.000	-0.071	-0.252
-683.281	-93.179	-0.252	0.070
-682.266	-200.000	-0.069	-0.464
-681.251	-18.528	-0.337	-0.211
-680.237	-200.000	0.070	-0.417
-679.222	800.000	-0.126	-0.357
-678.208	-17.260	0.090	-0.057
-677.193	210.234	0.098	-0.154
-676.178	633.328	0.040	0.101
-675.164	-84.019	0.032	0.010
-674.149	-26.551	-0.384	0.225
-673.135	183.235	0.067	0.099
-672.120	139.753	0.130	0.171
-671.105	115.856	-0.052	-0.064
-670.091	1.739	0.218	0.158
-669.076	13.950	0.043	-0.034
-668.062	-43.322	0.082	0.042
-667.047	-186.345	-0.190	-0.003
-666.032	800.000	-0.186	-0.547
-665.018	31.904	0.130	-0.112
-664.003	-111.412	-0.388	0.079
-662.989	-22.370	-0.309	-0.187
-661.974	-119.865	0.232	-0.040
-660.959	-200.000	0.045	0.278
-659.945	-50.411	0.219	0.104
-658.930	74.992	-0.199	0.209
-657.916	-46.051	0.065	0.032
-656.901	241.223	-0.034	0.056
-655.886	-87.463	-0.282	0.086
-654.872	53.999	0.081	-0.078
-653.857	800.000	0.129	-0.375
-652.843	800.000	0.076	-0.313
-651.828	199.966	0.109	0.167
-650.814	800.000	-0.057	-0.202
-649.799	-97.388	0.136	0.035
-648.784	372.937	-0.097	-0.198
-647.770	-200.000	0.012	-0.297
-646.755	-200.000	-0.033	0.158
-645.741	168.390	-0.099	0.141
-644.726	31.401	-0.158	-0.136
-643.711	168.661	-0.272	-0.387
-642.697	-79.855	0.132	-0.045
-641.682	272.408	0.085	-0.151
-640.668	579.438	0.068	0.168
-639.653	-143.644	-0.147	-0.014
-638.638	45.366	-0.164	-0.151
-637.624	39.216	0.094	0.085
-636.609	63.829	-0.086	0.087
-635.595	-77.618	-0.226	0.078
-634.580	296.381	-0.085	0.156
-633.565	-200.000	-0.053	0.233
-632.551	-200.000	-0.005	0.266
-631.536	151.405	-0.114	-0.155
-630.522	-32.476	0.159	-0.088
-629.507	-18.012	0.079	-0.050
-628.492	43.037	-0.068	0.062
-627.478	800.000	-0.060	-0.235
-626.463	-176.345	-0.140	-0.004
-625.449	69.822	0.096	-0.099
-624.434	539.804	-0.068	-0.162
-623.419	-122.836	-0.307	-0.050
-622.405	394.335	0.123	-0.255
-621.390	105.712	-0.213	-0.252
-620.376	214.464	0.112	0.178
-619.361	-75.470	0.112	-0.040
-618.346	-107.018	-0.250	0.055
-617.332	-200.000	0.090	-0.661
-616.317	636.041	-0.070	0.177
-615.303	-154.845	0.227	0.015
-614.288	156.282	-0.085	-0.117
-613.273	-200.000	0.021	-0.183
-612.259	-200.000	-0.041	-0.347
-611.244	-28.691	0.163	0.094
-610.230	-200.000	-0.014	0.217
-609.215	-200.000	-0.008	0.080
-608.201	-180.659	0.265	0.005
-607.186	47.423	-0.148	0.137
-606.171	425.894	0.048	0.103
-605.157	-19.257	0.197	0.122
-604.142	-34.270	0.104	0.057
-603.128	-116.498	-0.187	-0.034
-602.113	-132.149	-0.094	0.012
-601.098	335.201	-0.075	-0.146
-600.084	-62.197	-0.204	-0.085
-599.069	-62.644	0.155	0.064
-598.055	174.079	0.123	0.178
-597.040	-17.879	-0.261	0.163
-596.025	-154.757	0.268	0.018
-595.011	229.198	-0.149	0.242
-593.996	25.284	0.040	0.033
-592.982	800.000	0.069	0.193
-591.967	800.000	-0.051	0.216
-590.952	-43.002	0.276	-0.140
-589.938	800.000	0.115	0.395
-588.923	552.669	0.057	0.137
-587.909	-48.883	-0.240	-0.115
-586.894	800.000	0.051	-0.195
-585.879	-65.367	-0.444	0.178
-584.865	14.856	0.131	0.102
-583.850	-60.914	-0.183	-0.077
-582.836	170.091	0.041	-0.059
-581.821	-31.400	-0.230	0.129
-580.806	-200.000	0.004	0.095
-579.792	-151.303	0.224	-0.017
-578.777	800.000	-0.059	0.165
-577.763	495.389	-0.069	0.157
-576.748	-200.000	-0.004	0.076
-575.733	373.497	0.198	-0.401
-574.719	-200.000	-0.035	-0.235
-573.704	-117.590	0.265	-0.048
-572.690	-200.000	-0.043	-0.211
-571.675	230.870	-0.056	-0.091
-570.661	235.522	-0.064	-0.105
-569.646	565.270	0.038	0.093
-568.631	471.825	0.052	-0.117
-567.617	113.567	-0.132	0.160
-566.602	-200.000	-0.051	-0.421
-565.588	-98.651	0.357	0.091
-564.573	-200.000	0.010	-0.102
-563.558	-18.784	-0.193	-0.120
-562.544	-200.000	0.018	0.103
-561.529	-44.932	0.184	-0.092
-560.515	-89.437	-0.307	-0.090
-559.500	110.939	-0.261	-0.314
-558.485	800.000	0.068	-0.212
-557.471	1.627	-0.360	0.258
-556.456	-61.296	-0.157	-0.066
-555.442	253.460	0.219	0.372
-554.427	-148.159	-0.081	0.007
-553.412	506.824	-0.067	-0.155
-552.398	-24.637	0.197	0.117
-551.383	-4.785	0.079	0.054
-550.369	24.197	-0.053	0.043
-549.354	-179.958	0.157	0.003
-548.339	-121.118	0.036	-0.006
-547.325	-200.000	-0.031	-0.167
-546.310	-4.749	-0.195	0.134
-545.296	-200.000	-0.006	-0.269
-544.281	445.636	0.037	0.081
-543.266	-3.956	-0.057	0.040
-542.252	90.804	-0.270	0.301
-541.237	-17.282	-0.204	0.128
-540.223	-80.440	0.454	-0.151
-539.208	-5.578	0.146	-0.100
-538.193	-143.863	-0.171	0.016
-537.179	61.809	0.409	-0.406
-536.164	143.540	0.056	-0.074
-535.150	800.000	0.043	-0.146
-534.135	-110.468	-0.236	-0.049
-533.121	477.733	0.046	-0.103
-532.106	800.000	-0.051	0.144
-531.091	-167.979	-0.344	-0.013
-530.077	235.494	0.041	0.068
-529.062	-100.232	0.093	-0.023
-528.048	130.468	-0.047	0.060
-527.033	-200.000	0.006	-0.160
-526.018	54.178	-0.046	-0.044
-525.004	-36.949	-0.216	0.115
-523.989	-111.680	0.052	0.011
-522.975	-186.466	-0.297	0.004
-521.960	-166.781	0.137	-0.006
-520.945	34.506	-0.376	-0.327
-519.931	-114.287	0.263	0.050
-518.916	378.717	-0.236	-0.480
-517.902	131.320	0.141	0.181
-516.887	800.000	0.053	-0.181
-515.872	-200.000	0.024	-0.150
-514.858	-110.611	-0.396	0.081
-513.843	44.783	0.172	-0.158
-512.829	8.254	0.220	-0.164
-511.814	80.371	0.031	0.033
-510.799	-17.822	-0.100	0.063
-509.785	-104.961	0.096	-0.022
-508.770	774.934	0.193	-0.524
-507.756	-47.514	-0.129	0.062
-506.741	325.283	0.058	-0.110
-505.726	-200.000	0.045	0.240
-504.712	-138.427	0.169	0.018
-503.697	-200.000	-0.007	-0.250
-502.683	117.659	0.093	-0.114
-501.668	-151.714	0.306	0.022
-500.653	12.697	0.068	0.052
-499.639	-23.491	0.175	-0.104
-498.624	800.000	0.140	-0.503
-497.610	56.829	-0.165	-0.160
-496.595	384.100	-0.139	-0.285
-495.581	-43.169	0.222	0.112
-494.566	51.221	-0.419	0.396
-493.551	122.390	-0.172	0.214
-492.537	-200.000	-0.046	0.464
-491.522	-104.149	-0.383	-0.089
-490.508	800.000	0.164	0.486
-489.493	280.238	-0.187	0.332
-488.478	137.836	-0.090	-0.117
-487.464	155.029	0.130	-0.177
-486.449	47.309	-0.179	-0.165
-485.435	-200.000	0.022	-0.232
-484.420	220.535	0.150	-0.239
-483.405	-19.369	-0.021	0.013
-482.391	-112.692	-0.487	-0.096
-481.376	-200.000	0.056	0.444
-480.362	-200.000	-0.054	0.272
-479.347	-62.528	0.137	0.057
-478.332	364.601	0.111	0.222
-477.318	239.209	0.048	0.080
-476.303	102.085	0.144	-0.168
-475.289	-200.000	0.018	0.334
-474.274	-162.991	0.171	-0.008
-473.259	-100.477	0.294	-0.072
-472.245	800.000	-0.040	0.120
-471.230	-95.077	-0.032	-0.009
-470.216	-200.000	-0.025	-0.266
-469.201	-62.157	-0.142	-0.059
-468.186	-108.230	-0.190	0.041
-467.172	-200.000	0.011	-0.223
-466.157	-48.785	0.287	0.137
-465.143	91.832	-0.210	-0.234
-464.128	384.978	-0.069	-0.141
-463.113	-38.794	0.128	0.067
-462.099	398.890	0.311	0.647
-461.084	-47.038	-0.254	-0.123
-460.070	116.308	0.075	-0.091
-459.055	208.558	0.077	-0.120
-458.040	-35.940	0.231	-0.124
-457.026	-133.971	-0.109	0.013
-456.011	-200.000	0.314	-0.000
-454.997	-95.992	-0.298	-0.079
-453.982	139.057	-0.163	0.212
-452.968	-200.000	0.004	-0.140
-451.953	800.000	-0.052	-0.226
-450.938	20.375	0.085	-0.068
-449.924	-23.890	-0.159	0.094
-448.909	-200.000	-0.048	-0.541
-447.895	355.566	0.078	0.155
-446.880	-200.000	-0.002	0.011
-445.865	-14.225	0.092	0.059
-444.851	8.099	-0.037	-0.027
-443.836	-80.119	-0.286	-0.095
-442.822	-200.000	-0.019	0.202
-441.807	-200.000	0.027	0.410
-440.792	-200.000	-0.005	-0.147
-439.778	800.000	0.088	0.353
-438.763	-23.673	-0.239	0.142
-437.749	461.570	0.118	0.261
-436.734	-3.448	-0.109	0.075
-435.719	-200.000	0.028	-0.124
-434.705	99.616	0.185	-0.212
-433.690	-130.631	0.304	-0.041
-432.676	173.069	-0.055	-0.078
-431.661	-111.284	-0.220	-0.045
-430.646	184.304	-0.043	-0.063
-429.632	130.176	0.047	-0.060
-428.617	359.163	0.018	0.036
-427.603	-90.110	0.354	-0.102
-426.588	-23.681	0.238	-0.142
-425.573	-200.000	-0.044	0.274
-424.559	-4.547	0.119	0.081
-423.544	-200.000	0.004	-0.057
-422.530	-128.226	-0.286	-0.040
-421.515	-18.765	0.090	0.056
-420.500	40.518	0.300	-0.268
-419.486	-66.169	0.251	-0.099
-418.471	-74.837	0.219	-0.078
-417.457	60.630	0.116	-0.114
-416.442	497.674	0.056	0.128
-415.428	-156.395	-0.210	0.013
-414.413	-194.076	0.038	0.000
-413.398	28.960	0.127	-0.107
-412.384	-156.269	-0.074	-0.005
-411.369	-149.147	-0.074	0.006
-410.355	140.212	0.179	-0.234
-409.340	800.000	-0.026	-0.090
-408.325	-135.332	0.291	-0.035
-407.311	-165.139	-0.336	-0.015
-406.296	137.650	-0.136	0.176
-405.282	364.232	0.158	-0.314
-404.267	19.288	-0.242	0.193
-403.252	46.222	0.340	-0.312
-402.238	229.289	-0.063	-0.103
-401.223	-94.475	0.240	0.065
-400.209	800.000	-0.103	-0.285
-399.194	-200.000	0.005	-0.229
-398.179	540.207	-0.090	-0.212
-397.165	399.560	0.070	-0.146
-396.150	-200.000	0.008	0.047
-395.136	800.000	-0.062	0.205
-394.121	-58.456	-0.390	0.168
-393.106	35.720	-0.196	0.171
-392.092	474.690	-0.074	0.165
-391.077	-100.141	0.121	-0.030
-390.063	284.725	0.105	-0.187
-389.048	-116.781	-0.094	-0.017
-388.033	258.046	-0.059	0.101
-387.019	-200.000	-0.045	0.288
-386.004	-30.535	-0.360	-0.202
-384.990	-200.000	0.004	0.226
-383.975	-65.387	-0.003	-0.001
-382.960	77.319	0.158	0.166
-381.946	301.439	0.027	0.049
-380.931	-72.459	0.205	0.075
-379.917	-28.284	0.253	0.145
-378.902	-200.000	-0.040	0.205
-377.888	-89.832	-0.408	0.118
-376.873	-93.299	0.099	0.027
-375.858	-149.046	-0.104	-0.008
-374.844	-131.554	0.196	0.026
-373.829	-86.405	0.262	-0.080
-372.815	800.000	-0.076	0.292
-371.800	221.476	0.124	0.197
-370.785	70.489	0.161	0.165
-369.771	-8.463	0.363	-0.242
-368.756	-81.059	-0.161	0.053
-367.742	55.252	-0.068	0.065
-366.727	-16.812	0.166	0.104
-365.712	-153.920	0.077	-0.005
-364.698	-138.826	0.167	0.018
-363.683	-200.000	0.017	0.190
-362.669	65.911	-0.085	0.085
-361.654	-90.682	0.539	-0.154
-360.639	-200.000	-0.068	-0.444
-359.625	-200.000	-0.041	-0.407
-358.610	349.123	-0.131	0.255
-357.596	19.760	0.081	-0.064
-356.581	520.230	0.103	-0.238
-355.566	134.595	0.038	0.048
-354.552	-105.944	-0.215	-0.048
-353.537	99.548	0.119	-0.136
-352.523	720.205	-0.137	-0.359
-351.508	-81.421	-0.091	-0.030
-350.493	144.144	-0.096	0.126
-349.479	-0.810	-0.054	-0.038
-348.464	13.472	-0.058	-0.045
-347.450	-108.760	0.216	0.046
-346.435	443.693	-0.092	0.199
-345.420	-140.684	0.261	-0.027
-344.406	-200.000	-0.030	-0.219
-343.391	473.061	0.154	-0.344
-342.377	-14.522	0.308	-0.196
-341.362	378.759	-0.053	0.107
-340.348	-9.675	-0.393	0.259
-339.333	-73.667	0.115	-0.041
-338.318	89.795	0.108	-0.119
-337.304	407.889	0.061	-0.127
-336.289	-108.747	-0.339	-0.072
-335.275	-33.557	-0.135	0.074
-334.260	255.835	-0.169	0.287
-333.245	107.091	0.266	-0.312
-332.231	363.718	0.099	-0.197
-331.216	18.792	0.207	-0.164
-330.202	219.972	0.217	-0.344
-329.187	-200.000	-0.023	-0.390
-328.172	-200.000	-0.021	0.258
-327.158	239.617	0.057	0.093
-326.143	-200.000	-0.012	0.210
-325.129	-200.000	-0.077	0.407
-324.114	-200.000	0.033	-0.156
-323.099	-87.429	0.188	0.056
-322.085	-3.560	0.166	0.114
-321.070	-68.303	-0.314	-0.120
-320.056	-136.810	0.252	-0.029
-319.041	639.392	-0.046	0.117
-318.026	58.669	-0.277	-0.269
-317.012	538.385	-0.065	0.153
-315.997	229.412	0.154	0.249
-314.983	71.995	0.178	0.183
-313.968	-28.420	0.302	0.172
-312.953	-128.188	0.090	0.013
-311.939	800.000	-0.052	0.157
-310.924	-146.409	0.208	-0.018
-309.910	-43.469	-0.369	-0.184
-308.895	-28.642	0.231	0.131
-307.880	-4.314	0.100	-0.068
-306.866	180.114	0.109	-0.158
-305.851	245.173	-0.160	-0.265
-304.837	800.000	0.035	0.122
-303.822	120.644	0.075	-0.092
-302.807	-62.642	0.174	-0.071
-301.793	129.926	0.265	-0.335
-300.778	672.781	-0.082	-0.210
-299.764	-44.977	-0.195	0.096
-298.749	92.300	0.194	0.216
-297.735	-200.000	-0.006	0.118
-296.720	295.308	-0.125	-0.225
-295.705	652.168	0.037	-0.094
-294.691	-100.585	-0.162	-0.039
-293.676	323.611	-0.104	0.196
-292.662	515.966	-0.154	0.354
-291.647	597.323	-0.071	0.175
-290.632	33.137	0.165	-0.141
-289.618	-77.076	-0.303	-0.104
-288.603	59.789	0.125	-0.122
-287.589	-200.000	0.031	-0.164
-286.574	-146.227	-0.105	0.009
-285.559	-94.753	0.240	-0.064
-284.545	-23.155	-0.257	0.153
-283.530	-131.628	0.083	0.011
-282.516	175.549	-0.307	-0.439
-281.501	10.038	-0.101	-0.075
-280.486	-10.641	0.088	0.057
-279.472	-73.899	0.192	0.069
-278.457	160.978	-0.077	0.106
-277.443	138.955	0.100	0.129
-276.428	-200.000	0.026	-0.179
-275.413	-87.677	-0.217	0.065
-274.399	-200.000	-0.025	0.190
-273.384	-60.687	-0.065	0.027
-272.370	-27.304	0.103	-0.059
-271.355	-200.000	-0.021	-0.311
-270.340	3.613	-0.126	-0.090
-269.326	-78.074	0.165	-0.056
-268.311	800.000	0.057	0.220
-267.297	-60.584	-0.363	0.152
-266.282	-69.346	-0.125	-0.047
-265.267	-200.000	0.027	-0.234
-264.253	-183.576	0.368	0.006
-263.238	-200.000	0.048	-0.292
-262.224	-136.532	-0.088	0.010
-261.209	308.629	0.052	0.096
-260.195	54.693	0.165	-0.157
-259.180	-200.000	0.022	0.147
-258.165	-200.000	0.008	-0.094
-257.151	-200.000	0.013	-0.244
-256.136	43.706	-0.303	0.273
-255.122	152.928	0.274	0.369
-254.107	-88.346	-0.308	-0.091
-253.092	800.000	-0.068	0.194
-252.078	-70.557	0.230	0.086
-251.063	-75.778	-0.173	0.060
-250.049	-200.000	-0.022	0.125
-249.034	79.586	-0.148	-0.156
-248.019	-63.295	-0.114	0.046
-247.005	-147.158	0.059	-0.005
-245.990	-48.147	-0.266	0.127
-244.976	-150.633	0.281	0.021
-243.961	-200.000	0.067	0.291
-242.946	800.000	-0.013	-0.054
-241.932	120.282	0.346	-0.422
-240.917	490.822	-0.120	-0.271
-239.903	62.567	-0.037	-0.036
-238.888	595.559	0.060	0.146
-237.873	122.708	0.173	0.213
-236.859	70.929	-0.051	0.052
-235.844	113.729	0.154	0.184
-234.830	46.243	-0.134	-0.122
-233.815	-179.963	-0.488	0.010
-232.800	159.589	0.072	0.098
-231.786	258.796	0.113	0.192
-230.771	192.811	0.177	0.264
-229.757	-57.143	-0.089	0.039
-228.742	-12.899	0.057	-0.037
-227.727	33.800	0.070	0.060
-226.713	-28.975	-0.173	0.098
-225.698	92.647	0.239	-0.265
-224.684	-200.000	0.030	0.248
-223.669	-200.000	0.003	-0.031
-222.655	256.086	-0.111	-0.187
-221.640	-115.004	-0.113	-0.021
-220.625	-145.380	0.210	0.019
-219.611	-45.014	-0.106	0.052
-218.596	99.457	0.096	-0.109
-217.582	800.000	-0.035	0.105
-216.567	-77.964	-0.075	0.026
-215.552	-179.869	0.309	-0.007
-214.538	150.898	0.204	0.272
-213.523	-163.624	-0.306	-0.014
-212.509	158.115	0.260	0.354
-211.494	-86.816	-0.226	-0.068
-210.479	-17.441	0.149	0.092
-209.465	33.505	-0.228	0.195
-208.450	502.311	-0.105	-0.238
-207.436	506.685	-0.208	0.473
-206.421	20.085	0.238	0.189
-205.406	800.000	-0.081	0.227
-204.392	428.828	0.095	-0.202
-203.377	77.801	-0.131	-0.137
-202.363	123.236	0.079	-0.097
-201.348	210.033	-0.324	0.500
-200.333	-106.824	0.318	0.069
-199.319	-102.482	0.084	-0.020
-198.304	-56.999	-0.272	0.118
-197.290	351.733	0.136	0.266
-196.275	-200.000	0.058	0.387
-195.260	-83.217	0.113	0.036
-194.246	-200.000	0.003	0.085
-193.231	-200.000	-0.039	0.286
-192.217	3.974	-0.054	-0.039
-191.202	238.260	-0.074	0.121
-190.187	-56.733	-0.285	-0.124
-189.173	230.282	-0.142	0.228
-188.158	33.014	0.075	-0.064
-187.144	579.895	0.071	0.172
-186.129	238.816	0.090	0.147
-185.114	138.701	-0.062	0.081
-184.100	177.662	-0.093	-0.133
-183.085	-30.000	-0.171	0.095
-182.071	15.381	-0.214	-0.165
-181.056	-154.289	0.275	-0.018
-180.042	-103.606	-0.103	-0.024
-179.027	-200.000	-0.020	0.347
-178.012	-200.000	0.016	0.170
-176.998	-152.934	-0.190	-0.013
-175.983	-200.000	0.032	0.240
-174.969	-19.980	0.050	-0.030
-173.954	-110.700	-0.228	0.046
-172.939	88.253	-0.025	-0.027
-171.925	-200.000	-0.005	-0.185
-170.910	-124.223	0.308	-0.047
-169.896	-121.231	0.098	0.016
-168.881	-70.378	0.163	-0.061
-167.866	800.000	0.045	-0.155
-166.852	13.891	-0.085	-0.065
-165.837	511.156	-0.160	-0.367
-164.823	655.749	0.111	0.280
-163.808	-143.244	0.191	0.018
-162.793	800.000	-0.129	-0.366
-161.779	-119.174	0.082	-0.014
-160.764	800.000	-0.032	0.107
-159.750	-111.377	-0.320	-0.064
-158.735	800.000	-0.036	0.137
-157.720	-93.014	-0.109	-0.030
-156.706	-7.409	0.252	0.167
-155.691	180.837	0.122	-0.176
-154.677	507.028	-0.175	0.398
-153.662	9.900	-0.072	0.053
-152.647	202.794	-0.106	0.161
-151.633	-200.000	-0.021	0.256
-150.618	-200.000	-0.005	0.071
-149.604	741.459	0.087	0.228
-148.589	800.000	-0.095	-0.259
-147.574	-200.000	-0.005	0.137
-146.560	422.436	-0.133	-0.280
-145.545	31.818	0.241	-0.204
-144.531	92.154	0.014	0.016
-143.516	-200.000	0.053	0.384
-142.502	224.433	0.031	0.049
-141.487	20.048	0.276	0.218
-140.472	-119.844	-0.144	-0.024
-139.458	95.024	0.125	-0.140
-138.443	191.764	-0.052	0.077
-137.429	240.574	0.139	0.228
-136.414	132.375	0.126	-0.160
-135.399	0.687	0.318	0.223
-134.385	-200.000	-0.051	-0.252
-133.370	-200.000	-0.020	0.290
-132.356	-200.000	-0.031	0.423
-131.341	-119.956	0.153	-0.026
-130.326	800.000	-0.110	0.337
-129.312	-62.961	0.180	-0.073
-128.297	-134.497	-0.257	0.031
-127.283	-23.120	-0.237	-0.140
-126.268	199.417	0.275	-0.413
-125.253	-66.164	-0.272	-0.106
-124.239	81.208	-0.177	-0.187
-123.224	13.233	-0.296	0.225
-122.210	160.163	0.275	0.375
-121.195	-200.000	0.038	0.369
