DTS Sentinel unit serial number:	SN413079Multiplexer serial number:	ORYXHardware model number:	OX4-SRSoftware version number:	ORYX F/W v4.00 Oryx Data Collector v3.7.2.0data status	okinstallation	princeton_trtdifferential loss correction	single-endedforward channel	channel 2reverse channel	N/Adate	2019/09/13time	16:43:35forward acquisition time	60.00reverse acquisition time	0.00gamma	496.2192k internal	0.2316k external	0.2316temperature offset calibration	1.0217default loss term (dB/km)	0.3790temperature slope calibration	1.0000multiplexer offset coefficient	1.0000multiplexer slope coefficient	1.0000fibre end	0.00T internal ref (°C)	35.00T ext. ref 1 (°C)	4.91T ext. ref 2 (°C)	29.72length (m)	temperature (°C)	Stokes	anti-Stokes-747.200	148.835	-0.116	-0.159
-746.185	19.799	-0.284	0.231
-745.171	593.046	0.030	-0.074
-744.156	-68.024	-0.154	0.061
-743.142	-68.321	0.223	-0.088
-742.127	-85.486	-0.271	0.085
-741.112	-2.572	-0.408	-0.290
-740.098	133.719	0.283	0.371
-739.083	770.251	0.085	-0.234
-738.069	800.000	-0.036	-0.120
-737.054	21.049	-0.260	0.213
-736.039	113.312	-0.122	0.150
-735.025	800.000	0.047	-0.192
-734.010	74.539	-0.211	-0.225
-732.996	702.762	-0.118	-0.316
-731.981	123.278	-0.278	-0.353
-730.966	-24.846	-0.079	-0.048
-729.952	800.000	-0.104	-0.350
-728.937	-151.252	-0.216	-0.016
-727.923	782.094	0.084	-0.232
-726.908	-200.000	-0.073	-0.588
-725.894	400.597	-0.027	0.058
-724.879	-82.094	-0.528	-0.174
-723.864	-200.000	0.002	0.021
-722.850	-63.173	-0.377	-0.157
-721.835	-129.165	0.193	0.027
-720.821	437.075	0.036	-0.080
-719.806	-111.796	-0.240	0.049
-718.791	222.250	0.218	-0.355
-717.777	-200.000	-0.004	-0.192
-716.762	-68.184	-0.260	0.103
-715.748	800.000	0.070	0.273
-714.733	-42.820	-0.130	0.067
-713.718	576.620	0.090	-0.223
-712.704	108.217	0.052	0.063
-711.689	1.232	0.084	0.061
-710.675	-60.344	-0.227	-0.098
-709.660	430.566	-0.065	-0.142
-708.645	800.000	-0.072	0.248
-707.631	-168.972	-0.081	0.003
-706.616	-67.098	0.338	-0.135
-705.602	-28.366	-0.243	-0.142
-704.587	306.587	-0.077	-0.146
-703.572	800.000	0.050	-0.144
-702.558	-35.286	-0.269	0.148
-701.543	-200.000	0.008	0.275
-700.529	746.992	-0.037	0.100
-699.514	800.000	-0.105	-0.306
-698.499	56.334	-0.295	-0.290
-697.485	-200.000	0.008	0.088
-696.470	-30.889	0.197	0.112
-695.456	800.000	0.084	0.328
-694.441	-87.216	0.230	-0.071
-693.426	-34.114	0.143	0.080
-692.412	-113.606	-0.268	-0.053
-691.397	38.232	0.179	-0.161
-690.383	800.000	-0.143	-0.399
-689.368	-100.355	-0.145	0.036
-688.354	-41.607	0.236	0.123
-687.339	63.282	0.148	-0.150
-686.324	-42.877	0.395	0.203
-685.310	75.751	0.194	0.207
-684.295	-11.632	0.116	-0.077
-683.281	-76.952	-0.226	0.080
-682.266	-52.762	0.076	-0.036
-681.251	-12.578	0.089	-0.059
-680.237	575.448	0.047	0.117
-679.222	93.515	-0.270	0.309
-678.208	-15.078	-0.278	0.180
-677.193	112.355	-0.388	0.474
-676.178	-32.910	-0.188	0.106
-675.164	-200.000	-0.017	0.293
-674.149	-114.217	0.037	-0.007
-673.135	205.912	-0.112	0.176
-672.120	-157.546	-0.072	-0.004
-671.105	102.481	-0.143	0.169
-670.091	-114.303	0.178	0.035
-669.076	319.281	-0.164	-0.315
-668.062	-90.510	0.129	-0.038
-667.047	800.000	-0.042	-0.170
-666.032	-26.684	-0.481	0.284
-665.018	154.951	-0.025	-0.035
-664.003	14.440	0.082	0.065
-662.989	29.745	0.183	-0.157
-661.974	-200.000	-0.030	-0.313
-660.959	302.547	-0.119	0.223
-659.945	-5.652	-0.206	0.143
-658.930	35.659	-0.033	-0.029
-657.916	25.558	0.041	0.034
-656.901	800.000	0.036	-0.147
-655.886	1.857	-0.084	0.061
-654.872	186.856	-0.027	-0.041
-653.857	-124.752	0.350	-0.055
-652.843	-109.979	-0.205	-0.043
-651.828	800.000	-0.009	0.039
-650.814	-200.000	0.006	-0.345
-649.799	54.080	0.153	-0.149
-648.784	-65.894	-0.164	-0.066
-647.770	-181.659	-0.257	0.005
-646.755	329.812	0.117	-0.226
-645.741	104.478	-0.102	-0.121
-644.726	-200.000	0.059	-0.458
-643.711	-200.000	0.008	0.176
-642.697	-200.000	0.002	0.206
-641.682	-200.000	-0.009	-0.274
-640.668	-37.315	-0.092	-0.050
-639.653	46.920	0.257	-0.241
-638.638	800.000	-0.048	-0.200
-637.624	-108.919	0.330	0.071
-636.609	-98.893	0.337	-0.086
-635.595	-200.000	-0.038	-0.405
-634.580	-200.000	-0.063	-0.344
-633.565	-83.105	-0.204	-0.066
-632.551	30.275	0.329	0.283
-631.536	800.000	-0.043	0.136
-630.522	-39.903	0.180	0.095
-629.507	800.000	0.016	-0.045
-628.492	291.140	0.142	-0.260
-627.478	-44.301	-0.277	-0.140
-626.463	-200.000	-0.025	-0.346
-625.449	-127.918	0.260	-0.038
-624.434	77.380	0.058	-0.062
-623.419	136.242	-0.113	-0.148
-622.405	56.975	-0.298	-0.293
-621.390	184.517	0.193	0.288
-620.376	-200.000	-0.021	-0.156
-619.361	92.739	-0.202	-0.230
-618.346	-6.169	0.113	-0.078
-617.332	-14.385	-0.291	-0.189
-616.317	-122.769	0.241	-0.039
-615.303	-139.874	-0.186	0.020
-614.288	-200.000	-0.034	-0.177
-613.273	-194.193	-0.103	0.001
-612.259	-200.000	0.068	-0.418
-611.244	-200.000	0.014	-0.287
-610.230	305.810	0.062	-0.116
-609.215	291.100	0.229	-0.420
-608.201	16.471	0.134	-0.107
-607.186	-168.401	-0.308	-0.012
-606.171	-200.000	0.017	0.153
-605.157	63.550	-0.141	-0.143
-604.142	105.318	0.138	0.165
-603.128	-200.000	-0.027	-0.141
-602.113	800.000	-0.023	0.064
-601.098	-200.000	-0.007	0.543
-600.084	554.847	-0.122	0.296
-599.069	-200.000	0.027	0.248
-598.055	800.000	-0.028	0.116
-597.040	172.826	-0.155	-0.225
-596.025	297.624	-0.158	0.292
-595.011	-1.105	0.203	-0.145
-593.996	-37.665	-0.513	0.275
-592.982	-200.000	0.018	0.394
-591.967	-200.000	-0.052	0.279
-590.952	-14.199	-0.091	0.059
-589.938	111.289	0.089	-0.107
-588.923	-111.696	-0.273	-0.056
-587.909	-12.507	0.117	-0.077
-586.894	-80.051	0.110	0.037
-585.879	-200.000	-0.033	0.273
-584.865	800.000	0.061	0.237
-583.850	12.046	-0.064	-0.050
-582.836	-200.000	0.010	-0.176
-581.821	-92.546	0.055	-0.015
-580.806	6.407	-0.100	0.075
-579.792	-108.033	0.064	0.014
-578.777	-141.312	-0.279	-0.029
-577.763	800.000	-0.040	0.122
-576.748	-200.000	0.006	0.052
-575.733	-200.000	0.089	-0.425
-574.719	16.089	-0.192	0.152
-573.704	-200.000	0.009	0.072
-572.690	73.242	0.115	-0.122
-571.675	271.431	-0.034	-0.061
-570.661	-144.544	-0.169	0.016
-569.646	70.099	-0.018	0.019
-568.631	-81.608	-0.094	0.031
-567.617	44.648	0.207	0.191
-566.602	111.175	0.090	-0.109
-565.588	-38.584	0.202	-0.107
-564.573	-110.448	0.227	0.047
-563.558	-16.256	-0.188	-0.120
-562.544	-65.849	0.093	-0.038
-561.529	279.304	-0.065	-0.117
-560.515	-0.858	0.260	-0.185
-559.500	69.842	-0.147	0.152
-558.485	121.401	-0.170	-0.212
-557.471	-98.830	0.143	-0.037
-556.456	-166.503	0.148	0.006
-555.442	83.904	0.131	-0.144
-554.427	-160.555	-0.192	-0.010
-553.412	11.099	-0.262	0.202
-552.398	800.000	-0.047	-0.170
-551.383	668.775	-0.150	-0.389
-550.369	138.319	-0.074	-0.097
-549.354	800.000	-0.082	0.264
-548.339	-66.556	-0.245	0.098
-547.325	-37.544	-0.040	-0.022
-546.310	343.436	-0.210	-0.414
-545.296	-15.044	-0.299	-0.192
-544.281	570.026	-0.114	0.279
-543.266	198.323	0.076	0.118
-542.252	276.218	0.158	0.282
-541.237	800.000	-0.057	-0.250
-540.223	-19.829	-0.185	0.115
-539.208	349.180	-0.062	-0.123
-538.193	-73.510	0.173	0.064
-537.179	800.000	0.024	0.091
-536.164	-139.689	0.267	-0.029
-535.150	-47.233	0.132	0.065
-534.135	224.550	-0.172	-0.280
-533.121	-107.300	0.086	0.019
-532.106	-119.141	-0.067	-0.012
-531.091	437.109	-0.129	0.282
-530.077	-159.957	0.179	-0.010
-529.062	-143.700	0.266	-0.025
-528.048	127.541	-0.098	-0.126
-527.033	29.215	0.191	0.163
-526.018	282.296	-0.099	-0.179
-525.004	711.000	-0.035	0.094
-523.989	174.333	0.109	-0.159
-522.975	-71.626	0.283	-0.106
-521.960	121.927	-0.048	0.060
-520.945	-200.000	-0.011	0.154
-519.931	800.000	0.006	-0.021
-518.916	161.770	0.201	-0.282
-517.902	800.000	0.067	-0.224
-516.887	-200.000	0.030	0.207
-515.872	16.052	-0.153	-0.121
-514.858	-165.300	0.298	0.013
-513.843	60.622	-0.177	-0.176
-512.829	-61.805	0.377	0.158
-511.814	-65.796	0.309	0.124
-510.799	-106.545	-0.327	-0.073
-509.785	-8.802	0.273	0.184
-508.770	81.873	-0.238	0.259
-507.756	6.093	-0.120	0.089
-506.741	426.272	-0.075	0.163
-505.726	-139.908	0.010	-0.001
-504.712	-88.851	0.113	0.034
-503.697	-66.044	-0.255	0.102
-502.683	-154.641	0.038	-0.003
-501.668	-185.661	-0.243	0.004
-500.653	-32.531	-0.640	-0.358
-499.639	55.936	0.085	-0.082
-498.624	152.724	0.212	-0.291
-497.610	-69.494	-0.348	0.134
-496.595	-41.470	-0.217	-0.112
-495.581	-200.000	0.043	0.250
-494.566	270.380	0.039	0.069
-493.551	104.760	-0.110	-0.130
-492.537	-167.662	0.174	0.007
-491.522	112.649	0.256	0.311
-490.508	-152.939	0.127	0.009
-489.493	155.652	-0.107	-0.148
-488.478	800.000	-0.109	-0.431
-487.464	-109.242	-0.113	-0.024
-486.449	-200.000	-0.056	0.404
-485.435	-200.000	0.321	0.000
-484.420	800.000	-0.103	0.353
-483.405	800.000	-0.068	-0.280
-482.391	-128.347	-0.019	0.003
-481.376	-200.000	0.024	-0.307
-480.362	129.958	-0.121	-0.155
-479.347	342.705	-0.198	-0.389
-478.332	800.000	-0.041	0.173
-477.318	218.176	0.190	0.304
-476.303	124.143	-0.204	0.257
-475.289	-115.303	0.157	0.030
-474.274	-35.611	0.067	0.036
-473.259	-114.450	-0.322	0.062
-472.245	15.008	-0.235	-0.184
-471.230	-103.437	-0.271	-0.064
-470.216	-72.759	0.084	-0.031
-469.201	-127.022	-0.268	0.039
-468.186	-200.000	0.035	-0.240
-467.172	-73.668	-0.526	-0.192
-466.157	107.018	0.230	-0.273
-465.143	-11.438	0.126	0.083
-464.128	186.474	0.118	-0.175
-463.113	159.066	0.181	-0.253
-462.099	324.427	0.226	-0.433
-461.084	15.199	-0.060	0.047
-460.070	576.917	-0.047	-0.115
-459.055	800.000	-0.072	0.243
-458.040	-50.196	-0.116	-0.055
-457.026	-86.586	-0.167	-0.051
-456.011	91.092	0.104	0.117
-454.997	-200.000	0.021	-0.191
-453.982	-84.894	0.189	0.059
-452.968	347.894	-0.010	-0.021
-451.953	257.922	0.108	0.187
-450.938	-141.832	-0.058	-0.006
-449.924	-127.541	-0.183	-0.027
-448.909	-200.000	0.027	-0.288
-447.895	-20.467	-0.199	-0.123
-446.880	4.633	-0.052	0.038
-445.865	-164.723	0.144	0.006
-444.851	-77.021	0.219	-0.077
-443.836	-141.121	0.547	0.056
-442.822	-200.000	0.013	0.225
-441.807	-52.003	-0.243	0.113
-440.792	-200.000	0.037	0.203
-439.778	-34.469	-0.173	0.095
-438.763	-143.213	-0.132	-0.013
-437.749	91.602	-0.166	-0.187
-436.734	-58.371	0.202	0.088
-435.719	542.147	0.056	0.135
-434.705	11.858	0.254	0.196
-433.690	101.708	0.082	0.095
-432.676	-185.002	0.262	0.004
-431.661	99.746	0.150	-0.174
-430.646	134.162	0.184	-0.239
-429.632	19.632	-0.210	-0.169
-428.617	-22.470	0.406	0.246
-427.603	79.521	0.258	0.277
-426.588	-200.000	0.005	-0.144
-425.573	-128.300	-0.153	-0.022
-424.559	357.219	-0.073	0.145
-423.544	-200.000	-0.043	-0.212
-422.530	-77.044	0.203	-0.071
-421.515	-200.000	0.007	-0.186
-420.500	156.129	0.072	0.099
-419.486	233.560	-0.089	0.147
-418.471	-23.519	-0.291	0.175
-417.457	100.514	0.038	-0.044
-416.442	143.872	-0.043	0.058
-415.428	26.610	-0.146	0.122
-414.413	-200.000	0.057	0.636
-413.398	608.380	-0.184	0.460
-412.384	-101.806	-0.044	-0.011
-411.369	85.563	0.170	0.187
-410.355	34.620	-0.116	-0.101
-409.340	-94.377	0.266	0.073
-408.325	-87.246	0.243	-0.074
-407.311	141.364	-0.129	-0.171
-406.296	800.000	0.018	0.069
-405.282	205.486	0.225	-0.350
-404.267	-200.000	-0.010	-0.376
-403.252	351.424	0.139	-0.275
-402.238	-200.000	-0.012	-0.073
-401.223	6.168	-0.205	-0.152
-400.209	-71.679	0.184	-0.069
-399.194	42.022	0.141	0.128
-398.179	-200.000	0.011	0.152
-397.165	213.785	0.075	-0.119
-396.150	193.964	0.110	0.166
-395.136	84.653	-0.198	0.217
-394.121	4.792	-0.491	-0.361
-393.106	183.383	-0.144	-0.213
-392.092	645.344	-0.065	0.167
-391.077	-38.564	-0.306	0.162
-390.063	-142.165	0.406	0.040
-389.048	159.593	-0.143	0.199
-388.033	-86.848	-0.225	0.069
-387.019	-48.853	-0.236	0.113
-386.004	-174.848	0.271	-0.008
-384.990	-30.247	-0.033	-0.018
-383.975	-69.227	0.131	-0.050
-382.960	800.000	-0.082	0.267
-381.946	-129.180	-0.145	-0.020
-380.931	1.362	0.189	0.135
-379.917	-72.060	-0.073	-0.027
-378.902	-85.555	-0.146	0.045
-377.888	147.293	-0.238	-0.320
-376.873	-52.584	0.464	0.214
-375.858	-200.000	0.007	0.073
-374.844	17.464	0.073	-0.058
-373.829	-200.000	0.020	-0.249
-372.815	436.423	-0.088	0.191
-371.800	275.381	-0.046	-0.081
-370.785	-65.545	-0.176	0.071
-369.771	113.871	-0.114	0.139
-368.756	83.761	0.131	0.143
-367.742	-52.165	-0.097	0.045
-366.727	143.216	-0.156	0.207
-365.712	-5.188	0.378	-0.259
-364.698	-119.076	0.218	0.038
-363.683	-200.000	-0.016	-0.299
-362.669	115.975	-0.065	0.079
-361.654	185.368	0.089	-0.131
-360.639	209.696	0.135	-0.211
-359.625	-200.000	0.023	0.126
-358.610	-112.654	-0.351	0.070
-357.596	497.573	0.159	0.365
-356.581	39.706	-0.121	-0.109
-355.566	-147.794	-0.056	-0.005
-354.552	-51.020	0.086	0.040
-353.537	299.662	-0.097	-0.179
-352.523	-69.424	0.035	-0.013
-351.508	-158.027	-0.077	-0.004
-350.493	-87.878	0.083	0.025
-349.479	-200.000	-0.038	-0.198
-348.464	-200.000	0.031	-0.138
-347.450	-7.518	0.188	0.127
-346.435	-148.979	-0.350	-0.028
-345.420	97.864	0.285	0.327
-344.406	-200.000	0.033	0.192
-343.391	-200.000	0.039	0.353
-342.377	-155.041	0.173	-0.011
-341.362	32.776	-0.105	0.091
-340.348	-27.143	-0.395	0.230
-339.333	119.430	-0.242	0.299
-338.318	5.629	-0.123	-0.091
-337.304	656.774	0.124	0.319
-336.289	-2.738	-0.158	-0.110
-335.275	175.390	0.163	-0.236
-334.260	-200.000	0.002	-0.129
-333.245	-11.059	0.183	-0.120
-332.231	-100.794	0.164	0.040
-331.216	277.392	0.082	0.146
-330.202	89.594	0.275	0.306
-329.187	-58.342	-0.248	0.107
-328.172	58.924	-0.263	0.257
-327.158	140.898	-0.090	0.118
-326.143	800.000	-0.066	0.207
-325.129	167.487	-0.113	0.159
-324.114	800.000	-0.050	0.195
-323.099	800.000	-0.102	0.371
-322.085	173.330	0.105	-0.151
-321.070	76.501	-0.068	-0.072
-320.056	-81.301	0.320	-0.105
-319.041	165.821	-0.276	0.389
-318.026	-76.289	0.068	0.024
-317.012	-61.304	0.191	-0.080
-315.997	130.486	-0.130	0.166
-314.983	-148.642	-0.362	0.029
-313.968	-41.567	-0.230	-0.118
-312.953	-25.583	-0.273	-0.161
-311.939	-114.127	-0.293	0.056
-310.924	-14.546	0.076	-0.049
-309.910	800.000	-0.045	-0.178
-308.895	-163.757	-0.272	0.013
-307.880	494.303	0.035	0.080
-306.866	40.255	0.119	-0.106
-305.851	-108.202	-0.605	0.130
-304.837	7.593	0.161	0.120
-303.822	-106.734	-0.268	-0.059
-302.807	-103.964	-0.317	-0.074
-301.793	-22.584	-0.062	0.037
-300.778	-28.804	-0.118	0.067
-299.764	800.000	0.018	-0.072
-298.749	14.471	0.167	0.130
-297.735	-142.097	0.370	0.037
-296.720	-200.000	-0.017	-0.092
-295.705	245.443	-0.120	0.201
-294.691	-49.198	0.061	0.029
-293.676	127.703	0.093	0.118
-292.662	-148.927	0.280	-0.022
-291.647	-200.000	0.056	-0.245
-290.632	-200.000	-0.051	0.254
-289.618	15.859	0.087	-0.069
-288.603	-50.365	0.209	-0.098
-287.589	-200.000	0.054	-0.377
-286.574	800.000	0.065	0.230
-285.559	-61.324	0.175	-0.073
-284.545	45.669	-0.126	-0.116
-283.530	165.126	-0.105	-0.147
-282.516	119.229	-0.085	-0.104
-281.501	-200.000	0.004	-0.033
-280.486	109.375	-0.091	0.108
-279.472	-83.658	-0.219	0.070
-278.457	-94.889	0.181	0.049
-277.443	-2.106	0.347	0.242
-276.428	23.347	0.082	-0.067
-275.413	-37.991	0.180	-0.095
-274.399	142.532	-0.141	-0.186
-273.384	78.115	0.268	-0.284
-272.370	-78.667	0.103	-0.035
-271.355	-104.089	0.259	0.060
-270.340	-63.018	0.237	-0.097
-269.326	-40.910	-0.117	-0.060
-268.311	-175.215	0.220	0.006
-267.297	800.000	0.066	0.274
-266.282	-14.873	-0.018	-0.011
-265.267	-200.000	0.005	-0.110
-264.253	800.000	-0.116	-0.354
-263.238	-200.000	0.033	0.235
-262.224	-26.622	0.121	-0.070
-261.209	105.745	0.233	-0.274
-260.195	-13.795	-0.193	0.124
-259.180	-14.487	-0.230	0.147
-258.165	800.000	-0.040	0.137
-257.151	-89.389	0.472	0.138
-256.136	612.088	-0.072	0.178
-255.122	-1.510	0.233	-0.163
-254.107	-200.000	0.075	-0.397
-253.092	83.205	-0.238	-0.258
-252.078	-200.000	0.054	0.234
-251.063	-200.000	0.037	0.269
-250.049	-114.628	0.123	-0.023
-249.034	-200.000	0.064	-0.329
-248.019	-200.000	0.024	-0.387
-247.005	-20.726	-0.066	0.040
-245.990	224.615	-0.176	0.283
-244.976	-200.000	-0.008	-0.275
-243.961	15.756	-0.189	0.147
-242.946	772.914	0.017	-0.045
-241.932	-116.206	0.215	-0.040
-240.917	134.222	0.040	0.051
-239.903	-200.000	0.022	-0.290
-238.888	-120.176	-0.220	-0.037
-237.873	-140.728	0.299	0.031
-236.859	-200.000	-0.050	0.405
-235.844	700.424	-0.055	0.143
-234.830	-132.954	-0.231	-0.029
-233.815	-200.000	0.009	-0.253
-232.800	161.918	-0.105	-0.146
-231.786	133.585	-0.031	0.040
-230.771	-200.000	-0.060	0.278
-229.757	800.000	0.104	0.315
-228.742	-200.000	-0.032	0.177
-227.727	-44.262	0.127	-0.063
-226.713	85.027	-0.157	0.171
-225.698	-51.463	0.279	-0.129
-224.684	-200.000	0.070	0.000
-223.669	800.000	-0.034	-0.115
-222.655	-200.000	0.008	0.310
-221.640	-132.085	0.320	0.041
-220.625	162.938	0.102	-0.143
-219.611	113.826	-0.110	0.132
-218.596	-36.995	-0.071	0.038
-217.582	-200.000	0.002	-0.024
-216.567	18.359	-0.030	0.024
-215.552	-118.247	0.279	-0.049
-214.538	-56.401	0.112	-0.049
-213.523	-67.533	0.190	0.074
-212.509	-200.000	-0.025	0.347
-211.494	286.206	0.200	-0.359
-210.479	-70.749	-0.102	-0.038
-209.465	-200.000	-0.025	0.249
-208.450	170.540	0.161	0.229
-207.436	-200.000	0.003	-0.032
-206.421	177.014	-0.287	-0.414
-205.406	-104.803	-0.217	0.050
-204.392	57.193	0.288	-0.279
-203.377	-158.235	-0.239	-0.014
-202.363	7.245	0.139	-0.103
-201.348	-58.461	0.104	0.045
-200.333	-70.315	-0.259	0.098
-199.319	-200.000	0.002	-0.084
-198.304	-70.145	0.192	-0.073
-197.290	251.921	0.121	0.205
-196.275	-48.996	-0.291	0.138
-195.260	-83.860	-0.120	0.038
-194.246	800.000	0.059	-0.244
-193.231	-151.245	-0.206	0.015
-192.217	-40.966	-0.056	0.028
-191.202	-200.000	0.026	0.162
-190.187	-200.000	-0.060	0.474
-189.173	-27.455	0.147	0.085
-188.158	800.000	0.029	0.107
-187.144	-200.000	0.003	0.119
-186.129	139.281	0.147	-0.191
-185.114	-200.000	0.032	0.169
-184.100	299.191	0.105	-0.191
-183.085	-81.958	-0.105	-0.034
-182.071	800.000	0.047	0.191
-181.056	341.544	0.186	0.361
-180.042	-200.000	-0.034	-0.183
-179.027	-58.623	-0.325	0.140
-178.012	13.708	-0.240	-0.185
-176.998	-40.547	0.110	-0.057
-175.983	-200.000	0.037	0.181
-174.969	-179.161	0.364	-0.008
-173.954	239.901	-0.009	0.015
-172.939	197.820	0.144	-0.217
-171.925	-200.000	-0.047	0.335
-170.910	-200.000	-0.001	0.128
-169.896	-41.854	0.147	-0.074
-168.881	-95.797	-0.150	0.040
-167.866	-110.982	-0.089	-0.018
-166.852	-166.064	0.219	-0.009
-165.837	2.500	0.117	0.084
-164.823	-149.727	-0.024	0.002
-163.808	-12.421	0.135	0.087
-162.793	16.429	-0.144	0.113
-161.779	-18.383	-0.191	-0.118
-160.764	190.140	0.110	0.164
-159.750	-159.460	-0.103	-0.006
-158.735	-200.000	-0.034	0.162
-157.720	-77.566	0.061	0.021
-156.706	-69.183	0.280	-0.107
-155.691	-200.000	-0.009	-0.274
-154.677	383.960	-0.084	0.170
-153.662	800.000	0.057	-0.241
-152.647	22.164	0.101	-0.081
-151.633	167.762	0.202	0.284
-150.618	2.788	0.213	-0.153
-149.604	33.340	-0.240	-0.206
-148.589	67.109	-0.215	-0.217
-147.574	-134.328	0.105	-0.013
-146.560	-176.368	-0.163	-0.004
-145.545	-158.542	-0.245	-0.014
-144.531	264.252	-0.181	-0.312
-143.516	175.137	-0.164	0.236
-142.502	800.000	0.098	-0.332
-141.487	-136.661	0.199	-0.023
-140.472	-200.000	-0.004	0.074
-139.458	-200.000	0.041	0.216
-138.443	-91.726	0.281	0.079
-137.429	-200.000	0.003	-0.065
-136.414	-80.683	0.192	-0.063
-135.399	74.843	0.109	-0.113
-134.385	-2.042	0.337	-0.234
-133.370	19.442	-0.157	0.125
-132.356	-132.332	0.436	0.056
-131.341	-200.000	-0.010	-0.412
-130.326	31.596	-0.056	-0.048
-129.312	98.943	-0.148	-0.169
-128.297	85.704	0.204	-0.222
-127.283	605.434	-0.068	-0.167
-126.268	121.987	-0.032	0.040
-125.253	39.063	0.195	0.173
-124.239	-188.444	-0.051	-0.001
-123.224	113.161	0.115	0.138
-122.210	155.919	0.044	0.060
