DTS Sentinel unit serial number:	SN413079Multiplexer serial number:	ORYXHardware model number:	OX4-SRSoftware version number:	ORYX F/W v4.00 Oryx Data Collector v3.7.2.0data status	okinstallation	princeton_trtdifferential loss correction	single-endedforward channel	channel 2reverse channel	N/Adate	2019/09/12time	03:21:11forward acquisition time	60.00reverse acquisition time	0.00gamma	496.2192k internal	0.2327k external	0.2327temperature offset calibration	1.0097default loss term (dB/km)	0.3790temperature slope calibration	1.0000multiplexer offset coefficient	1.0000multiplexer slope coefficient	1.0000fibre end	0.00T internal ref (°C)	32.25T ext. ref 1 (°C)	2.14T ext. ref 2 (°C)	26.37length (m)	temperature (°C)	Stokes	anti-Stokes-747.200	-200.000	0.013	0.321
-746.185	82.764	0.164	0.179
-745.171	458.121	0.050	0.111
-744.156	84.732	0.170	0.188
-743.142	-200.000	-0.004	-0.288
-742.127	538.379	0.038	0.091
-741.112	80.904	-0.181	-0.197
-740.098	213.072	-0.168	0.268
-739.083	-86.610	0.096	0.030
-738.069	-200.000	0.060	0.451
-737.054	264.484	-0.186	0.326
-736.039	-62.137	-0.310	-0.130
-735.025	717.084	0.043	-0.116
-734.010	-54.541	-0.265	-0.121
-732.996	-22.799	-0.210	0.128
-731.981	448.701	-0.154	-0.342
-730.966	-108.650	-0.225	-0.049
-729.952	-143.915	0.046	-0.004
-728.937	431.021	-0.093	0.202
-727.923	-46.868	0.230	0.113
-726.908	-125.371	-0.400	0.062
-725.894	-91.383	0.260	0.075
-724.879	-164.874	0.020	0.001
-723.864	424.285	-0.065	0.141
-722.850	6.314	-0.175	-0.131
-721.835	-136.562	-0.142	0.017
-720.821	-12.981	0.303	0.199
-719.806	-127.656	-0.124	0.018
-718.791	-200.000	0.015	-0.100
-717.777	76.728	0.146	0.156
-716.762	215.130	0.158	-0.253
-715.748	-200.000	-0.005	0.312
-714.733	723.691	-0.150	-0.403
-713.718	458.077	-0.088	-0.198
-712.704	5.334	-0.296	-0.220
-711.689	-105.846	-0.135	-0.031
-710.675	-101.257	0.030	0.007
-709.660	-75.340	-0.237	0.085
-708.645	225.269	-0.097	-0.159
-707.631	800.000	0.054	0.184
-706.616	-200.000	0.026	-0.222
-705.602	-200.000	-0.040	-0.371
-704.587	220.545	0.012	0.019
-703.572	-149.662	-0.164	0.013
-702.558	800.000	-0.062	-0.203
-701.543	427.046	-0.081	0.175
-700.529	39.781	0.106	0.096
-699.514	29.558	0.189	0.162
-698.499	-167.924	0.173	-0.007
-697.485	-200.000	-0.075	-0.676
-696.470	88.439	0.094	-0.105
-695.456	-41.785	-0.154	0.080
-694.441	-184.111	0.275	-0.005
-693.426	-200.000	-0.024	0.372
-692.412	-61.811	0.205	-0.086
-691.397	193.704	0.213	-0.325
-690.383	53.944	-0.225	-0.218
-689.368	106.421	-0.061	-0.073
-688.354	-87.594	0.246	0.075
-687.339	-129.208	0.208	-0.029
-686.324	-8.675	-0.024	-0.016
-685.310	-116.135	-0.437	0.082
-684.295	800.000	0.054	-0.170
-683.281	357.675	-0.047	0.094
-682.266	-94.726	0.189	0.052
-681.251	425.311	-0.166	-0.358
-680.237	367.512	0.066	-0.135
-679.222	340.998	-0.062	-0.122
-678.208	-33.662	-0.288	-0.160
-677.193	-200.000	-0.006	0.323
-676.178	188.804	0.087	-0.132
-675.164	-83.746	0.044	0.014
-674.149	800.000	0.007	-0.021
-673.135	800.000	-0.024	-0.090
-672.120	42.341	0.145	0.132
-671.105	800.000	0.095	-0.294
-670.091	-112.571	-0.276	0.055
-669.076	41.931	0.323	-0.294
-668.062	-78.202	0.251	0.087
-667.047	229.419	-0.085	0.139
-666.032	-149.362	0.330	0.026
-665.018	-153.336	-0.251	-0.018
-664.003	800.000	0.101	0.371
-662.989	-200.000	0.011	0.061
-661.974	-84.452	0.244	0.078
-660.959	-28.048	-0.227	0.132
-659.945	-200.000	0.026	-0.240
-658.930	171.771	-0.078	-0.113
-657.916	275.818	0.046	-0.082
-656.901	-200.000	-0.054	0.465
-655.886	-200.000	-0.009	0.047
-654.872	-124.045	-0.450	-0.071
-653.857	-154.620	-0.339	-0.023
-652.843	132.952	0.168	-0.219
-651.828	-200.000	-0.069	0.373
-650.814	118.022	-0.094	0.117
-649.799	-128.902	0.255	-0.036
-648.784	800.000	0.193	-0.766
-647.770	-34.715	-0.045	0.025
-646.755	225.051	-0.193	-0.314
-645.741	-64.406	-0.463	-0.189
-644.726	32.317	0.101	0.087
-643.711	228.927	0.028	0.046
-642.697	90.651	0.064	-0.072
-641.682	278.189	0.074	0.132
-640.668	-80.920	0.344	-0.115
-639.653	-63.496	-0.264	-0.109
-638.638	190.645	-0.146	-0.220
-637.624	-47.061	-0.178	-0.087
-636.609	-63.919	-0.271	-0.111
-635.595	300.009	-0.067	-0.123
-634.580	225.934	-0.077	-0.125
-633.565	282.580	-0.219	0.394
-632.551	-200.000	0.001	-0.125
-631.536	-200.000	0.030	-0.195
-630.522	318.908	-0.073	-0.139
-629.507	800.000	0.110	0.402
-628.492	379.175	-0.049	0.100
-627.478	-200.000	0.002	-0.082
-626.463	292.110	0.082	0.150
-625.449	126.445	-0.184	0.234
-624.434	-48.442	-0.137	0.066
-623.419	-135.993	0.227	-0.027
-622.405	-54.814	-0.109	-0.050
-621.390	-58.127	-0.193	0.085
-620.376	64.850	0.020	0.021
-619.361	-31.758	-0.183	-0.103
-618.346	171.609	-0.138	0.199
-617.332	-155.490	-0.403	0.026
-616.317	-200.000	-0.033	0.211
-615.303	-200.000	-0.034	0.179
-614.288	-200.000	0.005	-0.084
-613.273	-123.609	-0.429	-0.068
-612.259	203.187	-0.196	0.305
-611.244	68.668	0.198	0.203
-610.230	9.396	-0.133	-0.101
-609.215	446.070	0.067	-0.147
-608.201	-200.000	-0.035	-0.486
-607.186	-120.891	0.121	0.020
-606.171	-69.222	0.180	-0.069
-605.157	37.396	0.183	0.163
-604.142	-89.093	-0.115	-0.034
-603.128	198.203	-0.100	0.153
-602.113	-48.577	0.316	-0.152
-601.098	800.000	0.068	0.217
-600.084	88.323	-0.150	0.167
-599.069	283.701	0.163	-0.293
-598.055	-157.986	-0.263	0.016
-597.040	-104.237	0.135	-0.031
-596.025	2.336	-0.057	-0.041
-595.011	-109.747	-0.189	0.040
-593.996	792.677	-0.014	-0.039
-592.982	-88.797	0.159	0.047
-591.967	800.000	-0.024	0.068
-590.952	800.000	-0.025	0.106
-589.938	-200.000	-0.025	0.156
-588.923	-78.633	0.123	0.042
-587.909	-6.175	0.174	-0.119
-586.894	260.098	0.049	0.084
-585.879	800.000	0.125	0.469
-584.865	446.828	-0.030	0.066
-583.850	86.135	-0.244	-0.270
-582.836	300.148	0.144	0.266
-581.821	-129.949	-0.190	0.026
-580.806	-54.914	0.309	0.140
-579.792	-69.975	-0.246	0.094
-578.777	-36.558	0.242	0.130
-577.763	150.240	0.150	0.203
-576.748	-143.669	0.235	0.022
-575.733	-177.882	-0.245	0.006
-574.719	19.545	0.103	-0.083
-573.704	-66.681	0.405	0.161
-572.690	32.677	0.191	-0.165
-571.675	-90.027	0.225	-0.066
-570.661	-109.727	-0.451	-0.095
-569.646	-40.763	-0.213	-0.110
-568.631	-74.144	-0.115	-0.042
-567.617	-186.398	-0.604	0.009
-566.602	-200.000	-0.017	0.086
-565.588	-16.379	-0.354	-0.225
-564.573	-30.603	-0.089	0.051
-563.558	154.393	0.103	0.141
-562.544	-8.279	0.216	-0.145
-561.529	306.154	0.040	0.075
-560.515	-200.000	-0.007	-0.138
-559.500	-14.161	-0.054	-0.035
-558.485	-37.957	0.105	0.056
-557.471	-160.555	-0.093	0.005
-556.456	505.409	-0.063	-0.147
-555.442	-169.733	0.141	-0.005
-554.427	-125.385	-0.069	0.011
-553.412	-196.607	-0.297	-0.002
-552.398	-15.829	0.361	-0.230
-551.383	-35.722	0.250	-0.136
-550.369	-134.298	0.182	-0.022
-549.354	754.252	-0.210	-0.568
-548.339	-200.000	0.051	-0.268
-547.325	-4.783	-0.119	0.082
-546.310	-78.145	-0.462	-0.159
-545.296	800.000	-0.055	-0.188
-544.281	-5.779	0.197	0.135
-543.266	274.456	0.064	-0.114
-542.252	203.583	-0.080	0.124
-541.237	39.542	-0.098	0.088
-540.223	-200.000	0.001	-0.188
-539.208	-90.884	-0.042	-0.012
-538.193	95.602	0.069	-0.079
-537.179	-36.717	-0.135	0.073
-536.164	-200.000	-0.032	0.147
-535.150	-200.000	-0.014	0.381
-534.135	-192.412	-0.300	0.003
-533.121	39.221	-0.171	0.153
-532.106	636.669	0.092	-0.233
-531.091	-200.000	0.036	-0.307
-530.077	477.193	-0.179	-0.405
-529.062	136.131	0.132	0.173
-528.048	-150.461	-0.222	0.017
-527.033	-38.380	-0.170	0.090
-526.018	38.437	0.180	-0.160
-525.004	631.092	-0.044	-0.111
-523.989	257.188	-0.112	0.192
-522.975	-38.103	0.074	0.039
-521.960	51.201	0.089	0.085
-520.945	774.846	0.016	0.044
-519.931	800.000	-0.010	0.035
-518.916	800.000	0.031	-0.115
-517.902	54.510	-0.277	-0.267
-516.887	-75.846	-0.167	-0.059
-515.872	-118.084	-0.175	0.031
-514.858	-30.572	0.094	-0.053
-513.843	-200.000	0.003	0.138
-512.829	302.100	-0.115	-0.212
-511.814	-56.075	-0.062	0.028
-510.799	-149.231	-0.061	0.005
-509.785	-113.950	-0.093	0.018
-508.770	-21.894	0.324	-0.197
-507.756	-200.000	-0.025	0.164
-506.741	-200.000	-0.060	0.433
-505.726	-54.848	0.338	-0.152
-504.712	144.795	-0.083	0.111
-503.697	6.054	-0.356	0.264
-502.683	162.711	0.086	-0.120
-501.668	-49.798	0.177	-0.084
-500.653	-17.277	0.171	0.107
-499.639	-200.000	-0.006	0.346
-498.624	-56.687	-0.131	-0.058
-497.610	290.200	0.169	0.307
-496.595	800.000	0.142	0.416
-495.581	-3.220	0.246	-0.171
-494.566	798.021	-0.080	0.221
-493.551	733.820	-0.016	0.044
-492.537	-200.000	0.011	-0.074
-491.522	118.053	-0.284	0.350
-490.508	-111.026	0.253	-0.052
-489.493	-200.000	0.042	-0.239
-488.478	557.216	-0.088	0.213
-487.464	-41.644	-0.151	-0.077
-486.449	-127.606	-0.131	-0.019
-485.435	-200.000	-0.032	0.261
-484.420	5.026	-0.089	-0.066
-483.405	-169.504	-0.175	0.006
-482.391	-200.000	0.055	-0.303
-481.376	135.877	0.270	-0.351
-480.362	-200.000	-0.043	0.373
-479.347	-139.925	-0.294	-0.031
-478.332	-19.744	0.263	0.162
-477.318	209.002	-0.094	0.147
-476.303	-44.111	0.081	-0.040
-475.289	74.029	0.231	-0.241
-474.274	267.586	0.064	0.111
-473.259	756.380	-0.078	0.211
-472.245	247.596	-0.132	0.223
-471.230	800.000	0.062	-0.221
-470.216	-88.400	0.110	-0.033
-469.201	-200.000	-0.068	-0.434
-468.186	-130.597	0.096	-0.013
-467.172	800.000	-0.050	-0.139
-466.157	298.569	-0.156	-0.286
-465.143	-108.317	-0.273	0.059
-464.128	547.526	0.057	-0.137
-463.113	-192.411	0.032	-0.000
-462.099	-50.117	0.344	0.162
-461.084	541.750	-0.097	-0.231
-460.070	82.430	0.044	-0.048
-459.055	-200.000	0.010	-0.082
-458.040	366.338	0.038	-0.076
-457.026	388.276	0.068	0.140
-456.011	-200.000	-0.051	-0.226
-454.997	14.150	-0.165	-0.128
-453.982	321.219	0.075	0.143
-452.968	728.778	0.117	0.311
-451.953	209.266	-0.224	0.349
-450.938	146.136	-0.111	-0.149
-449.924	74.513	-0.164	-0.172
-448.909	-119.154	0.106	0.018
-447.895	441.456	0.156	-0.341
-446.880	128.273	-0.095	0.121
-445.865	-127.842	0.061	-0.009
-444.851	-122.456	0.040	0.007
-443.836	-200.000	-0.001	-0.105
-442.822	-150.493	0.277	0.021
-441.807	55.715	0.058	-0.056
-440.792	-46.646	-0.221	0.108
-439.778	-171.115	-0.204	-0.007
-438.763	42.923	-0.223	-0.203
-437.749	-200.000	-0.010	0.356
-436.734	-180.902	-0.229	-0.005
-435.719	-73.062	-0.134	-0.049
-434.705	260.542	0.057	-0.098
-433.690	-23.106	-0.144	-0.087
-432.676	-200.000	0.060	-0.268
-431.661	-138.171	0.175	0.019
-430.646	-103.533	0.239	-0.056
-429.632	-181.125	0.034	0.001
-428.617	211.422	0.104	0.162
-427.603	-19.125	0.274	-0.169
-426.588	-11.681	0.118	0.077
-425.573	-160.704	0.254	-0.013
-424.559	-4.006	-0.169	0.116
-423.544	527.545	-0.181	0.426
-422.530	800.000	0.039	-0.166
-421.515	146.257	0.098	-0.131
-420.500	31.558	-0.191	0.163
-419.486	-123.093	-0.154	-0.025
-418.471	195.915	0.221	-0.334
-417.457	-61.029	0.299	-0.126
-416.442	217.977	0.082	-0.130
-415.428	-119.115	-0.311	0.054
-414.413	-54.805	0.177	-0.080
-413.398	59.660	-0.128	0.126
-412.384	800.000	-0.026	-0.099
-411.369	800.000	-0.060	0.203
-410.355	-55.002	0.140	0.063
-409.340	-70.667	-0.283	-0.106
-408.325	227.209	0.062	0.101
-407.311	25.688	0.240	-0.199
-406.296	17.281	-0.066	-0.052
-405.282	-200.000	-0.116	0.583
-404.267	-91.747	-0.056	-0.016
-403.252	-200.000	0.001	-0.194
-402.238	-200.000	0.039	0.175
-401.223	-200.000	-0.010	-0.053
-400.209	64.679	-0.043	0.043
-399.194	-61.717	-0.045	-0.019
-398.179	-97.672	-0.077	-0.020
-397.165	800.000	0.080	0.266
-396.150	-200.000	-0.058	-0.277
-395.136	-200.000	-0.017	0.271
-394.121	484.498	-0.135	-0.305
-393.106	-95.851	-0.250	0.066
-392.092	-146.633	-0.217	0.019
-391.077	-166.839	0.219	-0.009
-390.063	-84.365	0.256	0.080
-389.048	-40.190	0.046	-0.024
-388.033	-79.500	0.132	-0.044
-387.019	-34.385	-0.095	0.052
-386.004	447.283	0.052	0.114
-384.990	160.657	0.212	0.295
-383.975	-65.038	0.214	-0.086
-382.960	51.850	0.343	0.324
-381.946	364.187	0.027	0.053
-380.931	-100.727	-0.287	-0.070
-379.917	418.726	-0.055	0.118
-378.902	562.757	-0.042	0.101
-377.888	-116.019	-0.237	-0.044
-376.873	-5.717	0.131	0.089
-375.858	71.956	0.218	0.225
-374.844	407.983	0.024	-0.051
-373.829	331.967	-0.054	-0.104
-372.815	-135.009	0.294	-0.035
-371.800	68.260	0.117	-0.119
-370.785	59.704	0.125	-0.122
-369.771	-167.331	0.252	-0.010
-368.756	487.805	0.095	-0.216
-367.742	-71.618	0.311	0.116
-366.727	4.706	-0.033	-0.024
-365.712	44.235	0.213	0.194
-364.698	-200.000	0.012	-0.092
-363.683	-71.712	0.172	-0.064
-362.669	52.959	-0.349	-0.332
-361.654	-83.666	0.043	0.014
-360.639	219.358	0.130	0.206
-359.625	-3.718	0.225	-0.155
-358.610	-26.405	0.128	0.075
-357.596	-126.373	-0.217	-0.032
-356.581	-39.659	0.077	0.040
-355.566	800.000	-0.086	-0.302
-354.552	403.350	0.144	0.301
-353.537	-86.261	0.388	0.119
-352.523	646.641	-0.028	-0.072
-351.508	-25.749	0.273	-0.160
-350.493	-200.000	-0.000	0.128
-349.479	74.718	0.258	0.270
-348.464	29.674	-0.319	-0.270
-347.450	800.000	-0.101	-0.369
-346.435	220.518	0.146	0.233
-345.420	-102.156	-0.156	-0.037
-344.406	-116.699	0.262	-0.048
-343.391	800.000	0.047	-0.198
-342.377	-5.841	-0.154	-0.104
-341.362	-44.037	0.105	-0.052
-340.348	-24.638	0.290	-0.171
-339.333	109.073	-0.207	0.245
-338.318	-94.592	-0.285	0.077
-337.304	-80.532	0.170	-0.056
-336.289	48.260	0.183	0.170
-335.275	89.820	-0.103	0.114
-334.260	73.511	0.094	-0.097
-333.245	-76.536	0.089	-0.031
-332.231	-97.092	-0.251	-0.065
-331.216	234.319	0.212	0.346
-330.202	60.187	0.035	-0.034
-329.187	86.844	0.120	-0.131
-328.172	-138.313	0.233	-0.026
-327.158	-200.000	0.022	-0.124
-326.143	-200.000	0.026	0.121
-325.129	131.818	0.110	-0.140
-324.114	10.292	0.261	-0.197
-323.099	586.896	-0.057	-0.140
-322.085	-113.024	-0.045	-0.009
-321.070	135.135	-0.043	-0.056
-320.056	413.108	0.049	0.103
-319.041	-200.000	0.024	0.179
-318.026	51.770	-0.081	-0.076
-317.012	800.000	-0.149	0.608
-315.997	136.354	-0.113	0.147
-314.983	15.725	0.073	0.057
-313.968	409.235	0.062	-0.131
-312.953	-50.385	0.201	-0.094
-311.939	-27.540	-0.080	0.046
-310.924	-200.000	0.072	0.423
-309.910	18.062	-0.100	-0.079
-308.895	-92.969	0.178	-0.049
-307.880	158.626	-0.226	-0.311
-306.866	238.389	0.083	0.137
-305.851	-26.365	0.198	0.115
-304.837	-101.454	-0.072	-0.017
-303.822	-5.628	0.158	0.108
-302.807	-10.925	-0.110	0.072
-301.793	-200.000	0.063	-0.324
-300.778	324.115	-0.101	0.192
-299.764	800.000	0.034	-0.126
-298.749	-131.074	-0.294	-0.039
-297.735	-84.350	-0.390	-0.122
-296.720	149.560	0.094	0.126
-295.705	-200.000	-0.022	0.161
-294.691	800.000	0.048	-0.209
-293.676	-200.000	-0.018	0.185
-292.662	-200.000	-0.014	0.078
-291.647	38.718	0.260	-0.230
-290.632	43.205	-0.279	0.252
-289.618	181.669	-0.134	0.195
-288.603	8.188	-0.260	0.193
-287.589	313.037	0.151	-0.281
-286.574	-97.296	-0.177	-0.046
-285.559	800.000	-0.088	-0.338
-284.545	-54.815	0.102	-0.046
-283.530	800.000	-0.120	-0.340
-282.516	-110.368	0.192	0.040
-281.501	168.308	0.138	-0.195
-280.486	-163.303	-0.304	0.014
-279.472	345.147	0.113	-0.219
-278.457	34.089	0.202	0.174
-277.443	-200.000	0.042	-0.207
-276.428	-200.000	0.001	-0.069
-275.413	188.379	0.235	-0.348
-274.399	257.422	0.008	0.014
-273.384	-107.875	0.391	-0.084
-272.370	-124.916	-0.486	-0.074
-271.355	-70.474	-0.130	0.049
-270.340	480.473	0.032	0.072
-269.326	397.805	0.021	0.044
-268.311	53.779	-0.425	-0.404
-267.297	-200.000	-0.078	0.000
-266.282	-122.984	-0.220	0.035
-265.267	-6.468	-0.078	0.053
-264.253	-190.474	0.014	-0.000
-263.238	59.025	-0.205	-0.199
-262.224	42.784	0.045	-0.041
-261.209	-200.000	-0.011	0.314
-260.195	-200.000	-0.005	-0.083
-259.180	-134.633	-0.362	-0.044
-258.165	-144.815	0.034	0.003
-257.151	47.762	-0.048	0.044
-256.136	-108.279	0.193	-0.041
-255.122	-165.467	0.253	0.011
-254.107	-121.544	-0.229	-0.038
-253.092	-68.130	-0.284	0.110
-252.078	31.317	-0.497	0.422
-251.063	-200.000	0.080	0.395
-250.049	-40.761	-0.042	0.021
-249.034	64.488	0.018	-0.018
-248.019	-172.561	-0.038	0.001
-247.005	-200.000	0.018	-0.250
-245.990	-200.000	-0.031	-0.188
-244.976	20.404	-0.297	-0.237
-243.961	103.856	-0.176	0.204
-242.946	-144.277	0.410	0.038
-241.932	-5.576	-0.195	-0.132
-240.917	-200.000	-0.038	0.204
-239.903	-200.000	0.015	-0.171
-238.888	70.017	-0.024	-0.024
-237.873	23.839	0.234	-0.191
-236.859	-141.784	-0.139	0.014
-235.844	15.730	-0.180	0.140
-234.830	-57.141	-0.171	-0.075
-233.815	-111.771	0.383	0.077
-232.800	800.000	-0.085	-0.253
-231.786	259.226	0.086	-0.147
-230.771	800.000	0.050	-0.172
-229.757	60.095	-0.217	0.212
-228.742	-65.577	0.406	0.161
-227.727	264.443	-0.157	0.270
-226.713	116.724	-0.247	0.299
-225.698	0.608	0.130	-0.092
-224.684	216.162	-0.110	-0.173
-223.669	-124.955	0.367	-0.056
-222.655	-32.531	-0.069	-0.038
-221.640	650.083	-0.042	-0.105
-220.625	800.000	-0.061	-0.249
-219.611	-200.000	-0.037	-0.386
-218.596	15.633	0.114	-0.089
-217.582	-66.542	0.336	0.132
-216.567	-177.403	0.216	-0.005
-215.552	22.929	0.320	0.259
-214.538	-200.000	0.019	0.347
-213.523	66.642	-0.032	0.032
-212.509	-200.000	-0.016	-0.474
-211.494	656.098	-0.044	0.113
-210.479	-37.618	-0.175	0.092
-209.465	-8.753	0.044	-0.029
-208.450	-58.138	0.363	0.156
-207.436	250.258	-0.138	-0.232
-206.421	649.369	-0.060	0.152
-205.406	168.327	-0.053	-0.074
-204.392	-142.863	0.437	-0.042
-203.377	78.365	0.260	-0.274
-202.363	-70.810	0.191	-0.071
-201.348	-200.000	0.043	-0.318
-200.333	-146.359	0.324	-0.028
-199.319	-146.988	0.187	0.016
-198.304	-102.734	-0.244	-0.057
-197.290	141.412	-0.318	0.416
-196.275	-35.409	0.384	0.206
-195.260	185.459	-0.054	0.079
-194.246	800.000	0.034	0.146
-193.231	-52.740	-0.036	-0.016
-192.217	-84.285	-0.272	-0.085
-191.202	1.691	-0.268	-0.191
-190.187	51.532	0.051	-0.048
-189.173	-200.000	-0.060	0.275
-188.158	15.266	-0.269	-0.208
-187.144	88.632	0.201	-0.220
-186.129	-200.000	0.001	0.403
-185.114	330.249	0.132	-0.252
-184.100	-98.535	-0.395	0.100
-183.085	34.672	0.224	-0.193
-182.071	-114.773	-0.446	0.084
-181.056	-200.000	-0.009	-0.175
-180.042	-200.000	0.007	0.087
-179.027	-67.181	0.320	-0.124
-178.012	-57.727	0.311	0.134
-176.998	-200.000	0.001	0.231
-175.983	-200.000	0.003	0.019
-174.969	-200.000	0.015	0.222
-173.954	36.259	0.157	-0.136
-172.939	-98.505	0.334	0.084
-171.925	-93.080	0.366	-0.100
-170.910	-200.000	0.029	0.159
-169.896	-200.000	-0.037	0.204
-168.881	-153.342	-0.197	-0.014
-167.866	800.000	0.059	0.204
-166.852	-200.000	-0.033	0.183
-165.837	153.865	-0.025	0.034
-164.823	54.020	-0.318	-0.301
-163.808	-111.219	-0.179	0.036
-162.793	-33.177	-0.089	-0.048
-161.779	-200.000	0.030	0.389
-160.764	-200.000	0.004	0.184
-159.750	206.789	0.087	0.133
-158.735	-98.296	-0.108	-0.027
-157.720	-200.000	-0.045	0.293
-156.706	74.899	0.055	0.057
-155.691	-91.070	-0.094	-0.027
-154.677	44.635	0.191	0.173
-153.662	27.539	0.187	0.155
-152.647	-168.251	-0.105	-0.004
-151.633	64.880	0.306	0.304
-150.618	280.400	-0.059	0.104
-149.604	-189.563	0.448	-0.005
-148.589	226.974	0.103	-0.164
-147.574	48.013	-0.248	-0.228
-146.560	800.000	0.069	0.234
-145.545	-54.894	0.307	0.136
-144.531	-34.078	0.352	-0.191
-143.516	-170.083	-0.264	-0.009
-142.502	-200.000	0.016	-0.157
-141.487	-200.000	0.006	0.116
-140.472	-25.545	0.181	0.105
-139.458	204.623	-0.065	0.099
-138.443	-141.901	-0.253	0.025
-137.429	-131.761	-0.184	-0.024
-136.414	-102.723	0.205	-0.048
-135.399	32.022	0.370	0.314
-134.385	-200.000	-0.024	0.289
-133.370	216.153	0.106	0.166
-132.356	1.403	-0.053	0.037
-131.341	800.000	-0.085	0.296
-130.326	303.868	0.102	0.186
-129.312	800.000	0.037	0.146
-128.297	-200.000	0.032	-0.159
-127.283	-0.493	0.086	0.060
-126.268	58.698	-0.223	0.216
-125.253	217.688	0.332	-0.521
-124.239	-63.925	-0.175	-0.070
-123.224	-200.000	-0.039	0.173
-122.210	182.339	0.114	-0.165
