DTS Sentinel unit serial number:	SN413079Multiplexer serial number:	ORYXHardware model number:	OX4-SRSoftware version number:	ORYX F/W v4.00 Oryx Data Collector v3.7.2.0data status	okinstallation	princeton_trtdifferential loss correction	single-endedforward channel	channel 2reverse channel	N/Adate	2019/09/11time	03:01:11forward acquisition time	60.00reverse acquisition time	0.00gamma	496.2192k internal	0.2331k external	0.2331temperature offset calibration	0.9939default loss term (dB/km)	0.3790temperature slope calibration	1.0000multiplexer offset coefficient	1.0000multiplexer slope coefficient	1.0000fibre end	0.00T internal ref (°C)	29.30T ext. ref 1 (°C)	-0.31T ext. ref 2 (°C)	23.75length (m)	temperature (°C)	Stokes	anti-Stokes-747.200	-200.000	-0.011	-0.236
-746.185	-114.723	-0.378	-0.073
-745.171	92.783	0.129	-0.147
-744.156	-200.000	-0.008	0.218
-743.142	58.593	-0.262	0.259
-742.127	-48.158	-0.104	-0.050
-741.112	-111.245	-0.174	0.036
-740.098	-108.806	-0.151	0.033
-739.083	189.476	0.246	0.371
-738.069	-97.303	0.163	0.043
-737.054	-200.000	-0.036	0.367
-736.039	-87.629	-0.401	0.122
-735.025	-200.000	-0.057	0.516
-734.010	304.329	-0.084	-0.157
-732.996	-200.000	-0.005	0.098
-731.981	2.842	-0.230	0.168
-730.966	-200.000	-0.075	0.457
-729.952	96.538	0.018	-0.021
-728.937	-200.000	-0.031	-0.184
-727.923	20.183	-0.235	-0.191
-726.908	-57.301	-0.262	-0.116
-725.894	-200.000	0.068	-0.325
-724.879	-71.008	-0.223	0.085
-723.864	123.925	-0.147	0.185
-722.850	-187.116	-0.421	-0.006
-721.835	-85.140	0.174	0.055
-720.821	-115.063	0.159	0.030
-719.806	800.000	0.140	-0.473
-718.791	197.793	-0.134	0.206
-717.777	85.817	-0.149	-0.164
-716.762	800.000	0.013	-0.046
-715.748	-90.355	-0.474	0.138
-714.733	-162.952	0.149	0.007
-713.718	95.862	-0.159	0.182
-712.704	-60.862	0.410	-0.175
-711.689	250.904	-0.147	-0.252
-710.675	233.728	0.250	0.414
-709.660	-42.361	-0.030	-0.016
-708.645	149.686	0.103	0.140
-707.631	60.041	-0.175	-0.174
-706.616	-100.511	-0.113	0.028
-705.602	800.000	-0.065	-0.272
-704.587	113.784	-0.091	-0.112
-703.572	121.593	0.170	0.212
-702.558	-107.546	-0.324	-0.071
-701.543	-22.537	0.095	-0.058
-700.529	112.152	0.088	-0.107
-699.514	-63.714	0.213	0.088
-698.499	-124.287	-0.142	-0.022
-697.485	156.522	-0.204	0.283
-696.470	51.431	-0.152	-0.145
-695.456	-110.005	0.078	-0.016
-694.441	-142.660	-0.311	-0.031
-693.426	-107.310	0.239	-0.053
-692.412	-200.000	-0.023	-0.280
-691.397	-200.000	-0.030	0.301
-690.383	-200.000	-0.255	-0.001
-689.368	-79.511	-0.377	-0.128
-688.354	-143.038	-0.188	-0.018
-687.339	-38.482	-0.100	0.053
-686.324	100.753	-0.109	-0.128
-685.310	-98.316	0.138	0.036
-684.295	-200.000	0.002	0.454
-683.281	-65.543	-0.048	-0.019
-682.266	252.924	0.045	-0.077
-681.251	-200.000	-0.004	-0.261
-680.237	515.021	-0.075	0.175
-679.222	603.823	-0.034	-0.084
-678.208	247.510	0.110	-0.186
-677.193	-65.131	0.243	0.098
-676.178	178.535	-0.066	-0.097
-675.164	38.995	-0.200	0.179
-674.149	83.744	0.139	-0.152
-673.135	66.592	0.200	0.204
-672.120	-124.500	-0.205	0.032
-671.105	471.492	0.054	0.122
-670.091	40.324	-0.090	0.081
-669.076	-142.964	-0.205	-0.020
-668.062	-145.734	-0.411	0.037
-667.047	13.381	-0.216	0.168
-666.032	-80.618	0.144	-0.048
-665.018	800.000	0.110	0.308
-664.003	259.862	-0.085	-0.148
-662.989	28.116	-0.325	-0.275
-661.974	502.648	0.076	-0.175
-660.959	800.000	0.087	-0.266
-659.945	800.000	-0.049	0.194
-658.930	-97.148	0.224	-0.059
-657.916	608.248	0.065	0.163
-656.901	-24.985	0.343	0.204
-655.886	-134.766	0.203	0.025
-654.872	-81.615	0.072	0.024
-653.857	-179.138	-0.211	0.005
-652.843	-104.087	-0.251	-0.059
-651.828	404.410	-0.177	0.373
-650.814	156.097	0.154	0.214
-649.799	800.000	0.034	0.132
-648.784	40.899	-0.288	0.261
-647.770	-200.000	-0.099	-0.638
-646.755	21.560	-0.336	-0.274
-645.741	-54.333	0.189	-0.086
-644.726	9.232	-0.239	0.181
-643.711	-132.995	-0.318	-0.041
-642.697	-200.000	0.064	-0.335
-641.682	-13.890	0.183	0.119
-640.668	-77.246	0.320	0.111
-639.653	-200.000	-0.002	-0.218
-638.638	68.678	0.117	-0.121
-637.624	-152.239	0.201	-0.015
-636.609	62.491	-0.159	0.160
-635.595	-200.000	-0.021	0.175
-634.580	-126.890	-0.100	0.015
-633.565	-200.000	-0.028	0.214
-632.551	-200.000	-0.062	-0.593
-631.536	26.988	0.151	-0.127
-630.522	391.496	0.177	-0.369
-629.507	-0.714	-0.264	0.187
-628.492	-113.450	-0.153	-0.030
-627.478	-200.000	-0.012	0.062
-626.463	-65.023	0.104	-0.042
-625.449	-200.000	0.013	0.147
-624.434	-76.989	-0.152	0.053
-623.419	800.000	0.049	-0.151
-622.405	230.275	0.047	0.078
-621.390	144.328	-0.197	-0.264
-620.376	-81.584	-0.109	0.036
-619.361	23.887	0.076	-0.063
-618.346	800.000	-0.090	-0.256
-617.332	-200.000	-0.027	-0.129
-616.317	-108.833	-0.149	-0.032
-615.303	-127.628	0.278	0.040
-614.288	-200.000	-0.572	0.001
-613.273	-200.000	-0.024	-0.137
-612.259	82.425	-0.052	0.056
-611.244	-195.023	-0.289	0.002
-610.230	-169.519	0.220	-0.008
-609.215	154.602	0.161	-0.222
-608.201	-200.000	-0.007	-0.109
-607.186	80.835	0.250	0.270
-606.171	221.591	0.149	0.240
-605.157	134.797	0.117	-0.152
-604.142	-164.000	-0.535	0.025
-603.128	-200.000	-0.005	0.344
-602.113	516.665	-0.083	0.195
-601.098	79.821	-0.201	0.217
-600.084	167.765	-0.027	0.039
-599.069	27.777	-0.336	0.284
-598.055	-59.851	-0.262	-0.112
-597.040	-45.447	-0.181	-0.090
-596.025	71.042	0.170	-0.177
-595.011	223.129	0.096	0.156
-593.996	-18.137	-0.122	0.076
-592.982	-94.118	0.143	0.039
-591.967	-144.285	-0.222	-0.021
-590.952	-200.000	0.037	0.370
-589.938	-96.147	0.161	0.043
-588.923	-200.000	-0.008	0.170
-587.909	-200.000	0.016	0.207
-586.894	-122.724	-0.423	-0.069
-585.879	800.000	-0.104	-0.434
-584.865	-37.869	0.299	0.159
-583.850	341.612	0.184	0.361
-582.836	-63.673	-0.099	0.041
-581.821	195.134	-0.086	-0.130
-580.806	-169.832	-0.519	0.019
-579.792	34.666	-0.010	0.009
-578.777	4.952	0.079	-0.058
-577.763	-200.000	0.033	-0.195
-576.748	-83.847	0.448	-0.143
-575.733	39.882	-0.313	-0.281
-574.719	-122.983	0.264	0.042
-573.704	800.000	0.048	0.205
-572.690	-35.431	0.458	-0.249
-571.675	-90.157	0.140	-0.041
-570.661	800.000	0.031	-0.099
-569.646	-145.146	0.121	-0.011
-568.631	-200.000	0.015	0.132
-567.617	800.000	-0.084	-0.237
-566.602	800.000	0.129	0.473
-565.588	-200.000	-0.013	-0.315
-564.573	-99.589	-0.093	-0.023
-563.558	6.025	0.277	-0.205
-562.544	-49.682	0.207	-0.099
-561.529	-62.029	0.067	-0.028
-560.515	367.206	0.031	-0.063
-559.500	-143.385	-0.269	-0.026
-558.485	-134.453	-0.021	-0.003
-557.471	-80.142	0.112	-0.037
-556.456	-14.072	0.094	0.061
-555.442	76.229	0.202	0.214
-554.427	800.000	-0.041	-0.154
-553.412	86.860	-0.033	-0.037
-552.398	-200.000	-0.004	-0.092
-551.383	658.154	0.061	-0.157
-550.369	153.140	0.119	0.162
-549.354	-140.204	-0.087	-0.009
-548.339	100.013	-0.037	0.043
-547.325	-106.367	0.289	0.065
-546.310	-104.623	-0.174	0.040
-545.296	-200.000	0.036	0.177
-544.281	66.537	0.170	0.173
-543.266	-106.691	0.184	0.041
-542.252	-200.000	-0.017	-0.373
-541.237	-133.427	0.325	-0.041
-540.223	-122.936	0.063	0.010
-539.208	-12.728	0.136	-0.088
-538.193	-42.543	0.261	0.133
-537.179	138.846	-0.067	0.088
-536.164	158.367	-0.024	0.034
-535.150	-100.077	-0.192	0.048
-534.135	-28.063	-0.375	-0.217
-533.121	251.213	0.150	-0.254
-532.106	-200.000	0.012	-0.117
-531.091	-200.000	-0.005	-0.198
-530.077	182.988	0.165	0.243
-529.062	235.444	-0.178	0.293
-528.048	-98.785	-0.285	0.072
-527.033	-110.006	-0.229	-0.048
-526.018	800.000	0.042	-0.174
-525.004	164.163	0.160	-0.224
-523.989	140.129	-0.246	-0.323
-522.975	-76.696	-0.159	-0.056
-521.960	-142.934	-0.109	-0.011
-520.945	153.324	-0.185	-0.252
-519.931	-54.501	0.036	0.016
-518.916	-151.851	0.029	-0.002
-517.902	-200.000	0.029	0.220
-516.887	29.655	0.238	0.202
-515.872	-120.532	-0.197	0.033
-514.858	56.734	-0.206	-0.200
-513.843	-200.000	0.070	-0.387
-512.829	-4.058	-0.223	-0.154
-511.814	87.222	-0.038	0.042
-510.799	20.938	0.381	-0.308
-509.785	-200.000	0.019	-0.213
-508.770	-200.000	-0.002	0.475
-507.756	36.532	-0.157	0.138
-506.741	-10.083	-0.379	0.251
-505.726	-105.422	0.409	0.093
-504.712	800.000	-0.077	0.256
-503.697	-200.000	-0.042	0.321
-502.683	800.000	0.100	0.373
-501.668	-75.846	0.070	-0.025
-500.653	-15.868	-0.493	-0.313
-499.639	-98.570	0.172	0.044
-498.624	32.442	0.377	0.325
-497.610	-93.711	-0.396	-0.109
-496.595	-200.000	0.044	-0.293
-495.581	-192.123	-0.278	0.003
-494.566	-200.000	0.013	0.098
-493.551	361.911	0.056	-0.112
-492.537	37.545	0.049	-0.043
-491.522	-200.000	-0.020	-0.115
-490.508	114.077	0.220	-0.266
-489.493	718.034	0.134	0.354
-488.478	-59.098	-0.103	-0.044
-487.464	745.348	-0.136	-0.363
-486.449	33.526	0.071	0.061
-485.435	-200.000	-0.019	-0.149
-484.420	5.781	0.157	0.116
-483.405	-48.567	-0.458	0.220
-482.391	-19.485	-0.153	-0.094
-481.376	6.751	0.164	0.122
-480.362	800.000	0.036	-0.118
-479.347	-26.746	-0.056	-0.033
-478.332	800.000	0.085	-0.303
-477.318	-87.752	0.332	-0.100
-476.303	204.855	0.157	0.242
-475.289	434.797	-0.162	0.351
-474.274	800.000	0.024	0.099
-473.259	24.734	0.227	-0.187
-472.245	-200.000	-0.003	0.135
-471.230	509.950	-0.088	0.204
-470.216	-135.905	-0.075	-0.009
-469.201	-148.983	-0.494	0.040
-468.186	148.238	0.132	-0.177
-467.172	117.708	0.079	-0.097
-466.157	-74.340	-0.210	-0.076
-465.143	-159.891	-0.214	0.012
-464.128	355.068	0.183	0.363
-463.113	-8.923	0.055	0.037
-462.099	-122.961	-0.151	0.024
-461.084	800.000	0.026	0.077
-460.070	-200.000	0.003	0.233
-459.055	-77.532	-0.477	-0.164
-458.040	-68.952	0.284	0.109
-457.026	-200.000	-0.015	0.089
-456.011	-200.000	-0.054	0.257
-454.997	279.208	-0.066	-0.117
-453.982	30.593	0.229	-0.195
-452.968	-70.484	0.183	-0.069
-451.953	43.991	-0.220	0.201
-450.938	-125.992	0.094	0.014
-449.924	-36.133	0.198	0.106
-448.909	135.726	-0.030	-0.039
-447.895	-11.606	-0.183	0.119
-446.880	-200.000	0.007	0.115
-445.865	-200.000	0.007	0.120
-444.851	50.036	0.192	0.180
-443.836	-200.000	0.009	-0.289
-442.822	281.388	-0.101	-0.179
-441.807	240.086	0.105	-0.174
-440.792	-50.128	-0.267	-0.126
-439.778	-87.400	0.205	-0.062
-438.763	-64.723	0.041	-0.016
-437.749	250.527	0.136	0.230
-436.734	9.745	-0.134	-0.101
-435.719	213.537	0.186	0.292
-434.705	196.786	-0.068	0.103
-433.690	-200.000	0.022	-0.125
-432.676	-19.995	0.104	-0.064
-431.661	-200.000	0.006	0.039
-430.646	29.651	0.142	0.120
-429.632	-63.162	0.045	-0.018
-428.617	-200.000	-0.001	0.144
-427.603	-200.000	0.015	-0.069
-426.588	800.000	-0.120	0.419
-425.573	-200.000	0.003	0.061
-424.559	-105.858	0.212	0.047
-423.544	-58.374	0.268	-0.116
-422.530	-156.590	-0.185	0.011
-421.515	-190.584	-0.088	-0.001
-420.500	-170.269	-0.356	-0.012
-419.486	167.050	0.066	0.093
-418.471	338.354	0.073	0.142
-417.457	-60.982	0.069	-0.029
-416.442	-22.491	-0.198	-0.119
-415.428	-200.000	0.001	-0.023
-414.413	-200.000	-0.014	0.259
-413.398	-43.683	0.082	-0.041
-412.384	-19.027	0.152	0.094
-411.369	-112.850	0.091	0.018
-410.355	43.527	-0.093	-0.085
-409.340	-58.918	-0.114	-0.049
-408.325	-200.000	-0.046	-0.264
-407.311	108.609	0.039	-0.046
-406.296	-200.000	0.086	0.375
-405.282	176.278	-0.103	0.149
-404.267	800.000	-0.129	-0.506
-403.252	19.006	0.167	-0.133
-402.238	-88.972	0.098	0.029
-401.223	140.030	0.253	0.331
-400.209	19.415	-0.160	0.128
-399.194	-160.680	-0.199	0.010
-398.179	-200.000	-0.008	-0.331
-397.165	-32.955	0.300	0.166
-396.150	-181.156	0.091	-0.002
-395.136	-58.404	0.209	-0.090
-394.121	145.615	0.208	-0.277
-393.106	800.000	-0.027	0.105
-392.092	-181.625	0.261	0.005
-391.077	103.515	-0.209	-0.243
-390.063	2.641	-0.218	-0.157
-389.048	27.575	0.095	-0.079
-388.033	-200.000	0.018	-0.345
-387.019	67.666	0.091	-0.092
-386.004	-7.400	0.299	-0.201
-384.990	-125.637	0.251	0.038
-383.975	-200.000	0.037	0.282
-382.960	64.404	0.012	0.012
-381.946	-71.760	0.381	0.141
-380.931	79.127	0.035	0.037
-379.917	-148.916	0.253	0.020
-378.902	148.619	-0.149	0.200
-377.888	387.593	0.171	0.351
-376.873	800.000	0.098	0.317
-375.858	-200.000	0.012	-0.059
-374.844	419.093	-0.104	0.221
-373.829	800.000	0.040	-0.112
-372.815	-110.086	0.211	0.044
-371.800	-83.295	-0.068	-0.022
-370.785	-160.233	-0.190	0.010
-369.771	2.269	-0.384	-0.276
-368.756	262.250	-0.118	-0.203
-367.742	-127.371	-0.302	-0.044
-366.727	-35.021	-0.111	0.060
-365.712	-38.058	0.188	-0.099
-364.698	-47.431	-0.158	0.076
-363.683	36.071	0.348	-0.304
-362.669	-136.520	-0.190	0.022
-361.654	-200.000	0.017	-0.081
-360.639	-200.000	-0.137	0.000
-359.625	350.296	-0.109	-0.214
-358.610	-95.530	0.089	0.024
-357.596	-9.198	0.336	0.223
-356.581	-48.955	-0.402	0.191
-355.566	800.000	-0.086	0.302
-354.552	16.704	0.058	0.046
-353.537	-47.328	-0.148	0.072
-352.523	-98.467	-0.134	-0.034
-351.508	-200.000	-0.055	0.256
-350.493	-200.000	0.008	0.051
-349.479	124.046	-0.138	0.172
-348.464	-162.258	0.232	-0.011
-347.450	-80.630	0.383	-0.126
-346.435	9.586	0.181	0.136
-345.420	-200.000	-0.025	0.132
-344.406	-85.765	0.340	-0.104
-343.391	-200.000	-0.010	-0.164
-342.377	573.666	-0.221	0.533
-341.362	-25.959	0.330	-0.192
-340.348	374.805	0.075	0.151
-339.333	-200.000	-0.001	0.138
-338.318	-200.000	-0.006	-0.279
-337.304	800.000	-0.070	-0.219
-336.289	116.422	-0.113	0.137
-335.275	30.037	-0.132	-0.111
-334.260	769.347	-0.076	-0.205
-333.245	-72.017	0.066	0.024
-332.231	-200.000	-0.018	-0.186
-331.216	-200.000	-0.057	-0.607
-330.202	-10.881	0.280	0.183
-329.187	-65.656	0.158	-0.063
-328.172	246.739	-0.069	-0.115
-327.158	-200.000	-0.010	0.184
-326.143	32.892	-0.401	0.344
-325.129	200.115	-0.148	-0.225
-324.114	199.259	-0.108	0.164
-323.099	48.389	0.181	0.168
-322.085	291.563	-0.251	-0.452
-321.070	-8.616	0.291	0.194
-320.056	-159.588	-0.275	0.015
-319.041	15.681	0.165	-0.129
-318.026	183.769	0.073	-0.107
-317.012	-63.287	-0.181	-0.074
-315.997	-85.761	0.362	-0.111
-314.983	137.014	-0.214	-0.277
-313.968	85.517	0.326	-0.354
-312.953	21.642	0.100	-0.081
-311.939	-110.210	-0.067	0.014
-310.924	26.070	0.117	0.097
-309.910	259.742	0.052	0.089
-308.895	320.407	0.122	0.230
-307.880	-200.000	0.022	-0.110
-306.866	800.000	-0.136	0.390
-305.851	800.000	-0.089	-0.340
-304.837	160.523	-0.184	0.253
-303.822	-82.961	0.283	-0.090
-302.807	481.387	0.062	0.139
-301.793	-136.832	0.124	-0.014
-300.778	800.000	-0.026	-0.099
-299.764	-200.000	-0.003	-0.045
-298.749	-70.242	0.253	-0.095
-297.735	-70.773	-0.227	-0.085
-296.720	331.120	-0.242	-0.461
-295.705	-66.882	0.322	0.126
-294.691	-109.848	0.213	-0.044
-293.676	-145.254	-0.237	-0.021
-292.662	-200.000	0.035	0.157
-291.647	-200.000	0.429	0.001
-290.632	-200.000	-0.026	0.127
-289.618	-200.000	0.033	0.609
-288.603	343.277	-0.140	0.272
-287.589	-34.608	-0.264	-0.143
-286.574	70.926	-0.191	0.196
-285.559	-161.261	-0.272	-0.014
-284.545	-76.076	-0.113	-0.040
-283.530	197.254	-0.244	0.368
-282.516	194.424	0.160	0.240
-281.501	-114.343	-0.101	-0.019
-280.486	119.496	0.090	0.110
-279.472	-78.134	0.061	-0.021
-278.457	-12.522	0.301	0.194
-277.443	116.500	0.148	-0.179
-276.428	-76.735	-0.060	-0.021
-275.413	175.296	0.038	-0.054
-274.399	44.157	0.054	-0.049
-273.384	-1.847	-0.404	0.281
-272.370	-136.601	-0.088	0.010
-271.355	-200.000	-0.016	-0.225
-270.340	-138.241	0.128	-0.014
-269.326	-200.000	-0.004	0.182
-268.311	800.000	-0.106	0.323
-267.297	-200.000	-0.029	-0.486
-266.282	800.000	-0.077	0.263
-265.267	-23.397	-0.080	-0.047
-264.253	-200.000	-0.349	0.001
-263.238	502.831	0.067	0.153
-262.224	-121.610	-0.281	-0.046
-261.209	-127.237	0.210	-0.030
-260.195	0.199	0.159	0.112
-259.180	-103.931	0.226	0.052
-258.165	-97.393	-0.219	0.056
-257.151	-123.336	-0.226	-0.036
-256.136	-161.074	0.388	-0.020
-255.122	190.097	0.032	-0.047
-254.107	522.584	-0.031	0.071
-253.092	-200.000	-0.006	0.310
-252.078	149.934	0.071	0.095
-251.063	144.122	-0.201	0.265
-250.049	-71.935	0.180	0.066
-249.034	241.349	-0.115	0.189
-248.019	800.000	-0.016	-0.051
-247.005	800.000	-0.020	0.080
-245.990	177.181	-0.210	0.302
-244.976	181.360	0.111	0.162
-243.961	158.124	-0.117	0.160
-242.946	800.000	-0.058	-0.191
-241.932	612.081	-0.088	0.218
-240.917	34.500	0.081	-0.070
-239.903	326.387	-0.249	-0.470
-238.888	800.000	-0.046	-0.179
-237.873	800.000	0.039	0.149
-236.859	-200.000	-0.007	-0.133
-235.844	123.972	0.115	0.143
-234.830	-84.252	-0.077	0.024
-233.815	6.553	0.243	-0.178
-232.800	442.355	0.094	0.204
-231.786	32.832	-0.081	-0.069
-230.771	-22.981	-0.041	-0.024
-229.757	239.135	0.096	0.157
-228.742	-54.888	0.247	-0.110
-227.727	-200.000	0.010	-0.257
-226.713	-18.755	0.182	0.112
-225.698	800.000	0.116	-0.373
-224.684	103.739	0.044	0.051
-223.669	-200.000	0.006	-0.206
-222.655	-69.132	-0.152	-0.058
-221.640	800.000	-0.103	-0.351
-220.625	26.285	0.033	-0.027
-219.611	-12.308	-0.157	0.101
-218.596	-21.343	-0.092	0.055
-217.582	237.094	0.182	0.297
-216.567	-10.217	-0.095	0.062
-215.552	800.000	0.134	-0.541
-214.538	-91.221	-0.191	0.054
-213.523	-131.717	-0.168	0.022
-212.509	-19.764	-0.062	-0.038
-211.494	510.599	-0.062	-0.142
-210.479	471.382	-0.107	-0.237
-209.465	3.316	0.194	0.140
-208.450	301.464	0.064	0.116
-207.436	-56.319	0.043	-0.019
-206.421	-66.122	0.279	-0.109
-205.406	-200.000	0.024	-0.220
-204.392	-38.799	0.165	0.086
-203.377	-16.386	-0.351	0.219
-202.363	176.391	0.054	-0.077
-201.348	-113.577	0.047	-0.009
-200.333	-107.083	-0.031	-0.007
-199.319	-200.000	0.021	0.254
-198.304	455.662	-0.117	-0.257
-197.290	139.178	-0.172	0.222
-196.275	238.290	0.080	0.130
-195.260	467.984	0.070	-0.156
-194.246	-200.000	-0.063	-0.290
-193.231	144.443	-0.186	-0.245
-192.217	215.582	0.076	0.119
-191.202	-200.000	-0.029	0.160
-190.187	-23.004	-0.109	0.065
-189.173	42.445	-0.074	-0.066
-188.158	-52.577	-0.311	-0.141
-187.144	234.084	0.246	-0.399
-186.129	-143.415	-0.105	0.010
-185.114	727.593	-0.088	-0.232
-184.100	-75.107	0.190	0.067
-183.085	-49.598	0.274	0.128
-182.071	101.992	-0.087	0.100
-181.056	40.719	-0.119	0.105
-180.042	-200.000	-0.009	0.077
-179.027	800.000	0.040	0.161
-178.012	-120.035	0.121	0.020
-176.998	199.953	-0.165	-0.249
-175.983	-109.959	-0.112	-0.023
-174.969	800.000	0.072	0.232
-173.954	-47.324	0.125	-0.060
-172.939	15.712	-0.204	-0.158
-171.925	800.000	0.131	-0.371
-170.910	409.177	0.038	0.079
-169.896	-24.096	-0.095	0.056
-168.881	122.061	0.205	-0.252
-167.866	132.092	0.110	0.139
-166.852	-192.990	-0.116	0.001
-165.837	29.208	0.172	-0.144
-164.823	11.477	0.114	-0.086
-163.808	120.336	-0.074	0.090
-162.793	28.193	-0.264	-0.219
-161.779	-57.233	0.191	0.083
-160.764	-176.548	0.299	-0.008
-159.750	262.164	0.078	0.132
-158.735	-11.804	-0.271	0.175
-157.720	92.109	-0.156	0.173
-156.706	-17.449	-0.163	0.101
-155.691	718.660	0.075	-0.195
-154.677	83.027	0.101	0.108
-153.662	95.828	-0.064	0.072
-152.647	-86.674	0.258	-0.078
-151.633	-103.658	0.174	0.040
-150.618	800.000	0.085	0.260
-149.604	-132.262	0.120	-0.015
-148.589	-200.000	-0.021	0.148
-147.574	-200.000	0.029	0.193
-146.560	-84.042	-0.233	-0.073
-145.545	-92.853	-0.179	-0.049
-144.531	-33.008	0.175	0.095
-143.516	337.545	-0.064	-0.123
-142.502	-200.000	0.009	0.092
-141.487	-200.000	-0.018	0.291
-140.472	75.614	0.360	0.373
-139.458	-146.066	-0.346	-0.030
-138.443	390.824	0.025	-0.051
-137.429	77.305	-0.014	0.015
-136.414	-16.007	-0.132	-0.082
-135.399	-200.000	-0.019	-0.306
-134.385	-94.303	0.130	0.035
-133.370	171.062	0.187	0.264
-132.356	-174.526	-0.532	0.015
-131.341	-105.649	-0.251	-0.056
-130.326	84.990	0.188	-0.203
-129.312	-180.961	0.058	0.001
-128.297	-150.933	0.275	0.020
-127.283	-200.000	-0.002	-0.122
-126.268	70.919	0.182	0.185
-125.253	450.502	0.112	0.243
-124.239	-200.000	0.007	0.163
-123.224	442.255	-0.098	0.211
-122.210	450.458	0.213	-0.462
