DTS Sentinel unit serial number:	SN413079Multiplexer serial number:	ORYXHardware model number:	OX4-SRSoftware version number:	ORYX F/W v4.00 Oryx Data Collector v3.7.2.0data status	okinstallation	princeton_trtdifferential loss correction	single-endedforward channel	channel 2reverse channel	N/Adate	2019/09/13time	04:03:35forward acquisition time	60.00reverse acquisition time	0.00gamma	496.2192k internal	0.2336k external	0.2336temperature offset calibration	1.0189default loss term (dB/km)	0.3790temperature slope calibration	1.0000multiplexer offset coefficient	1.0000multiplexer slope coefficient	1.0000fibre end	0.00T internal ref (°C)	27.00T ext. ref 1 (°C)	4.07T ext. ref 2 (°C)	21.25length (m)	temperature (°C)	Stokes	anti-Stokes-747.200	-181.507	0.233	-0.005
-746.185	7.456	-0.269	0.202
-745.171	-46.501	-0.106	-0.052
-744.156	150.285	-0.245	0.334
-743.142	250.915	0.169	-0.288
-742.127	122.179	0.145	0.182
-741.112	-129.985	-0.241	-0.033
-740.098	-153.699	-0.090	0.006
-739.083	-53.861	0.192	0.088
-738.069	800.000	-0.015	-0.056
-737.054	-200.000	-0.046	-0.237
-736.039	-200.000	0.005	-0.090
-735.025	-16.583	-0.251	0.160
-734.010	-174.104	-0.310	-0.009
-732.996	13.982	-0.089	0.070
-731.981	-45.342	-0.290	0.144
-730.966	-34.415	-0.324	-0.179
-729.952	24.912	0.223	0.185
-728.937	135.729	-0.245	-0.320
-727.923	2.119	-0.103	-0.075
-726.908	-13.421	-0.151	0.099
-725.894	-200.000	0.001	-0.082
-724.879	193.417	-0.158	-0.240
-723.864	104.000	0.248	-0.293
-722.850	-200.000	0.078	-0.399
-721.835	-21.352	0.116	0.071
-720.821	52.956	0.173	0.166
-719.806	-200.000	-0.014	-0.228
-718.791	88.200	-0.137	-0.153
-717.777	514.345	-0.122	-0.285
-716.762	-64.560	0.268	-0.109
-715.748	-77.893	0.168	0.058
-714.733	113.682	0.007	-0.009
-713.718	-200.000	0.049	-0.313
-712.704	538.234	0.092	-0.219
-711.689	-174.708	0.127	-0.004
-710.675	-19.033	0.207	-0.129
-709.660	-200.000	0.007	0.151
-708.645	-117.242	-0.087	0.016
-707.631	726.902	0.014	0.038
-706.616	-56.202	0.115	-0.051
-705.602	178.849	0.277	-0.405
-704.587	389.361	-0.209	0.434
-703.572	-33.922	0.308	-0.170
-702.558	-200.000	0.045	-0.409
-701.543	48.945	-0.209	-0.197
-700.529	800.000	0.043	-0.140
-699.514	-166.654	0.195	0.008
-698.499	325.849	-0.156	0.300
-697.485	800.000	0.110	-0.390
-696.470	-97.815	-0.123	0.032
-695.456	632.027	0.099	-0.251
-694.441	105.215	0.154	-0.182
-693.426	800.000	0.062	-0.260
-692.412	800.000	0.063	-0.184
-691.397	-44.698	0.220	-0.110
-690.383	247.296	-0.054	-0.092
-689.368	-200.000	-0.105	0.521
-688.354	-106.854	-0.154	0.034
-687.339	-77.865	0.219	0.076
-686.324	-200.000	-0.019	-0.345
-685.310	-160.564	0.210	0.011
-684.295	-1.694	-0.155	0.110
-683.281	-107.400	-0.157	-0.034
-682.266	-200.000	0.053	-0.685
-681.251	62.344	0.052	0.052
-680.237	81.667	-0.089	0.097
-679.222	-22.718	-0.003	-0.002
-678.208	-25.722	-0.162	0.096
-677.193	-10.469	-0.140	-0.093
-676.178	192.140	-0.142	0.215
-675.164	-17.320	0.213	-0.134
-674.149	-110.054	0.210	0.044
-673.135	-100.183	0.182	-0.045
-672.120	176.734	0.105	-0.153
-671.105	-142.451	0.107	-0.011
-670.091	207.101	-0.068	-0.106
-669.076	-27.685	-0.093	0.054
-668.062	59.940	-0.082	-0.081
-667.047	-138.544	0.183	0.020
-666.032	75.422	0.049	-0.051
-665.018	-200.000	0.054	0.254
-664.003	231.261	-0.072	-0.118
-662.989	-41.245	0.229	-0.118
-661.974	190.357	0.062	-0.093
-660.959	800.000	0.052	0.156
-659.945	81.590	-0.039	-0.043
-658.930	-109.898	-0.095	0.020
-657.916	160.639	-0.204	0.285
-656.901	-112.652	0.074	0.015
-655.886	53.049	0.154	0.148
-654.872	-84.188	0.045	0.014
-653.857	800.000	0.053	-0.223
-652.843	102.971	0.128	0.150
-651.828	-153.383	-0.366	-0.025
-650.814	800.000	0.038	0.118
-649.799	-108.971	0.151	-0.032
-648.784	37.736	-0.130	-0.116
-647.770	-152.269	-0.313	-0.023
-646.755	514.129	0.018	0.043
-645.741	7.415	-0.202	0.151
-644.726	-128.587	0.325	0.046
-643.711	-120.000	0.105	-0.018
-642.697	34.270	0.189	-0.165
-641.682	-2.121	0.106	-0.075
-640.668	-34.351	-0.332	-0.182
-639.653	-200.000	0.008	0.036
-638.638	337.049	0.090	0.175
-637.624	-200.000	0.023	-0.325
-636.609	248.760	0.220	0.372
-635.595	-40.054	0.221	0.115
-634.580	-0.902	0.135	0.096
-633.565	151.904	-0.180	-0.246
-632.551	-34.529	-0.431	-0.236
-631.536	-200.000	0.019	0.184
-630.522	-86.182	0.077	-0.024
-629.507	-200.000	0.024	0.346
-628.492	-127.668	-0.105	-0.015
-627.478	6.268	-0.366	-0.271
-626.463	14.092	0.217	0.169
-625.449	-12.357	-0.227	0.148
-624.434	800.000	-0.063	-0.231
-623.419	129.622	0.223	-0.285
-622.405	-200.000	-0.056	0.253
-621.390	3.516	-0.037	-0.027
-620.376	-200.000	-0.039	-0.308
-619.361	-20.265	-0.097	-0.060
-618.346	-12.069	-0.450	0.294
-617.332	168.296	0.175	-0.248
-616.317	1.767	0.138	0.099
-615.303	125.733	-0.138	-0.174
-614.288	51.905	-0.217	0.207
-613.273	153.382	0.106	-0.145
-612.259	-200.000	-0.108	-0.658
-611.244	-69.816	0.102	0.039
-610.230	800.000	-0.050	0.162
-609.215	-18.381	-0.160	0.100
-608.201	133.043	-0.068	0.088
-607.186	-200.000	-0.001	0.120
-606.171	-69.306	-0.292	-0.112
-605.157	46.162	-0.104	0.096
-604.142	72.123	-0.211	0.219
-603.128	285.160	-0.120	0.216
-602.113	367.224	0.063	-0.128
-601.098	-85.957	-0.157	-0.048
-600.084	65.637	-0.223	-0.226
-599.069	343.265	0.051	0.099
-598.055	-79.006	-0.666	0.226
-597.040	-146.942	0.148	-0.013
-596.025	221.156	-0.103	0.165
-595.011	-75.858	-0.037	0.013
-593.996	800.000	-0.105	-0.372
-592.982	-182.764	0.134	0.002
-591.967	-200.000	-0.011	0.084
-590.952	33.365	-0.232	-0.201
-589.938	-67.450	0.379	0.148
-588.923	-96.394	0.339	-0.089
-587.909	215.060	0.166	-0.262
-586.894	-2.521	0.073	-0.051
-585.879	-200.000	0.005	-0.168
-584.865	58.520	-0.361	-0.353
-583.850	-112.281	-0.088	-0.018
-582.836	-90.809	0.097	0.028
-581.821	66.366	0.205	0.208
-580.806	800.000	0.058	-0.162
-579.792	166.004	0.110	0.156
-578.777	150.451	-0.156	-0.212
-577.763	329.306	-0.020	0.038
-576.748	-22.050	-0.016	-0.010
-575.733	-39.770	0.290	0.151
-574.719	134.753	0.059	-0.076
-573.704	9.463	-0.147	0.111
-572.690	105.263	-0.064	-0.076
-571.675	8.156	0.102	-0.077
-570.661	-143.747	-0.146	-0.014
-569.646	87.603	0.198	0.218
-568.631	7.859	-0.303	0.227
-567.617	-200.000	0.015	-0.100
-566.602	800.000	0.047	-0.198
-565.588	263.083	-0.088	0.152
-564.573	-96.668	0.074	0.019
-563.558	-157.660	-0.070	-0.004
-562.544	-40.037	-0.383	-0.199
-561.529	800.000	0.047	-0.143
-560.515	-70.224	0.118	0.045
-559.500	800.000	0.151	0.433
-558.485	-50.960	0.197	0.092
-557.471	10.774	0.048	-0.037
-556.456	233.850	-0.045	0.074
-555.442	100.934	0.189	-0.219
-554.427	-200.000	0.031	0.159
-553.412	-200.000	-0.030	0.131
-552.398	-30.092	0.140	0.079
-551.383	-200.000	-0.022	0.168
-550.369	-200.000	0.013	0.094
-549.354	1.805	-0.092	0.066
-548.339	-124.050	0.338	-0.053
-547.325	-103.409	0.433	0.102
-546.310	-111.742	0.120	0.024
-545.296	290.145	0.071	-0.128
-544.281	36.711	-0.181	-0.159
-543.266	76.534	0.087	0.092
-542.252	105.030	-0.086	0.101
-541.237	-200.000	-0.011	-0.209
-540.223	31.881	-0.343	-0.294
-539.208	127.212	-0.206	-0.261
-538.193	13.381	0.245	0.189
-537.179	364.730	0.102	0.204
-536.164	-161.675	0.237	0.012
-535.150	-129.289	-0.277	0.038
-534.135	75.863	-0.173	-0.183
-533.121	336.758	0.045	-0.088
-532.106	-101.176	-0.075	-0.018
-531.091	800.000	0.047	0.149
-530.077	-42.198	-0.172	0.088
-529.062	164.811	-0.277	0.389
-528.048	-200.000	0.018	0.088
-527.033	-94.902	-0.323	-0.087
-526.018	-44.134	-0.356	-0.178
-525.004	170.520	0.029	0.041
-523.989	-94.072	0.324	-0.088
-522.975	72.909	-0.276	-0.287
-521.960	297.237	-0.130	0.238
-520.945	-23.258	0.209	-0.125
-519.931	6.279	-0.209	-0.155
-518.916	130.345	0.226	0.288
-517.902	-85.897	-0.121	0.037
-516.887	800.000	-0.073	0.250
-515.872	-183.302	0.364	-0.006
-514.858	800.000	-0.099	0.381
-513.843	-157.355	0.157	-0.009
-512.829	-15.907	0.269	0.170
-511.814	6.007	-0.116	-0.086
-510.799	246.510	0.142	-0.238
-509.785	-200.000	0.006	0.051
-508.770	397.124	0.131	-0.272
-507.756	19.172	-0.282	-0.226
-506.741	433.314	0.027	-0.058
-505.726	345.839	0.123	0.241
-504.712	2.235	0.072	0.052
-503.697	45.123	0.124	-0.113
-502.683	-59.937	0.089	-0.038
-501.668	449.147	-0.046	0.101
-500.653	-198.209	-0.467	-0.003
-499.639	-200.000	0.084	-0.453
-498.624	427.419	-0.084	-0.180
-497.610	-200.000	-0.038	-0.173
-496.595	-63.686	0.346	0.141
-495.581	-76.480	0.225	0.079
-494.566	269.991	0.046	0.081
-493.551	86.455	0.315	-0.346
-492.537	800.000	0.050	-0.198
-491.522	-200.000	-0.040	-0.265
-490.508	-49.635	0.210	0.099
-489.493	-200.000	-0.013	-0.265
-488.478	800.000	0.047	-0.134
-487.464	377.278	-0.015	-0.030
-486.449	-102.990	0.297	-0.070
-485.435	-7.711	0.166	-0.111
-484.420	-85.198	-0.083	0.026
-483.405	-15.113	0.221	0.140
-482.391	-200.000	0.034	-0.433
-481.376	-200.000	0.003	-0.256
-480.362	353.710	0.048	0.095
-479.347	263.071	-0.111	-0.191
-478.332	800.000	0.078	0.260
-477.318	-200.000	0.008	-0.069
-476.303	-200.000	0.071	0.517
-475.289	800.000	-0.050	-0.190
-474.274	51.881	-0.056	0.053
-473.259	713.704	-0.102	0.269
-472.245	-93.801	0.156	-0.043
-471.230	-200.000	-0.017	-0.188
-470.216	-144.832	-0.245	-0.022
-469.201	800.000	0.041	0.154
-468.186	-200.000	0.005	0.046
-467.172	-167.113	0.045	0.002
-466.157	46.747	-0.128	0.118
-465.143	-200.000	0.020	0.137
-464.128	598.687	0.089	-0.218
-463.113	-33.247	-0.155	0.085
-462.099	-200.000	0.000	0.147
-461.084	476.088	0.071	-0.159
-460.070	17.680	-0.519	-0.410
-459.055	4.472	0.094	-0.068
-458.040	-113.002	-0.336	-0.066
-457.026	380.699	0.116	0.237
-456.011	-96.042	0.267	-0.070
-454.997	-112.223	-0.247	0.049
-453.982	-200.000	0.033	0.214
-452.968	242.728	0.105	0.175
-451.953	-7.726	0.285	-0.191
-450.938	327.639	-0.146	-0.277
-449.924	100.661	0.121	-0.139
-448.909	-130.977	0.135	-0.018
-447.895	101.745	-0.260	0.301
-446.880	127.471	-0.104	-0.131
-445.865	-109.228	-0.130	-0.027
-444.851	-19.814	0.187	-0.115
-443.836	86.677	-0.204	0.223
-442.822	29.649	0.312	0.263
-441.807	-22.131	-0.064	0.039
-440.792	11.442	-0.088	0.067
-439.778	49.605	-0.153	0.143
-438.763	-200.000	0.028	-0.158
-437.749	68.887	-0.360	-0.366
-436.734	107.689	-0.080	0.094
-435.719	178.518	0.081	0.117
-434.705	-200.000	0.008	-0.114
-433.690	-200.000	-0.004	-0.147
-432.676	-88.991	-0.173	-0.051
-431.661	-148.970	0.094	0.008
-430.646	-200.000	0.032	0.221
-429.632	-108.319	0.250	0.053
-428.617	-2.515	-0.154	-0.107
-427.603	1.885	-0.134	-0.096
-426.588	800.000	-0.060	0.247
-425.573	239.702	0.063	-0.105
-424.559	-200.000	-0.012	0.277
-423.544	800.000	-0.053	0.180
-422.530	149.888	0.130	0.174
-421.515	-200.000	0.029	0.220
-420.500	-106.175	0.391	-0.087
-419.486	-68.941	-0.122	0.047
-418.471	-50.037	-0.393	-0.184
-417.457	-71.437	0.186	-0.069
-416.442	66.813	-0.144	-0.146
-415.428	-50.629	0.300	-0.140
-414.413	-122.710	0.067	-0.011
-413.398	29.678	0.208	0.175
-412.384	-64.366	0.273	-0.110
-411.369	-67.327	0.170	-0.066
-410.355	147.944	0.129	-0.173
-409.340	-116.407	0.115	-0.021
-408.325	-101.670	-0.426	-0.102
-407.311	-126.989	-0.127	-0.018
-406.296	2.638	0.247	0.177
-405.282	800.000	0.048	0.198
-404.267	-6.292	-0.229	0.155
-403.252	73.158	0.163	-0.169
-402.238	477.490	-0.058	-0.131
-401.223	-70.165	-0.117	-0.044
-400.209	-134.668	-0.066	0.008
-399.194	800.000	-0.085	0.235
-398.179	29.492	0.099	0.083
-397.165	-53.849	-0.153	-0.069
-396.150	-200.000	-0.049	-0.409
-395.136	362.015	-0.072	-0.143
-394.121	353.021	0.093	0.183
-393.106	-200.000	-0.018	-0.220
-392.092	-200.000	0.012	-0.056
-391.077	12.652	-0.100	-0.077
-390.063	37.435	0.188	-0.165
-389.048	-97.018	0.215	0.056
-388.033	40.088	-0.150	0.134
-387.019	179.709	0.122	-0.177
-386.004	-104.136	-0.159	0.037
-384.990	-200.000	0.012	-0.140
-383.975	-115.274	-0.262	0.049
-382.960	461.916	0.030	0.066
-381.946	-46.974	0.134	-0.065
-380.931	-200.000	0.067	0.338
-379.917	119.856	-0.170	0.209
-378.902	642.771	0.080	0.201
-377.888	164.258	-0.081	-0.113
-376.873	-32.060	0.238	-0.132
-375.858	-93.946	0.262	-0.071
-374.844	800.000	0.020	-0.065
-373.829	28.408	0.251	0.210
-372.815	-20.426	0.149	0.090
-371.800	-200.000	0.009	0.054
-370.785	-69.757	-0.270	-0.102
-369.771	800.000	0.098	0.357
-368.756	-134.805	-0.307	-0.037
-367.742	111.165	0.121	-0.144
-366.727	405.214	-0.085	0.177
-365.712	800.000	-0.045	-0.164
-364.698	206.385	0.191	-0.294
-363.683	-200.000	0.013	0.097
-362.669	-200.000	-0.022	0.103
-361.654	-34.349	-0.292	0.158
-360.639	800.000	-0.023	0.077
-359.625	-200.000	-0.012	-0.390
-358.610	-0.316	0.196	-0.138
-357.596	-117.265	-0.114	0.021
-356.581	20.688	0.069	-0.055
-355.566	-137.915	0.196	0.022
-354.552	-97.953	-0.106	0.027
-353.537	-31.323	0.250	0.139
-352.523	656.238	0.112	0.284
-351.508	231.706	-0.213	0.346
-350.493	-53.337	-0.171	-0.077
-349.479	-200.000	0.011	0.188
-348.464	515.867	-0.153	0.353
-347.450	-44.750	-0.147	0.073
-346.435	181.883	0.147	-0.213
-345.420	-172.342	0.128	0.004
-344.406	-104.308	-0.217	0.050
-343.391	605.897	0.145	-0.358
-342.377	82.312	0.109	0.117
-341.362	-200.000	0.006	-0.112
-340.348	14.454	0.066	-0.051
-339.333	800.000	0.021	-0.074
-338.318	-119.065	0.582	-0.101
-337.304	-94.158	-0.049	0.013
-336.289	33.084	-0.257	-0.221
-335.275	121.011	-0.186	0.229
-334.260	-171.091	0.169	-0.006
-333.245	-100.783	0.252	-0.061
-332.231	800.000	0.056	0.202
-331.216	14.706	0.053	0.041
-330.202	-41.145	-0.225	0.115
-329.187	-36.239	0.144	-0.077
-328.172	-200.000	-0.064	0.281
-327.158	-112.399	-0.139	0.027
-326.143	132.958	0.088	-0.112
-325.129	1.657	-0.059	0.042
-324.114	-143.132	0.107	0.010
-323.099	107.899	0.101	0.119
-322.085	-200.000	0.033	-0.228
-321.070	-39.129	-0.072	0.038
-320.056	-1.631	0.177	-0.123
-319.041	297.736	-0.102	0.185
-318.026	317.576	-0.107	0.199
-317.012	800.000	-0.048	-0.196
-315.997	59.900	0.188	-0.183
-314.983	800.000	-0.042	0.172
-313.968	-5.613	0.083	-0.056
-312.953	-200.000	0.032	0.139
-311.939	119.360	0.137	-0.167
-310.924	-125.204	0.426	0.064
-309.910	-200.000	-0.021	-0.098
-308.895	269.829	-0.030	0.052
-307.880	374.226	-0.033	0.067
-306.866	-93.654	-0.142	0.039
-305.851	-200.000	0.033	0.246
-304.837	-200.000	-0.154	0.001
-303.822	0.976	-0.137	0.097
-302.807	-140.435	-0.253	-0.026
-301.793	1.270	0.180	0.127
-300.778	-34.723	-0.011	0.006
-299.764	125.928	-0.365	0.456
-298.749	-109.280	0.033	-0.007
-297.735	-200.000	0.003	0.096
-296.720	-200.000	-0.010	-0.098
-295.705	232.017	0.179	-0.289
-294.691	-39.973	0.263	-0.135
-293.676	800.000	0.061	-0.197
-292.662	-200.000	0.002	0.206
-291.647	-200.000	0.052	-0.292
-290.632	592.198	0.093	-0.227
-289.618	-111.036	0.043	-0.009
-288.603	74.052	0.095	-0.098
-287.589	-87.567	-0.108	0.032
-286.574	-73.306	0.251	0.091
-285.559	55.885	-0.176	0.168
-284.545	-200.000	-0.080	-0.000
-283.530	205.076	-0.069	0.105
-282.516	344.307	-0.195	0.378
-281.501	17.963	-0.053	0.042
-280.486	254.343	0.194	-0.328
-279.472	45.593	-0.270	0.246
-278.457	-98.842	0.103	0.026
-277.443	153.669	-0.178	-0.240
-276.428	-200.000	0.005	-0.129
-275.413	19.053	0.058	-0.046
-274.399	800.000	-0.133	0.380
-273.384	146.214	-0.220	-0.292
-272.370	800.000	0.084	0.281
-271.355	-23.878	0.159	0.094
-270.340	-98.308	-0.202	0.051
-269.326	-80.661	-0.068	-0.022
-268.311	-59.190	0.036	0.015
-267.297	-200.000	0.026	0.136
-266.282	69.401	0.228	0.232
-265.267	-179.195	0.083	-0.002
-264.253	-200.000	0.014	0.098
-263.238	-200.000	0.018	0.145
-262.224	-147.105	-0.118	0.010
-261.209	-146.614	0.177	-0.015
-260.195	800.000	-0.063	0.195
-259.180	-12.154	0.171	0.110
-258.165	-200.000	-0.018	0.188
-257.151	800.000	-0.071	-0.272
-256.136	7.676	-0.051	0.038
-255.122	800.000	0.011	0.043
-254.107	-94.243	-0.151	0.041
-253.092	139.185	0.111	-0.144
-252.078	-21.519	-0.222	0.134
-251.063	800.000	-0.175	-0.511
-250.049	-80.023	0.075	0.025
-249.034	100.311	0.290	-0.332
-248.019	-45.659	0.281	0.137
-247.005	211.606	0.121	-0.188
-245.990	-36.027	-0.259	-0.138
-244.976	768.443	0.067	0.180
-243.961	-1.888	-0.508	0.352
-242.946	-51.595	-0.212	-0.097
-241.932	-39.562	0.045	0.023
-240.917	-6.315	0.142	0.095
-239.903	-135.936	-0.111	-0.013
-238.888	-174.446	-0.156	0.004
-237.873	-89.561	-0.427	-0.123
-236.859	-115.026	-0.190	-0.035
-235.844	-107.212	0.371	0.080
-234.830	-59.733	-0.295	-0.124
-233.815	-200.000	0.016	-0.213
-232.800	-125.517	0.232	-0.035
-231.786	-109.173	0.098	-0.021
-230.771	-70.380	0.225	0.084
-229.757	-23.594	-0.305	-0.180
-228.742	-125.017	-0.077	-0.012
-227.727	436.518	-0.093	0.199
-226.713	191.101	-0.380	0.562
-225.698	-108.659	-0.221	-0.047
-224.684	-152.375	0.311	0.022
-223.669	236.286	-0.110	0.180
-222.655	176.465	-0.025	0.035
-221.640	-200.000	0.022	0.137
-220.625	-109.394	-0.149	0.031
-219.611	-97.587	0.330	0.084
-218.596	64.495	0.137	0.136
-217.582	-57.041	-0.096	-0.041
-216.567	-200.000	-0.042	-0.182
-215.552	-47.427	0.170	-0.081
-214.538	-10.687	-0.113	-0.074
-213.523	34.966	-0.317	-0.273
-212.509	-66.585	0.084	-0.033
-211.494	800.000	0.114	0.340
-210.479	90.053	-0.021	-0.023
-209.465	425.323	-0.055	0.117
-208.450	169.314	0.067	-0.094
-207.436	-165.311	0.207	0.009
-206.421	230.457	-0.202	0.324
-205.406	-200.000	0.016	-0.117
-204.392	-53.332	-0.096	-0.043
-203.377	28.685	0.084	-0.070
-202.363	-34.241	0.138	-0.074
-201.348	-200.000	-0.040	-0.406
-200.333	-200.000	0.018	0.477
-199.319	-200.000	0.026	0.167
-198.304	404.782	0.137	-0.283
-197.290	65.391	0.145	-0.144
-196.275	41.081	0.212	-0.188
-195.260	-59.619	-0.077	-0.032
-194.246	-34.360	-0.304	0.164
-193.231	406.480	0.084	-0.174
-192.217	800.000	-0.037	-0.141
-191.202	-1.098	-0.148	-0.103
-190.187	-200.000	0.029	-0.210
-189.173	-62.980	0.142	0.058
-188.158	409.563	-0.098	-0.204
-187.144	-95.023	0.193	-0.051
-186.129	-200.000	0.025	0.296
-185.114	152.800	-0.303	0.407
-184.100	-139.922	-0.190	0.020
-183.085	-108.932	-0.091	-0.019
-182.071	162.852	0.109	-0.150
-181.056	-21.331	0.245	-0.147
-180.042	306.083	-0.047	0.086
-179.027	-77.673	-0.015	0.005
-178.012	-57.735	0.231	-0.099
-176.998	-84.963	-0.189	-0.058
-175.983	-200.000	-0.031	0.226
-174.969	-200.000	-0.034	0.161
-173.954	794.955	0.024	-0.065
-172.939	-200.000	-0.011	0.051
-171.925	549.797	-0.069	-0.161
-170.910	255.164	0.063	-0.106
-169.896	-200.000	0.004	0.078
-168.881	181.756	0.138	-0.200
-167.866	525.749	0.179	-0.414
-166.852	-200.000	0.005	0.040
-165.837	-89.302	-0.360	0.104
-164.823	305.760	0.163	0.298
-163.808	460.432	-0.048	0.105
-162.793	302.820	0.148	0.270
-161.779	800.000	-0.053	-0.207
-160.764	476.574	0.130	0.289
-159.750	-160.672	-0.249	0.013
-158.735	-200.000	0.022	0.145
-157.720	-174.814	0.334	-0.009
-156.706	-169.246	0.283	0.010
-155.691	367.697	0.185	-0.366
-154.677	79.880	0.083	-0.088
-153.662	-200.000	-0.002	0.222
-152.647	-56.011	0.202	0.088
-151.633	523.005	-0.128	-0.294
-150.618	800.000	-0.037	0.156
-149.604	-200.000	0.023	-0.128
-148.589	800.000	0.117	-0.353
-147.574	43.073	0.108	-0.097
-146.560	-200.000	-0.047	0.206
-145.545	-5.486	0.117	-0.079
-144.531	262.549	0.157	0.267
-143.516	13.443	-0.337	0.256
-142.502	33.672	0.194	-0.165
-141.487	-56.641	0.245	-0.107
-140.472	-125.548	-0.125	-0.019
-139.458	0.031	-0.254	0.178
-138.443	-2.572	-0.277	0.190
-137.429	57.300	-0.019	0.018
-136.414	-200.000	0.021	0.104
-135.399	-1.216	0.268	-0.185
-134.385	-2.927	0.231	-0.158
-133.370	-200.000	0.015	-0.323
-132.356	-109.790	-0.331	-0.068
-131.341	-128.308	0.346	-0.048
-130.326	23.845	0.201	0.162
-129.312	-134.128	-0.290	0.035
-128.297	800.000	0.038	-0.157
-127.283	643.998	-0.062	-0.155
-126.268	275.380	-0.219	-0.381
-125.253	171.748	0.056	0.079
-124.239	-45.260	0.137	0.067
-123.224	-90.235	0.356	-0.101
-122.210	-151.924	-0.263	0.019
-121.195	-200.000	-0.014	0.081
-120.180	483.350	-0.119	0.266
