DTS Sentinel unit serial number:	SN413079Multiplexer serial number:	ORYXHardware model number:	OX4-SRSoftware version number:	ORYX F/W v4.00 Oryx Data Collector v3.7.2.0data status	okinstallation	princeton_trtdifferential loss correction	single-endedforward channel	channel 2reverse channel	N/Adate	2019/09/14time	06:47:34forward acquisition time	60.00reverse acquisition time	0.00gamma	496.2192k internal	0.2338k external	0.2338temperature offset calibration	1.0139default loss term (dB/km)	0.3790temperature slope calibration	1.0000multiplexer offset coefficient	1.0000multiplexer slope coefficient	1.0000fibre end	0.00T internal ref (°C)	26.25T ext. ref 1 (°C)	3.42T ext. ref 2 (°C)	20.68length (m)	temperature (°C)	Stokes	anti-Stokes-747.200	-166.149	-0.185	-0.008
-746.185	500.551	0.133	-0.307
-745.171	278.994	-0.056	-0.100
-744.156	800.000	0.099	0.286
-743.142	223.402	0.096	0.155
-742.127	43.905	-0.093	-0.085
-741.112	-125.412	0.126	-0.019
-740.098	-200.000	-0.009	0.107
-739.083	-189.418	-0.291	-0.003
-738.069	-200.000	-0.015	0.243
-737.054	-14.854	-0.189	0.122
-736.039	-145.205	-0.405	-0.037
-735.025	373.227	0.154	0.315
-734.010	-121.110	-0.272	0.046
-732.996	-200.000	0.043	-0.229
-731.981	373.555	-0.047	0.096
-730.966	-123.607	-0.521	0.083
-729.952	48.745	-0.241	-0.227
-728.937	-200.000	-0.005	-0.369
-727.923	481.711	-0.153	-0.348
-726.908	188.185	-0.096	-0.144
-725.894	3.618	0.054	-0.040
-724.879	800.000	0.035	-0.112
-723.864	-114.061	-0.128	-0.025
-722.850	54.771	0.275	0.266
-721.835	-129.402	-0.279	0.039
-720.821	589.889	0.075	0.184
-719.806	-69.251	-0.214	-0.082
-718.791	-200.000	0.004	-0.032
-717.777	-200.000	-0.027	-0.304
-716.762	-135.290	-0.290	0.035
-715.748	127.256	-0.024	0.030
-714.733	322.143	0.164	0.313
-713.718	287.653	-0.128	-0.231
-712.704	79.738	0.246	-0.265
-711.689	-9.844	0.272	-0.182
-710.675	-118.036	-0.146	0.026
-709.660	-88.710	0.560	0.167
-708.645	71.656	0.139	0.145
-707.631	52.070	0.136	-0.130
-706.616	-20.593	0.237	0.146
-705.602	215.728	-0.164	0.260
-704.587	422.965	-0.041	0.089
-703.572	-200.000	-0.076	-0.510
-702.558	-55.569	-0.262	-0.117
-701.543	-96.081	-0.213	-0.057
-700.529	162.041	-0.076	-0.106
-699.514	117.052	0.194	-0.239
-698.499	-96.707	-0.218	0.057
-697.485	-200.000	-0.030	-0.208
-696.470	-133.475	-0.104	0.013
-695.456	85.368	0.066	0.073
-694.441	200.230	-0.155	-0.239
-693.426	1.623	-0.315	-0.227
-692.412	-109.322	-0.259	-0.055
-691.397	-200.000	0.012	-0.186
-690.383	800.000	-0.072	-0.290
-689.368	-187.459	-0.076	0.001
-688.354	-200.000	0.037	0.194
-687.339	-111.357	0.131	0.027
-686.324	800.000	-0.060	-0.184
-685.310	216.371	0.192	0.306
-684.295	-18.568	-0.127	-0.079
-683.281	-2.584	0.041	0.029
-682.266	185.321	-0.035	0.052
-681.251	800.000	0.043	0.120
-680.237	-17.688	-0.287	-0.180
-679.222	46.447	0.144	0.134
-678.208	800.000	0.099	0.402
-677.193	-154.496	-0.339	-0.023
-676.178	90.597	0.171	-0.192
-675.164	53.250	-0.074	-0.071
-674.149	28.612	0.176	-0.149
-673.135	280.153	-0.052	0.093
-672.120	-174.579	-0.244	0.007
-671.105	-51.790	0.091	0.042
-670.091	-38.480	0.101	0.054
-669.076	800.000	0.067	0.249
-668.062	401.991	-0.132	0.278
-667.047	800.000	-0.027	-0.084
-666.032	-156.467	-0.257	-0.016
-665.018	-200.000	0.031	0.000
-664.003	306.239	0.041	0.077
-662.989	56.691	0.132	-0.129
-661.974	-83.354	-0.321	-0.103
-660.959	-125.500	-0.131	-0.020
-659.945	-17.138	-0.203	-0.128
-658.930	800.000	-0.018	0.077
-657.916	109.004	0.126	0.151
-656.901	-147.758	0.193	-0.016
-655.886	-68.460	0.088	-0.034
-654.872	64.263	-0.116	0.117
-653.857	477.943	-0.192	-0.434
-652.843	-184.884	0.123	-0.002
-651.828	-170.211	-0.176	0.006
-650.814	-195.346	0.177	0.001
-649.799	-126.664	0.211	-0.031
-648.784	-200.000	0.015	-0.124
-647.770	-115.340	0.365	-0.069
-646.755	200.196	-0.058	-0.089
-645.741	-200.000	0.032	-0.145
-644.726	-200.000	-0.051	0.304
-643.711	-185.689	0.128	-0.002
-642.697	19.455	0.185	0.148
-641.682	-200.000	-0.035	-0.191
-640.668	-78.827	-0.105	-0.036
-639.653	-200.000	-0.051	0.265
-638.638	130.128	0.013	-0.016
-637.624	102.914	0.331	-0.387
-636.609	-200.000	-0.025	-0.446
-635.595	-70.541	0.177	0.067
-634.580	703.807	-0.160	0.422
-633.565	-35.509	0.221	0.120
-632.551	-170.649	0.398	0.014
-631.536	800.000	0.086	0.273
-630.522	315.492	-0.126	-0.237
-629.507	5.185	0.251	-0.185
-628.492	-200.000	-0.015	0.120
-627.478	800.000	0.073	-0.203
-626.463	-84.399	-0.217	0.068
-625.449	-200.000	0.069	0.360
-624.434	712.856	-0.039	0.104
-623.419	-28.974	-0.138	-0.079
-622.405	-91.368	-0.229	-0.065
-621.390	-200.000	0.006	-0.123
-620.376	16.088	-0.086	0.068
-619.361	615.459	-0.082	-0.206
-618.346	-145.433	-0.100	0.009
-617.332	344.694	-0.147	0.287
-616.317	-200.000	-0.009	-0.073
-615.303	285.352	0.255	0.458
-614.288	-52.720	0.077	0.035
-613.273	161.808	0.048	-0.068
-612.259	-200.000	-0.057	-0.287
-611.244	-200.000	0.018	-0.218
-610.230	-190.842	0.030	-0.000
-609.215	-103.363	0.301	-0.071
-608.201	-200.000	-0.017	-0.076
-607.186	800.000	-0.068	-0.219
-606.171	800.000	0.025	0.078
-605.157	-140.392	0.283	0.030
-604.142	200.634	-0.131	-0.200
-603.128	-35.376	-0.504	0.273
-602.113	-200.000	0.057	0.000
-601.098	-146.555	-0.065	0.006
-600.084	-128.746	-0.092	0.013
-599.069	-52.090	-0.202	0.093
-598.055	-35.911	-0.187	-0.101
-597.040	-36.801	-0.210	0.113
-596.025	-3.506	0.308	-0.214
-595.011	148.400	0.207	-0.280
-593.996	-200.000	0.036	0.320
-592.982	-200.000	0.003	0.057
-591.967	-200.000	-0.005	-0.160
-590.952	-200.000	-0.058	-0.280
-589.938	-200.000	-0.023	-0.122
-588.923	-82.469	-0.464	-0.150
-587.909	-79.581	-0.396	-0.133
-586.894	533.137	0.057	0.134
-585.879	-120.537	0.223	0.038
-584.865	253.924	-0.185	0.315
-583.850	242.967	-0.194	0.324
-582.836	800.000	0.055	0.158
-581.821	-63.028	-0.173	-0.071
-580.806	800.000	0.087	-0.301
-579.792	268.958	-0.063	-0.110
-578.777	800.000	0.116	-0.344
-577.763	-187.021	0.120	-0.002
-576.748	-72.113	-0.177	-0.066
-575.733	-200.000	0.010	0.155
-574.719	105.838	-0.049	-0.058
-573.704	800.000	0.023	-0.090
-572.690	-40.039	0.307	-0.160
-571.675	-161.912	0.106	-0.005
-570.661	141.146	-0.144	-0.190
-569.646	800.000	0.063	-0.227
-568.631	442.920	0.139	-0.304
-567.617	-56.192	0.172	0.076
-566.602	19.189	-0.233	0.187
-565.588	103.390	0.033	-0.039
-564.573	22.159	0.156	0.127
-563.558	-161.765	0.196	-0.010
-562.544	-18.440	0.048	0.030
-561.529	-200.000	-0.018	0.147
-560.515	-63.601	0.404	-0.165
-559.500	3.482	-0.095	-0.069
-558.485	-121.412	0.195	0.032
-557.471	800.000	0.141	0.392
-556.456	225.488	0.105	-0.170
-555.442	92.413	-0.204	0.229
-554.427	-112.753	0.156	-0.031
-553.412	-49.364	-0.289	-0.137
-552.398	3.328	0.233	-0.169
-551.383	177.928	-0.043	-0.062
-550.369	232.162	0.034	0.055
-549.354	28.359	0.084	-0.070
-548.339	15.312	0.213	0.166
-547.325	164.328	0.215	0.302
-546.310	-73.822	-0.261	-0.094
-545.296	788.714	-0.034	-0.092
-544.281	-53.720	-0.225	0.102
-543.266	-50.401	0.359	-0.169
-542.252	209.060	-0.131	-0.205
-541.237	11.435	-0.330	0.252
-540.223	-133.306	-0.150	0.019
-539.208	168.399	0.085	0.120
-538.193	-200.000	0.011	-0.236
-537.179	-48.482	0.127	0.061
-536.164	-153.953	-0.101	-0.007
-535.150	111.120	-0.076	-0.092
-534.135	-64.135	0.170	0.069
-533.121	202.713	0.148	0.228
-532.106	-144.009	0.384	-0.036
-531.091	-117.532	0.087	0.016
-530.077	-200.000	0.006	-0.055
-529.062	-200.000	-0.065	-0.327
-528.048	-89.431	-0.052	0.015
-527.033	-96.086	-0.238	0.063
-526.018	-18.793	-0.170	-0.106
-525.004	170.612	0.046	0.066
-523.989	27.009	-0.096	-0.080
-522.975	-200.000	-0.033	0.151
-521.960	18.578	0.032	0.026
-520.945	81.247	0.092	-0.099
-519.931	-200.000	-0.023	-0.230
-518.916	77.398	0.274	-0.290
-517.902	57.759	-0.262	0.255
-516.887	-38.290	-0.206	-0.108
-515.872	627.445	-0.166	0.417
-514.858	53.653	0.135	-0.129
-513.843	-50.870	0.094	0.044
-512.829	278.381	-0.063	-0.112
-511.814	-0.807	-0.278	-0.196
-510.799	-200.000	0.050	-0.283
-509.785	-77.882	-0.331	-0.114
-508.770	103.185	-0.022	-0.026
-507.756	132.858	-0.079	-0.101
-506.741	800.000	0.040	0.160
-505.726	-113.590	0.241	-0.047
-504.712	-182.150	-0.096	-0.002
-503.697	800.000	-0.091	0.346
-502.683	32.076	-0.262	-0.225
-501.668	-149.752	0.494	-0.039
-500.653	465.639	-0.084	-0.186
-499.639	800.000	0.024	-0.082
-498.624	-200.000	0.020	-0.105
-497.610	-179.232	-0.188	0.004
-496.595	4.893	0.168	-0.123
-495.581	104.490	0.079	0.093
-494.566	-128.059	-0.216	0.031
-493.551	-200.000	-0.038	0.183
-492.537	307.873	0.024	0.045
-491.522	-99.779	0.194	0.048
-490.508	800.000	-0.078	-0.270
-489.493	-19.130	0.154	-0.095
-488.478	244.477	0.151	-0.253
-487.464	-200.000	-0.007	-0.037
-486.449	-23.363	0.164	0.098
-485.435	-76.744	0.155	-0.054
-484.420	800.000	-0.031	-0.130
-483.405	64.562	-0.121	0.121
-482.391	48.452	0.233	-0.217
-481.376	-17.498	-0.229	-0.143
-480.362	800.000	-0.042	0.141
-479.347	-108.755	0.219	-0.047
-478.332	-200.000	-0.053	0.230
-477.318	-134.451	-0.309	-0.038
-476.303	-165.262	0.197	-0.009
-475.289	29.002	-0.325	0.274
-474.274	-5.021	-0.240	0.164
-473.259	206.754	-0.193	-0.298
-472.245	485.018	-0.077	0.173
-471.230	-119.631	-0.168	0.029
-470.216	502.073	-0.085	0.194
-469.201	-200.000	0.030	-0.155
-468.186	-200.000	-0.019	-0.128
-467.172	54.925	0.119	-0.114
-466.157	-87.964	-0.403	-0.120
-465.143	-200.000	-0.039	0.227
-464.128	-87.429	0.080	-0.024
-463.113	79.725	-0.223	-0.238
-462.099	-39.238	-0.337	-0.175
-461.084	2.121	-0.054	0.039
-460.070	-105.795	0.274	0.062
-459.055	351.719	-0.084	0.166
-458.040	17.904	0.264	-0.208
-457.026	110.837	-0.199	-0.238
-456.011	-94.800	0.106	-0.029
-454.997	-79.910	-0.070	-0.023
-453.982	-107.236	0.310	0.068
-452.968	-163.366	-0.407	0.019
-451.953	443.153	-0.184	0.401
-450.938	359.195	-0.220	0.436
-449.924	-200.000	0.031	0.190
-448.909	-28.947	-0.143	-0.081
-447.895	385.216	0.026	0.053
-446.880	-101.271	0.337	0.082
-445.865	-200.000	0.034	0.423
-444.851	-0.718	0.391	0.275
-443.836	329.613	0.143	0.274
-442.822	-200.000	-0.002	0.164
-441.807	-90.770	0.242	-0.069
-440.792	-68.479	0.181	0.070
-439.778	-64.753	-0.303	-0.122
-438.763	-155.958	-0.085	-0.005
-437.749	-110.686	-0.267	-0.055
-436.734	96.524	-0.123	-0.140
-435.719	-142.399	0.346	0.034
-434.705	-200.000	0.019	-0.179
-433.690	-68.375	-0.108	0.042
-432.676	680.587	0.024	0.061
-431.661	727.869	0.025	0.065
-430.646	348.871	-0.175	-0.342
-429.632	326.285	-0.070	0.133
-428.617	-3.327	-0.194	0.134
-427.603	205.779	0.160	-0.246
-426.588	800.000	-0.064	-0.238
-425.573	345.564	0.079	0.154
-424.559	-106.069	0.269	0.060
-423.544	-112.952	0.114	-0.022
-422.530	-200.000	-0.008	0.226
-421.515	800.000	0.100	0.358
-420.500	-200.000	0.006	-0.121
-419.486	-187.534	0.224	0.003
-418.471	800.000	-0.092	-0.267
-417.457	-74.973	-0.249	0.089
-416.442	800.000	-0.052	-0.146
-415.428	24.613	0.104	-0.085
-414.413	791.676	0.108	-0.295
-413.398	-111.137	-0.422	0.086
-412.384	800.000	0.034	0.123
-411.369	-178.592	-0.168	0.004
-410.355	12.886	-0.159	-0.122
-409.340	-100.588	-0.050	-0.012
-408.325	7.501	-0.180	-0.133
-407.311	-160.771	0.337	-0.018
-406.296	84.200	-0.180	0.195
-405.282	149.655	-0.130	0.175
-404.267	59.475	-0.049	-0.047
-403.252	-169.443	-0.238	-0.009
-402.238	194.908	0.209	-0.315
-401.223	71.218	-0.227	0.234
-400.209	-200.000	0.016	-0.113
-399.194	-200.000	0.049	0.247
-398.179	416.063	0.099	0.209
-397.165	800.000	-0.045	-0.124
-396.150	800.000	-0.022	0.062
-395.136	-88.733	0.543	0.160
-394.121	-200.000	0.006	-0.087
-393.106	-64.170	-0.231	0.093
-392.092	-149.270	-0.150	-0.012
-391.077	-112.305	0.511	0.101
-390.063	24.677	0.413	-0.338
-389.048	167.634	0.135	-0.190
-388.033	-200.000	-0.040	0.235
-387.019	91.807	-0.198	-0.221
-386.004	-52.638	-0.339	0.155
-384.990	800.000	0.022	-0.088
-383.975	-200.000	0.073	0.350
-382.960	557.517	0.042	-0.101
-381.946	-92.012	0.284	0.080
-380.931	-128.037	-0.213	-0.030
-379.917	82.597	-0.050	0.054
-378.902	36.764	0.155	-0.135
-377.888	9.638	-0.191	0.143
-376.873	-122.004	-0.322	-0.052
-375.858	-86.155	-0.236	0.072
-374.844	-200.000	-0.011	-0.323
-373.829	-130.103	0.163	0.022
-372.815	800.000	0.048	0.136
-371.800	800.000	-0.086	0.331
-370.785	-200.000	-0.057	0.270
-369.771	-200.000	-0.004	-0.168
-368.756	-200.000	-0.003	-0.112
-367.742	-200.000	-0.016	-0.163
-366.727	365.085	0.137	0.272
-365.712	-65.305	0.186	0.074
-364.698	718.549	0.049	0.128
-363.683	46.873	0.110	0.101
-362.669	-61.375	-0.331	0.138
-361.654	518.437	0.129	0.299
-360.639	188.833	0.151	-0.224
-359.625	-35.513	-0.383	0.206
-358.610	-200.000	-0.014	0.435
-357.596	-70.307	-0.066	0.025
-356.581	-136.391	0.141	-0.016
-355.566	-107.462	0.370	0.080
-354.552	182.899	0.147	-0.214
-353.537	-12.515	0.190	0.122
-352.523	610.974	0.163	0.402
-351.508	4.836	0.243	0.177
-350.493	198.622	0.091	0.137
-349.479	203.479	-0.058	0.089
-348.464	24.253	-0.026	0.021
-347.450	800.000	0.053	0.183
-346.435	-140.913	0.213	-0.022
-345.420	274.738	0.169	-0.296
-344.406	-111.996	0.341	0.068
-343.391	-22.076	0.111	-0.066
-342.377	-200.000	0.026	-0.272
-341.362	-51.920	0.348	0.160
-340.348	-84.909	0.030	-0.009
-339.333	800.000	0.069	0.212
-338.318	800.000	0.136	0.393
-337.304	41.041	0.445	-0.397
-336.289	638.872	-0.074	-0.186
-335.275	-24.641	0.192	0.113
-334.260	-200.000	-0.016	-0.085
-333.245	-76.233	-0.220	0.077
-332.231	-200.000	0.246	-0.001
-331.216	-10.948	0.396	-0.258
-330.202	-100.215	-0.271	-0.066
-329.187	-21.228	-0.274	0.165
-328.172	-200.000	0.001	-0.113
-327.158	117.290	-0.241	-0.292
-326.143	125.520	0.008	0.010
-325.129	-200.000	0.001	0.193
-324.114	-115.971	-0.227	0.042
-323.099	16.741	0.246	0.192
-322.085	-16.925	0.539	0.336
-321.070	17.816	-0.139	0.109
-320.056	800.000	-0.038	0.163
-319.041	800.000	-0.068	0.204
-318.026	458.927	-0.208	0.457
-317.012	177.494	0.019	0.027
-315.997	-162.409	0.563	0.028
-314.983	509.095	-0.163	0.373
-313.968	188.743	-0.090	-0.133
-312.953	-133.002	-0.164	-0.021
-311.939	800.000	0.097	-0.281
-310.924	-83.309	-0.267	0.085
-309.910	-200.000	0.017	0.169
-308.895	-111.202	-0.208	0.042
-307.880	109.862	-0.142	0.168
-306.866	-188.086	-0.152	0.002
-305.851	-111.909	-0.247	-0.049
-304.837	-37.936	-0.411	-0.215
-303.822	800.000	-0.079	-0.335
-302.807	786.387	0.039	-0.104
-301.793	96.142	0.204	-0.230
-300.778	-200.000	0.046	0.277
-299.764	133.830	-0.046	0.058
-298.749	-124.267	0.235	-0.036
-297.735	9.824	0.186	0.139
-296.720	33.076	-0.221	0.189
-295.705	-78.669	-0.067	-0.023
-294.691	-200.000	-0.027	-0.181
-293.676	50.701	0.137	0.128
-292.662	-40.484	0.518	0.265
-291.647	800.000	-0.080	0.244
-290.632	585.856	0.082	0.200
-289.618	36.012	-0.294	-0.255
-288.603	800.000	0.150	0.602
-287.589	-33.156	-0.312	0.171
-286.574	-100.072	0.103	-0.025
-285.559	-24.038	-0.318	0.187
-284.545	-200.000	0.002	-0.432
-283.530	-122.062	-0.214	0.035
-282.516	151.616	0.101	-0.136
-281.501	-161.220	-0.199	0.010
-280.486	-200.000	-0.003	-0.270
-279.472	784.720	0.041	0.111
-278.457	147.128	0.118	-0.156
-277.443	-200.000	0.014	-0.067
-276.428	-101.106	-0.196	-0.047
-275.413	74.829	-0.118	-0.122
-274.399	52.362	0.189	0.177
-273.384	-149.140	0.287	0.023
-272.370	-91.493	0.080	0.022
-271.355	167.750	0.190	0.267
-270.340	732.747	-0.078	0.204
-269.326	79.355	0.080	0.085
-268.311	-200.000	0.031	-0.263
-267.297	-25.841	-0.225	-0.131
-266.282	187.846	0.134	0.197
-265.267	651.516	-0.015	-0.037
-264.253	168.543	-0.067	-0.094
-263.238	754.032	0.082	-0.218
-262.224	9.355	-0.412	-0.307
-261.209	-47.476	0.235	0.113
-260.195	373.294	-0.134	-0.269
-259.180	-132.559	-0.280	0.035
-258.165	-200.000	0.014	-0.111
-257.151	27.328	-0.361	-0.299
-256.136	729.121	0.131	-0.345
-255.122	39.898	-0.238	-0.211
-254.107	-187.012	-0.448	-0.006
-253.092	340.649	0.123	-0.237
-252.078	718.597	0.069	-0.180
-251.063	28.157	-0.085	0.070
-250.049	112.311	-0.093	-0.110
-249.034	19.631	-0.450	0.356
-248.019	-179.916	0.197	-0.004
-247.005	-90.350	0.222	0.063
-245.990	-200.000	0.005	0.203
-244.976	-84.696	0.280	-0.087
-243.961	-200.000	-0.009	0.238
-242.946	-79.997	0.267	-0.088
-241.932	800.000	-0.066	-0.283
-240.917	117.137	0.073	0.089
-239.903	0.990	-0.355	-0.251
-238.888	106.252	-0.051	-0.059
-237.873	-200.000	-0.003	0.034
-236.859	286.420	0.093	-0.164
-235.844	800.000	0.021	0.091
-234.830	695.386	-0.063	-0.162
-233.815	-120.379	0.499	0.084
-232.800	209.048	0.160	-0.246
-231.786	17.982	-0.219	-0.172
-230.771	-48.314	0.039	0.019
-229.757	-14.960	0.092	0.058
-228.742	-34.694	-0.173	0.093
-227.727	50.469	0.041	0.038
-226.713	88.397	0.189	-0.206
-225.698	-54.515	-0.104	0.046
-224.684	398.579	0.155	-0.319
-223.669	-59.932	0.198	0.083
-222.655	-116.925	-0.430	0.077
-221.640	-55.150	-0.119	-0.053
-220.625	70.954	0.164	-0.167
-219.611	800.000	0.065	0.252
-218.596	176.250	-0.242	0.345
-217.582	113.316	0.030	0.036
-216.567	-43.757	-0.159	-0.079
-215.552	-24.128	-0.363	-0.213
-214.538	68.208	0.036	-0.036
-213.523	-10.603	0.088	-0.057
-212.509	187.961	0.111	0.163
-211.494	-200.000	0.042	0.385
-210.479	-82.253	-0.170	0.055
-209.465	59.227	-0.118	0.115
-208.450	-200.000	0.029	-0.181
-207.436	800.000	0.062	-0.189
-206.421	-66.079	-0.151	0.059
-205.406	267.428	-0.133	0.229
-204.392	384.248	-0.137	-0.277
-203.377	-107.651	0.038	-0.008
-202.363	97.689	-0.271	0.306
-201.348	800.000	0.086	-0.256
-200.333	-102.374	0.182	-0.043
-199.319	-119.231	0.318	-0.054
-198.304	-151.761	-0.055	0.004
-197.290	42.748	-0.041	0.036
-196.275	99.403	0.071	0.081
-195.260	-200.000	0.082	0.407
-194.246	256.116	0.090	-0.152
-193.231	23.187	-0.090	-0.073
-192.217	75.967	-0.052	-0.054
-191.202	-9.890	0.151	0.098
-190.187	-200.000	0.054	0.378
-189.173	-87.532	-0.194	-0.058
-188.158	-92.172	0.092	0.026
-187.144	-2.878	-0.200	0.137
-186.129	-178.897	0.266	0.006
-185.114	-92.651	-0.125	0.034
-184.100	-116.407	0.453	0.082
-183.085	-16.537	-0.255	-0.158
-182.071	-49.497	-0.199	-0.093
-181.056	97.145	0.181	0.203
-180.042	137.438	-0.137	-0.176
-179.027	-34.118	-0.175	-0.094
-178.012	-124.889	-0.171	0.026
-176.998	170.740	0.117	-0.165
-175.983	47.967	0.298	-0.273
-174.969	-200.000	0.018	-0.173
-173.954	-96.783	-0.237	0.061
-172.939	800.000	-0.037	-0.152
-171.925	-155.224	0.290	-0.019
-170.910	-111.736	0.413	0.082
-169.896	-144.059	0.288	0.027
-168.881	-166.781	-0.267	-0.011
-167.866	800.000	0.012	0.036
-166.852	-200.000	-0.005	-0.026
-165.837	71.334	-0.251	-0.256
-164.823	25.828	0.107	-0.087
-163.808	201.799	-0.151	-0.228
-162.793	-200.000	0.061	0.277
-161.779	-200.000	-0.016	-0.239
-160.764	-151.364	-0.118	-0.009
-159.750	58.541	0.130	0.125
-158.735	-200.000	0.015	0.124
-157.720	-14.832	-0.073	0.046
-156.706	10.050	-0.042	0.031
-155.691	398.319	-0.173	-0.355
-154.677	471.810	-0.064	-0.141
-153.662	109.819	-0.042	0.049
-152.647	-22.852	-0.311	0.184
-151.633	-132.424	0.110	-0.014
-150.618	-101.824	0.496	0.118
-149.604	-21.771	-0.128	0.077
-148.589	-67.479	0.116	0.045
-147.574	-125.560	0.145	-0.022
-146.560	86.712	-0.151	0.163
-145.545	-200.000	0.028	-0.164
-144.531	-200.000	-0.001	0.162
-143.516	326.659	-0.063	-0.119
-142.502	-200.000	-0.047	-0.338
-141.487	243.496	0.040	0.066
-140.472	800.000	0.084	-0.338
-139.458	173.970	-0.122	0.172
-138.443	-134.997	-0.257	0.030
-137.429	197.648	0.186	-0.279
-136.414	-92.756	0.253	-0.069
-135.399	21.334	0.114	0.091
-134.385	-96.856	0.187	0.048
-133.370	-111.361	-0.280	0.056
-132.356	-68.232	-0.259	0.099
-131.341	800.000	-0.085	-0.239
-130.326	4.171	0.216	0.155
-129.312	-154.718	-0.217	-0.014
-128.297	-89.707	0.217	0.062
-127.283	21.601	-0.164	0.131
-126.268	-79.639	0.138	0.046
-125.253	-74.282	-0.210	-0.074
-124.239	-174.008	-0.149	0.004
-123.224	-63.064	0.117	-0.047
-122.210	12.106	-0.129	-0.097
