DTS Sentinel unit serial number:	SN413079Multiplexer serial number:	ORYXHardware model number:	OX4-SRSoftware version number:	ORYX F/W v4.00 Oryx Data Collector v3.7.2.0data status	okinstallation	princeton_trtdifferential loss correction	single-endedforward channel	channel 2reverse channel	N/Adate	2019/09/13time	15:31:35forward acquisition time	60.00reverse acquisition time	0.00gamma	496.2192k internal	0.2317k external	0.2317temperature offset calibration	1.0211default loss term (dB/km)	0.3790temperature slope calibration	1.0000multiplexer offset coefficient	1.0000multiplexer slope coefficient	1.0000fibre end	0.00T internal ref (°C)	35.11T ext. ref 1 (°C)	4.74T ext. ref 2 (°C)	29.63length (m)	temperature (°C)	Stokes	anti-Stokes-747.200	-106.119	0.215	0.049
-746.185	609.642	-0.108	0.274
-745.171	-91.109	0.092	0.027
-744.156	-149.115	-0.407	0.033
-743.142	128.250	-0.021	0.027
-742.127	244.795	0.098	0.166
-741.112	78.847	-0.112	0.122
-740.098	19.446	-0.212	0.172
-739.083	146.276	-0.082	-0.112
-738.069	800.000	-0.127	0.506
-737.054	450.545	0.099	0.222
-736.039	-200.000	0.030	-0.202
-735.025	-200.000	0.004	0.283
-734.010	239.927	-0.221	-0.372
-732.996	800.000	-0.109	-0.480
-731.981	57.075	0.152	-0.150
-730.966	800.000	-0.059	-0.197
-729.952	-32.711	0.045	-0.026
-728.937	-200.000	0.040	-0.328
-727.923	-104.748	-0.610	0.142
-726.908	-200.000	-0.038	0.210
-725.894	-9.409	-0.256	-0.173
-724.879	-23.131	0.090	-0.055
-723.864	-41.242	-0.297	-0.155
-722.850	-52.060	0.145	0.068
-721.835	85.617	-0.199	0.221
-720.821	-200.000	-0.065	0.312
-719.806	-66.070	-0.307	0.124
-718.791	-16.558	-0.402	0.258
-717.777	137.236	-0.116	-0.153
-716.762	605.014	0.087	0.219
-715.748	-200.000	0.021	-0.139
-714.733	-37.936	0.121	0.065
-713.718	256.961	-0.035	0.061
-712.704	80.422	-0.180	-0.196
-711.689	57.385	-0.261	-0.258
-710.675	186.272	0.046	-0.069
-709.660	-200.000	-0.043	-0.261
-708.645	103.315	0.146	-0.173
-707.631	95.732	-0.275	-0.318
-706.616	800.000	0.039	-0.148
-705.602	800.000	0.064	-0.194
-704.587	-145.817	-0.524	-0.047
-703.572	116.918	-0.069	-0.085
-702.558	-71.282	0.374	-0.142
-701.543	266.962	-0.156	0.276
-700.529	-146.316	0.042	-0.004
-699.514	-200.000	0.001	-0.082
-698.499	800.000	-0.018	-0.057
-697.485	-200.000	0.005	-0.475
-696.470	-200.000	-0.052	-0.341
-695.456	501.974	-0.049	-0.113
-694.441	800.000	0.065	-0.211
-693.426	-111.973	-0.056	-0.011
-692.412	800.000	0.086	-0.245
-691.397	-166.700	0.255	0.011
-690.383	-9.094	-0.190	-0.129
-689.368	-78.280	-0.155	0.054
-688.354	88.458	0.183	-0.205
-687.339	22.046	-0.183	0.151
-686.324	-50.162	0.486	0.232
-685.310	367.439	0.017	0.035
-684.295	-178.335	-0.157	0.004
-683.281	473.383	-0.105	0.239
-682.266	484.320	-0.094	0.217
-681.251	-120.190	-0.350	0.060
-680.237	467.707	0.108	-0.245
-679.222	-137.597	-0.221	0.025
-678.208	-45.743	0.184	-0.092
-677.193	-200.000	-0.038	0.186
-676.178	800.000	-0.082	0.246
-675.164	-73.946	0.202	-0.074
-674.149	-200.000	-0.001	-0.267
-673.135	261.819	-0.130	-0.228
-672.120	403.253	0.095	-0.203
-671.105	-146.154	0.263	0.023
-670.091	-200.000	0.008	0.148
-669.076	-84.111	-0.102	0.033
-668.062	800.000	0.050	-0.207
-667.047	-89.077	0.506	-0.151
-666.032	-200.000	-0.019	0.180
-665.018	-55.314	-0.123	0.056
-664.003	-133.378	0.121	0.015
-662.989	52.220	-0.053	0.051
-661.974	-78.028	0.155	0.054
-660.959	1.470	-0.122	-0.089
-659.945	-127.099	0.438	-0.065
-658.930	800.000	0.092	-0.260
-657.916	479.084	-0.129	0.294
-656.901	-134.144	-0.037	0.005
-655.886	538.733	-0.120	0.289
-654.872	129.050	-0.047	0.060
-653.857	-200.000	0.010	-0.114
-652.843	-200.000	-0.023	-0.153
-651.828	800.000	0.060	-0.175
-650.814	-200.000	0.034	-0.334
-649.799	-119.112	0.117	-0.021
-648.784	-61.178	-0.336	-0.143
-647.770	104.036	-0.125	0.148
-646.755	-139.623	0.084	0.009
-645.741	-177.252	-0.018	0.000
-644.726	-120.611	-0.180	0.031
-643.711	-200.000	-0.021	-0.557
-642.697	-11.029	-0.266	-0.177
-641.682	-200.000	0.007	0.064
-640.668	774.335	0.060	-0.164
-639.653	-200.000	-0.079	0.422
-638.638	-62.491	0.099	0.041
-637.624	-86.181	0.176	0.055
-636.609	800.000	0.041	0.144
-635.595	-185.454	-0.433	-0.007
-634.580	800.000	0.026	-0.076
-633.565	-130.691	-0.217	0.029
-632.551	-200.000	-0.026	-0.365
-631.536	200.377	0.164	-0.254
-630.522	-200.000	0.008	-0.169
-629.507	800.000	0.115	0.331
-628.492	94.095	-0.133	-0.152
-627.478	-82.289	-0.231	0.076
-626.463	555.225	0.078	0.188
-625.449	-40.294	-0.266	-0.140
-624.434	-196.357	0.260	-0.002
-623.419	-58.986	-0.137	-0.060
-622.405	-160.671	-0.241	-0.013
-621.390	35.618	-0.037	-0.033
-620.376	30.345	0.238	-0.205
-619.361	-200.000	0.013	0.119
-618.346	-21.048	0.024	-0.015
-617.332	-17.468	-0.179	0.113
-616.317	-179.047	0.217	-0.005
-615.303	7.630	0.152	0.114
-614.288	-106.567	-0.126	-0.028
-613.273	-96.865	0.259	-0.069
-612.259	84.292	-0.120	0.132
-611.244	13.465	0.134	-0.105
-610.230	68.237	-0.244	-0.251
-609.215	543.993	0.133	0.319
-608.201	646.144	-0.123	0.316
-607.186	68.899	-0.169	0.175
-606.171	209.323	-0.089	-0.140
-605.157	99.833	-0.073	-0.085
-604.142	800.000	-0.116	-0.350
-603.128	15.102	-0.129	0.102
-602.113	800.000	-0.067	0.210
-601.098	-1.339	0.347	-0.247
-600.084	-118.425	-0.167	0.030
-599.069	397.239	-0.100	-0.210
-598.055	-200.000	-0.014	-0.079
-597.040	-200.000	-0.013	-0.127
-596.025	705.005	0.016	0.044
-595.011	-53.019	0.252	-0.117
-593.996	313.939	-0.113	-0.214
-592.982	-139.733	-0.175	-0.019
-591.967	800.000	-0.025	0.097
-590.952	800.000	0.079	-0.328
-589.938	800.000	-0.127	-0.382
-588.923	105.884	0.107	-0.128
-587.909	-200.000	-0.026	0.235
-586.894	145.171	0.098	0.131
-585.879	-26.364	0.323	-0.191
-584.865	692.711	0.059	-0.155
-583.850	25.590	0.321	0.269
-582.836	-200.000	-0.024	0.146
-581.821	177.273	-0.135	0.198
-580.806	-200.000	-0.002	-0.055
-579.792	-1.109	-0.141	-0.101
-578.777	-200.000	0.010	-0.316
-577.763	-18.752	0.141	0.088
-576.748	800.000	-0.054	0.187
-575.733	41.056	-0.278	0.252
-574.719	-130.471	0.016	-0.002
-573.704	-27.575	0.174	-0.102
-572.690	-200.000	0.004	-0.327
-571.675	406.156	-0.060	0.127
-570.661	-146.258	-0.331	-0.029
-569.646	-159.763	0.506	0.028
-568.631	-94.476	-0.193	0.053
-567.617	-126.955	-0.106	-0.016
-566.602	-179.920	-0.497	0.011
-565.588	-200.000	-0.027	0.388
-564.573	-72.917	0.266	0.098
-563.558	-200.000	-0.026	0.481
-562.544	119.614	-0.191	-0.238
-561.529	28.589	0.056	-0.048
-560.515	-61.714	-0.078	0.033
-559.500	-63.529	0.037	-0.015
-558.485	80.525	0.034	0.037
-557.471	-55.849	0.114	0.051
-556.456	-64.873	0.258	0.105
-555.442	642.760	-0.092	0.235
-554.427	-11.836	-0.289	-0.190
-553.412	-164.936	0.214	0.010
-552.398	255.603	-0.060	-0.104
-551.383	-21.120	0.055	-0.034
-550.369	131.825	-0.155	0.200
-549.354	437.424	-0.062	-0.136
-548.339	-83.293	-0.156	-0.050
-547.325	-200.000	0.064	-0.332
-546.310	-196.462	-0.131	0.001
-545.296	-38.675	-0.159	-0.084
-544.281	52.805	-0.086	0.082
-543.266	-200.000	-0.002	-0.393
-542.252	22.017	-0.304	-0.249
-541.237	-89.291	-0.355	-0.105
-540.223	800.000	0.084	0.271
-539.208	-96.650	0.388	-0.103
-538.193	19.911	-0.067	-0.054
-537.179	139.418	0.126	-0.166
-536.164	150.702	-0.137	-0.188
-535.150	-200.000	0.011	0.217
-534.135	800.000	0.091	-0.272
-533.121	-89.187	-0.205	0.061
-532.106	59.090	-0.197	0.195
-531.091	-3.043	0.043	-0.030
-530.077	3.336	-0.264	-0.193
-529.062	-23.476	-0.337	-0.203
-528.048	800.000	-0.122	0.362
-527.033	-200.000	0.021	-0.406
-526.018	494.260	-0.075	-0.173
-525.004	-45.577	-0.377	0.187
-523.989	128.410	0.095	-0.122
-522.975	125.701	-0.081	0.102
-521.960	56.716	-0.136	-0.132
-520.945	81.200	0.211	-0.228
-519.931	-12.752	-0.054	0.035
-518.916	800.000	0.082	0.238
-517.902	800.000	0.043	-0.135
-516.887	36.438	0.263	-0.233
-515.872	243.587	-0.189	0.318
-514.858	794.121	-0.093	-0.258
-513.843	100.051	0.066	0.077
-512.829	297.024	-0.093	0.172
-511.814	63.706	0.193	0.194
-510.799	85.432	-0.046	-0.051
-509.785	-200.000	0.039	0.177
-508.770	800.000	0.054	0.154
-507.756	-160.179	-0.567	0.031
-506.741	-59.308	0.420	0.181
-505.726	95.194	0.115	0.132
-504.712	-200.000	-0.007	-0.084
-503.697	-31.293	-0.322	-0.182
-502.683	-74.371	-0.012	-0.004
-501.668	-57.470	-0.336	0.148
-500.653	321.546	-0.176	-0.336
-499.639	800.000	-0.096	0.358
-498.624	-138.189	0.242	-0.027
-497.610	-40.928	0.039	-0.020
-496.595	-200.000	-0.012	-0.080
-495.581	-129.749	-0.052	0.007
-494.566	-200.000	0.031	-0.180
-493.551	13.402	-0.433	-0.337
-492.537	157.740	0.123	0.171
-491.522	-151.097	0.309	0.023
-490.508	275.697	-0.035	-0.063
-489.493	30.826	-0.183	0.157
-488.478	800.000	-0.036	0.102
-487.464	800.000	-0.068	-0.259
-486.449	-115.344	0.201	0.038
-485.435	-67.677	-0.079	-0.031
-484.420	-70.936	-0.146	0.055
-483.405	-104.452	0.090	0.021
-482.391	-200.000	0.020	0.170
-481.376	-81.737	0.357	-0.117
-480.362	-200.000	0.018	-0.080
-479.347	-92.149	0.178	-0.050
-478.332	800.000	-0.044	-0.137
-477.318	4.648	0.031	0.023
-476.303	-200.000	-0.052	-0.247
-475.289	-200.000	-0.016	-0.093
-474.274	-200.000	0.011	-0.299
-473.259	-90.180	-0.277	0.081
-472.245	800.000	-0.016	-0.046
-471.230	406.521	0.113	-0.240
-470.216	-200.000	0.041	0.222
-469.201	32.151	0.340	-0.294
-468.186	-66.177	-0.411	-0.164
-467.172	-49.681	-0.207	0.098
-466.157	453.539	0.117	0.259
-465.143	800.000	0.058	-0.181
-464.128	12.111	-0.324	-0.250
-463.113	-108.515	0.204	-0.044
-462.099	-107.510	0.119	-0.026
-461.084	678.438	-0.083	-0.217
-460.070	-22.702	0.136	0.082
-459.055	153.394	0.075	0.103
-458.040	-69.477	-0.447	0.172
-457.026	800.000	0.121	0.528
-456.011	379.988	0.042	-0.086
-454.997	-11.261	-0.067	0.044
-453.982	30.142	0.194	-0.166
-452.968	101.843	-0.057	0.066
-451.953	-88.974	0.143	-0.042
-450.938	-0.211	-0.163	-0.116
-449.924	-59.670	-0.240	-0.103
-448.909	14.324	-0.171	0.133
-447.895	-200.000	0.020	0.222
-446.880	-200.000	0.007	0.177
-445.865	181.711	-0.043	-0.064
-444.851	-200.000	0.034	-0.306
-443.836	249.921	0.068	-0.115
-442.822	-35.948	-0.074	0.040
-441.807	19.307	0.090	-0.073
-440.792	800.000	-0.045	-0.154
-439.778	-109.904	0.216	0.045
-438.763	-200.000	-0.007	0.158
-437.749	152.064	-0.121	0.165
-436.734	-99.068	-0.099	0.025
-435.719	800.000	-0.024	0.081
-434.705	86.751	0.147	0.162
-433.690	38.621	0.067	0.060
-432.676	-92.011	-0.335	0.095
-431.661	-200.000	-0.010	-0.046
-430.646	338.528	0.065	-0.126
-429.632	-169.551	0.204	-0.007
-428.617	24.809	0.128	0.106
-427.603	-92.339	-0.300	-0.084
-426.588	-200.000	-0.020	0.096
-425.573	800.000	0.012	0.046
-424.559	180.619	0.016	0.024
-423.544	78.085	0.145	0.155
-422.530	-15.052	-0.087	-0.056
-421.515	-200.000	0.057	0.432
-420.500	800.000	-0.021	0.076
-419.486	-12.069	0.209	0.137
-418.471	25.813	-0.177	0.148
-417.457	-83.665	-0.411	-0.131
-416.442	-22.525	-0.063	-0.038
-415.428	186.690	0.086	0.128
-414.413	-43.084	0.311	-0.158
-413.398	194.388	0.280	-0.424
-412.384	190.815	0.319	0.479
-411.369	3.684	0.126	0.092
-410.355	-200.000	0.038	0.237
-409.340	-94.920	0.340	0.092
-408.325	800.000	0.035	-0.151
-407.311	-200.000	-0.020	-0.169
-406.296	13.619	-0.058	-0.045
-405.282	677.431	0.074	-0.191
-404.267	19.380	0.295	-0.237
-403.252	174.819	0.155	-0.224
-402.238	-21.251	-0.393	-0.240
-401.223	-160.593	-0.329	-0.018
-400.209	427.150	-0.076	0.163
-399.194	-9.474	0.277	0.184
-398.179	-62.835	-0.254	0.105
-397.165	-154.330	0.240	0.016
-396.150	800.000	-0.025	-0.077
-395.136	131.522	0.114	0.146
-394.121	-55.438	0.332	0.149
-393.106	182.035	0.110	0.162
-392.092	-119.419	-0.201	0.035
-391.077	-160.704	-0.182	-0.010
-390.063	81.487	-0.168	0.181
-389.048	66.690	-0.099	0.101
-388.033	118.489	-0.091	-0.113
-387.019	-200.000	0.004	0.231
-386.004	399.553	-0.052	-0.108
-384.990	-80.745	-0.209	0.069
-383.975	43.640	0.099	-0.091
-382.960	319.873	-0.027	-0.052
-381.946	481.766	0.139	0.315
-380.931	-200.000	-0.010	0.238
-379.917	-6.856	0.184	0.125
-378.902	-31.667	-0.248	0.139
-377.888	182.694	0.191	-0.282
-376.873	-97.845	-0.061	-0.016
-375.858	-31.111	0.139	-0.078
-374.844	-108.521	0.269	0.058
-373.829	-49.324	0.101	-0.048
-372.815	-200.000	-0.032	0.397
-371.800	-140.493	0.067	0.007
-370.785	-51.442	0.125	0.058
-369.771	-200.000	0.009	-0.093
-368.756	-113.408	0.194	-0.038
-367.742	-35.225	-0.179	-0.097
-366.727	-57.044	-0.206	-0.091
-365.712	-169.790	-0.322	0.012
-364.698	-97.324	-0.197	-0.051
-363.683	245.285	0.169	0.284
-362.669	178.021	0.310	-0.451
-361.654	-94.548	0.034	0.009
-360.639	1.463	0.097	0.070
-359.625	-200.000	0.035	0.167
-358.610	663.084	-0.055	0.141
-357.596	200.151	0.169	0.259
-356.581	139.534	-0.197	0.259
-355.566	-76.675	0.249	0.087
-354.552	100.156	-0.081	0.094
-353.537	-37.322	0.160	-0.085
-352.523	5.775	0.079	-0.058
-351.508	-56.031	0.183	-0.081
-350.493	49.086	-0.242	0.226
-349.479	-57.260	-0.123	0.054
-348.464	-200.000	0.027	0.177
-347.450	-125.731	0.178	-0.027
-346.435	-64.098	-0.335	0.136
-345.420	642.449	-0.063	0.161
-344.406	800.000	-0.058	-0.179
-343.391	382.078	0.015	-0.031
-342.377	647.071	0.229	-0.584
-341.362	-136.195	0.111	-0.013
-340.348	382.399	-0.077	0.159
-339.333	58.661	0.196	-0.191
-338.318	-200.000	0.029	-0.130
-337.304	800.000	0.011	-0.039
-336.289	252.323	-0.198	0.337
-335.275	27.620	-0.228	0.191
-334.260	-53.639	0.135	-0.062
-333.245	-114.911	-0.295	-0.056
-332.231	223.721	0.064	0.102
-331.216	-78.436	-0.394	-0.135
-330.202	420.084	-0.056	0.119
-329.187	800.000	0.059	0.244
-328.172	162.163	0.106	-0.148
-327.158	129.984	0.036	-0.045
-326.143	23.261	-0.136	0.111
-325.129	10.650	0.191	0.145
-324.114	-105.824	0.155	0.035
-323.099	-78.273	0.188	-0.064
-322.085	219.707	-0.084	0.134
-321.070	-0.021	-0.275	0.195
-320.056	100.407	0.243	0.281
-319.041	-90.625	-0.101	-0.029
-318.026	75.533	-0.259	0.272
-317.012	217.478	0.113	-0.180
-315.997	-122.567	-0.310	0.050
-314.983	800.000	-0.025	0.085
-313.968	476.170	0.035	0.078
-312.953	539.269	0.059	-0.139
-311.939	-146.769	-0.179	-0.015
-310.924	-200.000	-0.015	0.254
-309.910	451.675	-0.105	0.231
-308.895	-200.000	-0.024	-0.140
-307.880	99.272	-0.106	-0.122
-306.866	800.000	0.051	0.198
-305.851	-123.797	-0.378	-0.059
-304.837	93.662	0.171	-0.193
-303.822	-200.000	-0.048	-0.402
-302.807	-115.082	0.248	-0.047
-301.793	800.000	-0.084	0.367
-300.778	372.697	0.032	-0.066
-299.764	-32.594	0.218	0.121
-298.749	-122.047	0.324	0.053
-297.735	-79.918	0.205	0.069
-296.720	581.389	0.018	-0.043
-295.705	-125.159	-0.386	-0.059
-294.691	-82.825	0.191	-0.062
-293.676	-200.000	0.031	-0.309
-292.662	-176.157	0.142	-0.004
-291.647	76.302	-0.110	-0.116
-290.632	68.262	0.055	0.056
-289.618	-200.000	-0.037	0.265
-288.603	-7.871	0.074	0.050
-287.589	24.596	-0.235	0.194
-286.574	-102.307	0.183	0.044
-285.559	155.876	-0.210	-0.287
-284.545	312.592	-0.110	0.205
-283.530	-178.239	0.152	0.004
-282.516	-110.569	0.311	-0.064
-281.501	-121.926	-0.132	0.022
-280.486	-13.729	-0.118	0.076
-279.472	-200.000	-0.023	-0.299
-278.457	-153.129	-0.130	0.009
-277.443	12.899	-0.201	0.154
-276.428	192.891	0.067	-0.101
-275.413	209.523	0.216	0.336
-274.399	271.431	-0.118	-0.206
-273.384	707.581	0.111	0.292
-272.370	-200.000	0.070	-0.530
-271.355	11.688	-0.062	-0.047
-270.340	-102.670	-0.103	-0.024
-269.326	800.000	0.084	0.242
-268.311	76.219	-0.120	0.126
-267.297	-104.681	0.312	0.071
-266.282	-2.531	0.062	0.043
-265.267	800.000	0.086	0.277
-264.253	317.602	0.078	0.146
-263.238	-159.515	-0.131	0.007
-262.224	-54.144	-0.135	-0.061
-261.209	-55.378	0.352	0.157
-260.195	-2.002	0.371	0.259
-259.180	800.000	0.027	0.108
-258.165	-180.533	-0.376	0.008
-257.151	49.622	0.301	0.281
-256.136	397.173	0.140	0.291
-255.122	111.645	0.134	-0.161
-254.107	-40.630	0.147	-0.076
-253.092	3.152	-0.034	-0.025
-252.078	-187.239	-0.121	0.002
-251.063	-75.452	0.195	0.069
-250.049	800.000	-0.148	-0.512
-249.034	-200.000	0.061	-0.282
-248.019	800.000	-0.068	-0.236
-247.005	-98.482	0.225	0.057
-245.990	-37.877	-0.274	0.145
-244.976	-200.000	0.009	-0.221
-243.961	-85.546	0.465	-0.144
-242.946	309.217	0.140	0.260
-241.932	-73.870	0.170	0.061
-240.917	-108.370	-0.123	0.026
-239.903	121.427	0.244	-0.302
-238.888	-200.000	-0.013	0.061
-237.873	-200.000	-0.048	0.221
-236.859	-81.908	0.149	0.048
-235.844	-67.832	0.042	-0.016
-234.830	69.423	-0.135	0.137
-233.815	65.831	-0.225	0.226
-232.800	-43.308	0.167	-0.084
-231.786	-68.410	0.257	0.099
-230.771	238.876	0.038	-0.063
-229.757	-102.520	0.339	-0.080
-228.742	99.259	-0.207	0.238
-227.727	-200.000	-0.017	0.254
-226.713	-54.303	0.483	-0.217
-225.698	27.993	0.318	-0.266
-224.684	-200.000	-0.094	-0.459
-223.669	18.256	0.194	-0.153
-222.655	12.170	-0.264	-0.201
-221.640	471.751	0.104	0.232
-220.625	13.574	-0.084	-0.065
-219.611	-200.000	0.011	0.082
-218.596	23.383	0.075	0.061
-217.582	800.000	0.085	0.354
-216.567	123.234	0.187	0.232
-215.552	-65.861	0.203	0.081
-214.538	-74.193	0.216	0.077
-213.523	45.864	0.013	0.012
-212.509	-167.905	-0.263	-0.010
-211.494	-200.000	-0.032	0.165
-210.479	-166.210	0.071	-0.003
-209.465	-166.428	0.200	-0.008
-208.450	-65.119	0.299	0.120
-207.436	-150.965	0.097	0.007
-206.421	-63.378	-0.292	-0.119
-205.406	-126.988	-0.313	-0.046
-204.392	-68.871	-0.107	0.041
-203.377	56.539	0.129	-0.124
-202.363	-46.341	0.374	0.182
-201.348	23.213	-0.126	0.102
-200.333	193.976	-0.076	-0.114
-199.319	382.437	0.055	-0.112
-198.304	-200.000	-0.035	-0.207
-197.290	56.354	-0.169	0.162
-196.275	572.999	0.071	-0.172
-195.260	-200.000	0.158	0.000
-194.246	-97.023	0.262	0.068
-193.231	558.969	0.139	-0.332
-192.217	800.000	0.067	-0.217
-191.202	155.414	0.086	0.117
-190.187	145.645	-0.097	0.128
-189.173	800.000	0.045	0.167
-188.158	29.550	-0.259	0.218
-187.144	800.000	-0.175	-0.498
-186.129	-91.199	0.217	0.062
-185.114	-200.000	-0.001	-0.044
-184.100	-117.296	0.083	-0.015
-183.085	633.752	-0.042	-0.106
-182.071	321.866	-0.154	-0.290
-181.056	800.000	0.042	0.175
-180.042	24.886	-0.100	-0.082
-179.027	185.900	0.038	0.055
-178.012	86.018	-0.052	-0.057
-176.998	41.894	0.151	0.136
-175.983	372.979	-0.235	-0.473
-174.969	-200.000	0.008	-0.084
-173.954	-179.802	-0.069	0.001
-172.939	47.475	-0.108	-0.099
-171.925	-200.000	-0.064	-0.289
-170.910	-54.679	0.167	-0.075
-169.896	800.000	0.038	0.138
-168.881	-123.070	-0.283	-0.045
-167.866	5.999	-0.051	0.038
-166.852	196.010	-0.173	0.260
-165.837	-36.135	0.192	0.102
-164.823	800.000	-0.118	0.477
-163.808	181.463	-0.092	-0.134
-162.793	-132.810	0.494	-0.062
-161.779	800.000	0.101	-0.302
-160.764	319.260	0.159	-0.297
-159.750	-4.061	-0.054	0.037
-158.735	800.000	-0.081	-0.266
-157.720	152.544	-0.147	-0.199
-156.706	-200.000	0.004	0.032
-155.691	-200.000	0.001	0.107
-154.677	-140.810	-0.118	-0.012
-153.662	-93.924	-0.144	0.039
-152.647	216.943	0.100	-0.157
-151.633	-177.682	0.315	0.008
-150.618	-200.000	0.053	0.286
-149.604	-105.537	0.123	0.028
-148.589	-21.749	-0.184	-0.111
-147.574	109.467	0.116	0.137
-146.560	-123.493	0.223	-0.035
-145.545	-200.000	0.009	-0.056
-144.531	514.108	-0.144	0.333
-143.516	316.753	0.149	0.279
-142.502	229.815	-0.207	0.335
-141.487	-200.000	0.015	0.099
-140.472	575.624	-0.111	-0.268
-139.458	-86.547	-0.239	-0.072
-138.443	193.227	0.135	0.202
-137.429	-2.959	0.227	-0.157
-136.414	-70.905	0.129	-0.048
-135.399	180.432	-0.114	-0.165
-134.385	-200.000	-0.003	0.033
-133.370	800.000	-0.026	-0.109
-132.356	800.000	-0.027	-0.104
-131.341	486.070	-0.081	-0.183
-130.326	129.739	-0.074	0.093
-129.312	-173.257	0.123	0.004
-128.297	627.504	-0.031	0.077
-127.283	123.077	0.142	-0.176
-126.268	-200.000	-0.054	-0.383
-125.253	272.794	-0.213	0.371
-124.239	-200.000	-0.001	0.023
-123.224	97.716	0.055	-0.062
-122.210	800.000	-0.031	-0.114
-121.195	-200.000	0.145	-0.705
