DTS Sentinel unit serial number:	SN413079Multiplexer serial number:	ORYXHardware model number:	OX4-SRSoftware version number:	ORYX F/W v4.00 Oryx Data Collector v3.7.2.0data status	okinstallation	princeton_trtdifferential loss correction	single-endedforward channel	channel 2reverse channel	N/Adate	2019/09/12time	12:41:10forward acquisition time	60.00reverse acquisition time	0.00gamma	496.2192k internal	0.2298k external	0.2298temperature offset calibration	1.0075default loss term (dB/km)	0.3790temperature slope calibration	1.0000multiplexer offset coefficient	1.0000multiplexer slope coefficient	1.0000fibre end	0.00T internal ref (°C)	40.50T ext. ref 1 (°C)	1.96T ext. ref 2 (°C)	36.77length (m)	temperature (°C)	Stokes	anti-Stokes-747.200	-3.310	-0.125	0.089
-746.185	663.947	0.069	0.182
-745.171	12.408	0.276	0.217
-744.156	-72.023	-0.177	0.067
-743.142	45.335	0.163	-0.154
-742.127	-200.000	0.009	0.154
-741.112	-36.486	0.234	0.128
-740.098	-200.000	0.021	0.308
-739.083	-10.470	-0.162	-0.109
-738.069	-200.000	0.006	0.280
-737.054	244.721	0.144	-0.248
-736.039	-107.207	-0.178	-0.040
-735.025	337.864	0.009	0.017
-734.010	666.311	-0.090	-0.238
-732.996	800.000	-0.061	0.271
-731.981	-131.732	0.348	0.047
-730.966	191.895	0.155	-0.238
-729.952	-200.000	-0.003	0.094
-728.937	549.969	0.070	-0.171
-727.923	-28.801	-0.121	0.071
-726.908	800.000	-0.090	-0.291
-725.894	-121.432	0.239	-0.041
-724.879	-105.784	-0.104	-0.024
-723.864	140.405	-0.123	-0.166
-722.850	-96.570	-0.196	-0.053
-721.835	-200.000	-0.041	-0.196
-720.821	102.297	-0.176	-0.210
-719.806	-13.934	-0.066	0.043
-718.791	800.000	-0.058	-0.177
-717.777	-81.896	-0.102	0.034
-716.762	105.160	-0.184	-0.222
-715.748	756.439	0.071	-0.197
-714.733	-102.438	0.028	-0.007
-713.718	-13.737	0.034	-0.023
-712.704	64.449	-0.184	0.189
-711.689	37.843	-0.084	0.076
-710.675	-44.850	0.225	0.114
-709.660	4.194	-0.256	-0.191
-708.645	-151.132	0.213	-0.016
-707.631	97.705	-0.103	0.121
-706.616	-23.753	-0.075	0.046
-705.602	34.733	-0.082	0.073
-704.587	343.066	0.205	0.409
-703.572	179.226	-0.131	0.195
-702.558	-86.870	-0.345	-0.107
-701.543	48.720	0.137	-0.131
-700.529	92.466	-0.180	-0.207
-699.514	-200.000	-0.016	-0.081
-698.499	-102.095	0.101	-0.025
-697.485	-167.877	0.170	-0.007
-696.470	114.858	0.262	-0.326
-695.456	-148.083	0.265	-0.022
-694.441	-88.551	-0.267	-0.081
-693.426	-200.000	0.010	-0.173
-692.412	-0.665	0.192	-0.139
-691.397	-116.124	-0.366	-0.069
-690.383	208.626	-0.166	0.265
-689.368	-200.000	0.012	0.101
-688.354	-200.000	0.015	0.196
-687.339	-61.374	0.332	0.143
-686.324	416.609	0.142	-0.309
-685.310	91.796	-0.141	0.162
-684.295	-35.778	-0.132	0.073
-683.281	191.167	0.179	0.274
-682.266	-97.553	0.229	0.061
-681.251	105.216	0.244	0.293
-680.237	185.807	-0.107	-0.163
-679.222	-200.000	-0.041	-0.273
-678.208	-200.000	0.016	-0.258
-677.193	135.037	0.113	-0.150
-676.178	311.880	0.044	0.085
-675.164	-62.115	0.151	0.064
-674.149	-33.243	0.200	0.113
-673.135	-200.000	0.040	0.199
-672.120	800.000	-0.044	-0.147
-671.105	-200.000	-0.054	0.303
-670.091	-56.430	-0.071	-0.032
-669.076	-200.000	0.060	-0.280
-668.062	-1.372	-0.154	0.110
-667.047	12.078	-0.224	-0.176
-666.032	-200.000	-0.011	-0.136
-665.018	202.997	0.096	-0.151
-664.003	328.971	-0.148	0.290
-662.989	-157.690	0.242	0.015
-661.974	800.000	-0.062	-0.204
-660.959	16.766	-0.199	-0.160
-659.945	-4.320	0.254	0.179
-658.930	-178.652	0.349	0.008
-657.916	-135.736	0.220	-0.027
-656.901	-68.056	-0.189	0.075
-655.886	-107.332	0.603	-0.135
-654.872	36.358	-0.307	-0.276
-653.857	36.806	-0.149	-0.134
-652.843	238.437	0.143	0.242
-651.828	-200.000	-0.035	0.169
-650.814	577.505	-0.078	0.194
-649.799	-152.218	-0.349	0.026
-648.784	-38.284	-0.349	-0.188
-647.770	-56.169	-0.163	0.074
-646.755	347.506	0.049	-0.098
-645.741	112.845	-0.031	0.038
-644.726	-159.662	0.393	-0.022
-643.711	198.616	-0.207	-0.322
-642.697	-200.000	-0.008	-0.238
-641.682	26.519	-0.029	-0.025
-640.668	-103.313	-0.375	0.090
-639.653	345.726	0.092	-0.184
-638.638	390.675	-0.069	-0.145
-637.624	234.914	-0.114	0.191
-636.609	-80.389	-0.265	-0.090
-635.595	800.000	-0.111	-0.395
-634.580	-200.000	0.009	-0.280
-633.565	-157.189	-0.053	0.003
-632.551	115.130	0.118	0.146
-631.536	-89.018	0.037	-0.011
-630.522	-83.839	-0.277	0.090
-629.507	467.472	-0.066	-0.150
-628.492	-35.997	-0.303	-0.166
-627.478	133.267	-0.229	0.300
-626.463	-200.000	0.004	-0.278
-625.449	800.000	0.042	-0.155
-624.434	63.632	-0.043	0.044
-623.419	-79.679	-0.109	0.037
-622.405	449.803	0.095	-0.214
-621.390	25.614	0.105	0.089
-620.376	-66.407	-0.109	-0.044
-619.361	-200.000	0.002	0.050
-618.346	387.769	-0.072	0.151
-617.332	205.493	0.216	0.342
-616.317	147.963	-0.119	0.164
-615.303	-93.477	0.234	-0.066
-614.288	-147.852	-0.086	-0.007
-613.273	317.561	0.028	0.054
-612.259	-200.000	0.027	-0.157
-611.244	800.000	-0.116	-0.460
-610.230	-37.605	-0.156	0.084
-609.215	-200.000	-0.006	-0.267
-608.201	-200.000	-0.037	0.204
-607.186	-200.000	0.030	-0.186
-606.171	113.681	-0.091	-0.113
-605.157	-106.681	-0.312	0.070
-604.142	147.783	-0.113	-0.155
-603.128	30.038	-0.127	0.110
-602.113	-99.043	-0.151	0.039
-601.098	139.758	0.169	0.226
-600.084	771.054	0.161	-0.445
-599.069	-90.228	-0.135	-0.040
-598.055	-23.557	-0.151	0.092
-597.040	135.770	0.058	0.077
-596.025	-22.720	-0.177	0.108
-595.011	-44.770	0.322	-0.163
-593.996	-99.460	-0.073	0.019
-592.982	-200.000	0.016	-0.181
-591.967	-23.427	0.096	-0.059
-590.952	-4.957	-0.113	0.079
-589.938	-136.935	-0.186	0.022
-588.923	-97.975	-0.138	-0.036
-587.909	800.000	0.109	0.351
-586.894	-76.872	-0.360	-0.128
-585.879	11.914	0.209	-0.163
-584.865	-35.058	-0.415	0.229
-583.850	-6.942	-0.249	0.171
-582.836	106.983	0.163	0.196
-581.821	92.952	0.199	0.228
-580.806	-139.851	0.291	-0.031
-579.792	21.285	-0.259	0.213
-578.777	114.105	-0.044	0.054
-577.763	617.135	-0.027	0.069
-576.748	-130.407	-0.196	0.027
-575.733	800.000	0.136	-0.449
-574.719	36.145	0.142	-0.127
-573.704	-200.000	0.007	0.124
-572.690	-88.413	-0.288	0.087
-571.675	-1.472	-0.103	-0.073
-570.661	287.834	-0.080	0.146
-569.646	800.000	0.069	-0.249
-568.631	612.392	0.142	-0.361
-567.617	800.000	-0.071	-0.227
-566.602	-85.633	-0.226	0.071
-565.588	-54.399	0.125	-0.057
-564.573	800.000	-0.042	-0.148
-563.558	548.954	0.177	0.429
-562.544	-34.526	-0.236	-0.131
-561.529	-95.454	-0.290	-0.079
-560.515	372.161	-0.075	-0.155
-559.500	-13.272	-0.242	0.160
-558.485	800.000	-0.064	0.198
-557.471	-91.246	0.350	0.102
-556.456	-163.870	-0.057	0.003
-555.442	-200.000	-0.003	-0.042
-554.427	-182.086	0.395	-0.008
-553.412	121.255	-0.149	-0.189
-552.398	-96.419	-0.233	-0.062
-551.383	258.176	0.138	0.240
-550.369	52.170	0.096	-0.093
-549.354	34.840	0.115	-0.102
-548.339	-119.193	0.303	-0.054
-547.325	-4.443	-0.041	-0.029
-546.310	-113.934	0.058	0.011
-545.296	127.196	-0.279	-0.358
-544.281	-99.996	0.225	-0.057
-543.266	-200.000	0.027	-0.149
-542.252	22.809	0.069	0.057
-541.237	-157.091	-0.183	0.011
-540.223	168.724	-0.220	0.318
-539.208	242.455	-0.125	-0.211
-538.193	-13.147	0.123	-0.081
-537.179	647.990	-0.032	-0.083
-536.164	800.000	-0.037	-0.150
-535.150	-66.577	0.035	0.014
-534.135	-65.730	-0.214	0.087
-533.121	48.751	0.177	0.168
-532.106	-114.445	-0.184	0.036
-531.091	180.834	-0.202	-0.300
-530.077	-96.730	0.174	-0.046
-529.062	-200.000	-0.029	0.141
-528.048	800.000	-0.049	0.208
-527.033	531.486	0.046	-0.110
-526.018	161.779	-0.153	0.217
-525.004	526.091	0.083	-0.199
-523.989	-181.234	-0.082	0.002
-522.975	-200.000	-0.005	0.025
-521.960	-58.331	0.297	-0.131
-520.945	186.318	-0.206	0.310
-519.931	333.095	0.091	-0.178
-518.916	-44.180	-0.336	-0.170
-517.902	-80.959	0.130	0.043
-516.887	-81.646	-0.144	0.048
-515.872	-46.780	0.080	-0.039
-514.858	52.544	-0.145	-0.140
-513.843	23.470	0.115	-0.096
-512.829	-200.000	0.004	-0.286
-511.814	43.993	0.214	-0.199
-510.799	96.752	-0.125	0.145
-509.785	-47.386	0.257	-0.127
-508.770	18.689	0.176	-0.142
-507.756	527.661	-0.098	0.234
-506.741	183.766	-0.117	-0.176
-505.726	228.960	0.105	-0.174
-504.712	779.740	-0.046	0.127
-503.697	-200.000	-0.023	0.295
-502.683	-200.000	-0.038	0.183
-501.668	-157.988	0.244	0.015
-500.653	-200.000	-0.065	0.382
-499.639	137.957	0.089	0.119
-498.624	800.000	-0.085	0.252
-497.610	541.154	0.103	-0.247
-496.595	-109.669	-0.238	0.051
-495.581	521.878	0.113	0.268
-494.566	-118.257	0.204	-0.037
-493.551	317.731	0.038	-0.072
-492.537	-114.154	-0.181	-0.035
-491.522	-78.085	0.370	-0.129
-490.508	0.323	0.138	0.100
-489.493	155.926	-0.026	0.036
-488.478	800.000	0.025	-0.090
-487.464	-60.366	0.237	-0.102
-486.449	-111.240	-0.205	-0.042
-485.435	17.552	0.170	0.137
-484.420	-200.000	0.082	-0.371
-483.405	-200.000	-0.060	-0.294
-482.391	174.794	0.097	0.142
-481.376	2.339	-0.093	-0.068
-480.362	13.515	0.109	0.085
-479.347	47.045	0.145	0.137
-478.332	800.000	0.098	0.350
-477.318	800.000	-0.141	0.541
-476.303	269.675	-0.022	0.039
-475.289	-133.207	-0.298	-0.038
-474.274	312.204	0.106	0.200
-473.259	-184.937	0.187	0.003
-472.245	-76.483	0.360	-0.128
-471.230	260.645	0.140	-0.244
-470.216	-6.391	-0.053	0.036
-469.201	-55.856	-0.262	-0.118
-468.186	258.992	-0.033	-0.057
-467.172	-134.212	0.322	0.040
-466.157	-200.000	0.030	-0.362
-465.143	-121.952	0.073	0.012
-464.128	37.900	0.378	0.339
-463.113	5.406	-0.026	-0.020
-462.099	91.677	-0.323	-0.367
-461.084	108.220	-0.313	0.377
-460.070	298.559	0.129	-0.239
-459.055	-119.414	0.157	0.028
-458.040	800.000	0.049	-0.188
-457.026	109.323	0.046	0.056
-456.011	-57.919	0.211	-0.093
-454.997	-36.624	-0.161	0.088
-453.982	321.191	-0.092	0.177
-452.968	675.123	0.062	0.163
-451.953	-200.000	0.010	0.118
-450.938	-87.402	-0.204	-0.062
-449.924	-42.598	-0.297	0.153
-448.909	225.370	0.241	0.394
-447.895	-200.000	0.026	-0.231
-446.880	-200.000	-0.015	-0.072
-445.865	-64.434	-0.202	-0.083
-444.851	97.989	-0.130	0.151
-443.836	328.089	-0.021	-0.041
-442.822	-200.000	0.003	-0.097
-441.807	20.661	-0.202	0.165
-440.792	-200.000	-0.042	0.188
-439.778	42.882	0.288	0.264
-438.763	-89.469	0.343	0.102
-437.749	800.000	0.049	0.165
-436.734	800.000	-0.079	0.302
-435.719	-71.849	-0.341	-0.128
-434.705	-138.254	-0.149	0.017
-433.690	-147.787	-0.039	-0.003
-432.676	-46.143	0.202	-0.100
-431.661	-200.000	-0.060	-0.339
-430.646	800.000	0.039	-0.114
-429.632	89.214	0.163	0.183
-428.617	-200.000	-0.107	-0.485
-427.603	-200.000	-0.029	0.321
-426.588	-141.746	0.390	0.039
-425.573	-99.751	-0.201	-0.051
-424.559	-37.714	-0.068	-0.036
-423.544	178.336	0.195	-0.287
-422.530	-68.551	0.155	0.061
-421.515	-77.405	0.159	0.056
-420.500	214.476	-0.033	0.053
-419.486	200.466	-0.241	0.373
-418.471	107.392	0.097	-0.116
-417.457	800.000	0.053	-0.193
-416.442	185.216	0.076	-0.114
-415.428	-200.000	-0.033	0.167
-414.413	107.657	0.080	-0.096
-413.398	299.910	-0.093	-0.172
-412.384	-200.000	0.021	0.351
-411.369	565.147	0.122	-0.298
-410.355	191.360	0.199	0.302
-409.340	49.515	-0.041	0.039
-408.325	-19.829	-0.336	-0.209
-407.311	-200.000	0.307	-0.001
-406.296	-200.000	0.017	0.356
-405.282	800.000	-0.048	-0.188
-404.267	603.796	-0.061	-0.153
-403.252	-104.080	0.141	-0.033
-402.238	70.548	-0.131	-0.136
-401.223	-200.000	-0.021	-0.095
-400.209	-10.578	-0.137	-0.091
-399.194	-78.926	0.221	0.076
-398.179	-22.434	0.463	0.282
-397.165	-60.261	-0.266	0.114
-396.150	88.939	-0.088	0.099
-395.136	163.413	0.177	0.251
-394.121	239.897	-0.106	0.177
-393.106	112.083	0.275	0.334
-392.092	60.142	-0.071	-0.071
-391.077	-122.087	-0.073	0.012
-390.063	-200.000	0.039	-0.175
-389.048	99.120	0.059	0.069
-388.033	84.323	-0.242	-0.267
-387.019	-4.171	-0.383	0.267
-386.004	141.240	-0.070	0.093
-384.990	-73.124	-0.500	0.184
-383.975	741.444	0.042	0.114
-382.960	-200.000	0.034	-0.196
-381.946	-168.545	0.220	-0.008
-380.931	-162.872	0.169	0.008
-379.917	16.947	0.166	-0.132
-378.902	150.374	-0.204	-0.279
-377.888	-8.368	-0.064	0.043
-376.873	-96.800	0.317	0.084
-375.858	119.140	-0.172	0.214
-374.844	-200.000	0.002	0.180
-373.829	-14.789	0.352	-0.228
-372.815	329.217	-0.039	0.075
-371.800	-113.752	-0.071	-0.014
-370.785	706.128	-0.142	-0.378
-369.771	283.031	0.243	-0.439
-368.756	-61.331	-0.300	0.127
-367.742	-200.000	0.001	0.069
-366.727	-70.379	0.416	0.159
-365.712	-178.797	0.174	-0.004
-364.698	-74.182	0.247	-0.090
-363.683	800.000	0.069	0.194
-362.669	308.909	-0.147	0.277
-361.654	100.215	-0.174	-0.203
-360.639	249.635	-0.210	-0.358
-359.625	178.976	-0.202	-0.297
-358.610	731.165	-0.076	-0.204
-357.596	28.718	0.140	0.119
-356.581	-200.000	-0.032	-0.155
-355.566	-178.375	-0.070	0.002
-354.552	32.180	0.359	0.311
-353.537	-200.000	-0.028	0.141
-352.523	-19.874	0.124	-0.077
-351.508	800.000	-0.020	0.089
-350.493	17.311	0.211	0.169
-349.479	800.000	-0.048	-0.141
-348.464	-200.000	-0.015	-0.180
-347.450	12.838	-0.177	0.137
-346.435	44.617	0.080	-0.074
-345.420	-21.368	-0.068	0.042
-344.406	-126.361	-0.212	-0.032
-343.391	-135.442	-0.185	-0.022
-342.377	-71.996	0.077	-0.029
-341.362	-200.000	0.013	0.063
-340.348	-200.000	0.033	0.161
-339.333	-134.938	-0.078	-0.009
-338.318	-200.000	-0.020	0.158
-337.304	188.731	-0.135	-0.203
-336.289	-80.429	-0.168	0.056
-335.275	-200.000	0.001	-0.094
-334.260	-40.386	0.131	-0.068
-333.245	-200.000	-0.024	0.269
-332.231	512.119	-0.138	-0.322
-331.216	-123.786	-0.102	0.016
-330.202	91.965	0.084	0.095
-329.187	-200.000	0.011	0.056
-328.172	78.476	0.302	0.324
-327.158	-107.167	-0.100	-0.022
-326.143	-18.246	0.172	0.108
-325.129	-200.000	-0.008	0.291
-324.114	203.165	0.014	0.022
-323.099	309.495	-0.173	0.326
-322.085	800.000	0.023	0.067
-321.070	6.999	0.014	0.011
-320.056	139.990	-0.198	-0.262
-319.041	266.824	-0.216	-0.380
-318.026	62.318	0.065	0.065
-317.012	-39.017	-0.274	-0.145
-315.997	-200.000	0.041	-0.234
-314.983	-105.289	-0.227	-0.052
-313.968	-118.551	0.266	-0.047
-312.953	304.312	-0.169	-0.314
-311.939	800.000	-0.083	-0.303
-310.924	800.000	0.073	0.272
-309.910	-200.000	0.011	0.140
-308.895	48.463	0.091	0.086
-307.880	150.717	0.115	-0.157
-306.866	-112.083	-0.160	-0.032
-305.851	-169.313	-0.072	0.003
-304.837	200.010	0.111	-0.171
-303.822	-68.972	0.503	-0.195
-302.807	160.848	0.129	0.181
-301.793	-200.000	-0.009	0.239
-300.778	-0.323	0.051	-0.036
-299.764	-200.000	0.017	-0.273
-298.749	383.295	-0.023	-0.047
-297.735	800.000	0.132	0.408
-296.720	-200.000	-0.026	-0.181
-295.705	-67.725	0.486	0.191
-294.691	-200.000	0.028	0.143
-293.676	-167.190	-0.208	0.008
-292.662	278.031	0.156	-0.279
-291.647	-190.041	-0.277	0.003
-290.632	-30.909	-0.110	-0.062
-289.618	-103.232	0.278	0.066
-288.603	-79.220	-0.270	0.092
-287.589	-130.640	0.248	-0.034
-286.574	-70.927	0.356	0.135
-285.559	-70.929	-0.317	0.120
-284.545	-71.120	0.114	-0.043
-283.530	-90.367	0.259	0.075
-282.516	100.192	0.069	0.081
-281.501	-200.000	-0.007	-0.074
-280.486	53.435	0.249	0.240
-279.472	123.218	0.085	0.106
-278.457	-4.208	-0.167	-0.116
-277.443	-1.695	-0.144	-0.102
-276.428	365.924	-0.035	-0.070
-275.413	110.962	-0.151	-0.183
-274.399	-68.142	0.192	-0.075
-273.384	-200.000	0.008	-0.186
-272.370	-90.647	-0.034	-0.010
-271.355	-6.140	-0.194	-0.133
-270.340	800.000	-0.023	-0.078
-269.326	367.671	-0.084	0.171
-268.311	126.028	-0.087	0.110
-267.297	102.385	-0.302	0.354
-266.282	-123.369	-0.328	0.053
-265.267	-54.589	-0.104	0.047
-264.253	-23.252	0.299	-0.180
-263.238	288.863	0.083	-0.150
-262.224	35.912	-0.230	0.203
-261.209	-200.000	0.009	-0.284
-260.195	-10.382	-0.196	0.130
-259.180	80.665	0.065	-0.070
-258.165	800.000	-0.150	0.421
-257.151	-7.978	-0.100	-0.067
-256.136	-87.625	-0.422	0.128
-255.122	406.394	-0.162	0.342
-254.107	-9.862	0.080	-0.053
-253.092	-4.680	0.164	-0.113
-252.078	-138.831	0.322	0.035
-251.063	-87.626	0.504	0.153
-250.049	-55.058	0.370	0.167
-249.034	217.124	0.182	-0.290
-248.019	130.147	0.261	-0.334
-247.005	-200.000	0.032	-0.273
-245.990	-63.011	-0.231	0.096
-244.976	-146.654	0.297	-0.026
-243.961	-200.000	0.020	-0.622
-242.946	214.027	-0.104	0.164
-241.932	-174.284	0.107	-0.003
-240.917	-200.000	0.062	0.359
-239.903	24.058	-0.354	-0.292
-238.888	58.526	-0.059	-0.058
-237.873	12.647	-0.246	-0.190
-236.859	-200.000	-0.059	-0.265
-235.844	-200.000	-0.060	0.433
-234.830	31.764	0.202	0.174
-233.815	-71.439	0.258	0.097
-232.800	800.000	0.058	0.173
-231.786	-68.544	0.302	-0.117
-230.771	-38.529	-0.279	-0.148
-229.757	-83.564	-0.224	-0.072
-228.742	-27.716	-0.106	0.061
-227.727	-200.000	0.004	0.077
-226.713	-160.802	-0.168	0.009
-225.698	345.838	0.101	0.199
-224.684	800.000	-0.093	-0.271
-223.669	-33.019	0.249	0.138
-222.655	247.913	0.079	-0.134
-221.640	18.379	-0.228	-0.182
-220.625	-98.772	0.330	-0.084
-219.611	800.000	0.024	0.079
-218.596	-200.000	0.053	0.262
-217.582	-134.725	0.134	-0.016
-216.567	346.417	-0.073	0.144
-215.552	78.027	0.209	-0.223
-214.538	-123.606	0.404	0.064
-213.523	45.023	-0.085	-0.078
-212.509	589.958	0.075	-0.185
-211.494	-86.617	0.262	0.080
-210.479	-45.826	0.397	0.196
-209.465	800.000	0.006	0.019
-208.450	-200.000	0.031	0.163
-207.436	-95.934	-0.049	-0.013
-206.421	39.773	0.157	0.141
-205.406	-162.966	-0.309	-0.015
-204.392	321.116	-0.134	0.255
-203.377	14.827	0.234	0.183
-202.363	800.000	0.142	0.506
-201.348	8.590	-0.228	-0.171
-200.333	-200.000	0.030	0.317
-199.319	209.508	-0.147	-0.230
-198.304	8.653	-0.216	-0.163
-197.290	-200.000	-0.024	0.187
-196.275	-200.000	0.045	0.328
-195.260	-65.753	0.279	0.112
-194.246	71.510	0.245	-0.254
-193.231	125.251	-0.235	-0.297
-192.217	638.910	-0.159	-0.404
-191.202	-22.937	-0.158	-0.095
-190.187	271.874	-0.070	0.124
-189.173	83.663	-0.063	0.069
-188.158	87.691	-0.128	-0.142
-187.144	-20.088	-0.106	0.065
-186.129	800.000	0.114	-0.322
-185.114	-14.023	0.467	0.301
-184.100	-161.169	0.290	0.015
-183.085	-200.000	-0.050	0.482
-182.071	41.048	-0.177	0.160
-181.056	504.696	0.134	-0.310
-180.042	165.939	-0.153	0.217
-179.027	73.885	0.116	0.122
-178.012	-55.330	-0.009	-0.004
-176.998	-6.959	0.286	0.194
-175.983	-200.000	-0.027	0.316
-174.969	-110.288	0.225	0.047
-173.954	-141.283	-0.241	-0.024
-172.939	-57.192	-0.086	0.038
-171.925	-200.000	0.002	-0.038
-170.910	164.674	0.235	-0.330
-169.896	-82.461	0.296	-0.096
-168.881	137.260	-0.066	-0.087
-167.866	158.343	-0.091	-0.126
-166.852	-115.046	0.172	-0.033
-165.837	-112.766	0.301	0.060
-164.823	-200.000	-0.005	0.161
-163.808	-200.000	-0.005	0.173
-162.793	166.771	-0.244	0.345
-161.779	-94.064	0.203	0.055
-160.764	20.949	-0.096	-0.078
-159.750	342.056	0.074	0.144
-158.735	393.412	-0.106	-0.220
-157.720	-200.000	-0.123	-0.000
-156.706	800.000	-0.097	-0.361
-155.691	800.000	-0.021	0.090
-154.677	43.292	-0.152	0.138
-153.662	-200.000	0.004	0.018
-152.647	-200.000	0.022	-0.147
-151.633	800.000	0.021	-0.087
-150.618	39.057	-0.104	-0.093
-149.604	-28.672	-0.272	0.156
-148.589	-116.147	0.359	0.066
-147.574	-140.043	-0.274	0.029
-146.560	1.760	0.139	-0.100
-145.545	-99.367	-0.021	0.005
-144.531	467.888	-0.061	-0.137
-143.516	87.038	0.050	0.055
-142.502	247.084	0.043	0.072
-141.487	425.317	-0.048	0.104
-140.472	446.919	0.100	0.219
-139.458	-147.411	0.186	-0.016
-138.443	123.269	-0.109	-0.137
-137.429	35.163	0.113	0.098
-136.414	-200.000	0.024	-0.224
-135.399	-88.166	-0.220	0.066
-134.385	-10.973	-0.450	0.296
-133.370	258.692	-0.060	0.103
-132.356	272.534	-0.110	-0.193
-131.341	-154.112	-0.145	0.010
-130.326	-200.000	-0.011	0.178
-129.312	800.000	0.047	0.179
-128.297	-61.558	0.054	-0.023
-127.283	-68.392	0.299	0.116
-126.268	159.112	-0.095	-0.132
-125.253	24.880	0.075	0.062
-124.239	-56.688	0.089	0.039
-123.224	149.130	0.147	-0.198
-122.210	-200.000	-0.043	0.267
-121.195	-44.903	0.252	0.125
