DTS Sentinel unit serial number:	SN413079Multiplexer serial number:	ORYXHardware model number:	OX4-SRSoftware version number:	ORYX F/W v4.00 Oryx Data Collector v3.7.2.0data status	okinstallation	princeton_trtdifferential loss correction	single-endedforward channel	channel 2reverse channel	N/Adate	2019/09/14time	14:55:35forward acquisition time	60.00reverse acquisition time	0.00gamma	496.2192k internal	0.2303k external	0.2303temperature offset calibration	1.0138default loss term (dB/km)	0.3790temperature slope calibration	1.0000multiplexer offset coefficient	1.0000multiplexer slope coefficient	1.0000fibre end	0.00T internal ref (°C)	39.12T ext. ref 1 (°C)	5.01T ext. ref 2 (°C)	34.22length (m)	temperature (°C)	Stokes	anti-Stokes-747.200	153.802	-0.076	0.106
-746.185	583.531	0.076	0.190
-745.171	800.000	-0.065	0.184
-744.156	757.413	-0.071	0.197
-743.142	-29.511	-0.040	-0.023
-742.127	-155.048	-0.120	0.008
-741.112	156.650	-0.197	-0.277
-740.098	800.000	-0.071	0.301
-739.083	-106.529	0.194	0.044
-738.069	-200.000	-0.019	0.283
-737.054	341.462	0.068	0.134
-736.039	353.497	-0.114	-0.230
-735.025	-70.470	0.062	-0.024
-734.010	539.277	0.125	-0.304
-732.996	-92.064	-0.213	0.061
-731.981	800.000	-0.076	-0.260
-730.966	-105.267	0.233	0.054
-729.952	-200.000	-0.027	0.268
-728.937	121.952	-0.242	0.307
-727.923	-200.000	0.006	-0.258
-726.908	-124.740	-0.167	0.026
-725.894	1.916	-0.139	-0.102
-724.879	183.128	-0.174	-0.262
-723.864	548.486	-0.077	-0.189
-722.850	-130.333	0.150	0.021
-721.835	8.771	0.201	0.155
-720.821	533.896	-0.098	0.236
-719.806	393.146	0.092	-0.195
-718.791	-82.427	-0.247	0.082
-717.777	112.016	-0.280	0.345
-716.762	-144.425	0.179	-0.017
-715.748	1.158	-0.179	-0.131
-714.733	-48.534	0.385	0.188
-713.718	684.975	0.065	0.172
-712.704	202.860	0.108	-0.169
-711.689	-7.181	-0.315	-0.217
-710.675	117.485	-0.071	-0.089
-709.660	-200.000	0.055	-0.392
-708.645	-200.000	-0.019	0.211
-707.631	-156.726	-0.076	-0.005
-706.616	-200.000	0.002	0.260
-705.602	800.000	0.082	0.259
-704.587	384.888	0.180	-0.377
-703.572	551.767	0.154	-0.376
-702.558	196.111	0.115	0.178
-701.543	-200.000	-0.017	0.306
-700.529	-30.849	-0.103	-0.059
-699.514	800.000	0.023	-0.075
-698.499	-200.000	0.037	-0.234
-697.485	37.119	0.231	-0.208
-696.470	-78.368	-0.140	0.049
-695.456	-200.000	0.015	0.091
-694.441	79.844	0.151	-0.165
-693.426	-67.124	-0.383	-0.153
-692.412	-200.000	-0.016	-0.144
-691.397	-39.197	0.050	0.027
-690.383	145.010	-0.120	0.163
-689.368	-107.780	-0.138	-0.031
-688.354	800.000	0.117	-0.438
-687.339	219.116	-0.087	-0.141
-686.324	-200.000	-0.008	-0.044
-685.310	-200.000	-0.070	-0.314
-684.295	-28.397	-0.213	-0.125
-683.281	800.000	0.038	0.126
-682.266	-15.383	-0.210	0.137
-681.251	78.682	-0.081	0.088
-680.237	-10.541	-0.120	0.081
-679.222	-81.986	-0.193	-0.064
-678.208	103.486	0.054	-0.064
-677.193	28.127	-0.134	0.115
-676.178	-24.618	0.133	-0.081
-675.164	800.000	0.029	-0.103
-674.149	32.150	-0.215	-0.189
-673.135	-200.000	-0.005	-0.126
-672.120	77.318	-0.179	0.194
-671.105	65.097	0.054	-0.055
-670.091	-200.000	0.047	-0.253
-669.076	-8.417	0.183	-0.125
-668.062	-43.405	0.038	-0.019
-667.047	-21.176	0.253	-0.157
-666.032	259.713	0.156	0.273
-665.018	-200.000	0.053	-0.258
-664.003	-200.000	-0.024	-0.122
-662.989	468.949	0.129	-0.294
-661.974	288.213	0.189	0.347
-660.959	129.541	0.302	-0.392
-659.945	-59.127	0.091	-0.040
-658.930	71.837	0.086	0.090
-657.916	84.491	0.142	-0.158
-656.901	52.663	-0.090	-0.087
-655.886	458.671	-0.019	0.043
-654.872	129.584	0.076	0.099
-653.857	54.699	-0.160	-0.156
-652.843	800.000	-0.009	-0.036
-651.828	800.000	0.086	-0.380
-650.814	113.007	0.177	-0.218
-649.799	-121.341	-0.215	-0.036
-648.784	281.735	0.055	-0.100
-647.770	-200.000	0.006	-0.100
-646.755	-158.581	-0.110	-0.006
-645.741	-65.556	-0.201	-0.082
-644.726	39.637	0.070	-0.064
-643.711	-162.596	-0.204	-0.010
-642.697	35.392	0.114	-0.102
-641.682	-16.659	0.097	0.063
-640.668	18.092	-0.260	-0.210
-639.653	800.000	-0.063	-0.208
-638.638	800.000	-0.034	-0.099
-637.624	800.000	0.033	0.125
-636.609	131.990	-0.112	0.147
-635.595	247.205	0.117	-0.201
-634.580	-103.007	-0.089	-0.021
-633.565	182.699	0.165	-0.248
-632.551	15.902	-0.409	0.327
-631.536	-200.000	0.027	-0.191
-630.522	-58.858	0.029	0.013
-629.507	-61.090	-0.082	0.035
-628.492	-200.000	-0.008	-0.230
-627.478	-200.000	0.015	0.070
-626.463	-200.000	0.001	-0.131
-625.449	291.954	-0.123	-0.228
-624.434	-200.000	0.182	-0.000
-623.419	-30.417	0.383	-0.220
-622.405	7.678	0.034	0.026
-621.390	-9.103	0.276	0.187
-620.376	-151.990	0.269	0.020
-619.361	482.838	-0.066	0.152
-618.346	47.501	0.118	-0.111
-617.332	-93.780	0.133	-0.037
-616.317	-67.265	0.082	0.033
-615.303	-46.617	0.124	0.062
-614.288	106.660	-0.164	0.197
-613.273	688.722	-0.070	0.186
-612.259	138.802	-0.079	0.105
-611.244	127.776	0.032	0.041
-610.230	800.000	0.053	-0.174
-609.215	227.739	-0.243	-0.401
-608.201	-168.836	0.180	-0.007
-607.186	8.767	0.194	-0.148
-606.171	29.117	-0.121	-0.104
-605.157	9.547	0.174	0.134
-604.142	-119.655	-0.304	-0.053
-603.128	86.896	0.112	0.125
-602.113	74.169	0.175	0.187
-601.098	35.293	0.322	-0.286
-600.084	12.366	0.144	-0.112
-599.069	7.730	0.206	0.157
-598.055	-66.528	0.262	-0.105
-597.040	529.813	0.084	-0.200
-596.025	-200.000	0.024	0.566
-595.011	-135.925	0.247	-0.030
-593.996	-137.560	-0.275	0.031
-592.982	-140.766	-0.352	-0.037
-591.967	75.425	-0.177	-0.189
-590.952	-200.000	-0.011	0.129
-589.938	800.000	0.116	0.458
-588.923	-200.000	-0.011	-0.063
-587.909	-70.670	-0.109	-0.042
-586.894	-200.000	-0.026	-0.146
-585.879	-11.587	-0.291	0.193
-584.865	-56.925	0.049	-0.022
-583.850	55.421	-0.194	0.190
-582.836	-70.298	0.118	-0.045
-581.821	-73.801	-0.250	-0.092
-580.806	82.534	0.034	-0.038
-579.792	800.000	-0.024	0.078
-578.777	175.911	0.227	0.333
-577.763	-101.802	-0.253	0.062
-576.748	-200.000	-0.010	0.094
-575.733	-58.897	-0.250	0.110
-574.719	-67.149	-0.053	0.021
-573.704	-97.503	0.029	-0.008
-572.690	-121.211	0.232	-0.039
-571.675	-12.560	-0.230	0.152
-570.661	200.931	0.032	0.049
-569.646	193.900	-0.080	0.122
-568.631	342.355	0.061	0.121
-567.617	44.745	0.123	-0.115
-566.602	-126.843	0.097	0.014
-565.588	-200.000	0.012	0.172
-564.573	19.879	0.100	-0.081
-563.558	-149.728	-0.207	0.016
-562.544	-56.511	0.047	-0.021
-561.529	-200.000	0.017	0.269
-560.515	-32.856	-0.240	-0.135
-559.500	-95.169	0.228	0.062
-558.485	-200.000	0.012	0.128
-557.471	44.987	0.091	0.084
-556.456	256.099	0.083	-0.145
-555.442	-137.572	0.078	0.009
-554.427	-68.009	-0.174	-0.068
-553.412	-96.147	0.239	-0.064
-552.398	-167.282	-0.296	0.012
-551.383	-112.035	0.184	0.037
-550.369	-200.000	-0.013	0.242
-549.354	-23.326	-0.056	-0.034
-548.339	800.000	-0.037	0.127
-547.325	-96.862	0.190	0.050
-546.310	-200.000	-0.150	-0.000
-545.296	68.213	-0.293	0.304
-544.281	134.947	0.036	-0.047
-543.266	-200.000	0.036	0.231
-542.252	224.980	0.211	-0.344
-541.237	-200.000	0.025	0.262
-540.223	184.791	-0.151	0.226
-539.208	800.000	-0.126	-0.412
-538.193	-112.628	-0.267	0.054
-537.179	-200.000	0.035	-0.259
-536.164	267.911	-0.039	-0.069
-535.150	181.913	-0.084	-0.125
-534.135	-200.000	-0.004	0.273
-533.121	23.560	0.143	0.119
-532.106	35.223	0.469	-0.415
-531.091	-200.000	0.002	-0.175
-530.077	800.000	-0.075	0.266
-529.062	221.246	-0.065	-0.106
-528.048	-163.107	-0.167	-0.008
-527.033	43.136	-0.199	0.183
-526.018	18.275	0.153	-0.124
-525.004	51.549	0.152	0.146
-523.989	-110.883	-0.141	-0.029
-522.975	-25.077	0.043	0.026
-521.960	50.702	0.181	0.173
-520.945	-90.243	0.253	0.074
-519.931	-109.547	0.148	0.032
-518.916	37.993	-0.196	0.176
-517.902	18.953	-0.123	0.100
-516.887	-119.044	-0.259	-0.046
-515.872	45.441	0.183	-0.171
-514.858	-200.000	-0.006	-0.295
-513.843	143.678	0.178	0.239
-512.829	28.404	-0.069	0.059
-511.814	-75.174	-0.025	-0.009
-510.799	98.805	0.115	-0.134
-509.785	-41.329	-0.119	-0.062
-508.770	-69.619	-0.270	-0.104
-507.756	-200.000	0.011	-0.097
-506.741	-35.457	-0.075	-0.041
-505.726	-176.810	0.306	-0.008
-504.712	-200.000	0.012	-0.225
-503.697	-13.192	0.144	-0.094
-502.683	180.155	0.178	-0.264
-501.668	1.387	0.280	-0.203
-500.653	101.016	0.158	-0.185
-499.639	-71.251	-0.371	-0.140
-498.624	800.000	0.024	-0.101
-497.610	-20.291	0.280	0.174
-496.595	-144.983	0.216	0.020
-495.581	-158.509	-0.303	-0.018
-494.566	800.000	-0.105	0.336
-493.551	800.000	0.094	0.388
-492.537	48.382	-0.389	0.368
-491.522	201.150	0.038	0.059
-490.508	800.000	-0.118	-0.331
-489.493	134.775	0.228	-0.298
-488.478	800.000	0.042	0.163
-487.464	698.271	-0.031	-0.081
-486.449	117.883	0.132	-0.163
-485.435	-200.000	-0.031	-0.260
-484.420	-200.000	0.007	0.346
-483.405	800.000	0.081	0.246
-482.391	-200.000	-0.017	-0.206
-481.376	299.356	0.149	-0.277
-480.362	715.509	0.040	-0.108
-479.347	4.240	0.126	0.093
-478.332	-20.829	0.254	0.157
-477.318	-200.000	-0.001	0.141
-476.303	-94.225	-0.197	-0.054
-475.289	255.249	0.351	0.606
-474.274	-52.200	0.242	0.113
-473.259	264.545	-0.185	0.325
-472.245	-79.078	0.448	0.153
-471.230	38.735	-0.057	-0.051
-470.216	124.066	0.087	0.110
-469.201	-200.000	0.027	-0.174
-468.186	-192.836	0.133	-0.001
-467.172	-168.844	-0.120	-0.005
-466.157	800.000	-0.066	-0.196
-465.143	38.412	0.070	-0.063
-464.128	4.852	0.121	0.090
-463.113	-200.000	0.020	0.108
-462.099	-110.531	0.126	-0.026
-461.084	-176.567	0.322	0.008
-460.070	-107.831	0.424	-0.093
-459.055	153.911	-0.196	0.270
-458.040	-71.433	0.110	-0.041
-457.026	-44.409	-0.351	-0.177
-456.011	-81.297	0.148	-0.049
-454.997	-8.020	-0.164	0.111
-453.982	-86.261	-0.182	-0.056
-452.968	-200.000	0.007	-0.087
-451.953	728.490	0.065	-0.176
-450.938	-176.774	-0.288	-0.007
-449.924	102.545	-0.152	0.178
-448.909	270.859	-0.082	0.146
-447.895	-45.793	0.417	0.207
-446.880	582.670	-0.012	0.029
-445.865	-26.135	-0.150	-0.089
-444.851	14.379	0.167	0.131
-443.836	90.848	-0.232	-0.262
-442.822	294.470	-0.064	-0.118
-441.807	-42.584	-0.041	-0.021
-440.792	-65.750	0.078	-0.031
-439.778	-200.000	-0.015	-0.216
-438.763	25.465	-0.137	0.115
-437.749	-16.128	0.200	-0.128
-436.734	225.090	0.220	0.359
-435.719	-26.754	0.357	0.210
-434.705	-200.000	-0.061	-0.384
-433.690	800.000	-0.066	0.229
-432.676	-68.314	-0.236	-0.092
-431.661	23.454	-0.112	0.092
-430.646	-6.046	-0.207	-0.142
-429.632	-12.036	-0.175	0.115
-428.617	-80.143	0.282	-0.095
-427.603	-200.000	-0.023	-0.109
-426.588	67.032	-0.189	0.194
-425.573	-67.211	-0.229	-0.091
-424.559	261.456	0.091	-0.159
-423.544	800.000	0.059	0.186
-422.530	800.000	-0.091	0.283
-421.515	-200.000	0.002	0.084
-420.500	-143.429	0.159	0.015
-419.486	-30.003	0.119	-0.068
-418.471	-200.000	0.010	-0.250
-417.457	-11.721	0.220	0.146
-416.442	-44.154	-0.415	-0.209
-415.428	-200.000	-0.002	-0.135
-414.413	-96.043	0.113	-0.030
-413.398	-68.455	-0.266	-0.104
-412.384	190.582	-0.217	-0.327
-411.369	-102.274	0.228	0.055
-410.355	13.614	0.119	0.093
-409.340	2.288	0.100	0.073
-408.325	-200.000	-0.009	0.111
-407.311	-123.505	-0.056	-0.009
-406.296	-147.898	-0.074	-0.006
-405.282	-75.690	-0.196	0.070
-404.267	139.177	0.148	0.195
-403.252	-72.971	0.138	-0.051
-402.238	800.000	0.024	-0.087
-401.223	-200.000	-0.076	-0.496
-400.209	-53.661	-0.100	-0.046
-399.194	56.193	-0.271	0.264
-398.179	-30.274	-0.054	-0.031
-397.165	-200.000	0.037	0.302
-396.150	-200.000	-0.003	0.261
-395.136	89.114	0.283	0.317
-394.121	191.808	-0.041	-0.061
-393.106	387.210	0.081	-0.168
-392.092	62.546	-0.167	-0.168
-391.077	800.000	0.017	0.067
-390.063	-123.833	0.389	-0.062
-389.048	800.000	-0.021	0.072
-388.033	-52.658	-0.347	-0.161
-387.019	-200.000	-0.196	-0.000
-386.004	-96.624	-0.211	0.056
-384.990	327.824	0.124	0.239
-383.975	-68.882	0.127	0.049
-382.960	800.000	0.071	0.293
-381.946	406.747	0.065	-0.138
-380.931	-200.000	-0.014	-0.215
-379.917	-200.000	0.016	-0.125
-378.902	148.459	-0.101	0.138
-377.888	167.473	-0.134	-0.191
-376.873	-200.000	0.042	-0.399
-375.858	-38.202	0.291	0.155
-374.844	233.469	-0.076	-0.125
-373.829	-109.260	-0.350	-0.075
-372.815	-200.000	0.013	0.135
-371.800	-154.962	-0.142	0.009
-370.785	800.000	-0.068	-0.259
-369.771	-112.205	-0.051	-0.010
-368.756	800.000	-0.005	0.017
-367.742	-35.975	-0.268	-0.145
-366.727	-200.000	0.036	0.175
-365.712	642.613	0.114	-0.292
-364.698	10.718	-0.292	-0.223
-363.683	86.593	0.119	-0.132
-362.669	-139.314	-0.219	-0.024
-361.654	79.736	0.156	0.168
-360.639	-95.459	-0.118	-0.032
-359.625	-49.125	-0.165	-0.079
-358.610	8.802	0.284	-0.215
-357.596	25.774	-0.201	-0.168
-356.581	31.439	-0.155	0.133
-355.566	234.395	0.082	0.136
-354.552	67.518	0.113	-0.115
-353.537	-128.768	-0.202	-0.029
-352.523	-50.883	0.182	0.086
-351.508	800.000	0.101	0.325
-350.493	-46.501	0.299	-0.147
-349.479	-200.000	0.047	-0.326
-348.464	224.386	-0.118	-0.191
-347.450	800.000	-0.019	0.081
-346.435	-114.456	0.387	-0.075
-345.420	-149.826	0.165	0.013
-344.406	130.021	-0.047	-0.060
-343.391	-200.000	-0.010	-0.091
-342.377	-167.548	-0.179	-0.007
-341.362	-114.163	0.148	-0.029
-340.348	-135.027	0.111	-0.013
-339.333	-66.371	0.369	0.147
-338.318	-36.475	-0.226	-0.122
-337.304	800.000	0.066	0.186
-336.289	337.451	-0.038	0.073
-335.275	364.744	0.142	-0.286
-334.260	-159.588	-0.277	0.015
-333.245	80.710	0.021	0.023
-332.231	-73.673	0.176	0.064
-331.216	44.007	-0.325	0.299
-330.202	800.000	-0.134	0.470
-329.187	800.000	-0.050	0.155
-328.172	1.527	0.054	0.039
-327.158	-6.335	-0.040	-0.027
-326.143	-6.312	0.202	-0.138
-325.129	-34.295	0.260	0.143
-324.114	118.960	-0.107	0.132
-323.099	407.513	-0.077	0.162
-322.085	-200.000	-0.064	0.403
-321.070	-200.000	-0.026	-0.123
-320.056	-120.860	0.271	-0.046
-319.041	213.388	0.100	-0.158
-318.026	-97.642	-0.228	0.059
-317.012	106.735	-0.110	0.131
-315.997	402.426	-0.080	0.169
-314.983	334.124	-0.151	0.293
-313.968	-25.198	0.088	0.052
-312.953	-79.414	-0.157	0.053
-311.939	23.027	0.195	-0.160
-310.924	399.247	0.211	0.443
-309.910	800.000	-0.090	0.291
-308.895	-4.269	0.108	-0.075
-307.880	610.905	-0.124	-0.311
-306.866	-27.578	0.186	-0.108
-305.851	-70.978	-0.353	-0.133
-304.837	-121.937	0.220	-0.036
-303.822	-31.437	0.264	0.149
-302.807	570.901	-0.022	-0.053
-301.793	-200.000	-0.048	-0.273
-300.778	-7.920	-0.245	-0.166
-299.764	447.745	-0.119	-0.262
-298.749	-17.624	0.229	-0.144
-297.735	-154.251	-0.218	-0.015
-296.720	-93.484	-0.135	-0.038
-295.705	-30.028	-0.122	0.069
-294.691	153.006	-0.135	0.185
-293.676	-200.000	-0.040	-0.188
-292.662	153.917	0.243	0.333
-291.647	-67.112	0.224	-0.088
-290.632	800.000	-0.040	-0.125
-289.618	124.731	-0.097	-0.122
-288.603	-200.000	-0.002	-0.164
-287.589	800.000	0.059	-0.246
-286.574	-78.391	-0.515	0.177
-285.559	0.453	0.085	0.061
-284.545	-164.253	0.101	0.005
-283.530	175.077	-0.139	0.202
-282.516	-92.020	-0.040	0.011
-281.501	28.466	-0.332	0.281
-280.486	130.302	-0.225	0.288
-279.472	389.565	-0.096	-0.200
-278.457	-50.094	0.157	0.074
-277.443	327.550	-0.078	-0.149
-276.428	800.000	-0.046	-0.127
-275.413	-23.330	0.163	0.098
-274.399	-200.000	0.015	-0.069
-273.384	-61.575	0.237	0.100
-272.370	-200.000	-0.005	-0.098
-271.355	80.566	0.200	0.215
-270.340	74.476	-0.177	0.186
-269.326	-25.324	-0.153	-0.091
-268.311	-200.000	-0.096	0.427
-267.297	116.800	-0.097	-0.119
-266.282	-3.810	0.277	-0.192
-265.267	69.236	0.092	-0.094
-264.253	-19.115	0.228	-0.142
-263.238	100.418	0.082	-0.095
-262.224	800.000	0.028	-0.086
-261.209	190.291	0.093	0.140
-260.195	346.248	-0.062	0.121
-259.180	-182.791	0.298	-0.005
-258.165	208.560	0.135	0.211
-257.151	-121.213	0.285	0.048
-256.136	632.612	-0.172	0.436
-255.122	-147.956	-0.126	0.011
-254.107	-127.536	0.245	0.036
-253.092	-200.000	0.021	0.216
-252.078	338.315	-0.178	0.347
-251.063	38.534	0.111	-0.099
-250.049	-86.783	-0.384	-0.117
-249.034	6.521	-0.241	-0.179
-248.019	93.067	0.193	0.219
-247.005	-88.737	-0.166	-0.049
-245.990	179.884	0.212	-0.311
-244.976	-37.725	0.130	0.069
-243.961	-47.614	-0.333	-0.162
-242.946	-23.547	0.231	0.138
-241.932	97.746	0.049	-0.056
-240.917	68.112	-0.208	0.213
-239.903	92.138	0.259	0.292
-238.888	126.984	0.078	0.098
-237.873	-21.989	0.067	-0.041
-236.859	-200.000	0.063	-0.445
-235.844	-32.903	0.267	-0.148
-234.830	-200.000	0.038	-0.377
-233.815	-87.897	-0.133	0.040
-232.800	-72.321	0.168	0.062
-231.786	59.392	-0.313	0.308
-230.771	-171.044	-0.172	-0.006
-229.757	-200.000	0.014	-0.067
-228.742	-138.966	0.313	-0.034
-227.727	413.769	0.014	0.030
-226.713	709.163	0.036	0.095
-225.698	363.529	-0.019	0.039
-224.684	-200.000	0.007	-0.062
-223.669	800.000	-0.049	0.137
-222.655	-15.348	0.180	0.115
-221.640	247.857	0.142	-0.240
-220.625	800.000	-0.048	0.178
-219.611	148.762	-0.174	0.234
-218.596	-101.643	-0.163	0.039
-217.582	-200.000	0.020	-0.433
-216.567	-110.784	0.151	0.031
-215.552	186.278	0.203	-0.302
-214.538	-109.595	0.141	-0.030
-213.523	-200.000	0.005	-0.139
-212.509	-72.912	-0.139	-0.051
-211.494	800.000	0.042	-0.142
-210.479	465.411	-0.099	0.221
-209.465	205.512	-0.080	0.123
-208.450	-179.614	-0.081	0.002
-207.436	-113.806	-0.220	-0.043
-206.421	-39.279	-0.078	-0.041
-205.406	-64.026	-0.292	0.119
-204.392	104.125	0.053	-0.062
-203.377	-14.482	-0.147	-0.095
-202.363	-184.359	0.244	0.004
-201.348	193.830	0.023	-0.035
-200.333	184.074	0.136	-0.200
-199.319	597.877	-0.096	-0.238
-198.304	-105.333	-0.080	0.018
-197.290	307.309	-0.083	0.154
-196.275	106.440	-0.245	-0.289
-195.260	19.572	0.135	0.109
-194.246	-200.000	0.027	0.131
-193.231	717.078	-0.059	0.157
-192.217	-41.407	0.155	-0.079
-191.202	408.057	0.090	0.190
-190.187	-200.000	-0.011	-0.077
-189.173	128.867	-0.268	-0.341
-188.158	252.715	-0.145	-0.247
-187.144	-3.727	-0.143	0.099
-186.129	187.327	0.085	0.127
-185.114	82.097	-0.310	-0.335
-184.100	88.526	-0.113	-0.125
-183.085	-128.607	0.105	0.015
-182.071	-71.474	-0.207	0.077
-181.056	579.095	0.072	0.175
-180.042	260.503	0.174	-0.300
-179.027	-200.000	-0.020	-0.193
-178.012	800.000	-0.031	-0.097
-176.998	-128.178	0.257	-0.037
-175.983	-200.000	-0.059	0.468
-174.969	242.221	-0.135	-0.225
-173.954	800.000	-0.044	-0.189
-172.939	15.756	0.044	-0.034
-171.925	-200.000	-0.014	0.180
-170.910	-200.000	0.021	0.100
-169.896	-200.000	0.054	-0.314
-168.881	-18.710	0.043	-0.027
-167.866	-167.786	-0.076	-0.003
-166.852	513.240	-0.077	0.179
-165.837	390.503	0.147	0.304
-164.823	88.350	-0.174	0.192
-163.808	-145.732	-0.203	-0.018
-162.793	704.457	-0.055	0.146
-161.779	355.028	0.152	-0.301
-160.764	-138.596	0.091	0.010
-159.750	5.039	0.023	0.017
-158.735	-170.560	-0.070	0.002
-157.720	800.000	-0.025	-0.105
-156.706	-57.408	-0.150	0.066
-155.691	-186.663	0.209	0.003
-154.677	629.742	-0.082	-0.206
-153.662	460.852	-0.154	-0.341
-152.647	133.605	0.127	-0.163
-151.633	-27.851	-0.328	0.189
-150.618	-1.047	0.215	0.151
-149.604	184.568	-0.215	-0.318
-148.589	25.060	-0.354	-0.292
-147.574	-91.349	-0.192	-0.055
-146.560	49.994	0.392	-0.368
-145.545	-200.000	0.002	-0.025
-144.531	-11.295	0.101	0.066
-143.516	-200.000	-0.067	-0.439
-142.502	-16.234	0.392	0.247
-141.487	13.834	-0.325	-0.251
-140.472	-200.000	0.074	-0.365
-139.458	-200.000	-0.033	-0.332
-138.443	57.449	-0.215	0.209
-137.429	66.219	0.067	-0.067
-136.414	155.249	0.115	-0.157
-135.399	-200.000	-0.064	0.433
-134.385	800.000	0.089	0.323
-133.370	800.000	0.023	0.063
-132.356	23.737	-0.172	0.141
-131.341	294.585	-0.045	-0.081
-130.326	-1.891	0.038	0.026
-129.312	-200.000	-0.020	0.166
-128.297	290.531	-0.152	-0.275
-127.283	117.853	-0.256	-0.314
-126.268	-35.652	-0.392	0.211
-125.253	-43.729	0.275	-0.138
-124.239	-56.737	-0.204	-0.090
-123.224	685.860	-0.089	-0.232
-122.210	180.530	0.348	0.507
-121.195	-200.000	-0.048	0.236
