DTS Sentinel unit serial number:	SN413079Multiplexer serial number:	ORYXHardware model number:	OX4-SRSoftware version number:	ORYX F/W v4.00 Oryx Data Collector v3.7.2.0data status	okinstallation	princeton_trtdifferential loss correction	single-endedforward channel	channel 2reverse channel	N/Adate	2019/09/19time	07:19:35forward acquisition time	60.00reverse acquisition time	0.00gamma	496.2192k internal	0.2350k external	0.2350temperature offset calibration	1.0009default loss term (dB/km)	0.3790temperature slope calibration	1.0000multiplexer offset coefficient	1.0000multiplexer slope coefficient	1.0000fibre end	0.00T internal ref (°C)	19.12T ext. ref 1 (°C)	0.55T ext. ref 2 (°C)	13.71length (m)	temperature (°C)	Stokes	anti-Stokes-747.200	60.305	-0.155	0.153
-746.185	-64.639	-0.240	-0.097
-745.171	-35.984	0.280	-0.151
-744.156	-141.249	-0.307	0.031
-743.142	-144.420	0.116	0.011
-742.127	283.322	0.109	0.195
-741.112	-82.211	0.299	-0.097
-740.098	-125.432	0.355	-0.054
-739.083	59.379	-0.247	0.243
-738.069	186.613	0.205	-0.305
-737.054	-175.544	0.088	0.002
-736.039	-107.214	-0.424	-0.093
-735.025	244.778	0.042	0.071
-734.010	8.341	-0.269	-0.202
-732.996	-200.000	-0.006	0.035
-731.981	-200.000	-0.029	-0.232
-730.966	-145.402	0.110	-0.010
-729.952	800.000	-0.098	-0.357
-728.937	-142.974	0.129	-0.012
-727.923	152.903	-0.107	0.145
-726.908	-65.586	0.229	-0.092
-725.894	-200.000	-0.012	0.381
-724.879	143.572	0.142	-0.189
-723.864	-16.906	0.039	0.025
-722.850	-155.886	-0.128	-0.008
-721.835	800.000	-0.102	-0.352
-720.821	507.108	0.037	0.085
-719.806	377.463	-0.216	-0.440
-718.791	339.723	0.188	0.366
-717.777	-200.000	0.043	0.218
-716.762	-44.968	0.435	0.216
-715.748	305.219	-0.079	0.146
-714.733	-61.360	-0.254	0.107
-713.718	-200.000	0.024	0.185
-712.704	-158.254	-0.062	0.004
-711.689	800.000	-0.119	-0.364
-710.675	800.000	0.061	-0.196
-709.660	-79.991	0.159	0.053
-708.645	-100.296	0.367	0.091
-707.631	-200.000	0.026	0.299
-706.616	124.749	0.062	0.078
-705.602	-83.954	-0.188	0.060
-704.587	-200.000	0.001	0.320
-703.572	800.000	-0.099	0.370
-702.558	-200.000	0.025	0.122
-701.543	67.508	0.243	-0.247
-700.529	-82.258	-0.320	-0.104
-699.514	234.034	-0.024	-0.040
-698.499	10.826	0.289	-0.220
-697.485	-53.617	0.014	0.006
-696.470	64.146	-0.104	-0.104
-695.456	66.365	-0.263	0.266
-694.441	606.588	0.109	-0.271
-693.426	800.000	0.140	-0.445
-692.412	-200.000	-0.002	-0.344
-691.397	-63.279	-0.382	-0.157
-690.383	442.188	-0.015	-0.033
-689.368	-52.290	-0.280	0.129
-688.354	800.000	0.056	-0.180
-687.339	43.792	0.193	-0.176
-686.324	151.483	-0.113	-0.153
-685.310	-107.063	-0.310	0.068
-684.295	141.043	0.081	-0.106
-683.281	-82.683	0.319	0.103
-682.266	176.872	0.083	-0.121
-681.251	234.960	-0.162	-0.265
-680.237	9.916	-0.109	-0.083
-679.222	-39.927	-0.137	0.071
-678.208	7.866	0.059	0.044
-677.193	-9.756	-0.070	-0.046
-676.178	214.885	0.101	0.160
-675.164	15.983	-0.070	-0.055
-674.149	-105.797	0.225	-0.051
-673.135	157.127	-0.014	0.020
-672.120	73.930	-0.215	-0.224
-671.105	-6.549	-0.248	0.168
-670.091	142.530	0.381	-0.504
-669.076	800.000	-0.053	0.216
-668.062	50.390	-0.141	-0.132
-667.047	71.337	0.208	0.215
-666.032	800.000	-0.039	-0.111
-665.018	72.474	-0.296	0.307
-664.003	135.359	-0.041	0.054
-662.989	123.860	0.138	-0.173
-661.974	645.216	0.128	-0.325
-660.959	28.828	0.297	-0.250
-659.945	-55.732	0.249	0.111
-658.930	588.071	-0.051	0.124
-657.916	-129.572	0.047	-0.007
-656.901	800.000	0.049	-0.154
-655.886	9.280	-0.233	0.175
-654.872	800.000	0.152	0.437
-653.857	-106.689	-0.363	0.080
-652.843	249.538	0.049	-0.083
-651.828	-33.838	0.295	0.161
-650.814	372.878	0.082	0.167
-649.799	173.494	0.237	0.340
-648.784	692.350	-0.050	-0.130
-647.770	8.544	0.356	0.267
-646.755	-9.526	-0.032	0.021
-645.741	-31.938	-0.391	-0.218
-644.726	-172.389	0.091	-0.003
-643.711	551.570	0.066	-0.157
-642.697	-99.799	-0.153	-0.038
-641.682	241.989	0.103	-0.172
-640.668	800.000	0.102	-0.337
-639.653	-200.000	-0.004	0.298
-638.638	17.992	-0.207	-0.164
-637.624	-134.073	-0.271	0.033
-636.609	698.437	0.046	0.121
-635.595	-117.345	0.390	0.070
-634.580	-83.981	-0.180	-0.057
-633.565	-200.000	0.039	-0.319
-632.551	-1.394	-0.304	0.213
-631.536	-159.707	-0.065	0.004
-630.522	-109.056	0.233	0.049
-629.507	607.153	-0.061	0.151
-628.492	-200.000	-0.006	-0.210
-627.478	-0.479	0.247	-0.174
-626.463	71.711	0.093	-0.096
-625.449	-107.045	0.109	-0.024
-624.434	173.891	-0.245	-0.352
-623.419	-200.000	-0.048	-0.286
-622.405	73.298	-0.093	0.096
-621.390	116.269	0.160	0.195
-620.376	238.701	-0.107	-0.177
-619.361	108.713	-0.196	0.233
-618.346	-200.000	0.026	0.408
-617.332	-20.844	-0.336	0.205
-616.317	800.000	0.037	0.134
-615.303	0.556	-0.132	-0.093
-614.288	-187.176	0.255	-0.003
-613.273	119.442	-0.077	0.095
-612.259	209.069	-0.077	0.120
-611.244	674.948	0.062	-0.160
-610.230	-153.115	-0.277	-0.019
-609.215	19.734	0.013	-0.011
-608.201	-67.050	-0.244	0.096
-607.186	-44.811	0.040	0.020
-606.171	101.118	-0.272	0.314
-605.157	-101.366	-0.040	0.010
-604.142	-200.000	0.038	0.209
-603.128	38.784	0.367	0.326
-602.113	74.510	0.185	-0.193
-601.098	-200.000	-0.028	0.465
-600.084	-42.730	-0.304	-0.153
-599.069	-200.000	0.030	0.354
-598.055	161.875	-0.048	0.066
-597.040	-154.881	0.249	0.016
-596.025	90.000	-0.284	-0.315
-595.011	-155.134	0.121	0.008
-593.996	-200.000	-0.003	0.086
-592.982	37.360	-0.271	-0.238
-591.967	-129.166	0.149	-0.021
-590.952	800.000	-0.128	0.400
-589.938	-200.000	0.048	-0.243
-588.923	251.506	0.236	0.399
-587.909	-200.000	0.018	0.158
-586.894	21.351	0.093	0.075
-585.879	-200.000	0.018	-0.170
-584.865	202.078	0.069	0.105
-583.850	292.014	0.205	0.371
-582.836	135.568	0.129	-0.166
-581.821	-64.979	0.121	-0.049
-580.806	107.348	0.040	0.047
-579.792	-200.000	0.047	-0.285
-578.777	-143.528	-0.156	0.015
-577.763	-149.452	0.042	-0.003
-576.748	6.549	-0.222	0.164
-575.733	237.176	0.049	-0.081
-574.719	67.588	0.304	-0.307
-573.704	-200.000	-0.001	0.045
-572.690	8.548	-0.167	-0.124
-571.675	209.652	-0.020	-0.030
-570.661	-200.000	0.040	0.193
-569.646	800.000	-0.037	-0.116
-568.631	513.956	-0.045	-0.104
-567.617	-123.052	0.572	-0.091
-566.602	160.684	-0.192	-0.266
-565.588	101.676	0.151	0.175
-564.573	-200.000	0.025	-0.146
-563.558	-200.000	0.026	-0.240
-562.544	-74.240	-0.180	0.065
-561.529	193.910	-0.100	0.150
-560.515	-57.448	0.082	0.036
-559.500	52.498	0.207	0.196
-558.485	-200.000	-0.033	0.222
-557.471	95.573	0.136	-0.154
-556.456	31.439	-0.269	-0.229
-555.442	-142.072	-0.228	-0.022
-554.427	-200.000	0.019	-0.180
-553.412	-198.257	0.223	0.001
-552.398	201.123	-0.183	0.280
-551.383	-66.545	0.224	0.088
-550.369	-126.046	-0.443	-0.066
-549.354	800.000	0.072	0.197
-548.339	62.957	-0.069	0.069
-547.325	-200.000	-0.016	-0.258
-546.310	75.273	-0.040	0.042
-545.296	-154.335	0.223	-0.015
-544.281	-55.998	-0.156	0.069
-543.266	-200.000	-0.025	-0.111
-542.252	84.028	0.068	0.073
-541.237	140.188	-0.075	0.098
-540.223	459.994	0.130	0.286
-539.208	107.082	0.025	-0.029
-538.193	217.345	0.074	0.117
-537.179	-99.127	-0.166	0.042
-536.164	652.191	-0.049	0.125
-535.150	185.928	-0.096	-0.142
-534.135	-200.000	-0.044	0.229
-533.121	29.657	-0.243	-0.204
-532.106	-200.000	-0.043	-0.343
-531.091	286.845	-0.191	-0.341
-530.077	478.342	0.164	0.367
-529.062	10.833	0.348	-0.263
-528.048	43.549	0.168	0.152
-527.033	-200.000	0.031	-0.150
-526.018	28.984	-0.143	-0.120
-525.004	-156.780	-0.225	-0.014
-523.989	-12.108	0.188	0.122
-522.975	-179.316	-0.072	0.002
-521.960	-123.549	0.572	-0.090
-520.945	-200.000	-0.027	0.228
-519.931	42.241	-0.223	0.200
-518.916	150.618	0.190	0.255
-517.902	-200.000	0.036	0.271
-516.887	-140.677	-0.377	-0.039
-515.872	30.036	0.367	0.309
-514.858	67.644	0.119	-0.120
-513.843	800.000	0.034	-0.122
-512.829	19.044	-0.139	0.110
-511.814	-67.050	-0.032	0.012
-510.799	-29.593	0.246	0.139
-509.785	124.188	0.121	0.150
-508.770	-200.000	-0.001	-0.029
-507.756	170.989	-0.273	-0.386
-506.741	636.593	0.078	0.196
-505.726	-42.900	-0.442	-0.222
-504.712	-200.000	0.012	-0.054
-503.697	119.624	-0.146	-0.178
-502.683	-200.000	0.468	0.001
-501.668	800.000	-0.077	-0.263
-500.653	167.170	0.192	-0.269
-499.639	259.038	-0.130	-0.222
-498.624	-200.000	-0.001	-0.124
-497.610	-200.000	0.007	-0.370
-496.595	-8.049	-0.033	0.022
-495.581	26.848	0.199	0.164
-494.566	-28.244	-0.053	-0.030
-493.551	8.707	0.176	-0.131
-492.537	51.073	-0.268	0.251
-491.522	65.492	-0.018	0.018
-490.508	-112.934	-0.032	0.006
-489.493	-93.801	-0.276	0.075
-488.478	517.515	0.126	0.290
-487.464	-145.338	0.255	0.023
-486.449	98.655	-0.146	0.166
-485.435	-30.012	0.053	-0.030
-484.420	118.336	0.152	-0.185
-483.405	-14.997	0.113	-0.071
-482.391	-92.275	-0.111	0.031
-481.376	365.343	0.098	0.194
-480.362	-68.038	-0.184	0.071
-479.347	157.982	-0.073	0.100
-478.332	42.646	-0.205	0.185
-477.318	-200.000	-0.016	0.237
-476.303	287.908	0.121	-0.216
-475.289	-165.060	-0.101	-0.004
-474.274	49.735	0.080	0.074
-473.259	800.000	0.065	-0.265
-472.245	99.687	0.192	0.220
-471.230	-3.302	-0.084	0.058
-470.216	103.741	-0.207	0.240
-469.201	800.000	-0.065	-0.209
-468.186	-80.132	-0.221	0.073
-467.172	-141.817	-0.131	0.013
-466.157	86.556	0.199	-0.217
-465.143	-200.000	0.020	0.214
-464.128	-141.089	0.190	-0.019
-463.113	-57.606	-0.121	-0.052
-462.099	800.000	-0.063	-0.171
-461.084	-87.823	-0.113	-0.034
-460.070	-103.917	0.071	0.016
-459.055	-200.000	-0.016	0.245
-458.040	-121.467	0.155	0.025
-457.026	40.946	0.300	-0.268
-456.011	75.357	-0.173	-0.181
-454.997	-34.778	0.184	0.099
-453.982	-200.000	-0.026	0.149
-452.968	-112.026	-0.396	0.079
-451.953	-68.947	-0.260	0.099
-450.938	87.416	-0.065	0.071
-449.924	7.061	0.200	0.148
-448.909	541.081	-0.162	0.381
-447.895	114.127	0.076	0.091
-446.880	132.966	-0.157	-0.200
-445.865	34.493	0.138	0.119
-444.851	-15.315	0.206	0.130
-443.836	249.951	0.017	0.029
-442.822	-118.383	-0.302	0.053
-441.807	-93.086	0.210	0.058
-440.792	69.549	-0.066	0.067
-439.778	-88.094	0.235	-0.069
-438.763	-120.819	-0.204	-0.034
-437.749	-144.091	-0.091	0.008
-436.734	20.379	-0.126	-0.100
-435.719	7.567	-0.246	0.182
-434.705	-91.316	-0.369	-0.104
-433.690	-121.908	-0.344	0.056
-432.676	66.079	0.064	0.064
-431.661	501.753	0.136	0.309
-430.646	-111.535	-0.293	0.059
-429.632	13.777	0.203	0.155
-428.617	-200.000	0.056	-0.301
-427.603	800.000	-0.055	0.213
-426.588	-3.173	0.243	0.167
-425.573	-200.000	0.020	0.252
-424.559	-193.476	-0.176	0.002
-423.544	247.346	-0.063	0.106
-422.530	-99.706	0.133	-0.033
-421.515	-104.127	0.136	0.031
-420.500	-200.000	0.066	0.297
-419.486	52.853	-0.216	-0.203
-418.471	656.367	-0.080	-0.202
-417.457	-101.589	0.441	0.106
-416.442	-102.165	0.348	0.082
-415.428	209.762	0.151	-0.233
-414.413	-200.000	-0.039	0.280
-413.398	10.200	-0.236	0.177
-412.384	766.716	-0.036	-0.096
-411.369	-200.000	-0.044	-0.316
-410.355	187.460	0.143	-0.210
-409.340	19.646	-0.271	-0.215
-408.325	44.684	0.019	0.017
-407.311	-28.557	0.093	0.053
-406.296	-57.095	0.116	0.050
-405.282	-200.000	0.009	0.108
-404.267	321.859	-0.215	0.403
-403.252	-127.105	-0.178	0.026
-402.238	-53.274	0.192	-0.087
-401.223	-120.160	-0.325	0.055
-400.209	800.000	0.008	-0.027
-399.194	-76.502	-0.300	0.104
-398.179	40.620	-0.280	0.249
-397.165	93.839	-0.069	-0.077
-396.150	-44.754	-0.191	-0.094
-395.136	-177.211	-0.240	0.006
-394.121	29.771	0.207	0.174
-393.106	-200.000	-0.065	0.362
-392.092	87.496	0.152	-0.166
-391.077	279.966	0.013	-0.023
-390.063	34.104	0.139	-0.119
-389.048	223.190	0.050	0.079
-388.033	-200.000	-0.032	-0.205
-387.019	-200.000	0.007	-0.071
-386.004	-200.000	-0.013	-0.072
-384.990	-200.000	0.025	0.160
-383.975	-7.997	0.086	-0.057
-382.960	1.621	-0.088	0.063
-381.946	-124.317	0.135	-0.021
-380.931	-200.000	0.018	0.121
-379.917	-200.000	-0.010	-0.121
-378.902	-137.877	0.029	-0.003
-377.888	120.376	-0.155	0.189
-376.873	421.694	0.037	-0.078
-375.858	-129.119	0.174	0.024
-374.844	7.238	0.183	0.135
-373.829	85.463	-0.190	-0.205
-372.815	288.387	-0.096	-0.170
-371.800	-200.000	0.004	-0.067
-370.785	-98.628	0.256	0.064
-369.771	-139.606	0.278	-0.029
-368.756	79.722	-0.340	0.359
-367.742	-92.459	0.120	-0.033
-366.727	110.846	-0.116	0.137
-365.712	-122.206	-0.095	-0.015
-364.698	-200.000	0.003	0.083
-363.683	-123.589	-0.201	-0.031
-362.669	-163.585	0.238	0.011
-361.654	-99.550	0.469	0.116
-360.639	375.811	-0.084	-0.168
-359.625	-152.458	0.099	0.007
-358.610	-15.858	-0.244	-0.153
-357.596	509.310	-0.159	-0.363
-356.581	-200.000	0.058	0.263
-355.566	162.710	-0.155	0.213
-354.552	-200.000	-0.072	-0.392
-353.537	346.518	-0.027	0.052
-352.523	96.257	0.129	0.145
-351.508	614.512	0.181	-0.446
-350.493	213.975	0.128	-0.199
-349.479	800.000	0.101	-0.286
-348.464	135.934	0.068	-0.088
-347.450	-200.000	0.022	0.313
-346.435	-40.944	-0.379	-0.192
-345.420	775.846	0.144	-0.387
-344.406	-45.554	-0.220	0.107
-343.391	-13.310	0.320	-0.204
-342.377	-200.000	0.049	-0.285
-341.362	800.000	0.020	0.074
-340.348	7.449	-0.035	0.026
-339.333	-25.833	0.250	0.144
-338.318	645.889	-0.130	-0.327
-337.304	-92.183	0.078	0.022
-336.289	-200.000	0.056	0.349
-335.275	171.922	0.166	-0.234
-334.260	800.000	-0.039	0.151
-333.245	-137.611	0.311	-0.034
-332.231	326.170	0.104	0.196
-331.216	307.095	0.097	0.178
-330.202	407.803	-0.097	-0.202
-329.187	-39.207	-0.180	-0.093
-328.172	-142.881	0.318	0.030
-327.158	800.000	-0.061	0.206
-326.143	337.030	-0.048	-0.092
-325.129	-48.709	0.048	0.023
-324.114	-96.960	0.241	0.062
-323.099	-160.115	0.233	-0.012
-322.085	-47.066	-0.084	0.040
-321.070	182.428	0.228	-0.331
-320.056	-200.000	0.006	0.309
-319.041	-200.000	0.045	-0.220
-318.026	800.000	0.134	0.407
-317.012	-92.226	-0.172	-0.048
-315.997	126.161	0.151	0.188
-314.983	-88.115	-0.230	0.068
-313.968	-100.998	0.332	0.080
-312.953	522.076	0.028	0.066
-311.939	-152.443	-0.196	-0.014
-310.924	306.542	-0.205	-0.374
-309.910	-83.596	0.045	-0.014
-308.895	-200.000	-0.156	-0.001
-307.880	800.000	-0.065	-0.237
-306.866	-164.060	0.192	-0.009
-305.851	-20.889	0.271	0.163
-304.837	-151.055	0.132	-0.010
-303.822	-52.746	0.129	0.058
-302.807	58.481	0.179	-0.172
-301.793	197.178	-0.079	-0.119
-300.778	-120.406	-0.124	-0.021
-299.764	137.676	-0.011	-0.014
-298.749	800.000	-0.061	0.218
-297.735	108.587	0.193	-0.226
-296.720	51.352	0.166	-0.155
-295.705	-25.990	-0.312	-0.180
-294.691	110.317	0.157	-0.185
-293.676	-105.067	0.107	0.024
-292.662	336.089	-0.156	0.297
-291.647	86.643	-0.282	0.305
-290.632	-63.423	-0.078	0.031
-289.618	-167.691	0.090	0.004
-288.603	-27.727	0.070	-0.040
-287.589	-200.000	-0.024	-0.137
-286.574	-63.741	-0.328	-0.132
-285.559	660.455	-0.100	-0.252
-284.545	-5.467	0.276	0.186
-283.530	-103.053	0.072	-0.017
-282.516	-200.000	0.031	-0.156
-281.501	646.172	-0.067	-0.168
-280.486	293.289	-0.063	-0.113
-279.472	-90.834	0.259	-0.073
-278.457	-104.397	0.286	0.065
-277.443	155.118	-0.080	0.107
-276.428	-87.822	0.093	0.027
-275.413	-149.622	-0.045	0.004
-274.399	28.498	0.141	-0.117
-273.384	-200.000	-0.022	-0.232
-272.370	585.456	-0.032	0.077
-271.355	83.536	-0.094	-0.101
-270.340	-25.258	0.177	-0.103
-269.326	358.605	-0.038	-0.074
-268.311	-132.050	0.067	-0.009
-267.297	-98.273	0.247	-0.062
-266.282	-36.298	-0.203	0.107
-265.267	-147.713	0.230	-0.019
-264.253	7.821	-0.179	0.132
-263.238	148.863	0.173	-0.229
-262.224	664.289	0.081	-0.204
-261.209	-95.065	0.188	0.050
-260.195	-13.804	-0.215	0.136
-259.180	94.786	0.123	-0.137
-258.165	21.803	-0.153	-0.122
-257.151	-200.000	-0.014	0.124
-256.136	-103.906	-0.406	-0.093
-255.122	169.531	-0.232	-0.325
-254.107	370.474	0.073	0.146
-253.092	247.898	0.028	0.046
-252.078	-200.000	-0.008	-0.057
-251.063	-162.153	-0.449	0.022
-250.049	-200.000	-0.014	-0.090
-249.034	-32.983	0.461	-0.251
-248.019	-67.073	-0.099	0.038
-247.005	78.957	0.252	-0.264
-245.990	523.046	0.067	-0.155
-244.976	256.089	0.151	-0.253
-243.961	-148.446	0.255	-0.020
-242.946	116.323	0.260	0.312
-241.932	11.087	-0.197	-0.147
-240.917	-101.807	0.148	0.035
-239.903	295.914	-0.150	0.270
-238.888	-200.000	0.044	-0.193
-237.873	-66.416	-0.308	-0.120
-236.859	800.000	-0.112	0.446
-235.844	-124.651	-0.213	0.032
-234.830	-200.000	-0.054	-0.259
-233.815	-44.037	0.154	0.076
-232.800	317.901	0.090	-0.167
-231.786	99.828	0.119	-0.135
-230.771	-49.712	-0.136	0.063
-229.757	381.519	-0.011	-0.023
-228.742	800.000	0.069	-0.190
-227.727	22.484	-0.197	-0.157
-226.713	800.000	-0.128	-0.383
-225.698	-14.350	-0.074	0.046
-224.684	-200.000	0.029	-0.169
-223.669	-200.000	0.004	-0.102
-222.655	-66.999	0.316	0.122
-221.640	-200.000	-0.059	0.289
-220.625	122.186	-0.222	0.271
-219.611	-200.000	-0.004	-0.033
-218.596	17.195	0.154	-0.120
-217.582	-41.424	-0.381	0.192
-216.567	-38.659	0.210	-0.108
-215.552	98.499	-0.098	0.111
-214.538	-135.555	-0.454	0.053
-213.523	330.863	-0.014	0.027
-212.509	184.910	-0.143	0.208
-211.494	-125.777	0.074	0.011
-210.479	24.534	-0.242	-0.196
-209.465	-74.608	-0.237	-0.083
-208.450	-40.344	-0.023	-0.012
-207.436	39.243	-0.088	0.077
-206.421	-200.000	-0.037	0.158
-205.406	125.274	0.175	-0.216
-204.392	3.718	-0.062	0.044
-203.377	180.129	0.190	-0.272
-202.363	-97.569	-0.341	0.087
-201.348	711.256	-0.022	-0.056
-200.333	-200.000	-0.053	0.262
-199.319	-0.024	0.240	0.167
-198.304	-9.361	0.404	-0.264
-197.290	-33.417	-0.228	-0.123
-196.275	182.501	-0.092	-0.132
-195.260	64.855	0.136	0.134
-194.246	800.000	0.121	-0.435
-193.231	-69.436	-0.242	0.091
-192.217	46.245	0.236	0.214
-191.202	-200.000	0.057	0.370
-190.187	-48.537	-0.493	-0.232
-189.173	800.000	0.071	-0.284
-188.158	-83.718	-0.245	-0.076
-187.144	106.319	0.335	-0.387
-186.129	-51.431	-0.078	0.036
-185.114	41.801	0.090	0.080
-184.100	-9.180	0.043	-0.028
-183.085	698.346	-0.168	-0.431
-182.071	38.892	0.228	0.199
-181.056	462.556	0.098	-0.215
-180.042	-55.579	-0.257	0.113
-179.027	-139.580	-0.144	-0.015
-178.012	-85.869	-0.072	0.022
-176.998	469.706	0.137	-0.301
-175.983	-200.000	0.052	-0.236
-174.969	438.641	0.114	0.244
-173.954	-89.898	0.218	-0.062
-172.939	800.000	0.024	-0.087
-171.925	-186.348	-0.246	-0.003
-170.910	294.156	0.141	-0.251
-169.896	-200.000	-0.007	0.337
-168.881	-200.000	0.050	0.411
-167.866	32.016	0.120	-0.101
-166.852	-158.194	-0.216	0.012
-165.837	-64.853	0.117	0.046
-164.823	-200.000	-0.024	-0.124
-163.808	-83.130	0.234	0.074
-162.793	-200.000	-0.108	0.603
-161.779	800.000	0.119	0.378
-160.764	-52.048	-0.077	-0.035
-159.750	-6.819	-0.062	0.041
-158.735	-200.000	-0.003	-0.029
-157.720	12.916	0.111	-0.084
-156.706	1.110	-0.342	0.239
-155.691	505.166	0.154	0.348
-154.677	163.611	0.121	-0.166
-153.662	-68.145	-0.190	-0.072
-152.647	-4.140	0.216	-0.146
-151.633	-151.112	-0.244	0.018
-150.618	-169.710	-0.025	-0.001
-149.604	-147.741	-0.298	-0.024
-148.589	-187.487	0.272	-0.004
-147.574	76.154	-0.066	-0.068
-146.560	-31.959	-0.346	-0.189
-145.545	-90.079	0.369	0.105
-144.531	-39.896	-0.150	0.076
-143.516	-200.000	0.002	-0.127
-142.502	-24.934	0.102	-0.059
-141.487	253.793	-0.029	0.048
-140.472	-73.939	-0.090	-0.032
-139.458	-49.462	0.177	0.082
-138.443	-200.000	-0.013	0.213
-137.429	-125.512	0.196	-0.029
-136.414	-200.000	0.050	-0.288
-135.399	-197.275	-0.248	-0.002
-134.385	63.215	-0.108	0.105
-133.370	197.315	-0.145	0.215
-132.356	-144.802	0.146	0.013
-131.341	240.156	0.118	-0.192
-130.326	-64.226	0.204	0.081
-129.312	800.000	0.034	-0.145
-128.297	602.847	-0.040	-0.097
-127.283	-200.000	-0.028	-0.208
-126.268	-200.000	-0.018	0.093
-125.253	173.049	0.248	0.348
-124.239	115.552	0.085	-0.101
-123.224	71.184	0.186	0.188
-122.210	-29.923	0.260	0.144
-121.195	126.342	0.040	-0.050
-120.180	-30.621	0.363	-0.200
