DTS Sentinel unit serial number:	SN413079Multiplexer serial number:	ORYXHardware model number:	OX4-SRSoftware version number:	ORYX F/W v4.00 Oryx Data Collector v3.7.2.0data status	okinstallation	princeton_trtdifferential loss correction	single-endedforward channel	channel 2reverse channel	N/Adate	2019/09/14time	02:55:35forward acquisition time	60.00reverse acquisition time	0.00gamma	496.2192k internal	0.2337k external	0.2337temperature offset calibration	1.0130default loss term (dB/km)	0.3790temperature slope calibration	1.0000multiplexer offset coefficient	1.0000multiplexer slope coefficient	1.0000fibre end	0.00T internal ref (°C)	26.56T ext. ref 1 (°C)	3.25T ext. ref 2 (°C)	21.62length (m)	temperature (°C)	Stokes	anti-Stokes-747.200	-108.277	-0.209	0.045
-746.185	230.830	0.091	-0.149
-745.171	-149.470	-0.200	0.016
-744.156	-193.990	-0.490	0.004
-743.142	27.174	0.194	0.163
-742.127	-90.465	-0.205	-0.060
-741.112	-62.097	0.111	-0.047
-740.098	37.240	-0.048	0.042
-739.083	-200.000	-0.004	0.221
-738.069	-142.841	-0.197	0.019
-737.054	216.740	0.069	0.111
-736.039	-35.748	-0.087	-0.048
-735.025	-92.213	0.255	-0.072
-734.010	-200.000	0.008	0.172
-732.996	-200.000	0.003	-0.076
-731.981	97.034	-0.315	-0.362
-730.966	206.155	-0.251	0.392
-729.952	-200.000	0.014	-0.082
-728.937	-1.595	-0.128	-0.090
-727.923	95.467	-0.279	-0.319
-726.908	-100.352	0.126	-0.031
-725.894	-101.919	0.184	-0.045
-724.879	-125.096	-0.214	0.033
-723.864	5.145	0.054	0.040
-722.850	194.230	0.039	0.059
-721.835	-200.000	0.038	-0.169
-720.821	-200.000	0.046	0.279
-719.806	136.973	0.160	0.209
-718.791	-145.003	-0.400	-0.037
-717.777	48.984	0.212	0.199
-716.762	69.446	-0.203	-0.210
-715.748	-200.000	0.030	-0.163
-714.733	2.111	-0.416	-0.301
-713.718	-97.707	-0.319	-0.083
-712.704	241.842	-0.051	0.085
-711.689	-135.003	0.205	-0.025
-710.675	-58.524	0.259	0.113
-709.660	-152.090	-0.156	0.011
-708.645	-83.230	-0.169	0.054
-707.631	-104.797	-0.119	-0.027
-706.616	205.152	-0.139	-0.217
-705.602	48.686	-0.083	0.078
-704.587	-88.128	0.378	-0.114
-703.572	-200.000	0.006	-0.165
-702.558	-200.000	-0.031	-0.297
-701.543	-76.483	-0.149	-0.053
-700.529	39.216	0.223	0.200
-699.514	571.438	-0.070	-0.171
-698.499	-200.000	-0.003	0.038
-697.485	-71.914	-0.383	-0.143
-696.470	-132.499	0.412	0.053
-695.456	-29.798	-0.407	-0.232
-694.441	-146.503	-0.073	-0.006
-693.426	-200.000	-0.028	0.159
-692.412	409.243	0.094	-0.199
-691.397	275.780	-0.093	-0.166
-690.383	551.660	-0.088	-0.212
-689.368	-116.184	0.095	0.018
-688.354	800.000	0.055	-0.168
-687.339	-200.000	-0.049	0.000
-686.324	40.612	0.117	-0.105
-685.310	-200.000	0.058	0.283
-684.295	45.870	-0.128	-0.119
-683.281	-3.884	0.183	0.127
-682.266	-57.072	-0.215	0.095
-681.251	502.854	-0.101	0.234
-680.237	-200.000	0.006	-0.068
-679.222	283.218	-0.093	0.167
-678.208	60.839	-0.051	0.051
-677.193	-50.376	-0.245	-0.116
-676.178	-103.429	-0.268	0.063
-675.164	-99.867	-0.209	0.052
-674.149	800.000	-0.094	0.335
-673.135	-88.879	-0.054	-0.016
-672.120	207.563	0.220	0.344
-671.105	-200.000	0.010	0.170
-670.091	-63.340	-0.191	0.079
-669.076	147.335	-0.188	-0.253
-668.062	-50.053	0.178	-0.085
-667.047	-65.840	-0.122	-0.049
-666.032	-66.999	0.280	-0.110
-665.018	-200.000	0.028	-0.175
-664.003	-123.617	-0.154	-0.024
-662.989	-80.885	0.196	-0.065
-661.974	-129.536	0.168	0.023
-660.959	800.000	0.043	-0.157
-659.945	-96.116	0.236	-0.063
-658.930	529.300	-0.118	-0.279
-657.916	-82.250	-0.157	-0.051
-656.901	-93.641	0.302	0.084
-655.886	170.490	0.102	-0.146
-654.872	31.419	-0.125	0.108
-653.857	-4.542	0.242	-0.167
-652.843	-106.706	-0.310	-0.069
-651.828	115.912	-0.173	0.212
-650.814	-49.855	0.237	-0.112
-649.799	205.039	-0.056	0.087
-648.784	-43.813	0.215	0.108
-647.770	567.197	0.118	0.287
-646.755	113.327	-0.067	-0.081
-645.741	-160.345	-0.080	-0.004
-644.726	186.077	-0.080	0.119
-643.711	411.483	0.057	0.121
-642.697	8.128	-0.228	0.171
-641.682	-200.000	0.033	-0.219
-640.668	120.109	0.227	-0.281
-639.653	800.000	-0.075	-0.245
-638.638	-94.985	-0.253	0.068
-637.624	-154.017	-0.102	-0.007
-636.609	94.915	0.052	-0.060
-635.595	800.000	-0.021	0.072
-634.580	-200.000	0.013	0.061
-633.565	109.372	0.197	-0.235
-632.551	-128.769	-0.162	-0.023
-631.536	-54.696	0.309	-0.140
-630.522	-138.403	-0.219	0.024
-629.507	800.000	0.067	0.267
-628.492	-42.769	0.131	0.067
-627.478	-48.395	-0.253	0.122
-626.463	626.101	-0.046	-0.117
-625.449	-15.360	-0.201	-0.128
-624.434	519.470	-0.142	-0.332
-623.419	378.904	0.104	0.213
-622.405	-0.629	-0.148	0.105
-621.390	94.880	0.041	0.046
-620.376	-26.551	0.219	-0.128
-619.361	110.465	0.123	-0.148
-618.346	-200.000	-0.005	0.166
-617.332	145.758	-0.113	-0.151
-616.317	28.804	-0.298	-0.252
-615.303	800.000	-0.120	-0.362
-614.288	-144.540	-0.035	0.003
-613.273	312.448	-0.101	-0.190
-612.259	-52.443	0.209	-0.096
-611.244	-200.000	0.040	0.524
-610.230	-61.656	0.181	0.076
-609.215	-67.860	-0.505	-0.197
-608.201	368.294	0.039	-0.079
-607.186	345.073	0.194	-0.380
-606.171	800.000	-0.025	0.096
-605.157	-200.000	0.021	-0.115
-604.142	7.281	0.245	0.183
-603.128	97.762	-0.211	-0.242
-602.113	61.805	-0.154	-0.153
-601.098	-200.000	0.022	0.119
-600.084	-2.437	0.211	-0.148
-599.069	-61.421	-0.239	0.100
-598.055	-200.000	-0.017	0.000
-597.040	-2.828	0.138	-0.096
-596.025	-113.861	0.145	0.028
-595.011	-151.807	0.476	0.035
-593.996	428.678	0.078	-0.168
-592.982	39.888	-0.345	-0.309
-591.967	463.503	-0.185	-0.412
-590.952	800.000	0.096	0.388
-589.938	-86.237	-0.470	-0.144
-588.923	-200.000	-0.033	-0.409
-587.909	25.523	0.258	-0.214
-586.894	-134.463	0.120	0.015
-585.879	-157.347	-0.144	0.009
-584.865	-45.704	0.254	-0.125
-583.850	-7.979	-0.325	-0.219
-582.836	591.117	0.052	-0.129
-581.821	56.694	-0.327	0.317
-580.806	45.362	0.171	-0.157
-579.792	-132.206	-0.035	0.005
-578.777	-101.290	0.069	-0.017
-577.763	-94.019	0.254	0.070
-576.748	626.133	0.031	-0.079
-575.733	-172.548	-0.205	0.006
-574.719	164.676	0.145	-0.204
-573.704	140.907	-0.176	-0.232
-572.690	-200.000	-0.047	0.209
-571.675	-100.945	-0.374	-0.092
-570.661	-84.222	-0.377	-0.119
-569.646	-124.846	0.258	-0.040
-568.631	64.582	-0.209	-0.210
-567.617	-93.549	0.162	-0.045
-566.602	432.461	-0.102	-0.221
-565.588	-29.224	-0.167	0.096
-564.573	91.529	-0.201	-0.226
-563.558	-12.444	-0.101	0.066
-562.544	157.273	-0.022	-0.031
-561.529	-98.819	-0.062	0.016
-560.515	-91.162	0.274	-0.078
-559.500	-75.722	-0.175	0.062
-558.485	-95.429	-0.361	0.097
-557.471	281.796	-0.114	-0.203
-556.456	-200.000	-0.060	-0.522
-555.442	-67.731	0.153	0.060
-554.427	236.134	-0.096	0.158
-553.412	-128.374	0.361	-0.051
-552.398	800.000	-0.086	0.259
-551.383	-129.839	0.300	-0.041
-550.369	-103.215	0.168	-0.040
-549.354	501.988	0.078	-0.179
-548.339	-66.405	0.107	-0.043
-547.325	-200.000	-0.060	-0.300
-546.310	-200.000	0.035	-0.213
-545.296	68.568	0.210	-0.214
-544.281	-13.341	0.026	0.017
-543.266	51.234	-0.124	-0.118
-542.252	372.980	0.100	-0.203
-541.237	38.895	0.183	-0.163
-540.223	-200.000	-0.032	0.177
-539.208	-200.000	-0.012	-0.205
-538.193	-200.000	0.033	0.302
-537.179	-180.434	0.254	-0.005
-536.164	-43.223	0.173	0.087
-535.150	800.000	0.031	-0.114
-534.135	-54.149	-0.249	0.113
-533.121	-200.000	0.025	-0.299
-532.106	18.491	-0.188	-0.149
-531.091	-150.088	0.185	-0.014
-530.077	-152.064	0.147	-0.011
-529.062	800.000	0.048	0.211
-528.048	-42.607	-0.234	0.119
-527.033	-69.704	-0.368	-0.140
-526.018	-57.415	-0.325	-0.142
-525.004	-200.000	0.174	0.001
-523.989	-66.331	0.179	-0.071
-522.975	97.384	-0.178	-0.203
-521.960	-57.354	0.307	-0.134
-520.945	-200.000	-0.410	-0.000
-519.931	107.311	-0.076	-0.089
-518.916	800.000	0.113	-0.419
-517.902	-123.260	-0.079	-0.013
-516.887	-4.051	0.213	0.147
-515.872	-82.612	0.122	-0.039
-514.858	-61.159	-0.121	0.051
-513.843	99.955	-0.299	0.345
-512.829	-109.765	-0.221	-0.046
-511.814	-200.000	0.009	0.041
-510.799	140.339	-0.228	0.299
-509.785	-27.835	-0.378	0.218
-508.770	54.560	0.080	-0.077
-507.756	-200.000	0.022	-0.253
-506.741	-3.238	0.253	-0.175
-505.726	606.111	-0.195	0.483
-504.712	-192.288	0.196	-0.002
-503.697	800.000	-0.055	-0.192
-502.683	-55.478	0.082	-0.037
-501.668	800.000	-0.078	-0.235
-500.653	-200.000	-0.007	-0.104
-499.639	-157.619	-0.174	-0.010
-498.624	85.084	-0.033	0.036
-497.610	-41.052	0.181	-0.093
-496.595	100.021	-0.193	-0.222
-495.581	183.904	-0.295	0.434
-494.566	551.915	0.045	0.108
-493.551	-200.000	0.010	0.459
-492.537	-51.133	-0.245	0.114
-491.522	142.563	0.059	-0.077
-490.508	106.103	-0.322	-0.379
-489.493	-151.797	0.110	-0.008
-488.478	-200.000	0.044	0.232
-487.464	-76.191	-0.138	-0.048
-486.449	152.577	0.160	-0.217
-485.435	275.822	-0.112	-0.198
-484.420	-134.955	-0.177	0.021
-483.405	341.192	-0.157	0.304
-482.391	60.619	0.184	0.182
-481.376	691.700	0.057	-0.150
-480.362	-200.000	0.001	-0.230
-479.347	800.000	-0.078	-0.262
-478.332	-200.000	-0.006	0.050
-477.318	-56.016	0.098	-0.044
-476.303	-64.429	-0.236	0.095
-475.289	493.196	-0.078	0.178
-474.274	800.000	0.042	0.169
-473.259	-81.832	-0.230	0.075
-472.245	-200.000	0.075	0.369
-471.230	-76.813	-0.188	-0.065
-470.216	31.350	-0.281	-0.240
-469.201	56.227	-0.296	0.285
-468.186	-27.490	0.423	0.244
-467.172	-90.996	-0.281	0.080
-466.157	-200.000	0.022	0.172
-465.143	-128.433	-0.140	0.020
-464.128	-62.085	0.211	0.087
-463.113	492.006	-0.062	0.140
-462.099	212.995	0.104	-0.162
-461.084	800.000	-0.082	0.225
-460.070	-90.437	0.346	-0.099
-459.055	-88.556	0.259	0.077
-458.040	-31.724	0.115	0.064
-457.026	-90.089	-0.182	-0.053
-456.011	170.611	0.121	0.171
-454.997	378.841	-0.032	-0.066
-453.982	-200.000	-0.002	-0.015
-452.968	-38.985	-0.248	-0.130
-451.953	125.428	-0.153	-0.192
-450.938	431.808	0.173	-0.373
-449.924	-132.164	-0.268	-0.034
-448.909	-116.821	0.143	-0.026
-447.895	800.000	0.095	-0.278
-446.880	143.375	-0.196	0.259
-445.865	51.831	-0.146	0.138
-444.851	-80.046	-0.229	0.076
-443.836	-200.000	-0.069	0.385
-442.822	266.780	-0.002	-0.003
-441.807	40.352	0.270	-0.242
-440.792	113.291	-0.179	0.215
-439.778	190.274	-0.212	-0.316
-438.763	-125.600	-0.063	-0.009
-437.749	58.711	0.112	-0.109
-436.734	465.839	-0.100	-0.222
-435.719	800.000	0.059	-0.184
-434.705	800.000	-0.029	0.120
-433.690	130.846	-0.088	-0.112
-432.676	84.482	-0.146	0.158
-431.661	-71.209	0.307	0.114
-430.646	-136.597	-0.124	-0.014
-429.632	-200.000	0.022	0.141
-428.617	-26.361	-0.156	-0.091
-427.603	-200.000	0.014	-0.127
-426.588	-200.000	-0.055	0.316
-425.573	800.000	-0.038	-0.150
-424.559	-16.826	-0.084	0.053
-423.544	144.108	-0.303	-0.401
-422.530	-200.000	-0.014	0.178
-421.515	73.716	-0.039	0.041
-420.500	-109.557	0.158	0.033
-419.486	-20.003	-0.223	0.136
-418.471	-200.000	-0.033	0.254
-417.457	62.653	0.347	0.344
-416.442	719.369	0.134	-0.352
-415.428	-87.091	-0.097	-0.029
-414.413	-79.988	-0.309	-0.103
-413.398	-55.737	0.296	-0.131
-412.384	-21.459	0.070	-0.042
-411.369	-103.960	-0.282	0.065
-410.355	-113.170	0.344	0.067
-409.340	22.097	-0.232	0.188
-408.325	-57.607	0.259	-0.113
-407.311	-84.714	-0.232	0.072
-406.296	-60.048	0.159	0.067
-405.282	-44.046	-0.204	-0.102
-404.267	-119.903	0.288	-0.049
-403.252	-200.000	-0.036	-0.171
-402.238	90.866	0.292	-0.324
-401.223	-150.420	0.114	-0.009
-400.209	-36.290	0.109	-0.058
-399.194	-200.000	0.022	-0.129
-398.179	275.095	-0.095	0.167
-397.165	-64.033	-0.097	-0.039
-396.150	-200.000	-0.012	-0.100
-395.136	347.312	0.095	0.186
-394.121	-67.002	0.180	0.070
-393.106	69.424	-0.078	-0.080
-392.092	-26.595	-0.059	-0.034
-391.077	-200.000	0.090	-0.549
-390.063	-200.000	-0.032	0.214
-389.048	-200.000	-0.011	0.182
-388.033	-200.000	-0.015	-0.183
-387.019	-200.000	-0.005	-0.184
-386.004	-79.184	0.302	0.102
-384.990	48.830	0.213	-0.198
-383.975	-48.806	-0.135	-0.064
-382.960	800.000	0.015	0.055
-381.946	-28.383	0.226	-0.129
-380.931	347.988	-0.097	0.188
-379.917	-200.000	-0.015	-0.132
-378.902	-181.035	-0.086	-0.002
-377.888	-8.240	-0.074	0.049
-376.873	149.253	-0.061	0.082
-375.858	512.262	0.194	0.448
-374.844	-26.260	-0.233	0.135
-373.829	451.586	0.048	-0.106
-372.815	-135.793	-0.252	0.029
-371.800	-69.617	-0.280	-0.106
-370.785	-200.000	-0.019	0.261
-369.771	131.984	0.206	0.263
-368.756	4.688	-0.045	0.033
-367.742	-126.224	-0.299	0.044
-366.727	-90.061	0.108	0.031
-365.712	-200.000	-0.034	-0.177
-364.698	439.720	-0.074	-0.159
-363.683	44.381	-0.095	-0.086
-362.669	-142.613	0.197	-0.019
-361.654	288.963	0.113	-0.203
-360.639	-62.131	0.142	-0.059
-359.625	-81.761	0.042	-0.014
-358.610	167.310	-0.306	0.430
-357.596	82.102	-0.156	0.167
-356.581	127.231	0.017	-0.021
-355.566	170.943	0.184	-0.261
-354.552	-200.000	-0.034	0.221
-353.537	199.452	0.171	-0.260
-352.523	-69.032	0.238	0.091
-351.508	-98.995	0.238	0.060
-350.493	423.491	-0.219	0.465
-349.479	457.982	0.049	-0.107
-348.464	150.551	0.071	0.096
-347.450	-108.330	0.138	-0.029
-346.435	800.000	-0.048	-0.161
-345.420	69.536	0.228	0.232
-344.406	-89.829	0.160	0.046
-343.391	-200.000	0.003	0.156
-342.377	-57.977	-0.075	-0.032
-341.362	54.843	-0.040	-0.039
-340.348	-80.213	-0.094	-0.031
-339.333	-200.000	0.063	0.409
-338.318	50.209	-0.388	0.362
-337.304	800.000	-0.046	-0.161
-336.289	-98.430	0.343	-0.087
-335.275	800.000	0.067	0.217
-334.260	-101.615	0.375	-0.090
-333.245	9.679	-0.167	0.125
-332.231	64.863	-0.038	0.038
-331.216	800.000	-0.042	-0.151
-330.202	98.208	-0.180	0.205
-329.187	-200.000	0.014	-0.225
-328.172	-200.000	-0.014	-0.240
-327.158	800.000	-0.092	0.357
-326.143	-200.000	0.016	0.282
-325.129	224.738	0.098	-0.157
-324.114	-87.257	0.074	-0.022
-323.099	76.325	0.047	0.049
-322.085	14.910	0.034	0.026
-321.070	183.262	-0.090	0.132
-320.056	288.256	0.085	-0.152
-319.041	238.825	-0.117	0.193
-318.026	262.347	-0.097	0.166
-317.012	-7.714	-0.040	0.027
-315.997	800.000	0.080	0.338
-314.983	129.612	0.169	0.213
-313.968	-152.979	0.131	-0.009
-312.953	800.000	-0.035	-0.115
-311.939	6.282	0.080	0.059
-310.924	91.741	-0.138	-0.153
-309.910	266.616	-0.058	0.100
-308.895	-200.000	-0.033	-0.325
-307.880	-154.926	-0.455	-0.030
-306.866	800.000	-0.007	0.025
-305.851	290.793	-0.043	-0.077
-304.837	-200.000	-0.016	0.140
-303.822	-34.133	0.109	0.059
-302.807	-200.000	0.007	0.114
-301.793	4.245	0.212	0.153
-300.778	662.333	0.022	-0.057
-299.764	-200.000	0.090	0.513
-298.749	-76.623	0.260	-0.090
-297.735	-135.164	0.281	0.033
-296.720	800.000	0.043	-0.133
-295.705	259.713	0.078	0.133
-294.691	-103.901	-0.144	0.033
-293.676	-90.436	0.283	-0.081
-292.662	-200.000	-0.019	0.099
-291.647	93.412	0.043	0.048
-290.632	-200.000	-0.022	0.185
-289.618	-31.392	-0.160	-0.089
-288.603	800.000	-0.052	-0.177
-287.589	125.422	0.197	0.245
-286.574	800.000	-0.058	0.250
-285.559	-172.769	-0.228	-0.007
-284.545	42.078	0.201	0.180
-283.530	711.792	-0.104	-0.271
-282.516	-200.000	-0.010	-0.118
-281.501	85.625	0.135	0.146
-280.486	113.884	0.245	0.294
-279.472	-200.000	0.006	0.061
-278.457	-142.835	0.240	-0.023
-277.443	-200.000	-0.004	0.084
-276.428	437.806	-0.149	-0.320
-275.413	163.770	-0.143	-0.199
-274.399	-15.956	0.341	0.214
-273.384	-200.000	0.015	-0.345
-272.370	242.156	-0.290	-0.479
-271.355	60.371	-0.300	-0.293
-270.340	-42.512	-0.288	0.144
-269.326	-80.247	0.141	-0.047
-268.311	-141.547	0.131	-0.013
-267.297	800.000	0.077	0.326
-266.282	-200.000	0.018	-0.445
-265.267	-170.704	-0.163	-0.006
-264.253	37.530	0.091	-0.080
-263.238	424.226	0.137	-0.290
-262.224	-120.312	-0.173	-0.029
-261.209	-200.000	-0.035	0.359
-260.195	97.527	-0.122	0.138
-259.180	44.118	0.421	0.380
-258.165	-71.210	0.251	0.093
-257.151	483.982	0.066	-0.147
-256.136	-200.000	-0.030	0.137
-255.122	-56.004	-0.112	0.049
-254.107	-110.240	-0.017	0.004
-253.092	800.000	0.081	0.224
-252.078	356.331	0.059	-0.115
-251.063	44.048	0.106	0.095
-250.049	45.661	0.129	0.117
-249.034	77.642	0.073	0.076
-248.019	140.310	0.166	-0.216
-247.005	329.991	-0.042	-0.080
-245.990	111.879	-0.219	0.261
-244.976	-76.315	0.117	0.041
-243.961	-200.000	-0.082	-0.439
-242.946	-200.000	-0.021	-0.269
-241.932	742.922	-0.045	-0.120
-240.917	-200.000	0.055	0.312
-239.903	656.056	0.069	0.175
-238.888	-76.589	-0.143	-0.049
-237.873	-73.497	0.132	-0.047
-236.859	-26.868	-0.299	-0.172
-235.844	-114.909	0.257	0.048
-234.830	456.786	-0.045	-0.098
-233.815	800.000	0.011	0.043
-232.800	-24.779	-0.184	-0.108
-231.786	-200.000	0.025	0.150
-230.771	-177.783	-0.222	0.005
-229.757	-59.771	0.245	-0.103
-228.742	-87.982	0.149	-0.044
-227.727	-61.592	-0.054	0.022
-226.713	23.479	0.111	-0.089
-225.698	-200.000	0.011	0.086
-224.684	470.013	0.087	0.191
-223.669	-46.842	0.191	-0.092
-222.655	-200.000	-0.009	0.086
-221.640	-200.000	0.009	-0.164
-220.625	-200.000	-0.028	-0.200
-219.611	-200.000	-0.003	0.146
-218.596	-200.000	0.002	-0.131
-217.582	-31.195	-0.419	0.232
-216.567	-200.000	0.003	0.185
-215.552	-150.830	0.374	0.028
-214.538	-84.447	0.258	-0.080
-213.523	-200.000	0.024	0.357
-212.509	552.791	0.176	0.415
-211.494	-200.000	-0.029	-0.250
-210.479	531.422	0.058	0.134
-209.465	580.684	-0.064	0.154
-208.450	-200.000	0.040	-0.405
-207.436	368.794	0.142	0.282
-206.421	800.000	-0.074	0.252
-205.406	-158.286	0.551	-0.032
-204.392	-135.140	0.265	-0.031
-203.377	-38.829	0.056	0.029
-202.363	-118.186	0.054	0.009
-201.348	-35.832	0.109	-0.058
-200.333	38.709	-0.263	-0.231
-199.319	736.755	0.160	0.422
-198.304	14.001	0.284	0.217
-197.290	-66.143	-0.415	0.163
-196.275	577.294	0.157	0.377
-195.260	-200.000	0.017	0.326
-194.246	8.709	0.372	0.276
-193.231	394.607	-0.069	0.141
-192.217	-101.119	-0.333	-0.080
-191.202	58.386	0.149	0.143
-190.187	800.000	0.109	0.302
-189.173	-153.255	0.363	-0.025
-188.158	-200.000	-0.011	0.120
-187.144	-106.122	0.372	-0.082
-186.129	-102.284	-0.043	-0.010
-185.114	-51.484	-0.238	0.109
-184.100	-26.186	-0.247	0.143
-183.085	146.038	0.095	-0.125
-182.071	101.806	0.172	0.197
-181.056	-157.064	-0.223	0.013
-180.042	529.739	0.094	0.218
-179.027	800.000	-0.086	-0.259
-178.012	-51.815	-0.260	-0.119
-176.998	-19.147	0.223	-0.136
-175.983	771.554	0.113	-0.302
-174.969	-200.000	-0.003	-0.173
-173.954	316.054	-0.045	0.084
-172.939	800.000	0.065	-0.268
-171.925	39.798	-0.210	-0.185
-170.910	36.373	-0.242	0.210
-169.896	-112.816	-0.294	-0.057
-168.881	-155.722	-0.073	-0.005
-167.866	187.286	-0.034	0.050
-166.852	72.051	0.154	-0.157
-165.837	774.469	-0.098	0.262
-164.823	421.405	0.099	-0.208
-163.808	-200.000	-0.033	0.166
-162.793	52.676	0.296	0.278
-161.779	-36.594	0.395	-0.209
-160.764	800.000	-0.076	-0.289
-159.750	420.653	-0.068	-0.142
-158.735	-103.298	0.115	0.027
-157.720	156.572	0.100	0.136
-156.706	-200.000	0.009	0.198
-155.691	122.177	0.205	-0.251
-154.677	542.111	-0.018	0.042
-153.662	151.870	-0.259	0.346
-152.647	-30.912	-0.199	0.111
-151.633	-166.055	0.332	0.014
-150.618	-66.474	0.166	0.065
-149.604	-200.000	-0.036	0.166
-148.589	502.807	-0.054	0.122
-147.574	26.819	-0.091	0.074
-146.560	-72.824	-0.224	0.081
-145.545	-200.000	-0.003	0.086
-144.531	-200.000	0.032	0.278
-143.516	800.000	-0.071	0.282
-142.502	9.246	0.193	0.143
-141.487	-200.000	-0.006	0.108
-140.472	-200.000	0.022	0.154
-139.458	800.000	-0.098	0.302
-138.443	-200.000	-0.005	-0.268
-137.429	800.000	-0.083	0.326
-136.414	178.709	-0.046	-0.066
-135.399	290.116	0.246	0.438
-134.385	-165.095	0.178	0.008
-133.370	-35.633	0.125	0.066
-132.356	131.483	-0.082	-0.104
-131.341	-124.597	-0.499	0.076
-130.326	745.349	-0.050	0.131
-129.312	134.422	-0.108	-0.138
-128.297	-200.000	-0.024	-0.264
-127.283	-123.352	0.270	-0.042
-126.268	-104.216	0.235	0.054
-125.253	-51.120	0.339	0.156
-124.239	800.000	-0.023	0.071
-123.224	81.440	0.139	0.148
-122.210	322.880	0.053	-0.098
