DTS Sentinel unit serial number:	SN413079Multiplexer serial number:	ORYXHardware model number:	OX4-SRSoftware version number:	ORYX F/W v4.00 Oryx Data Collector v3.7.2.0data status	okinstallation	princeton_trtdifferential loss correction	single-endedforward channel	channel 2reverse channel	N/Adate	2019/09/17time	22:03:34forward acquisition time	60.00reverse acquisition time	0.00gamma	496.2192k internal	0.2343k external	0.2343temperature offset calibration	0.9982default loss term (dB/km)	0.3790temperature slope calibration	1.0000multiplexer offset coefficient	1.0000multiplexer slope coefficient	1.0000fibre end	0.00T internal ref (°C)	26.00T ext. ref 1 (°C)	0.18T ext. ref 2 (°C)	18.78length (m)	temperature (°C)	Stokes	anti-Stokes-747.200	106.640	-0.081	-0.096
-746.185	-95.573	-0.213	-0.057
-745.171	-76.783	-0.224	0.079
-744.156	-115.280	-0.308	-0.058
-743.142	326.789	-0.125	0.240
-742.127	731.742	0.079	0.211
-741.112	166.340	-0.091	0.130
-740.098	94.609	-0.072	0.082
-739.083	-200.000	-0.032	-0.198
-738.069	699.510	0.041	0.108
-737.054	133.398	-0.065	0.084
-736.039	-100.989	-0.519	0.127
-735.025	-1.129	-0.224	-0.158
-734.010	-56.958	-0.117	-0.052
-732.996	667.189	0.119	-0.309
-731.981	-139.588	-0.206	-0.022
-730.966	570.502	-0.054	-0.131
-729.952	5.207	-0.064	-0.047
-728.937	455.679	0.110	0.243
-727.923	-75.921	0.163	-0.058
-726.908	-60.377	0.208	-0.089
-725.894	800.000	-0.047	-0.171
-724.879	-200.000	0.039	0.350
-723.864	-115.724	0.316	-0.059
-722.850	374.053	0.098	-0.200
-721.835	-8.995	0.109	0.073
-720.821	281.405	0.074	-0.132
-719.806	-116.322	-0.484	-0.090
-718.791	-200.000	0.001	-0.009
-717.777	70.819	0.264	0.274
-716.762	95.089	-0.387	-0.440
-715.748	578.662	-0.061	-0.150
-714.733	-121.372	0.213	0.036
-713.718	372.765	-0.075	-0.152
-712.704	-193.383	-0.215	0.002
-711.689	-200.000	-0.026	-0.174
-710.675	-200.000	-0.055	0.295
-709.660	241.946	0.172	0.287
-708.645	-85.312	-0.296	0.092
-707.631	-200.000	-0.040	0.286
-706.616	800.000	0.057	-0.243
-705.602	83.195	-0.119	0.130
-704.587	-200.000	-0.004	0.171
-703.572	52.011	-0.333	-0.317
-702.558	31.610	-0.305	-0.262
-701.543	800.000	0.036	0.143
-700.529	-200.000	-0.002	0.343
-699.514	-200.000	-0.015	0.370
-698.499	501.168	-0.111	-0.256
-697.485	182.539	-0.194	0.285
-696.470	10.604	0.218	0.166
-695.456	-68.265	0.188	-0.073
-694.441	800.000	0.118	-0.368
-693.426	-200.000	0.006	0.198
-692.412	39.591	0.267	-0.239
-691.397	-46.908	-0.202	-0.099
-690.383	-98.662	0.184	-0.047
-689.368	35.486	-0.185	-0.162
-688.354	-58.633	-0.223	-0.097
-687.339	-154.619	0.286	-0.019
-686.324	-2.972	0.235	-0.164
-685.310	-181.787	0.429	-0.008
-684.295	-108.788	-0.190	0.041
-683.281	-200.000	-0.021	0.153
-682.266	295.016	0.135	-0.247
-681.251	-200.000	0.015	0.067
-680.237	200.868	-0.062	0.096
-679.222	-45.281	0.102	-0.051
-678.208	-107.627	-0.212	-0.046
-677.193	129.421	-0.310	-0.396
-676.178	-100.152	0.153	-0.038
-675.164	-98.178	0.129	-0.033
-674.149	-147.721	-0.178	0.015
-673.135	-200.000	0.011	0.160
-672.120	-49.984	-0.060	0.028
-671.105	-87.933	-0.045	0.013
-670.091	-34.344	-0.150	0.082
-669.076	-49.624	0.148	-0.071
-668.062	-111.286	0.325	0.066
-667.047	-51.772	-0.120	-0.056
-666.032	-3.039	0.485	0.338
-665.018	334.666	-0.099	0.192
-664.003	38.169	-0.236	-0.209
-662.989	-33.744	-0.314	-0.173
-661.974	-118.676	-0.074	0.013
-660.959	-200.000	0.040	-0.418
-659.945	193.423	-0.028	0.042
-658.930	-109.696	-0.024	-0.005
-657.916	91.969	0.005	-0.005
-656.901	-96.731	0.432	-0.113
-655.886	78.035	-0.087	-0.093
-654.872	-200.000	0.060	0.270
-653.857	134.847	-0.211	0.274
-652.843	-46.868	0.182	0.089
-651.828	-42.725	-0.135	0.069
-650.814	-200.000	-0.014	0.133
-649.799	-155.721	0.117	-0.007
-648.784	14.644	-0.376	-0.293
-647.770	82.210	0.159	0.173
-646.755	304.221	0.135	0.250
-645.741	-89.135	-0.186	-0.055
-644.726	261.134	-0.102	-0.177
-643.711	41.645	-0.140	-0.127
-642.697	71.605	-0.254	-0.263
-641.682	-6.161	-0.337	-0.230
-640.668	14.321	0.378	-0.294
-639.653	-88.402	-0.149	0.044
-638.638	568.253	0.055	0.133
-637.624	-200.000	0.012	0.133
-636.609	-62.403	-0.047	0.020
-635.595	-108.735	-0.297	0.063
-634.580	-28.064	-0.192	0.111
-633.565	-114.172	0.071	0.014
-632.551	-164.718	-0.295	0.013
-631.536	6.688	-0.338	0.250
-630.522	443.100	0.024	0.051
-629.507	800.000	0.073	0.253
-628.492	-47.406	-0.273	-0.132
-627.478	-200.000	0.001	-0.114
-626.463	54.077	-0.212	-0.203
-625.449	800.000	0.139	0.411
-624.434	555.252	0.073	-0.175
-623.419	-35.955	-0.168	0.091
-622.405	-200.000	0.003	-0.029
-621.390	-200.000	0.009	0.186
-620.376	-200.000	0.013	-0.184
-619.361	-84.733	-0.119	0.037
-618.346	-200.000	-0.023	-0.118
-617.332	691.088	-0.105	-0.275
-616.317	-97.396	0.148	-0.038
-615.303	-12.433	-0.248	0.161
-614.288	566.866	0.153	0.369
-613.273	479.431	0.132	-0.298
-612.259	117.579	0.100	-0.123
-611.244	800.000	-0.079	-0.309
-610.230	-200.000	-0.039	-0.179
-609.215	245.475	0.126	-0.212
-608.201	-161.621	-0.237	-0.012
-607.186	-200.000	-0.033	0.244
-606.171	-65.655	-0.061	-0.025
-605.157	-200.000	-0.031	-0.264
-604.142	800.000	0.052	0.220
-603.128	264.530	-0.206	-0.357
-602.113	107.258	0.178	0.211
-601.098	-72.665	-0.266	0.098
-600.084	-200.000	-0.014	0.163
-599.069	-200.000	0.013	0.067
-598.055	223.865	-0.070	0.113
-597.040	-76.802	0.239	0.083
-596.025	754.585	0.031	-0.083
-595.011	201.062	-0.103	0.158
-593.996	-2.338	0.275	-0.192
-592.982	-200.000	-0.012	-0.057
-591.967	-106.297	-0.233	-0.052
-590.952	196.364	-0.045	0.068
-589.938	-124.230	-0.044	-0.007
-588.923	-116.781	0.233	-0.042
-587.909	-60.870	-0.319	-0.134
-586.894	210.661	-0.023	0.036
-585.879	-200.000	0.086	0.440
-584.865	-67.494	0.264	-0.103
-583.850	-145.042	0.367	-0.033
-582.836	-147.385	0.049	0.004
-581.821	55.273	0.249	-0.239
-580.806	19.219	-0.121	-0.097
-579.792	-200.000	0.019	-0.251
-578.777	-200.000	-0.018	0.324
-577.763	330.744	0.217	0.416
-576.748	-124.797	0.206	0.032
-575.733	-136.713	0.134	-0.015
-574.719	-200.000	0.003	-0.054
-573.704	547.262	0.045	-0.108
-572.690	-187.349	-0.206	0.003
-571.675	-61.386	0.068	-0.028
-570.661	142.792	0.182	-0.240
-569.646	45.744	-0.241	-0.222
-568.631	19.908	0.098	0.078
-567.617	659.121	-0.100	-0.256
-566.602	-200.000	0.040	-0.183
-565.588	4.414	0.140	-0.102
-564.573	87.018	0.030	-0.033
-563.558	365.701	-0.100	-0.200
-562.544	-200.000	0.024	0.131
-561.529	-200.000	-0.036	0.538
-560.515	-172.842	-0.366	-0.011
-559.500	320.803	-0.080	-0.150
-558.485	-200.000	-0.055	0.255
-557.471	51.751	0.121	0.114
-556.456	-200.000	-0.001	-0.068
-555.442	124.445	0.096	-0.121
-554.427	41.431	-0.112	-0.101
-553.412	118.718	-0.027	0.033
-552.398	-86.199	-0.353	-0.108
-551.383	-163.513	-0.134	-0.006
-550.369	94.299	0.151	0.171
-549.354	-188.847	-0.215	0.003
-548.339	186.732	-0.161	-0.238
-547.325	620.325	0.120	0.300
-546.310	479.356	0.083	-0.186
-545.296	28.412	-0.093	0.078
-544.281	-200.000	0.010	0.156
-543.266	-153.589	0.193	0.013
-542.252	79.837	-0.200	0.214
-541.237	800.000	-0.030	-0.105
-540.223	-21.856	0.067	0.040
-539.208	513.910	0.122	0.283
-538.193	227.043	0.122	-0.196
-537.179	-95.021	0.297	-0.080
-536.164	-108.393	-0.177	-0.038
-535.150	8.972	0.187	-0.140
-534.135	-129.348	0.226	0.031
-533.121	441.964	-0.101	0.219
-532.106	666.184	0.010	0.025
-531.091	-35.566	0.054	0.029
-530.077	800.000	-0.039	-0.149
-529.062	138.029	0.275	0.358
-528.048	-18.744	-0.207	0.128
-527.033	-61.178	-0.107	-0.045
-526.018	-200.000	-0.012	0.075
-525.004	-87.859	0.194	0.058
-523.989	-200.000	-0.011	-0.318
-522.975	-200.000	0.056	-0.268
-521.960	800.000	0.152	-0.480
-520.945	235.491	-0.023	0.038
-519.931	-51.518	-0.247	0.114
-518.916	-13.575	-0.126	-0.081
-517.902	-200.000	-0.041	0.271
-516.887	-41.092	-0.116	0.059
-515.872	800.000	0.093	0.255
-514.858	-59.680	0.144	0.061
-513.843	-113.747	0.109	0.021
-512.829	-200.000	0.053	0.412
-511.814	11.706	0.143	-0.109
-510.799	22.377	-0.303	-0.246
-509.785	444.524	0.114	0.248
-508.770	-48.535	-0.116	-0.055
-507.756	-19.192	0.319	0.197
-506.741	-5.803	-0.505	0.343
-505.726	-200.000	0.041	-0.219
-504.712	-0.591	0.097	-0.068
-503.697	19.706	0.250	0.199
-502.683	-200.000	0.034	0.211
-501.668	6.406	0.078	-0.057
-500.653	800.000	0.054	-0.152
-499.639	95.878	0.163	0.185
-498.624	-80.116	0.115	-0.038
-497.610	800.000	0.024	0.086
-496.595	-87.085	-0.201	-0.061
-495.581	-200.000	0.067	-0.353
-494.566	235.971	0.213	-0.349
-493.551	-200.000	0.014	0.238
-492.537	800.000	0.079	0.317
-491.522	800.000	-0.045	0.134
-490.508	25.526	-0.307	0.254
-489.493	-68.427	-0.120	-0.046
-488.478	4.415	-0.324	-0.236
-487.464	-130.043	-0.202	-0.027
-486.449	-135.080	-0.466	-0.056
-485.435	800.000	-0.076	-0.219
-484.420	-136.796	0.120	0.014
-483.405	67.190	0.195	0.197
-482.391	-66.684	0.291	0.114
-481.376	-120.856	-0.340	-0.057
-480.362	65.545	0.081	-0.081
-479.347	800.000	0.011	-0.032
-478.332	-28.320	-0.303	0.173
-477.318	-66.482	0.022	0.009
-476.303	-200.000	0.043	-0.468
-475.289	-154.649	-0.125	0.008
-474.274	-158.199	0.385	-0.022
-473.259	-133.193	-0.234	-0.029
-472.245	800.000	-0.036	0.119
-471.230	184.919	0.131	-0.192
-470.216	-22.445	-0.325	-0.195
-469.201	-27.410	-0.251	-0.145
-468.186	-98.108	-0.049	-0.013
-467.172	-200.000	0.025	-0.169
-466.157	-124.259	0.246	0.038
-465.143	-200.000	-0.058	0.298
-464.128	-97.273	0.189	0.049
-463.113	54.570	-0.096	-0.091
-462.099	-200.000	0.016	-0.661
-461.084	248.370	0.099	0.165
-460.070	800.000	0.099	-0.348
-459.055	-128.758	-0.358	-0.050
-458.040	-85.072	0.111	-0.034
-457.026	-111.690	0.336	0.067
-456.011	178.376	-0.122	-0.177
-454.997	-130.381	0.182	-0.024
-453.982	-112.710	0.171	-0.034
-452.968	159.573	0.073	0.100
-451.953	-27.938	0.162	-0.093
-450.938	409.198	-0.059	0.125
-449.924	-200.000	-0.023	0.307
-448.909	-126.913	0.280	-0.041
-447.895	-200.000	0.022	-0.166
-446.880	-118.375	-0.213	0.037
-445.865	17.137	-0.315	0.247
-444.851	-134.930	0.323	-0.039
-443.836	290.957	0.038	0.069
-442.822	-200.000	0.026	-0.167
-441.807	1.548	0.138	0.098
-440.792	-27.318	-0.319	0.184
-439.778	496.089	-0.032	0.072
-438.763	155.056	0.162	-0.220
-437.749	60.938	0.131	0.129
-436.734	-50.377	-0.187	0.087
-435.719	184.564	-0.047	-0.069
-434.705	-79.056	-0.274	0.092
-433.690	186.922	0.118	0.173
-432.676	-55.933	-0.321	-0.142
-431.661	-200.000	-0.052	-0.264
-430.646	-200.000	0.010	-0.081
-429.632	47.676	-0.173	-0.160
-428.617	800.000	-0.041	-0.125
-427.603	-162.486	0.432	-0.021
-426.588	398.983	0.103	0.214
-425.573	71.058	0.318	-0.326
-424.559	137.326	0.288	0.373
-423.544	199.641	-0.198	0.301
-422.530	-66.482	-0.094	-0.037
-421.515	-163.453	0.374	0.018
-420.500	-101.031	-0.267	-0.065
-419.486	78.004	-0.095	0.101
-418.471	-92.394	-0.073	0.020
-417.457	453.937	-0.177	0.388
-416.442	-93.555	-0.400	0.109
-415.428	-58.212	0.304	0.131
-414.413	800.000	0.084	0.319
-413.398	-200.000	-0.006	0.132
-412.384	-200.000	-0.025	-0.132
-411.369	312.674	-0.119	-0.222
-410.355	100.275	0.188	0.216
-409.340	427.172	0.118	-0.252
-408.325	324.588	0.112	-0.212
-407.311	800.000	-0.058	0.218
-406.296	360.629	0.103	0.204
-405.282	65.461	-0.066	0.066
-404.267	26.672	-0.068	-0.056
-403.252	59.782	0.025	0.024
-402.238	0.893	0.221	-0.157
-401.223	180.711	-0.108	-0.156
-400.209	55.973	0.144	-0.138
-399.194	-200.000	-0.010	0.161
-398.179	293.326	0.056	-0.101
-397.165	-134.140	-0.340	0.041
-396.150	412.370	-0.007	0.014
-395.136	37.177	0.098	-0.086
-394.121	424.915	0.054	-0.116
-393.106	508.315	0.051	-0.116
-392.092	112.795	0.145	-0.173
-391.077	44.308	-0.130	0.118
-390.063	-200.000	0.026	-0.156
-389.048	-47.084	-0.178	-0.086
-388.033	-94.249	0.101	-0.027
-387.019	-200.000	0.039	-0.335
-386.004	-200.000	-0.053	-0.532
-384.990	-100.858	0.159	-0.039
-383.975	-10.202	0.125	0.082
-382.960	187.478	0.099	-0.146
-381.946	109.056	-0.099	-0.117
-380.931	-47.691	0.329	0.158
-379.917	-51.731	0.443	-0.204
-378.902	-92.591	0.119	0.033
-377.888	115.067	-0.090	-0.109
-376.873	-40.220	-0.340	0.175
-375.858	-101.431	0.214	0.051
-374.844	-45.129	0.439	0.216
-373.829	-200.000	-0.002	-0.404
-372.815	-200.000	-0.061	-0.318
-371.800	-200.000	0.016	0.125
-370.785	800.000	0.095	0.339
-369.771	-67.800	0.094	0.036
-368.756	800.000	0.053	0.196
-367.742	-200.000	0.001	-0.218
-366.727	-75.287	0.323	-0.114
-365.712	77.353	0.066	0.069
-364.698	-118.855	0.133	-0.023
-363.683	-200.000	0.013	0.297
-362.669	697.405	-0.134	0.348
-361.654	-19.827	0.297	0.181
-360.639	-0.397	0.164	-0.115
-359.625	-52.484	0.102	0.047
-358.610	-32.297	-0.464	-0.255
-357.596	800.000	0.082	-0.292
-356.581	51.252	0.142	0.133
-355.566	-7.921	-0.220	0.147
-354.552	78.876	-0.104	-0.110
-353.537	-94.990	0.082	0.022
-352.523	-103.592	0.174	0.040
-351.508	800.000	-0.017	-0.048
-350.493	339.349	0.062	-0.119
-349.479	-200.000	-0.030	-0.289
-348.464	-31.372	-0.222	-0.123
-347.450	202.320	0.078	0.119
-346.435	800.000	-0.080	-0.268
-345.420	-80.978	-0.313	-0.102
-344.406	-133.068	0.152	-0.019
-343.391	39.160	-0.044	-0.039
-342.377	-38.574	-0.190	-0.099
-341.362	-5.759	-0.229	0.154
-340.348	-156.124	0.211	0.013
-339.333	-104.756	-0.228	-0.052
-338.318	-87.721	0.125	-0.037
-337.304	416.631	-0.095	0.201
-336.289	-82.176	0.230	0.074
-335.275	-64.767	-0.217	-0.087
-334.260	-23.080	0.422	-0.251
-333.245	74.790	-0.239	0.248
-332.231	658.705	-0.122	-0.309
-331.216	637.013	-0.052	-0.131
-330.202	-76.043	0.400	0.139
-329.187	-181.915	-0.256	-0.005
-328.172	101.055	0.146	0.167
-327.158	-200.000	-0.018	0.169
-326.143	406.799	-0.067	-0.140
-325.129	-66.654	-0.192	0.075
-324.114	28.404	-0.365	-0.304
-323.099	83.826	-0.251	-0.270
-322.085	-200.000	-0.013	0.215
-321.070	399.937	0.044	-0.091
-320.056	6.639	0.284	0.208
-319.041	-200.000	0.067	0.343
-318.026	65.896	-0.101	0.101
-317.012	800.000	0.097	-0.372
-315.997	-188.887	-0.217	-0.003
-314.983	-200.000	-0.041	0.346
-313.968	-128.561	0.094	0.013
-312.953	-200.000	-0.028	0.128
-311.939	18.046	0.257	-0.201
-310.924	199.786	0.077	-0.116
-309.910	-200.000	0.005	-0.069
-308.895	376.068	0.061	0.123
-307.880	800.000	-0.063	0.258
-306.866	-42.232	0.374	-0.188
-305.851	-3.540	-0.374	0.256
-304.837	-143.183	-0.240	-0.023
-303.822	800.000	-0.043	-0.161
-302.807	-200.000	0.042	0.206
-301.793	138.434	-0.158	0.204
-300.778	-117.238	-0.503	0.090
-299.764	-96.449	-0.035	-0.009
-298.749	-126.540	-0.050	0.007
-297.735	143.052	-0.089	0.117
-296.720	-26.067	0.228	-0.132
-295.705	728.690	-0.154	0.405
-294.691	528.597	0.046	0.107
-293.676	20.560	-0.104	0.083
-292.662	-7.582	0.128	0.085
-291.647	86.743	-0.074	-0.081
-290.632	166.842	0.250	-0.349
-289.618	82.390	-0.224	0.239
-288.603	238.296	-0.086	-0.141
-287.589	-200.000	0.041	0.311
-286.574	20.150	0.073	-0.058
-285.559	800.000	0.056	-0.191
-284.545	40.710	-0.124	0.110
-283.530	295.350	-0.045	-0.081
-282.516	800.000	-0.046	-0.144
-281.501	52.416	-0.123	-0.115
-280.486	-79.807	0.180	0.060
-279.472	-18.020	0.260	-0.160
-278.457	-46.572	-0.291	-0.140
-277.443	553.191	0.156	-0.370
-276.428	800.000	-0.024	0.073
-275.413	-174.531	-0.129	0.004
-274.399	461.539	0.034	0.074
-273.384	-142.630	-0.360	0.035
-272.370	-109.793	-0.197	0.041
-271.355	153.903	-0.140	0.189
-270.340	-200.000	-0.009	-0.231
-269.326	135.123	-0.050	0.064
-268.311	50.360	0.063	-0.058
-267.297	296.357	-0.182	-0.327
-266.282	800.000	-0.042	0.122
-265.267	100.165	-0.114	0.129
-264.253	-32.472	0.125	0.068
-263.238	-4.630	-0.262	-0.178
-262.224	-200.000	0.026	-0.365
-261.209	507.463	-0.037	-0.084
-260.195	-133.624	-0.074	-0.009
-259.180	-200.000	0.007	-0.324
-258.165	-200.000	-0.015	0.228
-257.151	-15.623	-0.077	-0.049
-256.136	194.659	0.204	0.304
-255.122	93.462	0.145	-0.162
-254.107	5.504	0.206	-0.150
-253.092	648.624	-0.122	0.306
-252.078	-49.823	0.169	0.079
-251.063	-141.706	0.492	-0.049
-250.049	-14.551	-0.406	0.257
-249.034	2.325	-0.244	-0.174
-248.019	-46.251	0.124	0.060
-247.005	-0.119	-0.111	0.077
-245.990	517.425	0.047	-0.108
-244.976	-200.000	0.020	0.094
-243.961	-200.000	0.008	0.209
-242.946	-30.740	-0.242	0.135
-241.932	-9.000	0.059	-0.038
-240.917	-200.000	0.042	-0.259
-239.903	5.490	-0.254	0.184
-238.888	263.358	-0.082	0.140
-237.873	-66.460	-0.163	-0.064
-236.859	67.577	0.106	0.106
-235.844	-135.853	0.432	0.050
-234.830	800.000	0.088	-0.328
-233.815	-49.027	0.268	-0.126
-232.800	-167.387	0.201	0.008
-231.786	-200.000	0.051	0.256
-230.771	-200.000	0.001	-0.040
-229.757	-125.574	0.099	0.015
-228.742	337.364	0.162	0.309
-227.727	-22.407	0.108	-0.064
-226.713	-80.411	0.113	0.037
-225.698	153.727	-0.118	-0.158
-224.684	37.061	-0.150	0.130
-223.669	372.414	0.105	-0.209
-222.655	61.271	-0.308	-0.300
-221.640	-61.241	0.304	0.126
-220.625	-38.467	-0.147	0.076
-219.611	239.502	-0.199	0.326
-218.596	-200.000	-0.048	-0.000
-217.582	-170.103	-0.023	-0.001
-216.567	10.451	-0.201	0.150
-215.552	-65.655	-0.027	-0.011
-214.538	-186.182	-0.327	-0.005
-213.523	-160.774	0.259	0.013
-212.509	30.009	0.273	0.228
-211.494	242.950	0.188	0.309
-210.479	129.964	0.197	-0.247
-209.465	-149.540	0.423	-0.033
-208.450	407.650	-0.115	-0.238
-207.436	-200.000	0.016	0.086
-206.421	-95.593	-0.169	0.044
-205.406	-106.273	0.061	-0.013
-204.392	-84.611	-0.177	-0.055
-203.377	800.000	-0.075	-0.204
-202.363	-118.669	-0.346	0.060
-201.348	-132.983	0.213	-0.027
-200.333	2.029	0.210	-0.148
-199.319	99.185	-0.231	-0.261
-198.304	-22.187	0.275	-0.164
-197.290	-47.456	-0.162	0.077
-196.275	-96.675	-0.190	-0.049
-195.260	-72.536	0.098	-0.035
-194.246	178.790	-0.240	0.343
-193.231	315.021	0.098	-0.180
-192.217	-76.306	-0.175	0.060
-191.202	95.144	-0.121	-0.135
-190.187	53.808	0.402	0.379
-189.173	-107.105	-0.283	-0.061
-188.158	20.510	0.254	0.202
-187.144	-116.688	-0.094	0.017
-186.129	17.741	0.423	0.330
-185.114	10.012	0.045	-0.033
-184.100	-200.000	-0.032	-0.327
-183.085	-200.000	0.010	0.185
-182.071	19.794	0.245	0.193
-181.056	-48.088	-0.087	0.041
-180.042	-200.000	0.025	0.144
-179.027	169.649	-0.108	-0.152
-178.012	403.315	0.037	0.077
-176.998	-110.892	0.216	0.044
-175.983	-200.000	0.009	0.123
-174.969	800.000	0.129	0.409
-173.954	-20.950	0.065	0.039
-172.939	136.277	0.142	0.182
-171.925	386.515	-0.104	-0.209
-170.910	-200.000	-0.006	0.116
-169.896	-200.000	-0.017	0.148
-168.881	-151.030	0.456	0.034
-167.866	800.000	-0.040	-0.159
-166.852	-34.229	0.155	0.083
-165.837	-1.914	-0.158	0.108
-164.823	202.370	-0.154	0.233
-163.808	-63.394	0.211	0.085
-162.793	175.595	-0.114	-0.162
-161.779	-200.000	-0.011	0.277
-160.764	-200.000	-0.077	-0.358
-159.750	800.000	-0.030	0.105
-158.735	-113.325	-0.129	0.025
-157.720	-119.163	-0.091	0.015
-156.706	-123.483	0.115	0.018
-155.691	-200.000	0.108	-0.000
-154.677	-68.974	0.136	0.051
-153.662	84.389	-0.169	0.181
-152.647	-2.944	0.287	-0.196
-151.633	800.000	0.062	-0.185
-150.618	297.932	-0.154	0.277
-149.604	-65.871	0.152	0.059
-148.589	257.744	-0.049	-0.082
-147.574	118.635	-0.129	0.156
-146.560	408.833	-0.254	-0.527
-145.545	-200.000	-0.012	0.074
-144.531	74.973	-0.131	-0.135
-143.516	-31.239	0.138	-0.076
-142.502	542.066	0.044	-0.101
-141.487	519.240	-0.064	-0.147
-140.472	372.632	-0.112	0.222
-139.458	169.122	0.255	-0.356
-138.443	283.351	0.076	0.133
-137.429	-97.249	-0.040	-0.010
-136.414	26.687	0.126	0.103
-135.399	8.459	0.121	0.089
-134.385	25.961	0.239	-0.195
-133.370	238.305	0.103	0.168
-132.356	79.524	-0.103	0.108
-131.341	-87.396	-0.515	0.153
-130.326	66.544	0.325	0.323
-129.312	800.000	0.028	-0.091
-128.297	50.158	0.054	0.050
-127.283	-39.324	0.116	-0.060
-126.268	-154.741	0.125	0.008
-125.253	-45.415	0.041	0.020
-124.239	461.069	-0.098	0.212
-123.224	800.000	0.049	0.206
-122.210	-200.000	0.103	0.445
-121.195	501.940	-0.088	0.200
