DTS Sentinel unit serial number:	SN413079Multiplexer serial number:	ORYXHardware model number:	OX4-SRSoftware version number:	ORYX F/W v4.00 Oryx Data Collector v3.7.2.0data status	okinstallation	princeton_trtdifferential loss correction	single-endedforward channel	channel 2reverse channel	N/Adate	2019/09/15time	02:03:35forward acquisition time	60.00reverse acquisition time	0.00gamma	496.2192k internal	0.2326k external	0.2326temperature offset calibration	1.0029default loss term (dB/km)	0.3790temperature slope calibration	1.0000multiplexer offset coefficient	1.0000multiplexer slope coefficient	1.0000fibre end	0.00T internal ref (°C)	31.75T ext. ref 1 (°C)	4.52T ext. ref 2 (°C)	26.47length (m)	temperature (°C)	Stokes	anti-Stokes-747.200	-200.000	-0.044	-0.251
-746.185	-200.000	0.038	-0.243
-745.171	-102.351	0.477	-0.115
-744.156	-50.491	0.123	0.059
-743.142	179.453	0.160	-0.236
-742.127	22.837	-0.098	-0.081
-741.112	-200.000	-0.034	0.292
-740.098	-200.000	0.041	0.199
-739.083	-55.272	-0.144	-0.065
-738.069	397.383	-0.225	0.475
-737.054	-181.803	-0.347	0.007
-736.039	-200.000	-0.045	-0.271
-735.025	-88.521	0.132	-0.040
-734.010	19.542	-0.107	-0.086
-732.996	-200.000	0.028	0.197
-731.981	-45.545	-0.112	-0.056
-730.966	-66.903	-0.235	0.094
-729.952	40.691	-0.275	-0.250
-728.937	144.226	-0.193	0.259
-727.923	93.709	-0.317	-0.362
-726.908	247.372	-0.063	0.107
-725.894	110.752	0.300	-0.364
-724.879	720.985	0.010	0.028
-723.864	-200.000	0.034	-0.248
-722.850	-200.000	-0.064	-0.315
-721.835	-177.667	0.061	0.001
-720.821	-76.410	-0.516	0.183
-719.806	467.016	-0.060	0.135
-718.791	-136.002	-0.087	0.010
-717.777	-140.043	-0.179	-0.019
-716.762	-88.918	0.128	0.038
-715.748	-183.944	-0.211	0.004
-714.733	592.792	0.072	0.180
-713.718	-200.000	-0.004	-0.388
-712.704	-68.234	-0.168	0.066
-711.689	424.615	-0.102	0.221
-710.675	-58.545	0.034	0.015
-709.660	-166.256	-0.282	-0.012
-708.645	-97.687	-0.295	-0.077
-707.631	481.517	-0.076	-0.173
-706.616	285.967	0.191	0.348
-705.602	40.484	-0.083	-0.075
-704.587	132.783	0.003	-0.004
-703.572	-116.206	0.049	-0.009
-702.558	113.530	-0.080	0.098
-701.543	149.363	0.120	0.164
-700.529	-61.948	-0.065	-0.027
-699.514	-59.365	-0.149	0.065
-698.499	-104.421	-0.250	0.058
-697.485	-200.000	0.066	0.380
-696.470	-122.218	0.387	0.064
-695.456	-125.375	-0.134	0.021
-694.441	146.966	0.176	-0.239
-693.426	-162.779	0.217	0.011
-692.412	-129.244	-0.138	0.019
-691.397	-9.650	-0.266	-0.179
-690.383	396.993	-0.183	-0.386
-689.368	501.919	0.163	-0.379
-688.354	-174.371	-0.316	-0.009
-687.339	-200.000	-0.028	0.359
-686.324	28.788	0.198	0.168
-685.310	0.040	-0.422	0.303
-684.295	-125.196	-0.416	-0.064
-683.281	397.329	0.154	0.324
-682.266	534.357	0.058	-0.139
-681.251	800.000	-0.044	-0.127
-680.237	-128.729	0.161	0.023
-679.222	120.921	-0.174	-0.218
-678.208	-200.000	-0.004	-0.227
-677.193	-200.000	0.054	-0.450
-676.178	80.196	0.169	0.183
-675.164	201.516	-0.108	-0.167
-674.149	-94.023	-0.065	0.018
-673.135	133.419	-0.222	-0.289
-672.120	21.714	-0.233	-0.191
-671.105	33.565	-0.094	-0.082
-670.091	-32.481	-0.275	0.154
-669.076	365.884	-0.132	-0.267
-668.062	-98.692	-0.184	-0.047
-667.047	-27.400	-0.087	-0.051
-666.032	313.530	0.080	0.152
-665.018	38.229	-0.205	-0.184
-664.003	-200.000	-0.018	0.123
-662.989	-200.000	-0.075	-0.420
-661.974	-65.980	0.158	-0.063
-660.959	800.000	-0.099	0.286
-659.945	-119.875	-0.462	-0.080
-658.930	-115.087	-0.256	-0.049
-657.916	363.011	0.085	0.171
-656.901	-23.575	0.239	-0.144
-655.886	800.000	0.027	-0.097
-654.872	101.020	-0.195	-0.228
-653.857	-133.948	-0.249	0.031
-652.843	-183.371	-0.229	0.004
-651.828	-30.820	-0.074	0.042
-650.814	91.254	-0.193	0.218
-649.799	-118.029	0.364	-0.065
-648.784	-200.000	0.032	-0.148
-647.770	-200.000	0.003	0.122
-646.755	-34.194	-0.184	-0.102
-645.741	398.608	0.075	-0.158
-644.726	-76.518	0.170	-0.060
-643.711	-71.581	-0.141	0.053
-642.697	296.196	-0.106	0.196
-641.682	-52.217	0.261	-0.122
-640.668	58.497	-0.084	-0.083
-639.653	-18.031	0.168	0.106
-638.638	800.000	0.079	-0.285
-637.624	594.539	0.045	-0.113
-636.609	79.161	0.206	0.222
-635.595	19.717	0.080	-0.065
-634.580	638.544	0.025	-0.063
-633.565	-70.174	-0.024	0.009
-632.551	71.069	0.130	0.135
-631.536	277.666	0.071	-0.127
-630.522	650.540	-0.031	0.080
-629.507	10.306	0.168	0.128
-628.492	-200.000	-0.033	-0.209
-627.478	-50.314	-0.193	-0.092
-626.463	-200.000	0.037	-0.228
-625.449	191.720	0.044	0.067
-624.434	-27.126	-0.341	-0.200
-623.419	147.204	0.126	0.170
-622.405	-98.604	-0.122	0.031
-621.390	-5.450	-0.157	-0.108
-620.376	-45.807	0.091	0.045
-619.361	48.567	0.159	0.149
-618.346	50.326	0.079	-0.075
-617.332	-94.944	-0.296	-0.080
-616.317	-86.476	-0.160	0.049
-615.303	644.925	0.085	-0.218
-614.288	257.930	-0.252	-0.435
-613.273	-79.919	-0.181	0.061
-612.259	-200.000	-0.004	-0.017
-611.244	17.204	-0.121	-0.097
-610.230	-38.105	0.452	0.241
-609.215	-43.674	-0.191	0.096
-608.201	-200.000	-0.006	0.147
-607.186	800.000	0.088	-0.278
-606.171	-133.783	-0.307	-0.038
-605.157	-78.761	-0.153	-0.052
-604.142	-200.000	0.049	-0.486
-603.128	-200.000	0.052	-0.271
-602.113	166.256	0.021	-0.030
-601.098	288.248	-0.131	-0.237
-600.084	-75.109	0.127	0.045
-599.069	-45.881	-0.336	-0.166
-598.055	252.991	-0.152	-0.260
-597.040	-134.131	0.290	0.036
-596.025	418.000	0.158	0.338
-595.011	158.018	-0.127	0.176
-593.996	-167.543	-0.215	0.009
-592.982	-95.288	-0.038	-0.010
-591.967	-128.105	-0.222	-0.032
-590.952	-138.769	0.151	0.017
-589.938	19.210	0.392	-0.315
-588.923	141.383	0.347	-0.460
-587.909	75.448	0.093	-0.099
-586.894	85.049	0.067	0.073
-585.879	-96.381	-0.121	-0.032
-584.865	-60.512	0.268	-0.114
-583.850	145.984	-0.209	0.281
-582.836	-111.556	-0.323	0.066
-581.821	-76.790	0.293	0.103
-580.806	-11.770	-0.241	-0.159
-579.792	313.039	-0.225	0.424
-578.777	88.980	0.161	0.180
-577.763	-107.447	-0.211	0.046
-576.748	-26.612	-0.090	0.053
-575.733	-39.756	0.191	-0.100
-574.719	800.000	0.069	0.208
-573.704	-156.127	0.155	0.010
-572.690	250.423	-0.035	0.059
-571.675	800.000	0.122	0.413
-570.661	672.051	-0.090	-0.235
-569.646	-200.000	0.007	-0.344
-568.631	168.234	-0.117	0.166
-567.617	-200.000	-0.017	-0.251
-566.602	-200.000	0.063	0.316
-565.588	-108.199	0.160	-0.035
-564.573	111.089	-0.085	0.103
-563.558	157.553	-0.093	0.128
-562.544	-107.609	-0.268	0.059
-561.529	24.731	0.176	0.146
-560.515	-200.000	0.050	0.320
-559.500	-191.457	-0.148	0.001
-558.485	-32.745	-0.240	0.133
-557.471	-50.209	-0.246	0.116
-556.456	-32.927	-0.143	-0.079
-555.442	-75.744	0.235	0.083
-554.427	244.002	-0.159	-0.266
-553.412	-200.000	-0.037	0.211
-552.398	-62.962	0.093	-0.039
-551.383	-200.000	-0.002	0.081
-550.369	121.816	0.296	-0.369
-549.354	800.000	-0.066	0.279
-548.339	-200.000	0.015	0.267
-547.325	-31.452	0.283	0.159
-546.310	-57.781	-0.158	-0.069
-545.296	-125.925	0.483	-0.073
-544.281	43.127	0.184	0.168
-543.266	207.636	-0.153	0.239
-542.252	-49.442	-0.279	0.133
-541.237	-91.607	0.258	-0.073
-540.223	43.250	-0.120	-0.110
-539.208	-68.062	0.311	0.121
-538.193	-200.000	-0.008	0.112
-537.179	-118.732	-0.173	0.031
-536.164	125.590	-0.070	0.089
-535.150	30.952	0.029	0.025
-534.135	-81.159	-0.161	0.053
-533.121	111.319	-0.168	-0.202
-532.106	-85.235	0.161	-0.050
-531.091	482.317	-0.176	0.400
-530.077	-73.062	0.170	0.062
-529.062	-20.676	-0.217	0.134
-528.048	-200.000	-0.135	-0.642
-527.033	208.408	0.053	0.083
-526.018	179.096	-0.115	-0.169
-525.004	-84.456	0.168	0.053
-523.989	800.000	0.105	-0.454
-522.975	-69.754	0.430	0.164
-521.960	-108.023	0.129	-0.028
-520.945	142.309	-0.173	-0.230
-519.931	370.073	-0.161	-0.325
-518.916	263.353	0.140	0.243
-517.902	237.606	0.075	-0.124
-516.887	57.693	0.340	0.332
-515.872	-200.000	0.009	0.265
-514.858	-200.000	0.000	0.133
-513.843	-152.483	0.111	-0.008
-512.829	17.884	0.238	-0.189
-511.814	227.311	0.072	0.116
-510.799	-39.648	-0.281	0.147
-509.785	-200.000	-0.021	0.189
-508.770	-71.493	0.160	-0.060
-507.756	178.430	-0.065	0.096
-506.741	630.997	-0.075	-0.189
-505.726	97.911	0.144	0.166
-504.712	-45.516	0.156	-0.077
-503.697	71.433	0.104	-0.108
-502.683	-200.000	0.015	0.130
-501.668	12.093	-0.298	-0.229
-500.653	246.116	0.060	-0.101
-499.639	39.127	0.067	0.060
-498.624	226.039	0.120	-0.195
-497.610	4.667	0.104	0.077
-496.595	150.064	0.018	-0.024
-495.581	-141.203	0.297	-0.030
-494.566	21.674	0.330	-0.268
-493.551	37.601	0.138	-0.123
-492.537	800.000	-0.122	-0.343
-491.522	-100.285	0.142	0.035
-490.508	437.635	-0.053	-0.115
-489.493	800.000	-0.072	0.218
-488.478	-200.000	0.006	0.327
-487.464	120.457	-0.031	0.039
-486.449	-200.000	0.005	-0.058
-485.435	-200.000	0.073	-0.322
-484.420	191.943	0.071	-0.106
-483.405	23.274	-0.159	-0.131
-482.391	235.414	0.094	-0.154
-481.376	-151.346	0.113	-0.008
-480.362	-8.188	0.210	-0.141
-479.347	-190.190	0.084	0.001
-478.332	118.145	0.217	0.267
-477.318	113.508	-0.181	-0.220
-476.303	-60.454	-0.165	-0.070
-475.289	372.277	0.076	0.154
-474.274	594.026	0.053	0.130
-473.259	-200.000	0.018	-0.221
-472.245	232.845	-0.160	-0.262
-471.230	-160.655	0.111	-0.006
-470.216	153.886	0.275	0.376
-469.201	-110.499	-0.233	-0.048
-468.186	-41.419	-0.142	0.073
-467.172	-200.000	0.040	0.230
-466.157	-63.697	0.457	0.187
-465.143	-56.866	0.044	-0.019
-464.128	251.110	-0.044	-0.074
-463.113	-32.920	0.110	0.061
-462.099	-200.000	0.043	-0.266
-461.084	118.146	-0.215	0.264
-460.070	102.439	0.068	0.079
-459.055	659.199	-0.041	-0.106
-458.040	-106.761	-0.179	0.040
-457.026	740.984	0.050	0.135
-456.011	26.073	0.037	0.031
-454.997	756.543	-0.074	0.198
-453.982	99.123	0.022	0.026
-452.968	40.687	0.265	0.238
-451.953	264.338	0.074	0.128
-450.938	599.820	0.016	-0.040
-449.924	-200.000	-0.024	0.105
-448.909	-142.176	0.066	0.007
-447.895	45.961	0.191	-0.176
-446.880	81.274	-0.038	0.041
-445.865	-187.270	-0.262	-0.004
-444.851	800.000	-0.063	0.190
-443.836	-70.807	0.037	0.014
-442.822	-19.141	0.260	0.161
-441.807	-200.000	0.069	0.326
-440.792	209.579	0.104	-0.162
-439.778	-200.000	0.004	0.298
-438.763	769.211	-0.074	0.199
-437.749	37.433	-0.186	-0.165
-436.734	-92.015	0.092	0.026
-435.719	-200.000	0.026	-0.134
-434.705	-96.522	-0.311	0.082
-433.690	800.000	-0.030	-0.113
-432.676	462.469	-0.166	0.368
-431.661	59.268	-0.300	0.295
-430.646	-125.684	-0.226	-0.034
-429.632	-200.000	0.003	-0.180
-428.617	208.945	0.186	-0.290
-427.603	800.000	-0.097	0.273
-426.588	-200.000	-0.039	0.190
-425.573	47.931	0.148	0.138
-424.559	-126.777	-0.200	0.029
-423.544	9.291	-0.234	0.176
-422.530	81.017	0.139	0.150
-421.515	62.239	0.052	0.052
-420.500	369.559	-0.057	0.115
-419.486	-200.000	-0.023	-0.265
-418.471	-200.000	-0.003	0.278
-417.457	-93.102	-0.161	0.045
-416.442	-26.678	-0.227	-0.132
-415.428	-77.729	-0.239	0.082
-414.413	-97.505	0.374	-0.097
-413.398	-37.911	-0.224	0.118
-412.384	-200.000	0.022	-0.242
-411.369	-77.716	0.123	-0.042
-410.355	-46.252	0.087	-0.043
-409.340	-200.000	0.055	0.434
-408.325	-200.000	-0.025	-0.213
-407.311	24.189	0.165	-0.135
-406.296	-87.165	-0.190	0.057
-405.282	-90.397	-0.325	0.094
-404.267	-128.432	-0.321	0.045
-403.252	-17.724	-0.167	0.104
-402.238	-200.000	0.016	-0.136
-401.223	-200.000	0.001	0.167
-400.209	48.949	0.391	-0.365
-399.194	-41.423	-0.228	-0.117
-398.179	75.531	-0.166	0.175
-397.165	-56.702	0.016	0.007
-396.150	-82.822	0.205	0.066
-395.136	-93.314	-0.058	0.016
-394.121	-148.979	-0.336	-0.027
-393.106	-126.257	-0.182	-0.027
-392.092	23.593	-0.143	-0.117
-391.077	-40.575	-0.061	0.032
-390.063	246.074	0.086	0.144
-389.048	181.673	0.098	0.144
-388.033	-3.798	0.065	0.045
-387.019	271.244	0.058	0.102
-386.004	-11.483	-0.248	0.162
-384.990	-200.000	0.037	-0.295
-383.975	-172.596	-0.131	-0.004
-382.960	298.631	0.061	-0.112
-381.946	-52.892	-0.252	0.116
-380.931	-118.471	0.366	0.065
-379.917	800.000	-0.067	0.233
-378.902	-183.659	0.149	0.003
-377.888	189.158	0.187	0.279
-376.873	-6.877	-0.173	-0.117
-375.858	-96.615	0.106	-0.028
-374.844	32.674	0.254	-0.218
-373.829	68.973	-0.244	-0.249
-372.815	-200.000	0.028	-0.239
-371.800	228.733	0.231	0.374
-370.785	65.428	-0.057	0.057
-369.771	-33.994	-0.134	0.073
-368.756	-36.583	-0.163	-0.087
-367.742	171.860	0.157	0.225
-366.727	-200.000	-0.042	0.270
-365.712	800.000	0.093	-0.329
-364.698	-128.666	0.208	-0.029
-363.683	-66.769	0.073	-0.029
-362.669	-71.945	-0.170	-0.063
-361.654	-177.520	0.347	-0.008
-360.639	-62.199	0.328	-0.136
-359.625	-200.000	0.016	-0.089
-358.610	-54.731	-0.250	-0.112
-357.596	580.576	-0.057	0.140
-356.581	0.274	0.127	0.090
-355.566	800.000	0.042	-0.128
-354.552	-39.532	-0.085	0.044
-353.537	-200.000	0.162	-0.000
-352.523	385.746	0.097	0.200
-351.508	-200.000	-0.049	-0.225
-350.493	800.000	-0.035	-0.129
-349.479	-5.710	0.297	-0.202
-348.464	800.000	-0.073	-0.206
-347.450	220.839	-0.176	-0.281
-346.435	63.129	0.033	0.033
-345.420	-126.488	-0.410	-0.060
-344.406	154.779	-0.123	0.168
-343.391	253.391	-0.143	-0.243
-342.377	447.520	0.022	0.048
-341.362	-43.351	-0.038	0.019
-340.348	-200.000	-0.023	-0.144
-339.333	-70.368	0.278	0.105
-338.318	-87.275	0.111	-0.033
-337.304	-146.260	0.080	-0.007
-336.289	-88.752	0.183	-0.054
-335.275	124.515	0.185	-0.231
-334.260	-98.073	-0.090	0.023
-333.245	800.000	0.062	0.214
-332.231	36.333	0.133	0.117
-331.216	-144.889	0.050	-0.005
-330.202	13.139	-0.092	0.071
-329.187	-101.896	-0.086	-0.021
-328.172	800.000	0.113	0.415
-327.158	-182.712	0.204	-0.004
-326.143	756.343	0.044	0.118
-325.129	-43.614	-0.281	-0.141
-324.114	-200.000	-0.097	0.489
-323.099	218.228	-0.144	-0.229
-322.085	-172.443	0.324	-0.010
-321.070	142.865	0.093	-0.123
-320.056	800.000	0.095	-0.357
-319.041	-129.908	-0.195	0.027
-318.026	132.139	-0.066	0.084
-317.012	442.338	0.079	-0.171
-315.997	-102.386	-0.350	0.083
-314.983	391.469	0.103	-0.211
-313.968	-200.000	-0.073	-0.532
-312.953	-102.658	-0.359	0.085
-311.939	128.291	0.137	-0.173
-310.924	800.000	0.009	0.036
-309.910	91.548	-0.144	-0.160
-308.895	800.000	0.083	-0.257
-307.880	-44.029	-0.494	0.246
-306.866	-143.573	0.164	0.015
-305.851	239.801	0.048	0.079
-304.837	67.426	-0.121	0.122
-303.822	-200.000	-0.013	-0.207
-302.807	762.739	0.113	-0.305
-301.793	-200.000	-0.057	0.401
-300.778	-2.571	0.199	0.138
-299.764	103.318	-0.123	0.143
-298.749	583.873	-0.082	-0.200
-297.735	390.607	0.140	0.289
-296.720	247.571	0.080	-0.135
-295.705	-12.849	-0.092	0.059
-294.691	-33.496	0.194	-0.106
-293.676	230.948	-0.140	-0.228
-292.662	46.046	-0.264	-0.242
-291.647	-200.000	0.000	-0.251
-290.632	-46.640	-0.232	-0.113
-289.618	-64.213	-0.250	0.101
-288.603	-200.000	0.030	-0.290
-287.589	645.906	0.076	0.192
-286.574	-159.403	0.199	0.011
-285.559	-127.344	0.170	0.024
-284.545	-145.205	0.186	-0.017
-283.530	-84.327	-0.260	-0.082
-282.516	130.427	0.122	-0.155
-281.501	-48.250	0.102	-0.049
-280.486	800.000	0.089	0.360
-279.472	-187.510	-0.190	-0.003
-278.457	-186.748	-0.371	-0.005
-277.443	-55.540	-0.237	0.105
-276.428	800.000	0.043	0.137
-275.413	28.035	-0.118	-0.099
-274.399	800.000	0.105	0.317
-273.384	-200.000	-0.008	0.099
-272.370	-115.893	-0.207	0.038
-271.355	-70.039	0.124	-0.047
-270.340	-163.420	-0.375	0.018
-269.326	-88.542	0.203	-0.060
-268.311	-14.622	-0.115	0.073
-267.297	-57.117	-0.078	0.034
-266.282	350.583	-0.126	0.246
-265.267	-99.405	0.183	0.046
-264.253	207.716	-0.302	0.467
-263.238	-150.722	-0.357	0.027
-262.224	-63.219	0.107	0.044
-261.209	136.196	0.108	-0.139
-260.195	-18.474	-0.158	0.098
-259.180	-113.191	-0.055	-0.011
-258.165	291.061	0.072	-0.130
-257.151	466.895	0.113	-0.250
-256.136	-116.314	-0.458	0.084
-255.122	224.188	-0.103	0.165
-254.107	-195.884	-0.332	-0.002
-253.092	-130.730	0.126	0.017
-252.078	23.247	-0.331	-0.269
-251.063	-36.423	-0.274	-0.146
-250.049	43.663	-0.166	-0.150
-249.034	110.874	-0.118	0.140
-248.019	-142.951	-0.336	0.032
-247.005	-40.299	-0.139	0.072
-245.990	-26.602	0.387	0.224
-244.976	23.197	0.083	-0.068
-243.961	800.000	-0.024	0.088
-242.946	552.606	0.048	0.114
-241.932	-44.515	0.239	0.118
-240.917	388.867	-0.048	0.098
-239.903	122.089	0.122	0.151
-238.888	800.000	-0.010	0.028
-237.873	8.306	0.308	0.229
-236.859	254.012	-0.110	0.187
-235.844	-200.000	-0.039	0.269
-234.830	416.135	-0.010	-0.021
-233.815	-107.424	0.125	0.027
-232.800	-200.000	-0.015	-0.300
-231.786	474.396	0.074	-0.164
-230.771	-30.038	-0.064	0.036
-229.757	520.531	0.083	0.193
-228.742	-95.463	-0.135	-0.036
-227.727	-103.613	-0.607	-0.141
-226.713	-200.000	0.034	-0.262
-225.698	319.812	-0.060	0.113
-224.684	800.000	-0.044	-0.149
-223.669	219.264	0.201	0.318
-222.655	-200.000	-0.019	-0.207
-221.640	138.260	0.017	0.022
-220.625	-200.000	-0.002	0.042
-219.611	-126.616	-0.546	-0.080
-218.596	-89.387	0.034	0.010
-217.582	-88.702	0.085	0.025
-216.567	-39.147	0.210	0.109
-215.552	99.361	0.139	0.159
-214.538	-90.743	0.480	-0.137
-213.523	-60.278	-0.087	-0.037
-212.509	-177.771	0.230	-0.005
-211.494	-46.256	-0.084	0.041
-210.479	-109.205	-0.117	0.024
-209.465	456.545	-0.016	-0.035
-208.450	125.906	0.156	-0.195
-207.436	-55.037	0.241	0.107
-206.421	215.955	-0.190	-0.298
-205.406	-139.223	0.391	0.042
-204.392	800.000	0.071	-0.287
-203.377	80.161	0.099	0.105
-202.363	-115.820	0.325	-0.060
-201.348	606.760	-0.158	-0.388
-200.333	601.203	0.083	-0.203
-199.319	-149.827	0.162	0.012
-198.304	-89.315	-0.055	-0.016
-197.290	244.520	0.163	0.270
-196.275	-68.108	-0.122	-0.047
-195.260	-131.431	0.161	-0.021
-194.246	-55.603	0.171	-0.076
-193.231	16.471	-0.072	-0.056
-192.217	17.548	0.096	0.075
-191.202	-139.466	0.122	0.013
-190.187	-93.497	0.189	0.052
-189.173	-73.046	0.210	-0.076
-188.158	800.000	-0.038	-0.120
-187.144	121.136	-0.083	-0.102
-186.129	-104.551	0.184	0.042
-185.114	255.652	-0.122	0.207
-184.100	-122.261	-0.158	0.026
-183.085	-60.688	0.158	0.066
-182.071	800.000	-0.033	0.099
-181.056	-148.384	0.062	-0.005
-180.042	-200.000	0.028	-0.180
-179.027	529.257	-0.054	0.126
-178.012	51.988	0.176	-0.165
-176.998	2.818	0.161	0.115
-175.983	-200.000	-0.004	0.368
-174.969	-130.917	0.041	0.005
-173.954	-123.816	-0.231	-0.036
-172.939	800.000	0.077	-0.222
-171.925	-18.281	-0.141	0.087
-170.910	-71.322	0.244	-0.090
-169.896	1.286	-0.190	-0.135
-168.881	143.642	0.059	-0.078
-167.866	-162.426	-0.309	-0.015
-166.852	294.939	-0.121	-0.217
-165.837	232.774	0.117	-0.190
-164.823	-155.161	0.165	-0.011
-163.808	-54.540	-0.294	-0.131
-162.793	-200.000	-0.004	0.367
-161.779	384.994	-0.146	-0.297
-160.764	-200.000	0.005	0.037
-159.750	800.000	-0.044	0.173
-158.735	800.000	-0.070	0.241
-157.720	44.056	-0.316	-0.286
-156.706	-66.894	0.249	-0.097
-155.691	37.653	-0.109	-0.096
-154.677	-57.456	0.313	-0.135
-153.662	-54.187	0.049	-0.022
-152.647	89.344	-0.070	0.077
-151.633	800.000	0.087	0.239
-150.618	110.762	0.165	-0.195
-149.604	-200.000	-0.017	0.091
-148.589	-118.043	-0.128	-0.023
-147.574	-16.607	0.047	0.029
-146.560	73.145	-0.197	-0.203
-145.545	36.261	-0.195	-0.169
-144.531	8.214	-0.287	0.213
-143.516	-92.608	0.148	0.041
-142.502	-38.769	-0.064	0.033
-141.487	-55.713	0.225	0.099
-140.472	-200.000	-0.004	0.029
-139.458	186.508	-0.064	-0.093
-138.443	189.501	0.091	-0.134
-137.429	88.113	-0.128	-0.140
-136.414	-10.644	0.200	-0.131
-135.399	-133.339	-0.282	0.035
-134.385	58.774	-0.169	-0.164
-133.370	-84.532	0.107	0.033
-132.356	197.229	-0.087	0.130
-131.341	-200.000	0.021	-0.369
-130.326	521.141	-0.163	-0.378
-129.312	-32.321	-0.077	0.042
-128.297	595.150	-0.189	0.461
-127.283	-200.000	-0.037	-0.188
-126.268	800.000	-0.091	0.263
-125.253	-104.883	-0.169	0.038
-124.239	-138.107	0.324	0.035
-123.224	-200.000	-0.032	0.212
-122.210	-24.471	-0.121	0.071
