DTS Sentinel unit serial number:	SN413079Multiplexer serial number:	ORYXHardware model number:	OX4-SRSoftware version number:	ORYX F/W v4.00 Oryx Data Collector v3.7.2.0data status	okinstallation	princeton_trtdifferential loss correction	single-endedforward channel	channel 2reverse channel	N/Adate	2019/09/12time	19:14:49forward acquisition time	15.00reverse acquisition time	0.00gamma	496.2192k internal	0.2325k external	0.2325temperature offset calibration	1.0143default loss term (dB/km)	0.3790temperature slope calibration	1.0000multiplexer offset coefficient	1.0000multiplexer slope coefficient	1.0000fibre end	0.00T internal ref (°C)	32.50T ext. ref 1 (°C)	3.20T ext. ref 2 (°C)	27.09length (m)	temperature (°C)	Stokes	anti-Stokes-747.200	42.154	0.573	0.525
-746.185	427.249	0.417	0.908
-745.171	198.483	0.540	-0.834
-744.156	-200.000	-0.012	-0.441
-743.142	364.205	-0.383	-0.778
-742.127	-40.962	-0.846	0.441
-741.112	626.149	-0.245	-0.624
-740.098	-72.514	0.588	0.219
-739.083	-168.006	0.125	-0.005
-738.069	221.592	0.285	0.463
-737.054	-145.052	-0.125	-0.011
-736.039	62.102	-0.478	-0.481
-735.025	-200.000	-0.014	0.340
-734.010	800.000	-0.287	-1.117
-732.996	219.988	-0.155	-0.250
-731.981	271.804	-0.121	0.215
-730.966	-200.000	-0.013	0.337
-729.952	800.000	-0.160	-0.566
-728.937	295.482	-0.277	0.511
-727.923	370.973	-0.425	0.869
-726.908	113.499	0.543	0.665
-725.894	448.986	0.247	0.549
-724.879	474.731	-0.452	1.027
-723.864	293.594	-0.158	-0.291
-722.850	-35.707	0.870	0.475
-721.835	103.453	0.244	0.289
-720.821	-195.044	-1.401	0.011
-719.806	-81.671	-0.229	0.076
-718.791	-119.633	0.422	0.074
-717.777	5.331	-0.655	-0.487
-716.762	-29.523	-0.672	0.387
-715.748	512.111	-0.146	0.344
-714.733	-28.906	0.108	0.063
-713.718	-200.000	0.106	0.620
-712.704	800.000	0.179	-0.568
-711.689	181.718	-0.212	-0.315
-710.675	-200.000	0.022	0.496
-709.660	-200.000	-0.087	0.404
-708.645	-132.664	-1.055	-0.136
-707.631	-129.006	-0.541	-0.076
-706.616	-144.655	-0.321	-0.030
-705.602	20.538	-0.261	0.213
-704.587	800.000	0.211	0.649
-703.572	17.258	-0.144	-0.115
-702.558	258.052	0.293	0.509
-701.543	800.000	0.355	1.110
-700.529	-48.444	-0.272	-0.132
-699.514	-200.000	0.169	0.840
-698.499	149.991	-0.438	0.599
-697.485	191.808	0.081	0.123
-696.470	-112.858	-1.180	0.236
-695.456	-179.425	-1.058	-0.023
-694.441	-83.393	0.295	0.095
-693.426	-113.273	-0.592	-0.117
-692.412	226.797	0.217	-0.355
-691.397	317.259	0.066	0.125
-690.383	156.595	0.074	-0.103
-689.368	-82.956	-0.640	-0.208
-688.354	102.303	-0.166	-0.196
-687.339	-44.537	-0.508	0.256
-686.324	-200.000	-0.000	0.672
-685.310	-114.676	0.151	-0.029
-684.295	50.943	-0.259	0.247
-683.281	800.000	0.146	0.602
-682.266	98.661	-0.333	-0.387
-681.251	800.000	0.155	-0.519
-680.237	-52.573	-0.524	-0.244
-679.222	213.424	-0.119	-0.190
-678.208	-25.129	0.642	-0.383
-677.193	-157.340	-0.811	-0.049
-676.178	800.000	0.132	-0.549
-675.164	-160.955	-0.258	0.014
-674.149	-121.661	-0.350	-0.058
-673.135	-200.000	-0.138	-0.640
-672.120	84.853	-0.652	-0.719
-671.105	136.437	0.355	0.466
-670.091	-200.000	0.068	0.642
-669.076	-76.885	0.193	-0.068
-668.062	-200.000	-0.114	0.877
-667.047	-95.408	0.388	-0.105
-666.032	-154.261	0.415	0.028
-665.018	-108.168	0.183	0.040
-664.003	-26.681	-1.495	0.880
-662.989	800.000	-0.215	0.697
-661.974	-13.919	-0.134	0.087
-660.959	800.000	-0.237	-0.661
-659.945	-112.954	0.897	-0.179
-658.930	-76.965	0.300	0.105
-657.916	683.635	0.103	0.271
-656.901	-50.149	0.733	0.349
-655.886	-84.384	-1.014	0.322
-654.872	-57.508	0.371	-0.164
-653.857	-122.714	0.552	0.090
-652.843	69.425	-0.375	-0.388
-651.828	-134.339	-0.449	0.055
-650.814	800.000	0.044	0.127
-649.799	-200.000	0.042	0.600
-648.784	-101.477	-0.365	0.089
-647.770	-122.577	0.987	0.161
-646.755	800.000	0.091	0.308
-645.741	17.506	-0.843	-0.673
-644.726	126.751	-0.201	-0.256
-643.711	800.000	0.100	0.327
-642.697	-108.227	0.626	0.136
-641.682	83.634	-0.611	-0.669
-640.668	-200.000	0.038	0.317
-639.653	-66.945	-0.295	-0.117
-638.638	-165.121	-0.411	-0.018
-637.624	314.978	0.305	-0.578
-636.609	800.000	-0.218	0.803
-635.595	800.000	0.165	-0.473
-634.580	70.391	0.537	0.558
-633.565	398.355	-0.157	-0.329
-632.551	-72.789	-1.213	0.449
-631.536	-157.122	-0.384	-0.024
-630.522	800.000	0.053	-0.221
-629.507	53.904	0.208	0.201
-628.492	94.360	-0.363	-0.414
-627.478	-107.722	-1.049	0.230
-626.463	-65.295	-0.645	0.261
-625.449	143.720	0.362	0.485
-624.434	122.831	0.133	0.168
-623.419	-200.000	-0.014	0.197
-622.405	-82.915	0.659	0.214
-621.390	-91.417	-0.581	-0.167
-620.376	-200.000	-0.011	0.202
-619.361	198.698	-0.126	-0.194
-618.346	-98.490	-0.236	-0.061
-617.332	-136.001	-0.473	0.056
-616.317	-123.097	-0.731	0.118
-615.303	529.603	0.328	-0.778
-614.288	-129.840	-0.255	0.035
-613.273	-169.977	-0.413	-0.015
-612.259	800.000	0.212	0.723
-611.244	123.884	0.359	0.453
-610.230	-200.000	-0.086	-0.506
-609.215	646.235	-0.233	0.596
-608.201	-86.425	-0.228	0.070
-607.186	-12.124	0.593	-0.390
-606.171	88.145	-0.440	-0.490
-605.157	-85.752	-0.552	0.172
-604.142	-200.000	0.009	0.286
-603.128	130.843	-0.376	0.484
-602.113	163.476	0.216	-0.305
-601.098	434.064	-0.233	0.509
-600.084	-200.000	0.029	-0.268
-599.069	-45.238	-0.778	0.388
-598.055	-163.694	1.783	-0.084
-597.040	247.095	0.297	0.503
-596.025	-200.000	-0.039	-0.224
-595.011	-149.100	1.074	0.086
-593.996	-200.000	-0.077	0.701
-592.982	-126.822	0.815	-0.121
-591.967	128.754	-0.093	-0.118
-590.952	-200.000	0.029	0.289
-589.938	182.940	-0.064	-0.095
-588.923	-163.197	0.402	-0.019
-587.909	329.345	-0.397	-0.765
-586.894	-200.000	0.107	0.685
-585.879	35.919	-0.165	-0.146
-584.865	-200.000	-0.033	0.175
-583.850	282.946	-0.346	-0.622
-582.836	-200.000	-0.022	0.098
-581.821	-96.974	0.363	-0.095
-580.806	800.000	0.092	0.326
-579.792	121.590	0.524	-0.655
-578.777	800.000	0.176	0.566
-577.763	37.289	-0.597	0.530
-576.748	-116.781	-0.553	0.102
-575.733	202.860	0.315	0.488
-574.719	230.674	0.285	-0.468
-573.704	-200.000	-0.003	0.047
-572.690	-112.344	0.536	0.108
-571.675	-65.867	-0.481	0.193
-570.661	3.821	0.321	0.235
-569.646	-200.000	-0.091	-0.857
-568.631	-33.098	0.473	0.263
-567.617	63.144	-0.853	-0.856
-566.602	-24.675	-0.090	0.054
-565.588	-200.000	0.032	0.646
-564.573	800.000	-0.271	1.011
-563.558	-13.625	0.694	-0.450
-562.544	122.226	0.384	-0.481
-561.529	-200.000	0.055	-0.766
-560.515	-7.116	-0.507	0.344
-559.500	7.927	-0.473	-0.355
-558.485	-161.961	0.640	-0.032
-557.471	-160.108	-0.659	0.036
-556.456	127.279	0.297	0.378
-555.442	8.983	0.806	0.609
-554.427	-200.000	-0.136	0.721
-553.412	-200.000	-0.073	0.443
-552.398	364.175	0.257	0.517
-551.383	18.176	0.496	-0.397
-550.369	34.499	-0.009	0.007
-549.354	260.683	0.222	0.385
-548.339	-25.828	0.306	0.181
-547.325	-4.866	-0.286	0.198
-546.310	-58.771	0.683	0.296
-545.296	103.731	0.872	1.025
-544.281	-144.262	-0.126	0.012
-543.266	-137.745	-0.355	0.040
-542.252	131.238	0.252	0.324
-541.237	-27.950	0.148	-0.086
-540.223	299.620	0.090	0.167
-539.208	-49.321	-0.853	-0.407
-538.193	273.190	-0.329	0.581
-537.179	-4.123	-0.385	0.267
-536.164	22.368	-0.601	0.492
-535.150	-57.059	-0.320	-0.141
-534.135	317.344	0.186	-0.351
-533.121	-153.795	0.741	-0.051
-532.106	-200.000	0.016	-0.136
-531.091	-115.873	-0.904	-0.169
-530.077	24.615	0.026	-0.021
-529.062	-124.085	-0.476	-0.075
-528.048	800.000	0.258	-0.888
-527.033	558.745	-0.165	-0.398
-526.018	800.000	0.125	0.432
-525.004	510.298	0.071	0.165
-523.989	-200.000	-0.002	0.626
-522.975	140.893	-0.173	-0.228
-521.960	-149.399	0.169	0.013
-520.945	-78.637	0.751	0.257
-519.931	-30.853	0.129	-0.073
-518.916	-134.793	-0.570	-0.069
-517.902	800.000	0.276	-0.872
-516.887	-7.477	-0.529	0.358
-515.872	420.317	-0.312	-0.668
-514.858	37.530	-0.494	-0.439
-513.843	-32.093	-0.281	-0.157
-512.829	-21.136	0.108	0.066
-511.814	800.000	0.053	0.147
-510.799	-22.831	-0.455	0.275
-509.785	-153.197	0.512	-0.036
-508.770	-27.662	-0.628	0.364
-507.756	739.750	-0.173	0.464
-506.741	9.835	-0.239	-0.181
-505.726	-80.232	0.117	0.039
-504.712	295.475	-0.262	-0.479
-503.697	-200.000	-0.026	0.667
-502.683	-127.609	1.014	0.147
-501.668	260.727	0.363	-0.627
-500.653	-100.367	1.285	-0.318
-499.639	800.000	-0.228	-0.815
-498.624	204.901	-0.415	0.644
-497.610	-69.626	-0.679	0.260
-496.595	650.953	0.379	0.969
-495.581	-22.780	0.877	-0.529
-494.566	-200.000	-0.070	-0.776
-493.551	-200.000	0.076	1.238
-492.537	24.419	-0.251	0.207
-491.522	-107.356	-0.184	0.040
-490.508	800.000	0.182	0.681
-489.493	-130.448	-0.698	0.094
-488.478	-81.753	1.072	0.351
-487.464	12.978	0.781	-0.604
-486.449	-200.000	-0.043	-0.904
-485.435	-68.142	-0.738	-0.287
-484.420	-80.452	0.682	-0.227
-483.405	-200.000	-0.022	-0.438
-482.391	-200.000	0.011	0.057
-481.376	-200.000	-0.109	-0.535
-480.362	-58.280	-0.246	-0.107
-479.347	555.187	0.187	-0.449
-478.332	-109.178	-0.218	0.046
-477.318	-72.919	-0.224	0.082
-476.303	800.000	0.093	0.369
-475.289	-55.298	0.522	-0.234
-474.274	-45.846	-0.741	-0.365
-473.259	29.624	0.840	0.713
-472.245	-24.668	0.365	-0.217
-471.230	800.000	0.160	-0.622
-470.216	-136.306	0.889	0.103
-469.201	-200.000	-0.101	-0.892
-468.186	800.000	-0.286	-0.917
-467.172	-200.000	0.024	0.262
-466.157	-56.556	1.187	0.525
-465.143	-200.000	0.080	-0.393
-464.128	-200.000	0.073	0.348
-463.113	-109.246	-0.216	0.046
-462.099	245.891	0.445	-0.748
-461.084	122.035	-0.358	-0.446
-460.070	-200.000	-0.015	-0.219
-459.055	800.000	-0.102	0.402
-458.040	-200.000	0.094	0.414
-457.026	-72.862	-0.647	0.238
-456.011	-99.674	1.171	0.293
-454.997	-157.067	-1.313	0.080
-453.982	-24.653	0.678	0.402
-452.968	54.730	-0.123	0.119
-451.953	-73.849	0.458	-0.166
-450.938	-134.238	0.439	0.054
-449.924	278.873	-0.050	-0.088
-448.909	-112.388	-0.605	0.121
-447.895	234.510	-0.457	-0.751
-446.880	-141.412	-0.967	0.098
-445.865	-85.970	0.771	0.238
-444.851	-200.000	0.011	0.103
-443.836	-35.550	-0.783	0.424
-442.822	-130.280	-0.404	-0.055
-441.807	3.142	0.204	0.148
-440.792	-200.000	-0.044	0.712
-439.778	-37.086	0.145	0.077
-438.763	-92.389	-0.561	-0.158
-437.749	-64.321	-0.339	-0.138
-436.734	800.000	0.144	-0.483
-435.719	141.119	0.035	0.046
-434.705	-200.000	0.067	1.008
-433.690	417.520	0.577	-1.229
-432.676	-32.140	0.395	-0.220
-431.661	-94.824	0.161	0.044
-430.646	158.310	0.099	-0.137
-429.632	197.448	0.259	-0.394
-428.617	-200.000	0.018	0.318
-427.603	126.920	0.471	-0.595
-426.588	-200.000	-0.031	-0.779
-425.573	312.678	-0.267	-0.500
-424.559	136.808	0.113	0.148
-423.544	434.576	0.219	-0.475
-422.530	87.638	0.304	0.336
-421.515	300.375	-0.083	-0.153
-420.500	72.334	0.193	0.200
-419.486	35.589	0.946	0.828
-418.471	-161.446	-0.873	-0.045
-417.457	-200.000	-0.033	0.484
-416.442	94.930	0.182	0.207
-415.428	772.052	0.161	-0.438
-414.413	249.044	-0.238	0.401
-413.398	155.502	0.091	-0.125
-412.384	-103.669	1.423	0.332
-411.369	-113.888	0.399	-0.077
-410.355	-123.227	0.152	-0.024
-409.340	-119.387	-0.456	-0.079
-408.325	50.860	-0.425	0.401
-407.311	533.462	-0.286	0.675
-406.296	-51.913	0.277	0.128
-405.282	635.829	-0.442	1.118
-404.267	190.422	-0.367	0.549
-403.252	-0.247	-0.191	0.135
-402.238	-200.000	-0.061	0.736
-401.223	136.031	0.321	-0.416
-400.209	-200.000	0.012	0.412
-399.194	-200.000	-0.234	1.029
-398.179	-154.591	-0.816	0.054
-397.165	-64.254	-0.511	0.207
-396.150	74.070	0.168	-0.176
-395.136	303.905	-0.112	0.207
-394.121	141.457	-0.279	-0.368
-393.106	543.411	0.097	-0.229
-392.092	-200.000	-0.051	-0.425
-391.077	-200.000	-0.022	-0.361
-390.063	-179.196	-0.142	-0.003
-389.048	21.691	-0.086	0.069
-388.033	305.289	-0.197	0.364
-387.019	-122.710	0.071	-0.011
-386.004	-32.190	0.529	0.294
-384.990	-186.440	-1.057	0.015
-383.975	336.152	-0.347	-0.671
-382.960	-200.000	0.029	0.345
-381.946	41.126	-0.586	-0.527
-380.931	-24.647	-0.190	-0.112
-379.917	-197.135	-0.119	0.001
-378.902	-89.961	0.834	-0.242
-377.888	161.454	0.450	0.626
-376.873	10.135	0.351	-0.266
-375.858	-101.132	-0.496	-0.121
-374.844	-149.017	0.368	-0.029
-373.829	159.299	0.534	-0.739
-372.815	-200.000	0.016	0.570
-371.800	800.000	-0.087	-0.286
-370.785	-200.000	0.640	0.002
-369.771	-88.755	0.760	-0.225
-368.756	-27.778	-0.800	0.462
-367.742	-93.776	0.469	0.129
-366.727	-76.135	0.054	0.019
-365.712	40.589	-0.278	0.249
-364.698	-200.000	-0.076	-0.523
-363.683	-174.405	-0.285	-0.008
-362.669	23.124	-0.319	-0.260
-361.654	-97.234	-0.347	0.090
-360.639	30.949	-0.348	0.296
-359.625	-200.000	-0.038	-0.175
-358.610	-38.620	-0.585	-0.307
-357.596	-108.715	0.254	-0.054
-356.581	120.464	0.073	0.090
-355.566	21.874	0.037	0.030
-354.552	-112.544	-0.347	-0.069
-353.537	-16.586	-0.409	0.258
-352.523	-131.993	0.033	-0.004
-351.508	33.345	-0.396	0.341
-350.493	-95.565	-0.431	0.115
-349.479	-126.964	-0.591	-0.086
-348.464	800.000	-0.071	0.267
-347.450	-95.223	0.468	0.125
-346.435	800.000	0.152	0.563
-345.420	32.039	-0.481	-0.412
-344.406	800.000	-0.182	-0.524
-343.391	-99.114	0.711	0.179
-342.377	800.000	0.126	-0.346
-341.362	-200.000	0.103	-0.550
-340.348	-124.221	0.079	0.012
-339.333	-110.591	0.548	0.113
-338.318	214.543	-0.255	0.401
-337.304	-200.000	0.053	0.512
-336.289	-78.289	0.720	-0.245
-335.275	299.358	0.136	0.248
-334.260	800.000	-0.378	-1.355
-333.245	-200.000	0.046	-0.228
-332.231	-74.903	-0.754	0.269
-331.216	-166.891	-0.596	-0.024
-330.202	-2.727	0.176	0.122
-329.187	-200.000	-0.032	0.667
-328.172	82.035	-0.070	0.076
-327.158	-107.597	0.318	-0.069
-326.143	-95.209	0.164	0.044
-325.129	-0.881	0.459	0.323
-324.114	196.651	0.086	-0.130
-323.099	30.295	0.353	-0.299
-322.085	478.008	-0.121	-0.272
-321.070	-27.961	-0.516	-0.297
-320.056	-7.972	-0.076	-0.051
-319.041	-118.431	-0.519	0.091
-318.026	69.210	-0.540	0.551
-317.012	-200.000	0.252	-0.001
-315.997	341.820	-0.172	-0.334
-314.983	-160.753	-0.265	-0.014
-313.968	-106.883	0.597	-0.131
-312.953	-200.000	0.028	0.722
-311.939	-116.009	-0.657	-0.121
-310.924	320.925	-0.312	-0.588
-309.910	-200.000	-0.020	-0.322
-308.895	-74.395	0.233	-0.083
-307.880	-162.554	-0.870	0.043
-306.866	-88.206	-0.127	0.038
-305.851	2.695	-0.186	0.134
-304.837	-134.887	0.317	0.038
-303.822	-140.509	0.982	-0.101
-302.807	353.654	-0.301	-0.593
-301.793	16.951	0.633	-0.497
-300.778	-95.012	-0.867	-0.232
-299.764	-130.119	0.331	0.045
-298.749	-137.754	-0.399	0.044
-297.735	200.912	0.220	-0.335
-296.720	784.915	-0.124	0.337
-295.705	-31.149	0.421	0.235
-294.691	-180.435	-0.882	-0.018
-293.676	800.000	0.034	0.124
-292.662	-200.000	-0.002	-0.540
-291.647	-85.445	-0.311	-0.096
-290.632	800.000	-0.180	-0.561
-289.618	-8.894	0.133	0.088
-288.603	-200.000	-0.019	-0.181
-287.589	-173.063	-0.140	0.004
-286.574	-118.676	0.460	-0.080
-285.559	800.000	0.312	-0.928
-284.545	269.035	0.305	0.531
-283.530	800.000	0.109	0.434
-282.516	46.340	-0.187	0.172
-281.501	-98.461	0.757	-0.192
-280.486	-93.488	-0.332	-0.091
-279.472	708.214	-0.017	-0.045
-278.457	-132.837	-0.455	-0.058
-277.443	-142.427	0.551	0.054
-276.428	-22.136	0.395	-0.238
-275.413	496.171	-0.490	-1.115
-274.399	-200.000	-0.038	0.682
-273.384	800.000	-0.264	0.766
-272.370	-200.000	0.093	0.706
-271.355	-200.000	-0.008	0.385
-270.340	60.254	-0.536	-0.525
-269.326	-200.000	0.000	0.122
-268.311	91.422	-0.657	-0.731
-267.297	6.263	0.594	-0.436
-266.282	-122.286	0.414	-0.067
-265.267	-6.874	-0.318	-0.214
-264.253	482.232	0.282	-0.634
-263.238	-112.431	-0.820	0.162
-262.224	-200.000	-0.053	0.628
-261.209	362.336	0.206	0.409
-260.195	-129.760	-1.170	-0.159
-259.180	-104.824	-0.311	-0.071
-258.165	-11.218	-0.278	-0.181
-257.151	229.851	-0.543	-0.879
-256.136	99.436	0.261	-0.299
-255.122	405.805	-0.524	-1.095
-254.107	30.949	0.541	-0.459
-253.092	-200.000	0.061	0.534
-252.078	800.000	-0.195	-0.723
-251.063	237.534	0.184	0.301
-250.049	-30.430	-0.353	0.198
-249.034	800.000	-0.037	0.142
-248.019	-53.282	-0.097	-0.044
-247.005	-200.000	0.002	-0.525
-245.990	129.231	0.149	-0.188
-244.976	240.637	-0.094	-0.156
-243.961	-94.415	0.610	-0.165
-242.946	-181.017	0.524	0.010
-241.932	203.523	0.536	-0.821
-240.917	720.474	0.228	-0.600
-239.903	200.934	-0.309	0.470
-238.888	-169.895	-0.617	-0.022
-237.873	63.900	0.712	-0.708
-236.859	-89.219	-0.326	-0.095
-235.844	-200.000	0.057	-0.379
-234.830	61.551	0.196	-0.193
-233.815	-200.000	-0.154	-0.771
-232.800	-51.593	-0.122	-0.056
-231.786	-200.000	0.087	-0.421
-230.771	-109.142	0.272	0.057
-229.757	296.365	0.057	-0.103
-228.742	-200.000	-0.044	0.350
-227.727	-56.313	0.521	-0.229
-226.713	-92.481	0.888	0.247
-225.698	-133.521	0.998	-0.124
-224.684	676.588	-0.203	0.522
-223.669	-33.278	0.554	0.303
-222.655	-91.755	-0.230	0.065
-221.640	91.002	-0.528	0.585
-220.625	76.868	-0.411	0.432
-219.611	-71.658	0.626	0.231
-218.596	-20.425	0.762	0.463
-217.582	380.903	-0.249	-0.505
-216.567	-200.000	-0.029	-0.246
-215.552	-104.325	0.984	0.225
-214.538	-21.386	0.250	-0.151
-213.523	-1.613	0.318	-0.221
-212.509	-15.941	-0.618	-0.389
-211.494	800.000	-0.118	-0.342
-210.479	43.099	0.361	-0.326
-209.465	117.826	-0.308	0.375
-208.450	-77.859	-0.843	0.288
-207.436	-60.502	0.500	0.210
-206.421	447.564	0.152	0.332
-205.406	-52.431	0.230	0.105
-204.392	123.535	0.189	-0.235
-203.377	182.933	0.308	-0.450
-202.363	498.553	-0.047	-0.108
-201.348	-163.584	0.543	0.025
-200.333	143.680	0.467	0.615
-199.319	191.631	0.505	-0.751
-198.304	-57.830	0.487	0.210
-197.290	203.636	-0.209	0.320
-196.275	800.000	-0.110	0.437
-195.260	-116.289	0.444	0.081
-194.246	-87.668	0.387	0.115
-193.231	787.983	-0.312	0.845
-192.217	800.000	-0.240	0.695
-191.202	-35.405	0.086	-0.046
-190.187	26.071	-0.789	0.650
-189.173	800.000	-0.204	-0.739
-188.158	-41.250	-0.295	0.150
-187.144	800.000	-0.027	-0.079
-186.129	17.314	0.616	-0.483
-185.114	-29.731	-0.406	-0.229
-184.100	-74.779	-0.475	0.169
-183.085	-58.813	-0.141	0.060
-182.071	-200.000	0.003	-0.123
-181.056	-0.896	-0.337	0.236
-180.042	101.395	0.212	0.243
-179.027	800.000	-0.266	-0.812
-178.012	-170.468	0.732	-0.025
-176.998	45.795	0.748	-0.682
-175.983	107.426	-0.607	0.713
-174.969	-30.190	0.754	0.423
-173.954	-90.445	0.484	-0.139
-172.939	800.000	0.036	0.141
-171.925	800.000	-0.139	0.490
-170.910	-8.361	-0.538	-0.357
-169.896	92.316	-0.744	-0.827
-168.881	58.698	-0.556	-0.539
-167.866	-118.128	0.426	-0.075
-166.852	483.021	-0.356	0.798
-165.837	598.096	-0.225	-0.549
-164.823	-200.000	0.082	0.457
-163.808	95.811	0.057	0.064
-162.793	-200.000	-0.061	0.454
-161.779	-61.224	-0.628	0.261
-160.764	-121.419	0.506	-0.083
-159.750	-171.898	-0.251	-0.008
-158.735	-125.775	0.508	0.076
-157.720	-179.815	0.401	0.009
-156.706	-164.059	-0.918	-0.042
-155.691	-167.588	-0.438	0.017
-154.677	-148.437	0.636	0.051
-153.662	-120.657	-0.238	0.040
-152.647	569.379	-0.307	-0.737
-151.633	42.278	0.887	0.795
-150.618	180.350	0.372	-0.538
-149.604	-200.000	-0.017	-0.225
-148.589	-200.000	-0.093	0.495
-147.574	800.000	-0.115	0.451
-146.560	-200.000	0.106	0.593
-145.545	-112.626	-0.630	0.124
-144.531	-12.587	0.345	0.222
-143.516	375.367	-0.587	-1.179
-142.502	84.742	-0.522	-0.564
-141.487	258.910	0.106	-0.181
-140.472	44.156	-0.364	-0.329
-139.458	-102.241	-0.311	0.074
-138.443	20.042	-0.370	0.294
-137.429	142.160	0.116	0.152
-136.414	-200.000	0.110	-1.350
-135.399	800.000	-0.096	-0.399
-134.385	315.716	0.384	0.713
-133.370	-50.108	-0.084	0.039
-132.356	-68.006	0.484	-0.186
-131.341	24.264	0.778	0.633
-130.326	-101.940	1.422	0.338
-129.312	401.247	0.370	0.765
-128.297	174.284	-0.719	1.024
-127.283	-89.087	0.530	-0.154
-126.268	-164.719	-1.068	-0.047
-125.253	-200.000	0.103	-0.509
-124.239	-200.000	-0.010	0.553
-123.224	530.517	-0.131	0.305
-122.210	-137.515	0.335	0.037
