DTS Sentinel unit serial number:	SN413079Multiplexer serial number:	ORYXHardware model number:	OX4-SRSoftware version number:	ORYX F/W v4.00 Oryx Data Collector v3.7.2.0data status	okinstallation	princeton_trtdifferential loss correction	single-endedforward channel	channel 2reverse channel	N/Adate	2019/09/15time	09:47:34forward acquisition time	60.00reverse acquisition time	0.00gamma	496.2192k internal	0.2315k external	0.2315temperature offset calibration	1.0018default loss term (dB/km)	0.3790temperature slope calibration	1.0000multiplexer offset coefficient	1.0000multiplexer slope coefficient	1.0000fibre end	0.00T internal ref (°C)	34.00T ext. ref 1 (°C)	4.97T ext. ref 2 (°C)	29.69length (m)	temperature (°C)	Stokes	anti-Stokes-747.200	-44.296	-0.227	-0.115
-746.185	800.000	0.107	0.394
-745.171	-110.704	-0.488	0.102
-744.156	-43.878	-0.114	-0.058
-743.142	-82.808	0.244	0.080
-742.127	-177.061	-0.189	-0.005
-741.112	724.882	0.020	0.053
-740.098	16.312	-0.243	0.194
-739.083	-131.514	-0.177	-0.024
-738.069	-15.470	-0.100	0.065
-737.054	-60.519	0.335	0.144
-736.039	21.183	-0.082	-0.067
-735.025	159.236	0.127	0.178
-734.010	56.091	-0.090	-0.088
-732.996	529.488	0.148	0.354
-731.981	-88.085	-0.217	0.066
-730.966	-136.338	-0.216	0.026
-729.952	-78.222	-0.130	-0.045
-728.937	307.187	-0.082	0.154
-727.923	56.946	-0.148	-0.146
-726.908	207.431	-0.230	-0.363
-725.894	-88.740	0.182	-0.055
-724.879	33.466	-0.215	-0.189
-723.864	343.593	-0.021	0.041
-722.850	-28.093	-0.146	-0.085
-721.835	800.000	-0.128	-0.377
-720.821	246.994	0.234	-0.399
-719.806	-64.748	0.125	-0.051
-718.791	171.771	0.048	-0.069
-717.777	-105.161	0.199	0.046
-716.762	56.090	0.079	0.077
-715.748	218.243	-0.087	-0.141
-714.733	88.058	0.037	-0.041
-713.718	39.915	-0.149	0.136
-712.704	-9.037	0.072	0.049
-711.689	86.723	0.072	-0.080
-710.675	-28.401	0.052	0.030
-709.660	61.717	0.213	-0.214
-708.645	-92.063	0.296	-0.085
-707.631	-200.000	0.013	-0.302
-706.616	416.054	0.083	0.179
-705.602	-200.000	-0.046	-0.245
-704.587	800.000	0.153	0.453
-703.572	-200.000	-0.038	-0.259
-702.558	-132.527	0.153	0.020
-701.543	324.813	0.086	-0.166
-700.529	-135.248	-0.205	-0.025
-699.514	-119.390	0.114	-0.020
-698.499	0.395	-0.206	0.149
-697.485	-104.157	0.344	0.081
-696.470	-128.049	-0.409	-0.059
-695.456	-60.534	-0.173	0.074
-694.441	-200.000	-0.020	0.480
-693.426	800.000	-0.068	-0.265
-692.412	-30.679	-0.352	-0.202
-691.397	-163.405	-0.229	-0.011
-690.383	-200.000	0.062	0.285
-689.368	-58.620	-0.206	-0.090
-688.354	-100.723	0.239	-0.060
-687.339	-91.550	-0.171	-0.049
-686.324	-185.229	0.011	0.000
-685.310	-200.000	-0.022	-0.130
-684.295	-27.854	-0.111	-0.065
-683.281	36.735	-0.136	0.121
-682.266	-200.000	-0.025	-0.168
-681.251	-158.332	-0.214	0.013
-680.237	518.796	0.066	0.156
-679.222	-76.062	-0.404	0.144
-678.208	-200.000	0.009	-0.146
-677.193	-200.000	-0.003	-0.499
-676.178	64.455	0.117	-0.119
-675.164	75.124	-0.063	-0.068
-674.149	-101.893	-0.225	0.055
-673.135	51.899	0.200	-0.193
-672.120	-81.080	-0.250	-0.084
-671.105	-118.994	-0.308	0.055
-670.091	64.739	0.136	0.139
-669.076	-110.173	-0.149	0.031
-668.062	-200.000	-0.009	-0.237
-667.047	-134.617	-0.382	-0.047
-666.032	-63.744	-0.110	0.045
-665.018	-116.616	-0.217	0.040
-664.003	-79.866	0.267	-0.091
-662.989	800.000	-0.079	-0.242
-661.974	-29.272	-0.237	-0.137
-660.959	7.921	-0.038	0.029
-659.945	58.319	0.034	0.034
-658.930	-200.000	0.010	-0.162
-657.916	76.679	-0.244	-0.261
-656.901	-105.088	-0.182	-0.042
-655.886	351.618	-0.149	-0.297
-654.872	-96.059	-0.220	-0.059
-653.857	52.890	0.258	-0.249
-652.843	203.387	-0.089	0.139
-651.828	448.347	0.127	-0.281
-650.814	-107.019	0.366	-0.082
-649.799	-150.135	-0.174	-0.014
-648.784	-145.193	-0.193	-0.018
-647.770	765.556	0.113	0.311
-646.755	164.668	-0.236	-0.336
-645.741	-158.060	-0.120	-0.007
-644.726	68.199	0.133	0.137
-643.711	0.041	0.139	-0.100
-642.697	33.265	-0.065	-0.057
-641.682	-200.000	0.064	-0.335
-640.668	-111.772	0.041	0.008
-639.653	376.193	0.023	0.048
-638.638	-200.000	0.037	0.299
-637.624	57.980	-0.117	0.116
-636.609	-80.363	-0.181	0.061
-635.595	-58.313	-0.457	0.201
-634.580	521.514	0.052	-0.122
-633.565	800.000	0.052	-0.157
-632.551	-105.666	-0.494	0.113
-631.536	175.328	-0.081	0.119
-630.522	269.845	0.053	-0.095
-629.507	71.073	-0.132	0.138
-628.492	-99.234	0.094	0.024
-627.478	72.619	-0.097	-0.102
-626.463	112.565	0.103	-0.125
-625.449	-200.000	-0.019	-0.098
-624.434	800.000	0.031	-0.116
-623.419	353.000	-0.157	-0.314
-622.405	-181.753	-0.079	-0.002
-621.390	303.744	-0.268	0.502
-620.376	-112.341	-0.312	-0.063
-619.361	669.807	0.116	0.302
-618.346	98.282	0.183	0.212
-617.332	-81.450	-0.108	-0.036
-616.317	332.879	-0.150	-0.292
-615.303	48.271	0.198	-0.187
-614.288	-102.819	0.167	0.040
-613.273	800.000	-0.148	-0.468
-612.259	-33.270	0.120	-0.067
-611.244	-200.000	0.037	-0.285
-610.230	-96.430	0.229	-0.061
-609.215	-166.955	-0.450	0.019
-608.201	34.769	-0.304	0.268
-607.186	800.000	-0.037	0.141
-606.171	-0.970	-0.090	0.064
-605.157	191.632	0.143	0.217
-604.142	-163.503	-0.358	-0.017
-603.128	18.848	-0.327	-0.264
-602.113	-64.297	-0.054	-0.022
-601.098	259.969	-0.091	-0.159
-600.084	-200.000	-0.012	-0.184
-599.069	-200.000	0.007	-0.061
-598.055	253.057	-0.164	-0.282
-597.040	-200.000	0.001	-0.029
-596.025	-75.079	-0.034	0.012
-595.011	-120.817	-0.134	-0.023
-593.996	-125.675	0.218	0.033
-592.982	-33.445	-0.065	0.036
-591.967	-200.000	0.003	0.077
-590.952	84.528	0.123	0.136
-589.938	-200.000	0.026	0.180
-588.923	120.125	-0.045	0.057
-587.909	-75.612	0.166	0.059
-586.894	214.320	0.061	0.097
-585.879	431.105	-0.084	-0.183
-584.865	123.478	-0.247	-0.312
-583.850	165.077	0.323	0.460
-582.836	-36.080	-0.448	0.244
-581.821	321.822	-0.013	0.024
-580.806	-200.000	-0.026	0.136
-579.792	127.567	0.165	0.211
-578.777	130.865	0.126	-0.163
-577.763	-60.790	-0.259	0.110
-576.748	800.000	-0.095	0.334
-575.733	-116.826	0.216	0.040
-574.719	-69.669	-0.029	0.011
-573.704	-24.221	0.100	0.060
-572.690	67.134	-0.100	0.102
-571.675	-200.000	-0.014	-0.187
-570.661	-200.000	-0.051	-0.249
-569.646	-81.199	-0.249	-0.083
-568.631	-1.434	-0.125	0.088
-567.617	360.864	-0.129	0.260
-566.602	623.430	0.090	-0.229
-565.588	800.000	-0.046	0.174
-564.573	207.495	0.057	-0.089
-563.558	-107.625	0.496	0.109
-562.544	-70.529	-0.234	0.089
-561.529	239.237	-0.243	-0.407
-560.515	-200.000	-0.009	0.175
-559.500	52.497	0.164	0.158
-558.485	68.090	-0.186	-0.192
-557.471	17.848	0.036	0.029
-556.456	-139.152	-0.218	-0.024
-555.442	-200.000	0.005	0.040
-554.427	-156.294	-0.141	-0.009
-553.412	-200.000	0.048	0.321
-552.398	800.000	0.068	0.197
-551.383	-26.717	0.384	0.226
-550.369	7.415	-0.153	-0.115
-549.354	-55.030	-0.251	0.114
-548.339	64.355	-0.076	0.077
-547.325	800.000	-0.088	-0.251
-546.310	800.000	-0.097	-0.308
-545.296	-200.000	-0.037	0.180
-544.281	-200.000	-0.042	-0.211
-543.266	30.011	0.145	-0.124
-542.252	-2.229	0.135	0.095
-541.237	-200.000	-0.033	0.383
-540.223	800.000	0.042	-0.152
-539.208	-200.000	0.045	0.272
-538.193	117.657	0.048	-0.059
-537.179	195.615	0.061	-0.093
-536.164	3.971	-0.108	0.080
-535.150	7.212	0.022	0.016
-534.135	-200.000	0.010	-0.200
-533.121	17.850	0.147	0.118
-532.106	166.688	-0.155	-0.221
-531.091	-172.131	0.182	0.006
-530.077	-76.765	-0.400	0.141
-529.062	-44.267	0.221	-0.111
-528.048	-92.763	0.506	0.142
-527.033	240.017	0.090	0.151
-526.018	706.471	-0.083	0.221
-525.004	3.032	-0.338	-0.247
-523.989	-87.180	0.341	0.104
-522.975	76.783	-0.182	-0.194
-521.960	50.999	0.268	0.255
-520.945	41.978	-0.239	0.218
-519.931	-54.264	0.335	-0.153
-518.916	186.366	0.143	-0.213
-517.902	-61.834	-0.062	-0.026
-516.887	281.152	-0.058	-0.105
-515.872	-62.209	-0.261	-0.109
-514.858	-138.587	-0.115	-0.013
-513.843	327.668	0.064	-0.124
-512.829	227.563	-0.076	-0.124
-511.814	-3.874	-0.037	-0.025
-510.799	90.126	0.094	-0.106
-509.785	-100.224	-0.186	-0.047
-508.770	-200.000	-0.014	-0.085
-507.756	-200.000	-0.033	-0.191
-506.741	572.927	-0.181	-0.444
-505.726	-83.002	-0.309	-0.100
-504.712	-77.999	0.080	0.028
-503.697	-51.400	-0.133	-0.062
-502.683	9.216	0.209	0.159
-501.668	81.804	-0.032	0.034
-500.653	227.689	0.007	-0.012
-499.639	-97.299	-0.114	-0.030
-498.624	-54.206	-0.458	0.209
-497.610	-58.138	-0.103	0.045
-496.595	-110.009	-0.312	0.066
-495.581	-200.000	0.018	0.088
-494.566	-43.215	-0.195	-0.099
-493.551	-200.000	-0.074	-0.326
-492.537	-41.977	0.260	0.134
-491.522	-200.000	0.025	-0.301
-490.508	652.956	0.127	-0.328
-489.493	86.937	0.133	0.147
-488.478	106.333	-0.136	-0.162
-487.464	-70.619	-0.329	-0.125
-486.449	326.105	-0.046	-0.088
-485.435	-200.000	-0.016	0.214
-484.420	-148.405	-0.273	-0.022
-483.405	11.697	-0.093	0.072
-482.391	68.503	0.187	-0.192
-481.376	-107.584	0.107	-0.023
-480.362	800.000	-0.036	-0.117
-479.347	-200.000	0.034	0.357
-478.332	-200.000	-0.001	0.050
-477.318	-125.701	0.250	-0.038
-476.303	370.116	-0.049	-0.100
-475.289	154.680	-0.106	0.146
-474.274	127.420	-0.119	0.152
-473.259	-71.101	0.160	0.060
-472.245	68.338	-0.040	0.041
-471.230	250.007	-0.241	0.410
-470.216	-162.160	0.290	-0.015
-469.201	-123.943	-0.151	0.024
-468.186	800.000	0.020	-0.074
-467.172	-118.831	0.074	-0.013
-466.157	-133.265	0.147	-0.019
-465.143	-200.000	-0.021	0.117
-464.128	-37.883	-0.126	0.067
-463.113	-71.757	-0.311	0.116
-462.099	800.000	-0.035	0.114
-461.084	578.220	0.117	-0.286
-460.070	73.255	0.190	-0.199
-459.055	-185.490	0.273	0.004
-458.040	11.421	0.128	0.098
-457.026	580.591	-0.035	-0.087
-456.011	139.362	0.161	-0.212
-454.997	-162.378	0.272	0.014
-453.982	-69.561	-0.131	-0.050
-452.968	-81.685	0.161	0.053
-451.953	-47.846	0.200	-0.097
-450.938	75.581	0.111	-0.118
-449.924	-200.000	0.012	-0.177
-448.909	14.504	0.091	-0.071
-447.895	-99.377	0.100	-0.025
-446.880	-200.000	-0.018	-0.277
-445.865	-105.930	-0.228	0.052
-444.851	273.973	0.196	-0.346
-443.836	-88.437	-0.157	0.047
-442.822	-76.785	0.107	-0.037
-441.807	-28.092	0.163	-0.094
-440.792	5.744	-0.072	-0.053
-439.778	197.304	0.047	-0.072
-438.763	800.000	-0.023	0.071
-437.749	-90.272	-0.306	0.089
-436.734	800.000	0.050	-0.163
-435.719	-94.904	-0.169	0.046
-434.705	800.000	-0.027	0.080
-433.690	129.799	0.147	0.188
-432.676	-115.755	0.282	-0.053
-431.661	154.874	-0.140	-0.192
-430.646	308.759	0.133	-0.248
-429.632	-44.817	-0.345	0.172
-428.617	406.381	-0.115	0.244
-427.603	800.000	0.062	0.248
-426.588	35.244	-0.092	0.081
-425.573	62.989	0.132	-0.132
-424.559	333.820	-0.023	0.045
-423.544	22.525	0.232	-0.190
-422.530	-37.117	-0.099	0.053
-421.515	800.000	-0.023	-0.077
-420.500	-16.741	0.218	-0.138
-419.486	42.672	0.210	0.191
-418.471	-200.000	-0.007	-0.265
-417.457	148.472	0.144	0.195
-416.442	-19.133	0.408	0.254
-415.428	-200.000	-0.017	-0.244
-414.413	14.481	0.164	-0.128
-413.398	-73.963	-0.376	-0.137
-412.384	-200.000	-0.133	0.000
-411.369	626.331	-0.040	0.102
-410.355	800.000	-0.037	-0.139
-409.340	-82.596	-0.283	-0.092
-408.325	540.356	0.129	0.308
-407.311	-200.000	0.005	0.141
-406.296	800.000	-0.063	0.234
-405.282	-72.733	0.288	-0.106
-404.267	97.574	0.192	0.221
-403.252	800.000	-0.006	0.023
-402.238	-140.586	-0.341	-0.035
-401.223	-46.397	0.249	-0.122
-400.209	-104.676	-0.319	0.073
-399.194	-200.000	0.034	0.430
-398.179	63.734	-0.115	-0.116
-397.165	-86.731	0.251	-0.077
-396.150	800.000	0.021	0.060
-395.136	-200.000	-0.040	-0.198
-394.121	-53.152	0.124	-0.057
-393.106	-37.807	-0.418	-0.222
-392.092	4.368	-0.281	0.206
-391.077	178.256	-0.228	-0.332
-390.063	-200.000	-0.007	0.037
-389.048	157.289	0.138	0.191
-388.033	-90.987	-0.378	0.109
-387.019	-200.000	0.058	-0.385
-386.004	-47.655	-0.332	-0.161
-384.990	-41.662	0.262	0.135
-383.975	-50.423	0.073	-0.034
-382.960	-110.886	0.115	0.024
-381.946	800.000	-0.014	-0.043
-380.931	127.075	0.152	-0.193
-379.917	-43.733	0.245	0.123
-378.902	-3.077	-0.025	0.017
-377.888	99.974	0.156	0.180
-376.873	-1.631	-0.047	0.033
-375.858	-80.702	0.450	0.150
-374.844	-21.883	-0.365	0.222
-373.829	-35.648	-0.243	0.132
-372.815	31.754	0.022	0.019
-371.800	800.000	-0.051	0.162
-370.785	-127.466	-0.369	-0.054
-369.771	114.354	0.193	-0.234
-368.756	-197.507	-0.223	-0.001
-367.742	-200.000	0.067	-0.305
-366.727	-133.695	-0.101	-0.013
-365.712	-8.394	0.196	0.132
-364.698	-66.176	-0.308	0.122
-363.683	-200.000	-0.001	0.248
-362.669	510.344	0.043	-0.101
-361.654	800.000	0.138	-0.394
-360.639	547.753	-0.060	-0.142
-359.625	577.340	-0.110	0.269
-358.610	-127.051	0.355	-0.052
-357.596	47.007	0.147	0.137
-356.581	-53.355	0.225	0.103
-355.566	-59.244	0.047	-0.020
-354.552	316.720	0.092	0.174
-353.537	-200.000	0.003	0.203
-352.523	-57.293	0.286	-0.126
-351.508	78.792	0.159	-0.170
-350.493	-200.000	-0.040	-0.183
-349.479	88.336	0.295	-0.327
-348.464	107.064	-0.087	0.104
-347.450	138.111	-0.043	0.056
-346.435	-111.165	0.187	-0.038
-345.420	-19.530	0.046	0.028
-344.406	-163.236	-0.236	-0.011
-343.391	607.561	0.072	0.180
-342.377	800.000	0.045	-0.145
-341.362	7.339	-0.153	0.114
-340.348	501.564	-0.059	0.136
-339.333	800.000	-0.072	0.291
-338.318	-7.905	0.234	0.158
-337.304	-29.858	0.068	-0.038
-336.289	160.326	-0.168	0.233
-335.275	371.301	0.118	0.238
-334.260	505.836	0.136	0.314
-333.245	150.459	0.028	0.038
-332.231	208.854	-0.071	-0.111
-331.216	-95.445	0.203	-0.054
-330.202	51.583	0.136	0.129
-329.187	-200.000	-0.003	0.317
-328.172	-59.733	0.224	-0.096
-327.158	-38.655	0.091	-0.048
-326.143	415.269	-0.083	0.177
-325.129	197.475	0.108	-0.164
-324.114	-200.000	0.270	0.000
-323.099	-200.000	0.003	-0.147
-322.085	-37.237	0.168	0.090
-321.070	-200.000	0.001	-0.160
-320.056	492.937	0.101	-0.231
-319.041	177.698	-0.237	-0.344
-318.026	-63.279	-0.271	-0.111
-317.012	800.000	-0.130	0.402
-315.997	75.603	-0.106	0.111
-314.983	247.193	0.040	0.066
-313.968	-40.192	-0.166	-0.086
-312.953	-79.776	0.193	-0.065
-311.939	68.183	-0.105	0.107
-310.924	126.436	0.223	0.281
-309.910	800.000	0.103	-0.319
-308.895	10.738	-0.237	-0.180
-307.880	800.000	-0.024	-0.072
-306.866	0.403	0.074	0.052
-305.851	52.226	-0.064	0.061
-304.837	361.887	-0.142	0.283
-303.822	-111.606	0.291	-0.059
-302.807	417.096	-0.095	0.202
-301.793	-200.000	-0.065	0.286
-300.778	140.413	0.031	-0.041
-299.764	-53.783	-0.311	0.141
-298.749	-45.491	-0.179	-0.088
-297.735	800.000	0.095	0.264
-296.720	32.001	0.446	-0.383
-295.705	285.015	0.052	-0.092
-294.691	800.000	0.123	0.344
-293.676	98.147	0.107	-0.123
-292.662	-200.000	0.078	-0.600
-291.647	228.637	0.054	-0.087
-290.632	81.631	0.055	0.060
-289.618	34.669	0.114	0.099
-288.603	-76.311	0.427	0.150
-287.589	-87.446	-0.103	0.031
-286.574	800.000	0.042	0.179
-285.559	27.543	-0.143	0.120
-284.545	-51.133	-0.092	0.043
-283.530	-0.969	-0.328	0.231
-282.516	-53.705	0.218	-0.099
-281.501	-41.993	0.047	-0.024
-280.486	800.000	0.050	0.167
-279.472	800.000	0.061	0.197
-278.457	42.762	0.040	0.036
-277.443	45.023	0.197	0.180
-276.428	238.347	0.036	0.060
-275.413	-200.000	-0.016	0.146
-274.399	31.955	-0.211	-0.180
-273.384	-119.422	0.156	0.027
-272.370	-77.625	0.111	0.038
-271.355	-200.000	-0.013	-0.275
-270.340	283.215	-0.020	-0.036
-269.326	34.215	-0.122	0.105
-268.311	-0.535	0.112	0.079
-267.297	-200.000	-0.023	0.107
-266.282	88.360	-0.147	-0.162
-265.267	297.011	0.137	0.250
-264.253	133.575	-0.203	-0.261
-263.238	85.960	-0.066	-0.072
-262.224	583.496	-0.047	-0.115
-261.209	-141.348	0.351	0.035
-260.195	-200.000	0.047	0.213
-259.180	221.100	-0.032	-0.051
-258.165	125.502	-0.168	-0.211
-257.151	-200.000	0.031	0.159
-256.136	-90.448	0.234	0.067
-255.122	-136.604	-0.153	-0.018
-254.107	42.555	0.046	-0.042
-253.092	105.436	0.117	0.137
-252.078	487.467	0.018	-0.042
-251.063	800.000	-0.101	-0.399
-250.049	-57.234	0.319	0.139
-249.034	-57.095	0.223	-0.097
-248.019	-200.000	-0.014	0.172
-247.005	-23.418	0.409	-0.244
-245.990	442.569	-0.105	-0.229
-244.976	193.466	0.329	0.495
-243.961	-200.000	0.020	-0.330
-242.946	445.587	-0.096	0.209
-241.932	-27.648	0.235	0.135
-240.917	114.686	-0.142	-0.172
-239.903	-53.528	0.293	-0.133
-238.888	354.295	-0.049	-0.096
-237.873	9.688	-0.139	-0.105
-236.859	-200.000	0.008	-0.034
-235.844	746.033	0.064	-0.171
-234.830	125.583	0.186	-0.233
-233.815	139.880	0.144	0.189
-232.800	183.278	-0.072	-0.106
-231.786	-200.000	-0.006	-0.049
-230.771	169.478	-0.083	-0.118
-229.757	800.000	0.057	-0.206
-228.742	-53.485	-0.311	0.142
-227.727	223.415	0.094	0.151
-226.713	-200.000	-0.007	0.254
-225.698	-43.504	0.325	0.163
-224.684	800.000	-0.133	0.438
-223.669	74.675	-0.061	-0.063
-222.655	358.086	-0.059	0.117
-221.640	-30.815	0.085	-0.048
-220.625	-46.600	-0.334	0.162
-219.611	84.149	0.074	-0.081
-218.596	318.384	-0.201	0.379
-217.582	800.000	0.096	0.412
-216.567	28.302	0.192	0.161
-215.552	-98.621	-0.192	0.049
-214.538	199.145	0.064	-0.097
-213.523	3.266	0.080	0.058
-212.509	-84.100	0.072	-0.023
-211.494	535.399	-0.103	0.244
-210.479	215.446	-0.107	-0.169
-209.465	800.000	-0.138	0.440
-208.450	800.000	-0.059	0.241
-207.436	-72.331	-0.087	0.032
-206.421	533.014	-0.059	-0.138
-205.406	80.581	-0.117	-0.125
-204.392	-151.576	0.356	-0.026
-203.377	-200.000	0.010	-0.097
-202.363	244.498	0.156	-0.260
-201.348	-54.289	0.042	0.019
-200.333	43.456	-0.259	-0.235
-199.319	136.516	0.224	0.289
-198.304	211.318	-0.116	0.182
-197.290	-137.696	0.286	0.032
-196.275	228.442	-0.123	0.199
-195.260	-200.000	-0.008	-0.104
-194.246	352.744	0.106	-0.208
-193.231	-123.059	-0.069	-0.011
-192.217	-135.439	0.292	0.035
-191.202	283.706	-0.160	-0.285
-190.187	800.000	0.172	-0.510
-189.173	-127.280	-0.152	0.022
-188.158	-150.274	-0.376	-0.029
-187.144	39.186	-0.182	0.161
-186.129	-6.674	-0.122	-0.082
-185.114	400.928	-0.032	-0.067
-184.100	363.666	0.119	-0.237
-183.085	464.055	0.045	-0.101
-182.071	-41.509	-0.458	-0.234
-181.056	-45.609	-0.322	-0.158
-180.042	14.792	-0.236	-0.183
-179.027	125.623	0.131	-0.164
-178.012	437.118	0.043	-0.093
-176.998	-9.751	-0.214	-0.141
-175.983	0.236	0.175	0.124
-174.969	800.000	-0.023	0.096
-173.954	-65.304	0.281	0.112
-172.939	800.000	-0.119	0.472
-171.925	-200.000	0.002	0.115
-170.910	-200.000	0.005	0.045
-169.896	-87.526	0.120	-0.036
-168.881	287.991	-0.160	-0.287
-167.866	330.877	0.208	-0.398
-166.852	-48.223	0.409	0.195
-165.837	100.242	-0.092	-0.106
-164.823	-200.000	-0.010	-0.079
-163.808	6.836	0.358	0.264
-162.793	173.409	0.207	-0.296
-161.779	47.552	0.084	-0.078
-160.764	-120.073	0.497	-0.084
-159.750	149.746	-0.100	-0.134
-158.735	-200.000	0.045	-0.246
-157.720	30.130	-0.150	-0.127
-156.706	178.780	0.032	0.046
-155.691	-39.344	0.264	0.137
-154.677	217.294	-0.071	0.112
-153.662	777.476	0.046	-0.126
-152.647	-136.860	-0.117	-0.013
-151.633	798.118	0.056	0.153
-150.618	-200.000	0.028	-0.233
-149.604	-122.267	0.251	0.041
-148.589	-200.000	0.010	0.151
-147.574	-117.279	0.302	0.054
-146.560	588.849	-0.104	0.254
-145.545	-65.547	0.328	-0.130
-144.531	-107.545	0.136	0.029
-143.516	800.000	-0.055	-0.218
-142.502	-200.000	-0.015	-0.193
-141.487	800.000	-0.037	0.130
-140.472	249.637	0.121	-0.203
-139.458	352.925	-0.232	0.456
-138.443	-101.099	-0.546	0.132
-137.429	-50.406	0.240	-0.112
-136.414	-200.000	-0.038	0.321
-135.399	155.283	-0.069	0.094
-134.385	800.000	0.052	-0.176
-133.370	311.704	-0.085	-0.158
-132.356	800.000	0.039	-0.140
-131.341	-36.795	-0.248	0.132
-130.326	-200.000	0.031	0.143
-129.312	333.577	0.136	-0.261
-128.297	-176.502	0.115	-0.003
-127.283	610.702	0.059	-0.146
-126.268	-74.439	-0.458	0.163
-125.253	-58.691	-0.104	-0.044
-124.239	-129.962	0.070	-0.009
-123.224	800.000	0.072	0.290
-122.210	-95.040	0.349	-0.093
-121.195	392.127	-0.090	-0.185
