DTS Sentinel unit serial number:	SN413079Multiplexer serial number:	ORYXHardware model number:	OX4-SRSoftware version number:	ORYX F/W v4.00 Oryx Data Collector v3.7.2.0data status	okinstallation	princeton_trtdifferential loss correction	single-endedforward channel	channel 2reverse channel	N/Adate	2019/09/16time	16:55:35forward acquisition time	60.00reverse acquisition time	0.00gamma	496.2192k internal	0.2306k external	0.2306temperature offset calibration	0.9942default loss term (dB/km)	0.3790temperature slope calibration	1.0000multiplexer offset coefficient	1.0000multiplexer slope coefficient	1.0000fibre end	0.00T internal ref (°C)	39.44T ext. ref 1 (°C)	15.25T ext. ref 2 (°C)	33.74length (m)	temperature (°C)	Stokes	anti-Stokes-747.200	800.000	-0.116	-0.427
-746.185	279.298	-0.102	0.185
-745.171	-152.561	0.198	-0.014
-744.156	288.831	-0.246	0.454
-743.142	31.019	-0.087	0.076
-742.127	-110.918	-0.398	0.083
-741.112	35.658	-0.108	-0.097
-740.098	800.000	0.070	-0.248
-739.083	-200.000	0.046	0.415
-738.069	172.286	0.245	0.358
-737.054	-200.000	0.021	-0.207
-736.039	354.121	0.080	-0.162
-735.025	157.990	0.152	0.214
-734.010	11.857	-0.126	-0.099
-732.996	800.000	-0.110	-0.316
-731.981	-42.625	0.344	0.178
-730.966	-108.930	0.405	0.088
-729.952	-19.299	0.121	0.076
-728.937	8.141	-0.079	0.061
-727.923	-23.730	-0.119	-0.072
-726.908	800.000	-0.017	-0.071
-725.894	-195.884	-0.229	0.002
-724.879	-46.892	-0.297	0.147
-723.864	-59.610	-0.121	-0.053
-722.850	58.108	0.056	0.056
-721.835	-164.407	0.127	-0.006
-720.821	357.532	0.178	-0.362
-719.806	-200.000	0.020	-0.342
-718.791	-200.000	-0.017	-0.143
-717.777	-200.000	0.021	0.178
-716.762	557.453	0.074	0.180
-715.748	259.160	0.196	-0.343
-714.733	20.290	-0.334	0.274
-713.718	583.800	-0.055	-0.138
-712.704	-200.000	0.003	-0.147
-711.689	481.361	-0.068	-0.157
-710.675	-200.000	0.065	0.398
-709.660	-200.000	0.025	0.536
-708.645	152.918	0.049	0.069
-707.631	44.993	-0.208	-0.194
-706.616	-47.394	0.256	-0.127
-705.602	-200.000	0.024	-0.225
-704.587	-200.000	0.004	0.112
-703.572	-47.446	-0.060	-0.030
-702.558	-200.000	-0.000	-0.133
-701.543	107.492	-0.036	-0.044
-700.529	-130.579	0.251	0.034
-699.514	-200.000	-0.063	0.386
-698.499	244.915	-0.162	0.276
-697.485	800.000	0.022	0.067
-696.470	-8.822	-0.192	-0.131
-695.456	-200.000	0.017	-0.105
-694.441	-72.021	-0.055	0.021
-693.426	-152.650	0.098	-0.007
-692.412	-56.533	0.257	0.116
-691.397	514.646	0.064	0.151
-690.383	-53.986	-0.193	0.089
-689.368	-55.024	-0.145	0.066
-688.354	390.188	0.045	0.094
-687.339	-30.437	0.182	0.105
-686.324	800.000	-0.069	-0.234
-685.310	-59.373	0.309	-0.135
-684.295	-116.503	0.205	0.038
-683.281	-80.731	-0.182	0.061
-682.266	-200.000	0.055	-0.278
-681.251	148.961	0.044	-0.060
-680.237	-66.445	0.346	-0.140
-679.222	-175.490	-0.146	0.004
-678.208	-53.916	-0.299	0.138
-677.193	-48.842	-0.190	-0.092
-676.178	-1.968	-0.173	0.123
-675.164	45.451	0.139	0.130
-674.149	141.505	0.072	-0.097
-673.135	154.308	-0.147	0.205
-672.120	-119.108	-0.092	-0.016
-671.105	114.950	-0.181	-0.224
-670.091	800.000	-0.078	-0.283
-669.076	-200.000	-0.060	-0.377
-668.062	341.556	-0.058	-0.116
-667.047	-82.727	-0.203	-0.067
-666.032	-18.367	-0.133	-0.084
-665.018	120.076	0.272	-0.343
-664.003	-44.317	-0.276	-0.140
-662.989	642.600	-0.043	0.112
-661.974	-53.020	-0.125	-0.058
-660.959	-200.000	0.058	-0.307
-659.945	-193.419	0.116	-0.001
-658.930	-37.916	0.101	0.054
-657.916	800.000	-0.063	0.220
-656.901	38.437	0.055	-0.050
-655.886	-17.401	0.139	-0.089
-654.872	-77.963	-0.082	-0.029
-653.857	-200.000	-0.054	-0.250
-652.843	151.618	0.061	-0.084
-651.828	13.579	-0.168	0.132
-650.814	58.022	-0.090	0.090
-649.799	-85.606	0.221	0.070
-648.784	800.000	0.085	-0.261
-647.770	81.303	-0.241	-0.264
-646.755	560.987	0.079	-0.193
-645.741	-155.827	-0.066	-0.004
-644.726	800.000	-0.041	-0.151
-643.711	451.854	0.039	-0.087
-642.697	-190.715	0.264	0.003
-641.682	-37.846	-0.092	-0.050
-640.668	31.306	0.027	-0.023
-639.653	617.054	0.182	-0.462
-638.638	-200.000	0.013	0.302
-637.624	-138.558	-0.155	0.017
-636.609	301.802	-0.143	0.267
-635.595	-105.323	0.060	-0.014
-634.580	691.076	0.028	-0.075
-633.565	-9.676	0.155	-0.105
-632.551	15.967	-0.178	0.142
-631.536	7.757	-0.191	0.145
-630.522	-55.967	0.186	-0.084
-629.507	160.237	0.093	-0.131
-628.492	36.314	-0.143	-0.127
-627.478	168.281	0.082	-0.119
-626.463	-200.000	-0.036	-0.277
-625.449	-9.719	-0.379	0.255
-624.434	91.362	0.171	-0.195
-623.419	-90.414	-0.224	-0.066
-622.405	54.750	0.066	0.064
-621.390	-200.000	0.004	-0.154
-620.376	-66.184	-0.204	0.082
-619.361	-200.000	-0.043	-0.231
-618.346	109.420	-0.079	0.095
-617.332	-200.000	0.043	0.257
-616.317	800.000	-0.113	-0.319
-615.303	-64.313	-0.199	0.082
-614.288	481.692	0.097	-0.223
-613.273	89.145	0.145	0.164
-612.259	111.840	-0.119	-0.145
-611.244	389.832	0.134	-0.281
-610.230	731.443	0.092	0.249
-609.215	-71.091	-0.122	-0.046
-608.201	67.737	-0.036	-0.037
-607.186	77.631	-0.311	-0.335
-606.171	800.000	0.092	-0.268
-605.157	307.446	0.059	0.111
-604.142	4.195	-0.114	0.085
-603.128	-200.000	-0.014	-0.139
-602.113	-61.357	-0.422	-0.179
-601.098	-200.000	0.017	-0.120
-600.084	-0.003	0.237	0.171
-599.069	74.925	0.049	0.052
-598.055	800.000	-0.015	-0.065
-597.040	64.577	-0.088	0.090
-596.025	152.942	0.128	0.177
-595.011	-126.167	-0.105	-0.016
-593.996	265.760	-0.123	-0.217
-592.982	-59.293	0.340	0.148
-591.967	-151.800	-0.196	-0.015
-590.952	181.314	0.004	0.007
-589.938	-126.224	0.229	0.035
-588.923	-200.000	0.022	-0.138
-587.909	-200.000	0.002	0.030
-586.894	110.495	0.156	-0.190
-585.879	166.017	-0.032	0.046
-584.865	-200.000	0.021	-0.187
-583.850	-82.209	-0.179	0.059
-582.836	-200.000	0.001	0.050
-581.821	-101.501	0.292	0.072
-580.806	243.680	-0.093	-0.158
-579.792	206.465	0.212	-0.334
-578.777	-46.688	-0.070	-0.035
-577.763	-17.669	0.221	0.140
-576.748	-96.452	0.117	-0.031
-575.733	-143.568	0.277	0.027
-574.719	114.576	-0.163	-0.201
-573.704	20.202	-0.284	0.231
-572.690	17.138	0.139	-0.111
-571.675	-65.459	-0.082	0.033
-570.661	800.000	0.044	0.155
-569.646	51.885	-0.205	0.197
-568.631	-119.603	0.250	-0.044
-567.617	168.578	-0.197	-0.284
-566.602	-183.038	0.239	-0.004
-565.588	13.280	0.134	0.105
-564.573	-114.667	-0.138	-0.027
-563.558	-147.578	-0.046	0.004
-562.544	398.207	0.236	0.499
-561.529	278.222	-0.051	0.092
-560.515	403.741	-0.139	0.296
-559.500	-200.000	0.097	-0.622
-558.485	-64.915	-0.261	-0.107
-557.471	359.086	0.063	-0.128
-556.456	-35.147	-0.255	0.140
-555.442	-136.752	0.181	-0.021
-554.427	-9.810	0.098	-0.066
-553.412	12.071	0.147	-0.114
-552.398	136.713	-0.129	-0.171
-551.383	21.954	0.090	-0.074
-550.369	-200.000	0.005	0.131
-549.354	125.781	-0.234	0.298
-548.339	-80.325	-0.098	0.033
-547.325	-94.814	-0.171	0.047
-546.310	-200.000	0.009	-0.098
-545.296	-200.000	0.068	0.302
-544.281	-94.475	0.200	-0.055
-543.266	-123.889	0.353	-0.056
-542.252	-158.722	-0.179	-0.010
-541.237	-177.753	0.141	0.003
-540.223	8.339	-0.139	0.105
-539.208	-61.370	-0.113	0.048
-538.193	800.000	-0.050	-0.156
-537.179	279.756	0.056	-0.100
-536.164	-17.060	0.135	-0.086
-535.150	-200.000	-0.033	-0.341
-534.135	13.583	-0.214	0.168
-533.121	-200.000	-0.010	-0.325
-532.106	-103.892	0.270	0.064
-531.091	48.601	-0.182	0.172
-530.077	264.048	-0.086	-0.151
-529.062	600.705	-0.091	-0.228
-528.048	-200.000	0.042	0.249
-527.033	-95.889	-0.147	0.040
-526.018	800.000	0.059	-0.175
-525.004	507.374	0.080	-0.188
-523.989	166.924	0.146	-0.209
-522.975	-96.930	-0.151	0.040
-521.960	771.924	0.071	-0.196
-520.945	-179.779	-0.354	-0.008
-519.931	-146.902	0.222	-0.019
-518.916	-200.000	-0.008	0.204
-517.902	-143.725	-0.310	0.030
-516.887	252.692	0.090	-0.155
-515.872	-126.844	-0.130	-0.019
-514.858	-159.589	-0.257	-0.014
-513.843	-200.000	-0.022	-0.109
-512.829	715.734	-0.065	-0.174
-511.814	304.305	0.152	-0.285
-510.799	-110.118	-0.222	-0.047
-509.785	-200.000	-0.018	0.120
-508.770	-91.277	0.127	-0.037
-507.756	-112.086	0.154	-0.031
-506.741	88.348	0.105	-0.118
-505.726	-7.839	-0.147	-0.100
-504.712	-200.000	-0.022	-0.153
-503.697	8.784	0.086	0.065
-502.683	206.906	-0.136	-0.214
-501.668	591.158	-0.076	0.190
-500.653	-70.437	0.266	-0.102
-499.639	-148.170	0.180	-0.015
-498.624	83.727	0.095	0.105
-497.610	64.720	0.346	0.351
-496.595	-155.613	-0.117	-0.008
-495.581	59.217	0.221	-0.219
-494.566	1.266	0.054	0.039
-493.551	59.320	-0.141	0.140
-492.537	-169.186	-0.136	0.005
-491.522	-166.066	-0.259	-0.011
-490.508	-121.776	-0.247	0.041
-489.493	-200.000	0.029	0.174
-488.478	638.765	-0.086	0.221
-487.464	-132.434	-0.064	-0.008
-486.449	162.673	0.181	0.256
-485.435	-39.554	0.250	0.132
-484.420	-200.000	0.015	-0.139
-483.405	-98.405	-0.212	-0.055
-482.391	150.327	-0.066	-0.090
-481.376	236.999	0.005	-0.009
-480.362	-161.236	0.148	0.008
-479.347	97.061	0.130	0.150
-478.332	-129.470	-0.182	0.025
-477.318	-71.240	0.091	-0.034
-476.303	-31.481	0.362	-0.205
-475.289	257.714	-0.098	0.170
-474.274	-5.354	0.073	-0.050
-473.259	23.217	0.097	0.080
-472.245	25.299	-0.143	0.120
-471.230	800.000	0.069	-0.229
-470.216	377.507	0.200	-0.412
-469.201	-200.000	-0.053	-0.373
-468.186	-24.728	-0.193	-0.116
-467.172	-46.062	-0.158	-0.078
-466.157	-152.107	-0.319	0.023
-465.143	-86.516	0.024	-0.008
-464.128	-200.000	0.054	0.339
-463.113	20.864	-0.185	-0.151
-462.099	-46.066	-0.214	-0.106
-461.084	47.295	0.182	-0.170
-460.070	53.855	0.194	-0.188
-459.055	-3.179	0.249	0.174
-458.040	-21.022	-0.325	-0.200
-457.026	28.992	0.248	0.212
-456.011	-200.000	-0.037	-0.272
-454.997	463.332	-0.107	-0.241
-453.982	124.175	-0.183	-0.232
-452.968	-200.000	-0.014	-0.098
-451.953	800.000	-0.068	0.201
-450.938	-130.378	-0.155	0.021
-449.924	75.086	0.120	-0.127
-448.909	800.000	-0.096	0.282
-447.895	-200.000	-0.002	0.089
-446.880	-21.970	0.125	0.076
-445.865	-66.392	-0.261	0.104
-444.851	-51.677	-0.504	-0.236
-443.836	-200.000	-0.020	0.139
-442.822	-200.000	0.020	0.198
-441.807	29.296	0.201	-0.172
-440.792	81.940	-0.125	0.136
-439.778	20.943	-0.159	0.129
-438.763	-6.305	0.046	0.032
-437.749	509.602	0.082	0.192
-436.734	-90.555	-0.274	-0.080
-435.719	800.000	-0.044	-0.160
-434.705	50.569	-0.158	0.150
-433.690	-62.445	-0.288	0.120
-432.676	-200.000	-0.062	-0.283
-431.661	-54.560	-0.205	0.093
-430.646	119.951	0.148	-0.184
-429.632	-30.776	-0.229	-0.130
-428.617	800.000	-0.059	0.217
-427.603	-200.000	0.017	-0.172
-426.588	-15.961	0.095	0.061
-425.573	-131.062	-0.345	0.046
-424.559	-45.882	-0.130	0.065
-423.544	-42.818	-0.019	0.010
-422.530	232.821	-0.203	0.336
-421.515	-150.542	0.112	0.009
-420.500	-200.000	0.017	-0.324
-419.486	-89.791	0.303	-0.089
-418.471	-161.572	0.190	-0.010
-417.457	120.779	0.124	-0.155
-416.442	150.137	0.171	0.232
-415.428	-200.000	-0.016	0.137
-414.413	-189.074	0.270	-0.003
-413.398	-3.204	-0.323	0.226
-412.384	725.388	-0.047	-0.126
-411.369	-200.000	-0.006	-0.135
-410.355	-200.000	-0.026	-0.342
-409.340	157.993	-0.081	-0.113
-408.325	-164.562	0.114	-0.005
-407.311	800.000	0.079	-0.325
-406.296	-200.000	0.034	0.163
-405.282	-100.840	-0.359	0.089
-404.267	-123.638	0.069	0.011
-403.252	-200.000	-0.016	0.232
-402.238	1.506	0.302	0.218
-401.223	800.000	-0.072	0.271
-400.209	-200.000	0.000	-0.093
-399.194	-200.000	-0.043	0.395
-398.179	-159.313	-0.180	0.010
-397.165	554.625	-0.127	-0.307
-396.150	87.932	-0.176	-0.196
-395.136	-105.792	0.065	0.015
-394.121	-200.000	0.041	0.269
-393.106	312.600	-0.230	0.433
-392.092	800.000	0.034	0.126
-391.077	302.351	0.058	0.107
-390.063	-200.000	-0.001	0.054
-389.048	-8.813	-0.435	0.293
-388.033	247.066	0.123	0.208
-387.019	617.773	0.065	0.163
-386.004	-112.749	-0.239	0.048
-384.990	-200.000	-0.033	0.193
-383.975	317.685	-0.039	-0.074
-382.960	-103.415	-0.292	-0.069
-381.946	-134.085	0.141	-0.018
-380.931	664.269	-0.157	-0.407
-379.917	-200.000	-0.005	0.022
-378.902	267.586	-0.050	0.089
-377.888	-109.248	0.230	-0.049
-376.873	73.538	-0.082	0.086
-375.858	49.857	-0.145	0.137
-374.844	529.116	0.014	-0.034
-373.829	-30.578	0.280	0.159
-372.815	-200.000	0.010	-0.110
-371.800	191.470	-0.154	-0.232
-370.785	-200.000	0.028	-0.179
-369.771	-200.000	-0.020	-0.358
-368.756	-31.437	-0.116	0.065
-367.742	35.698	0.192	-0.169
-366.727	-14.126	0.011	0.007
-365.712	183.565	0.218	0.323
-364.698	78.330	0.100	-0.107
-363.683	624.387	-0.102	0.257
-362.669	156.205	0.192	0.266
-361.654	-44.785	-0.162	0.081
-360.639	800.000	0.070	0.300
-359.625	-58.721	-0.104	0.045
-358.610	505.039	-0.035	-0.081
-357.596	-50.817	0.127	-0.060
-356.581	643.076	0.138	-0.352
-355.566	53.826	-0.104	0.100
-354.552	-200.000	-0.032	-0.255
-353.537	-200.000	0.043	0.203
-352.523	-41.284	0.261	0.135
-351.508	37.607	-0.068	-0.060
-350.493	510.475	0.039	0.091
-349.479	92.374	-0.135	0.153
-348.464	118.877	-0.067	-0.083
-347.450	37.915	-0.182	-0.162
-346.435	-46.335	0.143	-0.070
-345.420	-90.619	-0.113	-0.033
-344.406	-27.226	0.166	0.097
-343.391	-0.954	0.379	0.268
-342.377	-61.664	-0.120	-0.050
-341.362	-59.106	0.341	0.147
-340.348	371.913	-0.089	0.181
-339.333	60.213	0.194	0.192
-338.318	-31.764	0.140	0.078
-337.304	800.000	0.089	-0.296
-336.289	-39.225	0.260	0.137
-335.275	125.714	0.160	0.202
-334.260	-97.733	0.262	-0.068
-333.245	800.000	0.055	0.162
-332.231	40.812	0.350	0.316
-331.216	-200.000	0.040	-0.374
-330.202	-200.000	0.011	-0.103
-329.187	51.854	-0.092	0.088
-328.172	102.460	-0.118	-0.138
-327.158	328.569	-0.053	-0.103
-326.143	24.325	-0.057	-0.047
-325.129	442.145	0.195	0.428
-324.114	257.205	-0.102	0.175
-323.099	-200.000	0.017	0.332
-322.085	-200.000	-0.029	0.286
-321.070	-161.042	0.202	0.011
-320.056	-109.143	-0.122	-0.026
-319.041	40.956	0.160	-0.144
-318.026	-103.172	0.528	-0.125
-317.012	86.175	-0.158	-0.174
-315.997	-133.779	0.049	0.006
-314.983	49.641	0.319	-0.301
-313.968	-200.000	0.006	-0.030
-312.953	-139.762	0.212	-0.023
-311.939	31.158	-0.163	0.140
-310.924	800.000	-0.118	0.378
-309.910	396.007	-0.162	0.339
-308.895	-138.582	-0.280	-0.031
-307.880	41.329	0.135	-0.122
-306.866	-123.814	0.447	-0.071
-305.851	-200.000	-0.019	0.139
-304.837	800.000	-0.030	-0.084
-303.822	-2.729	-0.244	0.171
-302.807	-109.674	0.342	-0.072
-301.793	-126.288	0.274	0.041
-300.778	43.139	-0.240	0.219
-299.764	-129.572	-0.390	-0.054
-298.749	-200.000	-0.014	0.143
-297.735	-113.732	0.146	-0.029
-296.720	-200.000	0.003	-0.089
-295.705	2.928	-0.115	0.083
-294.691	59.381	0.094	0.093
-293.676	323.075	-0.065	-0.124
-292.662	98.847	-0.076	0.088
-291.647	-98.752	0.265	0.067
-290.632	-60.276	-0.381	0.162
-289.618	-200.000	-0.008	0.056
-288.603	-61.440	-0.592	0.249
-287.589	-130.945	0.084	-0.011
-286.574	-12.963	0.247	-0.161
-285.559	-97.471	0.130	0.034
-284.545	649.471	-0.108	-0.276
-283.530	800.000	0.024	-0.073
-282.516	-36.438	-0.117	0.063
-281.501	383.126	-0.021	0.044
-280.486	-23.697	0.292	-0.175
-279.472	101.770	0.142	0.165
-278.457	-159.562	-0.236	0.013
-277.443	583.801	0.241	0.591
-276.428	71.187	-0.172	-0.178
-275.413	-0.105	0.064	0.046
-274.399	-0.581	0.349	0.248
-273.384	-50.279	0.206	0.098
-272.370	298.475	-0.115	0.212
-271.355	-53.760	0.332	0.151
-270.340	-51.973	0.187	-0.087
-269.326	95.145	0.119	-0.136
-268.311	800.000	-0.120	-0.405
-267.297	-32.552	-0.220	-0.123
-266.282	-200.000	0.001	0.257
-265.267	-154.622	0.120	-0.008
-264.253	-30.025	0.149	0.084
-263.238	-200.000	0.010	0.161
-262.224	-12.789	-0.153	-0.100
-261.209	-65.920	-0.164	0.065
-260.195	516.071	0.108	0.251
-259.180	374.740	-0.035	0.072
-258.165	-200.000	-0.031	0.172
-257.151	-31.533	-0.062	-0.035
-256.136	37.074	-0.184	-0.163
-255.122	-55.174	-0.096	-0.043
-254.107	565.586	-0.109	0.265
-253.092	144.718	-0.130	0.173
-252.078	-122.589	-0.296	-0.048
-251.063	347.566	-0.197	0.387
-250.049	405.199	-0.113	-0.238
-249.034	-19.892	-0.270	-0.167
-248.019	800.000	-0.069	-0.201
-247.005	-35.216	0.045	0.024
-245.990	101.119	0.168	-0.195
-244.976	29.907	-0.114	-0.097
-243.961	95.666	-0.217	0.247
-242.946	-137.113	-0.077	0.009
-241.932	609.172	-0.065	-0.161
-240.917	800.000	-0.026	-0.098
-239.903	-8.095	-0.106	-0.071
-238.888	-117.470	0.172	0.031
-237.873	-56.064	-0.031	0.014
-236.859	-200.000	-0.005	0.129
-235.844	800.000	0.048	0.141
-234.830	383.244	-0.100	0.205
-233.815	200.756	-0.017	-0.026
-232.800	-123.169	-0.265	0.042
-231.786	-104.423	0.124	-0.029
-230.771	-143.031	-0.197	-0.019
-229.757	800.000	-0.103	-0.385
-228.742	44.406	-0.137	-0.126
-227.727	-200.000	0.037	0.171
-226.713	-39.370	0.258	0.135
-225.698	-4.664	0.430	0.296
-224.684	507.849	0.042	0.097
-223.669	800.000	0.067	0.223
-222.655	-46.057	0.185	-0.091
-221.640	783.085	0.068	0.187
-220.625	117.402	0.082	0.101
-219.611	-98.528	0.234	0.060
-218.596	-11.179	0.181	0.119
-217.582	-180.998	-0.313	0.006
-216.567	800.000	-0.037	-0.130
-215.552	-105.330	-0.260	-0.059
-214.538	62.862	0.190	-0.189
-213.523	-81.394	0.140	0.046
-212.509	-137.775	-0.184	0.021
-211.494	800.000	-0.029	0.123
-210.479	-60.543	-0.186	-0.079
-209.465	-108.061	0.291	-0.063
-208.450	445.595	0.139	-0.303
-207.436	800.000	-0.041	0.135
-206.421	-200.000	-0.011	0.246
-205.406	35.926	-0.164	0.144
-204.392	-62.936	0.135	0.056
-203.377	-114.585	-0.393	-0.075
-202.363	20.142	-0.198	0.159
-201.348	-108.969	0.159	-0.034
-200.333	421.084	0.048	0.102
-199.319	231.269	-0.041	0.067
-198.304	-74.944	-0.184	0.066
-197.290	642.961	0.153	0.389
-196.275	-122.317	0.384	0.062
-195.260	800.000	0.096	0.341
-194.246	-200.000	0.045	0.229
-193.231	-77.616	0.042	0.014
-192.217	-89.813	0.126	-0.037
-191.202	-196.689	0.227	0.002
-190.187	-115.065	0.102	0.019
-189.173	109.370	0.177	-0.211
-188.158	800.000	0.066	0.210
-187.144	-200.000	0.042	-0.244
-186.129	65.425	0.192	-0.194
-185.114	-200.000	-0.023	0.140
-184.100	318.213	0.153	-0.289
-183.085	121.739	-0.137	0.170
-182.071	306.819	-0.162	-0.300
-181.056	-101.772	-0.186	-0.045
-180.042	-107.560	0.133	-0.029
-179.027	-200.000	-0.025	-0.146
-178.012	483.456	0.043	0.098
-176.998	320.557	-0.154	0.291
-175.983	-92.935	0.502	-0.139
-174.969	-141.849	0.009	0.001
-173.954	543.502	0.038	0.091
-172.939	-200.000	-0.049	-0.256
-171.925	82.873	0.192	-0.207
-170.910	-82.133	0.157	-0.051
-169.896	-141.717	0.272	-0.027
-168.881	119.643	-0.252	-0.311
-167.866	28.302	-0.314	0.264
-166.852	229.475	0.214	-0.348
-165.837	47.325	-0.174	-0.161
-164.823	-84.833	0.217	-0.068
-163.808	-200.000	-0.027	-0.268
-162.793	-100.557	-0.470	0.115
-161.779	-62.774	0.396	-0.163
-160.764	-16.431	-0.308	-0.194
-159.750	-200.000	0.036	0.219
-158.735	212.433	-0.159	-0.249
-157.720	-48.889	0.229	0.109
-156.706	800.000	-0.091	0.309
-155.691	45.756	0.223	-0.205
-154.677	-200.000	-0.024	-0.154
-153.662	800.000	-0.047	0.160
-152.647	176.734	0.186	-0.270
-151.633	132.298	0.053	-0.068
-150.618	-200.000	-0.195	0.001
-149.604	-87.764	0.037	-0.011
-148.589	108.869	-0.123	-0.146
-147.574	-20.880	0.288	-0.175
-146.560	-200.000	-0.010	-0.141
-145.545	-31.420	0.139	-0.078
-144.531	800.000	0.062	-0.203
-143.516	-105.488	-0.100	-0.023
-142.502	-37.927	0.128	0.068
-141.487	205.388	0.175	0.271
-140.472	12.553	0.148	-0.114
-139.458	53.011	-0.165	0.157
-138.443	-128.849	0.341	0.048
-137.429	77.619	0.137	-0.145
-136.414	12.061	-0.211	0.161
-135.399	-11.929	0.185	0.121
-134.385	192.161	-0.271	0.406
-133.370	-117.385	-0.244	-0.044
-132.356	-83.365	0.357	0.114
-131.341	-200.000	-0.026	0.143
-130.326	-25.311	-0.096	-0.056
-129.312	46.141	-0.105	0.096
-128.297	22.506	-0.242	-0.197
-127.283	-34.871	-0.238	0.129
-126.268	-45.069	0.237	-0.117
-125.253	-63.143	-0.211	0.086
-124.239	96.733	-0.151	-0.171
-123.224	-95.011	0.073	0.020
-122.210	-35.666	0.278	0.150
-121.195	44.099	0.284	0.259
