DTS Sentinel unit serial number:	SN413079Multiplexer serial number:	ORYXHardware model number:	OX4-SRSoftware version number:	ORYX F/W v4.00 Oryx Data Collector v3.7.2.0data status	okinstallation	princeton_trtdifferential loss correction	single-endedforward channel	channel 2reverse channel	N/Adate	2019/09/11time	14:05:11forward acquisition time	60.00reverse acquisition time	0.00gamma	496.2192k internal	0.2292k external	0.2292temperature offset calibration	1.0007default loss term (dB/km)	0.3790temperature slope calibration	1.0000multiplexer offset coefficient	1.0000multiplexer slope coefficient	1.0000fibre end	0.00T internal ref (°C)	41.87T ext. ref 1 (°C)	0.87T ext. ref 2 (°C)	35.99length (m)	temperature (°C)	Stokes	anti-Stokes-747.200	-7.660	-0.206	-0.143
-746.185	695.161	-0.050	0.135
-745.171	800.000	-0.042	0.139
-744.156	800.000	-0.146	0.495
-743.142	79.861	0.219	-0.241
-742.127	800.000	-0.050	0.149
-741.112	-74.767	0.194	-0.071
-740.098	62.320	0.080	-0.082
-739.083	18.607	0.171	0.140
-738.069	-200.000	-0.012	0.451
-737.054	63.981	-0.114	-0.117
-736.039	-107.971	-0.251	0.056
-735.025	81.213	0.238	-0.264
-734.010	-16.531	-0.206	-0.134
-732.996	-21.310	0.037	0.023
-731.981	62.324	-0.267	-0.272
-730.966	800.000	-0.063	0.265
-729.952	800.000	-0.054	0.159
-728.937	338.538	0.036	0.072
-727.923	366.994	-0.086	-0.178
-726.908	68.794	0.094	0.099
-725.894	-51.968	-0.234	0.111
-724.879	279.807	0.025	0.045
-723.864	155.193	-0.163	0.230
-722.850	138.870	-0.154	-0.206
-721.835	800.000	-0.049	-0.194
-720.821	800.000	-0.052	0.173
-719.806	260.724	-0.095	-0.167
-718.791	145.847	-0.463	-0.634
-717.777	224.612	0.019	0.031
-716.762	34.317	-0.087	0.077
-715.748	74.945	0.121	0.130
-714.733	-172.453	0.188	-0.006
-713.718	-17.448	0.071	-0.046
-712.704	8.235	-0.158	-0.122
-711.689	800.000	0.087	-0.380
-710.675	-122.935	-0.243	0.040
-709.660	-26.859	0.214	-0.128
-708.645	-127.524	-0.039	-0.006
-707.631	-46.205	0.248	0.125
-706.616	15.282	0.191	-0.153
-705.602	800.000	0.124	0.409
-704.587	41.976	0.073	-0.068
-703.572	12.841	-0.189	-0.149
-702.558	175.315	-0.176	-0.261
-701.543	42.017	0.160	-0.148
-700.529	-34.427	-0.202	0.113
-699.514	-200.000	-0.067	-0.343
-698.499	-200.000	-0.016	0.103
-697.485	-200.000	0.005	-0.104
-696.470	177.490	0.067	-0.100
-695.456	226.660	-0.072	-0.119
-694.441	-11.341	0.247	-0.166
-693.426	-67.927	-0.030	0.012
-692.412	490.412	0.039	0.091
-691.397	-77.387	-0.069	-0.025
-690.383	-196.104	-0.273	-0.002
-689.368	-152.017	-0.201	0.015
-688.354	-200.000	0.031	0.261
-687.339	-59.762	-0.196	-0.086
-686.324	-44.212	0.112	-0.057
-685.310	-200.000	-0.074	-0.355
-684.295	256.828	-0.075	-0.131
-683.281	-200.000	0.051	-0.264
-682.266	8.728	-0.068	-0.052
-681.251	79.408	0.128	-0.140
-680.237	-150.050	-0.377	0.030
-679.222	-64.352	-0.243	-0.101
-678.208	-93.181	-0.091	-0.026
-677.193	-200.000	0.021	-0.225
-676.178	-13.950	-0.119	0.079
-675.164	-16.408	-0.158	-0.102
-674.149	422.693	-0.120	-0.263
-673.135	10.145	-0.041	0.032
-672.120	-51.798	-0.288	0.137
-671.105	-81.602	-0.104	-0.035
-670.091	370.528	-0.035	-0.072
-669.076	4.996	-0.165	-0.124
-668.062	-150.815	0.351	-0.027
-667.047	-200.000	0.010	0.499
-666.032	108.761	-0.061	0.075
-665.018	-86.165	0.247	-0.078
-664.003	92.251	-0.083	-0.096
-662.989	368.981	0.043	-0.088
-661.974	-29.046	-0.110	0.064
-660.959	-154.566	-0.361	-0.025
-659.945	-139.806	-0.121	-0.013
-658.930	49.479	-0.140	-0.135
-657.916	-188.533	-0.348	0.004
-656.901	-46.436	-0.105	-0.053
-655.886	-145.779	-0.436	-0.040
-654.872	-92.903	-0.124	0.035
-653.857	339.916	-0.094	-0.188
-652.843	77.311	-0.179	-0.194
-651.828	-101.891	0.038	0.009
-650.814	-77.402	-0.290	-0.103
-649.799	-12.758	0.263	-0.175
-648.784	-17.258	0.146	0.094
-647.770	-129.572	-0.043	-0.006
-646.755	10.877	-0.264	-0.205
-645.741	112.924	-0.114	-0.141
-644.726	40.078	-0.115	-0.105
-643.711	17.101	0.341	-0.276
-642.697	-200.000	-0.016	0.150
-641.682	-200.000	0.012	0.195
-640.668	-36.385	-0.399	0.219
-639.653	-78.284	0.040	0.014
-638.638	276.612	-0.014	-0.025
-637.624	-200.000	0.026	0.252
-636.609	180.605	0.241	0.361
-635.595	209.995	0.027	-0.042
-634.580	77.388	-0.231	-0.251
-633.565	-69.315	-0.499	-0.195
-632.551	404.427	0.091	-0.196
-631.536	169.640	0.045	-0.065
-630.522	-137.224	0.113	0.013
-629.507	286.880	-0.073	-0.135
-628.492	159.603	0.255	0.361
-627.478	339.494	-0.041	-0.082
-626.463	-200.000	0.006	0.162
-625.449	65.964	0.086	-0.088
-624.434	-54.931	-0.042	-0.019
-623.419	-161.209	-0.417	-0.022
-622.405	-133.658	0.172	0.022
-621.390	-12.866	0.050	0.033
-620.376	-67.688	0.276	0.110
-619.361	88.173	0.205	0.231
-618.346	224.476	-0.177	-0.292
-617.332	31.497	0.083	-0.073
-616.317	94.436	-0.130	-0.150
-615.303	-66.890	-0.050	0.020
-614.288	800.000	0.053	0.204
-613.273	-21.736	-0.083	-0.051
-612.259	236.041	-0.120	-0.202
-611.244	-111.079	-0.214	-0.045
-610.230	216.039	0.181	-0.293
-609.215	-90.996	0.045	0.013
-608.201	-139.064	-0.114	0.013
-607.186	261.965	-0.064	-0.113
-606.171	-48.912	0.192	-0.094
-605.157	800.000	0.138	-0.484
-604.142	-105.863	-0.186	-0.043
-603.128	176.052	0.035	-0.052
-602.113	76.697	0.137	-0.148
-601.098	-61.867	-0.216	0.092
-600.084	82.119	-0.165	-0.182
-599.069	800.000	-0.017	0.061
-598.055	800.000	-0.067	0.224
-597.040	418.580	0.140	0.304
-596.025	0.689	-0.100	0.073
-595.011	800.000	-0.073	0.232
-593.996	-21.619	-0.208	-0.129
-592.982	99.977	-0.053	0.062
-591.967	353.891	-0.113	0.228
-590.952	-85.988	0.201	0.063
-589.938	-200.000	-0.006	-0.170
-588.923	-103.477	0.265	-0.063
-587.909	74.829	-0.188	-0.202
-586.894	-26.379	-0.071	0.042
-585.879	84.464	-0.157	0.174
-584.865	51.996	-0.139	0.134
-583.850	-90.587	-0.050	0.015
-582.836	800.000	-0.079	0.272
-581.821	-82.128	-0.173	0.058
-580.806	-200.000	-0.002	-0.150
-579.792	26.507	-0.249	0.212
-578.777	-124.168	0.365	0.058
-577.763	32.198	-0.135	-0.118
-576.748	800.000	0.168	-0.531
-575.733	-45.491	-0.179	-0.090
-574.719	800.000	-0.048	-0.198
-573.704	662.565	0.126	0.331
-572.690	338.852	0.150	0.296
-571.675	800.000	-0.049	0.165
-570.661	800.000	-0.018	-0.063
-569.646	195.594	-0.162	0.250
-568.631	-200.000	-0.187	0.000
-567.617	-73.557	0.118	0.044
-566.602	42.121	0.052	0.048
-565.588	-27.616	-0.137	-0.081
-564.573	-200.000	-0.007	0.260
-563.558	-42.227	0.313	-0.163
-562.544	16.681	-0.191	-0.153
-561.529	68.614	0.160	-0.166
-560.515	50.477	0.307	-0.295
-559.500	-27.888	-0.258	0.152
-558.485	61.963	0.220	0.223
-557.471	-200.000	0.063	0.309
-556.456	286.320	0.137	0.250
-555.442	800.000	-0.109	0.423
-554.427	-73.834	-0.127	-0.047
-553.412	-200.000	-0.014	0.196
-552.398	136.258	0.076	0.100
-551.383	480.395	0.086	-0.197
-550.369	-64.552	-0.232	0.096
-549.354	-58.886	0.413	0.181
-548.339	-200.000	-0.003	-0.214
-547.325	800.000	-0.124	-0.355
-546.310	88.605	0.166	-0.187
-545.296	632.459	0.033	-0.086
-544.281	88.486	0.174	-0.196
-543.266	-48.384	0.263	0.129
-542.252	-154.046	0.146	0.010
-541.237	-200.000	0.008	-0.377
-540.223	-150.879	-0.378	-0.029
-539.208	6.653	0.082	0.062
-538.193	205.512	0.070	-0.111
-537.179	-1.763	0.174	-0.124
-536.164	-199.598	-0.250	0.001
-535.150	218.450	0.154	-0.250
-534.135	30.267	0.097	0.084
-533.121	-200.000	0.007	-0.328
-532.106	351.386	-0.081	-0.163
-531.091	-139.928	0.068	0.007
-530.077	232.753	-0.118	0.197
-529.062	-6.224	-0.361	-0.250
-528.048	560.362	0.117	0.288
-527.033	-122.118	-0.648	-0.108
-526.018	119.863	0.197	0.248
-525.004	-200.000	0.008	-0.037
-523.989	699.698	-0.102	-0.272
-522.975	84.328	-0.160	0.178
-521.960	800.000	0.062	0.238
-520.945	-99.693	0.378	0.096
-519.931	-200.000	-0.012	-0.089
-518.916	-158.758	-0.220	0.013
-517.902	-71.406	0.297	-0.113
-516.887	28.892	0.172	-0.147
-515.872	-77.636	0.357	-0.126
-514.858	118.420	0.196	-0.245
-513.843	-89.264	0.123	-0.037
-512.829	132.620	-0.099	-0.129
-511.814	-109.065	-0.315	-0.068
-510.799	151.749	0.110	-0.152
-509.785	-13.263	-0.147	-0.097
-508.770	-6.376	0.109	-0.076
-507.756	-200.000	-0.021	0.113
-506.741	-127.888	0.118	0.017
-505.726	16.147	-0.154	-0.123
-504.712	-109.975	-0.325	-0.069
-503.697	550.727	-0.078	-0.189
-502.683	62.856	0.121	0.122
-501.668	141.190	0.029	0.039
-500.653	-76.160	-0.079	-0.028
-499.639	230.042	0.042	-0.070
-498.624	-65.517	-0.205	0.084
-497.610	800.000	-0.075	-0.268
-496.595	160.735	-0.061	-0.087
-495.581	7.973	0.090	-0.069
-494.566	474.359	0.133	-0.304
-493.551	-109.551	0.418	-0.089
-492.537	-200.000	0.001	0.065
-491.522	147.993	-0.111	-0.152
-490.508	3.607	0.102	-0.076
-489.493	222.775	0.198	0.324
-488.478	-19.656	-0.160	-0.100
-487.464	-129.688	-0.341	-0.048
-486.449	345.402	0.069	0.138
-485.435	-0.891	-0.188	-0.135
-484.420	646.147	-0.078	-0.202
-483.405	110.955	-0.146	0.178
-482.391	-33.136	-0.307	-0.173
-481.376	-102.987	0.240	0.058
-480.362	401.847	0.079	0.169
-479.347	-124.551	0.136	-0.021
-478.332	-175.167	0.164	0.005
-477.318	-76.595	-0.090	0.032
-476.303	-132.774	-0.133	0.017
-475.289	-200.000	0.034	-0.275
-474.274	-72.886	0.102	-0.038
-473.259	-112.454	0.232	0.047
-472.245	800.000	0.022	-0.094
-471.230	381.678	0.164	-0.342
-470.216	-177.380	-0.214	-0.005
-469.201	-10.079	-0.239	-0.161
-468.186	-102.785	-0.143	0.034
-467.172	-84.165	-0.180	0.058
-466.157	-73.268	0.221	-0.082
-465.143	-200.000	0.013	0.075
-464.128	-89.969	-0.163	0.048
-463.113	-80.182	-0.127	-0.043
-462.099	-24.387	0.268	-0.162
-461.084	-200.000	-0.028	-0.404
-460.070	-200.000	0.019	0.124
-459.055	-41.376	-0.284	0.148
-458.040	-200.000	0.012	0.155
-457.026	800.000	0.051	0.221
-456.011	124.837	-0.108	0.138
-454.997	-200.000	-0.006	-0.071
-453.982	-78.403	0.167	0.058
-452.968	-200.000	-0.007	-0.090
-451.953	800.000	0.096	-0.302
-450.938	481.533	0.088	0.202
-449.924	101.575	-0.193	-0.227
-448.909	-200.000	-0.010	0.050
-447.895	-147.337	-0.073	0.006
-446.880	-200.000	0.024	0.110
-445.865	-87.373	0.200	0.061
-444.851	-23.007	-0.141	0.086
-443.836	51.071	-0.155	0.149
-442.822	334.990	-0.214	-0.419
-441.807	-142.334	0.062	0.006
-440.792	-9.843	-0.064	-0.043
-439.778	-190.446	-0.122	0.001
-438.763	109.439	-0.075	-0.091
-437.749	-99.827	-0.296	-0.075
-436.734	-143.701	-0.138	-0.013
-435.719	-146.986	0.328	-0.028
-434.705	75.717	0.039	-0.042
-433.690	-170.766	0.115	0.004
-432.676	43.996	-0.066	-0.062
-431.661	466.546	-0.140	0.316
-430.646	-73.605	0.323	-0.119
-429.632	12.882	0.257	-0.201
-428.617	84.810	0.055	0.061
-427.603	-108.675	-0.207	0.045
-426.588	350.095	-0.060	-0.119
-425.573	-200.000	-0.042	0.275
-424.559	-200.000	0.004	-0.387
-423.544	-162.196	0.188	0.009
-422.530	-49.779	0.027	0.013
-421.515	52.590	0.040	-0.038
-420.500	83.672	-0.140	0.155
-419.486	430.614	0.113	0.246
-418.471	-200.000	-0.001	-0.065
-417.457	-58.535	-0.194	-0.085
-416.442	65.360	-0.141	-0.144
-415.428	-65.524	-0.132	-0.053
-414.413	-200.000	-0.007	-0.088
-413.398	45.175	-0.230	0.214
-412.384	165.512	-0.215	-0.307
-411.369	-13.564	0.274	-0.179
-410.355	-200.000	-0.050	-0.248
-409.340	-110.675	0.181	-0.038
-408.325	-200.000	0.015	-0.094
-407.311	800.000	0.037	-0.165
-406.296	130.219	-0.055	-0.071
-405.282	-34.562	-0.295	-0.163
-404.267	407.569	0.115	-0.245
-403.252	-1.016	0.173	0.124
-402.238	169.941	-0.156	-0.225
-401.223	800.000	-0.079	-0.232
-400.209	800.000	-0.063	-0.256
-399.194	-101.017	0.311	-0.077
-398.179	56.057	0.134	0.132
-397.165	-72.031	0.227	-0.085
-396.150	-200.000	0.017	-0.333
-395.136	-65.447	0.229	-0.093
-394.121	-200.000	0.010	0.320
-393.106	-58.865	-0.231	-0.101
-392.092	-85.165	0.198	0.063
-391.077	288.936	0.080	0.147
-390.063	-19.342	-0.148	0.093
-389.048	-0.126	0.124	0.089
-388.033	-94.533	-0.180	-0.049
-387.019	377.894	0.099	-0.204
-386.004	-200.000	0.004	-0.337
-384.990	-200.000	0.094	-0.423
-383.975	-160.463	0.384	-0.021
-382.960	23.493	0.231	-0.191
-381.946	-50.260	-0.092	0.044
-380.931	-35.235	-0.190	0.105
-379.917	800.000	-0.078	-0.286
-378.902	21.253	-0.117	-0.096
-377.888	453.609	-0.060	0.134
-376.873	489.876	-0.094	-0.218
-375.858	800.000	-0.039	-0.150
-374.844	-82.041	-0.249	0.082
-373.829	30.168	0.278	0.239
-372.815	91.316	0.085	-0.096
-371.800	197.814	0.108	0.166
-370.785	-66.795	-0.605	0.241
-369.771	-136.007	-0.171	0.020
-368.756	154.235	0.176	0.244
-367.742	-36.682	-0.074	0.040
-366.727	-105.621	0.525	-0.120
-365.712	-150.577	0.133	-0.010
-364.698	-53.055	0.295	0.137
-363.683	-122.217	0.058	0.010
-362.669	37.214	-0.184	0.164
-361.654	-32.516	-0.121	0.068
-360.639	800.000	-0.069	0.217
-359.625	-58.643	-0.053	-0.023
-358.610	263.682	-0.048	-0.085
-357.596	419.994	0.044	0.094
-356.581	679.262	-0.221	0.580
-355.566	290.714	-0.192	-0.352
-354.552	800.000	-0.009	-0.029
-353.537	258.013	-0.143	0.248
-352.523	45.535	0.213	-0.198
-351.508	-96.138	0.095	0.025
-350.493	-155.751	0.216	-0.014
-349.479	16.564	0.157	0.125
-348.464	14.198	0.267	0.210
-347.450	-52.821	0.092	0.043
-346.435	67.194	-0.099	0.102
-345.420	143.065	0.091	0.121
-344.406	664.197	-0.070	0.181
-343.391	-104.502	0.049	0.011
-342.377	800.000	0.093	-0.363
-341.362	29.679	0.134	-0.115
-340.348	-103.451	-0.218	-0.052
-339.333	89.627	0.104	0.117
-338.318	-200.000	0.061	0.446
-337.304	-200.000	-0.028	0.305
-336.289	-71.001	0.549	0.208
-335.275	14.406	0.207	-0.163
-334.260	124.929	0.107	-0.136
-333.245	140.057	-0.200	-0.266
-332.231	33.691	-0.102	0.090
-331.216	90.293	0.090	-0.102
-330.202	105.117	-0.032	-0.039
-329.187	-200.000	0.022	0.248
-328.172	-200.000	0.063	-0.365
-327.158	-59.234	0.234	0.102
-326.143	800.000	0.077	-0.332
-325.129	18.145	0.170	-0.137
-324.114	60.734	-0.126	0.126
-323.099	-63.851	-0.263	-0.109
-322.085	-143.983	-0.222	-0.021
-321.070	-200.000	0.221	0.000
-320.056	800.000	-0.060	0.210
-319.041	36.022	0.071	-0.063
-318.026	602.217	-0.052	0.129
-317.012	462.549	-0.066	0.148
-315.997	-200.000	-0.028	-0.306
-314.983	800.000	0.012	-0.041
-313.968	-15.431	-0.198	-0.127
-312.953	-2.041	0.135	-0.095
-311.939	800.000	0.055	0.186
-310.924	48.763	0.249	0.235
-309.910	34.007	-0.181	0.158
-308.895	136.879	0.163	-0.214
-307.880	26.201	0.080	-0.067
-306.866	443.389	0.207	0.458
-305.851	147.032	0.347	0.469
-304.837	-78.369	0.036	0.012
-303.822	-82.123	-0.187	0.062
-302.807	205.198	-0.157	-0.245
-301.793	56.369	-0.051	0.050
-300.778	-200.000	-0.023	0.239
-299.764	-25.901	-0.235	0.139
-298.749	-200.000	0.015	0.119
-297.735	-111.294	-0.259	0.053
-296.720	-110.018	-0.154	0.032
-295.705	800.000	0.004	-0.013
-294.691	121.554	0.107	-0.134
-293.676	154.784	0.130	0.180
-292.662	81.459	-0.170	0.184
-291.647	-161.019	0.121	0.006
-290.632	-62.385	0.134	-0.056
-289.618	33.014	0.225	-0.196
-288.603	-62.028	-0.328	0.138
-287.589	-43.247	-0.212	0.108
-286.574	260.696	0.344	0.598
-285.559	-200.000	0.014	0.295
-284.545	120.106	-0.191	0.238
-283.530	-200.000	-0.036	-0.232
-282.516	-122.696	0.353	-0.057
-281.501	-115.436	-0.167	0.032
-280.486	169.060	0.133	0.190
-279.472	3.384	0.072	-0.053
-278.457	-39.194	-0.143	-0.076
-277.443	-37.916	-0.187	-0.100
-276.428	10.492	0.291	0.223
-275.413	-200.000	0.066	-0.395
-274.399	79.069	-0.144	-0.155
-273.384	-39.905	0.280	0.147
-272.370	-62.666	0.031	0.013
-271.355	-139.315	-0.166	0.018
-270.340	-80.198	0.107	0.036
-269.326	-29.253	-0.219	0.126
-268.311	-191.029	0.272	-0.003
-267.297	800.000	-0.082	0.347
-266.282	-200.000	0.010	-0.059
-265.267	457.081	0.131	-0.291
-264.253	-116.272	-0.122	0.023
-263.238	800.000	-0.152	0.455
-262.224	-61.408	0.373	0.158
-261.209	-115.925	-0.185	0.035
-260.195	-200.000	-0.018	0.104
-259.180	88.059	-0.158	0.176
-258.165	-162.450	0.351	0.017
-257.151	-44.647	-0.103	-0.051
-256.136	-92.752	-0.279	0.079
-255.122	-90.487	0.215	0.063
-254.107	118.275	-0.154	-0.190
-253.092	-155.947	-0.258	-0.016
-252.078	-59.405	-0.449	-0.194
-251.063	60.903	0.044	0.044
-250.049	114.365	0.191	0.234
-249.034	-27.861	0.268	-0.156
-248.019	-197.327	0.324	0.002
-247.005	6.064	-0.134	-0.099
-245.990	-19.435	-0.169	0.105
-244.976	-69.400	0.032	0.012
-243.961	-179.363	-0.260	0.006
-242.946	-112.129	0.076	-0.015
-241.932	-200.000	0.063	0.280
-240.917	-117.571	-0.097	0.017
-239.903	71.758	-0.069	-0.072
-238.888	257.078	-0.069	-0.119
-237.873	-80.793	0.309	0.103
-236.859	-200.000	0.047	-0.380
-235.844	-33.655	0.108	-0.060
-234.830	-200.000	-0.059	0.415
-233.815	631.413	0.055	0.141
-232.800	355.182	-0.080	0.160
-231.786	-200.000	-0.029	-0.255
-230.771	-82.343	-0.158	0.051
-229.757	46.852	-0.181	-0.169
-228.742	-67.158	-0.161	0.064
-227.727	136.129	-0.226	-0.295
-226.713	-37.571	0.047	0.025
-225.698	-89.831	-0.418	-0.123
-224.684	-109.728	-0.111	-0.023
-223.669	-200.000	-0.012	0.118
-222.655	20.495	0.013	-0.010
-221.640	800.000	0.077	0.330
-220.625	-48.468	0.258	0.124
-219.611	-12.080	0.397	0.261
-218.596	-144.382	-0.184	-0.017
-217.582	285.790	-0.066	0.119
-216.567	-178.250	-0.076	0.002
-215.552	585.927	0.011	0.027
-214.538	297.904	-0.012	0.021
-213.523	-35.302	-0.186	0.101
-212.509	-138.334	-0.211	-0.023
-211.494	-200.000	0.016	0.097
-210.479	-143.016	0.410	0.040
-209.465	50.392	0.229	0.217
-208.450	-113.539	0.299	-0.059
-207.436	148.725	-0.087	0.118
-206.421	800.000	0.057	-0.202
-205.406	472.830	-0.067	0.152
-204.392	800.000	0.126	0.393
-203.377	-200.000	-0.016	0.106
-202.363	195.234	0.099	0.150
-201.348	-11.732	0.059	0.039
-200.333	-200.000	0.013	-0.441
-199.319	-118.181	-0.112	0.020
-198.304	-41.691	-0.114	0.059
-197.290	220.192	-0.130	0.208
-196.275	-32.194	0.028	-0.016
-195.260	184.903	-0.260	0.387
-194.246	82.656	-0.125	-0.136
-193.231	310.894	0.082	0.154
-192.217	55.652	0.151	0.146
-191.202	-97.748	-0.142	0.037
-190.187	406.309	0.062	0.130
-189.173	-90.984	0.076	0.022
-188.158	-90.340	0.120	-0.035
-187.144	800.000	0.052	0.176
-186.129	-22.477	0.061	0.037
-185.114	-92.277	-0.155	-0.044
-184.100	-200.000	0.044	-0.275
-183.085	800.000	-0.070	-0.218
-182.071	700.509	0.068	-0.180
-181.056	320.671	0.071	-0.135
-180.042	245.136	0.076	-0.128
-179.027	321.772	-0.015	-0.029
-178.012	269.708	-0.027	0.047
-176.998	-47.813	-0.110	0.053
-175.983	-21.718	0.086	0.052
-174.969	35.731	-0.358	0.315
-173.954	-156.776	0.154	0.009
-172.939	26.295	-0.185	-0.155
-171.925	-168.669	-0.012	-0.000
-170.910	53.375	-0.390	-0.374
-169.896	149.479	-0.063	-0.085
-168.881	200.694	-0.179	0.276
-167.866	800.000	0.025	-0.087
-166.852	-0.126	-0.120	-0.085
-165.837	800.000	0.022	-0.084
-164.823	800.000	0.145	0.424
-163.808	-200.000	0.021	0.575
-162.793	269.988	0.147	0.259
-161.779	171.305	0.099	0.143
-160.764	97.167	-0.127	0.146
-159.750	800.000	0.082	0.252
-158.735	-200.000	0.075	-0.450
-157.720	-200.000	0.005	0.040
-156.706	-48.228	-0.083	0.040
-155.691	-200.000	0.022	-0.218
-154.677	800.000	0.062	-0.263
-153.662	-35.420	0.286	-0.155
-152.647	-200.000	0.005	0.124
-151.633	20.459	0.198	-0.160
-150.618	160.019	-0.203	0.283
-149.604	800.000	-0.008	-0.033
-148.589	605.779	0.106	-0.263
-147.574	266.203	-0.039	-0.069
-146.560	202.263	-0.075	-0.116
-145.545	-200.000	0.021	-0.176
-144.531	187.924	-0.173	-0.259
-143.516	244.687	0.149	0.251
-142.502	-146.310	-0.322	-0.028
-141.487	646.157	-0.069	0.176
-140.472	63.141	0.222	-0.223
-139.458	145.962	-0.152	-0.204
-138.443	-200.000	0.067	0.418
-137.429	2.701	0.284	0.206
-136.414	-200.000	0.008	0.062
-135.399	42.010	-0.281	0.255
-134.385	-40.198	-0.114	-0.059
-133.370	152.308	0.092	0.125
-132.356	-200.000	-0.016	0.525
-131.341	-135.612	0.053	0.006
-130.326	-200.000	-0.007	-0.050
-129.312	-200.000	-0.015	0.079
-128.297	-138.735	0.246	-0.027
-127.283	-110.751	-0.233	0.048
-126.268	-200.000	0.010	0.201
-125.253	-86.788	-0.252	0.077
-124.239	660.379	0.080	-0.207
-123.224	-141.268	-0.277	-0.028
-122.210	206.241	0.087	0.135
-121.195	800.000	-0.101	-0.305
