DTS Sentinel unit serial number:	SN413079Multiplexer serial number:	ORYXHardware model number:	OX4-SRSoftware version number:	ORYX F/W v4.00 Oryx Data Collector v3.7.2.0data status	okinstallation	princeton_trtdifferential loss correction	single-endedforward channel	channel 2reverse channel	N/Adate	2019/09/18time	11:31:35forward acquisition time	60.00reverse acquisition time	0.00gamma	496.2192k internal	0.2325k external	0.2325temperature offset calibration	0.9985default loss term (dB/km)	0.3790temperature slope calibration	1.0000multiplexer offset coefficient	1.0000multiplexer slope coefficient	1.0000fibre end	0.00T internal ref (°C)	30.50T ext. ref 1 (°C)	0.44T ext. ref 2 (°C)	28.12length (m)	temperature (°C)	Stokes	anti-Stokes-747.200	-29.897	0.253	0.145
-746.185	34.911	-0.154	0.136
-745.171	88.395	0.180	0.202
-744.156	-13.419	-0.218	0.143
-743.142	48.861	-0.348	-0.330
-742.127	-200.000	-0.030	0.498
-741.112	-113.592	0.368	-0.073
-740.098	-75.411	-0.285	0.103
-739.083	-200.000	-0.022	0.363
-738.069	-200.000	0.054	0.251
-737.054	135.476	-0.267	0.350
-736.039	-200.000	0.024	-0.266
-735.025	-187.978	0.295	-0.004
-734.010	108.911	-0.372	0.449
-732.996	-200.000	0.003	-0.021
-731.981	-15.873	0.126	0.081
-730.966	-46.876	-0.169	-0.083
-729.952	-200.000	0.007	-0.214
-728.937	-45.723	-0.403	-0.201
-727.923	14.902	0.144	-0.114
-726.908	198.309	0.069	-0.107
-725.894	-78.326	-0.277	-0.096
-724.879	-129.484	-0.302	0.042
-723.864	-200.000	-0.011	-0.110
-722.850	-63.028	-0.186	-0.078
-721.835	-83.703	-0.266	-0.086
-720.821	-200.000	-0.011	-0.225
-719.806	-68.943	-0.175	-0.068
-718.791	760.305	0.086	-0.236
-717.777	251.595	0.174	0.299
-716.762	-200.000	0.023	0.349
-715.748	-79.908	0.099	0.034
-714.733	206.698	0.195	-0.306
-713.718	-88.209	-0.213	-0.064
-712.704	-133.678	-0.210	-0.026
-711.689	30.294	0.086	-0.074
-710.675	-47.874	0.207	-0.101
-709.660	-42.143	-0.193	0.099
-708.645	80.143	0.014	0.015
-707.631	18.460	-0.214	0.172
-706.616	-178.008	-0.284	-0.007
-705.602	527.687	0.072	0.171
-704.587	210.219	0.092	-0.146
-703.572	287.428	-0.076	0.138
-702.558	-200.000	0.057	0.314
-701.543	304.571	-0.018	0.034
-700.529	-200.000	0.033	0.223
-699.514	-200.000	-0.003	-0.176
-698.499	2.845	0.031	-0.022
-697.485	-106.282	-0.091	0.021
-696.470	-0.882	0.096	-0.069
-695.456	437.302	0.029	-0.063
-694.441	-132.252	-0.092	-0.012
-693.426	-143.344	0.332	-0.032
-692.412	85.711	0.131	0.145
-691.397	137.568	-0.061	-0.081
-690.383	-193.095	-0.283	0.003
-689.368	188.195	0.076	-0.114
-688.354	-39.444	-0.159	0.084
-687.339	112.860	0.090	-0.109
-686.324	-200.000	-0.014	-0.389
-685.310	-200.000	-0.019	-0.157
-684.295	-200.000	0.008	-0.070
-683.281	-111.972	-0.355	0.072
-682.266	-85.807	-0.323	0.101
-681.251	324.086	0.017	0.033
-680.237	275.153	0.044	0.078
-679.222	800.000	-0.037	-0.159
-678.208	-85.472	0.285	-0.089
-677.193	-47.524	-0.283	0.138
-676.178	-200.000	0.010	-0.315
-675.164	11.376	0.197	0.152
-674.149	468.363	0.089	0.201
-673.135	38.540	-0.140	0.126
-672.120	98.669	-0.124	-0.144
-671.105	-71.025	0.133	0.050
-670.091	81.488	-0.199	-0.217
-669.076	561.579	0.065	0.159
-668.062	27.256	-0.016	-0.013
-667.047	-125.020	0.087	0.013
-666.032	116.846	-0.043	0.053
-665.018	196.074	-0.106	0.162
-664.003	-200.000	0.013	0.167
-662.989	381.086	0.101	0.209
-661.974	715.148	-0.092	0.245
-660.959	-126.175	-0.168	0.025
-659.945	-200.000	-0.002	-0.190
-658.930	-141.343	0.395	-0.040
-657.916	-200.000	-0.055	-0.412
-656.901	-101.351	-0.266	-0.065
-655.886	421.566	-0.139	0.299
-654.872	-104.744	-0.170	0.039
-653.857	-69.524	0.097	0.037
-652.843	328.971	-0.061	-0.118
-651.828	-136.289	-0.256	-0.030
-650.814	456.159	-0.136	0.304
-649.799	38.152	-0.119	0.106
-648.784	261.640	0.100	0.174
-647.770	-200.000	-0.073	0.336
-646.755	-12.408	-0.139	-0.091
-645.741	384.743	-0.080	-0.166
-644.726	376.755	0.116	-0.238
-643.711	800.000	0.054	-0.158
-642.697	-27.140	0.236	-0.138
-641.682	138.305	0.149	-0.197
-640.668	161.589	-0.233	0.327
-639.653	-148.242	0.202	0.017
-638.638	-200.000	-0.004	-0.064
-637.624	380.750	-0.137	-0.282
-636.609	-85.334	-0.188	0.059
-635.595	107.393	0.122	0.146
-634.580	800.000	-0.030	0.103
-633.565	-79.409	0.225	0.076
-632.551	-116.710	-0.186	-0.034
-631.536	183.660	-0.174	-0.259
-630.522	13.462	0.234	-0.182
-629.507	-55.591	-0.160	0.072
-628.492	-109.008	-0.156	-0.033
-627.478	-138.626	-0.074	0.008
-626.463	-200.000	0.015	-0.188
-625.449	-6.258	0.154	-0.105
-624.434	-200.000	0.048	0.252
-623.419	20.943	-0.228	-0.186
-622.405	-135.151	0.246	0.030
-621.390	111.383	0.155	0.187
-620.376	563.584	0.142	-0.346
-619.361	3.651	0.057	-0.042
-618.346	259.812	-0.089	0.154
-617.332	327.017	-0.124	-0.239
-616.317	800.000	-0.030	-0.089
-615.303	216.833	-0.258	-0.412
-614.288	323.208	-0.040	-0.076
-613.273	-40.125	-0.185	0.097
-612.259	102.767	-0.312	-0.366
-611.244	22.890	-0.148	-0.122
-610.230	-133.808	-0.177	-0.022
-609.215	800.000	0.184	-0.532
-608.201	119.409	0.093	-0.116
-607.186	-200.000	0.004	0.083
-606.171	-200.000	0.039	-0.277
-605.157	250.021	-0.038	-0.064
-604.142	-192.967	-0.034	-0.000
-603.128	436.458	0.040	0.088
-602.113	-18.519	0.090	0.056
-601.098	800.000	-0.079	0.244
-600.084	-74.072	-0.090	-0.033
-599.069	-13.222	0.124	0.081
-598.055	262.441	0.033	0.058
-597.040	57.535	-0.215	0.211
-596.025	86.159	-0.102	0.113
-595.011	272.369	0.117	0.207
-593.996	-62.486	-0.351	-0.147
-592.982	-77.579	-0.267	-0.093
-591.967	-200.000	0.008	-0.049
-590.952	-102.451	0.131	-0.031
-589.938	800.000	0.030	0.091
-588.923	-200.000	0.037	-0.441
-587.909	-6.131	-0.303	0.208
-586.894	-170.115	0.250	0.009
-585.879	-115.813	0.404	0.076
-584.865	800.000	0.065	0.283
-583.850	39.966	0.069	-0.062
-582.836	0.032	-0.075	-0.054
-581.821	-92.819	0.117	0.033
-580.806	145.435	-0.157	-0.211
-579.792	-28.160	0.068	-0.039
-578.777	549.843	-0.043	0.103
-577.763	274.694	-0.073	-0.129
-576.748	-200.000	0.005	0.097
-575.733	63.538	0.294	-0.295
-574.719	-49.973	-0.409	-0.195
-573.704	98.773	-0.184	0.213
-572.690	110.135	0.052	0.063
-571.675	-61.219	0.369	-0.156
-570.661	18.943	-0.225	-0.181
-569.646	8.561	0.249	0.188
-568.631	458.223	0.080	0.179
-567.617	-47.460	-0.254	-0.124
-566.602	110.426	-0.315	-0.379
-565.588	-145.743	-0.176	-0.016
-564.573	800.000	-0.106	-0.300
-563.558	-100.171	0.342	-0.085
-562.544	-51.625	0.319	0.149
-561.529	333.318	0.043	0.082
-560.515	-200.000	-0.011	0.183
-559.500	-200.000	0.039	0.428
-558.485	334.650	0.084	0.162
-557.471	-18.499	0.232	-0.145
-556.456	70.741	0.115	-0.119
-555.442	57.835	0.320	0.314
-554.427	283.350	-0.025	-0.046
-553.412	-200.000	-0.009	-0.183
-552.398	-17.178	0.240	0.152
-551.383	31.499	-0.217	-0.187
-550.369	-150.843	0.407	0.031
-549.354	11.535	0.094	-0.072
-548.339	303.299	0.162	0.300
-547.325	54.126	-0.178	0.171
-546.310	-82.492	0.182	-0.059
-545.296	-11.136	-0.344	-0.227
-544.281	800.000	-0.044	0.175
-543.266	216.047	0.079	0.126
-542.252	17.184	-0.080	0.063
-541.237	-200.000	-0.031	-0.262
-540.223	-114.599	-0.210	-0.040
-539.208	-170.047	0.229	0.008
-538.193	402.888	-0.074	-0.157
-537.179	800.000	-0.059	0.219
-536.164	441.355	-0.146	0.320
-535.150	116.457	0.139	-0.171
-534.135	49.164	-0.134	-0.126
-533.121	634.282	0.109	0.276
-532.106	556.628	0.069	0.167
-531.091	156.130	-0.225	-0.311
-530.077	60.505	-0.220	0.218
-529.062	3.901	-0.125	0.091
-528.048	634.560	-0.102	0.260
-527.033	-70.626	-0.088	-0.033
-526.018	-175.624	-0.143	0.004
-525.004	-3.020	0.139	0.097
-523.989	562.454	0.097	0.235
-522.975	711.403	0.125	-0.330
-521.960	-200.000	0.018	-0.142
-520.945	55.647	0.077	0.075
-519.931	6.315	0.149	-0.110
-518.916	283.582	0.275	-0.495
-517.902	-59.590	0.149	-0.064
-516.887	-200.000	-0.015	0.069
-515.872	-135.847	0.241	-0.028
-514.858	800.000	-0.039	0.129
-513.843	-33.362	-0.336	0.186
-512.829	277.707	0.164	-0.293
-511.814	19.595	-0.218	-0.175
-510.799	94.492	0.197	-0.224
-509.785	-152.314	-0.078	-0.006
-508.770	-200.000	-0.030	-0.162
-507.756	-200.000	-0.014	0.196
-506.741	-74.944	-0.122	0.044
-505.726	-152.055	-0.332	0.024
-504.712	86.162	-0.172	-0.190
-503.697	-121.394	-0.151	0.025
-502.683	21.081	-0.192	-0.156
-501.668	-68.808	-0.244	-0.094
-500.653	288.545	-0.139	-0.252
-499.639	71.453	-0.294	0.305
-498.624	-200.000	-0.016	-0.223
-497.610	37.704	0.191	0.170
-496.595	306.066	-0.055	0.102
-495.581	-79.865	0.125	0.042
-494.566	-187.764	-0.396	0.005
-493.551	-200.000	0.031	0.222
-492.537	54.133	-0.138	0.132
-491.522	-4.309	-0.091	0.063
-490.508	-148.947	-0.386	0.031
-489.493	338.691	-0.145	-0.281
-488.478	140.203	0.074	0.098
-487.464	310.729	0.104	0.195
-486.449	800.000	0.023	0.093
-485.435	-117.172	0.257	-0.047
-484.420	-43.695	0.497	-0.250
-483.405	800.000	0.094	0.262
-482.391	28.936	-0.246	0.208
-481.376	503.505	0.152	0.352
-480.362	-200.000	0.010	-0.067
-479.347	202.607	0.060	0.092
-478.332	42.436	-0.094	0.085
-477.318	-109.523	-0.177	0.037
-476.303	-78.404	0.105	-0.036
-475.289	41.046	-0.149	-0.134
-474.274	195.531	-0.151	0.230
-473.259	510.383	-0.163	-0.378
-472.245	57.242	0.115	-0.112
-471.230	800.000	-0.051	-0.146
-470.216	189.794	-0.181	-0.271
-469.201	800.000	-0.034	-0.128
-468.186	800.000	0.112	0.362
-467.172	-200.000	0.005	0.179
-466.157	107.240	-0.157	0.187
-465.143	323.847	-0.028	-0.054
-464.128	-134.986	-0.138	0.017
-463.113	269.784	-0.048	0.084
-462.099	-71.619	0.095	0.035
-461.084	-8.882	-0.073	0.049
-460.070	443.304	0.031	-0.067
-459.055	375.162	0.149	-0.304
-458.040	-93.684	-0.183	0.050
-457.026	-200.000	0.042	0.295
-456.011	800.000	-0.120	0.420
-454.997	31.819	0.170	0.146
-453.982	256.772	-0.148	-0.254
-452.968	125.799	0.173	-0.218
-451.953	75.656	-0.129	0.136
-450.938	-200.000	-0.185	-0.001
-449.924	-109.652	-0.408	-0.086
-448.909	800.000	0.139	-0.436
-447.895	769.341	0.129	-0.351
-446.880	-66.309	-0.373	-0.148
-445.865	-178.090	0.352	-0.008
-444.851	585.641	0.113	0.277
-443.836	147.315	-0.172	0.231
-442.822	-93.250	-0.389	0.108
-441.807	-200.000	0.060	-0.622
-440.792	115.471	-0.103	0.126
-439.778	512.230	0.127	0.296
-438.763	171.842	-0.075	0.108
-437.749	-25.142	-0.259	-0.153
-436.734	-106.904	0.083	0.018
-435.719	800.000	-0.059	-0.240
-434.705	-200.000	0.005	-0.375
-433.690	-200.000	0.036	0.308
-432.676	-176.846	-0.182	0.005
-431.661	-146.158	0.292	-0.026
-430.646	68.866	0.167	0.171
-429.632	7.374	-0.184	0.137
-428.617	517.949	-0.137	0.320
-427.603	283.299	-0.042	0.076
-426.588	93.769	0.240	-0.271
-425.573	-111.619	0.221	-0.045
-424.559	137.261	0.246	0.320
-423.544	205.494	0.254	0.394
-422.530	108.620	-0.286	-0.341
-421.515	-200.000	0.031	-0.147
-420.500	-200.000	-0.003	0.040
-419.486	-87.025	0.220	-0.067
-418.471	-200.000	0.009	0.156
-417.457	-119.193	-0.359	0.062
-416.442	362.504	-0.125	-0.250
-415.428	800.000	0.023	0.070
-414.413	763.791	0.104	0.280
-413.398	82.108	0.072	0.078
-412.384	266.515	-0.146	0.254
-411.369	-13.371	0.149	-0.096
-410.355	163.437	-0.273	-0.383
-409.340	258.064	-0.047	0.081
-408.325	-200.000	-0.016	0.127
-407.311	526.827	0.036	0.084
-406.296	-197.893	-0.102	0.001
-405.282	800.000	0.126	0.371
-404.267	249.643	0.058	0.099
-403.252	60.991	0.112	-0.111
-402.238	-200.000	-0.009	-0.109
-401.223	142.554	0.291	-0.385
-400.209	-95.554	0.273	-0.073
-399.194	124.511	0.100	0.125
-398.179	-61.816	0.158	0.066
-397.165	403.504	-0.083	-0.174
-396.150	-124.110	-0.203	0.032
-395.136	132.339	0.099	0.127
-394.121	800.000	0.064	-0.199
-393.106	-51.927	-0.359	0.166
-392.092	-200.000	0.003	0.271
-391.077	-50.577	-0.224	0.105
-390.063	-200.000	0.032	0.156
-389.048	261.997	-0.064	-0.110
-388.033	-85.381	-0.095	0.030
-387.019	-35.215	0.362	0.196
-386.004	85.653	0.080	-0.087
-384.990	-200.000	0.030	-0.211
-383.975	800.000	-0.017	-0.074
-382.960	-61.352	-0.250	0.105
-381.946	800.000	-0.087	-0.263
-380.931	-200.000	-0.035	0.257
-379.917	-146.045	-0.131	-0.012
-378.902	-82.748	0.383	-0.123
-377.888	161.453	0.172	-0.239
-376.873	-200.000	0.008	0.095
-375.858	3.174	0.033	-0.024
-374.844	354.598	-0.250	-0.494
-373.829	-83.182	0.199	-0.064
-372.815	-21.524	-0.178	0.108
-371.800	-26.674	-0.395	0.230
-370.785	431.247	-0.121	-0.261
-369.771	-26.854	0.310	-0.180
-368.756	44.149	-0.133	-0.121
-367.742	13.667	-0.248	0.192
-366.727	-14.420	-0.236	0.151
-365.712	-200.000	-0.024	0.179
-364.698	-128.080	-0.278	-0.040
-363.683	-200.000	-0.012	-0.188
-362.669	-123.600	-0.195	0.031
-361.654	-148.537	-0.132	0.011
-360.639	-31.996	-0.202	0.113
-359.625	-121.926	0.214	-0.035
-358.610	218.685	-0.125	-0.198
-357.596	291.612	0.156	0.282
-356.581	-31.121	-0.183	0.102
-355.566	43.892	-0.252	0.230
-354.552	202.018	-0.150	0.230
-353.537	800.000	0.032	0.111
-352.523	163.890	0.199	-0.278
-351.508	44.618	0.186	0.170
-350.493	-200.000	-0.030	0.228
-349.479	623.458	0.070	0.176
-348.464	73.191	-0.088	-0.091
-347.450	430.088	0.227	0.488
-346.435	274.030	-0.191	0.336
-345.420	-133.055	0.308	0.039
-344.406	-137.881	-0.182	0.020
-343.391	440.902	0.137	-0.297
-342.377	-93.360	0.184	-0.051
-341.362	-105.671	-0.115	0.026
-340.348	-107.274	-0.176	0.038
-339.333	217.477	0.128	0.202
-338.318	17.069	0.148	-0.117
-337.304	800.000	-0.040	-0.130
-336.289	-85.529	-0.252	-0.078
-335.275	156.157	0.026	-0.035
-334.260	-200.000	-0.074	0.331
-333.245	-46.836	0.127	-0.062
-332.231	-200.000	-0.033	0.444
-331.216	211.276	0.203	-0.317
-330.202	-200.000	-0.011	-0.077
-329.187	384.098	0.061	0.124
-328.172	-107.427	0.489	0.106
-327.158	-200.000	0.020	-0.260
-326.143	153.599	-0.172	0.234
-325.129	-92.785	-0.044	0.012
-324.114	-200.000	0.022	0.260
-323.099	-200.000	0.023	0.411
-322.085	-118.226	-0.123	-0.022
-321.070	-79.819	-0.216	0.072
-320.056	0.554	-0.168	-0.120
-319.041	-42.328	0.250	-0.127
-318.026	128.120	0.329	0.415
-317.012	-200.000	-0.008	0.061
-315.997	65.885	0.217	0.218
-314.983	-58.875	-0.154	-0.066
-313.968	-200.000	-0.012	0.244
-312.953	800.000	-0.095	-0.362
-311.939	-172.122	0.264	-0.008
-310.924	-115.363	-0.114	-0.021
-309.910	-200.000	-0.012	-0.403
-308.895	-69.655	0.221	-0.084
-307.880	-105.673	-0.228	0.051
-306.866	-103.657	0.236	-0.055
-305.851	800.000	0.053	-0.190
-304.837	-118.148	-0.311	0.055
-303.822	-200.000	-0.031	0.411
-302.807	800.000	-0.155	-0.490
-301.793	300.889	-0.090	-0.165
-300.778	63.072	-0.191	-0.190
-299.764	-200.000	0.000	0.022
-298.749	-113.156	-0.288	0.056
-297.735	2.230	-0.205	-0.147
-296.720	-125.215	0.292	-0.044
-295.705	60.483	0.163	0.160
-294.691	-200.000	0.074	0.396
-293.676	-109.885	0.408	-0.085
-292.662	-200.000	-0.045	-0.243
-291.647	304.899	-0.080	0.148
-290.632	-200.000	-0.029	0.140
-289.618	0.114	0.255	-0.180
-288.603	71.852	-0.229	0.236
-287.589	-200.000	0.004	-0.154
-286.574	-104.792	0.375	-0.086
-285.559	-46.695	-0.270	0.131
-284.545	-200.000	-0.055	-0.597
-283.530	800.000	-0.047	0.145
-282.516	567.346	-0.047	-0.112
-281.501	-200.000	0.002	-0.147
-280.486	256.824	-0.258	0.439
-279.472	309.294	0.095	0.177
-278.457	-96.186	0.029	-0.008
-277.443	-87.362	-0.099	0.030
-276.428	-197.529	-0.196	0.001
-275.413	-200.000	-0.024	0.183
-274.399	37.310	0.159	0.140
-273.384	800.000	0.021	-0.065
-272.370	800.000	-0.066	-0.196
-271.355	-22.582	-0.364	-0.218
-270.340	-167.278	-0.327	0.013
-269.326	-200.000	0.015	0.381
-268.311	-120.334	0.178	-0.030
-267.297	480.794	-0.136	-0.305
-266.282	89.517	0.077	0.086
-265.267	42.002	-0.196	0.176
-264.253	634.690	0.068	0.171
-263.238	39.159	-0.229	-0.202
-262.224	68.020	0.017	-0.017
-261.209	-160.710	-0.240	0.013
-260.195	2.366	0.334	-0.239
-259.180	-200.000	0.001	-0.105
-258.165	-200.000	0.046	0.203
-257.151	-200.000	0.002	0.148
-256.136	323.080	0.179	-0.337
-255.122	-121.901	0.195	0.032
-254.107	-24.847	0.191	0.112
-253.092	-0.579	-0.159	0.112
-252.078	125.228	0.106	-0.132
-251.063	-52.229	-0.148	0.068
-250.049	124.523	0.130	0.162
-249.034	-162.122	-0.045	0.002
-248.019	-123.464	0.089	-0.014
-247.005	-95.170	0.164	0.044
-245.990	-100.612	-0.019	-0.005
-244.976	16.442	-0.191	0.149
-243.961	-138.516	-0.142	-0.015
-242.946	46.926	0.141	0.130
-241.932	160.225	0.113	0.156
-240.917	-31.411	-0.136	-0.076
-239.903	-200.000	-0.041	0.359
-238.888	-65.926	-0.033	0.013
-237.873	-47.735	-0.147	0.071
-236.859	-200.000	0.001	0.046
-235.844	-11.154	0.226	-0.147
-234.830	95.188	0.128	-0.144
-233.815	-200.000	-0.013	-0.163
-232.800	290.835	0.119	0.214
-231.786	-89.984	-0.075	-0.022
-230.771	-200.000	0.005	-0.160
-229.757	125.092	0.113	0.141
-228.742	-200.000	0.008	0.341
-227.727	104.470	0.167	0.194
-226.713	-98.745	0.137	0.035
-225.698	253.355	0.133	0.225
-224.684	507.478	0.027	-0.061
-223.669	-59.888	-0.108	0.046
-222.655	-69.994	0.015	-0.006
-221.640	4.703	0.070	0.051
-220.625	-47.464	0.279	-0.134
-219.611	-13.961	-0.241	0.154
-218.596	-141.498	0.113	0.011
-217.582	-82.389	-0.145	0.047
-216.567	-46.783	-0.119	0.057
-215.552	157.536	-0.112	-0.153
-214.538	-67.964	0.364	0.140
-213.523	-54.870	0.291	0.130
-212.509	532.023	0.180	0.421
-211.494	-61.919	-0.290	0.120
-210.479	-200.000	0.030	0.202
-209.465	-200.000	-0.013	-0.222
-208.450	-200.000	0.015	-0.143
-207.436	-5.272	0.061	0.042
-206.421	-200.000	-0.022	-0.182
-205.406	61.093	0.160	-0.157
-204.392	403.493	-0.030	0.062
-203.377	208.150	-0.154	-0.238
-202.363	-200.000	-0.047	-0.245
-201.348	316.110	0.059	0.110
-200.333	-20.644	0.103	0.062
-199.319	249.533	0.108	0.182
-198.304	-135.290	0.362	0.043
-197.290	374.309	-0.238	-0.479
-196.275	-86.893	0.381	-0.115
-195.260	218.485	0.083	-0.131
-194.246	-99.365	-0.100	-0.025
-193.231	77.960	-0.063	-0.066
-192.217	-200.000	0.043	-0.249
-191.202	800.000	0.106	-0.446
-190.187	-47.884	-0.217	0.104
-189.173	-161.394	-0.113	-0.006
-188.158	-41.480	0.257	0.131
-187.144	800.000	-0.084	-0.270
-186.129	-73.449	0.224	-0.081
-185.114	-59.050	0.185	0.079
-184.100	383.833	-0.046	-0.094
-183.085	-41.975	0.169	0.085
-182.071	-96.447	0.233	-0.061
-181.056	-200.000	0.052	-0.307
-180.042	-19.346	0.059	-0.036
-179.027	-200.000	-0.009	0.047
-178.012	13.298	0.334	-0.255
-176.998	800.000	-0.021	-0.082
-175.983	87.730	0.192	-0.210
-174.969	-119.429	-0.126	0.022
-173.954	-61.881	-0.180	-0.074
-172.939	-12.477	0.362	0.234
-171.925	19.178	-0.169	-0.134
-170.910	-89.867	0.232	-0.067
-169.896	-21.744	0.174	0.104
-168.881	16.889	-0.145	-0.113
-167.866	16.176	0.208	0.162
-166.852	-200.000	0.026	-0.127
-165.837	249.105	0.073	-0.121
-164.823	-200.000	-0.025	0.228
-163.808	-16.124	0.314	-0.197
-162.793	93.651	-0.127	-0.142
-161.779	87.793	0.061	-0.066
-160.764	-63.066	0.261	0.106
-159.750	-67.817	-0.178	-0.069
-158.735	-118.648	0.303	0.053
-157.720	-16.400	-0.198	-0.124
-156.706	378.352	-0.076	0.153
-155.691	-200.000	-0.011	0.281
-154.677	800.000	-0.007	0.024
-153.662	800.000	0.057	0.198
-152.647	-65.674	0.292	-0.115
-151.633	-200.000	0.012	-0.065
-150.618	-59.504	-0.088	-0.037
-149.604	-86.248	-0.075	-0.023
-148.589	-200.000	0.003	0.142
-147.574	101.241	-0.194	0.222
-146.560	-30.812	0.208	0.116
-145.545	-16.625	0.038	-0.024
-144.531	-73.967	0.069	0.025
-143.516	-200.000	0.033	-0.332
-142.502	403.572	0.090	0.187
-141.487	-31.867	0.103	0.057
-140.472	-137.168	0.073	0.008
-139.458	-134.217	-0.182	-0.022
-138.443	-200.000	0.054	0.242
-137.429	488.759	0.064	-0.144
-136.414	-200.000	0.014	0.167
-135.399	-14.640	0.176	-0.111
-134.385	-19.852	0.025	-0.015
-133.370	113.505	0.110	-0.132
-132.356	800.000	0.102	0.310
-131.341	375.085	-0.077	0.155
-130.326	-55.108	0.069	-0.031
-129.312	432.280	0.030	0.065
-128.297	-141.796	-0.289	0.028
-127.283	744.624	-0.134	-0.355
-126.268	196.276	0.087	-0.131
-125.253	699.468	0.139	-0.361
-124.239	-181.165	-0.037	-0.001
-123.224	-134.026	0.283	0.035
-122.210	-179.815	0.008	0.000
-121.195	-200.000	-0.002	-0.214
