DTS Sentinel unit serial number:	SN413079Multiplexer serial number:	ORYXHardware model number:	OX4-SRSoftware version number:	ORYX F/W v4.00 Oryx Data Collector v3.7.2.0data status	okinstallation	princeton_trtdifferential loss correction	single-endedforward channel	channel 2reverse channel	N/Adate	2019/09/15time	22:59:34forward acquisition time	60.00reverse acquisition time	0.00gamma	496.2192k internal	0.2336k external	0.2336temperature offset calibration	0.9951default loss term (dB/km)	0.3790temperature slope calibration	1.0000multiplexer offset coefficient	1.0000multiplexer slope coefficient	1.0000fibre end	0.00T internal ref (°C)	28.62T ext. ref 1 (°C)	8.97T ext. ref 2 (°C)	22.19length (m)	temperature (°C)	Stokes	anti-Stokes-747.200	135.236	0.279	0.364
-746.185	-200.000	-0.049	0.334
-745.171	193.634	0.141	-0.214
-744.156	17.063	-0.219	0.174
-743.142	112.462	0.108	0.131
-742.127	-93.050	0.228	-0.064
-741.112	-200.000	-0.008	-0.238
-740.098	-98.846	-0.288	0.073
-739.083	-200.000	0.033	0.308
-738.069	-200.000	-0.066	0.317
-737.054	-200.000	0.039	-0.367
-736.039	-123.757	-0.273	0.043
-735.025	221.547	-0.115	0.185
-734.010	-200.000	-0.074	-0.324
-732.996	112.476	-0.081	-0.099
-731.981	308.844	0.165	0.309
-730.966	-200.000	-0.059	-0.351
-729.952	-120.442	-0.165	-0.028
-728.937	349.059	-0.061	-0.121
-727.923	-200.000	-0.027	0.193
-726.908	-113.783	-0.289	-0.057
-725.894	-200.000	0.053	0.264
-724.879	800.000	0.038	-0.129
-723.864	-69.420	-0.362	-0.139
-722.850	-185.078	-0.098	-0.002
-721.835	-200.000	0.007	-0.121
-720.821	-200.000	-0.000	-0.073
-719.806	-10.293	-0.102	0.068
-718.791	-79.121	0.048	0.016
-717.777	795.110	-0.111	0.306
-716.762	270.691	0.140	-0.247
-715.748	55.349	0.123	-0.120
-714.733	-42.281	0.225	0.115
-713.718	7.128	0.060	-0.045
-712.704	-200.000	-0.072	0.325
-711.689	-73.477	-0.397	0.145
-710.675	26.620	-0.166	0.140
-709.660	-200.000	-0.029	0.143
-708.645	49.733	-0.230	0.217
-707.631	158.906	-0.176	0.245
-706.616	41.050	0.077	0.070
-705.602	-79.080	0.174	0.059
-704.587	17.521	-0.176	0.140
-703.572	-60.141	0.157	0.067
-702.558	67.454	0.263	-0.269
-701.543	40.153	-0.295	-0.266
-700.529	374.859	0.171	0.349
-699.514	-138.515	-0.281	-0.031
-698.499	-164.441	0.044	-0.002
-697.485	102.409	0.213	-0.249
-696.470	167.242	-0.150	0.214
-695.456	-43.237	-0.051	-0.026
-694.441	227.370	0.091	0.149
-693.426	244.739	-0.054	0.091
-692.412	-200.000	-0.030	0.152
-691.397	-200.000	-0.035	-0.163
-690.383	179.112	0.068	0.100
-689.368	84.907	0.218	-0.239
-688.354	-87.158	-0.080	-0.024
-687.339	7.404	0.055	-0.041
-686.324	-200.000	0.025	0.210
-685.310	-54.511	-0.251	0.114
-684.295	322.058	0.148	0.283
-683.281	411.431	0.073	0.155
-682.266	647.731	0.044	0.113
-681.251	479.166	0.067	-0.153
-680.237	591.172	-0.077	0.191
-679.222	800.000	-0.041	0.180
-678.208	411.165	0.109	-0.232
-677.193	-200.000	-0.028	-0.324
-676.178	800.000	-0.011	-0.044
-675.164	248.143	-0.096	0.163
-674.149	519.818	-0.170	0.398
-673.135	62.729	0.306	-0.306
-672.120	-200.000	-0.039	-0.216
-671.105	-64.675	0.331	-0.135
-670.091	355.154	-0.050	-0.100
-669.076	-99.936	0.178	0.044
-668.062	98.779	0.020	0.023
-667.047	24.195	-0.100	-0.083
-666.032	-15.213	0.081	0.052
-665.018	69.121	-0.144	-0.148
-664.003	-118.397	0.433	0.077
-662.989	-30.512	-0.154	-0.087
-661.974	40.477	0.286	0.258
-660.959	-200.000	0.012	-0.058
-659.945	110.820	-0.141	0.170
-658.930	-67.373	0.067	-0.026
-657.916	-200.000	0.063	-0.361
-656.901	-45.944	-0.167	-0.082
-655.886	-4.032	-0.097	0.068
-654.872	-14.057	-0.128	-0.083
-653.857	418.418	0.170	0.364
-652.843	-200.000	0.067	-0.411
-651.828	88.749	0.012	0.013
-650.814	-200.000	-0.016	0.424
-649.799	-176.730	0.131	0.003
-648.784	-200.000	0.072	-0.341
-647.770	795.130	-0.085	-0.234
-646.755	-200.000	0.002	-0.236
-645.741	142.134	0.133	0.177
-644.726	95.769	-0.113	0.129
-643.711	-200.000	0.054	-0.256
-642.697	-200.000	0.016	0.260
-641.682	61.136	-0.139	-0.139
-640.668	137.090	-0.157	-0.205
-639.653	452.351	-0.033	-0.073
-638.638	-200.000	-0.023	0.129
-637.624	-27.841	-0.086	-0.050
-636.609	-10.920	-0.072	0.048
-635.595	-17.923	0.112	-0.070
-634.580	-200.000	-0.004	-0.026
-633.565	755.452	-0.081	0.220
-632.551	601.188	-0.085	-0.211
-631.536	-99.869	-0.193	-0.048
-630.522	228.961	-0.144	0.235
-629.507	99.730	0.093	-0.108
-628.492	255.189	0.128	-0.220
-627.478	493.645	0.106	0.243
-626.463	-200.000	-0.012	0.270
-625.449	-200.000	-0.050	-0.225
-624.434	298.398	-0.141	-0.259
-623.419	-200.000	0.024	0.547
-622.405	-24.097	0.210	-0.126
-621.390	800.000	0.028	-0.077
-620.376	-114.151	-0.377	-0.073
-619.361	-200.000	0.009	0.110
-618.346	-47.260	-0.357	0.174
-617.332	-200.000	0.013	0.163
-616.317	-165.062	0.109	-0.005
-615.303	200.171	0.169	-0.259
-614.288	135.801	0.407	-0.530
-613.273	662.997	0.038	0.098
-612.259	-200.000	-0.001	0.223
-611.244	-131.925	-0.233	0.030
-610.230	-127.609	-0.278	0.040
-609.215	-163.701	0.301	-0.014
-608.201	-169.512	0.205	0.007
-607.186	-200.000	-0.039	0.218
-606.171	800.000	-0.047	-0.132
-605.157	54.353	-0.032	-0.030
-604.142	-117.609	-0.347	-0.063
-603.128	216.430	-0.115	0.183
-602.113	200.431	-0.158	0.243
-601.098	-200.000	0.014	-0.146
-600.084	-200.000	0.002	-0.098
-599.069	-25.631	0.340	0.200
-598.055	-127.192	-0.375	-0.055
-597.040	-200.000	-0.005	-0.293
-596.025	800.000	0.056	-0.238
-595.011	-145.270	0.275	-0.025
-593.996	-77.705	0.201	0.069
-592.982	-200.000	-0.038	-0.303
-591.967	-103.910	0.346	0.081
-590.952	-141.529	0.249	0.025
-589.938	-48.781	-0.120	-0.058
-588.923	-22.228	-0.111	-0.067
-587.909	-200.000	0.013	-0.288
-586.894	-38.532	-0.157	0.083
-585.879	-200.000	0.003	-0.144
-584.865	122.916	0.275	0.344
-583.850	-200.000	-0.031	0.597
-582.836	125.689	-0.031	0.039
-581.821	-200.000	0.006	0.268
-580.806	-81.302	-0.063	-0.021
-579.792	-200.000	0.024	0.181
-578.777	523.677	-0.100	-0.235
-577.763	628.170	-0.048	-0.122
-576.748	-200.000	0.018	-0.091
-575.733	-98.308	0.184	0.047
-574.719	726.894	-0.053	-0.140
-573.704	-95.399	-0.339	-0.091
-572.690	-200.000	-0.022	0.252
-571.675	-200.000	-0.003	0.081
-570.661	141.212	-0.224	-0.296
-569.646	-13.075	-0.250	-0.162
-568.631	-137.276	0.266	0.030
-567.617	83.252	0.099	0.107
-566.602	-81.634	-0.311	-0.102
-565.588	-91.492	0.241	-0.068
-564.573	-200.000	0.033	0.303
-563.558	111.051	-0.175	-0.210
-562.544	100.054	0.116	-0.134
-561.529	246.185	-0.157	0.264
-560.515	-200.000	0.049	0.273
-559.500	217.517	-0.062	-0.099
-558.485	-82.234	0.280	-0.091
-557.471	-44.762	0.053	-0.026
-556.456	454.756	-0.205	0.452
-555.442	157.842	0.112	0.155
-554.427	357.752	-0.093	0.185
-553.412	-119.521	-0.118	0.020
-552.398	-200.000	-0.003	-0.106
-551.383	132.248	-0.238	-0.306
-550.369	-200.000	-0.022	0.295
-549.354	105.597	-0.210	-0.247
-548.339	-47.479	-0.425	-0.206
-547.325	-110.144	0.250	0.052
-546.310	42.204	-0.182	-0.165
-545.296	341.925	0.056	-0.110
-544.281	229.284	-0.328	-0.534
-543.266	24.968	0.188	-0.155
-542.252	58.342	-0.092	-0.090
-541.237	16.176	0.220	-0.173
-540.223	-121.442	-0.204	0.034
-539.208	-138.195	-0.143	-0.016
-538.193	800.000	-0.088	-0.244
-537.179	-126.441	-0.227	-0.034
-536.164	93.614	0.067	0.076
-535.150	-20.353	-0.194	-0.119
-534.135	208.715	-0.058	-0.091
-533.121	-62.245	-0.164	0.068
-532.106	84.534	-0.204	-0.222
-531.091	-75.841	-0.284	-0.100
-530.077	540.322	-0.164	-0.388
-529.062	626.477	0.191	-0.481
-528.048	-115.310	0.323	0.061
-527.033	-200.000	-0.007	-0.233
-526.018	800.000	0.076	-0.234
-525.004	146.986	-0.014	-0.018
-523.989	-123.570	0.253	-0.040
-522.975	405.119	-0.017	0.036
-521.960	123.763	-0.233	-0.291
-520.945	90.776	0.171	-0.191
-519.931	109.661	0.218	-0.260
-518.916	-200.000	-0.073	0.421
-517.902	800.000	0.025	-0.075
-516.887	208.431	-0.161	-0.250
-515.872	-200.000	-0.017	-0.083
-514.858	-49.520	0.225	0.107
-513.843	-77.958	0.136	0.047
-512.829	210.690	0.138	0.215
-511.814	142.547	-0.241	0.318
-510.799	50.481	0.087	0.082
-509.785	50.993	-0.223	0.211
-508.770	-103.734	-0.280	0.065
-507.756	-137.589	0.183	0.021
-506.741	32.558	-0.234	-0.201
-505.726	133.328	0.158	-0.204
-504.712	14.514	0.325	-0.252
-503.697	-57.357	0.093	-0.041
-502.683	-42.519	0.302	0.153
-501.668	-200.000	-0.001	-0.079
-500.653	-200.000	0.001	0.070
-499.639	-161.449	0.279	0.014
-498.624	-50.842	0.083	0.039
-497.610	64.446	0.059	-0.059
-496.595	-45.836	-0.087	0.043
-495.581	800.000	-0.108	-0.316
-494.566	-200.000	-0.011	0.056
-493.551	-200.000	-0.063	0.326
-492.537	-29.566	-0.043	0.025
-491.522	-200.000	0.020	-0.230
-490.508	-26.270	-0.126	-0.073
-489.493	165.379	0.068	0.095
-488.478	-133.050	0.123	-0.016
-487.464	-7.096	-0.149	0.100
-486.449	-200.000	0.033	-0.392
-485.435	-200.000	-0.015	0.201
-484.420	-157.073	0.016	-0.001
-483.405	-200.000	-0.024	-0.173
-482.391	634.490	-0.079	-0.198
-481.376	800.000	0.114	-0.359
-480.362	82.881	0.074	-0.080
-479.347	744.907	-0.056	-0.151
-478.332	165.633	-0.147	-0.207
-477.318	84.431	0.156	-0.170
-476.303	154.503	0.084	-0.115
-475.289	-200.000	0.034	0.162
-474.274	307.434	0.081	0.150
-473.259	-200.000	0.014	-0.077
-472.245	-60.507	0.019	-0.008
-471.230	377.025	0.077	-0.155
-470.216	62.312	-0.175	-0.174
-469.201	-110.576	0.312	0.064
-468.186	244.595	0.126	-0.211
-467.172	-200.000	0.007	-0.163
-466.157	-59.680	-0.178	0.076
-465.143	-9.603	0.159	-0.105
-464.128	18.834	-0.153	-0.122
-463.113	109.197	-0.189	0.225
-462.099	800.000	-0.067	0.201
-461.084	-200.000	-0.042	0.250
-460.070	-81.625	0.166	0.054
-459.055	38.278	-0.040	-0.035
-458.040	337.323	0.102	0.196
-457.026	-200.000	-0.028	-0.212
-456.011	-200.000	-0.054	-0.403
-454.997	-199.975	0.167	0.001
-453.982	-154.804	0.238	-0.016
-452.968	-93.001	-0.234	-0.065
-451.953	425.033	0.132	0.282
-450.938	-200.000	-0.037	-0.237
-449.924	-200.000	-0.035	0.221
-448.909	497.557	0.087	-0.198
-447.895	-200.000	-0.006	0.090
-446.880	302.465	0.158	-0.290
-445.865	800.000	0.125	0.406
-444.851	-66.430	-0.208	-0.082
-443.836	63.344	-0.113	-0.112
-442.822	-200.000	-0.010	-0.074
-441.807	800.000	-0.078	0.333
-440.792	113.460	-0.192	0.231
-439.778	187.208	0.137	-0.202
-438.763	-200.000	0.011	-0.124
-437.749	-16.533	-0.266	0.167
-436.734	-58.364	-0.397	0.171
-435.719	800.000	-0.068	0.189
-434.705	-200.000	0.033	-0.326
-433.690	147.654	-0.117	0.157
-432.676	-200.000	0.065	0.355
-431.661	-144.158	-0.180	0.017
-430.646	-152.323	0.283	-0.020
-429.632	360.949	-0.103	-0.205
-428.617	-11.369	0.238	0.156
-427.603	452.951	0.033	0.073
-426.588	800.000	-0.069	0.193
-425.573	207.891	0.173	-0.268
-424.559	113.250	-0.137	-0.165
-423.544	532.941	-0.137	0.321
-422.530	-44.819	0.198	0.098
-421.515	-200.000	0.049	-0.249
-420.500	-200.000	-0.038	-0.197
-419.486	800.000	-0.049	0.171
-418.471	92.946	-0.181	-0.203
-417.457	-135.181	-0.089	-0.011
-416.442	8.057	-0.198	0.147
-415.428	458.534	0.018	0.041
-414.413	-200.000	-0.007	-0.101
-413.398	-200.000	0.036	-0.232
-412.384	114.251	-0.034	-0.041
-411.369	-113.649	0.203	0.039
-410.355	-121.643	0.072	0.012
-409.340	28.756	0.317	0.266
-408.325	137.976	-0.093	-0.120
-407.311	-52.929	0.339	-0.155
-406.296	244.267	0.118	0.197
-405.282	800.000	-0.081	0.288
-404.267	-200.000	-0.039	0.330
-403.252	-82.650	0.268	0.086
-402.238	-37.121	0.183	-0.097
-401.223	-200.000	0.022	-0.293
-400.209	42.948	0.072	0.065
-399.194	-165.828	0.234	0.010
-398.179	-200.000	-0.005	0.050
-397.165	63.632	-0.136	0.135
-396.150	440.848	-0.066	-0.143
-395.136	-200.000	-0.007	0.058
-394.121	413.946	0.184	-0.387
-393.106	-142.466	-0.074	-0.007
-392.092	90.516	-0.330	0.366
-391.077	-44.639	-0.055	-0.027
-390.063	-92.065	0.065	-0.018
-389.048	-15.046	-0.104	-0.066
-388.033	732.453	-0.043	0.113
-387.019	480.262	-0.119	0.267
-386.004	-99.510	0.241	-0.060
-384.990	-129.186	-0.243	0.034
-383.975	-32.396	0.468	-0.259
-382.960	20.994	-0.084	-0.067
-381.946	800.000	-0.011	-0.045
-380.931	-163.958	-0.086	-0.004
-379.917	-200.000	-0.101	-0.440
-378.902	397.484	0.120	-0.247
-377.888	-200.000	0.048	-0.319
-376.873	-126.473	-0.160	-0.024
-375.858	-79.871	0.022	-0.007
-374.844	29.238	0.264	0.222
-373.829	-99.897	-0.147	0.036
-372.815	-200.000	0.057	0.326
-371.800	27.485	0.255	-0.212
-370.785	240.629	0.077	-0.127
-369.771	468.891	0.161	0.357
-368.756	296.749	0.004	-0.008
-367.742	-200.000	0.023	-0.126
-366.727	-89.679	0.252	-0.073
-365.712	12.281	-0.180	0.137
-364.698	-200.000	0.017	0.147
-363.683	800.000	-0.117	0.333
-362.669	-86.394	-0.141	0.043
-361.654	14.469	-0.096	0.074
-360.639	-5.916	0.158	0.107
-359.625	-51.552	0.211	0.097
-358.610	-102.072	-0.143	-0.034
-357.596	-86.047	-0.304	-0.093
-356.581	137.954	-0.101	0.131
-355.566	24.075	0.372	0.303
-354.552	-40.543	0.203	0.104
-353.537	218.149	-0.128	-0.203
-352.523	-64.376	0.257	-0.104
-351.508	-40.925	-0.132	0.068
-350.493	800.000	0.069	-0.266
-349.479	194.693	-0.038	-0.057
-348.464	207.412	-0.035	-0.053
-347.450	-28.808	-0.308	0.175
-346.435	-40.701	0.392	-0.201
-345.420	-5.963	0.120	0.081
-344.406	-200.000	0.004	0.114
-343.391	-60.493	-0.037	0.015
-342.377	83.756	0.215	0.232
-341.362	800.000	-0.037	-0.108
-340.348	-14.438	-0.172	-0.109
-339.333	53.272	0.138	0.130
-338.318	25.634	0.075	-0.062
-337.304	-92.933	0.132	0.037
-336.289	-200.000	-0.011	0.308
-335.275	-200.000	0.002	-0.093
-334.260	-19.741	0.252	-0.154
-333.245	416.384	-0.205	0.432
-332.231	202.291	0.252	-0.384
-331.216	-85.928	-0.381	0.116
-330.202	-33.610	0.153	-0.084
-329.187	-42.501	-0.192	0.096
-328.172	24.996	-0.366	-0.300
-327.158	-200.000	-0.020	0.159
-326.143	207.132	0.142	-0.219
-325.129	434.878	-0.035	-0.076
-324.114	-150.595	-0.357	-0.027
-323.099	-200.000	-0.007	0.034
-322.085	645.041	0.112	0.283
-321.070	90.646	-0.150	-0.166
-320.056	-160.942	0.053	-0.003
-319.041	-154.517	0.205	-0.014
-318.026	691.211	0.039	-0.102
-317.012	-166.179	0.395	-0.017
-315.997	-200.000	0.021	-0.281
-314.983	-200.000	-0.018	-0.293
-313.968	-200.000	0.049	0.229
-312.953	800.000	0.061	-0.174
-311.939	-200.000	0.029	0.151
-310.924	-124.142	0.096	-0.015
-309.910	257.123	-0.156	0.264
-308.895	-72.065	-0.482	-0.177
-307.880	409.451	0.044	0.093
-306.866	65.806	0.195	0.196
-305.851	-66.246	-0.117	-0.046
-304.837	177.019	-0.125	-0.180
-303.822	-19.316	0.055	-0.034
-302.807	-200.000	-0.078	0.435
-301.793	64.293	-0.066	0.066
-300.778	135.041	0.187	-0.240
-299.764	-44.427	-0.217	0.107
-298.749	-95.793	0.210	0.055
-297.735	-99.398	0.213	0.053
-296.720	62.421	-0.093	0.092
-295.705	-22.753	-0.289	0.172
-294.691	49.543	-0.052	0.049
-293.676	800.000	-0.042	-0.145
-292.662	-193.130	0.027	0.000
-291.647	-200.000	-0.021	-0.122
-290.632	178.765	0.128	0.185
-289.618	-200.000	0.005	0.058
-288.603	-200.000	-0.030	-0.206
-287.589	380.094	-0.062	-0.126
-286.574	75.203	0.092	0.096
-285.559	98.719	0.068	-0.078
-284.545	-142.088	-0.353	-0.035
-283.530	-137.324	0.068	0.008
-282.516	8.184	0.304	0.225
-281.501	64.281	-0.256	0.254
-280.486	-200.000	0.042	0.311
-279.472	305.526	0.107	0.197
-278.457	800.000	-0.068	0.284
-277.443	246.497	-0.241	0.400
-276.428	-200.000	-0.006	0.315
-275.413	-164.528	0.280	-0.013
-274.399	-200.000	0.010	0.160
-273.384	288.902	0.039	0.069
-272.370	-64.440	-0.206	-0.083
-271.355	341.515	0.088	-0.170
-270.340	147.627	0.120	-0.159
-269.326	409.060	0.125	-0.261
-268.311	-10.868	-0.221	0.144
-267.297	386.274	0.090	-0.184
-266.282	-106.121	0.251	-0.056
-265.267	-10.786	0.062	0.040
-264.253	427.334	-0.078	0.165
-263.238	-130.783	0.227	-0.030
-262.224	800.000	-0.103	0.307
-261.209	134.348	0.181	0.231
-260.195	-151.409	-0.076	0.006
-259.180	-4.108	0.059	0.040
-258.165	-200.000	0.011	0.091
-257.151	800.000	-0.013	0.045
-256.136	-145.474	-0.269	0.024
-255.122	48.659	0.108	0.100
-254.107	-200.000	-0.270	-0.001
-253.092	800.000	0.074	0.287
-252.078	-86.351	0.021	0.006
-251.063	110.329	-0.206	-0.243
-250.049	-49.769	0.346	0.162
-249.034	-60.672	0.299	-0.125
-248.019	-57.059	0.152	0.066
-247.005	200.870	-0.015	-0.023
-245.990	-118.799	0.296	-0.051
-244.976	-200.000	-0.067	0.423
-243.961	95.559	0.009	0.010
-242.946	-181.550	-0.181	0.003
-241.932	-88.963	0.172	0.050
-240.917	-19.885	-0.342	0.208
-239.903	60.428	-0.202	-0.197
-238.888	-109.898	-0.100	0.021
-237.873	102.727	0.328	0.378
-236.859	-200.000	0.016	0.112
-235.844	-62.163	-0.441	-0.181
-234.830	306.990	-0.109	0.200
-233.815	48.601	0.052	-0.048
-232.800	545.682	0.137	-0.324
-231.786	36.665	-0.075	0.065
-230.771	-159.389	0.411	0.023
-229.757	272.671	-0.134	-0.234
-228.742	27.420	0.236	0.196
-227.727	-87.591	0.065	-0.019
-226.713	-34.386	-0.244	0.132
-225.698	-200.000	-0.022	0.195
-224.684	78.746	0.049	0.052
-223.669	716.987	0.091	-0.238
-222.655	-64.442	-0.303	0.121
-221.640	800.000	0.037	-0.138
-220.625	-147.863	-0.091	-0.008
-219.611	-173.988	-0.275	0.008
-218.596	-200.000	-0.282	0.001
-217.582	45.504	-0.157	-0.143
-216.567	-200.000	-0.002	-0.195
-215.552	-114.184	0.139	0.026
-214.538	167.591	0.179	-0.250
-213.523	-110.477	-0.172	-0.035
-212.509	-87.272	-0.187	-0.056
-211.494	96.031	0.194	0.218
-210.479	-82.888	0.222	0.070
-209.465	1.010	-0.233	0.164
-208.450	96.818	0.164	-0.185
-207.436	-87.404	0.263	-0.079
-206.421	-55.641	-0.158	0.069
-205.406	-82.902	-0.258	0.082
-204.392	-200.000	-0.050	0.391
-203.377	-37.159	0.230	-0.121
-202.363	800.000	-0.057	0.226
-201.348	-176.046	-0.116	-0.003
-200.333	25.232	0.051	0.042
-199.319	6.380	-0.199	-0.145
-198.304	-50.171	-0.283	-0.131
-197.290	-65.826	0.126	0.050
-196.275	-200.000	-0.052	0.315
-195.260	367.366	0.204	0.405
-194.246	-7.760	0.432	0.287
-193.231	-200.000	-0.043	0.371
-192.217	-38.258	-0.131	0.068
-191.202	157.327	0.144	0.196
-190.187	16.085	0.085	-0.066
-189.173	-107.250	0.013	0.003
-188.158	-41.486	-0.185	-0.093
-187.144	-200.000	0.029	0.166
-186.129	184.393	0.045	-0.065
-185.114	-24.911	-0.122	-0.071
-184.100	-144.612	0.305	-0.028
-183.085	79.419	0.154	0.163
-182.071	291.251	-0.249	0.445
-181.056	145.448	0.216	-0.284
-180.042	222.133	-0.144	-0.228
-179.027	800.000	-0.059	0.174
-178.012	126.813	0.178	0.222
-176.998	89.192	0.122	-0.134
-175.983	-64.128	0.302	0.121
-174.969	-29.541	-0.288	-0.162
-173.954	45.957	0.137	-0.125
-172.939	-200.000	-0.003	0.080
-171.925	-200.000	0.044	0.203
-170.910	27.185	-0.092	0.076
-169.896	-200.000	-0.072	-0.331
-168.881	67.196	0.309	-0.310
-167.866	-69.475	-0.278	-0.105
-166.852	-83.267	-0.521	-0.164
-165.837	63.506	0.199	0.196
-164.823	-129.189	-0.256	-0.035
-163.808	800.000	0.048	-0.198
-162.793	-200.000	0.009	0.360
-161.779	800.000	0.036	-0.145
-160.764	-91.338	0.154	0.043
-159.750	800.000	-0.072	-0.225
-158.735	36.289	-0.072	-0.062
-157.720	73.062	-0.169	-0.173
-156.706	-113.536	0.464	-0.089
-155.691	800.000	0.022	-0.082
-154.677	800.000	-0.043	0.182
-153.662	-35.146	-0.088	-0.047
-152.647	3.921	0.198	0.142
-151.633	-87.596	0.034	-0.010
-150.618	-200.000	0.045	0.356
-149.604	-89.906	0.212	0.061
-148.589	-49.418	-0.089	0.042
-147.574	-68.837	0.073	-0.028
-146.560	27.642	-0.112	0.092
-145.545	-103.299	0.326	-0.076
-144.531	-5.949	-0.246	0.165
-143.516	474.404	-0.205	-0.453
-142.502	-200.000	-0.035	-0.229
-141.487	282.731	0.139	0.245
-140.472	698.822	-0.096	0.248
-139.458	-93.553	0.270	0.073
-138.443	-83.153	-0.127	0.040
-137.429	27.560	0.238	-0.196
-136.414	228.766	-0.145	-0.231
-135.399	85.687	-0.401	0.432
-134.385	800.000	0.053	0.194
-133.370	14.098	0.233	0.178
-132.356	720.780	-0.124	0.324
-131.341	-200.000	0.010	0.160
-130.326	459.995	-0.041	-0.091
-129.312	238.223	-0.224	0.364
-128.297	41.564	-0.213	0.189
-127.283	-78.605	0.306	-0.103
-126.268	-112.091	-0.353	0.070
-125.253	202.002	0.039	-0.059
-124.239	-200.000	-0.024	0.236
-123.224	35.633	0.078	0.067
-122.210	758.855	-0.107	0.284
