DTS Sentinel unit serial number:	SN413079Multiplexer serial number:	ORYXHardware model number:	OX4-SRSoftware version number:	ORYX F/W v4.00 Oryx Data Collector v3.7.2.0data status	okinstallation	princeton_trtdifferential loss correction	single-endedforward channel	channel 2reverse channel	N/Adate	2019/09/13time	10:19:35forward acquisition time	60.00reverse acquisition time	0.00gamma	496.2192k internal	0.2323k external	0.2323temperature offset calibration	1.0193default loss term (dB/km)	0.3790temperature slope calibration	1.0000multiplexer offset coefficient	1.0000multiplexer slope coefficient	1.0000fibre end	0.00T internal ref (°C)	30.81T ext. ref 1 (°C)	4.52T ext. ref 2 (°C)	28.12length (m)	temperature (°C)	Stokes	anti-Stokes-747.200	-57.588	0.167	-0.074
-746.185	-139.783	-0.130	0.014
-745.171	-53.858	0.275	0.127
-744.156	611.846	0.146	0.369
-743.142	-158.662	-0.080	0.005
-742.127	61.848	0.218	0.220
-741.112	86.215	0.084	-0.094
-740.098	800.000	-0.075	0.279
-739.083	-200.000	0.012	0.177
-738.069	142.850	-0.162	0.218
-737.054	800.000	-0.026	0.094
-736.039	603.033	-0.081	0.204
-735.025	-139.532	0.200	-0.022
-734.010	-38.082	-0.380	0.203
-732.996	319.287	-0.200	-0.384
-731.981	607.424	-0.042	-0.106
-730.966	30.057	-0.238	0.205
-729.952	417.506	-0.110	-0.237
-728.937	-122.141	0.241	0.040
-727.923	-118.660	0.079	0.014
-726.908	16.277	-0.034	-0.027
-725.894	-103.268	0.317	0.075
-724.879	264.673	-0.263	-0.462
-723.864	-100.899	-0.129	0.032
-722.850	24.802	-0.105	0.088
-721.835	-200.000	-0.037	-0.453
-720.821	-141.670	0.102	-0.010
-719.806	-200.000	-0.021	0.123
-718.791	53.811	-0.143	-0.138
-717.777	-200.000	0.010	0.065
-716.762	-137.521	0.224	0.026
-715.748	196.948	-0.077	-0.118
-714.733	-127.648	0.139	-0.020
-713.718	-31.216	-0.306	-0.174
-712.704	-39.875	0.176	-0.093
-711.689	-109.563	-0.229	0.049
-710.675	16.715	0.063	-0.050
-709.660	-112.238	-0.208	-0.042
-708.645	800.000	0.064	-0.210
-707.631	556.598	-0.143	-0.347
-706.616	-200.000	0.055	-0.444
-705.602	800.000	0.099	0.325
-704.587	-125.146	-0.071	0.011
-703.572	-76.350	0.152	0.054
-702.558	-200.000	-0.042	0.395
-701.543	-137.048	-0.270	-0.031
-700.529	-200.000	0.005	-0.231
-699.514	255.325	-0.057	0.098
-698.499	398.702	0.141	-0.298
-697.485	397.412	-0.063	-0.132
-696.470	315.201	0.113	0.215
-695.456	341.482	0.071	0.140
-694.441	-200.000	0.004	0.147
-693.426	149.427	0.131	-0.179
-692.412	-200.000	0.010	0.299
-691.397	116.952	0.182	-0.225
-690.383	-151.334	0.250	-0.019
-689.368	-19.287	-0.106	0.066
-688.354	70.386	-0.101	-0.105
-687.339	-79.127	-0.181	-0.062
-686.324	-89.764	-0.278	-0.082
-685.310	-69.639	0.074	-0.028
-684.295	800.000	0.025	0.081
-683.281	-71.460	0.365	0.138
-682.266	-200.000	0.000	-0.043
-681.251	-69.373	-0.110	-0.042
-680.237	-57.890	-0.251	-0.110
-679.222	-151.474	-0.298	-0.022
-678.208	7.465	-0.142	0.107
-677.193	211.899	-0.107	-0.171
-676.178	800.000	0.024	0.082
-675.164	-200.000	-0.020	0.097
-674.149	-128.851	0.187	-0.026
-673.135	-200.000	-0.034	-0.394
-672.120	-64.688	0.150	0.061
-671.105	-165.889	-0.282	-0.012
-670.091	-42.482	0.364	-0.187
-669.076	47.523	-0.254	-0.239
-668.062	40.108	-0.243	-0.220
-667.047	4.104	-0.088	0.065
-666.032	-51.115	-0.234	-0.110
-665.018	88.624	0.152	0.170
-664.003	800.000	-0.049	0.149
-662.989	204.254	0.228	-0.356
-661.974	-129.410	-0.143	-0.020
-660.959	-76.781	0.109	-0.038
-659.945	-47.677	0.143	-0.070
-658.930	175.445	0.253	-0.369
-657.916	756.422	-0.070	0.191
-656.901	-78.949	-0.178	-0.061
-655.886	-177.561	0.016	-0.000
-654.872	-160.274	-0.139	0.008
-653.857	-80.516	0.257	-0.086
-652.843	-26.750	0.184	-0.108
-651.828	-200.000	0.030	-0.142
-650.814	79.647	0.229	-0.248
-649.799	-12.256	-0.339	-0.223
-648.784	-200.000	-0.011	0.100
-647.770	800.000	0.112	-0.373
-646.755	406.931	0.014	-0.029
-645.741	-60.298	0.194	0.083
-644.726	-106.530	-0.333	0.075
-643.711	53.877	-0.421	0.407
-642.697	-61.597	-0.211	0.089
-641.682	-61.113	-0.042	0.018
-640.668	800.000	-0.024	0.089
-639.653	62.551	0.115	-0.116
-638.638	-200.000	-0.024	0.219
-637.624	92.247	-0.158	0.179
-636.609	-107.988	0.182	-0.040
-635.595	800.000	-0.032	0.089
-634.580	92.463	-0.212	-0.240
-633.565	-110.107	0.202	0.042
-632.551	32.616	0.094	0.082
-631.536	310.313	0.026	0.050
-630.522	800.000	-0.052	-0.168
-629.507	-149.566	0.094	-0.008
-628.492	-200.000	0.016	-0.197
-627.478	-200.000	-0.002	0.240
-626.463	2.224	-0.242	-0.176
-625.449	484.233	-0.043	0.099
-624.434	100.169	-0.413	0.481
-623.419	293.975	0.076	-0.139
-622.405	115.895	-0.224	-0.276
-621.390	-200.000	0.001	0.033
-620.376	68.392	-0.100	0.103
-619.361	404.225	-0.165	0.349
-618.346	39.686	0.148	-0.133
-617.332	27.857	-0.162	-0.138
-616.317	-154.805	-0.074	-0.005
-615.303	-65.455	0.203	0.082
-614.288	-115.827	-0.147	0.028
-613.273	-50.504	0.017	0.008
-612.259	799.078	0.140	0.389
-611.244	-73.187	-0.134	-0.049
-610.230	-200.000	-0.004	-0.027
-609.215	-110.085	-0.202	-0.043
-608.201	800.000	0.028	-0.105
-607.186	89.483	-0.100	0.112
-606.171	-184.463	0.318	-0.005
-605.157	-92.806	0.086	0.024
-604.142	-114.818	-0.173	0.033
-603.128	118.063	-0.201	0.249
-602.113	-200.000	0.018	0.230
-601.098	406.414	0.104	0.220
-600.084	-71.801	-0.103	-0.039
-599.069	220.201	-0.167	0.270
-598.055	13.361	-0.104	-0.081
-597.040	563.590	0.084	0.204
-596.025	-200.000	-0.034	-0.266
-595.011	417.191	0.099	-0.213
-593.996	-200.000	-0.028	0.222
-592.982	-174.802	-0.306	0.009
-591.967	-91.767	-0.152	-0.043
-590.952	-57.631	0.259	0.114
-589.938	-200.000	0.011	0.305
-588.923	477.395	-0.062	0.142
-587.909	-133.974	0.246	-0.031
-586.894	336.987	-0.107	-0.209
-585.879	108.637	0.059	0.070
-584.865	-96.668	0.170	-0.045
-583.850	-109.826	0.232	0.049
-582.836	-64.633	-0.170	0.069
-581.821	800.000	-0.034	-0.116
-580.806	6.389	-0.073	-0.054
-579.792	-71.985	0.307	-0.114
-578.777	34.697	-0.234	0.205
-577.763	774.537	-0.012	-0.032
-576.748	128.747	-0.353	-0.452
-575.733	-127.399	-0.043	-0.006
-574.719	-123.890	0.108	-0.017
-573.704	-200.000	0.050	-0.363
-572.690	-200.000	-0.003	-0.143
-571.675	-176.235	-0.187	-0.005
-570.661	-82.837	-0.251	0.081
-569.646	-35.132	0.086	-0.047
-568.631	-106.088	-0.190	-0.043
-567.617	-85.944	0.202	0.063
-566.602	89.056	0.156	-0.174
-565.588	800.000	-0.073	-0.316
-564.573	111.664	0.143	0.173
-563.558	-108.217	-0.074	0.016
-562.544	-21.037	-0.238	-0.146
-561.529	-149.125	-0.325	0.026
-560.515	-22.970	-0.270	-0.163
-559.500	-200.000	-0.004	-0.277
-558.485	-172.725	-0.215	-0.007
-557.471	800.000	-0.080	0.261
-556.456	-89.850	0.289	-0.085
-555.442	37.056	-0.068	-0.060
-554.427	-55.905	-0.091	0.041
-553.412	-81.234	0.213	0.071
-552.398	459.189	-0.092	-0.205
-551.383	144.762	0.151	0.203
-550.369	-141.559	-0.450	-0.045
-549.354	599.008	-0.101	-0.251
-548.339	434.586	-0.016	-0.034
-547.325	-157.971	-0.118	0.007
-546.310	17.770	-0.053	0.042
-545.296	66.513	0.212	-0.216
-544.281	118.375	0.264	-0.326
-543.266	60.508	0.272	0.270
-542.252	257.778	0.171	-0.295
-541.237	-155.641	-0.270	-0.017
-540.223	800.000	0.061	-0.176
-539.208	-55.427	-0.274	-0.123
-538.193	800.000	-0.043	-0.174
-537.179	800.000	0.014	0.053
-536.164	457.451	0.128	-0.284
-535.150	-169.230	0.124	0.005
-534.135	-114.156	0.128	0.025
-533.121	-144.416	-0.102	-0.009
-532.106	172.952	0.047	-0.067
-531.091	292.413	-0.076	-0.139
-530.077	-112.213	0.363	0.073
-529.062	-200.000	0.029	0.260
-528.048	-110.026	-0.274	-0.057
-527.033	25.012	-0.102	-0.085
-526.018	175.464	-0.138	0.200
-525.004	-140.617	-0.159	-0.016
-523.989	-200.000	-0.011	0.220
-522.975	78.000	0.159	0.170
-521.960	-4.425	-0.266	-0.184
-520.945	495.727	0.127	-0.292
-519.931	409.503	-0.185	-0.392
-518.916	3.697	-0.216	-0.158
-517.902	499.331	-0.089	0.206
-516.887	-57.004	-0.115	-0.051
-515.872	-25.973	-0.236	-0.139
-514.858	-7.122	-0.196	0.133
-513.843	-59.069	-0.051	0.022
-512.829	-200.000	0.052	0.287
-511.814	-172.044	-0.245	-0.008
-510.799	-104.282	0.114	-0.027
-509.785	-134.711	0.271	0.033
-508.770	-45.276	-0.184	0.091
-507.756	2.841	0.087	-0.063
-506.741	150.255	0.111	0.150
-505.726	-89.608	-0.265	-0.078
-504.712	-173.495	-0.172	-0.005
-503.697	-200.000	0.038	0.221
-502.683	351.627	0.057	-0.113
-501.668	-200.000	-0.002	0.070
-500.653	-200.000	-0.001	-0.573
-499.639	156.684	-0.094	0.130
-498.624	-166.506	0.057	0.002
-497.610	-83.214	0.162	-0.052
-496.595	52.210	-0.271	-0.258
-495.581	800.000	0.079	0.250
-494.566	36.874	-0.256	0.226
-493.551	-4.895	0.080	-0.055
-492.537	-131.935	-0.285	-0.037
-491.522	-27.706	-0.049	0.029
-490.508	800.000	-0.114	-0.334
-489.493	227.337	-0.086	-0.140
-488.478	-107.226	0.358	0.079
-487.464	-111.786	0.145	0.029
-486.449	800.000	-0.048	-0.185
-485.435	-59.542	0.319	-0.137
-484.420	165.303	0.082	0.116
-483.405	-118.232	-0.229	0.041
-482.391	-200.000	-0.004	-0.305
-481.376	378.476	-0.088	-0.181
-480.362	-200.000	-0.007	-0.106
-479.347	282.766	0.138	-0.247
-478.332	-55.774	-0.224	0.100
-477.318	-48.305	-0.127	-0.061
-476.303	-200.000	0.060	0.348
-475.289	-57.406	0.191	-0.084
-474.274	800.000	0.062	-0.263
-473.259	-30.991	-0.128	-0.072
-472.245	800.000	0.034	-0.145
-471.230	75.372	-0.162	0.170
-470.216	460.643	0.076	-0.169
-469.201	800.000	0.109	-0.321
-468.186	153.294	0.152	-0.207
-467.172	265.204	-0.030	-0.052
-466.157	800.000	0.058	-0.251
-465.143	-200.000	-0.047	-0.260
-464.128	69.711	0.034	0.035
-463.113	-200.000	0.014	0.342
-462.099	-104.584	0.382	-0.088
-461.084	24.518	-0.347	-0.287
-460.070	-200.000	0.017	-0.081
-459.055	275.977	-0.060	0.105
-458.040	-103.891	0.377	0.088
-457.026	-74.652	-0.460	0.165
-456.011	-180.818	-0.124	0.003
-454.997	552.229	-0.121	-0.291
-453.982	-69.378	0.298	-0.114
-452.968	411.613	-0.109	-0.231
-451.953	-156.565	-0.328	-0.020
-450.938	55.776	-0.169	-0.163
-449.924	528.864	0.029	0.069
-448.909	102.076	0.245	-0.286
-447.895	800.000	0.059	0.242
-446.880	800.000	0.067	0.218
-445.865	-28.586	0.033	-0.019
-444.851	-200.000	0.001	-0.192
-443.836	253.798	0.125	-0.213
-442.822	152.819	0.010	-0.013
-441.807	-200.000	0.002	-0.078
-440.792	12.204	0.150	-0.116
-439.778	-200.000	0.000	0.100
-438.763	-85.556	0.053	0.016
-437.749	-26.115	0.296	0.174
-436.734	257.959	0.075	0.128
-435.719	10.155	0.202	-0.153
-434.705	-43.239	0.253	0.128
-433.690	-85.953	-0.412	0.127
-432.676	49.110	0.199	-0.186
-431.661	4.131	-0.365	0.266
-430.646	116.190	-0.072	0.087
-429.632	-38.954	0.061	-0.032
-428.617	-29.278	-0.204	-0.116
-427.603	28.568	-0.118	-0.099
-426.588	184.599	0.101	-0.150
-425.573	195.428	-0.226	0.342
-424.559	-200.000	-0.001	-0.114
-423.544	138.096	-0.134	-0.175
-422.530	-200.000	-0.042	-0.228
-421.515	264.233	-0.063	0.110
-420.500	177.612	-0.268	0.389
-419.486	-87.187	-0.372	-0.113
-418.471	800.000	0.035	0.115
-417.457	-91.344	-0.119	-0.034
-416.442	-200.000	0.024	-0.159
-415.428	-200.000	0.382	-0.000
-414.413	32.739	0.113	0.097
-413.398	-27.499	0.177	0.103
-412.384	800.000	-0.077	-0.283
-411.369	772.778	0.070	-0.191
-410.355	-98.452	-0.300	-0.077
-409.340	49.077	0.066	0.062
-408.325	-200.000	-0.048	-0.276
-407.311	-68.723	0.246	0.095
-406.296	-200.000	0.032	0.259
-405.282	324.085	-0.115	0.219
-404.267	800.000	0.103	-0.407
-403.252	-70.423	-0.191	0.072
-402.238	-153.145	0.347	0.024
-401.223	-200.000	-0.035	0.189
-400.209	8.448	-0.178	0.133
-399.194	127.836	-0.215	0.272
-398.179	-92.942	-0.301	-0.084
-397.165	4.554	0.231	0.169
-396.150	-115.931	0.321	-0.060
-395.136	-67.978	-0.146	0.057
-394.121	110.577	-0.052	-0.062
-393.106	44.380	0.231	-0.212
-392.092	-2.578	-0.164	0.114
-391.077	-200.000	-0.013	-0.152
-390.063	785.324	0.042	0.115
-389.048	-28.312	-0.138	0.080
-388.033	-35.516	0.239	0.129
-387.019	-172.277	0.102	0.003
-386.004	-175.581	-0.294	0.008
-384.990	-200.000	0.012	0.323
-383.975	580.873	-0.229	-0.560
-382.960	425.005	0.218	-0.467
-381.946	23.376	0.219	0.179
-380.931	168.581	0.195	0.276
-379.917	6.207	-0.126	0.093
-378.902	-63.210	0.119	-0.049
-377.888	-105.829	0.586	0.132
-376.873	-122.925	0.353	-0.057
-375.858	800.000	-0.018	0.078
-374.844	800.000	0.011	0.038
-373.829	-126.463	0.334	0.049
-372.815	-63.639	-0.183	0.075
-371.800	197.245	0.015	0.023
-370.785	-109.148	-0.015	0.003
-369.771	95.265	0.087	0.099
-368.756	28.264	0.320	-0.269
-367.742	-137.879	-0.136	0.015
-366.727	-200.000	0.015	-0.251
-365.712	127.234	-0.056	-0.070
-364.698	-107.733	0.308	0.067
-363.683	800.000	0.038	0.148
-362.669	-200.000	-0.012	0.368
-361.654	-73.154	0.291	0.106
-360.639	153.943	0.096	-0.131
-359.625	-11.171	0.128	0.084
-358.610	-124.685	0.054	0.008
-357.596	-148.132	-0.212	-0.017
-356.581	800.000	0.038	-0.163
-355.566	-83.213	0.255	0.081
-354.552	-61.355	0.126	-0.053
-353.537	-17.869	-0.096	-0.060
-352.523	6.108	0.045	0.033
-351.508	-165.573	0.197	-0.009
-350.493	800.000	-0.022	0.063
-349.479	136.763	-0.300	-0.389
-348.464	671.257	-0.016	-0.040
-347.450	-131.321	-0.073	-0.010
-346.435	-175.887	-0.078	0.002
-345.420	-75.710	-0.150	-0.053
-344.406	73.336	0.279	-0.291
-343.391	108.255	0.330	0.391
-342.377	-200.000	-0.036	-0.265
-341.362	-50.452	-0.041	-0.019
-340.348	800.000	0.176	-0.486
-339.333	-90.464	-0.317	0.091
-338.318	-134.482	0.228	-0.028
-337.304	800.000	-0.070	0.200
-336.289	75.043	0.119	0.124
-335.275	-130.562	0.383	-0.051
-334.260	158.887	0.207	-0.287
-333.245	-30.371	0.202	0.114
-332.231	715.930	0.079	-0.209
-331.216	-200.000	-0.005	-0.352
-330.202	-200.000	0.026	-0.157
-329.187	28.513	0.190	0.159
-328.172	84.744	-0.153	0.167
-327.158	263.878	0.185	0.320
-326.143	-200.000	0.023	0.127
-325.129	-32.110	-0.202	0.112
-324.114	-200.000	0.020	0.131
-323.099	73.975	-0.040	-0.041
-322.085	-53.556	-0.103	-0.047
-321.070	-53.529	0.098	-0.045
-320.056	98.950	0.236	-0.271
-319.041	47.034	-0.109	-0.100
-318.026	-200.000	0.027	0.170
-317.012	593.477	0.040	0.099
-315.997	-200.000	0.048	0.229
-314.983	2.400	-0.089	-0.064
-313.968	-123.818	0.327	-0.051
-312.953	290.854	0.100	0.180
-311.939	22.273	-0.122	-0.099
-310.924	-200.000	0.045	-0.454
-309.910	389.790	-0.047	0.096
-308.895	239.242	-0.124	0.204
-307.880	-168.796	0.416	-0.016
-306.866	219.290	-0.036	0.057
-305.851	-99.588	-0.168	0.042
-304.837	3.763	0.211	0.153
-303.822	327.456	-0.118	0.225
-302.807	51.468	-0.091	0.086
-301.793	77.717	0.067	-0.071
-300.778	-43.202	-0.130	0.065
-299.764	-200.000	-0.080	0.461
-298.749	9.113	-0.063	-0.047
-297.735	800.000	0.035	-0.132
-296.720	-40.556	-0.077	0.040
-295.705	322.013	-0.073	0.138
-294.691	800.000	0.040	-0.136
-293.676	-200.000	-0.004	0.277
-292.662	287.133	0.091	-0.163
-291.647	-153.324	-0.270	-0.019
-290.632	-109.436	0.267	0.056
-289.618	-200.000	-0.032	0.287
-288.603	-200.000	0.010	-0.051
-287.589	-91.201	0.682	0.194
-286.574	462.444	0.008	0.017
-285.559	492.506	-0.047	-0.108
-284.545	800.000	-0.099	0.424
-283.530	271.431	-0.048	-0.085
-282.516	-120.157	0.200	-0.034
-281.501	-164.506	-0.177	0.008
-280.486	-200.000	-0.032	0.228
-279.472	480.087	0.015	-0.033
-278.457	-39.909	-0.176	-0.091
-277.443	-179.468	0.436	0.009
-276.428	-62.151	-0.116	-0.048
-275.413	196.219	0.098	-0.148
-274.399	800.000	-0.075	0.271
-273.384	800.000	0.069	-0.251
-272.370	51.057	-0.133	-0.125
-271.355	-200.000	0.059	-0.272
-270.340	-36.097	-0.189	0.101
-269.326	799.373	0.034	0.094
-268.311	216.689	-0.072	-0.114
-267.297	-81.551	-0.172	0.056
-266.282	-200.000	-0.013	0.231
-265.267	173.999	-0.074	0.106
-264.253	-200.000	-0.037	-0.172
-263.238	-200.000	0.031	-0.241
-262.224	-200.000	0.030	-0.344
-261.209	31.326	-0.299	0.255
-260.195	-140.467	0.359	-0.037
-259.180	-71.264	0.346	-0.129
-258.165	60.439	0.049	0.048
-257.151	-85.453	0.373	0.115
-256.136	-59.309	0.275	-0.117
-255.122	262.281	-0.166	0.286
-254.107	88.502	-0.103	-0.114
-253.092	-200.000	0.032	0.167
-252.078	262.280	0.103	0.176
-251.063	180.596	-0.243	0.353
-250.049	-171.351	-0.364	0.012
-249.034	-80.225	0.109	-0.036
-248.019	-52.027	-0.144	0.066
-247.005	88.576	0.159	-0.175
-245.990	-113.263	0.238	-0.046
-244.976	-65.678	0.121	0.048
-243.961	-50.854	0.112	0.052
-242.946	444.925	-0.051	0.110
-241.932	-92.520	0.254	0.071
-240.917	-28.336	-0.132	-0.075
-239.903	301.169	-0.026	-0.048
-238.888	126.200	0.069	-0.087
-237.873	-136.911	0.268	0.030
-236.859	108.632	-0.111	0.131
-235.844	31.863	0.270	0.230
-234.830	795.454	0.062	0.168
-233.815	-200.000	-0.007	-0.128
-232.800	116.034	0.044	0.053
-231.786	-200.000	-0.042	0.371
-230.771	218.661	0.061	-0.096
-229.757	-55.649	0.110	0.049
-228.742	22.207	-0.043	-0.035
-227.727	19.125	0.387	0.307
-226.713	380.472	-0.022	-0.045
-225.698	135.104	0.087	-0.111
-224.684	67.504	-0.131	0.133
-223.669	-200.000	0.056	-0.411
-222.655	-116.144	-0.177	-0.033
-221.640	800.000	0.094	0.258
-220.625	-101.114	-0.226	0.055
-219.611	-200.000	-0.021	-0.287
-218.596	800.000	0.033	0.112
-217.582	-63.522	-0.248	0.101
-216.567	452.810	-0.089	0.194
-215.552	96.841	0.288	0.327
-214.538	-90.646	-0.229	0.065
-213.523	-200.000	-0.053	-0.384
-212.509	-90.304	-0.153	0.044
-211.494	625.831	0.074	0.184
-210.479	-120.355	0.275	0.046
-209.465	137.708	-0.195	-0.252
-208.450	-89.638	-0.269	0.078
-207.436	170.925	-0.134	0.190
-206.421	800.000	0.027	-0.092
-205.406	-200.000	0.011	0.159
-204.392	70.681	0.126	0.129
-203.377	-161.328	0.086	-0.004
-202.363	202.821	0.107	-0.164
-201.348	19.702	0.196	-0.156
-200.333	-200.000	0.058	0.275
-199.319	-112.176	0.137	0.027
-198.304	441.972	0.100	-0.216
-197.290	93.926	0.050	-0.056
-196.275	-85.213	-0.091	-0.028
-195.260	-200.000	-0.054	-0.438
-194.246	-101.173	-0.221	0.054
-193.231	75.258	-0.074	-0.078
-192.217	-19.802	-0.254	-0.155
-191.202	-137.320	-0.062	-0.007
-190.187	-200.000	-0.004	0.204
-189.173	44.168	-0.014	-0.013
-188.158	-200.000	0.029	0.241
-187.144	-9.680	0.342	0.225
-186.129	-86.420	0.213	0.065
-185.114	-200.000	-0.029	0.148
-184.100	-145.489	-0.256	-0.023
-183.085	-200.000	-0.042	0.216
-182.071	-70.390	0.299	-0.112
-181.056	363.948	0.087	0.173
-180.042	800.000	-0.079	0.307
-179.027	-89.988	0.156	0.045
-178.012	-96.463	-0.305	-0.080
-176.998	-200.000	0.059	-0.327
-175.983	216.516	-0.131	0.206
-174.969	-68.414	0.168	0.065
-173.954	-131.683	0.343	0.044
-172.939	614.532	-0.037	0.091
-171.925	52.879	-0.218	-0.206
-170.910	-200.000	-0.004	0.228
-169.896	121.314	0.180	0.221
-168.881	663.455	-0.020	-0.050
-167.866	78.296	-0.091	-0.096
-166.852	102.626	0.252	0.291
-165.837	-73.537	-0.312	-0.112
-164.823	772.915	-0.082	0.220
-163.808	138.341	-0.103	-0.133
-162.793	-200.000	-0.044	-0.268
-161.779	73.258	0.122	0.126
-160.764	-191.049	0.095	-0.001
-159.750	22.533	-0.098	-0.079
-158.735	-200.000	-0.038	0.209
-157.720	800.000	-0.075	-0.260
-156.706	8.656	0.093	-0.069
-155.691	86.965	-0.124	0.135
-154.677	800.000	0.067	0.272
-153.662	-107.889	-0.227	-0.049
-152.647	800.000	-0.120	0.379
-151.633	56.628	-0.130	-0.124
-150.618	-117.773	-0.551	0.098
-149.604	18.983	0.185	0.147
-148.589	303.421	0.096	-0.175
-147.574	800.000	0.078	-0.229
-146.560	-77.738	0.200	0.068
-145.545	454.850	-0.104	-0.227
-144.531	38.426	0.161	-0.141
-143.516	-47.136	-0.125	0.060
-142.502	-50.447	0.172	0.080
-141.487	-105.283	0.360	0.081
-140.472	2.328	0.207	-0.147
-139.458	349.840	0.108	-0.210
-138.443	-200.000	0.003	-0.042
-137.429	48.243	-0.138	-0.127
-136.414	800.000	0.051	0.189
-135.399	259.280	-0.172	-0.293
-134.385	33.248	-0.136	-0.116
-133.370	10.737	0.041	-0.031
-132.356	155.017	0.060	-0.081
-131.341	90.758	-0.051	0.056
-130.326	218.703	-0.178	-0.280
-129.312	-152.849	0.204	0.014
-128.297	-200.000	-0.000	0.012
-127.283	-133.799	-0.290	-0.036
-126.268	-200.000	0.300	0.001
-125.253	237.915	0.016	0.026
-124.239	-200.000	0.025	-0.204
-123.224	-79.399	-0.090	-0.030
-122.210	-61.103	-0.133	0.055
