DTS Sentinel unit serial number:	SN413079Multiplexer serial number:	ORYXHardware model number:	OX4-SRSoftware version number:	ORYX F/W v4.00 Oryx Data Collector v3.7.2.0data status	okinstallation	princeton_trtdifferential loss correction	single-endedforward channel	channel 2reverse channel	N/Adate	2019/09/13time	18:27:35forward acquisition time	60.00reverse acquisition time	0.00gamma	496.2192k internal	0.2320k external	0.2320temperature offset calibration	1.0195default loss term (dB/km)	0.3790temperature slope calibration	1.0000multiplexer offset coefficient	1.0000multiplexer slope coefficient	1.0000fibre end	0.00T internal ref (°C)	33.52T ext. ref 1 (°C)	4.29T ext. ref 2 (°C)	26.51length (m)	temperature (°C)	Stokes	anti-Stokes-747.200	96.416	0.195	0.225
-746.185	664.741	-0.066	0.173
-745.171	746.993	-0.041	0.111
-744.156	129.025	0.067	0.086
-743.142	-45.066	0.316	0.159
-742.127	-79.882	-0.263	0.089
-741.112	-60.633	-0.125	-0.054
-740.098	-200.000	-0.024	0.286
-739.083	668.261	-0.176	-0.459
-738.069	78.249	0.144	0.155
-737.054	-52.535	-0.049	0.023
-736.039	-160.441	-0.241	0.013
-735.025	145.185	0.126	0.170
-734.010	484.398	-0.144	-0.332
-732.996	-200.000	0.412	-0.002
-731.981	-200.000	0.043	-0.252
-730.966	-86.545	-0.138	0.043
-729.952	-16.620	0.260	0.166
-728.937	137.030	-0.140	-0.185
-727.923	-22.452	0.073	-0.045
-726.908	-200.000	0.020	-0.196
-725.894	-143.523	-0.126	-0.012
-724.879	46.486	0.196	-0.184
-723.864	-161.663	-0.193	-0.010
-722.850	72.011	0.148	0.156
-721.835	9.344	-0.126	0.096
-720.821	-116.818	-0.123	-0.023
-719.806	-200.000	-0.066	-0.494
-718.791	161.036	-0.021	0.030
-717.777	200.485	-0.115	-0.179
-716.762	-158.566	-0.164	-0.010
-715.748	-96.947	-0.118	0.031
-714.733	310.956	0.116	-0.219
-713.718	-200.000	-0.010	-0.233
-712.704	-105.167	-0.194	-0.045
-711.689	-200.000	-0.234	0.001
-710.675	183.183	0.059	-0.088
-709.660	-200.000	-0.041	-0.423
-708.645	108.882	-0.136	-0.164
-707.631	279.581	0.162	-0.292
-706.616	800.000	0.011	0.048
-705.602	12.973	0.130	0.102
-704.587	439.489	-0.264	0.581
-703.572	-37.127	0.266	0.144
-702.558	-125.204	0.153	0.024
-701.543	-114.363	0.645	0.125
-700.529	-130.366	-0.270	0.037
-699.514	-200.000	-0.009	-0.072
-698.499	-200.000	-0.008	-0.130
-697.485	361.373	-0.129	0.262
-696.470	-100.043	-0.101	0.025
-695.456	221.608	0.081	-0.132
-694.441	155.772	-0.135	-0.188
-693.426	-63.395	0.057	-0.024
-692.412	-152.546	-0.223	0.016
-691.397	151.411	0.068	-0.093
-690.383	800.000	0.008	-0.033
-689.368	-156.189	0.371	0.024
-688.354	-27.368	-0.165	-0.097
-687.339	-200.000	0.015	-0.112
-686.324	-200.000	-0.003	0.063
-685.310	402.281	0.064	0.135
-684.295	-200.000	0.052	-0.230
-683.281	209.629	-0.116	-0.184
-682.266	29.972	-0.180	-0.155
-681.251	115.620	-0.088	0.108
-680.237	-161.327	0.220	-0.011
-679.222	-200.000	0.049	-0.293
-678.208	-200.000	0.000	0.330
-677.193	-200.000	-0.008	0.040
-676.178	-13.958	-0.262	0.171
-675.164	46.455	-0.282	0.264
-674.149	433.075	-0.102	0.222
-673.135	-200.000	0.025	-0.214
-672.120	-56.413	-0.263	0.118
-671.105	-200.000	-0.047	-0.225
-670.091	759.075	-0.144	0.394
-669.076	-59.162	-0.206	-0.090
-668.062	800.000	-0.095	-0.315
-667.047	-200.000	0.031	0.221
-666.032	160.331	-0.044	-0.061
-665.018	253.028	-0.088	0.152
-664.003	-28.727	-0.250	0.145
-662.989	409.644	0.132	-0.283
-661.974	87.041	0.285	-0.317
-660.959	-42.775	-0.205	-0.105
-659.945	22.102	0.381	-0.313
-658.930	-22.066	-0.075	0.046
-657.916	60.068	0.102	-0.101
-656.901	98.423	-0.155	-0.181
-655.886	-79.075	-0.245	0.084
-654.872	-132.794	0.174	0.022
-653.857	350.637	-0.102	0.204
-652.843	69.945	0.177	-0.184
-651.828	29.522	-0.213	-0.182
-650.814	-200.000	0.006	-0.314
-649.799	-99.424	-0.140	-0.036
-648.784	6.057	0.202	0.151
-647.770	-102.415	0.194	-0.047
-646.755	3.131	0.155	0.114
-645.741	800.000	-0.097	-0.326
-644.726	-142.662	0.228	-0.022
-643.711	278.280	0.114	0.204
-642.697	-200.000	0.008	0.062
-641.682	-200.000	0.025	0.249
-640.668	-87.148	-0.040	-0.012
-639.653	266.093	0.077	0.135
-638.638	136.236	0.146	-0.192
-637.624	-200.000	-0.067	-0.320
-636.609	-50.013	-0.173	0.083
-635.595	646.015	0.109	-0.280
-634.580	142.735	0.095	-0.127
-633.565	-200.000	-0.013	-0.110
-632.551	561.765	-0.171	-0.416
-631.536	16.848	0.073	-0.058
-630.522	-200.000	-0.009	-0.070
-629.507	-169.962	-0.142	-0.005
-628.492	-93.857	0.314	-0.087
-627.478	-188.754	-0.235	0.003
-626.463	369.744	-0.125	0.255
-625.449	-42.470	-0.081	0.041
-624.434	544.573	0.055	-0.132
-623.419	-200.000	-0.012	-0.274
-622.405	135.074	-0.211	0.276
-621.390	-69.511	-0.288	-0.111
-620.376	-6.308	-0.168	0.116
-619.361	-32.251	-0.122	0.069
-618.346	118.349	-0.170	-0.212
-617.332	-120.490	0.284	0.048
-616.317	800.000	-0.004	-0.015
-615.303	66.714	-0.242	-0.248
-614.288	152.005	-0.028	-0.038
-613.273	6.047	0.378	0.282
-612.259	3.603	-0.183	-0.134
-611.244	269.502	0.108	0.192
-610.230	26.462	-0.141	-0.119
-609.215	-115.540	0.222	-0.042
-608.201	217.753	-0.158	-0.253
-607.186	76.276	-0.066	0.070
-606.171	-200.000	0.015	-0.290
-605.157	-200.000	-0.014	0.280
-604.142	800.000	0.028	0.085
-603.128	-200.000	0.010	0.093
-602.113	-46.075	-0.339	-0.168
-601.098	-200.000	0.236	-0.001
-600.084	-48.471	-0.176	0.085
-599.069	54.302	0.198	0.191
-598.055	-172.434	-0.376	-0.012
-597.040	-49.580	-0.190	0.091
-596.025	-114.691	0.107	-0.021
-595.011	9.295	-0.049	-0.037
-593.996	179.206	-0.065	0.096
-592.982	582.783	-0.087	-0.214
-591.967	800.000	-0.120	-0.358
-590.952	-124.190	0.145	0.023
-589.938	-200.000	-0.026	-0.468
-588.923	87.722	-0.251	-0.279
-587.909	-200.000	0.005	-0.062
-586.894	140.953	0.126	0.167
-585.879	-77.093	0.296	-0.104
-584.865	-37.545	-0.174	-0.093
-583.850	-79.894	0.067	-0.023
-582.836	-77.563	0.060	-0.021
-581.821	-200.000	-0.020	-0.201
-580.806	219.155	0.111	0.178
-579.792	800.000	0.128	-0.407
-578.777	-50.696	0.138	0.065
-577.763	76.128	-0.122	-0.130
-576.748	404.325	-0.096	-0.203
-575.733	45.317	-0.232	-0.215
-574.719	34.637	0.285	-0.250
-573.704	-200.000	0.011	0.390
-572.690	400.750	0.040	-0.084
-571.675	223.531	0.113	0.183
-570.661	-106.426	-0.359	0.081
-569.646	36.614	0.017	0.015
-568.631	800.000	-0.051	0.174
-567.617	154.875	0.096	0.133
-566.602	205.772	-0.208	-0.325
-565.588	800.000	0.047	-0.153
-564.573	60.078	0.093	-0.092
-563.558	161.524	0.131	0.184
-562.544	-119.394	-0.251	0.044
-561.529	-137.671	0.468	0.053
-560.515	-200.000	-0.039	-0.215
-559.500	-8.967	0.338	0.227
-558.485	-60.522	0.109	-0.046
-557.471	104.045	-0.393	0.464
-556.456	157.907	0.223	0.310
-555.442	800.000	-0.046	-0.201
-554.427	800.000	0.084	-0.306
-553.412	-89.728	-0.064	0.019
-552.398	-200.000	0.050	0.294
-551.383	334.282	-0.173	-0.335
-550.369	429.476	0.064	0.138
-549.354	-200.000	-0.013	0.202
-548.339	-33.143	-0.244	-0.136
-547.325	-200.000	-0.008	-0.269
-546.310	-200.000	-0.027	0.192
-545.296	1.964	0.340	0.246
-544.281	-200.000	-0.014	0.121
-543.266	-200.000	0.014	0.441
-542.252	-184.756	-0.356	-0.006
-541.237	139.338	-0.121	0.159
-540.223	-126.909	-0.079	0.012
-539.208	-200.000	-0.019	-0.170
-538.193	-67.047	-0.187	-0.074
-537.179	86.732	0.250	0.276
-536.164	40.615	-0.094	0.085
-535.150	800.000	0.069	-0.240
-534.135	800.000	0.003	-0.012
-533.121	800.000	0.046	-0.162
-532.106	446.205	0.117	-0.258
-531.091	420.953	0.125	-0.268
-530.077	-60.582	-0.325	0.138
-529.062	78.353	0.153	0.163
-528.048	46.850	0.025	0.024
-527.033	-141.872	-0.194	-0.019
-526.018	-78.890	-0.272	0.093
-525.004	800.000	-0.048	-0.201
-523.989	-9.217	-0.422	0.283
-522.975	-200.000	-0.032	0.151
-521.960	-7.258	0.220	-0.149
-520.945	12.426	-0.217	0.168
-519.931	66.521	-0.216	0.220
-518.916	-56.780	0.079	0.035
-517.902	606.278	0.101	0.252
-516.887	-43.571	0.091	-0.046
-515.872	0.280	0.168	-0.120
-514.858	-146.592	-0.382	-0.033
-513.843	459.586	0.025	-0.056
-512.829	800.000	0.102	0.373
-511.814	63.410	-0.198	0.199
-510.799	-80.952	0.282	0.094
-509.785	42.025	0.114	0.104
-508.770	20.615	-0.139	0.113
-507.756	242.879	-0.132	-0.221
-506.741	22.929	0.463	-0.380
-505.726	-62.521	-0.130	-0.054
-504.712	290.120	0.049	0.088
-503.697	-116.620	0.095	-0.017
-502.683	800.000	0.040	-0.151
-501.668	133.327	0.017	-0.022
-500.653	7.531	0.087	-0.065
-499.639	-122.771	-0.098	-0.016
-498.624	95.199	0.101	-0.115
-497.610	-200.000	0.026	-0.114
-496.595	96.109	-0.191	-0.219
-495.581	87.888	0.049	0.054
-494.566	-34.601	0.307	0.168
-493.551	78.087	-0.089	-0.095
-492.537	800.000	0.102	-0.344
-491.522	800.000	-0.107	-0.334
-490.508	-200.000	-0.008	-0.122
-489.493	-99.004	0.038	0.010
-488.478	78.622	-0.294	0.314
-487.464	144.906	-0.235	-0.314
-486.449	800.000	-0.079	-0.271
-485.435	180.504	-0.029	0.043
-484.420	50.677	-0.115	-0.109
-483.405	-32.814	0.085	-0.047
-482.391	32.094	0.233	0.201
-481.376	129.982	-0.144	-0.185
-480.362	320.103	-0.114	-0.216
-479.347	-83.280	0.237	0.076
-478.332	-97.279	-0.264	0.069
-477.318	117.529	-0.142	-0.174
-476.303	-77.474	0.282	-0.098
-475.289	7.578	0.216	0.162
-474.274	44.613	-0.131	0.121
-473.259	-138.270	0.081	-0.009
-472.245	800.000	0.053	-0.205
-471.230	-49.784	-0.318	-0.151
-470.216	800.000	0.058	-0.233
-469.201	245.498	-0.022	-0.036
-468.186	-144.711	0.272	0.025
-467.172	9.009	-0.143	-0.108
-466.157	281.960	0.078	0.140
-465.143	46.520	0.204	-0.189
-464.128	-71.427	-0.065	0.024
-463.113	-200.000	-0.016	-0.166
-462.099	47.917	0.011	-0.011
-461.084	800.000	0.097	0.273
-460.070	-200.000	-0.006	-0.055
-459.055	-87.293	0.554	0.168
-458.040	-200.000	0.002	0.094
-457.026	736.507	-0.019	-0.051
-456.011	-200.000	0.015	-0.190
-454.997	-91.372	0.168	0.048
-453.982	-56.949	0.090	-0.040
-452.968	113.076	-0.110	-0.133
-451.953	-200.000	-0.099	-0.464
-450.938	200.266	0.211	-0.325
-449.924	-200.000	0.045	0.511
-448.909	-200.000	0.005	-0.210
-447.895	-16.989	-0.314	0.198
-446.880	-200.000	-0.016	-0.092
-445.865	-200.000	0.024	0.137
-444.851	-26.699	0.081	0.048
-443.836	614.484	-0.031	0.077
-442.822	531.636	-0.041	0.097
-441.807	670.497	0.016	0.042
-440.792	-91.512	0.197	0.056
-439.778	184.248	-0.101	0.149
-438.763	-169.281	-0.155	0.006
-437.749	-183.207	-0.203	-0.004
-436.734	-200.000	-0.027	0.243
-435.719	20.630	-0.245	-0.198
-434.705	-200.000	0.006	0.119
-433.690	214.782	0.086	0.136
-432.676	9.006	0.297	-0.224
-431.661	-131.113	-0.229	0.030
-430.646	-200.000	0.007	-0.091
-429.632	-200.000	0.007	0.052
-428.617	-200.000	-0.015	-0.232
-427.603	159.393	-0.102	0.142
-426.588	306.223	0.128	-0.237
-425.573	298.217	0.080	0.147
-424.559	5.490	-0.245	0.180
-423.544	-140.718	0.159	0.016
-422.530	282.180	0.139	-0.249
-421.515	119.496	-0.183	0.226
-420.500	84.151	0.116	0.127
-419.486	-200.000	-0.051	-0.228
-418.471	-128.408	0.112	-0.016
-417.457	-54.167	0.099	-0.045
-416.442	-104.366	-0.158	-0.037
-415.428	75.137	0.059	0.062
-414.413	306.485	-0.165	-0.307
-413.398	-200.000	-0.007	0.121
-412.384	-45.334	-0.045	-0.022
-411.369	-200.000	0.016	-0.160
-410.355	-72.609	0.292	-0.107
-409.340	-26.551	-0.248	0.145
-408.325	800.000	-0.025	0.107
-407.311	110.865	-0.044	0.053
-406.296	-152.118	-0.151	0.011
-405.282	48.413	0.075	0.070
-404.267	329.570	-0.182	0.349
-403.252	48.591	-0.107	0.100
-402.238	56.243	0.114	-0.111
-401.223	-200.000	0.001	0.250
-400.209	-52.293	-0.141	0.065
-399.194	-111.366	-0.280	0.057
-398.179	-200.000	-0.076	0.498
-397.165	6.407	0.187	0.138
-396.150	12.164	0.407	0.312
-395.136	-174.923	0.186	-0.005
-394.121	333.456	-0.166	0.321
-393.106	-103.615	0.264	0.062
-392.092	190.274	0.223	-0.334
-391.077	800.000	-0.017	-0.069
-390.063	-124.097	0.134	0.021
-389.048	31.588	-0.291	-0.250
-388.033	-126.266	-0.499	0.074
-387.019	-149.283	-0.151	-0.012
-386.004	148.781	0.088	-0.118
-384.990	190.375	-0.185	0.276
-383.975	800.000	0.097	0.301
-382.960	-30.030	0.281	-0.159
-381.946	101.331	-0.372	-0.432
-380.931	78.855	0.107	-0.114
-379.917	-25.151	0.250	-0.148
-378.902	800.000	0.065	-0.245
-377.888	-105.732	0.234	0.053
-376.873	364.057	0.027	-0.054
-375.858	321.971	-0.122	0.232
-374.844	30.951	0.150	-0.128
-373.829	800.000	0.087	-0.254
-372.815	122.563	-0.059	-0.074
-371.800	326.900	-0.151	-0.289
-370.785	117.558	-0.232	0.285
-369.771	-40.556	0.194	-0.100
-368.756	-22.858	-0.084	-0.050
-367.742	800.000	-0.025	-0.084
-366.727	404.362	0.033	0.069
-365.712	-200.000	0.008	-0.160
-364.698	-150.540	0.255	-0.019
-363.683	-127.632	0.412	0.059
-362.669	22.091	-0.116	-0.095
-361.654	61.005	0.087	0.086
-360.639	-70.757	-0.243	-0.091
-359.625	-152.508	0.151	0.011
-358.610	-200.000	-0.007	0.285
-357.596	-200.000	0.058	0.413
-356.581	-200.000	-0.037	0.307
-355.566	54.289	-0.202	0.194
-354.552	-85.340	-0.098	-0.030
-353.537	20.009	-0.201	-0.162
-352.523	-200.000	0.007	-0.369
-351.508	275.562	0.186	-0.329
-350.493	193.645	-0.037	-0.055
-349.479	-84.653	0.241	-0.076
-348.464	800.000	-0.089	0.253
-347.450	-19.039	0.120	-0.074
-346.435	-68.827	-0.211	0.081
-345.420	-83.018	0.200	-0.064
-344.406	202.934	-0.154	0.237
-343.391	558.246	0.089	-0.215
-342.377	72.217	-0.203	0.210
-341.362	-86.583	0.236	-0.072
-340.348	-47.386	0.114	0.055
-339.333	-200.000	0.028	0.473
-338.318	800.000	0.046	-0.186
-337.304	-4.236	-0.207	0.143
-336.289	-61.945	0.125	0.052
-335.275	-200.000	0.077	0.520
-334.260	582.585	-0.016	0.039
-333.245	800.000	-0.079	0.290
-332.231	-62.170	-0.159	0.066
-331.216	140.414	0.165	0.217
-330.202	-200.000	0.015	0.144
-329.187	-40.022	0.326	-0.169
-328.172	100.671	0.172	-0.199
-327.158	27.373	0.099	0.083
-326.143	383.312	-0.074	0.151
-325.129	395.750	0.141	0.293
-324.114	800.000	-0.071	0.247
-323.099	67.295	0.125	0.127
-322.085	289.980	0.088	-0.159
-321.070	25.410	-0.148	0.123
-320.056	352.315	0.037	-0.073
-319.041	213.431	0.134	-0.211
-318.026	-79.433	0.312	0.105
-317.012	95.986	-0.091	0.104
-315.997	-95.086	-0.267	0.072
-314.983	80.432	0.070	-0.075
-313.968	628.675	0.060	-0.152
-312.953	218.040	-0.090	0.143
-311.939	-40.437	0.026	0.013
-310.924	3.054	-0.111	-0.080
-309.910	-138.214	-0.112	-0.012
-308.895	-76.482	0.171	0.060
-307.880	413.677	0.042	0.089
-306.866	729.011	0.010	-0.025
-305.851	194.953	-0.130	-0.197
-304.837	607.191	0.083	0.205
-303.822	40.178	0.327	0.292
-302.807	-180.695	-0.303	-0.006
-301.793	-89.476	-0.220	0.064
-300.778	-120.863	-0.180	0.030
-299.764	800.000	-0.086	-0.243
-298.749	-200.000	0.012	-0.374
-297.735	-50.195	-0.211	-0.099
-296.720	-200.000	-0.068	0.350
-295.705	-44.278	0.298	-0.149
-294.691	-49.775	0.304	-0.144
-293.676	301.637	0.089	0.163
-292.662	800.000	-0.033	-0.117
-291.647	197.046	-0.090	0.136
-290.632	-118.188	-0.185	0.033
-289.618	173.419	-0.025	0.036
-288.603	-29.339	-0.157	-0.089
-287.589	-135.843	0.196	-0.023
-286.574	-20.157	0.390	-0.239
-285.559	-75.725	0.041	0.014
-284.545	-82.687	0.211	0.068
-283.530	34.404	-0.388	-0.337
-282.516	-124.451	0.093	-0.014
-281.501	22.799	0.154	-0.126
-280.486	51.977	-0.265	0.251
-279.472	256.764	0.092	0.157
-278.457	800.000	-0.069	-0.208
-277.443	289.846	-0.043	0.078
-276.428	263.018	-0.205	0.354
-275.413	455.673	0.086	0.190
-274.399	189.492	0.010	0.015
-273.384	132.771	0.293	0.376
-272.370	618.178	0.090	0.225
-271.355	63.635	0.051	0.050
-270.340	-59.080	-0.140	-0.060
-269.326	-158.750	-0.128	-0.007
-268.311	14.029	0.129	0.100
-267.297	54.212	-0.079	-0.075
-266.282	-96.634	0.022	0.006
-265.267	-137.649	0.311	-0.035
-264.253	11.942	-0.174	0.133
-263.238	128.139	0.211	0.266
-262.224	106.644	-0.082	0.096
-261.209	45.886	0.314	-0.288
-260.195	-142.824	-0.356	0.034
-259.180	-86.819	0.228	0.069
-258.165	-41.565	0.087	0.045
-257.151	195.239	0.254	0.383
-256.136	12.738	-0.064	0.049
-255.122	6.251	0.375	0.276
-254.107	53.506	-0.111	0.105
-253.092	800.000	-0.120	-0.370
-252.078	27.859	-0.148	0.124
-251.063	383.045	0.103	0.209
-250.049	-200.000	-0.040	0.230
-249.034	102.781	-0.091	0.106
-248.019	19.642	-0.085	-0.068
-247.005	-200.000	-0.030	0.461
-245.990	-143.655	0.303	0.029
-244.976	111.676	0.084	-0.100
-243.961	800.000	0.095	-0.317
-242.946	327.872	-0.146	-0.278
-241.932	800.000	-0.119	-0.446
-240.917	12.688	0.162	-0.124
-239.903	-102.932	-0.346	-0.081
-238.888	800.000	0.068	0.197
-237.873	655.413	-0.044	0.113
-236.859	242.507	-0.049	-0.081
-235.844	-14.410	0.134	-0.085
-234.830	123.105	-0.206	-0.256
-233.815	6.831	0.411	-0.303
-232.800	541.922	0.119	-0.282
-231.786	-37.374	-0.282	0.149
-230.771	-40.049	0.017	0.009
-229.757	139.002	0.104	0.135
-228.742	800.000	-0.130	-0.381
-227.727	191.779	-0.083	-0.123
-226.713	800.000	0.087	0.361
-225.698	800.000	0.085	-0.270
-224.684	25.015	-0.084	0.069
-223.669	800.000	-0.065	-0.260
-222.655	107.111	-0.053	0.062
-221.640	-85.613	-0.042	-0.013
-220.625	800.000	0.051	-0.188
-219.611	113.747	0.123	0.148
-218.596	252.599	-0.174	0.294
-217.582	465.325	0.051	0.113
-216.567	-120.126	0.110	0.019
-215.552	800.000	-0.085	0.270
-214.538	84.980	0.201	0.218
-213.523	-200.000	-0.040	-0.188
-212.509	800.000	0.040	-0.128
-211.494	-62.640	0.285	0.117
-210.479	800.000	-0.035	-0.142
-209.465	-182.812	0.345	0.006
-208.450	182.551	0.098	0.143
-207.436	-49.738	-0.255	-0.120
-206.421	-100.244	0.213	-0.052
-205.406	383.908	0.193	-0.393
-204.392	-116.379	-0.137	0.025
-203.377	-80.543	0.185	-0.061
-202.363	-21.186	0.157	-0.095
-201.348	-107.582	-0.305	-0.066
-200.333	91.551	0.050	-0.056
-199.319	-143.767	0.121	0.011
-198.304	5.723	-0.283	0.207
-197.290	92.966	-0.123	0.137
-196.275	-200.000	-0.019	-0.210
-195.260	60.796	0.244	-0.239
-194.246	11.037	-0.221	-0.167
-193.231	-19.659	-0.286	0.175
-192.217	-97.403	0.335	-0.086
-191.202	-13.369	-0.132	0.085
-190.187	-100.960	-0.315	0.077
-189.173	-200.000	-0.021	0.402
-188.158	-200.000	0.021	0.159
-187.144	-44.882	0.162	0.080
-186.129	-129.397	0.244	0.034
-185.114	337.939	-0.141	-0.272
-184.100	-200.000	-0.021	-0.167
-183.085	92.125	0.069	0.077
-182.071	-50.787	-0.064	0.030
-181.056	148.989	0.098	0.131
-180.042	97.354	-0.143	0.163
-179.027	-161.014	0.370	-0.019
-178.012	54.858	-0.169	-0.162
-176.998	54.678	-0.158	-0.151
-175.983	644.890	0.048	-0.122
-174.969	138.958	0.071	0.092
-173.954	-200.000	-0.042	-0.247
-172.939	-16.147	-0.151	0.095
-171.925	-51.064	-0.170	0.079
-170.910	-86.778	-0.152	-0.046
-169.896	17.562	0.377	0.296
-168.881	14.860	-0.191	-0.148
-167.866	-175.304	-0.235	-0.006
-166.852	315.729	0.030	0.055
-165.837	438.784	0.027	-0.059
-164.823	-49.718	-0.088	0.041
-163.808	-200.000	-0.019	0.111
-162.793	111.795	-0.159	0.189
-161.779	-79.361	-0.239	0.080
-160.764	-118.283	-0.104	0.018
-159.750	-200.000	0.011	-0.144
-158.735	-200.000	-0.034	0.156
-157.720	800.000	-0.067	0.283
-156.706	398.024	-0.071	0.146
-155.691	-169.822	-0.246	-0.009
-154.677	134.460	0.146	-0.187
-153.662	-200.000	-0.053	-0.320
-152.647	-50.006	-0.314	0.147
-151.633	-10.745	0.219	-0.143
-150.618	-200.000	-0.008	0.113
-149.604	-200.000	-0.011	-0.300
-148.589	-178.973	0.283	-0.006
-147.574	253.875	-0.085	-0.143
-146.560	146.367	0.029	0.039
-145.545	-69.428	0.223	-0.084
-144.531	192.245	-0.129	0.192
-143.516	52.358	-0.118	0.111
-142.502	567.046	0.055	0.132
-141.487	61.047	0.174	-0.170
-140.472	-32.392	0.177	-0.098
-139.458	-200.000	0.024	0.136
-138.443	30.945	-0.063	-0.053
-137.429	-200.000	0.075	0.332
-136.414	-31.034	-0.239	-0.133
-135.399	468.355	-0.035	-0.078
-134.385	-200.000	-0.013	-0.116
-133.370	-61.720	0.160	0.066
-132.356	-133.588	-0.446	0.055
-131.341	-108.282	-0.105	0.022
-130.326	800.000	0.132	0.368
-129.312	-39.809	-0.062	-0.032
-128.297	800.000	0.041	-0.141
-127.283	-200.000	-0.011	-0.241
-126.268	68.541	0.162	-0.164
-125.253	-41.826	-0.180	0.091
-124.239	339.021	-0.083	-0.159
-123.224	-134.289	-0.163	0.020
-122.210	-200.000	0.008	-0.242
-121.195	-81.096	0.045	0.015
-120.180	91.582	0.028	0.031
