DTS Sentinel unit serial number:	SN413079Multiplexer serial number:	ORYXHardware model number:	OX4-SRSoftware version number:	ORYX F/W v4.00 Oryx Data Collector v3.7.2.0data status	okinstallation	princeton_trtdifferential loss correction	single-endedforward channel	channel 2reverse channel	N/Adate	2019/09/14time	23:27:34forward acquisition time	60.00reverse acquisition time	0.00gamma	496.2192k internal	0.2324k external	0.2324temperature offset calibration	1.0051default loss term (dB/km)	0.3790temperature slope calibration	1.0000multiplexer offset coefficient	1.0000multiplexer slope coefficient	1.0000fibre end	0.00T internal ref (°C)	32.37T ext. ref 1 (°C)	4.64T ext. ref 2 (°C)	27.38length (m)	temperature (°C)	Stokes	anti-Stokes-747.200	800.000	-0.010	-0.043
-746.185	244.859	-0.116	0.197
-745.171	356.375	0.130	0.262
-744.156	-102.200	0.452	0.110
-743.142	-146.077	0.041	-0.004
-742.127	-103.430	0.548	0.130
-741.112	-25.989	0.100	0.059
-740.098	789.440	-0.052	-0.144
-739.083	-108.725	-0.299	0.065
-738.069	-200.000	-0.052	0.456
-737.054	36.036	-0.228	0.202
-736.039	-55.941	-0.225	-0.101
-735.025	-200.000	0.030	0.171
-734.010	-33.153	-0.187	-0.105
-732.996	-105.484	0.304	-0.070
-731.981	59.596	-0.260	-0.259
-730.966	800.000	0.008	-0.030
-729.952	-200.000	-0.064	0.337
-728.937	419.777	0.062	-0.133
-727.923	173.885	0.104	-0.152
-726.908	-16.078	0.202	-0.130
-725.894	-200.000	0.071	-0.475
-724.879	54.689	-0.079	-0.077
-723.864	96.874	-0.110	0.127
-722.850	5.466	-0.187	0.139
-721.835	-200.000	0.033	0.261
-720.821	-111.942	-0.390	-0.079
-719.806	118.548	0.182	0.226
-718.791	7.354	0.011	0.008
-717.777	-200.000	0.004	0.486
-716.762	-56.612	-0.300	-0.134
-715.748	16.065	-0.118	0.094
-714.733	193.924	-0.136	-0.207
-713.718	445.586	-0.133	-0.295
-712.704	-139.239	0.279	-0.030
-711.689	84.255	-0.221	-0.244
-710.675	-14.828	-0.455	-0.294
-709.660	343.590	-0.084	-0.166
-708.645	-75.057	-0.201	0.073
-707.631	6.838	0.047	-0.035
-706.616	-200.000	-0.009	-0.154
-705.602	235.845	0.084	-0.139
-704.587	375.962	-0.031	0.063
-703.572	118.704	-0.194	-0.242
-702.558	9.460	-0.205	-0.157
-701.543	-200.000	0.021	-0.167
-700.529	-120.608	-0.228	0.039
-699.514	-111.806	-0.251	0.051
-698.499	-200.000	-0.016	-0.262
-697.485	67.811	-0.186	0.191
-696.470	800.000	-0.028	0.095
-695.456	126.118	0.215	0.274
-694.441	-11.926	0.180	-0.119
-693.426	101.506	-0.159	0.187
-692.412	428.249	0.042	-0.091
-691.397	-200.000	0.050	-0.321
-690.383	276.375	0.101	0.180
-689.368	-111.951	0.201	0.041
-688.354	-200.000	-0.027	0.330
-687.339	-99.360	0.311	0.079
-686.324	-120.754	-0.161	0.027
-685.310	-15.180	0.167	0.108
-684.295	-200.000	-0.001	-0.044
-683.281	276.419	0.124	0.221
-682.266	139.670	-0.058	-0.077
-681.251	800.000	-0.123	-0.450
-680.237	-149.201	-0.366	-0.029
-679.222	74.463	0.197	-0.208
-678.208	-131.610	0.267	0.035
-677.193	216.570	0.080	-0.128
-676.178	-200.000	-0.009	0.061
-675.164	800.000	0.081	0.258
-674.149	800.000	0.032	-0.115
-673.135	-200.000	-0.029	0.328
-672.120	-108.412	-0.129	-0.028
-671.105	-156.708	0.313	-0.019
-670.091	-196.191	-0.138	-0.001
-669.076	-200.000	0.089	0.520
-668.062	-48.047	0.191	0.093
-667.047	800.000	-0.015	-0.063
-666.032	68.859	0.073	0.076
-665.018	-177.425	-0.226	0.006
-664.003	800.000	0.019	-0.062
-662.989	269.985	0.190	-0.336
-661.974	-189.147	0.365	-0.004
-660.959	-117.727	-0.210	-0.038
-659.945	40.703	0.068	0.061
-658.930	-200.000	0.016	0.142
-657.916	286.540	0.074	-0.134
-656.901	-14.310	0.137	0.089
-655.886	3.807	0.203	-0.149
-654.872	-6.824	-0.105	-0.072
-653.857	440.981	-0.046	0.100
-652.843	-200.000	0.016	0.357
-651.828	-19.825	0.089	-0.055
-650.814	29.163	-0.107	0.091
-649.799	128.828	-0.154	0.198
-648.784	-62.322	-0.291	-0.122
-647.770	734.055	0.112	-0.301
-646.755	-94.086	0.165	-0.045
-645.741	204.533	-0.083	-0.129
-644.726	60.429	-0.120	-0.119
-643.711	-160.950	0.018	0.001
-642.697	-102.954	-0.329	-0.078
-641.682	2.753	-0.465	-0.339
-640.668	-109.450	-0.036	0.008
-639.653	-200.000	0.042	-0.339
-638.638	358.323	-0.022	-0.044
-637.624	-127.621	0.255	0.037
-636.609	103.884	0.053	0.063
-635.595	136.676	-0.137	-0.179
-634.580	10.793	0.125	-0.096
-633.565	800.000	-0.140	-0.400
-632.551	-36.109	-0.193	-0.105
-631.536	286.776	0.204	-0.370
-630.522	-200.000	0.025	0.181
-629.507	800.000	-0.124	0.352
-628.492	9.540	0.091	0.070
-627.478	-54.737	-0.372	0.169
-626.463	559.004	0.021	-0.052
-625.449	-200.000	0.005	0.069
-624.434	-1.743	0.303	0.214
-623.419	-170.828	0.200	0.007
-622.405	323.199	0.057	-0.109
-621.390	-114.550	-0.552	0.106
-620.376	400.961	-0.088	0.186
-619.361	-37.177	-0.145	-0.078
-618.346	-200.000	-0.062	-0.364
-617.332	-200.000	0.024	0.290
-616.317	-200.000	0.051	0.325
-615.303	-115.427	-0.439	-0.083
-614.288	-76.540	-0.329	-0.116
-613.273	-35.325	0.362	-0.197
-612.259	-117.446	-0.320	-0.058
-611.244	-97.576	-0.157	0.041
-610.230	-200.000	0.033	-0.190
-609.215	-200.000	0.045	-0.271
-608.201	800.000	0.055	0.239
-607.186	-175.649	-0.238	0.006
-606.171	-200.000	0.005	0.102
-605.157	-124.533	0.221	0.034
-604.142	36.640	-0.168	0.149
-603.128	-104.223	0.222	-0.052
-602.113	800.000	0.030	-0.100
-601.098	800.000	-0.047	0.195
-600.084	800.000	-0.131	-0.364
-599.069	-200.000	-0.005	-0.313
-598.055	-72.986	0.253	0.093
-597.040	-200.000	0.049	-0.286
-596.025	-86.970	0.090	0.028
-595.011	800.000	0.040	-0.136
-593.996	-94.699	-0.247	-0.067
-592.982	31.954	0.219	0.190
-591.967	219.202	-0.213	-0.342
-590.952	560.919	0.091	-0.220
-589.938	-155.761	-0.135	-0.009
-588.923	-89.250	0.277	-0.082
-587.909	-200.000	-0.010	-0.074
-586.894	-30.037	0.145	-0.083
-585.879	-68.607	0.107	0.041
-584.865	-200.000	0.002	-0.268
-583.850	506.097	-0.069	0.161
-582.836	30.813	0.209	0.179
-581.821	158.874	-0.134	0.186
-580.806	-85.780	-0.251	0.078
-579.792	500.153	0.047	0.108
-578.777	-2.769	-0.177	-0.124
-577.763	-9.920	0.160	-0.107
-576.748	-71.799	-0.173	-0.065
-575.733	330.236	0.083	0.161
-574.719	234.523	-0.184	0.304
-573.704	60.789	0.056	0.055
-572.690	276.317	-0.045	-0.080
-571.675	-126.849	0.187	0.028
-570.661	736.205	0.147	0.394
-569.646	-73.260	0.147	-0.054
-568.631	-16.723	-0.242	0.153
-567.617	10.839	-0.326	0.249
-566.602	-200.000	0.014	0.087
-565.588	71.520	-0.122	0.127
-564.573	260.152	0.076	-0.132
-563.558	-173.646	-0.061	-0.002
-562.544	21.635	0.401	-0.327
-561.529	-112.110	-0.221	-0.045
-560.515	800.000	-0.061	-0.232
-559.500	99.866	0.009	0.010
-558.485	-31.907	-0.110	-0.062
-557.471	661.813	0.136	0.351
-556.456	-9.417	0.188	-0.126
-555.442	-200.000	0.100	-0.461
-554.427	-95.237	0.045	0.012
-553.412	3.099	0.159	0.116
-552.398	-30.656	-0.187	0.106
-551.383	-49.822	-0.297	0.141
-550.369	-200.000	-0.043	-0.343
-549.354	55.248	0.272	-0.263
-548.339	301.418	0.062	0.115
-547.325	-200.000	-0.010	-0.459
-546.310	-200.000	-0.031	0.208
-545.296	-39.711	-0.247	0.130
-544.281	-39.490	-0.272	-0.143
-543.266	-41.690	0.212	-0.109
-542.252	102.630	0.116	0.136
-541.237	800.000	0.112	-0.417
-540.223	800.000	0.060	0.191
-539.208	-73.322	-0.173	-0.063
-538.193	56.581	-0.243	0.237
-537.179	85.492	-0.170	0.187
-536.164	-200.000	-0.014	-0.140
-535.150	468.473	-0.054	-0.120
-534.135	-29.766	-0.132	-0.075
-533.121	9.340	-0.272	-0.206
-532.106	-200.000	-0.054	-0.332
-531.091	-141.380	0.251	0.025
-530.077	131.321	0.113	-0.146
-529.062	-89.951	-0.283	0.083
-528.048	-200.000	0.008	0.093
-527.033	735.120	-0.088	0.236
-526.018	-103.660	0.305	0.072
-525.004	-148.750	-0.147	-0.012
-523.989	222.702	-0.149	-0.240
-522.975	100.341	-0.035	0.041
-521.960	-80.845	0.220	-0.073
-520.945	-200.000	-0.047	-0.330
-519.931	-138.260	0.062	0.007
-518.916	-3.731	-0.164	-0.114
-517.902	373.447	0.113	0.229
-516.887	86.447	-0.134	-0.148
-515.872	800.000	0.072	0.266
-514.858	-22.619	-0.025	0.015
-513.843	222.995	-0.097	-0.156
-512.829	56.063	0.276	0.267
-511.814	79.287	0.202	0.217
-510.799	-181.166	-0.144	-0.003
-509.785	87.212	-0.308	-0.340
-508.770	-200.000	-0.048	0.582
-507.756	-4.896	-0.371	0.256
-506.741	-87.826	-0.172	0.052
-505.726	0.721	0.140	-0.100
-504.712	-200.000	0.005	-0.147
-503.697	-114.993	0.274	0.052
-502.683	8.521	-0.301	-0.227
-501.668	800.000	-0.055	0.190
-500.653	30.642	-0.024	0.021
-499.639	-91.494	0.195	0.056
-498.624	62.072	-0.179	-0.179
-497.610	800.000	-0.096	-0.401
-496.595	210.383	0.114	0.179
-495.581	-34.266	-0.224	0.123
-494.566	-156.434	-0.222	-0.014
-493.551	-200.000	-0.004	0.101
-492.537	-67.528	0.284	-0.111
-491.522	-104.178	-0.027	0.006
-490.508	-16.721	-0.267	0.169
-489.493	-74.936	0.162	0.058
-488.478	72.879	-0.128	0.133
-487.464	182.516	-0.149	0.219
-486.449	-200.000	0.035	-0.165
-485.435	-200.000	-0.051	-0.225
-484.420	-200.000	-0.007	-0.048
-483.405	3.482	0.256	0.186
-482.391	-200.000	0.053	0.242
-481.376	-11.959	0.081	0.053
-480.362	149.366	0.097	-0.131
-479.347	538.811	0.063	0.149
-478.332	431.592	-0.078	-0.168
-477.318	-115.860	0.163	0.030
-476.303	254.932	-0.194	0.331
-475.289	-200.000	0.041	0.285
-474.274	-61.352	-0.052	-0.022
-473.259	40.415	-0.258	0.232
-472.245	-153.365	0.287	0.020
-471.230	69.941	-0.214	0.220
-470.216	-114.928	-0.212	0.040
-469.201	167.481	-0.203	-0.288
-468.186	89.678	-0.085	-0.094
-467.172	-126.242	-0.051	0.008
-466.157	-62.179	-0.304	-0.126
-465.143	447.695	0.112	0.246
-464.128	0.161	-0.065	-0.046
-463.113	-15.501	-0.150	-0.096
-462.099	-192.639	-0.301	0.003
-461.084	12.497	0.147	-0.113
-460.070	7.863	-0.178	-0.133
-459.055	244.334	-0.043	0.073
-458.040	800.000	-0.121	-0.346
-457.026	6.274	-0.153	-0.113
-456.011	164.671	0.095	0.134
-454.997	-122.255	0.140	0.023
-453.982	-158.979	-0.151	0.009
-452.968	20.654	0.052	-0.042
-451.953	-69.852	0.087	-0.033
-450.938	-115.196	-0.160	-0.030
-449.924	-200.000	0.023	0.297
-448.909	-111.476	0.263	-0.053
-447.895	61.625	-0.198	0.196
-446.880	259.095	0.105	-0.181
-445.865	251.307	0.074	-0.126
-444.851	171.529	-0.131	-0.188
-443.836	800.000	0.063	-0.201
-442.822	283.463	-0.157	0.282
-441.807	800.000	-0.106	-0.319
-440.792	800.000	0.092	-0.375
-439.778	299.055	-0.061	0.112
-438.763	-76.694	-0.133	0.046
-437.749	-77.114	0.214	-0.074
-436.734	-66.204	0.322	-0.128
-435.719	38.698	0.243	0.216
-434.705	-200.000	0.013	-0.083
-433.690	-200.000	-0.064	0.328
-432.676	-26.064	0.370	0.217
-431.661	800.000	-0.062	-0.252
-430.646	-102.434	-0.046	-0.011
-429.632	96.087	-0.119	0.135
-428.617	-40.522	0.080	-0.042
-427.603	-86.183	-0.187	-0.057
-426.588	86.951	-0.055	-0.061
-425.573	800.000	0.035	-0.097
-424.559	120.065	0.165	0.204
-423.544	588.903	-0.083	-0.203
-422.530	249.368	0.061	-0.104
-421.515	-200.000	-0.001	0.052
-420.500	78.406	-0.153	-0.163
-419.486	44.817	-0.171	-0.157
-418.471	-5.776	0.328	-0.224
-417.457	-5.947	-0.111	-0.076
-416.442	195.584	-0.110	-0.167
-415.428	-21.321	0.251	0.153
-414.413	-119.855	-0.153	-0.026
-413.398	569.694	0.068	-0.165
-412.384	8.910	-0.092	0.069
-411.369	350.456	0.094	0.185
-410.355	-200.000	0.200	-0.001
-409.340	-128.217	-0.030	-0.004
-408.325	152.902	0.060	0.081
-407.311	800.000	-0.059	0.170
-406.296	309.684	-0.095	-0.176
-405.282	-200.000	0.031	0.175
-404.267	-42.208	-0.140	0.071
-403.252	86.583	0.060	0.066
-402.238	-200.000	-0.032	0.150
-401.223	-200.000	-0.008	0.141
-400.209	-151.281	-0.164	-0.012
-399.194	-134.712	-0.084	0.010
-398.179	-79.823	-0.278	0.093
-397.165	162.347	-0.102	-0.142
-396.150	-139.280	-0.156	-0.017
-395.136	-56.329	0.277	0.123
-394.121	-200.000	0.026	0.177
-393.106	-200.000	-0.020	0.191
-392.092	109.336	0.216	0.257
-391.077	-50.886	0.255	0.119
-390.063	-118.502	-0.178	0.031
-389.048	131.355	-0.239	0.306
-388.033	-200.000	0.053	0.300
-387.019	800.000	0.022	-0.081
-386.004	699.614	-0.131	-0.342
-384.990	-61.218	0.398	0.167
-383.975	-76.864	0.304	0.106
-382.960	-200.000	-0.025	0.166
-381.946	-71.346	0.188	0.070
-380.931	-200.000	-0.018	0.229
-379.917	-200.000	0.046	-0.224
-378.902	-29.975	0.062	-0.035
-377.888	-157.360	0.187	0.011
-376.873	-200.000	-0.043	0.208
-375.858	-200.000	-0.007	-0.286
-374.844	76.677	-0.154	0.163
-373.829	-160.020	-0.152	0.008
-372.815	23.650	-0.175	0.143
-371.800	56.328	0.354	0.342
-370.785	-41.665	-0.078	-0.040
-369.771	-47.097	-0.161	0.078
-368.756	-97.188	-0.251	-0.065
-367.742	-51.144	0.158	-0.074
-366.727	-113.531	0.122	-0.024
-365.712	800.000	0.091	-0.309
-364.698	-200.000	0.011	-0.131
-363.683	85.701	0.319	0.349
-362.669	143.688	0.032	0.043
-361.654	14.300	0.076	0.059
-360.639	-200.000	0.015	0.134
-359.625	-49.560	-0.243	0.115
-358.610	-200.000	-0.031	0.283
-357.596	800.000	0.076	-0.208
-356.581	-112.749	0.310	-0.061
-355.566	-2.180	-0.166	-0.116
-354.552	26.994	0.368	0.307
-353.537	-127.548	0.134	-0.019
-352.523	-186.415	0.138	-0.002
-351.508	-36.093	-0.153	-0.082
-350.493	58.035	0.126	-0.122
-349.479	10.231	0.231	0.174
-348.464	125.808	0.187	0.235
-347.450	145.574	0.180	0.239
-346.435	-61.382	0.275	0.115
-345.420	-200.000	-0.014	0.221
-344.406	800.000	0.124	-0.352
-343.391	800.000	-0.121	0.475
-342.377	88.763	0.065	0.071
-341.362	30.511	-0.205	-0.174
-340.348	-82.458	0.129	0.041
-339.333	-24.342	-0.233	0.138
-338.318	13.244	0.341	0.263
-337.304	800.000	-0.064	0.189
-336.289	94.873	0.045	-0.051
-335.275	-50.179	0.405	0.190
-334.260	677.546	-0.051	0.132
-333.245	-21.573	0.253	0.153
-332.231	800.000	0.021	0.087
-331.216	800.000	0.074	0.300
-330.202	104.712	0.174	0.204
-329.187	800.000	-0.086	0.244
-328.172	-154.763	0.172	-0.011
-327.158	348.580	0.045	0.088
-326.143	69.643	-0.233	-0.238
-325.129	217.445	0.132	-0.208
-324.114	-52.211	0.240	-0.111
-323.099	70.726	-0.207	0.213
-322.085	-88.294	0.092	0.027
-321.070	241.831	-0.130	-0.216
-320.056	-96.796	-0.182	0.048
-319.041	4.692	0.075	-0.054
-318.026	13.192	-0.314	0.241
-317.012	-161.120	-0.084	0.004
-315.997	800.000	-0.067	0.229
-314.983	172.596	0.259	0.369
-313.968	299.330	-0.028	0.051
-312.953	114.138	0.167	-0.201
-311.939	-200.000	0.008	-0.048
-310.924	435.747	-0.077	0.166
-309.910	293.177	-0.038	0.069
-308.895	-142.756	-0.168	-0.016
-307.880	-79.658	0.324	0.109
-306.866	289.908	0.105	-0.189
-305.851	232.257	-0.122	-0.198
-304.837	126.136	-0.139	-0.174
-303.822	-101.079	0.159	-0.039
-302.807	157.230	0.069	-0.095
-301.793	-103.881	0.253	-0.059
-300.778	-161.835	-0.163	0.008
-299.764	-96.461	0.379	-0.099
-298.749	161.603	-0.088	0.122
-297.735	-95.312	-0.186	0.050
-296.720	-47.916	-0.100	-0.048
-295.705	89.027	0.213	-0.235
-294.691	-144.792	0.201	0.018
-293.676	273.481	-0.184	0.323
-292.662	-200.000	0.029	0.158
-291.647	197.696	0.090	0.137
-290.632	-35.707	-0.354	-0.190
-289.618	-79.442	0.306	0.103
-288.603	-10.459	0.023	-0.015
-287.589	-112.944	0.177	0.035
-286.574	-31.537	0.266	-0.148
-285.559	381.104	-0.010	0.021
-284.545	345.587	-0.186	0.363
-283.530	-54.106	-0.293	-0.132
-282.516	251.378	-0.061	-0.103
-281.501	343.475	-0.072	-0.139
-280.486	143.728	-0.156	0.206
-279.472	-135.481	0.101	0.012
-278.457	-185.344	-0.296	-0.005
-277.443	-42.989	-0.215	0.108
-276.428	800.000	-0.044	0.127
-275.413	378.377	-0.029	0.060
-274.399	-200.000	0.027	0.142
-273.384	-79.922	-0.280	-0.093
-272.370	-86.204	-0.178	-0.054
-271.355	-99.802	-0.163	-0.041
-270.340	-200.000	0.000	0.183
-269.326	-22.007	-0.209	-0.126
-268.311	-200.000	0.062	-0.337
-267.297	-200.000	0.078	0.393
-266.282	-176.168	-0.499	0.013
-265.267	-119.371	0.267	0.046
-264.253	-164.144	0.241	0.011
-263.238	149.715	-0.221	-0.297
-262.224	-177.986	0.167	0.004
-261.209	-200.000	0.001	0.235
-260.195	-97.710	0.069	0.018
-259.180	-200.000	-0.051	0.280
-258.165	-38.970	0.142	-0.074
-257.151	-156.160	0.353	0.022
-256.136	-167.400	-0.218	-0.009
-255.122	-5.219	0.050	0.034
-254.107	-45.277	-0.097	-0.048
-253.092	44.121	0.151	-0.137
-252.078	147.258	0.106	-0.142
-251.063	800.000	0.083	-0.243
-250.049	800.000	-0.083	0.285
-249.034	800.000	0.072	0.219
-248.019	567.787	0.136	-0.326
-247.005	-200.000	-0.029	-0.143
-245.990	315.865	-0.194	0.361
-244.976	-37.918	-0.340	-0.179
-243.961	-200.000	-0.049	-0.269
-242.946	194.706	-0.206	-0.310
-241.932	607.589	-0.161	0.396
-240.917	-47.932	0.138	-0.066
-239.903	-185.403	-0.171	-0.003
-238.888	-200.000	0.008	0.048
-237.873	800.000	-0.058	-0.248
-236.859	800.000	-0.038	-0.153
-235.844	-51.844	-0.285	0.131
-234.830	-35.899	0.052	-0.028
-233.815	-115.192	-0.140	-0.026
-232.800	-100.813	-0.453	0.110
-231.786	-18.233	0.124	-0.076
-230.771	-200.000	0.015	0.265
-229.757	-161.711	-0.201	-0.010
-228.742	800.000	-0.050	0.142
-227.727	-85.178	0.079	-0.025
-226.713	-37.903	-0.145	-0.076
-225.698	-20.129	-0.334	-0.204
-224.684	-200.000	-0.071	0.337
-223.669	-140.589	0.040	-0.004
-222.655	177.671	-0.133	0.192
-221.640	310.084	-0.117	0.216
-220.625	-110.430	0.307	-0.063
-219.611	731.534	0.062	0.165
-218.596	-50.865	0.179	-0.083
-217.582	259.788	-0.151	-0.258
-216.567	193.596	0.098	-0.146
-215.552	143.070	0.018	-0.023
-214.538	-14.987	0.055	0.035
-213.523	49.335	-0.155	0.144
-212.509	-104.873	0.514	0.117
-211.494	-200.000	-0.058	-0.256
-210.479	93.266	-0.154	-0.172
-209.465	40.015	0.169	-0.150
-208.450	-200.000	-0.027	-0.374
-207.436	-200.000	-0.010	-0.118
-206.421	-99.780	-0.070	-0.017
-205.406	-200.000	0.002	0.252
-204.392	305.702	-0.125	0.231
-203.377	-200.000	0.003	-0.152
-202.363	43.373	0.176	0.159
-201.348	260.106	0.139	0.237
-200.333	-106.026	0.066	0.015
-199.319	-67.304	-0.139	-0.054
-198.304	-70.254	0.073	0.028
-197.290	-134.444	0.295	0.036
-196.275	-47.316	-0.278	-0.134
-195.260	-55.820	0.155	-0.069
-194.246	116.545	0.222	0.269
-193.231	-115.605	0.259	-0.048
-192.217	-200.000	-0.020	-0.089
-191.202	526.460	0.134	0.311
-190.187	-200.000	0.018	-0.324
-189.173	-18.124	-0.158	0.098
-188.158	77.409	0.232	-0.244
-187.144	11.565	0.116	-0.088
-186.129	-200.000	0.024	-0.123
-185.114	203.017	0.028	0.043
-184.100	-200.000	0.103	-0.448
-183.085	800.000	-0.071	0.241
-182.071	112.496	0.073	-0.087
-181.056	-55.481	0.507	-0.224
-180.042	94.685	0.042	0.047
-179.027	800.000	-0.065	0.242
-178.012	56.745	0.101	-0.097
-176.998	257.970	0.025	0.042
-175.983	-161.131	0.353	0.018
-174.969	-23.787	0.019	0.011
-173.954	-200.000	0.297	-0.001
-172.939	-200.000	0.024	0.231
-171.925	-155.235	0.088	-0.006
-170.910	-21.583	0.217	-0.130
-169.896	349.790	0.119	-0.232
-168.881	-200.000	0.233	0.001
-167.866	-172.608	0.356	0.011
-166.852	11.945	0.309	-0.235
-165.837	127.474	0.227	-0.285
-164.823	-74.342	-0.167	0.059
-163.808	168.902	0.124	-0.175
-162.793	-81.371	-0.202	-0.066
-161.779	800.000	0.091	-0.253
-160.764	-140.470	-0.292	-0.030
-159.750	-200.000	-0.020	0.093
-158.735	142.009	0.095	-0.124
-157.720	-73.545	-0.312	-0.112
-156.706	-152.254	0.427	0.030
-155.691	-182.208	0.091	-0.002
-154.677	336.981	0.205	-0.392
-153.662	-57.986	-0.336	-0.145
-152.647	-24.443	0.145	-0.085
-151.633	-200.000	0.047	-0.214
-150.618	-200.000	0.041	-0.289
-149.604	-18.780	-0.069	-0.042
-148.589	-41.407	-0.096	0.049
-147.574	262.189	-0.101	0.173
-146.560	-72.259	-0.263	-0.096
-145.545	23.432	0.158	-0.128
-144.531	-42.072	0.213	0.108
-143.516	-74.040	-0.175	0.062
-142.502	56.147	0.140	-0.134
-141.487	-59.712	-0.374	0.158
-140.472	-142.248	-0.323	0.032
-139.458	-125.865	0.151	-0.022
-138.443	125.224	0.021	-0.026
-137.429	-126.317	0.317	0.047
-136.414	-200.000	0.014	-0.415
-135.399	-135.173	-0.205	0.024
-134.385	-174.939	0.099	-0.003
-133.370	-200.000	-0.226	-0.001
-132.356	-56.216	-0.053	0.023
-131.341	-200.000	0.021	0.099
-130.326	-18.121	0.085	-0.052
-129.312	-200.000	0.016	0.134
-128.297	11.691	-0.036	0.027
-127.283	-135.832	0.198	-0.023
-126.268	-200.000	-0.048	0.227
-125.253	-98.673	-0.267	0.067
-124.239	17.002	-0.187	0.146
-123.224	-133.891	0.072	-0.009
-122.210	-4.396	0.312	-0.213
