DTS Sentinel unit serial number:	SN413079Multiplexer serial number:	ORYXHardware model number:	OX4-SRSoftware version number:	ORYX F/W v4.00 Oryx Data Collector v3.7.2.0data status	okinstallation	princeton_trtdifferential loss correction	single-endedforward channel	channel 2reverse channel	N/Adate	2019/09/19time	09:51:34forward acquisition time	60.00reverse acquisition time	0.00gamma	496.2192k internal	0.2347k external	0.2347temperature offset calibration	1.0002default loss term (dB/km)	0.3790temperature slope calibration	1.0000multiplexer offset coefficient	1.0000multiplexer slope coefficient	1.0000fibre end	0.00T internal ref (°C)	23.50T ext. ref 1 (°C)	0.65T ext. ref 2 (°C)	19.43length (m)	temperature (°C)	Stokes	anti-Stokes-747.200	-200.000	-0.034	0.303
-746.185	800.000	-0.157	0.547
-745.171	-87.098	0.238	-0.072
-744.156	430.898	0.021	-0.046
-743.142	-200.000	0.005	-0.047
-742.127	473.678	-0.027	0.061
-741.112	-35.263	-0.263	0.143
-740.098	55.087	-0.144	0.139
-739.083	-10.738	-0.277	0.183
-738.069	726.440	0.132	0.353
-737.054	800.000	-0.070	0.222
-736.039	-198.070	-0.376	-0.002
-735.025	-124.562	-0.160	0.025
-734.010	-200.000	0.004	-0.035
-732.996	800.000	0.083	-0.336
-731.981	-128.605	-0.375	-0.053
-730.966	92.680	-0.239	-0.270
-729.952	563.506	0.016	0.038
-728.937	169.094	-0.185	-0.264
-727.923	-113.475	0.374	-0.073
-726.908	-200.000	-0.055	-0.360
-725.894	-94.409	0.078	-0.021
-724.879	257.248	-0.070	-0.120
-723.864	205.351	0.036	0.057
-722.850	-8.755	-0.223	0.150
-721.835	-65.952	-0.232	-0.093
-720.821	-200.000	-0.029	-0.220
-719.806	31.388	0.117	0.101
-718.791	-192.136	0.179	0.002
-717.777	334.336	-0.075	0.145
-716.762	-12.489	-0.066	0.043
-715.748	-200.000	-0.048	-0.234
-714.733	-200.000	-0.023	0.191
-713.718	-3.106	-0.304	-0.212
-712.704	248.237	-0.157	-0.265
-711.689	25.876	-0.163	0.136
-710.675	-200.000	0.012	0.100
-709.660	98.246	0.195	-0.224
-708.645	-88.698	-0.419	0.125
-707.631	-120.674	0.166	0.028
-706.616	160.346	0.104	0.144
-705.602	-35.582	0.447	-0.242
-704.587	-12.157	0.108	-0.071
-703.572	282.601	-0.226	0.405
-702.558	51.753	0.029	0.027
-701.543	-14.281	-0.236	0.152
-700.529	30.215	-0.180	0.153
-699.514	-62.248	-0.375	-0.156
-698.499	800.000	0.086	-0.287
-697.485	206.932	0.146	0.227
-696.470	125.038	-0.103	0.130
-695.456	-200.000	-0.030	0.296
-694.441	-75.831	0.120	-0.042
-693.426	30.232	0.154	0.132
-692.412	-11.825	0.063	-0.041
-691.397	108.145	-0.080	0.095
-690.383	243.868	-0.045	0.076
-689.368	-102.997	0.272	0.064
-688.354	-200.000	-0.029	-0.204
-687.339	-200.000	-0.007	0.161
-686.324	659.465	-0.101	0.259
-685.310	153.377	-0.064	0.088
-684.295	164.746	0.237	-0.333
-683.281	53.058	-0.187	0.178
-682.266	61.374	-0.291	-0.288
-681.251	263.243	0.188	0.325
-680.237	95.587	-0.016	-0.018
-679.222	-176.703	0.093	-0.002
-678.208	325.574	0.077	0.147
-677.193	78.845	0.090	0.096
-676.178	-200.000	0.001	0.091
-675.164	-0.166	0.157	-0.112
-674.149	-15.433	0.216	0.137
-673.135	-200.000	-0.048	-0.300
-672.120	800.000	-0.042	-0.168
-671.105	800.000	-0.091	-0.332
-670.091	79.656	-0.080	0.086
-669.076	-200.000	0.007	0.086
-668.062	-80.317	-0.191	0.064
-667.047	800.000	0.009	0.035
-666.032	-181.024	-0.405	0.008
-665.018	-131.975	0.228	-0.030
-664.003	342.953	-0.024	-0.046
-662.989	-47.133	-0.302	0.147
-661.974	127.529	-0.127	-0.161
-660.959	-124.898	-0.388	0.060
-659.945	-59.540	0.267	0.114
-658.930	30.871	0.263	-0.224
-657.916	-23.016	0.146	0.088
-656.901	-200.000	-0.055	-0.298
-655.886	-26.109	-0.282	0.165
-654.872	12.513	0.146	-0.112
-653.857	-148.934	0.010	0.001
-652.843	42.757	-0.266	-0.241
-651.828	800.000	0.049	0.159
-650.814	-111.985	-0.253	-0.051
-649.799	606.715	-0.039	0.096
-648.784	-200.000	0.046	-0.532
-647.770	664.797	0.091	-0.235
-646.755	-200.000	0.007	0.060
-645.741	-74.358	0.326	0.117
-644.726	46.216	0.162	-0.149
-643.711	-200.000	-0.049	-0.228
-642.697	-200.000	0.003	-0.092
-641.682	800.000	-0.077	0.235
-640.668	107.990	-0.218	0.258
-639.653	-113.370	-0.318	-0.062
-638.638	-68.022	-0.303	0.118
-637.624	-192.455	-0.039	-0.000
-636.609	800.000	0.029	0.096
-635.595	-200.000	-0.042	0.210
-634.580	224.851	0.146	0.235
-633.565	-200.000	-0.002	-0.242
-632.551	165.636	-0.235	-0.330
-631.536	-200.000	0.012	0.166
-630.522	727.568	-0.130	-0.346
-629.507	-25.699	-0.118	0.069
-628.492	112.328	0.074	0.089
-627.478	-74.915	-0.080	0.029
-626.463	-141.299	-0.126	0.013
-625.449	478.295	-0.104	0.235
-624.434	-200.000	-0.021	-0.165
-623.419	604.199	0.034	-0.084
-622.405	-186.322	0.382	0.005
-621.390	-122.802	-0.319	0.051
-620.376	242.074	0.211	0.351
-619.361	-81.889	-0.387	-0.126
-618.346	-87.465	-0.171	-0.051
-617.332	-1.894	-0.134	-0.094
-616.317	-124.208	0.270	-0.042
-615.303	-25.859	0.292	0.171
-614.288	-6.405	0.150	-0.101
-613.273	-32.851	-0.116	0.064
-612.259	349.587	-0.188	0.370
-611.244	206.021	0.126	-0.196
-610.230	69.180	-0.229	-0.234
-609.215	-117.660	0.353	0.063
-608.201	27.918	0.209	-0.176
-607.186	-125.709	0.380	-0.057
-606.171	-69.531	-0.190	-0.072
-605.157	133.387	-0.074	-0.095
-604.142	397.962	-0.053	0.110
-603.128	153.375	-0.090	0.123
-602.113	-137.083	0.204	-0.023
-601.098	-192.278	0.088	0.001
-600.084	800.000	-0.048	-0.165
-599.069	-39.782	-0.193	0.100
-598.055	260.928	-0.315	-0.542
-597.040	-163.785	-0.151	-0.007
-596.025	9.984	-0.180	0.136
-595.011	-125.036	0.165	-0.025
-593.996	-160.066	-0.271	0.015
-592.982	-113.179	0.129	0.025
-591.967	315.970	0.120	0.225
-590.952	121.197	0.197	0.244
-589.938	-200.000	-0.001	0.201
-588.923	4.128	-0.124	0.090
-587.909	-200.000	-0.080	0.415
-586.894	800.000	0.034	-0.111
-585.879	165.601	0.234	-0.329
-584.865	-160.783	0.757	0.040
-583.850	-200.000	0.005	0.050
-582.836	56.460	0.168	0.162
-581.821	304.916	-0.094	-0.174
-580.806	-86.559	-0.356	0.108
-579.792	-154.794	0.056	0.004
-578.777	129.086	-0.177	-0.225
-577.763	220.031	0.143	-0.227
-576.748	-200.000	-0.018	0.102
-575.733	-51.836	-0.085	0.039
-574.719	800.000	-0.057	-0.184
-573.704	10.135	-0.358	0.270
-572.690	-120.403	0.123	-0.021
-571.675	800.000	-0.076	-0.307
-570.661	-103.950	0.215	-0.050
-569.646	655.858	-0.080	-0.205
-568.631	800.000	0.038	0.111
-567.617	364.313	-0.038	0.076
-566.602	-200.000	0.063	-0.322
-565.588	-12.139	0.392	-0.255
-564.573	-194.696	-0.294	-0.002
-563.558	-36.231	0.318	0.171
-562.544	-30.982	-0.205	-0.115
-561.529	140.930	0.072	-0.095
-560.515	-128.946	-0.483	-0.067
-559.500	82.115	-0.181	0.195
-558.485	-82.735	-0.174	-0.056
-557.471	-200.000	0.024	-0.434
-556.456	-200.000	-0.015	0.197
-555.442	55.029	-0.219	0.210
-554.427	-200.000	0.032	-0.156
-553.412	-89.349	-0.154	0.045
-552.398	-111.209	0.225	0.046
-551.383	-200.000	0.031	-0.413
-550.369	800.000	-0.120	-0.351
-549.354	333.294	0.094	0.180
-548.339	800.000	0.067	0.290
-547.325	232.695	0.053	-0.087
-546.310	-200.000	0.019	-0.086
-545.296	85.146	0.239	-0.260
-544.281	30.084	-0.267	-0.226
-543.266	90.509	0.061	-0.068
-542.252	-61.137	-0.398	-0.166
-541.237	67.532	-0.220	-0.222
-540.223	-38.717	0.228	-0.119
-539.208	-46.658	0.291	-0.141
-538.193	-80.683	-0.418	0.138
-537.179	-32.272	-0.234	0.130
-536.164	-174.718	-0.093	0.003
-535.150	-40.115	-0.187	0.096
-534.135	-67.698	-0.053	0.021
-533.121	-14.782	-0.093	0.059
-532.106	800.000	0.016	-0.068
-531.091	-122.923	-0.292	0.047
-530.077	143.803	0.041	-0.054
-529.062	-107.888	0.154	-0.033
-528.048	-200.000	0.005	-0.172
-527.033	800.000	-0.081	-0.268
-526.018	800.000	0.093	-0.314
-525.004	-53.517	-0.214	0.097
-523.989	-200.000	-0.009	0.159
-522.975	-52.633	-0.022	-0.010
-521.960	20.860	-0.138	-0.111
-520.945	22.143	-0.052	0.042
-519.931	-12.155	0.251	0.162
-518.916	73.636	-0.069	-0.071
-517.902	-83.866	-0.319	0.101
-516.887	504.340	-0.163	-0.373
-515.872	-162.930	0.220	-0.011
-514.858	-145.979	0.091	-0.008
-513.843	71.715	-0.110	0.114
-512.829	-200.000	0.001	0.101
-511.814	171.542	-0.017	-0.024
-510.799	425.246	-0.018	0.039
-509.785	-59.933	0.041	-0.017
-508.770	-172.253	0.201	0.006
-507.756	5.801	0.048	-0.035
-506.741	-37.789	-0.368	-0.194
-505.726	-116.996	0.194	-0.035
-504.712	800.000	-0.073	-0.228
-503.697	-7.125	-0.129	0.087
-502.683	-200.000	0.025	-0.431
-501.668	81.636	0.333	-0.357
-500.653	-142.510	-0.157	-0.015
-499.639	-152.818	-0.161	-0.011
-498.624	106.302	-0.156	0.183
-497.610	575.573	0.072	-0.173
-496.595	-22.130	0.088	0.053
-495.581	800.000	-0.044	0.183
-494.566	-200.000	0.032	-0.183
-493.551	8.000	-0.222	-0.165
-492.537	-72.086	-0.248	-0.091
-491.522	-200.000	0.027	0.143
-490.508	-200.000	0.020	0.215
-489.493	-2.825	-0.167	0.115
-488.478	-102.154	0.401	0.096
-487.464	27.491	-0.086	0.071
-486.449	-73.447	0.251	-0.091
-485.435	-200.000	0.016	-0.175
-484.420	364.379	-0.091	0.182
-483.405	800.000	0.042	-0.124
-482.391	179.870	-0.304	0.441
-481.376	103.889	-0.142	-0.165
-480.362	420.242	0.170	0.361
-479.347	-53.140	0.194	0.088
-478.332	42.759	-0.260	-0.234
-477.318	100.601	0.139	-0.160
-476.303	-160.512	-0.275	-0.015
-475.289	290.156	-0.158	-0.284
-474.274	-200.000	0.001	0.260
-473.259	-52.155	-0.116	0.053
-472.245	356.609	-0.231	0.456
-471.230	42.016	0.126	0.113
-470.216	800.000	-0.078	-0.314
-469.201	-19.578	-0.263	0.161
-468.186	69.412	0.153	-0.156
-467.172	498.159	-0.024	0.055
-466.157	-93.017	-0.387	-0.107
-465.143	25.988	0.098	0.081
-464.128	-71.119	-0.098	-0.036
-463.113	105.859	-0.141	-0.165
-462.099	800.000	-0.021	-0.063
-461.084	-152.100	-0.218	-0.016
-460.070	800.000	-0.084	-0.299
-459.055	96.081	-0.203	-0.230
-458.040	-127.162	-0.055	0.008
-457.026	40.547	0.226	0.201
-456.011	778.894	-0.075	0.203
-454.997	229.289	0.097	0.156
-453.982	-95.226	-0.054	0.014
-452.968	-84.421	-0.381	0.119
-451.953	56.584	-0.090	0.086
-450.938	-67.097	-0.270	-0.105
-449.924	-24.454	-0.213	0.125
-448.909	-68.655	0.123	0.047
-447.895	704.185	-0.095	-0.247
-446.880	-134.564	-0.165	-0.020
-445.865	-200.000	0.044	0.209
-444.851	-69.305	0.168	-0.064
-443.836	-52.646	0.219	0.100
-442.822	800.000	-0.087	-0.300
-441.807	-200.000	0.025	-0.262
-440.792	-156.867	-0.390	-0.024
-439.778	334.313	0.123	-0.236
-438.763	20.958	0.144	-0.115
-437.749	-200.000	-0.022	0.131
-436.734	26.589	-0.157	-0.130
-435.719	2.521	-0.087	-0.062
-434.705	-168.512	0.097	0.004
-433.690	74.175	0.183	-0.190
-432.676	-8.666	0.356	-0.236
-431.661	137.204	-0.297	-0.383
-430.646	-58.822	-0.121	0.052
-429.632	-82.677	-0.146	0.047
-428.617	-77.754	0.163	0.056
-427.603	-30.956	-0.210	-0.117
-426.588	-22.794	-0.243	-0.145
-425.573	800.000	0.071	0.193
-424.559	205.672	0.136	0.209
-423.544	184.802	0.093	-0.136
-422.530	-200.000	0.032	-0.241
-421.515	211.398	0.125	-0.193
-420.500	-43.809	0.108	-0.053
-419.486	-129.693	-0.163	-0.022
-418.471	279.764	0.006	-0.011
-417.457	41.228	0.089	-0.079
-416.442	183.639	0.151	-0.220
-415.428	-68.121	0.297	-0.114
-414.413	-126.217	-0.322	0.048
-413.398	344.890	0.111	0.215
-412.384	20.317	0.270	-0.215
-411.369	657.721	-0.107	-0.271
-410.355	149.110	-0.130	-0.173
-409.340	171.427	-0.043	-0.061
-408.325	-200.000	0.017	-0.152
-407.311	457.732	-0.054	-0.119
-406.296	206.329	0.071	0.109
-405.282	109.748	0.255	0.302
-404.267	123.296	0.193	-0.238
-403.252	414.352	0.147	-0.308
-402.238	10.430	0.181	0.136
-401.223	-142.227	0.211	-0.021
-400.209	800.000	-0.113	0.332
-399.194	24.932	0.105	-0.086
-398.179	-200.000	0.014	0.201
-397.165	47.814	-0.091	-0.083
-396.150	496.966	0.065	0.148
-395.136	200.019	-0.161	0.244
-394.121	-61.432	0.318	0.132
-393.106	-200.000	-0.023	0.308
-392.092	-12.393	-0.100	0.064
-391.077	-88.174	0.238	-0.070
-390.063	-30.396	0.351	0.196
-389.048	800.000	0.115	0.340
-388.033	-200.000	0.037	0.236
-387.019	-141.566	-0.192	0.019
-386.004	-70.101	-0.255	0.096
-384.990	16.526	0.193	0.150
-383.975	-56.234	0.139	0.061
-382.960	-200.000	-0.011	-0.229
-381.946	-152.482	-0.253	-0.018
-380.931	-200.000	-0.024	0.163
-379.917	136.604	-0.143	0.185
-378.902	53.452	0.128	0.121
-377.888	-112.002	0.108	-0.021
-376.873	1.629	-0.162	-0.115
-375.858	800.000	0.102	0.320
-374.844	-58.185	0.105	-0.045
-373.829	-200.000	0.041	-0.232
-372.815	168.810	-0.041	-0.057
-371.800	15.215	0.157	0.121
-370.785	668.771	0.099	-0.253
-369.771	800.000	0.081	-0.264
-368.756	322.155	-0.110	0.207
-367.742	-58.906	0.203	0.086
-366.727	57.761	0.059	0.057
-365.712	146.770	-0.061	0.081
-364.698	248.641	0.094	-0.157
-363.683	15.381	-0.148	-0.114
-362.669	-91.095	0.188	-0.053
-361.654	63.775	-0.056	0.056
-360.639	117.409	0.099	0.120
-359.625	-200.000	-0.036	0.189
-358.610	19.120	-0.360	0.284
-357.596	-80.204	0.074	0.024
-356.581	800.000	0.057	-0.160
-355.566	-87.913	-0.204	-0.060
-354.552	-10.731	0.136	0.089
-353.537	-162.070	0.226	0.011
-352.523	-130.942	0.166	-0.022
-351.508	-200.000	-0.008	0.065
-350.493	-58.947	-0.156	-0.066
-349.479	-52.201	0.222	-0.101
-348.464	-64.640	-0.068	-0.027
-347.450	418.674	-0.092	0.195
-346.435	-62.893	0.225	0.092
-345.420	7.638	0.301	0.222
-344.406	-32.589	-0.097	-0.053
-343.391	414.488	-0.008	0.017
-342.377	-200.000	0.039	0.433
-341.362	-124.208	0.308	0.047
-340.348	-200.000	-0.040	0.306
-339.333	-63.494	0.210	0.085
-338.318	-119.034	-0.342	-0.059
-337.304	-200.000	-0.023	-0.149
-336.289	76.571	-0.216	-0.225
-335.275	-97.101	-0.049	0.013
-334.260	7.635	0.267	0.196
-333.245	-200.000	-0.061	0.281
-332.231	-200.000	-0.034	-0.338
-331.216	61.005	-0.082	-0.080
-330.202	-118.371	0.076	-0.013
-329.187	322.234	0.021	0.040
-328.172	-200.000	-0.010	-0.083
-327.158	800.000	0.069	0.228
-326.143	24.677	-0.158	0.128
-325.129	1.195	0.186	-0.131
-324.114	-22.705	0.153	0.091
-323.099	-78.306	0.207	0.070
-322.085	-97.684	0.129	0.033
-321.070	66.679	0.048	-0.048
-320.056	81.925	0.184	0.196
-319.041	-84.631	-0.049	-0.015
-318.026	-200.000	-0.037	-0.326
-317.012	-53.995	-0.241	-0.108
-315.997	-71.226	0.139	-0.051
-314.983	-140.468	-0.133	-0.014
-313.968	-76.490	0.243	-0.084
-312.953	54.031	-0.160	-0.151
-311.939	-112.037	0.250	0.049
-310.924	-4.783	0.365	-0.247
-309.910	268.315	0.179	0.309
-308.895	-134.983	-0.272	0.032
-307.880	3.299	0.024	0.017
-306.866	-101.082	0.112	0.027
-305.851	-52.217	0.208	-0.095
-304.837	-50.799	-0.461	0.213
-303.822	-200.000	-0.032	0.232
-302.807	800.000	-0.059	-0.176
-301.793	113.881	0.128	-0.153
-300.778	-87.770	0.033	-0.010
-299.764	-35.458	0.230	0.123
-298.749	345.168	-0.044	-0.084
-297.735	26.260	0.043	-0.035
-296.720	-84.180	0.257	0.080
-295.705	74.209	0.040	0.041
-294.691	800.000	0.025	0.079
-293.676	-50.176	0.361	0.168
-292.662	800.000	0.109	-0.383
-291.647	80.212	0.053	-0.056
-290.632	-200.000	0.026	-0.210
-289.618	-133.236	0.176	0.022
-288.603	-96.828	-0.244	-0.063
-287.589	-124.029	-0.169	0.026
-286.574	800.000	0.056	0.171
-285.559	117.474	-0.130	-0.157
-284.545	-200.000	-0.003	-0.283
-283.530	-153.408	-0.076	0.005
-282.516	167.276	-0.342	0.477
-281.501	130.985	-0.109	-0.137
-280.486	800.000	0.073	-0.223
-279.472	-36.964	-0.234	-0.123
-278.457	-200.000	0.015	0.227
-277.443	24.198	-0.225	0.182
-276.428	154.613	-0.051	0.069
-275.413	-25.139	0.083	-0.048
-274.399	229.265	-0.144	-0.231
-273.384	92.299	0.111	0.123
-272.370	232.905	0.212	0.342
-271.355	138.562	0.039	-0.050
-270.340	800.000	-0.081	-0.318
-269.326	218.482	0.068	-0.106
-268.311	36.212	0.223	0.193
-267.297	313.494	0.173	-0.320
-266.282	-179.988	-0.138	-0.003
-265.267	-124.954	0.466	-0.070
-264.253	597.318	0.127	0.308
-263.238	47.899	0.068	0.063
-262.224	330.785	-0.080	0.152
-261.209	110.715	-0.162	0.191
-260.195	-161.571	-0.223	0.011
-259.180	122.983	0.128	-0.157
-258.165	150.543	0.191	0.255
-257.151	-84.860	0.314	0.097
-256.136	309.267	0.119	-0.218
-255.122	68.488	-0.045	0.045
-254.107	-35.701	0.112	-0.059
-253.092	-115.315	-0.342	0.063
-252.078	57.598	0.337	0.323
-251.063	116.110	-0.293	0.352
-250.049	537.669	-0.066	-0.153
-249.034	51.949	0.142	0.132
-248.019	435.213	-0.127	-0.271
-247.005	-166.267	0.276	-0.011
-245.990	-137.851	0.141	0.016
-244.976	-200.000	0.002	-0.121
-243.961	109.890	0.152	0.179
-242.946	34.219	0.251	0.214
-241.932	-97.308	0.433	0.111
-240.917	-84.142	-0.076	0.024
-239.903	-200.000	-0.026	0.255
-238.888	181.883	0.050	0.073
-237.873	91.282	0.236	0.259
-236.859	-46.624	0.389	0.187
-235.844	-90.444	-0.064	0.018
-234.830	623.212	-0.046	0.114
-233.815	96.511	0.255	-0.286
-232.800	-200.000	0.049	0.312
-231.786	-200.000	-0.051	0.227
-230.771	19.109	0.233	0.183
-229.757	33.229	-0.229	-0.195
-228.742	-10.419	-0.201	0.131
-227.727	-12.969	-0.295	-0.188
-226.713	202.710	0.036	0.055
-225.698	-12.266	0.047	0.030
-224.684	55.804	-0.113	-0.107
-223.669	-30.915	0.357	0.198
-222.655	-200.000	0.056	-0.330
-221.640	191.524	-0.045	-0.066
-220.625	7.519	-0.145	-0.106
-219.611	46.458	0.076	0.069
-218.596	-200.000	0.038	0.176
-217.582	4.978	0.330	0.238
-216.567	-111.650	-0.360	-0.071
-215.552	-62.951	-0.141	0.057
-214.538	800.000	-0.066	-0.222
-213.523	75.251	0.073	-0.076
-212.509	14.760	0.366	-0.280
-211.494	68.768	0.159	0.160
-210.479	-122.612	0.155	0.025
-209.465	77.541	0.241	0.251
-208.450	-86.319	-0.062	0.019
-207.436	-200.000	-0.049	-0.298
-206.421	-200.000	0.001	0.036
-205.406	-53.001	-0.217	-0.098
-204.392	-106.690	0.217	0.047
-203.377	-200.000	0.024	0.162
-202.363	-200.000	0.007	0.130
-201.348	151.008	-0.265	-0.353
-200.333	-39.302	-0.260	0.133
-199.319	27.641	-0.174	-0.143
-198.304	-97.265	-0.140	0.036
-197.290	-200.000	-0.041	-0.323
-196.275	-141.628	0.129	-0.013
-195.260	249.604	-0.087	0.145
-194.246	158.903	0.085	0.116
-193.231	-92.865	-0.300	-0.082
-192.217	112.958	0.206	0.244
-191.202	800.000	0.048	0.203
-190.187	-200.000	-0.021	0.460
-189.173	800.000	-0.039	-0.106
-188.158	-200.000	0.004	0.079
-187.144	277.417	-0.169	-0.295
-186.129	160.464	-0.055	0.075
-185.114	-200.000	0.031	-0.227
-184.100	-91.938	0.210	0.058
-183.085	101.428	0.119	0.135
-182.071	526.144	0.185	0.426
-181.056	-103.229	0.121	0.028
-180.042	53.995	-0.092	0.087
-179.027	594.723	-0.136	0.329
-178.012	-111.474	0.075	0.015
-176.998	-200.000	-0.009	-0.329
-175.983	-31.789	0.158	0.086
-174.969	-69.038	0.205	-0.077
-173.954	800.000	-0.039	-0.138
-172.939	-200.000	0.022	0.184
-171.925	-19.140	0.116	-0.071
-170.910	339.178	-0.165	0.315
-169.896	-55.351	-0.306	-0.134
-168.881	800.000	0.111	-0.336
-167.866	-166.723	-0.550	-0.022
-166.852	224.747	-0.297	0.469
-165.837	-108.658	0.149	-0.031
-164.823	-90.582	0.202	0.057
-163.808	-123.857	0.116	-0.018
-162.793	187.746	-0.092	-0.134
-161.779	-53.119	-0.091	-0.041
-160.764	68.926	0.093	0.093
-159.750	-121.510	-0.218	-0.035
-158.735	800.000	-0.048	0.197
-157.720	-8.183	-0.167	0.110
-156.706	800.000	-0.041	-0.164
-155.691	-148.165	-0.272	-0.022
-154.677	-117.579	-0.113	-0.020
-153.662	116.402	0.157	0.188
-152.647	-142.135	0.209	-0.020
-151.633	4.009	-0.185	0.132
-150.618	-43.697	0.176	-0.087
-149.604	557.200	0.067	-0.157
-148.589	-123.744	0.333	0.051
-147.574	-200.000	0.016	0.099
-146.560	473.359	0.142	-0.311
-145.545	-128.545	0.111	-0.015
-144.531	-97.543	0.339	-0.086
-143.516	-200.000	-0.008	0.327
-142.502	105.271	0.101	0.117
-141.487	134.717	0.156	-0.197
-140.472	-185.427	-0.103	-0.002
-139.458	-85.694	0.218	-0.066
-138.443	43.653	-0.193	0.172
-137.429	-200.000	0.008	0.211
-136.414	354.653	-0.178	-0.345
-135.399	-83.610	0.415	-0.130
-134.385	167.299	0.235	-0.326
-133.370	362.359	0.072	-0.142
-132.356	-61.671	0.093	0.038
-131.341	152.404	-0.130	-0.173
-130.326	-62.753	-0.430	0.174
-129.312	-114.097	0.132	-0.025
-128.297	-200.000	0.015	-0.225
-127.283	38.199	-0.109	-0.094
-126.268	-200.000	0.024	0.125
-125.253	-30.171	-0.282	-0.156
-124.239	234.541	-0.119	-0.191
-123.224	386.865	-0.088	-0.178
-122.210	-200.000	-0.048	0.244
-121.195	-200.000	0.033	0.276
