DTS Sentinel unit serial number:	SN413079Multiplexer serial number:	ORYXHardware model number:	OX4-SRSoftware version number:	ORYX F/W v4.00 Oryx Data Collector v3.7.2.0data status	okinstallation	princeton_trtdifferential loss correction	single-endedforward channel	channel 2reverse channel	N/Adate	2019/09/15time	19:23:35forward acquisition time	60.00reverse acquisition time	0.00gamma	496.2192k internal	0.2309k external	0.2309temperature offset calibration	0.9928default loss term (dB/km)	0.3790temperature slope calibration	1.0000multiplexer offset coefficient	1.0000multiplexer slope coefficient	1.0000fibre end	0.00T internal ref (°C)	39.48T ext. ref 1 (°C)	7.23T ext. ref 2 (°C)	28.96length (m)	temperature (°C)	Stokes	anti-Stokes-747.200	345.376	-0.022	0.044
-746.185	79.505	0.210	0.229
-745.171	743.439	-0.074	0.203
-744.156	138.626	-0.180	0.240
-743.142	-200.000	0.056	0.512
-742.127	470.903	-0.095	0.218
-741.112	-136.964	-0.421	0.049
-740.098	800.000	0.121	0.385
-739.083	-107.432	-0.058	0.013
-738.069	29.030	-0.346	0.298
-737.054	-72.426	0.181	-0.068
-736.039	89.880	-0.205	-0.232
-735.025	-200.000	0.067	0.298
-734.010	83.840	-0.206	0.229
-732.996	-200.000	-0.021	-0.212
-731.981	77.078	0.074	0.080
-730.966	-200.000	-0.028	-0.157
-729.952	699.149	0.040	0.106
-728.937	-109.764	0.069	0.015
-727.923	364.593	-0.110	-0.226
-726.908	-200.000	0.037	-0.338
-725.894	-200.000	0.091	-0.464
-724.879	-200.000	-0.013	-0.262
-723.864	-5.687	0.212	-0.148
-722.850	-38.805	0.077	-0.041
-721.835	363.862	-0.091	-0.186
-720.821	161.911	-0.100	0.142
-719.806	-44.782	0.322	0.163
-718.791	-200.000	0.041	0.278
-717.777	-171.301	-0.200	-0.007
-716.762	132.608	-0.069	0.091
-715.748	217.753	-0.052	0.084
-714.733	-123.518	-0.261	-0.042
-713.718	-30.743	0.180	-0.103
-712.704	64.912	-0.107	0.110
-711.689	122.450	-0.098	0.124
-710.675	-200.000	0.001	-0.103
-709.660	800.000	0.111	-0.396
-708.645	-147.975	-0.204	0.017
-707.631	-31.993	0.163	0.093
-706.616	800.000	-0.101	-0.385
-705.602	-68.910	-0.222	0.087
-704.587	800.000	0.058	0.196
-703.572	-110.979	0.318	-0.066
-702.558	7.173	-0.184	-0.140
-701.543	800.000	0.036	0.152
-700.529	-107.925	0.099	-0.022
-699.514	-161.402	-0.198	0.010
-698.499	800.000	0.137	-0.388
-697.485	-200.000	-0.076	-0.342
-696.470	800.000	-0.144	-0.464
-695.456	-42.334	-0.167	-0.086
-694.441	444.756	-0.146	-0.325
-693.426	-55.711	-0.173	0.078
-692.412	50.121	-0.206	0.197
-691.397	113.236	0.177	0.218
-690.383	-152.930	-0.176	-0.013
-689.368	198.797	-0.048	-0.074
-688.354	800.000	-0.090	-0.254
-687.339	608.444	0.122	0.308
-686.324	22.525	-0.244	0.203
-685.310	508.417	0.012	0.027
-684.295	50.686	0.090	-0.087
-683.281	-85.253	0.259	0.082
-682.266	-169.469	0.120	0.004
-681.251	-42.860	0.232	-0.120
-680.237	-98.409	-0.152	-0.039
-679.222	-159.578	0.343	0.019
-678.208	-149.406	0.254	0.020
-677.193	-5.852	0.412	-0.286
-676.178	-93.396	0.142	0.040
-675.164	89.260	0.101	0.114
-674.149	-85.484	-0.056	-0.018
-673.135	197.835	-0.105	-0.162
-672.120	-54.871	0.032	0.015
-671.105	-22.986	0.173	-0.105
-670.091	800.000	-0.068	-0.296
-669.076	84.609	0.167	-0.185
-668.062	-191.428	0.189	-0.002
-667.047	-130.322	-0.386	0.053
-666.032	307.224	-0.023	0.044
-665.018	251.164	-0.161	-0.278
-664.003	-51.915	0.232	0.109
-662.989	12.516	0.028	-0.022
-661.974	-65.900	0.274	-0.111
-660.959	140.208	-0.228	0.305
-659.945	586.939	-0.031	-0.076
-658.930	-200.000	0.031	0.524
-657.916	41.241	-0.137	-0.126
-656.901	12.551	0.103	0.080
-655.886	53.366	-0.187	-0.182
-654.872	516.250	-0.050	-0.119
-653.857	508.586	-0.088	-0.208
-652.843	-160.739	0.149	-0.008
-651.828	800.000	0.049	0.214
-650.814	128.691	-0.325	0.419
-649.799	-53.844	0.430	0.199
-648.784	43.701	-0.083	0.077
-647.770	134.889	0.042	0.055
-646.755	104.496	-0.110	-0.131
-645.741	-87.969	-0.109	-0.033
-644.726	-100.889	0.316	0.079
-643.711	182.551	-0.097	0.145
-642.697	13.441	0.099	0.078
-641.682	90.001	0.133	-0.151
-640.668	106.865	0.187	-0.225
-639.653	800.000	0.061	-0.233
-638.638	-52.086	0.109	0.051
-637.624	-200.000	-0.004	0.171
-636.609	-144.836	0.352	-0.033
-635.595	-86.492	-0.250	0.078
-634.580	-62.512	0.229	0.096
-633.565	-79.211	0.244	0.084
-632.551	-109.682	-0.215	0.046
-631.536	1.649	0.031	-0.023
-630.522	134.404	0.087	0.115
-629.507	-86.628	0.381	-0.118
-628.492	800.000	0.059	0.205
-627.478	176.360	-0.065	-0.095
-626.463	-125.282	0.106	-0.016
-625.449	-121.497	-0.158	-0.027
-624.434	-128.292	0.253	-0.036
-623.419	-143.464	-0.200	0.019
-622.405	-200.000	-0.047	-0.213
-621.390	113.708	0.222	0.272
-620.376	68.544	-0.216	0.224
-619.361	-102.171	0.145	-0.035
-618.346	800.000	0.046	-0.181
-617.332	69.149	-0.199	-0.207
-616.317	-200.000	0.051	0.360
-615.303	66.570	0.156	-0.160
-614.288	800.000	0.061	0.266
-613.273	-37.097	0.170	-0.092
-612.259	-50.099	-0.214	0.103
-611.244	-200.000	-0.006	0.224
-610.230	800.000	0.053	-0.217
-609.215	156.759	0.022	-0.031
-608.201	178.597	0.127	0.188
-607.186	-146.383	-0.494	-0.044
-606.171	-200.000	-0.037	-0.272
-605.157	26.091	0.053	0.045
-604.142	172.058	0.185	-0.269
-603.128	-116.291	-0.067	-0.013
-602.113	-92.419	-0.373	-0.106
-601.098	113.602	-0.185	-0.227
-600.084	-200.000	-0.008	0.209
-599.069	800.000	-0.069	-0.271
-598.055	659.777	-0.150	-0.390
-597.040	800.000	-0.016	0.049
-596.025	-57.357	0.150	-0.067
-595.011	2.266	0.364	0.266
-593.996	33.239	0.141	0.123
-592.982	800.000	0.067	-0.203
-591.967	139.598	0.078	-0.103
-590.952	-90.939	0.134	0.039
-589.938	-200.000	0.012	-0.072
-588.923	800.000	-0.081	0.307
-587.909	-101.304	0.344	0.085
-586.894	-99.901	0.279	-0.070
-585.879	-92.946	-0.171	0.048
-584.865	-90.219	0.150	-0.044
-583.850	-104.950	-0.213	-0.049
-582.836	-85.633	-0.240	-0.075
-581.821	-151.461	0.420	0.031
-580.806	274.177	0.077	-0.138
-579.792	-57.909	-0.226	0.100
-578.777	-115.767	-0.092	-0.017
-577.763	-200.000	0.026	-0.181
-576.748	-137.476	-0.202	0.023
-575.733	-33.248	0.055	0.031
-574.719	-87.577	-0.149	-0.045
-573.704	800.000	0.073	-0.216
-572.690	67.612	-0.163	-0.168
-571.675	26.948	0.227	0.192
-570.661	-6.557	-0.201	0.138
-569.646	21.295	0.313	0.257
-568.631	800.000	0.069	-0.264
-567.617	-191.106	-0.241	-0.003
-566.602	-110.939	-0.193	0.040
-565.588	76.472	-0.316	0.338
-564.573	-200.000	0.010	-0.117
-563.558	94.807	0.206	0.236
-562.544	-146.147	0.364	0.032
-561.529	148.565	0.136	0.185
-560.515	-200.000	-0.015	-0.088
-559.500	800.000	-0.024	-0.076
-558.485	47.691	-0.122	-0.115
-557.471	83.742	-0.096	0.105
-556.456	-38.689	0.108	0.058
-555.442	-97.647	0.079	-0.021
-554.427	80.633	-0.029	0.031
-553.412	144.487	0.206	-0.277
-552.398	-146.421	0.382	0.034
-551.383	-112.802	-0.150	-0.030
-550.369	800.000	-0.107	0.302
-549.354	800.000	-0.022	-0.063
-548.339	-200.000	0.011	-0.284
-547.325	541.827	0.109	-0.263
-546.310	191.634	0.110	-0.168
-545.296	-64.215	-0.072	0.030
-544.281	201.215	0.023	0.035
-543.266	800.000	-0.104	-0.311
-542.252	-93.037	0.302	-0.085
-541.237	-126.613	-0.160	-0.024
-540.223	-200.000	0.012	-0.112
-539.208	308.815	0.092	0.174
-538.193	-68.612	-0.261	-0.102
-537.179	-179.079	-0.269	-0.006
-536.164	64.627	0.205	-0.208
-535.150	67.599	-0.135	0.139
-534.135	-200.000	0.022	-0.135
-533.121	-45.215	-0.075	-0.038
-532.106	34.254	-0.214	-0.188
-531.091	3.822	0.083	0.061
-530.077	-141.499	-0.165	0.017
-529.062	-46.301	-0.164	-0.081
-528.048	-9.642	0.057	0.038
-527.033	-125.329	-0.131	0.020
-526.018	732.753	0.081	-0.218
-525.004	-43.707	0.111	0.057
-523.989	144.340	0.181	0.243
-522.975	-200.000	-0.033	-0.197
-521.960	-2.528	-0.178	-0.126
-520.945	-130.692	0.137	0.019
-519.931	19.215	0.122	-0.099
-518.916	147.053	-0.152	-0.205
-517.902	-200.000	0.027	0.167
-516.887	-89.525	0.096	-0.028
-515.872	-93.200	-0.146	0.041
-514.858	-200.000	0.010	0.077
-513.843	73.469	0.209	0.221
-512.829	57.584	-0.198	0.195
-511.814	-130.857	-0.507	-0.068
-510.799	-125.459	-0.220	0.034
-509.785	-200.000	-0.002	-0.265
-508.770	149.353	0.138	-0.189
-507.756	-200.000	-0.006	-0.115
-506.741	-21.346	0.235	-0.145
-505.726	166.891	-0.095	-0.135
-504.712	-200.000	-0.004	-0.276
-503.697	-200.000	-0.019	0.200
-502.683	300.521	-0.055	0.101
-501.668	-74.027	0.049	-0.018
-500.653	283.049	0.037	-0.067
-499.639	-72.173	0.218	-0.081
-498.624	-123.795	0.041	-0.007
-497.610	-11.099	-0.304	-0.201
-496.595	-200.000	0.004	0.187
-495.581	-200.000	-0.006	-0.223
-494.566	177.847	0.060	0.088
-493.551	-128.574	-0.263	-0.037
-492.537	124.824	-0.233	0.296
-491.522	800.000	-0.160	0.483
-490.508	-9.769	0.105	-0.070
-489.493	-200.000	0.058	0.291
-488.478	-168.666	0.019	-0.001
-487.464	122.928	-0.027	-0.034
-486.449	-200.000	-0.035	0.290
-485.435	800.000	-0.065	-0.221
-484.420	117.984	0.092	0.114
-483.405	136.025	0.129	0.169
-482.391	192.911	0.165	-0.251
-481.376	-127.977	-0.163	-0.024
-480.362	343.142	-0.048	-0.094
-479.347	-200.000	-0.016	-0.099
-478.332	800.000	-0.117	0.352
-477.318	800.000	-0.089	0.264
-476.303	133.729	0.123	-0.161
-475.289	-148.696	0.330	0.027
-474.274	-200.000	-0.020	0.149
-473.259	0.540	0.130	-0.093
-472.245	-135.018	-0.151	0.018
-471.230	-200.000	-0.018	0.138
-470.216	-107.296	0.103	-0.023
-469.201	-72.525	0.079	-0.029
-468.186	69.473	-0.220	0.228
-467.172	-200.000	0.007	0.109
-466.157	393.711	-0.084	-0.176
-465.143	-200.000	0.055	-0.386
-464.128	-84.633	0.132	0.042
-463.113	-156.054	0.238	-0.015
-462.099	800.000	-0.052	-0.165
-461.084	-200.000	-0.003	0.019
-460.070	-4.792	-0.133	-0.092
-459.055	178.049	0.013	-0.019
-458.040	140.011	-0.148	0.197
-457.026	173.614	-0.205	-0.296
-456.011	-14.857	0.151	-0.097
-454.997	-53.265	0.119	0.055
-453.982	29.409	-0.206	-0.176
-452.968	116.272	-0.064	-0.079
-451.953	45.085	-0.264	-0.244
-450.938	-200.000	0.023	-0.312
-449.924	-68.792	-0.027	0.010
-448.909	-92.727	-0.254	0.071
-447.895	205.223	-0.174	0.272
-446.880	-200.000	0.014	0.185
-445.865	800.000	0.037	0.133
-444.851	800.000	-0.029	-0.122
-443.836	-200.000	0.018	-0.292
-442.822	216.269	-0.186	0.297
-441.807	-48.574	0.158	-0.076
-440.792	-41.941	0.208	0.107
-439.778	134.191	-0.329	-0.427
-438.763	433.723	-0.062	-0.136
-437.749	9.719	0.161	-0.122
-436.734	-74.121	-0.245	0.089
-435.719	34.864	-0.145	0.128
-434.705	62.412	0.078	0.079
-433.690	-200.000	-0.007	0.128
-432.676	34.741	-0.092	0.081
-431.661	-120.726	0.285	0.048
-430.646	-69.629	0.177	0.068
-429.632	-200.000	0.001	0.100
-428.617	104.827	0.089	-0.106
-427.603	-106.870	-0.006	-0.001
-426.588	227.259	-0.168	-0.274
-425.573	147.229	0.150	-0.202
-424.559	37.640	0.069	0.061
-423.544	-93.618	-0.299	-0.083
-422.530	202.533	-0.103	0.160
-421.515	-111.923	-0.068	0.014
-420.500	-45.451	-0.194	-0.096
-419.486	173.270	-0.114	-0.164
-418.471	-200.000	0.026	0.202
-417.457	-31.555	-0.469	-0.264
-416.442	251.358	-0.041	-0.069
-415.428	-200.000	-0.021	-0.248
-414.413	-153.437	0.124	0.009
-413.398	-109.979	-0.195	-0.041
-412.384	-128.857	0.244	0.034
-411.369	-2.568	-0.228	0.160
-410.355	-177.501	-0.351	-0.009
-409.340	258.127	-0.073	-0.125
-408.325	97.132	-0.243	-0.279
-407.311	800.000	-0.135	-0.517
-406.296	-132.140	0.433	-0.056
-405.282	-153.874	0.277	0.019
-404.267	202.502	-0.299	0.463
-403.252	-134.977	0.159	-0.019
-402.238	-200.000	-0.035	0.180
-401.223	-200.000	-0.017	0.169
-400.209	35.593	-0.117	0.103
-399.194	-200.000	0.036	-0.290
-398.179	-44.823	0.230	-0.115
-397.165	174.921	-0.133	-0.194
-396.150	-78.724	-0.049	0.017
-395.136	-104.881	-0.310	0.071
-394.121	-64.957	0.229	0.093
-393.106	204.782	0.097	0.150
-392.092	62.871	0.340	0.341
-391.077	620.525	-0.135	-0.340
-390.063	35.632	-0.192	0.169
-389.048	493.679	-0.052	-0.120
-388.033	571.469	0.025	-0.061
-387.019	-200.000	0.034	0.152
-386.004	-100.968	0.290	0.071
-384.990	-113.260	0.066	0.013
-383.975	-200.000	-0.040	0.408
-382.960	-88.443	0.053	0.016
-381.946	357.327	-0.036	-0.072
-380.931	424.979	-0.111	0.240
-379.917	800.000	-0.025	0.075
-378.902	-159.308	-0.328	-0.018
-377.888	100.482	0.078	0.090
-376.873	660.692	-0.043	0.111
-375.858	800.000	0.037	-0.127
-374.844	62.943	0.274	-0.275
-373.829	-108.999	-0.112	-0.024
-372.815	33.317	-0.193	0.168
-371.800	-200.000	0.047	0.214
-370.785	-77.464	-0.026	-0.009
-369.771	-84.908	-0.089	-0.028
-368.756	-18.704	-0.070	0.044
-367.742	535.678	0.064	0.152
-366.727	-114.089	-0.267	0.052
-365.712	-96.924	0.114	-0.030
-364.698	140.437	0.068	-0.089
-363.683	-82.909	-0.247	0.080
-362.669	614.978	-0.081	0.203
-361.654	76.421	0.334	0.354
-360.639	-48.307	-0.180	0.087
-359.625	-200.000	-0.019	0.360
-358.610	154.655	-0.146	0.201
-357.596	190.742	-0.134	0.202
-356.581	-99.685	-0.303	0.076
-355.566	-200.000	-0.023	-0.242
-354.552	-113.692	0.201	-0.039
-353.537	-200.000	0.033	0.265
-352.523	-20.226	0.209	-0.129
-351.508	193.627	0.041	0.062
-350.493	61.915	-0.304	0.303
-349.479	40.945	0.105	0.095
-348.464	800.000	0.075	-0.230
-347.450	-174.152	0.208	0.006
-346.435	25.058	0.186	0.154
-345.420	130.525	0.075	-0.096
-344.406	-61.586	-0.081	-0.034
-343.391	499.811	0.191	-0.441
-342.377	322.837	-0.184	0.351
-341.362	20.783	0.077	0.062
-340.348	-115.055	0.143	-0.027
-339.333	-71.257	-0.353	0.132
-338.318	-72.970	0.104	-0.038
-337.304	75.634	-0.171	-0.181
-336.289	24.070	0.051	-0.042
-335.275	800.000	0.012	-0.038
-334.260	-127.306	0.117	0.017
-333.245	-66.319	0.138	0.055
-332.231	-200.000	-0.003	0.385
-331.216	-118.315	0.376	-0.067
-330.202	-5.758	-0.417	0.285
-329.187	-106.769	-0.437	0.097
-328.172	39.069	0.228	-0.204
-327.158	800.000	-0.057	-0.229
-326.143	198.811	-0.124	-0.190
-325.129	9.188	0.146	0.110
-324.114	-171.555	-0.045	-0.001
-323.099	187.640	-0.177	0.264
-322.085	261.510	-0.079	-0.137
-321.070	179.263	-0.025	0.037
-320.056	-141.261	0.206	0.021
-319.041	179.245	0.032	0.046
-318.026	-75.455	-0.072	-0.026
-317.012	-200.000	0.002	0.052
-315.997	61.764	-0.272	0.270
-314.983	409.235	0.137	0.290
-313.968	-73.849	0.096	-0.035
-312.953	27.413	0.190	-0.159
-311.939	-156.767	0.318	0.020
-310.924	-105.213	-0.324	0.074
-309.910	-43.814	-0.121	0.061
-308.895	208.931	0.114	0.179
-307.880	-178.100	0.094	-0.002
-306.866	371.600	0.053	-0.107
-305.851	-200.000	0.015	-0.118
-304.837	-191.961	0.245	-0.002
-303.822	-133.016	0.250	0.032
-302.807	-94.532	0.224	-0.061
-301.793	146.130	0.059	-0.079
-300.778	258.852	-0.109	-0.188
-299.764	-56.437	-0.285	-0.126
-298.749	-200.000	-0.001	0.060
-297.735	-59.673	0.141	-0.060
-296.720	-50.648	0.062	0.029
-295.705	-110.850	0.129	0.027
-294.691	-200.000	0.042	-0.190
-293.676	570.321	-0.203	0.492
-292.662	-65.427	-0.112	-0.045
-291.647	549.135	-0.072	0.172
-290.632	-70.683	0.100	-0.038
-289.618	-147.225	-0.318	0.027
-288.603	-36.201	-0.134	0.072
-287.589	177.900	-0.210	-0.305
-286.574	159.643	0.114	0.158
-285.559	27.780	-0.160	0.135
-284.545	39.094	0.164	0.146
-283.530	253.914	0.095	0.162
-282.516	75.230	-0.067	0.071
-281.501	-126.750	0.178	0.026
-280.486	-200.000	0.010	0.240
-279.472	-55.473	0.189	0.085
-278.457	-160.099	0.183	0.010
-277.443	-144.647	-0.179	0.016
-276.428	94.405	0.286	-0.324
-275.413	-47.984	0.214	0.103
-274.399	11.073	-0.171	-0.131
-273.384	108.564	0.079	-0.094
-272.370	800.000	-0.063	0.237
-271.355	-200.000	-0.012	-0.192
-270.340	7.315	0.130	-0.097
-269.326	12.286	-0.085	-0.066
-268.311	800.000	0.060	0.200
-267.297	-69.022	-0.007	-0.003
-266.282	-72.033	-0.163	0.060
-265.267	-128.370	-0.070	0.010
-264.253	88.776	-0.119	-0.133
-263.238	-101.067	0.352	-0.086
-262.224	55.274	-0.018	0.017
-261.209	800.000	0.059	-0.176
-260.195	70.400	-0.023	0.024
-259.180	117.269	0.079	-0.096
-258.165	-77.326	-0.205	0.071
-257.151	-200.000	-0.020	-0.178
-256.136	-88.002	-0.387	-0.116
-255.122	-200.000	0.009	-0.070
-254.107	800.000	-0.063	-0.190
-253.092	-200.000	-0.034	0.212
-252.078	129.476	-0.076	0.097
-251.063	-200.000	0.027	0.125
-250.049	800.000	0.018	0.056
-249.034	510.802	0.064	0.148
-248.019	-79.660	-0.015	-0.005
-247.005	-79.404	0.268	-0.090
-245.990	800.000	-0.024	0.070
-244.976	262.856	0.136	-0.235
-243.961	-44.964	0.301	0.149
-242.946	800.000	-0.082	-0.228
-241.932	-57.915	0.166	-0.072
-240.917	82.914	-0.215	0.233
-239.903	-200.000	-0.000	0.013
-238.888	244.277	0.244	-0.407
-237.873	-115.750	-0.060	0.011
-236.859	169.624	0.310	0.441
-235.844	83.533	0.103	-0.112
-234.830	90.009	0.160	-0.178
-233.815	-122.417	0.176	-0.028
-232.800	-200.000	0.003	0.119
-231.786	-200.000	-0.008	0.072
-230.771	-55.141	0.151	-0.068
-229.757	49.089	0.098	-0.092
-228.742	129.222	0.139	0.177
-227.727	-112.732	0.188	-0.037
-226.713	-163.270	0.072	0.003
-225.698	-64.320	-0.370	-0.150
-224.684	39.484	0.101	-0.090
-223.669	-200.000	0.001	0.140
-222.655	800.000	-0.011	0.043
-221.640	800.000	-0.031	-0.104
-220.625	173.984	0.070	-0.101
-219.611	-200.000	0.009	-0.116
-218.596	-200.000	-0.007	-0.049
-217.582	-65.554	-0.077	-0.031
-216.567	20.646	-0.369	0.297
-215.552	598.808	0.046	-0.112
-214.538	28.954	0.081	-0.069
-213.523	160.887	0.212	0.294
-212.509	-154.937	-0.093	-0.006
-211.494	-30.924	-0.083	-0.047
-210.479	-167.428	0.126	-0.005
-209.465	-24.359	0.459	-0.273
-208.450	73.461	0.159	-0.165
-207.436	-75.253	-0.260	0.092
-206.421	168.867	-0.055	-0.078
-205.406	800.000	-0.038	0.156
-204.392	261.579	-0.053	0.092
-203.377	-200.000	0.023	-0.114
-202.363	-200.000	0.041	0.269
-201.348	-62.657	-0.050	0.021
-200.333	-28.889	-0.273	0.156
-199.319	300.355	0.145	0.265
-198.304	53.645	0.276	0.263
-197.290	261.322	-0.182	0.314
-196.275	250.388	-0.125	-0.212
-195.260	-200.000	-0.028	-0.188
-194.246	-200.000	0.013	0.116
-193.231	-144.758	0.219	0.020
-192.217	-121.142	0.102	-0.017
-191.202	-12.060	-0.168	-0.109
-190.187	95.932	-0.247	-0.280
-189.173	-180.731	-0.270	0.005
-188.158	12.114	-0.164	-0.125
-187.144	573.324	0.014	0.034
-186.129	-111.250	-0.266	0.054
-185.114	184.305	-0.063	0.093
-184.100	-200.000	-0.278	0.001
-183.085	617.236	-0.108	-0.269
-182.071	461.190	0.090	-0.199
-181.056	-30.601	-0.158	0.089
-180.042	4.932	-0.153	0.112
-179.027	674.838	0.034	-0.088
-178.012	-200.000	-0.008	0.144
-176.998	-200.000	0.006	0.067
-175.983	-85.357	0.255	-0.079
-174.969	-79.308	-0.132	0.044
-173.954	40.526	-0.142	0.127
-172.939	-200.000	0.019	-0.168
-171.925	-49.753	0.380	0.180
-170.910	527.314	-0.083	-0.194
-169.896	-200.000	0.042	-0.215
-168.881	6.857	-0.039	-0.029
-167.866	101.789	0.155	-0.179
-166.852	-35.316	-0.337	-0.182
-165.837	-69.774	0.219	0.083
-164.823	800.000	-0.042	0.119
-163.808	-68.541	-0.147	0.057
-162.793	-96.065	-0.266	0.070
-161.779	-123.606	-0.126	0.020
-160.764	-53.843	-0.236	-0.107
-159.750	-113.087	0.631	0.124
-158.735	-148.000	-0.076	-0.006
-157.720	-48.342	0.227	-0.109
-156.706	-200.000	0.017	-0.309
-155.691	-200.000	0.022	-0.155
-154.677	639.204	0.052	-0.130
-153.662	-200.000	-0.056	0.251
-152.647	-64.854	0.319	-0.128
-151.633	134.394	0.166	0.213
-150.618	-200.000	-0.091	0.438
-149.604	-77.958	0.219	0.075
-148.589	-16.152	-0.191	-0.120
-147.574	112.743	-0.083	0.100
-146.560	-19.419	0.256	-0.157
-145.545	-200.000	-0.031	0.232
-144.531	-200.000	-0.011	0.242
-143.516	59.708	-0.181	0.177
-142.502	-200.000	0.048	0.227
-141.487	414.498	0.147	0.311
-140.472	-75.545	-0.060	-0.021
-139.458	-200.000	0.049	0.409
-138.443	-143.905	-0.292	-0.027
-137.429	131.450	0.171	0.218
-136.414	-85.636	0.092	-0.028
-135.399	-129.210	0.050	-0.007
-134.385	-36.170	-0.114	-0.061
-133.370	-200.000	0.004	-0.304
-132.356	-189.547	0.181	-0.002
-131.341	363.623	-0.066	-0.132
-130.326	17.744	-0.166	-0.131
-129.312	800.000	-0.102	0.283
-128.297	92.195	0.029	-0.033
-127.283	-133.524	0.131	-0.016
-126.268	800.000	-0.030	0.091
-125.253	-61.868	0.194	0.081
-124.239	-159.472	0.263	0.015
-123.224	-7.992	-0.178	0.119
-122.210	387.544	0.022	0.046
