DTS Sentinel unit serial number:	SN413079Multiplexer serial number:	ORYXHardware model number:	OX4-SRSoftware version number:	ORYX F/W v4.00 Oryx Data Collector v3.7.2.0data status	okinstallation	princeton_trtdifferential loss correction	single-endedforward channel	channel 2reverse channel	N/Adate	2019/09/15time	16:23:35forward acquisition time	60.00reverse acquisition time	0.00gamma	496.2192k internal	0.2287k external	0.2287temperature offset calibration	0.9939default loss term (dB/km)	0.3790temperature slope calibration	1.0000multiplexer offset coefficient	1.0000multiplexer slope coefficient	1.0000fibre end	0.00T internal ref (°C)	43.69T ext. ref 1 (°C)	5.53T ext. ref 2 (°C)	40.09length (m)	temperature (°C)	Stokes	anti-Stokes-747.200	800.000	0.052	-0.202
-746.185	-6.066	0.305	-0.214
-745.171	167.922	-0.158	-0.231
-744.156	160.853	0.122	-0.175
-743.142	638.869	-0.037	-0.098
-742.127	-116.071	0.191	-0.036
-741.112	-19.588	0.130	-0.083
-740.098	-200.000	0.024	0.146
-739.083	-106.928	0.271	-0.062
-738.069	800.000	0.096	0.334
-737.054	-194.353	0.270	-0.002
-736.039	-93.227	0.156	-0.045
-735.025	-200.000	-0.049	0.220
-734.010	-148.530	-0.198	-0.017
-732.996	-59.713	-0.370	0.163
-731.981	-101.089	-0.248	0.062
-730.966	422.148	-0.132	0.291
-729.952	1.216	-0.189	-0.139
-728.937	76.869	0.125	-0.136
-727.923	75.537	-0.161	-0.174
-726.908	800.000	0.035	-0.145
-725.894	-123.828	-0.208	-0.034
-724.879	-200.000	-0.001	0.068
-723.864	121.828	-0.181	-0.232
-722.850	42.800	0.291	-0.272
-721.835	95.022	-0.158	-0.184
-720.821	-200.000	0.051	-0.234
-719.806	-56.216	0.215	-0.098
-718.791	0.427	-0.073	0.053
-717.777	734.866	-0.103	-0.282
-716.762	499.673	-0.164	-0.389
-715.748	-100.880	0.067	0.017
-714.733	-156.603	0.273	-0.017
-713.718	413.354	0.164	-0.358
-712.704	-54.642	-0.335	-0.155
-711.689	90.942	-0.115	-0.132
-710.675	-200.000	-0.028	0.135
-709.660	-2.585	0.171	0.123
-708.645	-12.393	0.308	0.206
-707.631	504.361	0.079	-0.188
-706.616	319.368	0.258	0.501
-705.602	-18.488	0.092	0.059
-704.587	-46.224	0.044	-0.022
-703.572	-200.000	-0.053	0.269
-702.558	513.710	-0.051	0.122
-701.543	106.338	0.235	0.285
-700.529	14.050	0.072	0.058
-699.514	-188.576	0.203	0.003
-698.499	-61.224	-0.276	-0.119
-697.485	-152.293	0.364	0.027
-696.470	-200.000	-0.007	-0.036
-695.456	601.853	0.099	-0.253
-694.441	132.708	-0.146	0.193
-693.426	-200.000	0.027	0.244
-692.412	67.221	0.196	-0.205
-691.397	-60.985	0.270	0.117
-690.383	-200.000	0.043	0.259
-689.368	-75.582	0.031	-0.011
-688.354	-148.948	0.197	0.016
-687.339	49.291	0.343	0.330
-686.324	-200.000	-0.007	-0.107
-685.310	251.041	-0.091	-0.158
-684.295	-26.676	0.056	-0.034
-683.281	30.622	0.117	0.103
-682.266	138.508	0.102	0.136
-681.251	800.000	-0.089	0.351
-680.237	62.844	0.039	-0.040
-679.222	32.821	-0.032	0.029
-678.208	800.000	-0.045	0.185
-677.193	-200.000	-0.040	0.383
-676.178	-93.356	-0.087	0.025
-675.164	670.616	0.101	-0.267
-674.149	-40.247	0.057	0.031
-673.135	8.320	0.102	-0.078
-672.120	50.191	0.082	-0.079
-671.105	-82.320	0.278	0.092
-670.091	10.809	-0.200	0.157
-669.076	-80.911	-0.368	-0.125
-668.062	-200.000	0.034	0.201
-667.047	-107.008	-0.147	0.033
-666.032	800.000	0.072	-0.249
-665.018	-127.606	0.059	-0.009
-664.003	-72.556	0.402	-0.152
-662.989	586.089	0.138	0.347
-661.974	800.000	-0.060	-0.190
-660.959	-200.000	-0.009	0.154
-659.945	-90.301	-0.278	0.083
-658.930	479.672	-0.076	-0.177
-657.916	213.631	-0.047	-0.077
-656.901	81.070	0.133	-0.146
-655.886	800.000	0.074	-0.216
-654.872	407.339	0.093	0.201
-653.857	-200.000	0.025	-0.145
-652.843	-59.333	-0.248	-0.109
-651.828	800.000	0.015	-0.067
-650.814	53.213	-0.162	0.159
-649.799	87.196	-0.266	-0.301
-648.784	-176.830	-0.179	0.005
-647.770	464.289	-0.107	0.245
-646.755	30.962	-0.296	-0.259
-645.741	313.934	0.070	-0.135
-644.726	8.952	0.287	0.221
-643.711	-40.992	-0.188	0.099
-642.697	800.000	-0.044	0.129
-641.682	-200.000	-0.004	0.066
-640.668	-138.620	-0.071	-0.008
-639.653	109.983	0.198	-0.242
-638.638	-200.000	-0.040	-0.230
-637.624	-200.000	-0.028	-0.228
-636.609	-200.000	0.006	-0.251
-635.595	72.730	0.029	0.031
-634.580	-72.712	-0.148	-0.056
-633.565	800.000	-0.112	-0.461
-632.551	315.101	-0.188	-0.362
-631.536	-115.217	-0.149	0.029
-630.522	-195.232	0.277	0.002
-629.507	160.267	0.174	-0.248
-628.492	-116.706	-0.299	-0.056
-627.478	-129.785	-0.113	0.016
-626.463	800.000	0.040	0.167
-625.449	72.138	0.115	0.123
-624.434	44.716	0.194	0.182
-623.419	-200.000	-0.111	0.540
-622.405	-138.334	-0.245	-0.028
-621.390	101.231	-0.053	-0.062
-620.376	251.464	0.040	0.069
-619.361	75.475	0.348	0.375
-618.346	-161.683	-0.351	0.018
-617.332	186.937	-0.115	0.176
-616.317	64.152	0.101	0.103
-615.303	384.605	-0.113	-0.237
-614.288	800.000	-0.090	-0.296
-613.273	126.516	-0.317	-0.410
-612.259	800.000	0.151	-0.615
-611.244	-44.589	0.148	0.075
-610.230	800.000	-0.058	0.244
-609.215	-57.957	-0.152	0.068
-608.201	-87.223	-0.049	0.015
-607.186	81.111	-0.094	0.104
-606.171	800.000	-0.086	0.349
-605.157	-86.221	0.077	-0.024
-604.142	11.065	-0.086	0.067
-603.128	56.990	0.130	0.130
-602.113	-45.950	0.019	0.010
-601.098	-159.607	-0.299	0.017
-600.084	-164.138	0.067	0.003
-599.069	-44.549	-0.273	-0.139
-598.055	-200.000	-0.022	0.097
-597.040	-73.592	0.075	-0.028
-596.025	-6.635	0.411	-0.286
-595.011	-154.420	-0.050	0.003
-593.996	67.857	-0.181	-0.189
-592.982	-200.000	0.139	0.000
-591.967	48.463	-0.231	0.221
-590.952	-2.949	0.154	0.110
-589.938	-99.675	0.459	0.117
-588.923	-48.815	-0.152	-0.074
-587.909	-105.947	-0.353	0.081
-586.894	-137.975	-0.248	0.028
-585.879	-161.625	0.138	-0.007
-584.865	102.943	-0.196	0.234
-583.850	131.274	0.095	-0.125
-582.836	6.816	0.151	-0.115
-581.821	721.576	0.020	-0.053
-580.806	43.948	-0.010	0.009
-579.792	-116.613	-0.169	0.032
-578.777	-200.000	0.082	0.413
-577.763	156.027	0.111	-0.156
-576.748	294.921	0.171	0.319
-575.733	-154.817	0.424	-0.029
-574.719	-21.515	-0.272	-0.169
-573.704	-105.626	-0.456	0.105
-572.690	25.301	-0.204	0.173
-571.675	-61.906	0.202	0.086
-570.661	-102.715	0.276	0.067
-569.646	-22.642	0.096	-0.059
-568.631	-38.443	-0.353	-0.190
-567.617	-39.070	-0.193	0.103
-566.602	-28.423	-0.302	-0.178
-565.588	20.310	-0.031	-0.025
-564.573	-195.744	0.224	-0.002
-563.558	-55.225	-0.362	0.166
-562.544	20.696	-0.411	-0.339
-561.529	-105.782	0.251	-0.058
-560.515	624.866	0.066	-0.171
-559.500	1.145	-0.149	-0.109
-558.485	21.603	0.135	-0.112
-557.471	-96.524	0.155	0.042
-556.456	-200.000	0.021	0.212
-555.442	800.000	0.156	0.442
-554.427	-200.000	0.017	0.317
-553.412	-71.537	0.170	-0.065
-552.398	33.273	0.033	0.029
-551.383	-18.115	-0.045	0.028
-550.369	-96.672	-0.041	-0.011
-549.354	-131.468	-0.179	-0.024
-548.339	-153.760	0.348	0.024
-547.325	28.133	0.162	0.139
-546.310	-84.362	0.153	0.049
-545.296	-200.000	-0.013	0.174
-544.281	88.015	-0.020	0.023
-543.266	-58.595	-0.254	0.112
-542.252	354.436	0.036	-0.073
-541.237	118.059	-0.099	-0.124
-540.223	-36.100	-0.171	0.094
-539.208	72.176	0.148	-0.157
-538.193	-51.833	0.219	-0.104
-537.179	-200.000	0.021	0.099
-536.164	800.000	-0.070	-0.215
-535.150	-0.379	0.153	0.111
-534.135	-200.000	0.018	0.256
-533.121	298.031	0.134	-0.250
-532.106	800.000	-0.103	-0.335
-531.091	-34.517	-0.186	0.104
-530.077	4.388	0.370	0.276
-529.062	-174.142	0.147	0.004
-528.048	-51.469	0.243	0.115
-527.033	-149.626	0.215	0.017
-526.018	148.374	0.107	0.147
-525.004	2.297	-0.056	-0.041
-523.989	215.657	0.054	-0.087
-522.975	-96.321	0.216	-0.058
-521.960	800.000	-0.045	0.146
-520.945	-118.368	0.096	0.017
-519.931	-88.359	-0.299	-0.091
-518.916	4.160	0.187	0.139
-517.902	-200.000	0.023	-0.159
-516.887	65.335	0.232	-0.239
-515.872	-200.000	-0.009	-0.059
-514.858	59.034	-0.106	0.106
-513.843	72.120	0.079	0.084
-512.829	48.544	0.033	0.031
-511.814	-200.000	-0.009	0.117
-510.799	-24.237	0.117	-0.071
-509.785	25.371	-0.324	0.274
-508.770	-1.300	-0.070	-0.050
-507.756	-81.711	0.170	-0.057
-506.741	-125.766	0.251	-0.038
-505.726	129.848	-0.130	-0.169
-504.712	-175.264	0.067	-0.002
-503.697	307.143	0.066	0.126
-502.683	800.000	0.033	-0.147
-501.668	-65.050	0.100	-0.041
-500.653	528.665	0.100	0.240
-499.639	-4.845	0.217	-0.152
-498.624	68.404	-0.063	-0.065
-497.610	-23.344	-0.071	0.044
-496.595	288.579	0.062	0.113
-495.581	365.005	-0.193	-0.395
-494.566	-200.000	-0.006	-0.155
-493.551	-34.311	-0.090	-0.050
-492.537	596.388	-0.069	-0.173
-491.522	-137.216	0.090	0.010
-490.508	-9.873	-0.211	-0.143
-489.493	-114.355	-0.178	0.035
-488.478	-33.745	0.086	-0.048
-487.464	24.426	0.029	0.025
-486.449	363.297	0.054	-0.111
-485.435	-195.315	0.256	-0.002
-484.420	-88.045	-0.316	-0.096
-483.405	54.614	-0.236	-0.231
-482.391	-58.870	-0.092	-0.041
-481.376	-200.000	0.035	0.274
-480.362	-151.643	-0.371	0.028
-479.347	56.935	-0.213	-0.211
-478.332	206.890	-0.027	-0.042
-477.318	-131.382	-0.096	-0.013
-476.303	564.416	-0.057	0.141
-475.289	116.216	-0.014	0.018
-474.274	-200.000	-0.007	-0.056
-473.259	-76.365	-0.113	-0.040
-472.245	17.254	-0.263	-0.212
-471.230	169.289	-0.116	-0.167
-470.216	-118.331	-0.392	0.071
-469.201	379.365	0.125	0.259
-468.186	208.384	0.058	-0.092
-467.172	593.389	-0.114	0.286
-466.157	49.949	0.141	0.135
-465.143	-91.196	0.294	-0.085
-464.128	-132.226	-0.174	0.023
-463.113	-55.351	0.256	-0.117
-462.099	755.428	0.025	-0.070
-461.084	-95.755	-0.161	0.044
-460.070	-115.219	-0.167	-0.032
-459.055	-25.539	0.151	-0.091
-458.040	-51.338	-0.095	0.045
-457.026	-184.068	0.393	0.007
-456.011	-200.000	-0.029	0.180
-454.997	800.000	0.016	0.067
-453.982	-200.000	0.017	-0.085
-452.968	305.386	-0.076	0.142
-451.953	222.179	-0.102	0.167
-450.938	-159.920	0.198	-0.011
-449.924	-46.397	0.103	-0.051
-448.909	-96.189	-0.355	-0.095
-447.895	113.593	-0.149	0.183
-446.880	-153.951	0.129	0.009
-445.865	-56.983	0.084	-0.038
-444.851	800.000	-0.077	0.304
-443.836	198.520	-0.087	-0.136
-442.822	-77.376	0.240	0.085
-441.807	800.000	0.065	0.184
-440.792	-200.000	0.031	-0.193
-439.778	-200.000	0.001	0.093
-438.763	256.084	0.198	-0.345
-437.749	-105.222	0.239	-0.055
-436.734	-200.000	0.009	-0.290
-435.719	15.844	0.091	-0.073
-434.705	-198.120	-0.446	0.003
-433.690	-73.717	-0.224	0.082
-432.676	0.972	0.071	-0.052
-431.661	-16.256	0.147	-0.095
-430.646	-31.289	-0.161	-0.092
-429.632	-3.783	-0.146	-0.103
-428.617	37.453	0.114	0.102
-427.603	347.588	-0.105	-0.209
-426.588	118.715	0.235	-0.294
-425.573	-110.458	0.227	-0.048
-424.559	60.786	0.235	-0.236
-423.544	261.116	-0.136	-0.238
-422.530	-126.006	-0.204	-0.031
-421.515	-149.484	0.094	-0.008
-420.500	-83.792	0.320	0.103
-419.486	800.000	-0.074	0.300
-418.471	-200.000	-0.016	0.360
-417.457	231.258	-0.081	0.134
-416.442	271.379	-0.102	0.182
-415.428	-72.607	-0.039	0.015
-414.413	-200.000	-0.030	0.267
-413.398	-200.000	-0.317	-0.001
-412.384	-64.717	-0.266	0.109
-411.369	-200.000	0.027	-0.208
-410.355	-85.663	-0.205	-0.065
-409.340	-200.000	0.023	0.156
-408.325	-200.000	0.003	-0.088
-407.311	-3.382	0.123	0.087
-406.296	144.931	0.178	0.241
-405.282	715.735	0.173	-0.464
-404.267	-200.000	-0.005	0.406
-403.252	158.087	0.081	0.113
-402.238	-27.110	0.124	0.073
-401.223	-17.657	-0.254	-0.161
-400.209	800.000	0.064	-0.183
-399.194	-200.000	0.014	0.206
-398.179	-200.000	0.014	0.228
-397.165	-50.148	0.258	-0.124
-396.150	-200.000	-0.004	-0.048
-395.136	-200.000	0.008	-0.097
-394.121	-132.302	-0.419	0.055
-393.106	7.878	-0.062	-0.047
-392.092	227.193	-0.103	-0.170
-391.077	173.800	0.127	-0.186
-390.063	-200.000	-0.046	-0.215
-389.048	-200.000	0.071	-0.405
-388.033	-200.000	0.003	0.074
-387.019	-65.092	0.034	-0.014
-386.004	16.529	0.172	-0.137
-384.990	-200.000	-0.011	0.071
-383.975	-49.573	-0.077	-0.037
-382.960	-200.000	0.003	-0.130
-381.946	3.829	0.293	-0.216
-380.931	145.460	-0.097	0.131
-379.917	-55.497	0.276	-0.125
-378.902	-156.922	-0.345	0.021
-377.888	-58.083	-0.055	-0.024
-376.873	6.735	-0.201	0.151
-375.858	24.350	-0.044	0.036
-374.844	408.230	0.107	0.230
-373.829	-200.000	-0.010	-0.166
-372.815	-200.000	-0.005	0.052
-371.800	-54.879	0.283	-0.129
-370.785	-39.132	0.166	-0.088
-369.771	-89.824	0.165	-0.049
-368.756	434.550	-0.074	0.162
-367.742	-40.046	0.145	0.077
-366.727	800.000	0.036	-0.132
-365.712	-13.826	0.203	0.133
-364.698	326.697	0.012	-0.023
-363.683	29.100	0.084	0.072
-362.669	-200.000	-0.009	0.151
-361.654	211.287	-0.070	-0.112
-360.639	-112.422	0.325	-0.066
-359.625	-200.000	0.019	0.115
-358.610	800.000	-0.056	-0.175
-357.596	204.114	-0.147	0.231
-356.581	157.367	-0.326	0.456
-355.566	-152.447	0.076	-0.005
-354.552	339.239	-0.151	-0.298
-353.537	-49.858	-0.187	-0.090
-352.523	259.941	0.128	-0.224
-351.508	-200.000	-0.278	0.001
-350.493	-200.000	-0.025	0.139
-349.479	93.008	-0.189	-0.216
-348.464	800.000	0.067	-0.210
-347.450	142.936	-0.088	-0.118
-346.435	-200.000	-0.021	-0.208
-345.420	18.130	-0.093	0.075
-344.406	564.965	0.053	-0.130
-343.391	-40.546	0.221	0.116
-342.377	-130.278	-0.226	0.031
-341.362	-34.585	0.418	0.231
-340.348	-1.043	0.074	-0.053
-339.333	800.000	0.041	0.137
-338.318	-200.000	-0.000	0.025
-337.304	-69.471	0.229	0.089
-336.289	13.163	0.121	0.094
-335.275	122.668	-0.206	0.260
-334.260	-200.000	-0.006	0.055
-333.245	800.000	-0.022	0.086
-332.231	649.636	-0.026	0.066
-331.216	148.464	-0.040	-0.054
-330.202	-152.885	-0.337	0.024
-329.187	-139.899	0.035	-0.004
-328.172	-105.147	-0.279	0.064
-327.158	-15.092	0.150	-0.097
-326.143	-135.603	-0.052	0.006
-325.129	77.388	0.065	0.070
-324.114	-28.556	0.219	-0.127
-323.099	184.074	-0.149	-0.223
-322.085	30.457	-0.359	0.310
-321.070	211.170	-0.132	0.209
-320.056	-78.387	0.266	0.092
-319.041	-19.056	-0.162	-0.102
-318.026	147.861	0.160	0.218
-317.012	800.000	0.074	0.269
-315.997	-98.257	0.419	-0.109
-314.983	-74.621	-0.028	-0.010
-313.968	-200.000	-0.000	0.024
-312.953	-37.302	-0.189	-0.102
-311.939	-200.000	0.007	-0.058
-310.924	210.067	0.112	-0.177
-309.910	800.000	-0.086	-0.249
-308.895	-75.944	-0.358	-0.128
-307.880	-90.772	0.286	-0.083
-306.866	-51.682	-0.085	0.040
-305.851	29.253	-0.473	0.405
-304.837	-112.000	0.325	-0.066
-303.822	-27.936	-0.275	-0.161
-302.807	800.000	-0.126	0.375
-301.793	-63.699	0.335	0.138
-300.778	-200.000	-0.047	0.353
-299.764	-200.000	-0.018	0.378
-298.749	51.287	0.196	-0.188
-297.735	40.464	0.081	-0.073
-296.720	-7.709	-0.240	-0.164
-295.705	-105.175	-0.371	-0.085
-294.691	-72.399	-0.083	0.031
-293.676	41.103	-0.285	-0.259
-292.662	15.659	-0.165	-0.131
-291.647	-50.204	-0.056	0.027
-290.632	800.000	-0.051	0.156
-289.618	86.702	0.256	0.284
-288.603	38.803	-0.329	0.296
-287.589	800.000	-0.024	0.070
-286.574	-13.811	0.284	-0.185
-285.559	-86.027	0.105	0.033
-284.545	-91.084	-0.245	-0.071
-283.530	11.289	-0.265	-0.204
-282.516	-7.271	-0.327	-0.223
-281.501	800.000	-0.054	-0.219
-280.486	309.821	0.160	-0.301
-279.472	9.439	0.177	-0.135
-278.457	-93.581	0.428	-0.119
-277.443	-200.000	0.001	0.364
-276.428	-14.812	-0.287	0.186
-275.413	-76.627	0.311	-0.110
-274.399	153.648	0.238	-0.328
-273.384	800.000	0.108	-0.474
-272.370	286.099	-0.187	0.340
-271.355	800.000	-0.036	-0.135
-270.340	-18.757	-0.047	0.030
-269.326	-200.000	0.017	0.095
-268.311	-60.967	-0.045	-0.019
-267.297	216.051	0.151	-0.241
-266.282	107.086	0.184	-0.221
-265.267	106.367	0.310	-0.370
-264.253	129.774	0.216	0.278
-263.238	194.986	-0.108	0.164
-262.224	-145.658	0.451	0.041
-261.209	-40.556	0.292	-0.153
-260.195	-79.795	0.225	0.076
-259.180	212.932	0.162	0.258
-258.165	-109.363	-0.073	0.016
-257.151	-101.937	0.110	0.027
-256.136	-29.399	0.219	-0.126
-255.122	-89.771	0.080	0.024
-254.107	-200.000	-0.007	0.242
-253.092	-129.399	0.145	0.020
-252.078	-200.000	0.014	0.156
-251.063	-137.437	-0.357	0.041
-250.049	151.180	-0.163	0.224
-249.034	-24.445	-0.154	-0.092
-248.019	-11.018	-0.108	0.072
-247.005	76.749	-0.207	0.221
-245.990	8.774	0.174	0.132
-244.976	341.624	0.091	0.178
-243.961	-22.104	0.433	0.264
-242.946	21.289	0.105	-0.086
-241.932	661.753	-0.078	-0.203
-240.917	300.596	0.095	-0.176
-239.903	16.376	-0.228	-0.181
-238.888	701.237	0.049	0.129
-237.873	137.666	0.107	0.141
-236.859	-18.604	0.129	0.081
-235.844	800.000	-0.116	0.441
-234.830	305.666	0.093	0.173
-233.815	185.554	-0.043	-0.064
-232.800	-94.669	0.156	-0.042
-231.786	-6.793	0.098	0.067
-230.771	262.530	0.040	0.069
-229.757	213.039	0.265	-0.421
-228.742	-120.491	-0.164	0.028
-227.727	-103.681	-0.131	0.031
-226.713	-5.646	-0.129	0.089
-225.698	264.535	-0.007	0.012
-224.684	141.307	-0.242	0.323
-223.669	64.561	0.179	0.181
-222.655	-135.785	0.266	0.032
-221.640	-74.627	-0.221	0.080
-220.625	-54.498	0.272	0.124
-219.611	-178.867	0.286	-0.007
-218.596	800.000	-0.047	-0.160
-217.582	-200.000	-0.002	0.013
-216.567	323.237	-0.137	-0.263
-215.552	31.278	-0.159	0.137
-214.538	238.333	0.081	-0.135
-213.523	800.000	0.060	-0.200
-212.509	16.553	-0.219	0.174
-211.494	-200.000	-0.069	-0.344
-210.479	-46.495	0.386	0.190
-209.465	-200.000	-0.002	0.133
-208.450	-71.660	0.182	-0.068
-207.436	-54.895	0.273	-0.124
-206.421	-75.037	0.170	0.061
-205.406	800.000	-0.099	-0.354
-204.392	-111.152	-0.114	-0.024
-203.377	-33.524	-0.069	-0.038
-202.363	-164.234	-0.236	-0.011
-201.348	-188.636	-0.107	0.001
-200.333	133.689	0.229	0.298
-199.319	-200.000	-0.020	-0.119
-198.304	-13.924	-0.065	0.042
-197.290	-49.394	0.009	-0.004
-196.275	313.302	0.132	-0.250
-195.260	-200.000	-0.032	-0.180
-194.246	-146.341	-0.368	0.032
-193.231	-200.000	0.057	-0.324
-192.217	-49.683	-0.260	-0.124
-191.202	-200.000	-0.048	-0.335
-190.187	-200.000	0.034	-0.204
-189.173	-69.510	0.091	0.035
-188.158	66.528	0.219	0.223
-187.144	800.000	0.068	0.257
-186.129	92.009	0.278	-0.314
-185.114	31.594	0.091	-0.078
-184.100	300.685	0.163	-0.301
-183.085	-200.000	0.023	-0.240
-182.071	437.303	-0.044	0.095
-181.056	119.443	0.275	0.341
-180.042	-73.375	-0.201	0.074
-179.027	-200.000	-0.011	0.130
-178.012	-33.754	-0.200	0.111
-176.998	-14.458	-0.200	0.129
-175.983	317.166	-0.040	-0.075
-174.969	551.547	0.123	-0.297
-173.954	47.015	0.162	-0.152
-172.939	244.980	-0.051	-0.086
-171.925	-200.000	-0.010	0.164
-170.910	286.529	0.068	0.123
-169.896	127.150	-0.067	0.085
-168.881	-69.901	0.221	-0.085
-167.866	-200.000	-0.012	0.128
-166.852	264.048	-0.066	0.115
-165.837	533.830	0.083	0.197
-164.823	-85.915	-0.293	-0.091
-163.808	-53.749	0.135	0.062
-162.793	-162.226	0.207	-0.010
-161.779	-179.407	0.164	0.004
-160.764	-64.710	-0.172	0.070
-159.750	-200.000	0.074	0.403
-158.735	-200.000	-0.018	-0.087
-157.720	127.062	0.091	0.116
-156.706	-19.637	-0.003	0.002
-155.691	-200.000	0.034	0.192
-154.677	-120.965	-0.429	0.072
-153.662	800.000	0.065	0.258
-152.647	-160.994	-0.121	-0.006
-151.633	-109.265	-0.254	0.054
-150.618	147.656	0.170	0.230
-149.604	-34.228	-0.344	0.189
-148.589	-200.000	-0.030	-0.172
-147.574	-200.000	0.047	0.214
-146.560	-91.426	0.368	0.105
-145.545	-97.743	0.369	-0.096
-144.531	144.947	-0.028	0.038
-143.516	208.213	0.241	-0.378
-142.502	366.216	-0.040	-0.081
-141.487	118.589	-0.237	0.293
-140.472	159.446	-0.074	-0.103
-139.458	-200.000	0.028	-0.193
-138.443	80.079	-0.109	-0.117
-137.429	95.997	0.186	0.213
-136.414	14.568	-0.053	-0.042
-135.399	375.531	0.075	0.154
-134.385	800.000	0.064	0.226
-133.370	-184.446	0.203	0.003
-132.356	-0.545	0.299	0.213
-131.341	-200.000	-0.001	0.382
-130.326	-81.615	0.348	-0.115
-129.312	-109.919	0.145	-0.030
-128.297	5.569	0.221	-0.164
-127.283	-13.932	-0.157	0.101
-126.268	800.000	0.098	-0.299
-125.253	100.479	0.125	-0.145
-124.239	800.000	0.047	0.180
-123.224	800.000	-0.116	0.373
-122.210	-200.000	-0.003	0.047
-121.195	455.377	-0.115	0.256
-120.180	-101.488	-0.301	0.073
