DTS Sentinel unit serial number:	SN413079Multiplexer serial number:	ORYXHardware model number:	OX4-SRSoftware version number:	ORYX F/W v4.00 Oryx Data Collector v3.7.2.0data status	okinstallation	princeton_trtdifferential loss correction	single-endedforward channel	channel 2reverse channel	N/Adate	2019/09/18time	19:47:35forward acquisition time	60.00reverse acquisition time	0.00gamma	496.2192k internal	0.2331k external	0.2331temperature offset calibration	1.0026default loss term (dB/km)	0.3790temperature slope calibration	1.0000multiplexer offset coefficient	1.0000multiplexer slope coefficient	1.0000fibre end	0.00T internal ref (°C)	31.36T ext. ref 1 (°C)	1.00T ext. ref 2 (°C)	22.12length (m)	temperature (°C)	Stokes	anti-Stokes-747.200	557.400	-0.055	-0.134
-746.185	-96.350	0.351	-0.093
-745.171	-12.158	-0.252	-0.166
-744.156	-128.534	-0.286	0.041
-743.142	64.515	0.176	-0.178
-742.127	800.000	-0.093	0.328
-741.112	20.463	0.207	-0.168
-740.098	-200.000	0.031	0.457
-739.083	-57.740	0.385	-0.170
-738.069	-45.430	-0.147	-0.073
-737.054	204.946	-0.116	0.181
-736.039	87.165	-0.172	0.191
-735.025	-34.058	0.160	-0.088
-734.010	-102.889	-0.183	0.044
-732.996	21.715	-0.173	0.142
-731.981	-200.000	-0.028	-0.197
-730.966	-200.000	-0.001	-0.050
-729.952	-58.750	-0.250	0.109
-728.937	-83.517	0.215	0.069
-727.923	-52.407	-0.025	0.012
-726.908	-139.370	0.321	-0.035
-725.894	-50.383	-0.283	0.135
-724.879	-200.000	0.004	-0.449
-723.864	65.473	-0.065	0.066
-722.850	-200.000	-0.030	0.370
-721.835	-178.313	0.336	-0.008
-720.821	-164.267	-0.416	-0.019
-719.806	94.514	-0.200	0.228
-718.791	-73.231	-0.241	0.089
-717.777	159.147	0.066	-0.093
-716.762	-200.000	0.026	0.207
-715.748	-200.000	0.032	0.218
-714.733	-110.542	-0.302	-0.063
-713.718	88.207	0.129	-0.143
-712.704	95.827	0.375	-0.430
-711.689	-140.562	0.194	0.020
-710.675	619.525	0.048	0.122
-709.660	-200.000	-0.020	-0.464
-708.645	454.360	-0.191	0.424
-707.631	800.000	0.134	-0.403
-706.616	800.000	-0.040	0.116
-705.602	20.012	-0.322	-0.261
-704.587	800.000	-0.093	-0.375
-703.572	-200.000	-0.010	-0.125
-702.558	536.535	-0.092	-0.219
-701.543	186.673	0.055	0.083
-700.529	800.000	-0.103	-0.302
-699.514	-200.000	-0.024	0.146
-698.499	-16.575	-0.187	-0.119
-697.485	-113.233	0.226	0.045
-696.470	-200.000	0.040	-0.391
-695.456	273.040	-0.048	-0.086
-694.441	-200.000	-0.032	-0.419
-693.426	237.611	0.022	-0.037
-692.412	210.527	-0.175	-0.276
-691.397	608.121	0.079	-0.197
-690.383	-39.662	-0.135	-0.071
-689.368	-105.244	0.217	0.050
-688.354	230.513	0.161	0.265
-687.339	138.896	-0.247	-0.326
-686.324	-200.000	-0.181	-0.001
-685.310	93.024	-0.055	-0.063
-684.295	-200.000	-0.013	0.147
-683.281	30.829	-0.129	-0.111
-682.266	-200.000	0.009	-0.262
-681.251	-113.135	0.080	-0.016
-680.237	-106.898	-0.157	0.035
-679.222	-58.261	-0.192	0.084
-678.208	4.677	-0.073	-0.053
-677.193	-89.899	0.187	0.055
-676.178	-200.000	-0.044	0.378
-675.164	-200.000	0.043	0.239
-674.149	66.249	-0.228	-0.232
-673.135	432.471	-0.019	-0.041
-672.120	-139.943	-0.256	-0.027
-671.105	-79.459	-0.150	-0.051
-670.091	31.521	0.125	-0.108
-669.076	116.615	0.272	-0.335
-668.062	36.691	-0.062	-0.055
-667.047	130.291	-0.150	0.193
-666.032	-56.782	0.061	-0.027
-665.018	147.893	-0.138	0.187
-664.003	7.367	0.084	0.063
-662.989	-121.498	0.070	0.012
-661.974	-130.619	-0.069	0.009
-660.959	-30.715	0.203	0.115
-659.945	-97.683	-0.189	-0.049
-658.930	145.257	-0.192	0.257
-657.916	-24.986	-0.258	0.153
-656.901	-200.000	-0.001	-0.030
-655.886	549.655	0.182	0.438
-654.872	-200.000	-0.008	-0.093
-653.857	-118.688	0.044	0.008
-652.843	-200.000	-0.006	0.211
-651.828	800.000	0.087	-0.304
-650.814	165.282	0.137	-0.194
-649.799	4.827	-0.101	-0.074
-648.784	103.759	0.118	-0.139
-647.770	373.157	0.153	0.312
-646.755	800.000	0.096	-0.285
-645.741	-116.563	-0.145	0.027
-644.726	290.955	0.126	-0.230
-643.711	-169.076	0.452	-0.017
-642.697	800.000	-0.045	0.139
-641.682	515.183	0.054	-0.127
-640.668	-200.000	0.012	-0.274
-639.653	-148.865	0.059	0.005
-638.638	-57.089	0.485	0.214
-637.624	-200.000	0.023	0.263
-636.609	-71.488	-0.269	0.101
-635.595	-26.771	0.143	0.084
-634.580	226.122	0.157	-0.255
-633.565	-178.216	0.256	-0.006
-632.551	4.147	-0.024	-0.017
-631.536	35.759	0.223	-0.196
-630.522	-180.398	-0.123	-0.003
-629.507	-123.694	0.086	0.014
-628.492	-13.802	0.240	-0.155
-627.478	44.814	0.048	-0.044
-626.463	737.431	-0.072	0.193
-625.449	800.000	-0.027	-0.106
-624.434	800.000	-0.083	-0.259
-623.419	-17.099	-0.450	-0.284
-622.405	269.094	-0.062	-0.109
-621.390	-38.509	0.228	0.121
-620.376	86.280	0.019	-0.021
-619.361	-175.111	0.297	-0.008
-618.346	-155.814	-0.084	-0.005
-617.332	21.640	0.019	-0.015
-616.317	-200.000	-0.008	0.037
-615.303	-126.669	-0.294	0.044
-614.288	-200.000	0.008	0.258
-613.273	-200.000	-0.004	0.274
-612.259	217.432	0.058	0.093
-611.244	-187.339	-0.267	0.004
-610.230	78.137	0.048	-0.052
-609.215	21.021	-0.205	-0.166
-608.201	800.000	-0.022	-0.074
-607.186	-200.000	0.013	-0.133
-606.171	40.419	0.329	0.297
-605.157	748.312	0.034	0.093
-604.142	173.367	-0.184	-0.265
-603.128	-18.514	0.083	0.052
-602.113	340.088	0.051	0.100
-601.098	-122.815	0.371	0.060
-600.084	-36.070	0.141	0.076
-599.069	85.750	-0.149	-0.164
-598.055	-9.156	0.301	-0.201
-597.040	26.966	-0.178	-0.150
-596.025	1.585	0.134	0.096
-595.011	-92.211	-0.036	-0.010
-593.996	-40.862	0.040	-0.021
-592.982	-4.269	0.018	-0.013
-591.967	-200.000	-0.013	-0.066
-590.952	800.000	0.048	0.197
-589.938	-200.000	0.022	-0.107
-588.923	197.836	-0.083	-0.127
-587.909	-15.445	-0.152	-0.097
-586.894	552.118	-0.064	0.154
-585.879	-57.089	-0.204	0.090
-584.865	81.786	-0.074	0.080
-583.850	-18.538	-0.173	0.108
-582.836	-75.820	0.380	0.135
-581.821	557.492	-0.079	0.189
-580.806	800.000	0.062	-0.215
-579.792	-150.646	0.089	0.007
-578.777	70.295	0.112	-0.116
-577.763	12.054	0.181	-0.139
-576.748	-48.941	-0.250	0.120
-575.733	531.401	-0.054	0.127
-574.719	-200.000	0.025	-0.388
-573.704	11.661	-0.259	-0.199
-572.690	-80.502	-0.312	-0.104
-571.675	-39.233	-0.250	0.131
-570.661	33.674	0.220	0.191
-569.646	-86.472	0.238	0.073
-568.631	73.484	-0.262	0.274
-567.617	-105.601	0.120	-0.027
-566.602	-200.000	0.088	-0.406
-565.588	208.408	-0.102	-0.159
-564.573	-82.864	-0.220	0.071
-563.558	-126.637	0.280	0.041
-562.544	586.758	-0.172	-0.423
-561.529	-200.000	0.014	-0.323
-560.515	-2.106	0.266	-0.186
-559.500	-200.000	-0.003	0.015
-558.485	-108.552	-0.151	-0.032
-557.471	125.833	0.095	-0.119
-556.456	-93.487	-0.110	-0.030
-555.442	-169.760	-0.153	-0.006
-554.427	-140.145	0.058	-0.006
-553.412	332.140	-0.079	0.152
-552.398	8.389	-0.204	-0.153
-551.383	8.151	-0.397	-0.297
-550.369	-160.214	-0.037	0.002
-549.354	-200.000	0.007	-0.255
-548.339	57.426	0.320	-0.312
-547.325	268.972	0.143	-0.250
-546.310	-152.336	0.295	0.021
-545.296	-93.593	-0.270	-0.075
-544.281	-200.000	0.021	0.000
-543.266	-119.309	-0.079	-0.014
-542.252	-11.377	-0.197	0.129
-541.237	800.000	-0.117	0.326
-540.223	-200.000	0.002	-0.165
-539.208	-54.067	-0.237	0.108
-538.193	45.729	0.210	0.194
-537.179	-200.000	0.018	-0.105
-536.164	800.000	-0.095	-0.392
-535.150	-57.115	0.163	-0.072
-534.135	-200.000	-0.081	-0.417
-533.121	-70.842	0.127	-0.048
-532.106	-200.000	0.026	-0.168
-531.091	-147.984	0.197	-0.016
-530.077	800.000	0.054	0.175
-529.062	110.090	-0.087	-0.104
-528.048	622.894	0.083	0.210
-527.033	236.003	0.192	0.317
-526.018	47.497	0.313	-0.291
-525.004	-200.000	0.028	0.179
-523.989	0.842	-0.100	0.072
-522.975	439.003	0.227	-0.494
-521.960	-11.803	-0.229	-0.150
-520.945	-128.491	-0.446	-0.063
-519.931	110.989	-0.185	-0.222
-518.916	480.630	0.159	-0.360
-517.902	-143.307	0.254	-0.024
-516.887	137.032	-0.028	0.036
-515.872	-23.829	-0.143	-0.086
-514.858	-43.672	0.199	-0.100
-513.843	-139.342	0.398	0.043
-512.829	-21.942	-0.320	-0.194
-511.814	-154.481	0.315	-0.021
-510.799	-107.872	-0.290	-0.063
-509.785	-200.000	-0.035	0.304
-508.770	580.332	-0.031	-0.076
-507.756	-88.716	-0.227	0.067
-506.741	800.000	-0.074	0.240
-505.726	21.879	0.210	0.171
-504.712	-200.000	0.058	0.544
-503.697	800.000	-0.028	-0.077
-502.683	-115.595	-0.297	-0.056
-501.668	-73.723	-0.263	-0.095
-500.653	-136.592	0.063	0.007
-499.639	508.361	0.059	-0.137
-498.624	-200.000	0.041	-0.233
-497.610	344.991	-0.072	-0.140
-496.595	5.969	0.100	-0.073
-495.581	-73.285	-0.261	0.095
-494.566	-200.000	-0.015	0.262
-493.551	-113.929	-0.090	-0.017
-492.537	549.604	-0.034	-0.081
-491.522	-200.000	-0.007	0.065
-490.508	643.216	-0.051	0.129
-489.493	800.000	-0.004	-0.013
-488.478	-104.192	0.169	0.039
-487.464	-133.436	-0.319	-0.040
-486.449	-16.245	-0.043	0.027
-485.435	-138.379	0.440	-0.048
-484.420	-143.341	-0.078	-0.007
-483.405	215.712	-0.110	0.173
-482.391	-200.000	0.008	0.057
-481.376	-169.317	0.096	-0.004
-480.362	10.469	-0.187	0.142
-479.347	290.287	0.098	-0.178
-478.332	177.726	0.098	-0.142
-477.318	194.827	0.020	-0.031
-476.303	286.503	-0.116	-0.209
-475.289	-126.257	-0.405	-0.060
-474.274	83.205	0.335	-0.364
-473.259	800.000	0.081	0.223
-472.245	463.375	-0.069	0.153
-471.230	568.579	-0.149	-0.361
-470.216	31.509	-0.185	-0.158
-469.201	-112.011	0.138	0.028
-468.186	1.577	0.234	0.167
-467.172	-200.000	0.055	-0.000
-466.157	800.000	0.065	0.274
-465.143	800.000	-0.083	-0.310
-464.128	96.117	-0.234	0.267
-463.113	0.532	-0.270	0.192
-462.099	800.000	-0.052	0.144
-461.084	91.221	0.015	-0.017
-460.070	-116.861	-0.362	0.066
-459.055	-67.264	-0.191	-0.075
-458.040	117.439	0.082	-0.100
-457.026	407.086	-0.019	0.039
-456.011	49.470	-0.267	0.250
-454.997	57.697	0.041	0.040
-453.982	60.828	0.172	0.170
-452.968	-200.000	0.047	-0.236
-451.953	-139.678	-0.187	-0.020
-450.938	800.000	0.038	-0.159
-449.924	-130.128	-0.177	-0.024
-448.909	34.298	0.269	0.233
-447.895	16.996	-0.249	-0.196
-446.880	-63.288	-0.321	-0.131
-445.865	800.000	0.053	-0.148
-444.851	70.237	-0.049	0.050
-443.836	22.282	0.005	-0.004
-442.822	-200.000	0.011	-0.288
-441.807	-150.930	-0.253	-0.019
-440.792	48.015	-0.120	0.111
-439.778	-200.000	-0.014	0.193
-438.763	-41.217	0.286	0.147
-437.749	185.119	0.108	-0.159
-436.734	77.726	0.198	-0.209
-435.719	-3.181	0.323	-0.224
-434.705	-149.800	-0.125	-0.010
-433.690	-63.581	-0.112	-0.046
-432.676	800.000	-0.053	0.224
-431.661	800.000	0.054	-0.151
-430.646	-3.202	-0.121	-0.084
-429.632	-200.000	0.018	-0.189
-428.617	73.572	-0.159	0.166
-427.603	-90.903	0.201	0.057
-426.588	-196.028	0.028	0.000
-425.573	800.000	-0.028	0.107
-424.559	6.830	0.169	-0.125
-423.544	146.927	0.142	0.189
-422.530	-85.456	-0.333	-0.103
-421.515	-23.187	0.073	-0.044
-420.500	-27.410	0.212	-0.122
-419.486	-115.926	-0.337	-0.062
-418.471	86.191	-0.124	0.136
-417.457	43.395	0.119	-0.108
-416.442	800.000	-0.055	0.198
-415.428	8.779	-0.034	0.026
-414.413	572.116	-0.055	0.134
-413.398	109.980	0.209	-0.249
-412.384	-200.000	0.006	-0.279
-411.369	65.472	0.128	0.129
-410.355	742.389	0.158	0.421
-409.340	-104.960	-0.272	-0.062
-408.325	800.000	0.056	0.211
-407.311	800.000	0.048	-0.138
-406.296	731.219	-0.047	-0.125
-405.282	529.031	-0.030	0.070
-404.267	89.456	0.201	-0.223
-403.252	800.000	-0.110	-0.328
-402.238	483.931	0.071	0.160
-401.223	800.000	0.058	-0.165
-400.209	282.444	-0.092	-0.164
-399.194	337.904	0.067	-0.129
-398.179	-17.253	0.283	-0.177
-397.165	-200.000	0.037	0.224
-396.150	412.257	-0.057	-0.121
-395.136	-90.919	-0.462	-0.132
-394.121	-33.453	-0.131	-0.072
-393.106	11.202	0.233	-0.177
-392.092	4.298	-0.252	0.183
-391.077	-200.000	-0.082	-0.458
-390.063	-200.000	-0.061	-0.362
-389.048	-200.000	-0.026	-0.115
-388.033	-200.000	-0.000	-0.197
-387.019	-99.872	-0.288	-0.072
-386.004	82.777	-0.061	0.065
-384.990	336.560	-0.205	0.395
-383.975	-200.000	0.008	-0.212
-382.960	373.024	-0.119	0.240
-381.946	171.346	-0.329	-0.468
-380.931	-98.407	0.398	0.101
-379.917	-104.419	0.239	0.055
-378.902	-148.411	-0.251	0.020
-377.888	36.654	0.467	0.409
-376.873	234.228	-0.152	-0.249
-375.858	800.000	0.033	-0.120
-374.844	47.879	-0.217	-0.201
-373.829	-83.571	-0.206	-0.065
-372.815	-190.961	-0.296	0.003
-371.800	-108.604	0.253	-0.054
-370.785	800.000	-0.048	-0.144
-369.771	-102.414	-0.067	-0.016
-368.756	-48.686	0.250	0.119
-367.742	9.353	0.203	0.152
-366.727	-120.392	-0.046	-0.008
-365.712	77.559	0.130	0.137
-364.698	800.000	-0.037	-0.137
-363.683	133.228	0.009	-0.012
-362.669	-200.000	-0.010	-0.105
-361.654	-134.235	-0.300	0.037
-360.639	-100.365	-0.211	-0.052
-359.625	-62.068	0.333	0.138
-358.610	149.479	0.122	0.164
-357.596	257.964	0.043	0.073
-356.581	-108.485	-0.353	-0.075
-355.566	557.765	-0.062	0.148
-354.552	-33.929	0.194	-0.106
-353.537	670.318	0.071	0.183
-352.523	-200.000	-0.001	0.330
-351.508	-200.000	-0.012	0.124
-350.493	-102.113	0.203	0.048
-349.479	-138.333	-0.212	0.023
-348.464	-88.283	0.264	0.078
-347.450	93.039	-0.096	-0.107
-346.435	-1.803	0.169	0.118
-345.420	64.258	0.064	-0.064
-344.406	9.828	-0.326	0.245
-343.391	-200.000	0.027	-0.261
-342.377	-56.228	-0.279	-0.123
-341.362	-71.376	0.118	-0.044
-340.348	247.593	0.193	0.323
-339.333	-200.000	-0.054	-0.243
-338.318	-33.353	-0.307	-0.168
-337.304	-101.854	-0.142	0.034
-336.289	248.093	0.064	0.107
-335.275	60.397	0.139	0.136
-334.260	226.531	-0.075	-0.121
-333.245	168.209	-0.127	-0.179
-332.231	-11.033	0.222	-0.145
-331.216	-143.576	0.161	0.015
-330.202	761.832	0.138	0.370
-329.187	800.000	-0.098	0.307
-328.172	800.000	0.061	-0.213
-327.158	-200.000	0.035	0.208
-326.143	171.557	-0.051	0.073
-325.129	800.000	-0.049	0.173
-324.114	-35.826	-0.120	0.064
-323.099	34.662	0.049	0.042
-322.085	-93.525	-0.109	0.030
-321.070	182.099	0.172	-0.251
-320.056	-200.000	0.002	-0.039
-319.041	-74.413	0.059	-0.021
-318.026	-80.022	0.243	0.081
-317.012	192.633	0.327	0.489
-315.997	184.023	-0.055	0.081
-314.983	497.959	-0.046	0.104
-313.968	532.145	0.028	0.067
-312.953	169.991	-0.112	-0.158
-311.939	-24.767	0.141	0.083
-310.924	-122.789	-0.284	-0.045
-309.910	800.000	-0.011	-0.030
-308.895	-15.596	-0.170	0.107
-307.880	95.365	0.321	-0.362
-306.866	-93.639	-0.021	0.006
-305.851	-26.322	-0.336	0.195
-304.837	-200.000	-0.004	0.130
-303.822	305.239	-0.175	-0.322
-302.807	-71.205	-0.455	0.169
-301.793	44.758	0.077	-0.070
-300.778	-134.917	0.215	-0.026
-299.764	800.000	0.069	0.208
-298.749	334.522	0.243	0.466
-297.735	-185.478	0.308	-0.005
-296.720	-200.000	-0.024	0.195
-295.705	166.647	-0.113	0.159
-294.691	800.000	-0.144	0.567
-293.676	-132.026	-0.325	-0.042
-292.662	23.990	-0.008	-0.007
-291.647	367.349	0.059	0.117
-290.632	-61.396	-0.151	0.063
-289.618	-120.803	0.034	0.006
-288.603	143.631	-0.254	-0.335
-287.589	-200.000	0.013	0.151
-286.574	60.352	0.123	-0.120
-285.559	-0.325	0.146	0.102
-284.545	800.000	0.075	0.265
-283.530	-200.000	0.073	0.323
-282.516	-86.439	0.314	0.095
-281.501	69.796	0.310	0.316
-280.486	-110.421	0.078	-0.016
-279.472	-200.000	-0.031	-0.232
-278.457	800.000	-0.041	0.113
-277.443	-6.291	0.211	0.142
-276.428	-200.000	0.047	-0.427
-275.413	72.502	0.192	-0.198
-274.399	-36.032	-0.166	0.089
-273.384	-82.851	0.369	-0.118
-272.370	-200.000	-0.022	-0.124
-271.355	-64.727	0.135	0.054
-270.340	-54.950	0.160	0.071
-269.326	-134.426	0.520	-0.063
-268.311	140.076	-0.231	0.301
-267.297	83.225	-0.201	-0.216
-266.282	-200.000	-0.005	-0.135
-265.267	-26.717	0.405	0.234
-264.253	169.885	-0.086	-0.122
-263.238	-200.000	0.058	0.354
-262.224	-200.000	0.030	0.142
-261.209	41.833	0.150	-0.134
-260.195	46.256	0.076	0.069
-259.180	-18.133	0.278	0.172
-258.165	-55.380	-0.086	-0.038
-257.151	-124.670	0.221	-0.034
-256.136	105.800	0.303	0.354
-255.122	-200.000	-0.017	-0.159
-254.107	-70.854	0.105	0.039
-253.092	-45.918	-0.078	0.038
-252.078	-115.028	-0.205	-0.038
-251.063	-74.119	-0.174	-0.062
-250.049	-8.957	-0.139	0.092
-249.034	682.289	-0.041	0.106
-248.019	-124.787	-0.084	-0.013
-247.005	527.288	-0.174	-0.404
-245.990	800.000	0.008	-0.028
-244.976	-200.000	0.010	0.049
-243.961	-200.000	-0.008	-0.052
-242.946	394.445	0.086	0.177
-241.932	-107.266	-0.289	-0.063
-240.917	-23.097	-0.403	-0.240
-239.903	800.000	-0.104	-0.289
-238.888	615.092	0.117	0.290
-237.873	800.000	0.044	-0.138
-236.859	800.000	-0.127	0.365
-235.844	147.009	0.232	-0.308
-234.830	27.137	-0.187	0.154
-233.815	719.919	0.093	0.244
-232.800	-121.543	0.195	0.032
-231.786	-200.000	-0.033	0.153
-230.771	-145.904	0.392	-0.034
-229.757	-200.000	0.010	-0.124
-228.742	-184.376	-0.475	0.008
-227.727	372.968	0.085	0.171
-226.713	3.137	0.258	-0.185
-225.698	41.401	-0.153	0.136
-224.684	-200.000	-0.015	-0.128
-223.669	-54.610	0.179	-0.080
-222.655	-36.330	-0.227	-0.121
-221.640	800.000	0.143	0.413
-220.625	227.803	-0.141	0.226
-219.611	-200.000	-0.057	0.397
-218.596	-200.000	0.002	0.184
-217.582	800.000	0.076	0.273
-216.567	191.198	0.072	0.106
-215.552	798.054	-0.030	-0.082
-214.538	104.049	-0.171	0.199
-213.523	-110.879	-0.115	0.023
-212.509	-14.927	-0.166	-0.105
-211.494	36.876	0.040	-0.035
-210.479	-84.213	-0.236	0.074
-209.465	-200.000	-0.055	-0.337
-208.450	-166.155	-0.183	0.008
-207.436	95.800	-0.087	0.097
-206.421	-95.579	-0.412	0.109
-205.406	-200.000	-0.008	0.181
-204.392	-132.931	0.208	0.026
-203.377	487.750	0.132	0.296
-202.363	-163.378	0.217	0.010
-201.348	-127.864	-0.328	-0.047
-200.333	8.592	0.177	0.131
-199.319	-15.797	0.032	0.020
-198.304	230.374	-0.109	0.176
-197.290	-200.000	-0.001	-0.033
-196.275	800.000	0.012	-0.043
-195.260	40.603	0.214	-0.190
-194.246	-200.000	0.117	-0.000
-193.231	647.864	-0.043	0.108
-192.217	-167.388	0.215	-0.008
-191.202	209.814	0.133	-0.206
-190.187	-200.000	0.002	0.112
-189.173	-200.000	-0.086	0.378
-188.158	800.000	-0.031	-0.092
-187.144	-14.207	0.080	0.051
-186.129	84.116	0.144	0.155
-185.114	13.891	-0.128	0.098
-184.100	520.236	-0.046	-0.107
-183.085	0.466	-0.100	0.070
-182.071	-72.806	0.298	0.108
-181.056	800.000	0.056	-0.170
-180.042	129.990	0.152	0.191
-179.027	-149.938	-0.446	0.034
-178.012	56.214	-0.117	-0.112
-176.998	30.567	-0.096	-0.081
-175.983	141.126	0.132	-0.172
-174.969	800.000	-0.038	-0.124
-173.954	-129.184	-0.026	-0.004
-172.939	1.900	0.158	-0.113
-171.925	-110.895	0.169	-0.034
-170.910	-99.799	0.347	0.085
-169.896	24.756	-0.178	0.145
-168.881	-200.000	0.062	0.485
-167.866	-200.000	-0.081	0.381
-166.852	-127.002	0.293	0.042
-165.837	-200.000	-0.023	0.186
-164.823	-103.337	-0.271	-0.063
-163.808	-87.456	0.105	-0.031
-162.793	-54.989	0.147	0.065
-161.779	800.000	-0.008	0.034
-160.764	-40.958	-0.029	0.015
-159.750	154.491	0.196	-0.265
-158.735	800.000	0.031	-0.111
-157.720	37.846	0.085	0.074
-156.706	-200.000	0.067	-0.321
-155.691	-88.205	-0.225	0.066
-154.677	-200.000	-0.001	0.021
-153.662	308.258	-0.019	-0.034
-152.647	-140.689	-0.189	0.019
-151.633	-19.350	-0.089	0.055
-150.618	-101.202	0.126	0.030
-149.604	408.218	0.069	-0.144
-148.589	69.934	0.131	0.133
-147.574	117.220	0.188	0.227
-146.560	-116.205	-0.216	0.039
-145.545	-200.000	0.080	-0.391
-144.531	48.595	-0.182	-0.168
-143.516	-43.727	-0.179	-0.088
-142.502	-106.261	0.341	-0.075
-141.487	-49.449	-0.082	0.038
-140.472	-29.680	0.351	0.197
-139.458	-174.365	0.164	-0.005
-138.443	199.948	-0.151	-0.228
-137.429	-136.302	-0.373	-0.043
-136.414	-88.271	0.182	0.054
-135.399	-162.320	-0.083	-0.004
-134.385	-200.000	0.012	-0.061
-133.370	-17.751	-0.152	-0.094
-132.356	-123.348	-0.071	0.011
-131.341	-200.000	-0.008	-0.160
-130.326	-149.777	-0.267	-0.021
-129.312	-81.859	0.249	0.080
-128.297	-143.258	-0.114	-0.011
-127.283	412.407	0.197	0.410
-126.268	800.000	-0.116	-0.318
-125.253	-200.000	-0.055	-0.342
-124.239	-84.830	0.449	-0.138
-123.224	-200.000	0.031	-0.193
-122.210	-200.000	-0.018	-0.225
