DTS Sentinel unit serial number:	SN413079Multiplexer serial number:	ORYXHardware model number:	OX4-SRSoftware version number:	ORYX F/W v4.00 Oryx Data Collector v3.7.2.0data status	okinstallation	princeton_trtdifferential loss correction	single-endedforward channel	channel 2reverse channel	N/Adate	2019/09/16time	10:35:35forward acquisition time	60.00reverse acquisition time	0.00gamma	496.2192k internal	0.2318k external	0.2318temperature offset calibration	0.9959default loss term (dB/km)	0.3790temperature slope calibration	1.0000multiplexer offset coefficient	1.0000multiplexer slope coefficient	1.0000fibre end	0.00T internal ref (°C)	35.58T ext. ref 1 (°C)	12.61T ext. ref 2 (°C)	33.62length (m)	temperature (°C)	Stokes	anti-Stokes-747.200	353.800	-0.105	0.212
-746.185	800.000	-0.124	0.436
-745.171	-23.213	-0.241	-0.147
-744.156	42.657	0.154	0.141
-743.142	621.453	-0.036	-0.091
-742.127	201.278	-0.093	0.145
-741.112	264.907	-0.073	-0.129
-740.098	-16.972	-0.323	0.206
-739.083	139.145	-0.143	0.190
-738.069	252.200	-0.105	0.181
-737.054	-59.511	0.242	0.105
-736.039	155.077	-0.025	0.035
-735.025	125.008	0.227	0.289
-734.010	128.590	-0.073	-0.094
-732.996	-200.000	-0.021	-0.310
-731.981	37.105	0.259	-0.232
-730.966	-142.841	0.366	-0.036
-729.952	452.470	0.042	0.095
-728.937	-157.390	-0.031	-0.002
-727.923	506.559	0.043	0.101
-726.908	513.318	-0.125	-0.294
-725.894	-200.000	0.006	0.049
-724.879	800.000	0.041	0.148
-723.864	-200.000	-0.008	0.122
-722.850	-97.299	-0.404	-0.107
-721.835	19.894	0.188	-0.153
-720.821	191.411	-0.028	-0.043
-719.806	248.903	0.145	-0.248
-718.791	-86.096	-0.043	-0.013
-717.777	45.255	0.094	-0.088
-716.762	613.458	0.088	-0.223
-715.748	-200.000	0.027	-0.184
-714.733	800.000	-0.036	-0.144
-713.718	-78.777	-0.499	-0.172
-712.704	318.568	0.158	-0.302
-711.689	140.419	-0.177	0.236
-710.675	-75.365	-0.190	-0.068
-709.660	-180.734	-0.383	-0.008
-708.645	-200.000	-0.023	0.240
-707.631	-96.265	-0.266	0.071
-706.616	-4.190	0.468	0.327
-705.602	-152.453	-0.093	-0.007
-704.587	-88.438	-0.178	0.054
-703.572	27.764	-0.204	-0.173
-702.558	-115.310	0.229	0.044
-701.543	-83.198	0.300	0.097
-700.529	-180.576	0.173	0.004
-699.514	-0.567	-0.152	0.109
-698.499	8.898	0.058	0.044
-697.485	-53.577	0.054	0.025
-696.470	-95.358	-0.088	0.024
-695.456	10.276	0.310	-0.238
-694.441	800.000	0.054	-0.199
-693.426	-200.000	0.040	-0.180
-692.412	-56.635	0.032	0.014
-691.397	156.668	-0.049	0.068
-690.383	-200.000	-0.006	0.190
-689.368	-113.832	-0.504	-0.099
-688.354	-65.428	-0.124	-0.050
-687.339	417.557	-0.076	-0.164
-686.324	-200.000	0.024	0.272
-685.310	-111.442	-0.196	-0.040
-684.295	-175.931	-0.250	0.007
-683.281	-95.756	-0.265	-0.072
-682.266	-200.000	0.012	0.123
-681.251	800.000	-0.051	0.211
-680.237	800.000	-0.039	0.170
-679.222	198.464	-0.075	0.116
-678.208	-137.166	-0.143	0.016
-677.193	-42.610	0.199	0.102
-676.178	800.000	-0.042	-0.125
-675.164	800.000	-0.105	0.334
-674.149	362.576	-0.091	0.184
-673.135	230.019	0.014	-0.023
-672.120	-200.000	0.024	-0.223
-671.105	173.259	0.067	-0.098
-670.091	196.370	0.234	-0.359
-669.076	800.000	0.093	-0.286
-668.062	-100.846	-0.197	-0.049
-667.047	800.000	0.015	-0.068
-666.032	-21.470	0.195	0.120
-665.018	-118.892	-0.156	0.028
-664.003	-160.940	-0.115	0.006
-662.989	-200.000	-0.015	0.275
-661.974	-124.343	-0.078	-0.012
-660.959	75.447	-0.117	0.124
-659.945	-39.708	0.286	0.151
-658.930	-200.000	0.018	0.223
-657.916	-147.272	-0.313	-0.027
-656.901	-200.000	-0.029	-0.331
-655.886	800.000	-0.050	0.148
-654.872	-59.829	0.076	0.033
-653.857	-200.000	-0.041	-0.457
-652.843	-71.366	0.453	-0.171
-651.828	149.552	0.101	-0.139
-650.814	-153.485	-0.127	0.009
-649.799	-26.437	0.134	0.079
-648.784	-163.094	0.057	0.003
-647.770	-96.236	-0.219	0.058
-646.755	84.573	0.075	-0.082
-645.741	169.941	0.214	-0.309
-644.726	-121.520	-0.397	0.066
-643.711	-200.000	0.066	-0.405
-642.697	-48.176	0.070	-0.034
-641.682	325.899	-0.128	0.246
-640.668	-200.000	0.001	0.063
-639.653	800.000	-0.103	-0.317
-638.638	800.000	0.065	-0.263
-637.624	-23.246	0.138	0.083
-636.609	27.901	0.202	-0.171
-635.595	17.449	-0.068	-0.055
-634.580	139.787	0.232	-0.308
-633.565	800.000	0.068	0.243
-632.551	-200.000	-0.003	0.171
-631.536	-157.350	0.021	-0.001
-630.522	-41.369	-0.257	0.133
-629.507	-152.138	-0.467	0.034
-628.492	-130.948	-0.269	0.036
-627.478	336.472	0.067	-0.131
-626.463	-86.478	-0.171	-0.053
-625.449	800.000	-0.038	-0.155
-624.434	76.542	0.154	0.165
-623.419	-15.681	0.147	-0.094
-622.405	595.027	-0.090	-0.224
-621.390	-51.480	-0.036	0.017
-620.376	540.514	-0.089	0.213
-619.361	-132.581	-0.132	-0.017
-618.346	-128.080	0.060	0.009
-617.332	23.080	0.033	0.028
-616.317	532.142	0.154	-0.366
-615.303	594.753	-0.166	-0.414
-614.288	-7.240	0.126	-0.086
-613.273	-85.169	-0.055	-0.017
-612.259	-200.000	-0.021	0.167
-611.244	-22.749	0.085	0.052
-610.230	274.469	-0.062	-0.110
-609.215	800.000	0.022	0.065
-608.201	-81.760	-0.025	0.008
-607.186	-121.452	-0.349	-0.058
-606.171	13.490	0.181	-0.142
-605.157	66.025	0.097	0.099
-604.142	156.115	-0.086	0.119
-603.128	498.271	0.079	0.182
-602.113	-200.000	-0.046	0.252
-601.098	-23.399	-0.114	-0.069
-600.084	-46.770	-0.271	0.134
-599.069	413.643	-0.095	0.203
-598.055	46.123	0.128	-0.119
-597.040	95.072	-0.076	-0.088
-596.025	103.704	-0.113	0.134
-595.011	128.605	-0.014	-0.018
-593.996	373.526	0.135	0.277
-592.982	-72.447	0.335	-0.125
-591.967	-54.025	-0.249	0.114
-590.952	192.912	0.072	0.110
-589.938	169.443	0.091	0.131
-588.923	-83.118	-0.238	-0.077
-587.909	115.164	-0.272	0.334
-586.894	-59.053	0.133	0.058
-585.879	-97.787	0.197	0.051
-584.865	57.623	0.207	-0.203
-583.850	-200.000	0.007	0.039
-582.836	-40.988	0.233	-0.121
-581.821	-91.908	-0.127	0.036
-580.806	-200.000	0.012	0.133
-579.792	800.000	-0.094	-0.289
-578.777	-72.609	-0.285	0.106
-577.763	417.332	-0.072	0.156
-576.748	800.000	-0.049	0.211
-575.733	19.099	-0.216	-0.175
-574.719	225.719	0.140	0.228
-573.704	229.267	-0.326	0.535
-572.690	-90.333	0.284	0.083
-571.675	85.520	0.102	0.113
-570.661	13.358	-0.048	-0.038
-569.646	-200.000	0.045	0.270
-568.631	-200.000	0.046	0.245
-567.617	-200.000	-0.010	-0.301
-566.602	-45.295	-0.081	0.040
-565.588	0.488	-0.298	0.214
-564.573	-55.821	-0.112	-0.050
-563.558	389.218	-0.064	0.132
-562.544	-8.274	0.276	-0.186
-561.529	1.113	-0.171	-0.123
-560.515	-57.819	0.258	-0.113
-559.500	220.488	0.108	-0.173
-558.485	226.254	0.167	-0.272
-557.471	-117.079	-0.242	-0.044
-556.456	-64.066	-0.143	0.059
-555.442	185.406	0.079	0.118
-554.427	800.000	-0.069	0.291
-553.412	-79.014	-0.215	-0.073
-552.398	47.708	-0.167	0.156
-551.383	800.000	0.051	-0.188
-550.369	800.000	-0.060	0.230
-549.354	131.463	-0.148	0.191
-548.339	800.000	0.041	-0.146
-547.325	-85.822	0.184	-0.057
-546.310	-111.566	0.216	-0.044
-545.296	-136.534	-0.164	0.019
-544.281	175.016	0.052	-0.076
-543.266	536.177	-0.061	0.145
-542.252	-200.000	0.006	0.133
-541.237	107.577	-0.011	-0.013
-540.223	32.340	0.082	-0.071
-539.208	547.634	0.138	-0.331
-538.193	-200.000	0.019	0.105
-537.179	221.863	0.271	0.437
-536.164	223.046	-0.146	-0.236
-535.150	-200.000	-0.011	-0.337
-534.135	-171.653	0.059	0.002
-533.121	-200.000	-0.039	-0.209
-532.106	31.912	-0.136	0.118
-531.091	96.512	0.097	0.112
-530.077	363.207	0.105	0.213
-529.062	92.265	0.183	-0.206
-528.048	-52.860	-0.212	-0.098
-527.033	0.892	0.144	-0.104
-526.018	-13.235	0.125	0.081
-525.004	800.000	-0.083	0.278
-523.989	-200.000	-0.015	-0.085
-522.975	-200.000	0.003	-0.232
-521.960	800.000	-0.054	-0.218
-520.945	152.976	0.097	0.133
-519.931	-110.680	0.210	0.044
-518.916	20.084	-0.125	-0.101
-517.902	-28.468	0.107	0.062
-516.887	346.756	0.134	0.264
-515.872	139.724	-0.196	0.259
-514.858	-156.738	0.253	0.016
-513.843	-62.174	-0.381	-0.159
-512.829	-14.174	0.363	0.235
-511.814	420.665	0.102	0.219
-510.799	-200.000	0.005	0.169
-509.785	-200.000	0.039	0.177
-508.770	226.524	0.010	-0.016
-507.756	-75.412	-0.215	0.077
-506.741	-195.256	0.143	-0.001
-505.726	201.605	0.079	-0.122
-504.712	-45.806	0.197	-0.098
-503.697	-101.108	-0.336	-0.083
-502.683	378.331	-0.198	0.407
-501.668	367.630	-0.057	-0.115
-500.653	22.585	0.177	0.145
-499.639	53.528	-0.138	-0.133
-498.624	322.030	0.044	0.085
-497.610	50.391	-0.162	0.154
-496.595	691.828	-0.088	0.232
-495.581	81.968	-0.135	-0.147
-494.566	25.236	0.166	-0.138
-493.551	268.067	-0.202	-0.355
-492.537	76.569	0.079	-0.084
-491.522	251.692	-0.056	-0.095
-490.508	441.878	0.085	0.186
-489.493	16.224	-0.249	-0.197
-488.478	44.104	-0.134	-0.123
-487.464	394.848	0.020	-0.042
-486.449	245.492	-0.168	-0.283
-485.435	-83.794	0.330	-0.105
-484.420	31.148	0.121	-0.104
-483.405	-200.000	-0.020	-0.220
-482.391	800.000	0.118	-0.472
-481.376	-91.871	-0.254	0.072
-480.362	800.000	-0.113	-0.347
-479.347	800.000	-0.168	-0.548
-478.332	198.560	-0.163	-0.250
-477.318	359.559	-0.073	-0.145
-476.303	18.422	-0.201	-0.161
-475.289	47.546	0.156	-0.146
-474.274	98.943	0.049	-0.056
-473.259	-31.955	-0.214	-0.120
-472.245	800.000	-0.011	-0.034
-471.230	-71.857	0.034	-0.013
-470.216	53.077	0.080	0.077
-469.201	-7.976	-0.037	0.025
-468.186	239.833	-0.102	-0.170
-467.172	-72.548	-0.203	0.075
-466.157	-143.820	-0.162	-0.015
-465.143	-30.274	-0.105	-0.060
-464.128	-87.037	-0.297	0.090
-463.113	-103.927	-0.131	0.031
-462.099	272.267	-0.130	0.229
-461.084	-15.291	-0.150	0.096
-460.070	124.684	0.084	0.106
-459.055	701.992	-0.038	0.101
-458.040	-141.143	-0.012	-0.001
-457.026	-171.656	-0.309	-0.010
-456.011	800.000	-0.071	-0.218
-454.997	610.544	0.087	0.218
-453.982	-200.000	0.015	-0.162
-452.968	-135.190	0.263	0.032
-451.953	-74.317	-0.178	0.064
-450.938	-112.616	0.339	-0.068
-449.924	-62.016	-0.027	-0.011
-448.909	152.441	0.192	-0.263
-447.895	306.921	0.270	-0.503
-446.880	-140.993	0.354	0.036
-445.865	207.856	-0.133	0.208
-444.851	9.191	0.227	-0.172
-443.836	75.141	0.242	0.255
-442.822	486.044	0.116	0.265
-441.807	100.573	-0.081	0.094
-440.792	494.807	0.162	-0.372
-439.778	-108.296	-0.111	0.024
-438.763	-65.242	0.163	0.066
-437.749	800.000	-0.009	-0.030
-436.734	-5.599	0.104	0.071
-435.719	-74.799	0.464	0.167
-434.705	-142.560	-0.104	-0.010
-433.690	-200.000	-0.029	0.255
-432.676	-12.361	0.291	0.190
-431.661	-90.272	-0.126	0.037
-430.646	-182.984	0.297	-0.005
-429.632	-113.829	-0.113	0.022
-428.617	800.000	-0.019	-0.069
-427.603	800.000	-0.042	0.139
-426.588	145.621	-0.138	0.184
-425.573	-80.845	-0.173	0.057
-424.559	-103.153	-0.163	0.039
-423.544	134.514	-0.089	-0.116
-422.530	-41.448	-0.247	0.127
-421.515	-158.608	0.186	-0.011
-420.500	-200.000	-0.034	-0.175
-419.486	-155.283	-0.415	0.027
-418.471	170.978	0.100	0.144
-417.457	-88.341	0.067	0.020
-416.442	-125.889	0.252	-0.038
-415.428	-175.713	0.054	0.001
-414.413	-83.258	0.181	0.058
-413.398	-64.495	0.051	-0.021
-412.384	-13.347	0.354	-0.229
-411.369	-18.837	-0.223	0.139
-410.355	108.177	-0.247	0.294
-409.340	800.000	0.024	0.074
-408.325	-123.301	-0.268	-0.043
-407.311	-125.266	0.148	-0.023
-406.296	800.000	0.065	0.194
-405.282	207.629	0.082	0.128
-404.267	26.991	0.185	-0.155
-403.252	-49.369	0.226	0.107
-402.238	49.281	0.144	0.135
-401.223	25.648	0.137	0.114
-400.209	-156.532	-0.186	-0.012
-399.194	50.199	-0.290	-0.273
-398.179	-92.722	-0.252	-0.071
-397.165	74.002	-0.079	-0.083
-396.150	-75.401	-0.123	-0.044
-395.136	53.589	0.176	-0.168
-394.121	429.434	-0.207	-0.447
-393.106	800.000	-0.073	-0.240
-392.092	719.243	-0.133	0.352
-391.077	657.257	-0.028	-0.073
-390.063	13.877	-0.208	0.161
-389.048	-114.736	0.171	0.033
-388.033	-102.217	0.423	-0.101
-387.019	-200.000	0.010	0.238
-386.004	-200.000	0.040	-0.196
-384.990	-103.474	0.115	0.027
-383.975	123.075	0.234	0.292
-382.960	-78.811	0.320	-0.109
-381.946	800.000	0.115	0.325
-380.931	68.970	0.169	0.174
-379.917	60.801	-0.206	-0.203
-378.902	-110.098	0.212	-0.044
-377.888	-200.000	-0.258	-0.001
-376.873	-103.398	0.059	-0.014
-375.858	-125.761	-0.106	0.016
-374.844	45.073	0.108	-0.099
-373.829	-12.464	-0.238	0.155
-372.815	-105.736	0.129	-0.029
-371.800	800.000	-0.039	-0.140
-370.785	169.984	-0.102	-0.146
-369.771	10.057	0.220	0.167
-368.756	200.937	0.104	0.160
-367.742	-97.777	-0.420	-0.108
-366.727	182.322	-0.047	0.069
-365.712	-20.229	-0.150	0.092
-364.698	10.525	-0.184	-0.140
-363.683	-60.461	0.086	-0.037
-362.669	176.727	0.180	-0.261
-361.654	-155.281	0.102	-0.007
-360.639	11.929	0.079	0.060
-359.625	128.381	-0.158	0.201
-358.610	-134.079	0.304	0.037
-357.596	800.000	-0.080	-0.254
-356.581	-101.211	0.224	-0.055
-355.566	-200.000	0.017	0.300
-354.552	35.040	0.104	0.091
-353.537	527.269	0.123	-0.289
-352.523	122.693	0.218	-0.271
-351.508	-200.000	-0.023	-0.183
-350.493	-200.000	-0.003	-0.070
-349.479	-175.074	0.162	0.004
-348.464	300.118	-0.099	0.183
-347.450	369.438	0.048	0.097
-346.435	12.619	-0.013	-0.010
-345.420	-200.000	0.050	0.267
-344.406	240.121	0.191	-0.317
-343.391	703.849	-0.076	-0.199
-342.377	-200.000	-0.053	-0.378
-341.362	-100.035	-0.172	-0.043
-340.348	6.393	-0.168	0.124
-339.333	-164.396	0.294	0.013
-338.318	-3.669	0.352	-0.243
-337.304	-44.755	0.167	-0.083
-336.289	14.249	-0.247	-0.192
-335.275	-151.061	-0.320	-0.024
-334.260	214.323	-0.152	-0.239
-333.245	-163.427	-0.126	0.006
-332.231	59.288	-0.467	-0.458
-331.216	113.342	0.285	-0.344
-330.202	800.000	0.086	0.344
-329.187	94.569	-0.187	0.211
-328.172	171.861	0.127	-0.181
-327.158	141.743	-0.105	0.138
-326.143	-128.661	0.382	-0.054
-325.129	-112.903	-0.050	-0.010
-324.114	71.255	0.300	-0.310
-323.099	-200.000	-0.041	0.260
-322.085	106.011	-0.075	0.088
-321.070	-200.000	-0.087	-0.000
-320.056	194.283	-0.025	0.037
-319.041	-24.090	0.129	0.077
-318.026	800.000	0.032	-0.135
-317.012	140.065	-0.235	0.308
-315.997	-200.000	-0.053	-0.354
-314.983	277.600	-0.050	-0.089
-313.968	-200.000	0.028	-0.139
-312.953	-90.104	0.133	0.038
-311.939	-105.412	-0.333	-0.075
-310.924	-120.840	0.102	-0.017
-309.910	27.984	0.150	0.126
-308.895	206.538	-0.083	-0.129
-307.880	800.000	0.090	0.290
-306.866	-70.016	0.109	0.041
-305.851	48.994	-0.260	-0.243
-304.837	-118.636	0.788	-0.138
-303.822	4.292	0.254	0.185
-302.807	259.909	-0.048	-0.083
-301.793	-200.000	0.012	0.121
-300.778	-113.499	-0.335	0.065
-299.764	-200.000	-0.045	-0.379
-298.749	-134.145	0.346	0.042
-297.735	653.024	0.074	0.188
-296.720	358.177	0.066	0.131
-295.705	800.000	0.048	0.185
-294.691	-55.848	-0.251	-0.111
-293.676	-77.338	0.181	0.063
-292.662	45.035	0.306	-0.280
-291.647	-200.000	0.015	0.226
-290.632	46.076	0.237	0.218
-289.618	-42.069	-0.226	-0.115
-288.603	10.443	-0.192	0.145
-287.589	-148.785	0.116	-0.009
-286.574	62.926	-0.321	-0.319
-285.559	-200.000	-0.059	0.395
-284.545	-71.247	-0.344	0.128
-283.530	800.000	0.102	0.382
-282.516	800.000	-0.026	-0.087
-281.501	89.695	-0.197	-0.219
-280.486	-106.488	-0.117	0.026
-279.472	-131.743	-0.344	-0.045
-278.457	115.016	-0.033	-0.040
-277.443	800.000	-0.016	-0.066
-276.428	800.000	-0.132	0.415
-275.413	264.295	0.048	-0.083
-274.399	-200.000	-0.002	-0.268
-273.384	-111.795	-0.257	0.052
-272.370	11.509	-0.223	0.170
-271.355	800.000	0.012	-0.039
-270.340	162.465	-0.168	-0.234
-269.326	-37.987	-0.358	-0.189
-268.311	57.780	-0.222	0.216
-267.297	-200.000	0.032	0.141
-266.282	-155.475	-0.061	0.004
-265.267	-200.000	-0.003	0.032
-264.253	800.000	-0.032	-0.116
-263.238	249.813	-0.145	-0.245
-262.224	488.956	-0.010	-0.023
-261.209	15.190	0.093	0.073
-260.195	-8.624	-0.117	-0.078
-259.180	800.000	0.105	-0.352
-258.165	800.000	0.047	0.168
-257.151	112.266	-0.204	-0.244
-256.136	-200.000	-0.011	-0.057
-255.122	800.000	-0.042	0.122
-254.107	-76.061	0.168	0.059
-253.092	-162.782	-0.430	0.021
-252.078	16.199	0.103	-0.080
-251.063	43.974	-0.127	0.115
-250.049	509.156	0.044	0.101
-249.034	63.554	0.232	-0.231
-248.019	-127.635	0.053	-0.008
-247.005	-96.530	0.359	0.094
-245.990	169.988	0.100	-0.141
-244.976	-200.000	0.004	0.071
-243.961	237.567	0.203	0.334
-242.946	0.349	-0.133	0.094
-241.932	800.000	0.065	0.248
-240.917	-5.439	0.197	0.134
-239.903	800.000	0.024	-0.078
-238.888	404.594	0.078	0.162
-237.873	6.890	0.081	-0.060
-236.859	295.094	0.027	-0.050
-235.844	800.000	-0.050	0.215
-234.830	-117.541	0.149	-0.027
-233.815	67.451	-0.113	0.114
-232.800	-200.000	-0.023	0.113
-231.786	173.899	-0.145	0.208
-230.771	161.462	-0.094	0.130
-229.757	-27.441	0.171	0.099
-228.742	350.082	-0.124	-0.244
-227.727	-78.592	0.224	0.076
-226.713	122.130	-0.090	0.112
-225.698	-200.000	-0.051	-0.306
-224.684	-96.885	0.235	0.061
-223.669	-200.000	-0.028	0.187
-222.655	70.419	0.390	0.399
-221.640	-112.386	-0.082	0.016
-220.625	-102.325	-0.131	0.031
-219.611	-200.000	0.014	-0.240
-218.596	2.876	-0.457	0.329
-217.582	524.735	-0.182	0.424
-216.567	-65.312	-0.208	0.083
-215.552	-159.857	0.239	-0.013
-214.538	800.000	0.031	0.124
-213.523	-200.000	0.019	0.086
-212.509	178.735	-0.085	0.123
-211.494	40.016	0.096	-0.085
-210.479	-200.000	0.013	0.198
-209.465	158.850	0.104	-0.144
-208.450	-200.000	0.007	0.038
-207.436	33.391	0.312	0.269
-206.421	800.000	0.058	0.231
-205.406	23.632	0.226	0.185
-204.392	6.858	-0.078	-0.058
-203.377	-111.610	0.368	-0.074
-202.363	800.000	-0.093	-0.281
-201.348	767.534	-0.104	-0.280
-200.333	79.846	-0.020	0.022
-199.319	-78.416	0.119	-0.040
-198.304	-51.886	0.293	0.135
-197.290	-200.000	-0.025	0.199
-196.275	-70.538	-0.069	-0.026
-195.260	800.000	0.034	-0.136
-194.246	96.054	-0.109	0.123
-193.231	-131.401	0.108	-0.014
-192.217	-128.932	0.372	0.052
-191.202	-200.000	0.011	0.287
-190.187	239.431	-0.054	0.088
-189.173	-151.422	0.154	0.011
-188.158	-169.477	0.353	-0.013
-187.144	481.474	0.146	0.329
-186.129	146.776	0.270	0.359
-185.114	662.297	0.136	-0.346
-184.100	-172.146	-0.301	0.010
-183.085	114.398	-0.106	0.128
-182.071	-200.000	-0.117	0.636
-181.056	-130.036	-0.079	0.011
-180.042	-200.000	-0.015	-0.361
-179.027	-200.000	-0.030	-0.135
-178.012	42.407	0.132	-0.119
-176.998	-80.554	0.084	-0.028
-175.983	-14.963	-0.286	0.181
-174.969	324.425	0.122	0.231
-173.954	324.223	0.073	0.138
-172.939	-200.000	0.018	-0.126
-171.925	578.360	0.126	-0.305
-170.910	-154.833	-0.079	-0.005
-169.896	-24.721	-0.278	0.164
-168.881	30.843	-0.058	0.049
-167.866	-200.000	0.037	-0.233
-166.852	800.000	-0.140	-0.418
-165.837	-86.792	0.112	-0.034
-164.823	219.320	0.087	0.137
-163.808	154.562	-0.214	-0.290
-162.793	-187.446	0.271	0.004
-161.779	-41.239	-0.364	-0.186
-160.764	-87.778	-0.390	-0.116
-159.750	247.084	-0.072	-0.120
-158.735	96.339	-0.203	-0.230
-157.720	-89.260	0.361	0.105
-156.706	-90.632	0.135	-0.039
-155.691	24.685	0.048	-0.039
-154.677	-183.210	-0.206	0.004
-153.662	800.000	0.065	-0.270
-152.647	-135.904	0.289	0.034
-151.633	-30.433	0.071	0.040
-150.618	800.000	-0.082	-0.288
-149.604	227.206	0.098	-0.158
-148.589	-200.000	-0.036	0.176
-147.574	43.399	-0.220	-0.199
-146.560	116.448	-0.298	0.362
-145.545	21.574	0.083	0.067
-144.531	-200.000	0.001	0.190
-143.516	-200.000	0.000	0.029
-142.502	800.000	0.053	-0.204
-141.487	-200.000	-0.004	0.198
-140.472	-200.000	0.073	-0.414
-139.458	800.000	-0.019	-0.073
-138.443	85.582	0.230	-0.250
-137.429	457.813	-0.145	-0.319
-136.414	-200.000	-0.045	0.310
-135.399	26.495	0.059	0.049
-134.385	-59.954	-0.096	-0.041
-133.370	324.120	0.135	0.255
-132.356	800.000	-0.025	-0.084
-131.341	800.000	0.060	-0.200
-130.326	39.631	-0.123	-0.109
-129.312	-200.000	0.011	0.050
-128.297	229.178	0.100	-0.161
-127.283	800.000	0.016	0.051
-126.268	-37.535	0.238	0.125
-125.253	-113.597	0.191	-0.037
-124.239	-44.094	0.053	0.026
-123.224	-129.852	-0.211	-0.029
-122.210	-200.000	-0.008	0.309
-121.195	555.133	-0.064	0.153
