DTS Sentinel unit serial number:	SN413079Multiplexer serial number:	ORYXHardware model number:	OX4-SRSoftware version number:	ORYX F/W v4.00 Oryx Data Collector v3.7.2.0data status	okinstallation	princeton_trtdifferential loss correction	single-endedforward channel	channel 2reverse channel	N/Adate	2019/09/14time	23:55:35forward acquisition time	60.00reverse acquisition time	0.00gamma	496.2192k internal	0.2324k external	0.2324temperature offset calibration	1.0048default loss term (dB/km)	0.3790temperature slope calibration	1.0000multiplexer offset coefficient	1.0000multiplexer slope coefficient	1.0000fibre end	0.00T internal ref (°C)	32.25T ext. ref 1 (°C)	4.61T ext. ref 2 (°C)	27.09length (m)	temperature (°C)	Stokes	anti-Stokes-747.200	-175.373	-0.066	-0.002
-746.185	272.262	0.133	0.236
-745.171	800.000	-0.106	-0.403
-744.156	184.286	-0.158	0.235
-743.142	-44.692	0.244	-0.123
-742.127	-110.159	0.195	0.041
-741.112	13.110	0.042	0.033
-740.098	109.600	0.013	0.016
-739.083	800.000	-0.162	0.470
-738.069	225.074	-0.092	0.151
-737.054	110.555	0.211	0.256
-736.039	800.000	-0.015	0.047
-735.025	411.791	0.192	0.412
-734.010	-138.969	-0.163	-0.018
-732.996	660.462	-0.131	-0.341
-731.981	-57.649	-0.215	0.095
-730.966	-200.000	0.037	0.315
-729.952	800.000	-0.057	0.195
-728.937	-128.682	0.059	0.008
-727.923	74.023	-0.133	0.141
-726.908	4.125	-0.202	-0.149
-725.894	-140.643	-0.253	-0.026
-724.879	606.785	-0.153	-0.384
-723.864	264.397	-0.123	-0.216
-722.850	7.250	-0.099	-0.075
-721.835	-185.218	-0.206	0.003
-720.821	800.000	0.062	-0.240
-719.806	22.375	-0.293	-0.241
-718.791	173.928	-0.079	-0.115
-717.777	39.646	0.135	0.122
-716.762	102.117	-0.104	0.123
-715.748	535.869	-0.188	-0.449
-714.733	0.314	0.083	0.060
-713.718	-83.394	-0.234	0.076
-712.704	-64.774	0.327	-0.133
-711.689	105.255	-0.249	-0.297
-710.675	414.896	-0.027	0.057
-709.660	-59.433	0.099	-0.043
-708.645	-71.497	0.142	0.054
-707.631	-82.115	-0.180	-0.059
-706.616	-116.421	-0.101	0.019
-705.602	-200.000	-0.017	-0.164
-704.587	-95.806	-0.283	0.076
-703.572	234.801	0.153	-0.255
-702.558	800.000	0.095	-0.268
-701.543	-200.000	0.063	0.282
-700.529	-83.618	-0.335	0.108
-699.514	-28.073	-0.191	0.111
-698.499	239.415	-0.170	0.284
-697.485	800.000	-0.016	0.069
-696.470	-47.033	-0.357	-0.176
-695.456	83.039	0.052	0.057
-694.441	-186.439	0.562	0.008
-693.426	159.150	0.094	0.132
-692.412	164.112	0.065	-0.092
-691.397	72.121	0.054	0.057
-690.383	-80.612	0.385	0.129
-689.368	14.172	0.121	0.095
-688.354	-20.232	-0.070	-0.043
-687.339	800.000	0.023	-0.089
-686.324	-63.953	-0.208	-0.085
-685.310	87.702	0.097	0.109
-684.295	99.967	-0.250	-0.292
-683.281	4.170	0.089	-0.066
-682.266	-71.857	-0.097	0.036
-681.251	10.710	-0.148	-0.114
-680.237	-67.036	-0.098	-0.039
-679.222	-102.208	0.083	-0.020
-678.208	116.136	-0.110	-0.136
-677.193	-101.380	-0.278	-0.068
-676.178	-200.000	0.007	-0.093
-675.164	-48.462	0.132	-0.064
-674.149	-86.676	-0.079	-0.024
-673.135	352.871	0.109	-0.218
-672.120	-170.165	-0.024	0.001
-671.105	19.267	-0.275	-0.222
-670.091	800.000	0.122	-0.356
-669.076	800.000	-0.057	0.242
-668.062	588.916	0.131	-0.325
-667.047	-79.348	-0.061	0.021
-666.032	343.113	0.167	-0.329
-665.018	-200.000	-0.072	-0.415
-664.003	800.000	0.054	0.191
-662.989	-200.000	-0.059	-0.310
-661.974	254.349	0.079	-0.136
-660.959	-200.000	0.003	0.215
-659.945	223.573	-0.086	0.139
-658.930	416.730	-0.155	0.332
-657.916	-81.942	-0.232	0.076
-656.901	-200.000	0.030	-0.138
-655.886	35.275	0.174	0.154
-654.872	-44.968	-0.111	0.056
-653.857	76.331	0.113	-0.120
-652.843	83.839	-0.037	0.041
-651.828	-58.582	-0.432	-0.189
-650.814	-70.449	0.253	-0.096
-649.799	-200.000	-0.085	-0.585
-648.784	-99.961	-0.241	0.060
-647.770	-26.360	0.188	0.111
-646.755	-124.463	-0.195	0.031
-645.741	134.966	-0.173	0.227
-644.726	193.202	0.061	-0.093
-643.711	176.581	0.102	0.149
-642.697	800.000	-0.098	-0.363
-641.682	-200.000	-0.009	0.048
-640.668	9.993	0.287	0.219
-639.653	-200.000	-0.042	0.199
-638.638	-200.000	-0.030	0.162
-637.624	132.241	0.142	-0.184
-636.609	42.651	-0.049	-0.045
-635.595	140.272	-0.175	0.232
-634.580	-62.525	-0.162	0.067
-633.565	548.789	0.173	-0.416
-632.551	195.019	0.057	-0.087
-631.536	800.000	-0.037	0.132
-630.522	42.433	0.136	0.125
-629.507	32.004	-0.336	-0.291
-628.492	603.523	-0.155	-0.387
-627.478	-108.392	-0.228	0.049
-626.463	188.098	0.143	0.214
-625.449	-6.634	-0.163	-0.112
-624.434	-180.015	-0.141	-0.003
-623.419	-137.399	-0.223	-0.025
-622.405	124.763	-0.120	-0.152
-621.390	-200.000	0.019	0.103
-620.376	88.597	-0.273	0.305
-619.361	800.000	-0.018	-0.078
-618.346	-64.896	0.280	0.114
-617.332	-200.000	0.033	0.345
-616.317	78.422	-0.210	-0.225
-615.303	117.003	0.088	0.108
-614.288	408.007	-0.065	0.139
-613.273	-62.518	-0.199	0.083
-612.259	603.901	-0.075	-0.186
-611.244	-101.129	-0.059	0.014
-610.230	732.399	0.090	-0.242
-609.215	-127.005	-0.217	0.032
-608.201	661.937	-0.080	0.207
-607.186	-136.770	0.154	0.018
-606.171	1.908	0.149	-0.108
-605.157	-200.000	-0.021	-0.150
-604.142	-42.774	-0.239	-0.122
-603.128	166.375	0.055	-0.078
-602.113	69.174	-0.015	-0.015
-601.098	-200.000	0.027	-0.198
-600.084	201.678	-0.181	0.280
-599.069	14.831	0.203	0.159
-598.055	14.188	-0.373	0.292
-597.040	-79.692	0.154	-0.052
-596.025	116.609	-0.244	0.301
-595.011	-120.729	0.291	-0.049
-593.996	194.700	0.197	-0.300
-592.982	309.819	-0.083	-0.156
-591.967	-90.073	0.114	-0.033
-590.952	-11.705	-0.227	-0.150
-589.938	1.241	0.114	-0.082
-588.923	-132.922	-0.472	-0.060
-587.909	800.000	0.064	-0.273
-586.894	-105.823	-0.199	-0.045
-585.879	-200.000	0.015	-0.223
-584.865	-200.000	-0.004	-0.113
-583.850	-10.191	0.220	-0.147
-582.836	-169.978	-0.336	-0.012
-581.821	-94.169	-0.145	-0.040
-580.806	-39.048	0.027	-0.014
-579.792	11.073	-0.420	-0.322
-578.777	252.580	-0.210	0.359
-577.763	0.067	0.083	0.059
-576.748	36.073	-0.345	0.304
-575.733	-87.091	-0.129	-0.039
-574.719	276.827	-0.068	-0.121
-573.704	257.748	-0.125	0.216
-572.690	-128.742	0.186	-0.026
-571.675	-200.000	0.043	0.191
-570.661	-200.000	-0.009	-0.378
-569.646	188.382	-0.146	-0.218
-568.631	-113.630	-0.344	0.067
-567.617	-200.000	0.030	0.174
-566.602	-74.622	-0.218	-0.079
-565.588	42.772	0.057	0.052
-564.573	-101.693	0.228	-0.055
-563.558	45.528	0.135	-0.125
-562.544	260.866	0.093	0.161
-561.529	536.045	-0.001	-0.003
-560.515	-200.000	-0.005	-0.178
-559.500	105.413	-0.083	0.098
-558.485	800.000	-0.034	-0.108
-557.471	-133.181	-0.330	0.042
-556.456	3.060	-0.215	-0.157
-555.442	-11.444	-0.307	0.202
-554.427	800.000	-0.105	-0.339
-553.412	-84.786	-0.104	-0.033
-552.398	-124.575	-0.123	-0.019
-551.383	52.591	0.104	0.099
-550.369	-101.823	0.291	-0.070
-549.354	107.007	-0.387	0.460
-548.339	501.360	-0.207	-0.479
-547.325	-200.000	0.001	0.007
-546.310	-66.870	-0.242	-0.096
-545.296	-71.668	0.229	-0.086
-544.281	-200.000	-0.014	0.342
-543.266	-200.000	-0.008	-0.055
-542.252	-83.721	-0.158	-0.051
-541.237	139.485	0.256	-0.337
-540.223	-200.000	-0.010	-0.068
-539.208	563.641	0.033	-0.079
-538.193	165.690	-0.185	-0.263
-537.179	392.922	-0.071	0.147
-536.164	-128.163	-0.402	0.058
-535.150	34.410	-0.066	0.058
-534.135	-153.094	0.151	0.011
-533.121	780.395	0.087	-0.239
-532.106	18.648	0.433	0.347
-531.091	-200.000	0.003	0.385
-530.077	-35.476	0.122	0.067
-529.062	413.220	0.096	-0.205
-528.048	-200.000	0.005	0.083
-527.033	-35.138	0.225	0.123
-526.018	495.110	0.029	-0.066
-525.004	37.862	-0.086	-0.076
-523.989	-109.056	0.107	0.023
-522.975	267.250	-0.087	-0.152
-521.960	-141.204	0.311	0.032
-520.945	-200.000	-0.008	-0.129
-519.931	-69.248	-0.215	0.083
-518.916	-90.003	0.161	-0.047
-517.902	132.976	0.163	0.210
-516.887	-131.053	-0.193	0.026
-515.872	-27.030	0.242	0.141
-514.858	-200.000	-0.004	-0.079
-513.843	-80.064	0.144	-0.048
-512.829	117.676	-0.073	-0.089
-511.814	-200.000	-0.020	0.212
-510.799	124.222	-0.099	0.124
-509.785	571.878	0.145	-0.352
-508.770	-150.085	-0.305	0.024
-507.756	127.166	0.107	-0.136
-506.741	-145.297	-0.364	0.033
-505.726	274.187	0.027	-0.047
-504.712	-120.951	-0.155	0.026
-503.697	-200.000	-0.051	0.339
-502.683	44.703	-0.132	0.121
-501.668	-109.276	-0.297	0.063
-500.653	-41.651	-0.040	0.021
-499.639	633.276	0.084	-0.213
-498.624	-200.000	0.010	-0.149
-497.610	-24.201	0.136	0.081
-496.595	-200.000	-0.019	-0.155
-495.581	4.301	-0.304	0.222
-494.566	-95.491	-0.365	-0.098
-493.551	122.566	-0.032	0.040
-492.537	-200.000	-0.032	-0.297
-491.522	-65.817	0.419	-0.167
-490.508	-200.000	0.036	-0.167
-489.493	417.907	0.104	-0.223
-488.478	-10.939	0.096	-0.063
-487.464	-72.834	0.046	-0.017
-486.449	444.945	-0.093	-0.205
-485.435	-82.137	-0.219	-0.072
-484.420	338.918	-0.043	0.083
-483.405	-78.147	-0.220	-0.076
-482.391	-143.254	0.157	0.015
-481.376	-76.380	-0.401	-0.141
-480.362	-200.000	-0.050	-0.227
-479.347	-9.826	0.179	-0.119
-478.332	-48.122	0.027	0.013
-477.318	-200.000	0.011	-0.144
-476.303	682.509	-0.036	-0.093
-475.289	36.323	-0.058	-0.051
-474.274	-152.679	-0.221	-0.016
-473.259	158.787	-0.044	0.061
-472.245	449.798	0.037	0.082
-471.230	-125.589	-0.208	0.032
-470.216	-34.687	0.141	0.077
-469.201	-200.000	0.025	-0.152
-468.186	-196.938	0.154	0.001
-467.172	90.083	-0.257	0.287
-466.157	10.143	-0.378	-0.287
-465.143	-200.000	-0.020	-0.310
-464.128	132.873	-0.196	-0.253
-463.113	-138.023	0.082	0.009
-462.099	-69.497	-0.253	0.097
-461.084	-200.000	0.019	-0.312
-460.070	636.443	-0.038	0.097
-459.055	-54.275	-0.157	0.071
-458.040	-110.962	0.231	-0.047
-457.026	-157.756	-0.231	-0.014
-456.011	-200.000	-0.009	-0.287
-454.997	320.021	-0.085	0.161
-453.982	-200.000	0.023	0.278
-452.968	79.455	0.216	-0.232
-451.953	694.417	0.023	0.059
-450.938	-42.725	0.090	0.045
-449.924	427.822	0.011	0.023
-448.909	61.939	-0.117	-0.117
-447.895	108.716	-0.309	-0.368
-446.880	-127.426	-0.117	0.017
-445.865	724.104	0.129	-0.342
-444.851	770.809	-0.118	0.321
-443.836	-6.294	-0.236	-0.160
-442.822	362.179	-0.085	-0.169
-441.807	96.247	0.226	-0.258
-440.792	70.596	-0.089	0.092
-439.778	133.237	0.122	0.157
-438.763	47.066	0.350	-0.325
-437.749	800.000	0.048	-0.160
-436.734	-124.604	-0.044	0.007
-435.719	-108.319	0.215	0.046
-434.705	-115.832	0.161	0.030
-433.690	22.447	0.069	0.056
-432.676	84.917	-0.074	0.080
-431.661	-122.011	0.430	-0.070
-430.646	284.823	0.036	0.065
-429.632	108.845	0.086	0.103
-428.617	-93.605	-0.225	-0.062
-427.603	-73.599	0.208	0.075
-426.588	312.333	0.113	-0.211
-425.573	12.025	-0.199	0.153
-424.559	-90.127	-0.126	0.036
-423.544	-200.000	-0.002	0.152
-422.530	-98.507	-0.224	-0.057
-421.515	58.167	-0.181	0.177
-420.500	21.111	-0.102	0.082
-419.486	-11.966	0.310	-0.203
-418.471	17.511	-0.036	0.029
-417.457	-107.741	-0.092	-0.020
-416.442	-200.000	-0.007	-0.216
-415.428	-10.939	0.224	-0.147
-414.413	-134.232	0.220	-0.027
-413.398	269.661	-0.222	0.389
-412.384	232.111	0.073	0.120
-411.369	86.210	-0.248	0.272
-410.355	-200.000	0.010	-0.186
-409.340	-89.594	0.305	0.089
-408.325	39.659	0.254	0.227
-407.311	65.865	0.220	0.222
-406.296	130.312	-0.036	0.045
-405.282	-200.000	0.027	-0.366
-404.267	-200.000	-0.037	-0.398
-403.252	800.000	-0.108	0.317
-402.238	-112.330	0.345	-0.069
-401.223	495.325	0.043	0.098
-400.209	800.000	0.044	0.129
-399.194	23.921	0.144	0.119
-398.179	64.518	-0.103	-0.103
-397.165	-200.000	0.019	0.234
-396.150	60.809	0.208	0.205
-395.136	-57.840	-0.282	0.123
-394.121	-200.000	0.057	0.446
-393.106	-200.000	-0.002	0.310
-392.092	419.120	0.149	0.318
-391.077	-200.000	0.004	0.184
-390.063	-200.000	-0.035	-0.219
-389.048	-98.955	0.126	0.032
-388.033	-128.838	0.355	-0.050
-387.019	800.000	-0.064	0.204
-386.004	105.976	0.043	0.050
-384.990	-116.865	-0.240	0.044
-383.975	-68.058	0.222	0.086
-382.960	77.602	0.183	0.194
-381.946	-83.384	0.245	-0.078
-380.931	-200.000	0.007	-0.068
-379.917	800.000	-0.099	-0.286
-378.902	43.212	0.345	-0.313
-377.888	17.721	0.111	0.088
-376.873	-200.000	0.004	0.043
-375.858	-185.601	0.313	0.005
-374.844	800.000	0.124	-0.381
-373.829	-6.796	0.127	0.086
-372.815	8.843	0.040	0.030
-371.800	-155.444	0.263	-0.017
-370.785	800.000	-0.051	-0.144
-369.771	-200.000	0.025	0.359
-368.756	-29.717	0.150	-0.085
-367.742	-40.030	0.080	-0.041
-366.727	421.333	0.102	0.219
-365.712	175.804	-0.106	-0.153
-364.698	153.291	-0.085	0.115
-363.683	-44.855	-0.090	0.044
-362.669	13.482	-0.056	0.043
-361.654	-15.311	0.063	-0.040
-360.639	-63.767	-0.206	-0.084
-359.625	-141.910	0.534	0.053
-358.610	-200.000	0.039	-0.214
-357.596	28.348	-0.182	0.153
-356.581	-32.250	-0.368	0.204
-355.566	-116.439	0.192	-0.035
-354.552	429.011	0.085	0.182
-353.537	-96.928	-0.140	0.036
-352.523	-200.000	0.004	0.348
-351.508	-68.854	-0.280	0.108
-350.493	-70.731	0.314	0.118
-349.479	800.000	-0.029	-0.109
-348.464	-200.000	-0.000	0.059
-347.450	199.039	0.077	-0.117
-346.435	800.000	-0.053	-0.163
-345.420	-68.563	-0.316	0.122
-344.406	-84.164	0.141	0.044
-343.391	-200.000	-0.027	0.334
-342.377	-200.000	-0.001	-0.030
-341.362	-200.000	0.003	-0.200
-340.348	22.200	0.117	-0.095
-339.333	-57.601	-0.298	0.130
-338.318	56.497	0.058	0.056
-337.304	-94.722	0.384	0.103
-336.289	41.357	-0.081	0.073
-335.275	146.147	-0.099	-0.132
-334.260	157.775	0.162	0.223
-333.245	-43.436	-0.270	-0.136
-332.231	-44.431	-0.147	0.073
-331.216	197.321	0.095	-0.145
-330.202	-69.930	0.174	-0.066
-329.187	-200.000	-0.029	0.288
-328.172	-146.238	0.105	0.009
-327.158	800.000	0.108	0.459
-326.143	800.000	0.072	0.296
-325.129	-85.810	-0.148	0.045
-324.114	-172.322	0.174	-0.006
-323.099	-19.421	-0.119	-0.073
-322.085	253.240	-0.115	0.195
-321.070	206.890	0.194	-0.301
-320.056	-200.000	-0.031	-0.206
-319.041	-22.416	0.052	-0.031
-318.026	800.000	-0.048	-0.134
-317.012	-152.168	-0.292	0.021
-315.997	-13.103	0.138	0.089
-314.983	-60.452	0.299	0.126
-313.968	109.948	0.265	-0.316
-312.953	800.000	0.045	-0.157
-311.939	-146.492	-0.043	-0.004
-310.924	348.174	-0.147	-0.288
-309.910	-45.306	0.054	0.027
-308.895	28.650	-0.247	-0.207
-307.880	-129.079	-0.205	0.028
-306.866	-150.543	-0.280	-0.021
-305.851	-200.000	0.062	0.381
-304.837	39.546	0.135	0.120
-303.822	-200.000	0.037	0.185
-302.807	-137.357	-0.170	-0.019
-301.793	800.000	-0.023	-0.089
-300.778	-200.000	-0.055	-0.364
-299.764	-39.030	0.143	0.075
-298.749	-200.000	-0.019	0.123
-297.735	72.407	-0.023	-0.023
-296.720	431.228	0.120	-0.258
-295.705	73.945	0.065	0.068
-294.691	-5.561	0.165	0.112
-293.676	398.548	0.052	-0.107
-292.662	-166.392	-0.150	-0.006
-291.647	-66.487	-0.104	-0.041
-290.632	-29.709	-0.136	0.077
-289.618	-61.123	-0.400	0.168
-288.603	-96.734	-0.247	0.064
-287.589	800.000	0.071	0.240
-286.574	247.219	0.179	0.300
-285.559	-40.796	-0.246	0.126
-284.545	68.925	-0.166	-0.169
-283.530	4.319	0.102	0.074
-282.516	800.000	-0.100	0.350
-281.501	-139.562	0.232	0.025
-280.486	-114.046	0.523	0.100
-279.472	80.728	-0.100	-0.107
-278.457	-6.975	-0.211	0.142
-277.443	516.526	-0.028	0.066
-276.428	443.863	0.183	0.397
-275.413	-97.422	0.255	0.066
-274.399	-12.781	0.033	-0.021
-273.384	471.012	-0.126	0.281
-272.370	-200.000	0.023	0.273
-271.355	81.749	-0.182	-0.195
-270.340	-69.773	-0.320	-0.121
-269.326	49.615	0.341	-0.318
-268.311	-92.601	0.264	0.074
-267.297	53.303	-0.093	-0.089
-266.282	-4.759	0.392	0.268
-265.267	44.978	-0.299	-0.273
-264.253	-200.000	-0.033	0.193
-263.238	31.096	-0.058	0.049
-262.224	-55.770	-0.289	0.128
-261.209	-165.087	0.321	-0.014
-260.195	-64.639	0.272	0.109
-259.180	378.632	0.068	-0.139
-258.165	-84.795	0.167	0.052
-257.151	4.786	0.233	0.169
-256.136	617.137	0.123	-0.305
-255.122	-200.000	0.004	-0.209
-254.107	181.473	-0.165	0.240
-253.092	-200.000	0.019	-0.208
-252.078	-45.367	-0.280	-0.137
-251.063	800.000	-0.137	0.375
-250.049	-130.425	0.181	-0.024
-249.034	699.193	-0.120	-0.311
-248.019	173.617	-0.096	-0.137
-247.005	-131.082	0.091	-0.012
-245.990	-63.574	0.125	0.051
-244.976	-18.889	-0.120	0.074
-243.961	163.894	0.053	-0.073
-242.946	63.480	-0.170	-0.169
-241.932	-34.484	-0.070	0.038
-240.917	-158.501	0.019	-0.001
-239.903	-137.434	-0.047	-0.005
-238.888	133.066	0.060	0.076
-237.873	60.467	0.259	-0.253
-236.859	123.349	0.259	-0.321
-235.844	-139.871	0.126	0.013
-234.830	-60.041	0.554	-0.234
-233.815	-65.291	0.172	-0.069
-232.800	800.000	0.114	0.346
-231.786	-34.760	-0.214	0.116
-230.771	-108.224	0.292	-0.062
-229.757	-50.689	0.134	-0.063
-228.742	800.000	-0.020	-0.077
-227.727	745.991	0.012	0.032
-226.713	-74.164	-0.058	0.021
-225.698	800.000	0.061	-0.192
-224.684	704.565	0.088	0.231
-223.669	53.249	0.279	0.265
-222.655	-58.563	-0.135	-0.058
-221.640	180.714	0.220	-0.319
-220.625	-200.000	0.016	0.251
-219.611	33.473	-0.184	-0.158
-218.596	800.000	-0.103	0.317
-217.582	-125.602	-0.064	0.010
-216.567	800.000	-0.077	-0.267
-215.552	-119.642	0.353	0.060
-214.538	-0.348	-0.032	0.022
-213.523	-92.522	-0.299	-0.083
-212.509	-200.000	-0.052	-0.402
-211.494	-128.289	0.396	0.056
-210.479	72.203	-0.058	0.060
-209.465	-70.679	0.088	-0.033
-208.450	62.440	0.276	-0.273
-207.436	-135.681	-0.161	-0.019
-206.421	-37.447	-0.044	0.023
-205.406	-200.000	0.025	0.112
-204.392	-118.195	-0.292	-0.051
-203.377	800.000	0.062	-0.207
-202.363	-13.639	0.184	0.118
-201.348	-62.943	-0.095	0.039
-200.333	-159.042	0.233	0.013
-199.319	-70.018	0.166	-0.062
-198.304	-200.000	0.039	0.244
-197.290	-93.358	0.181	-0.050
-196.275	148.734	0.223	-0.298
-195.260	-16.265	-0.247	-0.155
-194.246	2.537	0.212	-0.152
-193.231	55.481	0.145	0.138
-192.217	-80.535	0.226	0.074
-191.202	278.048	-0.125	0.221
-190.187	-47.697	-0.265	0.127
-189.173	52.660	-0.109	-0.103
-188.158	-165.957	0.115	0.005
-187.144	-200.000	0.032	0.216
-186.129	126.988	0.247	-0.310
-185.114	35.507	-0.182	0.157
-184.100	-200.000	0.010	0.246
-183.085	63.206	0.167	0.165
-182.071	7.056	0.165	0.121
-181.056	-55.232	-0.100	0.045
-180.042	-56.467	-0.264	0.116
-179.027	355.237	0.087	0.170
-178.012	235.450	0.110	0.180
-176.998	-131.230	0.248	-0.033
-175.983	-62.794	-0.418	-0.171
-174.969	800.000	0.030	0.120
-173.954	-116.118	-0.156	-0.029
-172.939	571.339	-0.093	-0.223
-171.925	-24.791	0.115	-0.068
-170.910	248.675	0.121	-0.202
-169.896	-4.272	0.033	-0.023
-168.881	37.899	-0.113	0.099
-167.866	22.076	0.129	0.104
-166.852	395.340	0.051	0.105
-165.837	566.114	0.032	-0.077
-164.823	-2.852	0.288	0.199
-163.808	-73.080	0.114	-0.041
-162.793	12.793	-0.129	-0.098
-161.779	581.994	0.095	-0.231
-160.764	-200.000	-0.011	-0.154
-159.750	206.870	-0.125	0.192
-158.735	-57.791	-0.107	0.046
-157.720	170.336	0.164	0.232
-156.706	110.244	0.093	0.110
-155.691	-95.606	-0.178	-0.047
-154.677	21.398	0.137	0.110
-153.662	615.632	0.060	-0.149
-152.647	-200.000	0.010	0.362
-151.633	-114.728	0.212	0.040
-150.618	101.814	0.220	-0.253
-149.604	44.944	-0.080	0.072
-148.589	20.409	-0.280	0.223
-147.574	476.405	-0.037	0.082
-146.560	126.109	-0.131	-0.163
-145.545	800.000	0.079	-0.307
-144.531	-66.569	0.318	0.124
-143.516	57.082	-0.203	-0.195
-142.502	74.315	0.076	0.079
-141.487	638.719	-0.106	-0.267
-140.472	-99.516	-0.118	0.029
-139.458	-98.266	0.319	0.081
-138.443	-81.950	0.205	-0.066
-137.429	-200.000	-0.004	-0.028
-136.414	163.291	-0.069	0.095
-135.399	6.603	-0.178	0.131
-134.385	-135.235	0.122	-0.014
-133.370	800.000	-0.083	0.254
-132.356	-200.000	0.014	0.133
-131.341	33.049	-0.107	0.091
-130.326	173.132	0.042	0.060
-129.312	-100.616	-0.218	0.053
-128.297	18.678	0.136	0.107
-127.283	7.059	0.138	0.102
-126.268	136.160	0.101	0.130
-125.253	-200.000	0.034	0.193
-124.239	-64.780	0.318	0.127
-123.224	242.925	0.056	0.092
-122.210	-139.876	0.362	-0.038
-121.195	276.273	0.153	-0.268
-120.180	-200.000	-0.037	-0.392
