DTS Sentinel unit serial number:	SN413079Multiplexer serial number:	ORYXHardware model number:	OX4-SRSoftware version number:	ORYX F/W v4.00 Oryx Data Collector v3.7.2.0data status	okinstallation	princeton_trtdifferential loss correction	single-endedforward channel	channel 2reverse channel	N/Adate	2019/09/18time	04:51:35forward acquisition time	60.00reverse acquisition time	0.00gamma	496.2192k internal	0.2348k external	0.2348temperature offset calibration	0.9985default loss term (dB/km)	0.3790temperature slope calibration	1.0000multiplexer offset coefficient	1.0000multiplexer slope coefficient	1.0000fibre end	0.00T internal ref (°C)	23.44T ext. ref 1 (°C)	0.17T ext. ref 2 (°C)	18.02length (m)	temperature (°C)	Stokes	anti-Stokes-747.200	-47.863	0.136	0.066
-746.185	99.211	-0.214	0.247
-745.171	-126.146	-0.235	-0.035
-744.156	-200.000	-0.049	0.335
-743.142	-136.051	0.180	-0.021
-742.127	554.907	-0.085	0.205
-741.112	-76.706	-0.094	-0.033
-740.098	312.549	-0.142	0.267
-739.083	800.000	0.066	0.256
-738.069	-200.000	0.007	0.258
-737.054	24.938	0.189	0.156
-736.039	-88.676	-0.526	0.156
-735.025	-118.763	0.258	0.045
-734.010	-200.000	0.041	-0.260
-732.996	-17.167	-0.218	-0.137
-731.981	-188.423	0.168	0.002
-730.966	-200.000	-0.008	-0.201
-729.952	213.580	-0.222	-0.351
-728.937	-122.481	-0.208	-0.034
-727.923	135.206	0.081	-0.105
-726.908	-102.298	-0.272	-0.065
-725.894	16.682	-0.130	0.103
-724.879	367.120	0.058	0.116
-723.864	633.997	0.052	-0.132
-722.850	-132.221	0.181	-0.023
-721.835	-184.130	0.205	-0.003
-720.821	304.969	0.053	-0.098
-719.806	-200.000	0.047	-0.214
-718.791	122.516	-0.066	0.083
-717.777	118.823	-0.132	-0.163
-716.762	611.244	-0.091	0.228
-715.748	39.681	-0.188	-0.169
-714.733	-25.591	0.198	0.117
-713.718	248.846	0.153	0.258
-712.704	-55.969	-0.276	-0.123
-711.689	-47.770	-0.330	0.160
-710.675	-200.000	0.036	0.166
-709.660	370.409	-0.051	0.103
-708.645	411.596	-0.049	-0.103
-707.631	-165.428	0.099	0.004
-706.616	16.275	0.239	0.188
-705.602	800.000	0.073	-0.280
-704.587	800.000	-0.109	-0.414
-703.572	-56.771	0.139	0.061
-702.558	800.000	-0.041	-0.172
-701.543	448.447	0.163	-0.359
-700.529	-131.412	-0.185	0.024
-699.514	53.308	0.166	0.159
-698.499	10.322	0.013	0.010
-697.485	800.000	0.070	-0.195
-696.470	31.692	0.061	-0.053
-695.456	-121.634	0.202	0.033
-694.441	-2.985	-0.208	0.145
-693.426	800.000	0.027	0.094
-692.412	-33.242	-0.179	0.099
-691.397	-136.543	-0.427	0.049
-690.383	45.723	0.318	0.293
-689.368	511.074	0.025	-0.058
-688.354	623.997	0.030	-0.077
-687.339	746.597	-0.094	-0.253
-686.324	-72.642	-0.231	0.085
-685.310	-200.000	0.034	-0.372
-684.295	457.983	-0.048	-0.107
-683.281	-33.951	-0.146	0.080
-682.266	800.000	-0.067	-0.190
-681.251	215.345	-0.261	-0.412
-680.237	-114.168	-0.342	-0.066
-679.222	123.492	0.043	-0.053
-678.208	178.580	-0.129	0.188
-677.193	-36.646	-0.127	-0.068
-676.178	-94.494	0.321	0.087
-675.164	-63.610	0.259	0.106
-674.149	-37.378	0.172	0.092
-673.135	92.125	-0.146	-0.164
-672.120	800.000	-0.044	-0.122
-671.105	330.022	0.104	-0.200
-670.091	-113.588	0.160	-0.031
-669.076	373.340	0.052	-0.106
-668.062	-26.292	0.064	0.037
-667.047	223.064	0.160	-0.258
-666.032	-49.982	-0.078	0.037
-665.018	-200.000	-0.022	-0.205
-664.003	800.000	-0.056	0.163
-662.989	544.119	-0.059	-0.140
-661.974	294.822	-0.029	-0.053
-660.959	-28.535	-0.018	-0.010
-659.945	223.375	0.081	0.130
-658.930	-85.244	0.156	0.049
-657.916	800.000	0.077	0.297
-656.901	-51.253	-0.179	0.084
-655.886	-30.802	-0.187	0.105
-654.872	208.024	-0.151	-0.235
-653.857	9.814	0.163	-0.123
-652.843	287.402	0.133	0.239
-651.828	800.000	0.073	0.264
-650.814	-112.094	0.403	-0.081
-649.799	27.091	-0.163	-0.136
-648.784	-191.841	0.307	0.003
-647.770	406.466	-0.077	-0.162
-646.755	14.811	-0.206	-0.160
-645.741	-68.585	0.342	0.132
-644.726	-200.000	0.009	-0.152
-643.711	-12.629	0.187	-0.121
-642.697	-200.000	-0.017	-0.207
-641.682	-106.680	-0.284	-0.063
-640.668	800.000	0.056	0.173
-639.653	68.501	0.156	-0.159
-638.638	800.000	-0.030	-0.127
-637.624	26.419	0.064	-0.053
-636.609	264.861	0.051	-0.089
-635.595	80.435	0.138	0.147
-634.580	-200.000	-0.002	-0.044
-633.565	-51.316	0.257	-0.120
-632.551	102.187	0.110	-0.127
-631.536	-16.430	0.314	-0.198
-630.522	777.153	-0.191	-0.518
-629.507	104.232	0.048	-0.057
-628.492	800.000	-0.030	0.096
-627.478	800.000	-0.005	0.019
-626.463	84.384	-0.325	-0.353
-625.449	-200.000	0.049	0.305
-624.434	66.879	0.056	0.057
-623.419	262.266	-0.072	-0.124
-622.405	84.228	-0.188	0.205
-621.390	-126.220	-0.241	-0.036
-620.376	-200.000	0.030	0.202
-619.361	269.067	0.035	-0.062
-618.346	-200.000	-0.023	0.225
-617.332	-200.000	0.037	0.227
-616.317	-173.306	-0.368	-0.011
-615.303	114.358	-0.081	-0.098
-614.288	83.846	-0.341	-0.370
-613.273	-136.309	-0.343	-0.040
-612.259	-200.000	0.018	-0.119
-611.244	-200.000	-0.014	-0.093
-610.230	-15.078	0.110	0.070
-609.215	-66.580	-0.118	-0.046
-608.201	-55.067	0.197	0.088
-607.186	21.493	-0.288	0.233
-606.171	-108.389	0.194	0.042
-605.157	43.981	-0.293	-0.267
-604.142	298.079	-0.131	-0.239
-603.128	-88.944	0.162	0.048
-602.113	-20.909	-0.155	0.094
-601.098	477.219	-0.091	-0.205
-600.084	50.879	0.181	-0.171
-599.069	-200.000	0.023	-0.335
-598.055	12.449	0.099	0.075
-597.040	-200.000	0.032	-0.211
-596.025	-200.000	0.032	0.375
-595.011	800.000	0.019	0.085
-593.996	-82.937	0.304	0.097
-592.982	81.687	0.060	-0.065
-591.967	800.000	-0.030	0.126
-590.952	-99.862	0.308	0.077
-589.938	81.968	-0.198	0.213
-588.923	18.911	-0.243	0.194
-587.909	-200.000	0.017	-0.277
-586.894	212.371	0.090	-0.140
-585.879	-124.424	-0.270	0.042
-584.865	-100.809	0.279	-0.068
-583.850	225.107	-0.163	0.263
-582.836	-162.539	0.326	-0.016
-581.821	-17.278	-0.294	-0.184
-580.806	32.314	0.157	-0.134
-579.792	800.000	0.015	0.058
-578.777	129.605	-0.104	-0.132
-577.763	-200.000	0.026	0.145
-576.748	-142.568	-0.158	0.015
-575.733	94.782	0.213	0.240
-574.719	800.000	0.029	-0.096
-573.704	-164.870	-0.338	0.015
-572.690	7.809	0.113	-0.084
-571.675	75.769	-0.055	-0.058
-570.661	219.476	0.057	-0.090
-569.646	64.772	0.160	-0.161
-568.631	-200.000	0.032	0.332
-567.617	343.834	-0.050	0.097
-566.602	-200.000	0.018	0.230
-565.588	-174.613	-0.206	0.006
-564.573	281.926	0.203	0.361
-563.558	-100.407	0.179	-0.044
-562.544	-31.013	-0.508	0.285
-561.529	93.571	0.143	0.161
-560.515	48.383	-0.262	0.243
-559.500	-130.939	-0.293	0.039
-558.485	186.107	0.035	0.052
-557.471	51.064	-0.070	-0.066
-556.456	-135.109	0.459	-0.055
-555.442	59.637	0.263	0.258
-554.427	-104.380	0.152	-0.035
-553.412	-74.533	-0.255	0.091
-552.398	88.115	-0.183	-0.201
-551.383	541.071	-0.060	0.142
-550.369	162.301	0.143	-0.199
-549.354	509.306	-0.110	0.253
-548.339	-122.771	0.115	0.018
-547.325	-151.054	0.217	0.016
-546.310	138.638	-0.119	0.155
-545.296	154.685	0.036	0.050
-544.281	800.000	0.077	0.248
-543.266	320.227	0.078	-0.147
-542.252	10.515	-0.214	0.162
-541.237	13.859	-0.215	-0.166
-540.223	-200.000	-0.018	0.360
-539.208	-25.247	0.086	0.051
-538.193	-130.416	-0.232	-0.031
-537.179	-200.000	0.004	0.194
-536.164	7.926	-0.223	-0.166
-535.150	-60.837	0.227	0.095
-534.135	-200.000	0.038	0.285
-533.121	-122.584	0.231	-0.037
-532.106	50.469	0.112	-0.105
-531.091	800.000	-0.056	-0.171
-530.077	71.851	-0.174	-0.180
-529.062	800.000	-0.057	-0.189
-528.048	-19.654	0.169	-0.103
-527.033	63.018	-0.148	-0.147
-526.018	-159.950	0.160	0.009
-525.004	800.000	0.051	0.185
-523.989	83.974	-0.110	0.119
-522.975	-114.732	0.340	-0.064
-521.960	164.454	0.234	-0.327
-520.945	9.849	-0.361	-0.271
-519.931	85.235	0.141	0.153
-518.916	-58.218	0.069	0.030
-517.902	-96.237	-0.329	0.086
-516.887	-100.957	-0.105	-0.026
-515.872	-40.792	0.382	-0.196
-514.858	77.815	0.125	-0.132
-513.843	-200.000	0.035	-0.163
-512.829	-56.759	-0.148	0.065
-511.814	-85.418	0.229	-0.071
-510.799	-200.000	0.013	-0.125
-509.785	-200.000	0.007	0.035
-508.770	-200.000	0.002	0.158
-507.756	128.455	0.150	-0.190
-506.741	126.892	0.092	-0.115
-505.726	-129.660	-0.378	-0.052
-504.712	-200.000	-0.022	0.096
-503.697	-152.138	-0.059	-0.004
-502.683	-109.057	0.171	0.036
-501.668	94.265	-0.071	-0.079
-500.653	3.995	0.158	-0.114
-499.639	-37.320	0.290	0.153
-498.624	-200.000	-0.010	0.102
-497.610	-190.005	0.059	0.001
-496.595	800.000	-0.051	-0.156
-495.581	-59.172	-0.204	-0.087
-494.566	448.056	0.033	-0.071
-493.551	108.776	-0.238	-0.282
-492.537	-35.551	0.239	-0.128
-491.522	-184.211	0.331	0.005
-490.508	-93.610	0.277	-0.076
-489.493	-45.032	-0.370	0.182
-488.478	-200.000	-0.001	-0.018
-487.464	55.756	-0.168	0.161
-486.449	-58.531	0.270	0.116
-485.435	-36.597	0.194	0.103
-484.420	45.295	0.224	0.204
-483.405	800.000	-0.094	-0.318
-482.391	-81.643	0.230	-0.075
-481.376	-200.000	0.006	-0.101
-480.362	-45.221	0.287	-0.141
-479.347	203.030	-0.015	-0.023
-478.332	800.000	-0.028	0.083
-477.318	233.864	-0.132	-0.215
-476.303	-62.661	-0.295	-0.121
-475.289	-200.000	-0.033	-0.165
-474.274	-80.741	0.239	-0.079
-473.259	-200.000	-0.042	0.194
-472.245	-108.682	0.315	0.067
-471.230	-120.716	0.079	0.013
-470.216	42.662	0.107	0.097
-469.201	-183.213	0.107	-0.002
-468.186	-17.348	0.131	0.082
-467.172	-38.232	0.123	0.065
-466.157	-200.000	-0.017	0.191
-465.143	-200.000	0.026	-0.249
-464.128	800.000	-0.049	0.155
-463.113	-76.644	0.173	-0.060
-462.099	-200.000	0.007	-0.127
-461.084	800.000	-0.031	0.114
-460.070	457.182	0.080	0.175
-459.055	667.051	0.030	0.077
-458.040	603.036	0.056	-0.137
-457.026	-109.203	0.104	-0.022
-456.011	97.010	-0.101	-0.114
-454.997	-46.979	0.256	-0.124
-453.982	300.354	0.047	-0.086
-452.968	181.009	-0.149	0.216
-451.953	636.871	0.026	-0.065
-450.938	53.205	-0.112	0.106
-449.924	800.000	0.113	0.335
-448.909	-200.000	0.002	-0.171
-447.895	-200.000	0.020	0.130
-446.880	166.820	-0.147	0.206
-445.865	-68.141	0.277	-0.107
-444.851	147.635	0.171	-0.228
-443.836	60.713	-0.088	0.087
-442.822	-163.838	-0.134	-0.006
-441.807	585.539	-0.151	0.366
-440.792	-2.776	0.279	0.193
-439.778	364.834	0.142	-0.283
-438.763	91.631	-0.122	0.136
-437.749	-168.296	0.339	-0.013
-436.734	96.936	-0.086	0.098
-435.719	83.360	-0.093	-0.100
-434.705	-200.000	-0.008	0.052
-433.690	-61.839	0.163	-0.067
-432.676	86.466	0.337	0.366
-431.661	-128.105	-0.094	0.013
-430.646	-49.203	0.323	-0.152
-429.632	800.000	-0.026	0.077
-428.617	544.988	0.192	0.453
-427.603	262.167	0.217	0.372
-426.588	154.780	0.061	-0.082
-425.573	-106.772	0.073	-0.016
-424.559	622.499	0.130	-0.324
-423.544	-200.000	0.010	0.060
-422.530	357.764	-0.058	-0.115
-421.515	-106.925	-0.104	-0.023
-420.500	-37.120	-0.083	-0.044
-419.486	41.819	0.262	0.235
-418.471	-1.485	0.058	0.040
-417.457	-200.000	0.029	-0.240
-416.442	-200.000	-0.007	0.047
-415.428	800.000	-0.066	-0.249
-414.413	-94.564	-0.228	0.061
-413.398	95.592	-0.088	-0.099
-412.384	209.171	0.145	-0.224
-411.369	-50.354	-0.318	0.148
-410.355	120.448	-0.284	0.348
-409.340	-70.251	0.279	0.104
-408.325	247.541	-0.105	0.174
-407.311	-200.000	-0.024	-0.202
-406.296	99.418	-0.200	0.228
-405.282	-134.642	0.074	-0.009
-404.267	-200.000	0.018	0.084
-403.252	800.000	0.058	0.191
-402.238	-200.000	-0.025	0.157
-401.223	-135.725	0.172	0.020
-400.209	-61.585	-0.067	-0.028
-399.194	800.000	0.038	-0.105
-398.179	-37.294	0.083	-0.044
-397.165	-173.579	-0.115	-0.003
-396.150	76.421	0.134	0.140
-395.136	-121.527	0.177	-0.029
-394.121	-130.945	-0.222	0.029
-393.106	-200.000	-0.130	0.000
-392.092	-5.740	-0.082	-0.055
-391.077	114.133	-0.104	-0.124
-390.063	24.851	-0.049	0.040
-389.048	-130.799	0.371	0.049
-388.033	146.678	0.163	-0.216
-387.019	-178.310	0.186	-0.004
-386.004	-10.397	-0.278	0.181
-384.990	-81.022	-0.120	-0.039
-383.975	50.296	-0.099	-0.093
-382.960	-181.838	0.206	0.004
-381.946	-200.000	-0.020	-0.182
-380.931	453.290	0.097	0.211
-379.917	652.854	-0.068	0.172
-378.902	330.979	-0.030	0.056
-377.888	61.895	0.223	0.219
-376.873	-200.000	-0.011	-0.366
-375.858	-107.733	0.476	0.102
-374.844	800.000	-0.067	0.237
-373.829	-147.318	0.156	-0.013
-372.815	-13.384	-0.203	-0.130
-371.800	87.305	-0.109	0.119
-370.785	-14.430	-0.112	0.071
-369.771	-49.300	-0.385	-0.181
-368.756	-125.750	-0.148	-0.022
-367.742	277.223	0.040	0.070
-366.727	31.317	-0.301	-0.254
-365.712	-132.595	0.304	-0.038
-364.698	-59.144	-0.152	0.064
-363.683	190.096	0.150	0.222
-362.669	129.023	0.019	0.024
-361.654	-33.163	0.300	-0.164
-360.639	15.657	-0.133	-0.103
-359.625	-104.518	-0.075	-0.017
-358.610	33.129	-0.365	-0.311
-357.596	265.091	-0.056	0.096
-356.581	612.316	-0.143	0.352
-355.566	-200.000	-0.004	0.343
-354.552	-103.634	-0.191	-0.044
-353.537	243.318	-0.054	-0.089
-352.523	12.385	-0.208	0.158
-351.508	11.904	0.252	0.191
-350.493	-147.645	-0.106	-0.009
-349.479	-152.915	-0.146	0.010
-348.464	800.000	0.029	0.116
-347.450	-200.000	0.072	0.394
-346.435	356.395	-0.054	-0.106
-345.420	-167.508	-0.160	0.006
-344.406	174.867	0.130	-0.185
-343.391	-20.371	0.160	0.097
-342.377	-19.844	-0.181	-0.110
-341.362	-172.151	-0.180	0.006
-340.348	-200.000	0.040	-0.200
-339.333	-113.457	-0.117	0.023
-338.318	-200.000	0.048	-0.212
-337.304	0.322	-0.337	-0.237
-336.289	339.342	-0.067	-0.128
-335.275	-200.000	-0.007	-0.101
-334.260	769.529	-0.098	0.261
-333.245	-53.837	0.200	-0.090
-332.231	-189.705	0.173	0.002
-331.216	3.730	-0.176	0.126
-330.202	-200.000	-0.039	0.217
-329.187	-102.078	-0.381	-0.090
-328.172	426.957	-0.079	-0.168
-327.158	800.000	-0.032	0.109
-326.143	-56.637	-0.261	-0.114
-325.129	-200.000	-0.016	-0.259
-324.114	-200.000	0.014	-0.308
-323.099	72.736	0.093	0.095
-322.085	184.906	0.172	-0.251
-321.070	159.967	0.228	-0.313
-320.056	238.463	-0.056	0.091
-319.041	4.160	0.129	0.092
-318.026	222.292	-0.206	0.325
-317.012	64.779	-0.060	0.060
-315.997	-200.000	-0.021	0.221
-314.983	-200.000	-0.034	0.225
-313.968	800.000	-0.081	-0.259
-312.953	8.269	-0.132	0.098
-311.939	54.965	-0.245	0.233
-310.924	-200.000	-0.008	-0.178
-309.910	-50.786	-0.083	0.038
-308.895	49.760	-0.215	0.199
-307.880	-73.389	-0.214	-0.077
-306.866	11.457	0.535	-0.403
-305.851	-124.666	-0.238	0.036
-304.837	-161.155	-0.123	0.006
-303.822	165.864	0.141	0.196
-302.807	-107.332	-0.070	0.015
-301.793	-46.014	0.256	-0.124
-300.778	-181.453	0.159	-0.003
-299.764	-200.000	-0.063	-0.310
-298.749	-74.007	0.146	0.052
-297.735	-200.000	-0.025	0.221
-296.720	-124.162	-0.329	0.051
-295.705	-200.000	0.045	-0.348
-294.691	216.859	0.137	-0.214
-293.676	-200.000	0.061	0.400
-292.662	-200.000	-0.039	0.373
-291.647	269.106	-0.074	0.128
-290.632	800.000	0.027	0.081
-289.618	37.519	-0.274	0.239
-288.603	800.000	-0.026	0.084
-287.589	-200.000	-0.042	0.276
-286.574	-21.998	0.110	-0.066
-285.559	-200.000	0.024	-0.171
-284.545	-90.543	-0.349	0.099
-283.530	-200.000	0.021	-0.300
-282.516	-32.229	0.215	0.118
-281.501	18.818	-0.392	0.308
-280.486	-39.300	0.079	-0.040
-279.472	-17.644	-0.158	-0.097
-278.457	521.720	0.029	-0.066
-277.443	-71.696	-0.376	-0.138
-276.428	-200.000	-0.045	-0.215
-275.413	87.990	0.047	-0.051
-274.399	-200.000	-0.054	-0.324
-273.384	-100.500	0.228	0.055
-272.370	36.986	0.127	0.110
-271.355	800.000	-0.028	0.081
-270.340	-13.336	-0.392	0.249
-269.326	-99.568	-0.275	-0.068
-268.311	103.531	-0.185	0.213
-267.297	-200.000	-0.029	0.268
-266.282	-76.531	0.576	-0.198
-265.267	-78.770	0.360	0.120
-264.253	6.019	-0.255	0.186
-263.238	-79.507	-0.081	0.027
-262.224	-60.201	0.135	-0.056
-261.209	-142.795	0.364	0.035
-260.195	-180.985	-0.146	0.003
-259.180	800.000	-0.070	-0.197
-258.165	326.094	-0.078	0.145
-257.151	104.948	-0.196	-0.226
-256.136	86.241	-0.250	0.270
-255.122	-200.000	0.001	-0.278
-254.107	-48.953	-0.192	-0.090
-253.092	-200.000	-0.019	0.251
-252.078	-40.381	-0.175	-0.089
-251.063	-200.000	-0.061	-0.308
-250.049	152.002	-0.050	-0.067
-249.034	394.562	-0.110	-0.224
-248.019	327.528	-0.015	0.028
-247.005	-63.880	0.129	0.052
-245.990	-63.822	-0.255	-0.102
-244.976	-200.000	-0.070	0.341
-243.961	12.512	0.062	-0.047
-242.946	102.894	-0.233	0.268
-241.932	23.803	0.259	-0.209
-240.917	800.000	0.027	0.095
-239.903	-137.716	0.199	-0.022
-238.888	800.000	-0.045	-0.171
-237.873	-200.000	-0.011	0.345
-236.859	800.000	0.101	-0.294
-235.844	-121.197	0.068	-0.011
-234.830	150.705	-0.147	0.195
-233.815	-46.398	-0.368	-0.177
-232.800	800.000	0.059	-0.185
-231.786	800.000	0.008	-0.029
-230.771	-98.889	-0.169	-0.042
-229.757	-119.515	-0.356	0.060
-228.742	-126.453	0.309	0.045
-227.727	-46.655	-0.238	-0.114
-226.713	-200.000	-0.016	-0.196
-225.698	-200.000	-0.028	0.239
-224.684	90.086	0.109	-0.120
-223.669	78.857	0.203	-0.213
-222.655	800.000	0.060	-0.215
-221.640	800.000	-0.072	-0.230
-220.625	800.000	-0.122	0.350
-219.611	-26.479	0.173	-0.099
-218.596	197.916	-0.264	-0.394
-217.582	54.083	0.065	0.062
-216.567	-131.025	0.332	0.043
-215.552	-21.245	0.290	-0.174
-214.538	574.443	0.137	-0.326
-213.523	-61.417	-0.113	-0.047
-212.509	3.404	0.194	-0.138
-211.494	54.450	-0.086	-0.081
-210.479	-154.294	0.165	0.011
-209.465	-200.000	-0.012	0.054
-208.450	-200.000	-0.007	0.103
-207.436	561.917	0.049	0.116
-206.421	-200.000	-0.018	0.111
-205.406	612.518	-0.038	0.092
-204.392	-46.852	0.314	0.150
-203.377	143.720	-0.084	-0.110
-202.363	800.000	0.047	0.161
-201.348	177.316	-0.082	0.117
-200.333	-200.000	0.010	-0.127
-199.319	-134.305	-0.284	-0.034
-198.304	-10.615	0.240	0.155
-197.290	128.868	0.114	0.142
-196.275	-4.349	-0.131	-0.089
-195.260	-97.658	-0.122	-0.031
-194.246	20.585	0.251	-0.198
-193.231	22.669	-0.241	-0.193
-192.217	-200.000	-0.035	0.210
-191.202	-48.357	0.220	0.104
-190.187	-200.000	0.014	0.096
-189.173	800.000	0.016	-0.047
-188.158	800.000	0.065	0.265
-187.144	36.976	0.088	-0.076
-186.129	800.000	0.045	0.182
-185.114	31.271	0.294	0.246
-184.100	-91.501	0.164	0.046
-183.085	-200.000	-0.085	-0.372
-182.071	-90.208	0.400	0.114
-181.056	-84.945	-0.319	0.098
-180.042	-200.000	0.010	-0.243
-179.027	212.560	0.251	-0.388
-178.012	-200.000	-0.025	0.283
-176.998	-44.551	0.202	-0.099
-175.983	48.964	-0.158	-0.145
-174.969	-200.000	0.017	-0.092
-173.954	800.000	-0.052	0.216
-172.939	-6.366	0.262	-0.175
-171.925	-200.000	0.037	0.218
-170.910	-174.799	-0.057	-0.002
-169.896	-67.775	0.057	-0.022
-168.881	138.426	-0.135	0.173
-167.866	800.000	0.110	-0.302
-166.852	800.000	0.086	-0.364
-165.837	96.394	-0.131	-0.147
-164.823	370.475	-0.046	0.091
-163.808	-152.317	-0.217	0.015
-162.793	-164.565	-0.357	-0.016
-161.779	126.120	-0.114	-0.141
-160.764	96.837	0.046	0.052
-159.750	-76.268	-0.568	0.196
-158.735	58.799	0.150	0.144
-157.720	495.272	-0.090	-0.202
-156.706	75.734	-0.120	-0.124
-155.691	-82.765	0.129	0.041
-154.677	78.727	0.085	-0.089
-153.662	44.061	0.282	0.253
-152.647	800.000	0.070	0.216
-151.633	-200.000	0.044	0.255
-150.618	-3.160	0.096	-0.065
-149.604	-124.115	0.135	0.021
-148.589	353.286	0.111	0.215
-147.574	98.363	0.106	0.119
-146.560	-200.000	0.050	0.303
-145.545	-7.217	0.022	0.015
-144.531	25.389	0.050	0.041
-143.516	-4.298	0.232	0.157
-142.502	49.278	0.070	0.064
-141.487	113.043	-0.177	-0.209
-140.472	451.206	0.057	0.124
-139.458	390.536	0.110	-0.223
-138.443	-48.194	0.034	0.016
-137.429	51.425	-0.191	-0.177
-136.414	23.064	0.094	-0.075
-135.399	732.752	0.055	-0.142
-134.385	-71.094	0.159	0.058
-133.370	203.227	0.281	0.423
-132.356	-17.165	0.281	-0.173
-131.341	-51.517	0.249	0.114
-130.326	-200.000	0.002	-0.177
-129.312	18.561	-0.239	-0.186
-128.297	-200.000	-0.041	0.215
-127.283	96.258	0.263	-0.293
-126.268	-200.000	0.010	-0.117
-125.253	328.384	-0.110	0.207
-124.239	21.036	0.233	0.184
-123.224	-8.229	-0.315	0.207
-122.210	-166.000	0.265	0.011
-121.195	-51.188	0.268	-0.123
-120.180	-66.256	0.125	-0.049
