DTS Sentinel unit serial number:	SN413079Multiplexer serial number:	ORYXHardware model number:	OX4-SRSoftware version number:	ORYX F/W v4.00 Oryx Data Collector v3.7.2.0data status	okinstallation	princeton_trtdifferential loss correction	single-endedforward channel	channel 2reverse channel	N/Adate	2019/09/19time	02:31:35forward acquisition time	60.00reverse acquisition time	0.00gamma	496.2192k internal	0.2353k external	0.2353temperature offset calibration	1.0016default loss term (dB/km)	0.3790temperature slope calibration	1.0000multiplexer offset coefficient	1.0000multiplexer slope coefficient	1.0000fibre end	0.00T internal ref (°C)	21.00T ext. ref 1 (°C)	0.67T ext. ref 2 (°C)	14.70length (m)	temperature (°C)	Stokes	anti-Stokes-747.200	322.878	-0.057	-0.108
-746.185	-200.000	0.010	0.174
-745.171	-200.000	0.005	0.158
-744.156	-2.714	0.070	0.049
-743.142	800.000	-0.125	0.426
-742.127	130.976	-0.056	0.072
-741.112	800.000	-0.073	0.226
-740.098	419.412	-0.053	0.113
-739.083	20.395	0.175	0.141
-738.069	800.000	-0.119	0.348
-737.054	-62.308	0.150	0.062
-736.039	800.000	-0.165	0.477
-735.025	-166.047	0.140	-0.006
-734.010	-200.000	0.015	0.290
-732.996	-174.519	-0.302	-0.009
-731.981	115.068	-0.183	-0.223
-730.966	-161.124	-0.117	-0.006
-729.952	-200.000	-0.024	-0.184
-728.937	800.000	-0.051	-0.166
-727.923	394.123	0.200	0.415
-726.908	295.108	-0.056	0.102
-725.894	-24.327	0.103	-0.061
-724.879	114.864	-0.128	0.155
-723.864	-200.000	-0.031	0.242
-722.850	-200.000	-0.057	-0.329
-721.835	-200.000	0.075	-0.331
-720.821	-200.000	-0.024	0.471
-719.806	333.334	0.122	0.235
-718.791	-115.363	-0.472	-0.089
-717.777	-200.000	-0.012	0.137
-716.762	800.000	0.133	-0.400
-715.748	-94.864	0.172	0.047
-714.733	-200.000	-0.002	0.668
-713.718	-7.748	-0.196	-0.132
-712.704	247.371	-0.107	-0.181
-711.689	-200.000	-0.001	-0.214
-710.675	85.067	-0.258	0.282
-709.660	124.383	-0.127	0.160
-708.645	482.225	-0.139	-0.315
-707.631	-132.688	0.243	0.031
-706.616	-89.242	0.037	0.011
-705.602	-61.564	-0.337	0.141
-704.587	326.008	-0.084	0.160
-703.572	-166.943	-0.305	0.012
-702.558	-127.329	-0.243	0.035
-701.543	-200.000	0.018	-0.186
-700.529	62.993	0.114	0.113
-699.514	-95.525	-0.120	-0.032
-698.499	-98.581	-0.374	-0.095
-697.485	90.231	0.051	-0.057
-696.470	-148.432	-0.152	0.012
-695.456	16.326	-0.084	0.066
-694.441	-148.473	0.162	0.013
-693.426	102.001	0.111	-0.129
-692.412	40.724	0.142	-0.127
-691.397	-17.160	0.016	0.010
-690.383	16.223	0.372	-0.292
-689.368	-150.759	-0.055	0.004
-688.354	-31.268	-0.070	0.039
-687.339	132.272	0.102	-0.131
-686.324	800.000	-0.053	-0.232
-685.310	-110.440	-0.295	-0.061
-684.295	-42.498	-0.249	-0.126
-683.281	38.453	0.058	0.051
-682.266	-70.133	0.146	-0.055
-681.251	-57.052	0.144	-0.063
-680.237	-200.000	-0.009	0.207
-679.222	-155.605	-0.123	0.008
-678.208	-55.305	-0.284	-0.127
-677.193	75.691	-0.281	-0.295
-676.178	-200.000	-0.038	0.196
-675.164	188.365	-0.122	0.181
-674.149	20.302	-0.151	-0.121
-673.135	-200.000	-0.008	-0.217
-672.120	-90.244	-0.260	0.075
-671.105	304.657	0.135	0.249
-670.091	126.750	0.168	-0.211
-669.076	-76.683	-0.314	0.109
-668.062	-64.162	-0.551	0.223
-667.047	-200.000	0.024	-0.194
-666.032	-200.000	0.002	0.073
-665.018	-200.000	0.031	0.217
-664.003	-71.140	-0.144	0.054
-662.989	268.424	-0.076	-0.132
-661.974	-200.000	-0.028	0.197
-660.959	-155.051	0.291	0.019
-659.945	-71.057	-0.400	-0.149
-658.930	-154.372	0.246	0.016
-657.916	-26.424	-0.132	-0.077
-656.901	-23.993	0.232	-0.138
-655.886	-62.726	0.160	-0.066
-654.872	-116.385	0.320	0.059
-653.857	-102.353	-0.301	-0.072
-652.843	-0.307	0.087	0.061
-651.828	-101.941	-0.173	-0.042
-650.814	-200.000	0.009	-0.090
-649.799	-131.963	-0.341	-0.044
-648.784	22.367	0.055	-0.045
-647.770	24.764	0.031	-0.026
-646.755	-37.435	0.404	0.214
-645.741	-47.692	-0.187	0.090
-644.726	-124.194	-0.310	-0.048
-643.711	1.161	0.128	-0.091
-642.697	-4.006	0.231	-0.159
-641.682	800.000	-0.065	-0.181
-640.668	-13.213	0.108	-0.070
-639.653	4.282	-0.165	-0.120
-638.638	-28.483	0.178	0.102
-637.624	-122.570	0.469	0.076
-636.609	29.143	-0.221	-0.186
-635.595	254.644	0.153	-0.259
-634.580	198.498	-0.086	0.131
-633.565	-9.358	0.060	-0.040
-632.551	391.188	0.102	0.210
-631.536	-98.360	-0.040	0.010
-630.522	-200.000	0.022	-0.392
-629.507	231.017	0.017	0.028
-628.492	-200.000	0.038	-0.257
-627.478	-200.000	0.004	-0.138
-626.463	107.357	-0.197	-0.232
-625.449	-200.000	0.008	0.204
-624.434	-134.070	-0.148	0.018
-623.419	206.490	-0.130	-0.201
-622.405	403.928	0.181	0.377
-621.390	-135.201	-0.084	-0.010
-620.376	-42.724	0.148	-0.075
-619.361	-134.782	-0.044	0.005
-618.346	328.378	0.131	-0.250
-617.332	403.659	0.081	-0.169
-616.317	201.277	0.161	-0.245
-615.303	-44.482	0.176	0.087
-614.288	-128.945	-0.158	-0.022
-613.273	-200.000	0.034	-0.174
-612.259	-24.963	0.148	-0.087
-611.244	-173.972	-0.213	0.006
-610.230	-200.000	0.000	-0.112
-609.215	-200.000	0.026	-0.242
-608.201	276.772	-0.078	-0.138
-607.186	-115.081	0.192	0.036
-606.171	4.656	0.137	-0.100
-605.157	-47.066	-0.423	-0.205
-604.142	-155.642	0.097	0.006
-603.128	-106.026	-0.138	0.031
-602.113	-66.395	0.350	-0.138
-601.098	-200.000	0.003	-0.157
-600.084	-83.986	-0.319	0.101
-599.069	3.735	-0.121	-0.087
-598.055	283.393	0.108	-0.191
-597.040	-123.714	0.243	-0.038
-596.025	-41.749	0.057	0.029
-595.011	-90.803	0.097	-0.028
-593.996	-200.000	0.031	-0.444
-592.982	-119.906	0.161	-0.027
-591.967	-16.667	0.104	-0.065
-590.952	800.000	0.014	0.040
-589.938	708.411	0.047	-0.123
-588.923	-200.000	-0.026	0.233
-587.909	-11.075	0.143	-0.094
-586.894	-114.279	-0.216	-0.041
-585.879	800.000	0.131	0.409
-584.865	225.758	0.236	-0.379
-583.850	-29.018	0.203	-0.116
-582.836	-55.614	0.255	0.113
-581.821	-134.207	-0.309	-0.038
-580.806	293.545	0.140	0.254
-579.792	-200.000	-0.019	-0.150
-578.777	-200.000	0.029	0.139
-577.763	-138.280	-0.103	-0.011
-576.748	84.558	0.207	0.224
-575.733	-35.723	0.333	0.179
-574.719	-117.238	-0.115	-0.021
-573.704	-64.468	-0.245	0.099
-572.690	582.985	-0.143	0.348
-571.675	-200.000	-0.049	-0.466
-570.661	-200.000	-0.053	0.403
-569.646	139.243	-0.024	-0.031
-568.631	-116.291	-0.182	0.033
-567.617	800.000	0.021	-0.091
-566.602	-200.000	0.081	-0.400
-565.588	-93.436	-0.237	-0.065
-564.573	800.000	0.076	0.313
-563.558	149.607	0.097	0.130
-562.544	-200.000	-0.043	0.301
-561.529	347.964	0.026	-0.051
-560.515	-200.000	-0.038	-0.180
-559.500	800.000	0.061	-0.252
-558.485	-76.079	-0.078	-0.027
-557.471	-144.529	0.183	-0.017
-556.456	800.000	-0.019	0.063
-555.442	-132.695	0.095	0.012
-554.427	186.333	-0.045	-0.066
-553.412	529.185	-0.061	0.143
-552.398	-4.138	0.167	-0.114
-551.383	-100.546	0.440	-0.108
-550.369	800.000	0.040	-0.151
-549.354	-184.549	0.137	0.002
-548.339	524.891	-0.074	0.173
-547.325	239.397	-0.259	-0.426
-546.310	107.592	0.106	-0.125
-545.296	117.198	-0.269	-0.327
-544.281	800.000	-0.083	-0.308
-543.266	-127.439	-0.223	0.032
-542.252	773.212	-0.025	0.067
-541.237	-4.640	-0.095	-0.065
-540.223	-200.000	-0.039	0.193
-539.208	-48.415	0.319	-0.152
-538.193	29.603	0.232	0.195
-537.179	-40.514	-0.183	-0.094
-536.164	-81.428	0.420	-0.137
-535.150	-125.498	-0.283	-0.043
-534.135	142.536	-0.245	0.322
-533.121	-148.497	0.198	0.016
-532.106	800.000	-0.053	0.161
-531.091	-59.292	0.099	-0.042
-530.077	-132.779	-0.176	-0.022
-529.062	24.074	0.301	0.246
-528.048	294.017	-0.143	0.259
-527.033	-93.574	-0.249	-0.068
-526.018	-157.364	-0.236	0.014
-525.004	-88.171	-0.243	-0.072
-523.989	224.431	-0.100	-0.159
-522.975	677.846	0.088	0.227
-521.960	40.614	-0.187	0.167
-520.945	-53.561	-0.156	-0.070
-519.931	800.000	-0.079	-0.330
-518.916	800.000	-0.155	-0.467
-517.902	47.396	0.271	-0.249
-516.887	-133.726	-0.175	0.022
-515.872	-200.000	0.027	0.148
-514.858	587.845	0.087	-0.212
-513.843	98.080	-0.203	0.231
-512.829	363.924	-0.095	0.189
-511.814	186.185	-0.069	0.102
-510.799	208.687	-0.071	-0.110
-509.785	-103.628	-0.488	-0.113
-508.770	450.758	0.061	0.134
-507.756	-78.272	-0.191	-0.065
-506.741	212.993	-0.017	0.026
-505.726	800.000	-0.067	0.218
-504.712	-200.000	-0.053	0.243
-503.697	751.112	-0.181	0.482
-502.683	-172.201	0.262	-0.008
-501.668	-84.129	-0.298	0.094
-500.653	-156.807	-0.276	-0.017
-499.639	-55.666	-0.057	0.025
-498.624	-151.341	-0.080	0.006
-497.610	88.469	-0.057	-0.063
-496.595	-22.223	0.231	0.138
-495.581	4.060	-0.207	-0.150
-494.566	-200.000	0.005	0.085
-493.551	800.000	-0.108	-0.345
-492.537	-200.000	-0.013	-0.167
-491.522	-200.000	-0.028	0.000
-490.508	-61.202	-0.170	0.071
-489.493	-172.335	0.493	0.016
-488.478	800.000	-0.114	0.323
-487.464	-200.000	-0.021	-0.230
-486.449	-171.993	-0.046	0.001
-485.435	-34.260	0.296	-0.160
-484.420	298.002	-0.097	-0.175
-483.405	-91.721	0.149	-0.042
-482.391	800.000	-0.053	0.179
-481.376	-200.000	0.051	-0.254
-480.362	83.940	-0.058	-0.062
-479.347	-77.549	-0.169	0.058
-478.332	-200.000	0.045	0.199
-477.318	-96.542	0.400	0.104
-476.303	246.350	-0.046	-0.076
-475.289	-14.518	0.165	-0.104
-474.274	593.212	-0.164	-0.401
-473.259	378.981	-0.201	-0.405
-472.245	-61.111	-0.090	-0.038
-471.230	164.062	-0.197	0.274
-470.216	-25.652	0.054	0.031
-469.201	689.293	-0.162	-0.418
-468.186	-200.000	0.000	0.070
-467.172	87.851	-0.192	-0.210
-466.157	251.806	0.151	-0.254
-465.143	355.473	-0.192	0.377
-464.128	656.772	0.040	-0.102
-463.113	127.883	0.032	0.041
-462.099	-92.917	-0.281	0.077
-461.084	-37.871	-0.104	0.054
-460.070	73.651	0.064	-0.066
-459.055	-13.854	-0.316	0.201
-458.040	330.380	-0.132	0.251
-457.026	132.402	0.068	-0.087
-456.011	16.650	-0.063	0.049
-454.997	755.632	0.062	0.165
-453.982	-80.169	-0.135	-0.045
-452.968	88.134	-0.053	-0.058
-451.953	341.324	0.172	-0.332
-450.938	-85.932	0.122	0.037
-449.924	498.946	-0.136	0.310
-448.909	166.372	-0.056	-0.078
-447.895	-112.232	0.089	0.018
-446.880	-18.816	0.480	0.294
-445.865	-200.000	-0.011	-0.099
-444.851	-128.877	-0.102	0.014
-443.836	800.000	0.096	-0.270
-442.822	800.000	0.044	0.187
-441.807	263.846	-0.047	0.081
-440.792	61.893	0.092	-0.090
-439.778	-129.523	0.187	0.025
-438.763	189.059	-0.071	-0.105
-437.749	-200.000	-0.066	-0.602
-436.734	-82.107	-0.325	-0.105
-435.719	800.000	0.091	0.279
-434.705	-200.000	-0.054	0.541
-433.690	485.790	-0.100	-0.224
-432.676	-81.022	-0.042	0.014
-431.661	-48.088	-0.070	-0.033
-430.646	39.849	0.101	-0.090
-429.632	15.782	-0.150	0.116
-428.617	13.037	0.046	0.035
-427.603	-21.513	-0.262	-0.157
-426.588	-200.000	0.046	-0.245
-425.573	231.542	-0.092	-0.148
-424.559	-100.483	-0.124	-0.030
-423.544	-145.806	-0.164	0.014
-422.530	101.947	0.249	0.286
-421.515	169.938	0.146	-0.205
-420.500	738.610	0.067	-0.177
-419.486	15.641	-0.243	0.188
-418.471	-144.859	-0.205	0.019
-417.457	91.089	0.102	0.113
-416.442	-200.000	-0.009	0.338
-415.428	800.000	-0.062	-0.207
-414.413	104.245	0.319	-0.369
-413.398	-176.211	0.409	-0.011
-412.384	196.710	0.188	-0.282
-411.369	3.009	-0.036	0.026
-410.355	186.786	-0.064	0.093
-409.340	-171.744	-0.359	-0.012
-408.325	151.092	-0.164	-0.219
-407.311	85.403	0.061	0.066
-406.296	-200.000	0.044	-0.286
-405.282	-200.000	-0.043	0.232
-404.267	-111.820	-0.141	-0.028
-403.252	240.449	0.103	-0.168
-402.238	648.015	0.068	-0.171
-401.223	-34.371	-0.015	-0.008
-400.209	800.000	0.072	0.272
-399.194	219.154	0.164	0.258
-398.179	-30.646	0.233	-0.130
-397.165	-0.173	-0.161	-0.113
-396.150	340.883	0.065	-0.125
-395.136	403.450	-0.084	0.174
-394.121	-125.877	-0.099	-0.015
-393.106	-38.960	0.144	0.075
-392.092	-200.000	0.018	0.339
-391.077	-92.542	-0.391	0.108
-390.063	-26.960	0.277	-0.159
-389.048	108.813	0.164	-0.193
-388.033	78.306	-0.244	0.256
-387.019	-53.846	0.020	0.009
-386.004	-200.000	0.006	0.170
-384.990	-106.419	-0.043	-0.010
-383.975	-109.761	0.263	-0.054
-382.960	-28.558	0.348	-0.197
-381.946	223.538	-0.140	-0.222
-380.931	78.242	-0.062	0.065
-379.917	12.682	0.112	0.085
-378.902	-200.000	-0.009	0.277
-377.888	-99.510	0.107	0.026
-376.873	-200.000	0.014	0.085
-375.858	-38.888	0.128	-0.066
-374.844	-200.000	0.039	-0.357
-373.829	-200.000	-0.021	-0.148
-372.815	-200.000	0.016	0.163
-371.800	-13.586	-0.183	0.117
-370.785	-97.400	-0.233	0.060
-369.771	195.629	-0.164	-0.245
-368.756	90.596	-0.058	-0.063
-367.742	-60.874	0.127	0.053
-366.727	800.000	0.077	-0.294
-365.712	371.440	0.061	-0.123
-364.698	-200.000	0.032	-0.311
-363.683	141.647	-0.031	-0.040
-362.669	-136.124	0.425	0.049
-361.654	-121.812	0.161	-0.026
-360.639	257.910	-0.109	-0.184
-359.625	619.299	0.090	-0.223
-358.610	14.036	0.349	0.267
-357.596	309.325	-0.121	0.221
-356.581	-200.000	-0.009	0.247
-355.566	129.324	-0.149	-0.187
-354.552	800.000	0.054	0.186
-353.537	-200.000	-0.003	-0.190
-352.523	-200.000	-0.025	-0.369
-351.508	-200.000	-0.021	-0.103
-350.493	-130.900	0.096	-0.013
-349.479	130.670	0.146	0.183
-348.464	-200.000	0.048	0.385
-347.450	800.000	-0.113	-0.362
-346.435	-200.000	0.001	-0.038
-345.420	51.965	-0.233	-0.218
-344.406	201.831	0.135	0.204
-343.391	4.616	-0.382	-0.275
-342.377	-132.448	0.324	-0.041
-341.362	-103.176	-0.207	-0.048
-340.348	-19.823	-0.259	0.157
-339.333	177.954	-0.051	-0.074
-338.318	-181.614	-0.357	0.007
-337.304	-4.738	0.166	0.112
-336.289	118.026	0.120	0.145
-335.275	620.424	0.101	0.250
-334.260	-200.000	-0.010	0.287
-333.245	800.000	0.018	0.072
-332.231	41.076	0.226	0.200
-331.216	-200.000	0.013	0.246
-330.202	-125.380	-0.367	-0.055
-329.187	800.000	-0.018	0.061
-328.172	86.272	-0.118	-0.127
-327.158	-200.000	-0.007	0.132
-326.143	14.984	0.055	-0.043
-325.129	-74.672	-0.364	0.128
-324.114	66.737	0.143	-0.143
-323.099	-131.506	-0.235	0.030
-322.085	800.000	0.114	-0.370
-321.070	-122.743	-0.235	0.037
-320.056	-171.038	0.320	0.011
-319.041	-83.899	0.079	0.025
-318.026	-38.905	-0.177	0.091
-317.012	290.001	-0.103	0.184
-315.997	-66.807	-0.196	0.076
-314.983	561.722	-0.050	-0.118
-313.968	-114.491	0.094	-0.018
-312.953	331.408	0.188	0.356
-311.939	38.719	0.089	0.078
-310.924	-15.124	-0.232	-0.146
-309.910	-131.838	0.117	-0.015
-308.895	152.425	-0.135	0.181
-307.880	80.560	-0.137	0.144
-306.866	-200.000	0.053	-0.246
-305.851	-94.792	-0.159	0.042
-304.837	38.913	0.065	-0.057
-303.822	48.837	0.212	-0.195
-302.807	-200.000	0.022	0.160
-301.793	-17.829	0.110	0.068
-300.778	800.000	0.030	0.111
-299.764	-110.345	-0.127	0.026
-298.749	-25.080	0.186	0.108
-297.735	-200.000	0.018	0.230
-296.720	-200.000	0.032	0.224
-295.705	-200.000	0.028	0.226
-294.691	-143.866	0.347	-0.032
-293.676	800.000	0.068	0.239
-292.662	-42.725	-0.169	0.084
-291.647	-51.994	-0.203	0.092
-290.632	-156.818	0.606	-0.037
-289.618	-200.000	-0.049	-0.226
-288.603	800.000	-0.096	0.272
-287.589	800.000	0.156	0.442
-286.574	-200.000	0.017	-0.169
-285.559	800.000	-0.045	0.155
-284.545	-200.000	0.414	0.001
-283.530	86.676	-0.315	-0.340
-282.516	12.871	-0.100	-0.076
-281.501	-200.000	0.031	-0.261
-280.486	800.000	-0.034	-0.120
-279.472	729.278	-0.018	0.046
-278.457	-120.166	0.186	0.031
-277.443	42.527	0.206	-0.184
-276.428	-53.152	-0.133	-0.060
-275.413	166.516	-0.027	0.038
-274.399	-24.420	0.281	0.164
-273.384	-125.063	0.051	-0.008
-272.370	-32.943	0.433	0.235
-271.355	-22.898	0.196	-0.116
-270.340	-200.000	-0.029	-0.344
-269.326	-200.000	-0.010	0.047
-268.311	-13.312	0.125	0.079
-267.297	-200.000	-0.011	0.087
-266.282	162.365	0.224	0.308
-265.267	800.000	-0.136	0.500
-264.253	-147.322	-0.189	-0.016
-263.238	-200.000	0.025	0.180
-262.224	371.106	-0.214	-0.425
-261.209	237.800	0.131	-0.213
-260.195	-105.616	-0.434	-0.096
-259.180	-200.000	0.033	-0.275
-258.165	374.988	-0.124	0.248
-257.151	800.000	0.114	-0.325
-256.136	-131.660	-0.106	0.014
-255.122	30.539	0.230	-0.193
-254.107	-100.479	-0.037	-0.009
-253.092	-200.000	-0.018	-0.250
-252.078	83.786	0.120	0.128
-251.063	-0.079	-0.114	-0.079
-250.049	-143.088	-0.030	0.003
-249.034	800.000	0.102	0.309
-248.019	-108.157	-0.100	0.021
-247.005	360.598	0.028	0.056
-245.990	-161.526	0.457	0.023
-244.976	-200.000	0.048	0.260
-243.961	-200.000	0.026	-0.209
-242.946	-110.829	-0.182	0.037
-241.932	381.416	-0.033	0.067
-240.917	231.293	-0.111	-0.178
-239.903	-102.523	0.457	0.107
-238.888	-36.937	-0.393	-0.206
-237.873	-182.320	-0.156	-0.003
-236.859	19.649	-0.268	0.211
-235.844	-106.714	-0.102	-0.022
-234.830	800.000	0.030	-0.129
-233.815	80.351	-0.157	0.165
-232.800	-109.857	0.211	0.043
-231.786	-78.321	-0.283	-0.095
-230.771	-180.434	0.152	0.003
-229.757	-82.804	-0.331	0.105
-228.742	54.197	0.080	0.075
-227.727	-52.355	-0.461	-0.208
-226.713	-200.000	0.015	-0.094
-225.698	-145.036	-0.149	-0.013
-224.684	-168.940	-0.329	-0.012
-223.669	-97.440	0.432	-0.110
-222.655	-18.739	0.350	0.213
-221.640	800.000	0.094	-0.265
-220.625	-8.865	-0.198	0.129
-219.611	-49.721	-0.407	-0.189
-218.596	-200.000	0.023	-0.153
-217.582	120.233	-0.190	-0.231
-216.567	-128.256	0.083	-0.012
-215.552	-75.821	0.077	0.027
-214.538	138.407	-0.098	0.126
-213.523	151.340	0.249	-0.331
-212.509	800.000	-0.064	0.233
-211.494	419.558	0.076	-0.159
-210.479	669.869	-0.101	0.255
-209.465	-69.391	-0.207	-0.077
-208.450	55.119	-0.037	-0.035
-207.436	-88.313	0.223	0.065
-206.421	-2.934	-0.147	0.100
-205.406	250.668	0.093	0.154
-204.392	8.689	0.138	-0.102
-203.377	-200.000	-0.025	0.150
-202.363	-3.224	0.303	-0.206
-201.348	-88.703	-0.171	0.050
-200.333	114.180	-0.042	0.050
-199.319	374.235	-0.035	-0.070
-198.304	19.661	-0.077	-0.060
-197.290	-82.362	0.018	0.006
-196.275	403.370	0.083	0.170
-195.260	-26.985	0.068	0.039
-194.246	-84.016	0.093	0.029
-193.231	156.835	0.150	-0.202
-192.217	33.661	-0.086	-0.073
-191.202	-26.404	0.428	0.245
-190.187	-24.009	0.083	0.049
-189.173	-40.995	0.558	0.281
-188.158	800.000	0.055	-0.164
-187.144	800.000	-0.115	0.315
-186.129	57.372	0.266	0.253
-185.114	-200.000	-0.032	0.160
-184.100	800.000	-0.097	0.277
-183.085	-200.000	0.040	-0.311
-182.071	89.398	0.090	0.098
-181.056	382.848	-0.099	-0.199
-180.042	-132.458	0.352	0.044
-179.027	-64.123	-0.092	-0.037
-178.012	151.285	-0.143	-0.189
-176.998	-200.000	-0.005	0.319
-175.983	-8.287	-0.227	0.149
-174.969	626.586	-0.145	0.357
-173.954	-150.886	0.131	-0.010
-172.939	800.000	-0.027	-0.076
-171.925	-81.324	-0.128	0.041
-170.910	244.728	0.150	0.246
-169.896	123.718	-0.118	0.144
-168.881	-60.603	0.418	0.173
-167.866	-200.000	-0.119	0.534
-166.852	228.524	0.090	-0.142
-165.837	-189.272	-0.371	0.004
-164.823	33.104	0.055	0.047
-163.808	-27.671	0.366	0.207
-162.793	163.269	-0.118	0.161
-161.779	-200.000	-0.007	-0.031
-160.764	-110.400	0.167	0.034
-159.750	214.555	-0.353	0.545
-158.735	37.539	0.195	-0.169
-157.720	-200.000	-0.031	0.261
-156.706	-120.588	0.250	-0.041
-155.691	-2.026	-0.408	0.279
-154.677	800.000	-0.020	0.058
-153.662	-23.857	0.152	0.089
-152.647	-68.494	-0.145	-0.055
-151.633	493.166	0.196	0.437
-150.618	-159.647	-0.401	0.022
-149.604	-88.933	0.199	0.057
-148.589	-132.841	0.155	-0.019
-147.574	-74.938	0.224	0.078
-146.560	238.102	0.059	0.096
-145.545	506.880	-0.103	0.234
-144.531	109.990	0.164	-0.192
-143.516	79.226	-0.115	-0.120
-142.502	-200.000	0.022	-0.420
-141.487	446.164	0.077	0.165
-140.472	-200.000	0.018	0.283
-139.458	-183.540	0.169	-0.003
-138.443	-162.085	-0.131	-0.006
-137.429	-15.867	0.318	0.197
-136.414	-4.222	-0.342	0.230
-135.399	-43.158	-0.026	0.013
-134.385	-168.202	-0.074	0.003
-133.370	-100.699	-0.320	0.077
-132.356	112.351	0.087	-0.102
-131.341	65.120	-0.167	0.164
-130.326	322.734	-0.091	0.169
-129.312	754.958	-0.177	0.467
-128.297	607.045	-0.193	-0.468
-127.283	-200.000	0.056	-0.274
-126.268	159.695	0.110	0.150
-125.253	-23.799	-0.112	-0.065
-124.239	248.104	0.195	0.321
-123.224	-104.727	0.189	0.042
