DTS Sentinel unit serial number:	SN413079Multiplexer serial number:	ORYXHardware model number:	OX4-SRSoftware version number:	ORYX F/W v4.00 Oryx Data Collector v3.7.2.0data status	okinstallation	princeton_trtdifferential loss correction	single-endedforward channel	channel 2reverse channel	N/Adate	2019/09/16time	22:43:34forward acquisition time	60.00reverse acquisition time	0.00gamma	496.2192k internal	0.2328k external	0.2328temperature offset calibration	0.9971default loss term (dB/km)	0.3790temperature slope calibration	1.0000multiplexer offset coefficient	1.0000multiplexer slope coefficient	1.0000fibre end	0.00T internal ref (°C)	30.62T ext. ref 1 (°C)	0.08T ext. ref 2 (°C)	24.24length (m)	temperature (°C)	Stokes	anti-Stokes-747.200	-153.520	-0.188	-0.013
-746.185	234.095	0.093	0.155
-745.171	14.408	-0.053	0.042
-744.156	-43.195	0.087	0.044
-743.142	-30.847	0.215	0.122
-742.127	146.993	-0.313	0.424
-741.112	-114.987	0.197	-0.038
-740.098	274.978	0.023	0.040
-739.083	-79.779	0.093	-0.032
-738.069	-2.562	0.243	0.171
-737.054	-138.947	-0.279	0.030
-736.039	-168.530	-0.443	0.017
-735.025	-200.000	-0.074	0.401
-734.010	615.315	-0.041	-0.103
-732.996	186.505	-0.302	-0.453
-731.981	-158.582	0.189	0.011
-730.966	18.566	-0.164	0.132
-729.952	121.148	0.083	-0.104
-728.937	431.871	-0.108	0.235
-727.923	152.931	-0.266	-0.366
-726.908	776.975	-0.061	-0.167
-725.894	22.691	-0.073	-0.060
-724.879	75.901	-0.076	0.081
-723.864	405.212	-0.148	-0.315
-722.850	137.006	0.074	0.097
-721.835	381.310	-0.176	-0.363
-720.821	-200.000	0.016	0.201
-719.806	237.306	0.048	-0.080
-718.791	99.418	0.172	-0.201
-717.777	129.514	-0.137	-0.177
-716.762	-70.221	-0.044	-0.017
-715.748	-200.000	-0.028	-0.194
-714.733	-50.198	0.039	-0.019
-713.718	-19.082	0.219	-0.137
-712.704	-26.920	0.250	0.147
-711.689	628.819	-0.088	-0.223
-710.675	176.757	0.055	-0.080
-709.660	165.559	-0.006	-0.008
-708.645	-43.833	0.244	0.123
-707.631	-111.586	-0.241	0.049
-706.616	189.261	-0.180	0.271
-705.602	25.390	0.252	-0.211
-704.587	435.924	0.020	0.045
-703.572	-200.000	-0.035	-0.203
-702.558	324.139	-0.060	-0.115
-701.543	288.462	-0.139	0.253
-700.529	54.879	-0.295	-0.287
-699.514	800.000	0.042	-0.174
-698.499	161.904	0.165	-0.232
-697.485	-129.558	-0.420	-0.058
-696.470	-200.000	0.001	-0.020
-695.456	-200.000	0.017	-0.253
-694.441	-132.762	0.184	0.024
-693.426	101.232	-0.295	-0.346
-692.412	-8.849	0.216	0.145
-691.397	-200.000	0.532	-0.000
-690.383	-54.325	0.108	-0.049
-689.368	243.572	0.171	-0.288
-688.354	275.057	0.143	0.255
-687.339	453.916	0.041	0.091
-686.324	-78.314	-0.170	0.058
-685.310	-95.865	0.118	0.032
-684.295	50.637	-0.112	-0.107
-683.281	-84.343	-0.249	-0.079
-682.266	-35.962	0.382	-0.207
-681.251	800.000	-0.108	0.314
-680.237	-0.118	-0.200	-0.143
-679.222	-100.070	-0.307	0.077
-678.208	1.918	-0.227	0.165
-677.193	-24.136	-0.109	-0.066
-676.178	718.933	0.054	0.145
-675.164	-12.188	-0.472	-0.311
-674.149	-200.000	0.014	-0.187
-673.135	-154.956	0.054	0.004
-672.120	-50.999	0.245	-0.115
-671.105	-151.422	-0.184	0.014
-670.091	-14.598	-0.076	-0.049
-669.076	800.000	0.033	-0.129
-668.062	272.530	0.141	-0.250
-667.047	456.854	0.023	0.052
-666.032	144.874	0.143	-0.192
-665.018	-76.651	-0.170	-0.060
-664.003	-146.973	-0.340	0.029
-662.989	-200.000	0.051	0.465
-661.974	-200.000	0.052	0.244
-660.959	42.139	-0.231	-0.211
-659.945	800.000	0.114	-0.375
-658.930	49.391	0.201	0.190
-657.916	33.705	0.066	0.057
-656.901	-95.400	-0.014	0.004
-655.886	-15.137	0.154	-0.099
-654.872	-102.400	-0.208	-0.050
-653.857	89.426	-0.270	-0.302
-652.843	-128.540	0.339	0.048
-651.828	382.801	-0.142	-0.294
-650.814	636.043	0.154	-0.392
-649.799	35.718	-0.364	-0.321
-648.784	-200.000	0.015	-0.128
-647.770	-5.648	0.240	-0.165
-646.755	-72.676	0.050	0.018
-645.741	-200.000	-0.011	-0.170
-644.726	-200.000	-0.065	-0.596
-643.711	-200.000	-0.305	-0.001
-642.697	-200.000	0.056	0.355
-641.682	22.706	-0.404	0.332
-640.668	38.402	-0.191	-0.171
-639.653	632.412	0.151	-0.385
-638.638	-116.655	0.129	-0.024
-637.624	-161.826	-0.208	0.011
-636.609	-43.184	0.128	0.065
-635.595	-4.560	0.029	-0.020
-634.580	25.426	-0.252	0.210
-633.565	325.124	0.074	-0.142
-632.551	-200.000	0.032	0.233
-631.536	150.431	0.135	-0.184
-630.522	-200.000	-0.003	0.055
-629.507	-20.641	0.337	-0.207
-628.492	-12.247	0.131	0.086
-627.478	800.000	-0.010	-0.040
-626.463	-200.000	-0.014	-0.079
-625.449	800.000	0.059	0.224
-624.434	34.113	0.385	-0.336
-623.419	56.803	-0.189	0.185
-622.405	-107.295	-0.067	0.015
-621.390	-173.598	-0.052	-0.002
-620.376	800.000	-0.077	-0.264
-619.361	-105.544	-0.077	0.017
-618.346	800.000	0.038	-0.159
-617.332	-200.000	0.009	-0.049
-616.317	409.850	0.071	0.150
-615.303	-200.000	-0.065	0.304
-614.288	-127.074	0.373	-0.055
-613.273	78.312	0.225	0.241
-612.259	800.000	0.034	-0.121
-611.244	515.917	-0.171	0.401
-610.230	431.252	-0.043	-0.094
-609.215	154.767	-0.098	-0.135
-608.201	47.606	0.082	0.077
-607.186	800.000	-0.079	0.312
-606.171	369.009	0.259	0.525
-605.157	-44.335	0.192	0.096
-604.142	287.851	-0.106	0.193
-603.128	54.185	0.133	0.129
-602.113	800.000	0.014	-0.057
-601.098	-78.280	0.022	0.007
-600.084	11.085	-0.065	0.050
-599.069	-108.919	-0.299	-0.064
-598.055	800.000	-0.036	-0.113
-597.040	336.482	-0.089	-0.173
-596.025	-131.769	-0.291	0.038
-595.011	256.131	0.170	0.292
-593.996	52.899	0.070	-0.067
-592.982	-18.016	-0.195	0.122
-591.967	-61.946	0.110	0.046
-590.952	192.618	-0.182	0.275
-589.938	-22.431	-0.090	0.054
-588.923	387.410	0.007	-0.014
-587.909	91.739	0.120	0.135
-586.894	-154.975	0.402	-0.026
-585.879	-200.000	-0.008	-0.232
-584.865	-31.378	-0.271	0.153
-583.850	74.630	-0.105	0.111
-582.836	-9.767	0.141	-0.094
-581.821	800.000	0.060	-0.255
-580.806	800.000	-0.033	-0.131
-579.792	-113.511	0.210	-0.041
-578.777	-117.459	-0.309	0.056
-577.763	-111.762	-0.620	0.126
-576.748	800.000	0.071	-0.282
-575.733	144.814	0.045	0.060
-574.719	225.775	-0.103	-0.168
-573.704	650.633	0.039	-0.099
-572.690	78.480	-0.052	0.055
-571.675	-199.980	-0.151	-0.001
-570.661	-200.000	0.075	-0.419
-569.646	-176.338	-0.057	0.001
-568.631	79.178	-0.082	0.088
-567.617	800.000	-0.048	-0.175
-566.602	277.271	0.127	-0.226
-565.588	-96.681	-0.087	0.023
-564.573	-121.298	0.270	-0.045
-563.558	-173.567	-0.024	0.001
-562.544	-21.279	-0.188	0.115
-561.529	-200.000	-0.032	-0.202
-560.515	-104.112	0.033	-0.008
-559.500	89.378	-0.095	0.106
-558.485	-63.731	-0.403	0.165
-557.471	-200.000	0.030	-0.379
-556.456	-147.051	-0.209	-0.018
-555.442	197.427	-0.124	-0.190
-554.427	800.000	0.055	-0.202
-553.412	-78.916	-0.279	0.095
-552.398	-54.209	-0.096	-0.044
-551.383	68.444	-0.111	0.114
-550.369	-23.486	0.189	-0.114
-549.354	-100.457	0.262	0.065
-548.339	310.478	0.212	0.397
-547.325	-90.943	-0.103	0.030
-546.310	51.725	0.052	-0.049
-545.296	-112.439	-0.212	0.042
-544.281	-132.552	0.250	-0.032
-543.266	-39.679	-0.007	-0.003
-542.252	114.542	-0.112	0.136
-541.237	-48.844	0.381	-0.183
-540.223	-200.000	-0.040	-0.342
-539.208	-119.382	0.292	0.051
-538.193	-200.000	0.015	0.122
-537.179	-200.000	0.013	-0.065
-536.164	-105.659	-0.154	-0.035
-535.150	800.000	-0.077	0.217
-534.135	-200.000	-0.013	-0.369
-533.121	-200.000	0.044	-0.339
-532.106	212.774	-0.126	0.199
-531.091	17.380	-0.213	0.169
-530.077	30.570	-0.187	-0.160
-529.062	-146.511	-0.162	0.014
-528.048	64.161	0.267	0.268
-527.033	-99.405	-0.244	-0.061
-526.018	800.000	-0.056	0.215
-525.004	-98.215	0.165	-0.042
-523.989	-44.404	0.174	0.087
-522.975	-200.000	0.064	-0.347
-521.960	-132.642	0.289	-0.037
-520.945	800.000	-0.015	-0.043
-519.931	380.018	0.113	0.232
-518.916	60.693	0.145	0.144
-517.902	-200.000	-0.031	0.141
-516.887	414.364	-0.087	0.184
-515.872	-200.000	-0.017	0.143
-514.858	-144.619	0.155	-0.014
-513.843	-200.000	0.038	-0.220
-512.829	-104.951	0.141	0.032
-511.814	800.000	-0.128	-0.443
-510.799	4.311	-0.029	0.021
-509.785	530.663	-0.085	0.201
-508.770	-165.003	0.010	0.000
-507.756	-64.562	0.174	0.071
-506.741	-55.374	0.285	-0.128
-505.726	-72.866	-0.164	0.060
-504.712	189.870	-0.133	-0.200
-503.697	-200.000	0.014	0.088
-502.683	-153.341	-0.305	-0.021
-501.668	-108.374	-0.173	0.037
-500.653	533.170	-0.077	-0.181
-499.639	800.000	0.096	0.276
-498.624	-30.423	0.088	-0.050
-497.610	7.901	-0.246	-0.184
-496.595	555.065	0.031	-0.075
-495.581	273.196	-0.076	0.135
-494.566	-151.491	-0.517	0.038
-493.551	84.446	-0.060	0.066
-492.537	-109.840	-0.445	0.093
-491.522	800.000	-0.047	0.138
-490.508	-2.095	0.092	-0.065
-489.493	121.133	-0.074	0.092
-488.478	378.011	-0.151	0.308
-487.464	-131.323	0.170	-0.022
-486.449	-95.582	0.341	-0.091
-485.435	-200.000	0.022	-0.123
-484.420	18.112	-0.155	0.123
-483.405	124.294	-0.108	0.136
-482.391	37.692	-0.175	-0.155
-481.376	-163.593	0.332	-0.016
-480.362	-8.440	-0.013	-0.009
-479.347	107.226	0.038	0.045
-478.332	718.801	0.041	0.108
-477.318	-190.314	-0.265	-0.003
-476.303	800.000	-0.082	0.318
-475.289	196.147	-0.275	-0.418
-474.274	-126.927	-0.347	-0.051
-473.259	-92.665	0.319	-0.089
-472.245	649.236	-0.017	-0.043
-471.230	-120.366	0.324	0.055
-470.216	101.304	-0.256	0.297
-469.201	-111.985	0.303	0.061
-468.186	41.981	-0.076	-0.069
-467.172	-83.677	-0.141	0.045
-466.157	41.631	0.224	-0.202
-465.143	-36.219	-0.188	-0.101
-464.128	-60.390	0.164	0.069
-463.113	766.625	0.100	0.272
-462.099	-97.454	-0.288	-0.075
-461.084	42.551	0.131	0.119
-460.070	65.807	0.107	-0.108
-459.055	-200.000	0.001	0.199
-458.040	126.822	0.166	0.210
-457.026	2.387	-0.185	-0.133
-456.011	-139.687	-0.118	-0.012
-454.997	46.569	0.280	-0.259
-453.982	-200.000	0.023	0.137
-452.968	539.431	-0.068	0.160
-451.953	800.000	0.088	0.286
-450.938	-200.000	-0.017	0.104
-449.924	42.578	-0.267	0.242
-448.909	-46.750	0.218	-0.106
-447.895	-77.356	0.137	-0.047
-446.880	-116.971	-0.195	-0.036
-445.865	45.295	0.040	-0.036
-444.851	394.264	-0.065	-0.136
-443.836	610.768	-0.143	-0.356
-442.822	1.209	-0.329	-0.235
-441.807	81.583	-0.086	0.093
-440.792	-172.688	0.178	-0.006
-439.778	-200.000	-0.067	-0.560
-438.763	119.565	-0.052	0.064
-437.749	-98.928	-0.109	-0.027
-436.734	-155.010	0.153	-0.010
-435.719	-200.000	0.059	-0.467
-434.705	-41.424	-0.230	0.118
-433.690	67.540	0.036	0.037
-432.676	740.956	0.119	-0.319
-431.661	800.000	0.187	-0.562
-430.646	-200.000	0.009	0.084
-429.632	-78.791	0.153	0.052
-428.617	479.123	0.076	0.172
-427.603	-200.000	-0.021	0.237
-426.588	90.222	-0.132	0.146
-425.573	-200.000	0.020	0.314
-424.559	-156.247	-0.087	-0.005
-423.544	-200.000	0.015	0.203
-422.530	-200.000	-0.030	0.279
-421.515	419.428	-0.081	0.172
-420.500	16.035	0.205	-0.161
-419.486	147.768	0.060	0.081
-418.471	-130.762	-0.150	-0.020
-417.457	-119.711	0.193	-0.033
-416.442	63.543	-0.165	0.165
-415.428	-74.741	-0.216	-0.077
-414.413	-23.369	0.125	-0.075
-413.398	-79.505	0.278	-0.094
-412.384	214.101	-0.125	0.197
-411.369	-100.000	-0.154	-0.038
-410.355	-61.018	-0.166	0.070
-409.340	-49.079	-0.289	0.138
-408.325	800.000	-0.086	-0.256
-407.311	95.176	0.147	-0.166
-406.296	800.000	0.038	0.109
-405.282	127.787	-0.172	-0.217
-404.267	113.984	0.202	0.244
-403.252	-67.822	-0.140	0.054
-402.238	-200.000	-0.006	-0.094
-401.223	-84.313	0.411	0.129
-400.209	433.438	-0.086	-0.186
-399.194	-200.000	0.015	-0.158
-398.179	-200.000	-0.051	-0.256
-397.165	25.281	-0.122	0.101
-396.150	-68.472	0.197	-0.076
-395.136	79.423	-0.056	0.059
-394.121	342.426	-0.127	-0.246
-393.106	-200.000	-0.048	0.299
-392.092	84.227	-0.229	-0.249
-391.077	-98.011	-0.216	0.055
-390.063	-200.000	0.033	0.359
-389.048	-80.054	0.123	0.041
-388.033	18.742	0.060	0.048
-387.019	-148.532	-0.325	-0.026
-386.004	-118.715	0.197	-0.034
-384.990	430.316	0.070	-0.151
-383.975	57.788	0.249	-0.242
-382.960	-200.000	-0.011	0.222
-381.946	191.561	0.041	-0.061
-380.931	-165.791	-0.364	-0.016
-379.917	800.000	0.103	-0.304
-378.902	-27.622	0.267	0.154
-377.888	633.152	-0.041	-0.104
-376.873	-65.584	0.299	0.119
-375.858	-200.000	-0.052	0.339
-374.844	770.352	-0.136	0.369
-373.829	482.465	0.090	0.204
-372.815	-30.243	-0.166	-0.094
-371.800	240.474	-0.055	0.091
-370.785	-148.035	-0.376	-0.031
-369.771	-139.229	0.220	-0.024
-368.756	-139.270	0.320	0.034
-367.742	12.022	-0.206	0.157
-366.727	433.431	0.113	0.243
-365.712	-53.925	-0.095	-0.043
-364.698	-46.483	-0.164	0.080
-363.683	-200.000	-0.034	0.388
-362.669	536.041	-0.091	0.214
-361.654	268.615	-0.105	0.182
-360.639	-84.325	0.169	-0.053
-359.625	-97.060	0.077	0.020
-358.610	-102.111	0.204	-0.049
-357.596	109.849	0.079	0.094
-356.581	585.346	-0.077	-0.187
-355.566	133.911	0.188	-0.242
-354.552	277.055	-0.009	-0.016
-353.537	136.787	-0.273	0.354
-352.523	80.107	0.084	0.090
-351.508	38.724	0.218	0.193
-350.493	-130.200	0.263	0.036
-349.479	-200.000	-0.022	-0.285
-348.464	-200.000	0.003	-0.253
-347.450	800.000	-0.034	-0.138
-346.435	-76.733	0.285	0.099
-345.420	800.000	0.060	0.198
-344.406	631.677	-0.034	0.085
-343.391	-37.608	0.014	-0.007
-342.377	118.581	-0.207	-0.253
-341.362	21.712	0.194	-0.157
-340.348	-153.768	-0.063	-0.004
-339.333	-200.000	-0.018	-0.113
-338.318	112.340	0.141	0.169
-337.304	495.882	-0.042	-0.097
-336.289	800.000	0.086	0.313
-335.275	-128.912	-0.210	-0.029
-334.260	-142.627	0.296	0.029
-333.245	-200.000	-0.055	0.260
-332.231	-200.000	0.023	0.115
-331.216	51.509	0.310	-0.293
-330.202	22.377	0.180	-0.146
-329.187	52.744	0.277	-0.263
-328.172	501.105	-0.030	-0.069
-327.158	-67.813	0.045	0.018
-326.143	-66.781	0.151	-0.059
-325.129	203.791	-0.207	-0.318
-324.114	270.919	0.074	-0.129
-323.099	-5.664	0.156	0.106
-322.085	164.036	-0.175	0.245
-321.070	-137.171	-0.098	0.011
-320.056	265.377	-0.099	0.172
-319.041	332.403	0.207	0.396
-318.026	-98.877	-0.044	-0.011
-317.012	-62.253	0.413	-0.171
-315.997	-64.003	0.078	-0.031
-314.983	399.872	-0.148	0.308
-313.968	180.941	-0.171	0.249
-312.953	-113.552	-0.143	0.028
-311.939	-0.184	0.130	0.091
-310.924	-109.392	-0.350	-0.073
-309.910	-200.000	0.018	0.099
-308.895	-15.124	-0.146	0.092
-307.880	-200.000	0.027	-0.121
-306.866	229.271	-0.161	-0.261
-305.851	-59.522	-0.231	-0.098
-304.837	51.283	0.206	0.194
-303.822	75.433	0.050	-0.052
-302.807	283.275	0.114	-0.203
-301.793	800.000	-0.035	0.115
-300.778	800.000	0.062	-0.211
-299.764	128.983	0.112	-0.142
-298.749	195.278	-0.072	0.108
-297.735	-200.000	-0.013	0.182
-296.720	800.000	0.037	-0.113
-295.705	-172.171	0.130	0.004
-294.691	-45.432	-0.092	0.045
-293.676	-4.785	0.139	0.095
-292.662	800.000	-0.049	-0.169
-291.647	-200.000	0.023	0.244
-290.632	-200.000	0.008	-0.242
-289.618	23.819	0.236	-0.193
-288.603	-200.000	-0.010	-0.078
-287.589	-200.000	-0.035	-0.168
-286.574	-137.816	0.094	0.010
-285.559	-55.509	-0.217	-0.096
-284.545	60.239	-0.110	-0.108
-283.530	27.016	-0.047	-0.039
-282.516	261.885	0.132	0.226
-281.501	-129.685	-0.114	0.016
-280.486	268.535	-0.127	-0.221
-279.472	-200.000	-0.035	0.211
-278.457	61.929	-0.314	-0.310
-277.443	334.362	-0.118	0.226
-276.428	-200.000	-0.008	-0.281
-275.413	38.927	-0.074	0.066
-274.399	800.000	-0.052	0.151
-273.384	800.000	0.085	0.259
-272.370	-52.882	-0.209	-0.095
-271.355	55.476	0.093	-0.089
-270.340	71.186	0.195	0.200
-269.326	304.525	0.124	-0.228
-268.311	-35.477	0.244	-0.131
-267.297	30.323	0.052	-0.044
-266.282	-27.021	0.105	-0.061
-265.267	439.984	0.091	-0.196
-264.253	335.114	-0.091	-0.173
-263.238	472.122	-0.143	-0.319
-262.224	-119.575	-0.213	-0.036
-261.209	-29.206	0.203	0.115
-260.195	-32.275	0.032	-0.018
-259.180	85.233	0.116	0.125
-258.165	47.368	0.121	0.111
-257.151	-28.288	-0.298	0.170
-256.136	-188.916	0.092	0.001
-255.122	800.000	-0.060	0.171
-254.107	21.552	0.162	0.130
-253.092	-147.969	0.321	0.026
-252.078	-125.572	-0.436	-0.065
-251.063	800.000	0.038	-0.115
-250.049	-200.000	-0.004	-0.458
-249.034	-200.000	0.002	0.115
-248.019	-141.294	0.173	-0.017
-247.005	-107.543	0.068	0.015
-245.990	-200.000	0.016	0.077
-244.976	-200.000	-0.004	0.333
-243.961	-98.960	0.109	0.027
-242.946	-173.881	0.117	-0.003
-241.932	92.772	0.344	0.384
-240.917	-21.767	-0.275	-0.166
-239.903	31.187	0.235	0.199
-238.888	-36.130	0.228	0.122
-237.873	-200.000	0.009	-0.110
-236.859	113.907	0.043	0.051
-235.844	667.403	-0.066	0.167
-234.830	-8.620	0.286	-0.190
-233.815	284.197	0.162	0.288
-232.800	112.397	0.066	0.078
-231.786	26.992	-0.071	-0.059
-230.771	800.000	0.110	-0.359
-229.757	-1.449	0.152	-0.106
-228.742	80.466	0.075	0.080
-227.727	-200.000	-0.063	-0.298
-226.713	-56.520	0.128	0.056
-225.698	-87.475	-0.174	-0.052
-224.684	124.513	0.015	-0.018
-223.669	-117.987	0.169	-0.030
-222.655	-135.604	0.162	-0.019
-221.640	-122.328	0.263	0.042
-220.625	124.659	-0.135	-0.167
-219.611	-54.417	-0.456	-0.204
-218.596	43.138	-0.192	0.173
-217.582	-200.000	-0.043	0.212
-216.567	-87.011	-0.249	-0.075
-215.552	800.000	0.105	-0.359
-214.538	-200.000	0.072	0.350
-213.523	48.634	0.141	0.130
-212.509	255.033	-0.156	-0.264
-211.494	258.383	-0.127	-0.215
-210.479	-83.241	0.141	-0.045
-209.465	270.427	0.151	0.262
-208.450	-200.000	-0.062	-0.472
-207.436	-173.514	0.242	-0.007
-206.421	193.974	-0.171	-0.256
-205.406	349.468	-0.244	-0.474
-204.392	366.061	-0.042	-0.084
-203.377	-94.370	-0.103	0.028
-202.363	-163.675	-0.182	0.008
-201.348	-70.876	0.065	0.024
-200.333	250.571	0.098	-0.164
-199.319	-200.000	-0.015	0.118
-198.304	246.327	0.100	-0.166
-197.290	-200.000	-0.035	0.185
-196.275	10.261	0.091	-0.069
-195.260	35.591	-0.053	0.046
-194.246	-200.000	0.004	0.114
-193.231	73.834	0.157	0.162
-192.217	214.839	0.132	-0.206
-191.202	-200.000	-0.014	0.107
-190.187	64.230	-0.140	-0.139
-189.173	-56.703	0.180	0.079
-188.158	71.587	-0.128	0.131
-187.144	47.731	-0.208	-0.191
-186.129	-127.007	0.136	-0.020
-185.114	60.998	-0.122	-0.119
-184.100	-139.920	-0.223	0.023
-183.085	800.000	-0.064	-0.220
-182.071	-78.328	0.236	-0.080
-181.056	-200.000	-0.001	0.086
-180.042	32.549	-0.277	0.236
-179.027	46.636	0.445	0.407
-178.012	145.607	0.260	0.344
-176.998	-64.727	0.031	-0.012
-175.983	-96.401	0.386	-0.101
-174.969	-200.000	-0.008	-0.038
-173.954	554.672	-0.047	0.113
-172.939	144.625	-0.191	-0.251
-171.925	-89.468	0.105	-0.030
-170.910	130.109	0.072	-0.091
-169.896	-200.000	-0.004	0.287
-168.881	-126.728	0.042	0.006
-167.866	-130.454	-0.141	0.019
-166.852	-200.000	0.002	0.065
-165.837	-117.188	-0.082	0.015
-164.823	-200.000	-0.049	0.486
-163.808	-119.023	-0.285	-0.049
-162.793	-52.719	0.173	-0.079
-161.779	-136.211	0.161	0.019
-160.764	335.064	-0.190	0.362
-159.750	-72.331	0.152	-0.055
-158.735	-200.000	-0.041	-0.212
-157.720	271.544	0.193	-0.335
-156.706	44.879	-0.044	0.040
-155.691	-44.268	-0.150	-0.074
-154.677	-200.000	0.033	-0.237
-153.662	-200.000	-0.028	0.134
-152.647	800.000	-0.132	0.424
-151.633	50.172	0.135	0.125
-150.618	-52.904	0.193	0.088
-149.604	800.000	0.112	0.457
-148.589	535.640	0.094	-0.220
-147.574	57.927	0.320	-0.309
-146.560	27.210	0.298	0.246
-145.545	-12.673	0.487	0.312
-144.531	-200.000	0.005	0.215
-143.516	19.679	0.190	0.151
-142.502	50.598	0.265	-0.247
-141.487	43.739	-0.299	0.269
-140.472	-47.590	0.413	-0.197
-139.458	800.000	0.056	0.208
-138.443	-31.766	-0.128	-0.071
-137.429	-55.052	0.084	-0.037
-136.414	68.776	0.338	0.341
-135.399	-142.228	-0.394	-0.038
-134.385	539.602	-0.144	0.337
-133.370	-52.312	-0.101	0.046
-132.356	-51.489	0.333	-0.153
-131.341	85.475	-0.284	-0.307
-130.326	83.899	-0.262	-0.281
-129.312	176.159	0.120	0.171
-128.297	-102.249	0.289	0.068
-127.283	-108.959	0.171	0.036
-126.268	-200.000	0.009	-0.053
-125.253	-119.868	-0.216	-0.036
-124.239	41.325	-0.142	-0.126
-123.224	-4.968	-0.319	0.216
-122.210	760.335	-0.057	0.153
-121.195	-146.683	0.211	0.018
