DTS Sentinel unit serial number:	SN413079Multiplexer serial number:	ORYXHardware model number:	OX4-SRSoftware version number:	ORYX F/W v4.00 Oryx Data Collector v3.7.2.0data status	okinstallation	princeton_trtdifferential loss correction	single-endedforward channel	channel 2reverse channel	N/Adate	2019/09/15time	20:23:35forward acquisition time	60.00reverse acquisition time	0.00gamma	496.2192k internal	0.2328k external	0.2328temperature offset calibration	0.9936default loss term (dB/km)	0.3790temperature slope calibration	1.0000multiplexer offset coefficient	1.0000multiplexer slope coefficient	1.0000fibre end	0.00T internal ref (°C)	33.89T ext. ref 1 (°C)	7.76T ext. ref 2 (°C)	25.41length (m)	temperature (°C)	Stokes	anti-Stokes-747.200	800.000	0.061	-0.211
-746.185	565.677	0.154	0.376
-745.171	525.617	0.111	-0.264
-744.156	228.731	-0.054	0.088
-743.142	-16.940	0.360	-0.229
-742.127	-5.229	0.186	0.129
-741.112	800.000	0.080	0.241
-740.098	-58.379	-0.398	-0.174
-739.083	32.583	-0.210	-0.183
-738.069	-31.412	0.351	0.199
-737.054	-70.417	0.180	0.069
-736.039	22.001	-0.226	-0.186
-735.025	236.342	0.033	-0.055
-734.010	76.109	0.111	-0.119
-732.996	-200.000	-0.010	0.103
-731.981	-200.000	-0.022	-0.291
-730.966	539.073	-0.098	-0.236
-729.952	54.530	0.322	-0.312
-728.937	85.277	0.067	0.074
-727.923	145.964	-0.198	-0.267
-726.908	11.466	-0.186	-0.144
-725.894	220.180	-0.063	-0.101
-724.879	-55.810	-0.261	-0.117
-723.864	254.824	-0.064	-0.110
-722.850	162.080	0.133	0.187
-721.835	-91.637	-0.256	-0.073
-720.821	47.275	-0.110	0.103
-719.806	-200.000	-0.001	0.180
-718.791	-18.663	0.323	-0.203
-717.777	148.159	0.133	0.181
-716.762	-88.884	-0.214	-0.064
-715.748	62.478	-0.246	-0.247
-714.733	-200.000	0.028	-0.179
-713.718	-93.144	0.188	0.053
-712.704	-186.431	0.120	-0.002
-711.689	-171.469	-0.372	-0.012
-710.675	-73.467	-0.271	-0.100
-709.660	-200.000	0.032	-0.267
-708.645	-200.000	0.013	0.142
-707.631	-130.311	0.173	-0.024
-706.616	-200.000	0.044	-0.217
-705.602	-27.293	0.100	-0.059
-704.587	47.062	-0.106	-0.100
-703.572	135.389	0.161	0.211
-702.558	-102.430	-0.232	0.056
-701.543	-144.315	0.328	-0.031
-700.529	800.000	0.088	0.266
-699.514	-200.000	0.069	0.683
-698.499	100.202	-0.134	0.156
-697.485	98.617	-0.225	0.261
-696.470	105.781	-0.130	0.155
-695.456	63.843	0.303	0.307
-694.441	46.707	-0.199	0.186
-693.426	800.000	0.050	0.171
-692.412	-105.983	0.169	0.038
-691.397	-200.000	0.015	0.154
-690.383	62.156	0.139	-0.139
-689.368	-1.672	0.163	-0.115
-688.354	33.119	-0.279	0.243
-687.339	-151.831	-0.340	-0.025
-686.324	-200.000	0.007	-0.056
-685.310	-8.563	0.304	0.205
-684.295	-200.000	0.004	-0.150
-683.281	47.862	0.206	0.193
-682.266	20.887	-0.075	0.061
-681.251	207.767	0.116	0.182
-680.237	-44.940	0.170	-0.085
-679.222	429.707	-0.142	0.310
-678.208	73.020	-0.217	0.228
-677.193	122.451	-0.241	-0.303
-676.178	111.196	-0.050	-0.061
-675.164	-200.000	0.024	-0.278
-674.149	170.456	0.041	0.060
-673.135	68.456	-0.188	-0.194
-672.120	-52.551	0.112	0.052
-671.105	-90.208	-0.205	0.060
-670.091	-80.931	-0.146	0.049
-669.076	-78.713	0.072	0.025
-668.062	-200.000	0.086	0.479
-667.047	800.000	-0.065	0.187
-666.032	800.000	0.111	0.448
-665.018	-200.000	-0.029	-0.436
-664.003	-131.402	0.378	0.050
-662.989	-103.341	-0.173	-0.041
-661.974	-200.000	-0.027	-0.151
-660.959	69.009	0.063	-0.065
-659.945	104.436	-0.217	-0.257
-658.930	-61.194	-0.298	0.126
-657.916	472.069	0.063	-0.142
-656.901	-200.000	0.000	-0.081
-655.886	-69.003	0.089	0.035
-654.872	-96.083	-0.329	0.088
-653.857	-66.189	0.242	0.097
-652.843	-62.535	-0.052	0.022
-651.828	800.000	0.027	0.098
-650.814	44.578	0.101	-0.093
-649.799	81.568	0.084	-0.092
-648.784	800.000	0.035	0.154
-647.770	-190.762	-0.157	0.002
-646.755	704.167	0.070	-0.185
-645.741	74.286	-0.074	-0.078
-644.726	-134.061	-0.230	-0.028
-643.711	-200.000	0.010	-0.246
-642.697	259.967	-0.054	-0.093
-641.682	799.433	-0.062	0.171
-640.668	-108.591	-0.387	-0.084
-639.653	328.126	-0.167	-0.322
-638.638	800.000	-0.044	0.148
-637.624	74.296	0.256	0.269
-636.609	125.960	-0.234	-0.297
-635.595	-91.127	-0.105	-0.030
-634.580	72.706	-0.195	0.204
-633.565	99.130	0.094	-0.109
-632.551	79.708	0.334	-0.360
-631.536	-11.434	0.171	-0.113
-630.522	-66.594	0.287	-0.114
-629.507	-2.043	0.098	0.069
-628.492	63.112	0.246	0.247
-627.478	-200.000	-0.053	0.268
-626.463	581.672	-0.059	0.144
-625.449	247.028	0.161	-0.273
-624.434	130.826	-0.207	-0.266
-623.419	40.347	-0.222	-0.201
-622.405	-34.718	0.185	-0.101
-621.390	-181.027	-0.145	-0.003
-620.376	462.059	-0.055	-0.124
-619.361	1.181	0.069	-0.050
-618.346	-200.000	-0.002	0.392
-617.332	800.000	-0.034	-0.115
-616.317	800.000	-0.027	-0.075
-615.303	23.133	-0.149	-0.123
-614.288	-4.125	0.193	-0.134
-613.273	-67.721	0.179	0.070
-612.259	-200.000	0.105	0.485
-611.244	-123.191	0.181	-0.029
-610.230	739.253	-0.056	0.150
-609.215	-200.000	0.022	0.312
-608.201	800.000	-0.047	-0.186
-607.186	-161.394	0.128	-0.007
-606.171	-142.513	0.252	-0.025
-605.157	148.244	-0.076	0.103
-604.142	800.000	0.044	0.182
-603.128	305.783	-0.030	0.056
-602.113	493.209	-0.030	-0.068
-601.098	-128.889	0.099	0.014
-600.084	54.874	-0.063	0.061
-599.069	377.900	-0.057	-0.116
-598.055	56.686	-0.138	0.134
-597.040	-200.000	-0.060	0.318
-596.025	71.044	0.103	-0.107
-595.011	46.640	0.169	0.157
-593.996	-200.000	0.005	-0.053
-592.982	378.498	0.191	-0.391
-591.967	-167.187	-0.059	-0.002
-590.952	-200.000	-0.005	0.194
-589.938	245.729	-0.049	-0.083
-588.923	40.080	-0.213	0.192
-587.909	230.321	0.107	0.175
-586.894	-200.000	0.001	-0.345
-585.879	-200.000	-0.034	-0.161
-584.865	800.000	-0.013	-0.038
-583.850	-1.490	0.069	-0.049
-582.836	-129.634	0.345	-0.048
-581.821	180.222	-0.139	-0.205
-580.806	-50.295	-0.257	-0.122
-579.792	-179.603	0.123	-0.003
-578.777	-159.292	0.440	-0.025
-577.763	800.000	0.075	0.234
-576.748	-95.226	0.211	0.057
-575.733	-66.747	0.417	-0.165
-574.719	15.855	-0.235	-0.185
-573.704	-52.682	-0.186	-0.086
-572.690	475.971	-0.104	0.235
-571.675	-32.482	0.267	0.149
-570.661	-8.967	-0.222	0.149
-569.646	325.079	0.150	-0.288
-568.631	609.906	0.069	-0.172
-567.617	-19.624	-0.217	0.134
-566.602	303.175	-0.108	-0.200
-565.588	259.510	0.101	-0.175
-564.573	-48.786	-0.138	0.066
-563.558	321.963	-0.132	0.251
-562.544	30.729	0.153	-0.131
-561.529	800.000	0.031	-0.094
-560.515	-200.000	-0.037	0.164
-559.500	135.316	-0.335	0.436
-558.485	-52.699	0.118	-0.055
-557.471	143.942	0.123	0.164
-556.456	-119.858	-0.124	-0.021
-555.442	576.671	0.049	0.119
-554.427	594.577	0.050	0.124
-553.412	18.583	0.151	-0.121
-552.398	-128.152	-0.038	-0.005
-551.383	-200.000	-0.039	-0.512
-550.369	-200.000	0.020	-0.123
-549.354	-200.000	0.004	0.171
-548.339	301.649	-0.101	0.187
-547.325	-200.000	-0.027	0.148
-546.310	-200.000	0.041	-0.223
-545.296	800.000	0.047	0.163
-544.281	-64.176	0.230	-0.094
-543.266	-131.321	-0.316	-0.042
-542.252	190.049	0.123	-0.185
-541.237	36.580	0.312	0.275
-540.223	233.676	-0.245	-0.403
-539.208	-92.682	-0.142	-0.040
-538.193	329.701	0.217	0.417
-537.179	36.225	-0.126	-0.111
-536.164	26.383	0.155	0.130
-535.150	-200.000	-0.031	0.244
-534.135	-200.000	-0.011	0.092
-533.121	-22.320	-0.215	-0.130
-532.106	433.919	-0.108	0.234
-531.091	800.000	0.088	-0.273
-530.077	-200.000	-0.055	0.336
-529.062	-83.787	-0.206	0.066
-528.048	-141.501	0.138	0.014
-527.033	-146.440	0.141	-0.012
-526.018	-75.732	0.331	0.117
-525.004	-74.896	0.200	0.072
-523.989	80.953	0.119	0.128
-522.975	-89.911	-0.257	-0.075
-521.960	-14.014	-0.160	-0.103
-520.945	488.900	-0.118	-0.270
-519.931	201.725	0.132	-0.203
-518.916	-118.834	-0.380	0.067
-517.902	-200.000	0.008	0.417
-516.887	-200.000	-0.014	0.193
-515.872	-144.028	-0.280	0.026
-514.858	-200.000	0.003	0.066
-513.843	-27.534	-0.175	0.102
-512.829	472.280	-0.099	-0.223
-511.814	-24.134	-0.155	0.093
-510.799	-200.000	0.006	-0.089
-509.785	-53.166	-0.306	-0.141
-508.770	187.946	0.151	-0.225
-507.756	-200.000	-0.080	-0.561
-506.741	126.249	-0.192	0.243
-505.726	-200.000	0.017	0.256
-504.712	-200.000	-0.015	-0.153
-503.697	-62.590	-0.337	-0.140
-502.683	-59.558	0.068	-0.029
-501.668	-200.000	-0.006	0.269
-500.653	-67.803	0.128	0.050
-499.639	-200.000	0.042	-0.254
-498.624	-60.027	-0.026	-0.011
-497.610	-92.106	0.134	-0.038
-496.595	83.632	0.096	0.105
-495.581	-188.058	-0.200	0.003
-494.566	-165.316	0.159	-0.007
-493.551	-28.735	-0.326	-0.187
-492.537	-0.256	0.236	0.168
-491.522	282.272	-0.012	0.022
-490.508	-91.402	0.591	-0.169
-489.493	352.734	-0.219	-0.433
-488.478	53.606	0.137	-0.131
-487.464	800.000	-0.042	0.124
-486.449	-152.801	-0.297	0.021
-485.435	800.000	-0.030	0.082
-484.420	326.494	0.104	-0.199
-483.405	-36.643	0.177	-0.095
-482.391	144.419	0.191	0.254
-481.376	-200.000	-0.017	-0.157
-480.362	800.000	-0.050	0.176
-479.347	22.516	0.126	-0.103
-478.332	-129.956	-0.094	0.013
-477.318	182.338	0.073	-0.108
-476.303	-113.117	0.065	0.013
-475.289	-91.189	-0.351	0.100
-474.274	-52.248	-0.080	0.037
-473.259	-66.900	-0.223	-0.088
-472.245	592.998	0.211	-0.520
-471.230	800.000	-0.075	0.286
-470.216	-200.000	0.056	0.394
-469.201	-55.540	0.250	-0.111
-468.186	30.672	-0.102	0.087
-467.172	-64.431	-0.181	0.073
-466.157	181.144	-0.094	-0.137
-465.143	-63.380	-0.063	-0.026
-464.128	-200.000	-0.060	0.000
-463.113	54.532	-0.171	0.164
-462.099	163.426	-0.059	-0.083
-461.084	-2.801	-0.135	0.094
-460.070	-200.000	-0.037	0.270
-459.055	-200.000	-0.042	0.391
-458.040	-106.661	0.165	0.037
-457.026	-200.000	-0.016	0.163
-456.011	285.058	-0.128	-0.230
-454.997	574.715	-0.027	-0.066
-453.982	-52.219	-0.072	0.033
-452.968	47.285	0.142	-0.132
-451.953	-142.166	-0.139	0.014
-450.938	98.195	-0.098	-0.112
-449.924	19.440	-0.138	0.111
-448.909	-98.173	0.095	0.024
-447.895	-26.383	0.087	0.051
-446.880	-82.803	0.198	-0.064
-445.865	-150.769	0.069	-0.005
-444.851	39.081	-0.038	0.034
-443.836	52.381	-0.119	0.113
-442.822	22.199	-0.090	-0.074
-441.807	-200.000	0.032	0.196
-440.792	250.125	-0.283	0.479
-439.778	-91.592	0.212	0.060
-438.763	172.331	0.124	0.178
-437.749	379.087	-0.055	0.113
-436.734	-96.154	-0.205	0.054
-435.719	31.349	-0.186	-0.159
-434.705	69.695	0.159	-0.163
-433.690	-120.506	-0.118	-0.020
-432.676	-38.931	-0.231	-0.121
-431.661	-83.226	-0.119	-0.038
-430.646	-77.512	0.059	0.021
-429.632	202.692	-0.133	-0.205
-428.617	800.000	0.059	-0.165
-427.603	800.000	0.178	0.503
-426.588	117.606	-0.020	-0.024
-425.573	46.912	-0.165	0.152
-424.559	5.998	-0.278	-0.205
-423.544	-152.733	0.153	-0.011
-422.530	-35.112	-0.130	0.070
-421.515	-200.000	-0.016	-0.295
-420.500	-76.811	0.236	-0.082
-419.486	800.000	-0.081	0.340
-418.471	-45.746	-0.208	0.102
-417.457	-82.571	0.360	0.116
-416.442	800.000	0.011	-0.039
-415.428	116.238	-0.087	-0.106
-414.413	5.178	0.122	0.089
-413.398	460.888	-0.125	0.276
-412.384	-143.150	-0.130	0.013
-411.369	2.594	-0.179	0.129
-410.355	-130.145	0.271	0.037
-409.340	285.175	0.109	-0.195
-408.325	-200.000	-0.012	-0.338
-407.311	112.639	0.124	0.150
-406.296	-181.951	-0.225	-0.004
-405.282	-66.083	0.217	0.086
-404.267	82.468	-0.138	0.148
-403.252	-117.414	0.141	-0.025
-402.238	-77.655	-0.020	0.007
-401.223	-140.725	0.397	-0.041
-400.209	-159.895	-0.320	-0.017
-399.194	12.385	-0.058	0.044
-398.179	-200.000	0.042	-0.429
-397.165	35.863	0.248	-0.217
-396.150	47.860	-0.093	-0.086
-395.136	800.000	-0.018	0.068
-394.121	585.179	-0.006	-0.015
-393.106	-117.799	-0.109	0.019
-392.092	-93.125	-0.103	0.028
-391.077	4.826	-0.167	-0.122
-390.063	-200.000	0.047	-0.306
-389.048	316.740	0.081	0.153
-388.033	103.877	-0.369	-0.431
-387.019	-200.000	-0.008	0.161
-386.004	-120.263	0.020	0.003
-384.990	800.000	-0.071	-0.213
-383.975	115.307	0.084	0.102
-382.960	-200.000	0.008	-0.164
-381.946	-200.000	-0.000	-0.112
-380.931	-46.378	-0.153	-0.074
-379.917	144.903	0.107	0.142
-378.902	410.232	0.121	-0.254
-377.888	14.423	-0.215	-0.167
-376.873	-26.566	-0.098	0.057
-375.858	-200.000	0.012	-0.090
-374.844	-17.770	0.217	0.136
-373.829	-95.301	-0.164	0.044
-372.815	41.802	-0.211	-0.190
-371.800	-145.754	0.188	0.017
-370.785	800.000	-0.078	0.218
-369.771	16.239	0.256	-0.201
-368.756	39.710	0.051	-0.045
-367.742	-200.000	0.045	0.237
-366.727	91.962	0.179	0.200
-365.712	800.000	0.071	0.206
-364.698	16.507	-0.027	0.021
-363.683	78.952	-0.116	-0.123
-362.669	-200.000	0.018	0.078
-361.654	218.754	-0.126	-0.200
-360.639	-50.583	0.138	0.065
-359.625	-70.222	0.270	0.102
-358.610	800.000	-0.042	-0.166
-357.596	800.000	-0.076	0.224
-356.581	30.276	-0.157	0.133
-355.566	800.000	0.041	0.130
-354.552	-70.216	-0.121	0.046
-353.537	-85.460	-0.474	0.147
-352.523	-200.000	0.005	-0.170
-351.508	105.515	-0.102	0.120
-350.493	-70.652	-0.259	-0.097
-349.479	-200.000	-0.029	0.126
-348.464	800.000	0.008	0.028
-347.450	146.308	0.265	0.353
-346.435	-16.350	0.260	-0.163
-345.420	800.000	-0.029	0.106
-344.406	-200.000	-0.036	-0.224
-343.391	-104.371	0.143	-0.033
-342.377	193.434	0.047	0.071
-341.362	757.390	0.009	-0.024
-340.348	44.171	0.009	0.008
-339.333	-195.138	0.283	0.002
-338.318	482.931	0.038	0.085
-337.304	800.000	0.051	-0.206
-336.289	60.395	0.110	0.108
-335.275	-200.000	0.018	-0.112
-334.260	159.713	-0.179	-0.247
-333.245	51.500	-0.059	-0.055
-332.231	199.664	0.121	-0.185
-331.216	-33.762	-0.151	0.082
-330.202	6.104	0.339	0.249
-329.187	681.892	0.177	-0.457
-328.172	-87.867	-0.379	-0.113
-327.158	-200.000	-0.132	0.000
-326.143	82.222	0.229	0.247
-325.129	-79.688	0.193	0.064
-324.114	-51.523	-0.154	0.071
-323.099	491.258	0.077	0.175
-322.085	-95.718	0.229	0.061
-321.070	-116.124	0.123	0.023
-320.056	586.358	0.074	0.180
-319.041	-26.173	0.230	0.134
-318.026	800.000	-0.161	-0.454
-317.012	-104.670	0.378	0.086
-315.997	6.118	0.157	0.115
-314.983	29.936	-0.162	0.136
-313.968	371.246	-0.120	0.242
-312.953	-55.597	0.324	0.144
-311.939	-43.057	0.357	-0.179
-310.924	-200.000	-0.019	0.235
-309.910	118.615	-0.049	0.059
-308.895	215.425	-0.050	0.079
-307.880	205.684	-0.098	-0.152
-306.866	800.000	-0.083	-0.258
-305.851	-200.000	-0.000	0.007
-304.837	216.881	-0.075	0.117
-303.822	-130.848	-0.136	0.018
-302.807	800.000	-0.072	-0.246
-301.793	55.729	-0.339	-0.326
-300.778	64.505	-0.068	-0.067
-299.764	-52.316	0.194	0.089
-298.749	-2.555	0.172	0.120
-297.735	-191.365	-0.219	0.002
-296.720	312.923	-0.162	0.301
-295.705	246.650	0.112	0.186
-294.691	-115.222	-0.182	-0.034
-293.676	55.640	0.139	-0.134
-292.662	52.756	0.116	-0.110
-291.647	135.993	-0.054	-0.070
-290.632	-172.911	-0.214	0.007
-289.618	-200.000	0.033	-0.145
-288.603	-56.160	0.095	0.042
-287.589	-112.486	-0.094	0.019
-286.574	468.322	-0.085	0.190
-285.559	-60.064	0.177	-0.075
-284.545	-200.000	0.067	0.424
-283.530	-56.368	0.068	0.030
-282.516	-105.422	-0.252	0.057
-281.501	558.812	0.128	-0.307
-280.486	407.263	0.056	-0.117
-279.472	-200.000	-0.011	-0.219
-278.457	-85.456	0.443	-0.137
-277.443	-119.562	-0.195	-0.033
-276.428	-155.743	0.297	-0.019
-275.413	386.734	-0.201	-0.411
-274.399	142.620	0.216	-0.283
-273.384	-150.135	0.259	-0.020
-272.370	28.302	0.241	0.201
-271.355	-175.067	-0.459	-0.013
-270.340	-163.716	-0.103	0.005
-269.326	-88.810	-0.190	0.056
-268.311	336.607	-0.051	-0.098
-267.297	17.588	-0.167	-0.131
-266.282	-141.319	-0.156	-0.016
-265.267	-61.431	-0.144	-0.060
-264.253	-4.622	-0.076	0.052
-263.238	800.000	0.137	0.410
-262.224	800.000	-0.045	0.171
-261.209	-48.452	-0.227	0.108
-260.195	73.324	-0.392	0.405
-259.180	800.000	0.123	0.421
-258.165	-68.757	0.149	0.057
-257.151	800.000	-0.083	0.257
-256.136	-166.582	-0.073	0.003
-255.122	-127.407	-0.291	-0.042
-254.107	-50.946	0.042	-0.020
-253.092	-200.000	0.005	0.371
-252.078	505.618	0.173	0.396
-251.063	-200.000	-0.005	0.201
-250.049	68.744	-0.164	-0.166
-249.034	168.917	-0.065	-0.091
-248.019	30.839	0.151	-0.128
-247.005	8.279	0.367	-0.273
-245.990	800.000	-0.048	0.204
-244.976	107.822	0.070	-0.082
-243.961	-3.176	0.417	-0.288
-242.946	443.752	-0.130	0.281
-241.932	294.415	0.203	-0.367
-240.917	287.543	-0.098	0.175
-239.903	-200.000	0.004	-0.078
-238.888	-0.503	0.286	0.201
-237.873	-200.000	-0.018	0.116
-236.859	-145.290	0.340	0.030
-235.844	-200.000	-0.019	-0.331
-234.830	-66.943	-0.055	0.021
-233.815	-200.000	-0.014	0.101
-232.800	-21.598	0.319	-0.192
-231.786	800.000	0.066	-0.272
-230.771	-110.972	0.334	0.068
-229.757	-95.583	0.352	-0.093
-228.742	-21.104	0.124	0.075
-227.727	-148.446	-0.076	0.006
-226.713	-200.000	-0.141	-0.634
-225.698	146.959	0.197	-0.261
-224.684	-155.011	-0.336	0.022
-223.669	-175.933	0.128	-0.003
-222.655	254.311	0.046	-0.077
-221.640	271.901	-0.213	0.371
-220.625	27.272	-0.266	0.221
-219.611	-118.025	0.143	0.025
-218.596	-200.000	0.011	-0.214
-217.582	-2.686	0.242	-0.167
-216.567	217.998	0.119	0.187
-215.552	163.769	0.153	0.213
-214.538	251.542	0.146	0.245
-213.523	-200.000	0.013	0.225
-212.509	800.000	-0.085	0.278
-211.494	116.931	-0.044	0.053
-210.479	800.000	0.081	0.254
-209.465	-72.274	0.208	0.076
-208.450	-128.165	0.259	-0.037
-207.436	-20.743	-0.098	0.059
-206.421	101.027	-0.190	-0.218
-205.406	-123.352	-0.241	0.038
-204.392	-200.000	-0.023	-0.164
-203.377	154.655	-0.154	-0.209
-202.363	-33.624	-0.124	-0.067
-201.348	-200.000	-0.027	0.378
-200.333	220.318	-0.122	0.194
-199.319	-144.660	0.083	-0.008
-198.304	67.824	-0.226	0.227
-197.290	251.077	0.187	-0.314
-196.275	-57.432	-0.159	-0.069
-195.260	-89.216	-0.238	-0.069
-194.246	74.116	0.104	-0.107
-193.231	-200.000	0.038	-0.264
-192.217	-95.137	-0.166	-0.044
-191.202	253.324	0.223	0.376
-190.187	92.990	-0.384	-0.428
-189.173	-41.951	-0.182	-0.092
-188.158	800.000	-0.082	0.228
-187.144	-157.067	0.433	-0.026
-186.129	226.075	0.082	-0.131
-185.114	82.719	-0.151	0.162
-184.100	-51.102	0.118	0.054
-183.085	800.000	0.069	0.250
-182.071	-72.117	0.231	-0.085
-181.056	-148.395	-0.047	-0.004
-180.042	154.595	-0.161	-0.219
-179.027	-123.085	0.325	-0.051
-178.012	-68.852	-0.339	-0.129
-176.998	392.088	0.107	0.220
-175.983	-52.530	0.247	0.112
-174.969	60.996	-0.182	-0.178
-173.954	167.228	0.066	-0.092
-172.939	54.184	-0.085	-0.081
-171.925	-200.000	0.022	-0.100
-170.910	142.807	-0.134	-0.176
-169.896	-36.494	0.107	-0.057
-168.881	49.384	-0.158	-0.147
-167.866	-55.659	-0.236	0.104
-166.852	247.710	-0.158	0.263
-165.837	389.940	-0.093	-0.190
-164.823	800.000	-0.018	0.057
-163.808	18.379	0.009	-0.007
-162.793	246.060	-0.158	-0.262
-161.779	-118.255	0.204	-0.036
-160.764	54.024	0.140	-0.133
-159.750	15.617	0.119	0.092
-158.735	-31.647	0.138	0.077
-157.720	-64.605	-0.144	-0.057
-156.706	800.000	-0.010	-0.037
-155.691	499.622	-0.010	0.023
-154.677	-200.000	-0.009	-0.087
-153.662	-124.812	0.045	0.007
-152.647	-200.000	0.021	0.138
-151.633	800.000	0.076	-0.217
-150.618	-120.519	-0.293	0.049
-149.604	95.610	-0.114	-0.128
-148.589	-200.000	-0.059	0.267
-147.574	-125.427	0.133	-0.020
-146.560	9.188	-0.075	0.056
-145.545	-93.825	0.062	-0.017
-144.531	-200.000	-0.021	0.196
-143.516	0.537	-0.192	0.135
-142.502	301.488	-0.015	0.028
-141.487	409.354	0.109	0.226
-140.472	259.799	-0.099	0.169
-139.458	-89.086	0.120	-0.035
-138.443	-66.598	0.416	-0.162
-137.429	103.974	0.138	0.160
-136.414	229.514	-0.102	-0.164
-135.399	-160.620	-0.299	0.016
-134.385	1.852	0.264	0.187
-133.370	-75.270	-0.336	-0.118
-132.356	517.896	-0.055	-0.126
-131.341	188.675	-0.063	-0.093
-130.326	-163.491	0.094	-0.004
-129.312	-63.655	0.154	0.062
-128.297	-150.553	-0.116	-0.009
-127.283	370.247	-0.079	0.157
-126.268	-50.727	0.209	-0.097
-125.253	-104.654	-0.045	0.010
-124.239	11.468	-0.242	0.183
-123.224	-200.000	-0.021	0.202
-122.210	428.947	0.116	0.246
-121.195	-42.980	0.221	0.110
