DTS Sentinel unit serial number:	SN413079Multiplexer serial number:	ORYXHardware model number:	OX4-SRSoftware version number:	ORYX F/W v4.00 Oryx Data Collector v3.7.2.0data status	okinstallation	princeton_trtdifferential loss correction	single-endedforward channel	channel 2reverse channel	N/Adate	2019/09/19time	03:23:35forward acquisition time	60.00reverse acquisition time	0.00gamma	496.2192k internal	0.2353k external	0.2353temperature offset calibration	1.0014default loss term (dB/km)	0.3790temperature slope calibration	1.0000multiplexer offset coefficient	1.0000multiplexer slope coefficient	1.0000fibre end	0.00T internal ref (°C)	20.69T ext. ref 1 (°C)	0.65T ext. ref 2 (°C)	14.21length (m)	temperature (°C)	Stokes	anti-Stokes-747.200	-58.069	-0.177	-0.077
-746.185	-61.670	0.073	-0.031
-745.171	7.796	0.172	0.129
-744.156	-152.139	-0.221	-0.016
-743.142	-153.007	0.281	0.020
-742.127	329.544	-0.048	0.092
-741.112	-78.394	0.123	-0.042
-740.098	800.000	0.053	-0.198
-739.083	-75.104	-0.209	-0.075
-738.069	603.253	-0.122	0.303
-737.054	-185.585	0.168	-0.003
-736.039	41.995	-0.216	0.195
-735.025	-124.011	0.159	-0.025
-734.010	-93.600	-0.242	0.067
-732.996	163.609	-0.131	-0.184
-731.981	-47.253	0.037	0.018
-730.966	207.841	-0.145	-0.226
-729.952	35.746	-0.325	0.285
-728.937	119.518	-0.017	-0.021
-727.923	-38.434	-0.126	-0.066
-726.908	-61.707	0.294	0.123
-725.894	-139.525	-0.507	0.054
-724.879	800.000	-0.062	0.181
-723.864	73.999	0.161	0.169
-722.850	-74.956	-0.278	-0.099
-721.835	-107.070	0.527	0.116
-720.821	124.453	0.051	0.064
-719.806	8.679	-0.261	-0.196
-718.791	112.146	0.117	0.141
-717.777	-65.395	-0.267	-0.107
-716.762	-52.864	0.433	0.199
-715.748	-0.126	-0.264	0.187
-714.733	58.467	-0.079	0.077
-713.718	-140.071	0.062	-0.006
-712.704	-94.573	-0.230	-0.062
-711.689	-200.000	-0.088	-0.419
-710.675	55.458	-0.152	-0.146
-709.660	-200.000	-0.021	0.097
-708.645	-200.000	-0.011	0.138
-707.631	-160.145	-0.322	0.017
-706.616	-31.725	0.207	0.116
-705.602	800.000	0.090	-0.261
-704.587	-22.262	0.175	0.105
-703.572	379.466	0.021	-0.043
-702.558	-135.770	-0.235	-0.028
-701.543	-163.607	0.242	-0.011
-700.529	-80.522	-0.123	-0.041
-699.514	225.313	0.065	-0.105
-698.499	205.455	0.092	-0.143
-697.485	506.726	0.033	0.077
-696.470	56.327	-0.262	-0.254
-695.456	596.114	-0.051	-0.127
-694.441	-49.831	0.228	-0.108
-693.426	-52.539	0.101	0.046
-692.412	597.001	0.193	-0.477
-691.397	800.000	0.079	0.288
-690.383	-200.000	-0.025	-0.321
-689.368	-113.764	-0.355	-0.069
-688.354	800.000	-0.035	0.136
-687.339	-200.000	-0.010	0.331
-686.324	-200.000	-0.030	0.158
-685.310	-200.000	0.075	0.331
-684.295	-200.000	-0.010	0.065
-683.281	-105.230	0.109	-0.025
-682.266	-38.218	0.236	0.124
-681.251	-200.000	-0.027	-0.184
-680.237	-200.000	0.030	-0.400
-679.222	137.289	-0.019	-0.024
-678.208	-159.469	-0.128	0.007
-677.193	-200.000	-0.004	-0.097
-676.178	-78.517	0.179	0.061
-675.164	-154.280	-0.371	0.025
-674.149	-200.000	0.057	-0.249
-673.135	800.000	-0.039	-0.113
-672.120	800.000	-0.130	-0.371
-671.105	-200.000	-0.012	0.188
-670.091	170.641	0.049	-0.070
-669.076	-12.766	0.058	0.037
-668.062	-200.000	0.019	0.286
-667.047	-171.699	0.103	-0.003
-666.032	18.442	-0.196	0.156
-665.018	-32.232	0.202	0.112
-664.003	472.746	0.096	-0.215
-662.989	135.855	0.160	-0.207
-661.974	262.060	-0.134	-0.231
-660.959	-9.860	0.198	0.131
-659.945	4.231	0.116	-0.084
-658.930	66.604	0.170	0.172
-657.916	-49.435	-0.222	0.105
-656.901	159.974	-0.138	-0.192
-655.886	-148.942	-0.411	0.033
-654.872	-116.479	0.088	0.016
-653.857	124.958	-0.130	-0.162
-652.843	-89.487	-0.251	-0.073
-651.828	-200.000	-0.008	-0.304
-650.814	19.685	0.190	0.152
-649.799	-132.675	-0.143	0.018
-648.784	745.347	0.038	-0.100
-647.770	29.332	0.335	-0.283
-646.755	207.604	-0.148	-0.230
-645.741	-8.210	0.182	-0.121
-644.726	-60.658	-0.346	0.146
-643.711	97.287	0.055	0.063
-642.697	-159.750	0.455	-0.025
-641.682	-200.000	0.005	0.069
-640.668	563.947	0.069	-0.166
-639.653	-4.248	-0.167	0.115
-638.638	-200.000	-0.025	-0.149
-637.624	-89.616	0.261	0.076
-636.609	49.443	0.107	-0.100
-635.595	103.558	0.165	0.192
-634.580	4.164	-0.200	-0.145
-633.565	-13.960	0.102	0.066
-632.551	49.382	-0.174	-0.163
-631.536	-123.861	0.202	-0.032
-630.522	190.678	0.027	-0.040
-629.507	-137.632	0.085	0.009
-628.492	90.871	-0.220	-0.245
-627.478	-135.529	-0.265	0.031
-626.463	-200.000	-0.017	-0.233
-625.449	-89.243	0.282	-0.083
-624.434	257.574	0.130	0.222
-623.419	77.322	-0.201	-0.212
-622.405	800.000	0.088	-0.343
-621.390	-98.621	-0.130	-0.033
-620.376	-127.376	0.130	-0.019
-619.361	800.000	-0.033	-0.095
-618.346	-200.000	0.003	-0.261
-617.332	35.496	0.174	0.152
-616.317	599.705	-0.082	-0.203
-615.303	-138.095	-0.073	0.008
-614.288	365.093	-0.095	-0.191
-613.273	-9.167	0.193	0.128
-612.259	206.015	0.081	-0.125
-611.244	800.000	0.027	0.078
-610.230	-70.112	-0.134	-0.050
-609.215	26.221	-0.138	-0.115
-608.201	-200.000	0.039	0.318
-607.186	-117.012	-0.269	0.049
-606.171	-177.243	0.203	-0.005
-605.157	-40.525	-0.377	-0.194
-604.142	34.246	-0.186	-0.161
-603.128	76.006	-0.139	0.146
-602.113	-47.160	-0.172	0.083
-601.098	-31.418	0.068	-0.038
-600.084	-55.288	-0.222	0.099
-599.069	-26.651	0.347	-0.202
-598.055	97.196	0.111	-0.126
-597.040	273.109	0.241	-0.422
-596.025	-87.029	-0.163	-0.049
-595.011	59.908	-0.199	0.195
-593.996	-112.458	-0.409	-0.081
-592.982	111.661	0.151	-0.181
-591.967	-151.889	0.316	0.023
-590.952	429.243	0.182	-0.389
-589.938	798.913	-0.033	0.091
-588.923	-68.391	0.260	-0.100
-587.909	800.000	0.078	-0.265
-586.894	104.923	-0.218	-0.255
-585.879	-9.413	-0.277	-0.183
-584.865	368.406	0.116	0.232
-583.850	9.607	-0.287	-0.216
-582.836	-103.392	-0.149	-0.035
-581.821	-200.000	0.011	-0.145
-580.806	217.331	0.059	-0.092
-579.792	800.000	0.103	-0.343
-578.777	-36.319	-0.044	-0.023
-577.763	-47.498	0.213	0.103
-576.748	-2.819	-0.200	-0.139
-575.733	442.210	-0.074	-0.161
-574.719	-120.427	-0.132	-0.022
-573.704	-143.023	-0.422	0.040
-572.690	124.338	-0.057	0.072
-571.675	-23.095	0.217	0.130
-570.661	0.727	0.150	-0.106
-569.646	-65.806	0.189	0.075
-568.631	406.618	-0.130	0.272
-567.617	-148.450	0.257	-0.021
-566.602	80.888	0.078	-0.084
-565.588	800.000	0.159	0.500
-564.573	-112.103	-0.163	-0.033
-563.558	174.537	0.052	0.074
-562.544	150.141	0.083	-0.112
-561.529	-200.000	-0.057	0.389
-560.515	-122.977	-0.230	0.037
-559.500	7.798	-0.404	-0.300
-558.485	164.586	0.220	-0.308
-557.471	-146.418	0.101	-0.009
-556.456	-178.822	-0.192	-0.004
-555.442	66.606	-0.140	0.141
-554.427	-200.000	-0.039	0.382
-553.412	-126.614	0.250	0.037
-552.398	800.000	0.038	0.156
-551.383	355.805	0.068	0.134
-550.369	218.514	-0.070	0.111
-549.354	-109.509	-0.234	-0.049
-548.339	800.000	-0.045	0.163
-547.325	-157.685	0.376	0.022
-546.310	-33.224	0.171	-0.094
-545.296	21.051	-0.291	-0.233
-544.281	-200.000	0.001	0.062
-543.266	-152.589	-0.379	0.027
-542.252	800.000	0.158	-0.454
-541.237	-66.083	0.200	-0.079
-540.223	357.325	0.056	0.111
-539.208	-121.568	-0.347	-0.057
-538.193	578.189	-0.074	0.179
-537.179	8.059	0.372	-0.276
-536.164	204.150	-0.037	-0.057
-535.150	-119.794	-0.168	-0.029
-534.135	-52.278	0.196	-0.090
-533.121	-110.717	-0.197	-0.040
-532.106	5.950	0.139	0.102
-531.091	-184.796	0.145	0.002
-530.077	-25.618	-0.419	0.244
-529.062	-200.000	0.006	0.170
-528.048	111.225	0.098	-0.116
-527.033	-19.623	0.119	0.073
-526.018	62.350	0.185	-0.182
-525.004	-200.000	0.019	-0.454
-523.989	99.664	0.238	0.273
-522.975	-173.094	-0.085	0.003
-521.960	-86.949	0.424	-0.128
-520.945	-104.368	0.262	-0.060
-519.931	-102.870	-0.381	0.090
-518.916	-19.199	-0.223	-0.137
-517.902	88.485	0.241	-0.264
-516.887	-158.232	-0.295	-0.017
-515.872	19.773	-0.058	0.046
-514.858	-49.336	-0.331	0.156
-513.843	-106.424	-0.241	-0.053
-512.829	-200.000	-0.012	0.062
-511.814	-200.000	0.042	-0.308
-510.799	73.205	0.296	-0.306
-509.785	22.054	0.146	0.118
-508.770	-79.117	0.226	0.076
-507.756	293.704	0.075	0.136
-506.741	-41.427	0.244	-0.124
-505.726	-200.000	0.028	0.315
-504.712	-60.983	0.381	0.159
-503.697	-200.000	-0.010	0.216
-502.683	125.534	0.189	-0.236
-501.668	376.454	-0.092	0.185
-500.653	80.687	0.067	0.072
-499.639	-59.698	-0.146	0.062
-498.624	-61.864	-0.379	-0.157
-497.610	-45.624	0.140	0.068
-496.595	800.000	0.078	-0.336
-495.581	-33.985	-0.183	-0.100
-494.566	800.000	-0.106	-0.338
-493.551	800.000	0.049	0.174
-492.537	38.364	-0.121	-0.107
-491.522	-200.000	0.015	-0.238
-490.508	-200.000	0.009	-0.308
-489.493	-200.000	0.064	-0.474
-488.478	43.845	-0.233	-0.211
-487.464	5.224	-0.259	0.188
-486.449	800.000	0.034	0.096
-485.435	24.954	0.184	0.150
-484.420	-200.000	-0.013	-0.364
-483.405	-23.557	-0.020	0.012
-482.391	-41.805	-0.085	-0.043
-481.376	-84.472	-0.142	0.044
-480.362	-151.692	0.160	0.012
-479.347	148.274	-0.105	-0.139
-478.332	-43.331	0.230	-0.115
-477.318	44.249	-0.396	-0.359
-476.303	-200.000	0.029	0.218
-475.289	-38.195	0.068	-0.035
-474.274	460.695	0.120	0.263
-473.259	189.721	0.041	-0.060
-472.245	-92.293	-0.146	0.041
-471.230	-200.000	0.010	0.200
-470.216	178.980	-0.082	0.118
-469.201	296.514	-0.118	-0.214
-468.186	-200.000	0.023	0.237
-467.172	800.000	0.143	0.554
-466.157	92.366	0.247	-0.275
-465.143	24.044	0.164	0.133
-464.128	-177.545	-0.318	-0.008
-463.113	800.000	-0.137	0.388
-462.099	151.765	0.055	0.074
-461.084	-145.669	-0.137	-0.012
-460.070	-179.269	0.267	0.006
-459.055	-73.581	0.092	0.033
-458.040	-200.000	0.034	0.383
-457.026	146.600	-0.095	-0.126
-456.011	-17.362	-0.230	-0.143
-454.997	-45.165	-0.045	0.022
-453.982	800.000	-0.019	0.079
-452.968	-200.000	-0.024	-0.182
-451.953	-4.141	-0.375	-0.256
-450.938	-200.000	0.030	0.164
-449.924	36.524	0.137	-0.120
-448.909	299.540	0.043	0.078
-447.895	370.451	0.093	-0.186
-446.880	573.759	-0.101	-0.242
-445.865	-1.956	0.125	0.086
-444.851	177.138	0.178	0.255
-443.836	-200.000	0.084	0.436
-442.822	-200.000	0.031	0.208
-441.807	-200.000	-0.030	0.238
-440.792	-3.169	0.074	0.051
-439.778	162.475	-0.188	0.260
-438.763	-200.000	0.063	-0.379
-437.749	230.587	0.254	0.410
-436.734	150.582	0.082	0.110
-435.719	800.000	0.070	-0.220
-434.705	-200.000	-0.009	0.096
-433.690	316.199	-0.029	0.054
-432.676	447.527	0.074	-0.161
-431.661	-170.209	-0.348	-0.012
-430.646	37.768	0.210	-0.184
-429.632	-71.810	0.315	-0.116
-428.617	-96.897	0.164	-0.042
-427.603	42.520	0.122	0.110
-426.588	13.907	-0.041	0.032
-425.573	92.301	0.052	0.058
-424.559	554.802	0.120	0.284
-423.544	118.157	-0.173	0.210
-422.530	-67.927	0.097	0.037
-421.515	-200.000	0.214	-0.000
-420.500	416.729	0.046	0.098
-419.486	10.929	0.096	0.072
-418.471	-84.622	-0.076	0.023
-417.457	37.205	-0.358	0.312
-416.442	442.002	-0.130	0.280
-415.428	-200.000	0.042	-0.373
-414.413	-62.528	-0.265	-0.108
-413.398	360.482	0.019	0.037
-412.384	45.806	-0.068	-0.061
-411.369	497.409	0.119	0.269
-410.355	800.000	0.060	0.255
-409.340	27.248	-0.068	-0.056
-408.325	51.297	0.070	0.066
-407.311	-200.000	-0.003	0.054
-406.296	-172.353	0.127	0.004
-405.282	800.000	0.067	0.278
-404.267	8.287	-0.365	-0.270
-403.252	-33.189	-0.138	0.075
-402.238	19.194	-0.243	-0.192
-401.223	3.132	-0.086	0.062
-400.209	800.000	-0.097	-0.281
-399.194	-120.112	-0.137	-0.023
-398.179	53.051	-0.178	0.168
-397.165	-27.087	-0.104	-0.060
-396.150	-69.518	-0.342	0.129
-395.136	93.420	0.173	-0.192
-394.121	415.358	-0.088	0.184
-393.106	82.064	-0.311	0.332
-392.092	-196.118	-0.261	-0.002
-391.077	338.027	0.075	0.143
-390.063	41.715	0.221	0.197
-389.048	137.701	0.073	-0.094
-388.033	-172.683	-0.298	0.009
-387.019	800.000	0.077	-0.217
-386.004	-200.000	-0.028	0.137
-384.990	-21.822	-0.231	-0.138
-383.975	131.320	-0.087	0.110
-382.960	480.731	0.231	0.515
-381.946	-200.000	-0.005	-0.057
-380.931	322.075	-0.175	0.328
-379.917	-121.013	-0.102	-0.017
-378.902	-83.391	-0.104	-0.033
-377.888	-200.000	0.063	-0.357
-376.873	-90.749	-0.297	-0.084
-375.858	94.406	0.185	-0.206
-374.844	139.669	0.174	-0.225
-373.829	289.711	-0.299	0.533
-372.815	-144.615	-0.243	-0.022
-371.800	-94.188	-0.180	0.049
-370.785	800.000	0.069	-0.228
-369.771	800.000	-0.054	-0.148
-368.756	170.459	0.191	0.268
-367.742	320.664	-0.200	0.372
-366.727	561.301	0.158	0.374
-365.712	112.618	0.135	0.160
-364.698	-200.000	0.006	-0.285
-363.683	7.692	-0.291	-0.214
-362.669	-154.576	0.278	-0.018
-361.654	-200.000	-0.037	0.226
-360.639	-102.024	0.106	0.025
-359.625	-63.699	0.101	-0.041
-358.610	-50.021	0.293	-0.137
-357.596	229.104	-0.182	-0.292
-356.581	-200.000	-0.048	0.462
-355.566	-72.718	0.192	-0.070
-354.552	503.203	0.116	0.263
-353.537	38.610	-0.212	-0.186
-352.523	-200.000	0.009	0.054
-351.508	111.813	-0.182	0.215
-350.493	-173.211	0.201	-0.006
-349.479	372.365	-0.165	0.329
-348.464	62.540	-0.068	0.066
-347.450	-149.035	0.242	0.019
-346.435	-54.809	-0.242	-0.107
-345.420	-66.142	0.258	-0.101
-344.406	36.774	-0.044	0.039
-343.391	69.763	-0.099	0.101
-342.377	105.321	0.162	-0.188
-341.362	-200.000	0.019	0.088
-340.348	-199.658	-0.166	-0.001
-339.333	120.399	0.132	-0.161
-338.318	-123.181	-0.074	-0.012
-337.304	-95.759	0.247	-0.065
-336.289	-200.000	0.025	0.249
-335.275	616.953	-0.144	0.354
-334.260	-200.000	-0.011	-0.243
-333.245	800.000	-0.135	0.479
-332.231	47.654	-0.479	0.438
-331.216	-60.990	-0.268	0.111
-330.202	159.491	0.039	0.053
-329.187	240.845	0.066	0.109
-328.172	-200.000	-0.030	0.257
-327.158	-58.527	-0.172	-0.073
-326.143	-75.248	-0.360	0.126
-325.129	-125.115	0.318	-0.048
-324.114	118.338	0.165	0.200
-323.099	37.275	-0.203	0.176
-322.085	254.282	0.138	0.231
-321.070	279.748	-0.125	-0.220
-320.056	605.037	-0.101	0.246
-319.041	336.525	-0.108	-0.206
-318.026	-140.098	0.090	-0.009
-317.012	-35.892	0.096	0.051
-315.997	800.000	-0.083	-0.289
-314.983	-53.992	-0.029	0.013
-313.968	324.108	0.164	-0.307
-312.953	-200.000	0.024	-0.115
-311.939	800.000	-0.092	0.323
-310.924	18.772	-0.247	-0.194
-309.910	24.737	0.027	-0.022
-308.895	-26.895	0.263	-0.150
-307.880	-170.073	-0.181	0.006
-306.866	10.615	-0.186	0.139
-305.851	-200.000	-0.023	0.230
-304.837	-200.000	0.026	-0.387
-303.822	800.000	-0.035	0.119
-302.807	-12.623	0.074	-0.047
-301.793	-113.834	0.089	0.017
-300.778	-200.000	-0.030	0.294
-299.764	360.567	0.090	0.176
-298.749	-21.264	-0.303	0.182
-297.735	10.769	-0.229	0.172
-296.720	-113.395	-0.236	-0.045
-295.705	39.898	0.188	-0.166
-294.691	390.514	0.126	0.257
-293.676	-200.000	0.037	0.198
-292.662	-200.000	-0.022	0.182
-291.647	206.248	-0.173	0.264
-290.632	89.127	0.117	0.128
-289.618	94.428	-0.123	-0.137
-288.603	-36.538	-0.386	0.204
-287.589	800.000	0.107	0.386
-286.574	-75.266	-0.158	0.055
-285.559	177.484	-0.086	-0.123
-284.545	-184.832	-0.306	-0.005
-283.530	292.271	0.192	0.343
-282.516	-121.339	0.277	-0.045
-281.501	337.518	-0.053	-0.101
-280.486	-21.570	-0.109	0.065
-279.472	-200.000	-0.069	-0.337
-278.457	-78.928	0.219	-0.073
-277.443	30.083	0.332	0.277
-276.428	297.138	0.075	-0.136
-275.413	-120.295	0.233	-0.039
-274.399	-200.000	-0.323	0.001
-273.384	-69.162	-0.210	-0.079
-272.370	130.560	-0.135	-0.169
-271.355	639.323	0.051	-0.126
-270.340	218.819	0.069	-0.108
-269.326	-151.015	-0.044	-0.003
-268.311	140.048	-0.171	-0.220
-267.297	345.601	0.070	-0.135
-266.282	369.446	0.056	-0.111
-265.267	-200.000	0.068	-0.525
-264.253	-200.000	0.033	-0.347
-263.238	444.276	0.171	0.367
-262.224	247.174	-0.097	-0.161
-261.209	-129.361	-0.078	0.011
-260.195	-50.465	0.076	0.035
-259.180	233.488	-0.086	0.139
-258.165	-11.233	0.260	0.168
-257.151	-200.000	-0.047	0.252
-256.136	-200.000	0.023	-0.169
-255.122	647.690	0.069	0.172
-254.107	33.899	0.317	-0.270
-253.092	800.000	-0.045	0.170
-252.078	-200.000	-0.008	0.418
-251.063	709.224	-0.112	-0.290
-250.049	-4.517	0.205	0.138
-249.034	-35.054	0.462	0.247
-248.019	187.864	-0.071	-0.104
-247.005	-15.262	-0.262	-0.164
-245.990	31.556	0.093	0.079
-244.976	-116.969	-0.100	-0.018
-243.961	-72.143	0.242	0.088
-242.946	7.069	-0.065	0.047
-241.932	-125.857	0.272	0.040
-240.917	-200.000	-0.011	0.048
-239.903	7.187	-0.359	-0.262
-238.888	-63.570	0.255	0.103
-237.873	328.320	-0.145	-0.272
-236.859	-61.807	0.162	0.066
-235.844	-30.670	0.218	-0.121
-234.830	14.581	0.145	-0.110
-233.815	-200.000	0.001	0.038
-232.800	800.000	-0.103	-0.374
-231.786	183.189	0.132	-0.190
-230.771	6.791	-0.127	-0.092
-229.757	-200.000	-0.001	-0.153
-228.742	-78.417	0.147	-0.049
-227.727	31.394	-0.252	-0.212
-226.713	-7.398	0.200	0.133
-225.698	202.522	0.234	-0.353
-224.684	800.000	-0.015	0.051
-223.669	184.513	0.097	0.141
-222.655	78.761	-0.009	-0.009
-221.640	-200.000	0.022	0.541
-220.625	28.434	0.096	0.079
-219.611	457.084	-0.061	0.133
-218.596	-200.000	-0.023	0.296
-217.582	264.431	0.056	0.095
-216.567	114.669	-0.060	0.072
-215.552	-17.743	-0.216	-0.132
-214.538	-200.000	0.025	-0.161
-213.523	34.270	0.243	-0.207
-212.509	-200.000	-0.052	-0.274
-211.494	3.181	0.184	-0.130
-210.479	115.713	0.021	-0.025
-209.465	-200.000	-0.043	-0.307
-208.450	618.266	0.067	-0.163
-207.436	-138.314	0.341	-0.037
-206.421	92.535	0.062	-0.069
-205.406	-200.000	0.009	0.332
-204.392	-200.000	-0.040	-0.199
-203.377	160.664	-0.070	0.096
-202.363	396.211	0.172	0.351
-201.348	-75.978	0.181	0.062
-200.333	800.000	0.136	0.563
-199.319	241.682	-0.088	-0.143
-198.304	-87.149	0.226	0.067
-197.290	663.707	0.113	-0.285
-196.275	275.987	0.143	0.248
-195.260	-77.804	0.124	0.042
-194.246	17.638	0.244	-0.190
-193.231	-200.000	0.053	-0.304
-192.217	210.815	-0.201	-0.308
-191.202	129.405	-0.151	-0.189
-190.187	800.000	0.014	0.052
-189.173	-3.361	-0.107	0.073
-188.158	-200.000	0.018	0.163
-187.144	-37.655	-0.102	-0.053
-186.129	30.610	-0.182	0.152
-185.114	800.000	0.159	0.508
-184.100	-89.650	0.075	-0.021
-183.085	-75.801	0.177	0.061
-182.071	687.594	0.068	-0.175
-181.056	-119.314	0.263	0.045
-180.042	250.757	0.144	-0.238
-179.027	791.969	-0.063	-0.169
-178.012	-54.595	0.209	0.092
-176.998	-91.731	0.290	-0.080
-175.983	130.624	-0.246	-0.307
-174.969	62.599	0.176	-0.172
-173.954	271.574	0.056	0.096
-172.939	47.765	-0.099	0.090
-171.925	600.851	0.052	-0.126
-170.910	-173.056	0.163	-0.005
-169.896	-200.000	-0.011	0.345
-168.881	-200.000	0.013	0.408
-167.866	44.034	-0.070	-0.063
-166.852	-68.061	0.131	-0.050
-165.837	800.000	-0.052	-0.216
-164.823	-45.351	-0.146	0.071
-163.808	800.000	-0.076	-0.320
-162.793	-118.983	0.143	-0.025
-161.779	-200.000	-0.022	-0.174
-160.764	32.003	0.456	-0.383
-159.750	-54.979	-0.344	-0.151
-158.735	-121.198	-0.097	0.016
-157.720	411.333	0.077	0.159
-156.706	56.002	-0.147	0.139
-155.691	800.000	0.024	0.087
-154.677	-173.811	-0.107	0.003
-153.662	-171.434	-0.230	0.007
-152.647	-200.000	0.030	0.220
-151.633	-8.737	0.148	-0.097
-150.618	-200.000	-0.013	0.056
-149.604	-200.000	0.059	-0.285
-148.589	-17.763	-0.170	-0.104
-147.574	433.502	-0.061	0.129
-146.560	800.000	0.046	-0.125
-145.545	268.536	0.176	-0.300
-144.531	18.729	-0.098	-0.077
-143.516	399.992	0.105	-0.213
-142.502	206.574	0.030	-0.046
-141.487	-165.888	0.222	0.009
-140.472	-200.000	0.008	0.151
-139.458	-200.000	-0.018	-0.138
-138.443	-134.351	-0.440	0.053
-137.429	66.768	-0.123	-0.122
-136.414	-159.508	0.230	-0.012
-135.399	374.162	0.097	0.192
-134.385	-49.337	0.153	-0.071
-133.370	800.000	-0.133	-0.449
-132.356	-184.603	0.124	-0.002
-131.341	669.005	-0.080	0.202
-130.326	-100.309	0.090	0.022
-129.312	-200.000	0.001	0.071
-128.297	81.712	0.243	0.257
-127.283	-84.882	0.324	0.099
-126.268	-132.279	-0.133	-0.017
-125.253	-200.000	0.073	0.395
-124.239	58.360	0.039	-0.037
-123.224	552.802	-0.121	-0.284
-122.210	56.394	-0.182	0.172
-121.195	-145.437	0.249	-0.022
-120.180	-87.780	0.209	0.061
