DTS Sentinel unit serial number:	SN413079Multiplexer serial number:	ORYXHardware model number:	OX4-SRSoftware version number:	ORYX F/W v4.00 Oryx Data Collector v3.7.2.0data status	okinstallation	princeton_trtdifferential loss correction	single-endedforward channel	channel 2reverse channel	N/Adate	2019/09/13time	20:07:34forward acquisition time	60.00reverse acquisition time	0.00gamma	496.2192k internal	0.2333k external	0.2333temperature offset calibration	1.0135default loss term (dB/km)	0.3790temperature slope calibration	1.0000multiplexer offset coefficient	1.0000multiplexer slope coefficient	1.0000fibre end	0.00T internal ref (°C)	29.62T ext. ref 1 (°C)	3.26T ext. ref 2 (°C)	24.06length (m)	temperature (°C)	Stokes	anti-Stokes-747.200	-92.178	-0.487	-0.138
-746.185	175.504	0.146	0.213
-745.171	-139.416	0.081	0.009
-744.156	790.223	-0.077	0.212
-743.142	-200.000	-0.022	0.274
-742.127	261.109	-0.113	0.196
-741.112	15.042	0.019	0.015
-740.098	72.201	0.053	0.055
-739.083	-97.633	0.450	-0.117
-738.069	39.163	0.123	0.110
-737.054	-200.000	-0.215	-0.001
-736.039	800.000	-0.060	-0.252
-735.025	-151.593	0.208	-0.015
-734.010	-113.126	-0.317	0.063
-732.996	-120.131	0.085	-0.015
-731.981	23.421	-0.163	-0.134
-730.966	-200.000	-0.021	-0.203
-729.952	18.433	0.071	0.057
-728.937	24.931	-0.215	-0.179
-727.923	-104.691	-0.234	-0.054
-726.908	14.055	-0.205	0.160
-725.894	24.920	0.105	-0.087
-724.879	136.716	0.083	-0.109
-723.864	-51.468	-0.293	0.137
-722.850	-67.704	-0.109	-0.043
-721.835	-131.372	0.086	-0.011
-720.821	-67.212	0.159	-0.063
-719.806	-48.367	-0.102	0.049
-718.791	371.250	-0.072	0.146
-717.777	29.660	0.045	-0.038
-716.762	637.236	0.108	-0.276
-715.748	-86.718	0.323	-0.099
-714.733	-117.331	0.106	-0.019
-713.718	-64.609	0.079	-0.032
-712.704	-93.341	0.196	-0.055
-711.689	-46.655	-0.231	0.114
-710.675	66.130	0.344	-0.351
-709.660	-77.028	0.087	0.031
-708.645	-200.000	0.025	0.150
-707.631	-76.525	0.514	-0.181
-706.616	-200.000	0.002	-0.266
-705.602	-200.000	-0.009	0.086
-704.587	23.339	0.168	0.139
-703.572	7.890	-0.027	-0.020
-702.558	-39.242	-0.103	0.054
-701.543	334.009	0.034	-0.067
-700.529	800.000	0.027	-0.109
-699.514	-6.223	0.256	0.176
-698.499	-14.562	-0.457	0.295
-697.485	800.000	0.066	0.214
-696.470	800.000	-0.017	-0.074
-695.456	800.000	0.078	-0.237
-694.441	-153.028	0.193	0.014
-693.426	-77.770	0.347	-0.120
-692.412	427.707	0.074	-0.160
-691.397	-73.435	0.169	0.062
-690.383	127.735	-0.084	-0.108
-689.368	-121.886	-0.186	0.031
-688.354	-40.644	0.064	-0.033
-687.339	158.905	-0.180	-0.251
-686.324	800.000	-0.076	0.223
-685.310	302.662	-0.088	-0.163
-684.295	-117.904	-0.306	0.055
-683.281	-200.000	0.032	0.232
-682.266	-62.528	-0.245	0.102
-681.251	122.448	0.177	0.222
-680.237	-90.512	0.145	-0.042
-679.222	-41.574	-0.201	-0.103
-678.208	-200.000	0.025	0.268
-677.193	244.364	0.046	-0.078
-676.178	-28.720	-0.422	0.243
-675.164	-200.000	-0.021	-0.338
-674.149	-30.660	0.258	0.147
-673.135	-48.659	0.256	-0.123
-672.120	313.644	0.105	0.199
-671.105	15.651	0.032	0.026
-670.091	174.731	-0.230	-0.334
-669.076	179.610	-0.097	-0.142
-668.062	-173.145	0.246	0.008
-667.047	-102.393	-0.123	-0.029
-666.032	-120.452	-0.199	0.034
-665.018	90.029	-0.045	0.051
-664.003	362.838	-0.025	-0.051
-662.989	-92.309	-0.190	-0.054
-661.974	53.464	-0.387	0.371
-660.959	-51.989	0.121	-0.056
-659.945	-96.543	-0.145	-0.038
-658.930	-127.878	-0.107	-0.015
-657.916	325.418	0.110	-0.211
-656.901	-113.602	-0.192	0.038
-655.886	-200.000	-0.035	0.177
-654.872	-68.108	0.222	-0.087
-653.857	229.668	0.086	-0.141
-652.843	800.000	0.045	-0.126
-651.828	185.459	0.125	-0.186
-650.814	-200.000	-0.059	0.717
-649.799	-142.141	-0.055	0.005
-648.784	667.817	0.107	0.276
-647.770	-87.900	-0.062	-0.019
-646.755	-113.171	-0.264	-0.052
-645.741	-93.061	0.168	0.047
-644.726	-200.000	-0.030	-0.303
-643.711	-200.000	0.034	0.361
-642.697	-118.238	0.098	-0.017
-641.682	-200.000	0.006	0.130
-640.668	605.440	0.055	-0.137
-639.653	800.000	0.080	-0.270
-638.638	37.535	-0.252	-0.224
-637.624	108.225	-0.069	0.083
-636.609	-135.011	-0.423	0.051
-635.595	800.000	-0.066	-0.188
-634.580	-200.000	0.014	-0.443
-633.565	-51.130	-0.052	-0.024
-632.551	625.892	0.031	-0.078
-631.536	114.372	-0.122	-0.148
-630.522	83.809	0.137	-0.150
-629.507	-200.000	0.038	-0.186
-628.492	189.725	-0.072	0.109
-627.478	-200.000	-0.021	-0.317
-626.463	1.029	-0.123	-0.088
-625.449	-200.000	0.029	0.220
-624.434	-10.187	0.053	0.035
-623.419	284.437	0.129	0.232
-622.405	-200.000	-0.010	0.089
-621.390	729.725	0.080	-0.213
-620.376	-170.574	-0.054	-0.002
-619.361	92.964	-0.059	-0.066
-618.346	241.824	-0.044	-0.073
-617.332	95.177	0.112	0.128
-616.317	-134.134	-0.129	0.016
-615.303	800.000	0.066	0.191
-614.288	-18.915	-0.170	0.106
-613.273	-22.857	0.340	-0.205
-612.259	325.761	0.067	0.128
-611.244	-122.616	-0.213	0.035
-610.230	-129.225	-0.217	-0.030
-609.215	648.699	-0.056	0.144
-608.201	-97.936	-0.182	0.047
-607.186	-200.000	0.022	0.244
-606.171	-200.000	-0.050	0.233
-605.157	300.604	-0.213	-0.394
-604.142	-136.693	-0.216	-0.025
-603.128	800.000	-0.040	0.138
-602.113	-11.902	0.056	0.037
-601.098	84.914	0.208	-0.228
-600.084	-40.938	-0.236	0.122
-599.069	800.000	-0.062	0.193
-598.055	-127.254	-0.089	0.013
-597.040	-107.142	0.441	-0.097
-596.025	216.621	0.025	0.040
-595.011	140.895	-0.080	0.105
-593.996	800.000	-0.063	0.269
-592.982	-18.812	0.258	0.161
-591.967	-60.717	-0.220	-0.093
-590.952	156.294	0.172	0.237
-589.938	381.064	-0.061	-0.125
-588.923	800.000	-0.075	-0.217
-587.909	-200.000	0.035	-0.195
-586.894	-108.749	-0.319	0.068
-585.879	-119.492	0.205	-0.036
-584.865	-190.293	0.256	-0.003
-583.850	-66.047	-0.235	-0.094
-582.836	-31.287	-0.380	-0.214
-581.821	-128.921	0.148	0.021
-580.806	95.403	0.156	0.178
-579.792	-27.288	-0.126	0.073
-578.777	-200.000	-0.053	-0.254
-577.763	-200.000	0.046	-0.238
-576.748	22.871	0.091	-0.075
-575.733	800.000	0.032	-0.122
-574.719	-200.000	0.037	0.172
-573.704	800.000	0.072	-0.302
-572.690	486.936	-0.069	0.158
-571.675	69.840	-0.059	0.061
-570.661	-169.287	-0.230	0.008
-569.646	-200.000	-0.018	-0.128
-568.631	-1.455	-0.247	-0.174
-567.617	208.722	-0.142	-0.222
-566.602	106.904	-0.250	-0.296
-565.588	-200.000	-0.015	-0.098
-564.573	75.229	-0.114	0.120
-563.558	-200.000	0.013	-0.163
-562.544	800.000	0.046	0.149
-561.529	-108.773	0.101	0.022
-560.515	-57.140	0.547	0.241
-559.500	-200.000	-0.010	-0.117
-558.485	-101.142	0.186	0.045
-557.471	72.928	0.107	0.111
-556.456	-59.414	0.225	-0.097
-555.442	-200.000	-0.020	-0.137
-554.427	-146.660	-0.189	-0.016
-553.412	-135.004	0.075	-0.009
-552.398	800.000	0.027	0.088
-551.383	-88.148	0.238	0.071
-550.369	800.000	-0.121	-0.362
-549.354	-200.000	0.018	-0.164
-548.339	-18.553	0.182	0.113
-547.325	-6.302	-0.134	-0.091
-546.310	-97.247	-0.513	-0.133
-545.296	56.032	0.222	-0.215
-544.281	174.192	-0.107	-0.154
-543.266	517.303	-0.070	0.163
-542.252	68.536	0.216	0.221
-541.237	-138.274	0.291	-0.032
-540.223	280.152	-0.134	-0.238
-539.208	-200.000	0.048	-0.302
-538.193	-44.798	-0.156	0.077
-537.179	157.409	0.150	-0.207
-536.164	-48.384	0.112	-0.054
-535.150	-57.774	-0.278	-0.121
-534.135	280.483	-0.054	-0.096
-533.121	-140.017	0.293	-0.031
-532.106	800.000	0.007	-0.022
-531.091	-173.048	-0.300	0.009
-530.077	-66.354	0.195	0.077
-529.062	-18.248	0.292	-0.182
-528.048	-9.240	0.187	0.125
-527.033	66.720	0.172	0.174
-526.018	120.699	0.060	0.075
-525.004	194.419	0.111	-0.167
-523.989	-200.000	0.008	-0.132
-522.975	-200.000	-0.043	0.375
-521.960	23.496	0.110	-0.090
-520.945	545.865	0.020	-0.049
-519.931	-23.369	-0.010	-0.006
-518.916	184.179	0.170	0.251
-517.902	692.855	-0.054	0.141
-516.887	-16.478	-0.238	-0.150
-515.872	-200.000	-0.011	0.466
-514.858	-87.584	-0.111	-0.033
-513.843	511.741	0.082	-0.191
-512.829	-89.535	-0.127	0.037
-511.814	-59.758	-0.107	-0.046
-510.799	2.165	0.155	0.111
-509.785	86.023	0.082	-0.090
-508.770	259.498	-0.058	-0.100
-507.756	191.190	0.159	-0.239
-506.741	19.831	-0.361	-0.290
-505.726	11.034	0.145	0.110
-504.712	56.688	0.082	-0.079
-503.697	54.426	0.057	0.055
-502.683	-52.248	-0.153	-0.070
-501.668	-95.202	-0.253	0.068
-500.653	800.000	0.042	-0.167
-499.639	603.757	-0.091	-0.225
-498.624	-200.000	-0.016	0.186
-497.610	388.676	0.111	0.228
-496.595	190.484	-0.071	-0.107
-495.581	-95.320	-0.055	0.015
-494.566	38.356	0.057	-0.051
-493.551	-200.000	0.043	0.211
-492.537	-120.665	0.418	0.070
-491.522	74.594	-0.046	0.048
-490.508	-200.000	0.008	-0.228
-489.493	521.063	-0.004	0.008
-488.478	800.000	-0.073	-0.214
-487.464	-198.103	0.252	-0.001
-486.449	-200.000	0.050	-0.446
-485.435	-26.149	-0.372	-0.218
-484.420	-200.000	-0.073	0.421
-483.405	42.233	-0.061	-0.055
-482.391	3.908	0.419	-0.304
-481.376	-200.000	0.032	-0.247
-480.362	-28.869	-0.332	0.190
-479.347	-200.000	-0.001	0.030
-478.332	-53.775	0.116	0.053
-477.318	-200.000	-0.056	0.276
-476.303	-200.000	0.036	0.297
-475.289	684.785	0.088	0.229
-474.274	-56.293	0.349	-0.154
-473.259	39.554	0.243	-0.217
-472.245	-47.292	-0.180	0.087
-471.230	-112.573	-0.298	0.059
-470.216	-67.115	-0.303	-0.119
-469.201	20.773	-0.289	-0.233
-468.186	308.516	-0.026	-0.048
-467.172	423.372	0.029	0.062
-466.157	-135.819	-0.216	-0.025
-465.143	712.376	0.049	0.129
-464.128	-186.092	0.181	-0.003
-463.113	-200.000	-0.088	0.395
-462.099	109.572	0.177	-0.211
-461.084	-24.689	-0.069	0.041
-460.070	74.255	0.198	-0.207
-459.055	-200.000	0.011	0.198
-458.040	181.199	0.251	0.367
-457.026	258.268	-0.093	0.160
-456.011	-99.779	-0.012	-0.003
-454.997	373.374	-0.185	0.374
-453.982	437.004	-0.078	0.169
-452.968	-107.889	0.376	0.081
-451.953	27.032	-0.148	0.124
-450.938	22.843	-0.036	0.029
-449.924	-90.886	0.253	-0.072
-448.909	382.520	0.106	-0.217
-447.895	351.935	0.156	0.307
-446.880	800.000	-0.010	-0.044
-445.865	-2.546	-0.173	-0.121
-444.851	800.000	-0.043	-0.135
-443.836	-200.000	-0.057	-0.270
-442.822	-200.000	0.012	-0.095
-441.807	145.814	0.291	0.387
-440.792	115.701	0.075	-0.092
-439.778	-200.000	-0.027	-0.202
-438.763	429.921	0.074	-0.160
-437.749	-39.539	0.390	0.203
-436.734	-53.035	-0.095	-0.043
-435.719	-200.000	0.007	-0.316
-434.705	-9.254	0.182	-0.121
-433.690	-85.082	-0.073	0.023
-432.676	382.166	0.151	-0.309
-431.661	73.302	-0.239	0.248
-430.646	-148.431	0.047	0.004
-429.632	-187.944	0.101	-0.001
-428.617	178.197	0.084	0.122
-427.603	21.815	0.245	0.198
-426.588	-200.000	-0.021	0.189
-425.573	-18.019	-0.280	0.174
-424.559	-56.511	0.306	-0.135
-423.544	-200.000	0.023	-0.254
-422.530	-200.000	-0.006	-0.183
-421.515	197.927	0.073	-0.111
-420.500	13.290	0.246	0.189
-419.486	800.000	-0.009	0.034
-418.471	-125.315	-0.191	0.029
-417.457	89.947	-0.245	0.271
-416.442	-166.277	-0.389	-0.016
-415.428	-200.000	-0.033	0.192
-414.413	116.696	0.049	0.060
-413.398	56.760	0.116	0.112
-412.384	-180.120	0.092	0.002
-411.369	-67.513	-0.111	0.043
-410.355	-32.341	-0.278	0.154
-409.340	-121.261	0.383	0.064
-408.325	343.654	0.049	-0.095
-407.311	-158.674	-0.077	-0.004
-406.296	-200.000	-0.031	-0.141
-405.282	443.317	-0.174	0.379
-404.267	-200.000	0.026	-0.124
-403.252	47.333	0.139	0.129
-402.238	-51.647	-0.225	0.104
-401.223	115.307	0.086	0.104
-400.209	74.757	-0.093	-0.097
-399.194	512.351	-0.124	-0.288
-398.179	-81.578	-0.238	-0.078
-397.165	122.195	0.262	-0.325
-396.150	-0.436	-0.056	-0.040
-395.136	12.958	-0.132	0.101
-394.121	800.000	0.107	0.324
-393.106	800.000	-0.044	0.171
-392.092	217.223	0.109	0.173
-391.077	100.751	0.099	-0.115
-390.063	-115.996	0.141	0.026
-389.048	106.266	0.068	0.080
-388.033	-165.278	0.065	0.003
-387.019	800.000	-0.128	0.426
-386.004	79.451	0.055	0.058
-384.990	16.792	0.146	-0.115
-383.975	15.318	-0.016	-0.012
-382.960	243.588	0.104	-0.173
-381.946	108.572	-0.204	-0.241
-380.931	-119.054	0.061	0.011
-379.917	-64.232	-0.468	0.189
-378.902	81.910	0.155	0.166
-377.888	-14.026	0.165	-0.105
-376.873	145.395	0.192	-0.255
-375.858	-100.397	-0.392	-0.096
-374.844	712.816	-0.051	-0.134
-373.829	-113.830	0.392	-0.076
-372.815	-102.538	-0.451	0.107
-371.800	-173.169	0.283	0.009
-370.785	-200.000	-0.048	0.315
-369.771	-66.937	-0.126	0.049
-368.756	-200.000	-0.018	-0.236
-367.742	-38.100	-0.120	-0.063
-366.727	-200.000	-0.031	-0.311
-365.712	61.035	-0.048	-0.047
-364.698	800.000	0.019	0.055
-363.683	-117.170	-0.095	-0.017
-362.669	112.457	0.145	-0.174
-361.654	469.822	0.145	0.323
-360.639	-200.000	0.029	-0.169
-359.625	347.311	0.210	-0.409
-358.610	-60.950	-0.322	0.135
-357.596	26.033	-0.261	0.215
-356.581	800.000	0.063	0.173
-355.566	135.021	0.216	-0.277
-354.552	-1.219	0.125	-0.087
-353.537	440.494	-0.064	-0.139
-352.523	-200.000	0.012	0.142
-351.508	119.388	-0.074	0.091
-350.493	61.240	0.139	0.136
-349.479	14.147	0.277	0.214
-348.464	-200.000	-0.048	-0.282
-347.450	-82.039	0.249	0.080
-346.435	-39.380	0.065	0.034
-345.420	-167.658	-0.336	0.013
-344.406	124.845	0.095	0.119
-343.391	-158.925	-0.066	0.004
-342.377	-200.000	-0.000	0.149
-341.362	295.459	0.127	0.230
-340.348	118.610	0.051	0.063
-339.333	-104.971	-0.341	0.077
-338.318	-57.560	0.285	0.124
-337.304	-54.768	0.125	0.056
-336.289	688.825	-0.060	0.155
-335.275	-80.438	0.196	0.065
-334.260	-85.111	0.078	-0.024
-333.245	36.027	-0.247	0.215
-332.231	-15.395	-0.373	-0.236
-331.216	-160.390	-0.212	0.011
-330.202	81.838	0.075	-0.081
-329.187	-76.880	0.077	0.027
-328.172	204.183	0.211	-0.324
-327.158	-100.784	0.256	0.062
-326.143	-106.996	0.155	0.034
-325.129	-200.000	0.039	0.282
-324.114	235.578	-0.067	0.110
-323.099	-172.937	0.107	0.003
-322.085	24.159	-0.091	0.074
-321.070	13.549	-0.099	-0.076
-320.056	205.482	-0.106	-0.163
-319.041	396.902	-0.084	0.173
-318.026	100.731	0.137	-0.157
-317.012	-70.470	-0.306	-0.114
-315.997	-61.245	0.179	0.074
-314.983	-59.418	0.176	0.075
-313.968	19.193	0.239	0.190
-312.953	-124.784	-0.083	0.013
-311.939	647.417	-0.045	0.115
-310.924	139.749	0.236	-0.307
-309.910	-10.919	0.124	-0.081
-308.895	144.232	0.133	-0.175
-307.880	-140.335	0.354	-0.037
-306.866	-133.955	0.218	-0.027
-305.851	-200.000	0.002	-0.062
-304.837	4.438	-0.258	0.187
-303.822	-141.122	-0.301	0.030
-302.807	-92.024	0.162	0.045
-301.793	-20.851	0.057	-0.035
-300.778	-89.630	-0.120	0.035
-299.764	-200.000	-0.014	0.241
-298.749	24.986	0.139	0.114
-297.735	-4.723	-0.158	0.108
-296.720	197.366	-0.149	-0.224
-295.705	160.885	0.109	0.150
-294.691	-200.000	-0.064	-0.498
-293.676	-200.000	-0.010	-0.167
-292.662	-16.615	0.104	-0.065
-291.647	-200.000	-0.022	-0.195
-290.632	-200.000	-0.013	0.163
-289.618	44.971	-0.093	-0.084
-288.603	-11.413	-0.337	-0.219
-287.589	599.899	-0.089	0.219
-286.574	-200.000	0.052	0.239
-285.559	-99.564	0.030	-0.007
-284.545	-200.000	0.020	-0.189
-283.530	-82.573	0.068	-0.022
-282.516	-69.336	-0.315	0.119
-281.501	-105.427	-0.297	0.067
-280.486	540.761	-0.173	-0.406
-279.472	-140.056	-0.158	-0.016
-278.457	92.110	0.278	-0.309
-277.443	-72.159	-0.211	-0.077
-276.428	-133.563	-0.289	0.036
-275.413	-7.456	0.295	-0.197
-274.399	160.456	-0.190	-0.261
-273.384	116.176	0.182	-0.220
-272.370	800.000	-0.146	-0.475
-271.355	-78.912	0.164	0.055
-270.340	121.509	-0.085	0.104
-269.326	48.243	-0.149	0.138
-268.311	16.983	0.263	-0.206
-267.297	-200.000	-0.027	0.127
-266.282	-200.000	-0.002	-0.079
-265.267	800.000	0.017	-0.072
-264.253	-34.993	-0.133	-0.072
-263.238	-200.000	0.011	-0.166
-262.224	156.700	0.223	0.303
-261.209	-200.000	-0.018	-0.285
-260.195	-147.830	0.142	0.012
-259.180	192.510	0.104	0.155
-258.165	66.712	0.135	-0.135
-257.151	-79.236	0.250	-0.084
-256.136	71.424	-0.177	0.182
-255.122	108.875	-0.050	0.059
-254.107	-22.523	0.088	0.052
-253.092	15.114	-0.252	0.195
-252.078	-200.000	0.002	0.130
-251.063	-16.739	-0.104	-0.065
-250.049	-200.000	0.017	0.180
-249.034	-200.000	0.095	0.411
-248.019	540.655	0.176	-0.413
-247.005	368.310	0.052	-0.104
-245.990	800.000	-0.094	0.383
-244.976	196.859	-0.172	0.259
-243.961	103.607	0.234	0.271
-242.946	55.382	-0.237	-0.226
-241.932	36.811	-0.136	-0.119
-240.917	117.029	-0.097	0.117
-239.903	-21.901	-0.151	-0.091
-238.888	-1.981	-0.236	-0.164
-237.873	-115.783	0.457	0.084
-236.859	-178.680	-0.467	0.011
-235.844	-98.109	0.159	0.040
-234.830	-32.302	-0.115	-0.063
-233.815	326.689	-0.173	0.327
-232.800	557.836	0.096	0.228
-231.786	-200.000	-0.037	0.207
-230.771	800.000	-0.071	0.235
-229.757	800.000	-0.030	-0.083
-228.742	-200.000	0.005	0.372
-227.727	-29.841	0.194	-0.109
-226.713	312.173	0.137	0.253
-225.698	800.000	0.111	0.367
-224.684	-163.177	0.135	0.006
-223.669	-121.795	-0.158	-0.026
-222.655	12.385	0.343	-0.260
-221.640	-50.728	0.446	0.207
-220.625	-113.249	-0.199	-0.039
-219.611	60.777	-0.180	0.175
-218.596	-75.264	0.372	0.131
-217.582	-200.000	0.064	-0.312
-216.567	308.452	0.011	-0.021
-215.552	-114.082	0.230	0.044
-214.538	284.670	0.248	0.439
-213.523	-200.000	0.018	0.102
-212.509	200.498	-0.128	0.194
-211.494	-108.886	-0.314	0.066
-210.479	-154.457	0.544	-0.036
-209.465	-23.171	0.224	0.133
-208.450	44.520	-0.218	0.197
-207.436	-66.411	0.082	-0.032
-206.421	30.703	0.166	-0.140
-205.406	12.636	-0.217	0.165
-204.392	-37.457	-0.006	-0.003
-203.377	-55.830	-0.224	-0.099
-202.363	800.000	0.038	-0.124
-201.348	98.604	-0.144	-0.164
-200.333	-90.295	0.197	0.056
-199.319	-112.839	-0.100	0.020
-198.304	-56.398	-0.339	0.148
-197.290	-200.000	0.013	-0.307
-196.275	276.397	-0.035	-0.061
-195.260	77.108	-0.116	0.121
-194.246	-3.163	-0.263	0.181
-193.231	-125.212	-0.133	0.020
-192.217	-68.504	0.259	0.099
-191.202	-200.000	-0.002	-0.158
-190.187	219.997	0.033	-0.052
-189.173	-200.000	-0.024	0.154
-188.158	-200.000	-0.001	0.115
-187.144	268.958	0.216	-0.373
-186.129	-44.459	0.172	-0.084
-185.114	-89.785	-0.170	0.049
-184.100	288.616	0.071	0.127
-183.085	-113.436	-0.290	0.056
-182.071	-178.478	-0.389	-0.009
-181.056	-39.865	-0.297	-0.153
-180.042	800.000	-0.061	-0.239
-179.027	-122.341	0.258	-0.041
-178.012	-59.925	-0.085	0.036
-176.998	-107.682	-0.146	-0.031
-175.983	125.672	-0.159	-0.197
-174.969	57.798	-0.048	0.046
-173.954	-200.000	-0.075	0.360
-172.939	-101.292	0.252	-0.061
-171.925	56.301	0.107	0.102
-170.910	181.022	-0.110	0.159
-169.896	-153.294	-0.140	-0.010
-168.881	800.000	0.078	-0.326
-167.866	-200.000	-0.021	-0.202
-166.852	-148.269	0.121	-0.010
-165.837	-149.052	-0.312	0.025
-164.823	235.680	-0.071	-0.115
-163.808	-200.000	0.035	0.255
-162.793	156.876	0.172	-0.234
-161.779	210.681	0.156	0.241
-160.764	724.213	0.071	-0.186
-159.750	195.913	-0.055	-0.082
-158.735	800.000	-0.126	0.391
-157.720	154.006	-0.090	-0.121
-156.706	-3.449	0.083	0.057
-155.691	529.989	0.076	0.177
-154.677	772.048	0.100	0.267
-153.662	800.000	-0.075	-0.320
-152.647	398.731	0.036	-0.074
-151.633	-200.000	-0.041	0.239
-150.618	408.501	-0.127	0.264
-149.604	581.897	-0.062	0.151
-148.589	-3.853	0.085	0.058
-147.574	800.000	-0.035	0.120
-146.560	101.558	0.189	0.216
-145.545	-42.651	0.057	0.029
-144.531	-70.070	-0.067	-0.025
-143.516	-42.480	-0.241	0.121
-142.502	-59.165	-0.074	-0.031
-141.487	165.050	-0.106	-0.148
-140.472	79.739	0.178	0.188
-139.458	-58.216	0.073	-0.031
-138.443	-64.451	0.106	-0.042
-137.429	490.502	0.141	0.317
-136.414	-63.125	0.128	0.052
-135.399	116.954	0.142	0.171
-134.385	-168.657	-0.028	0.001
-133.370	-57.748	-0.197	-0.085
-132.356	-85.712	-0.091	-0.028
-131.341	37.236	0.184	0.160
-130.326	25.397	-0.056	-0.046
-129.312	-200.000	-0.034	-0.244
-128.297	-31.591	-0.309	-0.170
-127.283	-200.000	0.009	0.172
-126.268	43.117	0.215	0.193
-125.253	296.553	0.154	0.277
-124.239	8.097	0.222	0.164
-123.224	-105.093	-0.336	-0.075
-122.210	348.889	-0.137	0.265
-121.195	-200.000	0.030	-0.351
