DTS Sentinel unit serial number:	SN413079Multiplexer serial number:	ORYXHardware model number:	OX4-SRSoftware version number:	ORYX F/W v4.00 Oryx Data Collector v3.7.2.0data status	okinstallation	princeton_trtdifferential loss correction	single-endedforward channel	channel 2reverse channel	N/Adate	2019/09/17time	14:51:35forward acquisition time	60.00reverse acquisition time	0.00gamma	496.2192k internal	0.2310k external	0.2310temperature offset calibration	0.9986default loss term (dB/km)	0.3790temperature slope calibration	1.0000multiplexer offset coefficient	1.0000multiplexer slope coefficient	1.0000fibre end	0.00T internal ref (°C)	37.12T ext. ref 1 (°C)	0.40T ext. ref 2 (°C)	34.15length (m)	temperature (°C)	Stokes	anti-Stokes-747.200	-200.000	0.002	-0.099
-746.185	37.428	-0.193	0.174
-745.171	800.000	0.072	0.232
-744.156	100.938	-0.133	0.157
-743.142	-200.000	0.005	0.104
-742.127	-159.295	0.274	-0.016
-741.112	-27.790	-0.174	0.102
-740.098	451.715	-0.143	0.320
-739.083	-18.306	-0.305	0.193
-738.069	242.381	0.064	0.108
-737.054	129.360	-0.132	-0.171
-736.039	0.056	-0.300	-0.217
-735.025	-10.955	0.142	0.095
-734.010	-8.082	-0.218	-0.149
-732.996	0.974	-0.328	-0.238
-731.981	53.466	-0.230	0.224
-730.966	-200.000	-0.064	-0.347
-729.952	-24.213	-0.176	0.107
-728.937	237.248	-0.177	0.298
-727.923	-126.519	0.107	-0.016
-726.908	119.814	-0.196	-0.247
-725.894	-200.000	-0.063	-0.356
-724.879	471.779	0.059	-0.135
-723.864	-61.835	-0.117	-0.050
-722.850	-70.338	-0.321	-0.123
-721.835	288.757	0.058	0.107
-720.821	800.000	-0.093	-0.379
-719.806	27.886	0.127	0.108
-718.791	-76.982	0.366	-0.130
-717.777	151.316	0.074	0.102
-716.762	296.394	0.149	0.278
-715.748	192.321	0.395	0.604
-714.733	-4.623	0.103	0.072
-713.718	-159.287	-0.399	0.023
-712.704	-86.424	-0.079	-0.025
-711.689	122.834	0.134	-0.170
-710.675	-1.260	0.089	0.064
-709.660	-200.000	-0.070	0.345
-708.645	-95.967	0.189	-0.051
-707.631	-85.839	0.024	-0.008
-706.616	167.977	-0.105	0.151
-705.602	285.889	-0.085	-0.156
-704.587	-200.000	0.021	-0.287
-703.572	-59.158	0.160	-0.070
-702.558	-89.963	0.294	-0.087
-701.543	800.000	-0.047	0.188
-700.529	-200.000	0.058	0.264
-699.514	-58.350	0.062	-0.027
-698.499	-32.975	-0.403	0.227
-697.485	313.326	-0.169	-0.322
-696.470	-102.877	-0.445	-0.107
-695.456	29.275	-0.043	0.037
-694.441	-200.000	-0.048	-0.298
-693.426	176.091	-0.094	0.138
-692.412	-40.513	-0.130	0.069
-691.397	-200.000	0.025	0.150
-690.383	-200.000	-0.001	-0.127
-689.368	-35.157	0.087	-0.048
-688.354	84.019	-0.176	0.194
-687.339	-158.338	-0.176	0.010
-686.324	-151.748	-0.110	-0.008
-685.310	12.382	-0.075	0.059
-684.295	-3.422	-0.116	0.082
-683.281	-200.000	-0.004	-0.037
-682.266	-98.033	-0.038	0.010
-681.251	-2.660	-0.196	0.139
-680.237	-200.000	-0.014	0.176
-679.222	-71.959	-0.292	0.110
-678.208	39.849	0.154	-0.140
-677.193	-92.642	0.213	-0.060
-676.178	166.270	-0.058	-0.083
-675.164	264.463	-0.146	0.258
-674.149	-138.003	-0.139	0.016
-673.135	800.000	0.085	-0.278
-672.120	491.982	-0.085	-0.196
-671.105	267.237	-0.198	0.350
-670.091	40.698	0.113	-0.103
-669.076	-159.847	0.152	0.008
-668.062	87.542	-0.245	0.274
-667.047	-90.132	0.305	0.090
-666.032	83.608	-0.142	0.156
-665.018	-117.595	-0.496	0.091
-664.003	723.797	-0.100	-0.270
-662.989	239.716	-0.126	-0.212
-661.974	-123.231	-0.155	0.025
-660.959	-200.000	0.030	0.203
-659.945	52.988	0.024	-0.023
-658.930	800.000	-0.067	-0.238
-657.916	-136.948	0.176	-0.020
-656.901	-9.229	-0.220	-0.149
-655.886	288.368	0.118	0.216
-654.872	-130.429	-0.217	-0.030
-653.857	58.482	-0.164	0.163
-652.843	-2.491	0.018	-0.012
-651.828	-105.189	-0.435	0.101
-650.814	78.306	0.248	0.268
-649.799	-58.613	-0.167	-0.073
-648.784	-15.783	0.063	-0.041
-647.770	91.849	-0.138	0.157
-646.755	-82.041	0.181	0.060
-645.741	95.851	0.109	-0.126
-644.726	393.680	-0.097	-0.205
-643.711	-67.737	0.262	-0.104
-642.697	77.225	-0.236	0.254
-641.682	10.118	-0.260	0.200
-640.668	35.223	0.167	-0.148
-639.653	-200.000	0.009	0.325
-638.638	-200.000	-0.012	0.166
-637.624	-149.939	-0.176	0.014
-636.609	-47.159	0.100	-0.049
-635.595	-200.000	-0.028	0.187
-634.580	-37.450	0.203	-0.110
-633.565	700.646	-0.048	-0.127
-632.551	65.244	0.135	0.138
-631.536	741.459	0.097	0.264
-630.522	-87.319	-0.118	0.036
-629.507	-200.000	-0.013	-0.231
-628.492	-36.877	0.177	-0.096
-627.478	-132.841	-0.198	-0.026
-626.463	121.635	0.288	-0.363
-625.449	99.136	0.137	-0.160
-624.434	-200.000	0.185	-0.000
-623.419	-200.000	0.046	0.208
-622.405	-200.000	0.009	-0.381
-621.390	-28.078	-0.106	0.062
-620.376	301.715	0.063	-0.118
-619.361	-183.060	-0.151	-0.003
-618.346	800.000	-0.057	-0.194
-617.332	425.991	0.111	0.242
-616.317	-35.557	0.191	-0.105
-615.303	153.400	-0.079	0.110
-614.288	-145.473	-0.191	-0.017
-613.273	-78.351	0.227	0.079
-612.259	-141.755	-0.072	-0.007
-611.244	483.020	-0.090	-0.207
-610.230	-171.703	-0.178	0.006
-609.215	-94.606	0.073	-0.020
-608.201	16.810	-0.087	-0.070
-607.186	-200.000	-0.027	0.513
-606.171	26.849	0.095	-0.081
-605.157	-200.000	-0.007	-0.157
-604.142	-95.451	0.149	-0.040
-603.128	800.000	-0.017	-0.072
-602.113	-200.000	-0.013	0.102
-601.098	-44.321	0.313	0.158
-600.084	-18.284	-0.195	0.123
-599.069	-82.612	0.260	0.085
-598.055	-145.689	-0.295	-0.027
-597.040	22.903	0.141	-0.117
-596.025	47.889	-0.118	0.111
-595.011	-99.721	0.158	-0.040
-593.996	300.245	-0.047	0.087
-592.982	11.089	0.182	-0.140
-591.967	61.957	-0.162	0.163
-590.952	-200.000	0.028	-0.301
-589.938	431.012	0.171	0.373
-588.923	475.883	-0.178	0.407
-587.909	-200.000	-0.014	0.121
-586.894	-108.942	0.339	0.073
-585.879	-200.000	-0.020	0.192
-584.865	-200.000	0.013	-0.159
-583.850	-5.189	-0.306	-0.212
-582.836	-200.000	-0.006	0.182
-581.821	265.239	-0.243	0.427
-580.806	-118.057	0.199	-0.036
-579.792	-200.000	-0.012	-0.146
-578.777	-76.546	0.150	0.053
-577.763	800.000	0.100	0.373
-576.748	226.741	0.071	0.117
-575.733	-94.500	-0.126	0.035
-574.719	-118.849	-0.226	-0.040
-573.704	37.463	-0.175	0.157
-572.690	333.511	-0.107	-0.209
-571.675	181.538	0.182	-0.270
-570.661	-200.000	0.029	-0.246
-569.646	587.851	-0.069	-0.170
-568.631	-200.000	-0.008	0.065
-567.617	176.723	0.122	0.178
-566.602	800.000	0.056	0.220
-565.588	368.016	-0.013	0.026
-564.573	-42.467	-0.105	0.054
-563.558	800.000	0.055	-0.158
-562.544	480.715	-0.120	-0.274
-561.529	-85.250	-0.206	0.065
-560.515	-10.732	0.170	0.113
-559.500	-65.927	0.312	-0.126
-558.485	-50.242	0.077	0.037
-557.471	-166.011	0.082	0.004
-556.456	64.869	0.228	-0.232
-555.442	422.483	-0.105	0.227
-554.427	32.834	0.108	-0.095
-553.412	-115.482	0.626	-0.119
-552.398	-177.954	-0.103	0.002
-551.383	-193.616	-0.756	0.007
-550.369	-76.557	0.306	0.108
-549.354	87.294	0.340	0.379
-548.339	222.501	-0.087	-0.141
-547.325	525.536	-0.047	-0.112
-546.310	-111.800	-0.225	-0.046
-545.296	98.775	-0.036	-0.042
-544.281	-168.622	0.114	-0.004
-543.266	-68.713	0.166	-0.065
-542.252	13.743	-0.178	0.139
-541.237	-200.000	-0.022	-0.324
-540.223	14.029	0.253	-0.198
-539.208	-133.677	-0.373	0.047
-538.193	-200.000	-0.022	0.101
-537.179	-200.000	0.021	0.244
-536.164	-79.824	0.104	0.035
-535.150	-200.000	-0.003	-0.090
-534.135	-82.463	-0.059	-0.019
-533.121	358.322	0.118	-0.238
-532.106	-200.000	-0.043	-0.206
-531.091	-176.688	0.243	-0.006
-530.077	-71.009	-0.119	-0.045
-529.062	96.537	-0.169	0.194
-528.048	-59.223	-0.307	-0.133
-527.033	800.000	-0.009	-0.039
-526.018	61.538	-0.077	-0.077
-525.004	-200.000	-0.038	-0.241
-523.989	-200.000	-0.006	0.141
-522.975	133.263	0.055	-0.072
-521.960	60.672	-0.291	0.291
-520.945	-200.000	0.042	-0.188
-519.931	19.128	-0.046	-0.037
-518.916	-103.398	0.037	0.009
-517.902	498.850	-0.043	-0.101
-516.887	97.101	-0.234	0.270
-515.872	29.601	-0.131	-0.112
-514.858	-194.578	0.281	-0.002
-513.843	-27.806	-0.231	0.135
-512.829	358.450	0.119	-0.239
-511.814	-23.428	-0.262	-0.158
-510.799	-200.000	-0.130	0.000
-509.785	-38.794	-0.153	0.081
-508.770	136.506	0.130	0.171
-507.756	-0.166	-0.180	0.129
-506.741	66.756	0.213	0.218
-505.726	-38.188	-0.300	0.160
-504.712	197.015	0.196	0.300
-503.697	-141.669	0.259	-0.026
-502.683	168.037	-0.130	-0.187
-501.668	28.611	0.148	0.126
-500.653	-19.503	-0.178	-0.111
-499.639	-65.105	-0.209	-0.085
-498.624	638.365	0.104	0.266
-497.610	-130.100	-0.248	-0.034
-496.595	-120.653	-0.268	0.046
-495.581	404.655	0.065	-0.138
-494.566	-49.475	-0.029	-0.014
-493.551	-127.103	-0.133	0.020
-492.537	14.299	-0.223	-0.175
-491.522	-114.666	-0.348	0.067
-490.508	173.156	-0.140	0.203
-489.493	-160.922	0.119	-0.006
-488.478	84.782	-0.067	-0.074
-487.464	-4.420	0.042	-0.029
-486.449	-40.678	-0.493	-0.257
-485.435	800.000	-0.089	0.264
-484.420	517.264	-0.123	0.289
-483.405	-47.156	-0.180	0.088
-482.391	800.000	0.015	0.067
-481.376	792.983	0.117	-0.325
-480.362	61.914	-0.058	0.058
-479.347	298.170	0.084	0.155
-478.332	-41.940	0.118	-0.061
-477.318	224.765	0.093	-0.150
-476.303	17.034	0.201	0.160
-475.289	-103.924	-0.216	0.051
-474.274	26.637	-0.204	0.171
-473.259	59.434	-0.163	0.162
-472.245	800.000	-0.004	-0.014
-471.230	99.761	-0.095	0.111
-470.216	174.074	0.236	0.343
-469.201	611.427	0.084	-0.210
-468.186	596.378	-0.070	0.174
-467.172	-200.000	0.000	0.185
-466.157	287.002	0.059	-0.108
-465.143	433.138	-0.105	0.228
-464.128	146.640	-0.238	0.321
-463.113	-141.948	0.181	-0.018
-462.099	110.296	0.050	0.060
-461.084	572.229	0.108	-0.264
-460.070	120.965	-0.016	-0.020
-459.055	661.132	0.058	0.150
-458.040	800.000	0.031	-0.113
-457.026	-200.000	-0.042	-0.377
-456.011	-40.354	0.285	-0.149
-454.997	-97.487	0.425	0.111
-453.982	-116.089	0.043	0.008
-452.968	-82.175	0.134	-0.044
-451.953	587.572	0.022	0.054
-450.938	298.987	-0.073	-0.134
-449.924	-184.467	0.119	-0.002
-448.909	800.000	-0.082	-0.299
-447.895	64.379	-0.169	0.171
-446.880	-108.052	0.367	-0.080
-445.865	361.075	0.116	0.233
-444.851	-168.525	0.365	-0.014
-443.836	6.811	0.341	0.255
-442.822	-88.607	-0.157	0.047
-441.807	56.263	0.093	0.090
-440.792	-200.000	-0.018	0.138
-439.778	135.118	0.176	0.230
-438.763	-121.935	0.501	0.083
-437.749	-200.000	0.029	-0.553
-436.734	169.430	-0.098	0.141
-435.719	-27.247	-0.219	0.128
-434.705	296.713	0.046	-0.085
-433.690	98.219	0.207	-0.239
-432.676	-200.000	0.013	-0.089
-431.661	-59.816	0.189	-0.081
-430.646	671.035	-0.130	-0.339
-429.632	-18.642	0.303	0.189
-428.617	-43.255	0.009	0.004
-427.603	-40.611	-0.172	-0.090
-426.588	194.450	-0.206	-0.313
-425.573	-27.762	-0.127	0.074
-424.559	333.678	0.116	0.225
-423.544	-200.000	0.002	-0.198
-422.530	117.217	-0.062	-0.076
-421.515	-20.615	-0.174	0.107
-420.500	284.427	0.130	0.234
-419.486	460.377	0.115	-0.257
-418.471	661.799	-0.073	0.190
-417.457	-41.729	-0.276	0.142
-416.442	-163.266	0.101	0.005
-415.428	-200.000	-0.006	0.270
-414.413	-83.578	-0.176	-0.056
-413.398	45.762	-0.087	-0.081
-412.384	-86.998	-0.047	0.014
-411.369	-200.000	-0.030	-0.142
-410.355	-200.000	-0.005	0.066
-409.340	197.209	-0.145	0.222
-408.325	-200.000	0.358	0.001
-407.311	789.853	-0.092	-0.253
-406.296	110.277	0.179	-0.216
-405.282	-37.128	0.185	-0.099
-404.267	286.212	-0.098	0.177
-403.252	374.391	0.120	0.245
-402.238	-12.267	0.129	0.085
-401.223	-68.473	-0.295	0.115
-400.209	232.992	-0.044	-0.072
-399.194	-100.652	-0.200	-0.049
-398.179	-9.453	-0.260	0.174
-397.165	-200.000	0.029	-0.210
-396.150	204.795	-0.023	0.036
-395.136	-200.000	-0.009	-0.146
-394.121	211.577	-0.063	-0.099
-393.106	198.178	-0.093	-0.142
-392.092	-0.713	0.067	0.048
-391.077	197.079	-0.088	0.135
-390.063	-153.434	0.155	0.011
-389.048	-200.000	-0.010	-0.361
-388.033	491.826	-0.119	-0.273
-387.019	-200.000	-0.035	0.226
-386.004	123.221	0.109	0.136
-384.990	387.774	-0.062	-0.128
-383.975	7.473	-0.107	-0.080
-382.960	1.894	0.168	0.121
-381.946	422.415	-0.169	0.362
-380.931	708.635	-0.036	0.096
-379.917	-116.174	0.175	0.032
-378.902	-38.989	-0.228	-0.120
-377.888	-87.074	0.087	-0.027
-376.873	-116.442	-0.272	0.050
-375.858	-33.918	0.353	-0.195
-374.844	-200.000	-0.005	0.091
-373.829	-101.862	0.417	0.101
-372.815	15.950	-0.138	0.109
-371.800	63.176	0.100	-0.100
-370.785	220.404	-0.067	-0.107
-369.771	-200.000	-0.012	0.287
-368.756	618.888	-0.013	-0.034
-367.742	-138.661	0.130	-0.014
-366.727	-200.000	-0.053	0.304
-365.712	-34.143	0.080	0.044
-364.698	-89.313	0.140	-0.041
-363.683	-200.000	0.049	-0.508
-362.669	-58.267	-0.039	-0.017
-361.654	-121.216	-0.364	0.061
-360.639	-200.000	-0.022	0.226
-359.625	-34.707	0.179	-0.098
-358.610	-95.188	-0.161	-0.043
-357.596	-35.454	0.288	-0.156
-356.581	-200.000	-0.009	0.093
-355.566	-107.742	0.098	-0.021
-354.552	-200.000	-0.036	-0.249
-353.537	-113.949	0.300	-0.058
-352.523	40.239	0.072	0.065
-351.508	-200.000	-0.031	-0.279
-350.493	-187.774	0.262	-0.003
-349.479	800.000	-0.071	0.243
-348.464	800.000	-0.060	0.203
-347.450	10.780	-0.420	0.320
-346.435	688.060	0.059	-0.155
-345.420	103.229	-0.113	-0.132
-344.406	-200.000	-0.094	-0.524
-343.391	206.095	0.072	0.113
-342.377	-75.337	0.245	-0.087
-341.362	127.152	0.183	0.233
-340.348	-46.627	-0.077	0.038
-339.333	-200.000	0.015	0.382
-338.318	-17.427	-0.088	-0.056
-337.304	367.004	-0.116	-0.233
-336.289	-71.244	0.092	-0.035
-335.275	266.252	-0.274	0.479
-334.260	-192.467	0.240	-0.002
-333.245	261.572	0.140	-0.242
-332.231	-137.558	0.088	0.010
-331.216	176.968	0.101	-0.146
-330.202	414.726	0.071	0.152
-329.187	100.707	0.138	0.160
-328.172	-178.968	0.521	-0.012
-327.158	79.288	0.205	-0.219
-326.143	36.708	-0.175	0.154
-325.129	98.959	0.304	-0.351
-324.114	-33.419	0.038	-0.021
-323.099	70.431	-0.109	-0.112
-322.085	-200.000	-0.007	0.400
-321.070	-146.997	-0.208	-0.018
-320.056	237.678	0.194	-0.322
-319.041	-153.390	-0.085	0.006
-318.026	180.387	-0.083	-0.121
-317.012	-200.000	-0.078	0.448
-315.997	-25.973	0.249	0.146
-314.983	93.508	-0.206	0.233
-313.968	-200.000	-0.013	0.155
-312.953	178.266	-0.124	0.180
-311.939	-200.000	0.007	0.153
-310.924	223.539	-0.153	0.246
-309.910	256.474	0.068	-0.117
-308.895	-200.000	0.050	-0.407
-307.880	-23.313	-0.078	-0.047
-306.866	161.233	-0.171	-0.239
-305.851	-200.000	-0.027	0.127
-304.837	-158.569	-0.117	-0.007
-303.822	255.671	-0.184	0.314
-302.807	-135.490	-0.174	0.021
-301.793	-200.000	0.120	-0.000
-300.778	-19.635	-0.090	-0.055
-299.764	-200.000	0.028	-0.175
-298.749	-58.475	0.110	-0.048
-297.735	207.338	0.044	-0.068
-296.720	-109.972	0.190	-0.040
-295.705	468.420	-0.055	0.124
-294.691	-91.337	0.198	-0.057
-293.676	-102.172	-0.278	-0.067
-292.662	58.091	0.066	-0.065
-291.647	219.627	-0.170	-0.272
-290.632	800.000	0.036	-0.111
-289.618	-74.560	-0.059	-0.021
-288.603	800.000	-0.119	0.413
-287.589	-17.438	-0.214	-0.134
-286.574	-141.876	0.410	-0.041
-285.559	-73.366	0.150	-0.055
-284.545	-200.000	0.007	-0.145
-283.530	37.664	-0.021	0.019
-282.516	-43.301	0.297	0.150
-281.501	800.000	-0.010	-0.040
-280.486	140.950	-0.183	0.241
-279.472	-25.056	0.150	0.089
-278.457	74.468	0.167	0.175
-277.443	800.000	-0.091	-0.283
-276.428	-200.000	0.017	0.139
-275.413	54.031	0.224	-0.215
-274.399	-59.538	-0.064	0.027
-273.384	-200.000	0.003	-0.110
-272.370	-21.965	0.149	0.090
-271.355	-62.584	0.056	-0.023
-270.340	-200.000	-0.019	-0.230
-269.326	-200.000	-0.050	-0.294
-268.311	-60.761	-0.197	-0.083
-267.297	332.030	-0.059	-0.114
-266.282	-188.855	0.212	-0.003
-265.267	146.559	0.062	-0.083
-264.253	-118.085	0.222	0.040
-263.238	286.560	0.084	0.151
-262.224	38.728	-0.255	-0.227
-261.209	36.582	-0.060	0.053
-260.195	-7.511	-0.244	0.164
-259.180	198.848	0.047	-0.072
-258.165	141.582	0.135	-0.178
-257.151	263.276	0.113	-0.195
-256.136	800.000	-0.036	0.102
-255.122	-173.812	-0.126	-0.004
-254.107	-62.493	-0.325	-0.134
-253.092	68.250	0.200	0.204
-252.078	-4.907	-0.337	-0.232
-251.063	3.453	0.222	0.161
-250.049	38.750	0.124	0.110
-249.034	800.000	-0.131	-0.490
-248.019	127.564	-0.248	0.313
-247.005	590.911	0.077	0.189
-245.990	-43.982	0.163	-0.082
-244.976	52.986	-0.083	0.079
-243.961	182.625	-0.213	-0.313
-242.946	-0.300	-0.079	-0.056
-241.932	191.362	-0.014	0.021
-240.917	142.788	0.247	0.326
-239.903	360.971	-0.120	0.238
-238.888	373.657	0.156	0.315
-237.873	196.684	0.048	0.072
-236.859	127.727	0.147	0.186
-235.844	231.587	0.107	0.174
-234.830	-146.106	0.187	0.016
-233.815	-88.382	-0.171	0.051
-232.800	-200.000	0.007	0.057
-231.786	-120.550	0.261	-0.044
-230.771	401.757	0.113	-0.236
-229.757	-130.380	0.385	-0.052
-228.742	569.898	-0.060	-0.146
-227.727	110.263	-0.261	-0.311
-226.713	-200.000	-0.047	-0.316
-225.698	21.109	-0.186	0.150
-224.684	800.000	0.052	-0.166
-223.669	-200.000	-0.030	0.172
-222.655	209.631	0.253	-0.394
-221.640	800.000	-0.086	-0.274
-220.625	-47.361	0.340	0.164
-219.611	800.000	-0.022	-0.090
-218.596	-26.953	0.200	-0.116
-217.582	-200.000	-0.092	-0.712
-216.567	800.000	0.052	0.174
-215.552	266.525	-0.132	0.229
-214.538	-167.240	-0.191	0.008
-213.523	148.584	-0.198	-0.266
-212.509	94.137	-0.169	-0.191
-211.494	-200.000	-0.028	-0.165
-210.479	240.146	-0.230	-0.382
-209.465	393.096	-0.051	0.105
-208.450	11.286	-0.242	-0.185
-207.436	238.002	0.049	-0.082
-206.421	155.923	0.099	0.135
-205.406	-128.808	0.172	-0.024
-204.392	-97.773	0.170	0.044
-203.377	156.130	-0.139	0.190
-202.363	-200.000	0.002	0.088
-201.348	800.000	-0.076	0.265
-200.333	-200.000	0.052	-0.233
-199.319	-200.000	-0.019	-0.097
-198.304	173.055	0.148	0.212
-197.290	-58.666	-0.172	-0.074
-196.275	-99.500	0.368	0.092
-195.260	62.350	-0.130	0.129
-194.246	-166.172	-0.124	-0.005
-193.231	-128.899	0.181	0.025
-192.217	401.014	0.041	0.085
-191.202	-200.000	-0.080	0.494
-190.187	-76.814	-0.115	0.040
-189.173	83.844	0.204	0.222
-188.158	39.225	-0.326	0.289
-187.144	-117.847	0.244	0.043
-186.129	-97.750	-0.095	0.024
-185.114	800.000	-0.029	0.116
-184.100	-49.759	0.025	-0.012
-183.085	340.950	0.140	-0.272
-182.071	194.824	0.069	0.104
-181.056	-200.000	0.059	0.270
-180.042	21.528	-0.034	-0.028
-179.027	34.490	0.204	-0.177
-178.012	-47.587	0.283	0.136
-176.998	-31.270	-0.280	-0.157
-175.983	-110.803	0.106	0.022
-174.969	-67.090	0.300	0.117
-173.954	-91.316	-0.248	0.070
-172.939	-200.000	-0.059	-0.268
-171.925	37.998	0.067	0.059
-170.910	-67.158	0.260	-0.102
-169.896	80.963	-0.232	0.249
-168.881	-136.803	-0.268	-0.031
-167.866	60.712	-0.300	0.296
-166.852	20.785	-0.266	0.214
-165.837	-74.141	0.119	-0.043
-164.823	-200.000	-0.032	-0.186
-163.808	80.522	-0.192	-0.206
-162.793	22.896	0.134	-0.109
-161.779	-200.000	0.023	-0.144
-160.764	-20.931	-0.092	0.056
-159.750	144.003	-0.106	-0.141
-158.735	-131.017	-0.231	-0.031
-157.720	11.838	-0.179	-0.137
-156.706	-200.000	0.011	-0.111
-155.691	318.825	0.073	-0.138
-154.677	-18.799	-0.394	-0.244
-153.662	3.396	-0.362	-0.262
-152.647	189.309	0.105	-0.156
-151.633	-179.064	-0.074	-0.002
-150.618	800.000	-0.049	-0.137
-149.604	288.206	0.103	-0.184
-148.589	-159.984	-0.477	-0.026
-147.574	-11.019	0.132	-0.086
-146.560	131.705	-0.095	0.121
-145.545	-152.354	-0.353	-0.025
-144.531	-200.000	0.037	-0.237
-143.516	-173.286	0.158	-0.005
-142.502	205.755	0.104	0.161
-141.487	50.688	-0.039	-0.037
-140.472	-77.253	0.061	0.021
-139.458	-24.409	0.253	-0.150
-138.443	-200.000	0.022	-0.246
-137.429	18.642	0.220	-0.174
-136.414	-94.454	0.303	0.082
-135.399	-13.400	0.071	-0.046
-134.385	134.121	0.142	0.182
-133.370	151.641	-0.098	0.132
-132.356	800.000	-0.040	0.118
-131.341	592.245	-0.087	-0.212
-130.326	800.000	-0.124	-0.349
-129.312	-166.768	-0.370	-0.015
-128.297	-200.000	-0.006	-0.031
-127.283	163.327	0.147	0.205
-126.268	-62.217	0.051	-0.021
-125.253	12.595	-0.129	0.099
-124.239	800.000	-0.142	-0.450
-123.224	230.101	-0.140	0.226
-122.210	-113.762	-0.239	0.046
