DTS Sentinel unit serial number:	SN413079Multiplexer serial number:	ORYXHardware model number:	OX4-SRSoftware version number:	ORYX F/W v4.00 Oryx Data Collector v3.7.2.0data status	okinstallation	princeton_trtdifferential loss correction	single-endedforward channel	channel 2reverse channel	N/Adate	2019/09/17time	21:15:35forward acquisition time	60.00reverse acquisition time	0.00gamma	496.2192k internal	0.2339k external	0.2339temperature offset calibration	0.9985default loss term (dB/km)	0.3790temperature slope calibration	1.0000multiplexer offset coefficient	1.0000multiplexer slope coefficient	1.0000fibre end	0.00T internal ref (°C)	27.84T ext. ref 1 (°C)	0.19T ext. ref 2 (°C)	19.63length (m)	temperature (°C)	Stokes	anti-Stokes-747.200	-94.402	-0.176	0.048
-746.185	311.711	-0.069	0.130
-745.171	124.441	0.196	0.247
-744.156	-166.233	0.347	0.015
-743.142	-26.678	0.315	-0.185
-742.127	-11.032	-0.136	-0.090
-741.112	67.749	-0.267	-0.274
-740.098	-139.121	-0.135	0.015
-739.083	-200.000	0.005	-0.082
-738.069	-3.511	-0.172	0.120
-737.054	193.648	-0.091	0.138
-736.039	800.000	-0.045	0.135
-735.025	-165.091	0.300	-0.013
-734.010	103.638	-0.045	0.052
-732.996	-72.793	-0.122	0.045
-731.981	-51.596	-0.009	-0.004
-730.966	-200.000	-0.023	-0.194
-729.952	800.000	0.044	0.132
-728.937	-66.795	-0.289	0.115
-727.923	77.475	-0.138	0.147
-726.908	-200.000	0.002	-0.149
-725.894	-31.588	-0.346	-0.195
-724.879	-85.932	0.284	-0.088
-723.864	-168.044	-0.498	0.019
-722.850	-200.000	0.014	-0.206
-721.835	-200.000	0.005	-0.125
-720.821	-59.034	-0.503	-0.217
-719.806	423.488	0.080	0.172
-718.791	-200.000	-0.002	-0.184
-717.777	-200.000	-0.017	-0.091
-716.762	397.896	-0.095	-0.199
-715.748	-200.000	0.037	0.234
-714.733	154.968	-0.133	0.184
-713.718	434.940	0.046	0.099
-712.704	-121.581	-0.219	-0.036
-711.689	80.519	0.125	0.135
-710.675	192.420	0.048	0.073
-709.660	90.487	0.186	-0.208
-708.645	36.349	-0.076	-0.067
-707.631	-34.707	0.356	0.195
-706.616	-4.155	-0.187	-0.130
-705.602	-51.383	0.092	-0.043
-704.587	31.799	0.236	0.203
-703.572	-93.479	0.291	-0.081
-702.558	-154.331	0.050	-0.003
-701.543	111.050	0.084	0.101
-700.529	-200.000	0.009	0.129
-699.514	676.164	-0.031	-0.081
-698.499	-79.091	0.073	0.025
-697.485	800.000	0.108	-0.395
-696.470	306.851	-0.076	0.142
-695.456	-200.000	0.052	-0.379
-694.441	181.184	-0.069	0.101
-693.426	160.382	0.212	0.296
-692.412	-131.469	-0.168	0.022
-691.397	-132.898	0.101	-0.013
-690.383	-104.832	0.051	-0.012
-689.368	-64.586	0.120	0.049
-688.354	-28.099	-0.292	0.169
-687.339	2.545	-0.269	0.195
-686.324	-76.397	-0.066	-0.023
-685.310	-200.000	0.039	-0.404
-684.295	741.148	-0.150	0.405
-683.281	611.431	-0.069	0.171
-682.266	56.196	-0.267	-0.260
-681.251	71.336	-0.068	-0.071
-680.237	3.674	0.220	0.160
-679.222	367.798	0.151	0.306
-678.208	-200.000	-0.026	0.242
-677.193	-63.097	-0.049	0.020
-676.178	127.126	0.059	-0.075
-675.164	-200.000	-0.025	-0.191
-674.149	53.875	-0.243	0.234
-673.135	800.000	0.135	0.410
-672.120	-109.236	0.179	0.038
-671.105	0.543	-0.073	0.052
-670.091	-200.000	0.072	0.447
-669.076	-123.442	-0.128	0.020
-668.062	-190.148	-0.202	0.002
-667.047	-169.531	-0.262	0.010
-666.032	-50.728	-0.210	-0.099
-665.018	-200.000	-0.007	-0.053
-664.003	485.907	0.060	-0.137
-662.989	-84.518	-0.101	0.032
-661.974	348.882	-0.141	-0.278
-660.959	0.277	-0.308	-0.220
-659.945	-190.010	0.160	0.002
-658.930	-200.000	-0.011	0.055
-657.916	-62.179	-0.051	0.021
-656.901	-200.000	-0.044	-0.247
-655.886	-93.079	0.274	0.076
-654.872	-29.364	-0.105	-0.060
-653.857	-30.936	-0.267	-0.151
-652.843	800.000	0.036	-0.115
-651.828	-200.000	0.000	-0.321
-650.814	-10.207	-0.428	0.284
-649.799	-100.861	-0.307	-0.075
-648.784	25.869	-0.182	0.151
-647.770	-27.986	-0.078	-0.045
-646.755	217.020	-0.090	0.143
-645.741	-189.331	0.203	0.002
-644.726	800.000	-0.106	-0.346
-643.711	64.013	-0.194	0.195
-642.697	126.544	0.163	-0.207
-641.682	82.082	0.115	0.124
-640.668	143.714	0.074	-0.099
-639.653	-109.534	-0.293	0.062
-638.638	-53.221	-0.169	-0.078
-637.624	-114.045	-0.120	-0.023
-636.609	22.571	0.164	0.134
-635.595	800.000	-0.017	-0.067
-634.580	53.319	-0.031	0.029
-633.565	-200.000	-0.051	-0.395
-632.551	-200.000	0.069	-0.336
-631.536	-159.497	-0.312	0.017
-630.522	800.000	-0.063	0.214
-629.507	-18.659	0.095	-0.059
-628.492	-200.000	-0.036	0.240
-627.478	-35.240	0.172	0.094
-626.463	-142.544	-0.293	0.029
-625.449	-40.199	0.186	-0.097
-624.434	-159.250	-0.155	-0.009
-623.419	361.188	-0.099	0.199
-622.405	45.057	-0.171	-0.157
-621.390	4.611	0.123	0.090
-620.376	-44.008	0.131	0.066
-619.361	404.237	-0.021	0.044
-618.346	218.609	-0.259	0.413
-617.332	-52.685	-0.105	0.048
-616.317	-128.405	-0.203	-0.029
-615.303	70.985	0.226	0.234
-614.288	-200.000	-0.026	-0.191
-613.273	800.000	-0.090	-0.358
-612.259	800.000	0.103	0.299
-611.244	-43.724	-0.268	-0.135
-610.230	-200.000	0.010	-0.066
-609.215	-38.209	0.238	-0.126
-608.201	-200.000	-0.044	-0.207
-607.186	11.661	0.164	0.126
-606.171	350.975	-0.153	0.302
-605.157	156.370	0.136	-0.187
-604.142	800.000	0.077	-0.295
-603.128	306.448	-0.064	-0.119
-602.113	52.993	-0.210	-0.200
-601.098	-121.148	0.170	0.028
-600.084	138.879	0.129	-0.169
-599.069	-22.385	-0.197	-0.119
-598.055	-38.511	-0.353	0.186
-597.040	148.964	0.239	-0.322
-596.025	107.906	-0.190	-0.225
-595.011	73.125	0.150	0.156
-593.996	65.532	0.227	0.229
-592.982	800.000	-0.059	0.219
-591.967	-90.073	0.217	0.063
-590.952	198.316	0.156	-0.238
-589.938	-141.339	0.202	-0.020
-588.923	800.000	0.066	0.188
-587.909	-171.980	-0.159	-0.005
-586.894	800.000	-0.067	-0.225
-585.879	269.603	-0.187	0.327
-584.865	170.600	-0.142	0.202
-583.850	418.233	0.148	-0.314
-582.836	334.336	0.072	-0.140
-581.821	-118.950	0.479	0.084
-580.806	-102.781	0.468	0.111
-579.792	1.844	0.323	-0.232
-578.777	-200.000	-0.022	-0.184
-577.763	-200.000	0.011	0.419
-576.748	-200.000	0.026	0.138
-575.733	-22.435	-0.388	-0.234
-574.719	25.158	-0.044	0.036
-573.704	151.872	-0.112	-0.152
-572.690	110.741	0.131	-0.156
-571.675	-200.000	0.032	0.276
-570.661	-93.768	0.131	-0.036
-569.646	365.623	-0.089	-0.178
-568.631	-149.686	-0.206	0.016
-567.617	164.058	0.046	-0.064
-566.602	93.328	-0.040	0.045
-565.588	349.082	0.237	0.465
-564.573	721.620	0.039	0.103
-563.558	800.000	0.085	0.265
-562.544	800.000	-0.070	0.223
-561.529	726.090	0.120	-0.318
-560.515	-200.000	-0.025	0.196
-559.500	748.808	-0.062	-0.165
-558.485	-197.101	0.257	0.002
-557.471	800.000	0.063	0.218
-556.456	-82.139	-0.219	-0.071
-555.442	169.992	0.031	0.044
-554.427	800.000	0.055	0.210
-553.412	-120.231	-0.349	-0.059
-552.398	2.060	-0.173	-0.125
-551.383	-73.562	0.149	-0.054
-550.369	2.329	0.017	-0.012
-549.354	-14.291	0.193	0.124
-548.339	800.000	0.035	-0.127
-547.325	-169.572	0.169	0.006
-546.310	552.308	-0.093	-0.223
-545.296	-137.409	0.166	0.019
-544.281	-145.868	-0.213	-0.019
-543.266	-145.164	0.210	-0.019
-542.252	63.918	-0.097	0.097
-541.237	227.908	-0.032	0.052
-540.223	-139.138	0.225	0.024
-539.208	-49.140	-0.087	0.042
-538.193	174.556	0.109	0.156
-537.179	-200.000	-0.028	0.270
-536.164	705.505	0.097	0.255
-535.150	-136.312	-0.228	-0.026
-534.135	-200.000	0.067	-0.387
-533.121	-200.000	0.037	-0.230
-532.106	-200.000	0.006	-0.101
-531.091	75.120	-0.276	0.290
-530.077	800.000	0.053	0.207
-529.062	-200.000	0.032	0.239
-528.048	-90.978	0.376	0.107
-527.033	-156.967	0.225	0.014
-526.018	233.352	0.028	0.046
-525.004	183.352	-0.107	-0.157
-523.989	-200.000	0.021	-0.523
-522.975	800.000	-0.033	0.116
-521.960	337.372	-0.056	0.109
-520.945	-138.596	0.077	-0.008
-519.931	-77.091	-0.140	-0.049
-518.916	157.209	-0.064	-0.088
-517.902	55.240	-0.152	0.146
-516.887	78.430	0.026	-0.028
-515.872	-6.800	0.153	0.103
-514.858	151.750	0.108	-0.146
-513.843	-122.778	-0.334	0.054
-512.829	242.645	0.223	0.371
-511.814	85.351	0.070	0.076
-510.799	-200.000	0.021	-0.144
-509.785	-44.965	-0.087	-0.043
-508.770	-32.084	-0.006	0.003
-507.756	-200.000	0.081	-0.453
-506.741	637.473	0.099	-0.249
-505.726	-200.000	0.071	-0.337
-504.712	304.404	0.093	-0.172
-503.697	124.951	-0.094	-0.117
-502.683	-200.000	-0.019	0.337
-501.668	800.000	-0.033	0.103
-500.653	13.200	-0.215	-0.166
-499.639	800.000	0.099	-0.305
-498.624	122.008	-0.352	0.437
-497.610	800.000	0.052	0.146
-496.595	233.315	0.036	-0.060
-495.581	-200.000	-0.031	-0.295
-494.566	800.000	0.066	-0.236
-493.551	68.242	-0.234	0.238
-492.537	-1.798	0.283	-0.198
-491.522	-162.633	0.100	-0.005
-490.508	-27.227	-0.103	0.060
-489.493	-133.544	0.059	-0.007
-488.478	-200.000	-0.003	-0.099
-487.464	-200.000	-0.006	-0.083
-486.449	162.932	0.086	0.119
-485.435	111.081	0.166	-0.199
-484.420	-123.615	-0.228	-0.036
-483.405	-200.000	0.018	-0.203
-482.391	800.000	-0.098	0.323
-481.376	646.515	0.107	-0.272
-480.362	-29.990	0.082	0.046
-479.347	-47.471	0.035	-0.017
-478.332	468.272	0.120	-0.267
-477.318	103.004	0.162	0.188
-476.303	-200.000	-0.051	-0.391
-475.289	-94.341	-0.279	-0.076
-474.274	-200.000	0.003	-0.261
-473.259	724.312	0.101	0.267
-472.245	13.997	-0.210	0.162
-471.230	-200.000	-0.019	-0.127
-470.216	-48.493	0.061	-0.029
-469.201	-163.751	-0.073	-0.003
-468.186	-164.337	0.118	0.005
-467.172	-188.091	0.036	0.000
-466.157	-200.000	0.004	0.089
-465.143	65.938	0.312	0.314
-464.128	-200.000	0.313	0.001
-463.113	-166.125	-0.162	0.007
-462.099	-161.987	-0.162	-0.008
-461.084	166.680	-0.143	-0.202
-460.070	88.603	0.241	0.266
-459.055	50.181	-0.220	-0.206
-458.040	90.617	-0.034	-0.038
-457.026	-30.760	0.173	-0.097
-456.011	-200.000	-0.033	-0.215
-454.997	-200.000	0.001	0.176
-453.982	-97.230	-0.240	0.062
-452.968	800.000	0.064	-0.258
-451.953	-57.024	-0.025	-0.011
-450.938	5.721	-0.150	0.110
-449.924	-162.966	-0.353	0.017
-448.909	800.000	0.013	-0.044
-447.895	-118.576	0.190	-0.033
-446.880	62.087	0.160	-0.158
-445.865	23.484	0.064	-0.052
-444.851	12.786	-0.296	0.226
-443.836	-200.000	0.023	0.162
-442.822	800.000	-0.134	0.457
-441.807	-170.354	-0.178	-0.006
-440.792	-19.957	0.020	-0.012
-439.778	-10.188	-0.110	-0.073
-438.763	-200.000	0.060	-0.526
-437.749	147.991	-0.125	-0.167
-436.734	800.000	-0.060	-0.172
-435.719	-39.758	-0.120	-0.062
-434.705	-21.553	-0.029	-0.018
-433.690	-36.055	-0.254	0.136
-432.676	169.009	-0.159	0.224
-431.661	800.000	0.017	0.056
-430.646	-22.074	-0.167	0.101
-429.632	519.483	0.081	-0.188
-428.617	228.701	0.167	-0.270
-427.603	446.912	0.008	-0.018
-426.588	158.205	-0.064	-0.088
-425.573	-3.718	-0.202	-0.139
-424.559	-200.000	0.029	-0.147
-423.544	-162.838	0.349	-0.017
-422.530	-111.697	-0.261	-0.052
-421.515	800.000	0.077	0.247
-420.500	-107.713	0.296	0.064
-419.486	-127.046	-0.030	-0.004
-418.471	315.341	-0.141	0.264
-417.457	225.241	0.083	0.133
-416.442	517.210	-0.096	-0.223
-415.428	-156.128	-0.213	-0.013
-414.413	119.525	0.140	0.172
-413.398	-110.713	0.344	0.070
-412.384	-105.755	0.030	-0.007
-411.369	-134.055	0.161	0.020
-410.355	155.145	-0.075	-0.103
-409.340	591.550	-0.124	-0.303
-408.325	-73.754	0.129	0.047
-407.311	-59.870	-0.203	0.086
-406.296	48.600	-0.217	0.201
-405.282	-73.700	0.138	-0.050
-404.267	548.153	0.112	0.265
-403.252	134.836	0.295	-0.380
-402.238	546.411	-0.017	-0.041
-401.223	-39.312	0.071	-0.037
-400.209	3.595	0.096	0.069
-399.194	-200.000	0.029	-0.143
-398.179	199.455	-0.066	-0.100
-397.165	-88.790	-0.197	-0.058
-396.150	-117.097	-0.168	-0.030
-395.136	-122.734	0.052	-0.008
-394.121	-200.000	0.028	-0.149
-393.106	-200.000	-0.036	0.363
-392.092	-172.421	-0.430	0.014
-391.077	-98.632	0.277	-0.070
-390.063	79.642	0.151	0.160
-389.048	-200.000	-0.012	-0.145
-388.033	-12.884	0.269	-0.173
-387.019	34.125	-0.127	0.109
-386.004	-100.008	0.415	0.102
-384.990	-78.067	-0.143	0.049
-383.975	284.325	-0.150	-0.268
-382.960	-200.000	0.003	0.260
-381.946	113.378	0.107	-0.128
-380.931	-200.000	-0.063	0.400
-379.917	706.621	-0.053	0.138
-378.902	-143.220	0.208	-0.020
-377.888	800.000	-0.046	0.164
-376.873	800.000	0.018	-0.051
-375.858	92.401	-0.066	0.074
-374.844	478.523	0.166	0.371
-373.829	-70.113	-0.245	-0.092
-372.815	-126.600	0.354	0.052
-371.800	-200.000	0.007	-0.335
-370.785	-200.000	0.024	-0.238
-369.771	34.601	0.074	0.064
-368.756	133.153	-0.037	0.047
-367.742	800.000	0.024	-0.071
-366.727	712.382	-0.033	0.087
-365.712	395.009	0.097	0.201
-364.698	702.770	-0.082	0.213
-363.683	-200.000	0.050	0.328
-362.669	-6.709	-0.100	0.068
-361.654	-190.512	-0.140	0.001
-360.639	-3.078	-0.295	0.203
-359.625	2.324	0.213	0.152
-358.610	-47.715	-0.400	-0.192
-357.596	-200.000	0.031	-0.340
-356.581	106.323	-0.231	0.271
-355.566	-200.000	0.072	0.391
-354.552	156.493	0.118	-0.161
-353.537	149.251	-0.238	-0.318
-352.523	-23.370	0.219	-0.130
-351.508	-200.000	0.028	0.178
-350.493	-46.992	0.174	-0.084
-349.479	-200.000	-0.048	-0.246
-348.464	-51.392	0.062	0.029
-347.450	250.512	0.121	0.202
-346.435	-98.240	-0.224	-0.057
-345.420	-200.000	0.098	0.431
-344.406	-136.639	-0.232	0.026
-343.391	172.809	-0.125	-0.178
-342.377	-200.000	0.036	-0.165
-341.362	495.082	-0.117	0.266
-340.348	-30.270	-0.259	0.145
-339.333	-109.932	-0.094	-0.019
-338.318	800.000	-0.032	0.106
-337.304	-200.000	0.019	0.187
-336.289	461.703	-0.011	-0.023
-335.275	800.000	-0.036	0.101
-334.260	-123.921	-0.218	-0.034
-333.245	17.342	-0.227	-0.178
-332.231	-96.174	-0.056	0.015
-331.216	-200.000	-0.040	-0.300
-330.202	111.872	-0.088	0.104
-329.187	58.324	0.042	0.040
-328.172	157.978	0.206	0.282
-327.158	-131.527	-0.241	0.031
-326.143	-65.295	-0.050	0.020
-325.129	390.293	0.114	-0.233
-324.114	99.571	0.009	0.010
-323.099	800.000	0.178	0.505
-322.085	-121.587	0.317	0.052
-321.070	-34.696	-0.408	0.220
-320.056	335.451	-0.027	-0.051
-319.041	-200.000	0.036	0.204
-318.026	454.599	-0.219	0.478
-317.012	17.158	0.256	0.200
-315.997	-102.413	-0.346	0.082
-314.983	-10.559	-0.303	0.198
-313.968	800.000	-0.015	0.056
-312.953	-200.000	0.042	0.220
-311.939	-200.000	0.035	-0.215
-310.924	-0.913	0.073	-0.051
-309.910	372.467	0.088	-0.176
-308.895	-54.385	0.062	0.028
-307.880	462.782	0.052	0.115
-306.866	-107.202	0.068	0.015
-305.851	-200.000	0.019	-0.126
-304.837	-30.991	0.220	0.123
-303.822	-68.116	-0.435	0.167
-302.807	-124.470	0.098	-0.015
-301.793	-38.171	-0.118	-0.062
-300.778	35.834	0.150	-0.130
-299.764	-74.653	0.077	-0.027
-298.749	800.000	-0.055	-0.171
-297.735	800.000	0.057	-0.195
-296.720	363.383	-0.097	-0.192
-295.705	-74.961	0.063	-0.022
-294.691	216.590	0.115	0.180
-293.676	-200.000	0.012	-0.454
-292.662	800.000	-0.088	-0.281
-291.647	8.778	-0.076	-0.056
-290.632	800.000	0.035	-0.143
-289.618	-91.791	-0.176	-0.049
-288.603	-65.610	0.098	0.039
-287.589	43.174	0.206	-0.186
-286.574	-33.362	-0.097	-0.053
-285.559	-90.426	-0.104	-0.030
-284.545	-14.164	0.299	0.190
-283.530	4.121	-0.126	0.091
-282.516	65.880	-0.338	-0.338
-281.501	-9.090	0.076	-0.050
-280.486	-38.504	0.195	-0.102
-279.472	-103.079	0.291	-0.068
-278.457	39.462	-0.208	0.183
-277.443	-200.000	0.004	0.243
-276.428	-200.000	-0.006	-0.083
-275.413	26.961	0.060	-0.049
-274.399	-200.000	0.006	-0.222
-273.384	-170.477	0.096	0.003
-272.370	-26.068	-0.156	-0.090
-271.355	372.314	0.085	-0.170
-270.340	-51.318	-0.067	0.031
-269.326	-8.199	0.223	-0.148
-268.311	-200.000	-0.044	0.259
-267.297	-66.423	0.209	0.082
-266.282	800.000	0.044	0.151
-265.267	97.746	-0.121	0.136
-264.253	147.583	0.180	0.239
-263.238	-0.374	-0.157	-0.110
-262.224	-75.254	0.180	-0.063
-261.209	-200.000	0.004	-0.072
-260.195	71.865	-0.347	-0.356
-259.180	-67.028	-0.411	-0.160
-258.165	16.791	-0.205	-0.160
-257.151	-89.983	-0.212	-0.061
-256.136	43.432	0.171	0.154
-255.122	-35.063	0.050	-0.027
-254.107	800.000	0.047	-0.139
-253.092	-66.885	-0.399	0.155
-252.078	-15.439	0.175	-0.110
-251.063	-200.000	-0.018	-0.102
-250.049	-64.094	0.202	-0.081
-249.034	-200.000	-0.012	-0.075
-248.019	-105.544	-0.051	0.011
-247.005	-200.000	0.063	-0.473
-245.990	-148.113	-0.322	0.026
-244.976	290.913	0.077	0.138
-243.961	-123.375	-0.403	-0.063
-242.946	84.086	0.050	-0.053
-241.932	-200.000	0.017	-0.294
-240.917	-70.330	0.127	0.047
-239.903	-165.169	0.191	-0.008
-238.888	46.241	-0.164	-0.150
-237.873	-29.178	-0.169	-0.095
-236.859	-4.456	-0.170	0.116
-235.844	-200.000	-0.021	0.285
-234.830	286.347	-0.056	0.099
-233.815	207.508	0.102	-0.157
-232.800	277.429	-0.129	0.225
-231.786	-107.804	0.246	0.053
-230.771	-12.327	-0.097	-0.063
-229.757	38.050	-0.106	-0.093
-228.742	3.484	0.226	-0.162
-227.727	-121.687	-0.362	-0.059
-226.713	366.967	-0.188	-0.373
-225.698	-124.080	0.202	-0.031
-224.684	102.343	0.086	0.099
-223.669	800.000	-0.045	-0.135
-222.655	-56.657	-0.033	-0.014
-221.640	-200.000	-0.062	0.294
-220.625	-60.392	-0.127	-0.053
-219.611	48.411	-0.035	0.032
-218.596	-200.000	-0.002	0.243
-217.582	-134.443	0.330	0.040
-216.567	345.156	-0.135	0.260
-215.552	-30.043	0.267	-0.149
-214.538	-118.365	0.245	0.043
-213.523	-80.576	0.250	0.082
-212.509	109.370	0.180	0.211
-211.494	-200.000	-0.004	0.100
-210.479	397.475	0.090	0.185
-209.465	242.176	-0.170	0.279
-208.450	-103.977	0.451	0.103
-207.436	-124.157	0.260	-0.040
-206.421	31.989	0.148	-0.125
-205.406	46.653	0.391	-0.356
-204.392	113.532	0.089	-0.106
-203.377	77.340	-0.341	0.356
-202.363	-139.651	-0.185	0.019
-201.348	49.056	-0.017	-0.016
-200.333	800.000	-0.036	-0.130
-199.319	15.382	-0.050	0.039
-198.304	765.070	-0.044	0.117
-197.290	-114.343	0.170	0.032
-196.275	468.186	0.039	0.087
-195.260	800.000	0.074	-0.207
-194.246	-64.897	0.357	-0.142
-193.231	-99.080	-0.229	0.057
-192.217	-112.153	0.121	0.024
-191.202	120.759	-0.280	0.342
-190.187	-200.000	-0.024	-0.408
-189.173	363.553	-0.144	0.284
-188.158	-200.000	-0.006	0.071
-187.144	-20.182	0.413	0.250
-186.129	-73.772	-0.155	0.055
-185.114	240.010	-0.172	-0.281
-184.100	-147.268	0.227	-0.019
-183.085	-41.503	0.062	0.031
-182.071	-164.949	0.201	0.009
-181.056	-48.090	0.192	-0.091
-180.042	22.444	0.254	-0.203
-179.027	-200.000	-0.012	0.123
-178.012	-200.000	0.012	-0.175
-176.998	4.617	0.181	-0.131
-175.983	-53.000	-0.159	0.072
-174.969	32.544	0.237	0.201
-173.954	48.544	0.133	0.122
-172.939	38.464	0.143	0.125
-171.925	286.617	-0.155	0.275
-170.910	133.097	-0.162	-0.205
-169.896	362.307	0.067	0.131
-168.881	253.388	0.006	-0.010
-167.866	120.360	0.068	0.083
-166.852	-73.103	0.247	-0.089
-165.837	193.954	0.224	-0.333
-164.823	-61.776	-0.273	0.112
-163.808	-67.105	0.484	-0.187
-162.793	-59.921	0.214	0.090
-161.779	800.000	0.070	0.227
-160.764	-17.201	-0.612	0.378
-159.750	72.883	0.261	-0.267
-158.735	57.861	-0.124	-0.118
-157.720	-200.000	-0.010	0.209
-156.706	386.430	-0.132	0.267
-155.691	800.000	-0.105	-0.288
-154.677	29.949	-0.109	0.091
-153.662	-200.000	-0.000	0.203
-152.647	-179.765	0.127	0.003
-151.633	-22.986	-0.106	-0.063
-150.618	800.000	0.076	0.238
-149.604	-200.000	-0.293	-0.000
-148.589	-83.033	-0.236	-0.074
-147.574	-118.170	-0.347	0.061
-146.560	318.076	0.171	0.317
-145.545	733.061	0.110	-0.288
-144.531	305.417	0.127	-0.231
-143.516	-70.201	-0.237	0.088
-142.502	4.413	-0.346	0.249
-141.487	288.612	-0.173	-0.308
-140.472	83.663	0.241	0.257
-139.458	-42.042	0.453	-0.227
-138.443	-79.578	-0.212	0.070
-137.429	-20.621	0.135	-0.081
-136.414	301.922	-0.066	0.119
-135.399	41.165	-0.228	-0.201
-134.385	-93.926	-0.111	0.030
-133.370	51.477	-0.119	0.111
-132.356	800.000	0.037	0.118
-131.341	84.288	-0.168	0.180
-130.326	-98.536	0.357	0.089
-129.312	147.371	-0.022	0.029
-128.297	-123.469	-0.161	-0.025
-127.283	800.000	-0.013	-0.045
-126.268	11.144	0.190	-0.142
-125.253	201.392	0.174	-0.262
-124.239	-129.235	-0.312	-0.043
-123.224	195.594	-0.074	0.110
-122.210	747.936	0.124	0.326
-121.195	-24.039	0.343	0.201
