DTS Sentinel unit serial number:	SN413079Multiplexer serial number:	ORYXHardware model number:	OX4-SRSoftware version number:	ORYX F/W v4.00 Oryx Data Collector v3.7.2.0data status	okinstallation	princeton_trtdifferential loss correction	single-endedforward channel	channel 2reverse channel	N/Adate	2019/09/17time	10:03:35forward acquisition time	60.00reverse acquisition time	0.00gamma	496.2192k internal	0.2326k external	0.2326temperature offset calibration	0.9979default loss term (dB/km)	0.3790temperature slope calibration	1.0000multiplexer offset coefficient	1.0000multiplexer slope coefficient	1.0000fibre end	0.00T internal ref (°C)	29.62T ext. ref 1 (°C)	0.16T ext. ref 2 (°C)	25.32length (m)	temperature (°C)	Stokes	anti-Stokes-747.200	-165.316	-0.268	-0.012
-746.185	-80.111	0.114	0.039
-745.171	-44.508	-0.180	-0.091
-744.156	-154.930	0.180	0.012
-743.142	-118.611	0.196	0.035
-742.127	88.414	-0.112	0.126
-741.112	-126.742	-0.067	0.010
-740.098	189.630	-0.050	-0.076
-739.083	247.108	0.045	-0.077
-738.069	-31.020	-0.200	0.114
-737.054	-200.000	0.044	-0.221
-736.039	-70.583	-0.267	0.102
-735.025	-67.074	-0.132	0.053
-734.010	64.652	-0.328	-0.334
-732.996	84.578	-0.106	-0.117
-731.981	-200.000	-0.184	0.000
-730.966	-63.277	-0.131	0.054
-729.952	116.249	0.192	-0.237
-728.937	-200.000	0.001	-0.021
-727.923	74.089	-0.315	0.333
-726.908	267.801	-0.102	0.180
-725.894	-87.925	-0.513	-0.156
-724.879	620.940	0.071	0.179
-723.864	12.289	-0.560	-0.435
-722.850	-200.000	0.002	-0.290
-721.835	54.294	-0.119	0.115
-720.821	-170.904	-0.319	-0.011
-719.806	707.006	0.065	-0.173
-718.791	-40.891	0.170	0.089
-717.777	-10.573	0.435	0.290
-716.762	-200.000	0.000	0.276
-715.748	330.961	0.198	-0.385
-714.733	-17.439	0.044	-0.028
-713.718	255.914	-0.109	0.188
-712.704	-200.000	-0.011	0.126
-711.689	114.720	-0.068	0.083
-710.675	800.000	0.058	0.234
-709.660	800.000	-0.036	-0.152
-708.645	800.000	0.022	-0.085
-707.631	800.000	-0.076	0.226
-706.616	-98.764	-0.161	0.041
-705.602	-170.307	0.330	0.012
-704.587	-58.467	-0.244	-0.107
-703.572	-170.086	-0.142	-0.005
-702.558	-119.058	-0.293	0.052
-701.543	-15.740	0.317	0.203
-700.529	-200.000	0.008	0.300
-699.514	66.253	-0.198	0.202
-698.499	-109.514	-0.224	-0.048
-697.485	-95.526	-0.207	0.056
-696.470	-129.233	-0.392	0.055
-695.456	800.000	-0.039	0.154
-694.441	4.839	0.196	-0.145
-693.426	74.595	0.147	0.156
-692.412	116.092	0.208	0.257
-691.397	-8.058	0.236	0.160
-690.383	-4.259	-0.118	-0.083
-689.368	-42.498	0.376	0.193
-688.354	391.076	0.109	-0.227
-687.339	-86.232	-0.064	-0.020
-686.324	92.302	-0.113	0.128
-685.310	800.000	0.046	-0.147
-684.295	576.657	-0.114	0.281
-683.281	0.120	-0.173	0.124
-682.266	60.814	0.136	0.136
-681.251	37.470	-0.346	-0.308
-680.237	-66.227	-0.092	-0.037
-679.222	-16.665	0.230	-0.147
-678.208	77.948	-0.098	-0.105
-677.193	132.670	0.119	-0.154
-676.178	-161.546	-0.430	0.022
-675.164	-12.842	0.247	0.162
-674.149	-58.759	-0.201	-0.088
-673.135	-146.833	-0.296	-0.026
-672.120	-19.161	0.183	0.114
-671.105	132.020	0.274	-0.355
-670.091	16.115	0.144	0.114
-669.076	318.607	0.149	0.284
-668.062	72.205	0.172	0.180
-667.047	-131.166	0.204	0.027
-666.032	-166.322	0.038	0.002
-665.018	32.104	0.283	-0.245
-664.003	180.044	0.069	-0.101
-662.989	800.000	-0.051	-0.201
-661.974	203.909	-0.131	-0.204
-660.959	800.000	0.076	-0.299
-659.945	535.097	-0.057	0.136
-658.930	-200.000	-0.003	-0.021
-657.916	224.281	0.087	0.142
-656.901	800.000	-0.046	0.148
-655.886	-200.000	-0.028	-0.199
-654.872	-77.953	0.197	-0.068
-653.857	-200.000	-0.071	-0.331
-652.843	121.147	0.207	-0.258
-651.828	795.249	-0.195	0.540
-650.814	-200.000	-0.026	0.149
-649.799	161.412	-0.092	-0.130
-648.784	-101.906	-0.265	-0.064
-647.770	-200.000	0.016	-0.232
-646.755	33.588	-0.221	-0.193
-645.741	88.937	0.127	-0.142
-644.726	-19.856	-0.108	0.067
-643.711	-200.000	0.002	0.058
-642.697	-53.426	0.134	-0.062
-641.682	-108.575	-0.164	0.035
-640.668	-39.282	0.057	-0.030
-639.653	-140.887	0.060	0.006
-638.638	-0.266	-0.312	-0.223
-637.624	-200.000	-0.008	0.129
-636.609	800.000	-0.026	0.109
-635.595	401.096	-0.077	-0.163
-634.580	637.732	0.080	0.204
-633.565	-4.980	-0.193	0.134
-632.551	-200.000	0.030	0.277
-631.536	-200.000	-0.002	0.177
-630.522	-120.773	-0.081	0.014
-629.507	-88.504	-0.298	0.089
-628.492	20.601	-0.164	-0.133
-627.478	325.051	-0.034	0.066
-626.463	174.190	-0.073	0.106
-625.449	-88.562	-0.037	-0.011
-624.434	42.342	0.203	0.185
-623.419	-200.000	0.019	0.221
-622.405	-113.908	-0.260	-0.051
-621.390	678.509	-0.145	-0.379
-620.376	140.512	0.126	-0.167
-619.361	-30.744	-0.199	-0.113
-618.346	-71.772	-0.249	0.093
-617.332	-115.506	-0.129	0.024
-616.317	-65.990	0.177	-0.071
-615.303	-151.600	-0.206	0.015
-614.288	86.893	-0.070	0.078
-613.273	800.000	-0.101	-0.309
-612.259	143.617	0.082	-0.110
-611.244	104.214	-0.167	0.197
-610.230	0.763	0.256	-0.184
-609.215	-26.516	-0.057	-0.033
-608.201	-34.863	-0.159	0.087
-607.186	2.021	-0.065	-0.047
-606.171	-200.000	-0.002	-0.176
-605.157	-200.000	-0.013	-0.256
-604.142	800.000	0.128	0.487
-603.128	154.941	-0.240	-0.331
-602.113	-64.513	0.323	0.132
-601.098	31.476	-0.069	0.060
-600.084	-83.751	0.211	-0.068
-599.069	-200.000	-0.064	0.604
-598.055	120.393	0.195	0.243
-597.040	-97.324	-0.438	-0.115
-596.025	164.577	-0.020	0.028
-595.011	39.390	-0.063	-0.056
-593.996	8.151	-0.209	-0.157
-592.982	83.980	-0.162	-0.178
-591.967	273.834	-0.225	-0.399
-590.952	-75.458	-0.340	-0.122
-589.938	-130.065	0.186	0.025
-588.923	800.000	0.116	0.347
-587.909	-51.626	-0.060	0.028
-586.894	660.304	0.067	0.173
-585.879	490.077	0.070	0.160
-584.865	9.725	0.089	-0.068
-583.850	-103.201	0.070	-0.017
-582.836	-200.000	0.038	0.465
-581.821	-36.734	-0.191	0.103
-580.806	-200.000	0.047	-0.227
-579.792	-122.588	0.138	0.023
-578.777	-95.200	-0.098	-0.027
-577.763	-1.306	0.144	-0.102
-576.748	-60.833	-0.114	-0.049
-575.733	-40.485	-0.255	0.133
-574.719	72.881	0.188	0.197
-573.704	38.104	-0.302	0.269
-572.690	-19.362	0.243	0.151
-571.675	109.276	0.116	0.140
-570.661	-157.569	-0.371	0.022
-569.646	-139.558	-0.280	0.030
-568.631	-91.109	0.116	-0.033
-567.617	374.632	0.055	0.112
-566.602	125.948	-0.083	0.106
-565.588	-114.188	-0.068	-0.013
-564.573	-129.744	-0.035	-0.005
-563.558	426.777	-0.076	0.163
-562.544	-154.356	-0.196	-0.013
-561.529	-97.448	0.195	-0.051
-560.515	-200.000	-0.010	-0.432
-559.500	-159.482	0.298	0.017
-558.485	82.931	0.043	0.047
-557.471	-29.056	0.130	-0.075
-556.456	36.463	0.160	0.142
-555.442	251.760	-0.034	-0.058
-554.427	800.000	-0.021	0.074
-553.412	-4.119	-0.105	-0.073
-552.398	-28.200	0.197	0.114
-551.383	-54.943	0.209	-0.094
-550.369	219.394	-0.095	-0.152
-549.354	-98.178	0.301	-0.077
-548.339	-31.310	0.138	-0.078
-547.325	518.015	-0.054	0.126
-546.310	-80.200	0.189	-0.063
-545.296	42.143	-0.122	0.111
-544.281	26.117	-0.274	0.229
-543.266	327.696	0.115	0.221
-542.252	800.000	-0.022	0.093
-541.237	108.747	-0.155	0.186
-540.223	-200.000	0.035	0.294
-539.208	-69.392	-0.237	0.091
-538.193	-139.616	0.217	0.023
-537.179	239.392	-0.119	-0.199
-536.164	-200.000	0.007	0.389
-535.150	-142.298	0.270	0.027
-534.135	82.307	-0.093	0.101
-533.121	-123.362	0.167	-0.027
-532.106	267.573	-0.019	0.034
-531.091	-164.576	-0.200	-0.009
-530.077	6.018	-0.063	-0.046
-529.062	-10.818	0.333	0.220
-528.048	-123.240	0.055	-0.009
-527.033	571.497	-0.151	0.369
-526.018	101.751	0.045	0.052
-525.004	135.133	-0.220	0.286
-523.989	800.000	-0.064	-0.196
-522.975	-89.346	0.187	-0.055
-521.960	-147.696	0.215	0.018
-520.945	-75.285	0.204	-0.073
-519.931	227.598	-0.207	-0.336
-518.916	-72.174	-0.088	0.033
-517.902	-178.304	-0.179	-0.004
-516.887	13.629	0.286	-0.222
-515.872	-114.010	-0.270	-0.052
-514.858	800.000	-0.023	-0.085
-513.843	681.177	-0.058	-0.150
-512.829	-57.257	-0.187	-0.082
-511.814	800.000	-0.110	-0.312
-510.799	213.233	-0.115	-0.181
-509.785	800.000	-0.078	0.281
-508.770	228.742	0.213	0.348
-507.756	-122.784	-0.275	-0.044
-506.741	-151.615	0.116	0.009
-505.726	-200.000	-0.006	-0.060
-504.712	800.000	0.038	0.142
-503.697	800.000	-0.117	-0.376
-502.683	259.842	-0.086	-0.148
-501.668	800.000	-0.089	0.303
-500.653	12.174	-0.232	-0.179
-499.639	103.524	0.169	0.199
-498.624	137.147	0.049	-0.064
-497.610	711.783	-0.047	0.125
-496.595	-22.289	0.158	-0.096
-495.581	-70.472	-0.219	0.083
-494.566	800.000	0.054	0.199
-493.551	-92.672	0.548	0.153
-492.537	-153.837	0.421	-0.029
-491.522	-152.039	0.143	-0.010
-490.508	163.213	-0.047	0.066
-489.493	180.277	-0.036	0.053
-488.478	52.782	0.053	-0.051
-487.464	-26.001	0.005	0.003
-486.449	-47.981	-0.157	0.076
-485.435	-109.223	-0.227	0.048
-484.420	-117.509	-0.183	-0.033
-483.405	-200.000	-0.008	-0.134
-482.391	97.800	0.042	0.049
-481.376	336.859	-0.128	-0.249
-480.362	-200.000	-0.014	-0.136
-479.347	-76.869	0.369	-0.129
-478.332	-200.000	-0.022	0.354
-477.318	257.362	0.074	-0.127
-476.303	200.429	-0.220	0.337
-475.289	113.223	-0.211	0.256
-474.274	-129.692	-0.225	0.031
-473.259	-146.870	-0.093	0.008
-472.245	-200.000	-0.026	-0.211
-471.230	-200.000	0.032	-0.172
-470.216	-1.345	0.189	-0.133
-469.201	-200.000	-0.036	-0.166
-468.186	144.937	-0.046	-0.061
-467.172	800.000	-0.097	-0.325
-466.157	-31.901	0.117	0.066
-465.143	-200.000	-0.023	0.157
-464.128	156.636	0.083	0.114
-463.113	-1.874	0.336	0.236
-462.099	287.514	0.063	0.113
-461.084	116.578	-0.132	0.162
-460.070	74.172	-0.136	-0.143
-459.055	-163.446	-0.315	0.015
-458.040	-200.000	0.006	-0.143
-457.026	-200.000	0.032	-0.314
-456.011	81.919	0.141	0.152
-454.997	-200.000	0.024	0.234
-453.982	800.000	0.021	-0.058
-452.968	-181.810	-0.211	-0.004
-451.953	-200.000	-0.016	-0.124
-450.938	-138.154	-0.453	0.050
-449.924	-13.553	0.267	0.173
-448.909	-139.573	0.445	-0.047
-447.895	-71.258	0.057	-0.021
-446.880	-65.304	-0.051	-0.021
-445.865	16.800	-0.043	-0.034
-444.851	48.035	0.211	-0.196
-443.836	250.571	-0.017	0.029
-442.822	-200.000	-0.032	-0.294
-441.807	-37.779	-0.075	0.040
-440.792	13.000	0.200	0.154
-439.778	-24.408	-0.187	-0.111
-438.763	-200.000	0.024	-0.235
-437.749	573.173	-0.175	0.426
-436.734	497.626	-0.052	0.120
-435.719	-40.327	-0.203	0.105
-434.705	-41.634	0.231	-0.118
-433.690	138.850	0.044	-0.057
-432.676	-200.000	0.018	-0.098
-431.661	545.308	0.047	-0.112
-430.646	39.696	-0.165	-0.148
-429.632	800.000	-0.125	0.478
-428.617	-72.652	0.102	0.038
-427.603	96.858	-0.201	0.230
-426.588	-26.803	0.261	-0.152
-425.573	800.000	-0.023	0.091
-424.559	-200.000	0.025	-0.139
-423.544	222.332	0.068	-0.108
-422.530	800.000	-0.063	0.201
-421.515	231.977	0.228	0.373
-420.500	-137.385	-0.190	-0.021
-419.486	-54.641	0.109	-0.049
-418.471	-31.708	0.108	-0.060
-417.457	-104.506	-0.260	0.060
-416.442	37.784	0.053	0.047
-415.428	-106.500	-0.252	-0.056
-414.413	236.993	0.065	0.107
-413.398	7.823	-0.284	0.212
-412.384	-200.000	0.018	-0.084
-411.369	82.787	-0.250	-0.271
-410.355	-200.000	0.076	0.455
-409.340	-137.391	-0.144	0.016
-408.325	197.404	-0.134	-0.204
-407.311	-200.000	-0.015	-0.106
-406.296	-149.387	-0.213	0.017
-405.282	224.226	0.070	-0.112
-404.267	66.957	-0.127	-0.128
-403.252	-90.035	0.276	0.080
-402.238	376.923	0.065	0.131
-401.223	-200.000	0.023	-0.279
-400.209	292.656	0.042	-0.076
-399.194	-6.144	-0.180	-0.122
-398.179	172.142	-0.062	-0.088
-397.165	781.076	-0.030	0.082
-396.150	412.088	0.180	-0.380
-395.136	315.174	0.120	-0.226
-394.121	22.268	-0.197	0.160
-393.106	-42.433	0.043	0.022
-392.092	-200.000	0.007	0.193
-391.077	-200.000	0.022	0.284
-390.063	306.956	-0.087	-0.162
-389.048	-106.548	0.395	0.088
-388.033	120.817	-0.151	0.187
-387.019	189.268	-0.181	0.270
-386.004	-80.618	-0.199	0.066
-384.990	-129.873	-0.183	0.025
-383.975	-136.540	0.228	-0.026
-382.960	479.260	0.115	-0.260
-381.946	49.539	0.125	-0.117
-380.931	-39.029	0.143	-0.075
-379.917	-139.032	-0.131	-0.014
-378.902	339.007	0.054	0.105
-377.888	800.000	-0.132	0.503
-376.873	-8.904	0.155	0.103
-375.858	87.880	0.152	-0.167
-374.844	-200.000	-0.002	-0.075
-373.829	50.165	0.138	0.130
-372.815	-1.422	0.125	0.087
-371.800	-76.888	0.135	-0.047
-370.785	-1.274	0.191	0.134
-369.771	71.635	-0.198	-0.205
-368.756	-200.000	-0.006	0.296
-367.742	57.540	0.186	0.180
-366.727	681.665	-0.087	0.225
-365.712	-95.865	0.294	-0.078
-364.698	28.982	-0.167	-0.141
-363.683	180.492	0.150	0.218
-362.669	435.699	0.063	0.136
-361.654	-200.000	0.036	-0.229
-360.639	205.253	-0.143	-0.221
-359.625	239.153	0.051	-0.084
-358.610	-57.954	-0.347	-0.151
-357.596	-50.906	-0.089	-0.042
-356.581	512.999	-0.164	-0.381
-355.566	-31.413	-0.109	0.061
-354.552	-200.000	0.006	0.049
-353.537	221.208	0.007	-0.011
-352.523	71.328	-0.064	0.066
-351.508	-124.857	0.295	-0.045
-350.493	33.054	-0.356	0.307
-349.479	78.743	-0.166	-0.176
-348.464	360.917	0.126	-0.252
-347.450	-46.173	0.143	-0.070
-346.435	240.677	0.037	-0.061
-345.420	800.000	0.008	0.028
-344.406	-193.616	0.347	0.003
-343.391	-200.000	0.066	-0.394
-342.377	800.000	-0.120	0.442
-341.362	122.035	-0.217	0.268
-340.348	-104.008	-0.083	0.019
-339.333	-73.215	0.174	0.063
-338.318	499.417	0.050	-0.115
-337.304	800.000	0.011	0.038
-336.289	-200.000	0.004	-0.417
-335.275	-120.706	0.114	-0.019
-334.260	-200.000	-0.005	-0.050
-333.245	46.864	0.018	-0.017
-332.231	132.741	-0.021	0.027
-331.216	-9.658	-0.278	-0.184
-330.202	374.952	0.014	0.028
-329.187	-200.000	-0.020	-0.100
-328.172	-42.045	-0.118	-0.060
-327.158	-162.550	0.373	-0.018
-326.143	-21.219	-0.104	0.063
-325.129	-139.114	0.474	0.051
-324.114	-118.465	0.247	0.043
-323.099	-123.720	0.162	-0.025
-322.085	255.791	-0.098	-0.168
-321.070	800.000	0.047	-0.175
-320.056	-32.895	0.340	-0.187
-319.041	-39.024	-0.108	-0.056
-318.026	-41.898	0.326	0.166
-317.012	-200.000	-0.013	0.092
-315.997	-200.000	-0.033	-0.268
-314.983	61.179	0.197	-0.194
-313.968	8.760	-0.361	-0.270
-312.953	92.670	0.105	-0.117
-311.939	-31.577	0.137	-0.077
-310.924	-41.835	0.299	0.152
-309.910	-16.791	-0.094	-0.059
-308.895	199.227	-0.200	0.305
-307.880	800.000	0.069	0.260
-306.866	-119.215	-0.085	-0.015
-305.851	-8.556	0.102	-0.068
-304.837	-200.000	-0.015	-0.091
-303.822	-15.547	-0.196	-0.124
-302.807	370.780	0.053	-0.106
-301.793	498.897	0.083	-0.190
-300.778	26.344	0.103	0.085
-299.764	-68.615	-0.405	0.155
-298.749	-109.506	0.118	0.025
-297.735	688.785	0.033	0.086
-296.720	-78.461	-0.201	-0.068
-295.705	-37.120	-0.354	0.188
-294.691	112.999	0.170	-0.204
-293.676	259.881	0.146	-0.250
-292.662	583.544	-0.117	0.284
-291.647	-158.221	-0.195	-0.011
-290.632	-159.386	0.180	-0.010
-289.618	-64.706	-0.192	-0.077
-288.603	-45.810	0.043	0.021
-287.589	-200.000	-0.069	-0.399
-286.574	-200.000	0.001	0.127
-285.559	-200.000	0.016	-0.210
-284.545	-200.000	0.047	-0.204
-283.530	85.019	-0.221	-0.240
-282.516	-62.684	-0.117	0.048
-281.501	14.693	-0.290	0.224
-280.486	204.200	0.058	-0.088
-279.472	78.550	-0.203	0.215
-278.457	608.987	0.083	0.204
-277.443	-10.795	-0.148	-0.097
-276.428	-200.000	-0.053	0.326
-275.413	-147.883	-0.081	0.007
-274.399	-200.000	-0.002	-0.196
-273.384	-108.138	0.439	-0.094
-272.370	100.610	-0.242	0.279
-271.355	-93.328	-0.211	-0.058
-270.340	800.000	-0.028	-0.104
-269.326	-200.000	0.022	-0.254
-268.311	240.113	-0.284	0.468
-267.297	-200.000	-0.025	-0.186
-266.282	32.902	0.067	-0.058
-265.267	800.000	-0.040	0.169
-264.253	70.051	0.375	0.384
-263.238	327.462	0.074	-0.141
-262.224	284.524	0.093	0.165
-261.209	800.000	0.062	-0.224
-260.195	-200.000	0.047	-0.218
-259.180	197.988	0.146	-0.221
-258.165	800.000	0.068	-0.273
-257.151	372.321	0.148	-0.298
-256.136	246.620	0.129	-0.215
-255.122	-63.643	-0.174	0.070
-254.107	-121.146	0.097	0.016
-253.092	-200.000	0.028	0.317
-252.078	-200.000	0.033	-0.313
-251.063	91.080	0.022	0.025
-250.049	29.270	0.079	0.066
-249.034	-79.862	0.232	-0.077
-248.019	-120.628	-0.166	0.028
-247.005	246.999	0.119	0.198
-245.990	800.000	0.055	0.235
-244.976	700.419	0.134	-0.349
-243.961	-80.322	0.205	0.068
-242.946	233.441	-0.154	0.250
-241.932	-18.896	0.218	-0.134
-240.917	800.000	0.068	-0.209
-239.903	29.048	-0.012	-0.010
-238.888	97.060	0.131	-0.149
-237.873	-200.000	0.045	0.243
-236.859	132.791	-0.170	0.217
-235.844	-8.847	-0.091	-0.060
-234.830	-169.721	0.246	-0.009
-233.815	-200.000	0.063	-0.304
-232.800	-24.632	-0.312	-0.183
-231.786	-40.256	0.317	0.163
-230.771	-14.363	-0.125	-0.080
-229.757	-191.823	-0.349	0.003
-228.742	-83.325	0.175	0.055
-227.727	-200.000	0.080	0.449
-226.713	800.000	0.152	0.482
-225.698	254.280	0.014	-0.024
-224.684	243.393	0.187	0.310
-223.669	-18.321	0.511	0.316
-222.655	64.551	0.227	0.226
-221.640	42.968	-0.133	0.120
-220.625	800.000	-0.037	-0.140
-219.611	419.811	-0.045	0.096
-218.596	125.474	-0.144	-0.179
-217.582	-86.279	0.094	0.029
-216.567	-85.412	0.154	0.047
-215.552	112.656	0.134	0.160
-214.538	-24.986	0.408	0.239
-213.523	58.972	-0.032	-0.031
-212.509	-200.000	0.036	-0.214
-211.494	800.000	-0.029	-0.104
-210.479	-85.948	0.383	0.117
-209.465	-20.920	0.195	-0.118
-208.450	-109.989	0.518	-0.107
-207.436	-200.000	-0.025	0.193
-206.421	-38.394	-0.224	-0.117
-205.406	-200.000	0.066	-0.295
-204.392	800.000	0.042	-0.124
-203.377	155.282	0.057	-0.077
-202.363	-23.230	0.138	0.082
-201.348	553.019	-0.085	-0.202
-200.333	12.638	-0.211	-0.161
-199.319	-37.466	-0.249	0.131
-198.304	-153.408	0.067	0.005
-197.290	-79.977	-0.131	-0.043
-196.275	622.293	0.107	-0.266
-195.260	92.935	-0.257	-0.287
-194.246	-132.827	0.307	0.039
-193.231	-66.732	-0.219	0.086
-192.217	94.385	-0.153	0.172
-191.202	-186.619	0.214	-0.003
-190.187	-81.658	0.095	-0.031
-189.173	-200.000	0.006	-0.264
-188.158	-16.607	0.309	0.193
-187.144	-1.544	0.129	0.090
-186.129	31.233	0.043	0.037
-185.114	-34.435	0.110	-0.059
-184.100	800.000	0.054	-0.173
-183.085	653.743	0.027	-0.069
-182.071	188.741	-0.209	-0.309
-181.056	800.000	-0.088	0.274
-180.042	-51.671	-0.268	-0.123
-179.027	288.410	0.060	0.107
-178.012	19.986	-0.121	0.096
-176.998	-21.499	0.266	0.160
-175.983	-152.278	-0.146	-0.010
-174.969	472.921	-0.113	0.252
-173.954	119.935	-0.159	-0.194
-172.939	109.371	-0.109	-0.129
-171.925	-145.675	-0.065	0.006
-170.910	-24.197	-0.149	0.088
-169.896	18.653	-0.026	-0.021
-168.881	139.581	-0.239	-0.311
-167.866	-139.996	-0.422	0.044
-166.852	130.625	0.266	0.336
-165.837	59.236	0.044	0.043
-164.823	-200.000	0.012	0.192
-163.808	51.538	-0.101	0.095
-162.793	130.893	0.274	-0.347
-161.779	-200.000	-0.002	-0.392
-160.764	-200.000	0.006	-0.364
-159.750	192.928	-0.113	-0.168
-158.735	-32.803	-0.121	0.066
-157.720	-102.822	0.168	0.039
-156.706	174.813	0.130	0.186
-155.691	-200.000	-0.006	0.230
-154.677	-95.202	-0.187	0.050
-153.662	-77.809	0.309	-0.105
-152.647	28.042	0.229	-0.190
-151.633	-32.447	0.336	-0.185
-150.618	1.285	-0.230	0.163
-149.604	-23.414	-0.142	0.084
-148.589	-200.000	0.001	-0.142
-147.574	-67.751	0.240	0.092
-146.560	326.366	0.060	0.113
-145.545	-200.000	0.095	-0.431
-144.531	-87.323	0.081	0.024
-143.516	-200.000	0.085	0.405
-142.502	-13.750	-0.068	0.043
-141.487	-65.374	-0.128	0.051
-140.472	428.322	-0.128	0.272
-139.458	-107.074	0.462	0.100
-138.443	-74.954	-0.242	-0.085
-137.429	73.191	0.140	0.144
-136.414	-48.296	-0.254	0.121
-135.399	133.449	0.267	-0.340
-134.385	83.253	-0.063	-0.068
-133.370	-200.000	0.036	-0.333
-132.356	-200.000	-0.033	0.193
-131.341	-21.332	-0.159	-0.096
-130.326	185.489	0.012	-0.017
-129.312	-200.000	0.025	0.239
-128.297	-86.576	0.131	0.040
-127.283	-140.284	0.300	-0.031
-126.268	-5.858	0.047	-0.032
-125.253	373.111	-0.070	-0.140
-124.239	-136.947	0.210	0.024
-123.224	374.618	0.094	-0.189
-122.210	-200.000	-0.014	0.087
-121.195	92.605	0.185	0.206
