DTS Sentinel unit serial number:	SN413079Multiplexer serial number:	ORYXHardware model number:	OX4-SRSoftware version number:	ORYX F/W v4.00 Oryx Data Collector v3.7.2.0data status	okinstallation	princeton_trtdifferential loss correction	single-endedforward channel	channel 2reverse channel	N/Adate	2019/09/12time	18:14:49forward acquisition time	15.00reverse acquisition time	0.00gamma	496.2192k internal	0.2323k external	0.2323temperature offset calibration	1.0135default loss term (dB/km)	0.3790temperature slope calibration	1.0000multiplexer offset coefficient	1.0000multiplexer slope coefficient	1.0000fibre end	0.00T internal ref (°C)	33.50T ext. ref 1 (°C)	3.01T ext. ref 2 (°C)	28.11length (m)	temperature (°C)	Stokes	anti-Stokes-747.200	-64.006	0.080	0.033
-746.185	-70.380	-0.135	-0.052
-745.171	124.210	-0.147	0.186
-744.156	-200.000	-0.041	0.507
-743.142	-134.957	-0.631	0.077
-742.127	-163.647	0.464	0.022
-741.112	-162.602	-0.845	0.042
-740.098	-75.430	-0.431	-0.155
-739.083	800.000	-0.065	0.239
-738.069	163.826	-0.529	0.752
-737.054	-71.225	0.185	-0.070
-736.039	-137.997	-0.602	-0.068
-735.025	61.717	0.547	-0.550
-734.010	-23.344	-0.829	-0.503
-732.996	-123.440	0.497	-0.080
-731.981	217.493	-0.575	0.925
-730.966	-76.638	-0.244	0.086
-729.952	33.932	-0.479	0.421
-728.937	-200.000	-0.077	-0.444
-727.923	-200.000	-0.010	-0.048
-726.908	153.800	-0.256	0.354
-725.894	160.019	0.388	-0.546
-724.879	-173.530	-0.846	0.026
-723.864	147.554	-0.208	-0.283
-722.850	-159.753	-0.395	-0.022
-721.835	706.138	-0.236	-0.629
-720.821	800.000	-0.047	0.150
-719.806	-149.308	-0.600	-0.048
-718.791	254.666	-0.103	-0.178
-717.777	-171.722	-0.459	-0.015
-716.762	524.586	0.121	0.288
-715.748	-200.000	-0.054	0.325
-714.733	800.000	0.248	-0.692
-713.718	139.227	-0.571	-0.758
-712.704	-65.273	0.390	-0.158
-711.689	26.904	0.375	0.317
-710.675	-200.000	0.032	-0.521
-709.660	-10.163	-0.336	-0.225
-708.645	800.000	0.262	0.804
-707.631	-61.605	-0.663	-0.281
-706.616	-93.667	-0.231	-0.064
-705.602	-200.000	-0.046	0.679
-704.587	-200.000	0.120	0.798
-703.572	60.383	-0.223	-0.222
-702.558	-4.726	0.349	-0.243
-701.543	-70.704	0.293	-0.112
-700.529	-157.583	-0.738	-0.045
-699.514	-60.703	0.465	0.199
-698.499	6.711	-0.702	0.527
-697.485	708.509	-0.350	0.932
-696.470	-148.171	-0.939	0.078
-695.456	-62.466	0.221	-0.092
-694.441	-200.000	0.069	-0.418
-693.426	-200.000	-0.028	0.428
-692.412	800.000	-0.280	0.787
-691.397	736.213	0.139	-0.375
-690.383	200.544	-0.196	-0.304
-689.368	241.254	0.141	-0.237
-688.354	-121.539	0.312	0.052
-687.339	-77.981	0.325	0.113
-686.324	800.000	0.091	-0.332
-685.310	-200.000	0.058	-0.587
-684.295	-62.104	-0.407	0.171
-683.281	-37.976	0.322	-0.172
-682.266	-127.373	0.568	0.083
-681.251	-1.579	0.608	0.432
-680.237	118.809	0.124	0.155
-679.222	-200.000	0.075	0.609
-678.208	166.912	0.053	0.076
-677.193	169.172	-0.283	0.407
-676.178	-151.307	-0.607	0.046
-675.164	-155.079	-0.194	0.013
-674.149	-153.134	0.377	-0.027
-673.135	800.000	0.081	-0.342
-672.120	-43.514	-0.191	-0.097
-671.105	800.000	0.174	0.633
-670.091	-138.707	-0.882	0.097
-669.076	-200.000	-0.063	-0.904
-668.062	-80.447	-0.285	-0.096
-667.047	-200.000	0.076	-0.580
-666.032	33.956	0.290	-0.254
-665.018	-153.499	-0.600	-0.042
-664.003	342.531	-0.156	-0.307
-662.989	800.000	-0.335	-1.041
-661.974	87.261	0.446	0.496
-660.959	276.899	0.549	0.983
-659.945	-142.209	-0.927	0.092
-658.930	-12.882	-0.712	-0.467
-657.916	36.557	0.221	-0.196
-656.901	800.000	0.236	-0.670
-655.886	127.135	-0.267	-0.341
-654.872	551.907	-0.135	-0.327
-653.857	800.000	-0.210	0.597
-652.843	228.666	0.122	0.201
-651.828	226.204	-0.254	0.414
-650.814	-63.906	0.844	0.347
-649.799	74.112	-0.427	0.451
-648.784	-24.359	-0.046	0.028
-647.770	-61.532	-0.368	-0.155
-646.755	32.311	-0.409	0.355
-645.741	-70.950	0.848	-0.321
-644.726	-95.958	-0.946	-0.254
-643.711	461.157	-0.186	-0.416
-642.697	308.915	-0.094	0.176
-641.682	376.483	0.116	0.237
-640.668	-33.966	0.548	0.303
-639.653	105.259	0.131	0.156
-638.638	-146.099	-0.350	0.031
-637.624	-200.000	-0.010	0.087
-636.609	-14.299	-0.728	0.472
-635.595	-127.681	-0.674	0.098
-634.580	-200.000	0.013	0.648
-633.565	-6.800	0.302	0.207
-632.551	-149.594	-0.522	0.041
-631.536	46.178	0.338	-0.315
-630.522	-200.000	-0.036	-0.311
-629.507	100.009	0.306	0.356
-628.492	-173.658	-0.554	0.017
-627.478	800.000	0.070	-0.205
-626.463	171.170	0.215	-0.310
-625.449	262.240	0.149	0.260
-624.434	800.000	-0.038	-0.164
-623.419	-200.000	-0.001	-0.380
-622.405	-67.426	0.525	0.207
-621.390	33.957	0.604	0.529
-620.376	-200.000	-0.023	-0.293
-619.361	169.300	0.212	-0.304
-618.346	-83.619	-0.983	-0.316
-617.332	573.140	0.110	-0.269
-616.317	128.804	0.313	0.400
-615.303	197.991	-0.105	-0.161
-614.288	8.180	0.642	0.484
-613.273	25.145	-0.665	0.555
-612.259	800.000	0.175	-0.536
-611.244	117.167	-0.119	0.146
-610.230	231.551	-0.269	0.444
-609.215	439.944	-0.436	-0.958
-608.201	299.313	-0.126	-0.233
-607.186	-1.099	-0.445	0.316
-606.171	-200.000	-0.053	0.557
-605.157	-121.332	0.191	0.032
-604.142	-32.061	-0.473	0.266
-603.128	35.042	0.262	0.230
-602.113	45.283	-0.957	-0.887
-601.098	-83.056	-0.543	0.176
-600.084	-163.842	0.527	-0.025
-599.069	-28.303	0.375	-0.217
-598.055	18.110	0.270	0.216
-597.040	78.650	-0.555	-0.595
-596.025	-200.000	0.054	0.363
-595.011	215.067	-0.187	-0.297
-593.996	-89.373	0.769	0.227
-592.982	-200.000	0.018	0.452
-591.967	800.000	-0.285	0.967
-590.952	800.000	-0.126	-0.397
-589.938	239.322	-0.667	-1.114
-588.923	110.408	-0.588	0.709
-587.909	-82.186	0.569	0.186
-586.894	-102.394	-0.547	-0.132
-585.879	-158.815	0.642	-0.037
-584.865	160.351	0.467	0.653
-583.850	-122.011	-0.235	-0.039
-582.836	-146.290	0.530	-0.047
-581.821	-200.000	0.046	-0.472
-580.806	155.981	0.107	-0.149
-579.792	-47.087	0.943	0.462
-578.777	-79.502	-0.226	0.077
-577.763	143.686	0.117	-0.157
-576.748	152.048	0.408	0.558
-575.733	-75.791	-0.109	0.039
-574.719	-78.475	-0.981	-0.337
-573.704	6.452	-0.193	-0.144
-572.690	-32.261	1.215	0.681
-571.675	83.136	-0.434	-0.474
-570.661	-4.068	-0.462	-0.321
-569.646	81.297	-0.257	-0.279
-568.631	-119.582	0.872	-0.151
-567.617	516.498	-0.143	0.334
-566.602	680.889	-0.256	0.668
-565.588	519.480	-0.026	-0.061
-564.573	800.000	-0.097	0.423
-563.558	-159.247	0.653	0.037
-562.544	-0.138	0.527	-0.376
-561.529	-200.000	0.010	0.137
-560.515	-200.000	0.040	0.314
-559.500	286.763	-0.521	-0.943
-558.485	-165.667	0.745	-0.032
-557.471	15.493	-0.021	0.017
-556.456	530.786	0.094	0.222
-555.442	-200.000	-0.064	0.334
-554.427	-200.000	0.009	0.187
-553.412	-53.198	-0.251	-0.115
-552.398	69.377	-0.455	0.469
-551.383	175.179	-0.149	-0.216
-550.369	-146.724	0.641	-0.056
-549.354	-200.000	-0.044	-0.234
-548.339	-200.000	-0.090	0.448
-547.325	-173.028	-0.534	0.017
-546.310	28.918	-0.827	-0.703
-545.296	-38.085	0.110	0.058
-544.281	-200.000	0.019	0.194
-543.266	58.966	-0.800	-0.789
-542.252	391.607	0.563	1.171
-541.237	331.246	0.251	-0.485
-540.223	-44.711	-0.643	0.322
-539.208	-200.000	0.018	0.475
-538.193	-106.080	-0.615	-0.138
-537.179	6.628	-0.440	0.327
-536.164	-200.000	0.019	0.252
-535.150	282.822	0.088	-0.158
-534.135	-144.798	0.147	0.014
-533.121	-71.196	1.153	-0.434
-532.106	-105.721	-0.680	-0.154
-531.091	-200.000	0.104	0.627
-530.077	198.114	0.454	-0.696
-529.062	800.000	0.183	-0.646
-528.048	314.565	0.111	-0.210
-527.033	125.363	0.389	-0.491
-526.018	485.230	-0.176	-0.402
-525.004	168.806	0.403	0.575
-523.989	-32.803	0.540	-0.300
-522.975	585.764	0.094	-0.232
-521.960	-166.744	0.842	0.035
-520.945	-200.000	-0.054	0.385
-519.931	-200.000	0.019	0.542
-518.916	-18.469	0.604	0.377
-517.902	198.186	-0.301	0.461
-516.887	-59.492	-0.096	-0.041
-515.872	73.598	0.229	0.240
-514.858	800.000	0.158	0.460
-513.843	76.636	0.359	0.381
-512.829	211.240	-0.361	0.568
-511.814	-93.285	0.550	0.153
-510.799	-200.000	0.086	-0.519
-509.785	-110.498	-0.127	-0.026
-508.770	-200.000	-0.086	0.479
-507.756	-104.316	1.337	0.310
-506.741	800.000	0.114	0.347
-505.726	-124.736	0.252	0.039
-504.712	800.000	-0.073	0.275
-503.697	459.351	-0.327	0.727
-502.683	800.000	0.154	0.607
-501.668	61.955	-0.598	-0.596
-500.653	-112.584	-0.463	0.092
-499.639	195.897	0.200	0.304
-498.624	685.685	0.289	0.755
-497.610	130.168	0.193	0.248
-496.595	-128.262	0.484	-0.069
-495.581	-200.000	0.109	0.659
-494.566	-11.937	0.431	-0.283
-493.551	99.228	-0.707	0.817
-492.537	88.532	-0.039	0.044
-491.522	-200.000	-0.129	-0.647
-490.508	-61.722	0.647	0.271
-489.493	-200.000	-0.060	-1.255
-488.478	335.674	0.169	-0.327
-487.464	526.191	0.152	-0.357
-486.449	-80.811	0.926	0.307
-485.435	118.817	-0.268	0.331
-484.420	-200.000	0.120	-0.728
-483.405	-200.000	0.042	0.786
-482.391	-200.000	0.026	-0.442
-481.376	800.000	-0.106	-0.326
-480.362	-200.000	-0.155	-0.879
-479.347	-167.322	0.841	0.034
-478.332	-153.918	-0.868	-0.059
-477.318	800.000	0.166	-0.496
-476.303	-42.577	-1.027	0.522
-475.289	130.716	0.248	-0.317
-474.274	299.035	0.307	0.564
-473.259	211.224	-0.397	-0.624
-472.245	800.000	-0.133	-0.551
-471.230	-200.000	-0.055	-0.302
-470.216	-115.097	-0.558	0.106
-469.201	800.000	0.047	0.191
-468.186	-200.000	-0.193	1.072
-467.172	2.500	0.593	0.429
-466.157	62.541	-0.112	0.112
-465.143	-200.000	0.015	-0.119
-464.128	506.363	0.075	0.174
-463.113	-200.000	-0.013	-0.414
-462.099	347.215	0.321	-0.631
-461.084	-112.679	0.410	-0.081
-460.070	800.000	-0.067	-0.250
-459.055	93.706	-0.205	-0.232
-458.040	-200.000	-0.015	-0.655
-457.026	147.547	0.119	0.160
-456.011	-61.941	-0.864	-0.361
-454.997	-200.000	0.017	-0.149
-453.982	225.980	0.299	-0.484
-452.968	298.326	0.492	-0.903
-451.953	-114.530	-0.120	-0.023
-450.938	-111.240	1.173	-0.239
-449.924	-2.600	0.436	-0.305
-448.909	800.000	0.148	0.556
-447.895	-130.783	-0.120	0.016
-446.880	800.000	0.027	-0.083
-445.865	-49.166	-0.485	0.231
-444.851	-107.244	-0.301	0.066
-443.836	-23.129	0.332	-0.200
-442.822	0.292	-0.261	0.186
-441.807	7.344	-0.497	0.370
-440.792	-200.000	0.052	-0.407
-439.778	800.000	-0.074	0.290
-438.763	-161.181	0.261	-0.014
-437.749	-80.304	0.443	-0.148
-436.734	-107.379	0.880	0.193
-435.719	189.962	-0.051	0.076
-434.705	-200.000	0.015	0.487
-433.690	-135.676	-0.428	-0.051
-432.676	800.000	-0.039	-0.108
-431.661	-17.850	0.588	-0.368
-430.646	186.110	0.154	-0.228
-429.632	-167.012	0.541	-0.022
-428.617	-200.000	0.086	-0.696
-427.603	-0.307	0.398	0.282
-426.588	-111.446	-0.346	-0.070
-425.573	800.000	0.068	-0.211
-424.559	81.776	-0.066	-0.072
-423.544	-200.000	-0.037	-0.340
-422.530	95.160	0.354	-0.402
-421.515	288.104	-0.194	0.350
-420.500	-37.314	-0.444	0.237
-419.486	-7.753	-0.178	-0.120
-418.471	4.789	-0.154	-0.113
-417.457	84.578	0.427	-0.466
-416.442	16.616	-0.093	-0.073
-415.428	-77.967	0.892	-0.307
-414.413	80.234	-0.460	-0.493
-413.398	131.439	-0.428	0.549
-412.384	800.000	-0.176	0.537
-411.369	-129.851	0.370	-0.051
-410.355	169.416	0.265	0.377
-409.340	-37.210	0.207	0.110
-408.325	112.964	0.109	-0.132
-407.311	800.000	-0.040	-0.132
-406.296	42.330	-0.345	-0.312
-405.282	800.000	0.078	-0.230
-404.267	200.928	0.202	-0.309
-403.252	-88.918	0.883	0.261
-402.238	-18.549	0.619	0.385
-401.223	800.000	-0.108	0.385
-400.209	-200.000	-0.003	0.679
-399.194	-81.425	0.369	0.121
-398.179	-200.000	-0.057	-0.295
-397.165	564.950	-0.131	0.316
-396.150	10.517	0.551	0.418
-395.136	-119.753	0.142	0.024
-394.121	134.966	0.311	-0.402
-393.106	800.000	0.166	0.558
-392.092	190.022	-0.384	0.574
-391.077	156.909	-0.196	-0.269
-390.063	-200.000	0.014	-0.654
-389.048	21.822	1.058	0.858
-388.033	-40.474	-0.507	0.262
-387.019	-99.405	-0.236	0.059
-386.004	-200.000	0.100	-0.779
-384.990	-79.591	0.442	0.149
-383.975	-200.000	0.027	0.257
-382.960	-68.543	-0.578	-0.223
-381.946	144.533	0.649	0.863
-380.931	346.380	-0.092	0.181
-379.917	800.000	-0.249	0.752
-378.902	-91.419	-0.871	0.248
-377.888	800.000	0.103	-0.448
-376.873	-167.170	-0.373	0.015
-375.858	-200.000	-0.031	-0.287
-374.844	-41.744	-0.638	0.326
-373.829	10.988	-0.263	-0.200
-372.815	67.451	0.363	0.369
-371.800	-145.602	0.589	-0.052
-370.785	-40.075	0.255	0.132
-369.771	784.563	-0.345	-0.941
-368.756	-55.288	0.490	-0.219
-367.742	384.335	0.165	-0.338
-366.727	-36.827	-0.589	0.314
-365.712	-102.632	-1.082	0.257
-364.698	-200.000	-0.001	0.094
-363.683	-107.537	-0.415	0.090
-362.669	-15.315	0.361	-0.230
-361.654	-136.755	-0.304	-0.035
-360.639	-200.000	-0.077	-0.657
-359.625	-50.108	-0.703	-0.331
-358.610	158.489	0.192	0.265
-357.596	-122.832	-0.172	-0.028
-356.581	446.534	0.057	-0.124
-355.566	541.847	-0.123	0.291
-354.552	-34.284	0.296	-0.161
-353.537	-42.676	-0.478	0.242
-352.523	33.855	-0.474	0.410
-351.508	591.275	0.163	0.401
-350.493	-200.000	-0.236	-1.131
-349.479	-200.000	-0.014	-0.171
-348.464	-58.105	-1.001	-0.434
-347.450	-83.592	0.660	-0.210
-346.435	-167.889	0.406	0.016
-345.420	-74.415	0.381	-0.137
-344.406	-135.756	-1.193	-0.140
-343.391	-200.000	-0.016	0.140
-342.377	142.395	0.339	-0.447
-341.362	459.409	-0.177	0.391
-340.348	-115.945	0.222	0.041
-339.333	13.808	-0.314	-0.242
-338.318	-200.000	0.008	-0.280
-337.304	92.781	0.271	-0.304
-336.289	42.474	0.780	-0.705
-335.275	-97.924	-0.350	0.090
-334.260	28.908	-0.693	0.584
-333.245	-42.206	-0.532	-0.270
-332.231	-114.862	0.879	0.166
-331.216	45.849	-0.142	-0.130
-330.202	367.061	0.126	0.252
-329.187	-58.556	0.215	-0.093
-328.172	-152.299	0.489	0.035
-327.158	-200.000	0.002	-0.033
-326.143	-200.000	-0.116	-0.616
-325.129	-24.848	-0.911	0.537
-324.114	-43.865	0.270	0.135
-323.099	15.205	0.327	0.255
-322.085	567.569	-0.089	-0.215
-321.070	-15.966	-0.564	0.357
-320.056	-104.920	0.902	0.206
-319.041	89.165	-0.223	0.247
-318.026	-92.051	0.690	-0.194
-317.012	-54.128	-0.547	-0.247
-315.997	-147.888	-0.380	0.032
-314.983	-122.430	-0.419	0.068
-313.968	-200.000	-0.013	-0.324
-312.953	-7.676	-0.615	0.413
-311.939	-200.000	-0.170	0.851
-310.924	-200.000	0.023	0.772
-309.910	-84.847	0.602	0.188
-308.895	800.000	0.205	-0.564
-307.880	-9.753	-0.576	0.381
-306.866	-23.630	0.451	-0.269
-305.851	95.264	0.548	0.619
-304.837	48.780	0.499	-0.465
-303.822	164.505	-0.515	-0.721
-302.807	-17.421	0.328	-0.205
-301.793	800.000	0.084	0.257
-300.778	-0.434	-0.402	-0.283
-299.764	-200.000	-0.029	0.148
-298.749	69.715	-0.366	-0.374
-297.735	800.000	-0.138	0.590
-296.720	280.847	-0.482	-0.856
-295.705	224.157	-0.189	-0.303
-294.691	707.693	0.202	-0.529
-293.676	129.067	0.161	-0.203
-292.662	-200.000	-0.088	0.422
-291.647	-39.645	-0.149	-0.077
-290.632	-7.199	0.217	0.146
-289.618	-150.563	-0.126	-0.010
-288.603	-200.000	-0.090	1.276
-287.589	-103.697	-0.218	-0.051
-286.574	205.946	0.161	0.248
-285.559	187.664	-0.577	-0.854
-284.545	800.000	0.327	-0.952
-283.530	-200.000	-0.187	-0.819
-282.516	101.041	-0.384	0.443
-281.501	800.000	-0.256	0.834
-280.486	800.000	0.265	-0.861
-279.472	-56.848	-0.388	0.170
-278.457	790.160	-0.151	0.410
-277.443	463.901	0.110	0.245
-276.428	23.707	0.640	0.523
-275.413	-200.000	-0.056	0.430
-274.399	724.918	0.263	-0.694
-273.384	-133.928	0.073	0.009
-272.370	800.000	0.123	-0.415
-271.355	800.000	0.227	-0.846
-270.340	-200.000	-0.058	-0.590
-269.326	-200.000	0.066	-0.716
-268.311	-200.000	0.003	-0.230
-267.297	-78.677	-1.151	0.390
-266.282	121.112	-0.897	1.106
-265.267	-92.539	0.394	-0.110
-264.253	239.807	0.316	-0.521
-263.238	76.009	0.335	0.351
-262.224	800.000	-0.167	0.483
-261.209	91.576	-0.450	-0.501
-260.195	130.520	-0.264	0.336
-259.180	-61.455	-0.693	0.289
-258.165	84.415	0.177	-0.192
-257.151	227.608	0.527	-0.848
-256.136	-19.406	0.891	0.547
-255.122	800.000	-0.058	-0.199
-254.107	147.620	-0.340	-0.454
-253.092	-200.000	-0.039	0.549
-252.078	-200.000	-0.038	0.771
-251.063	440.927	-0.137	-0.296
-250.049	-200.000	-0.032	0.420
-249.034	-169.350	0.497	0.018
-248.019	-196.112	0.699	-0.005
-247.005	-200.000	-0.078	-0.800
-245.990	209.854	-0.074	0.115
-244.976	-195.470	-0.670	0.005
-243.961	-134.839	-0.437	-0.052
-242.946	-80.216	-0.470	0.156
-241.932	203.173	-0.393	0.601
-240.917	36.256	0.173	0.151
-239.903	-77.387	-0.511	-0.176
-238.888	800.000	-0.141	0.396
-237.873	32.114	-0.139	-0.119
-236.859	-200.000	-0.135	0.627
-235.844	-200.000	0.096	-0.478
-234.830	210.967	-0.343	-0.534
-233.815	-90.679	0.445	-0.127
-232.800	-9.704	-0.446	0.294
-231.786	-200.000	0.010	-0.108
-230.771	-200.000	0.012	-0.456
-229.757	91.848	0.360	0.401
-228.742	-200.000	0.113	0.537
-227.727	800.000	-0.197	-0.581
-226.713	-200.000	-0.043	0.417
-225.698	-121.461	-0.804	0.132
-224.684	-66.982	0.243	0.095
-223.669	-127.209	0.442	-0.064
-222.655	-200.000	0.011	0.161
-221.640	22.371	0.391	-0.316
-220.625	-133.469	1.125	0.140
-219.611	17.761	0.298	0.235
-218.596	-83.276	-0.388	0.123
-217.582	569.413	0.371	-0.892
-216.567	-52.771	0.478	-0.218
-215.552	192.298	-0.171	-0.256
-214.538	339.570	-0.194	0.374
-213.523	15.369	-0.042	-0.032
-212.509	-200.000	0.047	0.417
-211.494	-106.941	-0.604	0.132
-210.479	-200.000	-0.113	-0.564
-209.465	503.934	0.256	0.585
-208.450	384.297	-0.314	0.639
-207.436	-121.137	-0.847	0.140
-206.421	-51.773	0.773	-0.356
-205.406	-200.000	-0.155	-0.866
-204.392	-132.442	-0.793	0.101
-203.377	118.635	-0.512	0.625
-202.363	120.259	-0.457	-0.561
-201.348	-124.306	0.890	0.137
-200.333	800.000	0.177	0.538
-199.319	212.942	-0.089	-0.139
-198.304	-200.000	-0.031	-0.488
-197.290	-27.605	-0.612	-0.351
-196.275	-200.000	-0.034	0.155
-195.260	97.867	-0.076	0.086
-194.246	-106.933	0.241	0.053
-193.231	382.852	0.242	0.492
-192.217	-78.509	0.278	0.094
-191.202	121.245	-0.205	0.252
-190.187	78.465	-0.592	-0.624
-189.173	800.000	0.251	-1.032
-188.158	-106.474	-0.043	-0.010
-187.144	-146.381	0.217	0.019
-186.129	31.596	-0.389	0.330
-185.114	-200.000	-0.099	0.893
-184.100	-200.000	0.120	-0.535
-183.085	-200.000	-0.013	-0.352
-182.071	-37.383	-0.256	-0.135
-181.056	800.000	-0.174	0.489
-180.042	115.159	-0.195	0.235
-179.027	-200.000	0.006	-0.394
-178.012	-108.306	0.935	-0.199
-176.998	-200.000	-0.283	-1.292
-175.983	-200.000	0.069	-0.480
-174.969	122.535	-0.472	0.582
-173.954	227.390	-0.279	-0.448
-172.939	-35.383	-0.427	-0.229
-171.925	-200.000	0.044	-0.206
-170.910	-62.249	-0.630	0.259
-169.896	-200.000	0.051	-0.278
-168.881	86.208	0.578	0.629
-167.866	-75.811	0.177	0.062
-166.852	-32.183	0.641	-0.354
-165.837	-200.000	0.030	1.174
-164.823	112.433	0.510	-0.609
-163.808	39.907	1.151	-1.020
-162.793	41.828	-0.386	-0.345
-161.779	345.468	0.326	0.633
-160.764	-60.711	-0.989	-0.414
-159.750	181.676	-0.116	-0.168
-158.735	-30.247	-0.425	0.238
-157.720	-8.669	0.329	0.218
-156.706	9.267	0.422	0.315
-155.691	-7.781	-0.342	0.228
-154.677	-27.988	1.003	-0.573
-153.662	27.434	-0.239	0.198
-152.647	-200.000	0.064	0.657
-151.633	-119.450	0.361	0.062
-150.618	-34.964	1.014	0.546
-149.604	-28.771	0.316	-0.179
-148.589	-33.476	0.248	0.135
-147.574	615.245	0.165	-0.408
-146.560	-29.284	0.352	-0.199
-145.545	-89.510	0.323	0.094
-144.531	153.015	0.292	-0.394
-143.516	-16.823	-0.399	-0.249
-142.502	-200.000	0.169	0.850
-141.487	-200.000	-0.011	0.109
-140.472	-37.564	-1.327	0.698
-139.458	312.131	-0.296	-0.548
-138.443	-100.217	-0.097	-0.024
-137.429	23.365	0.770	0.624
-136.414	800.000	0.280	0.900
-135.399	23.427	0.479	0.388
-134.385	3.413	-0.969	0.696
-133.370	-77.864	0.294	-0.100
-132.356	-8.597	0.185	-0.123
-131.341	800.000	-0.135	0.550
-130.326	152.325	0.283	0.381
-129.312	-200.000	-0.015	0.156
-128.297	98.851	0.150	-0.170
-127.283	12.394	0.023	-0.018
-126.268	271.245	0.556	-0.964
-125.253	-200.000	0.009	-0.519
-124.239	-31.654	0.118	-0.065
-123.224	-200.000	-0.046	0.329
-122.210	231.862	0.512	0.828
