DTS Sentinel unit serial number:	SN413079Multiplexer serial number:	ORYXHardware model number:	OX4-SRSoftware version number:	ORYX F/W v4.00 Oryx Data Collector v3.7.2.0data status	okinstallation	princeton_trtdifferential loss correction	single-endedforward channel	channel 2reverse channel	N/Adate	2019/09/15time	03:23:34forward acquisition time	60.00reverse acquisition time	0.00gamma	496.2192k internal	0.2326k external	0.2326temperature offset calibration	1.0033default loss term (dB/km)	0.3790temperature slope calibration	1.0000multiplexer offset coefficient	1.0000multiplexer slope coefficient	1.0000fibre end	0.00T internal ref (°C)	31.06T ext. ref 1 (°C)	4.61T ext. ref 2 (°C)	25.74length (m)	temperature (°C)	Stokes	anti-Stokes-747.200	-200.000	0.076	0.382
-746.185	-151.976	-0.355	-0.026
-745.171	216.934	-0.079	0.126
-744.156	164.495	-0.117	0.166
-743.142	188.212	-0.121	0.182
-742.127	-116.504	-0.165	-0.031
-741.112	-91.385	-0.207	-0.060
-740.098	-123.456	-0.283	-0.045
-739.083	285.475	0.063	0.115
-738.069	-164.898	-0.086	-0.004
-737.054	-93.799	0.285	-0.079
-736.039	-71.602	-0.332	0.125
-735.025	-109.908	0.202	-0.043
-734.010	15.651	-0.155	-0.123
-732.996	-200.000	0.050	0.420
-731.981	-39.272	-0.311	-0.164
-730.966	-160.932	0.141	-0.007
-729.952	176.621	0.054	0.079
-728.937	-84.771	-0.331	0.105
-727.923	299.085	-0.045	0.083
-726.908	117.001	-0.238	-0.295
-725.894	-200.000	-0.027	-0.306
-724.879	794.163	0.097	-0.270
-723.864	-200.000	-0.009	-0.145
-722.850	86.924	0.096	-0.107
-721.835	-200.000	-0.054	0.354
-720.821	800.000	-0.031	-0.097
-719.806	-200.000	0.018	-0.253
-718.791	-200.000	-0.060	-0.328
-717.777	-115.418	0.179	-0.034
-716.762	677.212	-0.115	0.300
-715.748	-200.000	-0.042	-0.206
-714.733	-126.103	0.359	-0.054
-713.718	-83.397	-0.248	-0.080
-712.704	-200.000	-0.025	-0.125
-711.689	-19.774	-0.026	0.016
-710.675	-127.714	0.105	-0.015
-709.660	-73.147	-0.261	0.096
-708.645	-87.806	0.200	-0.061
-707.631	-15.224	0.345	0.222
-706.616	800.000	0.058	-0.201
-705.602	-200.000	0.048	0.389
-704.587	-119.335	0.281	0.049
-703.572	190.777	0.156	0.237
-702.558	66.963	-0.010	0.010
-701.543	-88.268	-0.284	-0.086
-700.529	346.359	-0.043	-0.085
-699.514	53.162	-0.209	0.201
-698.499	66.003	-0.134	-0.137
-697.485	98.795	0.299	-0.347
-696.470	-79.176	-0.285	-0.097
-695.456	-64.659	-0.252	0.103
-694.441	800.000	-0.069	-0.201
-693.426	-200.000	0.017	0.255
-692.412	-200.000	-0.065	0.000
-691.397	-83.617	-0.157	-0.050
-690.383	-17.991	-0.401	-0.253
-689.368	40.368	0.181	-0.164
-688.354	131.014	-0.253	-0.327
-687.339	69.128	0.017	0.018
-686.324	-27.100	-0.116	-0.068
-685.310	-200.000	-0.015	-0.230
-684.295	223.981	-0.064	0.104
-683.281	-86.010	0.070	-0.022
-682.266	-81.209	0.207	0.069
-681.251	800.000	0.062	0.219
-680.237	800.000	-0.086	-0.256
-679.222	-200.000	-0.024	-0.131
-678.208	-200.000	0.044	-0.286
-677.193	800.000	0.080	-0.247
-676.178	561.203	-0.056	-0.136
-675.164	-65.034	-0.102	-0.041
-674.149	800.000	-0.032	-0.108
-673.135	513.237	0.073	0.170
-672.120	-17.702	-0.178	-0.113
-671.105	-59.264	0.245	0.106
-670.091	111.204	0.051	-0.062
-669.076	13.991	-0.208	0.163
-668.062	416.586	0.019	-0.040
-667.047	-49.909	0.032	-0.015
-666.032	-31.764	-0.179	0.101
-665.018	36.872	-0.296	0.263
-664.003	-200.000	0.021	0.196
-662.989	-66.944	-0.111	-0.044
-661.974	124.279	0.016	-0.021
-660.959	-105.974	0.335	0.076
-659.945	-120.515	-0.136	0.023
-658.930	62.618	0.240	0.241
-657.916	415.651	-0.051	0.110
-656.901	451.609	-0.104	0.232
-655.886	-200.000	0.011	-0.175
-654.872	-68.413	-0.293	-0.114
-653.857	-8.454	0.153	0.104
-652.843	-200.000	0.031	0.295
-651.828	-109.495	-0.222	0.047
-650.814	417.341	0.093	-0.201
-649.799	-117.555	-0.261	-0.047
-648.784	90.428	0.153	0.172
-647.770	-19.469	-0.245	0.153
-646.755	575.953	-0.048	-0.117
-645.741	-156.807	0.164	-0.010
-644.726	-98.194	-0.114	-0.030
-643.711	-105.348	-0.095	0.022
-642.697	-200.000	0.049	0.255
-641.682	133.500	-0.137	0.177
-640.668	-72.190	0.356	0.133
-639.653	718.194	0.046	0.123
-638.638	151.793	-0.175	-0.239
-637.624	-139.086	-0.191	0.021
-636.609	278.293	0.129	0.231
-635.595	39.512	0.236	-0.212
-634.580	-200.000	-0.040	-0.189
-633.565	126.131	-0.066	0.084
-632.551	-25.848	0.147	0.087
-631.536	188.297	0.088	-0.132
-630.522	500.867	-0.105	-0.244
-629.507	6.949	0.255	-0.191
-628.492	-200.000	-0.007	-0.058
-627.478	70.298	-0.208	-0.215
-626.463	781.626	0.144	-0.397
-625.449	-200.000	0.004	0.029
-624.434	-200.000	-0.005	-0.027
-623.419	104.033	-0.069	-0.082
-622.405	436.806	-0.142	0.310
-621.390	-200.000	0.001	-0.231
-620.376	-200.000	-0.020	-0.129
-619.361	475.818	0.112	-0.254
-618.346	-2.125	-0.059	0.042
-617.332	276.886	-0.103	0.183
-616.317	-200.000	-0.055	-0.405
-615.303	-9.518	-0.191	-0.128
-614.288	-45.342	0.261	0.130
-613.273	695.871	0.032	0.084
-612.259	-72.307	0.114	0.043
-611.244	48.770	-0.127	0.120
-610.230	-200.000	-0.075	-0.339
-609.215	-138.009	-0.101	-0.011
-608.201	697.397	0.059	0.155
-607.186	-165.256	-0.165	-0.007
-606.171	240.818	0.128	0.214
-605.157	-77.556	-0.186	-0.065
-604.142	-17.697	0.068	0.043
-603.128	800.000	-0.058	0.172
-602.113	253.476	0.059	-0.102
-601.098	800.000	0.055	0.213
-600.084	65.456	0.108	0.109
-599.069	75.716	0.165	0.175
-598.055	3.183	-0.226	-0.165
-597.040	-190.381	-0.127	-0.001
-596.025	800.000	-0.083	-0.364
-595.011	-200.000	0.008	0.090
-593.996	159.354	0.173	0.241
-592.982	43.213	0.210	-0.192
-591.967	381.508	0.129	-0.266
-590.952	61.118	-0.079	0.079
-589.938	-200.000	0.031	0.139
-588.923	-42.368	0.246	-0.126
-587.909	495.372	-0.086	-0.198
-586.894	-200.000	0.003	0.313
-585.879	-37.374	-0.184	0.098
-584.865	70.812	0.382	0.396
-583.850	-86.073	-0.371	0.115
-582.836	-200.000	0.016	-0.518
-581.821	68.232	0.224	-0.230
-580.806	50.471	0.232	-0.220
-579.792	-28.034	-0.166	0.096
-578.777	-37.423	0.210	0.112
-577.763	-167.263	-0.209	-0.008
-576.748	555.596	-0.116	-0.279
-575.733	-146.570	0.177	0.015
-574.719	45.340	0.032	0.030
-573.704	-130.291	-0.099	-0.014
-572.690	-45.512	-0.034	0.017
-571.675	-200.000	-0.083	-0.381
-570.661	-200.000	-0.043	-0.217
-569.646	-145.821	0.494	-0.044
-568.631	-14.261	0.172	0.111
-567.617	401.323	0.066	-0.140
-566.602	432.498	-0.068	-0.148
-565.588	-97.590	-0.221	-0.058
-564.573	496.313	0.058	0.133
-563.558	-41.898	0.057	-0.029
-562.544	8.983	-0.104	0.079
-561.529	-200.000	-0.027	0.161
-560.515	42.892	0.056	-0.051
-559.500	-85.670	0.170	-0.053
-558.485	-95.842	-0.270	-0.072
-557.471	160.899	-0.049	0.069
-556.456	-29.939	0.150	-0.086
-555.442	-200.000	0.023	0.187
-554.427	-71.709	-0.091	-0.034
-553.412	-200.000	-0.020	-0.258
-552.398	800.000	0.080	-0.230
-551.383	-138.252	0.171	-0.019
-550.369	180.578	0.038	0.056
-549.354	92.109	0.197	0.222
-548.339	138.920	0.279	0.366
-547.325	53.047	-0.217	0.207
-546.310	-200.000	0.036	-0.262
-545.296	311.697	0.051	0.095
-544.281	800.000	-0.057	-0.175
-543.266	-117.461	-0.337	0.061
-542.252	382.777	-0.038	0.078
-541.237	-200.000	-0.003	0.078
-540.223	339.745	-0.040	0.079
-539.208	213.674	0.056	-0.089
-538.193	-83.136	-0.343	0.110
-537.179	634.537	-0.074	-0.187
-536.164	16.159	-0.335	-0.264
-535.150	351.475	-0.047	-0.093
-534.135	-54.087	-0.386	0.176
-533.121	653.205	0.101	-0.260
-532.106	338.252	-0.098	0.192
-531.091	42.871	0.112	-0.102
-530.077	-200.000	-0.060	-0.393
-529.062	-104.361	-0.225	-0.052
-528.048	-57.401	0.206	-0.091
-527.033	-200.000	-0.036	0.218
-526.018	17.059	0.140	-0.111
-525.004	166.301	-0.237	-0.336
-523.989	143.458	0.265	-0.353
-522.975	-200.000	-0.016	-0.095
-521.960	800.000	-0.081	0.238
-520.945	244.632	-0.149	0.250
-519.931	-200.000	0.006	0.031
-518.916	73.623	0.276	-0.289
-517.902	-15.003	0.249	0.160
-516.887	224.519	0.193	0.312
-515.872	-45.214	0.252	-0.125
-514.858	-200.000	-0.004	-0.267
-513.843	-193.933	-0.255	-0.002
-512.829	-109.488	-0.358	-0.076
-511.814	-41.774	-0.125	-0.064
-510.799	152.758	0.103	0.141
-509.785	-200.000	0.013	0.258
-508.770	-50.692	-0.252	-0.119
-507.756	141.779	-0.083	0.109
-506.741	-172.317	-0.089	-0.003
-505.726	21.597	-0.105	-0.086
-504.712	-173.112	0.125	0.004
-503.697	-149.628	0.142	-0.011
-502.683	-86.940	-0.167	0.051
-501.668	9.585	0.023	-0.017
-500.653	-200.000	0.014	0.156
-499.639	-88.140	0.208	0.062
-498.624	158.535	-0.158	-0.219
-497.610	800.000	-0.022	-0.078
-496.595	373.682	0.092	-0.188
-495.581	-200.000	-0.006	0.139
-494.566	-63.985	0.263	0.108
-493.551	-117.055	0.210	0.038
-492.537	-128.115	0.079	0.011
-491.522	-102.799	-0.062	0.015
-490.508	-200.000	-0.018	-0.150
-489.493	-136.138	-0.257	0.030
-488.478	1.674	0.083	0.060
-487.464	57.308	0.102	0.100
-486.449	-5.859	-0.215	0.147
-485.435	800.000	0.095	0.268
-484.420	44.914	-0.129	-0.118
-483.405	-45.221	-0.068	0.034
-482.391	417.300	0.036	-0.077
-481.376	-157.134	-0.082	0.005
-480.362	96.269	0.152	0.173
-479.347	67.713	0.142	-0.145
-478.332	9.244	-0.154	0.116
-477.318	-79.895	0.177	0.059
-476.303	800.000	-0.026	-0.077
-475.289	354.029	-0.139	0.275
-474.274	29.730	-0.147	0.125
-473.259	172.593	0.043	-0.061
-472.245	554.419	0.048	0.115
-471.230	-58.201	0.313	-0.136
-470.216	165.404	-0.056	-0.080
-469.201	106.316	0.209	0.247
-468.186	38.532	0.373	0.332
-467.172	-5.970	0.118	-0.081
-466.157	-200.000	0.001	0.126
-465.143	-200.000	0.030	-0.160
-464.128	800.000	-0.077	-0.286
-463.113	-185.076	0.193	-0.003
-462.099	209.990	-0.080	0.126
-461.084	169.438	0.089	0.127
-460.070	-200.000	-0.037	0.170
-459.055	477.274	-0.134	-0.303
-458.040	-109.101	-0.281	0.060
-457.026	39.370	-0.084	0.075
-456.011	246.219	0.033	-0.056
-454.997	-194.351	-0.159	0.001
-453.982	-41.916	-0.265	0.136
-452.968	800.000	0.060	0.256
-451.953	24.819	-0.315	0.260
-450.938	12.203	-0.154	0.118
-449.924	220.547	-0.229	-0.366
-448.909	37.954	0.118	-0.105
-447.895	-200.000	-0.036	0.247
-446.880	-192.760	-0.108	0.001
-445.865	-200.000	0.010	0.188
-444.851	-139.773	0.269	0.028
-443.836	-106.984	-0.041	-0.009
-442.822	800.000	0.041	0.166
-441.807	-23.916	0.298	0.178
-440.792	118.001	0.162	-0.199
-439.778	-187.209	-0.132	-0.002
-438.763	355.396	0.171	0.340
-437.749	-200.000	0.046	0.237
-436.734	748.326	0.048	0.130
-435.719	294.432	-0.058	-0.106
-434.705	-200.000	0.023	-0.130
-433.690	69.488	0.149	-0.153
-432.676	-200.000	-0.009	-0.301
-431.661	115.910	0.097	0.119
-430.646	-45.710	0.109	0.054
-429.632	92.928	-0.139	0.157
-428.617	123.663	-0.185	0.231
-427.603	-9.227	0.195	-0.130
-426.588	379.485	-0.020	-0.040
-425.573	-140.500	0.243	0.025
-424.559	-134.952	-0.337	0.041
-423.544	51.521	0.244	-0.231
-422.530	-200.000	0.027	-0.229
-421.515	-17.850	-0.204	0.128
-420.500	569.785	-0.076	-0.183
-419.486	-38.131	-0.350	0.185
-418.471	800.000	0.060	0.251
-417.457	-117.950	-0.269	-0.048
-416.442	57.952	0.057	-0.056
-415.428	-200.000	0.003	-0.027
-414.413	89.323	0.068	-0.075
-413.398	-134.302	-0.500	0.061
-412.384	421.109	-0.121	-0.259
-411.369	-55.762	-0.228	-0.101
-410.355	800.000	-0.111	0.443
-409.340	-200.000	-0.074	-0.339
-408.325	-111.618	0.270	0.055
-407.311	-0.025	-0.374	0.265
-406.296	-18.783	-0.211	-0.131
-405.282	-160.736	-0.199	0.011
-404.267	-183.165	0.450	-0.008
-403.252	110.670	0.124	0.149
-402.238	800.000	-0.038	0.123
-401.223	-13.759	0.099	-0.063
-400.209	-200.000	0.035	-0.158
-399.194	800.000	-0.023	0.067
-398.179	-200.000	-0.055	0.246
-397.165	65.269	0.189	0.190
-396.150	-162.432	-0.089	0.004
-395.136	-200.000	-0.013	0.373
-394.121	-10.775	0.112	-0.073
-393.106	-35.763	0.230	-0.124
-392.092	-100.841	0.152	0.037
-391.077	23.757	-0.208	-0.170
-390.063	-85.165	0.031	-0.010
-389.048	-200.000	-0.004	-0.148
-388.033	742.147	0.013	-0.034
-387.019	-200.000	-0.032	0.376
-386.004	-200.000	0.038	0.289
-384.990	-153.596	0.281	0.019
-383.975	-116.822	0.319	0.058
-382.960	-147.561	0.262	-0.022
-381.946	-116.523	-0.225	-0.041
-380.931	454.693	0.076	0.167
-379.917	-137.345	-0.041	-0.005
-378.902	22.043	0.197	-0.160
-377.888	-200.000	0.012	-0.256
-376.873	-200.000	-0.034	-0.153
-375.858	-200.000	0.000	0.187
-374.844	131.245	-0.045	0.058
-373.829	19.507	-0.190	-0.152
-372.815	-103.418	0.334	0.078
-371.800	-200.000	-0.033	0.246
-370.785	-82.092	0.142	-0.046
-369.771	19.764	-0.162	0.130
-368.756	13.718	-0.023	-0.018
-367.742	-55.861	-0.056	0.025
-366.727	-30.102	0.322	0.182
-365.712	-200.000	0.026	0.206
-364.698	-89.271	0.158	-0.046
-363.683	7.279	0.087	0.065
-362.669	800.000	0.101	0.427
-361.654	-93.249	-0.126	0.035
-360.639	17.788	-0.108	0.085
-359.625	-34.030	-0.297	0.162
-358.610	224.125	-0.198	-0.318
-357.596	-200.000	0.008	0.047
-356.581	-130.900	0.274	0.036
-355.566	763.919	0.071	0.191
-354.552	-200.000	-0.071	0.315
-353.537	27.528	-0.168	0.141
-352.523	-59.564	0.173	-0.074
-351.508	-200.000	-0.059	-0.291
-350.493	-137.676	0.056	-0.006
-349.479	-116.845	0.285	-0.052
-348.464	533.042	0.049	0.116
-347.450	48.069	-0.061	-0.057
-346.435	30.343	-0.074	-0.063
-345.420	-200.000	0.031	0.443
-344.406	-21.943	0.502	0.303
-343.391	-130.860	-0.460	-0.061
-342.377	-78.294	-0.560	0.191
-341.362	-29.481	-0.186	-0.105
-340.348	100.569	0.242	0.279
-339.333	-13.385	-0.083	0.053
-338.318	-29.422	0.232	-0.132
-337.304	290.747	-0.143	-0.258
-336.289	18.730	0.110	0.088
-335.275	-200.000	-0.009	-0.221
-334.260	413.735	0.113	-0.238
-333.245	276.523	0.100	-0.175
-332.231	-200.000	0.062	0.560
-331.216	-97.558	0.181	0.047
-330.202	-92.735	0.123	0.034
-329.187	-36.712	0.130	0.069
-328.172	465.287	0.153	-0.341
-327.158	-66.383	0.158	-0.062
-326.143	378.195	-0.099	-0.201
-325.129	131.761	0.060	-0.077
-324.114	-105.288	0.214	0.048
-323.099	-55.014	-0.118	-0.053
-322.085	800.000	-0.053	0.171
-321.070	226.481	0.218	-0.352
-320.056	-200.000	-0.019	-0.194
-319.041	-200.000	-0.037	-0.397
-318.026	-200.000	-0.025	0.131
-317.012	800.000	-0.019	0.079
-315.997	800.000	-0.104	0.290
-314.983	800.000	-0.072	-0.226
-313.968	606.533	0.020	-0.049
-312.953	-136.632	-0.135	-0.015
-311.939	171.291	0.118	-0.168
-310.924	-65.974	0.153	0.060
-309.910	128.465	-0.037	-0.046
-308.895	789.595	-0.035	-0.095
-307.880	196.672	-0.179	-0.271
-306.866	566.940	0.085	0.205
-305.851	-200.000	-0.086	0.456
-304.837	346.111	0.084	0.163
-303.822	100.015	-0.111	0.128
-302.807	-200.000	0.005	0.300
-301.793	182.543	-0.153	-0.223
-300.778	27.199	-0.253	0.211
-299.764	110.245	-0.107	-0.128
-298.749	-158.087	0.295	0.017
-297.735	-13.414	0.242	-0.156
-296.720	-55.222	-0.266	-0.119
-295.705	-103.336	0.202	-0.047
-294.691	159.973	-0.099	-0.136
-293.676	120.419	0.161	-0.198
-292.662	-187.262	0.136	-0.002
-291.647	-55.917	0.255	-0.113
-290.632	-200.000	-0.008	-0.329
-289.618	737.754	0.105	-0.279
-288.603	-44.626	-0.138	-0.068
-287.589	-126.311	0.245	0.036
-286.574	800.000	-0.090	-0.384
-285.559	800.000	-0.074	-0.274
-284.545	-194.964	0.143	-0.001
-283.530	70.111	0.177	-0.181
-282.516	-140.234	-0.127	0.013
-281.501	31.464	0.095	0.081
-280.486	360.085	0.023	-0.046
-279.472	-200.000	-0.032	-0.210
-278.457	800.000	0.016	0.066
-277.443	-200.000	-0.013	0.091
-276.428	123.917	-0.155	0.193
-275.413	-200.000	-0.016	-0.142
-274.399	-56.025	-0.083	0.037
-273.384	19.502	0.071	0.057
-272.370	427.476	-0.051	0.108
-271.355	-94.583	-0.159	-0.043
-270.340	133.073	-0.101	-0.129
-269.326	406.790	0.042	0.089
-268.311	800.000	-0.013	-0.046
-267.297	-52.982	0.091	-0.042
-266.282	137.599	-0.155	0.201
-265.267	-104.356	-0.433	-0.099
-264.253	-85.024	0.056	-0.017
-263.238	-43.152	-0.287	0.144
-262.224	226.029	0.067	-0.107
-261.209	800.000	-0.068	-0.218
-260.195	-101.656	0.119	0.029
-259.180	93.166	0.006	0.007
-258.165	190.908	-0.156	-0.233
-257.151	-137.157	-0.179	-0.020
-256.136	414.071	0.228	0.480
-255.122	-0.477	-0.124	0.087
-254.107	-94.472	-0.168	-0.045
-253.092	-200.000	-0.035	0.356
-252.078	123.084	-0.194	0.241
-251.063	-63.179	0.221	0.090
-250.049	-200.000	0.030	0.131
-249.034	292.758	-0.201	-0.363
-248.019	62.716	-0.171	0.169
-247.005	-14.179	-0.070	-0.045
-245.990	-200.000	-0.002	-0.090
-244.976	-200.000	0.022	0.338
-243.961	54.985	0.052	-0.050
-242.946	-44.406	-0.513	0.254
-241.932	41.316	-0.237	-0.212
-240.917	137.994	0.287	-0.373
-239.903	132.514	-0.315	-0.401
-238.888	-70.874	0.173	-0.065
-237.873	47.582	-0.081	0.075
-236.859	-200.000	0.021	0.118
-235.844	200.239	-0.174	0.264
-234.830	274.205	0.165	-0.289
-233.815	-93.780	-0.089	0.024
-232.800	-71.200	0.222	0.082
-231.786	-200.000	0.019	-0.085
-230.771	47.943	0.023	-0.021
-229.757	800.000	-0.029	0.120
-228.742	-200.000	-0.039	-0.301
-227.727	-75.939	0.066	0.023
-226.713	800.000	0.036	0.137
-225.698	99.544	0.177	-0.202
-224.684	-200.000	-0.001	0.160
-223.669	299.277	-0.146	-0.266
-222.655	222.968	0.193	0.308
-221.640	800.000	-0.063	0.220
-220.625	-117.377	0.359	0.064
-219.611	127.224	0.042	0.053
-218.596	638.756	-0.002	0.006
-217.582	-9.457	0.366	0.241
-216.567	-98.419	-0.243	0.061
-215.552	140.633	0.255	-0.333
-214.538	800.000	0.049	-0.145
-213.523	387.352	0.085	-0.174
-212.509	-6.962	0.066	0.044
-211.494	-200.000	-0.023	0.107
-210.479	-84.773	-0.174	-0.054
-209.465	800.000	0.012	-0.037
-208.450	287.871	0.143	-0.256
-207.436	-139.827	0.435	-0.046
-206.421	-104.706	-0.208	0.047
-205.406	110.034	-0.150	-0.178
-204.392	176.082	0.025	0.035
-203.377	-47.428	0.185	-0.089
-202.363	-81.065	-0.059	-0.019
-201.348	252.078	0.082	0.138
-200.333	75.535	-0.208	0.217
-199.319	-139.499	-0.155	-0.016
-198.304	-68.826	0.187	-0.071
-197.290	-200.000	0.005	0.169
-196.275	-140.161	0.203	0.021
-195.260	327.759	0.058	0.110
-194.246	800.000	-0.031	-0.114
-193.231	322.747	0.069	0.130
-192.217	162.352	-0.045	0.062
-191.202	-200.000	0.022	-0.152
-190.187	296.882	0.059	-0.108
-189.173	800.000	0.031	0.108
-188.158	16.425	0.087	-0.067
-187.144	-200.000	0.346	-0.000
-186.129	89.376	-0.141	-0.155
-185.114	192.325	-0.086	0.128
-184.100	-133.733	-0.118	-0.015
-183.085	-114.455	0.138	-0.026
-182.071	289.457	0.046	0.082
-181.056	124.031	0.141	-0.174
-180.042	88.488	-0.055	-0.061
-179.027	-2.594	-0.200	0.138
-178.012	-200.000	0.001	-0.108
-176.998	-91.565	-0.371	0.104
-175.983	-200.000	0.024	0.328
-174.969	-47.933	0.114	0.054
-173.954	-143.895	0.072	0.007
-172.939	49.829	-0.217	-0.202
-171.925	800.000	-0.041	-0.144
-170.910	-200.000	-0.029	0.179
-169.896	585.715	-0.112	0.270
-168.881	299.375	0.077	-0.139
-167.866	52.915	-0.110	0.104
-166.852	-87.713	0.197	-0.059
-165.837	-170.131	-0.318	0.011
-164.823	-55.799	-0.158	-0.069
-163.808	-200.000	-0.009	-0.075
-162.793	-200.000	-0.014	0.080
-161.779	-101.833	-0.040	0.010
-160.764	44.140	0.199	0.180
-159.750	-200.000	-0.041	-0.179
-158.735	590.946	0.164	0.398
-157.720	-59.177	-0.259	0.110
-156.706	1.857	-0.139	0.099
-155.691	-9.885	0.154	-0.101
-154.677	40.006	-0.330	-0.292
-153.662	-200.000	0.016	-0.070
-152.647	269.991	0.247	-0.427
-151.633	-48.224	-0.173	-0.082
-150.618	501.581	0.076	-0.173
-149.604	-200.000	0.031	-0.298
-148.589	-87.090	-0.320	-0.096
-147.574	-9.544	-0.255	0.168
-146.560	481.124	-0.036	-0.081
-145.545	-200.000	-0.019	-0.242
-144.531	-48.432	0.210	-0.100
-143.516	102.821	0.200	-0.231
-142.502	-200.000	0.086	0.434
-141.487	153.613	-0.312	0.421
-140.472	-28.851	0.150	0.085
-139.458	19.740	-0.267	-0.212
-138.443	-200.000	-0.085	-0.431
-137.429	-94.150	-0.318	0.086
-136.414	-200.000	-0.027	0.183
-135.399	-181.791	0.156	0.003
-134.385	250.564	0.044	-0.074
-133.370	-46.132	0.157	-0.076
-132.356	245.291	-0.112	-0.185
-131.341	-93.018	-0.146	0.040
-130.326	-73.128	-0.277	-0.100
-129.312	-45.047	0.082	0.040
-128.297	-27.119	0.089	-0.051
-127.283	-62.938	-0.217	-0.088
-126.268	-37.152	-0.433	0.228
-125.253	521.534	-0.083	-0.192
-124.239	2.184	0.187	-0.133
-123.224	108.035	0.251	0.295
-122.210	299.165	-0.116	-0.210
