DTS Sentinel unit serial number:	SN413079Multiplexer serial number:	ORYXHardware model number:	OX4-SRSoftware version number:	ORYX F/W v4.00 Oryx Data Collector v3.7.2.0data status	okinstallation	princeton_trtdifferential loss correction	single-endedforward channel	channel 2reverse channel	N/Adate	2019/09/16time	19:03:35forward acquisition time	60.00reverse acquisition time	0.00gamma	496.2192k internal	0.2323k external	0.2323temperature offset calibration	0.9961default loss term (dB/km)	0.3790temperature slope calibration	1.0000multiplexer offset coefficient	1.0000multiplexer slope coefficient	1.0000fibre end	0.00T internal ref (°C)	35.47T ext. ref 1 (°C)	0.05T ext. ref 2 (°C)	28.68length (m)	temperature (°C)	Stokes	anti-Stokes-747.200	687.515	-0.103	0.273
-746.185	-200.000	0.015	0.069
-745.171	-200.000	0.059	-0.341
-744.156	-100.824	-0.127	0.032
-743.142	32.245	0.177	0.154
-742.127	646.460	0.011	-0.027
-741.112	109.351	0.057	-0.069
-740.098	317.941	0.076	-0.145
-739.083	-124.305	0.286	-0.045
-738.069	3.987	0.101	0.075
-737.054	111.503	-0.120	0.146
-736.039	79.590	-0.107	0.116
-735.025	-200.000	-0.023	0.107
-734.010	800.000	0.115	0.349
-732.996	800.000	-0.086	-0.363
-731.981	-85.503	-0.311	-0.098
-730.966	129.261	0.082	0.105
-729.952	170.545	0.130	0.187
-728.937	-122.549	-0.124	0.020
-727.923	-20.528	-0.087	0.054
-726.908	88.017	-0.385	0.431
-725.894	-65.230	0.236	0.096
-724.879	-87.581	0.143	0.044
-723.864	446.348	0.104	0.231
-722.850	102.635	-0.176	0.208
-721.835	-200.000	0.030	0.156
-720.821	6.184	0.345	0.258
-719.806	793.138	0.170	0.473
-718.791	-114.129	-0.193	-0.038
-717.777	-155.236	0.212	0.014
-716.762	22.635	0.132	-0.109
-715.748	113.434	-0.160	0.196
-714.733	-116.435	0.269	0.050
-713.718	430.797	-0.069	0.151
-712.704	-19.186	-0.248	-0.155
-711.689	104.338	-0.167	-0.199
-710.675	-200.000	-0.045	0.212
-709.660	276.777	0.197	-0.353
-708.645	496.663	0.061	0.142
-707.631	-86.915	-0.332	0.102
-706.616	-200.000	-0.040	-0.292
-705.602	24.770	-0.064	0.053
-704.587	-200.000	0.006	-0.167
-703.572	-106.246	0.282	0.064
-702.558	-200.000	0.035	0.512
-701.543	141.121	0.138	0.184
-700.529	800.000	0.048	-0.154
-699.514	-133.795	0.268	-0.034
-698.499	379.953	0.046	0.095
-697.485	41.350	0.229	-0.209
-696.470	-200.000	-0.089	-0.403
-695.456	-144.409	-0.162	0.015
-694.441	56.640	-0.030	-0.030
-693.426	-200.000	-0.017	-0.137
-692.412	93.462	-0.255	-0.291
-691.397	-109.807	-0.123	-0.026
-690.383	141.765	-0.133	0.178
-689.368	39.733	0.149	-0.135
-688.354	-62.250	0.150	0.063
-687.339	40.848	0.324	-0.294
-686.324	-91.020	-0.027	-0.008
-685.310	-100.627	-0.159	-0.040
-684.295	-84.110	0.274	-0.088
-683.281	-131.049	-0.154	-0.021
-682.266	-89.165	-0.233	0.069
-681.251	-60.104	-0.113	-0.049
-680.237	800.000	-0.101	0.341
-679.222	-30.605	0.100	-0.057
-678.208	-200.000	-0.010	0.197
-677.193	-200.000	-0.049	-0.425
-676.178	800.000	-0.061	-0.214
-675.164	-113.082	-0.146	0.029
-674.149	-38.355	0.151	0.080
-673.135	12.370	0.082	-0.063
-672.120	296.096	0.126	0.233
-671.105	7.456	0.234	-0.176
-670.091	213.818	0.050	-0.080
-669.076	-137.635	0.186	0.021
-668.062	-50.859	-0.382	0.181
-667.047	-127.940	0.192	0.028
-666.032	73.058	-0.207	0.218
-665.018	-3.893	0.321	-0.224
-664.003	306.412	-0.099	-0.186
-662.989	-139.930	0.205	0.022
-661.974	-108.121	-0.192	-0.042
-660.959	800.000	-0.018	0.056
-659.945	-200.000	0.033	-0.307
-658.930	301.411	-0.043	0.079
-657.916	135.134	0.110	-0.144
-656.901	177.506	0.035	-0.052
-655.886	-22.454	0.243	0.148
-654.872	99.756	-0.242	0.283
-653.857	-144.664	0.086	-0.008
-652.843	-182.104	-0.291	0.006
-651.828	800.000	0.037	0.152
-650.814	-200.000	0.026	0.428
-649.799	-23.873	-0.292	-0.176
-648.784	-4.966	0.026	-0.018
-647.770	10.964	0.283	-0.217
-646.755	53.680	-0.203	-0.196
-645.741	218.032	-0.085	0.137
-644.726	-63.029	0.125	0.052
-643.711	-116.964	0.154	0.028
-642.697	51.193	-0.191	0.182
-641.682	-51.478	-0.218	-0.102
-640.668	44.060	-0.032	0.029
-639.653	303.513	-0.091	0.170
-638.638	-29.401	-0.201	-0.116
-637.624	25.076	-0.174	-0.145
-636.609	-200.000	-0.004	-0.304
-635.595	93.784	-0.052	-0.059
-634.580	15.666	-0.310	-0.245
-633.565	619.325	0.093	-0.234
-632.551	156.549	0.195	-0.270
-631.536	284.159	-0.102	0.184
-630.522	152.852	-0.151	-0.208
-629.507	800.000	-0.086	-0.272
-628.492	-61.918	0.261	-0.110
-627.478	179.717	-0.090	0.133
-626.463	-60.879	-0.060	-0.025
-625.449	304.189	0.138	0.257
-624.434	107.077	0.087	0.104
-623.419	624.368	0.069	-0.176
-622.405	-129.804	0.110	-0.015
-621.390	25.142	0.158	-0.131
-620.376	-200.000	0.042	0.415
-619.361	336.062	-0.043	-0.083
-618.346	800.000	0.156	-0.548
-617.332	486.549	-0.105	0.240
-616.317	133.485	0.251	0.326
-615.303	366.443	-0.092	-0.187
-614.288	185.920	-0.053	-0.079
-613.273	28.185	-0.081	-0.069
-612.259	-38.450	-0.189	-0.100
-611.244	290.195	0.032	-0.058
-610.230	-102.310	0.279	-0.067
-609.215	-200.000	0.023	0.126
-608.201	199.740	0.185	-0.285
-607.186	477.280	0.056	0.127
-606.171	-165.404	-0.159	0.007
-605.157	-103.373	0.147	0.035
-604.142	39.878	-0.197	0.178
-603.128	175.950	0.120	0.175
-602.113	44.215	0.206	-0.190
-601.098	-15.938	-0.227	-0.145
-600.084	685.041	-0.051	-0.133
-599.069	34.998	0.208	0.182
-598.055	94.320	0.152	-0.173
-597.040	177.156	0.142	0.208
-596.025	-87.919	0.285	-0.086
-595.011	800.000	0.087	-0.328
-593.996	118.545	0.221	0.273
-592.982	-104.158	-0.215	-0.050
-591.967	8.907	0.080	0.061
-590.952	-177.758	-0.309	0.007
-589.938	-19.303	0.068	0.042
-588.923	-160.346	0.388	-0.021
-587.909	397.397	-0.067	0.141
-586.894	-200.000	-0.039	-0.207
-585.879	800.000	-0.062	0.196
-584.865	-65.344	-0.280	-0.113
-583.850	-200.000	-0.015	0.232
-582.836	-200.000	-0.045	-0.334
-581.821	125.718	0.054	0.069
-580.806	-200.000	-0.019	0.097
-579.792	-139.500	-0.344	0.037
-578.777	800.000	-0.083	-0.317
-577.763	-18.613	-0.074	-0.046
-576.748	-18.688	-0.275	-0.172
-575.733	15.333	-0.094	0.074
-574.719	11.380	0.211	0.162
-573.704	235.267	-0.039	0.065
-572.690	-200.000	0.012	-0.488
-571.675	-61.862	0.404	-0.170
-570.661	-173.496	-0.571	0.017
-569.646	-9.179	-0.220	-0.148
-568.631	-119.228	0.240	0.042
-567.617	-200.000	0.029	-0.244
-566.602	-200.000	0.003	0.158
-565.588	300.874	0.108	0.200
-564.573	-36.014	-0.084	-0.045
-563.558	27.660	0.120	0.101
-562.544	324.496	-0.031	0.059
-561.529	-170.895	-0.311	-0.011
-560.515	-68.650	0.118	-0.046
-559.500	-200.000	0.088	-0.650
-558.485	-80.975	-0.300	0.100
-557.471	-144.231	0.391	-0.037
-556.456	-192.212	-0.210	-0.002
-555.442	-57.826	0.100	0.044
-554.427	365.767	-0.071	-0.142
-553.412	800.000	-0.051	0.170
-552.398	138.911	0.072	-0.095
-551.383	-200.000	-0.008	-0.074
-550.369	13.398	-0.123	0.096
-549.354	11.748	-0.098	0.076
-548.339	-83.042	0.358	-0.115
-547.325	-31.962	-0.107	-0.060
-546.310	-200.000	-0.016	0.198
-545.296	10.219	0.168	0.128
-544.281	800.000	-0.039	-0.162
-543.266	-94.636	-0.090	-0.025
-542.252	-114.297	0.329	0.064
-541.237	-36.649	-0.103	0.055
-540.223	130.743	0.066	0.085
-539.208	-108.952	-0.337	-0.072
-538.193	223.999	0.202	-0.327
-537.179	-200.000	-0.035	-0.346
-536.164	172.846	0.028	-0.040
-535.150	800.000	-0.051	-0.151
-534.135	517.458	0.056	-0.132
-533.121	-130.805	0.148	0.020
-532.106	57.313	-0.212	-0.207
-531.091	-200.000	0.046	0.226
-530.077	24.651	0.161	-0.133
-529.062	279.427	0.041	-0.073
-528.048	-179.502	0.125	-0.003
-527.033	744.193	-0.067	-0.179
-526.018	-71.394	0.092	0.035
-525.004	34.449	-0.201	-0.176
-523.989	106.825	-0.128	0.152
-522.975	-18.341	0.196	0.123
-521.960	286.621	0.095	-0.172
-520.945	800.000	0.018	-0.070
-519.931	-76.429	-0.402	-0.141
-518.916	-54.857	0.160	0.072
-517.902	800.000	0.041	0.177
-516.887	800.000	-0.064	0.205
-515.872	-19.527	0.336	-0.208
-514.858	696.990	-0.111	0.292
-513.843	-43.397	-0.234	0.119
-512.829	-98.710	0.136	0.035
-511.814	800.000	-0.139	-0.387
-510.799	-200.000	0.011	-0.179
-509.785	-167.886	0.281	0.011
-508.770	800.000	0.035	-0.145
-507.756	-200.000	0.018	0.136
-506.741	50.076	0.046	-0.044
-505.726	-91.740	0.189	0.054
-504.712	-5.282	0.059	0.041
-503.697	53.113	-0.151	0.145
-502.683	-63.690	-0.096	-0.039
-501.668	-0.315	-0.047	0.034
-500.653	217.221	0.112	0.179
-499.639	210.631	-0.091	0.143
-498.624	80.063	0.038	-0.041
-497.610	-200.000	0.000	-0.159
-496.595	-200.000	0.010	-0.173
-495.581	221.649	0.036	0.058
-494.566	-16.991	-0.270	0.170
-493.551	440.691	0.121	-0.265
-492.537	-113.454	0.132	-0.026
-491.522	-34.785	0.239	0.130
-490.508	-200.000	-0.014	0.390
-489.493	60.567	-0.108	0.107
-488.478	217.683	0.107	0.170
-487.464	-5.073	0.029	-0.020
-486.449	-56.265	0.116	-0.051
-485.435	-89.964	0.250	-0.073
-484.420	30.748	-0.069	-0.059
-483.405	-127.097	0.646	-0.095
-482.391	-16.900	0.097	0.062
-481.376	276.351	-0.116	-0.205
-480.362	-119.832	-0.206	-0.035
-479.347	-35.637	0.180	0.098
-478.332	-117.938	-0.161	-0.029
-477.318	-114.380	0.109	0.021
-476.303	207.883	0.040	-0.063
-475.289	599.867	-0.140	0.348
-474.274	44.324	0.081	-0.075
-473.259	-200.000	0.036	0.254
-472.245	-115.070	-0.214	-0.041
-471.230	-73.969	-0.308	0.112
-470.216	-2.481	0.315	0.220
-469.201	-161.461	0.217	0.011
-468.186	157.297	0.238	0.329
-467.172	227.094	-0.324	0.526
-466.157	-157.388	-0.222	0.013
-465.143	316.276	0.018	-0.033
-464.128	-92.982	0.267	0.074
-463.113	-200.000	-0.050	0.266
-462.099	-128.236	0.225	0.032
-461.084	597.605	-0.154	0.380
-460.070	172.427	-0.205	0.295
-459.055	-52.476	0.034	-0.016
-458.040	-127.370	0.096	0.014
-457.026	32.499	-0.153	0.132
-456.011	186.829	0.147	0.219
-454.997	-200.000	-0.019	-0.210
-453.982	-158.046	-0.103	-0.006
-452.968	329.547	-0.157	0.302
-451.953	-86.162	0.046	0.014
-450.938	-121.395	-0.270	-0.045
-449.924	-5.215	-0.133	-0.091
-448.909	-197.971	-0.560	0.003
-447.895	-90.602	0.193	0.056
-446.880	159.354	0.241	0.334
-445.865	800.000	-0.159	-0.446
-444.851	-164.914	-0.287	-0.013
-443.836	285.683	0.048	0.086
-442.822	21.845	-0.285	-0.232
-441.807	5.808	0.103	-0.076
-440.792	425.746	-0.095	0.203
-439.778	-80.446	-0.314	0.105
-438.763	800.000	0.108	0.378
-437.749	473.561	0.069	0.155
-436.734	79.358	0.303	-0.325
-435.719	59.412	-0.291	-0.286
-434.705	-143.006	-0.099	-0.010
-433.690	-200.000	-0.035	-0.159
-432.676	214.166	0.225	0.355
-431.661	-200.000	-0.005	0.040
-430.646	-145.202	-0.235	-0.021
-429.632	182.802	0.125	-0.184
-428.617	-73.592	0.465	0.169
-427.603	-200.000	-0.005	0.116
-426.588	40.467	-0.039	-0.035
-425.573	-91.550	-0.234	-0.067
-424.559	202.363	0.236	-0.363
-423.544	-107.659	-0.179	0.039
-422.530	-200.000	-0.035	0.193
-421.515	-149.970	-0.136	0.011
-420.500	800.000	-0.055	-0.180
-419.486	499.950	-0.192	-0.442
-418.471	51.081	0.027	-0.026
-417.457	-200.000	0.024	-0.209
-416.442	-166.610	0.102	0.004
-415.428	63.834	-0.089	-0.089
-414.413	-200.000	0.038	0.268
-413.398	-161.336	0.222	0.011
-412.384	252.298	0.124	0.211
-411.369	-200.000	-0.037	-0.487
-410.355	800.000	0.059	0.172
-409.340	800.000	0.075	0.237
-408.325	-200.000	-0.044	-0.220
-407.311	253.883	0.295	-0.502
-406.296	128.578	0.256	-0.325
-405.282	372.430	0.141	-0.285
-404.267	800.000	0.052	-0.163
-403.252	-200.000	-0.044	0.275
-402.238	543.947	0.100	-0.238
-401.223	-200.000	0.024	0.156
-400.209	115.979	0.123	-0.150
-399.194	250.033	0.008	-0.014
-398.179	800.000	-0.112	-0.321
-397.165	37.386	-0.158	-0.140
-396.150	-84.944	-0.393	0.123
-395.136	143.441	0.261	0.346
-394.121	241.904	0.139	0.231
-393.106	-35.020	-0.260	0.141
-392.092	-42.962	-0.236	0.119
-391.077	35.033	0.269	-0.234
-390.063	-53.755	0.094	-0.043
-389.048	-114.938	0.080	-0.015
-388.033	472.240	-0.150	-0.335
-387.019	303.937	-0.070	-0.130
-386.004	40.401	-0.127	0.114
-384.990	278.275	-0.024	0.042
-383.975	119.473	-0.013	-0.017
-382.960	-200.000	-0.030	0.162
-381.946	-100.737	0.163	-0.040
-380.931	-115.246	0.206	-0.039
-379.917	-197.617	-0.231	-0.001
-378.902	-49.969	-0.069	-0.033
-377.888	-200.000	0.045	0.481
-376.873	-182.637	-0.089	-0.002
-375.858	-34.058	-0.057	0.031
-374.844	-106.262	0.354	0.079
-373.829	-21.168	-0.039	-0.024
-372.815	304.822	-0.055	0.102
-371.800	69.579	0.224	-0.230
-370.785	-162.883	-0.156	-0.008
-369.771	-27.709	-0.271	-0.156
-368.756	-150.954	-0.320	0.024
-367.742	-200.000	-0.041	0.198
-366.727	-124.659	-0.191	0.029
-365.712	631.065	0.026	-0.065
-364.698	2.468	0.283	-0.204
-363.683	208.764	0.044	-0.068
-362.669	800.000	0.057	0.246
-361.654	11.706	-0.395	-0.301
-360.639	-70.292	0.071	-0.027
-359.625	119.791	-0.157	-0.193
-358.610	800.000	0.042	-0.132
-357.596	-43.195	-0.249	0.125
-356.581	800.000	0.068	-0.236
-355.566	-152.978	-0.363	-0.025
-354.552	-86.952	-0.221	0.067
-353.537	78.218	-0.017	0.018
-352.523	-200.000	0.050	0.251
-351.508	141.342	0.097	0.128
-350.493	49.136	0.041	0.038
-349.479	-200.000	0.011	-0.124
-348.464	-200.000	-0.042	0.205
-347.450	589.932	-0.081	0.198
-346.435	-135.922	0.386	-0.045
-345.420	-70.233	0.229	-0.086
-344.406	6.570	-0.186	-0.137
-343.391	99.736	0.017	-0.019
-342.377	-170.171	0.140	0.005
-341.362	-200.000	-0.029	0.292
-340.348	102.353	-0.189	0.220
-339.333	-79.441	0.249	-0.084
-338.318	211.199	0.179	0.281
-337.304	-59.068	-0.185	0.079
-336.289	288.954	0.018	-0.032
-335.275	-81.419	0.059	0.019
-334.260	-200.000	0.011	-0.247
-333.245	-7.832	0.158	-0.106
-332.231	-162.746	-0.101	0.005
-331.216	343.070	-0.155	0.303
-330.202	18.012	-0.134	0.106
-329.187	-100.171	-0.175	-0.043
-328.172	61.270	-0.123	0.121
-327.158	-151.762	0.344	0.025
-326.143	-151.855	0.175	-0.013
-325.129	490.118	0.099	0.225
-324.114	-54.225	0.240	-0.108
-323.099	-114.521	0.159	0.030
-322.085	-17.651	0.076	-0.047
-321.070	394.939	0.085	-0.176
-320.056	123.715	-0.116	0.144
-319.041	-200.000	0.021	-0.106
-318.026	-200.000	0.008	0.141
-317.012	-200.000	0.056	0.559
-315.997	-200.000	0.041	0.542
-314.983	800.000	-0.083	-0.301
-313.968	25.584	0.027	0.022
-312.953	87.346	0.173	0.190
-311.939	800.000	0.102	-0.283
-310.924	-200.000	0.010	0.067
-309.910	-90.894	0.105	0.030
-308.895	-200.000	-0.011	-0.123
-307.880	-120.796	0.204	-0.034
-306.866	36.488	-0.084	0.073
-305.851	-76.892	-0.118	0.041
-304.837	10.294	-0.096	-0.072
-303.822	800.000	0.117	-0.392
-302.807	-40.494	0.065	0.033
-301.793	-79.828	0.269	0.090
-300.778	109.603	0.284	-0.338
-299.764	2.084	0.151	-0.108
-298.749	357.087	0.123	0.243
-297.735	-36.336	0.026	0.014
-296.720	800.000	-0.102	-0.352
-295.705	-151.217	-0.072	0.005
-294.691	-17.180	-0.460	-0.288
-293.676	-62.062	-0.224	0.093
-292.662	690.213	0.080	-0.209
-291.647	-9.605	0.181	0.120
-290.632	54.135	-0.098	0.093
-289.618	-200.000	-0.015	0.350
-288.603	-200.000	0.032	-0.208
-287.589	-200.000	0.034	0.202
-286.574	32.146	-0.167	0.143
-285.559	222.252	-0.072	0.115
-284.545	233.611	0.091	-0.149
-283.530	51.986	-0.251	-0.238
-282.516	166.610	-0.019	0.027
-281.501	225.343	-0.147	-0.235
-280.486	800.000	-0.050	-0.143
-279.472	362.246	0.128	-0.256
-278.457	-48.044	0.142	0.068
-277.443	248.139	-0.254	0.426
-276.428	436.978	-0.106	-0.229
-275.413	78.800	-0.043	0.045
-274.399	-146.569	-0.104	-0.009
-273.384	-57.386	-0.333	0.145
-272.370	12.634	-0.111	-0.085
-271.355	-24.015	-0.214	0.127
-270.340	34.812	0.116	-0.101
-269.326	-200.000	-0.007	0.186
-268.311	95.834	-0.019	-0.022
-267.297	-200.000	0.028	0.297
-266.282	800.000	0.142	0.441
-265.267	800.000	-0.042	0.140
-264.253	173.425	0.246	-0.351
-263.238	-36.008	-0.292	-0.157
-262.224	-19.920	-0.200	-0.122
-261.209	-89.328	0.218	0.064
-260.195	-200.000	-0.054	0.290
-259.180	222.022	-0.075	-0.120
-258.165	29.271	0.097	0.082
-257.151	36.325	0.184	0.161
-256.136	-139.581	0.409	-0.043
-255.122	-150.156	0.239	-0.018
-254.107	-28.131	-0.125	0.071
-253.092	-54.686	-0.101	-0.045
-252.078	-77.642	-0.155	-0.053
-251.063	-200.000	0.001	0.038
-250.049	-122.482	0.233	-0.038
-249.034	-67.077	-0.235	0.092
-248.019	203.372	0.076	-0.116
-247.005	-94.511	-0.105	0.028
-245.990	-67.138	0.126	-0.049
-244.976	-95.101	0.048	0.013
-243.961	222.476	-0.059	-0.094
-242.946	29.951	-0.183	-0.154
-241.932	277.558	0.138	0.242
-240.917	-200.000	0.033	0.229
-239.903	147.658	-0.100	-0.133
-238.888	454.503	0.029	0.063
-237.873	91.667	-0.261	0.290
-236.859	-86.410	0.187	-0.057
-235.844	577.764	0.110	-0.267
-234.830	130.919	0.037	-0.046
-233.815	29.123	-0.225	-0.189
-232.800	-90.318	0.156	0.045
-231.786	800.000	0.032	0.122
-230.771	366.842	0.150	-0.300
-229.757	301.764	0.159	0.290
-228.742	-200.000	-0.036	0.395
-227.727	800.000	-0.089	0.357
-226.713	-200.000	0.214	0.000
-225.698	-55.738	0.060	-0.026
-224.684	-200.000	-0.029	0.254
-223.669	-37.908	-0.181	0.095
-222.655	-22.765	0.144	0.086
-221.640	-53.425	0.303	0.137
-220.625	-10.447	0.206	-0.135
-219.611	-72.998	-0.247	0.090
-218.596	667.538	0.193	-0.492
-217.582	-28.519	-0.046	0.026
-216.567	155.536	0.270	0.368
-215.552	-200.000	-0.144	0.000
-214.538	-121.729	-0.644	0.105
-213.523	-63.921	0.181	0.073
-212.509	-68.572	0.399	-0.153
-211.494	16.766	-0.137	0.107
-210.479	279.409	-0.078	-0.138
-209.465	-29.981	-0.191	-0.108
-208.450	68.820	-0.069	-0.070
-207.436	-41.366	0.400	0.204
-206.421	-48.001	0.325	-0.155
-205.406	56.734	0.171	0.165
-204.392	21.947	0.099	0.080
-203.377	800.000	0.084	0.288
-202.363	800.000	-0.129	-0.391
-201.348	800.000	0.045	-0.176
-200.333	74.086	0.177	0.184
-199.319	250.742	-0.146	-0.246
-198.304	800.000	0.047	0.165
-197.290	657.404	-0.091	-0.232
-196.275	-32.155	-0.280	0.155
-195.260	800.000	-0.083	0.277
-194.246	-200.000	0.043	-0.234
-193.231	248.040	0.189	0.316
-192.217	-68.584	-0.213	-0.082
-191.202	-107.695	0.084	0.018
-190.187	800.000	-0.047	0.165
-189.173	677.233	0.073	0.186
-188.158	-8.238	-0.201	-0.134
-187.144	800.000	0.088	0.285
-186.129	41.178	0.136	-0.122
-185.114	-200.000	-0.019	-0.107
-184.100	526.381	-0.062	0.145
-183.085	-105.296	0.021	-0.005
-182.071	157.503	-0.186	0.254
-181.056	-53.650	0.152	-0.068
-180.042	56.954	0.101	-0.097
-179.027	-41.750	0.303	-0.154
-178.012	-163.995	0.104	0.005
-176.998	268.244	-0.127	-0.220
-175.983	-57.276	-0.182	-0.079
-174.969	516.222	-0.076	0.175
-173.954	-200.000	-0.002	0.200
-172.939	37.439	0.268	-0.235
-171.925	158.046	-0.072	-0.098
-170.910	115.515	-0.093	-0.112
-169.896	23.285	-0.201	-0.163
-168.881	-65.973	0.118	-0.047
-167.866	43.833	-0.210	0.190
-166.852	47.690	-0.166	-0.153
-165.837	-56.381	-0.172	0.075
-164.823	588.879	-0.128	0.311
-163.808	-200.000	-0.067	-0.410
-162.793	40.880	-0.168	0.150
-161.779	-116.696	-0.157	-0.028
-160.764	800.000	-0.084	-0.279
-159.750	-137.970	-0.196	-0.022
-158.735	-161.979	0.201	-0.010
-157.720	-200.000	-0.013	0.075
-156.706	711.533	-0.102	0.266
-155.691	682.816	-0.107	0.275
-154.677	-81.625	0.364	-0.118
-153.662	65.784	-0.194	-0.194
-152.647	213.226	0.056	0.087
-151.633	-200.000	-0.018	0.124
-150.618	800.000	-0.134	-0.441
-149.604	-64.376	0.315	-0.126
-148.589	800.000	-0.079	0.224
-147.574	800.000	-0.055	0.179
-146.560	464.733	0.055	-0.121
-145.545	299.033	-0.196	0.356
-144.531	800.000	-0.047	-0.135
-143.516	800.000	0.070	-0.200
-142.502	72.963	0.165	0.170
-141.487	-109.243	-0.238	0.050
-140.472	-44.046	-0.235	-0.116
-139.458	-105.524	0.158	0.035
-138.443	-37.925	-0.137	0.072
-137.429	611.353	0.085	0.209
-136.414	271.840	-0.058	-0.101
-135.399	291.790	0.205	0.368
-134.385	289.138	0.058	-0.103
-133.370	413.210	0.069	-0.146
-132.356	-100.858	-0.209	-0.051
-131.341	65.846	-0.165	0.165
-130.326	-75.205	0.320	-0.113
-129.312	-194.325	0.183	-0.001
-128.297	-147.172	0.145	0.012
-127.283	150.266	0.132	-0.176
-126.268	209.458	-0.158	0.244
-125.253	-57.294	-0.158	0.068
-124.239	-107.697	0.159	0.034
-123.224	-130.443	-0.094	0.012
-122.210	800.000	-0.132	0.504
-121.195	-132.555	-0.069	-0.009
