DTS Sentinel unit serial number:	SN413079Multiplexer serial number:	ORYXHardware model number:	OX4-SRSoftware version number:	ORYX F/W v4.00 Oryx Data Collector v3.7.2.0data status	okinstallation	princeton_trtdifferential loss correction	single-endedforward channel	channel 2reverse channel	N/Adate	2019/09/13time	11:35:35forward acquisition time	60.00reverse acquisition time	0.00gamma	496.2192k internal	0.2319k external	0.2319temperature offset calibration	1.0197default loss term (dB/km)	0.3790temperature slope calibration	1.0000multiplexer offset coefficient	1.0000multiplexer slope coefficient	1.0000fibre end	0.00T internal ref (°C)	32.91T ext. ref 1 (°C)	4.41T ext. ref 2 (°C)	30.10length (m)	temperature (°C)	Stokes	anti-Stokes-747.200	29.567	0.111	0.096
-746.185	800.000	-0.147	0.513
-745.171	-186.834	0.121	-0.002
-744.156	800.000	0.098	0.396
-743.142	-200.000	0.009	-0.106
-742.127	646.671	0.123	0.318
-741.112	800.000	-0.096	0.313
-740.098	-99.834	0.320	0.081
-739.083	109.043	0.236	-0.285
-738.069	38.192	-0.120	-0.108
-737.054	-53.615	-0.352	-0.163
-736.039	575.030	-0.026	-0.065
-735.025	77.038	-0.043	0.046
-734.010	-200.000	-0.049	-0.303
-732.996	179.796	0.024	0.035
-731.981	-100.049	-0.236	0.060
-730.966	-200.000	0.011	0.090
-729.952	-200.000	-0.076	-0.000
-728.937	589.817	-0.078	0.195
-727.923	800.000	0.065	0.239
-726.908	370.335	-0.068	-0.139
-725.894	-126.164	-0.254	-0.039
-724.879	-33.462	-0.178	-0.099
-723.864	-66.334	0.310	-0.125
-722.850	800.000	-0.027	-0.084
-721.835	-200.000	-0.005	-0.230
-720.821	800.000	0.062	-0.263
-719.806	242.844	-0.216	-0.365
-718.791	800.000	-0.152	0.499
-717.777	-200.000	0.027	0.158
-716.762	-62.085	-0.288	-0.121
-715.748	-200.000	0.006	-0.056
-714.733	-47.402	0.395	-0.194
-713.718	-27.452	-0.121	-0.071
-712.704	-200.000	0.035	0.164
-711.689	181.351	0.079	0.117
-710.675	358.303	-0.095	-0.192
-709.660	42.254	-0.240	-0.221
-708.645	-37.929	0.408	0.219
-707.631	-33.483	-0.254	0.142
-706.616	391.325	-0.016	0.033
-705.602	-200.000	0.009	0.152
-704.587	314.760	0.122	0.231
-703.572	195.579	-0.227	-0.349
-702.558	-58.497	-0.255	0.112
-701.543	210.026	0.202	0.320
-700.529	176.486	0.163	0.240
-699.514	74.857	0.246	-0.262
-698.499	800.000	0.090	-0.253
-697.485	8.190	0.140	-0.106
-696.470	-69.561	-0.115	0.045
-695.456	172.667	-0.162	0.236
-694.441	187.388	0.072	0.108
-693.426	-126.849	-0.116	-0.017
-692.412	-200.000	-0.029	0.209
-691.397	4.531	0.240	-0.178
-690.383	-136.799	-0.304	0.035
-689.368	-200.000	-0.045	-0.401
-688.354	157.635	-0.101	-0.141
-687.339	-100.056	-0.153	-0.039
-686.324	-178.239	-0.022	-0.001
-685.310	-123.251	0.164	-0.027
-684.295	800.000	0.049	-0.155
-683.281	643.834	-0.006	-0.015
-682.266	312.245	-0.067	0.127
-681.251	-112.226	-0.417	-0.085
-680.237	-200.000	0.062	-0.345
-679.222	314.614	-0.111	-0.211
-678.208	148.059	-0.071	-0.097
-677.193	-54.512	-0.102	0.047
-676.178	-139.461	-0.395	0.043
-675.164	-96.500	0.035	0.009
-674.149	506.119	-0.029	-0.067
-673.135	-52.758	0.175	0.081
-672.120	72.518	-0.221	0.232
-671.105	-125.095	0.029	-0.004
-670.091	12.223	0.164	0.127
-669.076	-136.038	-0.034	0.004
-668.062	522.890	0.045	-0.106
-667.047	-200.000	-0.016	0.327
-666.032	-2.203	0.152	0.107
-665.018	-77.644	-0.137	-0.048
-664.003	157.740	-0.320	-0.447
-662.989	-33.553	0.277	-0.154
-661.974	-55.472	0.170	-0.077
-660.959	764.015	-0.039	0.108
-659.945	-126.684	-0.158	-0.024
-658.930	-200.000	-0.035	0.218
-657.916	-104.001	0.079	-0.019
-656.901	354.853	0.120	-0.241
-655.886	800.000	-0.032	-0.122
-654.872	198.458	0.088	-0.135
-653.857	-50.407	0.068	0.032
-652.843	-200.000	0.006	-0.144
-651.828	-200.000	-0.039	-0.233
-650.814	-151.451	-0.278	0.021
-649.799	285.652	-0.010	-0.019
-648.784	-118.878	-0.282	0.050
-647.770	35.910	-0.128	-0.113
-646.755	318.267	0.073	-0.139
-645.741	-150.597	-0.201	-0.016
-644.726	1.274	-0.266	0.193
-643.711	715.862	0.113	-0.303
-642.697	18.051	-0.103	-0.083
-641.682	246.864	0.224	0.381
-640.668	39.434	-0.386	0.348
-639.653	-147.338	-0.296	-0.025
-638.638	406.999	-0.050	0.106
-637.624	800.000	-0.048	-0.167
-636.609	344.028	0.153	-0.302
-635.595	-29.628	0.112	0.065
-634.580	37.534	0.215	0.192
-633.565	-119.721	-0.174	0.030
-632.551	800.000	0.054	-0.177
-631.536	210.857	-0.166	0.264
-630.522	-17.306	0.304	-0.193
-629.507	-95.504	-0.246	-0.067
-628.492	-34.982	0.127	0.070
-627.478	672.167	-0.124	0.323
-626.463	-65.574	-0.187	0.075
-625.449	125.984	-0.248	0.316
-624.434	21.570	-0.164	-0.134
-623.419	558.490	-0.076	-0.185
-622.405	-159.479	-0.080	0.004
-621.390	-29.955	-0.035	-0.020
-620.376	-200.000	-0.005	-0.132
-619.361	-17.458	-0.067	0.042
-618.346	-49.927	0.107	0.051
-617.332	402.325	-0.103	-0.218
-616.317	-14.033	-0.164	0.106
-615.303	-200.000	0.006	-0.189
-614.288	551.012	0.100	0.242
-613.273	-57.694	-0.189	-0.083
-612.259	800.000	0.026	-0.110
-611.244	-200.000	0.009	0.283
-610.230	138.610	-0.144	0.191
-609.215	-108.530	-0.277	-0.060
-608.201	-153.626	0.273	-0.019
-607.186	-200.000	-0.005	0.249
-606.171	800.000	-0.044	0.148
-605.157	27.847	0.158	0.134
-604.142	-56.200	-0.258	-0.116
-603.128	-200.000	-0.001	-0.236
-602.113	365.507	0.109	-0.221
-601.098	-200.000	-0.036	0.227
-600.084	-125.411	0.369	0.057
-599.069	-156.027	-0.115	-0.007
-598.055	-181.773	0.360	-0.007
-597.040	-200.000	-0.002	-0.497
-596.025	91.620	0.110	0.124
-595.011	-105.700	-0.179	-0.041
-593.996	740.958	-0.027	0.073
-592.982	800.000	-0.013	0.040
-591.967	800.000	0.019	-0.052
-590.952	-93.457	0.186	0.052
-589.938	-6.375	-0.571	-0.392
-588.923	24.975	0.079	-0.066
-587.909	86.472	0.050	-0.055
-586.894	42.540	0.187	-0.171
-585.879	68.105	0.139	-0.143
-584.865	800.000	-0.075	0.238
-583.850	-65.820	-0.333	-0.134
-582.836	72.877	-0.087	0.092
-581.821	84.926	0.073	-0.081
-580.806	-132.081	0.254	0.033
-579.792	-93.191	0.135	0.038
-578.777	27.158	0.226	-0.190
-577.763	679.587	-0.038	0.100
-576.748	535.323	-0.080	-0.191
-575.733	-33.338	-0.281	-0.156
-574.719	-185.423	-0.072	-0.001
-573.704	144.815	-0.193	0.260
-572.690	-200.000	-0.060	0.400
-571.675	-200.000	-0.006	-0.052
-570.661	800.000	0.096	-0.271
-569.646	-77.482	-0.113	-0.039
-568.631	-100.203	-0.229	-0.057
-567.617	800.000	-0.064	0.192
-566.602	-120.568	-0.168	0.029
-565.588	-129.691	-0.355	-0.049
-564.573	76.501	-0.284	-0.303
-563.558	27.086	-0.160	-0.135
-562.544	315.497	0.074	-0.140
-561.529	-19.297	-0.409	-0.255
-560.515	-132.021	-0.272	0.036
-559.500	800.000	-0.040	-0.125
-558.485	177.278	0.077	-0.112
-557.471	-200.000	0.015	0.204
-556.456	-105.165	-0.236	0.054
-555.442	5.452	-0.169	0.126
-554.427	-9.947	0.104	0.070
-553.412	63.088	-0.108	-0.108
-552.398	248.799	-0.123	0.209
-551.383	-39.083	-0.153	0.081
-550.369	720.380	0.090	-0.239
-549.354	-103.562	0.274	0.065
-548.339	254.865	-0.091	0.157
-547.325	-65.758	0.148	-0.060
-546.310	-129.029	-0.110	0.016
-545.296	-200.000	-0.086	0.466
-544.281	13.363	0.088	0.068
-543.266	-200.000	-0.020	-0.208
-542.252	800.000	-0.099	0.349
-541.237	182.969	-0.046	0.068
-540.223	111.410	-0.117	0.141
-539.208	42.309	0.112	0.102
-538.193	-70.983	-0.246	-0.093
-537.179	-200.000	0.003	0.081
-536.164	-181.743	0.365	-0.007
-535.150	3.265	-0.135	-0.098
-534.135	-102.301	0.056	-0.014
-533.121	-200.000	-0.023	-0.153
-532.106	145.276	0.065	0.087
-531.091	-70.016	-0.052	-0.020
-530.077	253.106	0.175	0.300
-529.062	800.000	-0.063	-0.193
-528.048	-111.444	-0.194	0.040
-527.033	-97.813	-0.315	-0.082
-526.018	-154.039	0.297	-0.020
-525.004	201.036	-0.233	-0.360
-523.989	47.660	0.121	0.114
-522.975	68.175	-0.080	0.083
-521.960	282.270	0.187	-0.336
-520.945	-103.272	0.264	-0.063
-519.931	100.728	0.317	-0.369
-518.916	-33.266	0.208	0.115
-517.902	-84.151	0.142	0.045
-516.887	-14.561	0.128	-0.083
-515.872	-135.694	-0.033	-0.004
-514.858	405.664	-0.052	-0.111
-513.843	-18.474	-0.153	0.096
-512.829	252.464	0.243	0.415
-511.814	-200.000	-0.004	-0.030
-510.799	-200.000	0.012	-0.153
-509.785	159.388	-0.146	-0.204
-508.770	-191.728	-0.311	-0.003
-507.756	800.000	-0.056	0.223
-506.741	350.256	0.097	-0.192
-505.726	-96.485	-0.146	-0.039
-504.712	744.378	0.080	0.217
-503.697	22.797	-0.383	-0.314
-502.683	84.537	-0.096	0.105
-501.668	-116.503	0.179	0.033
-500.653	-42.630	0.189	0.097
-499.639	58.195	0.078	-0.077
-498.624	17.912	0.182	0.145
-497.610	-13.663	0.188	-0.122
-496.595	36.525	0.188	-0.166
-495.581	-56.284	0.151	-0.067
-494.566	503.236	0.158	-0.367
-493.551	-1.298	-0.233	-0.165
-492.537	800.000	0.009	0.031
-491.522	-170.064	0.019	0.001
-490.508	732.258	0.030	-0.080
-489.493	385.156	0.065	0.134
-488.478	-200.000	0.041	-0.263
-487.464	310.121	-0.226	-0.424
-486.449	-136.847	-0.107	0.012
-485.435	97.678	0.147	-0.169
-484.420	59.364	0.063	-0.062
-483.405	274.708	0.069	-0.123
-482.391	-44.728	0.023	0.012
-481.376	-96.243	-0.242	-0.064
-480.362	-26.847	0.207	-0.121
-479.347	-85.295	-0.037	0.012
-478.332	177.484	0.081	0.118
-477.318	-39.848	0.074	0.039
-476.303	-165.913	-0.058	-0.002
-475.289	-53.827	-0.281	0.128
-474.274	-86.558	0.075	-0.023
-473.259	-200.000	-0.091	-0.412
-472.245	-28.184	-0.087	0.050
-471.230	-200.000	0.003	0.087
-470.216	20.288	0.064	-0.052
-469.201	-52.517	0.358	0.165
-468.186	-200.000	0.005	0.143
-467.172	800.000	0.131	-0.413
-466.157	-200.000	-0.023	-0.175
-465.143	-200.000	0.388	-0.000
-464.128	-131.364	-0.366	-0.048
-463.113	798.421	0.066	-0.181
-462.099	-180.077	0.173	-0.004
-461.084	29.387	0.081	-0.069
-460.070	54.388	0.162	-0.156
-459.055	180.364	0.099	0.145
-458.040	800.000	0.039	0.145
-457.026	-29.816	0.130	-0.074
-456.011	-200.000	0.036	0.415
-454.997	-127.855	-0.236	-0.034
-453.982	79.767	0.171	0.184
-452.968	-78.778	0.329	0.112
-451.953	-22.135	0.252	-0.153
-450.938	-200.000	-0.100	0.000
-449.924	-37.443	-0.204	-0.109
-448.909	127.170	-0.279	-0.354
-447.895	-14.922	-0.142	-0.091
-446.880	258.831	0.184	0.317
-445.865	-0.425	-0.241	-0.171
-444.851	656.270	0.064	0.164
-443.836	-38.067	0.389	-0.206
-442.822	477.026	0.176	-0.398
-441.807	598.364	-0.072	0.179
-440.792	-96.268	0.183	0.049
-439.778	37.619	-0.132	0.117
-438.763	800.000	-0.095	-0.355
-437.749	53.218	-0.281	0.269
-436.734	244.382	-0.144	-0.242
-435.719	800.000	0.017	0.072
-434.705	196.924	-0.120	0.182
-433.690	120.970	0.258	0.321
-432.676	-54.118	-0.145	-0.066
-431.661	60.892	-0.196	0.194
-430.646	800.000	0.064	0.248
-429.632	-185.403	0.438	0.007
-428.617	118.721	0.009	-0.011
-427.603	-83.708	0.079	0.025
-426.588	296.691	-0.091	0.167
-425.573	-200.000	-0.047	0.390
-424.559	800.000	-0.064	-0.231
-423.544	523.746	0.107	-0.251
-422.530	132.144	0.018	0.024
-421.515	458.681	-0.066	-0.147
-420.500	184.651	0.034	-0.050
-419.486	-18.480	-0.217	0.135
-418.471	134.995	0.160	-0.207
-417.457	-60.269	0.235	-0.100
-416.442	-49.298	-0.398	-0.190
-415.428	-46.363	0.167	-0.082
-414.413	-127.276	-0.313	-0.046
-413.398	-6.812	0.181	-0.123
-412.384	-21.736	0.114	-0.069
-411.369	167.348	-0.023	-0.032
-410.355	-46.605	-0.050	0.025
-409.340	-200.000	-0.387	0.002
-408.325	-57.767	0.346	-0.151
-407.311	-200.000	-0.041	0.366
-406.296	381.703	-0.121	-0.249
-405.282	-200.000	-0.009	-0.151
-404.267	-200.000	0.023	0.215
-403.252	-200.000	0.047	-0.245
-402.238	-33.774	0.032	0.018
-401.223	-42.267	0.376	-0.191
-400.209	163.893	0.067	-0.094
-399.194	-200.000	-0.038	-0.206
-398.179	-200.000	0.003	-0.125
-397.165	-200.000	0.000	-0.101
-396.150	-200.000	0.034	0.159
-395.136	-200.000	0.041	0.271
-394.121	-99.665	0.107	0.027
-393.106	-58.457	-0.069	-0.030
-392.092	-120.295	0.086	-0.015
-391.077	0.415	-0.155	-0.110
-390.063	-121.847	-0.368	0.061
-389.048	-134.053	-0.268	0.033
-388.033	800.000	-0.027	0.113
-387.019	15.974	-0.302	-0.237
-386.004	-200.000	0.019	-0.149
-384.990	109.486	0.185	-0.221
-383.975	-200.000	-0.021	0.091
-382.960	539.422	0.125	-0.297
-381.946	-72.267	0.182	-0.067
-380.931	-200.000	-0.008	-0.041
-379.917	13.283	-0.166	-0.129
-378.902	-167.619	0.149	-0.006
-377.888	-200.000	0.032	0.280
-376.873	25.514	0.138	-0.115
-375.858	28.991	-0.114	-0.096
-374.844	-0.693	0.255	0.181
-373.829	-59.334	0.120	-0.052
-372.815	-57.925	-0.297	0.130
-371.800	800.000	0.051	-0.206
-370.785	-200.000	-0.007	-0.071
-369.771	-62.690	-0.100	0.041
-368.756	41.839	-0.212	0.192
-367.742	800.000	0.033	0.129
-366.727	-35.914	-0.219	-0.118
-365.712	209.610	-0.013	0.020
-364.698	800.000	-0.090	0.262
-363.683	800.000	0.132	-0.560
-362.669	42.103	0.086	0.078
-361.654	800.000	0.035	0.123
-360.639	398.538	0.052	0.109
-359.625	-42.314	-0.343	0.175
-358.610	-125.178	-0.054	0.008
-357.596	-200.000	-0.007	0.079
-356.581	-66.446	0.093	0.037
-355.566	-27.550	-0.131	-0.076
-354.552	-72.724	-0.313	-0.115
-353.537	-19.445	0.372	-0.230
-352.523	-61.783	-0.204	-0.085
-351.508	-36.887	0.151	0.081
-350.493	640.532	0.083	-0.210
-349.479	800.000	-0.063	0.231
-348.464	-14.583	-0.247	-0.158
-347.450	-127.985	0.060	0.009
-346.435	-54.098	0.238	-0.108
-345.420	144.925	0.245	-0.327
-344.406	-55.775	-0.083	0.037
-343.391	800.000	-0.053	-0.191
-342.377	33.753	0.241	0.209
-341.362	-141.302	-0.081	0.008
-340.348	-111.215	0.220	-0.045
-339.333	285.743	0.069	-0.123
-338.318	800.000	0.031	0.098
-337.304	800.000	-0.025	-0.072
-336.289	-200.000	-0.014	-0.243
-335.275	361.870	0.069	-0.138
-334.260	-200.000	0.009	0.128
-333.245	-124.702	0.156	0.024
-332.231	-51.045	-0.291	-0.136
-331.216	-98.833	0.340	0.086
-330.202	-37.267	-0.210	-0.112
-329.187	84.773	-0.219	0.239
-328.172	-84.806	-0.422	-0.132
-327.158	-160.601	-0.261	-0.014
-326.143	-200.000	0.009	0.152
-325.129	14.313	0.097	-0.075
-324.114	-200.000	-0.031	-0.441
-323.099	94.853	0.086	-0.097
-322.085	328.147	0.111	-0.212
-321.070	-200.000	-0.049	-0.341
-320.056	-54.339	0.076	-0.034
-319.041	261.195	-0.160	0.276
-318.026	-130.419	0.385	0.052
-317.012	-114.894	-0.328	-0.062
-315.997	-200.000	0.067	0.324
-314.983	-81.819	0.155	-0.051
-313.968	800.000	0.036	0.141
-312.953	-176.749	0.383	0.010
-311.939	73.809	0.158	0.165
-310.924	13.039	0.313	-0.241
-309.910	162.232	0.152	0.211
-308.895	79.949	-0.186	0.199
-307.880	-128.682	0.320	0.045
-306.866	307.576	0.231	0.427
-305.851	-200.000	0.022	-0.191
-304.837	125.761	0.131	-0.164
-303.822	49.304	0.355	0.332
-302.807	-36.813	-0.290	0.155
-301.793	-135.989	-0.122	0.014
-300.778	129.339	0.147	-0.186
-299.764	-200.000	-0.058	0.265
-298.749	285.736	-0.066	-0.119
-297.735	800.000	0.007	0.023
-296.720	-133.883	0.357	-0.044
-295.705	495.196	0.146	0.332
-294.691	-72.521	-0.098	0.036
-293.676	-77.755	-0.144	0.049
-292.662	100.548	-0.196	0.227
-291.647	-57.091	-0.157	0.069
-290.632	125.983	-0.063	0.080
-289.618	-199.444	0.194	-0.001
-288.603	125.386	-0.055	0.069
-287.589	-95.430	-0.210	-0.056
-286.574	53.925	0.305	0.292
-285.559	800.000	-0.036	0.101
-284.545	-42.973	-0.122	-0.061
-283.530	-200.000	-0.005	-0.158
-282.516	73.825	0.080	0.083
-281.501	134.521	0.110	-0.141
-280.486	245.854	-0.104	0.174
-279.472	49.848	-0.135	-0.127
-278.457	-156.294	0.308	0.019
-277.443	-99.915	-0.354	-0.088
-276.428	800.000	-0.108	-0.296
-275.413	-52.821	-0.160	-0.073
-274.399	800.000	-0.017	-0.065
-273.384	29.506	0.161	-0.136
-272.370	79.610	0.109	0.116
-271.355	191.059	0.127	-0.189
-270.340	164.737	0.069	0.097
-269.326	-130.991	0.099	-0.013
-268.311	149.859	-0.134	-0.180
-267.297	800.000	-0.049	-0.207
-266.282	-181.111	0.139	-0.003
-265.267	76.679	0.105	0.111
-264.253	248.190	-0.097	-0.163
-263.238	9.322	0.134	0.100
-262.224	776.300	0.129	0.349
-261.209	137.258	-0.102	-0.132
-260.195	131.225	-0.104	0.133
-259.180	237.202	-0.094	0.155
-258.165	113.070	-0.376	0.453
-257.151	-76.343	-0.098	0.034
-256.136	109.507	0.214	0.254
-255.122	49.135	0.107	-0.100
-254.107	-32.144	-0.311	0.172
-253.092	115.143	0.134	0.162
-252.078	143.624	-0.047	-0.062
-251.063	-24.939	0.092	0.054
-250.049	-55.309	-0.266	0.119
-249.034	-59.567	0.251	-0.107
-248.019	-200.000	0.002	0.554
-247.005	800.000	-0.095	0.280
-245.990	-200.000	-0.034	0.271
-244.976	-105.697	-0.141	0.032
-243.961	-200.000	-0.039	-0.179
-242.946	317.620	0.072	0.135
-241.932	30.732	-0.138	0.117
-240.917	-200.000	0.006	0.115
-239.903	57.936	-0.249	0.242
-238.888	5.292	-0.113	-0.082
-237.873	-77.538	0.429	-0.148
-236.859	-98.870	-0.065	-0.016
-235.844	90.940	0.206	-0.229
-234.830	-200.000	-0.008	-0.158
-233.815	-64.079	-0.267	0.108
-232.800	-105.800	-0.228	0.051
-231.786	340.604	0.121	0.235
-230.771	470.099	-0.144	0.321
-229.757	-76.576	0.274	-0.095
-228.742	208.390	0.240	0.373
-227.727	-200.000	-0.017	0.097
-226.713	-166.538	0.072	0.003
-225.698	-200.000	0.045	-0.335
-224.684	800.000	0.040	-0.171
-223.669	-120.912	0.145	0.024
-222.655	145.168	-0.211	0.280
-221.640	32.898	-0.139	0.119
-220.625	-151.179	-0.413	-0.031
-219.611	511.306	0.102	0.236
-218.596	800.000	0.106	0.335
-217.582	-200.000	-0.004	0.261
-216.567	154.328	-0.168	-0.228
-215.552	-70.434	-0.246	-0.092
-214.538	-6.638	-0.261	-0.176
-213.523	-4.701	0.063	-0.043
-212.509	158.507	-0.068	-0.094
-211.494	673.841	-0.064	-0.163
-210.479	795.839	0.072	0.196
-209.465	800.000	-0.074	0.312
-208.450	800.000	-0.083	-0.339
-207.436	-151.867	0.385	-0.028
-206.421	-200.000	0.037	0.172
-205.406	94.550	0.102	0.115
-204.392	289.836	0.056	-0.100
-203.377	-200.000	-0.005	-0.316
-202.363	202.733	-0.084	0.128
-201.348	108.902	-0.182	0.215
-200.333	800.000	0.085	0.238
-199.319	-30.401	0.188	0.106
-198.304	-200.000	-0.003	0.081
-197.290	-200.000	0.015	-0.076
-196.275	-51.298	0.284	-0.132
-195.260	-106.606	0.212	-0.047
-194.246	194.332	-0.074	-0.111
-193.231	319.146	0.110	0.207
-192.217	559.428	0.045	-0.108
-191.202	-38.765	-0.197	-0.103
-190.187	-127.231	0.278	0.040
-189.173	596.417	0.050	0.123
-188.158	-200.000	-0.007	-0.109
-187.144	248.973	0.125	0.210
-186.129	14.695	-0.148	0.114
-185.114	6.744	0.227	0.167
-184.100	-0.148	-0.041	0.029
-183.085	-79.936	0.324	-0.108
-182.071	230.358	0.091	0.148
-181.056	800.000	-0.061	0.194
-180.042	252.792	0.110	0.185
-179.027	212.220	0.114	0.178
-178.012	-200.000	0.006	0.031
-176.998	800.000	-0.070	0.193
-175.983	-200.000	-0.034	0.218
-174.969	-29.019	-0.199	0.113
-173.954	-89.605	0.067	0.019
-172.939	-200.000	-0.037	-0.202
-171.925	127.290	0.236	-0.296
-170.910	108.611	-0.082	0.097
-169.896	130.842	-0.118	0.150
-168.881	124.893	-0.170	-0.211
-167.866	237.878	0.144	-0.237
-166.852	709.676	-0.176	-0.461
-165.837	663.863	0.086	-0.219
-164.823	84.325	0.207	0.224
-163.808	-125.812	0.027	-0.004
-162.793	66.825	0.274	-0.276
-161.779	-174.412	0.319	0.009
-160.764	800.000	0.087	0.323
-159.750	-120.498	0.370	-0.062
-158.735	-134.359	-0.194	0.024
-157.720	-112.461	0.029	0.006
-156.706	249.703	-0.043	0.073
-155.691	41.215	0.111	0.099
-154.677	77.488	0.158	0.166
-153.662	-200.000	0.036	-0.183
-152.647	800.000	-0.022	-0.067
-151.633	-200.000	-0.022	0.289
-150.618	-126.059	-0.077	0.011
-149.604	-200.000	-0.061	-0.347
-148.589	769.857	-0.104	0.280
-147.574	27.318	-0.240	0.199
-146.560	27.407	-0.153	-0.127
-145.545	-53.876	-0.267	0.120
-144.531	129.669	0.028	0.036
-143.516	-13.102	-0.245	0.158
-142.502	54.166	-0.222	0.211
-141.487	333.398	0.175	0.335
-140.472	-112.857	0.277	-0.054
-139.458	800.000	0.028	-0.110
-138.443	55.201	-0.141	0.135
-137.429	147.936	-0.088	-0.117
-136.414	-200.000	0.014	0.190
-135.399	-200.000	0.017	0.248
-134.385	218.850	0.049	0.078
-133.370	800.000	0.086	-0.282
-132.356	-21.977	0.340	0.204
-131.341	42.799	0.214	-0.193
-130.326	378.713	-0.168	0.339
-129.312	20.103	0.310	-0.247
-128.297	453.283	0.028	-0.062
-127.283	-200.000	0.111	0.495
-126.268	446.743	0.101	0.220
-125.253	435.755	-0.052	-0.111
-124.239	-41.372	-0.232	-0.118
-123.224	-200.000	0.022	-0.195
-122.210	-82.976	0.372	-0.118
-121.195	12.237	0.102	0.078
