DTS Sentinel unit serial number:	SN413079Multiplexer serial number:	ORYXHardware model number:	OX4-SRSoftware version number:	ORYX F/W v4.00 Oryx Data Collector v3.7.2.0data status	okinstallation	princeton_trtdifferential loss correction	single-endedforward channel	channel 2reverse channel	N/Adate	2019/09/18time	22:07:35forward acquisition time	60.00reverse acquisition time	0.00gamma	496.2192k internal	0.2348k external	0.2348temperature offset calibration	1.0019default loss term (dB/km)	0.3790temperature slope calibration	1.0000multiplexer offset coefficient	1.0000multiplexer slope coefficient	1.0000fibre end	0.00T internal ref (°C)	24.50T ext. ref 1 (°C)	0.80T ext. ref 2 (°C)	18.32length (m)	temperature (°C)	Stokes	anti-Stokes-747.200	9.964	0.322	0.244
-746.185	35.901	0.245	0.215
-745.171	555.607	-0.128	-0.308
-744.156	-200.000	-0.048	0.239
-743.142	-173.392	0.292	0.009
-742.127	-200.000	0.015	-0.123
-741.112	-105.921	0.313	-0.071
-740.098	-120.190	-0.305	0.052
-739.083	-94.629	-0.021	-0.006
-738.069	-200.000	0.041	0.285
-737.054	-36.650	0.068	0.036
-736.039	178.159	-0.100	-0.146
-735.025	-20.420	0.339	-0.208
-734.010	84.805	0.081	-0.089
-732.996	708.908	0.029	-0.077
-731.981	85.839	-0.068	0.075
-730.966	-200.000	-0.011	0.080
-729.952	-200.000	-0.017	-0.134
-728.937	-200.000	-0.041	-0.279
-727.923	-108.881	0.280	-0.060
-726.908	-83.998	-0.468	-0.149
-725.894	800.000	0.070	-0.256
-724.879	-2.667	-0.339	-0.237
-723.864	-200.000	0.016	-0.143
-722.850	-3.446	0.319	0.221
-721.835	-64.515	-0.193	-0.078
-720.821	-104.501	0.277	0.064
-719.806	80.890	0.130	-0.141
-718.791	-200.000	-0.031	-0.196
-717.777	58.371	0.243	-0.238
-716.762	-35.624	0.114	-0.062
-715.748	-40.306	0.311	-0.161
-714.733	-71.779	0.258	0.096
-713.718	289.985	-0.114	-0.206
-712.704	-21.001	0.154	0.094
-711.689	34.827	-0.119	-0.103
-710.675	-25.697	-0.076	0.045
-709.660	-200.000	-0.013	-0.242
-708.645	157.516	-0.081	-0.112
-707.631	-32.424	0.210	-0.117
-706.616	-200.000	-0.026	-0.441
-705.602	212.380	-0.107	-0.169
-704.587	180.793	0.028	0.041
-703.572	384.469	-0.063	-0.129
-702.558	633.370	-0.057	0.143
-701.543	-198.967	-0.229	0.001
-700.529	-200.000	-0.084	-0.388
-699.514	4.818	0.138	0.101
-698.499	-86.059	0.129	0.040
-697.485	-172.707	-0.084	-0.003
-696.470	171.254	-0.184	-0.263
-695.456	-200.000	0.006	-0.208
-694.441	-111.133	0.048	-0.010
-693.426	97.853	0.117	-0.134
-692.412	-35.032	-0.260	0.141
-691.397	514.983	0.097	-0.225
-690.383	137.361	0.151	-0.196
-689.368	-110.896	0.120	0.025
-688.354	-108.806	-0.218	0.046
-687.339	1.282	0.094	-0.067
-686.324	800.000	0.068	0.198
-685.310	-41.915	-0.355	-0.181
-684.295	29.570	-0.253	0.214
-683.281	-200.000	0.037	-0.262
-682.266	-146.168	-0.090	-0.008
-681.251	737.678	-0.068	-0.182
-680.237	800.000	0.134	-0.496
-679.222	-145.009	-0.250	0.023
-678.208	-62.800	-0.256	-0.106
-677.193	-200.000	-0.023	0.316
-676.178	-129.438	0.081	0.011
-675.164	-21.035	-0.198	-0.121
-674.149	800.000	0.063	-0.263
-673.135	740.479	-0.050	0.133
-672.120	465.755	-0.103	-0.230
-671.105	-73.494	-0.283	-0.103
-670.091	10.778	-0.228	-0.174
-669.076	-200.000	-0.012	-0.255
-668.062	25.482	-0.397	-0.329
-667.047	-200.000	0.001	-0.184
-666.032	305.220	0.131	0.243
-665.018	-55.734	0.189	0.084
-664.003	-200.000	-0.033	-0.259
-662.989	-113.299	0.350	-0.069
-661.974	-125.882	-0.170	-0.026
-660.959	-122.395	0.179	0.029
-659.945	76.141	-0.068	0.072
-658.930	-200.000	-0.171	0.001
-657.916	10.318	0.272	-0.207
-656.901	-200.000	-0.014	-0.240
-655.886	-200.000	0.053	-0.336
-654.872	-36.310	-0.300	-0.161
-653.857	-146.660	-0.121	-0.010
-652.843	-110.029	0.453	-0.094
-651.828	800.000	-0.019	-0.079
-650.814	-200.000	0.003	-0.086
-649.799	455.236	-0.188	-0.414
-648.784	196.885	0.077	-0.117
-647.770	-113.665	-0.291	-0.057
-646.755	254.595	0.052	-0.088
-645.741	564.310	-0.110	0.265
-644.726	-47.385	-0.194	0.094
-643.711	175.435	0.071	-0.103
-642.697	56.446	-0.103	-0.100
-641.682	435.554	0.105	0.227
-640.668	-200.000	-0.022	0.255
-639.653	69.907	0.130	0.133
-638.638	-200.000	0.000	-0.232
-637.624	-53.580	-0.182	-0.083
-636.609	-115.255	0.198	-0.037
-635.595	-117.488	0.091	0.016
-634.580	-31.737	-0.272	0.152
-633.565	-200.000	0.034	0.259
-632.551	-32.101	0.139	0.077
-631.536	-200.000	0.040	0.272
-630.522	-18.009	-0.164	-0.102
-629.507	-26.722	0.191	0.111
-628.492	-72.166	-0.184	0.068
-627.478	-41.726	0.081	-0.041
-626.463	800.000	0.051	-0.147
-625.449	800.000	0.046	0.127
-624.434	-200.000	0.041	0.259
-623.419	148.824	0.058	-0.078
-622.405	105.282	0.079	-0.093
-621.390	-167.583	0.219	-0.009
-620.376	753.090	0.091	0.246
-619.361	-200.000	-0.043	-0.224
-618.346	-200.000	0.035	0.349
-617.332	111.016	0.256	-0.306
-616.317	800.000	-0.068	-0.273
-615.303	-200.000	-0.005	-0.107
-614.288	-5.237	-0.081	-0.056
-613.273	47.329	0.305	0.282
-612.259	-85.369	-0.075	-0.023
-611.244	431.346	-0.175	0.377
-610.230	-42.027	-0.244	-0.124
-609.215	-200.000	0.018	-0.263
-608.201	-45.319	-0.180	0.089
-607.186	-200.000	0.023	0.456
-606.171	85.786	0.247	0.270
-605.157	800.000	-0.041	0.158
-604.142	93.406	-0.180	0.202
-603.128	-200.000	0.020	0.116
-602.113	-18.382	-0.244	0.151
-601.098	101.536	0.010	-0.012
-600.084	-122.469	0.249	-0.040
-599.069	-200.000	0.064	-0.376
-598.055	800.000	0.016	0.045
-597.040	-75.938	0.130	-0.046
-596.025	-124.302	-0.096	-0.015
-595.011	-128.304	-0.168	-0.024
-593.996	87.595	-0.211	-0.233
-592.982	-5.903	-0.300	0.204
-591.967	800.000	-0.047	0.184
-590.952	-200.000	-0.058	0.360
-589.938	-179.478	-0.290	-0.006
-588.923	224.869	-0.081	-0.130
-587.909	-200.000	-0.010	-0.068
-586.894	-200.000	-0.032	0.222
-585.879	800.000	0.097	-0.366
-584.865	800.000	0.019	-0.055
-583.850	-176.553	-0.323	-0.008
-582.836	97.682	-0.106	0.121
-581.821	49.722	-0.139	-0.130
-580.806	-33.680	-0.139	0.076
-579.792	375.353	0.041	0.083
-578.777	-200.000	0.022	-0.216
-577.763	-21.577	-0.212	-0.129
-576.748	-47.777	-0.124	-0.060
-575.733	-165.902	0.308	0.013
-574.719	47.591	-0.214	-0.198
-573.704	-97.013	0.192	0.050
-572.690	-200.000	0.006	0.103
-571.675	-19.510	0.123	-0.076
-570.661	72.132	0.130	0.134
-569.646	-115.108	-0.124	0.023
-568.631	-174.964	0.451	0.013
-567.617	201.491	0.200	0.306
-566.602	-91.133	-0.177	-0.050
-565.588	69.065	-0.131	-0.133
-564.573	-200.000	0.014	-0.113
-563.558	-80.045	-0.393	0.131
-562.544	280.654	-0.185	0.329
-561.529	127.786	-0.200	0.252
-560.515	61.417	-0.231	-0.228
-559.500	-5.856	0.112	-0.076
-558.485	-100.475	-0.104	0.026
-557.471	72.378	-0.151	0.156
-556.456	-65.077	0.179	0.072
-555.442	-200.000	-0.000	-0.108
-554.427	-4.513	-0.269	0.184
-553.412	21.280	-0.157	-0.126
-552.398	-163.327	-0.305	-0.014
-551.383	155.773	0.123	0.168
-550.369	-148.887	-0.084	-0.007
-549.354	21.315	-0.235	-0.189
-548.339	-200.000	0.015	0.099
-547.325	-54.271	-0.098	-0.044
-546.310	-200.000	-0.021	-0.133
-545.296	800.000	0.085	-0.255
-544.281	412.160	-0.132	0.278
-543.266	-200.000	0.037	0.179
-542.252	800.000	-0.085	0.263
-541.237	-149.279	0.401	-0.032
-540.223	-174.095	0.258	-0.007
-539.208	800.000	0.021	-0.067
-538.193	4.709	-0.034	-0.025
-537.179	-30.544	0.089	0.050
-536.164	-161.456	-0.060	0.003
-535.150	-129.800	0.324	-0.044
-534.135	-200.000	-0.045	-0.328
-533.121	-200.000	0.015	0.088
-532.106	15.484	-0.082	-0.064
-531.091	-200.000	0.002	0.015
-530.077	-82.747	0.261	0.084
-529.062	-187.377	0.293	0.004
-528.048	228.025	0.092	-0.149
-527.033	322.615	-0.121	-0.228
-526.018	-109.083	0.156	0.033
-525.004	-200.000	-0.006	-0.373
-523.989	10.805	-0.042	-0.032
-522.975	383.358	-0.047	0.096
-521.960	682.124	0.118	0.305
-520.945	-56.566	0.018	0.008
-519.931	89.327	0.148	-0.164
-518.916	63.049	-0.159	0.158
-517.902	-14.126	0.175	-0.112
-516.887	39.735	0.219	0.194
-515.872	306.313	0.064	0.119
-514.858	-6.756	-0.057	0.038
-513.843	-81.052	-0.160	0.052
-512.829	-29.768	0.208	0.118
-511.814	-14.922	-0.267	-0.170
-510.799	-70.817	-0.318	-0.119
-509.785	-9.189	-0.052	-0.034
-508.770	174.665	-0.145	-0.208
-507.756	-119.899	0.494	-0.084
-506.741	-153.228	-0.309	0.021
-505.726	92.849	-0.177	-0.198
-504.712	190.085	-0.196	-0.292
-503.697	-200.000	-0.041	-0.203
-502.683	-92.038	0.044	-0.012
-501.668	-200.000	0.064	0.298
-500.653	215.575	0.156	0.246
-499.639	800.000	-0.025	0.088
-498.624	-39.980	-0.096	-0.050
-497.610	-64.270	-0.242	-0.097
-496.595	800.000	0.026	0.088
-495.581	-47.182	-0.238	-0.115
-494.566	800.000	0.049	-0.187
-493.551	-26.948	-0.168	0.097
-492.537	371.215	0.178	0.357
-491.522	428.600	0.031	0.066
-490.508	325.914	0.137	-0.259
-489.493	24.405	0.228	-0.186
-488.478	-119.111	-0.387	-0.067
-487.464	-113.917	-0.136	-0.026
-486.449	530.306	0.061	0.143
-485.435	-191.726	-0.463	0.005
-484.420	-128.800	-0.261	-0.036
-483.405	111.689	-0.020	0.024
-482.391	325.494	0.200	-0.379
-481.376	-200.000	0.027	-0.200
-480.362	-167.348	-0.188	0.007
-479.347	163.751	0.186	-0.259
-478.332	-200.000	-0.038	-0.253
-477.318	-66.808	-0.416	-0.163
-476.303	-200.000	-0.026	-0.253
-475.289	-71.676	-0.094	-0.035
-474.274	289.369	0.061	-0.110
-473.259	800.000	-0.072	0.267
-472.245	-104.904	0.219	0.050
-471.230	239.001	0.188	0.308
-470.216	-200.000	-0.024	-0.378
-469.201	-162.993	0.169	0.008
-468.186	-43.037	0.131	-0.066
-467.172	-30.843	-0.244	-0.136
-466.157	800.000	-0.065	0.207
-465.143	-133.108	-0.260	-0.033
-464.128	800.000	0.042	0.150
-463.113	-50.094	-0.078	-0.037
-462.099	-8.260	0.322	0.214
-461.084	-142.213	0.070	0.007
-460.070	800.000	-0.059	-0.184
-459.055	48.815	0.109	0.102
-458.040	94.385	-0.378	-0.424
-457.026	12.373	0.239	-0.182
-456.011	-200.000	-0.017	-0.153
-454.997	-165.604	0.264	-0.011
-453.982	187.897	0.186	-0.275
-452.968	-200.000	0.036	-0.418
-451.953	-200.000	-0.049	0.384
-450.938	800.000	-0.016	0.052
-449.924	-25.138	-0.079	-0.046
-448.909	67.694	0.050	-0.050
-447.895	-139.811	-0.301	-0.032
-446.880	-125.491	-0.141	0.021
-445.865	-200.000	-0.042	0.216
-444.851	-49.770	-0.009	0.004
-443.836	-200.000	0.012	0.213
-442.822	282.890	-0.081	0.144
-441.807	-22.807	-0.170	-0.101
-440.792	22.584	0.158	-0.128
-439.778	800.000	-0.064	0.262
-438.763	-200.000	-0.026	0.179
-437.749	-200.000	0.017	-0.134
-436.734	-49.777	0.059	-0.028
-435.719	800.000	0.060	-0.240
-434.705	-8.625	-0.213	-0.141
-433.690	113.836	0.138	-0.165
-432.676	71.098	0.198	0.203
-431.661	-23.351	-0.263	0.156
-430.646	-64.964	0.107	0.043
-429.632	-39.357	0.288	-0.149
-428.617	-72.949	0.443	-0.161
-427.603	-200.000	-0.015	0.493
-426.588	-200.000	0.026	0.157
-425.573	-110.920	0.248	0.050
-424.559	-66.893	0.060	0.023
-423.544	53.899	-0.150	-0.143
-422.530	-30.572	0.236	0.132
-421.515	-0.522	0.208	-0.146
-420.500	-200.000	0.058	-0.406
-419.486	-42.008	-0.159	-0.080
-418.471	-200.000	-0.001	-0.157
-417.457	-19.060	-0.103	0.063
-416.442	-135.348	-0.275	-0.032
-415.428	38.753	0.059	0.052
-414.413	800.000	0.073	-0.236
-413.398	-200.000	0.038	-0.221
-412.384	237.655	0.161	0.264
-411.369	800.000	0.091	0.254
-410.355	-127.900	-0.524	0.074
-409.340	71.391	0.254	0.260
-408.325	-200.000	0.003	0.131
-407.311	-68.624	0.448	0.171
-406.296	673.389	-0.105	0.268
-405.282	-200.000	0.014	-0.230
-404.267	-29.147	0.297	-0.168
-403.252	-200.000	-0.009	0.133
-402.238	84.482	0.109	-0.118
-401.223	-200.000	-0.000	0.009
-400.209	-53.498	-0.215	-0.097
-399.194	-73.216	0.209	0.076
-398.179	53.891	0.348	0.330
-397.165	800.000	-0.063	0.244
-396.150	97.793	0.207	0.234
-395.136	-200.000	-0.061	-0.381
-394.121	-200.000	-0.002	0.245
-393.106	-104.718	0.269	-0.061
-392.092	120.123	0.162	-0.198
-391.077	-130.119	-0.191	-0.026
-390.063	-200.000	-0.020	0.192
-389.048	92.285	0.230	0.255
-388.033	800.000	-0.088	-0.332
-387.019	-8.083	0.209	-0.139
-386.004	29.089	0.266	0.222
-384.990	329.578	0.121	0.229
-383.975	187.300	0.138	0.203
-382.960	-43.538	0.183	-0.091
-381.946	73.674	-0.151	-0.156
-380.931	-132.173	-0.234	0.030
-379.917	-200.000	-0.016	0.268
-378.902	122.209	-0.307	-0.378
-377.888	126.066	-0.080	-0.100
-376.873	672.408	-0.081	-0.208
-375.858	59.848	0.091	-0.088
-374.844	800.000	0.040	-0.135
-373.829	93.524	0.248	-0.276
-372.815	485.680	-0.135	0.302
-371.800	-200.000	-0.021	-0.196
-370.785	-116.823	-0.236	-0.043
-369.771	800.000	0.056	-0.227
-368.756	800.000	0.047	0.160
-367.742	32.969	0.140	-0.119
-366.727	800.000	-0.046	-0.158
-365.712	-200.000	0.007	0.478
-364.698	-86.512	0.232	0.070
-363.683	-41.523	-0.074	-0.037
-362.669	21.573	0.260	-0.208
-361.654	-103.009	-0.234	0.055
-360.639	-200.000	0.020	0.215
-359.625	-67.358	0.118	-0.046
-358.610	-175.597	-0.130	0.003
-357.596	116.841	-0.107	0.130
-356.581	-76.716	0.313	-0.108
-355.566	-168.055	0.064	-0.002
-354.552	145.158	-0.320	-0.422
-353.537	229.190	-0.111	-0.178
-352.523	-58.735	0.057	-0.024
-351.508	-200.000	-0.017	-0.128
-350.493	58.466	0.449	0.434
-349.479	203.940	0.081	0.124
-348.464	-68.724	0.163	0.062
-347.450	75.143	0.084	-0.088
-346.435	2.553	0.101	0.072
-345.420	111.024	0.100	-0.118
-344.406	61.944	0.163	0.159
-343.391	-102.291	-0.138	-0.033
-342.377	-200.000	-0.005	0.266
-341.362	-176.339	-0.165	0.004
-340.348	-45.143	0.146	-0.071
-339.333	800.000	0.046	0.155
-338.318	-200.000	0.007	0.367
-337.304	-111.507	-0.340	-0.068
-336.289	468.603	0.046	0.100
-335.275	-60.547	0.062	0.026
-334.260	48.875	0.122	0.113
-333.245	345.729	0.073	0.141
-332.231	-185.246	-0.103	-0.002
-331.216	57.618	-0.164	0.158
-330.202	-53.234	0.327	0.147
-329.187	-46.269	0.208	0.101
-328.172	124.694	-0.083	-0.103
-327.158	-200.000	0.022	0.159
-326.143	-171.768	0.150	-0.005
-325.129	-69.666	0.081	0.031
-324.114	-99.099	-0.155	-0.039
-323.099	129.581	-0.137	-0.172
-322.085	170.616	0.169	0.237
-321.070	-200.000	-0.021	0.115
-320.056	-4.083	0.160	0.109
-319.041	800.000	0.015	-0.046
-318.026	-68.044	-0.250	0.096
-317.012	800.000	0.037	-0.149
-315.997	800.000	-0.030	0.085
-314.983	-154.890	0.065	-0.004
-313.968	-80.561	0.253	0.083
-312.953	225.605	-0.129	0.205
-311.939	-89.785	0.140	0.040
-310.924	250.069	-0.084	0.140
-309.910	-200.000	0.027	-0.228
-308.895	-200.000	0.023	-0.216
-307.880	-176.961	0.417	-0.010
-306.866	2.218	-0.212	-0.151
-305.851	106.631	0.068	0.079
-304.837	349.309	0.115	0.223
-303.822	485.894	0.093	0.208
-302.807	-200.000	0.028	0.222
-301.793	800.000	-0.094	0.365
-300.778	551.908	0.157	-0.371
-299.764	661.021	0.154	-0.390
-298.749	72.508	-0.135	-0.139
-297.735	-200.000	-0.005	0.027
-296.720	-51.526	0.347	0.159
-295.705	-163.492	0.447	-0.021
-294.691	800.000	0.011	0.037
-293.676	-200.000	0.003	-0.285
-292.662	-150.248	0.062	0.005
-291.647	89.229	-0.107	-0.117
-290.632	800.000	0.107	-0.343
-289.618	53.976	0.385	-0.363
-288.603	-200.000	-0.036	0.223
-287.589	-155.765	-0.263	0.017
-286.574	173.664	0.163	-0.232
-285.559	-175.889	0.257	0.007
-284.545	-200.000	-0.039	0.238
-283.530	-7.283	-0.223	0.149
-282.516	68.387	-0.205	0.206
-281.501	511.592	0.046	-0.106
-280.486	-146.742	0.246	0.021
-279.472	-141.883	0.194	-0.019
-278.457	60.940	0.134	-0.130
-277.443	77.473	0.107	-0.111
-276.428	-200.000	0.021	0.236
-275.413	-200.000	0.027	-0.134
-274.399	-200.000	-0.021	-0.176
-273.384	395.923	0.049	-0.101
-272.370	150.283	-0.030	-0.040
-271.355	174.641	-0.198	-0.281
-270.340	626.265	0.141	-0.350
-269.326	-200.000	0.008	0.194
-268.311	330.566	-0.068	0.128
-267.297	-167.656	0.033	-0.001
-266.282	-152.306	-0.192	-0.014
-265.267	288.012	0.168	-0.298
-264.253	-200.000	0.076	0.489
-263.238	30.914	-0.090	0.075
-262.224	-128.343	-0.241	0.034
-261.209	321.721	0.080	0.149
-260.195	16.307	0.418	0.323
-259.180	800.000	0.039	-0.107
-258.165	117.225	-0.181	0.219
-257.151	27.872	0.262	0.217
-256.136	191.206	0.157	-0.232
-255.122	-200.000	-0.002	0.291
-254.107	109.768	0.041	-0.048
-253.092	96.302	-0.248	-0.278
-252.078	-63.902	0.187	-0.075
-251.063	-37.034	0.434	0.228
-250.049	-200.000	-0.060	-0.285
-249.034	123.137	-0.325	-0.399
-248.019	-77.638	-0.196	-0.067
-247.005	-42.122	0.137	-0.069
-245.990	-200.000	-0.044	0.210
-244.976	-18.310	-0.068	0.041
-243.961	1.586	0.226	-0.159
-242.946	81.393	-0.132	-0.139
-241.932	800.000	-0.083	-0.273
-240.917	800.000	0.068	0.222
-239.903	-118.807	0.219	-0.038
-238.888	-200.000	0.010	0.141
-237.873	-98.598	-0.127	-0.032
-236.859	800.000	-0.085	-0.274
-235.844	102.422	0.125	-0.143
-234.830	12.657	-0.169	-0.128
-233.815	83.022	-0.194	-0.207
-232.800	86.077	-0.186	0.201
-231.786	-133.965	-0.345	-0.042
-230.771	-105.413	0.056	0.013
-229.757	44.092	-0.318	-0.286
-228.742	105.082	0.084	-0.097
-227.727	-139.305	-0.199	-0.021
-226.713	18.776	0.081	0.063
-225.698	-200.000	-0.039	-0.256
-224.684	81.374	-0.073	-0.077
-223.669	246.871	0.222	0.366
-222.655	-132.760	-0.144	0.018
-221.640	448.341	0.103	-0.222
-220.625	800.000	-0.146	0.440
-219.611	-127.906	-0.334	-0.047
-218.596	800.000	-0.096	-0.316
-217.582	800.000	0.075	0.235
-216.567	-169.479	-0.176	0.006
-215.552	43.242	0.269	-0.240
-214.538	-113.085	-0.430	-0.083
-213.523	-7.134	0.169	0.112
-212.509	-64.184	0.292	0.117
-211.494	-200.000	-0.007	0.046
-210.479	800.000	-0.081	0.346
-209.465	65.213	0.219	-0.217
-208.450	662.404	0.086	0.217
-207.436	-200.000	0.060	-0.279
-206.421	800.000	-0.053	0.216
-205.406	-200.000	-0.025	-0.114
-204.392	144.873	-0.301	-0.394
-203.377	800.000	-0.053	0.161
-202.363	-109.013	0.168	-0.035
-201.348	97.555	-0.103	-0.115
-200.333	23.097	0.078	0.062
-199.319	152.877	-0.024	-0.032
-198.304	-20.179	0.122	-0.074
-197.290	-90.010	-0.196	-0.056
-196.275	-74.483	-0.018	0.006
-195.260	-70.337	0.453	-0.168
-194.246	145.159	-0.106	0.139
-193.231	800.000	0.105	-0.316
-192.217	-200.000	0.009	0.255
-191.202	-200.000	0.046	0.274
-190.187	479.795	-0.111	-0.247
-189.173	-200.000	0.027	-0.132
-188.158	-175.096	-0.019	0.001
-187.144	38.403	-0.153	0.134
-186.129	54.558	0.114	0.108
-185.114	-112.416	-0.158	-0.031
-184.100	152.547	-0.075	0.100
-183.085	99.977	-0.164	-0.186
-182.071	-102.310	0.294	0.069
-181.056	-112.133	-0.086	-0.017
-180.042	288.216	-0.124	-0.219
-179.027	164.674	-0.193	-0.266
-178.012	4.715	-0.148	-0.106
-176.998	254.394	0.134	-0.224
-175.983	-200.000	-0.004	0.027
-174.969	-200.000	0.015	0.430
-173.954	519.582	-0.056	0.128
-172.939	-139.575	0.261	-0.027
-171.925	-53.683	-0.381	-0.170
-170.910	-87.208	0.326	0.097
-169.896	-30.777	-0.143	0.079
-168.881	760.500	0.040	0.105
-167.866	358.891	-0.014	-0.028
-166.852	-26.298	-0.181	0.104
-165.837	41.425	0.172	-0.152
-164.823	451.872	-0.139	0.301
-163.808	766.827	0.051	0.135
-162.793	-55.682	-0.247	0.108
-161.779	223.936	-0.075	-0.118
-160.764	522.734	-0.072	0.165
-159.750	515.894	-0.142	-0.325
-158.735	-89.051	-0.327	0.095
-157.720	-152.042	-0.249	-0.018
-156.706	-200.000	-0.025	-0.139
-155.691	76.883	-0.394	0.408
-154.677	14.537	0.114	0.087
-153.662	216.539	-0.149	0.231
-152.647	123.224	-0.081	0.099
-151.633	-4.227	-0.116	-0.078
-150.618	-62.579	0.407	0.165
-149.604	2.313	-0.196	0.138
-148.589	146.229	-0.028	0.036
-147.574	-26.399	0.061	0.035
-146.560	-200.000	-0.007	0.100
-145.545	-150.915	-0.234	0.017
-144.531	164.601	0.090	-0.124
-143.516	9.554	0.339	0.250
-142.502	701.913	0.091	0.235
-141.487	-200.000	-0.061	-0.433
-140.472	13.736	0.138	0.105
-139.458	-200.000	0.023	0.149
-138.443	185.592	-0.132	-0.192
-137.429	-2.445	0.110	-0.075
-136.414	-97.073	-0.031	0.008
-135.399	-9.264	0.226	0.147
-134.385	-26.516	0.099	0.057
-133.370	-42.488	-0.163	-0.081
-132.356	-31.715	-0.204	-0.112
-131.341	28.036	0.043	0.036
-130.326	-200.000	-0.070	0.613
-129.312	263.951	0.239	-0.405
-128.297	-200.000	-0.008	-0.215
-127.283	800.000	0.045	0.169
-126.268	-119.711	-0.237	0.040
-125.253	-140.000	0.264	0.027
-124.239	-46.825	-0.258	-0.123
-123.224	-200.000	-0.016	0.097
-122.210	7.151	0.073	0.053
