DTS Sentinel unit serial number:	SN413079Multiplexer serial number:	ORYXHardware model number:	OX4-SRSoftware version number:	ORYX F/W v4.00 Oryx Data Collector v3.7.2.0data status	okinstallation	princeton_trtdifferential loss correction	single-endedforward channel	channel 2reverse channel	N/Adate	2019/09/13time	09:55:35forward acquisition time	60.00reverse acquisition time	0.00gamma	496.2192k internal	0.2324k external	0.2324temperature offset calibration	1.0191default loss term (dB/km)	0.3790temperature slope calibration	1.0000multiplexer offset coefficient	1.0000multiplexer slope coefficient	1.0000fibre end	0.00T internal ref (°C)	30.06T ext. ref 1 (°C)	4.47T ext. ref 2 (°C)	27.05length (m)	temperature (°C)	Stokes	anti-Stokes-747.200	-93.963	-0.348	-0.096
-746.185	89.768	0.165	0.186
-745.171	-89.173	0.141	-0.042
-744.156	351.959	-0.157	-0.314
-743.142	-119.171	0.057	0.010
-742.127	-200.000	-0.003	-0.268
-741.112	-70.707	0.211	0.080
-740.098	-200.000	0.026	0.125
-739.083	-132.579	0.128	0.017
-738.069	69.015	0.057	0.060
-737.054	-79.725	-0.347	-0.118
-736.039	-159.939	-0.199	-0.011
-735.025	18.044	-0.167	0.134
-734.010	-97.016	-0.075	-0.020
-732.996	-88.774	-0.281	0.084
-731.981	800.000	0.109	-0.324
-730.966	-200.000	-0.006	-0.234
-729.952	-200.000	-0.030	-0.172
-728.937	62.318	-0.035	-0.035
-727.923	800.000	-0.019	-0.059
-726.908	800.000	-0.087	-0.256
-725.894	56.603	-0.058	0.057
-724.879	-110.498	0.301	0.063
-723.864	594.572	0.069	-0.171
-722.850	59.241	0.098	0.097
-721.835	800.000	-0.080	-0.262
-720.821	-74.079	0.060	0.022
-719.806	449.906	-0.158	-0.352
-718.791	82.320	-0.185	0.202
-717.777	-200.000	-0.013	0.177
-716.762	-164.269	-0.479	0.022
-715.748	-43.922	0.236	-0.120
-714.733	219.680	-0.102	0.165
-713.718	236.957	-0.087	-0.144
-712.704	93.039	0.087	0.099
-711.689	202.108	0.079	-0.122
-710.675	26.952	-0.315	-0.266
-709.660	-200.000	-0.026	-0.425
-708.645	-136.648	-0.171	-0.020
-707.631	228.366	-0.061	-0.100
-706.616	-146.519	-0.270	0.024
-705.602	-54.080	-0.090	-0.041
-704.587	-112.147	0.023	-0.005
-703.572	85.121	0.208	-0.230
-702.558	53.895	-0.193	-0.187
-701.543	27.249	-0.285	-0.241
-700.529	-200.000	0.052	-0.252
-699.514	113.059	0.107	0.131
-698.499	-57.885	-0.244	-0.107
-697.485	3.573	-0.060	-0.044
-696.470	-200.000	0.028	0.224
-695.456	-57.678	-0.122	0.054
-694.441	-92.466	0.563	-0.159
-693.426	-19.250	0.197	-0.123
-692.412	101.918	0.068	-0.079
-691.397	54.287	-0.167	-0.162
-690.383	800.000	0.074	0.260
-689.368	3.670	0.309	-0.227
-688.354	33.543	-0.235	0.205
-687.339	-200.000	-0.001	-0.167
-686.324	-200.000	0.016	0.085
-685.310	-29.398	-0.220	-0.127
-684.295	567.540	-0.098	-0.240
-683.281	-200.000	0.007	0.262
-682.266	209.907	-0.070	-0.110
-681.251	-38.572	0.123	0.066
-680.237	8.700	-0.140	0.106
-679.222	800.000	0.029	-0.120
-678.208	-72.232	-0.325	-0.121
-677.193	-162.067	-0.161	0.008
-676.178	-200.000	-0.010	0.118
-675.164	-166.955	0.191	0.008
-674.149	-200.000	-0.015	0.199
-673.135	27.013	0.084	0.071
-672.120	-28.402	-0.328	0.191
-671.105	34.514	0.071	0.062
-670.091	-200.000	0.003	-0.055
-669.076	-162.650	-0.339	-0.017
-668.062	47.215	0.207	-0.194
-667.047	193.741	-0.118	-0.180
-666.032	-149.180	-0.114	0.009
-665.018	336.301	-0.062	-0.121
-664.003	15.891	-0.244	-0.193
-662.989	-116.927	-0.352	-0.065
-661.974	-33.625	-0.184	-0.102
-660.959	-15.417	-0.333	0.214
-659.945	378.672	0.072	-0.148
-658.930	-37.359	0.233	0.125
-657.916	25.999	0.192	0.161
-656.901	132.065	-0.164	-0.212
-655.886	-26.717	0.233	0.137
-654.872	30.566	0.087	-0.074
-653.857	66.330	-0.056	0.057
-652.843	112.919	-0.127	-0.155
-651.828	-200.000	0.013	-0.087
-650.814	5.998	-0.123	0.091
-649.799	218.821	-0.100	-0.160
-648.784	-189.949	-0.145	-0.002
-647.770	-45.407	-0.374	-0.187
-646.755	-200.000	0.052	-0.253
-645.741	-200.000	-0.010	-0.101
-644.726	393.978	-0.108	-0.226
-643.711	-136.006	-0.263	-0.031
-642.697	-111.570	0.122	-0.025
-641.682	-200.000	0.048	-0.244
-640.668	439.488	0.133	-0.291
-639.653	-120.715	-0.377	-0.064
-638.638	-200.000	-0.003	-0.155
-637.624	417.396	-0.036	-0.078
-636.609	800.000	-0.022	0.085
-635.595	-19.754	-0.274	-0.170
-634.580	-145.847	0.163	-0.015
-633.565	800.000	0.014	-0.051
-632.551	23.351	0.092	0.076
-631.536	730.527	-0.057	-0.154
-630.522	64.862	0.201	-0.204
-629.507	-77.307	-0.322	0.113
-628.492	-2.700	0.398	-0.279
-627.478	-200.000	-0.052	-0.252
-626.463	-57.561	0.156	-0.069
-625.449	-91.004	0.326	0.094
-624.434	-129.603	0.145	0.020
-623.419	62.115	-0.089	0.089
-622.405	-200.000	0.009	0.338
-621.390	-200.000	0.013	-0.089
-620.376	43.662	-0.110	-0.101
-619.361	-84.010	-0.458	0.146
-618.346	-86.874	-0.147	-0.045
-617.332	800.000	0.082	0.319
-616.317	-200.000	0.042	0.228
-615.303	800.000	-0.100	-0.310
-614.288	-52.561	0.283	0.132
-613.273	-118.953	0.144	-0.025
-612.259	-17.571	0.104	-0.065
-611.244	-55.343	0.257	-0.116
-610.230	-14.122	0.055	-0.036
-609.215	-47.515	-0.226	-0.110
-608.201	-1.889	-0.189	0.134
-607.186	-200.000	-0.049	0.388
-606.171	50.674	-0.248	0.236
-605.157	52.198	-0.310	0.297
-604.142	613.736	-0.096	-0.241
-603.128	800.000	0.108	-0.389
-602.113	47.424	-0.343	-0.320
-601.098	800.000	-0.028	-0.082
-600.084	163.964	0.080	-0.113
-599.069	-200.000	0.052	0.332
-598.055	470.096	0.132	-0.298
-597.040	684.361	-0.070	-0.184
-596.025	-200.000	-0.005	0.044
-595.011	164.221	0.161	-0.227
-593.996	24.173	-0.231	-0.191
-592.982	-87.652	-0.391	-0.119
-591.967	128.527	0.127	-0.162
-590.952	1.869	-0.380	-0.275
-589.938	131.553	-0.131	-0.169
-588.923	-75.260	0.065	-0.023
-587.909	19.252	-0.455	-0.366
-586.894	-149.198	-0.231	0.018
-585.879	532.444	-0.057	0.135
-584.865	8.897	0.151	-0.114
-583.850	146.879	-0.178	0.240
-582.836	195.272	0.083	0.127
-581.821	-200.000	0.010	-0.168
-580.806	-166.355	0.439	0.018
-579.792	-101.084	-0.194	0.048
-578.777	-65.218	0.279	0.113
-577.763	-200.000	0.040	0.191
-576.748	152.618	0.128	-0.175
-575.733	148.008	-0.064	0.086
-574.719	67.536	-0.119	0.122
-573.704	-122.014	-0.248	-0.041
-572.690	-200.000	-0.048	-0.337
-571.675	-86.539	0.080	-0.024
-570.661	-200.000	0.018	-0.236
-569.646	-88.711	-0.237	-0.071
-568.631	-200.000	-0.002	-0.109
-567.617	155.554	-0.129	-0.179
-566.602	-200.000	0.029	-0.354
-565.588	-116.550	0.333	0.062
-564.573	-121.295	0.129	-0.022
-563.558	264.944	-0.169	0.295
-562.544	24.679	-0.236	0.196
-561.529	83.124	0.025	-0.027
-560.515	-200.000	0.026	0.133
-559.500	-87.058	0.147	0.045
-558.485	27.734	-0.104	0.088
-557.471	-36.012	0.118	0.064
-556.456	359.109	-0.027	0.055
-555.442	800.000	-0.058	0.223
-554.427	-90.975	0.291	-0.084
-553.412	-13.162	-0.125	0.081
-552.398	-145.793	-0.121	0.011
-551.383	-150.969	-0.137	0.010
-550.369	16.290	-0.016	-0.012
-549.354	-1.023	0.079	-0.056
-548.339	338.153	-0.030	0.059
-547.325	800.000	0.091	-0.255
-546.310	181.792	0.080	-0.117
-545.296	800.000	-0.099	0.301
-544.281	-154.281	-0.016	-0.001
-543.266	-136.476	-0.103	0.012
-542.252	-139.784	0.176	-0.019
-541.237	800.000	-0.142	-0.429
-540.223	-21.320	0.355	-0.217
-539.208	186.807	-0.096	-0.143
-538.193	135.466	0.144	0.188
-537.179	30.747	0.316	-0.271
-536.164	-200.000	-0.046	0.299
-535.150	275.109	-0.099	-0.176
-534.135	499.659	-0.038	-0.088
-533.121	800.000	-0.117	-0.406
-532.106	-85.467	-0.411	0.128
-531.091	22.186	0.161	-0.132
-530.077	-107.048	0.327	-0.072
-529.062	-41.891	-0.278	-0.143
-528.048	-2.009	0.200	-0.140
-527.033	-94.259	0.281	-0.077
-526.018	-83.837	0.076	0.024
-525.004	-42.573	0.233	-0.119
-523.989	170.443	0.125	-0.179
-522.975	-0.318	-0.398	-0.283
-521.960	-10.282	-0.105	0.070
-520.945	800.000	-0.071	0.199
-519.931	80.006	0.039	-0.042
-518.916	-93.752	-0.343	0.095
-517.902	-200.000	-0.026	-0.326
-516.887	4.389	0.265	0.194
-515.872	-85.511	0.252	0.079
-514.858	-22.020	-0.015	0.009
-513.843	-45.853	0.301	0.149
-512.829	-11.188	0.190	0.125
-511.814	-96.585	0.288	-0.076
-510.799	-115.192	0.075	0.014
-509.785	-47.717	-0.257	0.125
-508.770	-200.000	-0.047	-0.286
-507.756	0.929	0.139	-0.100
-506.741	-107.695	0.122	0.027
-505.726	370.858	-0.197	0.399
-504.712	-137.828	-0.572	0.064
-503.697	154.350	0.078	0.107
-502.683	-155.839	-0.244	0.016
-501.668	43.296	-0.293	0.268
-500.653	66.881	-0.154	0.157
-499.639	-96.938	0.127	-0.033
-498.624	-200.000	-0.044	-0.205
-497.610	-138.204	-0.114	-0.013
-496.595	-29.263	-0.140	0.080
-495.581	-200.000	-0.057	-0.489
-494.566	-200.000	-0.031	-0.244
-493.551	90.347	-0.026	-0.029
-492.537	-15.358	0.150	-0.096
-491.522	693.538	-0.035	-0.091
-490.508	449.285	0.132	-0.291
-489.493	-57.160	-0.351	-0.154
-488.478	-115.799	0.040	-0.007
-487.464	-127.114	-0.103	-0.015
-486.449	-200.000	0.026	0.298
-485.435	-48.178	-0.097	0.047
-484.420	451.264	0.079	-0.174
-483.405	-80.085	0.177	0.059
-482.391	79.083	-0.091	-0.097
-481.376	3.106	0.081	-0.059
-480.362	-96.552	0.200	0.053
-479.347	-200.000	-0.057	0.375
-478.332	-77.591	0.317	-0.110
-477.318	152.373	-0.058	-0.079
-476.303	-182.128	-0.206	-0.004
-475.289	164.322	-0.055	-0.077
-474.274	58.427	0.218	0.213
-473.259	800.000	-0.075	-0.207
-472.245	678.499	-0.018	0.048
-471.230	21.127	-0.220	0.179
-470.216	176.064	0.203	0.295
-469.201	684.493	-0.054	0.141
-468.186	-99.490	-0.026	-0.007
-467.172	-200.000	-0.025	0.451
-466.157	-44.680	0.286	0.143
-465.143	-200.000	0.013	0.233
-464.128	-33.031	0.087	-0.048
-463.113	255.969	0.115	-0.196
-462.099	-200.000	-0.013	0.093
-461.084	-84.452	0.125	-0.039
-460.070	-200.000	0.031	0.394
-459.055	-200.000	-0.010	-0.070
-458.040	-118.942	0.500	-0.088
-457.026	-12.729	0.176	0.114
-456.011	-103.443	-0.333	0.078
-454.997	50.241	-0.261	0.246
-453.982	-200.000	0.021	0.097
-452.968	-174.306	-0.214	0.006
-451.953	169.661	-0.087	-0.124
-450.938	-19.404	0.272	-0.168
-449.924	531.860	-0.086	0.202
-448.909	-146.177	-0.037	0.003
-447.895	18.907	0.261	0.209
-446.880	-96.011	-0.341	-0.091
-445.865	-88.004	0.193	-0.058
-444.851	132.472	-0.131	-0.169
-443.836	-47.271	0.129	0.063
-442.822	-200.000	0.002	0.067
-441.807	98.636	-0.129	0.148
-440.792	-96.612	0.140	0.037
-439.778	-94.799	-0.220	-0.060
-438.763	-125.868	-0.287	-0.043
-437.749	-4.368	-0.072	-0.050
-436.734	-106.659	-0.122	-0.027
-435.719	-72.187	0.348	0.129
-434.705	800.000	-0.214	0.619
-433.690	131.158	0.351	-0.449
-432.676	3.625	0.018	0.013
-431.661	-76.092	-0.117	0.041
-430.646	-32.266	-0.102	0.057
-429.632	-130.601	0.308	-0.041
-428.617	209.323	0.099	0.154
-427.603	-15.904	0.206	-0.131
-426.588	-52.975	-0.052	-0.024
-425.573	-200.000	0.048	-0.223
-424.559	-115.319	-0.190	0.036
-423.544	-165.209	0.087	0.004
-422.530	-72.577	0.311	-0.114
-421.515	800.000	-0.014	0.058
-420.500	-200.000	-0.021	-0.105
-419.486	33.060	-0.161	0.139
-418.471	372.047	-0.063	-0.128
-417.457	75.375	-0.253	0.266
-416.442	372.128	0.136	-0.274
-415.428	-200.000	0.016	0.077
-414.413	-86.287	-0.156	-0.048
-413.398	-91.332	-0.174	-0.050
-412.384	251.044	-0.154	0.261
-411.369	65.047	0.009	-0.009
-410.355	-82.395	0.166	0.054
-409.340	-7.529	-0.137	0.092
-408.325	210.838	0.116	0.181
-407.311	131.394	0.309	0.396
-406.296	-52.117	-0.134	0.062
-405.282	-200.000	0.011	0.185
-404.267	800.000	-0.123	0.340
-403.252	-67.578	0.132	0.051
-402.238	627.662	0.037	0.092
-401.223	-200.000	-0.012	-0.155
-400.209	50.625	0.094	0.089
-399.194	123.807	0.148	-0.185
-398.179	-200.000	0.031	0.167
-397.165	-103.763	-0.404	0.094
-396.150	23.719	-0.257	0.211
-395.136	-127.216	-0.066	0.010
-394.121	167.127	0.037	-0.053
-393.106	99.905	-0.257	-0.296
-392.092	54.434	0.026	-0.025
-391.077	64.964	0.178	0.179
-390.063	-184.639	-0.164	0.003
-389.048	800.000	-0.001	-0.003
-388.033	144.460	0.038	0.051
-387.019	800.000	-0.064	0.199
-386.004	-188.131	0.201	-0.003
-384.990	65.200	-0.286	0.287
-383.975	-141.777	0.054	-0.005
-382.960	-117.113	-0.057	-0.010
-381.946	-13.870	0.437	0.281
-380.931	-18.459	-0.147	0.091
-379.917	-121.649	0.200	0.033
-378.902	81.474	-0.042	-0.046
-377.888	2.160	-0.197	-0.142
-376.873	-200.000	-0.015	-0.313
-375.858	-65.939	0.360	0.143
-374.844	-200.000	-0.006	0.085
-373.829	800.000	-0.142	-0.526
-372.815	-34.178	0.269	0.147
-371.800	196.519	0.114	-0.173
-370.785	-149.954	-0.294	-0.023
-369.771	800.000	0.032	0.104
-368.756	-147.874	0.150	-0.012
-367.742	-200.000	-0.017	-0.261
-366.727	-200.000	0.022	0.184
-365.712	-153.457	0.195	0.013
-364.698	-18.327	-0.189	0.118
-363.683	800.000	0.059	0.170
-362.669	303.299	-0.227	-0.418
-361.654	-200.000	0.031	-0.153
-360.639	-110.028	0.058	-0.012
-359.625	800.000	0.119	-0.333
-358.610	-74.574	0.452	-0.162
-357.596	-148.625	-0.098	-0.008
-356.581	800.000	0.093	0.379
-355.566	153.575	-0.162	-0.220
-354.552	-148.828	-0.197	-0.016
-353.537	-200.000	0.066	-0.420
-352.523	-142.274	0.035	0.003
-351.508	-149.080	0.214	-0.017
-350.493	-157.994	-0.322	0.019
-349.479	-93.436	0.252	-0.069
-348.464	121.010	0.092	0.113
-347.450	-200.000	0.044	-0.245
-346.435	36.760	0.108	-0.095
-345.420	32.083	-0.044	-0.038
-344.406	800.000	-0.040	0.160
-343.391	-76.314	-0.198	0.069
-342.377	308.398	0.253	-0.470
-341.362	324.177	-0.086	0.162
-340.348	-200.000	-0.012	0.128
-339.333	147.328	-0.070	0.094
-338.318	-60.534	-0.171	0.072
-337.304	82.905	0.143	0.155
-336.289	-53.597	-0.094	0.043
-335.275	-152.782	-0.396	-0.028
-334.260	45.120	0.054	-0.049
-333.245	-200.000	0.474	0.002
-332.231	298.554	-0.062	-0.114
-331.216	-132.817	0.198	-0.025
-330.202	480.965	-0.053	0.119
-329.187	800.000	0.093	-0.322
-328.172	-130.002	-0.109	-0.015
-327.158	108.666	0.175	0.207
-326.143	-129.966	-0.416	-0.057
-325.129	-22.202	-0.245	-0.148
-324.114	-41.720	0.200	0.102
-323.099	-47.711	0.216	0.104
-322.085	78.288	0.018	0.019
-321.070	-18.407	0.320	0.199
-320.056	35.630	0.052	-0.045
-319.041	-84.038	0.227	0.071
-318.026	422.855	0.077	-0.165
-317.012	218.688	0.145	-0.230
-315.997	-5.116	0.227	0.155
-314.983	-65.642	-0.028	-0.011
-313.968	-200.000	-0.019	-0.289
-312.953	187.428	-0.051	-0.075
-311.939	-3.243	0.122	-0.085
-310.924	-122.856	-0.053	0.009
-309.910	800.000	-0.074	0.256
-308.895	-76.984	0.210	0.073
-307.880	-12.233	0.271	0.176
-306.866	800.000	-0.119	-0.462
-305.851	-200.000	0.004	-0.139
-304.837	-41.381	-0.128	-0.066
-303.822	119.817	-0.114	0.140
-302.807	-109.571	0.240	-0.050
-301.793	-95.545	-0.274	0.073
-300.778	45.247	-0.240	-0.220
-299.764	-99.616	-0.057	0.014
-298.749	-18.819	-0.038	0.024
-297.735	42.726	-0.243	-0.219
-296.720	-90.795	-0.190	0.054
-295.705	-102.204	0.284	-0.068
-294.691	29.046	-0.074	-0.062
-293.676	39.158	0.288	-0.256
-292.662	673.806	-0.158	0.407
-291.647	47.568	0.114	0.105
-290.632	27.907	0.164	0.137
-289.618	76.975	0.158	0.166
-288.603	-24.083	0.171	0.101
-287.589	-152.845	-0.141	0.010
-286.574	-200.000	0.016	-0.082
-285.559	-150.425	0.126	0.010
-284.545	260.272	0.137	0.235
-283.530	75.960	-0.082	0.086
-282.516	-200.000	-0.018	0.141
-281.501	77.407	0.042	0.044
-280.486	463.953	0.087	-0.192
-279.472	-200.000	-0.072	0.339
-278.457	800.000	-0.079	0.283
-277.443	-200.000	0.002	-0.169
-276.428	-200.000	0.017	-0.173
-275.413	-76.695	-0.119	0.041
-274.399	-139.041	0.404	0.043
-273.384	228.532	0.153	0.246
-272.370	135.078	-0.068	0.088
-271.355	-41.346	0.230	0.117
-270.340	211.493	0.111	-0.172
-269.326	293.702	-0.097	0.175
-268.311	-72.015	-0.054	-0.020
-267.297	-200.000	0.000	0.100
-266.282	-127.830	0.099	-0.014
-265.267	-200.000	-0.057	-0.265
-264.253	-175.082	0.295	0.008
-263.238	-125.541	0.179	-0.027
-262.224	22.375	-0.214	-0.174
-261.209	163.133	-0.046	-0.064
-260.195	-18.430	0.247	-0.152
-259.180	-196.904	-0.345	-0.002
-258.165	-115.012	0.075	0.014
-257.151	-105.549	-0.173	-0.039
-256.136	-69.914	0.159	-0.060
-255.122	221.917	0.078	-0.124
-254.107	204.326	-0.104	0.160
-253.092	44.421	-0.161	0.146
-252.078	-15.424	-0.407	-0.257
-251.063	-11.424	0.122	0.079
-250.049	-147.176	0.255	-0.022
-249.034	436.163	0.055	-0.119
-248.019	-22.968	-0.187	0.111
-247.005	-200.000	-0.030	-0.407
-245.990	660.726	0.037	0.094
-244.976	244.480	-0.099	0.164
-243.961	339.112	0.086	-0.165
-242.946	-53.150	-0.144	-0.065
-241.932	-200.000	-0.012	0.179
-240.917	-103.796	-0.191	-0.044
-239.903	-173.236	0.200	0.006
-238.888	-92.233	-0.010	0.003
-237.873	-129.273	-0.144	0.020
-236.859	800.000	-0.053	-0.184
-235.844	-200.000	0.021	0.409
-234.830	-200.000	0.014	0.129
-233.815	429.478	-0.130	0.279
-232.800	-21.890	-0.151	0.091
-231.786	-71.693	-0.209	0.077
-230.771	800.000	-0.099	-0.280
-229.757	-200.000	0.018	0.150
-228.742	800.000	0.102	0.311
-227.727	42.445	0.097	0.087
-226.713	-200.000	-0.010	0.132
-225.698	172.111	0.081	-0.115
-224.684	800.000	-0.021	-0.063
-223.669	98.547	-0.065	0.074
-222.655	-109.336	-0.074	-0.016
-221.640	-200.000	-0.123	-0.000
-220.625	-135.411	0.333	-0.039
-219.611	125.758	-0.067	0.084
-218.596	-72.413	0.037	-0.014
-217.582	-200.000	-0.001	0.161
-216.567	152.219	0.095	-0.129
-215.552	-37.924	-0.478	0.251
-214.538	-200.000	0.024	-0.191
-213.523	134.635	0.257	-0.330
-212.509	-99.293	-0.109	0.027
-211.494	462.490	0.168	-0.370
-210.479	447.187	0.028	0.060
-209.465	-28.591	-0.114	0.065
-208.450	34.563	0.099	-0.086
-207.436	-76.751	-0.194	-0.067
-206.421	2.807	-0.220	0.158
-205.406	619.673	-0.154	0.383
-204.392	507.888	0.210	0.481
-203.377	-22.227	-0.087	0.052
-202.363	396.518	-0.045	0.093
-201.348	-97.980	-0.266	0.068
-200.333	203.209	-0.100	-0.152
-199.319	74.931	-0.194	0.202
-198.304	157.112	0.071	-0.098
-197.290	56.505	0.101	0.097
-196.275	168.537	0.298	-0.419
-195.260	437.381	-0.033	0.072
-194.246	658.758	0.030	0.076
-193.231	800.000	-0.019	0.067
-192.217	-41.147	-0.164	0.083
-191.202	70.007	0.053	-0.054
-190.187	274.556	0.197	0.345
-189.173	-82.895	0.124	-0.040
-188.158	73.280	-0.187	0.193
-187.144	450.154	0.106	0.231
-186.129	-86.952	0.190	0.057
-185.114	15.932	0.243	0.189
-184.100	-200.000	-0.252	-0.000
-183.085	432.098	-0.078	0.166
-182.071	-112.422	0.258	0.051
-181.056	70.972	0.281	0.287
-180.042	229.194	-0.064	-0.104
-179.027	-200.000	0.021	-0.249
-178.012	3.480	-0.134	-0.097
-176.998	274.501	-0.161	0.282
-175.983	-200.000	0.022	0.107
-174.969	-26.137	-0.198	-0.115
-173.954	-87.079	0.410	-0.123
-172.939	702.351	-0.122	-0.318
-171.925	80.616	0.164	-0.175
-170.910	-171.791	0.162	-0.005
-169.896	86.423	0.237	0.258
-168.881	113.095	0.204	-0.245
-167.866	-200.000	0.040	0.177
-166.852	-4.071	0.136	-0.093
-165.837	800.000	-0.091	-0.269
-164.823	800.000	0.089	0.313
-163.808	-48.106	-0.042	-0.020
-162.793	-48.039	0.202	0.096
-161.779	800.000	-0.094	0.351
-160.764	-122.609	0.391	0.063
-159.750	-65.570	-0.228	0.090
-158.735	-200.000	-0.041	-0.235
-157.720	-11.261	0.271	0.176
-156.706	-85.730	0.140	0.043
-155.691	-126.833	-0.165	0.024
-154.677	-77.648	-0.217	0.074
-153.662	800.000	0.043	0.177
-152.647	-95.018	-0.406	-0.108
-151.633	800.000	-0.094	0.291
-150.618	-200.000	0.083	0.448
-149.604	413.876	0.153	-0.322
-148.589	-145.531	0.191	0.017
-147.574	-200.000	0.033	-0.484
-146.560	-38.944	-0.169	0.088
-145.545	800.000	0.075	0.299
-144.531	115.257	0.085	0.103
-143.516	-16.980	0.188	0.117
-142.502	60.990	-0.095	0.093
-141.487	-200.000	0.031	-0.266
-140.472	800.000	-0.045	0.137
-139.458	-200.000	0.012	-0.096
-138.443	-200.000	0.033	-0.323
-137.429	40.921	-0.043	-0.039
-136.414	-200.000	-0.002	-0.173
-135.399	-200.000	0.002	0.199
-134.385	47.759	0.075	0.069
-133.370	278.210	-0.019	-0.034
-132.356	-43.280	0.153	0.076
-131.341	-57.097	-0.118	0.051
-130.326	557.106	0.084	0.199
-129.312	-191.597	0.227	-0.002
-128.297	48.846	-0.267	0.247
-127.283	800.000	0.099	0.284
-126.268	-117.670	-0.201	0.036
-125.253	-200.000	0.016	0.155
-124.239	-52.979	0.160	0.072
-123.224	-200.000	-0.074	-0.360
-122.210	115.334	-0.125	-0.151
-121.195	26.295	-0.213	-0.175
