DTS Sentinel unit serial number:	SN413079Multiplexer serial number:	ORYXHardware model number:	OX4-SRSoftware version number:	ORYX F/W v4.00 Oryx Data Collector v3.7.2.0data status	okinstallation	princeton_trtdifferential loss correction	single-endedforward channel	channel 2reverse channel	N/Adate	2019/09/12time	07:21:11forward acquisition time	60.00reverse acquisition time	0.00gamma	496.2192k internal	0.2324k external	0.2324temperature offset calibration	1.0059default loss term (dB/km)	0.3790temperature slope calibration	1.0000multiplexer offset coefficient	1.0000multiplexer slope coefficient	1.0000fibre end	0.00T internal ref (°C)	32.31T ext. ref 1 (°C)	1.60T ext. ref 2 (°C)	28.66length (m)	temperature (°C)	Stokes	anti-Stokes-747.200	-30.639	-0.153	-0.087
-746.185	26.014	-0.141	-0.119
-745.171	47.050	-0.165	-0.155
-744.156	-122.748	-0.082	0.013
-743.142	3.686	0.283	0.208
-742.127	59.050	-0.197	0.196
-741.112	40.406	-0.128	-0.116
-740.098	269.384	-0.107	0.190
-739.083	-200.000	-0.015	0.396
-738.069	-200.000	0.017	0.423
-737.054	-200.000	-0.129	0.641
-736.039	-200.000	0.018	-0.221
-735.025	271.126	-0.044	-0.078
-734.010	-92.004	0.161	-0.046
-732.996	-200.000	-0.001	0.237
-731.981	800.000	-0.023	0.074
-730.966	-58.222	0.099	-0.044
-729.952	-50.265	-0.236	0.113
-728.937	-45.201	0.106	-0.053
-727.923	16.790	-0.352	-0.281
-726.908	-36.747	-0.161	0.087
-725.894	204.095	-0.100	0.156
-724.879	-19.632	-0.239	0.149
-723.864	25.950	0.163	0.137
-722.850	800.000	-0.032	-0.105
-721.835	-115.524	-0.039	0.007
-720.821	43.576	-0.174	0.160
-719.806	-92.601	0.172	0.049
-718.791	-200.000	-0.012	-0.144
-717.777	560.616	-0.160	-0.389
-716.762	-2.598	-0.064	-0.045
-715.748	800.000	0.048	0.158
-714.733	5.181	-0.207	0.153
-713.718	-37.628	-0.188	-0.101
-712.704	-98.074	-0.512	-0.133
-711.689	-55.800	-0.175	0.079
-710.675	-200.000	0.017	0.148
-709.660	705.138	-0.051	-0.136
-708.645	-147.275	0.138	0.012
-707.631	193.756	0.100	0.153
-706.616	42.044	0.180	-0.165
-705.602	-200.000	0.003	-0.067
-704.587	110.902	0.259	0.314
-703.572	-197.237	-0.316	-0.002
-702.558	-20.034	-0.225	-0.140
-701.543	-31.425	0.077	-0.044
-700.529	-9.722	-0.128	0.086
-699.514	-13.960	-0.043	0.028
-698.499	-140.420	-0.052	-0.006
-697.485	84.990	0.154	0.170
-696.470	-54.483	-0.498	0.227
-695.456	-27.275	0.209	-0.123
-694.441	-124.381	0.378	0.059
-693.426	-84.663	0.074	-0.023
-692.412	-38.984	-0.178	0.094
-691.397	-41.047	-0.014	-0.008
-690.383	-78.969	0.141	0.048
-689.368	9.913	-0.412	0.315
-688.354	190.557	-0.251	-0.380
-687.339	3.179	0.328	-0.240
-686.324	800.000	0.060	-0.170
-685.310	84.865	0.063	-0.069
-684.295	27.435	-0.311	0.263
-683.281	-29.413	-0.225	0.130
-682.266	-1.516	-0.257	-0.182
-681.251	-71.924	0.113	0.042
-680.237	569.160	0.064	-0.157
-679.222	-26.621	-0.045	-0.026
-678.208	-98.453	0.247	-0.064
-677.193	202.158	-0.102	-0.158
-676.178	-200.000	0.010	0.266
-675.164	-200.000	-0.015	0.078
-674.149	800.000	-0.117	0.360
-673.135	-86.033	-0.363	0.113
-672.120	688.501	-0.104	0.275
-671.105	-76.236	-0.214	-0.076
-670.091	343.026	-0.122	0.241
-669.076	-83.187	0.187	0.061
-668.062	-127.585	-0.260	0.038
-667.047	133.997	-0.081	0.105
-666.032	86.304	-0.166	0.184
-665.018	-145.387	0.111	-0.010
-664.003	-200.000	-0.040	-0.249
-662.989	-176.237	-0.244	0.006
-661.974	-103.919	-0.205	-0.048
-660.959	9.306	0.178	0.136
-659.945	636.340	0.150	0.384
-658.930	166.978	0.269	-0.383
-657.916	800.000	-0.103	-0.334
-656.901	-50.035	0.046	-0.022
-655.886	26.734	0.050	-0.042
-654.872	141.167	-0.067	-0.090
-653.857	-116.449	0.275	-0.051
-652.843	-89.897	-0.234	0.069
-651.828	170.670	0.068	0.099
-650.814	-200.000	-0.001	0.068
-649.799	227.888	0.051	-0.083
-648.784	135.850	-0.103	-0.134
-647.770	-96.094	0.165	-0.044
-646.755	-200.000	-0.028	-0.317
-645.741	-63.433	0.291	-0.120
-644.726	-90.500	0.262	-0.076
-643.711	-106.909	-0.078	0.017
-642.697	800.000	-0.057	-0.191
-641.682	19.830	0.240	-0.194
-640.668	-200.000	-0.031	-0.287
-639.653	-113.933	-0.396	-0.077
-638.638	12.620	0.106	-0.082
-637.624	-76.159	-0.326	0.116
-636.609	283.347	-0.171	0.308
-635.595	-31.525	-0.061	-0.035
-634.580	403.820	0.067	0.143
-633.565	94.765	0.087	-0.099
-632.551	-120.760	-0.174	-0.030
-631.536	-200.000	-0.070	0.414
-630.522	-134.487	-0.335	-0.041
-629.507	22.866	-0.206	0.170
-628.492	-143.905	0.349	-0.033
-627.478	269.317	-0.089	-0.157
-626.463	239.415	0.089	-0.148
-625.449	800.000	-0.097	0.286
-624.434	2.150	0.131	0.095
-623.419	98.794	0.159	-0.185
-622.405	97.071	-0.164	0.189
-621.390	-86.089	0.237	0.074
-620.376	-71.106	0.141	-0.053
-619.361	800.000	-0.033	-0.121
-618.346	42.726	-0.177	-0.162
-617.332	11.142	-0.226	-0.174
-616.317	-33.019	0.249	-0.139
-615.303	-7.314	-0.152	-0.104
-614.288	330.053	0.111	-0.214
-613.273	-200.000	-0.043	-0.295
-612.259	-95.485	0.144	0.039
-611.244	-36.314	-0.210	-0.114
-610.230	-200.000	0.014	-0.093
-609.215	154.525	0.054	-0.074
-608.201	-105.749	-0.189	0.043
-607.186	800.000	-0.017	0.070
-606.171	196.718	-0.175	0.267
-605.157	237.779	0.158	0.263
-604.142	704.900	-0.043	0.115
-603.128	-56.749	-0.136	-0.060
-602.113	800.000	-0.102	0.375
-601.098	293.167	-0.194	-0.355
-600.084	-13.373	0.130	-0.085
-599.069	-33.777	0.290	-0.160
-598.055	-200.000	-0.262	0.001
-597.040	800.000	0.042	-0.117
-596.025	-76.975	-0.263	0.092
-595.011	87.305	0.154	-0.171
-593.996	800.000	0.063	0.247
-592.982	252.196	-0.070	0.119
-591.967	149.299	-0.232	-0.315
-590.952	-15.255	0.204	-0.131
-589.938	279.028	-0.052	0.093
-588.923	-200.000	-0.037	-0.172
-587.909	235.835	-0.047	-0.078
-586.894	-171.872	-0.087	-0.003
-585.879	-127.810	-0.026	-0.004
-584.865	-30.329	-0.126	0.072
-583.850	9.929	-0.255	-0.194
-582.836	800.000	0.033	0.100
-581.821	-166.892	-0.278	0.011
-580.806	-136.130	-0.263	0.031
-579.792	-111.514	0.095	0.019
-578.777	-200.000	0.060	-0.339
-577.763	-110.607	0.282	0.059
-576.748	-133.294	-0.629	-0.080
-575.733	34.988	-0.232	0.204
-574.719	-200.000	0.061	0.289
-573.704	238.395	-0.091	0.151
-572.690	128.279	0.040	-0.051
-571.675	145.783	-0.058	0.078
-570.661	800.000	0.091	0.322
-569.646	-58.664	0.324	0.141
-568.631	778.483	-0.064	0.176
-567.617	-68.081	-0.215	0.084
-566.602	-200.000	-0.026	-0.147
-565.588	533.137	0.061	-0.144
-564.573	54.223	0.087	0.084
-563.558	112.850	0.166	-0.202
-562.544	-65.018	-0.287	0.116
-561.529	-56.081	-0.359	0.160
-560.515	62.027	-0.191	0.191
-559.500	4.468	0.182	0.134
-558.485	79.191	0.104	-0.111
-557.471	-89.102	-0.102	0.030
-556.456	-200.000	-0.010	0.229
-555.442	-53.885	0.120	0.055
-554.427	-200.000	-0.027	-0.154
-553.412	59.087	0.139	-0.137
-552.398	-88.092	0.033	0.010
-551.383	-144.336	-0.183	0.017
-550.369	-159.647	0.227	0.013
-549.354	-200.000	0.000	-0.035
-548.339	-83.969	0.286	-0.091
-547.325	75.241	-0.145	-0.153
-546.310	-200.000	0.000	-0.104
-545.296	-66.856	-0.154	-0.061
-544.281	-200.000	0.047	-0.522
-543.266	455.334	-0.076	0.169
-542.252	-80.872	-0.104	0.035
-541.237	-45.791	-0.168	0.083
-540.223	-21.842	0.204	-0.124
-539.208	-160.164	0.203	0.011
-538.193	-29.295	0.185	-0.106
-537.179	193.476	-0.246	-0.373
-536.164	-58.166	0.296	0.129
-535.150	-200.000	0.049	0.295
-534.135	217.017	-0.033	-0.053
-533.121	430.168	-0.214	0.464
-532.106	38.554	-0.114	-0.102
-531.091	110.685	-0.150	0.181
-530.077	175.466	0.023	-0.033
-529.062	530.823	-0.216	-0.510
-528.048	554.150	0.091	-0.218
-527.033	40.710	-0.243	-0.219
-526.018	800.000	0.017	-0.052
-525.004	18.775	0.061	0.049
-523.989	-39.640	-0.232	-0.122
-522.975	-33.868	-0.284	-0.157
-521.960	-200.000	-0.043	0.224
-520.945	-200.000	-0.003	0.050
-519.931	-42.044	-0.188	0.096
-518.916	800.000	-0.069	0.251
-517.902	435.606	0.054	0.119
-516.887	-200.000	-0.111	-0.504
-515.872	-200.000	0.018	0.193
-514.858	800.000	-0.082	0.255
-513.843	-200.000	-0.010	0.368
-512.829	-200.000	0.007	-0.121
-511.814	224.855	-0.006	-0.010
-510.799	-200.000	0.009	0.133
-509.785	16.862	-0.090	0.072
-508.770	-21.062	-0.215	0.132
-507.756	-29.038	-0.146	0.084
-506.741	-71.412	0.142	0.053
-505.726	-200.000	-0.066	-0.393
-504.712	-8.772	-0.077	0.051
-503.697	-53.253	0.297	0.136
-502.683	-148.668	-0.111	-0.009
-501.668	279.172	-0.225	0.401
-500.653	-200.000	-0.349	0.001
-499.639	770.654	-0.039	0.107
-498.624	-76.660	0.312	0.109
-497.610	-125.168	-0.410	-0.063
-496.595	56.760	0.096	-0.093
-495.581	526.234	0.057	0.134
-494.566	-61.239	-0.092	0.039
-493.551	-177.922	-0.111	0.003
-492.537	20.936	-0.209	-0.170
-491.522	-200.000	0.119	-0.674
-490.508	51.295	0.146	-0.138
-489.493	80.903	-0.112	0.121
-488.478	-78.087	-0.320	-0.110
-487.464	85.890	0.125	-0.137
-486.449	-25.617	-0.166	0.098
-485.435	21.236	-0.203	0.165
-484.420	-100.859	-0.280	-0.069
-483.405	-138.506	0.206	0.023
-482.391	-125.874	0.224	-0.034
-481.376	-77.472	0.207	0.072
-480.362	487.827	-0.216	-0.492
-479.347	-159.331	-0.275	0.015
-478.332	129.208	0.241	0.307
-477.318	-7.447	0.085	-0.057
-476.303	800.000	-0.092	-0.280
-475.289	372.087	-0.054	0.110
-474.274	-43.107	0.289	-0.146
-473.259	124.651	0.054	-0.068
-472.245	800.000	0.129	0.365
-471.230	800.000	0.066	0.280
-470.216	428.390	0.079	-0.171
-469.201	-22.447	0.279	0.168
-468.186	80.676	0.114	-0.123
-467.172	-200.000	-0.000	0.084
-466.157	151.949	0.058	0.079
-465.143	-200.000	-0.010	0.110
-464.128	371.256	0.150	-0.304
-463.113	-105.179	-0.193	0.044
-462.099	-104.401	0.262	-0.061
-461.084	25.358	-0.089	0.074
-460.070	800.000	-0.084	0.310
-459.055	274.453	0.058	-0.103
-458.040	-200.000	0.017	-0.395
-457.026	-111.869	-0.271	0.055
-456.011	-200.000	0.003	0.160
-454.997	-187.315	0.375	-0.005
-453.982	-123.461	0.290	-0.046
-452.968	800.000	0.028	0.113
-451.953	-55.478	0.126	0.056
-450.938	459.357	0.061	-0.135
-449.924	-200.000	-0.050	0.223
-448.909	-2.588	0.194	0.136
-447.895	-200.000	-0.034	0.253
-446.880	-79.507	0.104	-0.035
-445.865	-200.000	0.010	-0.299
-444.851	800.000	-0.057	-0.169
-443.836	-103.823	-0.171	-0.040
-442.822	182.077	0.138	-0.202
-441.807	-106.259	-0.251	-0.056
-440.792	800.000	-0.026	0.079
-439.778	145.132	-0.191	0.255
-438.763	-102.759	0.302	0.072
-437.749	-91.795	0.257	-0.073
-436.734	-0.025	-0.269	0.191
-435.719	-200.000	-0.035	0.186
-434.705	-200.000	-0.008	-0.054
-433.690	-131.096	0.179	0.024
-432.676	-200.000	-0.011	0.050
-431.661	-103.799	0.288	0.067
-430.646	-200.000	0.011	0.060
-429.632	-86.355	0.529	0.162
-428.617	-136.985	-0.316	-0.036
-427.603	601.248	0.061	0.152
-426.588	-200.000	-0.024	-0.176
-425.573	-93.322	0.272	-0.075
-424.559	-57.401	-0.206	-0.090
-423.544	800.000	-0.066	0.243
-422.530	-1.619	-0.279	0.196
-421.515	-200.000	0.002	-0.123
-420.500	-200.000	0.036	-0.250
-419.486	-200.000	0.003	0.411
-418.471	-38.060	0.169	0.089
-417.457	-36.064	-0.296	-0.159
-416.442	-200.000	0.051	0.227
-415.428	-66.219	0.318	-0.126
-414.413	173.588	-0.136	0.195
-413.398	-29.265	-0.347	-0.198
-412.384	-34.770	0.205	0.111
-411.369	71.905	-0.199	0.206
-410.355	-200.000	0.024	0.335
-409.340	-28.454	-0.204	0.117
-408.325	-28.504	-0.394	0.226
-407.311	-200.000	0.003	-0.062
-406.296	493.268	0.118	0.269
-405.282	45.995	-0.064	-0.059
-404.267	115.723	0.044	-0.054
-403.252	800.000	0.040	0.114
-402.238	418.370	-0.083	0.176
-401.223	-97.701	0.446	0.115
-400.209	-200.000	-0.027	-0.134
-399.194	-134.570	-0.261	-0.032
-398.179	415.456	0.179	-0.380
-397.165	-8.596	0.195	-0.131
-396.150	585.190	0.046	-0.114
-395.136	-88.946	0.328	-0.097
-394.121	-77.781	-0.072	-0.025
-393.106	-46.404	-0.061	-0.030
-392.092	800.000	0.015	-0.051
-391.077	125.785	0.076	0.095
-390.063	478.313	-0.102	-0.230
-389.048	5.248	0.138	-0.101
-388.033	65.249	-0.114	0.115
-387.019	800.000	0.037	-0.140
-386.004	-5.024	0.084	0.057
-384.990	-123.212	0.165	-0.026
-383.975	117.764	0.073	0.089
-382.960	-5.612	-0.274	-0.187
-381.946	264.808	-0.232	-0.402
-380.931	244.024	0.136	0.227
-379.917	-183.377	0.292	-0.005
-378.902	15.550	0.358	-0.280
-377.888	45.587	-0.060	-0.055
-376.873	597.066	0.079	0.196
-375.858	800.000	0.164	-0.585
-374.844	-52.974	-0.298	-0.136
-373.829	-200.000	-0.007	0.042
-372.815	55.227	0.035	-0.034
-371.800	-200.000	-0.182	0.001
-370.785	47.234	-0.030	-0.027
-369.771	-65.897	0.133	-0.053
-368.756	-101.400	-0.161	-0.039
-367.742	-64.713	0.168	-0.068
-366.727	-108.144	0.118	-0.025
-365.712	-200.000	0.016	-0.088
-364.698	31.176	-0.144	0.123
-363.683	-116.366	0.338	0.062
-362.669	127.235	0.175	-0.221
-361.654	104.033	-0.195	-0.228
-360.639	-34.977	-0.111	-0.060
-359.625	-58.600	-0.421	-0.181
-358.610	-200.000	0.063	-0.365
-357.596	120.121	0.152	-0.188
-356.581	334.981	0.072	-0.140
-355.566	-98.544	-0.109	-0.028
-354.552	-106.023	-0.364	-0.081
-353.537	-10.037	-0.084	-0.055
-352.523	-171.492	0.075	-0.002
-351.508	800.000	-0.041	0.144
-350.493	-200.000	0.297	-0.000
-349.479	-188.538	-0.226	0.003
-348.464	800.000	-0.044	0.192
-347.450	592.571	0.119	0.291
-346.435	800.000	0.068	0.239
-345.420	184.413	-0.118	-0.173
-344.406	-41.908	0.189	0.096
-343.391	132.155	0.171	-0.219
-342.377	364.733	0.077	-0.154
-341.362	-140.029	0.132	-0.014
-340.348	-89.052	0.254	-0.075
-339.333	413.527	-0.160	0.337
-338.318	800.000	0.040	0.173
-337.304	138.770	0.157	-0.205
-336.289	21.882	-0.148	0.120
-335.275	-200.000	-0.056	-0.306
-334.260	-200.000	-0.026	0.145
-333.245	790.489	0.111	0.302
-332.231	-200.000	-0.011	0.105
-331.216	91.850	-0.076	-0.085
-330.202	-97.040	0.291	-0.076
-329.187	-5.251	0.195	0.133
-328.172	-200.000	-0.058	0.474
-327.158	4.660	0.182	0.133
-326.143	-200.000	-0.035	0.376
-325.129	253.443	0.166	0.281
-324.114	-48.992	0.313	0.149
-323.099	-44.890	-0.268	-0.132
-322.085	-200.000	0.055	0.418
-321.070	-52.038	-0.130	0.060
-320.056	647.068	-0.035	-0.089
-319.041	64.748	0.198	0.198
-318.026	500.925	0.170	-0.389
-317.012	-200.000	-0.019	0.127
-315.997	-200.000	-0.008	-0.055
-314.983	-54.695	-0.191	0.086
-313.968	-200.000	-0.039	0.227
-312.953	-2.162	-0.079	0.055
-311.939	800.000	0.082	-0.237
-310.924	211.664	0.095	0.148
-309.910	-200.000	0.011	-0.181
-308.895	-71.536	0.111	0.041
-307.880	-103.876	-0.229	-0.053
-306.866	10.980	0.266	0.201
-305.851	317.648	0.049	-0.093
-304.837	-200.000	0.000	-0.156
-303.822	-200.000	-0.088	-0.403
-302.807	-7.432	-0.335	0.225
-301.793	-107.682	0.274	-0.059
-300.778	4.430	0.180	-0.131
-299.764	-2.163	-0.258	-0.180
-298.749	209.043	-0.150	-0.233
-297.735	-122.186	0.198	-0.032
-296.720	-12.711	-0.129	-0.083
-295.705	-200.000	-0.007	0.066
-294.691	223.261	0.078	0.124
-293.676	-67.409	-0.169	0.066
-292.662	794.182	0.083	0.226
-291.647	-30.122	0.294	0.166
-290.632	333.304	-0.151	-0.290
-289.618	-200.000	0.029	-0.146
-288.603	800.000	0.149	-0.460
-287.589	-200.000	0.032	-0.206
-286.574	-87.470	0.255	-0.077
-285.559	-80.790	0.222	-0.073
-284.545	-101.138	-0.414	-0.101
-283.530	48.668	0.030	-0.028
-282.516	800.000	-0.056	-0.200
-281.501	800.000	-0.076	-0.252
-280.486	-43.729	-0.056	-0.028
-279.472	-200.000	0.029	-0.227
-278.457	-38.374	0.081	-0.042
-277.443	800.000	0.130	-0.394
-276.428	-200.000	0.016	-0.318
-275.413	800.000	0.042	-0.172
-274.399	109.853	0.185	0.220
-273.384	274.231	0.144	-0.252
-272.370	13.863	0.170	0.131
-271.355	228.841	0.061	0.099
-270.340	-200.000	0.012	0.161
-269.326	377.900	0.080	-0.162
-268.311	-45.580	-0.134	0.066
-267.297	238.234	0.213	0.351
-266.282	-200.000	-0.060	0.428
-265.267	103.198	0.349	0.406
-264.253	800.000	-0.083	-0.274
-263.238	-74.170	-0.313	-0.112
-262.224	-200.000	-0.042	-0.275
-261.209	87.616	-0.200	0.220
-260.195	-120.350	-0.158	-0.027
-259.180	-200.000	0.061	-0.322
-258.165	-112.380	0.191	-0.038
-257.151	-111.453	0.207	0.042
-256.136	-200.000	0.006	0.374
-255.122	24.890	-0.038	-0.031
-254.107	534.613	0.034	0.079
-253.092	214.749	0.045	-0.071
-252.078	-138.535	-0.179	-0.019
-251.063	396.646	-0.103	0.213
-250.049	-122.560	0.517	0.083
-249.034	513.825	0.100	0.231
-248.019	-200.000	-0.043	0.282
-247.005	90.491	0.099	0.110
-245.990	-19.504	0.180	0.110
-244.976	-200.000	-0.012	0.175
-243.961	327.380	-0.108	-0.206
-242.946	-200.000	-0.013	-0.155
-241.932	303.681	-0.160	-0.294
-240.917	158.564	-0.083	-0.114
-239.903	800.000	-0.092	-0.288
-238.888	134.363	-0.032	0.041
-237.873	-12.082	0.062	0.040
-236.859	-200.000	-0.036	-0.281
-235.844	111.890	-0.177	-0.212
-234.830	-30.729	-0.153	-0.086
-233.815	-51.684	0.151	0.070
-232.800	1.810	-0.052	0.037
-231.786	75.791	0.127	0.133
-230.771	-67.432	-0.191	-0.074
-229.757	-200.000	-0.043	-0.264
-228.742	-200.000	-0.001	0.161
-227.727	-69.384	-0.348	0.132
-226.713	68.211	-0.202	0.205
-225.698	40.910	0.224	0.200
-224.684	82.815	-0.195	-0.210
-223.669	800.000	0.063	0.181
-222.655	-149.967	0.261	-0.020
-221.640	-200.000	-0.006	0.151
-220.625	-15.677	0.122	0.077
-219.611	-200.000	0.006	-0.253
-218.596	-177.783	-0.340	-0.008
-217.582	252.818	0.159	0.269
-216.567	526.301	-0.134	0.312
-215.552	90.332	-0.258	0.285
-214.538	-77.845	-0.331	0.113
-213.523	-200.000	-0.006	-0.054
-212.509	800.000	0.074	-0.311
-211.494	10.664	0.093	0.070
-210.479	800.000	0.077	-0.242
-209.465	390.672	-0.043	-0.088
-208.450	-200.000	-0.000	-0.170
-207.436	-19.880	-0.160	0.097
-206.421	8.411	0.141	0.105
-205.406	-125.549	-0.467	-0.070
-204.392	87.266	-0.223	0.244
-203.377	-200.000	-0.048	0.306
-202.363	800.000	-0.218	0.720
-201.348	-59.883	-0.291	-0.123
-200.333	115.510	0.078	-0.094
-199.319	150.380	-0.132	-0.177
-198.304	13.149	-0.048	-0.037
-197.290	-200.000	-0.005	0.027
-196.275	-56.051	0.332	0.146
-195.260	296.798	-0.071	-0.129
-194.246	0.940	0.293	-0.207
-193.231	71.619	0.399	0.410
-192.217	-200.000	0.002	-0.105
-191.202	76.062	0.259	0.271
-190.187	-15.209	-0.296	0.187
-189.173	-28.307	0.264	-0.151
-188.158	-57.626	-0.114	-0.049
-187.144	-23.250	0.142	-0.084
-186.129	-146.192	0.032	-0.003
-185.114	40.103	0.336	-0.299
-184.100	-16.900	0.148	0.092
-183.085	-200.000	0.015	0.215
-182.071	800.000	0.004	0.015
-181.056	348.588	0.074	0.144
-180.042	-200.000	-0.006	0.502
-179.027	-55.932	0.144	-0.063
-178.012	0.477	-0.160	0.113
-176.998	800.000	0.094	-0.353
-175.983	-39.422	-0.092	-0.048
-174.969	-200.000	-0.006	0.078
-173.954	-200.000	-0.022	0.109
-172.939	121.208	0.140	0.172
-171.925	-135.386	0.125	-0.015
-170.910	101.834	0.157	-0.181
-169.896	61.741	-0.171	-0.168
-168.881	201.422	0.083	0.125
-167.866	-200.000	0.020	-0.132
-166.852	-83.560	-0.343	0.108
-165.837	800.000	0.152	0.442
-164.823	85.627	0.087	0.094
-163.808	36.910	0.164	-0.143
-162.793	599.717	-0.064	0.156
-161.779	-142.292	0.174	0.017
-160.764	-84.595	0.223	-0.069
-159.750	-12.445	-0.307	0.198
-158.735	-200.000	0.005	-0.213
-157.720	-97.551	-0.217	-0.056
-156.706	61.697	0.046	0.045
-155.691	-200.000	0.036	-0.198
-154.677	-147.132	0.270	-0.023
-153.662	14.722	0.300	0.231
-152.647	800.000	-0.051	0.212
-151.633	25.748	0.166	-0.136
-150.618	171.378	-0.085	0.121
-149.604	113.237	0.065	0.078
-148.589	784.712	-0.037	0.099
-147.574	-16.626	-0.143	-0.089
-146.560	-108.191	0.257	-0.055
-145.545	800.000	0.030	-0.119
-144.531	53.485	0.132	-0.125
-143.516	-89.122	0.540	-0.157
-142.502	51.556	-0.174	-0.163
-141.487	800.000	0.139	-0.427
-140.472	800.000	-0.017	-0.069
-139.458	417.868	-0.116	0.244
-138.443	-200.000	-0.001	0.044
-137.429	2.516	0.100	0.071
-136.414	-111.263	0.136	0.027
-135.399	106.071	-0.347	0.405
-134.385	43.319	-0.083	0.075
-133.370	253.356	0.115	-0.194
-132.356	-46.100	-0.305	-0.148
-131.341	278.643	0.201	0.353
-130.326	-16.287	0.060	-0.037
-129.312	-35.827	0.180	0.096
-128.297	-109.641	-0.181	0.037
-127.283	-178.639	0.227	-0.005
-126.268	122.531	-0.195	-0.240
-125.253	156.527	-0.058	0.078
-124.239	-200.000	-0.071	0.577
-123.224	-20.317	0.106	0.065
-122.210	-200.000	0.009	0.092
-121.195	-192.159	-0.053	0.000
