DTS Sentinel unit serial number:	SN413079Multiplexer serial number:	ORYXHardware model number:	OX4-SRSoftware version number:	ORYX F/W v4.00 Oryx Data Collector v3.7.2.0data status	okinstallation	princeton_trtdifferential loss correction	single-endedforward channel	channel 2reverse channel	N/Adate	2019/09/13time	00:31:35forward acquisition time	60.00reverse acquisition time	0.00gamma	496.2192k internal	0.2333k external	0.2333temperature offset calibration	1.0166default loss term (dB/km)	0.3790temperature slope calibration	1.0000multiplexer offset coefficient	1.0000multiplexer slope coefficient	1.0000fibre end	0.00T internal ref (°C)	28.37T ext. ref 1 (°C)	3.71T ext. ref 2 (°C)	22.94length (m)	temperature (°C)	Stokes	anti-Stokes-747.200	126.281	-0.099	0.125
-746.185	-200.000	-0.005	0.606
-745.171	357.391	0.099	0.199
-744.156	-200.000	-0.003	-0.301
-743.142	-72.657	0.156	0.058
-742.127	-42.323	0.165	0.085
-741.112	266.786	0.034	-0.060
-740.098	800.000	0.059	0.218
-739.083	251.137	-0.191	0.327
-738.069	654.408	0.037	-0.096
-737.054	25.823	-0.211	-0.177
-736.039	45.679	-0.064	-0.059
-735.025	-200.000	-0.035	-0.324
-734.010	-200.000	0.022	-0.179
-732.996	3.401	-0.256	0.187
-731.981	-200.000	-0.010	0.133
-730.966	-94.333	0.100	-0.027
-729.952	800.000	-0.014	-0.039
-728.937	350.333	0.060	-0.119
-727.923	800.000	0.117	-0.326
-726.908	-67.672	-0.292	0.115
-725.894	-200.000	0.017	-0.194
-724.879	-78.039	0.249	0.086
-723.864	-15.466	-0.103	0.066
-722.850	232.483	-0.107	-0.176
-721.835	-200.000	0.025	-0.478
-720.821	-65.809	0.155	-0.062
-719.806	52.231	-0.136	-0.130
-718.791	27.135	0.196	-0.165
-717.777	21.880	0.105	-0.086
-716.762	800.000	0.078	-0.217
-715.748	-89.847	-0.135	0.040
-714.733	41.889	0.278	0.254
-713.718	-200.000	-0.003	-0.292
-712.704	133.179	-0.272	-0.353
-711.689	-131.134	0.206	-0.028
-710.675	-106.627	-0.093	0.021
-709.660	92.960	0.298	0.338
-708.645	1.010	-0.413	-0.297
-707.631	85.842	0.155	-0.172
-706.616	37.828	-0.115	0.103
-705.602	-130.446	0.269	0.037
-704.587	48.977	0.168	0.159
-703.572	800.000	0.056	-0.199
-702.558	-200.000	-0.027	-0.191
-701.543	248.450	0.107	0.182
-700.529	-30.715	-0.115	0.065
-699.514	-69.870	0.094	0.036
-698.499	-60.109	-0.199	-0.085
-697.485	64.583	-0.311	-0.315
-696.470	-43.114	-0.283	0.144
-695.456	75.372	-0.094	-0.100
-694.441	-117.057	-0.276	0.050
-693.426	-53.949	0.229	-0.104
-692.412	-200.000	-0.005	-0.060
-691.397	27.834	-0.102	0.087
-690.383	55.146	0.036	-0.035
-689.368	53.032	-0.145	-0.139
-688.354	202.426	-0.140	0.217
-687.339	800.000	-0.054	-0.228
-686.324	-82.849	0.266	-0.086
-685.310	625.225	-0.035	0.089
-684.295	72.555	-0.089	-0.093
-683.281	178.710	-0.295	-0.433
-682.266	73.006	-0.295	0.309
-681.251	-51.819	-0.320	-0.149
-680.237	132.107	0.160	-0.207
-679.222	281.997	-0.075	-0.135
-678.208	46.647	-0.214	0.199
-677.193	248.737	0.190	-0.322
-676.178	498.846	-0.128	-0.295
-675.164	-154.919	0.198	0.013
-674.149	309.156	-0.066	0.123
-673.135	204.082	0.072	0.112
-672.120	-113.119	-0.188	-0.037
-671.105	-29.627	-0.061	-0.035
-670.091	800.000	0.094	-0.351
-669.076	18.307	-0.341	-0.273
-668.062	15.758	0.090	0.071
-667.047	-45.765	-0.214	-0.106
-666.032	-124.311	-0.271	0.042
-665.018	63.834	-0.049	-0.050
-664.003	-36.588	-0.124	0.067
-662.989	-200.000	-0.004	0.199
-661.974	-166.236	0.244	-0.010
-660.959	-80.170	-0.363	-0.122
-659.945	800.000	0.069	0.196
-658.930	800.000	-0.017	0.048
-657.916	139.111	0.151	-0.198
-656.901	-64.050	-0.178	-0.073
-655.886	18.862	-0.065	-0.052
-654.872	-200.000	-0.041	-0.356
-653.857	277.086	-0.147	-0.262
-652.843	61.129	-0.233	0.232
-651.828	212.117	-0.248	-0.391
-650.814	60.206	0.171	-0.170
-649.799	-200.000	0.000	-0.270
-648.784	-162.237	-0.333	0.017
-647.770	40.589	0.071	0.065
-646.755	800.000	-0.106	-0.373
-645.741	-60.846	-0.273	0.116
-644.726	-38.449	-0.017	0.009
-643.711	-56.683	-0.278	0.123
-642.697	-100.535	0.261	0.065
-641.682	800.000	-0.062	-0.191
-640.668	-1.517	0.202	-0.142
-639.653	-90.872	-0.161	-0.047
-638.638	-182.174	0.225	0.004
-637.624	800.000	-0.060	-0.227
-636.609	-72.843	-0.147	-0.054
-635.595	-200.000	-0.016	-0.094
-634.580	-21.130	0.065	0.040
-633.565	50.942	-0.145	0.138
-632.551	243.045	-0.155	0.261
-631.536	74.119	-0.235	-0.247
-630.522	-91.960	-0.197	0.056
-629.507	-142.729	0.145	-0.014
-628.492	-200.000	0.019	-0.147
-627.478	-200.000	0.001	0.090
-626.463	-149.222	0.046	-0.004
-625.449	-16.729	0.100	-0.064
-624.434	-113.807	-0.148	0.029
-623.419	-21.518	-0.082	0.050
-622.405	530.196	0.072	-0.171
-621.390	272.429	0.148	0.261
-620.376	-112.928	-0.020	-0.004
-619.361	-41.716	-0.095	-0.049
-618.346	53.984	0.076	0.073
-617.332	-105.585	0.268	-0.061
-616.317	-195.146	-0.305	-0.002
-615.303	-87.886	0.199	0.060
-614.288	-200.000	0.042	-0.522
-613.273	-48.776	-0.331	-0.159
-612.259	-102.315	-0.368	0.088
-611.244	263.198	-0.050	0.087
-610.230	-147.460	-0.125	-0.011
-609.215	-170.857	0.282	0.010
-608.201	-200.000	0.020	-0.294
-607.186	-144.831	0.292	-0.027
-606.171	-38.524	-0.446	-0.236
-605.157	-200.000	-0.017	0.442
-604.142	-70.729	-0.183	0.069
-603.128	-19.285	-0.243	-0.151
-602.113	-200.000	0.027	-0.144
-601.098	-145.898	-0.468	-0.041
-600.084	-106.315	0.123	-0.028
-599.069	316.601	0.115	0.217
-598.055	-200.000	-0.004	0.120
-597.040	-85.152	-0.119	-0.037
-596.025	-126.565	0.260	0.039
-595.011	-99.658	-0.332	0.083
-593.996	-117.120	0.053	-0.010
-592.982	-143.819	0.061	-0.006
-591.967	-87.097	0.336	0.102
-590.952	-16.319	0.167	-0.106
-589.938	339.955	0.093	0.182
-588.923	-200.000	0.010	-0.103
-587.909	-1.669	-0.161	0.114
-586.894	-95.813	-0.416	0.111
-585.879	-164.215	-0.133	0.006
-584.865	-200.000	0.104	-0.495
-583.850	185.148	-0.023	0.034
-582.836	-4.859	0.257	-0.177
-581.821	-77.228	0.226	0.079
-580.806	-170.872	-0.433	-0.015
-579.792	-117.949	-0.246	-0.044
-578.777	-200.000	-0.012	-0.232
-577.763	230.474	-0.233	-0.381
-576.748	17.766	-0.130	-0.103
-575.733	414.804	0.060	-0.127
-574.719	39.721	-0.088	0.079
-573.704	-200.000	-0.068	0.332
-572.690	34.884	-0.186	-0.163
-571.675	-23.291	0.117	-0.070
-570.661	-113.761	0.209	0.041
-569.646	206.680	-0.131	0.203
-568.631	-184.252	-0.205	-0.003
-567.617	-200.000	0.043	0.302
-566.602	35.152	-0.070	-0.062
-565.588	-56.795	0.132	0.058
-564.573	155.277	0.113	-0.155
-563.558	521.276	0.066	-0.155
-562.544	157.337	0.171	-0.236
-561.529	183.922	-0.033	-0.049
-560.515	164.590	0.092	0.129
-559.500	131.645	-0.045	0.058
-558.485	358.603	-0.058	-0.117
-557.471	-157.617	0.394	-0.024
-556.456	-58.779	-0.137	0.059
-555.442	-104.626	-0.113	0.026
-554.427	-200.000	0.038	0.178
-553.412	-44.792	0.433	0.216
-552.398	-200.000	-0.025	-0.362
-551.383	348.395	-0.134	-0.264
-550.369	-124.046	-0.325	-0.051
-549.354	-200.000	0.025	-0.374
-548.339	800.000	0.114	-0.351
-547.325	800.000	0.032	0.122
-546.310	193.718	0.032	-0.048
-545.296	107.962	-0.234	-0.278
-544.281	-180.784	0.272	0.006
-543.266	48.575	-0.093	0.087
-542.252	128.982	-0.193	-0.246
-541.237	-200.000	0.038	0.507
-540.223	-200.000	0.012	-0.051
-539.208	-75.183	-0.170	-0.061
-538.193	19.165	-0.262	0.210
-537.179	308.558	-0.204	0.380
-536.164	-22.395	0.133	0.081
-535.150	31.433	-0.144	0.123
-534.135	105.722	0.183	0.215
-533.121	189.303	0.066	-0.098
-532.106	800.000	0.006	-0.025
-531.091	-52.633	-0.250	0.115
-530.077	-53.926	0.425	-0.193
-529.062	82.027	0.108	-0.116
-528.048	-161.326	0.166	-0.009
-527.033	-200.000	0.002	0.024
-526.018	800.000	0.065	-0.253
-525.004	281.282	0.125	-0.222
-523.989	800.000	-0.051	-0.196
-522.975	-98.055	-0.094	-0.024
-521.960	800.000	-0.136	0.403
-520.945	800.000	-0.139	-0.392
-519.931	-200.000	-0.012	0.112
-518.916	237.298	-0.120	-0.198
-517.902	21.338	-0.258	-0.209
-516.887	-70.336	0.249	-0.094
-515.872	800.000	0.103	0.288
-514.858	800.000	0.056	0.199
-513.843	-53.785	0.211	0.096
-512.829	352.270	-0.129	-0.255
-511.814	-139.925	0.179	-0.019
-510.799	77.041	0.110	0.116
-509.785	19.767	-0.255	-0.205
-508.770	-200.000	0.049	-0.245
-507.756	-85.056	-0.183	-0.057
-506.741	-180.921	-0.210	0.004
-505.726	800.000	0.013	-0.044
-504.712	-200.000	0.026	0.246
-503.697	-24.120	-0.079	-0.047
-502.683	-65.722	0.235	-0.094
-501.668	-112.371	-0.051	0.010
-500.653	-200.000	-0.002	-0.082
-499.639	-192.717	-0.371	-0.003
-498.624	-200.000	0.002	0.021
-497.610	-79.674	0.330	-0.111
-496.595	-117.793	-0.292	-0.052
-495.581	-200.000	0.026	-0.149
-494.566	-121.224	0.187	0.031
-493.551	-82.632	-0.233	-0.075
-492.537	800.000	0.071	-0.200
-491.522	800.000	-0.033	0.123
-490.508	-18.546	0.234	0.146
-489.493	-200.000	0.028	-0.135
-488.478	800.000	-0.109	0.321
-487.464	-200.000	0.008	0.071
-486.449	-43.900	-0.094	-0.047
-485.435	-200.000	-0.011	-0.246
-484.420	101.455	0.118	-0.137
-483.405	-56.526	0.255	-0.113
-482.391	-117.313	-0.242	0.044
-481.376	6.761	-0.249	0.185
-480.362	353.598	0.040	0.079
-479.347	800.000	0.152	-0.468
-478.332	1.959	0.215	-0.155
-477.318	800.000	-0.042	0.128
-476.303	-126.138	0.232	0.035
-475.289	107.877	-0.043	-0.051
-474.274	446.953	0.100	-0.219
-473.259	-122.629	0.088	0.014
-472.245	-99.656	-0.367	0.092
-471.230	282.379	-0.052	0.093
-470.216	-200.000	-0.082	-0.446
-469.201	-33.467	-0.225	-0.124
-468.186	21.203	0.119	0.096
-467.172	800.000	0.110	0.331
-466.157	24.989	-0.097	-0.080
-465.143	-119.530	0.077	-0.013
-464.128	-100.039	0.237	-0.059
-463.113	-96.230	0.439	-0.116
-462.099	-93.322	0.102	0.028
-461.084	-84.819	0.195	0.061
-460.070	360.484	-0.132	-0.263
-459.055	375.917	0.073	0.147
-458.040	194.438	-0.075	-0.112
-457.026	-114.195	-0.135	0.026
-456.011	800.000	0.058	-0.180
-454.997	346.774	0.175	0.343
-453.982	-200.000	-0.011	-0.189
-452.968	-200.000	-0.030	0.287
-451.953	-142.884	0.399	-0.038
-450.938	800.000	-0.014	-0.054
-449.924	-12.123	0.247	0.161
-448.909	462.915	-0.121	-0.269
-447.895	108.526	-0.220	0.261
-446.880	85.261	-0.108	0.118
-445.865	-200.000	0.002	-0.046
-444.851	-21.078	0.146	0.089
-443.836	29.023	0.216	-0.182
-442.822	-200.000	0.010	0.069
-441.807	-200.000	0.046	0.327
-440.792	-113.312	0.485	-0.095
-439.778	20.976	-0.201	-0.162
-438.763	217.313	-0.073	0.115
-437.749	-171.627	-0.265	-0.009
-436.734	-200.000	-0.038	-0.261
-435.719	-200.000	-0.020	-0.245
-434.705	800.000	-0.018	0.061
-433.690	800.000	-0.027	0.112
-432.676	18.426	0.101	-0.080
-431.661	-200.000	-0.014	0.166
-430.646	-121.555	0.042	0.007
-429.632	-111.992	0.471	-0.094
-428.617	-200.000	0.009	-0.122
-427.603	732.916	-0.151	-0.402
-426.588	-170.877	0.258	0.009
-425.573	69.089	0.201	0.205
-424.559	-117.688	-0.331	0.059
-423.544	559.268	0.071	-0.171
-422.530	-54.608	-0.343	-0.154
-421.515	-85.810	0.079	0.024
-420.500	-141.860	0.362	-0.036
-419.486	-183.853	0.164	-0.003
-418.471	231.245	-0.098	0.160
-417.457	-200.000	-0.022	0.231
-416.442	200.674	-0.030	-0.046
-415.428	99.211	-0.016	0.019
-414.413	-7.209	0.139	0.093
-413.398	49.604	0.291	0.272
-412.384	-137.551	-0.287	-0.032
-411.369	-200.000	0.085	-0.466
-410.355	-19.681	0.334	0.205
-409.340	96.101	0.154	0.174
-408.325	-200.000	-0.008	-0.184
-407.311	-200.000	-0.017	-0.112
-406.296	-89.466	-0.222	0.065
-405.282	104.365	-0.291	-0.339
-404.267	-120.573	0.141	-0.024
-403.252	-162.752	0.292	-0.014
-402.238	257.582	0.024	0.041
-401.223	339.091	0.081	0.157
-400.209	30.772	-0.125	0.106
-399.194	180.206	0.101	0.147
-398.179	23.822	0.110	0.090
-397.165	-53.116	-0.037	0.017
-396.150	398.140	0.124	0.256
-395.136	25.844	0.032	-0.026
-394.121	-144.128	-0.056	-0.005
-393.106	-200.000	-0.030	-0.357
-392.092	-31.338	-0.318	0.178
-391.077	202.800	0.042	-0.064
-390.063	-43.825	0.148	-0.074
-389.048	-95.376	-0.240	-0.064
-388.033	103.829	0.191	0.223
-387.019	800.000	0.035	-0.100
-386.004	-88.772	0.053	0.016
-384.990	175.047	0.183	0.263
-383.975	-80.067	-0.094	0.031
-382.960	-200.000	-0.026	-0.215
-381.946	800.000	-0.068	-0.258
-380.931	-200.000	-0.018	-0.121
-379.917	-200.000	0.066	-0.305
-378.902	-55.283	0.190	0.085
-377.888	114.791	0.092	0.112
-376.873	800.000	-0.055	0.171
-375.858	-176.415	0.214	0.006
-374.844	-3.948	-0.183	-0.126
-373.829	800.000	0.037	-0.156
-372.815	-36.798	0.314	-0.167
-371.800	-82.632	-0.208	-0.067
-370.785	28.470	-0.090	0.076
-369.771	299.394	0.098	0.178
-368.756	3.576	-0.195	0.141
-367.742	81.814	-0.111	-0.120
-366.727	-130.559	0.196	0.026
-365.712	-14.502	0.218	0.139
-364.698	-161.478	-0.374	-0.019
-363.683	-119.497	0.187	0.032
-362.669	800.000	-0.015	0.048
-361.654	216.651	-0.091	-0.144
-360.639	-31.393	-0.164	0.091
-359.625	219.042	-0.103	-0.163
-358.610	15.186	0.303	0.235
-357.596	220.729	0.053	-0.084
-356.581	49.022	0.046	-0.042
-355.566	-77.169	-0.070	0.024
-354.552	800.000	0.148	0.481
-353.537	-59.137	-0.210	0.090
-352.523	-67.357	-0.178	-0.069
-351.508	-96.108	-0.431	0.113
-350.493	-64.676	-0.189	-0.076
-349.479	-200.000	-0.036	0.306
-348.464	-126.100	-0.361	0.054
-347.450	234.207	-0.108	0.176
-346.435	-192.880	0.322	0.003
-345.420	800.000	-0.088	0.366
-344.406	22.702	-0.063	0.051
-343.391	150.326	-0.238	0.319
-342.377	-200.000	-0.007	0.279
-341.362	231.912	-0.044	0.072
-340.348	683.579	-0.078	0.201
-339.333	-29.689	0.116	0.065
-338.318	183.287	0.205	0.300
-337.304	424.374	0.069	-0.146
-336.289	292.371	-0.149	0.269
-335.275	-200.000	0.006	0.137
-334.260	-200.000	0.075	0.506
-333.245	-36.348	-0.254	-0.136
-332.231	538.277	0.105	0.246
-331.216	407.916	0.027	0.057
-330.202	13.883	-0.116	0.089
-329.187	-60.612	-0.166	-0.070
-328.172	-31.829	-0.134	-0.075
-327.158	800.000	0.064	0.238
-326.143	-200.000	-0.014	-0.090
-325.129	424.004	0.072	0.154
-324.114	67.883	0.109	-0.110
-323.099	-78.062	-0.267	0.091
-322.085	-81.614	0.128	0.041
-321.070	79.497	0.339	0.360
-320.056	-200.000	0.018	0.205
-319.041	-18.499	0.283	0.175
-318.026	800.000	0.098	-0.408
-317.012	364.385	0.219	0.436
-315.997	800.000	-0.101	-0.290
-314.983	-200.000	-0.010	-0.202
-313.968	31.790	0.072	-0.061
-312.953	451.599	0.054	-0.117
-311.939	-200.000	-0.038	0.279
-310.924	123.715	0.134	-0.166
-309.910	-200.000	0.036	-0.227
-308.895	54.301	0.139	-0.133
-307.880	-167.695	0.131	-0.005
-306.866	59.806	-0.192	-0.188
-305.851	198.429	0.061	-0.092
-304.837	-168.544	0.172	-0.006
-303.822	-18.217	0.066	-0.041
-302.807	262.270	0.060	-0.103
-301.793	-8.939	0.171	0.113
-300.778	-200.000	0.021	0.157
-299.764	-141.974	-0.035	-0.003
-298.749	-9.745	-0.114	0.075
-297.735	415.576	0.066	-0.139
-296.720	664.498	0.081	0.205
-295.705	27.680	0.116	0.097
-294.691	-53.912	-0.181	-0.082
-293.676	36.306	-0.137	-0.120
-292.662	-49.935	-0.230	0.108
-291.647	21.006	-0.058	-0.046
-290.632	-14.044	0.147	0.093
-289.618	-200.000	-0.059	-0.395
-288.603	-36.732	-0.403	-0.214
-287.589	-120.662	-0.439	0.073
-286.574	291.561	0.083	0.150
-285.559	-63.661	-0.171	-0.069
-284.545	-11.193	0.205	-0.133
-283.530	132.933	-0.129	-0.165
-282.516	275.867	0.092	-0.161
-281.501	-152.774	0.246	0.017
-280.486	-118.632	-0.093	-0.016
-279.472	389.097	-0.008	-0.016
-278.457	-102.546	-0.092	-0.022
-277.443	800.000	-0.096	-0.388
-276.428	385.733	0.119	0.243
-275.413	367.691	-0.099	-0.197
-274.399	-0.678	-0.030	-0.021
-273.384	86.074	-0.294	-0.320
-272.370	-200.000	0.028	-0.197
-271.355	51.850	-0.164	0.154
-270.340	67.123	0.308	0.310
-269.326	7.619	0.127	-0.094
-268.311	15.259	0.357	-0.276
-267.297	-42.432	-0.018	0.009
-266.282	-143.802	-0.297	0.028
-265.267	800.000	0.063	0.251
-264.253	111.344	-0.085	0.101
-263.238	-200.000	0.083	0.361
-262.224	414.870	-0.163	0.342
-261.209	-27.643	0.170	0.097
-260.195	255.931	-0.132	0.224
-259.180	589.111	-0.195	0.475
-258.165	800.000	-0.070	-0.298
-257.151	-101.252	-0.211	-0.051
-256.136	-197.383	0.355	-0.002
-255.122	-23.686	-0.188	0.111
-254.107	-200.000	-0.033	0.168
-253.092	246.968	0.046	0.076
-252.078	-141.142	-0.301	-0.030
-251.063	88.766	-0.127	-0.140
-250.049	800.000	0.107	-0.312
-249.034	1.705	-0.163	0.116
-248.019	286.760	0.092	0.164
-247.005	707.755	-0.096	0.251
-245.990	-28.226	0.249	-0.142
-244.976	-200.000	0.033	0.221
-243.961	800.000	-0.019	-0.053
-242.946	364.089	0.040	0.079
-241.932	691.540	-0.057	-0.146
-240.917	-200.000	0.017	-0.246
-239.903	10.819	0.224	0.168
-238.888	-200.000	-0.003	0.224
-237.873	-127.450	0.093	0.013
-236.859	22.253	0.178	-0.143
-235.844	185.975	-0.143	0.209
-234.830	-200.000	0.020	-0.141
-233.815	55.126	0.081	0.077
-232.800	-36.463	0.176	0.093
-231.786	0.890	0.089	-0.063
-230.771	-13.607	-0.372	0.237
-229.757	53.235	0.080	-0.076
-228.742	97.528	-0.219	-0.248
-227.727	-46.718	-0.216	0.104
-226.713	43.303	-0.093	-0.084
-225.698	40.285	0.123	0.109
-224.684	45.658	0.351	0.319
-223.669	-43.576	0.198	-0.098
-222.655	-114.138	0.104	-0.020
-221.640	-200.000	-0.005	-0.155
-220.625	-78.170	0.238	0.081
-219.611	99.802	0.183	0.209
-218.596	400.867	-0.205	0.423
-217.582	29.243	-0.016	-0.013
-216.567	-200.000	0.021	0.225
-215.552	9.389	-0.042	0.032
-214.538	-112.675	-0.205	0.040
-213.523	-6.796	0.160	0.107
-212.509	500.821	-0.114	0.258
-211.494	-140.781	0.107	0.011
-210.479	30.359	0.155	-0.130
-209.465	158.971	0.296	0.406
-208.450	-141.477	0.288	-0.029
-207.436	800.000	-0.038	0.133
-206.421	-29.749	0.172	-0.096
-205.406	-83.546	0.185	0.058
-204.392	800.000	-0.039	-0.111
-203.377	397.216	-0.145	-0.299
-202.363	-98.734	0.037	0.009
-201.348	30.160	-0.159	0.133
-200.333	625.964	-0.114	-0.283
-199.319	800.000	-0.139	0.456
-198.304	177.739	-0.224	0.322
-197.290	-200.000	-0.004	-0.063
-196.275	203.553	-0.083	-0.127
-195.260	-200.000	-0.012	-0.102
-194.246	553.724	0.078	0.184
-193.231	-83.590	-0.351	-0.111
-192.217	-200.000	0.022	0.349
-191.202	-81.868	0.127	-0.041
-190.187	-83.070	0.151	-0.048
-189.173	518.150	-0.187	-0.430
-188.158	-73.377	0.183	-0.066
-187.144	-199.288	0.119	0.001
-186.129	-200.000	0.298	-0.001
-185.114	-124.002	-0.302	-0.047
-184.100	-127.147	-0.279	0.040
-183.085	-200.000	-0.013	0.195
-182.071	110.406	0.074	0.088
-181.056	800.000	-0.064	-0.234
-180.042	-200.000	-0.009	-0.108
-179.027	130.504	-0.364	0.459
-178.012	-172.197	0.181	-0.006
-176.998	-66.585	-0.175	0.068
-175.983	-179.033	-0.118	-0.003
-174.969	-171.278	0.297	0.010
-173.954	-77.785	0.093	0.032
-172.939	295.632	0.102	0.184
-171.925	-32.020	0.290	0.159
-170.910	-140.833	0.098	0.010
-169.896	288.196	-0.029	0.051
-168.881	-177.156	-0.235	-0.006
-167.866	-200.000	-0.019	-0.404
-166.852	-22.188	-0.218	-0.130
-165.837	40.268	0.025	0.022
-164.823	-161.337	0.326	-0.017
-163.808	-14.138	0.430	-0.273
-162.793	800.000	-0.143	-0.513
-161.779	-29.706	-0.047	0.026
-160.764	-76.381	0.069	0.024
-159.750	-200.000	-0.007	-0.038
-158.735	55.250	0.285	-0.271
-157.720	169.926	-0.166	0.234
-156.706	21.358	0.377	0.301
-155.691	-62.786	-0.063	0.026
-154.677	-33.032	0.301	-0.164
-153.662	63.506	-0.092	0.091
-152.647	-200.000	-0.064	-0.494
-151.633	-130.722	-0.332	-0.044
-150.618	-64.105	-0.266	0.107
-149.604	-112.698	0.406	-0.079
-148.589	-148.750	-0.344	-0.027
-147.574	142.610	0.148	0.193
-146.560	-200.000	0.022	0.147
-145.545	11.370	0.190	0.143
-144.531	-200.000	0.013	-0.278
-143.516	-67.516	0.037	-0.014
-142.502	-152.880	0.102	-0.007
-141.487	-153.271	0.313	-0.021
-140.472	-147.249	-0.245	0.020
-139.458	-131.901	0.077	0.010
-138.443	80.159	0.111	0.117
-137.429	31.723	0.154	-0.130
-136.414	-35.828	0.106	-0.057
-135.399	177.128	-0.131	0.187
-134.385	-200.000	0.020	-0.201
-133.370	-49.484	0.051	-0.024
-132.356	594.723	0.141	-0.343
-131.341	-200.000	0.048	-0.317
-130.326	98.824	0.209	-0.237
-129.312	800.000	-0.097	0.347
-128.297	55.439	0.161	-0.153
-127.283	-17.111	0.083	0.052
-126.268	-113.930	0.243	-0.046
-125.253	-48.976	0.223	-0.105
-124.239	-200.000	0.022	0.106
-123.224	121.507	0.087	0.107
-122.210	-58.476	0.127	0.054
