DTS Sentinel unit serial number:	SN413079Multiplexer serial number:	ORYXHardware model number:	OX4-SRSoftware version number:	ORYX F/W v4.00 Oryx Data Collector v3.7.2.0data status	okinstallation	princeton_trtdifferential loss correction	single-endedforward channel	channel 2reverse channel	N/Adate	2019/09/15time	14:51:35forward acquisition time	60.00reverse acquisition time	0.00gamma	496.2192k internal	0.2299k external	0.2299temperature offset calibration	0.9968default loss term (dB/km)	0.3790temperature slope calibration	1.0000multiplexer offset coefficient	1.0000multiplexer slope coefficient	1.0000fibre end	0.00T internal ref (°C)	39.91T ext. ref 1 (°C)	4.85T ext. ref 2 (°C)	37.01length (m)	temperature (°C)	Stokes	anti-Stokes-747.200	535.028	-0.048	0.115
-746.185	11.728	0.248	0.194
-745.171	383.950	-0.164	-0.344
-744.156	-133.298	0.175	0.022
-743.142	439.060	0.087	0.193
-742.127	-200.000	0.016	0.269
-741.112	-200.000	0.003	0.327
-740.098	800.000	-0.084	0.322
-739.083	-32.161	0.098	-0.056
-738.069	-66.482	-0.417	0.169
-737.054	189.660	-0.252	0.386
-736.039	145.508	0.050	0.069
-735.025	-200.000	0.104	0.501
-734.010	148.973	0.059	0.082
-732.996	-5.328	-0.052	-0.037
-731.981	-107.946	-0.121	-0.027
-730.966	146.270	-0.191	0.262
-729.952	-148.114	-0.365	-0.031
-728.937	54.170	0.338	-0.332
-727.923	165.899	0.007	0.011
-726.908	-131.195	0.174	-0.024
-725.894	-100.364	0.190	0.048
-724.879	-200.000	-0.011	0.159
-723.864	-70.997	-0.068	0.026
-722.850	309.684	0.106	-0.202
-721.835	362.387	0.082	0.169
-720.821	78.257	-0.168	-0.183
-719.806	38.765	-0.131	0.119
-718.791	800.000	-0.043	-0.144
-717.777	-15.988	-0.321	-0.208
-716.762	637.590	0.019	-0.048
-715.748	74.725	-0.084	-0.090
-714.733	21.540	0.088	-0.073
-713.718	-165.599	0.244	-0.011
-712.704	-58.054	-0.179	-0.080
-711.689	205.254	0.091	0.144
-710.675	210.821	-0.134	0.214
-709.660	65.285	0.242	-0.249
-708.645	331.292	0.168	0.331
-707.631	-80.046	0.160	0.055
-706.616	40.019	-0.027	-0.025
-705.602	-82.382	0.250	-0.083
-704.587	-99.536	0.305	0.078
-703.572	800.000	0.022	-0.093
-702.558	-6.587	-0.393	-0.273
-701.543	-200.000	0.028	-0.195
-700.529	-200.000	-0.073	-0.332
-699.514	-146.544	0.217	0.019
-698.499	-200.000	0.020	0.199
-697.485	134.724	0.342	0.452
-696.470	-63.816	0.292	-0.122
-695.456	46.627	0.155	0.147
-694.441	213.061	-0.116	-0.187
-693.426	-152.956	-0.060	-0.004
-692.412	-45.355	-0.192	-0.097
-691.397	800.000	-0.070	0.243
-690.383	-200.000	0.014	0.234
-689.368	800.000	0.110	0.410
-688.354	800.000	-0.057	-0.229
-687.339	800.000	-0.085	0.297
-686.324	12.943	-0.004	-0.004
-685.310	-109.879	-0.192	-0.041
-684.295	105.397	0.215	0.258
-683.281	752.024	-0.009	0.024
-682.266	-55.038	-0.298	0.137
-681.251	-200.000	-0.007	-0.127
-680.237	421.783	0.057	0.125
-679.222	-40.516	0.123	0.065
-678.208	-200.000	-0.002	0.132
-677.193	-21.473	-0.312	0.193
-676.178	380.822	0.059	0.122
-675.164	-156.061	-0.093	0.006
-674.149	-200.000	0.023	0.366
-673.135	516.072	0.092	-0.219
-672.120	-200.000	-0.030	0.402
-671.105	302.469	0.085	-0.159
-670.091	-124.321	0.341	-0.054
-669.076	-89.037	0.219	-0.066
-668.062	373.665	0.158	-0.328
-667.047	800.000	-0.138	-0.441
-666.032	-200.000	-0.003	-0.300
-665.018	136.312	0.138	-0.183
-664.003	-200.000	-0.073	-0.406
-662.989	-143.641	-0.064	-0.006
-661.974	-83.614	-0.113	-0.037
-660.959	800.000	-0.042	0.152
-659.945	-153.161	0.123	-0.009
-658.930	-163.803	0.065	-0.003
-657.916	185.503	0.067	-0.101
-656.901	32.978	0.086	0.076
-655.886	509.804	-0.086	-0.203
-654.872	800.000	0.025	0.099
-653.857	35.866	-0.225	0.201
-652.843	-107.189	0.268	0.060
-651.828	800.000	-0.025	-0.080
-650.814	-200.000	-0.023	0.122
-649.799	-200.000	-0.017	0.322
-648.784	-200.000	-0.028	0.331
-647.770	22.832	0.084	-0.070
-646.755	-128.940	0.321	0.046
-645.741	-200.000	-0.041	0.306
-644.726	199.405	0.148	0.231
-643.711	-155.984	0.423	-0.027
-642.697	98.023	-0.163	-0.191
-641.682	68.671	-0.205	0.214
-640.668	-160.739	0.240	0.013
-639.653	229.970	-0.216	-0.358
-638.638	-200.000	0.010	-0.169
-637.624	-200.000	-0.035	0.161
-636.609	-33.074	0.213	-0.120
-635.595	800.000	0.043	-0.147
-634.580	-200.000	0.027	-0.334
-633.565	-200.000	0.033	-0.254
-632.551	78.665	-0.086	-0.094
-631.536	239.670	0.222	-0.376
-630.522	-62.953	0.082	0.035
-629.507	293.223	0.132	-0.245
-628.492	-26.898	-0.163	0.097
-627.478	7.940	0.143	0.109
-626.463	-112.021	0.256	-0.052
-625.449	-67.252	-0.214	-0.086
-624.434	-85.518	0.484	0.153
-623.419	42.109	0.162	-0.149
-622.405	152.022	-0.184	0.255
-621.390	-6.694	-0.267	0.184
-620.376	707.467	-0.020	0.055
-619.361	-71.755	-0.437	-0.165
-618.346	-167.871	-0.272	0.011
-617.332	800.000	-0.059	0.190
-616.317	-74.454	-0.180	0.066
-615.303	299.462	-0.079	-0.149
-614.288	227.707	-0.116	0.192
-613.273	-200.000	0.021	0.159
-612.259	266.687	-0.194	-0.344
-611.244	134.970	-0.138	-0.182
-610.230	-116.237	-0.158	0.030
-609.215	-3.122	0.211	0.150
-608.201	-82.287	-0.054	-0.018
-607.186	-71.808	0.137	0.052
-606.171	800.000	-0.061	0.202
-605.157	-165.935	0.177	-0.008
-604.142	-200.000	-0.002	-0.216
-603.128	-200.000	0.008	-0.091
-602.113	-84.582	-0.148	0.047
-601.098	89.062	-0.099	0.111
-600.084	-113.681	0.250	-0.049
-599.069	800.000	-0.101	0.336
-598.055	272.365	0.147	0.264
-597.040	-145.528	0.165	0.015
-596.025	110.838	-0.244	0.298
-595.011	-155.258	-0.438	-0.029
-593.996	-91.826	0.104	-0.030
-592.982	161.226	-0.039	0.055
-591.967	114.734	-0.140	-0.173
-590.952	200.664	0.154	0.240
-589.938	587.424	0.090	0.225
-588.923	-200.000	0.051	-0.251
-587.909	-51.598	0.207	-0.098
-586.894	-96.505	0.159	0.043
-585.879	-176.445	0.078	-0.002
-584.865	-16.273	0.299	-0.192
-583.850	476.798	0.044	0.102
-582.836	-200.000	0.007	-0.170
-581.821	-53.515	-0.329	-0.153
-580.806	697.320	-0.108	0.289
-579.792	-45.469	-0.055	0.028
-578.777	-200.000	-0.025	0.245
-577.763	45.716	-0.256	-0.240
-576.748	-200.000	-0.014	0.085
-575.733	-117.105	0.183	-0.034
-574.719	-189.781	-0.247	0.003
-573.704	-143.006	-0.091	-0.009
-572.690	534.848	-0.140	0.337
-571.675	-183.585	0.049	-0.001
-570.661	793.524	-0.086	-0.239
-569.646	-200.000	-0.050	0.326
-568.631	33.840	0.036	0.032
-567.617	-200.000	-0.029	0.276
-566.602	-59.528	-0.151	0.066
-565.588	163.042	0.031	-0.045
-564.573	148.235	0.175	0.240
-563.558	-59.267	-0.212	0.093
-562.544	-60.284	0.324	-0.140
-561.529	-51.969	0.107	-0.050
-560.515	364.435	-0.126	-0.257
-559.500	-200.000	0.048	0.371
-558.485	-91.718	0.148	0.043
-557.471	-64.001	0.334	0.138
-556.456	441.906	0.174	0.386
-555.442	92.904	-0.172	-0.197
-554.427	-31.363	-0.133	0.076
-553.412	-200.000	-0.008	-0.243
-552.398	-93.258	0.163	-0.046
-551.383	-68.234	0.370	0.146
-550.369	800.000	-0.084	-0.292
-549.354	-107.977	0.425	-0.094
-548.339	-177.170	-0.323	-0.008
-547.325	176.834	-0.205	-0.301
-546.310	-200.000	0.031	0.326
-545.296	-125.039	-0.101	0.016
-544.281	-200.000	0.096	0.436
-543.266	800.000	0.102	-0.412
-542.252	291.577	0.145	0.268
-541.237	5.672	-0.185	0.138
-540.223	27.779	-0.121	0.103
-539.208	-200.000	0.006	-0.189
-538.193	-91.295	-0.229	-0.066
-537.179	-200.000	-0.005	0.108
-536.164	-200.000	-0.020	0.124
-535.150	185.399	-0.186	0.280
-534.135	109.736	-0.157	0.190
-533.121	-139.812	-0.327	0.035
-532.106	-120.325	-0.108	0.019
-531.091	-117.683	-0.295	-0.054
-530.077	-200.000	0.026	-0.373
-529.062	139.304	-0.199	0.265
-528.048	-19.187	0.088	-0.055
-527.033	104.653	-0.055	-0.066
-526.018	5.469	-0.134	0.100
-525.004	310.258	-0.121	-0.228
-523.989	92.914	0.184	-0.211
-522.975	800.000	-0.036	0.114
-521.960	-200.000	0.031	-0.287
-520.945	800.000	0.047	0.147
-519.931	-96.195	0.018	0.005
-518.916	-32.913	-0.285	0.160
-517.902	354.662	0.067	0.135
-516.887	89.595	0.175	0.197
-515.872	-36.514	-0.194	-0.105
-514.858	-200.000	-0.018	-0.118
-513.843	137.465	0.119	0.158
-512.829	29.661	0.116	0.100
-511.814	596.742	0.028	-0.070
-510.799	25.092	-0.234	-0.197
-509.785	17.494	-0.125	-0.100
-508.770	154.789	-0.173	-0.240
-507.756	800.000	-0.035	0.149
-506.741	-95.982	0.188	-0.051
-505.726	-15.798	0.285	-0.184
-504.712	-200.000	-0.038	-0.170
-503.697	35.894	-0.278	-0.247
-502.683	-200.000	0.010	-0.105
-501.668	-80.100	-0.204	0.069
-500.653	1.294	-0.062	-0.045
-499.639	-200.000	-0.051	-0.322
-498.624	-25.257	0.166	-0.099
-497.610	591.155	0.076	0.190
-496.595	-70.866	0.320	-0.122
-495.581	-121.682	0.336	-0.056
-494.566	-50.532	-0.130	0.062
-493.551	-120.975	0.344	0.058
-492.537	78.395	-0.082	0.088
-491.522	52.974	-0.078	-0.075
-490.508	-58.113	-0.126	0.056
-489.493	551.482	-0.110	0.268
-488.478	-200.000	-0.001	-0.040
-487.464	224.044	-0.063	-0.102
-486.449	800.000	-0.031	-0.101
-485.435	25.222	0.127	0.106
-484.420	-125.939	0.205	0.031
-483.405	20.359	-0.188	-0.153
-482.391	29.963	-0.271	-0.233
-481.376	-200.000	0.035	0.374
-480.362	61.501	0.265	0.266
-479.347	497.985	-0.063	0.146
-478.332	-120.235	0.220	0.038
-477.318	87.482	0.109	-0.121
-476.303	-1.384	0.040	-0.028
-475.289	800.000	0.107	-0.307
-474.274	-65.424	0.160	-0.065
-473.259	-148.810	0.151	0.012
-472.245	-200.000	0.045	-0.212
-471.230	-200.000	-0.003	-0.076
-470.216	-200.000	-0.005	0.043
-469.201	-131.144	-0.205	-0.028
-468.186	633.508	0.018	-0.045
-467.172	92.804	-0.245	-0.280
-466.157	370.709	-0.045	0.092
-465.143	-200.000	0.054	0.365
-464.128	106.311	0.151	0.180
-463.113	-56.724	-0.161	-0.072
-462.099	-113.685	0.362	0.071
-461.084	-200.000	0.008	-0.140
-460.070	-200.000	-0.009	0.099
-459.055	3.663	0.071	0.052
-458.040	-162.061	0.085	0.004
-457.026	597.621	0.116	0.290
-456.011	-200.000	-0.003	0.316
-454.997	-135.317	-0.249	-0.030
-453.982	-29.417	-0.194	0.112
-452.968	-45.233	0.199	-0.099
-451.953	-38.250	-0.208	0.111
-450.938	-78.038	-0.265	0.092
-449.924	-200.000	-0.011	-0.251
-448.909	-103.671	-0.193	0.046
-447.895	210.722	-0.263	-0.416
-446.880	-163.025	0.298	-0.015
-445.865	-200.000	0.002	0.036
-444.851	135.886	0.087	-0.114
-443.836	-200.000	0.004	0.150
-442.822	-110.362	-0.133	0.028
-441.807	-84.369	0.233	-0.074
-440.792	800.000	0.088	-0.342
-439.778	-200.000	0.027	0.261
-438.763	-137.546	-0.318	0.036
-437.749	49.539	0.080	-0.076
-436.734	273.201	-0.162	-0.288
-435.719	199.325	-0.316	0.488
-434.705	-200.000	-0.016	0.413
-433.690	-58.186	-0.225	0.099
-432.676	189.698	0.135	-0.204
-431.661	129.577	-0.069	0.089
-430.646	800.000	0.089	-0.393
-429.632	-168.502	0.123	-0.005
-428.617	-18.765	0.114	-0.071
-427.603	10.278	-0.302	0.232
-426.588	800.000	-0.000	-0.002
-425.573	-160.991	0.102	0.005
-424.559	-83.076	0.359	-0.116
-423.544	-106.693	0.122	0.027
-422.530	440.173	0.118	-0.260
-421.515	-166.537	-0.317	-0.013
-420.500	-176.571	0.082	0.002
-419.486	21.813	0.315	-0.259
-418.471	-171.198	-0.213	-0.007
-417.457	619.994	0.043	-0.110
-416.442	-14.185	-0.121	0.078
-415.428	127.786	-0.070	-0.090
-414.413	-72.864	-0.185	0.068
-413.398	-200.000	-0.026	0.220
-412.384	61.022	-0.160	-0.160
-411.369	-41.737	0.246	-0.127
-410.355	800.000	-0.077	-0.304
-409.340	800.000	0.054	-0.208
-408.325	469.129	0.073	0.164
-407.311	-109.986	0.316	0.067
-406.296	-37.205	0.230	0.124
-405.282	128.559	-0.158	0.203
-404.267	-194.874	0.377	-0.003
-403.252	-200.000	0.006	-0.053
-402.238	800.000	-0.088	0.287
-401.223	-14.482	0.228	-0.148
-400.209	-52.906	0.226	-0.105
-399.194	-18.322	0.087	0.055
-398.179	-95.447	0.114	0.031
-397.165	10.860	-0.080	0.061
-396.150	-200.000	-0.008	-0.074
-395.136	318.207	-0.194	-0.370
-394.121	-77.566	0.085	-0.030
-393.106	-75.133	0.168	-0.061
-392.092	233.331	0.185	0.306
-391.077	-132.371	0.220	-0.029
-390.063	-59.994	0.102	0.044
-389.048	-75.672	0.077	0.028
-388.033	-200.000	-0.006	0.154
-387.019	-84.788	0.257	-0.081
-386.004	-200.000	0.013	-0.174
-384.990	-200.000	-0.056	-0.254
-383.975	92.724	-0.038	0.044
-382.960	-22.559	0.253	0.154
-381.946	-200.000	0.033	-0.163
-380.931	362.844	-0.160	-0.323
-379.917	-83.632	-0.309	0.099
-378.902	57.085	0.128	-0.125
-377.888	800.000	-0.029	0.105
-376.873	-200.000	0.031	0.546
-375.858	74.562	-0.271	0.286
-374.844	487.104	-0.056	-0.128
-373.829	-200.000	-0.010	-0.236
-372.815	29.384	0.070	0.059
-371.800	105.739	-0.273	-0.325
-370.785	112.487	0.123	0.149
-369.771	-200.000	-0.019	0.156
-368.756	800.000	0.029	-0.085
-367.742	66.718	0.155	-0.158
-366.727	-145.262	0.103	-0.009
-365.712	-164.386	0.303	-0.014
-364.698	49.004	0.100	-0.094
-363.683	394.252	0.112	-0.235
-362.669	18.248	-0.214	-0.172
-361.654	690.236	0.036	0.095
-360.639	-94.852	-0.122	-0.033
-359.625	554.176	0.119	0.288
-358.610	148.635	-0.038	-0.051
-357.596	800.000	-0.080	0.270
-356.581	-32.758	0.042	-0.023
-355.566	-200.000	0.007	-0.273
-354.552	6.831	0.171	0.128
-353.537	800.000	-0.059	-0.213
-352.523	129.574	-0.196	-0.252
-351.508	172.686	-0.221	0.320
-350.493	-59.092	-0.409	-0.177
-349.479	406.156	-0.091	0.193
-348.464	-200.000	0.094	0.517
-347.450	-137.414	0.083	0.009
-346.435	21.849	-0.143	0.117
-345.420	-137.717	0.332	0.037
-344.406	-29.841	-0.291	0.167
-343.391	-82.899	-0.166	0.054
-342.377	206.915	-0.178	-0.278
-341.362	559.658	-0.082	-0.199
-340.348	800.000	-0.118	0.331
-339.333	88.096	-0.116	0.129
-338.318	587.957	-0.070	-0.174
-337.304	-28.530	0.254	0.147
-336.289	-116.781	-0.091	0.017
-335.275	-147.578	-0.144	0.012
-334.260	359.111	-0.159	-0.319
-333.245	204.064	0.234	-0.364
-332.231	9.041	0.140	-0.106
-331.216	422.260	0.039	-0.085
-330.202	-90.621	-0.106	-0.031
-329.187	-26.647	-0.109	0.064
-328.172	-68.600	-0.333	-0.129
-327.158	392.855	-0.045	-0.093
-326.143	-58.110	-0.091	-0.040
-325.129	-105.316	-0.253	-0.058
-324.114	203.609	-0.062	0.097
-323.099	264.066	0.098	-0.170
-322.085	-200.000	-0.010	-0.280
-321.070	-200.000	0.002	0.072
-320.056	-128.279	0.294	0.042
-319.041	-200.000	0.042	0.194
-318.026	10.095	0.073	0.056
-317.012	-160.287	0.253	0.014
-315.997	122.917	0.190	-0.239
-314.983	-200.000	0.063	0.281
-313.968	-200.000	0.031	-0.146
-312.953	-200.000	-0.014	-0.590
-311.939	-125.214	-0.039	-0.006
-310.924	13.054	-0.137	0.107
-309.910	55.802	-0.058	-0.057
-308.895	-69.129	-0.212	-0.082
-307.880	-25.423	-0.156	-0.092
-306.866	29.092	-0.164	-0.139
-305.851	-65.182	0.148	-0.060
-304.837	-109.542	-0.157	0.033
-303.822	-48.968	0.174	0.084
-302.807	-32.352	0.041	-0.023
-301.793	-200.000	-0.042	0.238
-300.778	229.891	0.082	-0.134
-299.764	325.720	0.120	-0.230
-298.749	-98.325	-0.052	-0.013
-297.735	638.429	-0.117	-0.299
-296.720	192.707	-0.063	-0.095
-295.705	-110.718	-0.222	0.046
-294.691	188.793	0.206	0.310
-293.676	-70.277	-0.239	0.091
-292.662	-200.000	0.000	0.410
-291.647	-200.000	0.037	-0.216
-290.632	316.323	0.091	-0.172
-289.618	-42.466	-0.261	0.134
-288.603	-78.452	0.162	0.056
-287.589	-158.889	-0.297	0.017
-286.574	101.958	0.083	-0.097
-285.559	219.509	0.208	-0.334
-284.545	72.188	-0.111	-0.116
-283.530	234.475	-0.083	0.137
-282.516	3.079	0.100	0.073
-281.501	-94.285	0.159	0.044
-280.486	7.702	-0.059	0.045
-279.472	-200.000	-0.013	0.071
-278.457	-200.000	-0.009	0.357
-277.443	54.851	0.216	0.209
-276.428	47.441	-0.108	-0.101
-275.413	2.320	-0.137	-0.099
-274.399	116.325	-0.076	-0.093
-273.384	800.000	0.031	-0.129
-272.370	43.772	0.202	-0.185
-271.355	125.555	0.286	-0.362
-270.340	28.119	-0.253	-0.214
-269.326	783.195	-0.178	-0.489
-268.311	800.000	0.099	0.289
-267.297	693.633	0.118	0.310
-266.282	59.227	-0.079	-0.078
-265.267	317.045	-0.039	-0.075
-264.253	-200.000	0.001	-0.259
-263.238	-56.661	0.379	0.168
-262.224	86.962	0.200	-0.222
-261.209	17.325	0.400	0.318
-260.195	-96.849	-0.121	-0.032
-259.180	163.179	-0.125	-0.176
-258.165	633.638	0.031	-0.078
-257.151	-200.000	-0.009	0.134
-256.136	384.572	0.145	-0.300
-255.122	-200.000	-0.067	-0.375
-254.107	-109.305	0.195	-0.041
-253.092	85.976	-0.108	0.119
-252.078	-0.255	-0.267	-0.190
-251.063	-200.000	0.004	-0.028
-250.049	25.449	0.118	-0.098
-249.034	800.000	-0.026	0.081
-248.019	388.080	-0.121	-0.251
-247.005	348.426	0.150	-0.296
-245.990	27.037	0.172	0.144
-244.976	66.519	-0.082	0.084
-243.961	-84.609	-0.137	0.043
-242.946	-36.080	0.523	-0.283
-241.932	34.458	0.100	-0.087
-240.917	297.811	-0.058	0.106
-239.903	420.895	0.083	-0.177
-238.888	-200.000	0.030	0.164
-237.873	800.000	-0.090	0.317
-236.859	-171.778	0.135	-0.004
-235.844	-102.566	0.161	-0.038
-234.830	28.300	-0.205	0.174
-233.815	-113.517	-0.189	0.037
-232.800	-153.425	0.130	-0.009
-231.786	-200.000	0.008	-0.124
-230.771	-200.000	0.011	0.164
-229.757	-24.218	-0.158	0.094
-228.742	-60.877	0.194	0.082
-227.727	-150.826	0.375	0.028
-226.713	-74.330	-0.071	0.026
-225.698	-134.604	-0.229	-0.028
-224.684	123.004	-0.122	-0.152
-223.669	68.924	-0.100	0.102
-222.655	-200.000	-0.006	0.260
-221.640	8.883	-0.207	0.156
-220.625	799.795	0.038	-0.105
-219.611	262.872	-0.265	-0.460
-218.596	274.113	0.131	-0.232
-217.582	800.000	0.020	0.067
-216.567	70.331	0.143	-0.147
-215.552	-154.363	-0.307	-0.021
-214.538	-166.180	-0.234	-0.010
-213.523	439.970	-0.095	0.208
-212.509	55.420	-0.173	0.167
-211.494	-38.420	-0.203	-0.107
-210.479	-161.429	0.127	0.007
-209.465	-133.467	0.248	0.031
-208.450	-64.319	0.130	0.053
-207.436	-200.000	-0.016	0.171
-206.421	-200.000	-0.025	0.187
-205.406	-200.000	0.040	-0.175
-204.392	-3.146	0.136	-0.095
-203.377	28.177	-0.141	-0.119
-202.363	589.370	-0.101	-0.249
-201.348	-45.561	0.058	-0.029
-200.333	-12.077	-0.153	0.100
-199.319	338.956	0.192	0.373
-198.304	401.294	-0.261	0.547
-197.290	84.574	0.184	0.201
-196.275	-43.503	0.267	-0.135
-195.260	-148.381	-0.128	-0.011
-194.246	-200.000	-0.022	-0.099
-193.231	-35.314	-0.114	0.062
-192.217	309.512	0.157	0.293
-191.202	-132.019	0.387	-0.050
-190.187	-108.462	-0.437	-0.094
-189.173	-126.883	0.300	-0.044
-188.158	800.000	0.076	-0.232
-187.144	356.964	0.186	0.371
-186.129	-4.922	-0.186	0.128
-185.114	465.562	-0.009	0.021
-184.100	-54.463	0.204	0.092
-183.085	-30.757	0.046	0.026
-182.071	-200.000	0.036	0.233
-181.056	-74.758	-0.220	-0.079
-180.042	54.155	0.084	-0.081
-179.027	800.000	-0.050	-0.214
-178.012	-28.743	-0.102	0.059
-176.998	203.389	-0.167	-0.258
-175.983	-130.157	0.130	-0.018
-174.969	136.059	0.043	0.056
-173.954	-25.151	-0.147	0.087
-172.939	-143.199	-0.186	0.018
-171.925	80.912	-0.052	0.056
-170.910	-200.000	-0.043	-0.360
-169.896	172.270	0.055	-0.079
-168.881	-200.000	-0.031	0.300
-167.866	-148.415	-0.214	-0.017
-166.852	-200.000	-0.063	0.473
-165.837	-102.670	0.360	-0.086
-164.823	-80.302	-0.059	-0.020
-163.808	-132.163	0.118	-0.015
-162.793	-200.000	0.024	0.196
-161.779	144.412	-0.145	-0.193
-160.764	-200.000	0.030	-0.378
-159.750	-130.177	-0.277	0.038
-158.735	153.723	0.206	0.282
-157.720	7.345	0.132	0.099
-156.706	-45.841	0.179	0.088
-155.691	-200.000	-0.005	0.185
-154.677	-200.000	0.050	0.376
-153.662	800.000	-0.078	0.270
-152.647	800.000	0.021	0.066
-151.633	524.214	0.068	0.160
-150.618	164.807	-0.109	0.154
-149.604	414.106	0.108	0.229
-148.589	800.000	0.077	0.273
-147.574	28.058	0.194	0.163
-146.560	-200.000	-0.014	0.141
-145.545	-54.594	0.396	-0.179
-144.531	-137.695	-0.351	-0.039
-143.516	220.196	-0.175	0.279
-142.502	457.339	-0.097	0.215
-141.487	-124.873	-0.140	0.022
-140.472	326.329	0.161	0.307
-139.458	-46.536	0.349	-0.170
-138.443	160.495	0.084	0.117
-137.429	-200.000	-0.020	-0.356
-136.414	-200.000	-0.057	0.310
-135.399	418.463	-0.027	0.058
-134.385	25.668	-0.156	-0.130
-133.370	-67.178	0.380	0.149
-132.356	-111.768	0.219	-0.044
-131.341	-87.641	-0.343	-0.103
-130.326	101.525	0.249	0.289
-129.312	328.569	0.077	-0.147
-128.297	-200.000	-0.026	-0.195
-127.283	-200.000	0.009	0.099
-126.268	800.000	0.087	0.297
-125.253	-182.014	0.164	-0.003
-124.239	-80.789	-0.030	0.010
-123.224	-87.212	0.210	0.064
-122.210	-34.054	-0.122	-0.067
