DTS Sentinel unit serial number:	SN413079Multiplexer serial number:	ORYXHardware model number:	OX4-SRSoftware version number:	ORYX F/W v4.00 Oryx Data Collector v3.7.2.0data status	okinstallation	princeton_trtdifferential loss correction	single-endedforward channel	channel 2reverse channel	N/Adate	2019/09/18time	16:59:35forward acquisition time	60.00reverse acquisition time	0.00gamma	496.2192k internal	0.2300k external	0.2300temperature offset calibration	1.0014default loss term (dB/km)	0.3790temperature slope calibration	1.0000multiplexer offset coefficient	1.0000multiplexer slope coefficient	1.0000fibre end	0.00T internal ref (°C)	40.06T ext. ref 1 (°C)	0.88T ext. ref 2 (°C)	34.74length (m)	temperature (°C)	Stokes	anti-Stokes-747.200	297.460	-0.012	-0.022
-746.185	-53.535	0.304	0.142
-745.171	-48.114	0.155	0.076
-744.156	68.865	0.135	0.142
-743.142	-41.695	0.098	-0.052
-742.127	800.000	-0.112	0.466
-741.112	-47.425	-0.074	-0.037
-740.098	-110.515	-0.463	0.098
-739.083	133.722	0.143	0.189
-738.069	259.541	-0.137	0.241
-737.054	-35.695	0.381	-0.211
-736.039	-200.000	-0.053	-0.332
-735.025	232.722	0.087	0.146
-734.010	185.804	-0.048	-0.073
-732.996	23.583	0.104	0.087
-731.981	107.641	-0.243	-0.295
-730.966	-40.170	0.112	-0.059
-729.952	-152.221	-0.189	0.014
-728.937	800.000	-0.101	-0.296
-727.923	19.191	-0.166	0.136
-726.908	-200.000	0.025	0.157
-725.894	-111.785	-0.398	0.082
-724.879	-69.893	-0.223	-0.087
-723.864	232.848	0.026	0.044
-722.850	-200.000	-0.022	-0.177
-721.835	145.982	0.200	-0.273
-720.821	-104.694	-0.203	-0.048
-719.806	-71.402	-0.110	-0.042
-718.791	-103.212	-0.363	-0.087
-717.777	-19.798	0.201	-0.127
-716.762	481.747	0.041	-0.094
-715.748	248.666	-0.191	-0.329
-714.733	-18.993	-0.178	0.113
-713.718	-200.000	0.022	-0.252
-712.704	-21.811	0.187	-0.116
-711.689	-125.874	0.454	-0.070
-710.675	800.000	0.086	-0.251
-709.660	-35.865	-0.281	0.155
-708.645	102.388	-0.117	-0.139
-707.631	74.585	0.092	-0.098
-706.616	19.393	0.009	0.008
-705.602	72.873	0.012	-0.013
-704.587	-200.000	-0.013	-0.403
-703.572	800.000	-0.046	-0.150
-702.558	133.764	-0.076	0.100
-701.543	800.000	-0.013	0.043
-700.529	-62.108	-0.099	0.042
-699.514	-114.113	0.092	0.018
-698.499	236.263	0.079	-0.133
-697.485	-200.000	0.008	-0.134
-696.470	-200.000	0.036	0.239
-695.456	8.606	-0.231	0.177
-694.441	-97.892	0.181	-0.048
-693.426	247.157	-0.035	-0.059
-692.412	-65.342	0.334	0.137
-691.397	247.977	0.035	0.060
-690.383	-34.469	0.084	-0.047
-689.368	-200.000	0.025	-0.177
-688.354	-200.000	-0.006	-0.032
-687.339	-145.319	0.149	0.014
-686.324	69.590	-0.200	-0.210
-685.310	99.909	-0.070	-0.083
-684.295	-72.641	0.248	-0.093
-683.281	47.668	-0.107	-0.101
-682.266	-200.000	0.001	0.058
-681.251	173.878	-0.251	0.369
-680.237	-200.000	-0.031	-0.243
-679.222	-32.001	0.094	0.054
-678.208	23.031	0.234	0.195
-677.193	57.277	-0.173	0.172
-676.178	-175.415	0.162	0.004
-675.164	-200.000	-0.032	-0.164
-674.149	-200.000	0.043	-0.194
-673.135	2.296	0.411	-0.303
-672.120	-200.000	0.002	-0.034
-671.105	580.529	0.068	-0.169
-670.091	-81.081	0.113	-0.038
-669.076	683.205	0.070	0.185
-668.062	35.422	0.102	-0.091
-667.047	571.540	-0.120	0.298
-666.032	31.129	0.117	0.102
-665.018	-91.685	-0.194	-0.056
-664.003	585.311	-0.022	-0.054
-662.989	-200.000	-0.028	-0.139
-661.974	-119.991	-0.242	0.042
-660.959	81.902	-0.266	-0.293
-659.945	-200.000	-0.010	-0.363
-658.930	-137.729	0.055	0.006
-657.916	-200.000	-0.023	0.135
-656.901	-200.000	-0.015	-0.396
-655.886	120.968	-0.273	-0.346
-654.872	621.794	0.119	-0.305
-653.857	64.566	0.143	-0.147
-652.843	443.301	0.075	-0.167
-651.828	-101.993	-0.109	0.027
-650.814	-66.359	-0.072	-0.029
-649.799	-200.000	0.008	0.131
-648.784	37.274	-0.136	0.122
-647.770	-44.329	0.137	0.070
-646.755	-200.000	0.017	-0.088
-645.741	800.000	-0.089	0.370
-644.726	-1.592	-0.141	0.101
-643.711	187.618	-0.074	-0.112
-642.697	26.296	-0.108	0.092
-641.682	-177.216	-0.560	0.014
-640.668	482.385	0.044	0.101
-639.653	-43.937	-0.260	-0.133
-638.638	198.692	-0.135	0.210
-637.624	-29.316	0.397	0.231
-636.609	171.044	0.209	-0.304
-635.595	75.869	-0.416	-0.447
-634.580	60.652	-0.152	-0.153
-633.565	800.000	0.070	-0.284
-632.551	170.752	-0.175	-0.255
-631.536	-170.506	-0.154	-0.005
-630.522	-19.664	0.227	0.143
-629.507	-80.846	-0.169	-0.057
-628.492	229.475	-0.175	0.290
-627.478	54.133	-0.126	-0.123
-626.463	-200.000	0.028	-0.213
-625.449	539.240	0.130	-0.314
-624.434	587.347	0.100	-0.251
-623.419	-69.086	0.164	0.064
-622.405	800.000	-0.082	-0.330
-621.390	800.000	0.054	-0.195
-620.376	62.584	0.125	0.127
-619.361	-200.000	0.012	0.210
-618.346	-200.000	-0.064	0.320
-617.332	-65.469	-0.065	0.026
-616.317	-200.000	0.008	-0.195
-615.303	-200.000	0.000	-0.008
-614.288	-147.728	-0.077	0.007
-613.273	-200.000	-0.018	0.104
-612.259	538.197	0.114	-0.276
-611.244	-49.731	0.258	0.125
-610.230	-200.000	0.013	-0.269
-609.215	20.991	-0.247	0.203
-608.201	-71.089	-0.114	-0.043
-607.186	175.921	-0.223	-0.328
-606.171	-93.019	-0.283	-0.080
-605.157	47.223	-0.051	0.048
-604.142	-148.038	0.336	-0.028
-603.128	153.420	-0.100	0.139
-602.113	-200.000	-0.008	0.054
-601.098	-165.192	-0.280	-0.013
-600.084	270.293	-0.164	-0.292
-599.069	-102.470	-0.241	0.059
-598.055	79.807	0.206	-0.224
-597.040	-200.000	0.009	-0.052
-596.025	-126.911	0.223	0.033
-595.011	-34.490	0.361	0.201
-593.996	109.627	-0.079	-0.096
-592.982	-200.000	0.023	-0.196
-591.967	137.798	-0.173	0.230
-590.952	413.990	0.127	-0.274
-589.938	800.000	0.101	-0.318
-588.923	-53.762	-0.306	0.142
-587.909	99.818	0.195	-0.229
-586.894	-112.668	0.429	0.087
-585.879	-70.335	-0.355	0.137
-584.865	-3.073	-0.261	0.184
-583.850	-112.783	0.301	0.061
-582.836	-200.000	-0.004	0.112
-581.821	89.106	-0.237	-0.267
-580.806	800.000	-0.013	0.056
-579.792	-70.897	-0.256	-0.098
-578.777	-200.000	0.030	-0.320
-577.763	-109.446	0.016	0.003
-576.748	800.000	-0.040	0.169
-575.733	-200.000	-0.012	0.141
-574.719	-57.856	0.348	0.154
-573.704	111.492	-0.150	0.184
-572.690	-101.579	0.088	-0.022
-571.675	297.598	-0.109	0.204
-570.661	222.719	0.111	0.181
-569.646	-95.303	-0.382	0.104
-568.631	-165.791	-0.351	0.015
-567.617	250.283	0.246	0.424
-566.602	-25.213	-0.149	-0.089
-565.588	-200.000	0.034	0.264
-564.573	-29.342	0.110	-0.064
-563.558	-43.371	-0.196	0.100
-562.544	72.692	0.140	-0.148
-561.529	800.000	0.085	-0.251
-560.515	-18.458	-0.030	-0.019
-559.500	-102.903	-0.216	-0.052
-558.485	-10.716	0.024	0.016
-557.471	-109.275	-0.133	0.029
-556.456	-32.492	0.173	-0.098
-555.442	-33.069	-0.071	-0.040
-554.427	-174.814	0.194	0.006
-553.412	-10.383	-0.088	-0.059
-552.398	146.806	-0.155	-0.211
-551.383	800.000	-0.065	0.226
-550.369	800.000	-0.056	-0.226
-549.354	-67.609	-0.181	-0.072
-548.339	-33.165	0.131	0.074
-547.325	-200.000	0.010	-0.231
-546.310	-200.000	-0.044	0.277
-545.296	135.473	0.170	0.223
-544.281	-117.383	-0.127	-0.023
-543.266	800.000	0.009	0.040
-542.252	-43.552	-0.317	-0.162
-541.237	100.489	-0.164	0.193
-540.223	-76.845	-0.260	0.092
-539.208	-3.559	-0.171	-0.120
-538.193	98.563	0.110	0.128
-537.179	-200.000	0.007	0.056
-536.164	57.252	0.052	0.051
-535.150	-200.000	-0.011	0.125
-534.135	-123.861	0.369	0.059
-533.121	26.381	-0.276	0.234
-532.106	799.776	0.079	-0.219
-531.091	-200.000	-0.018	0.300
-530.077	144.352	-0.081	-0.109
-529.062	379.645	-0.069	0.142
-528.048	-107.184	-0.105	0.023
-527.033	54.658	-0.062	-0.061
-526.018	-1.441	-0.240	0.171
-525.004	-200.000	-0.042	-0.333
-523.989	167.687	-0.056	0.081
-522.975	800.000	0.100	-0.340
-521.960	-158.769	0.347	0.020
-520.945	5.610	-0.079	-0.059
-519.931	-33.853	-0.203	0.113
-518.916	-200.000	0.036	-0.239
-517.902	241.086	-0.090	0.151
-516.887	149.586	0.147	0.201
-515.872	-101.957	-0.249	-0.061
-514.858	390.804	-0.092	0.192
-513.843	-200.000	-0.020	0.126
-512.829	800.000	-0.070	-0.298
-511.814	-136.924	-0.121	-0.014
-510.799	383.975	0.139	0.290
-509.785	302.406	-0.057	-0.107
-508.770	155.231	0.162	0.225
-507.756	64.143	0.217	-0.221
-506.741	-200.000	-0.008	-0.038
-505.726	-200.000	-0.042	0.193
-504.712	15.286	0.034	-0.027
-503.697	-100.997	-0.381	0.095
-502.683	-200.000	0.008	-0.111
-501.668	549.091	0.047	0.114
-500.653	-32.427	-0.430	-0.243
-499.639	-170.588	0.365	0.013
-498.624	-105.262	0.203	-0.047
-497.610	-41.078	0.156	0.082
-496.595	-54.461	-0.318	0.146
-495.581	-109.386	0.062	0.013
-494.566	357.034	0.088	-0.178
-493.551	520.714	0.133	0.315
-492.537	-129.282	0.080	-0.011
-491.522	-55.062	0.485	-0.221
-490.508	800.000	-0.041	-0.140
-489.493	107.953	0.149	-0.179
-488.478	630.705	0.063	-0.160
-487.464	-121.671	0.244	-0.041
-486.449	163.519	-0.051	0.072
-485.435	800.000	0.062	-0.236
-484.420	544.986	0.039	-0.094
-483.405	-110.579	0.091	-0.019
-482.391	800.000	-0.062	-0.189
-481.376	-115.915	-0.187	0.035
-480.362	-167.674	0.063	0.003
-479.347	-200.000	-0.002	0.223
-478.332	-83.904	-0.256	0.082
-477.318	340.724	0.132	-0.260
-476.303	85.482	0.206	0.229
-475.289	800.000	0.025	-0.109
-474.274	-19.492	-0.225	-0.140
-473.259	770.336	0.087	0.240
-472.245	-41.099	-0.119	0.062
-471.230	-71.348	-0.281	0.106
-470.216	723.060	-0.031	-0.083
-469.201	-1.432	0.055	-0.039
-468.186	217.125	0.156	0.252
-467.172	-13.062	-0.064	-0.042
-466.157	118.703	-0.124	-0.154
-465.143	341.754	-0.081	-0.160
-464.128	-200.000	0.011	-0.209
-463.113	800.000	0.010	0.031
-462.099	11.760	0.095	-0.074
-461.084	18.156	-0.181	-0.145
-460.070	-91.545	0.373	0.107
-459.055	151.880	0.247	-0.340
-458.040	-24.482	-0.196	-0.118
-457.026	-23.417	-0.106	-0.064
-456.011	317.532	0.144	0.275
-454.997	800.000	0.065	0.202
-453.982	-200.000	-0.041	0.235
-452.968	-13.534	0.111	0.072
-451.953	-32.811	0.070	-0.039
-450.938	-1.798	-0.135	-0.096
-449.924	1.837	-0.156	-0.113
-448.909	283.418	0.127	-0.231
-447.895	43.161	0.355	-0.327
-446.880	800.000	-0.072	-0.238
-445.865	-112.144	0.211	-0.043
-444.851	800.000	-0.023	-0.086
-443.836	-200.000	0.018	-0.322
-442.822	-137.819	0.131	0.015
-441.807	-107.361	-0.184	0.041
-440.792	-200.000	0.024	-0.201
-439.778	-31.497	0.477	0.270
-438.763	90.930	0.159	0.180
-437.749	60.983	0.188	0.188
-436.734	-182.436	-0.141	-0.003
-435.719	-173.355	-0.170	0.005
-434.705	800.000	-0.106	-0.403
-433.690	800.000	0.124	-0.466
-432.676	227.731	-0.085	0.139
-431.661	-73.900	-0.124	-0.045
-430.646	-130.764	-0.189	0.026
-429.632	78.159	0.203	-0.219
-428.617	-128.161	-0.234	-0.034
-427.603	25.386	0.085	-0.071
-426.588	-6.949	0.255	-0.174
-425.573	-200.000	-0.008	0.230
-424.559	-152.971	-0.049	0.003
-423.544	24.755	-0.172	-0.143
-422.530	319.813	0.108	0.206
-421.515	-49.106	0.127	-0.061
-420.500	73.169	0.167	-0.176
-419.486	-61.846	0.126	0.053
-418.471	491.308	-0.152	0.350
-417.457	174.686	-0.092	-0.134
-416.442	-10.739	0.105	0.070
-415.428	13.643	0.417	-0.326
-414.413	121.083	-0.117	-0.146
-413.398	-200.000	0.023	-0.164
-412.384	163.013	-0.090	-0.127
-411.369	253.136	0.053	0.091
-410.355	800.000	0.047	0.184
-409.340	29.238	-0.036	0.031
-408.325	-58.251	0.203	0.089
-407.311	-27.950	0.230	0.134
-406.296	-10.113	0.253	0.169
-405.282	-3.504	0.246	-0.172
-404.267	-139.586	-0.210	0.023
-403.252	-101.114	-0.349	0.086
-402.238	324.116	-0.072	-0.138
-401.223	-9.226	-0.158	0.107
-400.209	230.398	0.093	-0.153
-399.194	201.388	0.022	-0.034
-398.179	-122.707	-0.272	0.044
-397.165	226.014	-0.072	-0.117
-396.150	800.000	-0.066	-0.224
-395.136	-0.697	0.194	-0.138
-394.121	-200.000	-0.020	-0.094
-393.106	7.044	-0.106	0.080
-392.092	-47.825	-0.316	0.154
-391.077	-195.241	0.277	0.002
-390.063	-93.678	-0.095	0.026
-389.048	-80.301	0.345	-0.116
-388.033	-105.419	0.079	0.018
-387.019	463.096	-0.062	0.139
-386.004	800.000	0.044	0.136
-384.990	-200.000	-0.041	0.483
-383.975	-63.023	-0.057	-0.024
-382.960	53.154	-0.235	-0.226
-381.946	-124.887	0.688	-0.107
-380.931	16.982	-0.115	0.091
-379.917	-15.416	-0.250	0.161
-378.902	-200.000	0.023	0.432
-377.888	-200.000	0.082	0.365
-376.873	205.646	-0.030	0.047
-375.858	65.511	0.191	-0.194
-374.844	-116.255	-0.399	0.074
-373.829	127.029	-0.185	0.235
-372.815	757.131	-0.012	0.033
-371.800	-32.589	-0.142	-0.080
-370.785	125.563	-0.108	0.137
-369.771	169.365	-0.059	0.084
-368.756	-200.000	0.013	-0.100
-367.742	-200.000	-0.007	0.038
-366.727	-34.908	-0.099	0.054
-365.712	-200.000	-0.010	0.125
-364.698	189.209	0.033	-0.050
-363.683	32.038	-0.196	-0.170
-362.669	59.139	-0.100	-0.099
-361.654	-200.000	0.041	-0.289
-360.639	21.811	0.172	0.141
-359.625	283.166	-0.078	0.141
-358.610	-137.255	0.168	0.019
-357.596	-200.000	0.049	0.345
-356.581	2.237	-0.101	0.073
-355.566	24.106	-0.174	0.144
-354.552	-28.508	0.174	-0.101
-353.537	130.389	-0.109	-0.141
-352.523	371.010	0.153	0.312
-351.508	-43.576	0.244	-0.124
-350.493	-112.682	-0.436	0.087
-349.479	-13.494	0.100	-0.065
-348.464	800.000	0.046	-0.187
-347.450	-73.033	-0.142	-0.052
-346.435	18.438	0.158	0.127
-345.420	-57.676	0.287	-0.126
-344.406	759.018	0.048	-0.131
-343.391	-115.881	0.251	0.047
-342.377	86.409	-0.204	-0.225
-341.362	31.144	0.118	0.102
-340.348	800.000	-0.011	0.040
-339.333	451.981	0.075	0.167
-338.318	177.772	0.089	-0.130
-337.304	-37.061	0.104	0.056
-336.289	-13.881	0.136	-0.088
-335.275	448.861	-0.159	-0.351
-334.260	153.352	0.069	-0.094
-333.245	76.008	0.199	-0.211
-332.231	800.000	0.082	-0.273
-331.216	5.624	-0.105	0.078
-330.202	800.000	0.071	0.270
-329.187	-75.851	0.303	-0.108
-328.172	-200.000	-0.037	-0.289
-327.158	-94.807	-0.172	0.047
-326.143	313.504	0.090	-0.170
-325.129	800.000	0.114	0.373
-324.114	67.064	0.088	0.089
-323.099	112.718	0.089	0.108
-322.085	241.336	0.150	-0.251
-321.070	296.863	-0.101	0.186
-320.056	-61.460	0.124	-0.052
-319.041	88.150	-0.109	0.121
-318.026	18.481	0.186	-0.149
-317.012	-26.149	-0.056	-0.033
-315.997	219.612	0.137	0.220
-314.983	-132.406	-0.039	-0.005
-313.968	-80.322	-0.012	-0.004
-312.953	-200.000	0.029	-0.323
-311.939	215.915	0.069	0.110
-310.924	-200.000	-0.017	0.374
-309.910	181.133	0.183	0.270
-308.895	-38.536	-0.077	-0.041
-307.880	-200.000	0.040	-0.185
-306.866	253.882	-0.113	-0.194
-305.851	71.228	-0.107	0.111
-304.837	-15.049	-0.167	0.107
-303.822	-200.000	-0.022	-0.150
-302.807	-129.299	0.200	0.028
-301.793	-200.000	-0.005	-0.079
-300.778	-149.904	-0.302	-0.024
-299.764	88.220	0.088	-0.098
-298.749	-63.616	0.160	0.066
-297.735	-61.238	-0.087	-0.037
-296.720	-92.354	-0.088	0.025
-295.705	196.710	0.102	0.156
-294.691	800.000	0.016	-0.063
-293.676	181.249	-0.190	0.279
-292.662	-106.279	0.217	-0.049
-291.647	-200.000	-0.080	0.435
-290.632	-200.000	-0.011	0.159
-289.618	784.305	-0.044	0.122
-288.603	-160.934	0.078	-0.004
-287.589	27.226	0.117	0.098
-286.574	-3.220	0.180	0.126
-285.559	-54.370	-0.020	0.009
-284.545	-200.000	-0.006	0.158
-283.530	203.318	-0.041	-0.063
-282.516	40.973	-0.194	-0.175
-281.501	-106.747	0.076	0.017
-280.486	-200.000	-0.001	0.076
-279.472	-127.713	0.111	0.016
-278.457	14.077	-0.158	-0.123
-277.443	800.000	0.061	0.170
-276.428	-60.923	0.206	0.087
-275.413	-54.496	0.088	-0.040
-274.399	768.882	-0.109	0.296
-273.384	-83.385	-0.370	-0.119
-272.370	56.684	0.226	0.220
-271.355	82.717	-0.207	0.225
-270.340	800.000	0.036	0.133
-269.326	-200.000	-0.028	-0.301
-268.311	-200.000	0.031	-0.327
-267.297	-77.055	0.331	-0.116
-266.282	-150.390	0.213	-0.016
-265.267	-57.423	0.172	0.076
-264.253	-200.000	0.011	0.156
-263.238	-38.211	0.073	-0.039
-262.224	17.807	-0.259	-0.206
-261.209	-84.463	0.082	0.026
-260.195	-89.932	0.059	-0.017
-259.180	-52.789	0.116	0.054
-258.165	-39.838	0.226	-0.118
-257.151	319.049	0.149	0.283
-256.136	-38.668	-0.132	0.070
-255.122	60.834	-0.145	-0.144
-254.107	-55.940	-0.298	0.133
-253.092	93.111	-0.276	0.312
-252.078	-166.781	0.364	0.015
-251.063	-140.627	-0.381	0.039
-250.049	-161.579	0.122	0.006
-249.034	273.023	0.091	-0.161
-248.019	57.101	-0.321	-0.313
-247.005	61.893	0.134	-0.133
-245.990	4.595	-0.114	-0.084
-244.976	-165.938	0.277	-0.012
-243.961	505.436	-0.053	0.122
-242.946	-93.739	-0.173	0.048
-241.932	-52.760	0.147	0.068
-240.917	113.181	-0.099	0.121
-239.903	-38.120	0.050	-0.027
-238.888	200.500	0.026	0.040
-237.873	800.000	-0.042	0.169
-236.859	800.000	-0.035	-0.120
-235.844	13.164	0.073	0.057
-234.830	-137.138	-0.271	0.031
-233.815	-144.569	-0.239	-0.022
-232.800	257.152	0.067	-0.116
-231.786	-32.695	0.197	0.110
-230.771	4.396	0.137	-0.100
-229.757	115.732	0.234	-0.286
-228.742	440.835	0.030	-0.065
-227.727	-200.000	-0.011	0.255
-226.713	-180.177	-0.204	-0.004
-225.698	800.000	-0.084	-0.330
-224.684	-200.000	0.018	0.249
-223.669	-159.517	-0.245	-0.014
-222.655	217.694	-0.007	0.011
-221.640	800.000	-0.082	-0.289
-220.625	-200.000	0.004	-0.252
-219.611	41.814	0.261	-0.236
-218.596	-50.349	-0.389	0.184
-217.582	-20.596	-0.113	-0.069
-216.567	50.103	-0.106	-0.100
-215.552	-165.333	-0.383	0.017
-214.538	490.161	0.032	0.073
-213.523	114.694	0.260	0.317
-212.509	185.189	-0.183	0.271
-211.494	-170.081	-0.106	0.004
-210.479	-51.681	0.181	0.084
-209.465	-81.206	0.259	0.086
-208.450	-87.193	-0.117	-0.036
-207.436	-200.000	0.006	-0.148
-206.421	800.000	-0.092	0.334
-205.406	444.676	-0.120	-0.262
-204.392	800.000	-0.030	0.114
-203.377	201.605	-0.198	-0.305
-202.363	54.421	0.293	-0.281
-201.348	800.000	0.032	0.132
-200.333	-51.959	0.184	0.085
-199.319	-200.000	0.032	-0.217
-198.304	-31.844	0.090	-0.050
-197.290	-136.195	-0.188	-0.022
-196.275	-77.033	0.054	0.019
-195.260	-200.000	-0.008	-0.392
-194.246	800.000	-0.110	-0.445
-193.231	678.392	-0.057	0.148
-192.217	-31.230	-0.190	0.107
-191.202	-200.000	0.070	0.309
-190.187	-97.706	-0.301	-0.078
-189.173	800.000	-0.052	-0.171
-188.158	800.000	0.060	-0.181
-187.144	153.944	-0.126	0.173
-186.129	-48.722	-0.145	-0.069
-185.114	-130.562	-0.153	0.021
-184.100	146.005	0.097	0.130
-183.085	-82.780	-0.029	0.009
-182.071	266.637	0.113	0.197
-181.056	4.740	0.196	0.144
-180.042	-86.173	0.312	0.096
-179.027	-2.552	-0.436	0.305
-178.012	-71.759	0.247	0.092
-176.998	-26.834	0.104	0.061
-175.983	-200.000	-0.018	0.157
-174.969	-49.377	0.417	0.198
-173.954	-100.321	0.244	-0.061
-172.939	33.212	0.121	-0.105
-171.925	641.045	0.151	0.384
-170.910	-200.000	-0.063	-0.306
-169.896	800.000	0.080	-0.223
-168.881	88.403	-0.208	0.230
-167.866	213.027	-0.017	-0.027
-166.852	-122.665	0.189	0.030
-165.837	304.285	0.085	0.157
-164.823	517.129	0.080	-0.187
-163.808	-12.711	-0.115	-0.075
-162.793	-79.139	0.335	0.113
-161.779	10.971	0.054	-0.041
-160.764	-72.123	0.211	0.078
-159.750	-43.228	-0.150	-0.076
-158.735	-1.053	-0.079	-0.056
-157.720	368.489	-0.287	0.578
-156.706	-200.000	0.004	0.146
-155.691	305.126	0.054	0.099
-154.677	128.429	0.068	0.086
-153.662	-136.285	0.093	-0.011
-152.647	-40.921	0.081	0.042
-151.633	67.094	0.104	-0.106
-150.618	-82.185	0.273	-0.089
-149.604	440.976	-0.097	-0.211
-148.589	216.350	0.145	-0.230
-147.574	-200.000	-0.054	0.376
-146.560	38.496	0.172	0.153
-145.545	-67.439	-0.174	-0.068
-144.531	345.501	0.136	-0.266
-143.516	302.125	-0.094	-0.173
-142.502	-81.475	-0.112	-0.037
-141.487	-0.098	-0.116	0.082
-140.472	454.906	0.158	-0.350
-139.458	96.452	0.212	-0.242
-138.443	-74.561	0.150	0.054
-137.429	412.669	0.179	0.380
-136.414	800.000	0.045	-0.151
-135.399	800.000	-0.033	0.128
-134.385	-118.346	-0.279	0.049
-133.370	-53.345	-0.236	-0.108
-132.356	196.112	-0.040	-0.060
-131.341	-200.000	0.348	0.001
-130.326	47.930	-0.121	0.113
-129.312	241.580	-0.205	0.341
-128.297	-63.345	0.192	-0.079
-127.283	-138.936	-0.215	0.023
-126.268	-200.000	-0.015	0.145
-125.253	51.969	-0.213	-0.202
-124.239	-26.897	0.347	0.202
-123.224	-56.691	-0.176	0.078
-122.210	0.287	0.174	-0.124
-121.195	132.553	0.059	0.075
