DTS Sentinel unit serial number:	SN413079Multiplexer serial number:	ORYXHardware model number:	OX4-SRSoftware version number:	ORYX F/W v4.00 Oryx Data Collector v3.7.2.0data status	okinstallation	princeton_trtdifferential loss correction	single-endedforward channel	channel 2reverse channel	N/Adate	2019/09/13time	03:15:35forward acquisition time	60.00reverse acquisition time	0.00gamma	496.2192k internal	0.2334k external	0.2334temperature offset calibration	1.0193default loss term (dB/km)	0.3790temperature slope calibration	1.0000multiplexer offset coefficient	1.0000multiplexer slope coefficient	1.0000fibre end	0.00T internal ref (°C)	27.37T ext. ref 1 (°C)	4.09T ext. ref 2 (°C)	22.14length (m)	temperature (°C)	Stokes	anti-Stokes-747.200	800.000	-0.045	-0.146
-746.185	31.907	0.071	0.062
-745.171	800.000	0.119	0.485
-744.156	48.043	-0.227	0.213
-743.142	124.857	0.228	-0.288
-742.127	-200.000	0.023	0.355
-741.112	-111.213	-0.069	-0.014
-740.098	93.406	-0.319	0.363
-739.083	-86.561	-0.131	0.040
-738.069	55.371	-0.158	-0.153
-737.054	-121.042	0.143	0.024
-736.039	175.405	0.240	0.350
-735.025	-81.149	0.340	0.113
-734.010	308.616	-0.228	0.428
-732.996	-200.000	-0.007	-0.197
-731.981	-144.601	-0.322	-0.030
-730.966	-13.147	0.195	0.127
-729.952	-6.288	0.285	-0.195
-728.937	-48.833	-0.139	-0.067
-727.923	-200.000	-0.231	-0.001
-726.908	-144.268	-0.181	0.017
-725.894	459.548	-0.007	0.016
-724.879	-80.535	0.377	0.126
-723.864	800.000	-0.077	0.263
-722.850	-92.851	0.188	0.053
-721.835	401.578	0.138	0.292
-720.821	54.877	-0.217	-0.210
-719.806	195.432	0.075	0.115
-718.791	8.638	0.298	-0.226
-717.777	-200.000	0.025	0.224
-716.762	-200.000	-0.044	0.198
-715.748	-15.930	-0.135	-0.087
-714.733	-85.413	-0.331	0.104
-713.718	-69.972	-0.345	0.132
-712.704	56.267	-0.161	-0.157
-711.689	28.934	0.299	-0.254
-710.675	266.860	0.024	-0.043
-709.660	-200.000	-0.018	0.220
-708.645	-58.336	0.287	0.125
-707.631	391.674	-0.113	0.235
-706.616	68.092	0.203	-0.209
-705.602	-71.155	0.155	0.058
-704.587	-53.970	-0.230	-0.105
-703.572	-61.656	0.031	0.013
-702.558	-60.754	0.184	0.078
-701.543	800.000	-0.109	-0.304
-700.529	163.454	-0.172	0.243
-699.514	-105.955	0.068	-0.015
-698.499	-64.338	-0.162	-0.066
-697.485	-168.374	0.233	0.009
-696.470	800.000	-0.039	-0.124
-695.456	-200.000	0.036	0.201
-694.441	506.577	-0.053	-0.124
-693.426	318.563	-0.129	-0.244
-692.412	147.521	0.127	-0.172
-691.397	-159.705	-0.234	-0.013
-690.383	58.751	0.072	0.071
-689.368	-155.363	-0.156	0.010
-688.354	800.000	-0.048	-0.143
-687.339	136.087	0.090	0.118
-686.324	6.085	0.213	-0.158
-685.310	-19.954	0.070	-0.043
-684.295	-87.148	-0.149	-0.045
-683.281	-126.028	0.062	0.009
-682.266	-130.487	0.368	0.050
-681.251	-111.064	-0.070	0.014
-680.237	-91.404	0.158	0.045
-679.222	-103.002	0.091	-0.022
-678.208	44.754	0.141	0.130
-677.193	-200.000	-0.044	0.217
-676.178	-21.441	-0.391	0.239
-675.164	16.283	-0.193	0.153
-674.149	-77.451	0.154	0.054
-673.135	43.117	-0.088	0.080
-672.120	-200.000	-0.015	0.145
-671.105	-124.058	0.123	0.019
-670.091	-123.593	-0.164	-0.026
-669.076	-26.342	0.018	0.010
-668.062	800.000	0.050	-0.146
-667.047	125.971	-0.083	-0.105
-666.032	-41.593	0.173	-0.089
-665.018	359.584	0.100	-0.201
-664.003	350.397	-0.053	0.106
-662.989	-29.934	0.311	-0.177
-661.974	-8.270	0.093	-0.063
-660.959	20.853	-0.063	-0.052
-659.945	43.095	-0.371	-0.339
-658.930	-200.000	0.016	-0.090
-657.916	-200.000	0.069	-0.311
-656.901	218.771	-0.104	-0.166
-655.886	-200.000	-0.034	0.334
-654.872	-154.356	-0.109	-0.007
-653.857	-55.550	-0.133	-0.060
-652.843	-200.000	0.021	0.193
-651.828	-26.075	-0.057	-0.033
-650.814	98.130	-0.071	0.082
-649.799	304.629	0.111	0.206
-648.784	-112.482	0.215	-0.043
-647.770	-200.000	0.093	-0.417
-646.755	107.867	0.239	-0.285
-645.741	-188.450	-0.186	-0.002
-644.726	-100.034	0.188	-0.047
-643.711	800.000	-0.009	0.031
-642.697	-93.413	-0.229	-0.063
-641.682	-84.858	0.163	-0.051
-640.668	140.476	-0.158	0.208
-639.653	371.173	0.146	-0.296
-638.638	-200.000	0.012	0.077
-637.624	18.929	-0.121	-0.097
-636.609	-200.000	-0.018	0.225
-635.595	-16.162	-0.190	-0.121
-634.580	517.690	-0.067	-0.157
-633.565	800.000	0.081	-0.260
-632.551	-92.858	-0.254	0.071
-631.536	-128.443	0.300	0.043
-630.522	-134.424	-0.207	0.025
-629.507	-162.349	-0.370	0.018
-628.492	-41.691	-0.252	-0.130
-627.478	-17.563	0.066	0.041
-626.463	550.734	0.066	-0.158
-625.449	-74.673	-0.259	-0.093
-624.434	344.060	-0.080	-0.157
-623.419	24.391	-0.177	-0.147
-622.405	-200.000	-0.038	0.232
-621.390	-200.000	0.005	0.022
-620.376	-200.000	0.049	-0.422
-619.361	134.304	0.067	0.087
-618.346	-83.126	0.191	-0.061
-617.332	92.047	0.167	0.188
-616.317	19.621	0.168	0.135
-615.303	708.746	0.041	-0.107
-614.288	-113.863	-0.157	-0.030
-613.273	-112.395	-0.111	-0.022
-612.259	80.546	0.072	-0.078
-611.244	246.098	-0.052	-0.088
-610.230	-200.000	0.006	-0.090
-609.215	19.641	-0.401	0.322
-608.201	106.296	-0.094	0.112
-607.186	800.000	-0.021	-0.088
-606.171	607.881	-0.102	0.255
-605.157	-200.000	-0.028	0.431
-604.142	98.447	-0.118	0.136
-603.128	-160.547	0.113	-0.006
-602.113	-200.000	0.043	0.193
-601.098	161.275	0.141	-0.197
-600.084	-81.057	-0.107	-0.036
-599.069	800.000	0.111	0.387
-598.055	122.327	0.173	-0.216
-597.040	-200.000	-0.003	0.038
-596.025	-49.019	-0.151	-0.072
-595.011	306.613	0.167	-0.310
-593.996	491.027	0.099	0.227
-592.982	-200.000	-0.057	0.255
-591.967	343.773	0.062	0.121
-590.952	-112.038	0.150	0.030
-589.938	-73.826	0.177	0.064
-588.923	-120.011	-0.258	0.044
-587.909	-98.747	0.254	-0.065
-586.894	-112.341	-0.207	-0.041
-585.879	-81.343	-0.215	0.071
-584.865	206.267	-0.145	-0.225
-583.850	26.933	0.124	0.103
-582.836	75.252	0.082	-0.086
-581.821	9.786	-0.304	-0.231
-580.806	-70.106	0.238	0.091
-579.792	-200.000	0.023	-0.270
-578.777	-75.479	-0.530	0.188
-577.763	-57.138	0.235	0.104
-576.748	-180.553	0.329	-0.007
-575.733	15.502	0.118	0.092
-574.719	82.681	0.110	0.119
-573.704	-200.000	0.024	-0.288
-572.690	-200.000	-0.061	0.269
-571.675	-44.244	0.148	-0.074
-570.661	-111.065	0.237	-0.048
-569.646	-149.741	0.349	0.027
-568.631	-31.151	0.209	0.118
-567.617	-131.679	-0.217	0.028
-566.602	-47.573	-0.131	-0.064
-565.588	800.000	-0.055	-0.183
-564.573	-200.000	0.045	-0.216
-563.558	-146.917	-0.383	-0.033
-562.544	52.814	-0.166	0.158
-561.529	44.838	0.170	0.156
-560.515	-97.726	0.318	0.082
-559.500	-54.975	-0.173	-0.078
-558.485	-200.000	0.011	-0.319
-557.471	17.136	-0.103	0.082
-556.456	21.573	0.133	0.108
-555.442	-168.925	-0.331	-0.012
-554.427	-32.150	-0.375	-0.209
-553.412	5.738	-0.253	0.187
-552.398	156.505	0.104	-0.144
-551.383	-200.000	-0.015	0.078
-550.369	250.747	-0.072	-0.122
-549.354	-150.097	-0.194	0.015
-548.339	800.000	-0.094	0.299
-547.325	59.329	0.147	0.144
-546.310	-147.550	0.287	-0.024
-545.296	-200.000	-0.015	-0.130
-544.281	-200.000	0.000	0.100
-543.266	173.911	-0.147	-0.212
-542.252	800.000	-0.040	-0.128
-541.237	-134.808	0.247	-0.030
-540.223	-115.494	-0.135	-0.025
-539.208	-165.371	0.161	-0.007
-538.193	800.000	-0.067	-0.262
-537.179	800.000	0.082	0.266
-536.164	583.416	0.043	0.105
-535.150	35.638	0.168	-0.147
-534.135	61.001	-0.309	0.306
-533.121	-94.185	-0.276	0.075
-532.106	-109.988	0.158	-0.033
-531.091	-36.812	-0.231	0.123
-530.077	800.000	-0.026	-0.080
-529.062	-30.826	-0.289	-0.163
-528.048	-135.096	-0.267	0.032
-527.033	16.364	0.175	0.138
-526.018	494.146	-0.112	-0.256
-525.004	-22.190	-0.227	0.137
-523.989	-116.423	0.231	-0.043
-522.975	109.093	0.137	-0.163
-521.960	-200.000	0.022	-0.148
-520.945	-74.236	-0.144	-0.052
-519.931	-58.168	-0.304	-0.132
-518.916	330.112	0.076	-0.146
-517.902	-151.433	-0.351	0.026
-516.887	-130.591	0.343	-0.046
-515.872	37.516	-0.160	0.141
-514.858	800.000	-0.152	-0.421
-513.843	-200.000	0.026	-0.126
-512.829	228.221	0.100	-0.162
-511.814	800.000	-0.020	-0.062
-510.799	74.402	-0.281	0.294
-509.785	-200.000	0.004	0.039
-508.770	362.113	0.170	-0.339
-507.756	-146.904	-0.541	-0.046
-506.741	128.410	0.104	-0.132
-505.726	-168.918	-0.609	0.023
-504.712	-58.515	-0.042	-0.018
-503.697	-200.000	0.021	0.198
-502.683	35.178	-0.057	0.049
-501.668	-110.849	0.070	0.014
-500.653	-200.000	-0.040	0.177
-499.639	800.000	-0.077	-0.225
-498.624	-200.000	0.032	0.250
-497.610	168.695	-0.105	-0.149
-496.595	696.386	-0.093	0.242
-495.581	-200.000	-0.007	-0.242
-494.566	-200.000	0.037	0.179
-493.551	89.972	0.244	0.271
-492.537	12.428	0.362	-0.278
-491.522	-22.977	-0.104	-0.063
-490.508	96.655	-0.244	0.278
-489.493	-105.560	0.248	0.056
-488.478	-200.000	0.057	-0.336
-487.464	-200.000	-0.008	0.123
-486.449	244.003	0.101	-0.168
-485.435	-17.252	-0.123	0.077
-484.420	-86.027	-0.201	0.062
-483.405	47.179	0.190	-0.176
-482.391	-74.244	-0.085	-0.031
-481.376	-200.000	-0.030	-0.136
-480.362	-200.000	-0.049	0.301
-479.347	-82.729	0.354	0.114
-478.332	46.513	-0.097	-0.090
-477.318	-137.862	-0.092	-0.010
-476.303	-200.000	0.013	-0.468
-475.289	-167.894	0.460	0.018
-474.274	-200.000	0.043	0.262
-473.259	-43.893	0.280	-0.140
-472.245	-99.723	0.234	-0.058
-471.230	10.286	-0.141	-0.107
-470.216	-43.813	-0.242	0.121
-469.201	19.668	0.165	-0.132
-468.186	20.131	0.102	-0.081
-467.172	384.768	-0.189	-0.387
-466.157	61.480	-0.087	-0.086
-465.143	44.516	0.161	0.147
-464.128	-99.324	0.098	-0.025
-463.113	-196.497	-0.325	-0.002
-462.099	-88.495	-0.190	-0.056
-461.084	-200.000	0.038	-0.214
-460.070	-61.071	-0.259	0.109
-459.055	244.864	-0.130	-0.216
-458.040	-99.011	0.186	-0.047
-457.026	-108.249	-0.244	-0.052
-456.011	398.853	-0.111	-0.230
-454.997	83.283	-0.374	-0.405
-453.982	-131.401	-0.203	-0.027
-452.968	-200.000	0.011	-0.077
-451.953	729.355	0.178	0.472
-450.938	-128.648	0.450	-0.063
-449.924	-200.000	0.056	0.313
-448.909	195.668	-0.083	0.125
-447.895	-110.335	0.106	0.022
-446.880	-21.067	-0.323	0.196
-445.865	-7.828	-0.300	0.201
-444.851	263.897	0.149	0.257
-443.836	-104.087	-0.156	-0.036
-442.822	168.769	0.009	0.012
-441.807	27.508	0.112	0.094
-440.792	-63.644	-0.185	0.075
-439.778	70.408	0.070	-0.072
-438.763	147.941	-0.088	0.117
-437.749	-77.161	-0.111	0.038
-436.734	-159.510	0.528	-0.029
-435.719	210.101	0.342	-0.532
-434.705	800.000	-0.083	0.296
-433.690	-200.000	0.001	0.393
-432.676	-82.670	0.244	0.078
-431.661	99.377	-0.249	-0.285
-430.646	-35.631	0.156	-0.084
-429.632	50.336	0.020	0.019
-428.617	675.525	0.069	0.178
-427.603	10.508	-0.115	-0.087
-426.588	73.996	-0.056	0.058
-425.573	-91.832	0.178	0.050
-424.559	-20.427	0.247	0.151
-423.544	132.594	-0.182	0.233
-422.530	-109.981	-0.159	0.033
-421.515	45.017	-0.210	-0.192
-420.500	-125.855	0.240	0.036
-419.486	-37.638	0.248	0.131
-418.471	-173.187	-0.187	0.006
-417.457	-26.566	0.123	-0.072
-416.442	158.432	-0.112	0.154
-415.428	-200.000	-0.079	-0.569
-414.413	25.524	-0.196	-0.162
-413.398	800.000	-0.029	-0.105
-412.384	5.146	0.072	0.052
-411.369	539.088	-0.050	-0.119
-410.355	-200.000	-0.041	0.209
-409.340	247.625	0.083	0.139
-408.325	0.076	0.153	-0.108
-407.311	800.000	0.119	-0.363
-406.296	-200.000	-0.017	0.190
-405.282	75.697	0.216	-0.226
-404.267	46.836	-0.091	0.084
-403.252	-200.000	-0.027	0.219
-402.238	-200.000	-0.023	0.221
-401.223	55.816	0.290	0.278
-400.209	91.010	-0.068	0.076
-399.194	-200.000	-0.000	0.010
-398.179	-155.570	-0.469	-0.030
-397.165	-200.000	0.036	0.380
-396.150	-123.062	0.105	0.017
-395.136	-200.000	0.026	0.206
-394.121	413.212	-0.071	-0.149
-393.106	48.885	-0.127	-0.118
-392.092	-68.427	0.322	0.124
-391.077	800.000	-0.067	-0.196
-390.063	-105.790	0.371	-0.083
-389.048	39.860	-0.209	-0.186
-388.033	-118.769	0.210	-0.037
-387.019	-28.246	-0.369	0.211
-386.004	183.048	-0.231	0.338
-384.990	16.666	0.278	0.218
-383.975	96.051	-0.198	0.224
-382.960	168.077	-0.143	0.202
-381.946	22.844	-0.069	0.056
-380.931	800.000	-0.068	0.254
-379.917	67.956	0.135	-0.136
-378.902	-55.121	-0.096	0.043
-377.888	182.275	-0.042	-0.061
-376.873	-153.298	0.392	-0.027
-375.858	800.000	-0.009	0.030
-374.844	-102.536	0.245	0.058
-373.829	-0.408	0.152	0.107
-372.815	-147.657	-0.222	0.018
-371.800	-26.884	-0.178	0.103
-370.785	-200.000	0.033	0.147
-369.771	-129.357	-0.222	-0.031
-368.756	-74.667	-0.193	0.069
-367.742	60.297	-0.083	0.081
-366.727	161.435	-0.018	0.025
-365.712	-93.266	-0.137	0.038
-364.698	-200.000	-0.001	0.177
-363.683	-39.051	-0.102	-0.053
-362.669	12.218	-0.170	-0.130
-361.654	344.562	-0.084	-0.164
-360.639	-200.000	0.009	0.241
-359.625	800.000	0.100	0.309
-358.610	-84.131	0.125	-0.039
-357.596	-28.437	0.075	0.043
-356.581	114.163	0.111	-0.133
-355.566	800.000	-0.033	-0.105
-354.552	-8.070	-0.137	0.092
-353.537	-200.000	-0.023	0.111
-352.523	800.000	-0.069	-0.264
-351.508	202.343	0.107	0.163
-350.493	-46.029	0.158	0.077
-349.479	24.929	0.041	0.034
-348.464	448.516	-0.044	0.096
-347.450	-25.121	-0.261	0.153
-346.435	48.592	0.115	-0.107
-345.420	-7.065	0.351	-0.236
-344.406	240.131	-0.194	0.319
-343.391	687.701	-0.042	-0.110
-342.377	-200.000	0.002	0.197
-341.362	-67.826	0.034	-0.013
-340.348	-118.907	-0.197	0.034
-339.333	-200.000	-0.010	0.202
-338.318	27.595	0.045	-0.037
-337.304	-182.898	-0.278	0.005
-336.289	-200.000	0.005	-0.105
-335.275	42.558	0.052	0.047
-334.260	-64.305	-0.302	0.122
-333.245	4.979	-0.240	-0.175
-332.231	-45.041	0.065	-0.032
-331.216	-42.068	0.087	0.044
-330.202	-88.388	-0.342	-0.101
-329.187	-200.000	-0.005	-0.144
-328.172	29.260	0.091	0.076
-327.158	-200.000	-0.002	-0.027
-326.143	-5.617	0.270	0.183
-325.129	45.425	-0.072	0.065
-324.114	-97.005	0.178	0.046
-323.099	-12.052	-0.197	-0.127
-322.085	-19.106	0.162	-0.099
-321.070	-71.836	-0.253	-0.093
-320.056	-76.739	-0.323	-0.112
-319.041	-14.136	0.211	-0.134
-318.026	356.546	-0.057	0.112
-317.012	800.000	-0.120	-0.393
-315.997	-24.851	0.304	-0.178
-314.983	800.000	0.024	-0.090
-313.968	-85.202	-0.226	-0.070
-312.953	-63.656	0.126	0.051
-311.939	247.532	-0.139	-0.233
-310.924	7.016	0.320	-0.236
-309.910	-18.919	0.058	0.035
-308.895	157.990	0.137	0.187
-307.880	9.886	0.291	-0.219
-306.866	-130.983	0.055	0.007
-305.851	667.050	0.117	0.298
-304.837	473.755	0.032	0.072
-303.822	-149.685	-0.153	0.012
-302.807	136.112	-0.055	0.070
-301.793	-180.526	0.323	-0.007
-300.778	203.832	-0.088	0.135
-299.764	12.836	-0.146	-0.112
-298.749	68.543	-0.169	0.171
-297.735	110.232	0.235	-0.278
-296.720	-51.192	0.117	-0.054
-295.705	-200.000	0.003	0.188
-294.691	144.884	-0.032	0.043
-293.676	86.945	0.094	-0.103
-292.662	135.269	-0.147	-0.189
-291.647	-200.000	0.042	-0.252
-290.632	-200.000	-0.010	-0.110
-289.618	800.000	0.088	0.243
-288.603	523.867	-0.057	-0.131
-287.589	57.169	0.098	-0.094
-286.574	-200.000	0.062	0.402
-285.559	-68.096	0.018	0.007
-284.545	-18.767	-0.241	0.148
-283.530	-200.000	-0.052	-0.236
-282.516	800.000	0.027	-0.088
-281.501	-90.414	-0.285	-0.081
-280.486	-200.000	0.029	0.183
-279.472	555.122	-0.054	-0.128
-278.457	-66.330	0.285	0.112
-277.443	54.866	0.129	0.123
-276.428	-200.000	-0.017	0.149
-275.413	-179.353	-0.262	0.006
-274.399	800.000	0.091	0.286
-273.384	800.000	0.016	0.059
-272.370	59.080	-0.037	0.036
-271.355	-200.000	0.051	0.398
-270.340	1.996	-0.135	0.096
-269.326	800.000	0.082	0.231
-268.311	175.439	0.149	-0.213
-267.297	329.807	-0.020	0.038
-266.282	-200.000	-0.034	-0.205
-265.267	800.000	-0.057	-0.205
-264.253	45.308	0.224	0.204
-263.238	-200.000	-0.039	-0.184
-262.224	705.432	-0.132	0.343
-261.209	220.515	0.112	-0.177
-260.195	800.000	-0.039	-0.134
-259.180	313.235	-0.030	-0.056
-258.165	-69.018	0.302	-0.115
-257.151	800.000	0.021	0.081
-256.136	-71.378	0.236	-0.087
-255.122	106.763	-0.184	0.216
-254.107	-128.738	-0.187	-0.026
-253.092	800.000	0.062	-0.205
-252.078	-200.000	0.014	0.208
-251.063	15.706	0.186	0.144
-250.049	733.615	-0.089	-0.235
-249.034	163.008	-0.043	-0.059
-248.019	-200.000	-0.039	0.273
-247.005	591.385	0.136	0.332
-245.990	-147.144	0.123	-0.010
-244.976	-48.372	0.274	0.130
-243.961	90.639	-0.191	0.211
-242.946	462.256	0.021	-0.045
-241.932	-79.354	0.123	-0.041
-240.917	192.191	-0.095	0.141
-239.903	38.813	0.101	-0.089
-238.888	800.000	0.075	0.305
-237.873	-25.071	0.117	-0.068
-236.859	229.819	0.139	0.223
-235.844	-133.128	0.538	-0.067
-234.830	-65.733	-0.312	-0.123
-233.815	377.259	-0.093	0.188
-232.800	-59.542	-0.276	0.117
-231.786	800.000	-0.067	-0.265
-230.771	-200.000	-0.014	0.464
-229.757	-4.240	-0.142	0.097
-228.742	-200.000	0.070	-0.406
-227.727	49.377	0.080	-0.074
-226.713	4.577	0.212	-0.153
-225.698	-120.185	0.177	-0.030
-224.684	800.000	0.083	0.349
-223.669	-42.101	-0.173	-0.087
-222.655	45.501	-0.089	0.081
-221.640	328.791	-0.118	0.223
-220.625	276.854	0.085	-0.148
-219.611	-84.086	0.278	-0.087
-218.596	202.697	0.116	0.177
-217.582	95.980	0.218	-0.245
-216.567	-114.646	-0.238	0.045
-215.552	56.368	0.050	-0.048
-214.538	202.851	-0.063	-0.096
-213.523	-97.004	0.371	-0.096
-212.509	-88.983	0.292	0.085
-211.494	788.651	0.101	0.272
-210.479	-93.434	-0.124	0.034
-209.465	-200.000	-0.032	0.374
-208.450	217.600	0.087	-0.137
-207.436	-149.486	-0.393	-0.031
-206.421	-117.810	-0.218	-0.038
-205.406	259.884	0.132	-0.224
-204.392	38.015	0.226	0.198
-203.377	-131.849	-0.140	0.018
-202.363	-53.076	0.158	0.072
-201.348	376.297	-0.094	0.189
-200.333	800.000	0.059	0.220
-199.319	-59.591	0.320	-0.135
-198.304	148.362	0.293	-0.390
-197.290	48.748	0.370	0.342
-196.275	-11.742	0.131	-0.085
-195.260	23.263	0.165	-0.133
-194.246	91.441	-0.173	0.191
-193.231	18.477	-0.038	0.030
-192.217	111.995	0.083	-0.099
-191.202	-73.157	0.210	0.076
-190.187	259.263	-0.125	-0.211
-189.173	204.374	0.183	-0.279
-188.158	359.488	-0.110	0.216
-187.144	800.000	-0.052	-0.215
-186.129	-200.000	0.030	0.189
-185.114	-200.000	-0.019	-0.143
-184.100	114.300	-0.128	0.154
-183.085	22.370	-0.199	-0.160
-182.071	800.000	-0.109	-0.340
-181.056	-200.000	0.023	-0.156
-180.042	-200.000	-0.056	-0.301
-179.027	177.093	0.133	-0.190
-178.012	-128.192	-0.111	-0.016
-176.998	-200.000	-0.001	-0.185
-175.983	800.000	0.050	0.185
-174.969	-66.122	-0.219	-0.086
-173.954	-95.050	0.194	-0.051
-172.939	124.255	0.155	0.192
-171.925	-126.295	-0.251	-0.037
-170.910	138.225	0.169	0.218
-169.896	800.000	0.071	-0.201
-168.881	153.708	-0.157	0.211
-167.866	135.530	0.167	0.213
-166.852	-145.525	-0.211	0.019
-165.837	-39.122	-0.196	-0.101
-164.823	7.658	-0.174	0.128
-163.808	-200.000	0.008	-0.131
-162.793	111.692	0.027	-0.032
-161.779	280.297	0.138	-0.243
-160.764	-200.000	-0.005	-0.148
-159.750	42.489	-0.150	-0.134
-158.735	43.478	0.184	-0.165
-157.720	698.726	0.109	-0.280
-156.706	-37.493	-0.049	-0.026
-155.691	-200.000	0.037	-0.167
-154.677	-200.000	-0.042	-0.200
-153.662	-86.598	0.441	-0.133
-152.647	-128.809	0.173	0.024
-151.633	-125.163	0.446	0.067
-150.618	331.857	-0.118	0.224
-149.604	-200.000	0.002	0.351
-148.589	-200.000	-0.009	0.092
-147.574	723.186	-0.083	0.216
-146.560	-38.851	-0.123	0.064
-145.545	-200.000	-0.055	0.281
-144.531	433.896	-0.116	0.247
-143.516	160.414	0.195	0.267
-142.502	-33.534	0.137	0.074
-141.487	800.000	-0.056	0.218
-140.472	-200.000	0.032	0.221
-139.458	41.421	-0.177	-0.157
-138.443	183.797	0.036	0.053
-137.429	484.555	0.094	-0.209
-136.414	-170.775	0.186	0.006
-135.399	259.325	0.059	0.100
-134.385	345.002	0.036	0.068
-133.370	90.147	-0.159	-0.175
-132.356	342.853	0.092	-0.178
-131.341	-200.000	-0.013	0.079
-130.326	-60.460	0.189	0.079
-129.312	-200.000	0.001	0.209
-128.297	-85.363	0.091	-0.028
-127.283	452.293	0.063	-0.136
-126.268	-96.673	-0.292	0.075
-125.253	12.804	-0.105	-0.080
-124.239	-116.377	0.319	0.058
-123.224	-200.000	0.017	0.467
-122.210	-200.000	0.032	0.275
-121.195	-72.783	0.157	0.057
