DTS Sentinel unit serial number:	SN413079Multiplexer serial number:	ORYXHardware model number:	OX4-SRSoftware version number:	ORYX F/W v4.00 Oryx Data Collector v3.7.2.0data status	okinstallation	princeton_trtdifferential loss correction	single-endedforward channel	channel 2reverse channel	N/Adate	2019/09/18time	18:43:34forward acquisition time	60.00reverse acquisition time	0.00gamma	496.2192k internal	0.2315k external	0.2315temperature offset calibration	1.0027default loss term (dB/km)	0.3790temperature slope calibration	1.0000multiplexer offset coefficient	1.0000multiplexer slope coefficient	1.0000fibre end	0.00T internal ref (°C)	37.61T ext. ref 1 (°C)	0.93T ext. ref 2 (°C)	28.21length (m)	temperature (°C)	Stokes	anti-Stokes-747.200	105.792	0.179	-0.214
-746.185	150.170	-0.182	0.251
-745.171	-7.241	0.260	0.179
-744.156	-132.772	-0.260	-0.034
-743.142	-200.000	0.029	-0.172
-742.127	228.024	0.248	0.408
-741.112	13.036	-0.318	0.249
-740.098	100.213	0.223	0.262
-739.083	-93.163	-0.272	-0.077
-738.069	-35.587	-0.223	0.122
-737.054	-200.000	0.024	0.123
-736.039	-147.465	-0.213	0.018
-735.025	-200.000	0.010	0.133
-734.010	5.702	0.087	-0.065
-732.996	2.157	-0.102	0.075
-731.981	224.877	0.237	-0.388
-730.966	139.445	-0.237	-0.315
-729.952	-200.000	-0.023	0.211
-728.937	67.717	-0.328	-0.339
-727.923	-154.147	-0.400	-0.027
-726.908	192.975	-0.323	-0.494
-725.894	800.000	-0.024	-0.086
-724.879	64.951	-0.077	0.078
-723.864	174.576	-0.106	-0.156
-722.850	-129.119	-0.179	-0.025
-721.835	-13.568	-0.272	0.179
-720.821	-200.000	0.053	-0.248
-719.806	-106.661	-0.211	0.047
-718.791	-48.618	0.176	-0.086
-717.777	-200.000	-0.045	0.299
-716.762	-105.925	0.547	0.125
-715.748	-59.507	0.060	-0.026
-714.733	-200.000	-0.041	-0.269
-713.718	800.000	-0.076	-0.312
-712.704	566.396	0.109	-0.268
-711.689	-200.000	-0.063	-0.441
-710.675	-200.000	0.001	-0.049
-709.660	-106.594	-0.277	0.062
-708.645	37.583	0.249	-0.224
-707.631	-34.422	0.323	-0.179
-706.616	9.410	-0.187	-0.143
-705.602	-105.669	0.156	-0.036
-704.587	800.000	-0.082	0.295
-703.572	75.090	0.149	-0.159
-702.558	-75.885	-0.264	0.095
-701.543	42.688	0.196	0.181
-700.529	-59.802	-0.051	0.022
-699.514	-98.462	-0.552	0.143
-698.499	681.894	0.081	0.214
-697.485	800.000	-0.088	-0.331
-696.470	-1.888	-0.277	0.197
-695.456	57.853	0.121	0.120
-694.441	-200.000	0.008	-0.175
-693.426	-3.515	-0.319	0.224
-692.412	-106.806	-0.130	0.029
-691.397	387.824	-0.061	-0.128
-690.383	-26.006	-0.137	-0.081
-689.368	800.000	0.055	0.221
-688.354	5.837	-0.118	-0.089
-687.339	-200.000	-0.012	0.087
-686.324	19.943	0.154	-0.125
-685.310	-170.540	-0.249	0.009
-684.295	-200.000	-0.041	-0.195
-683.281	-3.857	-0.145	0.102
-682.266	-200.000	-0.001	-0.222
-681.251	351.654	0.195	0.389
-680.237	-16.148	-0.213	0.137
-679.222	-124.559	-0.095	-0.015
-678.208	-101.771	0.173	-0.042
-677.193	-51.315	0.058	-0.027
-676.178	478.725	0.025	-0.056
-675.164	196.748	0.096	-0.148
-674.149	-176.088	0.227	-0.006
-673.135	51.304	-0.082	-0.079
-672.120	329.438	0.027	0.053
-671.105	-19.168	-0.243	-0.152
-670.091	123.387	-0.057	-0.073
-669.076	-165.697	-0.282	-0.012
-668.062	800.000	0.063	0.246
-667.047	-124.791	-0.249	0.039
-666.032	17.355	0.216	-0.174
-665.018	-126.380	0.163	-0.024
-664.003	-80.954	-0.176	0.059
-662.989	-104.035	-0.100	-0.023
-661.974	800.000	-0.052	-0.226
-660.959	103.527	-0.111	-0.131
-659.945	-200.000	0.123	-0.000
-658.930	800.000	0.045	-0.151
-657.916	-117.841	-0.272	-0.049
-656.901	131.611	-0.149	-0.193
-655.886	-21.479	-0.246	-0.152
-654.872	-104.775	-0.346	-0.080
-653.857	445.468	-0.075	-0.167
-652.843	-108.542	-0.125	0.027
-651.828	-200.000	0.012	-0.100
-650.814	-41.602	0.101	-0.053
-649.799	-28.720	-0.070	0.040
-648.784	-182.154	-0.259	-0.005
-647.770	800.000	0.085	-0.331
-646.755	-63.166	-0.274	-0.114
-645.741	-4.973	-0.164	-0.114
-644.726	-108.061	0.037	0.008
-643.711	740.797	0.079	0.214
-642.697	800.000	-0.118	-0.407
-641.682	-200.000	-0.027	0.335
-640.668	-157.550	0.300	-0.018
-639.653	-97.571	0.440	0.115
-638.638	201.594	0.107	0.166
-637.624	-68.072	0.330	0.130
-636.609	51.549	0.063	0.061
-635.595	-83.763	-0.277	-0.089
-634.580	-54.890	-0.089	0.040
-633.565	800.000	0.043	0.154
-632.551	-34.290	0.126	0.070
-631.536	800.000	-0.057	-0.160
-630.522	-200.000	-0.021	0.128
-629.507	-10.462	0.156	-0.104
-628.492	-179.884	-0.308	0.007
-627.478	-200.000	0.065	0.308
-626.463	800.000	0.096	0.301
-625.449	-200.000	-0.000	0.162
-624.434	250.985	-0.028	0.049
-623.419	366.670	-0.145	0.295
-622.405	644.759	0.082	-0.211
-621.390	484.061	0.040	-0.091
-620.376	-89.256	-0.096	0.029
-619.361	434.882	-0.076	0.167
-618.346	253.885	-0.082	0.141
-617.332	41.169	-0.118	0.107
-616.317	172.896	0.065	-0.095
-615.303	800.000	-0.094	-0.270
-614.288	-200.000	0.030	-0.143
-613.273	82.761	0.178	-0.194
-612.259	-200.000	-0.045	-0.393
-611.244	113.322	0.235	0.288
-610.230	116.687	0.161	-0.200
-609.215	-118.436	0.193	-0.035
-608.201	149.703	0.218	0.297
-607.186	-32.643	-0.115	-0.065
-606.171	155.321	0.075	-0.105
-605.157	-58.185	-0.189	-0.083
-604.142	-21.822	0.084	-0.052
-603.128	-200.000	-0.052	0.264
-602.113	800.000	-0.078	0.237
-601.098	180.403	0.109	-0.161
-600.084	109.312	0.118	-0.143
-599.069	-53.241	-0.223	0.103
-598.055	-50.510	-0.320	-0.152
-597.040	-200.000	0.024	0.306
-596.025	79.637	-0.358	0.387
-595.011	103.326	0.194	0.229
-593.996	-59.445	0.358	0.155
-592.982	-71.107	0.190	-0.072
-591.967	-121.038	0.044	0.007
-590.952	-124.646	-0.071	-0.011
-589.938	135.652	-0.006	0.008
-588.923	26.983	-0.191	0.162
-587.909	-140.253	-0.390	0.041
-586.894	74.432	-0.173	-0.183
-585.879	-200.000	-0.012	0.095
-584.865	352.486	0.178	0.356
-583.850	-200.000	-0.043	0.334
-582.836	139.685	-0.223	0.296
-581.821	-200.000	0.018	-0.130
-580.806	-9.180	-0.167	0.113
-579.792	800.000	-0.075	-0.303
-578.777	31.781	-0.068	-0.059
-577.763	5.590	0.091	0.067
-576.748	266.828	0.113	0.198
-575.733	-103.103	-0.525	0.125
-574.719	800.000	0.046	0.198
-573.704	108.282	0.088	0.106
-572.690	-78.288	0.398	0.137
-571.675	52.178	-0.204	-0.195
-570.661	-89.680	0.343	-0.101
-569.646	-130.212	0.278	0.038
-568.631	-5.414	0.074	-0.051
-567.617	-83.631	-0.229	-0.074
-566.602	204.674	-0.107	0.167
-565.588	43.087	0.174	-0.160
-564.573	248.691	0.143	-0.243
-563.558	-121.157	0.129	0.022
-562.544	-200.000	0.046	-0.259
-561.529	-200.000	0.057	-0.354
-560.515	614.975	-0.134	-0.337
-559.500	-31.026	-0.356	-0.202
-558.485	-57.592	-0.193	-0.085
-557.471	-21.999	0.121	-0.074
-556.456	-32.994	0.057	0.032
-555.442	800.000	0.020	-0.072
-554.427	-78.306	-0.140	-0.048
-553.412	-38.453	0.095	-0.050
-552.398	46.192	-0.205	0.191
-551.383	800.000	-0.051	0.203
-550.369	138.949	-0.166	0.219
-549.354	-171.681	0.277	0.009
-548.339	-65.176	0.050	-0.020
-547.325	-61.797	-0.192	0.081
-546.310	59.652	-0.154	0.153
-545.296	-200.000	-0.004	-0.091
-544.281	800.000	-0.094	-0.276
-543.266	800.000	0.052	-0.211
-542.252	-154.706	-0.234	0.016
-541.237	-182.129	-0.110	-0.002
-540.223	800.000	0.086	0.270
-539.208	-98.248	0.114	-0.030
-538.193	-200.000	0.016	-0.167
-537.179	800.000	-0.113	-0.482
-536.164	125.812	0.155	0.197
-535.150	-98.742	0.431	0.110
-534.135	-151.007	0.247	0.019
-533.121	-147.319	-0.198	-0.017
-532.106	135.402	-0.179	0.233
-531.091	800.000	-0.054	-0.154
-530.077	-149.971	0.108	0.008
-529.062	800.000	0.053	0.182
-528.048	52.884	0.057	0.055
-527.033	479.373	-0.057	-0.130
-526.018	-200.000	-0.031	-0.409
-525.004	-128.196	-0.120	-0.017
-523.989	210.970	-0.197	-0.311
-522.975	145.050	-0.079	-0.106
-521.960	634.779	0.207	0.527
-520.945	800.000	0.068	0.297
-519.931	84.637	-0.146	-0.161
-518.916	110.150	0.217	-0.261
-517.902	800.000	-0.091	0.255
-516.887	72.318	0.120	0.126
-515.872	-200.000	0.140	0.000
-514.858	-147.269	-0.245	-0.021
-513.843	-103.252	-0.244	-0.058
-512.829	251.167	0.155	0.265
-511.814	38.434	-0.332	0.298
-510.799	404.239	0.101	0.214
-509.785	-67.895	0.212	-0.083
-508.770	-114.221	-0.259	0.050
-507.756	800.000	0.079	-0.292
-506.741	-200.000	0.006	-0.140
-505.726	-44.191	0.270	-0.136
-504.712	64.043	0.362	-0.366
-503.697	-200.000	-0.439	0.001
-502.683	146.956	-0.213	-0.288
-501.668	-140.001	0.360	-0.038
-500.653	-109.797	-0.275	-0.058
-499.639	490.002	-0.087	0.199
-498.624	31.834	-0.297	-0.256
-497.610	-108.861	0.531	0.114
-496.595	-200.000	0.221	0.000
-495.581	-6.674	0.079	0.054
-494.566	-75.840	-0.293	-0.104
-493.551	-200.000	0.014	-0.127
-492.537	-200.000	0.039	-0.237
-491.522	304.293	-0.063	0.118
-490.508	40.808	-0.184	0.166
-489.493	-78.504	-0.203	-0.070
-488.478	-200.000	-0.012	-0.111
-487.464	351.143	-0.308	-0.612
-486.449	-200.000	0.006	0.031
-485.435	-113.386	0.146	-0.029
-484.420	111.871	0.233	0.282
-483.405	-88.077	0.237	-0.071
-482.391	-190.304	-0.188	0.002
-481.376	-128.401	0.248	-0.035
-480.362	22.393	-0.262	-0.214
-479.347	-58.762	-0.273	-0.119
-478.332	800.000	0.025	0.081
-477.318	104.648	0.053	-0.063
-476.303	-181.252	0.396	0.008
-475.289	-60.590	-0.272	-0.116
-474.274	-75.950	-0.218	-0.077
-473.259	800.000	-0.088	0.321
-472.245	-13.520	0.077	-0.050
-471.230	518.777	-0.124	-0.291
-470.216	-37.229	-0.282	-0.151
-469.201	190.188	0.077	0.116
-468.186	-121.876	-0.277	0.046
-467.172	239.210	-0.178	-0.297
-466.157	383.119	0.142	-0.293
-465.143	-190.247	-0.346	-0.004
-464.128	-103.810	0.247	0.058
-463.113	168.327	-0.106	-0.152
-462.099	-67.860	-0.235	0.092
-461.084	334.852	-0.044	-0.086
-460.070	-33.007	-0.302	0.168
-459.055	-12.188	0.493	0.323
-458.040	442.983	0.015	0.032
-457.026	800.000	0.107	0.377
-456.011	800.000	0.037	0.108
-454.997	-35.944	-0.101	0.054
-453.982	-200.000	0.053	-0.247
-452.968	-51.881	0.138	0.064
-451.953	-200.000	-0.004	0.217
-450.938	-112.394	0.353	-0.071
-449.924	-38.377	0.117	0.062
-448.909	494.878	-0.039	-0.090
-447.895	-141.118	0.188	0.019
-446.880	-108.669	-0.067	0.014
-445.865	-200.000	-0.037	-0.216
-444.851	260.004	0.160	-0.277
-443.836	367.654	0.138	-0.280
-442.822	10.958	0.095	0.073
-441.807	131.610	0.206	0.265
-440.792	338.206	0.091	0.177
-439.778	0.736	0.290	0.208
-438.763	111.185	-0.149	-0.180
-437.749	469.922	0.103	0.231
-436.734	-12.519	-0.320	0.209
-435.719	800.000	-0.038	-0.161
-434.705	115.488	0.187	-0.229
-433.690	-11.207	-0.147	0.097
-432.676	-200.000	-0.008	-0.382
-431.661	-200.000	-0.074	-0.433
-430.646	-179.824	-0.060	-0.001
-429.632	-200.000	0.045	-0.319
-428.617	-126.629	0.164	0.024
-427.603	395.571	-0.192	-0.400
-426.588	-11.831	0.123	0.081
-425.573	-200.000	0.027	0.141
-424.559	61.708	0.144	-0.143
-423.544	-200.000	0.052	-0.387
-422.530	-165.127	0.140	-0.006
-421.515	44.358	-0.270	0.248
-420.500	12.165	-0.035	0.027
-419.486	-59.677	0.165	0.071
-418.471	295.642	-0.100	0.183
-417.457	2.859	-0.198	0.144
-416.442	-148.289	-0.231	0.019
-415.428	-103.080	0.449	-0.106
-414.413	189.935	0.096	-0.144
-413.398	-200.000	-0.019	0.087
-412.384	31.821	-0.171	0.148
-411.369	-126.513	0.262	-0.039
-410.355	-200.000	0.057	-0.297
-409.340	-110.861	-0.055	0.011
-408.325	-164.293	-0.174	-0.008
-407.311	-175.683	-0.441	-0.012
-406.296	249.558	-0.151	-0.257
-405.282	-200.000	-0.014	-0.263
-404.267	0.414	0.215	-0.153
-403.252	-200.000	-0.027	-0.287
-402.238	-163.323	0.280	0.013
-401.223	800.000	0.071	0.282
-400.209	-17.643	-0.091	-0.057
-399.194	-3.431	0.250	-0.174
-398.179	278.751	-0.071	-0.127
-397.165	-50.487	-0.311	0.147
-396.150	197.687	-0.218	0.333
-395.136	-117.225	0.212	-0.039
-394.121	-64.545	0.280	-0.113
-393.106	-126.710	0.218	0.032
-392.092	90.598	0.238	-0.266
-391.077	-12.832	0.080	-0.052
-390.063	-22.735	-0.162	-0.098
-389.048	31.131	0.098	0.084
-388.033	-105.261	-0.135	-0.031
-387.019	-186.339	-0.040	0.001
-386.004	-200.000	-0.037	0.196
-384.990	8.566	0.383	-0.288
-383.975	16.033	0.132	0.104
-382.960	226.159	0.233	-0.377
-381.946	800.000	0.031	0.096
-380.931	-98.688	-0.108	-0.028
-379.917	800.000	-0.062	0.237
-378.902	102.577	-0.096	0.112
-377.888	-61.504	-0.142	-0.060
-376.873	800.000	0.078	0.248
-375.858	800.000	0.045	0.156
-374.844	-33.314	0.133	0.073
-373.829	-88.885	0.072	-0.021
-372.815	64.356	-0.212	-0.213
-371.800	800.000	-0.039	0.126
-370.785	293.102	-0.219	0.399
-369.771	800.000	0.087	0.273
-368.756	382.542	0.128	-0.262
-367.742	800.000	0.010	-0.041
-366.727	-11.740	0.224	-0.147
-365.712	70.645	0.107	0.111
-364.698	-118.893	-0.288	0.050
-363.683	-200.000	0.010	-0.364
-362.669	678.340	0.195	-0.505
-361.654	6.491	0.126	-0.093
-360.639	-31.073	-0.408	-0.230
-359.625	-48.472	-0.308	-0.148
-358.610	-63.315	0.149	0.061
-357.596	209.711	-0.134	-0.210
-356.581	9.689	-0.148	-0.112
-355.566	800.000	-0.098	0.346
-354.552	6.107	-0.150	-0.111
-353.537	-200.000	0.019	0.130
-352.523	47.749	-0.181	-0.169
-351.508	-144.792	0.181	-0.017
-350.493	457.872	-0.111	-0.246
-349.479	-32.368	0.200	0.111
-348.464	800.000	0.022	-0.077
-347.450	216.304	-0.112	-0.178
-346.435	-101.856	0.398	0.096
-345.420	161.465	0.150	0.209
-344.406	-113.681	-0.248	0.048
-343.391	800.000	0.055	-0.161
-342.377	-200.000	-0.009	-0.152
-341.362	-27.574	-0.270	-0.156
-340.348	-200.000	0.064	0.389
-339.333	104.677	0.297	0.349
-338.318	800.000	-0.068	0.207
-337.304	-70.431	-0.280	-0.106
-336.289	-99.007	-0.039	0.010
-335.275	800.000	-0.085	-0.248
-334.260	100.626	0.152	-0.177
-333.245	-22.711	-0.084	-0.051
-332.231	107.675	0.057	-0.068
-331.216	655.586	0.087	0.222
-330.202	-22.890	0.172	0.104
-329.187	-200.000	-0.008	-0.148
-328.172	-200.000	0.056	0.293
-327.158	-200.000	0.021	0.189
-326.143	39.395	0.057	0.051
-325.129	250.848	-0.174	-0.294
-324.114	-160.124	-0.230	-0.012
-323.099	-121.934	0.114	-0.019
-322.085	-200.000	0.000	0.293
-321.070	-17.548	-0.095	0.059
-320.056	120.546	0.118	-0.146
-319.041	-117.869	-0.345	0.062
-318.026	554.311	-0.059	-0.142
-317.012	175.122	0.083	0.120
-315.997	4.549	0.185	0.135
-314.983	-200.000	0.016	0.119
-313.968	800.000	-0.106	0.351
-312.953	-115.586	-0.315	-0.059
-311.939	-200.000	-0.005	0.384
-310.924	183.352	0.121	0.179
-309.910	203.665	-0.175	0.270
-308.895	-113.447	0.188	0.037
-307.880	-78.328	0.360	-0.123
-306.866	221.558	0.128	0.206
-305.851	-91.511	0.055	-0.016
-304.837	-67.341	-0.181	-0.071
-303.822	528.447	0.071	-0.167
-302.807	-20.025	0.222	0.136
-301.793	264.575	-0.112	0.195
-300.778	-59.918	0.303	-0.129
-299.764	-10.970	-0.086	-0.057
-298.749	-181.491	-0.223	0.004
-297.735	342.296	0.057	0.110
-296.720	-200.000	-0.002	0.190
-295.705	29.928	-0.309	-0.262
-294.691	24.134	-0.023	-0.019
-293.676	285.355	-0.124	0.223
-292.662	107.988	-0.199	-0.236
-291.647	-122.145	0.096	0.016
-290.632	-38.136	0.214	0.113
-289.618	-63.294	0.112	-0.046
-288.603	-137.825	-0.259	0.029
-287.589	466.228	-0.174	0.388
-286.574	51.283	0.053	-0.050
-285.559	36.613	0.079	0.069
-284.545	98.209	0.088	0.101
-283.530	519.670	0.137	0.320
-282.516	-200.000	-0.018	-0.089
-281.501	-31.497	0.231	-0.129
-280.486	200.435	-0.238	0.364
-279.472	-28.584	0.370	-0.212
-278.457	-200.000	-0.039	-0.178
-277.443	65.365	-0.187	0.189
-276.428	-157.228	-0.350	0.021
-275.413	-53.751	0.123	-0.056
-274.399	800.000	-0.071	-0.227
-273.384	-94.944	0.330	-0.089
-272.370	-68.369	0.255	-0.098
-271.355	-200.000	0.038	0.486
-270.340	-159.449	0.244	0.014
-269.326	34.802	0.070	0.061
-268.311	105.904	-0.110	0.130
-267.297	54.418	-0.122	-0.117
-266.282	-88.901	0.117	-0.035
-265.267	-200.000	0.019	0.295
-264.253	-45.411	0.225	0.111
-263.238	78.567	0.075	0.079
-262.224	800.000	0.111	0.398
-261.209	-97.843	0.130	0.033
-260.195	-117.340	0.377	0.068
-259.180	4.371	-0.105	0.077
-258.165	-60.255	-0.334	-0.141
-257.151	-69.730	-0.329	0.125
-256.136	194.000	-0.109	-0.164
-255.122	113.445	0.086	0.104
-254.107	-200.000	-0.016	-0.128
-253.092	-60.211	-0.225	0.095
-252.078	-107.675	-0.182	-0.040
-251.063	-45.717	-0.007	0.003
-250.049	-129.131	0.227	0.031
-249.034	800.000	-0.047	-0.144
-248.019	6.687	-0.174	0.129
-247.005	-200.000	-0.033	0.145
-245.990	-32.940	0.013	-0.007
-244.976	55.802	0.228	0.220
-243.961	308.845	-0.094	0.174
-242.946	101.061	-0.156	0.181
-241.932	738.382	-0.044	-0.119
-240.917	-44.299	0.149	-0.074
-239.903	800.000	-0.118	-0.365
-238.888	-83.883	0.162	0.051
-237.873	663.838	0.071	0.183
-236.859	252.609	-0.176	0.297
-235.844	319.288	0.083	0.157
-234.830	220.205	-0.098	0.155
-233.815	-8.393	0.254	-0.170
-232.800	0.274	-0.084	-0.060
-231.786	-173.587	-0.235	0.007
-230.771	-61.350	0.141	-0.059
-229.757	-102.584	-0.417	0.099
-228.742	-161.578	0.291	-0.015
-227.727	-112.635	0.189	-0.037
-226.713	-200.000	0.004	-0.137
-225.698	0.058	-0.149	-0.105
-224.684	460.308	-0.094	0.209
-223.669	54.668	-0.159	0.152
-222.655	-63.234	0.222	-0.091
-221.640	-200.000	0.055	0.257
-220.625	-8.142	-0.184	-0.123
-219.611	577.394	0.056	-0.137
-218.596	800.000	0.015	0.048
-217.582	-109.181	-0.314	0.066
-216.567	41.590	0.247	-0.222
-215.552	39.304	-0.365	-0.324
-214.538	-52.277	-0.305	-0.140
-213.523	-200.000	0.025	-0.162
-212.509	-102.646	0.245	-0.058
-211.494	45.912	0.197	-0.181
-210.479	-100.756	0.018	0.004
-209.465	-24.384	0.256	0.152
-208.450	-68.759	0.147	-0.057
-207.436	208.365	0.204	-0.317
-206.421	16.367	-0.099	0.078
-205.406	495.557	0.051	-0.116
-204.392	511.983	0.043	0.099
-203.377	350.140	0.070	0.137
-202.363	37.883	-0.027	0.024
-201.348	-154.416	0.137	0.009
-200.333	-105.178	-0.222	-0.050
-199.319	-180.554	-0.354	-0.007
-198.304	753.116	-0.073	0.195
-197.290	-49.825	-0.011	-0.005
-196.275	-69.369	0.274	-0.104
-195.260	-200.000	-0.007	0.250
-194.246	-120.110	0.112	-0.019
-193.231	138.312	0.029	-0.038
-192.217	8.652	0.099	0.074
-191.202	800.000	0.026	-0.097
-190.187	800.000	0.037	-0.134
-189.173	473.644	0.234	-0.523
-188.158	48.567	-0.159	0.147
-187.144	35.467	0.141	-0.123
-186.129	-79.427	-0.063	-0.021
-185.114	96.573	0.102	-0.115
-184.100	-200.000	-0.069	0.386
-183.085	54.390	-0.146	0.139
-182.071	465.442	-0.100	-0.221
-181.056	411.687	-0.090	-0.190
-180.042	-0.995	-0.162	-0.114
-179.027	-106.787	-0.276	-0.061
-178.012	415.612	-0.017	0.035
-176.998	62.106	-0.223	0.220
-175.983	-29.163	0.167	0.095
-174.969	397.180	0.033	-0.069
-173.954	-200.000	0.008	-0.079
-172.939	60.738	-0.137	0.135
-171.925	-137.432	0.117	-0.013
-170.910	75.634	0.256	-0.268
-169.896	178.188	0.200	0.290
-168.881	-177.805	0.135	-0.003
-167.866	-11.653	-0.330	0.215
-166.852	-36.162	0.196	0.105
-165.837	172.162	-0.111	0.158
-164.823	-200.000	-0.001	-0.086
-163.808	-42.254	-0.101	0.051
-162.793	-200.000	-0.012	0.113
-161.779	662.790	0.115	0.295
-160.764	-200.000	-0.016	0.104
-159.750	-71.019	-0.192	-0.072
-158.735	800.000	-0.029	0.087
-157.720	-99.171	0.158	-0.039
-156.706	-124.636	-0.064	-0.010
-155.691	704.012	0.106	-0.276
-154.677	55.682	0.196	-0.188
-153.662	9.547	0.203	0.152
-152.647	800.000	0.123	-0.476
-151.633	-114.232	-0.356	0.068
-150.618	320.728	0.069	-0.129
-149.604	-200.000	-0.010	-0.230
-148.589	59.206	0.238	-0.232
-147.574	119.000	0.020	-0.025
-146.560	-200.000	0.044	-0.206
-145.545	-13.431	-0.216	-0.138
-144.531	7.434	0.278	-0.205
-143.516	-72.988	0.351	0.128
-142.502	33.720	0.123	-0.106
-141.487	-123.219	0.101	0.016
-140.472	-57.893	-0.565	-0.244
-139.458	-40.978	0.275	-0.141
-138.443	506.126	-0.034	-0.078
-137.429	-21.405	-0.221	0.133
-136.414	44.062	-0.103	0.093
-135.399	467.042	0.106	0.235
-134.385	800.000	0.067	0.238
-133.370	-9.896	-0.306	-0.201
-132.356	-200.000	-0.127	0.000
-131.341	185.725	0.042	0.062
-130.326	30.375	0.187	-0.158
-129.312	-200.000	-0.062	0.315
-128.297	-150.140	-0.086	0.007
-127.283	9.321	0.074	-0.055
-126.268	193.198	-0.235	-0.352
-125.253	299.295	0.038	-0.069
-124.239	-200.000	0.001	0.176
-123.224	800.000	-0.043	-0.124
-122.210	113.127	0.134	-0.161
-121.195	201.977	-0.098	0.150
