DTS Sentinel unit serial number:	SN413079Multiplexer serial number:	ORYXHardware model number:	OX4-SRSoftware version number:	ORYX F/W v4.00 Oryx Data Collector v3.7.2.0data status	okinstallation	princeton_trtdifferential loss correction	single-endedforward channel	channel 2reverse channel	N/Adate	2019/09/10time	19:57:11forward acquisition time	60.00reverse acquisition time	0.00gamma	496.2192k internal	0.2328k external	0.2328temperature offset calibration	0.9945default loss term (dB/km)	0.3790temperature slope calibration	1.0000multiplexer offset coefficient	1.0000multiplexer slope coefficient	1.0000fibre end	0.00T internal ref (°C)	32.75T ext. ref 1 (°C)	-0.32T ext. ref 2 (°C)	25.70length (m)	temperature (°C)	Stokes	anti-Stokes-747.200	-14.554	0.303	0.197
-746.185	-83.947	-0.408	-0.131
-745.171	-95.701	-0.209	-0.056
-744.156	-200.000	0.060	0.266
-743.142	-179.780	0.165	0.004
-742.127	-27.750	-0.167	0.098
-741.112	-177.896	-0.056	0.001
-740.098	66.667	0.035	-0.036
-739.083	-67.543	-0.121	0.048
-738.069	54.321	-0.079	-0.077
-737.054	75.883	-0.112	0.120
-736.039	360.124	0.101	-0.204
-735.025	-84.598	0.309	-0.098
-734.010	35.313	-0.112	-0.099
-732.996	111.493	-0.213	-0.258
-731.981	-35.794	0.075	-0.041
-730.966	-120.484	-0.152	0.026
-729.952	-92.019	-0.274	-0.078
-728.937	-200.000	0.018	0.437
-727.923	-6.235	0.181	0.124
-726.908	-200.000	-0.048	0.346
-725.894	-7.341	-0.229	-0.156
-724.879	189.085	-0.208	-0.314
-723.864	161.753	0.039	-0.056
-722.850	1.224	-0.103	-0.074
-721.835	-41.323	-0.316	-0.164
-720.821	-49.615	-0.443	0.212
-719.806	323.439	-0.078	-0.150
-718.791	51.809	0.230	-0.221
-717.777	-184.537	0.292	0.005
-716.762	50.036	-0.150	0.142
-715.748	-200.000	0.010	-0.079
-714.733	659.023	-0.042	0.110
-713.718	-88.331	-0.146	0.044
-712.704	196.143	-0.120	-0.184
-711.689	800.000	0.106	-0.337
-710.675	123.135	0.096	0.121
-709.660	-55.355	0.085	-0.038
-708.645	800.000	0.081	-0.286
-707.631	180.687	0.104	0.154
-706.616	31.222	-0.446	-0.386
-705.602	-200.000	-0.000	-0.180
-704.587	-103.211	0.563	0.134
-703.572	11.514	0.191	-0.148
-702.558	172.970	0.074	-0.108
-701.543	800.000	0.064	0.275
-700.529	148.498	-0.090	0.123
-699.514	64.613	0.145	-0.147
-698.499	-42.290	0.136	0.070
-697.485	-41.710	-0.261	-0.135
-696.470	-106.072	-0.385	-0.087
-695.456	-200.000	-0.007	0.507
-694.441	79.146	0.103	0.111
-693.426	800.000	0.063	-0.247
-692.412	-124.518	-0.258	-0.040
-691.397	552.666	-0.040	0.096
-690.383	-38.888	-0.233	0.123
-689.368	-117.654	0.047	0.008
-688.354	-43.406	-0.374	-0.190
-687.339	-112.978	0.197	0.039
-686.324	30.137	0.279	-0.239
-685.310	-114.529	-0.302	-0.058
-684.295	-134.440	-0.301	-0.037
-683.281	59.898	-0.165	-0.164
-682.266	-173.542	-0.059	0.002
-681.251	168.075	-0.087	0.125
-680.237	-127.645	-0.417	-0.061
-679.222	792.223	0.072	0.198
-678.208	141.987	0.292	-0.389
-677.193	-170.480	0.186	0.007
-676.178	81.441	-0.172	0.187
-675.164	41.293	0.040	0.037
-674.149	-151.322	0.382	0.029
-673.135	800.000	-0.076	-0.221
-672.120	165.248	0.106	0.151
-671.105	464.293	-0.084	-0.188
-670.091	-126.287	-0.302	0.045
-669.076	800.000	0.018	-0.061
-668.062	118.766	-0.237	0.294
-667.047	-18.752	-0.291	-0.182
-666.032	-200.000	0.286	-0.001
-665.018	-61.063	-0.083	-0.035
-664.003	-150.166	-0.070	-0.005
-662.989	-200.000	-0.012	-0.258
-661.974	184.846	0.241	0.358
-660.959	800.000	0.002	-0.010
-659.945	232.820	-0.052	-0.087
-658.930	-200.000	0.012	0.203
-657.916	-200.000	0.006	-0.349
-656.901	5.775	-0.231	-0.172
-655.886	151.038	-0.295	0.403
-654.872	101.542	0.226	-0.264
-653.857	31.393	-0.173	0.149
-652.843	658.779	0.106	-0.274
-651.828	82.802	0.128	0.140
-650.814	-165.038	-0.193	0.009
-649.799	-108.261	0.095	0.021
-648.784	800.000	-0.090	-0.272
-647.770	95.026	-0.232	0.265
-646.755	105.217	0.223	0.264
-645.741	116.640	-0.090	-0.111
-644.726	-163.006	-0.348	-0.017
-643.711	-71.892	-0.167	-0.062
-642.697	129.000	0.101	-0.129
-641.682	29.794	-0.137	-0.117
-640.668	-16.441	-0.218	0.139
-639.653	-1.301	-0.166	0.117
-638.638	-150.463	0.246	-0.019
-637.624	-114.012	-0.444	-0.086
-636.609	-116.793	0.196	0.036
-635.595	143.527	-0.210	-0.280
-634.580	-200.000	0.002	0.230
-633.565	-99.347	0.250	0.063
-632.551	269.760	-0.019	0.033
-631.536	-200.000	-0.019	0.294
-630.522	-94.650	0.185	0.050
-629.507	-125.028	-0.290	0.045
-628.492	-116.447	0.188	0.035
-627.478	756.722	-0.058	0.157
-626.463	-6.778	0.262	0.179
-625.449	800.000	0.035	0.127
-624.434	28.841	-0.196	-0.167
-623.419	-92.864	-0.350	-0.098
-622.405	151.450	0.149	0.203
-621.390	-112.226	-0.091	0.018
-620.376	-29.710	0.192	0.110
-619.361	-200.000	0.011	0.234
-618.346	-144.232	-0.244	-0.023
-617.332	-79.374	-0.333	0.113
-616.317	-11.758	-0.193	-0.127
-615.303	142.800	0.123	-0.164
-614.288	-200.000	-0.018	-0.089
-613.273	189.287	-0.121	-0.181
-612.259	99.711	0.173	0.200
-611.244	73.042	-0.129	0.135
-610.230	18.225	0.293	0.234
-609.215	753.471	-0.069	-0.187
-608.201	-96.400	0.416	0.110
-607.186	726.667	-0.037	0.099
-606.171	800.000	0.009	-0.031
-605.157	-76.326	0.124	0.044
-604.142	-111.904	0.364	-0.074
-603.128	-200.000	0.044	-0.386
-602.113	100.873	-0.271	0.316
-601.098	-40.577	0.174	-0.090
-600.084	464.428	0.059	-0.131
-599.069	309.195	-0.137	-0.256
-598.055	-145.905	-0.158	-0.014
-597.040	-141.839	0.084	-0.008
-596.025	-200.000	-0.024	0.222
-595.011	-200.000	0.005	0.145
-593.996	-200.000	0.043	-0.348
-592.982	-200.000	0.041	0.187
-591.967	-74.409	0.293	0.106
-590.952	-51.075	0.133	0.062
-589.938	230.002	-0.112	-0.183
-588.923	800.000	-0.126	-0.419
-587.909	34.049	-0.183	0.159
-586.894	197.205	0.067	-0.102
-585.879	-200.000	-0.062	-0.423
-584.865	-32.851	-0.152	0.084
-583.850	-200.000	-0.010	-0.351
-582.836	-179.989	0.133	0.003
-581.821	-1.491	0.230	-0.163
-580.806	800.000	-0.079	0.232
-579.792	398.979	0.115	0.242
-578.777	-85.641	0.097	0.030
-577.763	-150.188	0.151	-0.012
-576.748	-95.831	-0.127	-0.034
-575.733	-47.791	-0.438	-0.212
-574.719	41.661	-0.106	-0.097
-573.704	-55.492	-0.201	0.090
-572.690	137.437	0.161	-0.211
-571.675	-200.000	0.005	0.160
-570.661	-200.000	0.061	0.344
-569.646	-200.000	0.037	0.175
-568.631	-7.155	-0.303	0.206
-567.617	-12.570	0.097	0.063
-566.602	-200.000	0.014	-0.138
-565.588	18.954	0.174	0.139
-564.573	-14.602	0.097	-0.062
-563.558	103.362	0.077	0.090
-562.544	-24.067	0.204	0.122
-561.529	-200.000	-0.001	0.145
-560.515	-151.992	0.146	-0.011
-559.500	-24.922	0.036	0.022
-558.485	146.619	-0.086	-0.115
-557.471	800.000	-0.069	0.227
-556.456	-39.822	0.225	-0.118
-555.442	800.000	-0.050	-0.205
-554.427	107.750	0.105	0.126
-553.412	262.369	-0.199	0.345
-552.398	63.298	-0.117	-0.117
-551.383	57.212	-0.250	0.244
-550.369	-200.000	-0.032	0.279
-549.354	694.237	-0.052	0.137
-548.339	-200.000	0.048	0.653
-547.325	124.662	0.068	-0.086
-546.310	800.000	0.101	-0.291
-545.296	-200.000	0.273	-0.001
-544.281	5.284	0.246	-0.181
-543.266	-30.639	-0.026	0.015
-542.252	162.301	-0.094	-0.132
-541.237	800.000	0.029	0.087
-540.223	-200.000	-0.028	0.153
-539.208	2.760	-0.134	-0.097
-538.193	22.321	-0.096	-0.079
-537.179	-155.217	-0.596	-0.039
-536.164	97.628	-0.062	-0.071
-535.150	-92.435	0.140	-0.039
-534.135	-102.531	0.079	-0.019
-533.121	63.677	0.163	-0.164
-532.106	504.513	-0.047	0.109
-531.091	-165.812	-0.283	0.012
-530.077	-200.000	-0.005	0.142
-529.062	159.332	0.175	-0.243
-528.048	-22.038	-0.070	0.043
-527.033	-53.165	-0.178	-0.082
-526.018	20.375	0.067	-0.054
-525.004	-26.348	-0.183	-0.107
-523.989	307.395	0.082	0.153
-522.975	-2.802	-0.152	0.106
-521.960	642.080	-0.118	-0.301
-520.945	0.094	0.342	-0.244
-519.931	-200.000	0.045	-0.408
-518.916	-46.917	-0.174	0.085
-517.902	-200.000	0.021	0.165
-516.887	-28.729	0.196	-0.112
-515.872	64.967	-0.297	-0.299
-514.858	425.065	0.078	-0.168
-513.843	-50.156	0.262	-0.124
-512.829	-80.635	0.290	0.096
-511.814	94.143	0.163	-0.185
-510.799	800.000	0.052	0.187
-509.785	-43.116	-0.074	-0.038
-508.770	-200.000	-0.011	-0.141
-507.756	-200.000	0.028	-0.260
-506.741	-55.048	-0.210	0.094
-505.726	-200.000	0.015	-0.184
-504.712	-200.000	-0.042	-0.311
-503.697	60.379	0.299	-0.295
-502.683	375.212	0.099	0.202
-501.668	-66.980	-0.199	0.078
-500.653	-77.788	-0.193	0.067
-499.639	69.744	-0.161	-0.165
-498.624	354.702	-0.167	-0.331
-497.610	400.860	-0.042	0.088
-496.595	-85.103	0.206	-0.064
-495.581	800.000	-0.027	0.074
-494.566	-143.910	-0.252	-0.024
-493.551	72.204	0.094	0.098
-492.537	-200.000	0.004	-0.150
-491.522	-120.034	-0.104	-0.018
-490.508	-163.079	-0.265	-0.013
-489.493	6.517	-0.167	-0.124
-488.478	800.000	0.079	-0.322
-487.464	-200.000	-0.024	-0.200
-486.449	289.721	0.072	0.130
-485.435	-116.694	-0.075	-0.014
-484.420	800.000	-0.030	0.104
-483.405	800.000	-0.030	0.125
-482.391	-79.270	0.013	0.004
-481.376	-134.716	0.115	-0.014
-480.362	86.947	-0.064	0.071
-479.347	-82.922	-0.189	-0.061
-478.332	311.742	0.043	0.081
-477.318	-63.228	0.281	0.116
-476.303	-42.459	-0.133	0.068
-475.289	-78.574	0.221	-0.075
-474.274	-200.000	0.008	-0.043
-473.259	800.000	0.029	-0.094
-472.245	-97.421	0.121	-0.031
-471.230	-110.404	0.185	-0.038
-470.216	284.353	0.031	0.055
-469.201	43.736	0.233	-0.212
-468.186	-89.693	-0.031	-0.009
-467.172	800.000	-0.084	0.263
-466.157	800.000	-0.051	-0.171
-465.143	-29.771	-0.278	0.158
-464.128	14.526	0.108	-0.084
-463.113	-41.672	0.072	-0.037
-462.099	-54.770	0.098	0.044
-461.084	204.382	-0.144	0.223
-460.070	99.837	0.119	-0.137
-459.055	-200.000	0.002	-0.220
-458.040	-41.387	-0.197	-0.101
-457.026	-200.000	0.019	-0.143
-456.011	34.113	-0.054	0.047
-454.997	-137.431	-0.292	0.033
-453.982	-32.685	-0.277	-0.153
-452.968	-75.184	-0.218	0.077
-451.953	-84.701	-0.125	0.039
-450.938	800.000	-0.027	-0.080
-449.924	49.522	-0.319	0.299
-448.909	-200.000	0.082	0.488
-447.895	-39.614	0.150	0.078
-446.880	-200.000	0.016	-0.078
-445.865	-59.213	0.186	0.080
-444.851	-70.796	0.294	-0.111
-443.836	-200.000	-0.010	0.164
-442.822	143.925	-0.158	0.209
-441.807	-200.000	-0.010	0.102
-440.792	-15.486	0.054	-0.035
-439.778	-184.059	-0.054	0.001
-438.763	-200.000	-0.157	-0.000
-437.749	800.000	0.073	0.207
-436.734	14.133	0.247	0.192
-435.719	164.276	-0.199	-0.279
-434.705	-53.036	-0.046	-0.021
-433.690	191.139	0.105	0.157
-432.676	273.145	-0.056	-0.099
-431.661	42.264	0.171	-0.155
-430.646	-113.492	-0.299	-0.058
-429.632	360.863	0.050	-0.099
-428.617	159.174	-0.166	-0.229
-427.603	494.676	-0.082	0.187
-426.588	-57.551	-0.108	0.047
-425.573	51.239	-0.225	-0.212
-424.559	43.513	0.038	0.035
-423.544	800.000	-0.095	-0.391
-422.530	53.468	0.218	0.208
-421.515	800.000	-0.135	-0.442
-420.500	148.727	-0.079	0.107
-419.486	-29.785	-0.124	-0.070
-418.471	166.211	0.089	0.126
-417.457	800.000	0.073	-0.286
-416.442	395.743	0.087	-0.180
-415.428	-130.247	0.301	0.041
-414.413	-200.000	-0.029	-0.137
-413.398	800.000	-0.104	0.366
-412.384	-200.000	0.085	0.390
-411.369	141.448	0.020	0.027
-410.355	541.625	0.066	0.155
-409.340	-200.000	-0.013	0.095
-408.325	-44.991	0.363	0.180
-407.311	14.752	-0.035	-0.027
-406.296	763.549	-0.083	-0.223
-405.282	7.924	0.221	0.165
-404.267	256.717	-0.032	0.054
-403.252	-200.000	-0.069	-0.311
-402.238	-122.238	0.309	-0.050
-401.223	800.000	0.021	-0.073
-400.209	426.871	-0.162	-0.347
-399.194	238.646	-0.218	0.360
-398.179	74.830	-0.138	0.144
-397.165	-2.570	0.050	-0.035
-396.150	-10.966	-0.156	-0.102
-395.136	800.000	0.053	-0.162
-394.121	-200.000	0.008	0.134
-393.106	-70.595	0.243	-0.091
-392.092	124.957	0.273	0.342
-391.077	-200.000	0.007	0.074
-390.063	681.545	-0.027	-0.071
-389.048	-131.798	-0.147	0.019
-388.033	-144.475	0.053	-0.005
-387.019	-200.000	-0.005	-0.172
-386.004	415.606	-0.058	0.124
-384.990	304.436	-0.159	-0.293
-383.975	-132.185	-0.160	0.021
-382.960	-41.735	-0.088	-0.045
-381.946	106.666	0.086	-0.101
-380.931	-107.367	0.244	-0.053
-379.917	-133.577	-0.085	0.011
-378.902	800.000	-0.089	0.274
-377.888	-44.451	-0.115	0.057
-376.873	-98.291	0.059	-0.015
-375.858	50.051	-0.097	-0.091
-374.844	-200.000	-0.025	-0.157
-373.829	-200.000	0.032	-0.220
-372.815	19.684	-0.098	-0.079
-371.800	44.757	-0.194	-0.177
-370.785	27.555	-0.074	0.062
-369.771	-5.019	-0.366	0.250
-368.756	-120.662	0.305	0.051
-367.742	366.888	-0.101	0.203
-366.727	-200.000	0.030	0.163
-365.712	-67.982	0.068	-0.026
-364.698	-161.057	-0.057	0.003
-363.683	47.584	-0.121	0.112
-362.669	-200.000	0.023	0.469
-361.654	7.448	0.178	0.132
-360.639	66.005	-0.087	0.087
-359.625	483.572	0.053	-0.119
-358.610	-29.330	-0.294	-0.167
-357.596	-128.258	-0.200	0.028
-356.581	-16.327	0.204	-0.129
-355.566	-200.000	0.012	0.135
-354.552	-141.562	-0.074	0.007
-353.537	800.000	0.080	-0.263
-352.523	800.000	-0.080	-0.320
-351.508	125.412	-0.071	-0.089
-350.493	50.355	0.169	-0.159
-349.479	-127.897	0.083	0.012
-348.464	-169.017	0.164	-0.006
-347.450	528.132	0.095	-0.222
-346.435	351.839	-0.098	-0.192
-345.420	27.705	-0.030	-0.025
-344.406	273.024	-0.131	-0.230
-343.391	39.056	0.121	-0.107
-342.377	-72.918	-0.278	-0.101
-341.362	-200.000	0.040	0.192
-340.348	464.905	-0.206	0.456
-339.333	-186.229	0.063	0.001
-338.318	-200.000	-0.032	-0.400
-337.304	170.689	0.203	-0.288
-336.289	-46.037	0.100	-0.049
-335.275	-200.000	0.029	-0.169
-334.260	-187.579	-0.046	0.001
-333.245	-92.561	0.110	-0.031
-332.231	-2.852	0.180	0.124
-331.216	-200.000	-0.013	-0.098
-330.202	459.506	0.047	-0.103
-329.187	-42.134	0.222	0.112
-328.172	-148.548	-0.231	0.019
-327.158	-38.216	0.410	0.216
-326.143	78.656	-0.126	-0.134
-325.129	800.000	-0.054	0.177
-324.114	-200.000	0.055	0.241
-323.099	-200.000	-0.022	-0.263
-322.085	-200.000	-0.013	0.075
-321.070	116.909	0.156	-0.190
-320.056	6.886	-0.093	0.069
-319.041	-25.214	-0.300	-0.176
-318.026	110.973	0.058	0.070
-317.012	-72.805	-0.174	-0.064
-315.997	-129.073	-0.093	-0.013
-314.983	-31.730	0.143	0.080
-313.968	76.753	-0.064	0.067
-312.953	399.791	0.014	-0.030
-311.939	-15.458	-0.168	-0.107
-310.924	-115.656	0.039	0.007
-309.910	-40.386	0.174	-0.089
-308.895	-30.608	-0.287	0.161
-307.880	254.067	0.091	0.154
-306.866	-106.010	0.156	-0.035
-305.851	-88.228	-0.187	0.055
-304.837	-126.592	-0.274	-0.040
-303.822	800.000	0.086	-0.282
-302.807	43.289	-0.178	0.161
-301.793	-53.767	0.194	0.088
-300.778	-50.673	0.113	-0.053
-299.764	61.890	-0.055	0.054
-298.749	722.730	-0.157	-0.413
-297.735	-85.263	-0.401	-0.124
-296.720	131.694	-0.276	0.352
-295.705	468.073	-0.100	0.222
-294.691	265.138	-0.134	-0.231
-293.676	35.781	0.134	0.116
-292.662	-17.697	0.110	-0.068
-291.647	800.000	0.015	0.055
-290.632	166.332	-0.135	-0.189
-289.618	-179.228	-0.236	0.005
-288.603	214.054	0.138	0.217
-287.589	-26.102	-0.191	-0.111
-286.574	800.000	0.085	-0.325
-285.559	90.561	0.277	0.307
-284.545	280.660	0.085	0.150
-283.530	7.388	-0.297	-0.220
-282.516	-200.000	-0.018	-0.110
-281.501	-28.994	-0.481	-0.273
-280.486	-114.135	0.184	0.035
-279.472	-105.751	-0.118	0.026
-278.457	800.000	-0.098	0.273
-277.443	54.132	-0.246	-0.234
-276.428	62.398	-0.332	-0.328
-275.413	217.662	0.071	0.112
-274.399	-200.000	-0.020	0.212
-273.384	0.305	0.218	0.154
-272.370	0.587	0.194	0.137
-271.355	154.318	0.098	0.133
-270.340	-17.806	0.240	0.149
-269.326	-92.747	-0.210	0.058
-268.311	-151.195	0.160	-0.012
-267.297	-108.019	-0.137	-0.029
-266.282	-35.369	0.395	-0.212
-265.267	-120.998	0.388	0.065
-264.253	-200.000	0.007	-0.035
-263.238	-141.860	0.439	-0.043
-262.224	-40.633	-0.203	-0.104
-261.209	800.000	0.047	0.195
-260.195	-75.595	-0.214	0.075
-259.180	-71.027	0.405	0.151
-258.165	10.157	0.157	-0.118
-257.151	-200.000	0.005	0.116
-256.136	800.000	0.141	0.545
-255.122	24.077	-0.253	-0.206
-254.107	-33.205	0.253	-0.139
-253.092	19.640	0.059	-0.047
-252.078	-120.247	-0.248	-0.042
-251.063	800.000	-0.030	0.097
-250.049	33.390	-0.126	-0.108
-249.034	-200.000	0.021	-0.283
-248.019	-105.955	0.066	0.015
-247.005	-175.845	0.224	-0.006
-245.990	800.000	-0.031	-0.098
-244.976	-116.909	0.432	0.078
-243.961	-181.527	0.161	-0.003
-242.946	387.123	0.022	0.044
-241.932	-97.340	-0.254	0.065
-240.917	-200.000	0.019	-0.103
-239.903	2.507	0.309	-0.221
-238.888	-93.124	0.125	0.034
-237.873	241.620	0.177	0.292
-236.859	-200.000	0.007	-0.114
-235.844	-189.910	0.145	-0.002
-234.830	-110.137	0.131	0.027
-233.815	300.262	0.082	-0.149
-232.800	-94.337	0.230	-0.062
-231.786	-21.891	-0.060	-0.036
-230.771	20.335	-0.184	-0.147
-229.757	-69.587	0.313	0.118
-228.742	-177.391	0.092	0.002
-227.727	618.645	-0.110	-0.273
-226.713	-90.441	-0.203	-0.058
-225.698	-81.552	-0.212	0.069
-224.684	-200.000	0.052	-0.310
-223.669	6.902	-0.122	-0.090
-222.655	-200.000	-0.044	0.474
-221.640	-8.069	0.199	0.132
-220.625	374.896	0.157	0.316
-219.611	-200.000	0.002	-0.350
-218.596	-48.490	-0.136	0.065
-217.582	-200.000	-0.010	-0.185
-216.567	385.332	0.050	-0.101
-215.552	-46.719	0.089	0.043
-214.538	-47.011	0.270	0.130
-213.523	-108.459	0.318	-0.068
-212.509	778.058	-0.159	-0.428
-211.494	-34.377	-0.370	0.200
-210.479	-200.000	0.022	-0.167
-209.465	268.207	-0.044	0.076
-208.450	46.595	0.388	0.355
-207.436	-22.188	0.046	-0.027
-206.421	-200.000	-0.018	0.317
-205.406	800.000	-0.060	0.213
-204.392	-200.000	-0.058	0.294
-203.377	-200.000	0.034	0.245
-202.363	-29.506	-0.279	0.157
-201.348	-200.000	0.023	0.146
-200.333	-23.368	0.336	-0.199
-199.319	-200.000	-0.002	0.191
-198.304	-19.429	-0.305	-0.186
-197.290	-200.000	-0.009	-0.210
-196.275	-20.234	-0.057	0.034
-195.260	-84.941	0.069	-0.021
-194.246	-91.135	0.213	-0.060
-193.231	72.082	0.133	-0.136
-192.217	638.976	0.132	-0.330
-191.202	-120.344	0.085	0.014
-190.187	107.228	0.121	-0.141
-189.173	463.353	0.075	0.166
-188.158	1.929	-0.239	0.170
-187.144	499.613	0.236	0.537
-186.129	-200.000	0.019	-0.137
-185.114	800.000	-0.117	-0.344
-184.100	-34.333	-0.191	-0.103
-183.085	-83.634	0.422	0.133
-182.071	253.133	0.162	0.272
-181.056	-200.000	0.002	0.022
-180.042	13.366	-0.104	-0.079
-179.027	-200.000	0.035	0.201
-178.012	315.779	-0.104	-0.192
-176.998	229.650	0.140	0.225
-175.983	-200.000	-0.027	0.189
-174.969	305.742	-0.143	0.262
-173.954	-122.471	0.431	-0.069
-172.939	-109.490	-0.050	0.010
-171.925	24.437	0.179	0.146
-170.910	323.233	0.070	-0.132
-169.896	-200.000	0.011	0.062
-168.881	-200.000	0.033	-0.202
-167.866	64.323	-0.190	-0.188
-166.852	29.598	-0.183	-0.153
-165.837	122.351	-0.163	0.200
-164.823	-200.000	0.031	0.319
-163.808	-59.710	-0.345	-0.145
-162.793	-200.000	0.006	-0.207
-161.779	800.000	0.049	-0.183
-160.764	78.831	0.256	0.270
-159.750	162.166	0.334	0.461
-158.735	-130.593	-0.192	0.026
-157.720	32.619	0.167	0.142
-156.706	193.212	0.156	0.233
-155.691	11.032	0.212	0.160
-154.677	-200.000	-0.175	0.000
-153.662	11.364	0.020	0.015
-152.647	480.601	0.073	0.163
-151.633	-8.995	-0.292	0.192
-150.618	-149.847	0.392	-0.030
-149.604	443.720	-0.096	-0.207
-148.589	800.000	0.072	0.206
-147.574	251.120	-0.055	0.093
-146.560	-45.199	0.322	-0.158
-145.545	-62.948	-0.071	-0.029
-144.531	-23.691	0.190	0.112
-143.516	-147.017	-0.345	0.029
-142.502	123.225	-0.047	-0.058
-141.487	-46.324	0.100	0.048
-140.472	-99.434	-0.294	0.073
-139.458	-96.990	0.217	-0.056
-138.443	417.015	0.040	-0.085
-137.429	9.406	-0.232	0.173
-136.414	5.926	-0.165	-0.120
-135.399	-15.583	0.391	-0.245
-134.385	-152.562	-0.042	0.003
-133.370	313.254	-0.074	0.137
-132.356	-92.356	0.125	-0.035
-131.341	60.900	0.221	0.216
-130.326	800.000	-0.041	-0.116
-129.312	303.499	0.060	-0.110
-128.297	-183.522	-0.211	0.004
-127.283	280.295	-0.164	0.288
-126.268	-51.250	-0.263	-0.121
-125.253	223.505	0.122	0.194
-124.239	-200.000	-0.054	0.372
-123.224	-13.303	0.168	-0.107
-122.210	-177.285	-0.340	-0.008
-121.195	315.808	-0.081	-0.151
