DTS Sentinel unit serial number:	SN413079Multiplexer serial number:	ORYXHardware model number:	OX4-SRSoftware version number:	ORYX F/W v4.00 Oryx Data Collector v3.7.2.0data status	okinstallation	princeton_trtdifferential loss correction	single-endedforward channel	channel 2reverse channel	N/Adate	2019/09/18time	14:27:35forward acquisition time	60.00reverse acquisition time	0.00gamma	496.2192k internal	0.2318k external	0.2318temperature offset calibration	0.9997default loss term (dB/km)	0.3790temperature slope calibration	1.0000multiplexer offset coefficient	1.0000multiplexer slope coefficient	1.0000fibre end	0.00T internal ref (°C)	34.33T ext. ref 1 (°C)	0.69T ext. ref 2 (°C)	31.02length (m)	temperature (°C)	Stokes	anti-Stokes-747.200	-200.000	-0.030	0.323
-746.185	7.974	0.154	0.117
-745.171	12.305	-0.045	-0.035
-744.156	-56.711	-0.193	-0.087
-743.142	112.481	-0.022	-0.026
-742.127	-200.000	-0.078	0.437
-741.112	-79.561	0.344	0.118
-740.098	-37.556	0.294	0.159
-739.083	800.000	-0.043	-0.150
-738.069	208.004	-0.070	0.110
-737.054	-200.000	-0.043	0.232
-736.039	501.382	-0.103	0.240
-735.025	44.168	-0.142	0.131
-734.010	-119.394	-0.490	-0.086
-732.996	-64.365	-0.212	-0.087
-731.981	0.377	-0.229	-0.166
-730.966	-130.291	-0.239	-0.033
-729.952	454.074	0.029	-0.065
-728.937	114.901	-0.083	0.103
-727.923	-2.433	-0.185	0.131
-726.908	800.000	0.037	-0.160
-725.894	-6.187	-0.160	0.111
-724.879	800.000	-0.037	-0.148
-723.864	-200.000	0.032	0.273
-722.850	58.495	0.142	-0.140
-721.835	282.963	0.157	0.286
-720.821	-30.783	0.180	-0.103
-719.806	-150.220	-0.088	-0.007
-718.791	-103.303	-0.582	0.139
-717.777	43.537	-0.124	-0.114
-716.762	-164.965	-0.363	-0.016
-715.748	-200.000	0.055	-0.312
-714.733	800.000	-0.011	-0.042
-713.718	118.218	0.145	0.180
-712.704	9.020	0.079	0.060
-711.689	158.850	-0.109	-0.153
-710.675	-200.000	0.050	-0.268
-709.660	-200.000	0.017	0.177
-708.645	-7.025	0.133	0.091
-707.631	253.432	-0.131	-0.226
-706.616	595.862	0.102	0.255
-705.602	60.423	-0.230	0.230
-704.587	171.463	-0.079	0.115
-703.572	268.259	0.176	0.312
-702.558	204.613	-0.154	0.241
-701.543	-28.810	0.249	-0.145
-700.529	-200.000	0.027	-0.319
-699.514	374.142	0.178	-0.365
-698.499	4.358	-0.131	-0.097
-697.485	-141.732	0.131	0.013
-696.470	81.094	-0.130	0.142
-695.456	-2.011	-0.034	0.024
-694.441	-200.000	-0.016	0.107
-693.426	-160.497	-0.165	-0.009
-692.412	-108.329	-0.087	-0.019
-691.397	-149.839	0.296	0.023
-690.383	331.145	0.232	0.451
-689.368	-116.116	0.105	-0.020
-688.354	-200.000	-0.234	-0.000
-687.339	-162.604	-0.410	-0.020
-686.324	800.000	-0.019	-0.057
-685.310	-200.000	-0.066	0.309
-684.295	166.669	-0.071	0.101
-683.281	6.395	-0.229	-0.172
-682.266	797.590	0.038	0.106
-681.251	288.964	-0.050	0.092
-680.237	-200.000	-0.008	0.078
-679.222	-200.000	0.008	0.155
-678.208	-176.727	0.160	0.004
-677.193	275.432	0.024	0.043
-676.178	306.155	-0.104	0.195
-675.164	1.853	0.251	0.183
-674.149	-200.000	0.047	0.319
-673.135	67.526	-0.231	0.238
-672.120	-159.788	0.321	-0.018
-671.105	4.413	0.200	0.148
-670.091	-28.615	0.330	-0.192
-669.076	-83.753	-0.221	0.071
-668.062	800.000	0.060	0.207
-667.047	87.437	0.197	0.220
-666.032	800.000	0.012	0.047
-665.018	71.542	-0.107	0.112
-664.003	145.990	0.099	0.134
-662.989	-109.014	0.104	-0.022
-661.974	89.497	0.188	0.211
-660.959	-49.030	-0.255	-0.123
-659.945	78.185	-0.258	0.278
-658.930	315.747	0.133	0.253
-657.916	219.951	0.016	0.025
-656.901	16.832	0.238	0.190
-655.886	800.000	0.051	0.149
-654.872	-200.000	-0.079	0.440
-653.857	-170.442	0.104	0.004
-652.843	421.969	-0.045	-0.097
-651.828	44.477	0.078	0.072
-650.814	49.302	-0.152	-0.144
-649.799	-90.242	-0.147	-0.043
-648.784	-184.293	-0.271	-0.004
-647.770	36.081	-0.133	0.118
-646.755	28.327	0.005	0.004
-645.741	-119.421	0.399	0.070
-644.726	-85.910	0.154	0.048
-643.711	83.439	0.089	-0.097
-642.697	38.293	-0.085	0.076
-641.682	247.444	0.158	-0.269
-640.668	0.629	-0.114	0.082
-639.653	302.299	0.090	0.168
-638.638	193.338	0.141	-0.215
-637.624	-97.460	-0.119	0.031
-636.609	-113.055	0.153	0.030
-635.595	-10.361	-0.231	0.154
-634.580	13.084	-0.359	0.280
-633.565	118.561	-0.060	-0.075
-632.551	800.000	0.042	-0.170
-631.536	-73.997	-0.199	0.073
-630.522	-28.879	0.163	0.095
-629.507	-83.264	0.249	0.081
-628.492	-200.000	0.036	-0.390
-627.478	-200.000	-0.016	-0.086
-626.463	321.319	-0.049	0.094
-625.449	800.000	0.148	0.428
-624.434	-34.970	-0.162	-0.089
-623.419	-85.259	0.135	0.043
-622.405	40.055	-0.357	-0.323
-621.390	-200.000	0.025	-0.193
-620.376	800.000	0.017	-0.048
-619.361	268.853	0.030	-0.054
-618.346	-19.555	-0.269	0.168
-617.332	800.000	-0.086	-0.323
-616.317	-81.208	-0.166	-0.055
-615.303	333.498	-0.078	-0.152
-614.288	800.000	-0.080	-0.337
-613.273	-200.000	-0.002	0.101
-612.259	-200.000	-0.013	0.332
-611.244	-78.437	0.395	-0.136
-610.230	-200.000	0.000	0.047
-609.215	-86.684	-0.097	0.030
-608.201	277.659	0.114	-0.203
-607.186	195.461	0.137	-0.209
-606.171	-66.349	-0.163	-0.065
-605.157	112.825	-0.139	-0.170
-604.142	800.000	-0.071	-0.310
-603.128	21.618	-0.310	-0.254
-602.113	93.457	0.047	-0.054
-601.098	800.000	-0.072	0.223
-600.084	800.000	0.038	0.159
-599.069	-136.124	-0.163	0.019
-598.055	-200.000	0.007	0.115
-597.040	-83.534	0.282	-0.091
-596.025	-27.092	0.380	-0.223
-595.011	-69.529	-0.169	-0.065
-593.996	-109.324	0.128	0.027
-592.982	-29.743	-0.144	0.083
-591.967	10.939	0.249	0.192
-590.952	-200.000	-0.030	0.206
-589.938	-0.576	0.138	-0.098
-588.923	47.311	-0.141	0.132
-587.909	-200.000	-0.009	0.197
-586.894	-73.467	0.146	0.054
-585.879	-154.850	0.381	0.025
-584.865	112.142	0.146	-0.178
-583.850	32.834	-0.155	-0.135
-582.836	206.591	0.179	-0.280
-581.821	-166.079	-0.455	-0.019
-580.806	-14.937	-0.128	-0.083
-579.792	116.667	0.166	0.204
-578.777	94.662	0.354	0.404
-577.763	245.385	0.140	-0.238
-576.748	800.000	-0.015	0.053
-575.733	187.387	-0.104	-0.156
-574.719	-200.000	0.068	0.324
-573.704	-108.933	-0.161	-0.034
-572.690	-107.562	-0.062	-0.014
-571.675	-133.994	0.223	-0.028
-570.661	24.485	-0.064	0.053
-569.646	800.000	0.126	0.423
-568.631	42.827	-0.128	0.118
-567.617	0.109	-0.170	-0.122
-566.602	-200.000	-0.045	-0.365
-565.588	-7.355	0.097	0.066
-564.573	-26.955	-0.086	-0.051
-563.558	-47.024	-0.164	0.081
-562.544	-128.122	-0.131	-0.019
-561.529	123.845	-0.076	0.096
-560.515	-200.000	0.003	0.030
-559.500	800.000	0.069	0.251
-558.485	35.673	-0.131	-0.116
-557.471	800.000	0.100	0.285
-556.456	33.728	0.153	0.133
-555.442	-200.000	-0.029	-0.165
-554.427	-200.000	0.014	0.131
-553.412	17.507	-0.187	-0.149
-552.398	-87.899	-0.165	0.050
-551.383	-200.000	-0.008	0.175
-550.369	40.294	-0.203	0.183
-549.354	36.236	-0.275	-0.243
-548.339	-200.000	-0.026	-0.154
-547.325	42.279	-0.112	-0.102
-546.310	-121.437	-0.237	0.040
-545.296	-170.016	-0.223	0.008
-544.281	-142.285	-0.362	0.036
-543.266	800.000	0.027	0.091
-542.252	-86.790	-0.153	-0.047
-541.237	-0.016	-0.063	-0.045
-540.223	1.086	0.011	-0.008
-539.208	209.732	-0.166	-0.261
-538.193	-66.715	-0.184	0.073
-537.179	-100.679	0.263	-0.065
-536.164	596.334	-0.105	-0.261
-535.150	511.457	-0.170	-0.397
-534.135	-42.519	0.109	-0.056
-533.121	36.358	0.068	-0.060
-532.106	-200.000	-0.057	-0.341
-531.091	-83.732	0.062	0.020
-530.077	30.026	-0.123	-0.105
-529.062	-19.038	0.182	0.114
-528.048	-65.514	0.151	-0.061
-527.033	-66.472	-0.225	-0.090
-526.018	800.000	-0.080	-0.228
-525.004	86.752	-0.067	0.074
-523.989	47.082	0.021	-0.019
-522.975	-200.000	0.034	0.283
-521.960	402.633	-0.041	-0.086
-520.945	-200.000	0.009	0.437
-519.931	-93.082	0.452	-0.126
-518.916	-145.516	-0.391	-0.035
-517.902	64.458	0.087	0.088
-516.887	596.030	0.099	0.247
-515.872	438.834	-0.117	0.257
-514.858	-42.053	-0.313	-0.160
-513.843	-1.111	-0.269	0.191
-512.829	-16.492	0.205	0.130
-511.814	381.044	-0.062	-0.127
-510.799	22.289	0.256	-0.210
-509.785	800.000	-0.028	0.095
-508.770	-108.975	0.100	0.021
-507.756	-173.750	0.322	0.010
-506.741	115.302	-0.090	-0.110
-505.726	-163.489	0.044	-0.002
-504.712	-116.861	-0.214	-0.039
-503.697	27.406	0.146	-0.123
-502.683	-117.995	-0.104	-0.019
-501.668	-29.156	-0.117	-0.067
-500.653	-23.002	-0.046	-0.028
-499.639	304.632	-0.131	0.245
-498.624	20.140	-0.183	0.148
-497.610	-200.000	0.017	-0.133
-496.595	9.827	-0.182	0.138
-495.581	-200.000	-0.035	0.327
-494.566	-55.179	0.278	0.125
-493.551	-113.693	-0.167	-0.033
-492.537	90.002	-0.097	0.109
-491.522	-200.000	0.049	-0.227
-490.508	-200.000	-0.049	0.256
-489.493	-200.000	0.016	0.184
-488.478	-97.910	-0.243	0.063
-487.464	-37.777	-0.472	0.252
-486.449	-74.883	0.503	0.181
-485.435	800.000	-0.109	0.390
-484.420	48.012	0.125	-0.117
-483.405	536.121	0.092	0.219
-482.391	652.511	-0.181	-0.464
-481.376	241.264	-0.040	-0.067
-480.362	-131.276	-0.304	-0.040
-479.347	-104.462	0.302	0.070
-478.332	-200.000	0.107	-0.476
-477.318	800.000	0.015	-0.059
-476.303	-91.373	-0.169	-0.048
-475.289	749.453	0.156	0.422
-474.274	-99.148	0.213	-0.054
-473.259	-50.077	0.284	0.135
-472.245	-200.000	-0.024	-0.270
-471.230	203.100	-0.043	-0.067
-470.216	171.487	0.182	0.261
-469.201	-63.441	0.148	0.061
-468.186	-200.000	-0.006	0.112
-467.172	83.280	-0.177	-0.193
-466.157	-83.187	0.114	0.037
-465.143	101.789	0.118	-0.138
-464.128	103.680	0.148	-0.174
-463.113	210.628	0.214	0.336
-462.099	192.705	-0.107	-0.161
-461.084	-200.000	0.029	-0.371
-460.070	170.455	0.183	-0.263
-459.055	-87.248	0.203	-0.062
-458.040	125.112	0.046	-0.058
-457.026	737.622	-0.035	0.094
-456.011	-127.781	-0.196	0.028
-454.997	-200.000	-0.067	-0.350
-453.982	-6.123	0.246	0.168
-452.968	12.558	-0.350	-0.270
-451.953	68.030	-0.314	0.322
-450.938	-192.991	-0.228	0.002
-449.924	-194.076	-0.157	0.001
-448.909	-200.000	-0.014	0.087
-447.895	50.570	0.326	-0.308
-446.880	-46.071	-0.627	0.309
-445.865	-200.000	0.023	0.168
-444.851	-200.000	0.005	-0.277
-443.836	43.789	0.058	0.053
-442.822	-96.720	0.275	0.072
-441.807	800.000	-0.063	-0.275
-440.792	-91.147	0.182	-0.052
-439.778	-42.863	-0.439	-0.223
-438.763	-93.969	0.269	0.074
-437.749	-50.923	0.067	0.031
-436.734	167.372	-0.259	-0.368
-435.719	58.331	-0.080	0.079
-434.705	800.000	-0.124	0.453
-433.690	-62.307	0.260	0.108
-432.676	-76.156	0.215	0.076
-431.661	800.000	-0.073	-0.313
-430.646	86.216	0.022	0.025
-429.632	-65.386	-0.136	0.055
-428.617	-79.532	0.255	-0.086
-427.603	-200.000	0.008	0.241
-426.588	800.000	0.067	-0.283
-425.573	500.528	0.085	0.197
-424.559	44.427	0.060	-0.055
-423.544	-95.690	0.121	-0.032
-422.530	238.103	0.104	0.172
-421.515	-61.922	0.081	-0.034
-420.500	-78.410	0.060	-0.021
-419.486	-192.853	-0.201	-0.002
-418.471	613.603	-0.105	-0.263
-417.457	449.422	-0.052	-0.114
-416.442	27.580	0.136	-0.115
-415.428	800.000	-0.049	-0.142
-414.413	-200.000	-0.063	-0.324
-413.398	11.778	0.067	-0.051
-412.384	-39.270	-0.172	-0.090
-411.369	800.000	0.077	-0.251
-410.355	-39.740	0.177	-0.092
-409.340	-85.303	0.204	0.063
-408.325	-47.437	0.067	0.032
-407.311	800.000	0.024	0.067
-406.296	800.000	-0.034	0.114
-405.282	-81.441	-0.334	-0.110
-404.267	768.787	0.061	0.167
-403.252	-200.000	0.011	0.116
-402.238	-13.478	-0.188	0.122
-401.223	-14.934	0.392	0.251
-400.209	-94.746	0.102	0.028
-399.194	-200.000	-0.033	-0.220
-398.179	-27.651	-0.037	-0.022
-397.165	-56.204	0.261	-0.116
-396.150	800.000	0.044	-0.184
-395.136	800.000	-0.055	0.202
-394.121	-200.000	-0.022	0.232
-393.106	284.384	0.185	0.333
-392.092	-108.308	0.225	-0.048
-391.077	-200.000	-0.023	-0.289
-390.063	180.914	-0.084	-0.123
-389.048	20.279	0.131	0.105
-388.033	31.195	-0.051	-0.044
-387.019	-29.011	-0.253	0.145
-386.004	-182.541	-0.521	-0.010
-384.990	-85.497	0.146	-0.045
-383.975	277.557	-0.111	0.198
-382.960	-13.611	0.101	-0.065
-381.946	-115.717	0.184	-0.034
-380.931	-152.422	-0.229	0.016
-379.917	-200.000	0.001	-0.088
-378.902	800.000	-0.083	0.345
-377.888	151.297	0.144	0.195
-376.873	-56.082	-0.259	0.115
-375.858	672.544	-0.056	-0.146
-374.844	106.924	-0.167	0.198
-373.829	-200.000	-0.016	0.144
-372.815	-45.157	0.110	-0.055
-371.800	800.000	0.066	0.227
-370.785	-97.432	-0.230	0.060
-369.771	-123.024	-0.217	0.035
-368.756	31.400	0.116	0.099
-367.742	11.079	0.540	0.412
-366.727	-128.467	0.130	-0.018
-365.712	-60.734	-0.334	-0.141
-364.698	800.000	-0.072	-0.231
-363.683	32.840	0.274	0.237
-362.669	-200.000	0.004	0.296
-361.654	-200.000	-0.071	-0.438
-360.639	-108.835	-0.198	-0.042
-359.625	53.126	-0.104	0.099
-358.610	260.736	0.164	0.283
-357.596	131.127	-0.157	0.200
-356.581	-200.000	-0.046	-0.234
-355.566	606.981	0.045	-0.113
-354.552	388.430	-0.108	-0.223
-353.537	720.462	0.047	0.124
-352.523	-112.733	-0.191	0.038
-351.508	125.761	-0.164	0.206
-350.493	109.405	0.184	-0.219
-349.479	-117.364	0.099	-0.018
-348.464	-115.909	-0.036	-0.007
-347.450	-155.216	-0.338	0.022
-346.435	-116.963	0.308	-0.056
-345.420	-200.000	-0.043	0.231
-344.406	-1.274	0.089	0.063
-343.391	-165.796	0.221	0.009
-342.377	-84.815	-0.354	-0.111
-341.362	800.000	-0.034	-0.107
-340.348	800.000	0.062	-0.219
-339.333	45.908	-0.230	-0.212
-338.318	800.000	0.070	-0.252
-337.304	209.271	0.049	-0.077
-336.289	-139.408	-0.103	-0.011
-335.275	-55.978	0.068	-0.030
-334.260	287.063	0.042	-0.076
-333.245	204.706	-0.035	-0.053
-332.231	-152.815	-0.089	-0.006
-331.216	-200.000	-0.012	0.051
-330.202	154.028	-0.161	0.220
-329.187	143.981	0.104	0.138
-328.172	-200.000	0.019	0.118
-327.158	-21.424	0.103	-0.063
-326.143	800.000	-0.038	-0.119
-325.129	-106.146	-0.151	-0.034
-324.114	-200.000	0.029	0.209
-323.099	-103.017	0.366	-0.086
-322.085	-27.668	-0.326	0.189
-321.070	751.680	0.089	0.238
-320.056	61.806	0.225	0.223
-319.041	102.440	0.042	-0.049
-318.026	26.788	-0.103	-0.086
-317.012	-80.945	-0.185	-0.061
-315.997	130.184	-0.099	-0.126
-314.983	-200.000	0.016	-0.080
-313.968	-200.000	-0.055	0.394
-312.953	-31.315	-0.331	0.186
-311.939	-85.028	-0.102	-0.032
-310.924	-77.916	0.145	-0.050
-309.910	-200.000	-0.006	-0.120
-308.895	154.828	0.050	-0.069
-307.880	554.897	0.086	-0.207
-306.866	-125.142	-0.486	0.074
-305.851	-198.475	0.334	0.002
-304.837	-200.000	-0.005	-0.157
-303.822	-161.200	0.310	-0.016
-302.807	-41.434	0.197	-0.101
-301.793	-200.000	0.027	-0.270
-300.778	800.000	-0.051	0.182
-299.764	800.000	-0.070	-0.251
-298.749	166.484	-0.107	-0.151
-297.735	39.959	-0.202	0.181
-296.720	-110.749	0.230	-0.047
-295.705	-48.374	-0.120	0.058
-294.691	-174.323	0.226	0.007
-293.676	288.788	-0.060	0.109
-292.662	38.862	0.079	0.070
-291.647	79.734	0.125	0.133
-290.632	-200.000	-0.063	-0.413
-289.618	229.338	0.087	0.142
-288.603	-14.725	-0.054	-0.034
-287.589	233.113	0.198	0.324
-286.574	315.762	-0.094	-0.176
-285.559	-23.967	0.169	-0.101
-284.545	127.756	0.141	-0.179
-283.530	683.079	0.022	0.058
-282.516	-44.297	-0.083	-0.041
-281.501	-50.572	0.213	-0.100
-280.486	-79.223	0.108	-0.037
-279.472	-37.246	0.167	0.089
-278.457	-80.854	0.322	0.106
-277.443	-175.681	0.040	-0.001
-276.428	-200.000	0.005	-0.150
-275.413	20.417	-0.140	0.112
-274.399	-200.000	-0.051	0.477
-273.384	-37.714	0.204	-0.108
-272.370	145.740	-0.069	-0.092
-271.355	-116.309	0.045	-0.008
-270.340	-112.752	-0.286	0.056
-269.326	800.000	-0.079	0.220
-268.311	338.633	0.059	0.114
-267.297	800.000	0.129	-0.364
-266.282	-200.000	0.045	-0.373
-265.267	-175.279	-0.246	-0.007
-264.253	-192.226	-0.302	-0.003
-263.238	372.851	0.121	0.244
-262.224	-125.501	0.220	-0.033
-261.209	800.000	-0.033	0.101
-260.195	-98.157	-0.100	-0.025
-259.180	-10.989	0.152	0.099
-258.165	-86.533	-0.136	-0.041
-257.151	206.122	-0.122	-0.188
-256.136	-104.594	0.008	0.002
-255.122	-35.631	-0.145	0.078
-254.107	800.000	0.087	0.356
-253.092	46.353	-0.214	0.197
-252.078	118.116	0.226	0.277
-251.063	-125.331	-0.131	-0.020
-250.049	225.353	0.172	-0.276
-249.034	800.000	-0.140	0.609
-248.019	-21.395	0.345	-0.209
-247.005	-200.000	-0.001	-0.069
-245.990	375.179	-0.154	0.311
-244.976	6.937	-0.225	0.167
-243.961	-10.545	0.128	0.084
-242.946	-52.852	0.321	0.147
-241.932	-52.476	0.179	-0.082
-240.917	82.308	0.251	-0.270
-239.903	-71.696	-0.280	0.104
-238.888	644.712	0.136	0.345
-237.873	-200.000	0.043	-0.200
-236.859	800.000	-0.072	-0.241
-235.844	41.731	0.247	-0.223
-234.830	-200.000	-0.121	0.000
-233.815	-200.000	-0.001	0.082
-232.800	-105.260	-0.069	-0.016
-231.786	800.000	-0.090	-0.269
-230.771	95.561	-0.008	-0.009
-229.757	134.437	0.202	0.260
-228.742	50.676	-0.120	0.113
-227.727	800.000	0.103	0.343
-226.713	45.360	-0.067	0.062
-225.698	-91.281	0.165	-0.047
-224.684	800.000	-0.044	-0.157
-223.669	-86.745	0.258	-0.078
-222.655	-200.000	0.071	-0.331
-221.640	-200.000	-0.038	-0.323
-220.625	800.000	0.037	-0.156
-219.611	-42.446	-0.120	0.061
-218.596	293.075	0.054	-0.098
-217.582	-200.000	0.033	-0.315
-216.567	-74.012	0.040	-0.014
-215.552	111.845	0.098	0.118
-214.538	38.075	-0.179	0.158
-213.523	-200.000	0.018	-0.420
-212.509	-50.395	0.184	0.086
-211.494	44.737	0.159	0.145
-210.479	-21.784	0.188	-0.113
-209.465	288.819	-0.127	0.229
-208.450	-70.812	0.098	-0.037
-207.436	-75.303	-0.102	0.036
-206.421	489.274	-0.077	-0.174
-205.406	-65.157	0.258	-0.103
-204.392	-182.658	-0.171	0.003
-203.377	379.464	-0.144	0.291
-202.363	319.843	0.084	0.158
-201.348	-107.038	-0.285	-0.062
-200.333	800.000	-0.117	0.450
-199.319	57.581	0.120	0.116
-198.304	41.397	0.128	-0.115
-197.290	759.028	0.005	0.012
-196.275	-100.790	-0.403	-0.098
-195.260	-69.030	-0.237	0.091
-194.246	53.463	-0.210	-0.200
-193.231	-134.162	-0.184	0.023
-192.217	249.457	0.095	-0.159
-191.202	77.114	0.148	0.156
-190.187	-200.000	-0.020	-0.133
-189.173	-69.371	0.173	-0.066
-188.158	-49.088	-0.073	0.035
-187.144	109.944	0.094	0.112
-186.129	-39.519	0.411	0.213
-185.114	-156.652	-0.180	-0.011
-184.100	-137.025	0.277	-0.031
-183.085	-174.803	0.219	-0.006
-182.071	349.602	-0.146	0.285
-181.056	216.011	-0.178	-0.280
-180.042	1.795	0.136	0.097
-179.027	286.514	0.108	0.192
-178.012	-96.325	-0.122	-0.032
-176.998	-86.038	-0.458	-0.140
-175.983	-200.000	-0.049	-0.232
-174.969	800.000	-0.097	0.362
-173.954	-48.923	0.243	-0.115
-172.939	-95.130	0.301	-0.080
-171.925	-159.242	0.110	-0.006
-170.910	-198.704	-0.182	0.001
-169.896	-52.681	0.334	0.153
-168.881	38.123	0.315	-0.277
-167.866	11.480	-0.080	-0.061
-166.852	313.359	-0.084	0.157
-165.837	-200.000	0.056	-0.294
-164.823	200.950	0.085	0.129
-163.808	800.000	0.112	0.332
-162.793	-20.733	-0.044	-0.027
-161.779	-29.224	0.227	-0.129
-160.764	-93.132	0.107	0.029
-159.750	434.465	-0.129	-0.277
-158.735	800.000	0.028	0.113
-157.720	-136.774	0.345	0.039
-156.706	-3.605	-0.159	0.109
-155.691	-73.494	0.344	-0.124
-154.677	82.690	-0.153	-0.164
-153.662	295.561	-0.089	0.162
-152.647	-20.236	0.155	-0.094
-151.633	27.205	0.027	0.023
-150.618	-2.955	-0.209	-0.144
-149.604	-72.363	0.237	-0.087
-148.589	-200.000	-0.003	-0.258
-147.574	428.139	-0.129	0.275
-146.560	112.258	0.083	-0.100
-145.545	67.917	-0.020	0.020
-144.531	28.338	-0.139	0.116
-143.516	648.076	-0.038	0.097
-142.502	116.218	0.135	0.164
-141.487	-89.455	0.097	0.028
-140.472	344.603	0.106	0.206
-139.458	397.450	-0.050	0.103
-138.443	-200.000	0.019	-0.434
-137.429	-200.000	-0.035	0.229
-136.414	26.920	0.310	0.257
-135.399	176.710	0.143	0.206
-134.385	-111.155	-0.206	-0.042
-133.370	-200.000	0.012	0.322
-132.356	-200.000	0.038	0.293
-131.341	-200.000	0.070	0.334
-130.326	-145.150	-0.303	-0.027
-129.312	800.000	-0.012	0.041
-128.297	-200.000	-0.011	-0.398
-127.283	-200.000	0.001	-0.219
-126.268	-200.000	-0.030	-0.174
-125.253	800.000	-0.118	0.341
-124.239	261.821	0.195	0.333
-123.224	50.662	0.040	-0.037
-122.210	800.000	0.078	0.223
-121.195	-200.000	0.041	-0.217
