DTS Sentinel unit serial number:	SN413079Multiplexer serial number:	ORYXHardware model number:	OX4-SRSoftware version number:	ORYX F/W v4.00 Oryx Data Collector v3.7.2.0data status	okinstallation	princeton_trtdifferential loss correction	single-endedforward channel	channel 2reverse channel	N/Adate	2019/09/17time	17:27:34forward acquisition time	60.00reverse acquisition time	0.00gamma	496.2192k internal	0.2289k external	0.2289temperature offset calibration	0.9980default loss term (dB/km)	0.3790temperature slope calibration	1.0000multiplexer offset coefficient	1.0000multiplexer slope coefficient	1.0000fibre end	0.00T internal ref (°C)	43.14T ext. ref 1 (°C)	0.34T ext. ref 2 (°C)	39.24length (m)	temperature (°C)	Stokes	anti-Stokes-747.200	-95.240	0.143	0.040
-746.185	60.098	-0.182	0.184
-745.171	-200.000	-0.015	-0.183
-744.156	-112.796	0.256	-0.052
-743.142	-171.001	0.151	0.005
-742.127	-192.521	0.308	-0.003
-741.112	777.456	-0.053	0.150
-740.098	-200.000	-0.008	0.316
-739.083	-17.215	0.405	0.262
-738.069	-140.149	-0.365	-0.039
-737.054	27.785	-0.125	-0.108
-736.039	800.000	0.083	-0.282
-735.025	-126.406	-0.196	0.030
-734.010	-142.677	-0.376	-0.038
-732.996	-152.313	-0.326	-0.024
-731.981	130.703	-0.035	0.046
-730.966	209.252	0.067	-0.108
-729.952	241.074	-0.046	-0.078
-728.937	800.000	0.015	-0.054
-727.923	-103.104	-0.293	0.071
-726.908	28.615	-0.185	-0.160
-725.894	-113.313	0.345	-0.069
-724.879	746.958	0.091	-0.252
-723.864	32.510	-0.113	0.100
-722.850	183.987	0.285	-0.431
-721.835	81.361	0.104	-0.115
-720.821	800.000	0.094	-0.296
-719.806	269.957	0.201	-0.361
-718.791	-200.000	-0.028	-0.327
-717.777	-156.646	0.315	-0.020
-716.762	-9.301	-0.227	0.155
-715.748	800.000	-0.108	-0.415
-714.733	159.682	-0.029	-0.041
-713.718	229.634	0.101	-0.168
-712.704	-118.593	0.132	0.024
-711.689	98.404	0.168	-0.199
-710.675	-59.399	0.148	-0.065
-709.660	8.950	0.122	0.094
-708.645	-152.210	0.407	-0.030
-707.631	435.363	0.036	-0.080
-706.616	-141.239	-0.134	-0.014
-705.602	-16.657	0.134	0.087
-704.587	17.762	-0.060	-0.049
-703.572	252.022	-0.093	0.163
-702.558	53.756	0.101	-0.100
-701.543	-17.342	-0.141	-0.091
-700.529	671.703	0.112	-0.297
-699.514	-96.256	0.169	-0.046
-698.499	-181.179	-0.178	-0.004
-697.485	800.000	0.033	0.130
-696.470	-200.000	0.054	0.307
-695.456	139.922	0.117	-0.157
-694.441	-13.380	0.146	-0.097
-693.426	17.014	0.336	0.272
-692.412	599.413	0.026	0.065
-691.397	-68.854	-0.141	-0.056
-690.383	800.000	-0.049	0.167
-689.368	701.520	-0.115	-0.310
-688.354	-28.867	-0.184	-0.108
-687.339	-200.000	-0.005	-0.167
-686.324	-67.711	-0.162	-0.065
-685.310	179.758	0.100	-0.150
-684.295	-85.872	-0.284	0.090
-683.281	-35.021	-0.488	0.272
-682.266	800.000	-0.061	0.183
-681.251	-138.780	0.065	-0.007
-680.237	-94.856	-0.091	0.025
-679.222	800.000	-0.035	0.139
-678.208	800.000	-0.076	-0.267
-677.193	189.426	0.155	-0.238
-676.178	304.731	-0.209	0.397
-675.164	-67.705	0.170	-0.068
-674.149	-200.000	0.046	-0.335
-673.135	-111.467	-0.147	-0.031
-672.120	-181.793	0.397	0.008
-671.105	796.792	-0.172	-0.484
-670.091	-142.316	0.389	-0.039
-669.076	15.288	-0.140	-0.112
-668.062	-87.676	-0.309	0.095
-667.047	-184.902	-0.136	-0.002
-666.032	-21.743	0.318	-0.198
-665.018	490.667	-0.041	0.095
-664.003	-200.000	-0.027	-0.208
-662.989	81.365	-0.086	-0.095
-661.974	-96.391	-0.315	0.085
-660.959	-200.000	0.041	0.368
-659.945	-84.159	0.111	0.036
-658.930	57.949	0.060	-0.060
-657.916	481.019	-0.052	0.122
-656.901	-200.000	-0.032	-0.220
-655.886	104.416	-0.167	-0.201
-654.872	244.861	0.152	0.260
-653.857	114.371	-0.198	0.246
-652.843	376.576	0.090	0.188
-651.828	-119.105	0.299	-0.053
-650.814	-116.053	-0.101	-0.019
-649.799	-172.124	0.471	-0.015
-648.784	497.250	0.060	0.141
-647.770	-24.682	-0.355	0.216
-646.755	24.779	0.205	-0.173
-645.741	-8.830	0.278	-0.190
-644.726	-90.423	0.209	-0.062
-643.711	-173.262	-0.231	-0.007
-642.697	101.526	0.094	-0.112
-641.682	-60.968	0.168	0.072
-640.668	-200.000	-0.040	0.306
-639.653	401.058	0.029	-0.062
-638.638	-88.563	0.460	-0.140
-637.624	-139.364	-0.045	-0.005
-636.609	-200.000	0.065	0.423
-635.595	-18.640	0.134	0.085
-634.580	800.000	-0.024	0.091
-633.565	-200.000	0.016	-0.099
-632.551	127.936	-0.195	0.254
-631.536	-115.449	0.190	0.037
-630.522	280.653	0.121	0.220
-629.507	-133.299	0.216	-0.028
-628.492	-200.000	-0.003	0.263
-627.478	343.197	0.115	-0.229
-626.463	-50.325	-0.296	-0.143
-625.449	-10.599	-0.175	0.118
-624.434	238.327	0.060	0.101
-623.419	800.000	-0.040	0.141
-622.405	800.000	-0.060	-0.188
-621.390	-32.458	-0.112	0.064
-620.376	767.406	-0.006	-0.017
-619.361	800.000	0.031	0.105
-618.346	-200.000	-0.033	0.186
-617.332	800.000	0.045	0.158
-616.317	197.389	0.086	-0.133
-615.303	-155.075	-0.416	-0.028
-614.288	346.839	-0.080	-0.160
-613.273	-23.379	-0.140	0.086
-612.259	-200.000	-0.013	-0.094
-611.244	-94.525	-0.141	0.039
-610.230	165.759	-0.121	-0.175
-609.215	197.192	-0.102	-0.159
-608.201	-200.000	0.028	0.145
-607.186	305.336	-0.186	0.352
-606.171	-99.874	-0.389	0.099
-605.157	56.686	0.204	0.202
-604.142	119.996	0.101	-0.127
-603.128	-177.094	0.241	-0.006
-602.113	-54.901	0.215	-0.099
-601.098	208.506	-0.120	-0.192
-600.084	-39.408	0.201	0.108
-599.069	187.992	-0.094	-0.143
-598.055	-77.658	-0.195	0.069
-597.040	108.693	-0.033	0.040
-596.025	-62.271	-0.227	0.097
-595.011	-200.000	0.011	-0.151
-593.996	-22.885	0.260	0.160
-592.982	-72.521	0.176	-0.066
-591.967	163.654	-0.161	-0.230
-590.952	-171.341	-0.259	-0.009
-589.938	-200.000	0.057	-0.331
-588.923	-81.381	-0.300	0.101
-587.909	89.623	-0.066	0.075
-586.894	-66.787	-0.389	0.157
-585.879	73.028	0.136	-0.145
-584.865	-64.465	-0.101	0.042
-583.850	-200.000	0.003	0.102
-582.836	-50.186	0.236	0.114
-581.821	417.891	0.117	0.255
-580.806	299.639	0.155	-0.291
-579.792	800.000	-0.031	0.102
-578.777	334.306	-0.168	-0.330
-577.763	-200.000	0.022	0.229
-576.748	-136.397	-0.161	-0.019
-575.733	16.980	-0.146	0.118
-574.719	-200.000	-0.013	0.289
-573.704	-100.024	-0.223	-0.057
-572.690	800.000	0.100	-0.312
-571.675	8.075	0.128	0.098
-570.661	220.926	-0.061	-0.099
-569.646	160.241	-0.123	0.175
-568.631	47.669	-0.186	0.176
-567.617	90.984	-0.132	0.151
-566.602	-200.000	-0.037	0.282
-565.588	-117.716	-0.102	-0.019
-564.573	75.613	-0.055	0.060
-563.558	-113.456	-0.244	-0.049
-562.544	-84.260	0.323	-0.104
-561.529	-145.936	-0.081	0.007
-560.515	57.503	0.123	-0.122
-559.500	-69.083	-0.255	0.100
-558.485	-105.645	-0.350	0.081
-557.471	194.652	-0.163	-0.252
-556.456	9.498	0.199	-0.153
-555.442	-44.630	0.107	-0.054
-554.427	-48.799	0.027	0.013
-553.412	570.054	-0.084	-0.207
-552.398	800.000	-0.101	-0.335
-551.383	-200.000	0.012	0.105
-550.369	800.000	-0.037	-0.146
-549.354	-80.123	-0.141	-0.048
-548.339	-45.550	0.156	0.079
-547.325	-200.000	-0.010	-0.153
-546.310	-43.581	-0.411	0.211
-545.296	800.000	-0.073	-0.256
-544.281	-200.000	0.001	0.158
-543.266	-37.793	0.253	-0.137
-542.252	27.975	0.154	-0.132
-541.237	800.000	0.089	0.285
-540.223	93.652	0.236	-0.272
-539.208	-99.940	0.094	0.024
-538.193	73.323	-0.247	-0.263
-537.179	-141.613	-0.248	0.025
-536.164	-200.000	0.039	-0.339
-535.150	-60.955	-0.093	0.040
-534.135	328.594	0.104	0.203
-533.121	294.582	-0.062	-0.115
-532.106	41.256	0.259	0.238
-531.091	-62.974	0.039	0.016
-530.077	-75.727	0.145	-0.052
-529.062	8.328	-0.268	-0.204
-528.048	-24.831	0.061	0.037
-527.033	110.057	0.284	-0.347
-526.018	-6.935	0.321	-0.221
-525.004	-60.699	-0.183	-0.079
-523.989	147.897	0.032	-0.044
-522.975	-125.929	-0.150	0.023
-521.960	800.000	-0.063	-0.245
-520.945	606.814	0.111	0.281
-519.931	159.378	0.198	-0.279
-518.916	76.870	-0.249	-0.269
-517.902	-34.801	0.079	-0.044
-516.887	10.054	0.056	0.043
-515.872	120.029	0.159	-0.200
-514.858	124.647	0.180	0.230
-513.843	616.333	0.041	-0.103
-512.829	800.000	-0.054	0.180
-511.814	800.000	-0.101	-0.295
-510.799	-16.528	0.124	0.080
-509.785	-200.000	-0.006	0.082
-508.770	139.014	-0.135	-0.180
-507.756	800.000	-0.060	-0.245
-506.741	-121.882	0.412	-0.069
-505.726	-105.686	0.147	0.034
-504.712	-130.911	-0.122	-0.017
-503.697	68.569	0.166	0.173
-502.683	-79.689	0.160	-0.055
-501.668	-27.481	0.171	-0.101
-500.653	-105.176	0.123	0.028
-499.639	800.000	-0.059	0.244
-498.624	-80.044	0.142	-0.048
-497.610	69.988	0.195	0.204
-496.595	98.112	-0.266	0.311
-495.581	84.128	-0.023	0.026
-494.566	-3.555	-0.114	-0.080
-493.551	-130.093	-0.314	0.044
-492.537	193.506	-0.158	-0.243
-491.522	28.031	-0.249	0.213
-490.508	-17.892	0.307	-0.195
-489.493	-12.629	-0.139	0.092
-488.478	-200.000	0.004	-0.263
-487.464	446.584	0.093	0.207
-486.449	-62.726	-0.179	0.075
-485.435	152.228	0.094	0.130
-484.420	-13.993	0.266	0.174
-483.405	-200.000	-0.035	-0.249
-482.391	-200.000	0.078	-0.464
-481.376	800.000	0.040	-0.142
-480.362	44.634	-0.193	0.180
-479.347	34.887	-0.148	-0.131
-478.332	800.000	0.149	-0.431
-477.318	28.706	-0.044	0.038
-476.303	290.380	-0.140	-0.258
-475.289	-99.200	0.156	0.040
-474.274	-119.219	-0.188	-0.033
-473.259	514.380	-0.085	0.202
-472.245	-3.054	-0.043	0.030
-471.230	-89.922	0.178	-0.053
-470.216	-200.000	0.107	0.495
-469.201	669.022	0.104	0.272
-468.186	295.191	-0.065	-0.121
-467.172	-26.578	0.210	0.125
-466.157	-31.226	-0.108	0.061
-465.143	-200.000	0.031	0.225
-464.128	-169.621	-0.375	0.014
-463.113	800.000	-0.020	-0.058
-462.099	170.802	-0.104	0.151
-461.084	10.633	-0.131	0.101
-460.070	800.000	-0.110	0.454
-459.055	200.972	0.097	-0.152
-458.040	-158.511	0.281	-0.016
-457.026	-89.109	-0.206	0.062
-456.011	-200.000	-0.030	-0.147
-454.997	549.919	0.094	0.228
-453.982	149.362	0.337	-0.462
-452.968	-17.026	0.291	-0.186
-451.953	50.591	-0.068	0.065
-450.938	140.657	0.183	0.245
-449.924	24.007	-0.211	0.176
-448.909	-122.868	-0.306	0.050
-447.895	-88.746	0.201	-0.060
-446.880	-39.131	-0.128	-0.068
-445.865	800.000	0.123	0.348
-444.851	-4.936	-0.099	0.069
-443.836	-37.345	-0.188	0.102
-442.822	-37.545	-0.221	0.119
-441.807	211.120	-0.019	-0.031
-440.792	406.615	-0.127	-0.271
-439.778	-118.008	-0.109	0.020
-438.763	314.357	0.185	0.352
-437.749	-63.303	-0.375	-0.157
-436.734	-200.000	-0.094	-0.000
-435.719	44.072	0.066	-0.062
-434.705	-45.755	0.104	-0.052
-433.690	800.000	0.013	0.056
-432.676	-200.000	-0.005	0.154
-431.661	109.433	0.099	0.120
-430.646	-68.897	-0.223	-0.087
-429.632	525.914	0.039	-0.092
-428.617	-93.213	0.088	0.025
-427.603	800.000	-0.104	-0.430
-426.588	-123.856	-0.273	-0.044
-425.573	-123.745	-0.268	-0.043
-424.559	-92.393	-0.232	0.066
-423.544	-147.812	0.338	0.029
-422.530	800.000	-0.064	-0.270
-421.515	-200.000	0.016	-0.300
-420.500	-76.565	0.133	0.047
-419.486	-25.508	0.126	-0.075
-418.471	-172.837	-0.073	0.002
-417.457	93.129	-0.197	0.225
-416.442	-166.796	0.215	-0.009
-415.428	800.000	0.066	0.259
-414.413	182.331	0.180	-0.268
-413.398	-142.002	-0.140	0.014
-412.384	80.427	-0.114	-0.125
-411.369	484.562	0.060	0.139
-410.355	236.391	-0.146	0.244
-409.340	-200.000	0.008	-0.092
-408.325	683.324	0.092	0.244
-407.311	800.000	-0.085	-0.292
-406.296	-200.000	0.084	-0.444
-405.282	-200.000	-0.090	-0.457
-404.267	28.017	-0.081	0.069
-403.252	-43.946	0.293	0.149
-402.238	577.602	0.084	-0.208
-401.223	150.291	-0.131	-0.180
-400.209	-83.332	0.072	-0.023
-399.194	-200.000	-0.000	-0.088
-398.179	-113.527	-0.082	0.016
-397.165	74.276	-0.107	-0.114
-396.150	112.784	0.141	-0.173
-395.136	800.000	0.067	-0.224
-394.121	-65.552	0.304	0.123
-393.106	-29.948	0.112	0.065
-392.092	285.742	-0.050	-0.091
-391.077	223.512	0.179	0.291
-390.063	239.069	0.092	0.155
-389.048	800.000	-0.007	-0.027
-388.033	-61.680	-0.321	-0.136
-387.019	147.998	0.065	-0.088
-386.004	7.595	0.211	-0.159
-384.990	-200.000	-0.000	-0.189
-383.975	-121.356	0.177	0.030
-382.960	-29.986	0.347	-0.200
-381.946	-76.686	0.181	0.064
-380.931	-200.000	0.068	-0.344
-379.917	-115.045	-0.194	0.037
-378.902	-200.000	0.002	-0.211
-377.888	-200.000	0.023	-0.420
-376.873	-200.000	-0.016	-0.145
-375.858	-61.422	0.145	-0.062
-374.844	233.415	0.090	-0.150
-373.829	2.256	-0.065	-0.048
-372.815	87.625	0.151	-0.169
-371.800	629.419	-0.091	0.233
-370.785	-200.000	0.001	-0.122
-369.771	-116.859	-0.343	0.063
-368.756	800.000	0.101	-0.330
-367.742	-200.000	0.036	-0.195
-366.727	-112.060	-0.378	0.077
-365.712	-98.391	0.282	0.073
-364.698	-41.698	-0.177	0.092
-363.683	-79.779	-0.232	-0.079
-362.669	96.771	-0.171	-0.198
-361.654	84.982	-0.253	-0.280
-360.639	1.247	0.094	0.068
-359.625	-52.498	0.126	0.059
-358.610	-98.172	-0.138	-0.036
-357.596	137.983	0.148	-0.196
-356.581	335.908	0.117	-0.229
-355.566	800.000	-0.098	-0.280
-354.552	-73.573	0.116	-0.043
-353.537	234.226	0.048	0.079
-352.523	156.622	-0.147	0.205
-351.508	-83.631	0.232	-0.075
-350.493	-52.967	0.109	0.051
-349.479	164.022	-0.018	0.025
-348.464	-13.011	-0.248	-0.163
-347.450	800.000	-0.119	-0.346
-346.435	432.209	-0.119	-0.260
-345.420	-158.538	-0.319	-0.019
-344.406	184.468	-0.169	0.253
-343.391	-2.024	-0.283	0.201
-342.377	402.036	0.071	-0.150
-341.362	131.452	-0.047	-0.061
-340.348	-200.000	0.011	-0.074
-339.333	402.410	-0.019	0.040
-338.318	800.000	-0.046	0.172
-337.304	172.142	-0.232	-0.336
-336.289	800.000	0.033	0.096
-335.275	516.778	-0.059	0.140
-334.260	188.569	-0.193	-0.291
-333.245	378.469	-0.176	-0.364
-332.231	-157.635	0.172	-0.010
-331.216	-37.039	0.298	0.161
-330.202	-7.872	0.052	-0.036
-329.187	-124.012	0.285	0.045
-328.172	40.927	0.057	0.052
-327.158	-50.280	0.126	-0.060
-326.143	-41.838	0.212	-0.110
-325.129	-92.763	-0.074	0.021
-324.114	-99.975	0.180	0.045
-323.099	-13.930	-0.285	-0.186
-322.085	-40.118	0.116	0.061
-321.070	800.000	0.066	-0.206
-320.056	-46.516	0.048	0.024
-319.041	-200.000	-0.016	0.154
-318.026	799.560	0.044	0.121
-317.012	449.336	0.041	0.090
-315.997	362.063	-0.006	0.013
-314.983	89.702	-0.120	-0.135
-313.968	-200.000	0.009	-0.182
-312.953	-200.000	0.020	0.126
-311.939	156.140	0.147	-0.205
-310.924	-200.000	-0.010	-0.245
-309.910	215.714	0.206	0.330
-308.895	-200.000	-0.068	0.411
-307.880	7.597	0.108	0.081
-306.866	-149.511	-0.335	-0.027
-305.851	-172.564	0.051	-0.002
-304.837	-200.000	0.048	0.318
-303.822	-53.556	0.029	0.014
-302.807	68.055	-0.081	0.084
-301.793	381.924	0.070	0.144
-300.778	-2.754	-0.169	-0.119
-299.764	113.331	0.037	0.045
-298.749	-98.058	-0.216	0.056
-297.735	-200.000	0.003	-0.065
-296.720	-145.665	-0.493	-0.044
-295.705	308.283	-0.046	-0.086
-294.691	47.795	0.143	0.135
-293.676	180.694	0.056	0.083
-292.662	-194.113	-0.457	0.004
-291.647	-158.734	0.078	0.004
-290.632	184.917	-0.029	0.044
-289.618	-1.245	0.152	0.108
-288.603	-164.845	0.248	-0.011
-287.589	-93.375	-0.132	0.037
-286.574	-131.021	0.042	-0.006
-285.559	62.536	-0.078	0.078
-284.545	-200.000	0.014	-0.198
-283.530	-77.958	0.179	-0.062
-282.516	134.334	0.007	-0.010
-281.501	87.124	-0.136	-0.151
-280.486	-200.000	-0.081	0.396
-279.472	13.849	-0.100	0.078
-278.457	124.057	0.211	-0.267
-277.443	-16.829	0.227	-0.145
-276.428	800.000	-0.055	0.215
-275.413	199.004	-0.139	-0.214
-274.399	-150.295	0.075	-0.006
-273.384	39.984	-0.242	0.219
-272.370	29.463	-0.090	0.077
-271.355	-177.748	0.121	-0.003
-270.340	-20.606	0.156	-0.097
-269.326	8.767	0.226	0.171
-268.311	-200.000	-0.014	-0.130
-267.297	-75.186	0.204	-0.073
-266.282	-41.670	-0.399	0.206
-265.267	-7.534	0.286	0.194
-264.253	-200.000	0.008	0.193
-263.238	-16.281	0.081	0.052
-262.224	-200.000	0.119	-0.001
-261.209	-152.230	-0.241	0.018
-260.195	-200.000	0.071	0.366
-259.180	146.491	-0.135	0.183
-258.165	-98.383	0.154	-0.040
-257.151	572.292	-0.066	-0.162
-256.136	718.188	-0.073	-0.196
-255.122	-60.113	0.073	-0.031
-254.107	32.147	0.149	0.130
-253.092	-200.000	0.027	0.133
-252.078	-39.537	-0.219	-0.115
-251.063	48.116	0.020	-0.019
-250.049	-163.521	0.101	0.005
-249.034	-68.155	0.254	0.100
-248.019	105.634	0.116	0.138
-247.005	-200.000	0.025	-0.144
-245.990	2.865	0.038	0.028
-244.976	92.571	0.054	0.061
-243.961	90.199	-0.096	-0.108
-242.946	-200.000	0.011	0.091
-241.932	95.756	0.058	0.066
-240.917	-56.640	-0.060	-0.027
-239.903	-127.319	-0.287	-0.042
-238.888	57.304	0.070	-0.068
-237.873	50.792	0.345	-0.329
-236.859	68.791	0.294	0.304
-235.844	443.391	0.061	-0.135
-234.830	-21.900	0.303	0.185
-233.815	-81.920	0.313	-0.103
-232.800	-79.624	-0.057	0.019
-231.786	-148.177	0.221	-0.018
-230.771	115.859	-0.225	0.276
-229.757	-51.569	0.357	0.167
-228.742	-166.942	-0.184	0.008
-227.727	359.797	-0.102	0.205
-226.713	-200.000	0.001	0.130
-225.698	123.480	-0.151	-0.191
-224.684	26.612	-0.150	-0.126
-223.669	-200.000	0.022	-0.220
-222.655	-100.699	0.313	0.077
-221.640	-156.932	-0.346	0.021
-220.625	2.362	-0.176	0.128
-219.611	93.972	0.151	0.172
-218.596	800.000	0.110	0.421
-217.582	10.357	0.329	-0.251
-216.567	729.865	0.031	0.082
-215.552	624.227	0.059	0.149
-214.538	-25.330	-0.225	0.133
-213.523	49.645	-0.177	-0.167
-212.509	-200.000	0.036	0.240
-211.494	-49.598	-0.285	0.136
-210.479	61.251	0.106	-0.106
-209.465	-124.546	0.335	0.052
-208.450	31.147	-0.181	0.156
-207.436	-200.000	-0.019	0.117
-206.421	-200.000	-0.064	-0.283
-205.406	-136.006	0.175	-0.021
-204.392	-200.000	-0.018	0.128
-203.377	800.000	0.010	-0.035
-202.363	98.680	0.070	0.081
-201.348	800.000	0.015	-0.062
-200.333	416.179	-0.093	0.199
-199.319	-110.731	-0.112	-0.023
-198.304	800.000	-0.059	-0.203
-197.290	-88.134	0.039	0.012
-196.275	-200.000	0.015	-0.146
-195.260	-50.267	0.382	0.181
-194.246	-104.587	-0.215	0.050
-193.231	800.000	0.088	-0.249
-192.217	-79.225	0.187	-0.064
-191.202	239.233	0.044	0.073
-190.187	-146.200	0.197	0.017
-189.173	-200.000	0.024	0.199
-188.158	800.000	0.138	0.447
-187.144	-42.060	0.257	0.132
-186.129	800.000	-0.047	-0.184
-185.114	-11.942	0.149	0.098
-184.100	215.159	-0.129	-0.204
-183.085	404.422	0.091	0.192
-182.071	284.012	0.100	-0.180
-181.056	800.000	0.086	-0.298
-180.042	21.440	0.034	0.028
-179.027	-53.746	0.207	-0.095
-178.012	-7.512	-0.270	0.183
-176.998	-200.000	0.012	-0.193
-175.983	-105.604	0.062	0.014
-174.969	-59.304	-0.370	0.160
-173.954	30.133	-0.392	-0.335
-172.939	800.000	-0.051	-0.157
-171.925	-200.000	0.012	-0.064
-170.910	-200.000	0.052	0.367
-169.896	684.663	-0.042	-0.109
-168.881	235.019	-0.239	0.395
-167.866	800.000	0.090	0.373
-166.852	-142.109	0.346	0.034
-165.837	800.000	-0.035	0.139
-164.823	-45.456	-0.378	0.187
-163.808	800.000	-0.038	0.141
-162.793	8.254	-0.216	0.163
-161.779	800.000	0.071	0.217
-160.764	-200.000	0.017	0.114
-159.750	-121.366	0.107	-0.018
-158.735	119.100	-0.113	0.140
-157.720	-61.409	-0.206	0.087
-156.706	381.124	0.130	0.267
-155.691	21.477	-0.166	-0.135
-154.677	-28.064	0.043	0.025
-153.662	-200.000	-0.049	0.424
-152.647	141.579	0.104	0.138
-151.633	-89.848	0.172	0.050
-150.618	-179.745	-0.388	0.008
-149.604	-94.603	0.150	0.041
-148.589	51.493	0.064	0.061
-147.574	-79.145	-0.116	0.039
-146.560	-52.681	-0.093	-0.043
-145.545	522.421	-0.304	-0.714
-144.531	204.913	0.130	-0.202
-143.516	-200.000	-0.006	-0.246
-142.502	99.824	-0.130	0.151
-141.487	-51.403	0.057	0.027
-140.472	783.912	-0.067	-0.184
-139.458	-92.660	0.293	0.082
-138.443	13.470	0.174	0.135
-137.429	116.160	0.074	-0.090
-136.414	242.366	-0.147	0.246
-135.399	292.329	-0.118	-0.215
-134.385	-200.000	0.060	0.343
-133.370	-49.114	-0.252	0.121
-132.356	-99.250	0.514	0.130
-131.341	-9.952	-0.183	0.121
-130.326	110.922	-0.178	-0.214
-129.312	-11.553	0.112	0.073
-128.297	647.144	0.003	0.007
-127.283	-21.968	0.053	0.032
-126.268	-200.000	-0.024	0.160
-125.253	59.252	-0.257	0.253
-124.239	-105.864	-0.269	0.061
-123.224	259.005	-0.063	-0.108
-122.210	-200.000	0.012	0.061
-121.195	-200.000	-0.043	-0.333
-120.180	-49.561	0.120	-0.057
