DTS Sentinel unit serial number:	SN413079Multiplexer serial number:	ORYXHardware model number:	OX4-SRSoftware version number:	ORYX F/W v4.00 Oryx Data Collector v3.7.2.0data status	okinstallation	princeton_trtdifferential loss correction	single-endedforward channel	channel 2reverse channel	N/Adate	2019/09/18time	16:07:35forward acquisition time	60.00reverse acquisition time	0.00gamma	496.2192k internal	0.2304k external	0.2304temperature offset calibration	1.0001default loss term (dB/km)	0.3790temperature slope calibration	1.0000multiplexer offset coefficient	1.0000multiplexer slope coefficient	1.0000fibre end	0.00T internal ref (°C)	37.86T ext. ref 1 (°C)	0.81T ext. ref 2 (°C)	37.02length (m)	temperature (°C)	Stokes	anti-Stokes-747.200	145.184	0.175	0.239
-746.185	-174.701	-0.143	-0.004
-745.171	-76.555	-0.138	-0.049
-744.156	-200.000	0.029	0.175
-743.142	-200.000	-0.056	0.390
-742.127	243.169	0.123	0.210
-741.112	61.703	-0.138	-0.140
-740.098	800.000	0.047	0.138
-739.083	800.000	0.072	0.252
-738.069	800.000	-0.104	0.355
-737.054	583.293	-0.118	-0.294
-736.039	-200.000	0.019	-0.642
-735.025	29.036	0.332	-0.287
-734.010	119.522	0.073	-0.092
-732.996	537.896	0.099	-0.239
-731.981	800.000	-0.041	-0.163
-730.966	214.791	0.108	-0.174
-729.952	-16.690	-0.140	-0.090
-728.937	60.604	-0.263	-0.265
-727.923	-200.000	-0.041	-0.197
-726.908	56.725	-0.325	0.322
-725.894	-0.234	-0.116	-0.084
-724.879	-12.990	-0.197	0.131
-723.864	-0.636	-0.174	-0.126
-722.850	-200.000	-0.015	0.173
-721.835	-97.920	-0.115	-0.030
-720.821	800.000	0.038	-0.148
-719.806	55.886	-0.131	0.129
-718.791	-35.774	-0.061	0.033
-717.777	2.376	-0.283	0.208
-716.762	-80.676	0.265	0.090
-715.748	71.688	-0.246	-0.260
-714.733	-57.033	0.260	-0.116
-713.718	-117.248	-0.305	-0.056
-712.704	800.000	-0.097	-0.295
-711.689	-135.543	0.053	0.006
-710.675	-118.024	-0.388	-0.071
-709.660	-23.099	0.158	-0.097
-708.645	-200.000	0.078	-0.377
-707.631	-84.204	0.161	-0.052
-706.616	800.000	-0.057	-0.243
-705.602	-47.312	0.310	0.153
-704.587	49.694	-0.389	0.373
-703.572	275.045	-0.174	0.314
-702.558	268.131	0.128	0.228
-701.543	392.653	-0.101	-0.214
-700.529	426.925	-0.088	-0.193
-699.514	800.000	-0.105	0.337
-698.499	123.447	-0.185	0.235
-697.485	-18.548	-0.247	-0.157
-696.470	62.619	0.214	0.218
-695.456	-30.792	0.101	0.058
-694.441	-79.503	-0.268	-0.092
-693.426	-200.000	-0.003	0.441
-692.412	-200.000	0.013	-0.068
-691.397	50.608	0.102	-0.098
-690.383	49.907	-0.318	-0.305
-689.368	12.389	-0.173	-0.136
-688.354	-15.987	-0.183	0.118
-687.339	-47.208	-0.054	0.027
-686.324	-89.342	0.136	-0.041
-685.310	-200.000	-0.050	-0.226
-684.295	-20.946	-0.150	0.093
-683.281	-20.506	0.059	0.037
-682.266	-86.186	0.270	0.085
-681.251	800.000	0.056	0.228
-680.237	326.832	-0.149	-0.289
-679.222	110.521	-0.064	-0.078
-678.208	-110.467	-0.110	0.023
-677.193	277.102	-0.141	0.255
-676.178	24.105	-0.147	0.123
-675.164	-25.731	-0.213	0.128
-674.149	-87.257	0.386	-0.119
-673.135	-91.776	0.229	-0.066
-672.120	-200.000	-0.016	0.257
-671.105	96.408	-0.067	-0.078
-670.091	-200.000	0.016	0.139
-669.076	-142.830	-0.202	0.020
-668.062	-99.252	0.042	-0.011
-667.047	15.115	0.162	-0.129
-666.032	-200.000	0.031	-0.220
-665.018	-200.000	-0.012	0.062
-664.003	133.658	-0.070	0.092
-662.989	800.000	0.131	0.388
-661.974	-200.000	-0.024	0.195
-660.959	499.036	0.125	-0.293
-659.945	100.478	-0.213	0.251
-658.930	-6.381	0.190	-0.131
-657.916	76.528	0.260	-0.280
-656.901	-90.199	0.293	-0.086
-655.886	481.519	0.092	-0.212
-654.872	120.725	0.169	-0.214
-653.857	-200.000	0.028	-0.325
-652.843	-200.000	0.033	-0.187
-651.828	-154.542	-0.169	-0.011
-650.814	-63.855	-0.061	0.025
-649.799	-113.576	0.212	-0.042
-648.784	-19.680	-0.036	0.022
-647.770	622.237	0.133	-0.340
-646.755	-69.547	-0.378	-0.147
-645.741	-80.757	-0.338	0.114
-644.726	800.000	0.056	-0.194
-643.711	-179.082	-0.287	0.007
-642.697	-7.186	-0.151	0.104
-641.682	165.701	0.140	-0.201
-640.668	-79.656	0.163	0.056
-639.653	-101.989	-0.185	-0.045
-638.638	148.933	0.206	0.283
-637.624	-22.685	-0.142	0.087
-636.609	440.465	0.060	0.134
-635.595	800.000	0.059	-0.191
-634.580	14.929	0.477	-0.379
-633.565	-200.000	0.286	0.000
-632.551	506.399	-0.065	-0.152
-631.536	61.506	0.195	-0.197
-630.522	105.480	-0.156	0.187
-629.507	145.955	-0.292	-0.397
-628.492	290.440	0.109	-0.201
-627.478	-2.134	0.201	-0.143
-626.463	175.650	0.036	-0.054
-625.449	800.000	-0.115	-0.376
-624.434	249.522	-0.083	0.142
-623.419	-117.174	0.280	0.052
-622.405	-200.000	-0.026	-0.181
-621.390	-133.896	-0.230	0.029
-620.376	-127.100	0.183	-0.027
-619.361	313.293	0.057	-0.109
-618.346	-104.039	0.278	0.066
-617.332	800.000	0.023	0.068
-616.317	182.443	0.172	0.257
-615.303	622.445	-0.088	-0.225
-614.288	-85.687	-0.273	0.086
-613.273	-10.789	-0.136	-0.091
-612.259	-101.001	0.162	0.040
-611.244	185.281	-0.102	-0.153
-610.230	43.953	-0.224	-0.208
-609.215	-185.704	0.312	-0.005
-608.201	-47.835	0.291	0.143
-607.186	38.152	-0.178	-0.160
-606.171	-97.501	0.246	0.065
-605.157	-200.000	-0.011	-0.134
-604.142	800.000	-0.032	-0.118
-603.128	24.916	0.104	0.088
-602.113	-77.111	-0.232	0.082
-601.098	-53.277	0.144	-0.067
-600.084	-90.490	0.239	0.070
-599.069	800.000	-0.099	0.352
-598.055	-200.000	-0.307	0.002
-597.040	-178.560	0.146	0.003
-596.025	218.034	-0.093	-0.150
-595.011	-96.522	0.200	0.054
-593.996	-183.519	-0.151	-0.003
-592.982	-175.392	-0.075	0.002
-591.967	149.198	0.084	-0.115
-590.952	257.087	0.152	-0.264
-589.938	60.606	0.295	-0.296
-588.923	-58.833	-0.191	0.084
-587.909	-36.188	0.294	-0.160
-586.894	-21.607	-0.152	0.094
-585.879	-69.467	-0.255	-0.099
-584.865	800.000	-0.028	0.104
-583.850	84.638	-0.307	0.340
-582.836	-200.000	-0.015	0.221
-581.821	800.000	0.117	-0.358
-580.806	800.000	-0.110	0.318
-579.792	661.268	0.107	0.278
-578.777	-197.298	0.163	-0.001
-577.763	-125.124	-0.240	-0.037
-576.748	56.892	0.112	-0.110
-575.733	100.332	-0.251	0.294
-574.719	-44.324	0.316	-0.160
-573.704	-74.385	0.110	0.040
-572.690	84.696	-0.064	0.071
-571.675	406.177	0.107	0.228
-570.661	-100.553	0.227	-0.057
-569.646	-200.000	0.053	0.327
-568.631	198.130	-0.109	-0.169
-567.617	-116.997	-0.325	0.060
-566.602	208.808	-0.085	-0.135
-565.588	-90.426	0.001	-0.000
-564.573	-200.000	-0.014	0.224
-563.558	-63.609	-0.273	-0.113
-562.544	-100.017	0.122	-0.031
-561.529	483.819	0.119	0.274
-560.515	-4.395	0.024	-0.016
-559.500	-104.769	-0.376	-0.087
-558.485	-67.556	-0.280	-0.111
-557.471	-14.993	0.309	0.200
-556.456	-33.702	0.080	-0.045
-555.442	800.000	0.044	0.137
-554.427	267.942	0.065	-0.115
-553.412	-120.332	0.254	0.044
-552.398	785.123	0.130	0.362
-551.383	-22.175	-0.238	-0.146
-550.369	490.765	0.078	-0.181
-549.354	-103.366	0.185	-0.044
-548.339	43.738	-0.186	-0.173
-547.325	800.000	0.064	-0.265
-546.310	483.375	0.112	-0.258
-545.296	-91.061	0.315	-0.091
-544.281	-200.000	-0.014	-0.116
-543.266	800.000	0.041	-0.145
-542.252	-114.990	0.086	0.016
-541.237	-43.857	0.110	-0.056
-540.223	-200.000	-0.044	0.356
-539.208	-200.000	0.208	0.001
-538.193	-102.284	0.094	0.023
-537.179	-9.597	0.134	0.090
-536.164	-135.377	-0.157	-0.019
-535.150	548.667	-0.136	-0.329
-534.135	-98.775	0.257	0.066
-533.121	-138.363	-0.285	0.032
-532.106	-101.269	0.121	0.030
-531.091	-25.250	-0.192	0.115
-530.077	380.467	0.047	-0.097
-529.062	-52.582	-0.200	0.093
-528.048	59.233	0.177	0.176
-527.033	-29.456	-0.279	0.161
-526.018	-85.312	-0.186	0.059
-525.004	-57.080	0.245	0.109
-523.989	-80.566	0.200	-0.067
-522.975	178.342	0.233	0.343
-521.960	327.456	-0.148	-0.286
-520.945	127.098	-0.122	0.157
-519.931	-88.990	-0.187	0.056
-518.916	25.221	0.225	-0.189
-517.902	42.441	0.086	0.079
-516.887	-200.000	0.028	-0.323
-515.872	40.273	0.248	-0.225
-514.858	-149.459	-0.401	0.032
-513.843	-200.000	-0.025	-0.138
-512.829	-139.777	-0.144	-0.015
-511.814	449.268	-0.152	0.338
-510.799	38.361	-0.208	0.187
-509.785	-200.000	-0.014	-0.073
-508.770	-9.199	-0.021	-0.015
-507.756	-161.841	0.481	0.025
-506.741	86.130	-0.259	-0.288
-505.726	-0.485	0.133	0.095
-504.712	-200.000	0.057	-0.439
-503.697	-200.000	-0.113	-0.506
-502.683	-200.000	0.008	-0.163
-501.668	-109.638	0.081	-0.017
-500.653	-3.154	-0.339	-0.239
-499.639	-109.242	0.247	0.053
-498.624	-58.648	0.104	0.045
-497.610	-42.357	0.318	-0.163
-496.595	-200.000	0.002	-0.126
-495.581	-200.000	-0.012	0.088
-494.566	-200.000	0.018	0.199
-493.551	-140.968	0.370	0.038
-492.537	-200.000	-0.002	-0.082
-491.522	-153.768	0.270	0.019
-490.508	-108.039	0.054	0.012
-489.493	718.697	0.052	0.139
-488.478	800.000	0.047	0.192
-487.464	-129.639	-0.386	-0.054
-486.449	-138.442	0.538	-0.060
-485.435	-28.031	-0.194	0.113
-484.420	-82.743	0.248	0.081
-483.405	-100.186	0.273	-0.068
-482.391	-200.000	0.020	0.197
-481.376	414.484	0.077	-0.164
-480.362	-200.000	-0.007	0.031
-479.347	-200.000	-0.024	-0.224
-478.332	475.925	-0.059	0.133
-477.318	72.672	-0.166	-0.175
-476.303	-200.000	0.060	-0.363
-475.289	-165.387	0.299	-0.013
-474.274	-36.800	0.240	-0.130
-473.259	800.000	0.046	0.174
-472.245	-11.975	0.140	-0.093
-471.230	800.000	-0.038	-0.123
-470.216	-200.000	0.051	0.231
-469.201	-100.555	0.223	-0.055
-468.186	787.004	0.093	0.258
-467.172	55.975	-0.402	0.393
-466.157	-137.177	0.053	0.006
-465.143	-51.291	0.304	0.143
-464.128	-200.000	0.044	-0.370
-463.113	-132.249	0.097	0.013
-462.099	800.000	0.120	-0.391
-461.084	-85.021	-0.160	0.051
-460.070	-29.862	0.124	-0.071
-459.055	-96.394	-0.169	0.045
-458.040	308.016	-0.135	0.254
-457.026	-200.000	-0.026	-0.195
-456.011	-79.354	-0.283	-0.097
-454.997	-200.000	-0.038	0.281
-453.982	-119.078	-0.225	0.040
-452.968	30.356	0.053	-0.045
-451.953	-200.000	-0.021	0.135
-450.938	87.544	0.140	-0.156
-449.924	800.000	0.025	-0.071
-448.909	-200.000	0.004	0.408
-447.895	592.613	-0.128	0.319
-446.880	-200.000	0.054	0.297
-445.865	-74.977	0.106	0.038
-444.851	21.319	-0.169	0.138
-443.836	-78.943	-0.381	-0.130
-442.822	800.000	0.016	0.070
-441.807	-53.983	0.170	0.078
-440.792	-22.176	0.081	-0.049
-439.778	-200.000	-0.001	-0.310
-438.763	65.261	0.095	0.097
-437.749	105.220	0.131	0.156
-436.734	-119.907	-0.140	-0.024
-435.719	60.229	-0.158	-0.157
-434.705	-200.000	-0.033	-0.150
-433.690	23.504	-0.157	0.130
-432.676	-200.000	-0.312	0.000
-431.661	-84.196	0.240	-0.077
-430.646	-72.080	0.098	-0.037
-429.632	-22.530	-0.312	0.190
-428.617	131.062	-0.172	0.222
-427.603	-39.984	-0.227	-0.119
-426.588	119.258	-0.141	-0.176
-425.573	-200.000	0.022	0.113
-424.559	264.494	-0.119	0.209
-423.544	6.208	-0.180	0.134
-422.530	169.633	-0.082	0.117
-421.515	-200.000	-0.053	-0.516
-420.500	-38.534	-0.178	-0.095
-419.486	64.458	-0.066	-0.066
-418.471	593.658	0.050	0.125
-417.457	61.146	-0.215	-0.214
-416.442	244.821	-0.189	-0.319
-415.428	35.652	0.190	-0.168
-414.413	82.616	-0.246	-0.269
-413.398	-89.083	0.355	-0.105
-412.384	121.543	0.066	0.082
-411.369	-46.232	0.511	0.253
-410.355	50.735	-0.213	0.202
-409.340	-96.048	-0.327	0.088
-408.325	-200.000	-0.025	-0.332
-407.311	-106.153	0.131	-0.029
-406.296	-63.807	-0.159	-0.065
-405.282	-65.254	0.112	0.045
-404.267	269.216	-0.066	0.116
-403.252	-200.000	0.013	-0.105
-402.238	6.138	-0.020	0.015
-401.223	161.027	-0.232	0.326
-400.209	800.000	-0.177	0.497
-399.194	-67.844	-0.174	-0.068
-398.179	10.713	0.143	0.110
-397.165	-11.788	0.098	0.065
-396.150	-200.000	-0.007	-0.083
-395.136	-200.000	0.012	0.336
-394.121	-58.594	-0.313	0.136
-393.106	268.176	0.043	-0.077
-392.092	-147.547	0.149	-0.013
-391.077	-75.810	0.245	0.087
-390.063	-122.134	0.119	0.020
-389.048	-78.712	-0.309	0.106
-388.033	187.388	-0.233	-0.349
-387.019	-140.130	0.248	-0.026
-386.004	-200.000	0.020	-0.187
-384.990	-89.367	-0.299	0.088
-383.975	-92.191	-0.252	0.071
-382.960	481.613	0.049	0.111
-381.946	186.915	-0.111	0.165
-380.931	-164.046	-0.138	0.006
-379.917	-0.113	-0.173	0.123
-378.902	43.565	-0.212	0.194
-377.888	240.925	0.046	0.077
-376.873	800.000	-0.077	0.309
-375.858	-200.000	0.091	-0.537
-374.844	-153.983	-0.124	0.008
-373.829	749.856	0.041	-0.110
-372.815	11.897	0.169	-0.130
-371.800	763.924	0.130	-0.355
-370.785	228.391	0.214	0.349
-369.771	-13.858	0.310	-0.201
-368.756	-165.154	-0.183	-0.008
-367.742	131.916	-0.236	0.305
-366.727	-200.000	-0.011	-0.054
-365.712	-200.000	-0.010	0.259
-364.698	-100.460	0.069	-0.017
-363.683	200.615	-0.095	0.146
-362.669	411.427	-0.161	0.342
-361.654	-200.000	0.031	0.176
-360.639	-37.669	0.176	-0.094
-359.625	311.246	0.094	-0.176
-358.610	800.000	-0.022	0.069
-357.596	-19.101	-0.145	0.091
-356.581	800.000	-0.026	-0.107
-355.566	169.851	-0.043	-0.062
-354.552	-174.998	0.338	-0.009
-353.537	27.305	-0.127	0.107
-352.523	-152.344	0.260	-0.019
-351.508	57.480	0.159	0.156
-350.493	-128.894	0.082	0.012
-349.479	100.534	0.062	0.073
-348.464	24.371	-0.364	0.302
-347.450	65.033	0.072	-0.073
-346.435	-143.936	0.275	0.026
-345.420	201.580	-0.167	-0.257
-344.406	-200.000	-0.004	0.278
-343.391	180.285	-0.158	0.232
-342.377	101.026	-0.046	-0.054
-341.362	-4.924	0.083	0.058
-340.348	-200.000	0.002	-0.268
-339.333	800.000	-0.013	0.040
-338.318	-147.512	0.093	0.008
-337.304	-200.000	-0.042	-0.242
-336.289	800.000	-0.078	-0.337
-335.275	-102.554	0.261	0.063
-334.260	380.332	-0.202	-0.415
-333.245	580.476	0.068	0.167
-332.231	171.229	0.090	-0.129
-331.216	70.237	0.191	0.198
-330.202	-25.874	0.201	-0.119
-329.187	313.037	0.159	0.300
-328.172	2.637	0.142	-0.103
-327.158	197.403	0.144	-0.220
-326.143	-169.666	0.240	-0.009
-325.129	-46.970	0.403	-0.197
-324.114	164.007	0.095	0.135
-323.099	-200.000	0.015	0.086
-322.085	298.059	-0.086	-0.158
-321.070	-86.453	0.364	0.112
-320.056	-82.543	-0.201	0.065
-319.041	800.000	-0.057	0.229
-318.026	372.936	-0.080	0.163
-317.012	83.458	-0.202	-0.221
-315.997	24.361	0.063	0.052
-314.983	-96.676	-0.335	-0.088
-313.968	-18.171	-0.263	0.165
-312.953	-200.000	-0.008	-0.104
-311.939	-43.329	-0.077	-0.039
-310.924	-21.614	-0.255	0.156
-309.910	800.000	0.054	-0.160
-308.895	-43.393	-0.046	-0.023
-307.880	-200.000	0.002	-0.178
-306.866	50.207	0.176	0.167
-305.851	-83.059	-0.324	-0.105
-304.837	378.183	0.064	-0.131
-303.822	38.657	-0.188	-0.168
-302.807	400.159	0.070	0.146
-301.793	-196.726	-0.218	-0.001
-300.778	-109.100	0.117	-0.025
-299.764	-119.090	-0.341	-0.060
-298.749	800.000	0.047	0.162
-297.735	-147.577	0.226	0.019
-296.720	1.622	-0.492	0.354
-295.705	-126.853	-0.288	-0.043
-294.691	-17.402	0.080	-0.050
-293.676	-92.409	0.141	-0.040
-292.662	-73.215	-0.077	-0.028
-291.647	759.597	0.051	0.138
-290.632	117.683	0.156	-0.193
-289.618	33.302	0.207	-0.180
-288.603	-2.464	-0.167	-0.117
-287.589	136.247	0.167	0.217
-286.574	5.345	-0.155	-0.114
-285.559	15.652	0.201	0.158
-284.545	800.000	0.100	-0.393
-283.530	6.793	-0.121	-0.090
-282.516	-200.000	-0.018	0.083
-281.501	170.896	-0.184	-0.264
-280.486	-154.164	-0.026	0.002
-279.472	241.029	-0.112	0.188
-278.457	382.020	-0.118	-0.243
-277.443	-46.868	0.152	0.074
-276.428	209.456	-0.136	0.214
-275.413	-19.220	-0.172	-0.107
-274.399	-91.415	0.275	-0.079
-273.384	163.425	-0.140	0.197
-272.370	-200.000	-0.016	0.120
-271.355	800.000	-0.131	-0.434
-270.340	-200.000	-0.017	0.292
-269.326	47.319	0.070	-0.065
-268.311	-200.000	0.082	0.397
-267.297	-151.900	0.280	0.021
-266.282	169.902	0.222	-0.317
-265.267	85.172	-0.239	0.262
-264.253	218.930	-0.120	-0.191
-263.238	-138.805	0.360	-0.039
-262.224	-200.000	0.002	-0.319
-261.209	-69.678	0.185	-0.071
-260.195	-200.000	-0.009	0.187
-259.180	-200.000	-0.012	-0.121
-258.165	-98.336	0.572	0.147
-257.151	-49.484	0.188	-0.090
-256.136	-179.257	-0.207	0.005
-255.122	40.837	-0.369	0.333
-254.107	-200.000	-0.004	-0.267
-253.092	-7.756	-0.257	-0.174
-252.078	-128.230	-0.273	0.039
-251.063	-74.679	0.198	0.071
-250.049	-110.530	0.120	0.025
-249.034	63.545	-0.195	0.196
-248.019	-16.009	0.285	0.181
-247.005	103.227	0.184	0.216
-245.990	800.000	0.156	-0.501
-244.976	-143.508	0.351	0.033
-243.961	-38.492	-0.264	-0.139
-242.946	73.333	0.297	-0.310
-241.932	-200.000	0.032	0.147
-240.917	239.579	-0.059	-0.099
-239.903	-110.077	-0.215	0.045
-238.888	-76.445	0.200	0.070
-237.873	-162.051	0.413	-0.021
-236.859	-40.209	-0.130	0.067
-235.844	-92.559	0.337	-0.094
-234.830	-90.522	-0.069	-0.020
-233.815	94.225	-0.289	0.328
-232.800	-200.000	-0.004	0.135
-231.786	-200.000	0.001	0.137
-230.771	800.000	0.060	-0.224
-229.757	795.698	-0.151	0.416
-228.742	-200.000	-0.028	-0.226
-227.727	-105.041	-0.436	-0.100
-226.713	-200.000	0.051	0.229
-225.698	14.018	0.105	-0.081
-224.684	77.469	0.217	-0.231
-223.669	-98.701	-0.110	0.028
-222.655	-131.666	0.300	-0.039
-221.640	800.000	0.042	0.153
-220.625	635.215	0.087	-0.220
-219.611	-46.976	-0.469	-0.229
-218.596	-108.903	0.170	-0.036
-217.582	-200.000	0.027	0.158
-216.567	8.864	-0.131	-0.098
-215.552	-53.419	-0.190	-0.087
-214.538	146.022	0.140	-0.187
-213.523	387.080	-0.147	-0.302
-212.509	52.727	-0.245	-0.233
-211.494	800.000	-0.052	0.224
-210.479	133.262	0.059	0.076
-209.465	800.000	0.010	-0.041
-208.450	-79.853	-0.129	-0.043
-207.436	-37.270	0.227	-0.121
-206.421	31.506	-0.089	0.076
-205.406	-17.923	-0.228	0.143
-204.392	-200.000	0.007	-0.126
-203.377	705.129	0.135	-0.355
-202.363	-1.373	-0.078	0.055
-201.348	-20.304	-0.257	0.158
-200.333	-200.000	0.022	0.140
-199.319	-200.000	0.042	0.229
-198.304	142.116	0.267	0.353
-197.290	-62.917	0.318	0.131
-196.275	497.081	-0.066	0.152
-195.260	-106.836	-0.173	0.038
-194.246	-75.196	0.123	0.044
-193.231	-200.000	-0.008	-0.103
-192.217	-151.120	-0.257	-0.019
-191.202	-70.202	0.179	0.068
-190.187	463.901	-0.128	0.284
-189.173	-200.000	0.031	0.158
-188.158	-200.000	0.026	0.250
-187.144	-168.001	0.209	0.008
-186.129	-119.439	-0.154	0.027
-185.114	13.579	-0.176	-0.136
-184.100	800.000	0.074	0.233
-183.085	22.862	-0.345	0.282
-182.071	-200.000	0.021	-0.341
-181.056	151.966	-0.232	0.315
-180.042	84.305	0.071	-0.077
-179.027	-67.077	-0.196	0.077
-178.012	56.608	-0.158	0.153
-176.998	542.254	-0.140	0.332
-175.983	-200.000	-0.087	-0.387
-174.969	321.048	-0.152	-0.288
-173.954	-8.291	-0.230	-0.154
-172.939	123.452	0.231	-0.288
-171.925	168.516	-0.232	-0.329
-170.910	112.492	0.191	0.230
-169.896	-200.000	-0.074	0.571
-168.881	5.086	-0.150	-0.110
-167.866	-36.168	-0.274	0.147
-166.852	-134.649	0.059	0.007
-165.837	-109.831	0.272	-0.057
-164.823	1.332	0.220	0.158
-163.808	-147.822	0.141	0.012
-162.793	-126.997	0.287	-0.042
-161.779	800.000	0.063	0.252
-160.764	800.000	-0.087	0.309
-159.750	77.682	-0.275	0.291
-158.735	-111.801	0.180	-0.036
-157.720	-200.000	-0.001	-0.451
-156.706	239.237	0.153	-0.253
-155.691	-13.784	0.094	-0.061
-154.677	-166.976	-0.386	-0.016
-153.662	-9.070	0.326	0.217
-152.647	702.542	-0.098	0.258
-151.633	-40.628	-0.146	0.075
-150.618	212.865	-0.113	-0.177
-149.604	-200.000	-0.022	0.154
-148.589	-200.000	-0.001	-0.091
-147.574	172.048	0.082	0.118
-146.560	46.621	-0.099	-0.092
-145.545	-57.224	-0.257	0.113
-144.531	611.224	-0.047	-0.116
-143.516	800.000	-0.095	0.304
-142.502	52.854	-0.052	-0.050
-141.487	-200.000	-0.046	-0.252
-140.472	-40.568	-0.068	-0.035
-139.458	-56.838	0.230	-0.101
-138.443	114.254	0.099	-0.120
-137.429	-0.432	-0.223	0.157
-136.414	-74.491	-0.047	0.017
-135.399	748.318	0.117	0.314
-134.385	114.042	-0.320	0.387
-133.370	800.000	0.076	0.277
-132.356	78.184	0.095	-0.101
-131.341	800.000	0.057	0.159
-130.326	-193.330	0.188	0.002
-129.312	-172.086	0.112	0.004
-128.297	-40.031	0.404	0.210
-127.283	156.157	0.063	0.087
-126.268	-55.821	0.136	0.061
-125.253	800.000	-0.025	0.104
-124.239	-80.875	-0.045	0.015
-123.224	-200.000	-0.018	0.162
-122.210	69.652	-0.239	0.245
-121.195	344.155	0.209	-0.407
