DTS Sentinel unit serial number:	SN413079Multiplexer serial number:	ORYXHardware model number:	OX4-SRSoftware version number:	ORYX F/W v4.00 Oryx Data Collector v3.7.2.0data status	okinstallation	princeton_trtdifferential loss correction	single-endedforward channel	channel 2reverse channel	N/Adate	2019/09/18time	17:19:35forward acquisition time	60.00reverse acquisition time	0.00gamma	496.2192k internal	0.2299k external	0.2299temperature offset calibration	1.0011default loss term (dB/km)	0.3790temperature slope calibration	1.0000multiplexer offset coefficient	1.0000multiplexer slope coefficient	1.0000fibre end	0.00T internal ref (°C)	39.87T ext. ref 1 (°C)	0.88T ext. ref 2 (°C)	36.39length (m)	temperature (°C)	Stokes	anti-Stokes-747.200	-184.943	0.088	0.001
-746.185	170.335	-0.098	-0.143
-745.171	402.136	0.056	0.119
-744.156	775.017	-0.159	0.442
-743.142	800.000	-0.017	0.057
-742.127	-200.000	-0.032	0.293
-741.112	-200.000	0.013	-0.245
-740.098	0.526	-0.177	0.129
-739.083	-200.000	0.048	-0.306
-738.069	800.000	-0.078	0.311
-737.054	-92.899	-0.305	-0.087
-736.039	29.490	-0.158	0.137
-735.025	37.641	-0.139	-0.126
-734.010	800.000	-0.097	0.429
-732.996	313.421	0.040	0.076
-731.981	-143.168	-0.303	0.030
-730.966	27.399	0.184	0.158
-729.952	-183.143	-0.222	-0.004
-728.937	22.404	0.057	0.048
-727.923	56.223	-0.052	-0.052
-726.908	149.899	-0.122	-0.169
-725.894	-200.000	0.047	0.239
-724.879	-83.106	-0.273	0.090
-723.864	102.361	-0.226	-0.269
-722.850	233.126	-0.121	-0.204
-721.835	436.075	0.111	-0.247
-720.821	-55.437	0.178	-0.082
-719.806	800.000	0.030	-0.092
-718.791	426.480	0.101	-0.222
-717.777	-83.560	0.235	-0.077
-716.762	172.271	0.050	0.074
-715.748	-160.333	0.024	-0.001
-714.733	-155.759	-0.060	-0.004
-713.718	6.572	-0.194	-0.147
-712.704	1.266	0.243	-0.178
-711.689	101.585	0.235	0.279
-710.675	-46.369	-0.533	0.267
-709.660	99.955	-0.096	0.114
-708.645	-173.646	-0.138	-0.004
-707.631	50.906	0.089	-0.086
-706.616	800.000	0.029	-0.118
-705.602	-200.000	0.038	-0.403
-704.587	196.704	0.146	-0.226
-703.572	132.567	0.108	-0.142
-702.558	800.000	-0.048	-0.190
-701.543	800.000	-0.041	0.133
-700.529	-99.571	0.253	0.065
-699.514	585.119	-0.068	-0.170
-698.499	336.006	0.175	0.345
-697.485	136.265	-0.089	0.118
-696.470	259.526	-0.027	-0.048
-695.456	-189.224	-0.049	-0.001
-694.441	-53.275	-0.063	0.030
-693.426	-9.134	0.070	-0.048
-692.412	-154.394	-0.337	-0.023
-691.397	800.000	0.092	0.294
-690.383	11.151	-0.257	0.200
-689.368	-57.515	0.181	0.081
-688.354	524.403	0.135	0.323
-687.339	-9.592	0.295	-0.200
-686.324	-121.443	-0.256	0.043
-685.310	-150.701	-0.205	0.016
-684.295	-200.000	-0.015	-0.191
-683.281	0.021	-0.188	0.137
-682.266	-119.727	-0.097	0.017
-681.251	562.735	-0.163	-0.402
-680.237	725.742	-0.089	-0.242
-679.222	73.688	-0.231	-0.246
-678.208	167.394	-0.120	0.173
-677.193	-0.106	-0.142	-0.103
-676.178	-200.000	-0.009	0.100
-675.164	-25.998	0.125	-0.075
-674.149	35.981	0.165	-0.148
-673.135	-43.071	0.207	-0.107
-672.120	-45.542	0.191	-0.096
-671.105	52.179	-0.209	-0.203
-670.091	800.000	-0.063	-0.215
-669.076	-22.628	-0.098	-0.060
-668.062	-200.000	-0.009	0.303
-667.047	-200.000	0.018	0.103
-666.032	137.414	-0.219	0.292
-665.018	800.000	-0.014	0.055
-664.003	24.929	-0.176	-0.148
-662.989	-114.532	0.120	0.023
-661.974	800.000	-0.091	-0.282
-660.959	-200.000	0.344	0.001
-659.945	-85.946	0.211	0.067
-658.930	408.634	-0.036	0.078
-657.916	463.154	-0.070	-0.160
-656.901	-200.000	0.007	0.171
-655.886	800.000	0.077	-0.218
-654.872	409.894	0.179	-0.385
-653.857	-186.009	-0.204	0.003
-652.843	800.000	-0.091	0.353
-651.828	-200.000	0.060	0.281
-650.814	323.507	-0.080	-0.155
-649.799	342.890	0.159	-0.316
-648.784	-118.459	0.101	-0.018
-647.770	-200.000	-0.030	-0.378
-646.755	39.552	0.160	-0.145
-645.741	-119.684	-0.125	-0.022
-644.726	-136.067	-0.164	-0.020
-643.711	-99.131	-0.226	0.058
-642.697	-200.000	-0.002	-0.165
-641.682	-58.716	0.221	0.097
-640.668	-136.436	0.274	0.032
-639.653	800.000	-0.055	-0.181
-638.638	63.120	-0.162	-0.165
-637.624	-200.000	0.001	-0.147
-636.609	-200.000	0.069	-0.332
-635.595	60.889	0.147	0.148
-634.580	-10.255	-0.231	0.156
-633.565	96.977	-0.102	-0.119
-632.551	-154.324	-0.217	-0.015
-631.536	237.356	0.047	-0.079
-630.522	-131.470	0.180	0.024
-629.507	-0.947	-0.292	-0.210
-628.492	800.000	-0.030	0.098
-627.478	-98.798	0.414	0.107
-626.463	-10.182	-0.105	0.071
-625.449	-37.758	-0.350	0.189
-624.434	27.528	-0.145	0.124
-623.419	-80.709	0.159	0.054
-622.405	-143.240	-0.280	0.027
-621.390	800.000	-0.017	-0.060
-620.376	-126.999	-0.146	0.022
-619.361	-200.000	0.058	-0.270
-618.346	-200.000	-0.021	-0.165
-617.332	15.028	-0.377	-0.300
-616.317	225.612	-0.177	0.291
-615.303	-32.894	0.331	0.187
-614.288	302.221	-0.092	0.172
-613.273	-81.659	0.335	-0.112
-612.259	115.954	0.146	-0.182
-611.244	-78.077	0.069	-0.024
-610.230	800.000	-0.031	0.132
-609.215	-200.000	0.017	-0.184
-608.201	268.720	0.205	-0.365
-607.186	350.518	0.215	0.432
-606.171	693.128	-0.101	0.270
-605.157	129.138	0.183	0.237
-604.142	50.373	0.086	0.082
-603.128	288.742	-0.225	-0.414
-602.113	106.925	-0.308	0.371
-601.098	193.715	-0.248	0.381
-600.084	109.195	-0.120	-0.146
-599.069	26.799	-0.095	0.080
-598.055	-200.000	-0.027	0.272
-597.040	245.441	0.096	0.163
-596.025	800.000	-0.056	-0.195
-595.011	219.538	0.082	-0.133
-593.996	-187.992	0.249	-0.003
-592.982	67.402	-0.093	-0.097
-591.967	-115.482	0.239	-0.046
-590.952	320.614	-0.182	0.351
-589.938	-141.435	-0.403	0.041
-588.923	800.000	-0.084	-0.323
-587.909	-69.351	0.067	0.026
-586.894	718.960	0.076	-0.205
-585.879	56.277	0.047	0.046
-584.865	800.000	-0.121	-0.347
-583.850	242.578	-0.090	-0.153
-582.836	116.349	-0.116	-0.144
-581.821	70.027	0.027	-0.028
-580.806	-11.112	-0.215	-0.144
-579.792	800.000	-0.068	0.199
-578.777	-137.423	-0.171	0.020
-577.763	-123.398	0.464	-0.075
-576.748	181.558	0.108	-0.161
-575.733	-59.659	-0.150	-0.065
-574.719	113.637	-0.306	-0.377
-573.704	-200.000	0.021	-0.270
-572.690	800.000	0.074	0.254
-571.675	-48.658	-0.190	-0.093
-570.661	153.772	-0.056	0.077
-569.646	68.225	-0.175	0.181
-568.631	800.000	0.106	-0.301
-567.617	-200.000	-0.023	-0.142
-566.602	295.774	-0.109	-0.203
-565.588	33.142	0.080	0.070
-564.573	-48.076	-0.408	0.200
-563.558	-200.000	-0.020	-0.142
-562.544	-113.462	-0.286	0.057
-561.529	-200.000	-0.020	0.094
-560.515	231.331	0.137	-0.227
-559.500	-200.000	0.008	0.085
-558.485	800.000	0.063	0.271
-557.471	-200.000	0.014	0.103
-556.456	220.687	0.082	-0.134
-555.442	-10.257	-0.247	0.166
-554.427	-40.058	-0.188	0.099
-553.412	-159.614	-0.259	-0.015
-552.398	16.161	-0.099	0.079
-551.383	180.021	0.148	0.220
-550.369	50.592	-0.244	-0.234
-549.354	-134.800	0.171	-0.021
-548.339	-200.000	0.056	-0.489
-547.325	-39.245	0.232	-0.123
-546.310	-60.172	-0.130	-0.056
-545.296	-50.668	-0.136	0.065
-544.281	693.823	0.056	-0.150
-543.266	-64.757	0.132	0.054
-542.252	-200.000	-0.010	-0.139
-541.237	4.828	-0.237	0.177
-540.223	-107.374	0.044	-0.010
-539.208	439.124	0.138	0.304
-538.193	-133.070	-0.376	0.048
-537.179	-109.729	-0.185	-0.039
-536.164	-200.000	-0.000	-0.015
-535.150	13.911	0.207	-0.163
-534.135	-200.000	-0.010	0.062
-533.121	-41.885	0.167	-0.087
-532.106	186.518	0.177	-0.267
-531.091	3.976	-0.226	0.168
-530.077	-54.016	-0.109	0.050
-529.062	9.949	-0.079	-0.061
-528.048	155.583	-0.156	-0.218
-527.033	-38.676	0.051	0.027
-526.018	-51.749	-0.080	0.038
-525.004	800.000	0.090	-0.256
-523.989	102.277	-0.006	0.007
-522.975	-13.423	0.284	0.187
-521.960	800.000	-0.037	-0.136
-520.945	-200.000	-0.022	0.182
-519.931	-61.389	-0.145	-0.062
-518.916	-61.774	-0.083	-0.035
-517.902	800.000	-0.066	-0.256
-516.887	87.781	-0.229	0.257
-515.872	800.000	-0.083	-0.239
-514.858	-200.000	0.035	-0.211
-513.843	202.013	-0.033	0.051
-512.829	450.046	0.068	0.151
-511.814	65.612	-0.027	0.027
-510.799	514.433	0.150	-0.354
-509.785	400.984	-0.035	0.075
-508.770	554.685	0.113	0.274
-507.756	-200.000	-0.027	0.318
-506.741	369.549	0.009	0.017
-505.726	-200.000	0.060	0.278
-504.712	122.827	0.108	-0.136
-503.697	-51.955	0.122	0.057
-502.683	-15.374	0.063	0.041
-501.668	-63.206	0.328	-0.137
-500.653	-200.000	0.022	-0.121
-499.639	-4.447	-0.082	-0.057
-498.624	511.127	-0.025	0.060
-497.610	-103.299	-0.189	0.045
-496.595	-200.000	-0.000	-0.045
-495.581	53.686	0.121	-0.117
-494.566	-113.426	0.215	0.043
-493.551	-82.221	-0.179	-0.059
-492.537	-200.000	-0.051	-0.289
-491.522	150.870	-0.075	-0.103
-490.508	420.371	-0.130	0.282
-489.493	-87.366	0.259	0.079
-488.478	800.000	-0.053	-0.199
-487.464	186.787	0.014	0.022
-486.449	80.301	-0.081	-0.088
-485.435	-146.962	0.204	-0.018
-484.420	-113.223	0.318	0.063
-483.405	27.813	0.194	0.165
-482.391	-101.021	-0.039	-0.010
-481.376	-200.000	0.013	-0.081
-480.362	64.738	-0.115	-0.117
-479.347	-80.281	-0.209	0.071
-478.332	-83.924	-0.142	-0.046
-477.318	-84.280	0.281	0.090
-476.303	-10.458	0.096	0.064
-475.289	72.545	0.172	-0.182
-474.274	6.132	0.121	0.090
-473.259	-200.000	0.011	-0.260
-472.245	-41.859	-0.179	-0.093
-471.230	432.316	0.034	0.074
-470.216	800.000	-0.044	-0.146
-469.201	168.573	-0.038	0.055
-468.186	-200.000	-0.034	0.185
-467.172	-57.747	-0.161	0.071
-466.157	-22.563	-0.302	0.185
-465.143	624.136	-0.091	0.232
-464.128	24.775	-0.029	0.024
-463.113	127.546	0.079	-0.102
-462.099	-200.000	-0.047	-0.286
-461.084	-200.000	-0.058	-0.474
-460.070	-140.290	0.190	-0.020
-459.055	90.405	0.059	-0.067
-458.040	800.000	0.071	-0.211
-457.026	76.923	0.178	-0.191
-456.011	471.671	-0.155	0.352
-454.997	-57.116	0.096	-0.043
-453.982	335.998	0.092	0.180
-452.968	741.673	-0.048	0.130
-451.953	-47.248	0.153	0.075
-450.938	-148.459	-0.144	-0.012
-449.924	0.976	0.137	-0.099
-448.909	-63.236	-0.165	0.069
-447.895	-70.823	-0.205	-0.078
-446.880	800.000	0.078	-0.229
-445.865	121.648	-0.101	-0.127
-444.851	-69.038	0.077	0.030
-443.836	800.000	0.086	-0.354
-442.822	-183.782	0.351	0.006
-441.807	-130.520	-0.161	0.022
-440.792	-45.383	-0.308	-0.154
-439.778	-107.345	-0.287	0.064
-438.763	-167.733	-0.259	0.010
-437.749	-155.486	0.137	0.009
-436.734	96.628	-0.049	0.057
-435.719	41.622	-0.089	0.082
-434.705	59.914	0.285	-0.284
-433.690	-122.954	-0.104	-0.017
-432.676	-1.080	0.192	0.137
-431.661	176.226	0.109	-0.160
-430.646	-96.302	-0.191	-0.051
-429.632	-53.313	-0.302	-0.140
-428.617	-200.000	0.006	-0.164
-427.603	7.070	0.305	-0.229
-426.588	83.352	-0.058	-0.064
-425.573	-188.433	-0.176	-0.002
-424.559	-61.912	-0.295	0.124
-423.544	8.063	-0.198	-0.150
-422.530	80.130	0.214	0.232
-421.515	158.317	0.062	0.087
-420.500	197.088	0.099	0.151
-419.486	264.053	-0.141	0.248
-418.471	-2.343	-0.182	-0.129
-417.457	22.362	-0.145	0.120
-416.442	-200.000	0.013	-0.275
-415.428	-147.574	0.091	-0.008
-414.413	231.951	-0.068	0.113
-413.398	-47.890	-0.236	-0.115
-412.384	-22.319	0.304	0.186
-411.369	738.483	-0.052	0.140
-410.355	351.216	0.046	-0.092
-409.340	-57.254	-0.041	0.018
-408.325	107.336	-0.266	0.318
-407.311	-163.448	0.331	0.016
-406.296	-99.793	0.296	0.075
-405.282	-106.368	-0.119	-0.027
-404.267	6.557	0.453	0.339
-403.252	-12.392	0.081	-0.053
-402.238	800.000	-0.054	-0.177
-401.223	-200.000	-0.025	-0.231
-400.209	-200.000	-0.019	-0.316
-399.194	-124.617	-0.404	-0.063
-398.179	107.343	0.244	0.292
-397.165	111.329	0.075	-0.091
-396.150	308.257	-0.133	0.250
-395.136	-47.524	0.166	0.081
-394.121	-33.298	-0.067	-0.037
-393.106	22.266	0.076	0.062
-392.092	-200.000	0.083	0.378
-391.077	221.923	-0.055	0.089
-390.063	12.329	0.190	0.147
-389.048	13.156	0.298	-0.232
-388.033	101.095	0.095	0.112
-387.019	-200.000	0.052	0.416
-386.004	172.589	-0.194	0.281
-384.990	-175.714	-0.279	-0.008
-383.975	17.853	-0.127	-0.102
-382.960	194.773	0.148	-0.226
-381.946	-200.000	-0.007	0.183
-380.931	-200.000	0.036	-0.305
-379.917	-200.000	-0.051	-0.249
-378.902	54.678	-0.111	-0.108
-377.888	-1.167	0.221	-0.157
-376.873	800.000	0.063	0.207
-375.858	-49.784	0.160	0.076
-374.844	-91.516	0.403	-0.115
-373.829	467.258	0.041	-0.092
-372.815	381.770	-0.132	0.272
-371.800	800.000	-0.034	0.095
-370.785	-35.135	0.433	-0.237
-369.771	2.181	-0.125	0.091
-368.756	327.376	0.094	0.181
-367.742	-200.000	-0.047	-0.275
-366.727	-200.000	0.022	0.465
-365.712	3.455	-0.231	0.169
-364.698	129.309	0.153	-0.197
-363.683	800.000	-0.002	-0.006
-362.669	73.368	0.246	-0.259
-361.654	-2.718	-0.351	-0.247
-360.639	-200.000	0.037	-0.246
-359.625	-200.000	0.006	0.312
-358.610	-30.131	-0.391	0.224
-357.596	-98.528	0.097	-0.025
-356.581	-83.672	-0.341	0.109
-355.566	-200.000	-0.051	0.235
-354.552	526.683	-0.061	-0.144
-353.537	-200.000	-0.012	-0.198
-352.523	-91.101	0.085	0.025
-351.508	800.000	-0.044	0.164
-350.493	-105.095	-0.109	-0.025
-349.479	27.494	0.082	-0.069
-348.464	-16.191	0.354	-0.226
-347.450	800.000	-0.034	0.096
-346.435	-86.386	-0.063	-0.020
-345.420	111.882	0.190	-0.231
-344.406	176.078	-0.143	-0.208
-343.391	-200.000	0.035	-0.358
-342.377	238.450	0.173	-0.289
-341.362	131.780	0.255	-0.329
-340.348	-121.953	0.084	-0.014
-339.333	-96.693	-0.398	-0.105
-338.318	297.907	0.139	-0.256
-337.304	222.242	-0.184	-0.297
-336.289	-63.462	0.247	-0.102
-335.275	800.000	-0.075	0.227
-334.260	113.882	0.161	-0.197
-333.245	800.000	0.050	0.206
-332.231	149.012	0.071	-0.096
-331.216	757.488	0.117	0.317
-330.202	800.000	0.143	-0.432
-329.187	-175.288	0.148	0.004
-328.172	178.214	-0.068	0.100
-327.158	-44.957	-0.121	0.060
-326.143	25.278	-0.270	0.225
-325.129	106.412	0.136	-0.162
-324.114	290.644	0.120	0.219
-323.099	-159.387	0.363	-0.020
-322.085	-43.539	-0.265	-0.134
-321.070	-43.927	-0.118	-0.060
-320.056	91.597	0.036	0.041
-319.041	-70.413	0.221	-0.084
-318.026	-200.000	0.024	-0.110
-317.012	-105.097	-0.361	0.083
-315.997	128.030	-0.196	-0.250
-314.983	800.000	0.087	-0.262
-313.968	-200.000	0.002	-0.207
-312.953	126.354	0.148	-0.188
-311.939	-44.936	0.187	0.094
-310.924	-200.000	0.039	0.427
-309.910	119.080	0.173	-0.214
-308.895	-200.000	0.009	-0.185
-307.880	136.956	0.146	-0.191
-306.866	-114.019	0.232	0.045
-305.851	-200.000	-0.024	-0.253
-304.837	-179.909	0.438	-0.009
-303.822	151.372	0.280	0.383
-302.807	-200.000	0.006	0.315
-301.793	144.455	0.231	0.310
-300.778	-55.951	0.055	-0.025
-299.764	133.211	-0.139	-0.180
-298.749	338.567	0.062	-0.122
-297.735	800.000	-0.127	0.395
-296.720	53.672	-0.220	0.212
-295.705	-61.286	-0.168	0.071
-294.691	-173.143	-0.195	-0.006
-293.676	-200.000	-0.005	-0.295
-292.662	175.041	-0.125	0.182
-291.647	122.414	0.022	0.028
-290.632	192.892	0.125	-0.190
-289.618	65.510	0.175	0.178
-288.603	800.000	0.063	0.216
-287.589	14.910	0.051	-0.040
-286.574	-159.057	-0.213	-0.012
-285.559	37.820	-0.055	-0.049
-284.545	199.973	-0.091	0.140
-283.530	570.184	0.009	0.021
-282.516	-105.994	-0.065	-0.015
-281.501	-47.813	0.106	-0.051
-280.486	-116.006	0.207	0.039
-279.472	79.693	-0.111	0.119
-278.457	547.711	-0.110	0.263
-277.443	-47.018	0.169	0.083
-276.428	192.253	0.100	-0.152
-275.413	-0.346	0.105	-0.075
-274.399	8.938	0.271	0.205
-273.384	-113.574	-0.123	0.024
-272.370	72.152	-0.063	-0.065
-271.355	57.303	0.124	0.121
-270.340	34.358	-0.181	0.158
-269.326	138.118	0.159	0.208
-268.311	-81.185	-0.152	0.050
-267.297	-200.000	-0.019	-0.138
-266.282	43.621	0.076	0.070
-265.267	-59.554	0.067	0.029
-264.253	-200.000	-0.023	0.175
-263.238	61.450	0.269	0.268
-262.224	-200.000	0.046	0.305
-261.209	-64.866	0.220	-0.089
-260.195	-114.822	-0.149	0.029
-259.180	800.000	-0.048	-0.156
-258.165	423.441	0.155	-0.334
-257.151	-200.000	0.007	0.161
-256.136	-0.197	-0.162	0.115
-255.122	3.550	0.219	-0.160
-254.107	-200.000	-0.006	-0.195
-253.092	-200.000	-0.012	0.231
-252.078	700.410	-0.126	0.332
-251.063	-127.207	-0.272	0.040
-250.049	800.000	0.026	-0.074
-249.034	2.373	-0.284	-0.206
-248.019	-200.000	0.020	-0.334
-247.005	3.043	0.142	0.103
-245.990	800.000	0.021	0.078
-244.976	-200.000	-0.011	-0.081
-243.961	304.502	-0.148	0.275
-242.946	-7.934	0.075	-0.050
-241.932	39.619	-0.093	-0.084
-240.917	-70.812	0.404	-0.153
-239.903	-63.208	-0.190	-0.078
-238.888	-79.175	-0.054	0.018
-237.873	-154.754	-0.057	-0.004
-236.859	800.000	0.095	-0.339
-235.844	3.371	0.138	0.100
-234.830	-81.722	0.100	0.033
-233.815	-200.000	0.036	0.170
-232.800	152.692	0.045	-0.062
-231.786	-113.655	-0.070	0.014
-230.771	-147.082	0.364	0.031
-229.757	123.494	-0.036	0.046
-228.742	8.513	-0.088	0.066
-227.727	-189.404	0.286	0.003
-226.713	352.346	-0.112	-0.222
-225.698	81.764	0.185	-0.200
-224.684	-200.000	0.025	0.126
-223.669	-16.755	-0.198	-0.125
-222.655	-76.146	0.117	0.041
-221.640	-46.025	0.326	0.161
-220.625	-40.092	-0.235	-0.123
-219.611	-200.000	0.031	0.397
-218.596	13.052	0.069	-0.054
-217.582	800.000	-0.022	0.082
-216.567	60.249	0.231	0.228
-215.552	-200.000	-0.004	0.048
-214.538	183.683	0.121	0.179
-213.523	101.737	-0.119	-0.139
-212.509	-138.656	-0.226	-0.025
-211.494	-35.356	0.155	0.084
-210.479	50.475	0.225	0.213
-209.465	-54.221	0.277	0.126
-208.450	800.000	0.077	0.279
-207.436	-100.579	0.263	-0.065
-206.421	-112.958	-0.313	-0.062
-205.406	160.572	0.228	0.318
-204.392	-114.640	-0.267	-0.051
-203.377	-79.782	-0.116	-0.039
-202.363	-200.000	-0.033	0.273
-201.348	-59.559	0.072	-0.031
-200.333	17.935	0.040	-0.032
-199.319	-121.193	-0.421	-0.070
-198.304	64.889	-0.277	-0.280
-197.290	-200.000	0.057	0.315
-196.275	252.991	0.143	0.244
-195.260	-179.108	-0.341	-0.008
-194.246	155.803	-0.070	0.096
-193.231	-117.108	-0.186	0.034
-192.217	-73.168	-0.192	0.070
-191.202	-200.000	0.027	0.361
-190.187	-198.831	-0.189	0.001
-189.173	-34.413	-0.048	0.026
-188.158	-200.000	0.036	-0.278
-187.144	-200.000	0.010	-0.139
-186.129	-12.126	0.103	-0.068
-185.114	41.304	0.104	-0.094
-184.100	229.093	0.076	0.123
-183.085	148.081	0.195	0.263
-182.071	46.481	-0.111	-0.103
-181.056	-145.953	0.154	0.014
-180.042	18.660	-0.192	0.154
-179.027	526.236	0.081	0.190
-178.012	344.756	-0.017	-0.033
-176.998	800.000	0.044	0.138
-175.983	-134.577	0.187	0.023
-174.969	-172.833	-0.289	0.009
-173.954	-200.000	-0.086	0.514
-172.939	-200.000	-0.022	0.241
-171.925	196.688	-0.151	0.230
-170.910	-147.553	-0.203	-0.017
-169.896	108.121	-0.393	-0.467
-168.881	22.872	-0.120	-0.098
-167.866	-110.687	0.108	-0.022
-166.852	-97.516	0.428	-0.111
-165.837	-200.000	-0.008	0.424
-164.823	-29.700	0.209	0.119
-163.808	800.000	-0.052	0.209
-162.793	-3.891	0.281	-0.195
-161.779	424.767	-0.086	-0.185
-160.764	96.204	-0.125	0.143
-159.750	409.061	0.028	0.058
-158.735	370.841	0.027	0.055
-157.720	-200.000	-0.038	0.289
-156.706	-200.000	-0.003	-0.409
-155.691	724.278	-0.073	-0.195
-154.677	-200.000	-0.006	0.324
-153.662	-200.000	-0.024	0.238
-152.647	458.806	0.119	0.264
-151.633	-200.000	-0.049	0.231
-150.618	-45.242	-0.542	-0.268
-149.604	-36.479	0.185	0.099
-148.589	131.178	-0.036	0.046
-147.574	-154.969	0.068	0.004
-146.560	68.500	0.092	-0.094
-145.545	189.481	-0.269	0.401
-144.531	-169.934	-0.231	0.008
-143.516	491.686	0.059	-0.135
-142.502	168.512	-0.096	0.136
-141.487	105.606	0.206	-0.243
-140.472	-185.144	-0.099	-0.002
-139.458	-200.000	-0.014	-0.105
-138.443	-95.454	0.343	-0.092
-137.429	-200.000	-0.003	-0.024
-136.414	43.401	-0.084	0.076
-135.399	800.000	0.078	0.300
-134.385	151.540	0.151	0.206
-133.370	122.672	-0.016	0.020
-132.356	346.899	0.144	0.282
-131.341	-200.000	0.020	0.192
-130.326	-119.756	-0.318	-0.055
-129.312	800.000	0.014	-0.044
-128.297	-43.705	0.115	-0.058
-127.283	-91.363	-0.467	0.133
-126.268	-200.000	-0.039	0.177
-125.253	261.558	0.166	-0.286
-124.239	-200.000	-0.059	-0.286
-123.224	-94.723	0.100	-0.027
-122.210	-131.683	0.083	0.011
-121.195	-200.000	-0.055	-0.301
