DTS Sentinel unit serial number:	SN413079Multiplexer serial number:	ORYXHardware model number:	OX4-SRSoftware version number:	ORYX F/W v4.00 Oryx Data Collector v3.7.2.0data status	okinstallation	princeton_trtdifferential loss correction	single-endedforward channel	channel 2reverse channel	N/Adate	2019/09/15time	09:27:34forward acquisition time	60.00reverse acquisition time	0.00gamma	496.2192k internal	0.2316k external	0.2316temperature offset calibration	1.0013default loss term (dB/km)	0.3790temperature slope calibration	1.0000multiplexer offset coefficient	1.0000multiplexer slope coefficient	1.0000fibre end	0.00T internal ref (°C)	33.67T ext. ref 1 (°C)	4.95T ext. ref 2 (°C)	30.25length (m)	temperature (°C)	Stokes	anti-Stokes-747.200	-22.974	0.107	-0.065
-746.185	-200.000	-0.002	0.045
-745.171	-41.639	0.229	-0.119
-744.156	-195.635	-0.200	-0.001
-743.142	383.419	0.085	0.176
-742.127	124.517	-0.167	0.213
-741.112	-200.000	-0.028	-0.223
-740.098	-200.000	-0.039	0.555
-739.083	-108.510	0.315	-0.069
-738.069	-50.794	-0.156	0.074
-737.054	-101.729	0.273	0.067
-736.039	39.312	-0.216	-0.196
-735.025	-200.000	-0.007	0.250
-734.010	-90.342	-0.149	0.044
-732.996	-141.350	0.065	0.007
-731.981	115.100	0.271	-0.334
-730.966	304.811	-0.177	-0.333
-729.952	800.000	-0.066	-0.210
-728.937	461.017	0.182	0.411
-727.923	800.000	0.035	-0.156
-726.908	800.000	-0.036	-0.114
-725.894	552.355	0.103	-0.250
-724.879	-85.267	0.204	-0.064
-723.864	-111.184	-0.285	-0.059
-722.850	-61.598	-0.083	0.035
-721.835	208.173	0.141	0.222
-720.821	138.071	-0.270	-0.358
-719.806	-200.000	-0.076	-0.378
-718.791	-157.055	0.185	-0.011
-717.777	-162.574	0.116	-0.006
-716.762	-23.180	0.296	-0.180
-715.748	-40.777	0.158	-0.083
-714.733	-145.033	-0.478	0.044
-713.718	800.000	-0.039	-0.139
-712.704	-114.056	0.069	-0.013
-711.689	-200.000	-0.035	-0.207
-710.675	-57.862	-0.227	-0.100
-709.660	21.129	-0.083	-0.068
-708.645	322.715	0.045	-0.088
-707.631	-200.000	-0.015	-0.119
-706.616	783.687	-0.062	-0.171
-705.602	100.420	-0.044	-0.052
-704.587	-200.000	-0.002	0.165
-703.572	63.053	-0.163	0.165
-702.558	-200.000	0.007	-0.054
-701.543	-39.222	0.050	-0.027
-700.529	12.242	-0.071	-0.056
-699.514	800.000	-0.066	0.212
-698.499	-169.987	0.371	0.013
-697.485	-129.239	0.188	0.027
-696.470	-104.919	0.167	-0.039
-695.456	241.363	0.094	-0.158
-694.441	-200.000	-0.013	0.092
-693.426	-128.422	-0.308	0.044
-692.412	-69.479	0.109	-0.042
-691.397	456.347	-0.055	-0.123
-690.383	71.825	0.050	-0.053
-689.368	355.996	-0.058	0.118
-688.354	-149.854	-0.139	0.011
-687.339	335.800	0.212	0.415
-686.324	800.000	-0.095	-0.293
-685.310	-200.000	0.010	0.339
-684.295	588.168	0.121	0.300
-683.281	39.171	-0.439	-0.396
-682.266	-200.000	0.031	0.413
-681.251	-41.637	-0.240	-0.125
-680.237	-116.455	0.131	-0.024
-679.222	17.225	0.160	-0.128
-678.208	-127.763	0.055	0.008
-677.193	136.126	-0.126	-0.166
-676.178	800.000	-0.057	-0.239
-675.164	-47.850	-0.474	-0.232
-674.149	182.488	0.212	0.316
-673.135	547.337	-0.071	0.172
-672.120	800.000	-0.100	0.309
-671.105	277.809	0.100	0.179
-670.091	-66.860	0.011	0.004
-669.076	71.672	-0.105	-0.110
-668.062	-31.621	-0.251	-0.142
-667.047	108.723	0.216	-0.261
-666.032	444.282	-0.063	-0.139
-665.018	665.897	-0.098	0.257
-664.003	-60.810	0.431	0.184
-662.989	-200.000	0.029	0.208
-661.974	-13.645	-0.217	-0.142
-660.959	370.341	0.088	-0.180
-659.945	33.032	0.212	0.186
-658.930	-200.000	-0.012	-0.421
-657.916	722.067	-0.134	-0.359
-656.901	-200.000	-0.013	-0.169
-655.886	629.334	0.121	-0.308
-654.872	-200.000	0.009	-0.168
-653.857	-81.209	0.324	0.108
-652.843	38.588	-0.051	-0.046
-651.828	25.758	-0.185	-0.155
-650.814	-200.000	-0.010	0.070
-649.799	-50.871	-0.155	-0.074
-648.784	-149.017	-0.212	-0.017
-647.770	286.175	0.130	0.236
-646.755	-69.813	-0.286	0.110
-645.741	148.027	0.137	-0.186
-644.726	-200.000	-0.002	0.017
-643.711	-61.813	-0.208	-0.088
-642.697	186.268	-0.224	0.336
-641.682	649.055	-0.033	-0.084
-640.668	-13.131	0.138	-0.090
-639.653	264.465	-0.088	-0.155
-638.638	-59.876	-0.045	0.020
-637.624	73.144	0.146	0.154
-636.609	-200.000	-0.009	0.110
-635.595	372.242	-0.089	-0.182
-634.580	241.140	0.180	-0.304
-633.565	-25.404	-0.183	-0.109
-632.551	800.000	-0.047	-0.151
-631.536	366.884	-0.195	-0.398
-630.522	172.454	0.141	-0.205
-629.507	-200.000	-0.012	0.084
-628.492	-1.209	-0.103	0.073
-627.478	-168.563	-0.128	0.005
-626.463	-68.677	-0.036	0.014
-625.449	-64.468	0.333	0.136
-624.434	-81.673	-0.246	-0.081
-623.419	-200.000	-0.000	0.290
-622.405	-92.232	-0.123	-0.035
-621.390	-200.000	0.036	0.166
-620.376	-6.621	0.098	-0.067
-619.361	-200.000	-0.031	0.316
-618.346	-200.000	0.028	-0.350
-617.332	800.000	0.086	-0.261
-616.317	78.504	-0.341	0.368
-615.303	-61.623	-0.281	0.119
-614.288	-200.000	0.028	-0.187
-613.273	-32.647	-0.374	-0.210
-612.259	271.662	-0.025	-0.044
-611.244	17.402	-0.180	0.144
-610.230	800.000	-0.069	-0.264
-609.215	-38.208	-0.159	-0.085
-608.201	-200.000	0.005	0.038
-607.186	21.716	0.156	-0.128
-606.171	54.177	0.125	-0.121
-605.157	-200.000	-0.022	-0.163
-604.142	-111.802	-0.230	0.047
-603.128	-200.000	0.099	-0.462
-602.113	45.879	-0.026	0.024
-601.098	65.310	0.050	-0.051
-600.084	-41.371	0.163	0.085
-599.069	153.448	0.228	0.314
-598.055	-14.210	0.071	-0.046
-597.040	-117.930	0.146	0.026
-596.025	-6.581	-0.381	-0.261
-595.011	-137.120	0.282	0.032
-593.996	-120.535	0.134	0.023
-592.982	177.360	-0.174	0.255
-591.967	-200.000	-0.003	0.334
-590.952	53.344	0.112	0.108
-589.938	-29.100	0.196	0.113
-588.923	-102.227	0.542	0.131
-587.909	-200.000	0.021	0.106
-586.894	-111.521	-0.406	-0.083
-585.879	17.624	0.201	-0.161
-584.865	-38.468	-0.088	-0.047
-583.850	-45.811	0.047	0.023
-582.836	225.008	-0.220	-0.359
-581.821	315.643	-0.012	0.023
-580.806	-100.501	0.104	0.026
-579.792	800.000	-0.067	-0.260
-578.777	-83.912	-0.326	-0.104
-577.763	-178.228	0.220	0.005
-576.748	220.419	-0.129	0.208
-575.733	-200.000	-0.006	0.286
-574.719	-114.244	0.130	0.025
-573.704	1.754	0.134	0.097
-572.690	234.993	0.125	0.207
-571.675	800.000	-0.122	-0.367
-570.661	-200.000	0.118	0.671
-569.646	-200.000	-0.061	-0.280
-568.631	153.698	0.297	-0.409
-567.617	22.750	0.210	0.173
-566.602	372.367	0.057	-0.117
-565.588	-62.713	-0.258	0.108
-564.573	-137.229	-0.425	-0.049
-563.558	64.689	0.063	0.064
-562.544	279.079	0.142	0.254
-561.529	-55.973	0.170	-0.076
-560.515	-106.280	-0.405	-0.091
-559.500	-139.263	0.089	-0.010
-558.485	-20.352	-0.338	-0.209
-557.471	556.308	0.058	-0.140
-556.456	-83.555	-0.071	0.023
-555.442	-82.226	0.145	-0.047
-554.427	-11.153	-0.172	-0.114
-553.412	-7.418	0.141	-0.096
-552.398	-200.000	0.003	-0.232
-551.383	417.412	0.031	0.066
-550.369	-29.101	0.175	-0.101
-549.354	71.349	0.145	-0.151
-548.339	-96.077	0.349	-0.093
-547.325	800.000	-0.030	0.129
-546.310	800.000	-0.027	-0.096
-545.296	-59.796	0.457	-0.197
-544.281	-200.000	0.023	0.119
-543.266	538.505	0.042	0.101
-542.252	649.761	-0.022	-0.057
-541.237	-200.000	0.007	-0.109
-540.223	-200.000	-0.001	0.207
-539.208	-41.308	0.218	0.113
-538.193	79.464	-0.124	0.133
-537.179	-26.399	-0.070	-0.042
-536.164	506.864	0.023	0.054
-535.150	171.210	-0.227	0.328
-534.135	-121.338	0.302	-0.051
-533.121	-168.068	0.262	0.010
-532.106	27.333	-0.216	-0.183
-531.091	59.684	-0.231	0.229
-530.077	743.755	0.106	0.287
-529.062	-200.000	0.057	0.323
-528.048	-200.000	-0.006	-0.075
-527.033	598.435	0.125	-0.311
-526.018	-103.286	0.206	-0.049
-525.004	800.000	-0.084	-0.234
-523.989	123.048	0.186	-0.233
-522.975	145.818	0.138	-0.185
-521.960	-200.000	-0.006	0.123
-520.945	89.335	0.252	-0.282
-519.931	64.900	-0.216	0.219
-518.916	-43.092	0.362	0.184
-517.902	-77.695	-0.173	-0.060
-516.887	-58.420	-0.106	0.046
-515.872	-37.939	-0.282	0.150
-514.858	222.805	-0.181	0.293
-513.843	29.600	-0.144	-0.123
-512.829	42.910	-0.059	0.054
-511.814	186.937	-0.099	0.148
-510.799	-51.858	0.180	-0.084
-509.785	-88.723	0.123	0.037
-508.770	-5.359	-0.056	-0.039
-507.756	539.385	-0.033	-0.078
-506.741	-99.442	0.166	-0.042
-505.726	-157.191	-0.137	0.008
-504.712	-200.000	0.025	0.197
-503.697	-200.000	0.029	-0.195
-502.683	-1.164	-0.239	0.169
-501.668	-56.744	0.047	0.021
-500.653	-200.000	-0.014	0.232
-499.639	-15.347	-0.071	0.045
-498.624	61.052	0.315	-0.313
-497.610	-200.000	-0.004	0.122
-496.595	-87.334	0.428	-0.130
-495.581	-200.000	-0.001	-0.022
-494.566	38.926	-0.102	-0.091
-493.551	-112.299	0.322	-0.065
-492.537	-130.812	-0.137	0.018
-491.522	-200.000	-0.016	-0.117
-490.508	-200.000	0.028	0.244
-489.493	114.850	-0.130	-0.159
-488.478	540.582	-0.138	0.329
-487.464	-114.995	0.157	0.030
-486.449	-76.892	-0.334	0.117
-485.435	-158.363	0.392	0.023
-484.420	66.349	0.281	0.286
-483.405	243.697	-0.070	-0.118
-482.391	800.000	0.023	-0.075
-481.376	55.404	0.165	0.160
-480.362	-200.000	0.027	-0.242
-479.347	-36.247	-0.067	0.036
-478.332	-73.609	0.241	-0.088
-477.318	-166.269	0.168	-0.007
-476.303	87.828	-0.112	-0.125
-475.289	-122.730	0.310	-0.050
-474.274	-90.673	-0.171	0.050
-473.259	-200.000	-0.072	-0.456
-472.245	-200.000	-0.176	0.001
-471.230	-145.073	0.614	-0.056
-470.216	-87.131	-0.199	0.061
-469.201	363.545	0.172	0.346
-468.186	-53.920	-0.273	0.125
-467.172	-87.669	0.395	0.119
-466.157	-77.764	-0.130	0.045
-465.143	-149.228	-0.187	-0.015
-464.128	800.000	0.065	-0.249
-463.113	61.476	0.030	-0.030
-462.099	-200.000	-0.048	-0.454
-461.084	63.873	0.167	0.168
-460.070	311.474	0.209	-0.393
-459.055	162.049	0.146	-0.204
-458.040	85.297	-0.181	0.199
-457.026	-130.278	-0.227	0.031
-456.011	-60.351	-0.165	0.070
-454.997	697.270	-0.040	0.106
-453.982	-72.089	0.049	-0.018
-452.968	56.557	-0.369	-0.360
-451.953	-200.000	-0.007	-0.158
-450.938	-62.608	0.242	-0.101
-449.924	181.856	0.085	0.125
-448.909	-90.872	0.396	-0.114
-447.895	394.588	0.076	-0.158
-446.880	138.126	0.216	-0.284
-445.865	200.042	-0.137	-0.211
-444.851	-46.017	-0.123	-0.060
-443.836	800.000	-0.147	-0.463
-442.822	-200.000	-0.030	-0.284
-441.807	20.663	0.187	0.151
-440.792	-125.424	-0.220	0.034
-439.778	-83.071	-0.429	0.138
-438.763	13.859	-0.234	-0.182
-437.749	-200.000	0.026	0.127
-436.734	-16.778	0.235	0.149
-435.719	-200.000	-0.027	-0.199
-434.705	-200.000	0.005	-0.083
-433.690	-200.000	0.014	0.074
-432.676	-129.876	0.185	0.025
-431.661	535.246	-0.064	-0.152
-430.646	-38.628	-0.104	0.055
-429.632	30.626	-0.168	0.144
-428.617	512.930	-0.038	0.089
-427.603	-180.765	-0.101	-0.002
-426.588	800.000	-0.037	-0.142
-425.573	-100.947	0.201	0.049
-424.559	800.000	-0.074	-0.216
-423.544	621.980	-0.086	-0.218
-422.530	800.000	0.034	-0.097
-421.515	46.333	0.254	-0.236
-420.500	2.314	0.341	0.246
-419.486	-114.142	-0.280	0.054
-418.471	-132.060	0.156	0.020
-417.457	-23.887	-0.291	0.174
-416.442	800.000	0.016	-0.066
-415.428	93.917	0.170	0.193
-414.413	-132.011	-0.246	-0.032
-413.398	-68.236	0.215	0.084
-412.384	186.611	-0.213	-0.317
-411.369	210.544	-0.155	-0.243
-410.355	-127.937	-0.174	0.025
-409.340	-30.204	0.129	0.073
-408.325	201.657	0.049	0.076
-407.311	117.238	0.202	-0.249
-406.296	-127.216	-0.061	-0.009
-405.282	-59.824	-0.178	0.076
-404.267	488.196	-0.037	0.084
-403.252	-200.000	0.004	-0.027
-402.238	-200.000	0.005	-0.074
-401.223	250.785	-0.108	-0.184
-400.209	-176.141	0.230	-0.006
-399.194	-200.000	-0.001	0.148
-398.179	21.569	-0.138	-0.113
-397.165	102.401	0.176	-0.205
-396.150	-189.995	-0.156	-0.002
-395.136	-127.944	0.312	-0.045
-394.121	97.226	0.135	-0.155
-393.106	-79.339	0.143	0.048
-392.092	-150.959	-0.183	0.014
-391.077	19.035	0.191	-0.153
-390.063	242.648	-0.116	0.194
-389.048	170.196	0.108	0.155
-388.033	-200.000	-0.014	0.119
-387.019	572.122	0.110	0.268
-386.004	-200.000	-0.003	-0.040
-384.990	-96.550	-0.032	-0.008
-383.975	-17.370	0.237	0.149
-382.960	203.409	-0.080	0.123
-381.946	84.215	-0.147	0.161
-380.931	-187.373	0.012	0.000
-379.917	800.000	-0.068	0.280
-378.902	524.067	0.148	0.347
-377.888	-39.700	0.227	0.118
-376.873	193.998	0.179	0.271
-375.858	198.433	-0.106	0.162
-374.844	66.762	0.187	0.190
-373.829	-145.637	0.038	0.003
-372.815	800.000	-0.051	0.210
-371.800	88.079	-0.143	0.159
-370.785	-200.000	0.005	-0.189
-369.771	-200.000	-0.003	0.023
-368.756	412.839	-0.074	-0.157
-367.742	-16.566	0.518	-0.327
-366.727	-114.236	-0.238	-0.046
-365.712	-123.685	-0.254	0.040
-364.698	-127.655	0.189	-0.027
-363.683	73.947	0.272	0.284
-362.669	320.150	0.137	0.260
-361.654	715.110	-0.146	0.386
-360.639	800.000	0.128	-0.367
-359.625	41.044	0.429	0.387
-358.610	-125.781	-0.074	-0.011
-357.596	-14.857	0.219	-0.140
-356.581	373.497	0.123	0.250
-355.566	-200.000	-0.003	0.242
-354.552	9.522	-0.262	0.198
-353.537	73.308	-0.149	0.156
-352.523	-34.500	0.280	0.153
-351.508	-69.328	0.079	-0.030
-350.493	-85.476	-0.104	0.032
-349.479	107.892	-0.305	-0.363
-348.464	322.601	0.111	0.210
-347.450	-200.000	0.010	0.202
-346.435	-185.495	-0.088	0.001
-345.420	-60.331	-0.307	-0.130
-344.406	800.000	-0.054	0.149
-343.391	328.354	0.148	-0.284
-342.377	-111.627	-0.342	0.069
-341.362	-93.438	-0.235	-0.065
-340.348	-200.000	-0.003	-0.499
-339.333	207.412	0.096	-0.150
-338.318	-161.843	-0.311	0.016
-337.304	117.504	-0.254	0.312
-336.289	-130.576	-0.255	-0.034
-335.275	-94.015	-0.144	-0.039
-334.260	-11.450	-0.027	0.018
-333.245	-68.959	0.371	-0.142
-332.231	-134.310	0.229	-0.028
-331.216	-34.623	0.294	0.160
-330.202	-116.203	-0.355	-0.066
-329.187	-21.190	-0.210	0.128
-328.172	800.000	-0.018	-0.050
-327.158	58.068	0.058	0.057
-326.143	598.468	0.107	0.265
-325.129	-200.000	0.019	-0.160
-324.114	19.263	-0.227	-0.182
-323.099	-164.879	-0.312	-0.014
-322.085	-102.441	0.143	-0.034
-321.070	-25.658	-0.297	-0.174
-320.056	-173.276	-0.176	0.005
-319.041	-200.000	0.017	-0.260
-318.026	298.147	0.134	-0.246
-317.012	-59.688	0.038	-0.016
-315.997	81.939	-0.197	0.213
-314.983	-156.429	-0.534	-0.033
-313.968	-22.349	-0.258	-0.156
-312.953	5.215	-0.261	-0.191
-311.939	3.077	-0.308	0.223
-310.924	-78.085	-0.121	-0.041
-309.910	-83.164	0.159	-0.051
-308.895	800.000	0.075	-0.266
-307.880	-84.721	0.207	0.065
-306.866	-200.000	0.038	0.171
-305.851	221.923	-0.105	-0.169
-304.837	-18.213	-0.142	0.089
-303.822	-68.211	0.338	-0.131
-302.807	-200.000	-0.001	0.066
-301.793	396.924	-0.072	-0.150
-300.778	-190.307	-0.161	-0.002
-299.764	26.222	-0.059	-0.049
-298.749	-135.695	0.238	0.028
-297.735	183.227	-0.117	0.172
-296.720	105.779	-0.108	-0.128
-295.705	-51.363	0.277	-0.129
-294.691	-32.548	0.150	0.083
-293.676	800.000	-0.061	0.262
-292.662	-142.936	-0.129	0.012
-291.647	-200.000	-0.025	-0.220
-290.632	364.666	-0.138	0.276
-289.618	730.880	-0.129	0.342
-288.603	65.803	0.046	0.046
-287.589	734.237	0.073	-0.195
-286.574	-32.142	-0.036	-0.020
-285.559	-158.605	0.259	-0.015
-284.545	465.606	-0.133	0.296
-283.530	106.306	0.074	0.087
-282.516	-141.654	0.090	-0.009
-281.501	-96.335	-0.173	0.046
-280.486	159.968	0.061	0.085
-279.472	66.885	-0.093	0.094
-278.457	-132.717	0.156	-0.020
-277.443	103.032	0.062	0.072
-276.428	800.000	-0.080	0.312
-275.413	-200.000	0.006	0.250
-274.399	656.044	0.073	0.187
-273.384	-88.268	-0.132	-0.039
-272.370	-98.190	0.055	0.014
-271.355	-131.352	0.299	-0.039
-270.340	191.758	-0.107	-0.160
-269.326	436.267	-0.112	-0.242
-268.311	499.700	-0.065	0.149
-267.297	-200.000	-0.016	0.095
-266.282	-153.502	-0.463	0.032
-265.267	341.841	0.202	0.392
-264.253	-69.395	0.308	0.117
-263.238	800.000	0.069	-0.232
-262.224	-76.818	0.328	-0.114
-261.209	-175.583	-0.232	0.006
-260.195	159.339	-0.117	0.161
-259.180	800.000	0.083	0.303
-258.165	-58.290	0.275	-0.119
-257.151	-200.000	0.001	0.082
-256.136	40.318	-0.152	-0.136
-255.122	-127.245	-0.290	-0.042
-254.107	800.000	-0.055	-0.187
-253.092	280.847	0.136	0.241
-252.078	-200.000	0.051	0.222
-251.063	89.581	0.122	-0.135
-250.049	-24.153	0.114	-0.067
-249.034	-5.124	0.071	-0.048
-248.019	800.000	0.085	0.321
-247.005	-27.156	0.278	-0.161
-245.990	591.922	-0.105	-0.257
-244.976	-200.000	-0.025	-0.166
-243.961	-125.184	-0.161	-0.024
-242.946	78.237	0.141	0.149
-241.932	-200.000	0.022	0.160
-240.917	58.725	-0.135	-0.131
-239.903	453.079	0.068	0.149
-238.888	-103.634	0.099	0.023
-237.873	-200.000	0.036	-0.215
-236.859	3.347	0.248	-0.180
-235.844	-122.017	-0.150	0.024
-234.830	-168.503	-0.262	-0.010
-233.815	-34.845	-0.181	0.098
-232.800	490.812	0.133	-0.303
-231.786	59.111	-0.100	-0.098
-230.771	-79.852	0.277	-0.093
-229.757	12.074	0.240	0.183
-228.742	-162.897	0.132	0.006
-227.727	-128.494	-0.126	0.018
-226.713	-200.000	-0.018	-0.228
-225.698	297.031	-0.164	-0.299
-224.684	188.165	0.170	0.252
-223.669	578.282	-0.089	-0.215
-222.655	800.000	0.031	0.129
-221.640	109.144	0.277	-0.329
-220.625	143.171	0.208	0.275
-219.611	620.258	0.080	0.199
-218.596	91.415	-0.107	-0.120
-217.582	-200.000	-0.059	0.278
-216.567	0.866	-0.338	0.241
-215.552	570.659	0.072	0.175
-214.538	541.805	-0.036	0.085
-213.523	-68.260	0.180	0.069
-212.509	-155.017	-0.150	0.010
-211.494	-106.001	-0.219	0.049
-210.479	53.663	-0.208	-0.198
-209.465	-182.985	0.144	0.003
-208.450	440.406	-0.196	0.425
-207.436	38.449	-0.270	0.239
-206.421	-200.000	0.058	0.274
-205.406	800.000	0.025	0.073
-204.392	20.009	-0.161	0.128
-203.377	-200.000	0.003	0.058
-202.363	23.424	0.157	-0.128
-201.348	800.000	-0.146	0.437
-200.333	-170.307	-0.187	-0.007
-199.319	4.545	-0.087	-0.064
-198.304	40.434	0.294	-0.262
-197.290	668.876	-0.079	-0.203
-196.275	-168.390	0.113	-0.004
-195.260	781.245	0.057	-0.156
-194.246	-16.008	-0.246	-0.155
-193.231	269.146	0.135	0.235
-192.217	-82.299	-0.201	0.065
-191.202	132.886	0.201	-0.257
-190.187	26.940	0.098	0.082
-189.173	-118.118	-0.362	-0.064
-188.158	-112.513	0.353	0.070
-187.144	243.794	0.043	0.071
-186.129	119.048	0.220	0.270
-185.114	-15.791	0.220	-0.139
-184.100	13.359	0.428	-0.329
-183.085	-61.217	0.155	-0.065
-182.071	800.000	-0.060	-0.197
-181.056	178.013	-0.092	0.133
-180.042	76.183	-0.103	-0.108
-179.027	-55.135	0.106	0.047
-178.012	-200.000	-0.017	-0.077
-176.998	800.000	0.074	-0.263
-175.983	28.245	0.169	0.141
-174.969	-200.000	-0.008	0.064
-173.954	18.538	-0.050	-0.040
-172.939	-131.879	-0.122	-0.016
-171.925	-82.711	-0.224	-0.072
-170.910	-22.083	0.195	-0.117
-169.896	322.513	0.147	-0.278
-168.881	38.052	-0.307	-0.270
-167.866	-111.414	0.122	0.025
-166.852	200.850	0.063	0.096
-165.837	-111.597	-0.482	-0.097
-164.823	-13.011	0.148	0.095
-163.808	-60.235	-0.446	0.188
-162.793	438.755	-0.014	-0.030
-161.779	215.812	-0.208	0.327
-160.764	-112.944	0.563	-0.110
-159.750	-95.601	-0.241	0.064
-158.735	566.351	-0.089	0.213
-157.720	10.686	-0.122	-0.092
-156.706	-30.984	-0.123	-0.068
-155.691	-152.067	0.078	-0.006
-154.677	-125.672	0.231	-0.035
-153.662	163.117	-0.172	0.239
-152.647	-56.589	-0.084	-0.037
-151.633	-53.352	0.070	-0.032
-150.618	-50.458	-0.234	0.109
-149.604	58.132	0.151	-0.146
-148.589	67.008	0.169	-0.171
-147.574	-125.879	0.405	-0.060
-146.560	91.866	-0.252	0.281
-145.545	-109.542	0.312	-0.065
-144.531	34.118	0.220	0.190
-143.516	122.124	0.193	-0.238
-142.502	123.162	0.192	-0.238
-141.487	-200.000	-0.049	0.213
-140.472	-143.823	0.183	0.017
-139.458	-73.889	-0.064	-0.023
-138.443	244.441	-0.064	-0.106
-137.429	190.714	-0.188	-0.280
-136.414	-36.514	0.078	-0.042
-135.399	-158.699	0.146	-0.008
-134.385	14.269	0.172	0.132
-133.370	-200.000	-0.226	0.000
-132.356	-138.131	0.355	0.039
-131.341	534.849	0.234	-0.548
-130.326	6.246	-0.263	-0.193
-129.312	-200.000	-0.110	-0.503
-128.297	-153.673	0.149	0.010
-127.283	-55.282	0.120	-0.053
-126.268	800.000	-0.070	0.233
-125.253	4.654	-0.093	0.067
-124.239	800.000	-0.068	0.265
-123.224	-69.138	-0.342	-0.130
-122.210	263.359	0.107	-0.184
