DTS Sentinel unit serial number:	SN413079Multiplexer serial number:	ORYXHardware model number:	OX4-SRSoftware version number:	ORYX F/W v4.00 Oryx Data Collector v3.7.2.0data status	okinstallation	princeton_trtdifferential loss correction	single-endedforward channel	channel 2reverse channel	N/Adate	2019/09/13time	09:43:34forward acquisition time	60.00reverse acquisition time	0.00gamma	496.2192k internal	0.2325k external	0.2325temperature offset calibration	1.0190default loss term (dB/km)	0.3790temperature slope calibration	1.0000multiplexer offset coefficient	1.0000multiplexer slope coefficient	1.0000fibre end	0.00T internal ref (°C)	29.77T ext. ref 1 (°C)	4.43T ext. ref 2 (°C)	26.29length (m)	temperature (°C)	Stokes	anti-Stokes-747.200	124.688	0.178	0.226
-746.185	413.801	-0.038	-0.082
-745.171	-35.111	0.098	-0.054
-744.156	-76.574	-0.603	0.213
-743.142	-200.000	0.012	-0.123
-742.127	331.238	-0.048	0.094
-741.112	800.000	-0.082	0.359
-740.098	-180.868	-0.169	-0.003
-739.083	-45.974	0.297	-0.148
-738.069	55.829	-0.318	0.311
-737.054	-200.000	-0.010	0.177
-736.039	-181.894	-0.419	-0.008
-735.025	17.127	0.162	0.129
-734.010	-143.497	-0.508	0.049
-732.996	-154.302	0.145	0.010
-731.981	-98.392	-0.234	-0.061
-730.966	-101.245	-0.641	-0.158
-729.952	155.625	-0.198	0.275
-728.937	149.480	0.119	-0.162
-727.923	20.652	-0.257	0.209
-726.908	-200.000	0.002	-0.156
-725.894	102.655	0.115	0.136
-724.879	800.000	0.040	-0.120
-723.864	-200.000	0.010	0.081
-722.850	-122.746	0.239	0.039
-721.835	111.913	-0.293	-0.357
-720.821	72.344	0.116	-0.122
-719.806	170.205	0.122	-0.176
-718.791	-81.577	0.083	-0.027
-717.777	-139.511	-0.053	-0.006
-716.762	-75.244	-0.344	-0.124
-715.748	-200.000	-0.007	-0.054
-714.733	746.817	0.224	-0.607
-713.718	-200.000	0.070	-0.360
-712.704	-156.913	-0.383	-0.024
-711.689	166.076	-0.204	-0.291
-710.675	64.118	-0.080	0.081
-709.660	492.645	0.078	-0.179
-708.645	-200.000	0.221	0.000
-707.631	-171.445	0.219	0.007
-706.616	646.865	0.053	-0.137
-705.602	56.512	0.085	0.083
-704.587	68.506	0.182	0.188
-703.572	529.355	0.064	-0.153
-702.558	800.000	0.064	0.183
-701.543	800.000	0.060	0.236
-700.529	305.579	0.133	-0.249
-699.514	-155.938	0.175	0.011
-698.499	-99.028	-0.286	-0.073
-697.485	63.890	-0.167	0.169
-696.470	117.604	0.017	-0.021
-695.456	-200.000	-0.004	-0.054
-694.441	-200.000	0.012	-0.133
-693.426	-130.179	0.212	0.029
-692.412	800.000	0.084	-0.252
-691.397	-25.422	0.168	-0.100
-690.383	800.000	0.068	-0.203
-689.368	800.000	0.117	-0.344
-688.354	-53.154	-0.144	-0.067
-687.339	586.962	0.065	0.160
-686.324	-200.000	0.010	0.144
-685.310	-200.000	0.069	-0.343
-684.295	-200.000	-0.001	0.044
-683.281	-200.000	-0.032	0.277
-682.266	-21.638	-0.221	0.135
-681.251	81.723	-0.129	-0.140
-680.237	-200.000	-0.005	-0.171
-679.222	-200.000	-0.044	-0.458
-678.208	-200.000	0.011	0.191
-677.193	800.000	0.076	-0.261
-676.178	800.000	0.054	-0.169
-675.164	800.000	-0.018	-0.062
-674.149	18.483	0.181	-0.145
-673.135	46.953	0.037	-0.034
-672.120	316.650	-0.104	0.197
-671.105	-121.709	-0.090	0.015
-670.091	-73.424	0.348	-0.128
-669.076	-200.000	-0.030	0.455
-668.062	-18.523	-0.174	0.109
-667.047	-200.000	-0.032	-0.470
-666.032	71.022	0.089	-0.093
-665.018	-70.418	0.253	0.096
-664.003	-149.159	-0.080	-0.006
-662.989	115.782	0.145	-0.178
-661.974	-6.789	-0.096	0.065
-660.959	-200.000	0.039	0.257
-659.945	61.638	0.260	0.260
-658.930	-8.765	-0.155	0.104
-657.916	-200.000	-0.009	-0.150
-656.901	-65.952	0.152	0.061
-655.886	-124.874	0.241	0.037
-654.872	14.523	0.236	0.185
-653.857	71.844	-0.132	0.138
-652.843	449.750	0.077	0.170
-651.828	-130.614	0.152	-0.021
-650.814	440.702	-0.061	-0.135
-649.799	290.676	-0.096	-0.174
-648.784	-200.000	-0.055	0.383
-647.770	800.000	0.051	0.144
-646.755	-103.348	-0.405	0.096
-645.741	-91.385	-0.189	-0.054
-644.726	-200.000	0.438	0.001
-643.711	85.162	-0.306	0.337
-642.697	-200.000	0.020	-0.351
-641.682	-200.000	-0.000	0.159
-640.668	800.000	-0.106	0.383
-639.653	-26.272	0.181	-0.107
-638.638	800.000	0.098	-0.281
-637.624	-63.798	-0.100	-0.041
-636.609	-100.685	0.078	0.019
-635.595	712.211	0.075	0.199
-634.580	-129.223	-0.162	-0.023
-633.565	-200.000	-0.017	-0.186
-632.551	154.809	0.192	-0.265
-631.536	729.465	-0.180	-0.483
-630.522	-200.000	0.006	-0.129
-629.507	-112.900	0.213	0.042
-628.492	800.000	0.047	0.150
-627.478	800.000	-0.126	0.369
-626.463	-85.830	0.119	-0.037
-625.449	-69.802	-0.134	-0.051
-624.434	-200.000	-0.006	0.128
-623.419	142.413	-0.151	-0.201
-622.405	-200.000	0.019	0.177
-621.390	-122.738	-0.140	-0.023
-620.376	58.867	-0.280	-0.276
-619.361	98.202	0.078	0.091
-618.346	-200.000	-0.028	-0.178
-617.332	51.102	0.309	-0.294
-616.317	-200.000	0.077	-0.383
-615.303	-200.000	0.000	-0.102
-614.288	669.097	-0.066	0.170
-613.273	-151.819	-0.790	0.058
-612.259	-24.923	0.352	-0.210
-611.244	41.269	0.198	0.180
-610.230	-96.893	-0.207	-0.054
-609.215	-51.902	-0.447	0.209
-608.201	-200.000	0.012	0.085
-607.186	-73.086	-0.262	-0.096
-606.171	-35.545	-0.140	0.076
-605.157	-31.813	-0.310	-0.175
-604.142	-134.383	0.081	-0.010
-603.128	-10.293	0.023	-0.015
-602.113	125.515	0.213	0.270
-601.098	117.215	-0.328	-0.405
-600.084	-200.000	-0.025	-0.293
-599.069	34.672	-0.086	-0.076
-598.055	56.316	0.052	-0.051
-597.040	-43.376	-0.281	-0.142
-596.025	-78.286	0.280	-0.097
-595.011	724.321	-0.128	0.343
-593.996	-175.946	-0.148	0.004
-592.982	800.000	0.046	0.193
-591.967	144.302	-0.255	0.342
-590.952	-3.502	0.177	0.124
-589.938	45.114	-0.112	0.103
-588.923	760.782	-0.022	-0.060
-587.909	-54.676	0.261	0.118
-586.894	55.180	-0.027	0.026
-585.879	137.030	0.220	0.289
-584.865	-44.193	-0.074	-0.037
-583.850	-200.000	-0.011	-0.124
-582.836	-200.000	-0.008	0.043
-581.821	-118.966	-0.166	-0.029
-580.806	800.000	0.075	-0.229
-579.792	-118.959	0.261	0.046
-578.777	800.000	0.071	0.242
-577.763	60.901	-0.136	0.135
-576.748	-122.115	-0.097	0.016
-575.733	-125.997	-0.285	-0.043
-574.719	-200.000	-0.071	0.368
-573.704	800.000	0.062	-0.239
-572.690	291.320	-0.047	0.085
-571.675	43.592	0.287	0.263
-570.661	-3.984	0.165	-0.115
-569.646	46.970	-0.047	-0.044
-568.631	-200.000	0.032	-0.307
-567.617	487.564	0.066	0.152
-566.602	-114.364	-0.227	-0.044
-565.588	800.000	-0.016	-0.050
-564.573	-95.965	0.256	-0.068
-563.558	800.000	0.044	-0.172
-562.544	-185.829	0.184	-0.003
-561.529	243.436	0.159	0.267
-560.515	-44.937	0.287	0.143
-559.500	108.383	-0.203	-0.243
-558.485	800.000	0.075	-0.253
-557.471	-169.329	0.333	0.012
-556.456	-14.879	0.099	-0.064
-555.442	-85.557	-0.419	0.131
-554.427	61.982	0.297	-0.297
-553.412	-200.000	0.021	-0.108
-552.398	203.455	-0.100	0.154
-551.383	-71.877	0.373	0.139
-550.369	800.000	0.023	0.071
-549.354	-21.250	0.102	-0.063
-548.339	-66.895	-0.161	-0.064
-547.325	71.886	-0.081	-0.084
-546.310	17.130	-0.148	0.117
-545.296	-200.000	-0.070	-0.539
-544.281	284.267	0.114	-0.205
-543.266	-200.000	-0.040	0.441
-542.252	630.674	0.101	-0.256
-541.237	-16.274	-0.217	-0.138
-540.223	-114.642	0.193	0.037
-539.208	-98.579	0.352	-0.090
-538.193	-150.542	-0.506	-0.039
-537.179	-62.509	-0.203	-0.084
-536.164	171.794	0.044	-0.063
-535.150	-15.792	0.248	0.158
-534.135	-92.932	0.484	0.135
-533.121	-103.893	-0.035	-0.008
-532.106	-200.000	0.002	0.038
-531.091	181.801	0.038	-0.056
-530.077	553.507	-0.035	-0.083
-529.062	737.852	0.130	-0.350
-528.048	800.000	-0.050	-0.206
-527.033	-122.394	-0.251	-0.041
-526.018	-200.000	0.018	0.087
-525.004	128.364	0.112	-0.142
-523.989	-151.058	-0.226	0.017
-522.975	259.254	-0.087	0.150
-521.960	645.663	-0.105	0.267
-520.945	-23.519	0.208	0.125
-519.931	-75.757	0.156	0.055
-518.916	800.000	-0.090	-0.314
-517.902	800.000	0.119	-0.396
-516.887	800.000	0.074	-0.262
-515.872	361.108	-0.095	-0.191
-514.858	124.007	-0.193	-0.243
-513.843	216.269	0.080	0.128
-512.829	39.778	0.190	0.170
-511.814	-150.252	0.082	-0.006
-510.799	-83.616	-0.458	-0.146
-509.785	-157.155	-0.155	0.009
-508.770	-62.177	-0.272	-0.113
-507.756	800.000	0.062	-0.264
-506.741	800.000	-0.091	-0.261
-505.726	-64.504	0.140	0.057
-504.712	-112.103	0.172	0.035
-503.697	-2.371	-0.278	-0.195
-502.683	182.705	0.024	0.036
-501.668	31.678	0.154	0.132
-500.653	-200.000	-0.023	-0.240
-499.639	-147.711	-0.227	-0.019
-498.624	800.000	-0.085	0.237
-497.610	-200.000	0.033	0.283
-496.595	-63.493	-0.333	-0.137
-495.581	-200.000	0.002	-0.154
-494.566	-75.421	-0.256	-0.091
-493.551	82.515	-0.232	-0.251
-492.537	438.131	-0.164	-0.357
-491.522	-200.000	0.008	0.178
-490.508	13.504	-0.227	0.176
-489.493	-200.000	0.004	0.114
-488.478	270.633	-0.091	0.160
-487.464	-69.970	0.093	0.035
-486.449	-44.287	-0.184	0.092
-485.435	346.661	0.049	-0.096
-484.420	163.257	0.058	-0.081
-483.405	-94.337	-0.060	0.016
-482.391	800.000	-0.050	-0.174
-481.376	-200.000	-0.003	-0.040
-480.362	-200.000	-0.018	0.092
-479.347	266.610	-0.144	-0.252
-478.332	94.963	-0.199	-0.227
-477.318	-200.000	-0.023	0.274
-476.303	307.590	-0.048	-0.090
-475.289	-200.000	-0.038	0.209
-474.274	-52.638	-0.229	0.105
-473.259	800.000	0.042	-0.152
-472.245	187.324	0.069	0.103
-471.230	-90.150	0.399	-0.116
-470.216	-62.215	-0.170	-0.071
-469.201	-200.000	-0.002	-0.010
-468.186	-200.000	-0.039	0.250
-467.172	438.598	0.091	-0.199
-466.157	-9.126	0.177	0.118
-465.143	800.000	-0.122	-0.423
-464.128	-79.885	-0.257	-0.086
-463.113	800.000	-0.028	-0.086
-462.099	382.410	-0.119	0.244
-461.084	307.677	0.160	0.298
-460.070	-49.720	-0.036	0.017
-459.055	278.897	0.162	0.289
-458.040	-200.000	0.007	0.286
-457.026	-33.518	0.222	-0.122
-456.011	192.752	0.164	-0.247
-454.997	-76.117	0.218	-0.077
-453.982	189.324	-0.131	0.195
-452.968	-100.105	-0.401	-0.100
-451.953	-136.027	-0.203	0.024
-450.938	89.980	0.126	-0.141
-449.924	-80.713	-0.139	0.046
-448.909	-200.000	0.005	-0.040
-447.895	6.177	0.334	-0.247
-446.880	-93.730	0.222	-0.061
-445.865	-128.896	0.175	0.025
-444.851	-54.522	-0.237	-0.107
-443.836	-17.533	0.148	-0.093
-442.822	88.312	0.051	-0.056
-441.807	-117.073	0.230	0.042
-440.792	-158.226	-0.671	-0.039
-439.778	-104.955	0.069	-0.016
-438.763	-200.000	-0.044	0.406
-437.749	-46.052	-0.393	-0.193
-436.734	-200.000	-0.025	0.363
-435.719	132.034	-0.229	-0.294
-434.705	267.636	0.157	0.273
-433.690	427.077	0.054	0.115
-432.676	11.668	0.045	0.034
-431.661	221.193	0.093	0.150
-430.646	800.000	0.070	0.256
-429.632	-80.351	-0.378	0.126
-428.617	-200.000	0.012	0.316
-427.603	15.746	0.247	0.194
-426.588	-200.000	0.022	0.185
-425.573	-32.205	0.093	0.052
-424.559	161.616	0.039	0.055
-423.544	-107.994	0.094	0.020
-422.530	-21.056	0.080	0.049
-421.515	-34.628	-0.349	0.190
-420.500	-200.000	-0.081	0.407
-419.486	268.348	0.055	-0.096
-418.471	-105.791	0.137	-0.031
-417.457	2.348	0.135	0.097
-416.442	-174.099	0.211	0.006
-415.428	-135.035	0.254	0.030
-414.413	-71.700	0.144	0.053
-413.398	176.448	-0.124	0.179
-412.384	-88.621	0.363	-0.108
-411.369	188.462	-0.084	0.125
-410.355	103.594	0.096	0.112
-409.340	533.263	0.019	-0.045
-408.325	-200.000	0.030	0.140
-407.311	-200.000	0.001	-0.068
-406.296	199.404	0.187	0.285
-405.282	-53.429	-0.220	0.100
-404.267	179.121	-0.158	-0.230
-403.252	-65.204	0.120	0.048
-402.238	800.000	-0.016	-0.057
-401.223	-200.000	-0.074	-0.342
-400.209	128.328	0.058	0.073
-399.194	37.512	0.276	0.243
-398.179	-200.000	-0.007	-0.239
-397.165	-26.834	-0.263	0.153
-396.150	84.218	0.212	0.231
-395.136	-79.693	-0.193	-0.065
-394.121	17.629	0.144	0.114
-393.106	800.000	-0.046	-0.181
-392.092	-111.978	0.163	-0.033
-391.077	-186.780	0.014	-0.000
-390.063	-96.482	0.431	-0.113
-389.048	800.000	-0.090	-0.264
-388.033	219.645	0.112	0.178
-387.019	-155.229	-0.330	-0.021
-386.004	800.000	0.056	0.237
-384.990	-64.890	-0.052	-0.021
-383.975	800.000	-0.105	-0.290
-382.960	-3.007	0.154	0.107
-381.946	-200.000	0.038	-0.326
-380.931	372.171	0.051	-0.103
-379.917	474.942	-0.024	-0.055
-378.902	-200.000	-0.005	0.277
-377.888	-200.000	0.004	-0.203
-376.873	-200.000	0.002	-0.011
-375.858	-106.035	0.149	-0.033
-374.844	415.691	-0.159	-0.337
-373.829	166.387	0.042	0.059
-372.815	-46.354	-0.519	0.253
-371.800	-200.000	0.056	0.259
-370.785	800.000	-0.046	0.166
-369.771	111.885	-0.176	0.212
-368.756	49.089	0.156	0.146
-367.742	588.501	-0.067	0.165
-366.727	518.018	0.142	0.330
-365.712	582.308	0.043	-0.106
-364.698	154.294	0.191	-0.260
-363.683	-42.867	-0.256	0.129
-362.669	724.245	0.042	0.112
-361.654	-114.747	-0.143	0.027
-360.639	-63.712	0.225	-0.092
-359.625	-200.000	-0.013	0.264
-358.610	75.700	0.110	-0.116
-357.596	-200.000	-0.027	0.123
-356.581	108.210	0.205	-0.243
-355.566	259.859	-0.087	-0.149
-354.552	352.189	-0.025	-0.050
-353.537	-104.399	-0.420	0.097
-352.523	-28.450	-0.153	0.088
-351.508	2.495	-0.352	-0.254
-350.493	244.390	0.157	-0.262
-349.479	-200.000	-0.003	-0.027
-348.464	-200.000	0.004	-0.055
-347.450	-200.000	-0.003	-0.114
-346.435	51.818	-0.069	-0.065
-345.420	47.703	0.052	-0.048
-344.406	-143.690	0.107	0.010
-343.391	242.131	-0.062	0.103
-342.377	-200.000	-0.012	0.114
-341.362	-78.943	0.225	0.076
-340.348	633.431	-0.063	-0.159
-339.333	-200.000	0.002	0.137
-338.318	178.287	-0.102	0.147
-337.304	-200.000	-0.016	-0.081
-336.289	-200.000	0.025	-0.205
-335.275	800.000	-0.045	-0.153
-334.260	184.066	0.166	-0.244
-333.245	228.621	-0.088	-0.143
-332.231	-200.000	0.035	0.245
-331.216	-116.336	0.067	-0.012
-330.202	373.146	0.082	0.166
-329.187	800.000	0.054	0.165
-328.172	595.292	0.064	0.157
-327.158	121.276	0.240	0.296
-326.143	7.497	0.139	-0.103
-325.129	-122.709	-0.193	0.031
-324.114	-200.000	-0.065	-0.405
-323.099	66.961	0.088	-0.089
-322.085	-51.025	0.145	0.067
-321.070	155.615	-0.154	-0.211
-320.056	-130.896	0.171	-0.023
-319.041	-7.345	0.164	-0.111
-318.026	-128.987	-0.205	0.029
-317.012	-76.207	-0.305	-0.107
-315.997	800.000	-0.061	0.245
-314.983	-91.908	0.017	0.005
-313.968	275.079	0.155	-0.272
-312.953	-200.000	-0.017	-0.318
-311.939	800.000	-0.016	0.056
-310.924	207.606	0.072	0.112
-309.910	101.205	0.156	0.180
-308.895	596.646	-0.050	0.122
-307.880	-200.000	0.059	0.401
-306.866	-55.194	0.124	0.055
-305.851	-200.000	-0.034	0.306
-304.837	467.558	0.122	0.270
-303.822	-60.085	-0.301	-0.128
-302.807	54.814	-0.202	0.193
-301.793	55.556	0.062	0.059
-300.778	-200.000	-0.013	-0.303
-299.764	-200.000	-0.013	0.335
-298.749	282.056	-0.131	-0.233
-297.735	-200.000	-0.012	-0.153
-296.720	-127.921	0.250	0.036
-295.705	-140.726	0.244	-0.025
-294.691	-68.978	0.245	-0.094
-293.676	4.243	-0.243	0.176
-292.662	597.776	0.062	-0.152
-291.647	-53.388	-0.226	0.102
-290.632	291.575	0.083	-0.149
-289.618	650.378	0.243	-0.617
-288.603	-42.768	0.038	0.019
-287.589	126.621	-0.163	-0.204
-286.574	22.237	-0.052	0.042
-285.559	-53.501	0.264	-0.120
-284.545	-200.000	-0.068	0.318
-283.530	-10.895	0.206	0.135
-282.516	-200.000	0.004	-0.057
-281.501	-199.852	-0.248	-0.001
-280.486	39.377	0.045	0.040
-279.472	101.484	-0.029	-0.034
-278.457	800.000	-0.022	-0.081
-277.443	47.014	-0.042	0.039
-276.428	317.900	-0.111	0.208
-275.413	-200.000	0.038	0.366
-274.399	29.489	-0.113	-0.095
-273.384	-84.928	0.082	0.025
-272.370	1.983	-0.052	0.037
-271.355	28.769	0.067	-0.056
-270.340	219.413	0.086	0.136
-269.326	800.000	-0.020	-0.074
-268.311	-200.000	-0.013	0.159
-267.297	50.196	0.171	0.160
-266.282	-70.523	0.104	0.039
-265.267	-25.532	0.124	0.073
-264.253	9.952	-0.199	-0.150
-263.238	-99.023	-0.140	0.035
-262.224	-77.420	-0.102	-0.035
-261.209	800.000	-0.026	-0.082
-260.195	800.000	0.078	-0.295
-259.180	35.864	-0.019	0.016
-258.165	539.790	-0.075	-0.177
-257.151	73.788	0.028	-0.029
-256.136	-14.548	-0.183	0.117
-255.122	-200.000	-0.015	-0.096
-254.107	-19.255	0.418	-0.257
-253.092	-4.939	0.250	-0.170
-252.078	26.061	-0.222	0.183
-251.063	325.817	-0.068	0.129
-250.049	416.246	-0.073	-0.153
-249.034	-38.713	0.045	-0.023
-248.019	-65.674	0.224	0.089
-247.005	687.271	-0.093	0.241
-245.990	-200.000	-0.000	0.489
-244.976	-3.423	0.257	0.177
-243.961	-93.000	0.193	-0.053
-242.946	28.988	0.388	-0.326
-241.932	81.751	0.279	-0.299
-240.917	-200.000	0.045	-0.197
-239.903	-65.545	0.178	0.071
-238.888	-139.772	0.027	-0.003
-237.873	-200.000	0.028	0.207
-236.859	-16.900	-0.232	0.145
-235.844	243.816	-0.060	-0.100
-234.830	266.760	0.184	-0.318
-233.815	-86.535	0.270	-0.082
-232.800	-100.919	0.098	0.024
-231.786	167.434	0.165	-0.231
-230.771	-200.000	0.034	0.297
-229.757	-103.188	-0.240	0.056
-228.742	102.033	-0.053	-0.062
-227.727	-130.216	0.555	-0.075
-226.713	800.000	-0.022	-0.091
-225.698	-90.871	0.159	0.045
-224.684	64.466	-0.243	0.242
-223.669	-129.237	-0.161	-0.022
-222.655	800.000	0.032	0.092
-221.640	229.144	-0.040	0.065
-220.625	-83.999	-0.419	-0.132
-219.611	-21.788	0.148	0.089
-218.596	800.000	0.056	-0.164
-217.582	-130.950	0.221	0.029
-216.567	674.915	0.077	0.197
-215.552	131.695	-0.148	-0.189
-214.538	-57.260	0.206	-0.090
-213.523	-55.134	0.133	0.059
-212.509	-62.870	0.163	0.067
-211.494	-39.989	-0.153	0.079
-210.479	232.902	0.093	-0.151
-209.465	-37.837	0.163	0.085
-208.450	-200.000	-0.010	-0.185
-207.436	361.489	-0.143	0.282
-206.421	-19.937	-0.041	0.025
-205.406	172.107	0.046	0.066
-204.392	-200.000	0.057	0.415
-203.377	47.844	0.175	-0.161
-202.363	800.000	0.053	-0.229
-201.348	800.000	-0.039	0.153
-200.333	304.800	0.107	-0.197
-199.319	800.000	0.074	-0.226
-198.304	-44.113	-0.150	0.074
-197.290	-20.073	0.194	-0.118
-196.275	363.410	-0.146	-0.290
-195.260	47.001	-0.292	0.268
-194.246	-63.443	0.140	-0.057
-193.231	-155.382	0.098	0.006
-192.217	426.243	0.034	0.072
-191.202	-200.000	-0.014	-0.070
-190.187	203.199	-0.076	-0.117
-189.173	-178.966	0.083	0.002
-188.158	322.498	-0.016	-0.031
-187.144	-22.595	-0.210	-0.125
-186.129	227.185	0.153	0.246
-185.114	-200.000	-0.014	0.098
-184.100	-65.232	0.140	0.056
-183.085	60.487	0.082	0.080
-182.071	-200.000	0.005	0.141
-181.056	252.969	-0.096	-0.161
-180.042	512.974	0.255	-0.587
-179.027	-132.736	-0.061	0.008
-178.012	177.074	0.098	0.141
-176.998	183.579	-0.078	0.113
-175.983	-71.888	-0.308	0.113
-174.969	-82.290	-0.294	-0.095
-173.954	800.000	0.064	0.201
-172.939	-117.301	-0.243	-0.044
-171.925	-87.967	0.090	-0.027
-170.910	-88.201	-0.205	-0.060
-169.896	144.757	0.076	0.100
-168.881	76.995	0.293	-0.307
-167.866	-200.000	-0.002	0.290
-166.852	90.267	-0.217	0.240
-165.837	759.776	0.054	0.146
-164.823	-200.000	-0.050	0.250
-163.808	101.770	-0.130	0.150
-162.793	95.343	0.161	-0.181
-161.779	236.482	-0.071	-0.117
-160.764	29.420	0.244	-0.205
-159.750	-155.206	0.072	-0.005
-158.735	-200.000	-0.024	-0.176
-157.720	800.000	-0.074	0.207
-156.706	-63.048	-0.315	0.128
-155.691	38.564	0.243	0.213
-154.677	-70.891	-0.199	0.074
-153.662	-200.000	-0.056	0.312
-152.647	-40.527	0.095	-0.049
-151.633	111.067	-0.145	-0.172
-150.618	-133.275	0.295	-0.037
-149.604	-115.880	0.165	-0.030
-148.589	209.038	-0.120	-0.185
-147.574	20.116	-0.226	0.180
-146.560	800.000	-0.054	0.222
-145.545	-86.041	-0.238	-0.072
-144.531	-200.000	-0.038	-0.332
-143.516	352.150	0.150	0.293
-142.502	48.212	0.267	0.246
-141.487	8.100	-0.201	-0.148
-140.472	-129.701	-0.197	-0.027
-139.458	-174.237	-0.143	0.004
-138.443	-96.575	0.169	-0.044
-137.429	580.004	0.080	0.193
-136.414	-55.150	-0.293	0.130
-135.399	-86.286	0.066	-0.020
-134.385	675.069	0.064	-0.164
-133.370	-67.546	-0.254	-0.098
-132.356	343.168	-0.050	-0.096
-131.341	800.000	-0.018	-0.055
-130.326	-117.109	-0.423	-0.076
-129.312	157.981	0.158	-0.216
-128.297	59.525	0.187	-0.182
-127.283	59.616	0.050	0.048
-126.268	-200.000	-0.014	0.095
-125.253	767.563	0.096	0.257
-124.239	183.603	0.082	0.120
-123.224	-119.826	0.319	0.054
-122.210	-8.509	0.063	-0.042
-121.195	176.806	0.033	0.047
