DTS Sentinel unit serial number:	SN413079Multiplexer serial number:	ORYXHardware model number:	OX4-SRSoftware version number:	ORYX F/W v4.00 Oryx Data Collector v3.7.2.0data status	okinstallation	princeton_trtdifferential loss correction	single-endedforward channel	channel 2reverse channel	N/Adate	2019/09/15time	14:11:35forward acquisition time	60.00reverse acquisition time	0.00gamma	496.2192k internal	0.2300k external	0.2300temperature offset calibration	0.9991default loss term (dB/km)	0.3790temperature slope calibration	1.0000multiplexer offset coefficient	1.0000multiplexer slope coefficient	1.0000fibre end	0.00T internal ref (°C)	38.80T ext. ref 1 (°C)	4.97T ext. ref 2 (°C)	35.95length (m)	temperature (°C)	Stokes	anti-Stokes-747.200	15.560	-0.134	-0.107
-746.185	290.471	-0.139	0.258
-745.171	-62.647	0.152	-0.064
-744.156	43.030	-0.032	0.030
-743.142	800.000	-0.043	-0.131
-742.127	-200.000	0.019	0.250
-741.112	-200.000	0.005	-0.084
-740.098	87.601	0.114	0.128
-739.083	-160.321	0.214	0.012
-738.069	288.774	0.093	-0.171
-737.054	-121.137	0.435	0.074
-736.039	37.790	0.183	-0.165
-735.025	-120.653	0.258	-0.045
-734.010	171.607	-0.129	-0.189
-732.996	-200.000	0.010	-0.293
-731.981	-18.625	0.217	-0.138
-730.966	-92.285	0.179	0.052
-729.952	-77.331	-0.287	-0.102
-728.937	2.119	0.145	-0.107
-727.923	-66.322	-0.180	-0.073
-726.908	129.379	0.083	0.108
-725.894	37.309	-0.156	0.141
-724.879	247.006	-0.098	-0.168
-723.864	-200.000	0.000	-0.111
-722.850	-87.336	0.354	-0.109
-721.835	-179.604	-0.175	-0.004
-720.821	28.667	-0.134	-0.116
-719.806	-124.252	0.112	0.018
-718.791	271.048	0.071	0.127
-717.777	-200.000	-0.019	-0.298
-716.762	34.749	0.146	-0.130
-715.748	-68.851	-0.347	-0.136
-714.733	63.956	-0.100	0.102
-713.718	-191.045	0.128	-0.001
-712.704	-47.323	-0.153	0.076
-711.689	-27.187	-0.197	-0.117
-710.675	800.000	0.040	0.137
-709.660	-147.846	-0.040	0.003
-708.645	77.106	-0.087	-0.094
-707.631	-141.845	-0.158	-0.016
-706.616	-1.839	0.207	0.148
-705.602	-138.715	0.340	0.038
-704.587	594.781	0.056	-0.141
-703.572	92.410	-0.065	-0.075
-702.558	97.737	0.223	-0.262
-701.543	-52.122	-0.090	0.042
-700.529	604.740	-0.094	-0.239
-699.514	8.923	0.294	0.226
-698.499	51.632	-0.045	0.044
-697.485	-200.000	0.038	0.441
-696.470	-78.973	0.416	0.144
-695.456	-200.000	-0.026	-0.264
-694.441	-200.000	0.061	-0.368
-693.426	-200.000	0.028	0.240
-692.412	-200.000	0.043	-0.357
-691.397	152.581	0.159	0.220
-690.383	800.000	0.064	-0.235
-689.368	800.000	-0.076	-0.222
-688.354	-3.121	-0.082	0.058
-687.339	62.619	-0.176	-0.179
-686.324	745.911	-0.113	0.309
-685.310	-200.000	0.013	0.174
-684.295	800.000	-0.046	-0.145
-683.281	-19.754	-0.100	-0.063
-682.266	-200.000	0.002	-0.238
-681.251	40.332	-0.224	-0.205
-680.237	527.558	-0.125	-0.299
-679.222	169.654	0.099	-0.144
-678.208	-164.674	-0.064	-0.003
-677.193	253.058	-0.176	-0.305
-676.178	-43.399	0.123	0.063
-675.164	-169.008	0.130	-0.005
-674.149	40.293	0.060	-0.055
-673.135	800.000	0.042	0.128
-672.120	309.047	0.201	-0.382
-671.105	800.000	0.107	0.315
-670.091	-71.713	0.195	0.074
-669.076	11.595	0.202	-0.158
-668.062	20.874	0.176	0.145
-667.047	800.000	0.101	-0.427
-666.032	75.440	0.292	-0.314
-665.018	-62.252	0.066	0.028
-664.003	30.342	-0.228	0.198
-662.989	164.853	-0.153	-0.219
-661.974	-25.417	-0.109	-0.065
-660.959	-10.729	0.285	-0.192
-659.945	174.717	0.080	-0.118
-658.930	-200.000	0.002	0.101
-657.916	249.855	-0.159	-0.275
-656.901	41.979	0.113	-0.104
-655.886	296.409	0.101	-0.189
-654.872	-11.409	-0.253	0.169
-653.857	-200.000	-0.007	-0.118
-652.843	-66.794	-0.140	0.056
-651.828	172.416	-0.177	-0.259
-650.814	-150.433	-0.278	-0.022
-649.799	551.958	-0.153	-0.373
-648.784	800.000	-0.003	-0.010
-647.770	-11.236	-0.439	0.294
-646.755	151.792	-0.163	0.226
-645.741	-71.444	-0.237	-0.090
-644.726	800.000	0.039	0.136
-643.711	790.882	-0.048	0.133
-642.697	151.296	-0.157	0.217
-641.682	-53.482	0.262	0.122
-640.668	-53.424	-0.258	0.120
-639.653	74.363	-0.109	0.116
-638.638	-61.928	-0.266	0.113
-637.624	257.274	0.049	0.085
-636.609	84.108	-0.049	0.054
-635.595	-75.228	0.132	0.048
-634.580	-122.334	-0.081	-0.013
-633.565	-47.943	0.255	0.125
-632.551	-145.205	-0.395	0.036
-631.536	90.492	-0.188	-0.214
-630.522	307.885	0.175	-0.331
-629.507	-200.000	-0.035	-0.158
-628.492	-200.000	0.054	-0.327
-627.478	59.494	0.149	-0.149
-626.463	-200.000	0.019	-0.101
-625.449	255.920	-0.116	-0.202
-624.434	250.881	0.049	0.084
-623.419	800.000	-0.079	-0.325
-622.405	234.950	-0.110	-0.185
-621.390	22.285	-0.115	0.096
-620.376	-142.497	-0.259	-0.026
-619.361	219.238	-0.182	-0.295
-618.346	114.394	0.019	0.023
-617.332	-122.255	-0.192	0.032
-616.317	-45.046	0.251	0.127
-615.303	-69.832	0.233	-0.090
-614.288	-98.165	0.227	0.059
-613.273	-200.000	0.014	0.131
-612.259	-200.000	-0.000	0.128
-611.244	-89.960	0.169	0.050
-610.230	-100.462	-0.085	-0.021
-609.215	800.000	-0.030	-0.085
-608.201	-77.781	0.225	0.079
-607.186	-200.000	-0.003	-0.488
-606.171	650.271	0.168	-0.435
-605.157	126.071	-0.007	-0.009
-604.142	-51.125	-0.020	-0.010
-603.128	-180.630	0.077	-0.002
-602.113	201.049	-0.173	0.270
-601.098	211.689	0.047	0.075
-600.084	-200.000	0.013	-0.215
-599.069	88.416	0.096	-0.108
-598.055	-80.109	-0.186	-0.063
-597.040	800.000	0.020	-0.071
-596.025	-83.316	-0.215	-0.070
-595.011	184.038	0.128	0.193
-593.996	246.084	-0.115	-0.197
-592.982	-200.000	-0.008	0.307
-591.967	-94.077	-0.299	-0.083
-590.952	316.024	0.021	0.040
-589.938	31.802	-0.169	0.148
-588.923	-70.715	-0.234	-0.090
-587.909	173.175	-0.188	0.275
-586.894	16.702	-0.156	-0.125
-585.879	-143.938	-0.179	0.017
-584.865	310.411	-0.043	0.081
-583.850	-200.000	0.012	-0.108
-582.836	-122.385	0.152	-0.025
-581.821	156.445	0.130	-0.182
-580.806	-162.332	-0.173	-0.009
-579.792	-137.683	-0.100	0.011
-578.777	36.486	-0.168	-0.150
-577.763	-119.352	0.215	0.038
-576.748	222.901	-0.048	0.078
-575.733	-200.000	0.020	0.410
-574.719	800.000	-0.046	0.153
-573.704	-39.995	0.185	0.098
-572.690	-47.745	0.070	-0.034
-571.675	-27.119	-0.307	-0.181
-570.661	-200.000	-0.015	0.073
-569.646	-102.964	-0.310	-0.075
-568.631	68.062	0.033	0.034
-567.617	-80.746	-0.099	-0.033
-566.602	-119.649	-0.518	0.091
-565.588	43.546	0.233	-0.216
-564.573	-200.000	0.031	-0.232
-563.558	-67.105	0.132	-0.053
-562.544	20.820	-0.098	0.081
-561.529	-200.000	-0.050	0.260
-560.515	-58.705	0.170	0.075
-559.500	800.000	-0.009	0.028
-558.485	40.328	-0.072	-0.065
-557.471	250.389	0.217	0.373
-556.456	-106.482	0.255	0.058
-555.442	381.896	0.018	-0.038
-554.427	149.563	0.141	-0.193
-553.412	800.000	0.040	0.137
-552.398	-135.670	-0.184	-0.022
-551.383	40.287	0.118	0.108
-550.369	-200.000	-0.027	-0.177
-549.354	-122.647	0.201	-0.033
-548.339	728.018	-0.026	0.071
-547.325	-200.000	-0.031	-0.180
-546.310	450.851	0.049	-0.109
-545.296	50.623	0.196	-0.188
-544.281	-54.690	-0.161	-0.073
-543.266	64.249	-0.159	0.162
-542.252	230.096	0.136	0.224
-541.237	800.000	-0.035	-0.133
-540.223	437.026	0.051	-0.112
-539.208	-2.992	0.235	-0.166
-538.193	-200.000	0.023	-0.136
-537.179	800.000	-0.038	-0.149
-536.164	800.000	-0.151	-0.473
-535.150	212.156	-0.152	0.243
-534.135	-117.366	0.126	-0.023
-533.121	-104.513	0.149	-0.035
-532.106	27.618	-0.127	-0.108
-531.091	463.658	-0.148	0.333
-530.077	521.030	0.049	-0.117
-529.062	800.000	0.102	0.426
-528.048	-200.000	-0.020	0.129
-527.033	27.946	-0.178	-0.152
-526.018	-80.716	-0.201	0.068
-525.004	176.484	-0.154	-0.226
-523.989	90.885	0.025	0.028
-522.975	-52.587	-0.222	-0.104
-521.960	244.733	0.065	0.111
-520.945	-133.725	0.252	0.032
-519.931	-89.711	0.259	-0.077
-518.916	-107.510	-0.214	0.047
-517.902	124.364	0.026	-0.033
-516.887	-155.116	-0.151	-0.010
-515.872	-103.445	0.051	0.012
-514.858	-23.516	0.119	0.072
-513.843	58.305	-0.161	0.159
-512.829	-200.000	-0.032	-0.173
-511.814	-200.000	0.009	0.428
-510.799	-200.000	0.037	-0.335
-509.785	-126.871	0.214	0.032
-508.770	-2.875	0.091	0.064
-507.756	800.000	0.028	0.079
-506.741	-124.426	0.371	-0.058
-505.726	4.096	-0.059	0.044
-504.712	-124.318	-0.182	-0.029
-503.697	710.470	-0.082	0.219
-502.683	-72.995	-0.096	0.035
-501.668	237.544	-0.193	-0.323
-500.653	800.000	-0.062	-0.247
-499.639	-24.491	0.171	0.103
-498.624	-133.195	0.213	-0.027
-497.610	-72.221	-0.265	0.099
-496.595	18.957	-0.110	-0.089
-495.581	-200.000	-0.016	0.125
-494.566	-14.023	0.246	-0.161
-493.551	371.326	0.055	0.112
-492.537	800.000	-0.037	0.121
-491.522	-31.606	-0.327	0.185
-490.508	31.727	-0.273	-0.237
-489.493	-200.000	-0.006	0.066
-488.478	175.608	0.118	-0.173
-487.464	-93.415	0.122	0.034
-486.449	-102.919	-0.110	-0.026
-485.435	-98.782	0.135	-0.035
-484.420	196.514	0.067	-0.102
-483.405	-61.244	0.279	-0.119
-482.391	-200.000	0.016	0.125
-481.376	-61.538	0.166	-0.071
-480.362	45.307	-0.142	0.132
-479.347	171.131	-0.115	0.166
-478.332	3.436	0.043	0.031
-477.318	338.389	-0.053	0.104
-476.303	553.453	0.128	-0.310
-475.289	0.622	0.233	0.168
-474.274	143.532	0.103	0.139
-473.259	-89.082	-0.185	-0.055
-472.245	26.989	-0.173	-0.146
-471.230	104.431	-0.015	-0.018
-470.216	-200.000	0.016	-0.180
-469.201	-200.000	0.015	-0.165
-468.186	-143.834	0.199	0.019
-467.172	-107.068	0.153	0.034
-466.157	40.924	0.204	-0.186
-465.143	125.551	-0.059	0.076
-464.128	-77.482	0.239	-0.084
-463.113	273.702	0.085	-0.151
-462.099	-200.000	-0.011	0.190
-461.084	688.589	0.030	0.079
-460.070	272.313	0.063	0.112
-459.055	-200.000	-0.012	-0.181
-458.040	-87.114	-0.266	0.082
-457.026	66.318	0.116	0.119
-456.011	72.947	-0.165	-0.174
-454.997	520.178	-0.054	0.128
-453.982	800.000	0.080	-0.269
-452.968	-125.727	-0.103	-0.016
-451.953	140.664	-0.150	0.200
-450.938	169.760	0.050	0.072
-449.924	-70.027	-0.151	-0.058
-448.909	-69.290	0.143	0.056
-447.895	156.242	-0.076	0.106
-446.880	314.648	-0.067	-0.128
-445.865	117.613	0.282	-0.349
-444.851	-103.976	-0.282	0.066
-443.836	594.157	0.104	0.258
-442.822	337.345	0.139	-0.272
-441.807	-57.205	0.206	0.091
-440.792	-95.403	0.087	0.023
-439.778	90.446	0.120	-0.135
-438.763	-87.360	-0.428	-0.131
-437.749	-33.430	0.210	0.117
-436.734	-200.000	-0.010	0.135
-435.719	-100.602	0.150	-0.037
-434.705	168.750	0.080	0.115
-433.690	-200.000	-0.025	-0.245
-432.676	-200.000	0.006	0.234
-431.661	-137.359	0.274	-0.031
-430.646	-168.076	0.173	-0.007
-429.632	-166.954	-0.087	-0.004
-428.617	-35.995	0.149	-0.081
-427.603	-151.818	-0.253	-0.019
-426.588	129.740	0.160	0.206
-425.573	-78.846	0.395	-0.136
-424.559	-51.896	0.232	-0.109
-423.544	-109.964	-0.081	-0.017
-422.530	-110.686	-0.091	0.019
-421.515	-200.000	0.020	0.205
-420.500	45.472	0.204	0.190
-419.486	800.000	0.070	0.228
-418.471	-200.000	-0.021	-0.190
-417.457	73.814	0.063	0.067
-416.442	-163.059	0.330	0.016
-415.428	-105.323	-0.047	-0.011
-414.413	800.000	-0.118	-0.420
-413.398	-134.443	0.099	0.012
-412.384	141.739	0.222	-0.296
-411.369	-15.159	-0.109	0.071
-410.355	800.000	-0.089	-0.253
-409.340	-200.000	-0.048	0.445
-408.325	-40.577	-0.122	0.064
-407.311	-60.354	0.100	-0.043
-406.296	800.000	-0.025	-0.094
-405.282	-127.115	0.225	0.033
-404.267	468.739	-0.126	-0.285
-403.252	-200.000	0.013	-0.162
-402.238	150.133	-0.125	0.171
-401.223	-200.000	0.027	-0.210
-400.209	-200.000	-0.007	-0.218
-399.194	177.160	-0.156	-0.229
-398.179	-126.378	-0.135	0.020
-397.165	106.393	0.160	0.191
-396.150	245.011	-0.122	0.207
-395.136	115.736	-0.431	0.530
-394.121	-141.776	0.410	-0.041
-393.106	-58.391	0.209	-0.091
-392.092	243.790	0.038	-0.064
-391.077	-126.126	-0.243	-0.037
-390.063	185.081	0.211	0.315
-389.048	-158.250	0.377	-0.022
-388.033	-69.282	0.203	-0.078
-387.019	719.546	0.075	0.200
-386.004	800.000	-0.017	-0.057
-384.990	662.594	0.021	-0.053
-383.975	-50.371	-0.007	-0.003
-382.960	-200.000	0.038	0.239
-381.946	800.000	-0.051	0.148
-380.931	65.284	0.095	0.097
-379.917	363.742	0.105	0.212
-378.902	-200.000	-0.079	0.410
-377.888	80.202	-0.065	-0.071
-376.873	-20.531	0.089	-0.055
-375.858	-200.000	-0.079	0.448
-374.844	-200.000	0.005	-0.035
-373.829	800.000	0.010	-0.043
-372.815	800.000	0.022	0.098
-371.800	-158.586	0.236	-0.014
-370.785	311.319	0.041	-0.078
-369.771	-200.000	0.013	-0.169
-368.756	495.445	-0.096	-0.222
-367.742	177.915	-0.112	-0.164
-366.727	-102.857	-0.236	-0.056
-365.712	127.988	0.165	0.211
-364.698	115.775	-0.167	0.205
-363.683	65.364	-0.075	0.076
-362.669	14.336	0.089	0.069
-361.654	-200.000	-0.026	0.208
-360.639	54.717	-0.157	-0.152
-359.625	-28.482	0.185	0.107
-358.610	-96.819	0.113	-0.030
-357.596	-200.000	-0.046	0.245
-356.581	236.860	-0.077	-0.129
-355.566	6.869	-0.025	-0.019
-354.552	649.001	0.090	-0.232
-353.537	-50.743	-0.106	-0.050
-352.523	151.570	0.100	0.137
-351.508	-98.572	-0.181	-0.046
-350.493	396.562	0.111	-0.233
-349.479	-200.000	0.090	-0.401
-348.464	172.744	-0.010	-0.015
-347.450	-129.460	-0.069	-0.010
-346.435	-85.778	-0.269	-0.084
-345.420	-72.432	-0.425	-0.158
-344.406	296.148	-0.119	-0.220
-343.391	-5.586	-0.160	0.110
-342.377	158.801	-0.085	0.119
-341.362	21.912	0.030	-0.025
-340.348	10.962	-0.168	0.129
-339.333	-62.132	0.062	-0.026
-338.318	56.440	-0.196	-0.191
-337.304	88.568	0.107	0.119
-336.289	-101.343	0.120	-0.029
-335.275	-200.000	-0.021	0.407
-334.260	800.000	0.071	0.265
-333.245	-166.525	-0.337	0.014
-332.231	800.000	-0.068	0.212
-331.216	-100.385	-0.216	0.054
-330.202	-39.113	0.219	0.116
-329.187	329.978	0.104	0.200
-328.172	-69.806	-0.176	-0.067
-327.158	625.489	-0.056	-0.142
-326.143	209.164	0.037	0.058
-325.129	-65.560	-0.214	0.086
-324.114	800.000	0.004	0.012
-323.099	800.000	0.108	-0.319
-322.085	7.523	-0.169	0.127
-321.070	52.384	-0.325	0.311
-320.056	136.962	-0.178	0.234
-319.041	147.728	0.051	-0.069
-318.026	-105.682	-0.141	0.032
-317.012	-91.182	-0.172	0.049
-315.997	15.370	-0.185	0.145
-314.983	509.938	-0.081	-0.188
-313.968	800.000	0.065	0.200
-312.953	96.467	0.252	-0.290
-311.939	157.047	-0.104	0.144
-310.924	-200.000	-0.023	-0.132
-309.910	-91.660	0.179	0.051
-308.895	-200.000	0.036	0.362
-307.880	-200.000	0.031	-0.288
-306.866	55.412	0.061	-0.059
-305.851	-187.106	-0.207	-0.003
-304.837	-70.792	-0.384	-0.145
-303.822	800.000	0.047	-0.163
-302.807	673.160	-0.040	-0.105
-301.793	-200.000	-0.009	0.137
-300.778	800.000	-0.180	0.539
-299.764	-200.000	0.042	0.185
-298.749	-41.943	-0.377	0.194
-297.735	80.288	-0.082	-0.088
-296.720	-20.156	0.117	0.072
-295.705	77.018	0.092	-0.098
-294.691	-74.982	-0.103	0.037
-293.676	-200.000	0.087	0.412
-292.662	-2.058	-0.235	0.165
-291.647	-27.933	0.159	-0.092
-290.632	-36.653	0.187	0.101
-289.618	-200.000	0.006	0.200
-288.603	156.735	0.129	0.179
-287.589	39.359	-0.115	0.103
-286.574	-57.032	0.181	0.080
-285.559	95.091	-0.263	0.300
-284.545	107.535	0.080	0.096
-283.530	-200.000	-0.007	-0.202
-282.516	-200.000	0.039	-0.338
-281.501	178.621	-0.067	-0.098
-280.486	-59.034	0.418	-0.181
-279.472	131.694	-0.135	-0.173
-278.457	176.165	0.048	-0.070
-277.443	247.168	0.194	0.328
-276.428	201.969	-0.025	-0.039
-275.413	-127.496	0.165	0.024
-274.399	735.262	-0.126	0.339
-273.384	3.209	0.226	0.165
-272.370	-145.262	-0.392	-0.035
-271.355	-102.093	-0.270	-0.065
-270.340	-50.043	-0.271	-0.128
-269.326	-200.000	0.008	-0.156
-268.311	-200.000	-0.010	-0.158
-267.297	800.000	-0.130	-0.436
-266.282	-200.000	0.072	0.330
-265.267	12.585	-0.098	0.076
-264.253	-52.846	0.297	0.137
-263.238	-151.479	0.296	0.022
-262.224	-115.602	0.510	0.096
-261.209	236.230	0.097	-0.161
-260.195	-200.000	-0.015	0.138
-259.180	800.000	0.048	0.151
-258.165	-108.850	0.236	0.051
-257.151	-104.449	0.321	0.074
-256.136	-29.354	0.079	0.045
-255.122	-65.361	-0.374	-0.151
-254.107	-145.741	-0.263	0.023
-253.092	-200.000	0.014	0.192
-252.078	-137.411	-0.140	0.016
-251.063	-200.000	0.028	0.167
-250.049	-41.860	-0.316	-0.162
-249.034	214.798	-0.045	0.072
-248.019	800.000	-0.078	-0.249
-247.005	-169.076	-0.044	-0.002
-245.990	-20.412	-0.012	0.007
-244.976	212.371	0.230	0.363
-243.961	-45.418	0.211	0.105
-242.946	173.391	0.147	0.212
-241.932	165.103	0.084	-0.119
-240.917	-189.271	-0.115	-0.001
-239.903	-38.790	0.228	-0.120
-238.888	-3.716	0.153	-0.106
-237.873	474.611	0.094	-0.213
-236.859	-107.489	-0.210	-0.046
-235.844	-130.463	0.430	0.058
-234.830	-42.116	-0.222	0.113
-233.815	-2.379	0.127	0.089
-232.800	134.911	-0.209	-0.271
-231.786	70.735	0.063	-0.065
-230.771	-147.218	0.118	0.010
-229.757	-158.600	0.328	0.019
-228.742	-58.160	-0.187	-0.082
-227.727	-101.400	0.303	0.074
-226.713	-200.000	0.038	-0.395
-225.698	-96.651	-0.327	0.086
-224.684	623.696	0.083	0.210
-223.669	231.610	-0.129	0.211
-222.655	-121.416	-0.162	-0.027
-221.640	34.160	-0.197	-0.171
-220.625	-181.213	-0.074	0.001
-219.611	136.798	-0.208	-0.272
-218.596	-200.000	-0.032	0.156
-217.582	-135.722	0.029	-0.003
-216.567	55.384	0.044	-0.043
-215.552	-126.591	0.244	0.036
-214.538	-83.716	-0.280	0.089
-213.523	1.250	-0.186	-0.133
-212.509	-155.547	0.263	0.017
-211.494	-200.000	-0.065	-0.373
-210.479	-86.383	-0.050	-0.015
-209.465	225.455	-0.054	-0.088
-208.450	-18.900	0.274	-0.170
-207.436	-80.879	0.230	-0.076
-206.421	10.531	0.221	-0.168
-205.406	-120.210	0.139	-0.024
-204.392	-92.388	0.146	0.041
-203.377	-200.000	0.005	-0.130
-202.363	-158.207	0.565	0.033
-201.348	800.000	0.011	0.039
-200.333	-200.000	0.007	0.218
-199.319	-200.000	0.029	0.253
-198.304	-49.685	-0.118	0.056
-197.290	39.436	-0.104	-0.093
-196.275	-164.936	-0.270	-0.012
-195.260	-181.723	0.279	0.005
-194.246	-200.000	0.044	-0.272
-193.231	800.000	0.023	0.100
-192.217	800.000	-0.022	-0.079
-191.202	-200.000	-0.028	-0.167
-190.187	-200.000	-0.009	-0.343
-189.173	-73.499	-0.516	-0.188
-188.158	-200.000	-0.052	0.269
-187.144	140.356	0.042	-0.055
-186.129	-200.000	-0.013	-0.328
-185.114	-2.907	0.241	0.168
-184.100	155.334	-0.227	-0.311
-183.085	-143.065	0.072	-0.007
-182.071	-49.882	0.300	-0.142
-181.056	-82.306	0.225	-0.073
-180.042	-125.616	0.245	-0.037
-179.027	227.569	-0.049	-0.080
-178.012	592.842	0.044	-0.109
-176.998	800.000	-0.116	0.453
-175.983	123.700	-0.050	0.062
-174.969	199.334	-0.210	0.321
-173.954	-116.483	0.379	0.070
-172.939	749.719	0.090	-0.243
-171.925	-132.449	0.198	-0.025
-170.910	297.385	0.270	0.494
-169.896	241.122	-0.051	-0.085
-168.881	-200.000	-0.039	-0.175
-167.866	97.962	-0.221	-0.254
-166.852	367.840	0.058	-0.117
-165.837	800.000	0.079	0.250
-164.823	-129.774	-0.081	0.011
-163.808	800.000	0.036	0.126
-162.793	75.985	0.117	-0.123
-161.779	222.277	-0.082	-0.131
-160.764	7.882	-0.199	-0.149
-159.750	103.536	-0.072	0.084
-158.735	-200.000	0.020	0.177
-157.720	-94.450	0.086	-0.023
-156.706	53.842	0.270	-0.258
-155.691	-93.557	0.053	-0.015
-154.677	234.139	0.146	0.239
-153.662	153.888	0.142	0.194
-152.647	101.342	-0.181	-0.210
-151.633	-200.000	-0.000	-0.238
-150.618	-30.633	-0.046	-0.026
-149.604	-200.000	0.052	-0.283
-148.589	-1.785	-0.237	0.166
-147.574	-157.583	-0.336	0.020
-146.560	35.357	0.278	0.243
-145.545	-2.970	0.194	-0.135
-144.531	433.006	0.279	0.603
-143.516	800.000	0.115	0.389
-142.502	-131.151	0.115	-0.015
-141.487	-48.177	-0.161	-0.078
-140.472	-141.389	0.273	-0.028
-139.458	-200.000	-0.024	-0.129
-138.443	-97.209	0.272	-0.071
-137.429	-130.058	0.385	0.052
-136.414	204.754	-0.198	0.306
-135.399	800.000	0.090	0.302
-134.385	691.244	-0.050	-0.129
-133.370	-137.984	0.418	0.046
-132.356	-200.000	0.016	-0.129
-131.341	-105.572	0.119	-0.027
-130.326	-200.000	0.035	-0.245
-129.312	-108.810	-0.237	-0.051
-128.297	-135.553	-0.062	-0.007
-127.283	19.583	0.286	-0.229
-126.268	-33.989	-0.085	0.046
-125.253	-41.320	0.397	-0.204
-124.239	-167.387	0.364	0.015
-123.224	-34.152	0.203	-0.111
-122.210	50.875	-0.244	0.230
