DTS Sentinel unit serial number:	SN413079Multiplexer serial number:	ORYXHardware model number:	OX4-SRSoftware version number:	ORYX F/W v4.00 Oryx Data Collector v3.7.2.0data status	okinstallation	princeton_trtdifferential loss correction	single-endedforward channel	channel 2reverse channel	N/Adate	2019/09/18time	08:07:34forward acquisition time	60.00reverse acquisition time	0.00gamma	496.2192k internal	0.2345k external	0.2345temperature offset calibration	0.9979default loss term (dB/km)	0.3790temperature slope calibration	1.0000multiplexer offset coefficient	1.0000multiplexer slope coefficient	1.0000fibre end	0.00T internal ref (°C)	23.75T ext. ref 1 (°C)	0.20T ext. ref 2 (°C)	19.45length (m)	temperature (°C)	Stokes	anti-Stokes-747.200	83.716	-0.139	0.152
-746.185	542.813	-0.063	0.150
-745.171	255.939	-0.078	0.134
-744.156	440.460	-0.137	0.300
-743.142	-154.261	0.100	-0.007
-742.127	-115.873	-0.475	-0.089
-741.112	-48.209	-0.223	0.108
-740.098	-200.000	0.014	0.297
-739.083	152.464	-0.218	0.298
-738.069	-24.430	-0.146	-0.087
-737.054	-71.001	-0.159	0.060
-736.039	-173.323	-0.283	0.009
-735.025	-33.530	-0.086	-0.047
-734.010	25.697	0.188	-0.157
-732.996	-109.085	-0.345	-0.073
-731.981	-139.790	-0.106	-0.011
-730.966	-71.763	-0.314	-0.117
-729.952	-18.795	-0.211	-0.132
-728.937	-121.108	-0.174	-0.029
-727.923	-19.427	-0.318	-0.197
-726.908	-200.000	0.013	0.164
-725.894	-200.000	0.008	0.381
-724.879	64.835	-0.051	-0.052
-723.864	30.495	-0.080	0.069
-722.850	-117.444	-0.384	-0.069
-721.835	-59.000	-0.217	-0.094
-720.821	-200.000	-0.076	-0.460
-719.806	71.497	-0.087	-0.090
-718.791	-200.000	-0.000	-0.025
-717.777	-130.056	0.114	-0.016
-716.762	-71.225	-0.218	0.082
-715.748	-153.240	0.134	0.009
-714.733	-5.188	0.072	0.050
-713.718	-200.000	-0.000	0.088
-712.704	-200.000	-0.049	0.219
-711.689	800.000	-0.029	-0.091
-710.675	-37.999	0.329	0.175
-709.660	-26.689	-0.263	-0.154
-708.645	200.878	0.052	-0.080
-707.631	3.012	-0.131	-0.095
-706.616	-186.955	-0.132	0.002
-705.602	244.180	-0.008	0.013
-704.587	-200.000	0.019	-0.453
-703.572	-44.703	-0.224	0.112
-702.558	-143.955	0.316	0.030
-701.543	62.198	0.092	-0.092
-700.529	-59.094	-0.063	0.027
-699.514	-77.781	-0.118	-0.041
-698.499	-109.550	-0.171	0.036
-697.485	-85.442	-0.181	0.056
-696.470	66.702	-0.072	0.073
-695.456	-30.992	0.092	0.052
-694.441	-200.000	0.043	0.234
-693.426	72.047	-0.163	0.169
-692.412	126.439	0.084	-0.106
-691.397	74.102	-0.078	0.081
-690.383	175.856	-0.055	0.079
-689.368	-200.000	-0.062	-0.509
-688.354	-82.759	0.394	0.127
-687.339	-175.427	-0.370	-0.010
-686.324	-139.661	0.323	-0.034
-685.310	25.549	0.155	0.129
-684.295	-85.471	0.239	0.074
-683.281	447.163	0.073	-0.161
-682.266	134.111	-0.269	-0.347
-681.251	-23.373	-0.192	-0.115
-680.237	104.731	0.126	0.148
-679.222	-200.000	0.087	-0.391
-678.208	-33.585	0.141	-0.078
-677.193	-200.000	-0.026	0.194
-676.178	-101.007	-0.165	0.040
-675.164	800.000	0.041	0.158
-674.149	800.000	-0.043	-0.129
-673.135	-156.496	0.232	-0.014
-672.120	-34.845	-0.171	-0.093
-671.105	11.943	0.169	-0.129
-670.091	-175.775	0.126	-0.003
-669.076	-200.000	-0.001	-0.262
-668.062	48.151	-0.139	-0.130
-667.047	-110.897	0.332	-0.068
-666.032	123.733	0.084	-0.106
-665.018	20.539	-0.123	-0.099
-664.003	-17.327	-0.111	0.069
-662.989	-101.315	0.056	-0.014
-661.974	-100.117	-0.268	0.067
-660.959	122.778	0.113	-0.141
-659.945	-62.966	-0.183	-0.075
-658.930	168.789	-0.073	-0.104
-657.916	215.982	0.028	0.045
-656.901	-200.000	0.003	0.093
-655.886	800.000	-0.035	0.118
-654.872	181.255	-0.157	-0.231
-653.857	-69.662	0.342	0.130
-652.843	-200.000	-0.001	0.250
-651.828	-80.517	0.124	-0.041
-650.814	-98.447	0.070	0.018
-649.799	86.616	-0.179	-0.197
-648.784	-200.000	0.032	-0.262
-647.770	-166.885	-0.180	-0.007
-646.755	-200.000	0.020	0.108
-645.741	277.541	-0.144	0.255
-644.726	260.047	0.057	-0.098
-643.711	-200.000	0.056	-0.246
-642.697	-29.635	0.453	-0.258
-641.682	-43.261	-0.151	-0.076
-640.668	669.017	-0.082	0.211
-639.653	-115.280	-0.126	-0.024
-638.638	-131.423	0.278	-0.037
-637.624	-200.000	-0.041	0.336
-636.609	-200.000	0.186	0.000
-635.595	-124.748	0.062	-0.010
-634.580	-200.000	-0.035	-0.162
-633.565	32.660	0.060	0.052
-632.551	-136.878	-0.132	-0.015
-631.536	-50.479	-0.243	-0.114
-630.522	800.000	0.078	-0.303
-629.507	192.144	-0.132	0.198
-628.492	-200.000	-0.030	0.217
-627.478	-200.000	0.053	-0.268
-626.463	593.003	-0.057	-0.140
-625.449	-88.128	-0.224	0.067
-624.434	-200.000	0.003	0.230
-623.419	299.111	0.177	0.324
-622.405	-200.000	-0.011	-0.115
-621.390	-200.000	-0.054	-0.320
-620.376	-131.876	-0.249	-0.032
-619.361	-200.000	-0.036	0.432
-618.346	-200.000	-0.025	0.214
-617.332	366.009	-0.076	-0.153
-616.317	13.550	-0.024	-0.019
-615.303	-200.000	0.008	0.111
-614.288	-22.343	-0.158	-0.096
-613.273	233.941	-0.093	0.153
-612.259	-200.000	0.013	-0.088
-611.244	264.571	0.128	0.221
-610.230	17.036	-0.106	-0.083
-609.215	800.000	0.158	-0.443
-608.201	-44.294	0.137	0.068
-607.186	96.149	0.107	0.121
-606.171	3.744	-0.282	0.205
-605.157	-139.787	-0.106	-0.011
-604.142	-93.637	-0.138	-0.038
-603.128	-200.000	0.039	-0.171
-602.113	65.898	0.130	0.131
-601.098	-164.320	-0.238	0.011
-600.084	-128.257	-0.079	-0.011
-599.069	19.176	-0.159	-0.127
-598.055	-88.567	0.238	-0.071
-597.040	-87.186	0.322	-0.097
-596.025	44.915	-0.113	0.103
-595.011	-129.774	0.441	0.060
-593.996	515.513	-0.087	0.202
-592.982	-200.000	-0.038	-0.255
-591.967	-200.000	-0.017	0.139
-590.952	-86.216	-0.073	-0.022
-589.938	139.116	0.144	0.189
-588.923	0.575	0.173	0.123
-587.909	651.645	-0.138	-0.351
-586.894	300.391	-0.142	-0.260
-585.879	800.000	0.133	-0.412
-584.865	800.000	-0.064	-0.212
-583.850	-83.959	-0.258	0.082
-582.836	-34.011	-0.131	0.072
-581.821	-200.000	0.016	-0.238
-580.806	-200.000	-0.002	-0.094
-579.792	-150.493	-0.150	-0.011
-578.777	14.217	0.035	-0.027
-577.763	-148.162	-0.135	0.011
-576.748	-153.424	0.254	0.018
-575.733	800.000	-0.141	0.417
-574.719	-63.509	-0.093	-0.038
-573.704	-178.596	0.168	0.004
-572.690	448.679	-0.110	0.242
-571.675	800.000	-0.059	-0.243
-570.661	800.000	0.013	-0.040
-569.646	-55.617	0.188	-0.084
-568.631	92.861	0.319	-0.358
-567.617	-14.828	-0.136	0.087
-566.602	25.787	0.267	0.221
-565.588	-200.000	0.041	-0.180
-564.573	-3.282	0.151	0.104
-563.558	100.615	0.046	0.053
-562.544	-200.000	0.010	0.266
-561.529	-115.147	-0.062	-0.012
-560.515	-137.830	0.202	-0.022
-559.500	800.000	-0.033	-0.104
-558.485	68.635	-0.126	-0.128
-557.471	800.000	-0.116	0.389
-556.456	-51.352	0.175	0.081
-555.442	31.476	0.292	-0.249
-554.427	-0.735	0.191	0.134
-553.412	-67.464	0.326	0.127
-552.398	-200.000	0.015	0.086
-551.383	-94.664	0.313	-0.085
-550.369	246.544	0.035	0.059
-549.354	-163.187	-0.472	-0.023
-548.339	-200.000	0.009	-0.211
-547.325	-200.000	0.026	0.274
-546.310	-124.077	0.213	-0.033
-545.296	-200.000	-0.018	-0.107
-544.281	-55.766	-0.190	-0.084
-543.266	13.879	-0.073	0.056
-542.252	-139.304	0.114	0.012
-541.237	50.729	-0.293	0.275
-540.223	-200.000	0.001	-0.268
-539.208	-200.000	-0.036	0.249
-538.193	-26.862	0.109	0.063
-537.179	-1.528	-0.280	0.196
-536.164	-90.426	-0.209	-0.060
-535.150	473.110	0.145	-0.324
-534.135	29.027	-0.084	-0.071
-533.121	-200.000	-0.028	0.127
-532.106	800.000	-0.042	0.151
-531.091	573.219	0.107	-0.258
-530.077	-87.959	-0.309	-0.092
-529.062	-87.564	0.367	0.110
-528.048	133.745	-0.088	-0.113
-527.033	-39.050	0.176	-0.092
-526.018	-14.416	0.176	0.112
-525.004	80.095	0.046	0.049
-523.989	-200.000	0.052	-0.286
-522.975	-200.000	-0.030	0.294
-521.960	446.642	0.096	-0.210
-520.945	-200.000	-0.068	-0.321
-519.931	-177.292	0.101	-0.002
-518.916	800.000	0.040	-0.130
-517.902	564.686	0.049	-0.118
-516.887	-28.517	-0.283	-0.162
-515.872	-155.393	-0.259	0.017
-514.858	800.000	0.092	0.278
-513.843	-69.881	0.130	-0.049
-512.829	87.791	0.129	0.142
-511.814	393.957	0.035	0.073
-510.799	800.000	0.072	0.211
-509.785	-200.000	-0.074	-0.528
-508.770	454.374	-0.030	-0.065
-507.756	110.269	0.334	0.398
-506.741	-34.747	0.234	-0.127
-505.726	-118.161	-0.197	0.035
-504.712	-200.000	0.000	0.090
-503.697	800.000	-0.096	-0.334
-502.683	67.785	-0.014	-0.014
-501.668	60.588	0.074	0.073
-500.653	-55.795	-0.337	-0.149
-499.639	-137.595	-0.226	0.025
-498.624	134.587	-0.059	0.075
-497.610	298.569	0.059	0.108
-496.595	800.000	0.018	-0.051
-495.581	800.000	0.050	-0.188
-494.566	160.377	0.064	-0.089
-493.551	-200.000	0.076	0.399
-492.537	-200.000	0.009	-0.073
-491.522	-200.000	-0.038	0.172
-490.508	800.000	0.056	-0.208
-489.493	-172.329	-0.156	0.005
-488.478	-13.130	-0.062	-0.040
-487.464	12.928	0.307	-0.235
-486.449	-200.000	0.012	0.095
-485.435	-13.814	0.230	-0.147
-484.420	-10.737	-0.248	0.163
-483.405	59.159	0.270	-0.263
-482.391	-32.345	0.089	-0.049
-481.376	60.866	-0.274	-0.269
-480.362	25.347	0.061	-0.050
-479.347	-200.000	-0.017	0.172
-478.332	-125.213	0.346	0.052
-477.318	-45.878	0.417	-0.204
-476.303	-40.076	0.216	0.111
-475.289	69.092	-0.351	0.357
-474.274	-59.671	0.266	-0.113
-473.259	29.242	0.284	0.239
-472.245	110.673	-0.045	0.054
-471.230	-200.000	0.007	-0.040
-470.216	-49.713	-0.025	-0.012
-469.201	-112.068	-0.201	-0.040
-468.186	-55.624	-0.105	0.047
-467.172	-184.403	-0.299	-0.005
-466.157	-155.495	-0.093	-0.006
-465.143	-200.000	-0.019	-0.137
-464.128	-200.000	0.005	0.081
-463.113	-168.585	0.180	-0.007
-462.099	579.520	-0.209	-0.506
-461.084	193.995	0.045	0.067
-460.070	-91.128	-0.390	-0.111
-459.055	60.220	0.084	0.082
-458.040	-71.821	0.320	0.118
-457.026	-64.050	0.065	0.026
-456.011	474.250	0.141	0.315
-454.997	-132.200	0.157	0.020
-453.982	74.887	0.141	0.147
-452.968	-99.458	-0.152	0.038
-451.953	-151.552	-0.124	-0.009
-450.938	800.000	-0.035	-0.126
-449.924	-200.000	-0.021	-0.133
-448.909	-55.997	-0.148	0.065
-447.895	800.000	0.067	-0.206
-446.880	-94.205	-0.286	0.077
-445.865	161.529	0.132	-0.183
-444.851	479.196	-0.125	-0.280
-443.836	280.851	-0.095	-0.169
-442.822	507.297	0.082	0.189
-441.807	32.923	0.139	0.119
-440.792	-139.183	-0.191	0.020
-439.778	625.206	-0.081	-0.201
-438.763	-146.228	-0.115	0.010
-437.749	800.000	-0.023	-0.062
-436.734	-85.080	0.155	0.048
-435.719	62.331	0.080	-0.079
-434.705	221.080	-0.188	0.298
-433.690	-200.000	0.022	-0.271
-432.676	-5.995	-0.389	0.263
-431.661	189.507	0.096	0.142
-430.646	-200.000	0.046	0.454
-429.632	-200.000	0.030	0.163
-428.617	-37.749	0.042	-0.022
-427.603	-200.000	0.018	-0.130
-426.588	800.000	-0.048	0.167
-425.573	186.075	-0.203	0.299
-424.559	-65.305	0.081	0.032
-423.544	121.528	0.202	-0.249
-422.530	65.367	-0.053	0.053
-421.515	-11.549	-0.014	0.009
-420.500	15.792	0.042	-0.033
-419.486	-26.344	0.316	0.183
-418.471	-149.440	0.194	0.015
-417.457	134.839	-0.123	0.158
-416.442	109.324	-0.067	0.080
-415.428	-147.720	0.183	-0.015
-414.413	800.000	-0.048	0.171
-413.398	-187.196	0.451	0.006
-412.384	-95.981	0.412	0.108
-411.369	-118.511	-0.130	0.023
-410.355	1.734	0.131	-0.093
-409.340	-200.000	0.053	-0.259
-408.325	434.275	-0.110	-0.235
-407.311	144.866	-0.203	0.269
-406.296	112.915	-0.101	-0.121
-405.282	-111.289	-0.271	-0.055
-404.267	-48.451	0.105	0.050
-403.252	-172.595	0.162	0.005
-402.238	-74.009	-0.139	0.050
-401.223	-113.950	0.326	0.062
-400.209	-121.139	0.025	0.004
-399.194	701.142	-0.114	-0.296
-398.179	-15.681	-0.369	0.233
-397.165	-121.491	-0.295	0.048
-396.150	800.000	-0.027	0.113
-395.136	64.852	0.205	0.204
-394.121	800.000	0.017	0.060
-393.106	100.690	0.111	-0.127
-392.092	-55.192	-0.166	0.074
-391.077	682.421	-0.091	-0.234
-390.063	800.000	-0.004	-0.013
-389.048	-92.137	-0.266	0.074
-388.033	-145.487	0.068	-0.006
-387.019	46.690	0.043	0.039
-386.004	6.806	0.129	-0.095
-384.990	-174.715	0.250	-0.007
-383.975	-200.000	0.065	-0.412
-382.960	55.229	-0.279	-0.266
-381.946	211.942	0.258	-0.401
-380.931	-114.525	0.205	-0.039
-379.917	201.546	-0.035	0.053
-378.902	248.215	0.119	-0.199
-377.888	-77.588	-0.156	0.053
-376.873	-1.536	-0.046	-0.032
-375.858	-200.000	-0.028	-0.286
-374.844	179.417	0.131	0.189
-373.829	-83.228	0.187	0.059
-372.815	236.226	-0.148	0.241
-371.800	-200.000	-0.046	0.229
-370.785	-140.449	0.068	0.007
-369.771	-20.716	0.131	0.079
-368.756	518.831	0.133	-0.307
-367.742	-200.000	0.028	-0.148
-366.727	-58.980	0.091	0.039
-365.712	9.085	-0.109	0.081
-364.698	-88.536	0.264	0.078
-363.683	-17.038	-0.164	-0.102
-362.669	409.466	-0.089	-0.185
-361.654	-28.692	0.232	-0.132
-360.639	-200.000	-0.018	0.133
-359.625	466.171	-0.029	0.064
-358.610	198.329	-0.044	0.066
-357.596	35.424	-0.256	0.221
-356.581	378.308	0.035	-0.070
-355.566	123.330	-0.177	-0.219
-354.552	-57.100	-0.316	0.137
-353.537	-109.592	-0.218	0.045
-352.523	800.000	0.149	-0.514
-351.508	40.849	0.094	0.083
-350.493	-50.209	0.351	0.164
-349.479	-58.936	-0.158	0.067
-348.464	91.926	0.199	0.220
-347.450	167.887	-0.015	-0.021
-346.435	15.135	0.075	0.058
-345.420	-96.777	0.249	-0.064
-344.406	800.000	0.036	-0.124
-343.391	800.000	-0.076	0.298
-342.377	-200.000	-0.004	-0.108
-341.362	111.959	0.210	0.250
-340.348	-200.000	-0.028	-0.282
-339.333	197.429	0.088	-0.132
-338.318	424.659	0.117	-0.247
-337.304	368.828	0.097	-0.194
-336.289	-200.000	0.007	-0.237
-335.275	-51.972	-0.097	-0.044
-334.260	-61.318	-0.148	-0.061
-333.245	219.826	0.118	0.186
-332.231	88.435	-0.146	0.160
-331.216	160.046	0.197	-0.270
-330.202	40.305	0.078	0.069
-329.187	189.048	0.229	0.338
-328.172	-200.000	-0.012	0.086
-327.158	458.569	-0.094	-0.205
-326.143	-48.944	0.418	-0.197
-325.129	-94.038	-0.168	-0.045
-324.114	124.754	0.221	-0.274
-323.099	352.141	0.114	-0.222
-322.085	-17.393	0.386	0.239
-321.070	-126.235	0.305	0.045
-320.056	23.877	-0.232	0.188
-319.041	34.870	0.229	-0.197
-318.026	-90.315	0.161	-0.046
-317.012	-76.325	-0.040	0.014
-315.997	-142.719	-0.102	0.010
-314.983	181.690	0.198	0.287
-313.968	-200.000	-0.032	-0.226
-312.953	-200.000	0.037	-0.300
-311.939	-33.099	-0.238	0.130
-310.924	30.306	0.137	0.115
-309.910	-161.693	-0.325	0.016
-308.895	80.418	-0.178	-0.189
-307.880	62.083	-0.277	-0.272
-306.866	200.336	-0.038	-0.058
-305.851	-49.880	0.410	-0.191
-304.837	800.000	-0.058	-0.215
-303.822	-58.678	0.071	-0.030
-302.807	-109.248	-0.164	0.034
-301.793	569.767	-0.043	0.104
-300.778	338.623	0.126	-0.240
-299.764	180.384	0.141	-0.204
-298.749	62.362	0.398	0.391
-297.735	-116.644	-0.472	-0.085
-296.720	800.000	0.058	-0.191
-295.705	-35.661	-0.171	-0.091
-294.691	-151.113	0.252	-0.019
-293.676	704.277	0.090	0.233
-292.662	-108.148	0.168	-0.036
-291.647	-62.983	0.297	0.121
-290.632	-200.000	-0.036	-0.172
-289.618	282.096	0.079	0.139
-288.603	-97.274	-0.088	-0.023
-287.589	-71.452	-0.225	-0.083
-286.574	-110.056	0.118	-0.024
-285.559	-9.946	-0.184	0.121
-284.545	-137.235	-0.109	0.012
-283.530	-200.000	0.006	0.173
-282.516	-104.670	-0.176	-0.040
-281.501	-25.001	-0.313	-0.183
-280.486	51.676	-0.272	0.254
-279.472	350.530	0.035	0.067
-278.457	161.301	-0.105	0.144
-277.443	-74.273	-0.383	-0.136
-276.428	-89.117	0.250	-0.073
-275.413	20.741	0.153	-0.122
-274.399	800.000	-0.052	0.219
-273.384	-10.626	-0.172	0.112
-272.370	-73.977	0.160	-0.057
-271.355	800.000	0.045	-0.141
-270.340	-94.681	-0.057	0.015
-269.326	-200.000	-0.021	0.183
-268.311	274.295	0.151	-0.263
-267.297	22.693	0.065	0.052
-266.282	-91.832	0.008	0.002
-265.267	-58.227	0.277	0.118
-264.253	-30.240	0.084	0.047
-263.238	-89.742	0.070	-0.020
-262.224	-61.821	-0.070	-0.029
-261.209	129.228	0.131	0.164
-260.195	-125.312	0.203	0.030
-259.180	94.358	-0.206	-0.229
-258.165	324.036	-0.077	-0.144
-257.151	-35.381	0.202	0.108
-256.136	-77.065	0.079	0.027
-255.122	153.211	-0.222	-0.298
-254.107	115.590	0.184	0.221
-253.092	-200.000	-0.000	0.240
-252.078	800.000	-0.073	0.313
-251.063	159.742	-0.182	0.248
-250.049	72.725	0.213	0.218
-249.034	521.421	-0.079	0.182
-248.019	-0.756	-0.204	-0.142
-247.005	-74.449	-0.241	-0.085
-245.990	-31.638	-0.179	0.099
-244.976	-99.440	0.193	0.048
-243.961	800.000	0.031	0.107
-242.946	407.493	0.062	-0.128
-241.932	34.120	0.104	0.089
-240.917	-15.215	-0.453	-0.285
-239.903	-34.547	-0.150	0.081
-238.888	-58.822	0.152	0.065
-237.873	800.000	-0.078	0.325
-236.859	-143.916	-0.106	-0.010
-235.844	-153.626	-0.119	0.008
-234.830	-8.541	0.229	-0.151
-233.815	93.854	0.171	0.190
-232.800	-200.000	-0.013	0.199
-231.786	157.054	0.189	0.256
-230.771	800.000	-0.017	0.063
-229.757	-61.108	-0.280	-0.116
-228.742	-200.000	0.009	0.144
-227.727	800.000	-0.071	-0.199
-226.713	546.280	-0.141	-0.330
-225.698	-39.113	0.054	0.028
-224.684	1.400	0.163	-0.115
-223.669	-131.817	-0.165	0.021
-222.655	87.699	-0.282	0.306
-221.640	-200.000	0.049	-0.384
-220.625	-148.907	0.264	-0.021
-219.611	637.996	-0.191	-0.476
-218.596	-200.000	0.000	0.128
-217.582	800.000	-0.073	0.264
-216.567	219.707	-0.023	0.036
-215.552	4.696	0.288	0.207
-214.538	-21.820	0.214	-0.128
-213.523	150.790	0.109	0.145
-212.509	118.242	0.055	0.067
-211.494	-120.118	-0.319	0.053
-210.479	246.412	-0.224	0.370
-209.465	-200.000	-0.040	0.172
-208.450	123.035	0.202	0.248
-207.436	340.396	0.227	-0.433
-206.421	-200.000	-0.003	0.233
-205.406	143.284	0.161	-0.209
-204.392	-1.758	-0.063	-0.044
-203.377	-200.000	-0.023	0.242
-202.363	800.000	-0.098	0.316
-201.348	422.543	-0.180	0.379
-200.333	26.519	-0.224	0.184
-199.319	-134.942	-0.302	0.036
-198.304	-174.322	0.136	-0.004
-197.290	2.070	0.107	-0.076
-196.275	-121.829	-0.333	-0.054
-195.260	-200.000	-0.079	-0.414
-194.246	477.808	0.086	0.190
-193.231	-37.271	-0.142	-0.074
-192.217	-166.490	-0.518	0.021
-191.202	-190.814	0.291	0.003
-190.187	5.022	-0.201	0.145
-189.173	172.727	-0.237	0.334
-188.158	-82.354	-0.115	0.037
-187.144	-92.068	0.270	0.075
-186.129	-200.000	-0.009	0.056
-185.114	387.888	0.010	-0.021
-184.100	386.485	0.136	0.275
-183.085	127.225	-0.178	-0.221
-182.071	-53.668	0.146	0.065
-181.056	24.471	0.092	-0.074
-180.042	-73.022	-0.077	-0.028
-179.027	124.928	-0.095	-0.117
-178.012	-68.722	-0.143	-0.054
-176.998	379.139	-0.024	-0.048
-175.983	-149.446	-0.250	-0.019
-174.969	68.526	-0.168	0.168
-173.954	117.312	0.127	0.153
-172.939	-45.306	0.056	0.027
-171.925	211.371	-0.127	-0.196
-170.910	800.000	-0.055	0.206
-169.896	8.776	-0.254	-0.187
-168.881	154.309	0.150	-0.201
-167.866	-200.000	0.011	-0.129
-166.852	-96.151	-0.225	-0.059
-165.837	233.598	0.106	-0.170
-164.823	-41.037	0.253	0.128
-163.808	-200.000	-0.014	0.090
-162.793	-7.755	-0.338	-0.223
-161.779	75.675	0.076	-0.078
-160.764	-45.120	-0.293	-0.142
-159.750	-116.233	0.270	0.049
-158.735	11.581	-0.265	0.198
-157.720	-200.000	0.058	0.274
-156.706	-200.000	0.001	0.157
-155.691	-36.409	-0.253	0.133
-154.677	404.443	0.061	-0.126
-153.662	-164.309	-0.215	0.010
-152.647	-44.042	-0.291	0.143
-151.633	-20.254	0.289	0.174
-150.618	800.000	0.052	-0.166
-149.604	9.349	0.333	0.246
-148.589	-136.586	-0.220	-0.025
-147.574	-59.217	-0.244	-0.103
-146.560	-200.000	-0.019	0.082
-145.545	-6.375	0.197	-0.131
-144.531	313.106	0.164	-0.301
-143.516	-113.568	0.156	-0.030
-142.502	114.221	0.106	0.127
-141.487	6.421	0.159	0.115
-140.472	-113.374	0.279	-0.053
-139.458	-200.000	0.038	-0.213
-138.443	202.319	0.156	0.235
-137.429	800.000	0.053	0.176
-136.414	-106.848	-0.466	0.101
-135.399	47.495	0.132	0.120
-134.385	-62.767	0.225	0.091
-133.370	-200.000	0.014	-0.120
-132.356	784.449	-0.068	-0.183
-131.341	-200.000	0.093	-0.498
-130.326	-79.013	-0.234	0.078
-129.312	132.509	0.157	0.198
-128.297	-194.552	-0.274	0.002
-127.283	-200.000	-0.077	0.339
-126.268	549.268	-0.084	0.197
-125.253	-200.000	0.047	-0.309
-124.239	68.007	0.151	-0.151
-123.224	289.405	-0.314	-0.556
-122.210	-132.440	-0.061	-0.008
