DTS Sentinel unit serial number:	SN413079Multiplexer serial number:	ORYXHardware model number:	OX4-SRSoftware version number:	ORYX F/W v4.00 Oryx Data Collector v3.7.2.0data status	okinstallation	princeton_trtdifferential loss correction	single-endedforward channel	channel 2reverse channel	N/Adate	2019/09/14time	01:31:35forward acquisition time	60.00reverse acquisition time	0.00gamma	496.2192k internal	0.2337k external	0.2337temperature offset calibration	1.0125default loss term (dB/km)	0.3790temperature slope calibration	1.0000multiplexer offset coefficient	1.0000multiplexer slope coefficient	1.0000fibre end	0.00T internal ref (°C)	26.44T ext. ref 1 (°C)	3.18T ext. ref 2 (°C)	21.49length (m)	temperature (°C)	Stokes	anti-Stokes-747.200	-200.000	0.023	0.144
-746.185	109.296	-0.097	0.116
-745.171	-200.000	0.054	0.408
-744.156	-200.000	-0.011	0.062
-743.142	-88.740	0.238	0.071
-742.127	43.920	0.017	0.016
-741.112	-200.000	-0.004	-0.222
-740.098	-200.000	0.013	0.371
-739.083	278.845	-0.126	-0.226
-738.069	260.792	-0.218	0.379
-737.054	469.677	-0.083	-0.188
-736.039	800.000	-0.047	-0.137
-735.025	90.044	0.239	0.268
-734.010	-19.752	-0.142	-0.088
-732.996	69.542	0.046	-0.048
-731.981	800.000	0.024	0.094
-730.966	116.235	-0.108	-0.133
-729.952	158.745	0.182	0.253
-728.937	-107.887	-0.292	-0.064
-727.923	-200.000	0.031	0.239
-726.908	-79.450	0.112	-0.038
-725.894	694.371	-0.113	-0.297
-724.879	-200.000	-0.009	-0.048
-723.864	130.149	-0.251	-0.322
-722.850	88.648	0.106	-0.119
-721.835	-115.868	-0.352	-0.066
-720.821	800.000	0.101	-0.414
-719.806	-108.081	-0.118	0.026
-718.791	157.092	-0.144	-0.199
-717.777	15.045	0.107	-0.084
-716.762	800.000	0.021	0.076
-715.748	147.650	-0.225	-0.305
-714.733	-87.653	-0.194	0.059
-713.718	43.280	-0.117	-0.107
-712.704	-200.000	0.033	-0.259
-711.689	12.004	0.306	0.236
-710.675	-53.168	0.107	0.049
-709.660	-186.802	-0.178	-0.003
-708.645	-93.454	0.174	0.048
-707.631	-9.949	-0.141	0.094
-706.616	294.891	0.160	-0.293
-705.602	145.545	-0.121	-0.162
-704.587	221.376	-0.099	-0.160
-703.572	-200.000	0.007	0.147
-702.558	593.114	-0.094	0.233
-701.543	-34.516	-0.145	-0.079
-700.529	-38.043	0.046	0.024
-699.514	-180.345	-0.214	0.004
-698.499	46.435	0.334	-0.311
-697.485	289.666	0.024	0.043
-696.470	738.479	-0.199	-0.536
-695.456	95.183	-0.170	0.194
-694.441	243.647	-0.249	0.419
-693.426	-55.773	-0.219	-0.098
-692.412	-182.570	-0.047	-0.001
-691.397	462.700	-0.037	-0.083
-690.383	481.626	0.126	-0.285
-689.368	-200.000	0.041	0.218
-688.354	-70.481	0.011	-0.004
-687.339	133.563	-0.172	0.223
-686.324	-76.825	-0.215	-0.075
-685.310	800.000	-0.014	-0.059
-684.295	-200.000	-0.001	-0.243
-683.281	-27.063	-0.160	-0.093
-682.266	512.292	0.140	-0.326
-681.251	-90.040	-0.357	-0.104
-680.237	368.112	-0.222	0.449
-679.222	226.088	0.049	0.079
-678.208	447.238	0.084	0.186
-677.193	-200.000	0.005	0.077
-676.178	-200.000	-0.025	-0.205
-675.164	800.000	-0.069	-0.282
-674.149	-200.000	0.047	-0.297
-673.135	201.002	0.067	-0.102
-672.120	36.734	-0.173	-0.153
-671.105	-200.000	0.024	0.136
-670.091	-200.000	-0.033	0.462
-669.076	-160.933	-0.293	0.015
-668.062	800.000	-0.044	-0.140
-667.047	-200.000	0.028	-0.218
-666.032	33.134	-0.101	0.088
-665.018	-53.799	-0.200	0.091
-664.003	-66.095	-0.238	0.095
-662.989	99.604	0.203	-0.235
-661.974	220.558	0.024	-0.039
-660.959	-145.866	-0.329	-0.029
-659.945	26.862	-0.258	-0.216
-658.930	-200.000	0.021	0.145
-657.916	431.208	0.093	-0.202
-656.901	800.000	-0.095	-0.288
-655.886	800.000	0.049	0.153
-654.872	800.000	0.099	0.276
-653.857	-37.358	-0.388	-0.207
-652.843	-200.000	0.041	-0.218
-651.828	132.521	-0.189	-0.244
-650.814	-96.813	-0.085	-0.022
-649.799	-111.583	0.008	-0.002
-648.784	-200.000	0.017	-0.144
-647.770	-69.193	0.270	-0.104
-646.755	-200.000	0.023	0.290
-645.741	212.241	-0.073	0.115
-644.726	-200.000	0.016	-0.234
-643.711	-85.196	-0.140	-0.044
-642.697	597.039	-0.105	-0.261
-641.682	16.715	0.222	-0.176
-640.668	-113.617	0.300	0.059
-639.653	-200.000	-0.009	0.290
-638.638	8.285	0.158	0.118
-637.624	-200.000	0.028	-0.194
-636.609	-86.043	0.412	-0.127
-635.595	2.806	0.188	-0.136
-634.580	341.434	0.112	-0.218
-633.565	-29.693	0.198	-0.113
-632.551	-200.000	-0.024	0.194
-631.536	280.276	-0.056	0.100
-630.522	800.000	-0.041	-0.150
-629.507	86.141	-0.177	-0.194
-628.492	57.218	0.215	0.210
-627.478	-118.467	0.313	0.055
-626.463	413.829	0.097	-0.207
-625.449	-88.057	0.279	-0.084
-624.434	-108.495	-0.170	-0.037
-623.419	296.844	0.074	-0.135
-622.405	154.548	0.156	-0.214
-621.390	21.310	-0.154	0.125
-620.376	800.000	0.064	-0.204
-619.361	507.101	-0.080	0.184
-618.346	142.415	-0.107	0.142
-617.332	-181.327	0.202	-0.004
-616.317	-96.271	-0.238	0.063
-615.303	-130.426	-0.154	-0.021
-614.288	-200.000	-0.010	0.053
-613.273	-200.000	0.021	-0.110
-612.259	-9.416	-0.122	-0.081
-611.244	30.077	0.150	-0.127
-610.230	-200.000	-0.021	-0.226
-609.215	99.464	0.064	-0.073
-608.201	97.788	-0.094	0.108
-607.186	-200.000	-0.052	-0.244
-606.171	-74.206	0.181	0.065
-605.157	800.000	-0.072	-0.238
-604.142	-70.206	-0.359	0.136
-603.128	178.901	-0.133	0.194
-602.113	-200.000	-0.008	0.100
-601.098	361.074	0.063	-0.127
-600.084	425.820	0.130	0.280
-599.069	131.076	-0.052	0.067
-598.055	-173.528	-0.257	0.008
-597.040	759.600	0.080	-0.216
-596.025	-200.000	-0.021	0.318
-595.011	-152.244	-0.326	-0.024
-593.996	-200.000	-0.033	-0.234
-592.982	800.000	0.067	0.190
-591.967	218.558	-0.172	0.274
-590.952	84.236	0.353	0.385
-589.938	19.206	-0.089	0.071
-588.923	-46.240	-0.239	-0.117
-587.909	-21.992	0.292	0.177
-586.894	-200.000	0.022	0.199
-585.879	-47.414	-0.100	0.049
-584.865	-200.000	-0.037	-0.321
-583.850	-6.564	0.464	-0.315
-582.836	800.000	-0.118	-0.436
-581.821	-132.283	-0.054	0.007
-580.806	42.932	-0.010	0.010
-579.792	200.012	0.154	0.236
-578.777	-200.000	0.006	0.096
-577.763	-13.361	0.154	-0.100
-576.748	-105.962	0.156	0.035
-575.733	-118.824	0.359	0.063
-574.719	-200.000	-0.050	-0.251
-573.704	775.714	0.087	-0.238
-572.690	-200.000	-0.001	-0.281
-571.675	-35.867	0.386	-0.208
-570.661	-200.000	0.010	-0.072
-569.646	-131.269	-0.150	0.020
-568.631	-200.000	0.012	0.195
-567.617	-13.888	-0.229	-0.148
-566.602	800.000	0.081	-0.287
-565.588	125.276	0.275	-0.346
-564.573	-88.898	0.134	-0.040
-563.558	50.415	-0.160	0.150
-562.544	4.778	0.276	-0.202
-561.529	-29.803	0.083	0.047
-560.515	-200.000	-0.016	0.136
-559.500	-35.395	-0.468	-0.253
-558.485	-200.000	-0.035	0.213
-557.471	58.759	-0.138	-0.135
-556.456	-200.000	-0.033	-0.186
-555.442	-24.007	-0.239	0.142
-554.427	800.000	-0.021	0.079
-553.412	-127.715	0.436	0.063
-552.398	-200.000	-0.070	-0.399
-551.383	10.071	-0.077	-0.058
-550.369	-110.339	-0.152	-0.032
-549.354	800.000	0.031	0.126
-548.339	122.619	-0.028	-0.035
-547.325	-44.125	-0.133	0.066
-546.310	-177.705	-0.276	-0.007
-545.296	301.103	-0.070	-0.129
-544.281	-200.000	-0.027	0.288
-543.266	222.666	-0.162	-0.261
-542.252	-32.321	-0.203	0.113
-541.237	54.686	-0.125	-0.120
-540.223	21.616	-0.270	-0.219
-539.208	-192.159	-0.111	0.001
-538.193	-7.047	0.197	-0.133
-537.179	800.000	-0.102	-0.445
-536.164	800.000	-0.020	0.058
-535.150	800.000	-0.084	-0.285
-534.135	75.626	0.203	-0.214
-533.121	535.972	-0.120	0.283
-532.106	-50.481	0.279	0.131
-531.091	-48.678	0.159	-0.076
-530.077	14.575	-0.076	-0.059
-529.062	-76.281	0.162	-0.057
-528.048	-64.836	-0.233	0.094
-527.033	-200.000	-0.010	0.165
-526.018	-141.903	0.259	-0.026
-525.004	95.839	0.115	0.131
-523.989	-200.000	0.027	-0.184
-522.975	-79.192	0.209	-0.071
-521.960	-124.353	-0.214	-0.033
-520.945	800.000	-0.113	0.349
-519.931	-121.455	0.132	-0.022
-518.916	-6.901	0.107	-0.072
-517.902	161.545	-0.096	0.134
-516.887	38.545	-0.141	-0.125
-515.872	105.796	-0.070	-0.082
-514.858	-200.000	-0.024	-0.107
-513.843	800.000	0.141	-0.444
-512.829	-200.000	-0.019	-0.204
-511.814	76.241	-0.163	-0.171
-510.799	800.000	-0.086	-0.245
-509.785	-86.822	-0.235	-0.071
-508.770	800.000	-0.077	0.229
-507.756	110.107	-0.123	-0.147
-506.741	-33.901	-0.269	-0.147
-505.726	-110.503	0.218	0.045
-504.712	-55.867	-0.095	-0.042
-503.697	-99.707	-0.203	-0.051
-502.683	529.824	-0.112	0.262
-501.668	9.877	-0.130	0.098
-500.653	800.000	-0.028	0.091
-499.639	101.678	0.148	-0.171
-498.624	68.389	0.107	0.109
-497.610	-122.909	0.483	0.077
-496.595	-28.025	-0.169	-0.097
-495.581	-46.877	-0.384	-0.187
-494.566	195.572	0.109	-0.164
-493.551	606.757	0.103	0.256
-492.537	-200.000	0.010	0.061
-491.522	-22.501	0.063	-0.038
-490.508	-96.144	-0.166	-0.044
-489.493	-102.707	0.042	0.010
-488.478	272.678	-0.078	-0.137
-487.464	-161.882	-0.282	-0.014
-486.449	-28.758	-0.261	0.149
-485.435	-44.743	-0.192	-0.095
-484.420	16.629	0.122	0.096
-483.405	63.352	-0.175	0.174
-482.391	-200.000	0.008	0.051
-481.376	-105.140	0.092	-0.021
-480.362	259.340	-0.190	0.326
-479.347	-183.189	0.298	0.005
-478.332	36.999	-0.124	-0.109
-477.318	-200.000	0.018	-0.162
-476.303	-16.910	-0.132	0.083
-475.289	438.222	0.049	-0.106
-474.274	88.002	0.053	-0.058
-473.259	97.830	0.107	-0.122
-472.245	95.792	0.129	0.147
-471.230	-200.000	-0.006	0.106
-470.216	237.997	0.049	-0.081
-469.201	-119.516	0.197	0.034
-468.186	219.416	0.088	-0.139
-467.172	685.899	-0.105	0.272
-466.157	3.771	0.145	-0.105
-465.143	27.261	-0.102	-0.085
-464.128	84.483	0.206	0.224
-463.113	-119.508	-0.352	-0.061
-462.099	-158.926	0.481	0.027
-461.084	589.920	0.040	0.097
-460.070	6.014	-0.205	0.151
-459.055	-44.319	-0.172	0.086
-458.040	-200.000	0.064	0.375
-457.026	-91.273	-0.184	0.052
-456.011	-19.360	0.059	-0.036
-454.997	-77.699	0.050	-0.017
-453.982	182.565	-0.062	-0.091
-452.968	-138.066	-0.144	0.016
-451.953	432.184	0.185	-0.397
-450.938	-54.408	-0.300	0.135
-449.924	498.722	0.054	0.123
-448.909	-78.418	-0.103	-0.035
-447.895	174.360	-0.045	0.065
-446.880	800.000	0.083	0.361
-445.865	452.130	-0.103	0.226
-444.851	-71.617	0.336	0.125
-443.836	-125.964	0.461	-0.069
-442.822	-48.774	0.262	-0.125
-441.807	800.000	-0.052	-0.156
-440.792	-104.224	-0.149	0.034
-439.778	-200.000	-0.021	-0.160
-438.763	800.000	0.039	0.110
-437.749	80.016	-0.190	0.203
-436.734	-200.000	-0.082	0.376
-435.719	800.000	-0.068	-0.215
-434.705	800.000	-0.042	0.115
-433.690	150.204	-0.100	0.135
-432.676	-3.575	-0.341	0.235
-431.661	800.000	-0.101	0.436
-430.646	498.814	-0.054	0.123
-429.632	-200.000	-0.010	0.084
-428.617	-200.000	-0.026	0.217
-427.603	83.170	0.308	-0.332
-426.588	640.226	0.131	-0.331
-425.573	-144.855	-0.446	0.041
-424.559	-111.331	-0.150	-0.030
-423.544	-143.637	0.320	0.030
-422.530	685.368	-0.012	-0.031
-421.515	83.759	-0.130	-0.141
-420.500	-91.456	-0.069	-0.019
-419.486	-144.470	0.175	0.016
-418.471	426.456	-0.075	-0.160
-417.457	-200.000	-0.046	0.332
-416.442	404.054	-0.044	-0.092
-415.428	152.621	-0.142	-0.192
-414.413	-97.282	-0.376	-0.097
-413.398	-200.000	0.013	0.055
-412.384	-34.870	-0.228	0.123
-411.369	-2.384	0.237	0.164
-410.355	-20.431	-0.074	0.045
-409.340	-200.000	0.031	0.226
-408.325	-147.546	-0.184	-0.015
-407.311	-200.000	-0.009	-0.050
-406.296	-166.084	0.275	0.012
-405.282	56.125	-0.095	-0.091
-404.267	-11.293	0.287	-0.187
-403.252	209.088	-0.144	-0.223
-402.238	-84.414	-0.236	0.074
-401.223	-88.670	-0.087	-0.025
-400.209	507.636	-0.041	0.095
-399.194	54.119	-0.113	0.108
-398.179	263.640	0.064	0.111
-397.165	-16.484	-0.276	0.174
-396.150	800.000	0.097	-0.305
-395.136	-200.000	-0.010	-0.176
-394.121	-133.929	-0.236	0.029
-393.106	212.174	-0.161	0.251
-392.092	-152.159	-0.101	-0.007
-391.077	-42.115	-0.331	-0.168
-390.063	-200.000	0.036	0.339
-389.048	275.421	0.106	-0.187
-388.033	20.228	0.153	-0.122
-387.019	64.953	-0.068	0.068
-386.004	-200.000	0.007	-0.102
-384.990	-46.830	-0.177	0.086
-383.975	-34.140	-0.065	-0.035
-382.960	-96.451	0.206	-0.054
-381.946	111.006	0.227	0.270
-380.931	695.422	-0.033	-0.085
-379.917	29.702	0.068	0.057
-378.902	170.706	0.099	-0.140
-377.888	-200.000	-0.003	-0.209
-376.873	60.741	0.104	0.102
-375.858	583.249	-0.061	-0.149
-374.844	-69.421	-0.141	-0.053
-373.829	408.222	0.114	-0.238
-372.815	800.000	0.029	0.107
-371.800	-61.888	-0.211	-0.087
-370.785	-124.940	0.099	-0.015
-369.771	-167.020	0.092	0.004
-368.756	470.018	0.098	-0.217
-367.742	236.722	0.067	0.110
-366.727	800.000	-0.073	-0.258
-365.712	-119.962	-0.143	0.024
-364.698	-200.000	-0.009	0.127
-363.683	-200.000	0.003	-0.098
-362.669	57.331	-0.210	0.203
-361.654	79.373	0.107	-0.113
-360.639	-126.719	0.292	0.043
-359.625	-1.802	-0.218	0.151
-358.610	594.012	-0.038	0.093
-357.596	-132.745	0.232	0.029
-356.581	158.331	-0.106	0.145
-355.566	-77.606	0.365	0.125
-354.552	130.738	-0.151	-0.192
-353.537	561.827	-0.054	-0.130
-352.523	407.695	-0.141	-0.294
-351.508	-97.244	0.390	-0.101
-350.493	-151.781	-0.233	-0.017
-349.479	-102.263	-0.405	-0.096
-348.464	-106.552	0.160	0.035
-347.450	218.299	-0.073	-0.115
-346.435	800.000	0.045	0.158
-345.420	395.737	-0.029	0.059
-344.406	117.507	-0.124	0.151
-343.391	-200.000	0.065	-0.352
-342.377	-111.395	-0.061	-0.012
-341.362	800.000	0.163	0.497
-340.348	-200.000	-0.009	0.000
-339.333	800.000	0.042	0.117
-338.318	572.478	0.201	-0.485
-337.304	-200.000	-0.098	-0.435
-336.289	800.000	-0.113	-0.398
-335.275	39.058	0.087	0.077
-334.260	800.000	0.078	0.216
-333.245	64.094	0.154	-0.153
-332.231	108.434	-0.144	0.170
-331.216	-97.974	0.358	0.091
-330.202	594.843	0.263	-0.643
-329.187	-200.000	0.012	0.222
-328.172	300.871	0.042	0.076
-327.158	800.000	-0.108	-0.390
-326.143	71.214	-0.331	0.339
-325.129	-161.373	0.163	0.008
-324.114	-49.901	-0.084	-0.039
-323.099	319.539	0.153	-0.286
-322.085	249.451	-0.130	-0.218
-321.070	-80.255	0.174	-0.057
-320.056	636.656	-0.072	-0.180
-319.041	800.000	0.039	-0.124
-318.026	-104.043	-0.569	0.131
-317.012	-90.667	-0.144	0.041
-315.997	-52.570	-0.089	-0.040
-314.983	800.000	0.120	-0.435
-313.968	800.000	0.096	0.374
-312.953	-200.000	-0.006	0.120
-311.939	9.664	0.153	-0.114
-310.924	22.311	-0.272	0.219
-309.910	-170.907	-0.276	-0.009
-308.895	113.436	0.139	-0.167
-307.880	-38.777	-0.179	-0.093
-306.866	-64.340	-0.176	-0.071
-305.851	388.165	0.024	-0.049
-304.837	-175.087	-0.239	0.007
-303.822	744.255	0.124	-0.329
-302.807	386.674	0.068	0.139
-301.793	167.886	0.271	-0.380
-300.778	8.547	-0.350	-0.260
-299.764	-200.000	0.010	-0.153
-298.749	-41.704	0.153	-0.077
-297.735	-139.781	0.359	0.038
-296.720	800.000	-0.075	0.311
-295.705	63.012	0.139	-0.138
-294.691	-25.148	0.020	0.012
-293.676	117.576	0.094	-0.114
-292.662	-87.689	0.295	-0.088
-291.647	-69.487	-0.159	0.060
-290.632	281.459	0.076	0.134
-289.618	-9.806	0.148	0.097
-288.603	-6.521	-0.167	0.112
-287.589	-200.000	-0.022	0.245
-286.574	800.000	0.050	-0.186
-285.559	297.335	-0.213	-0.386
-284.545	30.379	-0.220	0.186
-283.530	281.941	0.142	0.252
-282.516	186.254	-0.196	0.287
-281.501	-130.330	-0.260	-0.035
-280.486	-104.150	0.297	0.068
-279.472	85.569	-0.198	-0.214
-278.457	-101.481	-0.125	-0.030
-277.443	18.957	-0.269	-0.213
-276.428	-200.000	0.051	0.239
-275.413	-200.000	0.056	0.272
-274.399	800.000	-0.109	-0.348
-273.384	200.564	0.187	-0.283
-272.370	96.780	0.162	0.183
-271.355	157.377	0.112	0.152
-270.340	138.403	-0.173	0.224
-269.326	800.000	0.085	0.249
-268.311	148.889	-0.067	0.090
-267.297	-93.824	0.616	-0.167
-266.282	-6.467	-0.200	0.134
-265.267	473.858	0.173	0.384
-264.253	409.961	0.175	-0.365
-263.238	68.715	0.031	-0.031
-262.224	153.075	-0.223	-0.300
-261.209	-200.000	-0.008	0.127
-260.195	-46.212	0.174	0.084
-259.180	-37.022	0.396	0.209
-258.165	-9.772	-0.120	-0.079
-257.151	-98.929	-0.205	0.051
-256.136	-4.667	-0.166	-0.113
-255.122	800.000	-0.114	0.309
-254.107	-200.000	0.001	0.066
-253.092	-173.070	-0.043	-0.001
-252.078	-97.880	0.235	0.060
-251.063	-112.471	0.117	-0.023
-250.049	87.851	-0.066	0.072
-249.034	800.000	0.054	0.157
-248.019	127.981	0.286	0.358
-247.005	-26.628	0.046	0.027
-245.990	441.188	-0.110	0.238
-244.976	199.343	0.146	0.221
-243.961	88.828	0.071	0.078
-242.946	-200.000	-0.026	0.225
-241.932	-125.123	0.216	-0.033
-240.917	15.040	-0.362	0.279
-239.903	-86.526	0.217	-0.066
-238.888	800.000	0.021	0.058
-237.873	54.218	0.272	0.258
-236.859	211.475	0.175	0.271
-235.844	-91.908	0.113	-0.031
-234.830	-69.861	0.108	0.041
-233.815	403.000	-0.178	0.367
-232.800	-200.000	-0.036	0.326
-231.786	-103.988	0.392	0.090
-230.771	-131.942	0.153	0.020
-229.757	73.799	0.140	-0.144
-228.742	222.855	0.065	0.103
-227.727	58.844	-0.185	0.179
-226.713	-44.156	0.183	-0.090
-225.698	-41.299	0.030	0.015
-224.684	-73.527	0.025	0.009
-223.669	-12.420	0.054	0.035
-222.655	-23.905	0.298	-0.175
-221.640	36.223	0.055	-0.048
-220.625	-200.000	0.035	-0.239
-219.611	-200.000	-0.021	0.100
-218.596	-129.650	-0.317	0.043
-217.582	-12.588	-0.219	0.141
-216.567	-94.420	0.466	0.125
-215.552	155.208	0.174	0.235
-214.538	108.620	0.121	-0.142
-213.523	191.753	-0.135	-0.200
-212.509	-200.000	-0.027	0.339
-211.494	-72.837	-0.150	0.054
-210.479	-187.520	-0.330	0.004
-209.465	-200.000	0.039	0.304
-208.450	-26.257	0.136	0.079
-207.436	-200.000	0.062	-0.334
-206.421	15.100	0.091	0.070
-205.406	-106.882	-0.139	0.030
-204.392	-200.000	-0.022	0.169
-203.377	-121.288	0.041	-0.007
-202.363	-139.856	0.255	0.027
-201.348	-200.000	-0.002	0.102
-200.333	18.354	0.392	-0.307
-199.319	800.000	0.049	-0.191
-198.304	49.634	-0.076	0.070
-197.290	-112.103	0.088	-0.017
-196.275	251.341	-0.040	-0.066
-195.260	800.000	0.089	0.342
-194.246	-64.568	0.045	-0.018
-193.231	-200.000	-0.016	0.103
-192.217	-89.627	0.305	0.088
-191.202	32.216	0.091	-0.077
-190.187	200.039	-0.029	0.044
-189.173	-16.595	-0.240	0.149
-188.158	718.331	-0.013	0.033
-187.144	103.976	-0.236	0.272
-186.129	-170.613	-0.283	-0.010
-185.114	23.340	0.097	0.078
-184.100	-50.212	-0.301	-0.140
-183.085	119.273	0.152	0.184
-182.071	169.055	-0.044	0.062
-181.056	22.670	0.446	-0.359
-180.042	-30.941	0.291	0.161
-179.027	800.000	0.142	0.409
-178.012	800.000	0.081	0.345
-176.998	9.062	-0.216	0.160
-175.983	-49.165	-0.130	-0.061
-174.969	-172.922	0.496	-0.015
-173.954	-112.802	-0.271	0.053
-172.939	-104.053	-0.250	-0.057
-171.925	235.780	0.043	0.069
-170.910	-200.000	-0.007	0.105
-169.896	-200.000	0.003	-0.328
-168.881	700.464	-0.021	-0.053
-167.866	-86.235	-0.124	-0.037
-166.852	-81.069	-0.184	0.060
-165.837	-200.000	0.035	0.267
-164.823	-65.781	0.206	0.081
-163.808	-64.460	-0.193	0.077
-162.793	-71.536	-0.205	0.075
-161.779	58.690	-0.202	-0.195
-160.764	-21.654	-0.260	0.156
-159.750	559.916	0.141	-0.334
-158.735	63.510	-0.111	-0.109
-157.720	-200.000	0.038	0.180
-156.706	-200.000	-0.007	0.178
-155.691	252.251	0.112	-0.187
-154.677	-200.000	-0.025	0.390
-153.662	514.432	0.068	-0.156
-152.647	435.135	-0.176	-0.376
-151.633	-191.104	-0.543	0.006
-150.618	189.975	0.121	0.178
-149.604	-22.771	-0.289	-0.171
-148.589	-144.534	0.301	-0.027
-147.574	106.384	0.083	-0.097
-146.560	800.000	-0.106	-0.302
-145.545	-200.000	-0.032	0.311
-144.531	-200.000	0.048	-0.241
-143.516	104.205	-0.149	-0.171
-142.502	-53.965	0.406	-0.181
-141.487	-22.458	-0.052	0.031
-140.472	-21.160	0.145	0.087
-139.458	209.406	-0.131	-0.202
-138.443	261.047	-0.113	-0.192
-137.429	105.861	0.167	0.193
-136.414	-134.023	0.280	-0.034
-135.399	-114.658	0.324	0.061
-134.385	192.660	-0.115	0.171
-133.370	-122.361	-0.111	0.018
-132.356	-200.000	-0.018	-0.087
-131.341	-88.427	0.074	-0.022
-130.326	-49.347	-0.120	0.056
-129.312	116.129	-0.060	-0.072
-128.297	312.059	0.115	0.211
-127.283	-200.000	0.002	0.170
-126.268	-144.317	0.234	-0.021
-125.253	-11.299	0.087	0.056
-124.239	-200.000	0.007	0.123
-123.224	-161.461	0.109	0.006
-122.210	-200.000	0.012	0.074
