DTS Sentinel unit serial number:	SN413079Multiplexer serial number:	ORYXHardware model number:	OX4-SRSoftware version number:	ORYX F/W v4.00 Oryx Data Collector v3.7.2.0data status	okinstallation	princeton_trtdifferential loss correction	single-endedforward channel	channel 2reverse channel	N/Adate	2019/09/15time	06:55:35forward acquisition time	60.00reverse acquisition time	0.00gamma	496.2192k internal	0.2326k external	0.2326temperature offset calibration	1.0030default loss term (dB/km)	0.3790temperature slope calibration	1.0000multiplexer offset coefficient	1.0000multiplexer slope coefficient	1.0000fibre end	0.00T internal ref (°C)	30.50T ext. ref 1 (°C)	4.84T ext. ref 2 (°C)	25.53length (m)	temperature (°C)	Stokes	anti-Stokes-747.200	-134.183	-0.112	-0.014
-746.185	-85.418	-0.088	-0.028
-745.171	653.078	-0.019	0.050
-744.156	157.082	0.045	0.063
-743.142	180.072	-0.256	0.378
-742.127	-200.000	-0.005	0.215
-741.112	-106.628	0.076	0.017
-740.098	499.475	-0.077	0.179
-739.083	160.339	0.139	0.195
-738.069	229.818	-0.129	-0.212
-737.054	-200.000	-0.018	-0.163
-736.039	-80.377	-0.362	-0.122
-735.025	-200.000	-0.010	0.219
-734.010	322.715	0.107	-0.205
-732.996	800.000	-0.075	-0.240
-731.981	-143.720	0.479	-0.046
-730.966	-200.000	0.001	-0.155
-729.952	-200.000	0.001	0.172
-728.937	654.373	-0.200	0.518
-727.923	800.000	0.053	0.171
-726.908	-119.720	-0.300	0.052
-725.894	18.633	0.075	0.061
-724.879	-154.640	-0.143	0.010
-723.864	135.192	0.268	-0.351
-722.850	547.100	-0.120	-0.288
-721.835	429.971	-0.178	-0.388
-720.821	-7.332	-0.060	-0.041
-719.806	800.000	-0.061	-0.211
-718.791	-200.000	-0.010	0.134
-717.777	-200.000	0.012	-0.056
-716.762	71.531	0.079	0.082
-715.748	746.824	-0.088	0.240
-714.733	-200.000	-0.007	0.132
-713.718	433.792	-0.126	-0.275
-712.704	-99.968	-0.122	0.031
-711.689	172.487	-0.113	0.164
-710.675	476.312	-0.108	-0.246
-709.660	-151.913	0.221	0.016
-708.645	-5.049	-0.319	-0.221
-707.631	-154.875	0.173	-0.011
-706.616	-200.000	0.030	0.238
-705.602	-107.475	-0.236	-0.052
-704.587	-200.000	0.000	0.204
-703.572	13.185	0.071	-0.056
-702.558	65.539	-0.368	-0.376
-701.543	111.588	-0.201	0.245
-700.529	461.310	0.062	-0.140
-699.514	-27.203	-0.145	0.085
-698.499	7.006	-0.043	0.032
-697.485	32.880	0.093	0.081
-696.470	-200.000	-0.014	-0.121
-695.456	-200.000	0.004	0.206
-694.441	800.000	-0.014	-0.046
-693.426	800.000	-0.018	-0.069
-692.412	-97.924	-0.173	0.045
-691.397	154.972	-0.178	0.246
-690.383	-75.041	-0.318	-0.115
-689.368	-92.214	-0.047	0.013
-688.354	-128.459	-0.113	0.016
-687.339	-11.646	0.083	0.055
-686.324	-104.824	-0.020	0.005
-685.310	-73.201	0.350	0.129
-684.295	40.963	0.194	0.176
-683.281	289.788	-0.022	0.040
-682.266	94.989	-0.268	-0.307
-681.251	14.472	-0.186	0.146
-680.237	800.000	0.088	0.333
-679.222	-114.347	-0.048	-0.009
-678.208	556.219	-0.102	-0.248
-677.193	-200.000	-0.063	-0.385
-676.178	326.041	-0.105	-0.202
-675.164	-0.006	-0.125	0.089
-674.149	-200.000	-0.003	-0.027
-673.135	268.149	0.041	-0.072
-672.120	74.190	-0.382	-0.403
-671.105	-200.000	0.057	-0.315
-670.091	231.140	0.136	-0.224
-669.076	674.485	-0.046	-0.119
-668.062	-8.495	-0.175	0.118
-667.047	29.137	0.033	0.028
-666.032	-38.487	0.103	-0.055
-665.018	-200.000	-0.010	-0.186
-664.003	486.327	0.104	0.238
-662.989	-1.718	-0.123	-0.087
-661.974	-39.489	-0.157	0.083
-660.959	-115.401	0.089	-0.017
-659.945	-144.813	-0.376	0.035
-658.930	12.331	-0.101	-0.078
-657.916	-13.244	-0.202	-0.132
-656.901	173.264	0.177	0.256
-655.886	-52.431	0.140	-0.065
-654.872	-1.814	-0.020	0.014
-653.857	-200.000	-0.012	-0.097
-652.843	-200.000	-0.007	-0.102
-651.828	-136.668	-0.288	0.033
-650.814	84.649	0.252	-0.278
-649.799	114.827	0.208	0.255
-648.784	125.579	-0.127	-0.162
-647.770	-125.170	-0.268	0.041
-646.755	-158.233	-0.262	0.015
-645.741	378.880	0.033	-0.068
-644.726	-118.224	-0.179	0.032
-643.711	220.405	0.069	-0.111
-642.697	323.640	-0.097	-0.187
-641.682	-58.420	0.267	0.116
-640.668	10.664	0.302	0.231
-639.653	96.180	-0.219	-0.252
-638.638	143.959	0.130	-0.174
-637.624	-200.000	-0.005	-0.100
-636.609	-149.895	-0.211	0.017
-635.595	-122.373	-0.102	-0.017
-634.580	-200.000	-0.011	0.277
-633.565	800.000	-0.061	0.243
-632.551	-24.894	0.213	0.127
-631.536	-21.736	0.133	-0.081
-630.522	800.000	-0.111	-0.447
-629.507	-200.000	-0.019	0.187
-628.492	-68.523	-0.103	-0.040
-627.478	-37.216	0.293	-0.157
-626.463	360.537	0.090	-0.180
-625.449	336.556	0.051	-0.099
-624.434	-76.535	-0.139	-0.049
-623.419	678.490	0.172	-0.449
-622.405	-106.674	0.215	0.048
-621.390	-200.000	-0.025	-0.198
-620.376	-200.000	0.030	0.178
-619.361	800.000	-0.044	0.122
-618.346	-4.542	0.152	0.105
-617.332	133.409	-0.069	-0.090
-616.317	752.629	0.044	0.120
-615.303	800.000	0.064	-0.194
-614.288	-200.000	0.221	-0.001
-613.273	19.271	-0.260	-0.209
-612.259	171.331	-0.212	-0.306
-611.244	1.745	0.150	-0.108
-610.230	-99.118	-0.294	-0.075
-609.215	679.718	-0.034	-0.090
-608.201	87.469	-0.205	-0.228
-607.186	-200.000	0.010	0.207
-606.171	-83.841	0.227	-0.073
-605.157	-200.000	0.014	0.481
-604.142	652.407	0.125	0.321
-603.128	153.748	0.118	0.163
-602.113	-71.502	-0.358	0.134
-601.098	-200.000	0.007	-0.218
-600.084	800.000	0.062	0.173
-599.069	-86.631	0.288	0.088
-598.055	-200.000	0.005	-0.078
-597.040	164.135	-0.088	0.124
-596.025	-200.000	0.006	-0.353
-595.011	257.667	-0.138	-0.237
-593.996	354.648	-0.080	-0.160
-592.982	72.855	0.185	0.193
-591.967	-44.704	-0.366	-0.183
-590.952	800.000	0.027	0.077
-589.938	-2.528	0.253	0.178
-588.923	-200.000	0.060	-0.408
-587.909	-110.341	-0.255	-0.053
-586.894	-52.772	0.245	-0.113
-585.879	-117.561	-0.108	-0.020
-584.865	52.596	-0.211	-0.202
-583.850	-82.782	0.294	0.095
-582.836	800.000	-0.036	0.147
-581.821	132.757	0.065	0.084
-580.806	163.209	-0.053	-0.074
-579.792	-131.840	0.058	-0.008
-578.777	278.068	-0.018	0.033
-577.763	-40.811	0.200	-0.104
-576.748	203.727	0.225	0.350
-575.733	-200.000	-0.342	0.001
-574.719	307.590	0.159	0.298
-573.704	-96.402	-0.187	0.050
-572.690	-35.192	0.166	-0.091
-571.675	84.442	0.193	0.211
-570.661	-42.554	-0.121	-0.062
-569.646	-28.782	-0.411	-0.237
-568.631	376.355	0.125	0.256
-567.617	800.000	-0.008	0.032
-566.602	-200.000	0.004	0.278
-565.588	-93.501	-0.307	-0.085
-564.573	800.000	-0.027	0.081
-563.558	433.697	-0.065	0.141
-562.544	-14.315	-0.076	0.049
-561.529	-66.322	-0.170	-0.068
-560.515	1.477	-0.109	-0.079
-559.500	-156.256	0.327	-0.021
-558.485	166.099	-0.090	0.127
-557.471	51.028	0.371	0.352
-556.456	-200.000	0.016	-0.104
-555.442	-106.165	-0.070	0.016
-554.427	-19.794	0.128	-0.079
-553.412	134.479	-0.126	0.163
-552.398	-96.744	0.248	-0.065
-551.383	253.648	-0.140	-0.240
-550.369	800.000	0.046	-0.129
-549.354	-14.361	-0.049	-0.032
-548.339	66.296	0.058	0.059
-547.325	-159.068	0.192	-0.011
-546.310	-38.281	-0.201	-0.107
-545.296	30.402	-0.150	0.128
-544.281	-200.000	0.040	-0.222
-543.266	800.000	-0.119	-0.415
-542.252	-48.157	-0.230	-0.111
-541.237	39.015	-0.122	0.109
-540.223	-111.410	0.118	-0.024
-539.208	-156.835	0.166	0.010
-538.193	633.089	-0.064	0.161
-537.179	136.585	-0.026	0.033
-536.164	237.751	0.108	-0.179
-535.150	-154.409	-0.090	0.006
-534.135	-120.301	-0.020	-0.003
-533.121	-144.126	-0.215	0.020
-532.106	11.576	0.203	0.156
-531.091	-89.260	-0.343	0.101
-530.077	110.072	0.241	-0.289
-529.062	800.000	-0.034	-0.096
-528.048	-200.000	-0.065	-0.427
-527.033	-200.000	0.143	-0.000
-526.018	122.549	0.101	0.126
-525.004	-200.000	-0.045	-0.199
-523.989	276.493	-0.139	-0.247
-522.975	184.189	0.016	-0.024
-521.960	47.674	-0.329	0.307
-520.945	-4.147	0.355	0.246
-519.931	102.012	-0.160	-0.187
-518.916	800.000	0.027	0.114
-517.902	-197.003	-0.287	-0.002
-516.887	552.914	-0.097	-0.233
-515.872	-109.437	0.142	-0.030
-514.858	-145.296	0.128	0.012
-513.843	34.928	-0.075	-0.066
-512.829	-69.366	-0.240	0.092
-511.814	200.779	0.068	-0.105
-510.799	232.495	0.143	-0.235
-509.785	-33.176	-0.174	0.096
-508.770	-31.319	-0.150	0.084
-507.756	-61.715	-0.258	-0.108
-506.741	-16.632	-0.083	0.053
-505.726	-200.000	0.049	-0.346
-504.712	-200.000	-0.022	-0.206
-503.697	62.752	0.111	0.111
-502.683	375.892	-0.189	0.385
-501.668	18.292	-0.089	0.071
-500.653	59.579	-0.168	-0.165
-499.639	778.300	0.099	0.270
-498.624	-200.000	-0.041	-0.272
-497.610	-200.000	0.033	-0.385
-496.595	124.780	-0.144	0.182
-495.581	90.140	0.116	0.130
-494.566	-200.000	-0.062	0.428
-493.551	-169.686	-0.096	0.003
-492.537	-70.859	0.195	-0.073
-491.522	97.102	-0.175	-0.200
-490.508	153.518	0.095	0.130
-489.493	-200.000	-0.049	-0.361
-488.478	-200.000	-0.023	0.157
-487.464	-200.000	0.005	0.062
-486.449	94.808	0.082	0.093
-485.435	27.717	0.336	0.283
-484.420	-162.576	0.152	-0.007
-483.405	-1.752	0.207	-0.146
-482.391	-200.000	0.015	0.203
-481.376	-28.020	-0.130	0.075
-480.362	-94.286	-0.213	-0.058
-479.347	-132.133	-0.296	0.038
-478.332	800.000	0.107	-0.300
-477.318	800.000	0.035	0.120
-476.303	-92.484	-0.101	0.028
-475.289	292.968	-0.095	-0.172
-474.274	-128.110	-0.602	-0.086
-473.259	-117.724	-0.036	0.006
-472.245	5.578	-0.499	0.368
-471.230	800.000	-0.076	0.215
-470.216	-24.961	-0.303	-0.179
-469.201	-39.221	0.151	-0.079
-468.186	-136.015	0.295	-0.035
-467.172	0.656	0.249	-0.178
-466.157	99.395	-0.229	0.264
-465.143	-125.048	0.307	0.047
-464.128	-126.852	0.127	0.019
-463.113	-200.000	-0.015	0.324
-462.099	18.707	0.277	-0.221
-461.084	-200.000	-0.016	-0.164
-460.070	-155.291	0.200	-0.013
-459.055	467.616	0.086	0.192
-458.040	-157.465	0.106	0.006
-457.026	-200.000	0.011	-0.064
-456.011	1.995	0.264	-0.190
-454.997	220.442	0.158	-0.252
-453.982	-63.967	-0.234	-0.095
-452.968	121.946	-0.091	0.114
-451.953	9.222	0.152	0.115
-450.938	-54.202	-0.068	-0.031
-449.924	131.578	0.161	-0.207
-448.909	533.828	-0.077	0.181
-447.895	-50.786	-0.059	0.028
-446.880	-71.830	0.219	0.081
-445.865	249.081	0.080	-0.134
-444.851	-200.000	-0.007	0.188
-443.836	-19.822	-0.252	-0.155
-442.822	-14.433	0.167	-0.107
-441.807	-70.728	0.281	0.106
-440.792	500.109	-0.062	0.143
-439.778	-111.968	0.473	-0.095
-438.763	174.092	-0.202	0.291
-437.749	-200.000	0.019	0.168
-436.734	44.523	0.186	0.170
-435.719	800.000	0.106	0.294
-434.705	-129.144	0.311	0.043
-433.690	174.161	0.134	-0.193
-432.676	19.094	0.094	0.075
-431.661	-114.926	-0.164	0.031
-430.646	276.927	-0.166	0.294
-429.632	106.169	0.276	0.326
-428.617	405.994	0.049	-0.103
-427.603	-94.597	0.115	0.031
-426.588	199.686	-0.109	0.167
-425.573	2.012	-0.298	-0.215
-424.559	800.000	-0.063	-0.201
-423.544	-61.441	-0.158	0.066
-422.530	-200.000	0.037	-0.272
-421.515	19.941	0.116	0.093
-420.500	-52.439	-0.362	0.167
-419.486	800.000	0.137	-0.385
-418.471	162.959	-0.070	0.098
-417.457	-57.587	0.062	-0.027
-416.442	-79.678	0.325	0.109
-415.428	-156.723	0.508	0.031
-414.413	-200.000	0.023	-0.149
-413.398	-31.334	-0.255	-0.143
-412.384	100.465	-0.218	-0.252
-411.369	584.457	0.111	0.272
-410.355	-200.000	-0.001	0.074
-409.340	-112.126	0.205	0.041
-408.325	82.940	-0.080	0.086
-407.311	575.952	0.111	0.271
-406.296	-134.474	-0.187	0.023
-405.282	-200.000	0.040	0.241
-404.267	484.295	0.089	0.202
-403.252	10.367	0.210	0.159
-402.238	20.477	-0.321	0.259
-401.223	364.484	-0.137	-0.274
-400.209	403.578	-0.169	-0.353
-399.194	349.558	0.083	0.164
-398.179	-22.164	0.125	-0.075
-397.165	800.000	0.031	0.122
-396.150	-200.000	-0.010	0.166
-395.136	359.913	0.059	-0.118
-394.121	-115.660	-0.242	0.045
-393.106	33.025	-0.131	-0.113
-392.092	-124.001	-0.271	0.042
-391.077	-143.724	-0.289	0.027
-390.063	-200.000	-0.000	0.003
-389.048	-156.790	0.340	-0.021
-388.033	-194.734	-0.219	0.002
-387.019	306.873	-0.152	0.282
-386.004	258.765	0.043	-0.074
-384.990	689.769	0.066	-0.172
-383.975	397.391	-0.016	0.032
-382.960	105.128	0.099	-0.117
-381.946	-67.866	0.271	0.105
-380.931	-200.000	0.016	-0.221
-379.917	-111.861	0.054	-0.011
-378.902	227.608	0.160	-0.258
-377.888	-72.904	0.092	-0.033
-376.873	-11.557	0.084	0.055
-375.858	358.948	0.039	0.077
-374.844	-59.744	0.336	0.143
-373.829	-130.775	0.254	-0.034
-372.815	466.177	0.065	0.145
-371.800	794.083	-0.090	-0.247
-370.785	800.000	0.040	-0.120
-369.771	-32.823	0.297	0.164
-368.756	555.405	-0.025	-0.060
-367.742	-200.000	-0.054	-0.270
-366.727	-200.000	-0.015	-0.094
-365.712	-200.000	-0.014	-0.123
-364.698	71.971	0.116	0.120
-363.683	-126.751	-0.203	0.030
-362.669	-200.000	-0.053	0.306
-361.654	800.000	-0.071	-0.228
-360.639	299.859	0.069	0.126
-359.625	-93.016	-0.247	-0.069
-358.610	-200.000	-0.001	-0.136
-357.596	14.759	-0.090	0.070
-356.581	60.063	0.298	0.293
-355.566	188.643	0.102	0.152
-354.552	800.000	-0.140	0.489
-353.537	800.000	0.074	0.214
-352.523	-26.011	-0.183	0.107
-351.508	-66.741	-0.201	0.079
-350.493	174.586	-0.186	-0.267
-349.479	-60.868	-0.035	0.015
-348.464	-2.518	-0.180	-0.125
-347.450	-145.917	-0.257	0.023
-346.435	263.569	0.067	-0.115
-345.420	800.000	-0.134	-0.396
-344.406	-145.883	-0.166	-0.015
-343.391	79.615	-0.107	0.114
-342.377	800.000	0.089	-0.369
-341.362	-126.998	0.010	0.001
-340.348	800.000	0.078	-0.289
-339.333	800.000	0.079	-0.232
-338.318	540.042	0.050	-0.118
-337.304	313.937	0.116	0.217
-336.289	-88.503	0.289	-0.086
-335.275	170.775	-0.161	0.229
-334.260	15.343	0.039	-0.031
-333.245	-75.425	-0.199	0.070
-332.231	582.164	-0.139	-0.338
-331.216	-200.000	-0.040	0.527
-330.202	-30.800	-0.168	0.094
-329.187	31.505	-0.208	0.177
-328.172	562.381	0.142	0.340
-327.158	-38.250	-0.169	-0.089
-326.143	-71.042	0.180	-0.067
-325.129	-33.220	0.076	0.042
-324.114	-200.000	0.004	0.324
-323.099	-4.685	0.185	0.127
-322.085	254.996	-0.297	0.505
-321.070	17.257	-0.079	-0.062
-320.056	800.000	0.078	0.242
-319.041	415.735	-0.024	0.050
-318.026	-200.000	-0.034	-0.222
-317.012	89.606	-0.110	-0.122
-315.997	800.000	0.149	-0.468
-314.983	-94.249	0.077	-0.021
-313.968	466.004	-0.131	-0.290
-312.953	196.358	-0.149	0.225
-311.939	-200.000	-0.013	0.073
-310.924	800.000	-0.073	0.203
-309.910	454.788	-0.065	-0.143
-308.895	-77.587	-0.133	-0.046
-307.880	800.000	0.048	-0.171
-306.866	459.036	-0.070	0.155
-305.851	214.161	-0.189	0.296
-304.837	-21.171	-0.312	0.189
-303.822	523.691	0.057	0.134
-302.807	93.536	0.127	-0.142
-301.793	580.567	-0.093	0.226
-300.778	-128.939	0.273	0.038
-299.764	-200.000	0.038	0.201
-298.749	107.829	0.054	-0.064
-297.735	-116.690	0.233	0.042
-296.720	-200.000	0.001	-0.180
-295.705	-57.874	-0.240	-0.104
-294.691	-72.675	0.308	0.112
-293.676	-4.323	0.183	-0.126
-292.662	-200.000	0.048	-0.592
-291.647	-89.611	-0.314	-0.091
-290.632	470.683	0.076	0.169
-289.618	-200.000	0.044	0.226
-288.603	-200.000	-0.022	0.165
-287.589	-12.385	0.325	0.210
-286.574	-200.000	-0.039	-0.354
-285.559	-53.541	-0.163	0.074
-284.545	13.861	-0.145	-0.112
-283.530	800.000	0.194	0.640
-282.516	-200.000	-0.018	0.359
-281.501	-4.891	-0.229	0.156
-280.486	800.000	0.016	-0.061
-279.472	800.000	-0.122	-0.374
-278.457	-43.787	0.354	-0.177
-277.443	-112.824	0.277	0.054
-276.428	-92.972	-0.184	-0.051
-275.413	-146.192	0.149	0.013
-274.399	-121.527	-0.337	-0.055
-273.384	800.000	0.056	-0.213
-272.370	36.675	0.102	-0.089
-271.355	298.494	-0.059	-0.107
-270.340	-200.000	-0.057	0.263
-269.326	139.914	0.051	0.066
-268.311	-84.169	0.219	-0.069
-267.297	-34.713	0.270	0.146
-266.282	89.859	0.054	0.060
-265.267	-1.239	-0.274	0.191
-264.253	-200.000	0.014	0.164
-263.238	149.700	-0.221	-0.296
-262.224	-58.812	0.450	0.193
-261.209	565.481	0.020	0.048
-260.195	238.268	0.139	-0.229
-259.180	-200.000	0.025	-0.131
-258.165	-10.241	0.177	-0.116
-257.151	800.000	-0.018	0.070
-256.136	800.000	-0.058	0.235
-255.122	800.000	0.170	-0.554
-254.107	205.449	-0.178	-0.274
-253.092	63.012	0.151	0.150
-252.078	45.455	-0.268	0.245
-251.063	339.316	0.100	0.193
-250.049	-45.740	-0.129	-0.063
-249.034	-109.993	0.033	-0.007
-248.019	662.419	0.089	-0.227
-247.005	66.176	-0.118	-0.118
-245.990	-111.487	0.287	-0.058
-244.976	244.233	0.025	-0.042
-243.961	-57.913	-0.085	-0.037
-242.946	56.657	-0.054	-0.052
-241.932	-200.000	-0.032	0.255
-240.917	372.225	0.061	0.123
-239.903	-160.882	0.129	0.007
-238.888	-200.000	-0.018	0.135
-237.873	655.146	0.102	0.259
-236.859	-56.090	0.286	-0.126
-235.844	-200.000	-0.006	0.057
-234.830	-85.698	-0.094	0.029
-233.815	49.969	0.224	-0.209
-232.800	-57.143	-0.084	-0.037
-231.786	-200.000	0.046	0.234
-230.771	-200.000	-0.069	0.299
-229.757	60.935	0.120	0.117
-228.742	557.242	0.035	-0.083
-227.727	-200.000	-0.047	-0.210
-226.713	-200.000	-0.018	-0.179
-225.698	-150.132	-0.311	-0.024
-224.684	-90.424	0.343	0.098
-223.669	349.477	-0.128	-0.250
-222.655	174.668	-0.174	-0.249
-221.640	-135.120	0.202	0.024
-220.625	127.750	0.129	0.162
-219.611	22.174	0.095	0.077
-218.596	170.800	0.123	-0.174
-217.582	-144.335	-0.186	0.017
-216.567	-129.157	-0.149	-0.021
-215.552	284.951	0.102	-0.181
-214.538	-52.723	-0.166	0.076
-213.523	-200.000	0.029	-0.323
-212.509	-200.000	-0.023	-0.172
-211.494	329.163	0.030	0.057
-210.479	-176.258	-0.320	0.008
-209.465	-200.000	-0.006	-0.127
-208.450	-173.785	-0.373	0.011
-207.436	-106.567	0.290	0.064
-206.421	91.342	0.212	0.235
-205.406	-200.000	0.006	0.045
-204.392	16.933	-0.110	-0.086
-203.377	-200.000	-0.015	-0.089
-202.363	-200.000	0.041	-0.261
-201.348	-145.662	0.198	0.017
-200.333	172.441	0.062	0.088
-199.319	-80.752	0.393	-0.129
-198.304	63.969	0.075	-0.074
-197.290	10.982	-0.182	-0.138
-196.275	118.025	-0.200	0.243
-195.260	164.726	-0.225	0.314
-194.246	-200.000	0.007	0.043
-193.231	800.000	0.053	-0.146
-192.217	-62.559	-0.237	0.097
-191.202	800.000	-0.074	0.280
-190.187	800.000	0.134	-0.379
-189.173	517.884	0.027	0.063
-188.158	-151.558	0.253	0.019
-187.144	202.602	-0.059	-0.089
-186.129	-144.780	0.120	-0.011
-185.114	-174.618	0.167	-0.005
-184.100	-200.000	-0.015	-0.219
-183.085	-152.184	-0.186	-0.013
-182.071	380.094	0.068	-0.137
-181.056	800.000	-0.065	0.238
-180.042	17.476	0.039	0.030
-179.027	380.044	-0.115	0.232
-178.012	-200.000	-0.042	0.318
-176.998	-71.674	0.359	0.132
-175.983	-129.662	0.236	-0.032
-174.969	69.709	-0.218	-0.222
-173.954	-117.351	0.131	-0.023
-172.939	141.472	-0.193	-0.252
-171.925	800.000	-0.050	0.173
-170.910	10.725	-0.237	-0.179
-169.896	127.384	-0.181	-0.226
-168.881	800.000	-0.121	-0.333
-167.866	-109.527	-0.340	0.071
-166.852	121.854	-0.074	0.092
-165.837	69.816	0.065	-0.067
-164.823	-200.000	-0.039	-0.377
-163.808	-99.139	0.259	-0.065
-162.793	-25.663	0.155	0.090
-161.779	131.199	-0.159	-0.201
-160.764	91.394	-0.117	-0.129
-159.750	92.173	0.183	-0.203
-158.735	800.000	-0.061	0.186
-157.720	-127.318	-0.086	-0.012
-156.706	62.234	0.286	0.281
-155.691	800.000	-0.085	0.274
-154.677	-200.000	-0.061	0.000
-153.662	-136.688	0.126	-0.014
-152.647	800.000	-0.071	0.294
-151.633	-85.104	-0.122	0.038
-150.618	-135.468	0.118	-0.014
-149.604	416.144	-0.066	0.140
-148.589	-42.312	-0.280	0.141
-147.574	-75.240	-0.371	0.131
-146.560	492.286	-0.045	-0.101
-145.545	298.160	0.094	0.170
-144.531	-200.000	0.024	0.327
-143.516	-94.909	0.189	-0.051
-142.502	-131.950	0.113	-0.014
-141.487	-81.625	-0.158	0.051
-140.472	-200.000	-0.020	-0.115
-139.458	-166.995	0.290	0.012
-138.443	-200.000	0.041	0.364
-137.429	-76.747	0.538	0.186
-136.414	800.000	-0.138	-0.395
-135.399	19.504	0.099	0.078
-134.385	31.545	0.058	0.049
-133.370	-9.012	-0.225	0.148
-132.356	-92.994	-0.285	-0.078
-131.341	-200.000	0.011	-0.206
-130.326	-5.076	0.168	0.114
-129.312	-200.000	-0.022	0.345
-128.297	-200.000	-0.014	0.068
-127.283	-200.000	-0.047	0.301
-126.268	172.470	0.186	0.264
-125.253	83.322	-0.064	-0.069
-124.239	130.182	0.048	-0.060
-123.224	-30.855	0.179	0.100
-122.210	-149.850	-0.120	-0.009
