DTS Sentinel unit serial number:	SN413079Multiplexer serial number:	ORYXHardware model number:	OX4-SRSoftware version number:	ORYX F/W v4.00 Oryx Data Collector v3.7.2.0data status	okinstallation	princeton_trtdifferential loss correction	single-endedforward channel	channel 2reverse channel	N/Adate	2019/09/12time	07:41:11forward acquisition time	60.00reverse acquisition time	0.00gamma	496.2192k internal	0.2321k external	0.2321temperature offset calibration	1.0061default loss term (dB/km)	0.3790temperature slope calibration	1.0000multiplexer offset coefficient	1.0000multiplexer slope coefficient	1.0000fibre end	0.00T internal ref (°C)	32.72T ext. ref 1 (°C)	1.63T ext. ref 2 (°C)	29.08length (m)	temperature (°C)	Stokes	anti-Stokes-747.200	247.569	-0.075	0.128
-746.185	-111.306	-0.154	0.032
-745.171	186.395	0.041	0.062
-744.156	285.259	0.272	0.496
-743.142	-70.679	-0.045	0.017
-742.127	255.327	0.098	0.170
-741.112	257.270	0.193	0.335
-740.098	-63.826	-0.628	-0.260
-739.083	403.053	-0.053	0.112
-738.069	800.000	0.071	0.277
-737.054	580.315	-0.059	0.147
-736.039	-79.856	-0.466	-0.158
-735.025	-44.733	0.389	-0.196
-734.010	673.021	-0.048	0.127
-732.996	136.014	-0.130	0.171
-731.981	778.268	-0.065	0.180
-730.966	-41.882	-0.195	-0.101
-729.952	107.139	0.116	0.140
-728.937	81.170	-0.153	-0.167
-727.923	148.870	-0.209	-0.285
-726.908	-200.000	-0.010	-0.179
-725.894	-95.482	-0.103	0.028
-724.879	800.000	-0.042	-0.152
-723.864	-90.015	-0.193	0.057
-722.850	800.000	0.044	0.185
-721.835	-95.747	-0.350	-0.095
-720.821	46.196	0.165	0.155
-719.806	221.469	-0.106	0.172
-718.791	-200.000	-0.010	-0.100
-717.777	14.886	0.088	0.070
-716.762	-17.924	0.254	-0.161
-715.748	116.274	0.064	0.079
-714.733	-107.247	-0.164	-0.037
-713.718	800.000	0.049	-0.212
-712.704	-84.302	-0.188	0.060
-711.689	130.815	0.170	0.220
-710.675	800.000	-0.053	0.174
-709.660	-133.524	0.142	-0.018
-708.645	202.621	0.223	-0.347
-707.631	-176.567	-0.227	0.006
-706.616	-59.721	0.239	0.104
-705.602	331.322	0.142	0.277
-704.587	-83.781	-0.095	-0.030
-703.572	-197.939	-0.156	-0.001
-702.558	439.668	-0.040	0.088
-701.543	-138.696	0.335	0.037
-700.529	262.016	-0.175	0.306
-699.514	-200.000	-0.007	-0.226
-698.499	50.875	-0.303	0.290
-697.485	-69.903	0.023	-0.009
-696.470	-175.924	-0.210	-0.006
-695.456	47.077	0.216	-0.203
-694.441	688.796	0.125	-0.330
-693.426	-89.871	-0.278	0.082
-692.412	11.552	-0.239	-0.185
-691.397	333.729	-0.073	-0.142
-690.383	9.989	-0.211	-0.161
-689.368	-200.000	-0.057	-0.288
-688.354	114.456	-0.133	0.164
-687.339	489.283	-0.110	-0.254
-686.324	76.590	0.165	-0.177
-685.310	-38.029	0.222	-0.119
-684.295	-150.238	0.185	0.014
-683.281	-77.354	0.149	0.052
-682.266	142.290	-0.226	0.302
-681.251	800.000	0.053	-0.182
-680.237	137.545	-0.056	0.074
-679.222	-90.545	-0.079	0.023
-678.208	-84.619	-0.276	-0.088
-677.193	-200.000	0.028	0.181
-676.178	-46.747	0.213	-0.105
-675.164	122.248	0.071	-0.089
-674.149	-54.174	-0.262	0.120
-673.135	21.319	0.149	-0.122
-672.120	-9.557	0.111	-0.075
-671.105	-116.948	0.223	0.041
-670.091	276.225	0.047	-0.084
-669.076	-101.247	-0.186	-0.046
-668.062	628.181	-0.080	-0.203
-667.047	-200.000	-0.036	0.216
-666.032	206.367	-0.220	0.346
-665.018	438.883	0.217	0.477
-664.003	-9.137	0.308	-0.208
-662.989	-153.278	-0.265	0.019
-661.974	-109.573	0.309	-0.066
-660.959	37.616	0.256	-0.229
-659.945	800.000	-0.049	-0.190
-658.930	18.895	-0.066	0.053
-657.916	-200.000	0.038	-0.221
-656.901	-2.973	0.286	0.201
-655.886	673.249	0.035	-0.093
-654.872	326.376	0.046	0.088
-653.857	800.000	-0.069	-0.299
-652.843	24.895	-0.126	0.106
-651.828	-60.393	0.234	0.100
-650.814	-25.983	-0.201	-0.119
-649.799	-94.933	-0.082	-0.022
-648.784	11.095	0.295	0.227
-647.770	-200.000	0.020	-0.142
-646.755	42.282	0.057	-0.052
-645.741	-131.722	0.087	0.011
-644.726	-200.000	-0.065	-0.319
-643.711	-144.555	-0.481	-0.045
-642.697	11.394	-0.194	-0.150
-641.682	11.877	-0.126	0.097
-640.668	326.672	0.135	0.260
-639.653	-59.602	0.164	0.071
-638.638	-96.753	0.222	0.059
-637.624	142.415	0.098	-0.131
-636.609	-19.267	-0.385	0.241
-635.595	92.456	-0.209	0.237
-634.580	-21.332	0.112	0.069
-633.565	-5.600	-0.215	-0.149
-632.551	-43.022	0.163	-0.083
-631.536	-45.947	-0.271	0.135
-630.522	-200.000	-0.067	0.000
-629.507	-89.688	0.301	0.089
-628.492	637.041	-0.039	0.100
-627.478	22.719	0.099	0.081
-626.463	265.908	0.101	-0.177
-625.449	-200.000	-0.018	0.141
-624.434	-200.000	0.052	0.342
-623.419	800.000	-0.119	-0.341
-622.405	-23.658	-0.159	0.096
-621.390	100.419	-0.242	0.282
-620.376	190.511	0.203	0.306
-619.361	136.493	0.058	-0.076
-618.346	206.136	0.232	-0.362
-617.332	-85.713	-0.129	0.040
-616.317	192.526	0.243	-0.369
-615.303	-161.312	-0.165	0.009
-614.288	-122.204	-0.096	0.016
-613.273	-42.411	0.127	-0.065
-612.259	-200.000	0.018	-0.382
-611.244	56.455	-0.041	-0.040
-610.230	83.308	0.169	0.185
-609.215	131.206	0.216	0.279
-608.201	192.940	-0.081	0.123
-607.186	-200.000	0.046	0.251
-606.171	-200.000	-0.008	-0.065
-605.157	109.877	-0.120	-0.145
-604.142	107.567	-0.134	0.160
-603.128	-2.541	-0.138	0.097
-602.113	-151.460	0.184	0.014
-601.098	800.000	0.039	-0.124
-600.084	-159.339	0.093	-0.005
-599.069	12.934	0.109	0.084
-598.055	135.887	0.230	-0.301
-597.040	246.641	-0.071	-0.120
-596.025	55.376	0.168	-0.164
-595.011	-103.016	0.145	0.035
-593.996	-79.505	0.090	0.031
-592.982	-134.013	-0.472	0.059
-591.967	504.057	0.067	0.156
-590.952	159.839	0.201	0.281
-589.938	800.000	0.066	0.199
-588.923	206.105	-0.119	-0.186
-587.909	-184.790	0.124	-0.002
-586.894	5.624	-0.174	-0.129
-585.879	-200.000	0.011	-0.097
-584.865	-59.300	0.150	-0.065
-583.850	543.263	-0.075	0.180
-582.836	73.278	-0.170	-0.179
-581.821	136.511	-0.193	0.252
-580.806	130.056	-0.165	0.213
-579.792	74.122	0.192	0.202
-578.777	-200.000	-0.016	0.250
-577.763	-115.757	-0.294	-0.055
-576.748	171.922	-0.120	0.173
-575.733	490.863	0.150	0.345
-574.719	150.322	0.120	0.163
-573.704	254.030	-0.054	-0.093
-572.690	106.610	-0.058	0.069
-571.675	-15.785	-0.175	-0.112
-570.661	-29.931	0.148	-0.085
-569.646	791.491	-0.067	0.184
-568.631	130.740	-0.167	-0.216
-567.617	-168.723	-0.222	0.008
-566.602	131.890	0.127	0.164
-565.588	800.000	-0.044	-0.148
-564.573	800.000	-0.078	-0.304
-563.558	-86.350	0.283	0.087
-562.544	800.000	-0.130	0.398
-561.529	104.558	-0.123	-0.145
-560.515	-164.073	0.134	0.006
-559.500	391.374	-0.095	0.197
-558.485	-200.000	-0.045	-0.431
-557.471	800.000	-0.021	-0.068
-556.456	-200.000	-0.011	-0.181
-555.442	-172.307	0.096	0.003
-554.427	800.000	0.055	-0.202
-553.412	42.379	0.080	0.073
-552.398	153.015	-0.168	-0.230
-551.383	97.046	0.198	0.228
-550.369	800.000	0.024	0.075
-549.354	187.966	0.075	-0.112
-548.339	-111.052	-0.235	-0.048
-547.325	155.003	-0.079	0.109
-546.310	650.010	-0.042	0.109
-545.296	-200.000	0.004	-0.043
-544.281	-77.079	0.103	-0.036
-543.266	-200.000	-0.033	-0.157
-542.252	-154.518	0.244	0.016
-541.237	-200.000	-0.041	-0.196
-540.223	193.910	-0.079	-0.120
-539.208	-200.000	-0.003	0.017
-538.193	-82.535	-0.220	-0.072
-537.179	-9.521	0.079	-0.053
-536.164	126.061	0.175	-0.222
-535.150	-164.150	-0.252	0.012
-534.135	800.000	-0.061	-0.173
-533.121	58.130	-0.430	-0.422
-532.106	-200.000	-0.047	0.239
-531.091	-60.644	0.097	0.041
-530.077	-200.000	-0.024	-0.121
-529.062	-200.000	0.030	0.224
-528.048	4.103	-0.170	-0.125
-527.033	379.056	0.101	0.206
-526.018	-200.000	0.011	0.173
-525.004	147.740	-0.139	0.187
-523.989	-84.961	0.216	-0.068
-522.975	-58.890	0.222	0.096
-521.960	52.117	-0.086	0.082
-520.945	359.853	0.166	0.333
-519.931	-200.000	-0.012	0.219
-518.916	-60.258	0.186	-0.079
-517.902	-52.396	0.130	-0.060
-516.887	25.438	-0.300	-0.250
-515.872	-200.000	0.003	0.266
-514.858	-68.444	-0.270	-0.105
-513.843	-141.807	0.327	0.033
-512.829	30.137	0.150	0.128
-511.814	405.532	0.205	-0.434
-510.799	-74.533	-0.115	-0.041
-509.785	-64.172	-0.464	0.190
-508.770	194.649	-0.112	0.170
-507.756	14.639	0.159	-0.124
-506.741	-11.554	0.187	-0.123
-505.726	-110.016	-0.084	-0.018
-504.712	222.609	-0.160	-0.258
-503.697	-90.185	0.187	0.055
-502.683	-113.162	-0.039	-0.008
-501.668	639.604	-0.118	-0.299
-500.653	519.339	0.068	0.161
-499.639	646.761	0.091	-0.233
-498.624	-92.925	-0.224	-0.063
-497.610	-79.956	-0.205	0.069
-496.595	176.068	0.121	0.175
-495.581	344.730	0.078	-0.154
-494.566	60.118	0.170	0.168
-493.551	-200.000	-0.040	0.217
-492.537	-200.000	0.041	0.248
-491.522	800.000	-0.085	0.362
-490.508	-47.899	0.072	-0.035
-489.493	24.828	0.105	-0.087
-488.478	-200.000	-0.004	0.213
-487.464	-18.563	-0.068	-0.042
-486.449	14.659	0.199	0.155
-485.435	-102.154	0.289	0.070
-484.420	800.000	0.032	0.134
-483.405	-163.898	-0.035	0.002
-482.391	21.184	-0.085	-0.069
-481.376	107.391	-0.198	0.235
-480.362	-49.899	0.198	-0.094
-479.347	-161.023	0.331	-0.017
-478.332	-9.535	-0.258	0.172
-477.318	352.897	-0.058	0.114
-476.303	0.794	0.226	-0.162
-475.289	800.000	0.121	-0.384
-474.274	-96.561	0.098	-0.026
-473.259	-200.000	-0.023	0.104
-472.245	109.238	-0.065	0.078
-471.230	-200.000	0.010	-0.259
-470.216	800.000	-0.089	0.314
-469.201	51.034	0.117	-0.111
-468.186	-137.534	-0.104	0.012
-467.172	123.301	0.071	-0.088
-466.157	-148.929	-0.150	-0.012
-465.143	113.678	-0.203	0.246
-464.128	110.079	-0.228	-0.274
-463.113	800.000	-0.038	-0.164
-462.099	7.714	-0.335	0.250
-461.084	80.658	-0.113	0.122
-460.070	-130.727	0.293	0.039
-459.055	172.005	0.068	-0.098
-458.040	-124.407	-0.319	0.050
-457.026	-82.689	-0.308	-0.100
-456.011	-52.301	-0.172	0.080
-454.997	-102.031	-0.128	-0.031
-453.982	-200.000	0.072	-0.358
-452.968	-85.129	0.389	0.121
-451.953	470.915	0.116	0.261
-450.938	-194.989	-0.543	0.004
-449.924	156.554	0.187	-0.258
-448.909	664.035	-0.034	0.087
-447.895	-127.142	0.012	0.002
-446.880	-58.167	0.384	-0.167
-445.865	-200.000	0.010	-0.111
-444.851	-146.497	0.181	0.016
-443.836	-173.787	-0.032	-0.001
-442.822	-166.231	-0.194	-0.008
-441.807	-200.000	0.011	0.183
-440.792	114.594	-0.135	-0.164
-439.778	96.716	-0.144	-0.164
-438.763	-83.952	0.205	-0.065
-437.749	-165.987	0.193	-0.008
-436.734	-67.283	-0.258	-0.101
-435.719	-116.986	0.112	0.020
-434.705	-101.032	-0.275	-0.067
-433.690	-13.839	-0.095	-0.061
-432.676	38.147	0.149	0.132
-431.661	126.138	-0.063	-0.080
-430.646	-31.029	0.328	-0.185
-429.632	22.405	0.103	0.084
-428.617	-200.000	0.007	-0.041
-427.603	-96.445	-0.415	0.110
-426.588	-118.154	0.220	0.039
-425.573	-200.000	-0.062	-0.407
-424.559	-200.000	0.079	-0.354
-423.544	47.613	-0.165	0.153
-422.530	-200.000	-0.022	0.224
-421.515	-93.828	-0.262	-0.072
-420.500	-177.954	0.337	-0.008
-419.486	494.170	-0.138	0.317
-418.471	-116.636	-0.307	-0.056
-417.457	-200.000	0.024	0.199
-416.442	442.642	0.066	-0.144
-415.428	-200.000	-0.043	0.306
-414.413	-200.000	-0.010	-0.292
-413.398	313.381	-0.054	-0.101
-412.384	-152.616	0.173	0.012
-411.369	372.412	0.149	-0.302
-410.355	294.223	-0.036	-0.066
-409.340	-74.517	-0.390	0.140
-408.325	7.761	0.109	-0.082
-407.311	108.622	-0.143	-0.170
-406.296	-200.000	-0.005	0.057
-405.282	-200.000	0.019	0.135
-404.267	-200.000	0.000	-0.028
-403.252	-51.016	0.345	0.162
-402.238	-200.000	0.006	-0.129
-401.223	-77.124	0.077	-0.027
-400.209	341.684	-0.057	0.110
-399.194	-200.000	-0.068	0.319
-398.179	-132.504	0.346	0.044
-397.165	188.667	0.025	-0.037
-396.150	-200.000	0.026	0.463
-395.136	-172.538	-0.204	-0.006
-394.121	-200.000	-0.010	-0.139
-393.106	-200.000	-0.036	0.183
-392.092	142.668	-0.030	-0.040
-391.077	-69.659	0.247	-0.094
-390.063	13.946	-0.277	-0.215
-389.048	27.841	0.403	0.338
-388.033	149.425	-0.132	-0.178
-387.019	359.923	-0.019	0.037
-386.004	328.440	0.151	-0.290
-384.990	65.733	0.175	-0.177
-383.975	-90.310	0.330	0.096
-382.960	-25.534	0.067	-0.039
-381.946	350.303	0.058	0.114
-380.931	-72.683	-0.177	0.065
-379.917	800.000	0.022	-0.073
-378.902	7.415	0.219	0.163
-377.888	5.699	-0.481	0.354
-376.873	-200.000	-0.073	0.333
-375.858	-172.000	-0.340	0.011
-374.844	-19.267	0.286	-0.177
-373.829	715.308	0.100	-0.265
-372.815	306.666	0.057	0.106
-371.800	800.000	0.013	0.040
-370.785	58.085	-0.176	-0.172
-369.771	-29.818	0.147	0.083
-368.756	72.660	0.048	-0.049
-367.742	437.129	0.095	0.207
-366.727	5.421	0.248	0.182
-365.712	800.000	0.055	0.188
-364.698	-87.806	-0.161	-0.048
-363.683	-102.873	-0.151	0.036
-362.669	800.000	-0.036	0.157
-361.654	-117.777	0.337	-0.060
-360.639	-142.544	0.133	0.013
-359.625	-1.909	-0.198	-0.138
-358.610	213.550	-0.171	-0.270
-357.596	800.000	-0.075	0.259
-356.581	-40.722	-0.115	-0.059
-355.566	250.827	-0.068	-0.114
-354.552	151.148	-0.088	0.119
-353.537	772.340	0.113	0.306
-352.523	473.560	0.078	-0.175
-351.508	269.738	-0.085	-0.149
-350.493	-145.462	-0.303	-0.027
-349.479	139.285	-0.112	0.147
-348.464	-200.000	-0.026	0.161
-347.450	-97.296	0.228	0.059
-346.435	-106.110	0.079	-0.018
-345.420	-91.047	0.033	0.010
-344.406	-42.883	-0.267	0.135
-343.391	800.000	-0.075	0.279
-342.377	-104.926	-0.235	-0.054
-341.362	-200.000	-0.015	-0.078
-340.348	-160.894	-0.214	0.011
-339.333	-176.134	0.108	0.003
-338.318	21.340	0.073	-0.059
-337.304	-23.544	-0.103	0.062
-336.289	-200.000	0.052	-0.237
-335.275	-200.000	0.022	-0.216
-334.260	-200.000	-0.013	-0.116
-333.245	-132.702	-0.564	-0.072
-332.231	-158.255	-0.345	0.020
-331.216	-166.293	0.326	0.014
-330.202	-200.000	0.010	0.058
-329.187	-136.416	0.245	-0.028
-328.172	28.729	0.240	-0.202
-327.158	-106.603	0.154	-0.034
-326.143	123.199	0.194	0.242
-325.129	17.558	-0.057	-0.045
-324.114	-12.682	0.072	-0.046
-323.099	747.630	-0.071	0.191
-322.085	375.527	0.055	0.112
-321.070	347.413	-0.068	0.133
-320.056	-128.386	0.058	0.008
-319.041	56.075	-0.119	-0.115
-318.026	138.872	0.215	-0.280
-317.012	-90.759	-0.055	0.016
-315.997	58.954	0.264	0.258
-314.983	-200.000	0.068	-0.503
-313.968	-200.000	-0.017	-0.378
-312.953	-178.243	0.229	-0.005
-311.939	-94.380	-0.123	0.033
-310.924	-70.975	-0.112	0.042
-309.910	360.394	0.125	0.248
-308.895	-78.624	0.182	-0.062
-307.880	142.243	0.123	0.162
-306.866	2.544	0.039	-0.028
-305.851	-200.000	0.075	-0.369
-304.837	-200.000	0.020	0.284
-303.822	-11.449	0.210	-0.137
-302.807	116.322	-0.159	0.194
-301.793	93.503	-0.167	-0.188
-300.778	800.000	0.044	-0.120
-299.764	82.248	-0.114	-0.122
-298.749	-130.478	0.227	0.030
-297.735	-112.212	0.202	0.040
-296.720	-19.198	-0.267	0.164
-295.705	114.843	0.135	-0.164
-294.691	427.345	-0.148	-0.316
-293.676	552.827	0.030	0.073
-292.662	-200.000	-0.018	0.187
-291.647	134.503	0.144	0.186
-290.632	-57.611	-0.331	-0.144
-289.618	111.648	-0.055	-0.066
-288.603	34.385	-0.242	-0.209
-287.589	-95.460	0.115	0.031
-286.574	291.745	0.088	0.160
-285.559	-12.100	0.377	0.245
-284.545	-24.218	0.285	-0.169
-283.530	-173.025	0.322	-0.010
-282.516	-100.337	0.177	0.044
-281.501	79.621	0.038	-0.040
-280.486	421.849	-0.189	0.402
-279.472	-57.601	0.236	0.103
-278.457	-200.000	-0.019	-0.224
-277.443	97.522	-0.105	0.120
-276.428	184.744	-0.081	0.119
-275.413	433.457	0.101	-0.217
-274.399	-52.725	-0.606	0.277
-273.384	126.373	0.171	0.214
-272.370	38.234	-0.261	0.231
-271.355	25.996	0.220	-0.182
-270.340	-200.000	0.007	0.272
-269.326	-111.874	-0.245	-0.049
-268.311	-200.000	-0.023	-0.230
-267.297	-43.629	-0.301	0.151
-266.282	203.996	0.138	-0.212
-265.267	-106.620	0.137	-0.030
-264.253	-65.459	0.180	0.072
-263.238	89.544	-0.296	-0.328
-262.224	757.711	0.042	0.114
-261.209	-69.408	-0.251	0.095
-260.195	-76.138	-0.254	-0.089
-259.180	32.596	-0.008	-0.007
-258.165	-36.611	0.264	-0.141
-257.151	-200.000	-0.032	-0.441
-256.136	97.452	0.016	0.018
-255.122	-34.417	0.228	-0.124
-254.107	-145.434	0.175	-0.016
-253.092	52.603	-0.092	-0.087
-252.078	64.278	0.070	-0.070
-251.063	582.779	0.133	0.324
-250.049	800.000	0.189	0.541
-249.034	-6.145	-0.228	0.155
-248.019	-45.987	-0.346	-0.169
-247.005	-200.000	-0.053	-0.231
-245.990	-73.054	0.261	-0.095
-244.976	-94.743	-0.371	-0.100
-243.961	-65.520	-0.338	0.134
-242.946	5.441	-0.353	-0.258
-241.932	-98.695	0.204	-0.052
-240.917	125.710	-0.124	0.156
-239.903	265.907	-0.070	0.122
-238.888	388.818	0.051	-0.104
-237.873	800.000	0.077	0.298
-236.859	-49.589	0.370	-0.175
-235.844	153.896	0.067	-0.091
-234.830	-91.120	0.222	-0.063
-233.815	433.959	0.125	-0.270
-232.800	312.663	0.011	-0.020
-231.786	-200.000	0.008	-0.039
-230.771	-197.662	0.326	-0.002
-229.757	-64.061	-0.233	0.094
-228.742	-107.813	-0.181	-0.039
-227.727	170.912	0.082	-0.116
-226.713	236.435	-0.094	0.155
-225.698	-46.984	0.305	0.147
-224.684	197.586	-0.193	0.291
-223.669	-11.789	0.242	0.157
-222.655	244.650	-0.238	-0.396
-221.640	-135.647	-0.174	0.020
-220.625	33.563	0.240	-0.207
-219.611	2.261	-0.124	-0.089
-218.596	-97.929	-0.347	0.089
-217.582	-92.195	0.159	-0.044
-216.567	-103.457	-0.329	-0.077
-215.552	23.304	0.050	-0.041
-214.538	-68.172	0.211	-0.081
-213.523	-172.641	-0.129	-0.004
-212.509	-150.478	-0.394	-0.030
-211.494	-26.844	-0.104	0.060
-210.479	-200.000	0.048	-0.291
-209.465	-113.189	0.305	-0.059
-208.450	-200.000	-0.007	-0.329
-207.436	-103.011	0.272	0.064
-206.421	787.531	0.073	-0.198
-205.406	-200.000	-0.040	0.181
-204.392	-9.905	0.181	-0.119
-203.377	-200.000	-0.009	0.283
-202.363	312.753	-0.035	-0.065
-201.348	-145.709	0.276	0.024
-200.333	505.757	-0.219	0.503
-199.319	50.673	-0.173	0.162
-198.304	8.441	0.077	-0.057
-197.290	70.689	0.239	-0.244
-196.275	329.711	-0.153	-0.292
-195.260	87.922	0.191	0.209
-194.246	38.301	0.118	-0.104
-193.231	-82.737	0.100	0.032
-192.217	59.290	-0.158	0.154
-191.202	-96.220	-0.105	-0.028
-190.187	143.046	0.163	0.214
-189.173	-170.287	0.243	-0.008
-188.158	-60.692	-0.226	-0.095
-187.144	53.157	-0.213	-0.202
-186.129	-128.025	-0.061	-0.009
-185.114	-119.117	-0.103	0.018
-184.100	-200.000	0.063	0.353
-183.085	-200.000	-0.255	-0.000
-182.071	-22.464	0.266	-0.159
-181.056	800.000	0.035	0.131
-180.042	-155.100	-0.298	0.019
-179.027	78.859	0.149	-0.158
-178.012	-154.949	0.124	-0.008
-176.998	-200.000	-0.001	-0.071
-175.983	-154.177	-0.144	0.010
-174.969	-116.239	0.256	0.047
-173.954	88.267	0.212	0.233
-172.939	140.945	0.093	-0.122
-171.925	681.026	0.135	-0.349
-170.910	800.000	0.029	0.094
-169.896	307.568	-0.068	0.125
-168.881	190.711	0.245	0.364
-167.866	-10.039	0.207	0.136
-166.852	-48.445	-0.077	0.037
-165.837	-185.406	0.183	0.003
-164.823	-14.333	-0.457	-0.291
-163.808	160.056	-0.268	-0.369
-162.793	0.492	0.165	-0.117
-161.779	-118.824	0.106	0.018
-160.764	46.037	0.224	0.205
-159.750	430.659	0.056	0.119
-158.735	535.844	-0.086	-0.201
-157.720	-200.000	-0.058	-0.340
-156.706	-136.961	0.231	-0.026
-155.691	668.253	-0.141	-0.360
-154.677	-200.000	0.003	-0.206
-153.662	-85.915	-0.194	-0.059
-152.647	691.620	0.045	0.116
-151.633	447.236	-0.070	0.152
-150.618	152.887	-0.097	-0.131
-149.604	-47.224	0.309	0.149
-148.589	602.537	-0.062	-0.152
-147.574	115.184	0.100	0.121
-146.560	11.055	-0.066	0.050
-145.545	-200.000	-0.013	0.483
-144.531	89.717	0.297	0.328
-143.516	800.000	0.053	0.192
-142.502	-131.918	0.309	-0.040
-141.487	800.000	0.043	-0.140
-140.472	800.000	0.090	-0.264
-139.458	-178.342	0.086	-0.002
-138.443	156.516	0.053	-0.073
-137.429	44.836	0.276	-0.251
-136.414	-140.221	0.032	-0.003
-135.399	-200.000	0.030	0.264
-134.385	10.578	-0.160	0.120
-133.370	-30.192	0.149	-0.083
-132.356	483.492	0.130	-0.291
-131.341	112.903	-0.205	0.245
-130.326	-200.000	-0.034	0.218
-129.312	800.000	0.098	-0.417
-128.297	-200.000	-0.018	-0.185
-127.283	-10.147	-0.209	-0.137
-126.268	-200.000	0.000	-0.072
-125.253	800.000	0.006	0.027
-124.239	438.284	-0.131	-0.282
-123.224	84.523	-0.081	-0.087
-122.210	534.507	-0.157	0.367
-121.195	-128.658	0.281	0.039
