DTS Sentinel unit serial number:	SN413079Multiplexer serial number:	ORYXHardware model number:	OX4-SRSoftware version number:	ORYX F/W v4.00 Oryx Data Collector v3.7.2.0data status	okinstallation	princeton_trtdifferential loss correction	single-endedforward channel	channel 2reverse channel	N/Adate	2019/09/17time	10:59:35forward acquisition time	60.00reverse acquisition time	0.00gamma	496.2192k internal	0.2324k external	0.2324temperature offset calibration	0.9978default loss term (dB/km)	0.3790temperature slope calibration	1.0000multiplexer offset coefficient	1.0000multiplexer slope coefficient	1.0000fibre end	0.00T internal ref (°C)	30.30T ext. ref 1 (°C)	0.19T ext. ref 2 (°C)	25.87length (m)	temperature (°C)	Stokes	anti-Stokes-747.200	-200.000	-0.042	-0.328
-746.185	-86.687	0.228	-0.071
-745.171	-122.858	-0.141	-0.023
-744.156	628.578	0.071	-0.181
-743.142	282.511	0.077	-0.139
-742.127	82.599	-0.242	0.265
-741.112	104.332	-0.241	-0.287
-740.098	800.000	-0.106	0.300
-739.083	259.672	-0.124	0.217
-738.069	37.286	-0.219	0.196
-737.054	-200.000	-0.047	-0.218
-736.039	265.319	-0.089	0.157
-735.025	-39.560	0.227	-0.120
-734.010	574.656	0.107	-0.265
-732.996	-200.000	0.085	-0.414
-731.981	98.064	-0.107	0.125
-730.966	193.745	0.258	0.393
-729.952	800.000	-0.148	-0.445
-728.937	-106.329	-0.258	-0.058
-727.923	-200.000	0.027	0.146
-726.908	800.000	0.021	-0.077
-725.894	416.803	0.074	0.159
-724.879	800.000	-0.021	-0.081
-723.864	-41.727	-0.192	-0.100
-722.850	-200.000	0.005	0.050
-721.835	800.000	-0.047	-0.186
-720.821	56.681	-0.152	0.149
-719.806	51.215	0.257	-0.246
-718.791	382.603	-0.057	-0.117
-717.777	51.655	-0.160	0.153
-716.762	40.126	0.329	-0.298
-715.748	800.000	-0.024	-0.084
-714.733	-120.099	-0.106	0.018
-713.718	-43.509	-0.149	-0.076
-712.704	-200.000	0.034	-0.210
-711.689	311.900	-0.034	0.065
-710.675	160.022	-0.118	-0.166
-709.660	-163.622	0.590	-0.028
-708.645	-200.000	0.002	0.237
-707.631	-200.000	0.012	0.112
-706.616	136.834	-0.082	-0.107
-705.602	-41.905	-0.060	-0.031
-704.587	260.769	0.167	-0.291
-703.572	120.600	0.220	0.276
-702.558	-200.000	0.021	0.187
-701.543	348.193	0.123	0.244
-700.529	-33.532	0.596	-0.332
-699.514	-153.055	-0.214	-0.015
-698.499	-125.979	-0.175	0.026
-697.485	-200.000	-0.025	-0.161
-696.470	518.746	-0.090	0.212
-695.456	-174.043	0.155	0.005
-694.441	52.965	-0.081	0.078
-693.426	724.121	0.011	-0.031
-692.412	429.052	0.176	-0.382
-691.397	-200.000	-0.028	-0.243
-690.383	800.000	0.084	0.331
-689.368	-92.216	-0.133	-0.038
-688.354	800.000	-0.069	-0.249
-687.339	-200.000	-0.013	-0.065
-686.324	-93.163	-0.041	-0.011
-685.310	124.231	0.157	-0.199
-684.295	-176.990	0.318	0.008
-683.281	-200.000	0.000	-0.042
-682.266	-153.016	0.173	-0.012
-681.251	-7.711	-0.056	-0.038
-680.237	255.474	-0.147	0.254
-679.222	642.666	0.023	0.060
-678.208	479.242	0.086	-0.195
-677.193	-200.000	0.007	-0.184
-676.178	207.600	-0.221	-0.348
-675.164	200.994	0.065	0.101
-674.149	-111.616	-0.194	-0.040
-673.135	-200.000	0.012	0.083
-672.120	-124.971	0.602	0.093
-671.105	-80.335	-0.249	-0.084
-670.091	-147.080	-0.223	0.019
-669.076	-67.807	-0.281	0.110
-668.062	-15.945	0.323	-0.207
-667.047	-200.000	0.027	0.267
-666.032	34.113	-0.026	-0.022
-665.018	97.529	-0.128	-0.147
-664.003	-133.870	0.156	-0.020
-662.989	-200.000	0.010	0.080
-661.974	155.308	-0.021	0.029
-660.959	-136.757	0.272	-0.032
-659.945	-200.000	-0.058	0.309
-658.930	-200.000	0.013	-0.167
-657.916	149.751	-0.150	0.205
-656.901	310.532	0.162	0.306
-655.886	-68.323	0.151	-0.059
-654.872	-89.813	0.144	0.042
-653.857	-200.000	0.004	-0.049
-652.843	-34.816	-0.161	-0.088
-651.828	136.232	-0.155	0.203
-650.814	-200.000	-0.008	-0.161
-649.799	-139.472	-0.351	-0.038
-648.784	64.909	0.038	-0.038
-647.770	-200.000	0.001	-0.003
-646.755	79.930	0.290	-0.313
-645.741	72.499	-0.358	0.375
-644.726	340.335	-0.163	0.319
-643.711	-128.666	-0.331	0.047
-642.697	800.000	-0.081	0.229
-641.682	-112.383	-0.288	0.058
-640.668	90.093	-0.125	-0.140
-639.653	800.000	-0.018	-0.057
-638.638	-200.000	-0.003	0.126
-637.624	800.000	0.043	0.160
-636.609	-200.000	-0.117	-0.639
-635.595	-18.219	0.280	-0.176
-634.580	-200.000	0.010	0.175
-633.565	-52.934	-0.148	-0.069
-632.551	-26.052	-0.110	0.065
-631.536	-34.300	0.116	0.064
-630.522	116.544	-0.094	-0.116
-629.507	55.887	-0.154	-0.150
-628.492	-69.817	-0.340	0.130
-627.478	-118.763	-0.066	-0.012
-626.463	-143.424	0.286	-0.027
-625.449	-74.748	0.136	-0.049
-624.434	59.923	0.227	0.225
-623.419	800.000	0.094	0.355
-622.405	-41.500	0.093	-0.048
-621.390	-122.451	-0.026	0.004
-620.376	-200.000	0.008	-0.086
-619.361	113.874	0.160	-0.195
-618.346	150.941	-0.155	-0.212
-617.332	-200.000	-0.018	-0.133
-616.317	-84.691	-0.386	-0.122
-615.303	147.889	-0.036	0.049
-614.288	202.350	0.056	-0.087
-613.273	-134.701	-0.150	0.018
-612.259	-96.893	0.230	0.061
-611.244	-73.847	-0.298	-0.109
-610.230	-200.000	-0.003	-0.248
-609.215	1.850	-0.109	-0.079
-608.201	82.850	-0.165	-0.181
-607.186	214.758	0.055	-0.088
-606.171	-125.957	-0.121	0.018
-605.157	800.000	0.071	0.306
-604.142	330.840	-0.043	0.083
-603.128	537.759	0.188	-0.448
-602.113	-44.311	-0.319	-0.161
-601.098	-69.055	-0.138	0.053
-600.084	601.130	-0.018	0.045
-599.069	-74.642	0.280	0.101
-598.055	42.406	-0.262	-0.239
-597.040	-128.914	0.058	-0.008
-596.025	-64.175	-0.169	-0.069
-595.011	26.953	0.175	0.148
-593.996	-152.065	0.291	0.021
-592.982	800.000	0.048	-0.198
-591.967	-103.149	-0.232	0.055
-590.952	-91.531	-0.282	0.081
-589.938	-139.127	-0.059	-0.006
-588.923	-9.434	-0.193	-0.129
-587.909	360.658	-0.083	-0.167
-586.894	43.694	0.194	-0.178
-585.879	-98.359	0.412	-0.106
-584.865	-200.000	-0.069	-0.326
-583.850	-48.769	-0.131	-0.063
-582.836	71.565	-0.042	-0.044
-581.821	800.000	-0.117	-0.409
-580.806	115.428	0.263	0.322
-579.792	800.000	0.124	-0.399
-578.777	215.929	0.117	0.186
-577.763	-200.000	-0.015	-0.115
-576.748	174.429	-0.033	-0.048
-575.733	-200.000	0.015	0.106
-574.719	342.224	0.118	0.232
-573.704	-122.263	0.275	-0.045
-572.690	-6.574	-0.175	0.120
-571.675	-200.000	0.065	0.305
-570.661	-39.864	-0.265	0.139
-569.646	-111.487	0.175	0.036
-568.631	146.846	0.199	-0.268
-567.617	-114.472	-0.214	-0.041
-566.602	-27.198	0.376	0.220
-565.588	800.000	-0.080	0.242
-564.573	131.262	0.233	0.300
-563.558	212.729	-0.093	0.148
-562.544	-89.101	0.310	0.092
-561.529	-78.285	-0.194	-0.067
-560.515	80.968	0.144	0.155
-559.500	171.247	-0.245	0.353
-558.485	-129.365	-0.206	-0.029
-557.471	183.318	0.098	-0.145
-556.456	358.043	-0.111	0.222
-555.442	384.410	0.077	0.159
-554.427	120.537	-0.114	0.141
-553.412	253.429	-0.050	-0.086
-552.398	800.000	0.085	0.372
-551.383	-130.816	0.126	-0.017
-550.369	-114.385	-0.122	0.024
-549.354	193.486	-0.113	0.171
-548.339	-101.763	0.139	-0.034
-547.325	-200.000	0.008	-0.187
-546.310	354.093	-0.111	0.222
-545.296	650.112	-0.082	-0.209
-544.281	-200.000	0.031	-0.165
-543.266	-49.291	-0.038	0.018
-542.252	66.369	0.130	-0.132
-541.237	-200.000	0.010	0.063
-540.223	-163.999	0.403	0.019
-539.208	282.751	0.249	-0.447
-538.193	800.000	0.017	-0.067
-537.179	592.443	0.164	0.405
-536.164	800.000	-0.039	0.152
-535.150	428.163	0.168	-0.363
-534.135	82.999	-0.247	0.269
-533.121	540.449	-0.038	-0.092
-532.106	378.847	-0.109	0.224
-531.091	-109.903	-0.267	0.056
-530.077	40.807	0.307	-0.278
-529.062	119.715	-0.149	0.185
-528.048	-200.000	-0.072	-0.701
-527.033	-200.000	0.001	-0.136
-526.018	800.000	-0.060	-0.193
-525.004	-129.049	0.447	-0.063
-523.989	265.996	-0.246	-0.429
-522.975	-30.300	-0.207	-0.117
-521.960	-200.000	0.007	0.189
-520.945	-76.576	-0.090	0.032
-519.931	177.730	0.183	0.267
-518.916	27.825	0.051	0.043
-517.902	282.251	0.199	0.357
-516.887	-200.000	0.019	-0.126
-515.872	316.488	-0.159	-0.301
-514.858	-137.735	0.184	0.021
-513.843	-200.000	0.030	-0.159
-512.829	-2.598	-0.129	-0.090
-511.814	697.947	-0.191	-0.502
-510.799	-45.571	0.174	-0.086
-509.785	198.587	-0.067	-0.102
-508.770	124.399	0.267	-0.336
-507.756	31.360	-0.197	-0.170
-506.741	-22.532	0.127	-0.077
-505.726	34.061	-0.196	0.171
-504.712	-142.118	-0.206	0.020
-503.697	15.778	-0.100	-0.079
-502.683	-61.173	0.304	0.128
-501.668	-140.419	-0.145	-0.015
-500.653	56.146	-0.190	0.184
-499.639	421.543	-0.052	0.111
-498.624	-13.273	0.136	-0.088
-497.610	233.927	0.015	0.025
-496.595	-54.326	-0.238	-0.108
-495.581	-200.000	0.034	-0.449
-494.566	800.000	-0.034	0.118
-493.551	42.896	0.264	-0.240
-492.537	145.432	-0.193	0.259
-491.522	-79.362	-0.033	-0.011
-490.508	800.000	0.056	0.205
-489.493	-44.100	-0.144	0.072
-488.478	-200.000	0.021	-0.334
-487.464	64.792	0.044	-0.044
-486.449	-154.458	-0.047	-0.003
-485.435	283.565	0.025	0.045
-484.420	-136.218	-0.175	0.020
-483.405	-140.812	0.403	-0.042
-482.391	-200.000	0.006	-0.053
-481.376	48.840	-0.105	-0.099
-480.362	-145.191	-0.100	-0.009
-479.347	179.381	-0.160	0.235
-478.332	-200.000	0.004	-0.029
-477.318	61.006	-0.152	0.151
-476.303	127.918	0.185	-0.235
-475.289	-200.000	-0.035	0.261
-474.274	74.086	0.256	0.268
-473.259	48.761	0.209	-0.196
-472.245	800.000	0.010	-0.033
-471.230	54.785	0.222	0.214
-470.216	-167.429	-0.368	-0.015
-469.201	-41.699	0.312	0.160
-468.186	-200.000	0.078	0.409
-467.172	-14.938	0.179	0.115
-466.157	43.970	0.048	0.044
-465.143	-200.000	-0.004	0.081
-464.128	-200.000	-0.034	-0.165
-463.113	-126.783	-0.065	0.010
-462.099	65.631	-0.209	0.211
-461.084	30.667	-0.142	0.122
-460.070	25.251	0.102	-0.085
-459.055	-105.852	0.229	-0.052
-458.040	-92.957	-0.349	0.097
-457.026	-28.437	0.294	0.169
-456.011	800.000	0.127	0.398
-454.997	800.000	-0.049	0.158
-453.982	187.662	0.130	-0.193
-452.968	-106.859	0.120	0.027
-451.953	190.636	0.045	0.068
-450.938	-200.000	-0.020	0.177
-449.924	-145.955	0.134	0.012
-448.909	-181.857	-0.185	-0.004
-447.895	-17.164	-0.272	0.172
-446.880	800.000	-0.142	-0.471
-445.865	49.404	-0.175	0.164
-444.851	-200.000	-0.026	-0.285
-443.836	-200.000	0.031	-0.180
-442.822	-200.000	0.018	0.169
-441.807	-45.883	-0.145	-0.071
-440.792	-155.984	0.212	0.013
-439.778	-200.000	0.058	0.468
-438.763	376.357	-0.138	0.280
-437.749	139.268	-0.279	0.366
-436.734	-127.920	-0.153	-0.022
-435.719	800.000	-0.061	-0.248
-434.705	51.603	-0.145	0.138
-433.690	-63.036	0.127	-0.052
-432.676	126.960	-0.067	0.084
-431.661	-73.058	0.158	0.058
-430.646	42.077	-0.030	-0.027
-429.632	366.704	0.010	-0.020
-428.617	72.571	-0.122	-0.126
-427.603	-187.768	0.101	0.001
-426.588	7.909	-0.008	-0.006
-425.573	800.000	-0.069	-0.273
-424.559	381.946	-0.180	0.368
-423.544	268.764	0.157	0.275
-422.530	158.015	0.198	-0.274
-421.515	225.274	0.033	0.054
-420.500	800.000	-0.029	-0.115
-419.486	24.212	0.136	-0.112
-418.471	-36.934	-0.120	-0.064
-417.457	-178.609	-0.221	-0.005
-416.442	-45.558	0.366	0.181
-415.428	21.915	0.155	0.126
-414.413	-117.915	0.295	0.053
-413.398	-161.271	0.304	0.016
-412.384	-69.340	-0.207	-0.079
-411.369	718.887	0.010	0.026
-410.355	-200.000	0.019	-0.220
-409.340	-163.967	-0.141	-0.007
-408.325	251.591	-0.174	-0.295
-407.311	-22.804	0.207	0.124
-406.296	122.384	0.084	0.104
-405.282	85.045	0.080	0.087
-404.267	-200.000	0.013	0.202
-403.252	-159.947	0.076	0.004
-402.238	-200.000	-0.022	0.101
-401.223	523.759	-0.085	0.199
-400.209	13.588	0.199	0.154
-399.194	162.952	-0.173	-0.242
-398.179	800.000	0.121	0.384
-397.165	-25.676	0.163	-0.096
-396.150	-96.039	0.107	0.028
-395.136	-60.609	-0.112	0.048
-394.121	18.365	-0.045	0.036
-393.106	-99.801	0.038	0.009
-392.092	699.923	0.069	-0.180
-391.077	17.555	0.053	-0.042
-390.063	3.081	0.069	0.050
-389.048	-53.560	0.167	0.076
-388.033	-77.803	0.130	-0.045
-387.019	800.000	0.140	-0.409
-386.004	-13.486	0.100	-0.065
-384.990	-200.000	-0.004	0.097
-383.975	-200.000	0.084	-0.424
-382.960	-13.129	-0.285	-0.184
-381.946	-147.535	0.229	-0.019
-380.931	-61.082	0.221	-0.093
-379.917	-106.752	-0.172	-0.038
-378.902	54.389	-0.193	-0.185
-377.888	800.000	-0.051	-0.208
-376.873	204.621	0.199	-0.307
-375.858	-85.549	-0.114	-0.035
-374.844	107.109	0.173	0.205
-373.829	-26.648	-0.253	0.147
-372.815	225.657	0.063	-0.102
-371.800	-200.000	0.008	0.185
-370.785	800.000	0.067	-0.261
-369.771	800.000	-0.069	0.232
-368.756	75.982	0.144	0.151
-367.742	-82.598	-0.355	0.115
-366.727	-70.082	0.159	-0.060
-365.712	470.816	0.069	0.154
-364.698	70.771	-0.060	0.062
-363.683	-200.000	0.074	0.352
-362.669	245.244	0.084	-0.141
-361.654	800.000	0.039	-0.115
-360.639	-95.407	-0.198	-0.053
-359.625	202.039	-0.084	0.128
-358.610	-200.000	-0.008	0.045
-357.596	800.000	0.053	0.154
-356.581	179.761	-0.142	-0.206
-355.566	-26.536	0.208	-0.121
-354.552	598.011	0.032	0.079
-353.537	236.736	0.138	-0.228
-352.523	-96.104	0.257	0.068
-351.508	355.414	-0.119	0.236
-350.493	-115.608	0.239	0.045
-349.479	-25.732	-0.240	-0.141
-348.464	-163.226	0.228	-0.011
-347.450	16.942	0.312	0.246
-346.435	36.580	-0.024	-0.021
-345.420	19.222	-0.451	-0.360
-344.406	-200.000	-0.008	0.275
-343.391	70.532	0.173	-0.178
-342.377	-126.842	0.399	0.058
-341.362	-81.190	-0.129	0.042
-340.348	-200.000	-0.016	0.193
-339.333	-173.426	-0.327	0.010
-338.318	1.709	-0.320	-0.229
-337.304	800.000	0.025	0.098
-336.289	-200.000	0.011	-0.072
-335.275	-121.125	-0.146	0.024
-334.260	-200.000	-0.070	0.312
-333.245	-154.283	0.194	0.013
-332.231	-97.722	-0.192	0.049
-331.216	-200.000	0.001	-0.033
-330.202	-166.495	-0.380	-0.016
-329.187	800.000	-0.076	0.252
-328.172	-200.000	0.068	0.305
-327.158	59.273	0.269	-0.264
-326.143	-94.676	-0.249	-0.067
-325.129	-86.992	0.010	-0.003
-324.114	800.000	-0.046	-0.149
-323.099	401.198	0.075	0.156
-322.085	-169.044	0.188	0.007
-321.070	-73.550	0.072	-0.026
-320.056	67.912	0.272	0.276
-319.041	-131.664	-0.308	0.040
-318.026	37.698	-0.189	0.167
-317.012	37.946	0.108	0.095
-315.997	395.874	0.170	0.352
-314.983	-79.476	-0.162	-0.054
-313.968	348.090	-0.071	-0.139
-312.953	-200.000	0.006	0.040
-311.939	-123.236	0.436	0.069
-310.924	32.454	-0.137	0.118
-309.910	275.311	-0.124	0.219
-308.895	-200.000	0.004	0.068
-307.880	57.377	0.082	-0.079
-306.866	7.351	0.199	-0.148
-305.851	455.823	-0.145	0.320
-304.837	222.116	-0.029	0.047
-303.822	-200.000	0.008	0.100
-302.807	245.993	0.107	-0.179
-301.793	-42.257	0.248	-0.126
-300.778	48.600	-0.113	-0.105
-299.764	427.763	-0.154	0.330
-298.749	-59.694	0.196	0.084
-297.735	151.401	0.157	-0.212
-296.720	129.045	0.122	-0.154
-295.705	-200.000	0.005	-0.109
-294.691	37.734	0.138	0.122
-293.676	-200.000	0.070	0.370
-292.662	246.601	0.061	0.102
-291.647	128.354	-0.195	0.247
-290.632	49.810	0.210	0.197
-289.618	34.907	0.193	0.167
-288.603	573.699	0.061	-0.147
-287.589	78.787	0.101	0.108
-286.574	-178.450	-0.098	0.002
-285.559	197.742	-0.260	0.395
-284.545	-99.989	0.249	0.062
-283.530	-200.000	0.041	0.191
-282.516	-200.000	0.006	0.050
-281.501	-63.284	-0.362	0.148
-280.486	56.978	-0.157	0.152
-279.472	-60.082	-0.084	0.036
-278.457	800.000	0.048	-0.197
-277.443	40.762	0.198	0.177
-276.428	800.000	0.049	-0.144
-275.413	-159.920	0.165	-0.009
-274.399	87.896	-0.124	0.136
-273.384	124.855	0.264	-0.330
-272.370	-78.333	0.290	0.099
-271.355	135.784	-0.097	0.125
-270.340	-52.321	-0.229	0.105
-269.326	478.407	-0.105	0.235
-268.311	122.520	-0.162	0.201
-267.297	-14.395	-0.329	0.210
-266.282	-78.186	0.081	-0.028
-265.267	167.673	0.055	0.078
-264.253	-137.280	0.159	-0.018
-263.238	172.569	0.083	-0.118
-262.224	224.036	0.113	0.180
-261.209	-8.491	-0.120	0.080
-260.195	206.765	-0.112	-0.173
-259.180	23.534	-0.152	-0.124
-258.165	13.970	-0.085	0.065
-257.151	-69.243	-0.185	-0.071
-256.136	-200.000	0.073	-0.372
-255.122	-17.664	0.193	0.120
-254.107	800.000	0.011	-0.036
-253.092	-4.372	0.252	0.173
-252.078	546.633	0.082	0.195
-251.063	-150.477	-0.290	-0.022
-250.049	167.709	-0.215	-0.303
-249.034	236.102	-0.169	-0.276
-248.019	86.967	0.173	-0.190
-247.005	-80.141	-0.260	0.086
-245.990	711.518	-0.070	-0.184
-244.976	-200.000	-0.024	0.167
-243.961	-57.904	-0.139	-0.060
-242.946	-124.899	0.106	0.016
-241.932	142.546	-0.223	0.294
-240.917	-71.885	0.270	0.100
-239.903	25.149	0.063	0.052
-238.888	-99.131	0.174	-0.044
-237.873	44.395	0.256	0.233
-236.859	258.231	0.186	-0.316
-235.844	-8.470	0.248	-0.165
-234.830	-188.114	0.177	-0.002
-233.815	-104.407	-0.376	-0.086
-232.800	-121.876	0.114	-0.019
-231.786	800.000	-0.054	-0.196
-230.771	-133.445	-0.018	-0.002
-229.757	-39.405	-0.108	-0.056
-228.742	-38.502	0.298	-0.156
-227.727	34.732	-0.271	-0.234
-226.713	800.000	-0.045	-0.141
-225.698	-121.704	-0.187	-0.031
-224.684	20.438	0.111	-0.088
-223.669	-43.005	0.054	0.027
-222.655	-10.224	0.206	0.135
-221.640	165.427	-0.122	0.171
-220.625	95.048	0.186	0.209
-219.611	800.000	-0.027	0.078
-218.596	24.996	-0.438	-0.360
-217.582	31.627	-0.139	0.118
-216.567	-68.974	-0.181	0.069
-215.552	800.000	-0.156	-0.460
-214.538	533.720	0.101	-0.236
-213.523	-37.893	0.079	-0.041
-212.509	102.070	0.223	-0.257
-211.494	62.372	0.111	-0.110
-210.479	2.141	-0.185	0.132
-209.465	19.891	0.242	0.193
-208.450	800.000	-0.124	-0.485
-207.436	31.614	-0.273	-0.232
-206.421	800.000	-0.108	-0.295
-205.406	-4.758	0.454	-0.310
-204.392	-200.000	0.060	-0.305
-203.377	13.202	-0.160	-0.122
-202.363	114.347	0.073	-0.088
-201.348	-131.387	0.242	0.032
-200.333	-47.976	-0.231	0.110
-199.319	34.353	-0.292	-0.252
-198.304	-132.109	0.238	0.031
-197.290	165.154	-0.046	0.065
-196.275	-124.515	0.290	0.045
-195.260	-200.000	-0.001	-0.080
-194.246	-94.050	0.232	0.063
-193.231	-200.000	-0.010	0.050
-192.217	-49.616	0.052	-0.025
-191.202	53.209	0.071	-0.067
-190.187	96.301	-0.226	-0.256
-189.173	27.906	-0.137	-0.114
-188.158	111.148	-0.061	-0.073
-187.144	800.000	-0.095	-0.308
-186.129	38.069	0.206	-0.181
-185.114	22.262	0.085	0.068
-184.100	25.810	-0.150	0.124
-183.085	108.423	-0.236	-0.279
-182.071	46.803	-0.023	0.022
-181.056	-71.069	0.089	0.033
-180.042	-200.000	0.033	0.233
-179.027	-172.410	-0.233	0.007
-178.012	5.500	-0.165	-0.121
-176.998	-100.499	0.341	0.083
-175.983	101.745	-0.160	0.184
-174.969	354.620	0.018	-0.036
-173.954	332.618	-0.062	-0.117
-172.939	-147.557	0.149	-0.012
-171.925	61.746	0.009	-0.009
-170.910	-20.434	0.265	-0.161
-169.896	-22.899	-0.141	0.084
-168.881	44.615	0.136	-0.123
-167.866	-33.188	-0.293	-0.160
-166.852	-95.773	0.187	0.049
-165.837	17.802	0.164	0.129
-164.823	-37.399	0.012	-0.006
-163.808	-200.000	-0.033	0.189
-162.793	-88.636	-0.254	0.075
-161.779	154.574	-0.188	0.255
-160.764	-200.000	-0.025	-0.214
-159.750	-200.000	-0.041	-0.224
-158.735	-200.000	0.045	0.308
-157.720	-144.265	0.092	-0.008
-156.706	179.884	-0.253	0.365
-155.691	-200.000	-0.023	-0.177
-154.677	-200.000	0.001	0.008
-153.662	-26.843	0.051	0.029
-152.647	800.000	-0.065	0.245
-151.633	-60.664	-0.198	0.083
-150.618	-200.000	-0.012	0.126
-149.604	-200.000	-0.237	0.000
-148.589	-122.917	-0.078	-0.012
-147.574	-116.296	0.122	0.022
-146.560	-79.465	0.304	0.101
-145.545	-94.636	0.330	-0.088
-144.531	51.311	0.375	0.352
-143.516	-200.000	0.044	0.352
-142.502	-200.000	0.036	0.473
-141.487	107.036	0.077	0.090
-140.472	-162.694	-0.214	-0.010
-139.458	-54.956	0.488	-0.217
-138.443	-40.027	-0.261	0.134
-137.429	-200.000	0.076	0.330
-136.414	-26.577	-0.088	-0.051
-135.399	151.974	-0.103	0.139
-134.385	125.813	0.175	0.218
-133.370	-85.435	0.147	0.045
-132.356	519.425	0.126	0.290
-131.341	161.998	-0.052	0.072
-130.326	-120.492	0.250	-0.042
-129.312	598.223	0.094	0.229
-128.297	-122.212	-0.264	-0.043
-127.283	30.633	0.391	-0.330
-126.268	508.389	-0.034	0.078
-125.253	126.615	-0.204	0.254
-124.239	-99.761	0.132	-0.032
-123.224	-47.771	-0.176	0.084
-122.210	-39.239	0.357	-0.185
-121.195	479.504	-0.033	0.074
