DTS Sentinel unit serial number:	SN413079Multiplexer serial number:	ORYXHardware model number:	OX4-SRSoftware version number:	ORYX F/W v4.00 Oryx Data Collector v3.7.2.0data status	okinstallation	princeton_trtdifferential loss correction	single-endedforward channel	channel 2reverse channel	N/Adate	2019/09/15time	10:15:34forward acquisition time	60.00reverse acquisition time	0.00gamma	496.2192k internal	0.2316k external	0.2316temperature offset calibration	1.0015default loss term (dB/km)	0.3790temperature slope calibration	1.0000multiplexer offset coefficient	1.0000multiplexer slope coefficient	1.0000fibre end	0.00T internal ref (°C)	34.25T ext. ref 1 (°C)	5.02T ext. ref 2 (°C)	29.69length (m)	temperature (°C)	Stokes	anti-Stokes-747.200	372.910	0.168	-0.346
-746.185	140.706	0.097	0.130
-745.171	-72.858	0.239	-0.089
-744.156	267.148	-0.054	0.096
-743.142	-83.441	0.312	-0.101
-742.127	367.985	-0.105	0.215
-741.112	67.644	0.037	0.038
-740.098	-200.000	0.059	0.272
-739.083	-200.000	-0.049	-0.282
-738.069	-170.174	0.136	-0.005
-737.054	-14.442	-0.094	0.061
-736.039	288.419	-0.128	0.234
-735.025	94.155	0.147	0.168
-734.010	527.081	-0.156	-0.372
-732.996	-27.024	-0.268	0.159
-731.981	-200.000	0.014	-0.110
-730.966	-29.379	-0.331	-0.192
-729.952	206.305	-0.107	-0.169
-728.937	91.125	-0.158	0.179
-727.923	800.000	-0.044	0.176
-726.908	-97.088	0.134	-0.035
-725.894	107.441	-0.160	-0.193
-724.879	50.868	-0.122	-0.117
-723.864	148.754	0.104	0.142
-722.850	-132.548	-0.224	0.029
-721.835	-200.000	-0.058	-0.272
-720.821	-170.495	-0.104	-0.004
-719.806	-31.208	0.085	0.048
-718.791	-96.758	0.187	-0.050
-717.777	-57.361	-0.038	-0.017
-716.762	-107.162	-0.151	0.034
-715.748	-92.189	-0.124	-0.035
-714.733	800.000	-0.126	-0.371
-713.718	234.779	0.119	-0.199
-712.704	-77.204	-0.386	0.136
-711.689	-200.000	0.002	-0.029
-710.675	110.544	-0.310	-0.377
-709.660	-26.182	0.136	0.081
-708.645	800.000	-0.022	0.083
-707.631	77.065	0.126	-0.136
-706.616	91.852	-0.165	0.188
-705.602	800.000	0.091	-0.301
-704.587	-67.760	-0.048	-0.019
-703.572	-200.000	-0.020	-0.121
-702.558	-50.273	-0.293	0.140
-701.543	-9.172	0.159	0.108
-700.529	6.675	-0.309	0.233
-699.514	-151.480	-0.139	0.010
-698.499	12.106	-0.340	-0.265
-697.485	-162.558	0.223	0.011
-696.470	507.418	-0.184	0.432
-695.456	-177.162	-0.425	0.011
-694.441	-200.000	-0.042	0.207
-693.426	100.766	0.083	-0.097
-692.412	10.813	-0.309	0.238
-691.397	-3.009	0.133	-0.094
-690.383	-32.368	-0.348	0.196
-689.368	-200.000	0.050	-0.450
-688.354	-200.000	-0.031	-0.317
-687.339	127.654	0.102	-0.130
-686.324	-2.906	-0.214	0.151
-685.310	355.335	0.090	-0.181
-684.295	-111.065	-0.397	-0.082
-683.281	104.062	-0.101	-0.120
-682.266	14.432	0.221	0.174
-681.251	723.941	-0.020	0.053
-680.237	39.126	-0.192	-0.174
-679.222	-89.950	-0.073	-0.021
-678.208	-152.126	0.128	0.009
-677.193	-181.855	-0.140	0.003
-676.178	15.909	-0.187	-0.149
-675.164	510.562	-0.089	0.210
-674.149	136.623	0.082	-0.109
-673.135	-89.836	0.106	0.031
-672.120	280.637	-0.101	0.183
-671.105	-104.432	-0.195	-0.046
-670.091	-200.000	-0.013	0.384
-669.076	-200.000	0.033	0.231
-668.062	-28.650	0.117	0.068
-667.047	-155.575	-0.274	0.018
-666.032	-31.970	0.025	-0.014
-665.018	615.446	-0.092	0.234
-664.003	12.551	-0.247	0.193
-662.989	-40.745	-0.209	0.109
-661.974	-67.765	-0.244	-0.097
-660.959	128.015	-0.119	-0.153
-659.945	800.000	0.136	0.440
-658.930	800.000	0.044	-0.190
-657.916	-26.676	-0.140	-0.083
-656.901	-200.000	0.011	0.237
-655.886	25.565	0.028	-0.023
-654.872	-120.186	-0.147	0.025
-653.857	81.672	0.088	-0.097
-652.843	196.578	-0.072	-0.111
-651.828	245.424	-0.051	-0.087
-650.814	-200.000	-0.017	-0.152
-649.799	800.000	-0.033	-0.123
-648.784	49.988	0.088	-0.084
-647.770	341.726	-0.061	-0.120
-646.755	800.000	-0.034	0.100
-645.741	-200.000	-0.029	-0.327
-644.726	116.868	0.020	-0.025
-643.711	-0.095	-0.343	0.246
-642.697	-200.000	-0.037	0.240
-641.682	-200.000	0.020	-0.316
-640.668	-127.977	-0.261	0.038
-639.653	-149.963	0.064	0.005
-638.638	-149.049	-0.380	-0.031
-637.624	-200.000	0.008	0.068
-636.609	709.861	0.025	0.066
-635.595	798.182	-0.161	-0.449
-634.580	-200.000	-0.029	-0.547
-633.565	55.949	-0.046	-0.045
-632.551	164.305	0.127	0.180
-631.536	-200.000	0.010	0.095
-630.522	-63.318	0.164	0.068
-629.507	-61.718	0.129	0.054
-628.492	-10.754	0.083	-0.056
-627.478	-72.493	0.033	0.012
-626.463	-200.000	-0.014	-0.289
-625.449	-29.661	-0.098	-0.056
-624.434	328.013	0.065	-0.126
-623.419	-54.901	-0.325	0.148
-622.405	-132.014	-0.257	0.034
-621.390	282.339	0.170	-0.307
-620.376	800.000	-0.017	-0.068
-619.361	-81.566	-0.196	0.065
-618.346	-139.717	-0.136	0.015
-617.332	401.700	0.128	-0.272
-616.317	-174.380	0.290	-0.008
-615.303	-65.001	-0.220	0.090
-614.288	349.757	-0.114	0.227
-613.273	-93.183	0.108	-0.030
-612.259	-40.784	-0.188	-0.098
-611.244	-144.623	-0.079	0.007
-610.230	-129.280	-0.173	0.024
-609.215	800.000	0.111	0.361
-608.201	-76.901	0.074	0.026
-607.186	-11.449	-0.270	0.179
-606.171	-184.414	-0.461	0.008
-605.157	-200.000	0.019	0.107
-604.142	-200.000	0.021	0.186
-603.128	109.174	-0.092	0.111
-602.113	-50.619	0.178	0.085
-601.098	-200.000	-0.045	0.253
-600.084	-109.068	0.160	-0.034
-599.069	-66.626	-0.169	0.068
-598.055	-26.481	0.299	0.176
-597.040	-83.095	-0.249	0.081
-596.025	-1.346	-0.111	-0.079
-595.011	419.813	-0.122	-0.263
-593.996	-200.000	-0.011	0.104
-592.982	-200.000	0.027	0.301
-591.967	-96.934	-0.228	0.060
-590.952	-118.704	-0.115	0.020
-589.938	375.773	-0.093	-0.192
-588.923	800.000	-0.099	0.423
-587.909	197.574	0.281	-0.432
-586.894	11.332	-0.135	0.104
-585.879	423.980	-0.146	-0.317
-584.865	-200.000	0.010	-0.071
-583.850	-84.080	0.162	-0.052
-582.836	81.376	0.168	0.182
-581.821	4.215	0.340	0.251
-580.806	-32.272	0.368	0.207
-579.792	-155.217	0.140	-0.009
-578.777	-200.000	-0.003	0.411
-577.763	-116.226	-0.252	-0.047
-576.748	141.580	0.125	0.167
-575.733	396.769	-0.132	0.277
-574.719	412.420	-0.096	-0.206
-573.704	-200.000	0.034	-0.158
-572.690	101.013	0.118	0.138
-571.675	-200.000	-0.006	-0.237
-570.661	287.124	-0.180	0.328
-569.646	102.772	-0.179	0.210
-568.631	-200.000	0.004	-0.022
-567.617	26.468	0.126	0.106
-566.602	14.557	-0.117	-0.092
-565.588	58.065	0.175	-0.173
-564.573	-22.104	0.092	-0.056
-563.558	21.439	-0.281	-0.230
-562.544	-33.860	-0.245	0.136
-561.529	800.000	0.079	0.224
-560.515	-8.092	0.086	0.058
-559.500	-200.000	-0.014	-0.153
-558.485	-193.076	0.268	0.002
-557.471	555.507	-0.097	0.234
-556.456	-135.745	0.102	0.012
-555.442	-200.000	-0.004	0.152
-554.427	544.515	0.096	-0.231
-553.412	85.432	-0.161	-0.177
-552.398	210.191	-0.137	0.216
-551.383	24.251	0.140	-0.117
-550.369	-200.000	-0.005	0.182
-549.354	-66.821	0.216	-0.086
-548.339	-76.592	0.094	0.033
-547.325	185.341	-0.224	0.334
-546.310	-200.000	-0.064	0.302
-545.296	-99.914	0.503	0.126
-544.281	-200.000	-0.012	0.072
-543.266	-17.276	-0.148	0.093
-542.252	-72.748	0.282	0.105
-541.237	-22.302	-0.082	-0.050
-540.223	-53.025	0.147	-0.068
-539.208	-40.786	0.146	0.076
-538.193	209.025	-0.217	-0.342
-537.179	98.875	0.070	0.082
-536.164	232.675	-0.102	-0.169
-535.150	-114.610	0.182	-0.035
-534.135	-6.898	-0.112	-0.076
-533.121	-139.182	-0.266	0.029
-532.106	-70.287	-0.099	-0.038
-531.091	126.138	0.167	-0.212
-530.077	-7.626	0.138	-0.094
-529.062	-149.111	-0.418	0.034
-528.048	-200.000	-0.046	0.263
-527.033	275.725	0.080	0.143
-526.018	151.252	-0.117	0.160
-525.004	-17.528	0.111	-0.070
-523.989	800.000	-0.041	-0.127
-522.975	210.584	-0.126	-0.198
-521.960	47.223	-0.149	0.139
-520.945	-2.776	0.116	0.081
-519.931	-183.522	0.075	-0.001
-518.916	184.666	0.178	-0.265
-517.902	49.230	0.063	-0.060
-516.887	67.381	-0.104	0.106
-515.872	-200.000	-0.013	0.212
-514.858	-112.401	-0.070	0.014
-513.843	800.000	-0.031	0.097
-512.829	150.378	-0.129	-0.176
-511.814	800.000	-0.032	-0.098
-510.799	-111.289	0.077	-0.016
-509.785	-10.682	-0.086	-0.057
-508.770	-41.126	0.096	-0.050
-507.756	82.668	-0.214	0.234
-506.741	63.696	-0.078	0.078
-505.726	296.986	0.098	-0.180
-504.712	-200.000	-0.011	0.467
-503.697	-124.843	0.239	0.037
-502.683	20.552	0.128	-0.104
-501.668	800.000	-0.051	0.158
-500.653	-24.508	0.119	0.071
-499.639	-117.565	-0.303	-0.055
-498.624	659.860	-0.053	-0.136
-497.610	419.256	0.123	0.264
-496.595	246.604	-0.183	-0.310
-495.581	-117.509	-0.221	-0.040
-494.566	-166.213	0.454	-0.019
-493.551	212.327	0.137	-0.216
-492.537	144.463	-0.092	0.124
-491.522	-200.000	-0.015	-0.247
-490.508	-200.000	0.006	0.163
-489.493	108.373	0.057	0.068
-488.478	190.500	0.242	-0.365
-487.464	-200.000	-0.004	-0.086
-486.449	-127.159	-0.256	-0.038
-485.435	431.075	-0.061	-0.133
-484.420	147.333	0.315	-0.426
-483.405	-177.258	-0.311	0.008
-482.391	105.819	0.079	-0.093
-481.376	149.319	-0.019	0.025
-480.362	800.000	0.030	0.121
-479.347	-60.705	-0.224	0.095
-478.332	119.414	-0.043	-0.053
-477.318	-29.594	0.164	-0.094
-476.303	-144.407	-0.273	0.025
-475.289	800.000	-0.031	0.093
-474.274	4.526	0.251	-0.185
-473.259	-200.000	-0.056	-0.322
-472.245	-200.000	-0.008	0.090
-471.230	147.970	-0.253	-0.342
-470.216	61.835	-0.295	-0.294
-469.201	-200.000	0.035	-0.168
-468.186	242.459	-0.077	-0.130
-467.172	35.698	0.094	-0.083
-466.157	171.509	-0.159	0.228
-465.143	-84.016	-0.130	-0.041
-464.128	-151.714	-0.764	0.056
-463.113	-57.481	0.195	0.086
-462.099	-161.995	-0.300	0.015
-461.084	-51.150	0.247	0.116
-460.070	122.263	0.121	0.152
-459.055	800.000	-0.112	0.334
-458.040	800.000	-0.073	0.254
-457.026	24.816	0.218	0.181
-456.011	438.907	0.099	0.217
-454.997	800.000	-0.067	-0.226
-453.982	-59.898	-0.269	0.115
-452.968	-1.248	-0.245	-0.173
-451.953	-8.937	0.246	-0.165
-450.938	-91.957	0.084	0.024
-449.924	1.525	0.269	0.194
-448.909	-22.758	0.019	-0.012
-447.895	800.000	0.047	-0.141
-446.880	-123.788	-0.300	-0.047
-445.865	-200.000	-0.040	-0.194
-444.851	146.334	0.307	-0.413
-443.836	-29.234	-0.247	0.142
-442.822	-103.360	-0.070	-0.016
-441.807	399.692	-0.118	-0.247
-440.792	164.306	-0.100	-0.142
-439.778	251.480	-0.128	0.219
-438.763	28.331	-0.157	-0.133
-437.749	-200.000	0.039	-0.360
-436.734	-21.185	-0.234	0.143
-435.719	-147.512	0.181	0.015
-434.705	-200.000	-0.001	-0.236
-433.690	535.218	0.103	-0.244
-432.676	161.910	0.268	0.376
-431.661	-200.000	0.007	0.059
-430.646	-51.430	0.228	0.107
-429.632	-55.264	-0.312	0.140
-428.617	564.149	-0.025	-0.060
-427.603	-194.587	0.296	-0.002
-426.588	-26.593	-0.055	-0.032
-425.573	-200.000	-0.032	-0.169
-424.559	-11.770	-0.231	-0.152
-423.544	33.919	-0.055	-0.048
-422.530	220.254	0.205	0.328
-421.515	-122.134	-0.321	-0.053
-420.500	121.017	-0.041	-0.051
-419.486	-200.000	-0.037	0.373
-418.471	288.884	0.029	0.053
-417.457	83.971	0.113	0.123
-416.442	-200.000	-0.010	0.111
-415.428	41.988	0.332	-0.302
-414.413	800.000	-0.031	-0.127
-413.398	389.124	0.066	-0.136
-412.384	800.000	-0.094	0.330
-411.369	-88.997	0.206	0.061
-410.355	131.110	0.253	-0.325
-409.340	-200.000	0.004	0.040
-408.325	-102.643	-0.076	-0.018
-407.311	-79.108	-0.186	-0.063
-406.296	300.682	0.152	-0.280
-405.282	329.843	0.047	-0.091
-404.267	-1.578	0.486	0.342
-403.252	328.238	0.069	-0.132
-402.238	32.127	-0.163	0.140
-401.223	164.387	0.077	-0.109
-400.209	-66.520	0.475	0.188
-399.194	-159.230	0.013	-0.001
-398.179	-20.069	-0.018	0.011
-397.165	35.795	0.234	-0.206
-396.150	-105.124	0.134	0.031
-395.136	183.063	-0.058	-0.086
-394.121	-124.670	0.141	0.022
-393.106	-140.872	-0.206	-0.021
-392.092	168.069	-0.079	-0.112
-391.077	67.063	0.160	-0.163
-390.063	111.226	-0.102	0.122
-389.048	231.984	0.095	0.156
-388.033	197.067	0.126	0.192
-387.019	353.872	-0.081	0.160
-386.004	174.525	0.264	-0.382
-384.990	169.074	0.101	-0.144
-383.975	-122.557	0.130	0.021
-382.960	22.943	-0.182	0.149
-381.946	-111.082	0.357	-0.073
-380.931	800.000	-0.090	-0.342
-379.917	-31.795	-0.275	0.154
-378.902	-136.858	0.110	-0.013
-377.888	-46.433	0.225	0.110
-376.873	-108.087	0.169	-0.037
-375.858	81.902	0.113	-0.122
-374.844	-175.240	-0.383	0.011
-373.829	86.671	0.244	-0.268
-372.815	800.000	-0.035	0.099
-371.800	146.203	-0.016	0.021
-370.785	431.382	-0.055	-0.120
-369.771	-139.149	-0.163	0.018
-368.756	96.969	0.113	0.129
-367.742	16.683	-0.044	0.035
-366.727	72.429	0.058	-0.060
-365.712	218.228	-0.236	-0.376
-364.698	37.919	0.126	0.112
-363.683	-22.110	-0.387	0.235
-362.669	68.065	-0.068	-0.070
-361.654	204.058	0.201	-0.311
-360.639	-200.000	-0.005	-0.085
-359.625	-119.487	0.211	-0.037
-358.610	714.385	0.026	-0.069
-357.596	-200.000	0.024	-0.334
-356.581	-135.672	0.349	-0.041
-355.566	-92.833	-0.306	-0.085
-354.552	136.854	-0.126	0.164
-353.537	273.505	-0.098	-0.173
-352.523	-200.000	0.001	0.117
-351.508	114.474	0.137	0.166
-350.493	-24.997	0.146	0.087
-349.479	60.027	-0.090	-0.089
-348.464	48.784	-0.228	0.213
-347.450	127.753	-0.113	0.143
-346.435	800.000	0.047	-0.154
-345.420	-200.000	-0.013	-0.160
-344.406	478.075	0.083	0.187
-343.391	182.664	-0.059	0.086
-342.377	-115.001	-0.207	-0.039
-341.362	635.052	0.116	-0.294
-340.348	-85.629	-0.075	0.023
-339.333	-11.064	-0.076	-0.050
-338.318	-83.645	-0.206	-0.066
-337.304	221.499	-0.091	-0.146
-336.289	70.668	-0.062	0.064
-335.275	-200.000	-0.052	0.241
-334.260	-66.794	-0.279	0.110
-333.245	-200.000	-0.009	-0.328
-332.231	127.679	0.041	0.051
-331.216	-112.515	-0.291	-0.058
-330.202	-53.542	0.194	-0.089
-329.187	135.671	-0.090	0.116
-328.172	749.456	0.043	0.115
-327.158	-127.377	-0.185	-0.027
-326.143	11.829	0.227	0.174
-325.129	-200.000	0.006	0.322
-324.114	-200.000	-0.048	0.246
-323.099	-48.458	0.466	-0.223
-322.085	-43.951	0.088	0.044
-321.070	-40.317	0.110	-0.057
-320.056	-130.550	0.224	0.030
-319.041	-104.636	-0.114	0.026
-318.026	-200.000	0.027	-0.267
-317.012	-102.508	-0.083	-0.020
-315.997	-110.994	0.310	0.063
-314.983	699.740	-0.110	0.289
-313.968	172.777	0.071	-0.102
-312.953	352.830	-0.116	-0.229
-311.939	-200.000	-0.013	-0.127
-310.924	-163.086	0.414	0.020
-309.910	-64.115	-0.222	0.090
-308.895	47.870	-0.284	-0.264
-307.880	586.491	0.054	0.132
-306.866	-13.395	0.181	0.117
-305.851	563.198	-0.112	-0.269
-304.837	-14.899	0.080	-0.051
-303.822	165.993	0.272	-0.383
-302.807	-40.345	-0.180	-0.093
-301.793	19.228	0.149	0.119
-300.778	-83.811	-0.343	0.109
-299.764	102.988	0.039	0.046
-298.749	-117.857	-0.138	0.025
-297.735	-57.333	0.100	0.044
-296.720	56.176	-0.311	-0.300
-295.705	-93.202	0.333	0.092
-294.691	-54.999	0.183	0.082
-293.676	50.930	-0.112	0.106
-292.662	495.558	0.011	0.026
-291.647	-200.000	0.024	0.185
-290.632	82.558	0.174	0.188
-289.618	800.000	0.051	0.214
-288.603	162.538	-0.091	-0.127
-287.589	-117.848	0.186	0.033
-286.574	-200.000	0.060	-0.380
-285.559	-200.000	0.036	0.213
-284.545	-18.100	-0.195	0.122
-283.530	800.000	-0.035	0.126
-282.516	-118.722	0.223	0.039
-281.501	-92.240	-0.143	-0.040
-280.486	-200.000	0.006	-0.103
-279.472	142.610	-0.089	0.117
-278.457	800.000	-0.029	0.119
-277.443	-200.000	0.003	-0.084
-276.428	800.000	0.104	-0.312
-275.413	84.925	-0.108	-0.118
-274.399	29.654	0.333	0.282
-273.384	-140.180	0.300	0.031
-272.370	-33.363	-0.093	0.051
-271.355	67.588	0.101	-0.103
-270.340	-175.867	-0.496	-0.013
-269.326	156.192	-0.154	-0.211
-268.311	-200.000	-0.026	-0.158
-267.297	154.710	-0.145	0.199
-266.282	-58.306	0.281	0.121
-265.267	-65.118	-0.189	0.076
-264.253	-200.000	-0.052	-0.395
-263.238	132.611	0.075	-0.097
-262.224	127.596	-0.115	0.145
-261.209	-132.124	-0.130	-0.017
-260.195	-111.674	0.432	-0.087
-259.180	338.127	0.097	0.188
-258.165	122.921	0.098	-0.122
-257.151	752.905	0.090	-0.241
-256.136	-185.523	0.198	0.003
-255.122	199.041	0.067	-0.102
-254.107	60.078	0.062	0.061
-253.092	9.805	0.086	-0.065
-252.078	-143.853	0.411	-0.039
-251.063	-200.000	-0.056	0.334
-250.049	-87.109	-0.136	-0.041
-249.034	36.173	-0.161	-0.141
-248.019	-127.472	-0.346	0.050
-247.005	-102.093	-0.159	-0.038
-245.990	-200.000	0.017	0.155
-244.976	234.610	-0.128	-0.209
-243.961	243.353	-0.014	0.023
-242.946	-80.255	-0.021	0.007
-241.932	-22.199	0.127	-0.077
-240.917	151.199	-0.045	-0.061
-239.903	-58.194	0.034	-0.015
-238.888	-21.749	0.070	-0.042
-237.873	-65.521	-0.221	-0.088
-236.859	800.000	0.028	0.108
-235.844	463.085	-0.155	0.343
-234.830	634.229	0.081	-0.204
-233.815	-200.000	-0.034	0.152
-232.800	207.428	0.119	0.184
-231.786	-200.000	0.011	0.049
-230.771	-37.549	0.388	-0.206
-229.757	-31.818	0.271	-0.151
-228.742	-1.270	-0.174	0.122
-227.727	-68.789	0.073	-0.028
-226.713	168.972	-0.114	-0.161
-225.698	-188.015	0.125	-0.002
-224.684	696.761	0.027	-0.070
-223.669	-72.356	-0.216	-0.079
-222.655	-93.517	0.234	-0.064
-221.640	0.137	0.076	-0.054
-220.625	-200.000	0.006	-0.251
-219.611	-138.224	0.291	-0.032
-218.596	160.698	-0.071	-0.098
-217.582	-200.000	0.046	0.228
-216.567	800.000	-0.044	-0.159
-215.552	71.775	-0.102	0.105
-214.538	800.000	0.022	-0.067
-213.523	-200.000	0.014	0.161
-212.509	-75.924	-0.162	0.057
-211.494	-44.069	0.091	-0.045
-210.479	-153.886	0.446	-0.030
-209.465	-200.000	0.007	0.146
-208.450	-16.936	-0.284	0.178
-207.436	230.293	0.052	-0.084
-206.421	142.030	0.058	0.076
-205.406	310.173	-0.056	0.105
-204.392	-200.000	-0.005	0.139
-203.377	-6.952	-0.241	0.162
-202.363	-200.000	0.003	-0.054
-201.348	48.175	0.279	-0.258
-200.333	670.237	0.100	0.257
-199.319	-200.000	0.006	0.086
-198.304	-200.000	0.036	0.349
-197.290	-118.796	0.144	0.025
-196.275	-200.000	-0.010	0.221
-195.260	67.411	-0.128	-0.130
-194.246	50.296	0.068	0.064
-193.231	800.000	-0.068	0.219
-192.217	-35.354	-0.223	-0.120
-191.202	-130.110	0.166	0.022
-190.187	-102.751	-0.465	-0.110
-189.173	197.759	-0.069	-0.105
-188.158	-85.576	0.281	-0.087
-187.144	-101.355	-0.214	0.052
-186.129	-42.989	-0.137	0.069
-185.114	-126.829	-0.089	-0.013
-184.100	19.592	0.282	0.225
-183.085	17.354	0.072	-0.056
-182.071	77.465	0.285	0.301
-181.056	-34.238	0.175	-0.095
-180.042	-22.189	-0.355	0.213
-179.027	-133.262	0.179	-0.022
-178.012	159.637	-0.163	0.225
-176.998	352.289	-0.086	-0.169
-175.983	-26.041	-0.211	0.123
-174.969	-200.000	-0.002	-0.167
-173.954	-152.407	0.167	0.012
-172.939	-56.667	0.050	0.022
-171.925	-200.000	-0.001	-0.322
-170.910	800.000	-0.043	0.163
-169.896	-146.860	0.117	0.010
-168.881	110.586	0.088	0.105
-167.866	-158.603	0.216	0.012
-166.852	59.303	0.136	0.133
-165.837	-200.000	0.014	-0.396
-164.823	105.270	0.201	-0.235
-163.808	-44.005	-0.213	0.106
-162.793	-115.609	-0.090	-0.017
-161.779	126.819	-0.175	0.219
-160.764	-112.210	0.209	-0.042
-159.750	-69.896	0.223	0.084
-158.735	-38.622	-0.065	0.034
-157.720	-101.809	0.127	0.030
-156.706	-200.000	0.033	0.334
-155.691	-200.000	0.029	0.321
-154.677	558.537	0.082	0.197
-153.662	57.992	-0.410	0.397
-152.647	-108.670	0.157	-0.033
-151.633	800.000	-0.089	-0.286
-150.618	-103.824	0.201	-0.047
-149.604	111.773	-0.185	0.221
-148.589	-132.682	-0.241	-0.031
-147.574	32.436	0.181	-0.155
-146.560	-200.000	0.033	0.156
-145.545	-61.018	-0.378	-0.158
-144.531	-31.349	-0.068	0.038
-143.516	-200.000	0.010	0.056
-142.502	-47.708	0.240	-0.115
-141.487	6.123	0.220	-0.161
-140.472	-140.152	-0.127	-0.013
-139.458	31.468	-0.076	-0.065
-138.443	-200.000	0.042	0.289
-137.429	121.507	-0.074	-0.092
-136.414	-28.034	0.178	-0.102
-135.399	-158.359	-0.243	0.014
-134.385	21.978	-0.279	0.225
-133.370	70.172	-0.057	0.058
-132.356	-200.000	-0.003	-0.148
-131.341	-63.892	0.360	-0.146
-130.326	-200.000	0.017	-0.272
-129.312	28.199	0.193	0.161
-128.297	-94.855	0.161	0.043
-127.283	-43.391	0.446	0.223
-126.268	381.114	-0.062	0.126
-125.253	800.000	0.023	0.078
-124.239	-91.892	0.179	0.050
-123.224	-14.178	0.064	0.041
-122.210	-47.394	0.024	0.012
