DTS Sentinel unit serial number:	SN413079Multiplexer serial number:	ORYXHardware model number:	OX4-SRSoftware version number:	ORYX F/W v4.00 Oryx Data Collector v3.7.2.0data status	okinstallation	princeton_trtdifferential loss correction	single-endedforward channel	channel 2reverse channel	N/Adate	2019/09/14time	17:15:35forward acquisition time	60.00reverse acquisition time	0.00gamma	496.2192k internal	0.2309k external	0.2309temperature offset calibration	1.0119default loss term (dB/km)	0.3790temperature slope calibration	1.0000multiplexer offset coefficient	1.0000multiplexer slope coefficient	1.0000fibre end	0.00T internal ref (°C)	37.92T ext. ref 1 (°C)	5.03T ext. ref 2 (°C)	32.81length (m)	temperature (°C)	Stokes	anti-Stokes-747.200	82.518	-0.125	0.138
-746.185	800.000	0.056	0.182
-745.171	-55.678	-0.271	0.123
-744.156	-200.000	0.041	0.196
-743.142	500.623	0.090	-0.210
-742.127	-200.000	0.018	-0.196
-741.112	-92.149	0.227	0.065
-740.098	-0.592	-0.134	0.097
-739.083	-179.317	0.115	-0.003
-738.069	-14.548	0.283	0.185
-737.054	149.581	0.087	-0.120
-736.039	-53.020	0.102	0.048
-735.025	-50.461	-0.209	0.100
-734.010	800.000	0.103	-0.296
-732.996	800.000	-0.066	-0.272
-731.981	25.320	-0.395	-0.333
-730.966	47.627	0.137	-0.130
-729.952	-200.000	-0.039	-0.272
-728.937	-142.274	0.160	-0.016
-727.923	437.896	0.038	-0.084
-726.908	-172.632	-0.230	0.007
-725.894	800.000	0.074	0.288
-724.879	10.450	-0.151	0.117
-723.864	-200.000	0.013	0.237
-722.850	-122.459	0.183	0.030
-721.835	800.000	-0.123	0.504
-720.821	-70.424	0.307	-0.118
-719.806	-200.000	-0.004	-0.180
-718.791	246.792	-0.181	-0.310
-717.777	-23.661	-0.083	-0.051
-716.762	-127.259	-0.011	-0.002
-715.748	26.058	-0.212	-0.180
-714.733	185.008	0.121	0.182
-713.718	31.346	-0.280	0.244
-712.704	-200.000	0.034	-0.243
-711.689	218.712	0.244	0.396
-710.675	133.248	-0.119	0.156
-709.660	-40.825	0.213	-0.112
-708.645	735.445	-0.064	-0.173
-707.631	96.315	-0.107	-0.124
-706.616	798.168	-0.104	-0.291
-705.602	800.000	-0.075	-0.282
-704.587	1.564	-0.277	-0.202
-703.572	-115.710	0.186	-0.035
-702.558	178.859	-0.231	0.343
-701.543	-161.911	0.232	0.012
-700.529	58.598	-0.135	-0.135
-699.514	-200.000	0.015	0.262
-698.499	406.482	-0.139	-0.297
-697.485	800.000	0.078	-0.270
-696.470	-141.575	0.230	0.024
-695.456	648.429	-0.038	0.099
-694.441	-200.000	-0.017	0.105
-693.426	-87.704	-0.087	-0.027
-692.412	99.474	-0.076	-0.089
-691.397	-200.000	0.021	-0.216
-690.383	48.134	0.085	-0.080
-689.368	800.000	-0.040	-0.159
-688.354	381.008	-0.109	0.227
-687.339	-36.396	-0.351	0.192
-686.324	7.796	-0.087	-0.066
-685.310	722.187	0.061	0.165
-684.295	-45.048	0.148	-0.075
-683.281	-152.352	0.135	0.010
-682.266	-44.595	-0.136	0.069
-681.251	-86.416	-0.191	-0.059
-680.237	-71.132	0.113	0.043
-679.222	-116.798	-0.233	0.043
-678.208	19.440	-0.158	-0.129
-677.193	800.000	-0.081	-0.254
-676.178	153.574	-0.143	-0.199
-675.164	0.535	-0.087	-0.063
-674.149	800.000	0.120	-0.468
-673.135	338.354	0.140	-0.276
-672.120	-192.159	-0.052	-0.001
-671.105	-36.322	-0.121	-0.066
-670.091	800.000	-0.053	0.221
-669.076	-118.208	-0.041	0.007
-668.062	800.000	0.051	-0.166
-667.047	-200.000	-0.050	0.342
-666.032	-135.356	0.133	-0.016
-665.018	198.779	-0.162	-0.252
-664.003	-56.092	0.298	-0.135
-662.989	-40.780	0.129	0.068
-661.974	-47.716	-0.044	-0.022
-660.959	-25.754	0.066	-0.040
-659.945	-200.000	-0.003	-0.023
-658.930	800.000	0.040	-0.150
-657.916	208.978	0.109	-0.173
-656.901	237.584	0.116	0.194
-655.886	-97.286	-0.326	-0.086
-654.872	256.230	-0.153	0.265
-653.857	-166.314	-0.357	0.015
-652.843	-95.226	-0.038	0.010
-651.828	-69.688	-0.355	-0.137
-650.814	286.816	0.188	0.344
-649.799	-132.792	-0.156	-0.020
-648.784	-28.350	0.298	-0.174
-647.770	103.123	-0.219	-0.260
-646.755	-200.000	-0.006	-0.174
-645.741	-20.929	-0.360	0.223
-644.726	-100.916	0.294	-0.073
-643.711	-134.754	0.411	0.051
-642.697	613.722	0.104	0.264
-641.682	-200.000	-0.007	0.040
-640.668	-144.364	0.081	0.008
-639.653	-200.000	0.056	-0.392
-638.638	-160.475	-0.201	-0.011
-637.624	-200.000	0.016	0.198
-636.609	268.414	-0.135	0.239
-635.595	14.532	0.077	-0.061
-634.580	-200.000	0.106	-0.480
-633.565	790.928	0.187	-0.519
-632.551	800.000	0.154	-0.509
-631.536	13.023	0.117	0.092
-630.522	-200.000	-0.097	0.442
-629.507	-200.000	-0.014	-0.183
-628.492	5.259	-0.411	-0.306
-627.478	127.179	0.142	0.182
-626.463	-200.000	-0.045	0.346
-625.449	-69.119	0.396	-0.154
-624.434	-104.497	0.307	0.072
-623.419	-95.976	-0.164	0.044
-622.405	457.972	-0.062	-0.140
-621.390	-32.278	-0.093	-0.052
-620.376	-200.000	0.020	-0.189
-619.361	178.270	0.229	-0.338
-618.346	800.000	-0.099	-0.419
-617.332	-200.000	0.007	-0.170
-616.317	-166.265	-0.189	0.008
-615.303	-200.000	-0.029	-0.130
-614.288	189.649	-0.256	0.388
-613.273	-200.000	-0.025	-0.338
-612.259	-200.000	0.026	0.178
-611.244	-200.000	0.036	0.204
-610.230	269.929	-0.069	0.122
-609.215	-90.889	-0.263	0.077
-608.201	-148.017	0.266	0.022
-607.186	-81.910	-0.155	0.051
-606.171	-82.524	-0.194	0.064
-605.157	451.305	-0.108	0.241
-604.142	-200.000	-0.021	-0.264
-603.128	-11.510	-0.186	-0.124
-602.113	536.577	-0.177	-0.424
-601.098	559.199	-0.116	0.284
-600.084	-200.000	-0.017	-0.203
-599.069	30.404	-0.161	-0.139
-598.055	-41.157	0.272	-0.142
-597.040	616.009	0.135	-0.341
-596.025	75.547	-0.115	-0.123
-595.011	242.939	-0.135	0.229
-593.996	-92.248	-0.113	0.032
-592.982	30.448	-0.036	0.031
-591.967	-125.375	-0.117	-0.018
-590.952	-131.422	-0.263	-0.035
-589.938	-200.000	0.029	-0.223
-588.923	160.469	-0.047	0.066
-587.909	-23.070	-0.047	0.028
-586.894	181.279	0.158	-0.234
-585.879	550.276	-0.179	0.433
-584.865	-183.019	0.078	-0.001
-583.850	-200.000	0.015	0.071
-582.836	-127.053	-0.227	0.034
-581.821	800.000	0.066	-0.242
-580.806	85.448	0.144	-0.159
-579.792	372.737	-0.066	0.135
-578.777	-200.000	-0.035	-0.186
-577.763	800.000	-0.095	-0.286
-576.748	-200.000	-0.020	-0.240
-575.733	-163.828	0.118	0.006
-574.719	-111.405	0.211	0.043
-573.704	-200.000	-0.002	-0.125
-572.690	36.282	-0.056	0.050
-571.675	-200.000	-0.061	0.421
-570.661	-200.000	-0.068	0.513
-569.646	-89.985	-0.275	-0.081
-568.631	35.475	-0.133	-0.118
-567.617	-185.551	-0.121	0.002
-566.602	-200.000	-0.038	0.285
-565.588	38.104	-0.044	-0.039
-564.573	-72.712	-0.139	0.052
-563.558	-200.000	-0.015	0.162
-562.544	-200.000	0.002	0.212
-561.529	800.000	-0.025	-0.090
-560.515	168.442	0.086	-0.124
-559.500	800.000	-0.053	0.196
-558.485	717.771	-0.101	0.271
-557.471	-105.440	0.178	0.041
-556.456	-151.890	0.300	-0.022
-555.442	75.207	-0.174	0.185
-554.427	6.885	-0.229	0.172
-553.412	-188.843	0.187	-0.002
-552.398	123.741	-0.090	-0.114
-551.383	-107.404	-0.152	-0.034
-550.369	-200.000	-0.018	-0.135
-549.354	-200.000	-0.020	0.107
-548.339	243.782	0.047	0.079
-547.325	52.636	0.347	-0.334
-546.310	-144.524	-0.196	-0.018
-545.296	35.154	-0.112	0.099
-544.281	-156.166	0.029	0.002
-543.266	-9.135	-0.223	-0.151
-542.252	-116.954	0.141	-0.026
-541.237	-112.324	0.390	-0.079
-540.223	122.800	-0.062	0.078
-539.208	-128.176	0.243	0.035
-538.193	800.000	-0.033	-0.102
-537.179	199.819	0.084	-0.130
-536.164	-21.486	0.314	-0.193
-535.150	-68.331	-0.014	0.006
-534.135	-109.700	0.360	-0.076
-533.121	32.460	0.078	0.068
-532.106	-73.832	0.271	-0.099
-531.091	-200.000	-0.014	0.413
-530.077	50.407	-0.196	0.186
-529.062	92.136	0.183	-0.207
-528.048	355.389	0.078	-0.156
-527.033	800.000	0.029	-0.087
-526.018	38.931	0.072	0.065
-525.004	170.251	0.184	-0.265
-523.989	-200.000	-0.024	-0.539
-522.975	-138.077	0.059	-0.007
-521.960	-200.000	0.009	-0.062
-520.945	370.748	0.119	-0.243
-519.931	-200.000	0.002	0.165
-518.916	-10.876	-0.160	0.107
-517.902	-200.000	0.012	0.297
-516.887	-78.570	-0.149	0.051
-515.872	-200.000	0.013	-0.308
-514.858	-125.681	0.069	-0.010
-513.843	54.608	-0.150	0.146
-512.829	81.142	0.117	0.128
-511.814	-45.355	0.201	-0.101
-510.799	222.735	-0.177	-0.288
-509.785	-60.323	0.102	-0.044
-508.770	439.567	-0.110	-0.243
-507.756	-200.000	0.007	-0.132
-506.741	-83.374	0.376	0.122
-505.726	-200.000	0.019	-0.230
-504.712	-60.216	-0.491	0.211
-503.697	143.791	0.053	0.071
-502.683	-200.000	-0.033	-0.218
-501.668	-63.253	0.377	-0.156
-500.653	-84.567	0.252	0.080
-499.639	-62.479	0.113	0.047
-498.624	122.352	0.178	-0.224
-497.610	-200.000	0.013	0.263
-496.595	-94.706	0.314	0.086
-495.581	-37.095	0.090	0.049
-494.566	-115.720	0.363	0.068
-493.551	284.801	0.044	0.079
-492.537	-104.926	0.176	-0.041
-491.522	800.000	-0.098	-0.275
-490.508	-34.780	-0.115	-0.063
-489.493	152.161	0.050	-0.068
-488.478	-22.507	0.208	-0.127
-487.464	-100.286	0.114	0.028
-486.449	-129.487	-0.274	-0.038
-485.435	-72.064	-0.362	0.135
-484.420	-16.743	-0.191	0.122
-483.405	532.388	0.098	0.233
-482.391	59.808	0.184	-0.183
-481.376	-103.370	-0.162	0.038
-480.362	-99.076	0.209	-0.053
-479.347	722.030	-0.132	0.354
-478.332	-75.780	0.032	0.011
-477.318	-127.512	0.169	0.025
-476.303	800.000	-0.041	0.147
-475.289	55.845	-0.027	0.026
-474.274	-200.000	0.020	-0.271
-473.259	316.232	-0.024	-0.046
-472.245	-200.000	0.017	0.279
-471.230	800.000	0.021	0.070
-470.216	-134.024	0.411	0.051
-469.201	-121.813	0.421	0.070
-468.186	-124.179	-0.029	-0.005
-467.172	-73.682	-0.187	0.068
-466.157	1.177	-0.182	-0.131
-465.143	-200.000	0.009	-0.075
-464.128	-200.000	0.023	-0.479
-463.113	323.035	-0.160	0.306
-462.099	-200.000	-0.006	-0.193
-461.084	93.313	-0.023	-0.026
-460.070	-146.811	0.297	-0.026
-459.055	-43.513	0.436	0.221
-458.040	-200.000	0.069	0.539
-457.026	-200.000	0.075	0.395
-456.011	113.407	-0.191	-0.233
-454.997	-200.000	-0.126	-0.584
-453.982	-200.000	-0.033	-0.355
-452.968	-67.994	-0.049	0.019
-451.953	-96.882	-0.134	0.035
-450.938	-200.000	-0.049	0.332
-449.924	-116.347	-0.381	0.071
-448.909	-200.000	-0.014	0.364
-447.895	-11.548	-0.062	-0.041
-446.880	-32.456	-0.322	-0.180
-445.865	-62.670	-0.049	-0.020
-444.851	263.144	0.043	0.075
-443.836	-103.995	-0.369	-0.086
-442.822	-97.651	-0.098	0.025
-441.807	-200.000	-0.014	0.093
-440.792	-200.000	0.007	0.221
-439.778	-64.216	-0.176	0.072
-438.763	-71.413	0.258	0.097
-437.749	-200.000	-0.030	0.388
-436.734	82.364	-0.037	-0.040
-435.719	-200.000	0.010	-0.092
-434.705	-91.514	0.136	-0.039
-433.690	-6.491	0.101	0.069
-432.676	800.000	0.036	0.132
-431.661	-166.672	-0.155	0.006
-430.646	145.338	0.159	-0.213
-429.632	-5.063	0.098	0.068
-428.617	-200.000	-0.052	0.405
-427.603	-38.133	0.086	0.046
-426.588	67.289	-0.102	-0.105
-425.573	-59.921	0.331	-0.142
-424.559	-24.575	-0.380	-0.227
-423.544	-200.000	0.007	0.167
-422.530	134.256	0.102	-0.133
-421.515	-93.903	0.144	0.040
-420.500	212.131	-0.201	0.318
-419.486	-16.812	0.058	-0.037
-418.471	800.000	0.066	-0.185
-417.457	-43.252	-0.184	-0.094
-416.442	-64.689	0.152	-0.062
-415.428	-24.063	0.170	0.102
-414.413	24.875	-0.277	-0.230
-413.398	275.308	-0.040	0.071
-412.384	-73.074	-0.330	0.122
-411.369	12.498	0.104	-0.080
-410.355	-141.226	0.053	0.005
-409.340	-100.290	0.046	-0.011
-408.325	8.994	-0.151	-0.114
-407.311	508.535	0.041	-0.094
-406.296	-59.150	0.185	-0.080
-405.282	-56.576	-0.288	0.128
-404.267	-123.353	0.396	0.063
-403.252	-69.679	0.064	-0.025
-402.238	465.187	0.016	-0.036
-401.223	-130.602	-0.388	-0.052
-400.209	-200.000	0.028	-0.193
-399.194	254.782	0.095	-0.163
-398.179	-165.541	0.243	-0.011
-397.165	193.761	0.051	0.077
-396.150	-85.851	-0.021	-0.007
-395.136	800.000	-0.050	0.143
-394.121	-200.000	-0.021	-0.093
-393.106	-2.873	-0.323	-0.226
-392.092	684.540	-0.072	-0.189
-391.077	204.402	-0.150	0.234
-390.063	-200.000	-0.015	-0.238
-389.048	800.000	-0.138	0.437
-388.033	-30.130	-0.346	-0.197
-387.019	536.544	-0.058	-0.138
-386.004	66.742	0.117	0.120
-384.990	69.290	-0.182	-0.187
-383.975	800.000	-0.055	-0.204
-382.960	-200.000	0.093	-0.485
-381.946	-200.000	0.008	-0.153
-380.931	-200.000	-0.015	-0.094
-379.917	-200.000	0.044	-0.253
-378.902	800.000	-0.017	0.050
-377.888	111.625	-0.187	0.225
-376.873	-200.000	-0.028	-0.134
-375.858	-128.380	-0.113	0.016
-374.844	800.000	-0.088	0.318
-373.829	348.097	0.107	-0.211
-372.815	800.000	-0.132	-0.386
-371.800	-44.789	0.132	0.066
-370.785	-200.000	0.008	0.456
-369.771	782.317	0.066	0.180
-368.756	437.946	0.148	0.323
-367.742	-200.000	-0.014	-0.166
-366.727	-200.000	-0.008	-0.117
-365.712	-54.187	-0.173	-0.079
-364.698	356.161	0.051	0.102
-363.683	-94.726	-0.268	-0.073
-362.669	50.266	0.120	-0.113
-361.654	14.977	-0.210	0.165
-360.639	-200.000	-0.015	-0.247
-359.625	-55.330	0.200	-0.090
-358.610	0.917	0.194	-0.139
-357.596	94.374	-0.162	-0.184
-356.581	22.549	0.148	0.121
-355.566	-35.224	-0.119	-0.065
-354.552	62.784	-0.106	-0.106
-353.537	-63.855	0.203	-0.083
-352.523	40.309	0.080	0.072
-351.508	-63.340	0.157	-0.065
-350.493	18.392	-0.291	0.233
-349.479	582.129	0.087	0.214
-348.464	533.952	-0.081	0.193
-347.450	-36.982	0.268	0.144
-346.435	-11.062	0.053	-0.035
-345.420	-156.841	-0.153	-0.009
-344.406	160.141	-0.174	0.243
-343.391	60.282	-0.038	-0.037
-342.377	408.942	-0.081	0.171
-341.362	-106.508	-0.159	-0.036
-340.348	-200.000	0.013	0.068
-339.333	-200.000	-0.025	-0.114
-338.318	-29.236	0.045	-0.026
-337.304	328.089	0.152	0.292
-336.289	-200.000	0.005	-0.024
-335.275	-170.192	-0.179	0.006
-334.260	-142.902	0.346	0.034
-333.245	-96.067	0.272	0.072
-332.231	261.567	-0.135	-0.234
-331.216	-148.806	0.307	0.025
-330.202	191.383	-0.148	0.222
-329.187	-200.000	-0.341	0.001
-328.172	-87.100	0.333	-0.101
-327.158	34.246	-0.232	-0.202
-326.143	-82.888	0.241	0.078
-325.129	-151.134	0.100	-0.007
-324.114	-200.000	0.010	-0.194
-323.099	800.000	0.031	0.117
-322.085	800.000	0.083	0.295
-321.070	31.862	-0.062	-0.054
-320.056	113.954	-0.070	-0.085
-319.041	19.297	-0.183	-0.147
-318.026	153.447	0.132	0.180
-317.012	-119.608	0.058	-0.010
-315.997	60.706	-0.112	0.111
-314.983	-200.000	-0.014	-0.105
-313.968	-200.000	0.059	-0.274
-312.953	-200.000	0.019	0.145
-311.939	-19.522	-0.263	-0.163
-310.924	-97.542	0.250	-0.065
-309.910	-200.000	-0.040	0.245
-308.895	-13.695	-0.147	-0.095
-307.880	303.326	-0.050	-0.092
-306.866	-60.188	-0.094	0.040
-305.851	-200.000	0.006	0.064
-304.837	55.196	0.140	0.135
-303.822	-53.984	0.061	-0.028
-302.807	-53.644	0.384	0.175
-301.793	-149.297	-0.332	-0.026
-300.778	-27.601	0.218	0.126
-299.764	155.330	-0.213	0.292
-298.749	-160.276	-0.169	-0.009
-297.735	99.260	-0.075	0.086
-296.720	59.188	0.136	-0.133
-295.705	11.800	0.115	-0.088
-294.691	-108.382	0.022	-0.005
-293.676	-53.865	0.212	-0.097
-292.662	94.483	-0.193	0.219
-291.647	-132.899	0.151	0.019
-290.632	128.342	0.208	-0.265
-289.618	-91.510	0.155	0.044
-288.603	64.428	0.094	0.094
-287.589	-200.000	-0.013	0.174
-286.574	-56.261	0.313	0.139
-285.559	-200.000	-0.014	0.266
-284.545	-48.245	-0.185	-0.089
-283.530	-14.062	-0.156	0.100
-282.516	-110.036	0.164	-0.034
-281.501	800.000	-0.074	0.219
-280.486	-169.162	0.314	-0.012
-279.472	-200.000	-0.005	0.139
-278.457	-132.775	-0.175	0.022
-277.443	290.848	0.088	-0.160
-276.428	-200.000	0.078	-0.363
-275.413	5.053	0.084	0.061
-274.399	180.077	-0.189	-0.277
-273.384	-200.000	0.002	-0.013
-272.370	536.124	-0.178	0.422
-271.355	800.000	0.031	-0.102
-270.340	-129.499	-0.126	0.017
-269.326	-150.314	0.307	-0.024
-268.311	-200.000	-0.065	0.302
-267.297	-103.089	-0.209	-0.049
-266.282	-200.000	-0.011	-0.158
-265.267	-97.674	0.135	-0.035
-264.253	-90.376	-0.217	0.063
-263.238	136.624	-0.201	-0.262
-262.224	88.555	0.223	0.247
-261.209	261.286	0.140	0.243
-260.195	-111.531	0.236	0.048
-259.180	-1.983	-0.201	0.141
-258.165	622.213	0.063	0.157
-257.151	-116.581	-0.076	-0.014
-256.136	-99.147	0.039	0.010
-255.122	-64.962	0.216	0.087
-254.107	406.063	-0.101	0.212
-253.092	-85.293	-0.025	-0.008
-252.078	11.479	-0.101	0.077
-251.063	-114.590	0.168	0.032
-250.049	-37.821	0.115	-0.061
-249.034	-35.040	-0.185	0.100
-248.019	-33.135	-0.024	-0.013
-247.005	38.367	-0.227	0.201
-245.990	-3.693	-0.201	0.139
-244.976	783.662	0.032	-0.088
-243.961	82.103	-0.041	-0.045
-242.946	-149.544	0.129	-0.010
-241.932	42.573	0.217	0.197
-240.917	-156.880	0.287	-0.018
-239.903	-5.073	0.158	0.108
-238.888	365.639	-0.060	0.120
-237.873	228.319	0.207	0.336
-236.859	277.515	0.108	0.191
-235.844	-44.490	-0.097	-0.048
-234.830	-200.000	-0.015	0.177
-233.815	-200.000	0.022	0.248
-232.800	326.556	0.248	0.474
-231.786	-63.876	0.067	0.027
-230.771	144.597	-0.215	-0.286
-229.757	-200.000	-0.005	0.080
-228.742	-91.792	-0.334	0.095
-227.727	145.061	-0.118	-0.157
-226.713	-102.404	0.470	0.112
-225.698	800.000	-0.086	0.283
-224.684	-200.000	-0.009	0.087
-223.669	-27.518	0.356	0.206
-222.655	-89.255	0.325	-0.095
-221.640	21.306	0.145	-0.118
-220.625	506.331	0.126	0.291
-219.611	7.959	0.168	0.126
-218.596	-13.010	-0.070	-0.045
-217.582	158.859	-0.067	-0.092
-216.567	-200.000	0.021	-0.117
-215.552	6.934	0.045	-0.033
-214.538	800.000	0.098	0.307
-213.523	247.007	-0.136	0.228
-212.509	-19.321	-0.026	0.016
-211.494	32.535	-0.196	0.168
-210.479	-121.248	-0.178	0.030
-209.465	-97.438	-0.323	0.084
-208.450	-58.361	0.426	-0.184
-207.436	-200.000	0.018	-0.201
-206.421	-121.892	0.175	-0.029
-205.406	0.857	-0.075	-0.054
-204.392	-3.508	-0.264	0.182
-203.377	165.264	0.265	0.373
-202.363	-132.174	-0.083	0.011
-201.348	-90.714	-0.131	0.038
-200.333	109.547	-0.150	-0.178
-199.319	40.448	0.090	-0.081
-198.304	-81.463	-0.426	-0.140
-197.290	188.921	-0.077	-0.115
-196.275	-200.000	0.003	0.077
-195.260	0.241	0.253	-0.179
-194.246	-12.756	-0.170	-0.110
-193.231	310.201	0.024	0.044
-192.217	-83.022	-0.358	-0.115
-191.202	43.277	-0.146	0.133
-190.187	-175.898	0.322	-0.009
-189.173	-103.500	-0.252	0.059
-188.158	489.590	-0.155	-0.352
-187.144	-200.000	0.003	-0.073
-186.129	-126.661	0.107	0.016
-185.114	-116.603	-0.339	0.062
-184.100	143.424	0.202	0.268
-183.085	800.000	-0.015	0.059
-182.071	8.932	0.113	0.084
-181.056	800.000	-0.006	0.026
-180.042	147.434	0.137	-0.183
-179.027	-2.849	-0.384	-0.267
-178.012	74.823	-0.137	0.143
-176.998	-200.000	0.088	-0.620
-175.983	-88.803	-0.305	0.090
-174.969	-132.648	0.112	-0.014
-173.954	-200.000	0.023	-0.243
-172.939	-189.532	-0.096	-0.001
-171.925	-0.124	-0.090	-0.064
-170.910	70.967	-0.102	-0.106
-169.896	-88.273	0.135	-0.040
-168.881	178.457	0.202	-0.294
-167.866	-200.000	0.030	0.199
-166.852	-70.672	0.137	0.052
-165.837	222.285	-0.034	0.054
-164.823	-200.000	-0.021	0.147
-163.808	142.156	-0.112	-0.148
-162.793	-200.000	0.001	0.085
-161.779	677.749	0.141	-0.365
-160.764	-47.882	-0.222	-0.107
-159.750	24.519	0.169	0.139
-158.735	25.176	-0.193	-0.159
-157.720	0.651	-0.118	0.084
-156.706	-104.076	-0.267	-0.062
-155.691	75.037	0.122	0.128
-154.677	129.692	0.204	0.260
-153.662	-106.291	-0.410	-0.091
-152.647	-22.853	-0.083	0.050
-151.633	-200.000	0.006	-0.191
-150.618	-200.000	-0.038	0.174
-149.604	521.355	0.032	0.075
-148.589	-90.204	-0.321	0.093
-147.574	-153.355	-0.158	-0.011
-146.560	-142.095	0.249	-0.025
-145.545	-45.883	0.291	-0.143
-144.531	197.316	0.082	0.124
-143.516	-28.285	0.159	0.091
-142.502	-86.775	0.229	-0.070
-141.487	188.134	-0.080	0.119
-140.472	-200.000	-0.014	0.313
-139.458	-33.038	0.086	0.047
-138.443	800.000	0.020	0.063
-137.429	-110.907	-0.083	0.017
-136.414	-200.000	-0.004	0.029
-135.399	392.045	0.088	0.182
-134.385	591.285	0.096	0.236
-133.370	-107.719	0.241	-0.052
-132.356	-102.494	0.230	-0.054
-131.341	-135.368	0.348	-0.041
-130.326	-200.000	0.027	-0.307
-129.312	553.612	-0.082	-0.195
-128.297	-158.508	-0.467	0.027
-127.283	-117.225	0.199	0.036
-126.268	-36.176	0.381	0.204
-125.253	233.683	0.224	-0.365
-124.239	145.413	-0.037	-0.049
-123.224	-200.000	0.007	-0.241
