DTS Sentinel unit serial number:	SN413079Multiplexer serial number:	ORYXHardware model number:	OX4-SRSoftware version number:	ORYX F/W v4.00 Oryx Data Collector v3.7.2.0data status	okinstallation	princeton_trtdifferential loss correction	single-endedforward channel	channel 2reverse channel	N/Adate	2019/09/16time	23:19:35forward acquisition time	60.00reverse acquisition time	0.00gamma	496.2192k internal	0.2330k external	0.2330temperature offset calibration	0.9973default loss term (dB/km)	0.3790temperature slope calibration	1.0000multiplexer offset coefficient	1.0000multiplexer slope coefficient	1.0000fibre end	0.00T internal ref (°C)	30.03T ext. ref 1 (°C)	0.10T ext. ref 2 (°C)	23.65length (m)	temperature (°C)	Stokes	anti-Stokes-747.200	800.000	-0.065	-0.217
-746.185	146.413	-0.141	0.191
-745.171	-200.000	0.030	0.283
-744.156	421.357	-0.133	0.288
-743.142	-169.797	-0.008	-0.000
-742.127	16.530	-0.220	0.175
-741.112	-96.581	0.231	0.061
-740.098	97.551	0.282	0.326
-739.083	-77.039	-0.256	0.090
-738.069	-200.000	0.013	0.191
-737.054	515.774	0.045	-0.105
-736.039	-25.573	-0.314	0.187
-735.025	-200.000	0.034	-0.263
-734.010	7.599	-0.147	-0.111
-732.996	13.202	-0.186	-0.145
-731.981	-0.543	-0.091	0.065
-730.966	-76.658	-0.111	-0.039
-729.952	297.296	0.076	-0.140
-728.937	-200.000	0.018	-0.145
-727.923	87.272	-0.187	-0.208
-726.908	800.000	0.005	-0.014
-725.894	-26.069	-0.308	0.182
-724.879	82.707	-0.078	-0.085
-723.864	93.376	-0.111	0.127
-722.850	-200.000	-0.030	0.144
-721.835	-200.000	-0.011	-0.078
-720.821	-200.000	0.006	0.106
-719.806	-105.355	-0.108	0.025
-718.791	-163.012	-0.524	0.026
-717.777	612.829	-0.052	-0.131
-716.762	495.600	-0.108	-0.249
-715.748	54.846	-0.129	-0.126
-714.733	-169.780	0.278	-0.010
-713.718	728.172	0.064	0.171
-712.704	436.195	0.085	-0.186
-711.689	-47.575	0.204	-0.100
-710.675	-176.354	-0.164	0.004
-709.660	-31.632	0.100	-0.056
-708.645	-186.468	-0.093	-0.001
-707.631	-5.584	0.193	0.133
-706.616	800.000	-0.082	0.266
-705.602	-112.139	-0.470	0.095
-704.587	-200.000	-0.009	-0.122
-703.572	293.859	0.102	0.187
-702.558	517.057	0.086	-0.201
-701.543	102.451	-0.205	0.241
-700.529	-115.920	-0.239	-0.045
-699.514	800.000	-0.072	-0.306
-698.499	-108.411	-0.141	-0.031
-697.485	800.000	0.127	-0.374
-696.470	37.204	0.118	-0.105
-695.456	-57.909	0.356	-0.156
-694.441	-177.188	-0.273	-0.007
-693.426	-139.635	-0.119	0.013
-692.412	487.918	-0.077	-0.176
-691.397	505.817	0.225	0.525
-690.383	-125.535	0.092	0.014
-689.368	105.025	0.082	-0.097
-688.354	-15.090	0.097	-0.063
-687.339	-96.114	-0.418	0.112
-686.324	-200.000	-0.015	-0.528
-685.310	-10.910	-0.079	-0.052
-684.295	514.904	-0.109	0.255
-683.281	-148.725	-0.020	-0.002
-682.266	800.000	0.042	-0.176
-681.251	800.000	-0.120	0.343
-680.237	800.000	-0.032	0.096
-679.222	80.640	-0.080	-0.087
-678.208	-79.099	-0.133	-0.045
-677.193	597.090	-0.068	-0.168
-676.178	-200.000	-0.022	0.227
-675.164	-98.266	0.195	0.050
-674.149	262.534	0.017	-0.030
-673.135	-200.000	0.029	-0.273
-672.120	427.514	-0.180	-0.389
-671.105	597.413	-0.029	-0.073
-670.091	-200.000	0.027	-0.289
-669.076	-67.233	0.267	-0.106
-668.062	-42.836	-0.265	-0.135
-667.047	-21.680	-0.383	-0.234
-666.032	-192.666	-0.193	0.002
-665.018	-23.654	-0.222	0.134
-664.003	99.401	-0.224	0.260
-662.989	-157.861	-0.294	-0.017
-661.974	461.301	0.064	0.143
-660.959	-89.604	-0.344	0.101
-659.945	162.832	0.051	0.072
-658.930	-200.000	-0.030	-0.253
-657.916	-200.000	0.035	-0.165
-656.901	-200.000	0.036	-0.164
-655.886	800.000	-0.067	-0.216
-654.872	602.024	-0.084	-0.210
-653.857	-200.000	0.033	-0.294
-652.843	800.000	-0.104	0.388
-651.828	-114.350	-0.078	0.015
-650.814	-200.000	-0.026	0.144
-649.799	-127.543	-0.315	-0.046
-648.784	31.604	0.066	0.057
-647.770	-2.787	-0.134	0.094
-646.755	800.000	-0.065	0.243
-645.741	129.417	-0.306	-0.392
-644.726	-13.224	0.253	-0.165
-643.711	-128.893	-0.053	0.007
-642.697	139.054	0.049	0.065
-641.682	-10.561	0.084	0.056
-640.668	800.000	0.062	-0.271
-639.653	221.607	-0.156	-0.252
-638.638	-92.777	0.305	-0.086
-637.624	-200.000	-0.013	-0.187
-636.609	15.909	-0.142	0.112
-635.595	-114.970	0.311	0.059
-634.580	800.000	-0.077	0.245
-633.565	92.777	-0.093	-0.106
-632.551	590.336	-0.076	-0.187
-631.536	346.039	0.043	-0.085
-630.522	197.546	-0.062	-0.096
-629.507	-200.000	-0.029	-0.381
-628.492	23.580	-0.061	0.050
-627.478	175.026	-0.109	0.159
-626.463	-55.859	-0.130	0.058
-625.449	-51.284	-0.146	-0.069
-624.434	18.878	0.219	0.176
-623.419	-109.540	-0.275	-0.058
-622.405	19.933	-0.286	-0.231
-621.390	-34.793	0.224	-0.123
-620.376	-54.020	-0.242	0.110
-619.361	-132.232	0.130	-0.017
-618.346	-172.048	0.362	0.012
-617.332	-200.000	-0.065	0.000
-616.317	-146.253	-0.185	-0.016
-615.303	186.191	-0.105	-0.156
-614.288	-80.890	-0.131	-0.044
-613.273	62.003	-0.097	-0.097
-612.259	-193.818	-0.160	0.001
-611.244	-200.000	-0.008	-0.148
-610.230	26.009	-0.326	-0.273
-609.215	800.000	-0.058	0.202
-608.201	11.528	0.190	0.146
-607.186	-200.000	0.018	-0.207
-606.171	-200.000	-0.026	-0.422
-605.157	-200.000	-0.011	-0.050
-604.142	-200.000	0.018	-0.114
-603.128	-93.628	-0.410	0.113
-602.113	-182.625	0.202	-0.004
-601.098	-67.188	0.245	-0.097
-600.084	800.000	0.150	-0.503
-599.069	358.006	-0.076	0.151
-598.055	220.698	-0.219	0.352
-597.040	-47.306	-0.200	0.098
-596.025	-70.369	0.463	-0.176
-595.011	-16.432	-0.122	0.078
-593.996	19.960	-0.188	0.151
-592.982	800.000	-0.057	0.199
-591.967	-200.000	0.015	0.182
-590.952	-200.000	0.025	-0.214
-589.938	-106.313	0.112	-0.025
-588.923	800.000	0.044	-0.191
-587.909	-138.317	-0.328	-0.036
-586.894	323.688	0.142	-0.270
-585.879	-103.701	0.501	-0.118
-584.865	143.217	0.141	-0.188
-583.850	-95.399	-0.303	0.081
-582.836	-90.084	0.317	0.093
-581.821	-48.580	0.185	-0.089
-580.806	800.000	0.116	-0.458
-579.792	-171.732	-0.374	-0.012
-578.777	-200.000	0.054	0.270
-577.763	-145.735	-0.414	-0.037
-576.748	-72.461	0.170	0.063
-575.733	-76.292	0.150	-0.053
-574.719	78.083	-0.212	-0.227
-573.704	-115.497	-0.225	-0.042
-572.690	67.791	-0.087	-0.089
-571.675	297.322	0.097	-0.177
-570.661	113.065	-0.150	-0.182
-569.646	40.845	0.230	0.208
-568.631	-200.000	-0.003	0.114
-567.617	-80.411	0.156	0.052
-566.602	115.535	-0.103	0.126
-565.588	-128.813	0.327	0.046
-564.573	293.853	-0.163	0.297
-563.558	-176.762	-0.087	-0.002
-562.544	-140.925	-0.195	-0.020
-561.529	425.153	0.129	-0.277
-560.515	-200.000	-0.009	0.239
-559.500	220.683	0.168	-0.270
-558.485	-200.000	0.027	-0.172
-557.471	-42.839	0.309	-0.157
-556.456	-93.883	0.204	0.056
-555.442	-200.000	-0.000	0.060
-554.427	-81.972	0.062	-0.020
-553.412	147.109	-0.109	0.147
-552.398	-35.734	0.181	-0.098
-551.383	-104.380	0.068	-0.016
-550.369	-200.000	0.049	-0.251
-549.354	255.329	-0.143	-0.245
-548.339	147.428	0.220	-0.297
-547.325	152.103	0.238	-0.324
-546.310	-139.502	0.055	-0.006
-545.296	-92.046	-0.302	0.085
-544.281	30.948	0.026	0.022
-543.266	-155.136	0.243	-0.016
-542.252	-200.000	-0.063	-0.305
-541.237	800.000	-0.029	-0.121
-540.223	-25.712	0.142	-0.084
-539.208	204.342	0.113	-0.175
-538.193	-125.425	0.125	0.019
-537.179	111.388	-0.046	-0.056
-536.164	-27.336	-0.281	-0.163
-535.150	-200.000	-0.003	-0.263
-534.135	800.000	0.084	-0.241
-533.121	-18.277	-0.294	0.183
-532.106	403.398	0.122	-0.257
-531.091	130.253	-0.154	-0.197
-530.077	331.766	-0.036	0.069
-529.062	206.835	-0.145	-0.226
-528.048	-71.726	-0.032	0.012
-527.033	-186.800	-0.192	0.003
-526.018	82.724	-0.056	-0.061
-525.004	-32.588	-0.124	0.069
-523.989	-15.152	0.093	-0.059
-522.975	397.417	-0.035	-0.072
-521.960	372.742	-0.089	0.181
-520.945	94.906	-0.114	-0.130
-519.931	24.645	-0.211	0.174
-518.916	-75.368	-0.158	0.056
-517.902	-101.850	0.399	-0.096
-516.887	76.540	-0.178	0.188
-515.872	-200.000	-0.020	0.254
-514.858	20.139	-0.146	0.118
-513.843	-200.000	0.034	-0.367
-512.829	35.443	-0.188	0.164
-511.814	-115.556	-0.198	-0.037
-510.799	-49.279	0.178	0.085
-509.785	-200.000	0.005	-0.131
-508.770	92.211	0.103	0.116
-507.756	55.999	-0.055	-0.053
-506.741	-52.334	0.204	0.094
-505.726	80.999	-0.143	0.154
-504.712	80.974	-0.186	0.200
-503.697	169.199	-0.187	-0.266
-502.683	60.120	-0.090	-0.089
-501.668	-68.274	0.250	0.097
-500.653	6.294	-0.050	-0.037
-499.639	800.000	0.070	0.233
-498.624	-166.052	0.363	-0.015
-497.610	-175.520	0.109	0.003
-496.595	82.626	0.227	0.246
-495.581	-53.539	0.034	0.016
-494.566	39.054	0.209	0.186
-493.551	-92.608	-0.350	-0.098
-492.537	37.837	0.285	-0.252
-491.522	730.323	0.156	-0.415
-490.508	-116.382	0.380	0.070
-489.493	-145.021	-0.228	0.021
-488.478	800.000	-0.075	-0.218
-487.464	101.632	0.125	0.145
-486.449	-137.557	-0.328	-0.037
-485.435	-200.000	0.006	0.041
-484.420	-200.000	0.000	0.202
-483.405	-0.372	-0.067	0.047
-482.391	-9.549	0.187	0.124
-481.376	-200.000	-0.059	0.301
-480.362	94.146	0.227	0.257
-479.347	0.157	-0.170	0.121
-478.332	-85.938	0.236	-0.073
-477.318	-128.384	0.196	-0.028
-476.303	800.000	0.106	0.308
-475.289	-80.206	-0.245	-0.082
-474.274	607.380	-0.018	-0.045
-473.259	-69.717	0.106	-0.040
-472.245	-114.251	0.211	-0.041
-471.230	-31.683	0.069	0.038
-470.216	-200.000	0.007	-0.165
-469.201	-72.070	0.393	-0.145
-468.186	354.619	-0.048	0.095
-467.172	-124.005	0.268	0.042
-466.157	-15.176	-0.225	0.144
-465.143	-174.758	0.163	0.005
-464.128	442.847	0.119	-0.260
-463.113	-71.711	0.221	0.082
-462.099	800.000	0.094	-0.279
-461.084	-109.768	0.177	-0.037
-460.070	390.255	-0.098	-0.203
-459.055	-43.368	-0.132	-0.066
-458.040	83.698	0.152	-0.165
-457.026	-123.225	-0.249	0.040
-456.011	-200.000	0.008	0.236
-454.997	185.626	-0.076	-0.113
-453.982	256.253	0.094	-0.161
-452.968	14.634	0.203	0.158
-451.953	-85.186	0.308	0.096
-450.938	-16.402	0.176	0.111
-449.924	-200.000	0.041	0.286
-448.909	800.000	-0.077	-0.217
-447.895	-200.000	-0.028	0.172
-446.880	112.591	-0.110	0.133
-445.865	212.528	0.071	-0.111
-444.851	320.813	0.086	0.164
-443.836	-112.466	0.304	-0.060
-442.822	421.021	-0.165	0.351
-441.807	45.059	-0.098	0.090
-440.792	800.000	-0.130	0.427
-439.778	36.647	-0.045	-0.039
-438.763	4.060	0.278	-0.202
-437.749	800.000	-0.087	0.266
-436.734	75.490	-0.174	-0.183
-435.719	84.367	0.144	0.156
-434.705	634.027	-0.059	-0.148
-433.690	60.146	0.204	0.201
-432.676	-184.610	-0.148	0.002
-431.661	11.071	0.201	0.153
-430.646	153.282	0.060	-0.082
-429.632	-200.000	-0.020	-0.121
-428.617	-163.878	-0.083	0.004
-427.603	-127.951	0.052	0.007
-426.588	-81.183	0.117	-0.039
-425.573	7.545	-0.111	0.083
-424.559	800.000	-0.063	0.205
-423.544	64.394	0.198	0.198
-422.530	18.805	0.213	0.170
-421.515	328.505	0.073	-0.140
-420.500	771.215	0.110	-0.298
-419.486	800.000	0.070	-0.301
-418.471	-200.000	-0.049	0.324
-417.457	44.742	-0.196	0.180
-416.442	243.778	0.070	-0.117
-415.428	-58.189	-0.161	-0.070
-414.413	15.758	0.227	0.178
-413.398	-116.341	-0.220	-0.040
-412.384	-112.879	-0.244	-0.048
-411.369	390.999	0.132	-0.273
-410.355	-160.644	0.356	-0.019
-409.340	-58.090	0.312	0.135
-408.325	3.552	-0.167	0.121
-407.311	-36.303	0.343	-0.184
-406.296	-162.796	-0.092	-0.004
-405.282	800.000	-0.015	-0.052
-404.267	341.513	-0.109	-0.213
-403.252	56.508	-0.301	0.291
-402.238	-200.000	0.015	0.184
-401.223	-118.283	0.236	0.042
-400.209	-49.735	-0.230	0.109
-399.194	-200.000	-0.015	0.214
-398.179	290.261	0.140	-0.253
-397.165	-70.677	0.321	0.120
-396.150	-79.203	0.174	0.059
-395.136	-89.239	0.243	0.071
-394.121	-116.416	0.058	-0.011
-393.106	104.794	-0.022	0.026
-392.092	764.548	-0.028	-0.075
-391.077	-108.515	-0.249	0.053
-390.063	-200.000	-0.020	0.240
-389.048	-22.797	-0.292	0.175
-388.033	26.685	-0.084	-0.070
-387.019	-200.000	-0.000	0.023
-386.004	-187.909	-0.161	-0.002
-384.990	800.000	0.085	0.338
-383.975	800.000	0.116	-0.386
-382.960	-200.000	0.008	-0.173
-381.946	228.367	-0.089	-0.145
-380.931	-200.000	0.001	-0.256
-379.917	-18.887	0.156	0.097
-378.902	-127.802	-0.134	-0.019
-377.888	85.938	0.234	0.256
-376.873	229.280	-0.061	0.100
-375.858	-115.227	0.140	-0.026
-374.844	-113.054	-0.275	-0.054
-373.829	-67.822	-0.298	0.116
-372.815	336.462	0.106	0.205
-371.800	-51.150	-0.023	0.011
-370.785	800.000	0.143	0.401
-369.771	-43.482	-0.394	0.198
-368.756	391.474	0.079	-0.163
-367.742	-161.442	-0.264	-0.013
-366.727	6.282	-0.128	-0.094
-365.712	138.073	-0.152	0.198
-364.698	65.403	0.120	-0.121
-363.683	164.222	0.092	-0.129
-362.669	-48.453	-0.304	-0.145
-361.654	-50.833	-0.241	-0.112
-360.639	-128.813	-0.335	0.047
-359.625	9.805	-0.185	0.139
-358.610	-132.390	0.158	0.020
-357.596	800.000	0.116	-0.417
-356.581	-39.053	-0.243	-0.127
-355.566	-144.737	-0.171	0.016
-354.552	-200.000	0.004	0.367
-353.537	563.787	0.060	0.143
-352.523	-39.056	-0.326	-0.170
-351.508	800.000	0.066	-0.281
-350.493	-200.000	-0.070	-0.350
-349.479	498.030	0.042	-0.095
-348.464	20.682	0.364	-0.292
-347.450	27.885	-0.156	0.130
-346.435	82.655	-0.065	0.070
-345.420	800.000	-0.036	0.126
-344.406	-200.000	-0.025	0.131
-343.391	-200.000	-0.029	-0.171
-342.377	-118.626	0.050	0.009
-341.362	-189.613	0.273	0.003
-340.348	-33.971	-0.257	-0.140
-339.333	54.774	0.313	0.300
-338.318	100.628	0.164	0.189
-337.304	-8.741	0.064	0.042
-336.289	800.000	-0.051	0.208
-335.275	196.799	0.094	0.142
-334.260	772.833	0.139	0.377
-333.245	670.065	0.046	0.119
-332.231	-76.870	-0.159	-0.055
-331.216	800.000	-0.162	0.534
-330.202	544.176	0.160	0.380
-329.187	114.015	0.122	-0.147
-328.172	52.484	-0.099	0.094
-327.158	190.665	0.217	-0.324
-326.143	-105.466	0.289	0.065
-325.129	89.052	-0.209	0.231
-324.114	-61.811	0.291	-0.121
-323.099	800.000	-0.051	0.214
-322.085	-6.967	-0.186	-0.125
-321.070	-29.323	-0.177	-0.100
-320.056	795.346	-0.012	-0.034
-319.041	-25.207	0.316	-0.185
-318.026	139.822	0.109	-0.142
-317.012	572.557	0.174	0.421
-315.997	338.895	0.103	-0.199
-314.983	800.000	0.083	0.235
-313.968	178.323	0.041	0.059
-312.953	540.960	-0.126	0.298
-311.939	-47.915	-0.155	-0.074
-310.924	46.732	0.050	0.046
-309.910	800.000	0.089	0.305
-308.895	-107.122	0.175	-0.038
-307.880	-143.700	-0.170	-0.016
-306.866	-200.000	0.068	-0.336
-305.851	140.075	-0.221	-0.289
-304.837	20.071	-0.160	-0.128
-303.822	16.093	0.274	0.214
-302.807	-55.573	0.157	-0.070
-301.793	800.000	0.070	0.198
-300.778	779.486	-0.078	0.210
-299.764	129.159	-0.220	-0.278
-298.749	-200.000	0.002	0.028
-297.735	37.768	0.206	-0.181
-296.720	800.000	-0.045	-0.126
-295.705	-25.551	0.077	-0.045
-294.691	63.629	0.253	0.251
-293.676	101.851	-0.156	-0.180
-292.662	150.890	-0.190	-0.256
-291.647	-93.358	-0.349	-0.096
-290.632	13.058	-0.061	-0.046
-289.618	-65.580	-0.147	-0.058
-288.603	68.082	-0.168	-0.171
-287.589	280.285	0.068	-0.121
-286.574	487.051	-0.114	-0.256
-285.559	140.128	0.278	0.363
-284.545	-38.306	0.292	0.153
-283.530	-69.242	-0.323	-0.123
-282.516	-125.022	-0.132	-0.020
-281.501	424.364	0.089	-0.189
-280.486	457.658	-0.090	0.199
-279.472	-54.412	-0.283	0.127
-278.457	-42.770	-0.033	0.017
-277.443	-55.877	-0.150	-0.066
-276.428	479.489	0.152	-0.340
-275.413	358.725	0.088	-0.174
-274.399	188.293	0.201	0.297
-273.384	-26.546	-0.217	-0.126
-272.370	65.588	-0.164	-0.164
-271.355	-200.000	0.045	0.302
-270.340	800.000	-0.068	0.248
-269.326	-40.092	-0.196	0.101
-268.311	-12.055	0.047	0.031
-267.297	108.905	0.236	0.279
-266.282	-8.217	-0.027	-0.018
-265.267	87.955	-0.038	0.042
-264.253	-66.776	-0.229	-0.089
-263.238	-135.795	0.176	-0.021
-262.224	20.496	0.154	0.123
-261.209	-148.698	0.063	-0.005
-260.195	-135.785	0.082	-0.010
-259.180	12.500	-0.358	-0.273
-258.165	-200.000	-0.040	-0.217
-257.151	18.907	-0.164	0.130
-256.136	-200.000	-0.028	0.157
-255.122	-200.000	-0.044	0.410
-254.107	-196.524	-0.134	0.001
-253.092	-29.206	-0.201	0.114
-252.078	-200.000	-0.008	-0.282
-251.063	800.000	0.071	-0.303
-250.049	79.898	0.169	-0.179
-249.034	-119.221	0.075	0.013
-248.019	-124.957	-0.093	0.014
-247.005	445.239	0.102	0.220
-245.990	112.408	0.260	0.310
-244.976	197.143	0.167	-0.251
-243.961	800.000	-0.047	0.128
-242.946	-84.709	-0.265	-0.082
-241.932	115.973	-0.225	0.272
-240.917	-139.755	0.150	-0.016
-239.903	-200.000	-0.061	0.300
-238.888	314.896	-0.093	-0.173
-237.873	800.000	-0.017	0.051
-236.859	-158.064	0.317	0.018
-235.844	800.000	-0.084	0.326
-234.830	-200.000	0.002	0.026
-233.815	800.000	-0.109	0.454
-232.800	465.355	0.071	-0.157
-231.786	61.403	-0.094	0.092
-230.771	800.000	-0.116	-0.432
-229.757	-200.000	0.017	0.112
-228.742	42.289	-0.146	-0.131
-227.727	201.531	-0.083	-0.126
-226.713	800.000	-0.101	0.286
-225.698	-70.462	0.149	-0.056
-224.684	-200.000	0.005	0.141
-223.669	-200.000	0.018	-0.286
-222.655	-88.787	0.205	-0.060
-221.640	800.000	-0.075	0.255
-220.625	-29.476	-0.207	0.117
-219.611	-200.000	-0.047	0.353
-218.596	-101.396	-0.232	0.056
-217.582	67.216	0.170	0.171
-216.567	-28.376	-0.070	0.040
-215.552	-200.000	0.017	-0.250
-214.538	-62.651	-0.217	0.089
-213.523	-200.000	-0.007	-0.265
-212.509	468.003	-0.039	0.087
-211.494	-96.950	0.368	0.095
-210.479	79.207	-0.218	-0.231
-209.465	-200.000	0.064	-0.479
-208.450	85.941	0.067	0.073
-207.436	122.303	0.086	0.106
-206.421	154.744	-0.161	0.218
-205.406	-52.256	-0.383	-0.175
-204.392	-115.672	-0.173	-0.032
-203.377	-42.389	0.117	-0.059
-202.363	248.789	-0.194	0.323
-201.348	800.000	0.085	-0.238
-200.333	39.821	-0.225	-0.199
-199.319	800.000	-0.070	-0.284
-198.304	800.000	-0.108	0.365
-197.290	-85.919	-0.143	0.044
-196.275	10.131	-0.065	-0.049
-195.260	-200.000	0.018	0.261
-194.246	-193.768	0.194	-0.002
-193.231	155.117	0.092	-0.124
-192.217	597.093	0.057	-0.139
-191.202	463.277	0.208	0.457
-190.187	-94.548	0.325	-0.087
-189.173	800.000	0.077	-0.211
-188.158	-105.794	0.293	0.065
-187.144	-79.382	-0.097	0.032
-186.129	41.783	0.110	0.099
-185.114	-101.371	0.391	0.094
-184.100	-65.491	0.097	-0.039
-183.085	307.667	0.215	-0.395
-182.071	-98.579	0.256	0.064
-181.056	62.549	-0.131	0.129
-180.042	-41.111	-0.169	-0.086
-179.027	-39.696	0.165	0.085
-178.012	-13.263	-0.180	-0.115
-176.998	-22.327	-0.172	0.102
-175.983	146.321	0.182	-0.241
-174.969	38.947	-0.241	0.212
-173.954	-86.850	-0.397	0.120
-172.939	-200.000	0.058	0.260
-171.925	-65.002	0.063	0.025
-170.910	86.155	-0.210	0.227
-169.896	396.859	-0.040	0.083
-168.881	26.010	0.086	0.071
-167.866	-67.811	-0.120	0.046
-166.852	-200.000	-0.096	-0.000
-165.837	-64.994	0.190	0.076
-164.823	-200.000	-0.015	0.295
-163.808	-200.000	0.000	0.013
-162.793	800.000	0.058	-0.181
-161.779	402.734	-0.058	-0.120
-160.764	434.099	0.091	0.194
-159.750	220.927	-0.233	0.368
-158.735	678.648	0.076	-0.195
-157.720	31.060	0.193	-0.163
-156.706	800.000	0.052	0.159
-155.691	-200.000	-0.004	0.021
-154.677	-24.566	0.176	0.103
-153.662	-139.368	0.191	0.020
-152.647	-16.079	-0.231	-0.144
-151.633	81.301	-0.177	-0.189
-150.618	86.739	0.133	-0.144
-149.604	342.051	-0.071	0.137
-148.589	209.050	-0.181	0.279
-147.574	-199.009	-0.142	0.001
-146.560	-62.405	0.283	0.116
-145.545	800.000	0.066	0.253
-144.531	800.000	-0.153	-0.431
-143.516	554.331	0.129	-0.305
-142.502	-98.397	-0.099	-0.025
-141.487	800.000	0.051	-0.142
-140.472	-71.639	-0.070	0.026
-139.458	-200.000	0.015	0.126
-138.443	-200.000	0.000	0.207
-137.429	-200.000	-0.000	-0.017
-136.414	-49.827	-0.317	-0.148
-135.399	-82.858	-0.447	-0.142
-134.385	800.000	-0.074	0.213
-133.370	5.953	0.444	-0.323
-132.356	-107.465	0.137	0.030
-131.341	-29.064	0.298	0.168
-130.326	582.913	-0.096	-0.232
-129.312	-134.476	-0.213	-0.026
-128.297	-31.995	-0.174	0.096
-127.283	-34.189	0.163	-0.088
-126.268	350.537	0.104	0.202
-125.253	-81.572	0.160	0.052
-124.239	-76.482	0.150	-0.052
-123.224	-28.854	-0.198	-0.112
-122.210	760.353	0.033	-0.089
