DTS Sentinel unit serial number:	SN413079Multiplexer serial number:	ORYXHardware model number:	OX4-SRSoftware version number:	ORYX F/W v4.00 Oryx Data Collector v3.7.2.0data status	okinstallation	princeton_trtdifferential loss correction	single-endedforward channel	channel 2reverse channel	N/Adate	2019/09/12time	19:19:49forward acquisition time	15.00reverse acquisition time	0.00gamma	496.2192k internal	0.2326k external	0.2326temperature offset calibration	1.0146default loss term (dB/km)	0.3790temperature slope calibration	1.0000multiplexer offset coefficient	1.0000multiplexer slope coefficient	1.0000fibre end	0.00T internal ref (°C)	32.44T ext. ref 1 (°C)	3.23T ext. ref 2 (°C)	27.03length (m)	temperature (°C)	Stokes	anti-Stokes-747.200	487.022	-0.254	-0.584
-746.185	-48.056	-0.475	0.232
-745.171	-150.124	-0.281	-0.022
-744.156	800.000	0.064	0.215
-743.142	-200.000	-0.039	-0.608
-742.127	-96.911	-0.577	-0.153
-741.112	-67.901	0.196	0.077
-740.098	-200.000	-0.089	0.496
-739.083	-90.659	0.666	0.194
-738.069	-118.412	0.670	-0.120
-737.054	-200.000	0.016	0.285
-736.039	-8.560	0.121	0.082
-735.025	800.000	-0.278	0.834
-734.010	-200.000	0.081	0.475
-732.996	94.381	-0.270	0.309
-731.981	-91.151	-0.669	-0.193
-730.966	163.647	-0.262	0.372
-729.952	61.525	0.416	-0.417
-728.937	-155.073	-0.555	-0.037
-727.923	119.944	-0.495	-0.618
-726.908	-137.170	0.231	-0.027
-725.894	43.199	0.810	-0.745
-724.879	-83.838	-0.213	-0.069
-723.864	719.511	0.195	0.523
-722.850	683.254	-0.356	0.936
-721.835	-75.614	-0.337	-0.121
-720.821	316.625	-0.206	0.392
-719.806	-73.024	-0.812	0.300
-718.791	-132.546	0.083	-0.011
-717.777	145.262	-0.300	-0.404
-716.762	539.892	-0.237	0.567
-715.748	523.248	0.090	-0.212
-714.733	271.803	0.347	-0.616
-713.718	-67.912	0.381	-0.150
-712.704	111.405	-0.131	-0.159
-711.689	-200.000	-0.027	-0.732
-710.675	-200.000	0.051	0.433
-709.660	105.242	0.017	0.020
-708.645	-94.848	0.606	-0.165
-707.631	800.000	0.245	-0.861
-706.616	-124.912	0.209	0.032
-705.602	313.426	-0.263	-0.499
-704.587	214.769	-0.266	0.424
-703.572	-19.600	0.284	0.177
-702.558	-182.204	0.469	0.009
-701.543	7.341	-0.321	-0.241
-700.529	-56.156	-0.466	-0.209
-699.514	-196.976	0.563	-0.004
-698.499	-56.844	-0.509	-0.227
-697.485	-22.021	0.207	-0.126
-696.470	-200.000	0.013	0.515
-695.456	506.941	0.137	0.319
-694.441	-28.099	0.275	-0.160
-693.426	-200.000	-0.029	0.207
-692.412	-200.000	-0.010	-0.181
-691.397	-93.698	-0.980	-0.272
-690.383	385.964	-0.269	0.559
-689.368	800.000	-0.262	-1.025
-688.354	359.945	-0.557	-1.122
-687.339	-68.442	-0.435	0.170
-686.324	-66.428	-0.442	0.177
-685.310	-200.000	0.012	0.098
-684.295	-92.869	-0.401	-0.113
-683.281	-79.776	-0.519	-0.176
-682.266	-108.853	-0.612	0.132
-681.251	547.366	-0.236	-0.567
-680.237	-200.000	0.104	-0.500
-679.222	-99.040	0.280	0.071
-678.208	-56.097	-0.323	0.145
-677.193	567.642	-0.147	-0.359
-676.178	77.569	-0.812	0.869
-675.164	30.289	-0.591	-0.507
-674.149	-200.000	0.181	-1.127
-673.135	64.660	-0.105	0.107
-672.120	726.641	0.060	-0.161
-671.105	25.554	0.472	-0.395
-670.091	-200.000	-0.077	-0.456
-669.076	55.391	0.338	0.329
-668.062	-172.810	0.471	-0.015
-667.047	101.320	-0.133	-0.155
-666.032	-149.224	0.538	-0.043
-665.018	-74.509	-0.525	0.190
-664.003	-137.109	-0.555	-0.064
-662.989	-147.014	-0.916	-0.079
-661.974	136.667	0.110	-0.145
-660.959	-20.876	-0.739	-0.456
-659.945	18.357	-0.180	-0.144
-658.930	-6.291	0.194	0.133
-657.916	108.307	-0.175	0.210
-656.901	48.320	0.242	-0.228
-655.886	-200.000	0.090	-0.428
-654.872	-200.000	-0.021	0.105
-653.857	-55.567	-0.623	0.280
-652.843	-125.869	-0.667	-0.101
-651.828	139.359	0.010	0.014
-650.814	257.792	-0.522	-0.903
-649.799	694.434	0.108	0.286
-648.784	-200.000	0.075	-0.479
-647.770	-42.527	0.940	0.481
-646.755	514.598	0.176	-0.414
-645.741	351.372	-0.083	0.165
-644.726	130.977	-0.500	0.645
-643.711	-94.824	-0.880	0.240
-642.697	212.174	-0.055	-0.088
-641.682	188.363	0.538	0.809
-640.668	421.334	-0.354	0.762
-639.653	-125.932	0.413	0.062
-638.638	-26.820	0.517	-0.304
-637.624	138.199	0.163	-0.215
-636.609	49.659	-0.393	-0.372
-635.595	-178.140	0.847	-0.020
-634.580	225.614	0.613	-0.998
-633.565	-65.999	-0.746	-0.299
-632.551	33.173	-0.161	-0.140
-631.536	-143.957	-0.338	-0.032
-630.522	376.227	0.199	-0.407
-629.507	129.422	0.404	-0.519
-628.492	87.411	0.604	-0.671
-627.478	21.110	-0.209	0.170
-626.463	-200.000	0.043	0.364
-625.449	22.729	0.310	-0.255
-624.434	800.000	-0.164	0.564
-623.419	-200.000	0.012	0.861
-622.405	-61.478	0.664	0.280
-621.390	-200.000	0.051	0.343
-620.376	64.893	0.112	-0.113
-619.361	-121.819	0.557	-0.092
-618.346	124.885	0.350	0.443
-617.332	71.439	0.071	0.074
-616.317	-119.357	-1.280	-0.223
-615.303	-134.488	-0.769	0.094
-614.288	-46.049	0.612	0.303
-613.273	800.000	0.128	-0.363
-612.259	-200.000	-0.019	-0.310
-611.244	42.196	-0.548	0.499
-610.230	20.181	-0.666	-0.540
-609.215	-12.316	0.654	-0.429
-608.201	800.000	0.241	-0.790
-607.186	41.508	0.464	-0.421
-606.171	-41.763	-0.266	-0.137
-605.157	65.265	0.856	0.868
-604.142	-200.000	0.077	0.848
-603.128	-117.138	-1.096	0.200
-602.113	317.268	-0.109	-0.207
-601.098	-68.487	0.381	0.148
-600.084	-139.937	0.438	0.046
-599.069	45.706	0.180	-0.167
-598.055	-157.558	-0.137	0.008
-597.040	800.000	0.126	-0.389
-596.025	263.405	0.157	-0.273
-595.011	800.000	0.078	-0.218
-593.996	800.000	-0.123	-0.474
-592.982	-4.848	0.796	-0.550
-591.967	-95.313	-0.740	0.200
-590.952	-95.054	-0.404	0.110
-589.938	-47.300	0.304	0.148
-588.923	-67.995	-0.218	-0.085
-587.909	-200.000	-0.084	-0.561
-586.894	-200.000	-0.065	-0.821
-585.879	-159.539	-0.390	-0.022
-584.865	-9.729	-0.460	0.307
-583.850	-64.257	-0.059	0.024
-582.836	-107.283	0.455	-0.100
-581.821	800.000	-0.135	0.415
-580.806	800.000	-0.064	0.244
-579.792	-109.931	-0.305	-0.064
-578.777	-27.096	-0.912	0.533
-577.763	24.949	-0.399	0.332
-576.748	-49.798	-0.915	0.435
-575.733	-182.611	0.487	-0.009
-574.719	-200.000	0.086	-0.396
-573.704	-72.257	-0.480	0.178
-572.690	-200.000	-0.083	0.506
-571.675	-109.718	-0.734	0.155
-570.661	-200.000	0.041	-0.196
-569.646	-104.300	-0.040	0.009
-568.631	-200.000	0.126	0.918
-567.617	-101.183	0.326	-0.080
-566.602	56.372	-0.513	0.500
-565.588	-48.096	0.300	0.145
-564.573	390.431	-0.224	-0.466
-563.558	-152.087	0.296	0.022
-562.544	-173.942	0.951	0.028
-561.529	-139.388	-0.935	0.100
-560.515	-70.137	0.434	-0.165
-559.500	-41.046	0.494	-0.255
-558.485	-200.000	0.067	-0.353
-557.471	-23.961	0.788	0.472
-556.456	-200.000	-0.208	-0.970
-555.442	48.495	-0.667	-0.626
-554.427	88.182	-0.270	0.300
-553.412	433.784	-0.218	0.474
-552.398	-163.836	-0.780	0.037
-551.383	-0.881	-0.151	-0.107
-550.369	247.375	-0.193	0.326
-549.354	800.000	0.025	-0.083
-548.339	31.476	-0.368	0.316
-547.325	-200.000	-0.159	0.754
-546.310	-45.479	0.679	-0.337
-545.296	259.289	0.235	0.405
-544.281	362.302	-0.056	-0.112
-543.266	63.447	-0.725	0.728
-542.252	7.523	0.668	0.500
-541.237	-200.000	-0.086	-0.554
-540.223	-11.227	-0.313	0.206
-539.208	-200.000	0.103	-0.508
-538.193	-83.779	-1.149	-0.366
-537.179	-200.000	-0.031	-0.899
-536.164	405.058	-0.128	-0.270
-535.150	800.000	-0.164	-0.602
-534.135	-13.409	0.298	-0.193
-533.121	-68.948	0.458	-0.177
-532.106	800.000	0.057	0.242
-531.091	-200.000	0.056	1.325
-530.077	152.092	-0.437	-0.596
-529.062	800.000	-0.059	-0.192
-528.048	432.790	0.110	-0.239
-527.033	-36.012	0.998	-0.539
-526.018	-18.312	-0.559	-0.350
-525.004	-200.000	0.148	-1.234
-523.989	152.557	-0.246	0.337
-522.975	56.289	-0.255	0.248
-521.960	-134.816	0.529	-0.064
-520.945	410.263	0.300	-0.635
-519.931	-160.835	-0.524	-0.028
-518.916	136.428	-0.429	0.559
-517.902	66.715	0.516	-0.525
-516.887	-167.070	-0.934	0.038
-515.872	-200.000	0.046	0.203
-514.858	-143.718	-0.504	0.048
-513.843	3.499	0.256	-0.187
-512.829	-200.000	-0.017	0.351
-511.814	-67.219	-0.417	-0.164
-510.799	-116.468	-1.220	-0.225
-509.785	-163.482	-0.092	0.004
-508.770	-200.000	0.195	0.886
-507.756	-105.265	0.261	0.059
-506.741	-167.987	0.766	-0.030
-505.726	-200.000	-0.014	0.403
-504.712	-200.000	-0.126	0.651
-503.697	-142.966	-0.575	0.056
-502.683	-112.428	1.465	0.292
-501.668	-200.000	-0.026	0.872
-500.653	50.947	0.535	-0.507
-499.639	-200.000	0.226	-1.069
-498.624	218.609	0.145	0.231
-497.610	119.991	0.376	-0.466
-496.595	-30.657	-0.433	0.245
-495.581	-146.117	0.586	-0.052
-494.566	-49.522	-0.304	-0.145
-493.551	-200.000	0.118	0.575
-492.537	-120.065	-0.822	-0.141
-491.522	363.553	0.065	-0.130
-490.508	97.532	-0.254	0.291
-489.493	-62.455	0.676	-0.281
-488.478	-82.717	0.679	0.219
-487.464	800.000	-0.167	0.511
-486.449	90.630	0.129	-0.144
-485.435	-148.543	0.801	0.065
-484.420	29.993	0.241	-0.205
-483.405	-17.221	0.086	0.054
-482.391	-6.106	0.818	0.558
-481.376	-122.961	-0.864	-0.139
-480.362	-104.714	0.876	0.201
-479.347	-200.000	0.020	-0.188
-478.332	-200.000	-0.152	-0.750
-477.318	272.133	-0.243	-0.428
-476.303	280.762	0.006	-0.010
-475.289	117.926	0.302	0.372
-474.274	-200.000	-0.031	0.330
-473.259	-72.461	0.744	-0.274
-472.245	-130.272	-0.948	0.129
-471.230	-200.000	0.003	-0.357
-470.216	-87.446	-0.399	0.121
-469.201	126.003	0.479	-0.605
-468.186	-91.216	-0.322	0.092
-467.172	-102.589	-0.173	-0.041
-466.157	-77.600	-0.522	-0.180
-465.143	-8.401	-0.429	0.288
-464.128	179.909	-0.650	0.950
-463.113	-200.000	-0.175	1.087
-462.099	-200.000	0.104	-0.604
-461.084	782.928	0.212	-0.578
-460.070	-17.202	0.159	-0.100
-459.055	-89.861	-0.785	-0.229
-458.040	-62.753	0.394	-0.163
-457.026	-117.945	-0.190	-0.034
-456.011	-160.990	-0.648	-0.034
-454.997	800.000	0.270	-0.766
-453.982	800.000	-0.169	-0.519
-452.968	800.000	-0.119	-0.340
-451.953	-200.000	-0.001	-0.297
-450.938	51.502	0.176	-0.167
-449.924	126.263	-0.346	0.436
-448.909	-200.000	0.073	-0.368
-447.895	-80.634	0.087	-0.029
-446.880	-119.664	-0.277	-0.048
-445.865	-16.295	0.278	-0.176
-444.851	-70.793	-0.666	0.250
-443.836	371.212	-0.423	0.856
-442.822	328.265	0.195	-0.373
-441.807	369.128	-0.095	-0.191
-440.792	-89.834	0.429	0.125
-439.778	655.224	-0.183	-0.467
-438.763	573.278	0.173	-0.420
-437.749	88.580	0.296	-0.328
-436.734	-13.195	-0.765	-0.495
-435.719	187.478	0.335	-0.497
-434.705	-70.243	0.343	0.130
-433.690	252.190	0.462	-0.784
-432.676	460.908	-0.193	0.429
-431.661	-140.026	-0.105	-0.011
-430.646	-200.000	-0.105	-0.532
-429.632	-43.297	-0.327	0.165
-428.617	48.068	-1.040	0.969
-427.603	-22.655	-0.866	0.522
-426.588	800.000	0.212	0.792
-425.573	671.093	0.363	0.936
-424.559	-137.346	0.480	0.054
-423.544	-60.175	0.624	-0.265
-422.530	800.000	0.132	-0.369
-421.515	-157.000	0.660	-0.040
-420.500	-91.281	0.491	-0.140
-419.486	-10.414	-0.546	-0.360
-418.471	195.457	-0.335	-0.507
-417.457	179.312	-0.466	0.678
-416.442	691.555	-0.456	-1.188
-415.428	-130.347	0.450	-0.061
-414.413	-90.041	0.398	0.116
-413.398	800.000	0.071	0.295
-412.384	156.923	-0.191	-0.263
-411.369	-81.831	0.958	0.312
-410.355	-150.896	-0.724	-0.055
-409.340	20.615	-0.510	0.410
-408.325	-200.000	0.033	-0.240
-407.311	33.455	0.295	-0.255
-406.296	228.251	0.406	-0.659
-405.282	-83.169	0.755	0.242
-404.267	406.565	-0.133	0.281
-403.252	12.545	-0.578	0.444
-402.238	-105.115	-0.466	0.106
-401.223	-53.664	-0.507	-0.231
-400.209	24.527	0.451	0.372
-399.194	-172.708	-0.953	0.030
-398.179	-200.000	-0.029	-0.433
-397.165	113.909	-0.204	-0.247
-396.150	-200.000	-0.010	-0.187
-395.136	-126.313	0.488	-0.072
-394.121	80.286	0.520	0.557
-393.106	-76.162	-0.294	0.103
-392.092	-83.744	-0.812	-0.258
-391.077	39.735	0.431	-0.385
-390.063	-41.165	0.480	0.246
-389.048	86.137	-0.348	0.381
-388.033	145.481	0.319	-0.425
-387.019	41.375	-0.239	0.215
-386.004	37.242	0.402	0.354
-384.990	-66.770	-0.232	0.091
-383.975	800.000	0.266	-0.762
-382.960	146.649	0.634	0.847
-381.946	68.195	-0.161	-0.164
-380.931	-200.000	0.054	-0.918
-379.917	2.002	-1.021	-0.733
-378.902	-38.789	1.404	0.736
-377.888	159.996	-0.407	0.564
-376.873	-9.871	-0.259	-0.171
-375.858	-107.868	-0.898	-0.194
-374.844	735.035	0.183	-0.489
-373.829	432.528	-0.269	-0.581
-372.815	502.175	-0.264	-0.607
-371.800	117.328	-0.373	0.456
-370.785	43.678	0.130	-0.118
-369.771	-200.000	-0.057	-0.565
-368.756	-182.588	0.618	0.011
-367.742	-177.493	-0.461	-0.011
-366.727	-49.966	-0.272	-0.128
-365.712	56.461	0.456	-0.441
-364.698	199.883	0.150	0.228
-363.683	-200.000	0.059	0.323
-362.669	800.000	0.194	-0.566
-361.654	-132.652	0.395	0.050
-360.639	-108.229	-1.048	0.225
-359.625	472.449	-0.173	-0.387
-358.610	121.701	0.380	-0.471
-357.596	-200.000	0.117	-0.631
-356.581	-113.190	-0.417	-0.082
-355.566	-101.167	0.719	0.175
-354.552	-46.940	0.059	-0.029
-353.537	-74.135	0.264	-0.095
-352.523	-200.000	-0.087	0.914
-351.508	-150.164	-0.362	0.028
-350.493	43.274	0.493	0.447
-349.479	-200.000	0.038	0.368
-348.464	-128.043	0.621	0.088
-347.450	62.750	0.214	-0.213
-346.435	800.000	0.094	-0.304
-345.420	-200.000	0.019	0.159
-344.406	-110.529	-0.490	-0.101
-343.391	121.696	-0.177	-0.219
-342.377	800.000	-0.083	-0.232
-341.362	-88.236	-0.184	-0.055
-340.348	-72.305	-0.646	-0.238
-339.333	137.770	0.638	0.829
-338.318	-37.964	-0.422	-0.222
-337.304	482.690	-0.181	0.409
-336.289	-7.140	0.140	0.094
-335.275	-200.000	-0.003	-0.354
-334.260	51.810	-0.434	0.410
-333.245	417.986	-0.314	0.666
-332.231	209.993	-0.312	-0.486
-331.216	146.545	-0.194	0.258
-330.202	-129.995	-0.148	0.020
-329.187	-200.000	0.065	-0.330
-328.172	-81.203	0.365	0.120
-327.158	-88.160	-0.592	-0.176
-326.143	-117.706	-0.541	0.097
-325.129	-89.974	-0.162	-0.047
-324.114	800.000	0.175	-0.646
-323.099	140.668	0.471	-0.617
-322.085	800.000	0.291	-1.055
-321.070	-83.210	0.445	-0.142
-320.056	73.928	0.427	-0.444
-319.041	137.920	-0.432	-0.561
-318.026	-34.727	0.423	-0.229
-317.012	50.635	0.832	-0.781
-315.997	399.214	-0.329	0.683
-314.983	361.061	-0.301	0.598
-313.968	7.862	-0.483	0.359
-312.953	-200.000	0.737	-0.003
-311.939	115.529	-0.585	0.709
-310.924	-71.796	0.490	-0.181
-309.910	-40.963	0.257	-0.132
-308.895	494.896	0.444	-1.011
-307.880	-132.202	0.746	-0.096
-306.866	-80.340	-0.098	0.032
-305.851	-168.671	-1.290	0.049
-304.837	-200.000	-0.111	-0.525
-303.822	6.359	-0.454	-0.334
-302.807	-87.309	0.658	0.198
-301.793	-200.000	-0.021	0.435
-300.778	250.204	0.534	-0.899
-299.764	130.345	-0.374	0.474
-298.749	485.676	0.341	0.769
-297.735	-5.398	0.219	0.149
-296.720	728.361	-0.235	0.622
-295.705	800.000	-0.127	0.486
-294.691	800.000	0.141	0.577
-293.676	-53.430	-0.381	-0.173
-292.662	-131.682	0.679	0.088
-291.647	-200.000	-0.021	0.357
-290.632	480.052	-0.169	0.379
-289.618	-200.000	-0.035	0.536
-288.603	-33.501	0.649	0.355
-287.589	-96.893	-0.602	-0.157
-286.574	788.002	0.184	0.500
-285.559	-181.467	0.879	0.017
-284.545	800.000	0.083	-0.302
-283.530	78.049	-0.308	-0.326
-282.516	-39.463	-0.203	-0.106
-281.501	-200.000	0.058	-0.294
-280.486	-124.916	-0.238	-0.036
-279.472	-74.356	-0.832	0.298
-278.457	800.000	-0.280	0.861
-277.443	-21.723	0.840	0.507
-276.428	-11.196	-0.542	0.354
-275.413	-143.016	-0.662	-0.063
-274.399	178.740	0.728	-1.054
-273.384	-177.130	0.689	-0.017
-272.370	-103.509	1.293	0.301
-271.355	-7.375	0.483	0.324
-270.340	800.000	-0.250	0.875
-269.326	218.665	-0.314	0.497
-268.311	800.000	-0.192	0.620
-267.297	-200.000	-0.018	-0.254
-266.282	800.000	-0.250	-0.997
-265.267	10.892	0.778	0.589
-264.253	129.996	-0.341	0.432
-263.238	800.000	0.073	-0.289
-262.224	-200.000	-0.040	-0.302
-261.209	-200.000	0.002	-0.164
-260.195	800.000	-0.082	-0.229
-259.180	-60.825	0.120	-0.050
-258.165	800.000	0.041	-0.133
-257.151	800.000	0.222	0.639
-256.136	48.405	0.197	-0.183
-255.122	-44.669	1.286	-0.636
-254.107	267.979	0.226	-0.391
-253.092	-200.000	-0.016	-0.458
-252.078	-179.099	-1.202	0.027
-251.063	-200.000	0.023	-0.313
-250.049	800.000	0.164	-0.509
-249.034	-129.282	-0.334	0.046
-248.019	112.531	-0.470	0.563
-247.005	395.048	-0.132	0.273
-245.990	67.630	-0.800	0.808
-244.976	-70.453	-0.548	-0.205
-243.961	-85.141	-0.453	0.140
-242.946	800.000	0.082	0.326
-241.932	800.000	-0.080	-0.329
-240.917	-111.162	0.370	-0.075
-239.903	800.000	-0.201	-0.631
-238.888	-200.000	-0.057	0.284
-237.873	-83.444	1.103	0.349
-236.859	-130.035	-0.207	0.028
-235.844	15.243	0.484	0.375
-234.830	-200.000	0.053	0.535
-233.815	-200.000	0.012	0.157
-232.800	-28.882	-0.267	-0.152
-231.786	-113.959	-0.579	-0.111
-230.771	159.035	-0.607	0.835
-229.757	-155.639	-0.680	-0.043
-228.742	797.615	0.234	0.638
-227.727	-2.825	-0.190	-0.131
-226.713	77.304	0.234	-0.246
-225.698	-17.550	0.919	-0.571
-224.684	-80.092	-0.799	-0.265
-223.669	800.000	0.154	-0.541
-222.655	800.000	0.180	-0.645
-221.640	-200.000	0.024	0.780
-220.625	-200.000	0.016	0.147
-219.611	-23.890	-0.226	0.133
-218.596	-72.917	1.080	-0.392
-217.582	116.180	0.145	0.176
-216.567	-73.253	0.337	0.122
-215.552	-200.000	-0.051	0.937
-214.538	-20.259	0.100	0.061
-213.523	-79.189	-0.638	0.214
-212.509	146.592	0.244	0.323
-211.494	-53.057	0.258	0.117
-210.479	146.980	-0.244	-0.324
-209.465	-34.215	0.264	0.143
-208.450	249.763	-0.361	-0.604
-207.436	800.000	-0.138	0.402
-206.421	37.074	0.321	0.280
-205.406	2.308	-0.297	-0.212
-204.392	-16.768	-0.430	-0.269
-203.377	-51.365	0.103	-0.047
-202.363	-163.305	-0.104	0.005
-201.348	336.930	0.184	0.353
-200.333	-200.000	-0.152	0.000
-199.319	133.798	-0.205	0.262
-198.304	-14.178	0.576	-0.367
-197.290	-90.334	-1.211	0.347
-196.275	-200.000	0.044	0.515
-195.260	-200.000	-0.143	0.752
-194.246	-84.717	-0.312	0.097
-193.231	2.091	-0.167	-0.119
-192.217	-122.255	0.361	-0.058
-191.202	-200.000	0.112	1.087
-190.187	800.000	0.134	0.546
-189.173	147.973	0.584	0.778
-188.158	11.964	-0.299	-0.227
-187.144	-200.000	-0.057	-0.517
-186.129	143.845	0.526	-0.692
-185.114	-185.158	0.878	0.014
-184.100	30.502	-0.313	0.264
-183.085	800.000	-0.274	-0.787
-182.071	-74.053	0.532	0.190
-181.056	-60.173	-0.146	-0.062
-180.042	99.689	-0.428	0.489
-179.027	569.862	0.195	0.468
-178.012	52.152	0.216	-0.203
-176.998	-87.704	0.437	0.130
-175.983	800.000	0.432	-1.275
-174.969	800.000	-0.068	-0.189
-173.954	800.000	0.150	0.628
-172.939	115.000	0.351	0.422
-171.925	800.000	0.432	-1.254
-170.910	22.119	0.206	0.166
-169.896	107.938	0.165	0.194
-168.881	-30.886	-0.635	0.354
-167.866	-200.000	0.082	-0.381
-166.852	-200.000	-0.044	0.464
-165.837	-200.000	0.040	0.748
-164.823	54.364	0.457	-0.434
-163.808	-200.000	0.078	-0.709
-162.793	-7.641	-0.385	-0.257
-161.779	-200.000	0.043	0.781
-160.764	-46.708	0.517	0.250
-159.750	-46.419	1.014	-0.491
-158.735	165.641	-0.665	0.926
-157.720	-200.000	-0.015	-0.140
-156.706	-47.274	0.258	-0.124
-155.691	655.616	0.231	0.584
-154.677	47.005	-0.180	-0.165
-153.662	-124.649	-0.294	-0.045
-152.647	-58.564	-0.404	-0.173
-151.633	-29.986	0.254	-0.143
-150.618	69.049	0.171	0.173
-149.604	-108.845	0.437	0.092
-148.589	-7.445	-0.322	-0.215
-147.574	543.586	0.403	-0.947
-146.560	-200.000	-0.013	0.518
-145.545	-50.595	0.304	-0.141
-144.531	147.940	0.227	0.302
-143.516	8.305	0.214	-0.159
-142.502	691.834	0.104	-0.269
-141.487	-200.000	0.032	-0.311
-140.472	-104.671	-0.345	-0.078
-139.458	55.620	-1.092	-1.042
-138.443	517.190	-0.527	-1.213
-137.429	67.177	0.433	-0.435
-136.414	-157.317	-0.688	-0.041
-135.399	500.090	0.097	0.219
-134.385	-122.903	-0.346	-0.055
-133.370	20.420	0.406	-0.323
-132.356	-200.000	-0.161	-1.290
-131.341	355.054	-0.240	-0.469
-130.326	19.788	-0.497	0.394
-129.312	325.331	0.275	-0.518
-128.297	200.444	0.248	-0.375
-127.283	-119.665	-0.278	-0.047
-126.268	-12.055	0.450	-0.290
-125.253	-110.799	0.636	0.129
-124.239	-1.151	0.924	0.643
-123.224	-186.303	0.625	0.009
