DTS Sentinel unit serial number:	SN413079Multiplexer serial number:	ORYXHardware model number:	OX4-SRSoftware version number:	ORYX F/W v4.00 Oryx Data Collector v3.7.2.0data status	okinstallation	princeton_trtdifferential loss correction	single-endedforward channel	channel 2reverse channel	N/Adate	2019/09/16time	03:39:34forward acquisition time	60.00reverse acquisition time	0.00gamma	496.2192k internal	0.2334k external	0.2334temperature offset calibration	0.9974default loss term (dB/km)	0.3790temperature slope calibration	1.0000multiplexer offset coefficient	1.0000multiplexer slope coefficient	1.0000fibre end	0.00T internal ref (°C)	27.62T ext. ref 1 (°C)	10.61T ext. ref 2 (°C)	21.73length (m)	temperature (°C)	Stokes	anti-Stokes-747.200	800.000	-0.071	-0.209
-746.185	-118.919	0.179	-0.032
-745.171	79.116	0.067	-0.073
-744.156	456.704	-0.091	-0.204
-743.142	-200.000	-0.028	-0.299
-742.127	-0.017	-0.180	-0.129
-741.112	-146.117	0.145	-0.013
-740.098	-82.955	-0.351	0.114
-739.083	130.592	0.181	0.233
-738.069	-57.011	-0.086	-0.038
-737.054	-191.437	0.432	0.004
-736.039	-60.007	-0.365	-0.157
-735.025	-122.661	0.281	0.046
-734.010	-147.557	-0.253	-0.021
-732.996	-27.316	-0.303	-0.177
-731.981	48.721	-0.091	-0.086
-730.966	-200.000	0.027	0.184
-729.952	-36.275	-0.129	-0.070
-728.937	-163.284	-0.381	-0.018
-727.923	-200.000	0.024	-0.176
-726.908	-116.130	-0.099	0.018
-725.894	-95.164	-0.132	0.036
-724.879	591.451	0.081	-0.200
-723.864	-200.000	0.031	0.149
-722.850	-66.051	-0.323	-0.130
-721.835	44.098	0.083	-0.077
-720.821	-161.548	-0.188	-0.010
-719.806	213.616	-0.172	0.273
-718.791	131.397	0.165	-0.213
-717.777	66.347	-0.173	-0.177
-716.762	-178.347	0.199	-0.005
-715.748	12.315	-0.291	0.225
-714.733	205.423	-0.149	-0.232
-713.718	-200.000	-0.036	-0.230
-712.704	-16.947	-0.221	-0.140
-711.689	-46.887	-0.200	0.098
-710.675	33.170	-0.248	0.216
-709.660	90.132	0.098	-0.110
-708.645	-174.542	0.209	-0.006
-707.631	-200.000	-0.076	0.408
-706.616	-155.261	-0.158	-0.010
-705.602	472.875	-0.109	0.246
-704.587	183.384	-0.175	-0.260
-703.572	571.848	0.063	-0.154
-702.558	-200.000	-0.034	-0.291
-701.543	158.712	0.025	0.036
-700.529	-200.000	-0.063	-0.286
-699.514	353.624	0.023	0.045
-698.499	78.364	-0.124	-0.133
-697.485	139.474	0.147	0.194
-696.470	119.977	0.283	0.352
-695.456	188.613	-0.169	-0.254
-694.441	19.578	0.081	-0.066
-693.426	-200.000	0.089	-0.531
-692.412	52.275	-0.113	-0.108
-691.397	-103.212	0.134	0.032
-690.383	-200.000	-0.019	0.229
-689.368	153.733	0.040	0.055
-688.354	218.999	-0.079	-0.127
-687.339	-31.965	0.152	-0.085
-686.324	-166.152	-0.061	0.003
-685.310	-141.383	-0.284	-0.029
-684.295	-76.584	-0.143	-0.050
-683.281	313.838	0.063	-0.119
-682.266	36.004	-0.203	0.179
-681.251	-45.446	-0.123	0.061
-680.237	-73.353	0.382	-0.140
-679.222	419.629	-0.116	-0.249
-678.208	800.000	-0.039	-0.151
-677.193	-147.355	-0.083	0.007
-676.178	-154.090	-0.237	0.016
-675.164	-200.000	0.009	-0.052
-674.149	-101.748	-0.202	0.049
-673.135	32.587	-0.205	0.178
-672.120	474.429	-0.175	-0.396
-671.105	238.552	-0.065	-0.108
-670.091	-200.000	-0.019	0.279
-669.076	-79.992	-0.085	-0.029
-668.062	-200.000	0.023	0.210
-667.047	244.424	0.156	0.262
-666.032	8.435	0.152	-0.114
-665.018	76.559	-0.263	0.279
-664.003	-126.470	-0.387	-0.058
-662.989	-87.737	0.252	0.076
-661.974	121.421	0.063	-0.078
-660.959	800.000	0.071	-0.265
-659.945	-200.000	-0.039	-0.331
-658.930	-133.953	0.052	-0.006
-657.916	78.377	-0.149	-0.159
-656.901	-123.369	-0.276	0.044
-655.886	297.080	-0.054	0.100
-654.872	800.000	-0.071	-0.280
-653.857	638.015	-0.097	-0.247
-652.843	285.805	-0.218	-0.395
-651.828	508.546	0.083	-0.194
-650.814	-29.443	-0.190	-0.109
-649.799	-130.842	-0.109	0.015
-648.784	-80.390	-0.121	0.041
-647.770	104.061	-0.178	-0.210
-646.755	-21.321	-0.191	0.117
-645.741	114.049	0.148	-0.180
-644.726	211.686	-0.068	0.107
-643.711	36.091	-0.090	0.079
-642.697	-200.000	0.065	0.328
-641.682	-131.736	-0.187	0.025
-640.668	75.003	-0.276	0.291
-639.653	-39.671	-0.143	0.075
-638.638	215.753	0.218	0.346
-637.624	225.553	0.098	-0.159
-636.609	-39.842	0.173	0.091
-635.595	302.335	0.164	0.304
-634.580	-8.468	-0.226	-0.152
-633.565	800.000	0.029	-0.083
-632.551	588.527	-0.141	-0.348
-631.536	390.811	0.051	0.106
-630.522	-200.000	0.008	0.078
-629.507	-45.001	-0.396	0.197
-628.492	64.691	-0.151	-0.153
-627.478	106.129	-0.189	0.224
-626.463	-56.642	-0.113	0.050
-625.449	-101.159	-0.148	-0.036
-624.434	-70.140	-0.161	0.061
-623.419	-96.465	-0.346	-0.091
-622.405	-200.000	0.004	0.269
-621.390	412.932	-0.144	0.306
-620.376	-13.491	-0.106	0.069
-619.361	73.865	-0.210	-0.220
-618.346	800.000	0.058	-0.218
-617.332	467.861	-0.132	0.295
-616.317	800.000	-0.173	0.546
-615.303	-200.000	0.002	0.147
-614.288	-200.000	0.045	-0.489
-613.273	372.301	0.098	0.198
-612.259	-200.000	0.006	0.122
-611.244	-200.000	-0.009	0.128
-610.230	128.844	0.040	0.051
-609.215	-89.721	0.124	0.036
-608.201	126.855	-0.179	0.226
-607.186	287.426	-0.057	-0.102
-606.171	216.471	-0.105	0.166
-605.157	-200.000	-0.018	0.291
-604.142	800.000	-0.093	0.303
-603.128	-150.791	-0.230	0.017
-602.113	-125.262	0.243	-0.037
-601.098	-80.569	0.224	0.075
-600.084	-146.873	0.094	-0.008
-599.069	82.995	-0.392	-0.426
-598.055	800.000	0.013	-0.042
-597.040	-200.000	0.004	0.078
-596.025	-138.451	-0.103	-0.011
-595.011	-115.284	0.119	0.022
-593.996	-57.816	0.292	0.127
-592.982	-170.682	0.299	0.010
-591.967	800.000	0.033	0.101
-590.952	-80.359	-0.099	-0.033
-589.938	-134.558	-0.121	0.015
-588.923	160.822	0.096	-0.134
-587.909	-200.000	-0.006	-0.139
-586.894	1.917	-0.056	-0.041
-585.879	12.668	0.118	0.091
-584.865	-24.913	-0.260	-0.154
-583.850	267.208	-0.116	0.203
-582.836	-68.475	0.031	-0.012
-581.821	-200.000	0.069	0.321
-580.806	-94.511	0.249	-0.068
-579.792	-128.563	-0.132	-0.019
-578.777	41.148	-0.188	0.170
-577.763	800.000	-0.114	0.405
-576.748	-198.175	-0.087	-0.001
-575.733	-148.109	-0.071	0.006
-574.719	800.000	0.070	-0.207
-573.704	-20.895	-0.172	0.105
-572.690	-19.894	-0.322	0.198
-571.675	800.000	0.021	-0.088
-570.661	800.000	-0.071	0.250
-569.646	-142.651	0.121	0.012
-568.631	-200.000	0.026	-0.194
-567.617	187.542	0.104	-0.155
-566.602	-151.073	-0.258	0.019
-565.588	434.159	-0.093	0.201
-564.573	-47.842	-0.141	-0.068
-563.558	800.000	0.068	-0.275
-562.544	17.859	0.142	0.112
-561.529	-200.000	0.064	-0.323
-560.515	-81.045	0.168	-0.055
-559.500	68.265	-0.137	-0.140
-558.485	87.645	-0.211	0.233
-557.471	-96.281	-0.157	-0.041
-556.456	-97.147	0.234	0.061
-555.442	-142.650	-0.186	0.018
-554.427	-200.000	-0.021	0.106
-553.412	127.587	0.155	0.197
-552.398	-35.934	0.104	0.056
-551.383	116.678	0.083	-0.102
-550.369	213.192	0.175	-0.276
-549.354	-200.000	0.017	0.232
-548.339	-155.544	-0.241	-0.015
-547.325	800.000	-0.026	0.100
-546.310	556.878	0.037	-0.089
-545.296	-200.000	-0.002	0.056
-544.281	-200.000	0.040	0.230
-543.266	-24.076	0.254	0.152
-542.252	-83.619	0.234	-0.075
-541.237	-17.149	-0.322	-0.202
-540.223	-178.977	-0.201	-0.005
-539.208	-80.427	-0.214	0.071
-538.193	8.162	0.214	-0.160
-537.179	-29.915	-0.132	0.075
-536.164	214.355	0.129	0.204
-535.150	-45.398	-0.173	-0.086
-534.135	73.659	0.126	-0.132
-533.121	-149.513	-0.290	0.023
-532.106	-49.188	-0.095	0.045
-531.091	-59.565	-0.254	0.108
-530.077	-48.091	0.203	0.098
-529.062	-35.124	-0.183	-0.099
-528.048	-200.000	0.051	-0.245
-527.033	-121.985	0.254	0.042
-526.018	419.759	0.088	-0.188
-525.004	800.000	-0.090	-0.297
-523.989	-123.567	0.135	0.021
-522.975	55.157	0.226	0.218
-521.960	-122.494	-0.122	0.020
-520.945	200.531	-0.186	-0.285
-519.931	-200.000	-0.005	0.069
-518.916	-60.464	0.292	-0.124
-517.902	-102.218	-0.509	-0.122
-516.887	800.000	-0.018	-0.079
-515.872	249.330	0.070	0.119
-514.858	800.000	-0.088	0.367
-513.843	-200.000	0.017	-0.129
-512.829	28.971	0.163	-0.137
-511.814	-192.626	0.203	0.002
-510.799	-200.000	0.005	-0.302
-509.785	200.108	0.094	-0.144
-508.770	97.006	-0.056	-0.064
-507.756	-52.608	-0.041	0.019
-506.741	-151.067	-0.159	-0.012
-505.726	16.372	0.274	-0.215
-504.712	-61.230	-0.194	-0.081
-503.697	-104.681	-0.095	0.022
-502.683	149.317	0.151	0.203
-501.668	278.275	0.026	-0.046
-500.653	-200.000	-0.032	0.210
-499.639	-118.391	-0.166	0.029
-498.624	294.483	-0.153	-0.278
-497.610	15.192	0.250	-0.195
-496.595	-12.359	-0.211	-0.137
-495.581	-36.512	0.190	0.102
-494.566	253.909	-0.130	0.221
-493.551	13.913	-0.095	0.074
-492.537	-28.595	0.095	0.055
-491.522	-142.000	0.219	-0.022
-490.508	-200.000	-0.003	-0.069
-489.493	214.089	-0.035	0.055
-488.478	-55.298	0.412	-0.184
-487.464	-115.638	0.279	0.052
-486.449	-34.342	-0.181	-0.099
-485.435	-200.000	-0.023	0.441
-484.420	79.875	0.257	0.275
-483.405	298.408	-0.120	-0.219
-482.391	-200.000	-0.018	0.231
-481.376	-9.006	0.422	0.281
-480.362	800.000	-0.101	0.407
-479.347	800.000	0.051	-0.205
-478.332	4.577	-0.172	-0.125
-477.318	261.814	0.079	-0.137
-476.303	-66.859	0.281	-0.111
-475.289	59.875	-0.166	-0.163
-474.274	-143.545	-0.088	-0.008
-473.259	490.576	-0.143	0.324
-472.245	728.247	-0.010	-0.026
-471.230	-58.507	-0.025	-0.011
-470.216	-4.865	0.049	-0.034
-469.201	-137.264	-0.310	-0.035
-468.186	121.553	0.250	-0.309
-467.172	-128.206	-0.038	-0.005
-466.157	800.000	-0.057	-0.184
-465.143	-55.309	-0.162	-0.072
-464.128	719.477	0.076	-0.202
-463.113	188.013	0.206	0.306
-462.099	253.070	0.124	0.210
-461.084	800.000	0.102	0.302
-460.070	-105.050	0.038	0.009
-459.055	46.067	0.073	-0.067
-458.040	-95.363	-0.202	-0.054
-457.026	84.729	0.240	-0.261
-456.011	800.000	-0.062	-0.238
-454.997	45.102	-0.204	-0.187
-453.982	800.000	0.062	0.263
-452.968	-106.222	-0.264	-0.059
-451.953	220.819	0.077	0.122
-450.938	800.000	0.060	-0.190
-449.924	-110.421	0.371	0.076
-448.909	-96.413	0.233	0.061
-447.895	-56.171	-0.206	0.091
-446.880	-68.037	-0.185	0.072
-445.865	79.398	0.179	0.190
-444.851	150.584	-0.092	0.124
-443.836	-76.195	-0.236	0.083
-442.822	131.477	-0.099	-0.127
-441.807	-200.000	-0.058	-0.310
-440.792	-90.367	-0.311	-0.090
-439.778	-200.000	-0.067	0.354
-438.763	187.781	0.033	0.048
-437.749	-149.598	-0.252	-0.020
-436.734	188.599	0.054	0.080
-435.719	51.143	-0.239	-0.225
-434.705	424.054	0.032	0.069
-433.690	-6.406	0.064	-0.044
-432.676	-102.385	-0.320	-0.076
-431.661	-190.689	0.273	0.003
-430.646	0.112	0.086	0.061
-429.632	30.361	0.254	0.216
-428.617	-200.000	0.002	-0.017
-427.603	251.539	0.157	0.266
-426.588	-19.944	0.230	0.141
-425.573	-173.427	0.230	-0.007
-424.559	-128.393	0.414	0.058
-423.544	-200.000	0.044	-0.235
-422.530	450.813	0.119	-0.260
-421.515	40.479	-0.299	0.268
-420.500	-200.000	-0.038	0.236
-419.486	-151.181	0.013	-0.001
-418.471	-200.000	0.029	0.286
-417.457	356.102	-0.085	0.167
-416.442	-8.955	-0.038	-0.026
-415.428	66.944	-0.131	-0.132
-414.413	-2.086	0.043	-0.030
-413.398	-135.530	0.116	-0.014
-412.384	464.409	0.052	-0.115
-411.369	292.435	0.054	-0.098
-410.355	32.106	-0.240	-0.205
-409.340	-70.211	0.363	-0.137
-408.325	-200.000	-0.017	0.324
-407.311	800.000	0.033	0.092
-406.296	800.000	0.009	0.039
-405.282	-157.378	-0.118	0.007
-404.267	800.000	-0.058	-0.188
-403.252	-200.000	0.008	0.186
-402.238	-191.540	-0.143	0.001
-401.223	-143.208	-0.069	-0.007
-400.209	-183.154	-0.156	-0.003
-399.194	800.000	-0.141	-0.410
-398.179	-125.137	-0.147	0.022
-397.165	51.079	0.160	0.150
-396.150	-200.000	-0.069	-0.306
-395.136	800.000	-0.057	0.205
-394.121	68.707	0.273	0.278
-393.106	-70.459	-0.248	0.093
-392.092	-200.000	0.002	-0.160
-391.077	79.016	-0.197	0.209
-390.063	338.410	-0.079	-0.152
-389.048	-200.000	-0.036	0.186
-388.033	-200.000	0.010	-0.530
-387.019	-200.000	0.055	-0.460
-386.004	-42.873	0.409	0.206
-384.990	405.607	0.116	-0.242
-383.975	800.000	-0.148	-0.506
-382.960	-200.000	0.043	-0.494
-381.946	800.000	0.119	0.372
-380.931	-95.070	0.268	0.072
-379.917	-87.651	0.148	-0.044
-378.902	-122.547	0.288	0.046
-377.888	-49.953	0.468	0.220
-376.873	-55.396	0.263	-0.117
-375.858	-61.844	0.172	0.071
-374.844	350.745	0.176	0.346
-373.829	388.035	0.040	-0.082
-372.815	141.249	0.042	-0.055
-371.800	7.689	0.211	-0.156
-370.785	239.676	-0.138	0.227
-369.771	-200.000	0.008	-0.080
-368.756	-200.000	0.022	-0.215
-367.742	-155.028	-0.195	0.013
-366.727	-70.840	0.315	-0.118
-365.712	57.351	-0.218	0.211
-364.698	-87.640	0.245	0.073
-363.683	777.415	-0.065	-0.175
-362.669	6.799	-0.162	0.119
-361.654	53.011	-0.115	0.109
-360.639	-64.843	-0.116	0.046
-359.625	800.000	0.009	0.035
-358.610	157.160	0.138	-0.188
-357.596	800.000	-0.021	-0.087
-356.581	-85.690	0.284	-0.087
-355.566	-1.331	-0.234	-0.163
-354.552	800.000	-0.047	-0.157
-353.537	509.185	0.162	0.372
-352.523	17.655	-0.163	-0.128
-351.508	-200.000	-0.015	-0.119
-350.493	-61.728	-0.249	-0.103
-349.479	239.213	-0.172	-0.283
-348.464	-108.832	-0.295	0.062
-347.450	-55.540	0.258	0.115
-346.435	614.318	-0.142	-0.351
-345.420	-200.000	-0.018	0.151
-344.406	800.000	-0.090	-0.291
-343.391	120.320	-0.100	-0.123
-342.377	-61.339	0.059	0.025
-341.362	800.000	0.061	-0.187
-340.348	-200.000	-0.007	-0.182
-339.333	-87.991	0.210	-0.062
-338.318	157.186	0.241	0.330
-337.304	111.429	0.194	0.231
-336.289	-32.653	0.101	0.056
-335.275	-170.868	0.081	-0.003
-334.260	100.753	0.199	-0.229
-333.245	800.000	-0.044	0.189
-332.231	-78.496	-0.237	-0.080
-331.216	-97.934	-0.194	-0.050
-330.202	-200.000	0.014	0.313
-329.187	-200.000	-0.015	-0.277
-328.172	-79.691	0.232	0.077
-327.158	-175.084	0.251	0.007
-326.143	190.157	0.156	0.232
-325.129	-37.108	-0.155	-0.082
-324.114	1.961	0.154	-0.110
-323.099	275.673	-0.098	0.173
-322.085	-83.257	-0.223	0.071
-321.070	545.758	0.029	-0.068
-320.056	142.651	-0.098	-0.129
-319.041	-153.306	0.281	0.019
-318.026	-74.963	-0.174	-0.062
-317.012	-200.000	-0.008	0.192
-315.997	-165.455	0.307	-0.013
-314.983	-200.000	-0.019	-0.130
-313.968	-64.082	-0.299	-0.120
-312.953	-83.602	0.032	-0.010
-311.939	-200.000	0.049	0.278
-310.924	59.176	-0.098	-0.095
-309.910	-105.991	-0.147	-0.033
-308.895	164.197	-0.045	0.063
-307.880	-167.110	0.179	-0.007
-306.866	-88.178	-0.214	0.063
-305.851	-93.235	-0.247	0.068
-304.837	-200.000	0.009	-0.231
-303.822	-151.236	0.204	0.015
-302.807	-93.570	0.113	-0.031
-301.793	-157.642	0.137	0.008
-300.778	-200.000	0.027	-0.125
-299.764	800.000	0.066	-0.272
-298.749	305.402	-0.131	-0.241
-297.735	-7.037	0.238	-0.160
-296.720	731.858	-0.062	-0.165
-295.705	-106.543	-0.485	-0.107
-294.691	-29.777	0.094	-0.053
-293.676	-93.208	0.384	-0.106
-292.662	511.202	0.076	-0.174
-291.647	-18.351	0.139	0.086
-290.632	-88.298	0.139	0.041
-289.618	-121.857	0.318	0.052
-288.603	-107.160	-0.365	-0.080
-287.589	-72.744	0.363	0.132
-286.574	274.335	0.154	-0.270
-285.559	-149.065	-0.158	-0.013
-284.545	-200.000	-0.057	0.334
-283.530	-159.141	0.111	0.006
-282.516	800.000	-0.051	-0.145
-281.501	30.689	-0.216	-0.183
-280.486	-46.587	-0.274	-0.133
-279.472	800.000	0.021	-0.080
-278.457	83.428	0.124	0.133
-277.443	-75.649	-0.277	0.097
-276.428	-55.835	0.081	0.036
-275.413	-57.918	0.151	0.065
-274.399	-200.000	-0.011	0.093
-273.384	-160.693	0.298	-0.016
-272.370	6.802	-0.189	0.139
-271.355	-200.000	0.121	0.001
-270.340	112.805	0.141	-0.169
-269.326	-179.668	-0.246	-0.005
-268.311	-69.866	0.413	-0.155
-267.297	60.714	-0.037	0.036
-266.282	800.000	-0.037	-0.133
-265.267	-200.000	-0.035	-0.174
-264.253	-75.406	0.316	-0.111
-263.238	-200.000	0.008	0.048
-262.224	76.123	-0.210	0.220
-261.209	800.000	-0.081	0.302
-260.195	-21.897	0.050	-0.030
-259.180	800.000	0.077	-0.229
-258.165	107.877	-0.126	-0.147
-257.151	31.715	-0.120	0.102
-256.136	-14.960	0.076	-0.048
-255.122	-77.591	-0.278	0.095
-254.107	-77.103	0.203	-0.070
-253.092	575.349	-0.034	-0.082
-252.078	-81.984	0.177	0.057
-251.063	24.200	-0.053	0.043
-250.049	-200.000	0.010	0.214
-249.034	-41.508	0.264	0.134
-248.019	-137.495	-0.308	0.034
-247.005	572.473	-0.188	-0.452
-245.990	494.715	0.084	-0.189
-244.976	-200.000	0.174	-0.000
-243.961	57.492	-0.175	0.168
-242.946	197.763	-0.065	0.097
-241.932	800.000	-0.029	-0.115
-240.917	-13.930	-0.151	-0.096
-239.903	-132.280	-0.089	-0.011
-238.888	-200.000	-0.022	0.190
-237.873	219.094	0.129	0.203
-236.859	181.409	0.166	0.240
-235.844	-200.000	-0.003	0.058
-234.830	-125.440	0.413	0.062
-233.815	-8.960	0.220	0.145
-232.800	-200.000	0.023	-0.275
-231.786	-76.284	-0.131	0.045
-230.771	88.862	0.038	-0.042
-229.757	16.746	0.216	-0.169
-228.742	-56.035	0.123	-0.054
-227.727	-95.100	-0.120	-0.032
-226.713	-169.102	0.140	0.005
-225.698	62.662	-0.280	-0.276
-224.684	334.315	0.015	-0.028
-223.669	121.651	-0.016	0.020
-222.655	693.758	0.114	-0.295
-221.640	45.700	0.295	-0.269
-220.625	119.738	0.056	0.069
-219.611	60.479	0.119	-0.116
-218.596	-6.104	0.125	-0.084
-217.582	-29.394	-0.159	0.090
-216.567	17.212	0.109	0.085
-215.552	304.469	0.125	0.228
-214.538	288.832	-0.156	0.279
-213.523	50.105	0.260	0.242
-212.509	800.000	0.050	-0.179
-211.494	-104.454	0.056	-0.013
-210.479	573.571	0.096	-0.231
-209.465	800.000	-0.019	0.057
-208.450	-200.000	0.040	0.185
-207.436	800.000	-0.075	-0.257
-206.421	324.171	0.106	-0.199
-205.406	-62.898	-0.084	0.034
-204.392	301.954	0.089	-0.162
-203.377	-167.604	0.403	-0.016
-202.363	-52.926	-0.079	-0.036
-201.348	13.819	-0.122	0.093
-200.333	14.456	-0.082	-0.063
-199.319	800.000	0.052	-0.154
-198.304	-200.000	0.038	-0.530
-197.290	172.026	0.104	-0.147
-196.275	469.610	-0.137	0.302
-195.260	-200.000	0.008	-0.249
-194.246	-110.726	0.075	0.015
-193.231	-200.000	-0.015	0.503
-192.217	-200.000	0.041	0.254
-191.202	144.775	0.157	0.206
-190.187	99.659	-0.199	-0.227
-189.173	-77.642	-0.347	0.118
-188.158	462.775	0.051	-0.111
-187.144	-194.086	-0.154	-0.001
-186.129	800.000	-0.110	0.315
-185.114	-169.154	-0.339	-0.012
-184.100	-149.877	0.147	-0.011
-183.085	18.527	0.130	0.102
-182.071	184.562	0.172	0.250
-181.056	-59.624	0.165	-0.070
-180.042	-200.000	-0.081	-0.417
-179.027	-200.000	0.001	-0.005
-178.012	-33.196	0.214	-0.117
-176.998	-8.075	-0.114	-0.076
-175.983	-49.695	-0.103	-0.048
-174.969	-86.920	-0.443	0.133
-173.954	-200.000	-0.017	0.187
-172.939	-27.663	0.099	-0.057
-171.925	221.329	-0.208	0.329
-170.910	569.671	0.094	0.225
-169.896	800.000	-0.031	0.131
-168.881	-14.634	-0.092	0.058
-167.866	-56.356	-0.233	-0.102
-166.852	-200.000	0.071	0.397
-165.837	-124.387	-0.469	0.072
-164.823	-200.000	-0.046	0.472
-163.808	469.027	-0.073	0.161
-162.793	-200.000	-0.026	0.156
-161.779	284.006	0.162	-0.287
-160.764	-200.000	0.008	0.047
-159.750	-200.000	-0.055	-0.476
-158.735	69.710	0.048	0.049
-157.720	-200.000	0.080	-0.387
-156.706	-200.000	0.001	-0.156
-155.691	-9.423	0.078	-0.051
-154.677	-101.503	-0.113	-0.027
-153.662	336.185	-0.148	0.282
-152.647	503.886	0.169	-0.383
-151.633	743.918	-0.060	-0.158
-150.618	-73.012	0.291	0.105
-149.604	-128.693	-0.296	-0.041
-148.589	82.493	-0.094	-0.101
-147.574	-18.607	0.344	0.211
-146.560	-24.927	-0.105	-0.061
-145.545	-200.000	0.041	0.205
-144.531	145.861	-0.082	-0.108
-143.516	-200.000	-0.030	0.194
-142.502	13.966	-0.202	-0.154
-141.487	130.462	0.069	0.087
-140.472	-1.559	0.055	-0.038
-139.458	-62.656	-0.276	0.112
-138.443	-136.611	0.322	0.037
-137.429	156.064	-0.032	-0.043
-136.414	73.958	0.044	-0.046
-135.399	-200.000	-0.008	-0.158
-134.385	171.595	0.146	-0.205
-133.370	206.116	-0.129	0.197
-132.356	270.639	-0.083	0.142
-131.341	106.506	-0.243	-0.283
-130.326	-120.960	0.145	0.024
-129.312	-91.598	-0.165	0.046
-128.297	779.130	-0.089	-0.239
-127.283	-50.475	-0.172	-0.080
-126.268	395.593	-0.091	-0.185
-125.253	-77.305	-0.276	0.094
-124.239	9.657	0.155	0.116
-123.224	5.402	0.267	-0.193
