DTS Sentinel unit serial number:	SN413079Multiplexer serial number:	ORYXHardware model number:	OX4-SRSoftware version number:	ORYX F/W v4.00 Oryx Data Collector v3.7.2.0data status	okinstallation	princeton_trtdifferential loss correction	single-endedforward channel	channel 2reverse channel	N/Adate	2019/09/15time	13:27:34forward acquisition time	60.00reverse acquisition time	0.00gamma	496.2192k internal	0.2306k external	0.2306temperature offset calibration	0.9993default loss term (dB/km)	0.3790temperature slope calibration	1.0000multiplexer offset coefficient	1.0000multiplexer slope coefficient	1.0000fibre end	0.00T internal ref (°C)	37.50T ext. ref 1 (°C)	4.89T ext. ref 2 (°C)	34.53length (m)	temperature (°C)	Stokes	anti-Stokes-747.200	-31.852	-0.082	-0.046
-746.185	-64.457	-0.090	0.037
-745.171	-200.000	0.016	-0.317
-744.156	61.118	0.029	0.029
-743.142	53.674	0.207	0.202
-742.127	800.000	-0.059	0.253
-741.112	-44.853	-0.094	0.048
-740.098	-80.517	0.161	0.055
-739.083	800.000	-0.086	0.252
-738.069	107.182	-0.087	-0.105
-737.054	46.987	-0.346	0.328
-736.039	800.000	-0.011	-0.033
-735.025	-200.000	0.014	0.428
-734.010	235.220	-0.201	-0.337
-732.996	-200.000	-0.041	0.243
-731.981	-93.041	-0.331	-0.094
-730.966	800.000	0.044	-0.145
-729.952	800.000	0.044	0.172
-728.937	297.254	-0.122	-0.229
-727.923	209.339	0.070	0.112
-726.908	-123.960	0.040	-0.006
-725.894	169.114	-0.183	-0.265
-724.879	12.048	-0.155	-0.121
-723.864	-143.671	0.067	0.007
-722.850	-139.074	-0.327	0.036
-721.835	-113.829	0.124	0.025
-720.821	109.489	-0.095	-0.116
-719.806	-91.969	-0.286	-0.082
-718.791	54.816	0.114	0.111
-717.777	229.320	-0.038	-0.063
-716.762	-72.457	-0.312	0.117
-715.748	-58.799	-0.558	0.246
-714.733	-200.000	0.038	0.185
-713.718	46.748	0.222	-0.209
-712.704	-144.947	0.255	-0.024
-711.689	338.483	-0.088	-0.174
-710.675	-200.000	0.031	-0.161
-709.660	20.706	-0.182	0.149
-708.645	800.000	-0.043	-0.146
-707.631	-81.411	-0.291	0.097
-706.616	67.791	0.117	-0.122
-705.602	-108.540	-0.157	0.034
-704.587	367.608	-0.048	0.098
-703.572	-200.000	-0.013	0.110
-702.558	-200.000	-0.035	-0.295
-701.543	-200.000	-0.003	-0.080
-700.529	-82.394	-0.353	-0.117
-699.514	114.530	0.026	0.032
-698.499	-200.000	0.018	-0.183
-697.485	-200.000	0.016	-0.268
-696.470	800.000	-0.072	0.206
-695.456	-165.563	0.261	0.012
-694.441	18.518	0.186	-0.151
-693.426	-126.855	-0.202	0.030
-692.412	-30.711	0.207	0.119
-691.397	-132.179	-0.083	0.011
-690.383	87.956	0.119	-0.133
-689.368	-200.000	0.060	-0.385
-688.354	40.992	0.077	-0.071
-687.339	-151.435	-0.212	0.016
-686.324	149.447	0.143	-0.196
-685.310	156.904	-0.091	0.128
-684.295	-117.824	0.331	0.060
-683.281	131.302	0.142	-0.185
-682.266	-144.289	-0.388	0.037
-681.251	-59.664	-0.168	0.073
-680.237	-59.447	0.086	0.038
-679.222	-200.000	0.028	0.216
-678.208	71.896	0.234	0.247
-677.193	-200.000	0.021	0.344
-676.178	37.990	-0.187	0.169
-675.164	-105.072	0.179	0.042
-674.149	231.154	0.168	0.280
-673.135	800.000	-0.101	0.322
-672.120	-78.229	-0.183	0.064
-671.105	800.000	0.042	0.166
-670.091	-200.000	0.008	0.084
-669.076	368.792	-0.085	0.174
-668.062	-61.030	-0.074	0.032
-667.047	522.476	0.094	-0.225
-666.032	5.276	-0.048	0.036
-665.018	-98.100	-0.291	0.076
-664.003	-200.000	-0.012	-0.193
-662.989	408.971	0.067	0.143
-661.974	407.644	0.119	-0.255
-660.959	127.798	-0.095	0.123
-659.945	-162.537	-0.342	-0.017
-658.930	-200.000	-0.001	-0.006
-657.916	44.023	0.214	0.198
-656.901	-142.768	0.261	0.026
-655.886	81.529	0.251	0.275
-654.872	14.925	-0.081	0.064
-653.857	-200.000	-0.061	-0.477
-652.843	89.007	-0.053	-0.060
-651.828	441.839	0.053	0.118
-650.814	293.218	-0.085	0.157
-649.799	-200.000	-0.006	-0.228
-648.784	96.952	0.179	-0.208
-647.770	-200.000	-0.039	0.331
-646.755	-27.683	-0.223	0.131
-645.741	167.577	0.039	-0.056
-644.726	107.337	0.117	-0.140
-643.711	364.713	-0.126	-0.258
-642.697	-200.000	0.023	-0.157
-641.682	800.000	0.046	0.158
-640.668	-139.749	-0.222	-0.024
-639.653	-99.178	-0.304	0.078
-638.638	800.000	-0.104	-0.306
-637.624	-200.000	0.010	-0.154
-636.609	267.741	-0.058	-0.102
-635.595	-148.884	-0.177	-0.014
-634.580	293.164	-0.139	-0.256
-633.565	213.061	-0.082	-0.130
-632.551	-58.216	0.048	0.021
-631.536	151.480	0.135	0.186
-630.522	-93.993	-0.035	-0.010
-629.507	116.247	0.085	0.106
-628.492	89.859	0.241	0.273
-627.478	-199.865	-0.246	0.001
-626.463	228.808	-0.137	0.226
-625.449	268.082	-0.097	0.173
-624.434	-100.363	0.187	-0.047
-623.419	-200.000	-0.065	-0.442
-622.405	107.022	0.075	0.090
-621.390	-200.000	-0.054	0.289
-620.376	180.800	-0.099	0.148
-619.361	-57.390	-0.025	-0.011
-618.346	-89.366	-0.067	0.020
-617.332	73.340	0.209	0.221
-616.317	-139.409	0.365	0.040
-615.303	139.047	0.268	-0.357
-614.288	194.989	-0.269	-0.414
-613.273	17.454	-0.183	-0.147
-612.259	-62.689	0.325	0.136
-611.244	-200.000	0.010	0.127
-610.230	439.710	-0.090	-0.199
-609.215	-55.108	-0.201	-0.092
-608.201	456.692	-0.158	0.355
-607.186	27.352	-0.093	-0.079
-606.171	-8.701	-0.171	0.116
-605.157	-200.000	0.003	-0.113
-604.142	5.368	0.250	0.187
-603.128	-100.372	0.330	0.083
-602.113	-7.509	-0.089	0.061
-601.098	-0.971	0.103	-0.073
-600.084	800.000	-0.061	-0.213
-599.069	-200.000	-0.021	0.298
-598.055	126.139	-0.157	0.200
-597.040	528.380	0.110	0.263
-596.025	-96.246	0.130	0.035
-595.011	-200.000	0.019	0.197
-593.996	179.171	0.056	-0.083
-592.982	800.000	-0.077	0.266
-591.967	-200.000	0.051	0.229
-590.952	-108.252	-0.198	-0.043
-589.938	-136.499	0.392	-0.046
-588.923	42.849	-0.205	-0.189
-587.909	39.742	0.113	-0.103
-586.894	-111.575	0.249	-0.051
-585.879	41.633	0.155	-0.142
-584.865	-74.407	0.038	0.014
-583.850	-136.509	0.115	0.013
-582.836	403.773	-0.194	0.413
-581.821	-112.371	0.226	0.046
-580.806	-48.444	0.089	-0.044
-579.792	800.000	-0.085	-0.279
-578.777	-127.860	-0.181	-0.026
-577.763	800.000	0.061	-0.238
-576.748	-200.000	0.042	-0.293
-575.733	-121.947	-0.254	-0.042
-574.719	-164.825	-0.381	-0.017
-573.704	-200.000	0.006	-0.243
-572.690	-200.000	0.088	0.448
-571.675	82.499	-0.131	-0.144
-570.661	-74.282	-0.038	0.014
-569.646	169.033	-0.099	-0.142
-568.631	-148.282	-0.250	-0.021
-567.617	176.752	0.168	-0.247
-566.602	-170.220	-0.226	0.008
-565.588	-163.624	-0.131	-0.006
-564.573	129.257	-0.088	-0.114
-563.558	-14.110	-0.191	0.125
-562.544	-125.345	-0.070	0.011
-561.529	72.440	-0.081	0.085
-560.515	-110.012	-0.201	-0.042
-559.500	-20.596	-0.345	0.214
-558.485	-69.119	0.093	0.036
-557.471	-200.000	0.008	0.143
-556.456	-118.778	-0.422	0.075
-555.442	-200.000	0.029	-0.275
-554.427	800.000	-0.131	-0.389
-553.412	-34.192	-0.099	-0.055
-552.398	14.350	0.106	-0.084
-551.383	800.000	0.061	0.199
-550.369	74.053	-0.158	0.168
-549.354	-185.557	-0.154	0.002
-548.339	379.544	-0.034	0.071
-547.325	-51.268	-0.155	0.073
-546.310	263.162	0.065	-0.115
-545.296	83.530	0.049	-0.054
-544.281	65.176	-0.144	-0.146
-543.266	126.813	-0.108	-0.139
-542.252	800.000	-0.056	-0.182
-541.237	-87.355	-0.219	-0.067
-540.223	-200.000	0.019	0.084
-539.208	562.728	0.079	-0.193
-538.193	-67.790	0.125	-0.049
-537.179	21.020	0.140	-0.114
-536.164	416.525	-0.178	-0.383
-535.150	173.695	-0.145	0.212
-534.135	152.911	-0.101	0.140
-533.121	33.735	-0.094	-0.083
-532.106	-130.591	-0.172	0.023
-531.091	-39.776	-0.049	-0.026
-530.077	18.590	-0.166	-0.134
-529.062	338.689	0.024	-0.047
-528.048	-200.000	0.049	-0.322
-527.033	-200.000	-0.036	-0.249
-526.018	115.872	-0.223	-0.275
-525.004	-200.000	-0.050	-0.220
-523.989	-76.830	0.254	-0.090
-522.975	-200.000	-0.017	0.412
-521.960	-200.000	-0.015	0.125
-520.945	31.132	-0.048	-0.042
-519.931	-200.000	-0.013	-0.287
-518.916	-87.744	0.546	0.166
-517.902	-200.000	0.010	-0.155
-516.887	-48.626	0.298	-0.144
-515.872	800.000	-0.013	0.041
-514.858	-169.138	-0.257	0.010
-513.843	-6.669	-0.133	0.091
-512.829	-127.494	0.422	0.062
-511.814	-39.347	-0.243	0.129
-510.799	-12.666	-0.179	0.118
-509.785	797.063	0.098	0.271
-508.770	2.950	-0.350	0.256
-507.756	18.439	-0.113	0.091
-506.741	-59.767	0.145	-0.063
-505.726	-36.291	0.109	-0.059
-504.712	74.791	-0.173	-0.183
-503.697	94.432	-0.242	-0.277
-502.683	31.788	-0.089	0.077
-501.668	275.531	-0.087	-0.156
-500.653	-39.377	0.194	0.103
-499.639	151.093	-0.089	0.123
-498.624	-200.000	0.007	0.341
-497.610	-118.274	-0.288	0.052
-496.595	-38.310	0.118	-0.063
-495.581	-2.313	-0.164	-0.116
-494.566	67.262	-0.182	0.187
-493.551	-120.869	-0.340	0.058
-492.537	800.000	-0.073	-0.220
-491.522	428.281	0.172	-0.375
-490.508	800.000	0.013	0.046
-489.493	-168.934	-0.308	0.012
-488.478	-200.000	0.018	-0.089
-487.464	-100.291	-0.236	-0.059
-486.449	-200.000	0.034	-0.268
-485.435	27.057	0.122	-0.103
-484.420	-200.000	0.011	-0.151
-483.405	72.673	0.392	-0.412
-482.391	-53.847	0.058	-0.026
-481.376	-104.588	0.268	0.062
-480.362	-128.728	-0.191	-0.027
-479.347	800.000	-0.068	-0.242
-478.332	177.346	-0.123	-0.181
-477.318	48.113	-0.211	0.199
-476.303	800.000	-0.036	-0.141
-475.289	-56.732	-0.212	0.094
-474.274	195.434	-0.036	0.055
-473.259	-200.000	0.000	-0.011
-472.245	-11.320	-0.007	0.005
-471.230	399.993	-0.028	-0.059
-470.216	800.000	0.043	0.126
-469.201	-200.000	-0.036	0.162
-468.186	-137.240	0.132	-0.015
-467.172	-79.714	-0.016	-0.005
-466.157	-200.000	-0.023	-0.217
-465.143	-29.564	0.139	-0.080
-464.128	-19.984	0.297	-0.185
-463.113	505.472	0.139	-0.324
-462.099	-200.000	-0.013	0.062
-461.084	0.509	-0.466	0.335
-460.070	298.992	-0.061	0.114
-459.055	800.000	-0.079	0.261
-458.040	-70.289	0.154	-0.059
-457.026	-96.368	0.252	-0.067
-456.011	29.046	-0.289	-0.247
-454.997	-200.000	0.007	-0.161
-453.982	-82.420	0.085	0.028
-452.968	-125.936	0.377	-0.057
-451.953	634.814	0.093	-0.238
-450.938	-10.256	-0.262	-0.175
-449.924	-150.140	0.152	0.012
-448.909	-23.996	0.253	0.152
-447.895	106.838	-0.116	-0.138
-446.880	-200.000	0.008	0.152
-445.865	-200.000	0.006	0.089
-444.851	72.365	-0.293	-0.307
-443.836	800.000	-0.003	-0.012
-442.822	0.765	-0.216	0.156
-441.807	34.709	-0.035	0.030
-440.792	-100.731	-0.186	0.046
-439.778	-200.000	-0.003	0.198
-438.763	-200.000	-0.036	0.415
-437.749	380.797	-0.075	0.155
-436.734	-117.977	-0.262	0.047
-435.719	-200.000	0.067	-0.377
-434.705	-125.695	-0.264	-0.040
-433.690	-142.524	0.186	0.018
-432.676	-62.547	0.340	-0.142
-431.661	-200.000	0.035	-0.228
-430.646	144.360	0.133	-0.178
-429.632	800.000	0.047	-0.147
-428.617	-33.975	-0.048	0.026
-427.603	-63.261	-0.174	0.072
-426.588	-200.000	-0.016	-0.074
-425.573	-117.393	0.449	-0.082
-424.559	-156.155	0.065	-0.004
-423.544	-81.524	-0.131	-0.043
-422.530	330.818	0.082	-0.159
-421.515	-81.996	-0.112	0.037
-420.500	161.211	0.172	0.242
-419.486	-200.000	-0.063	0.300
-418.471	48.915	0.412	0.388
-417.457	-73.479	-0.410	-0.150
-416.442	146.903	0.107	-0.144
-415.428	534.979	0.147	0.350
-414.413	118.318	0.096	0.119
-413.398	46.102	0.028	0.026
-412.384	231.080	-0.151	0.248
-411.369	-99.882	-0.197	-0.049
-410.355	-200.000	0.019	-0.297
-409.340	46.062	-0.183	-0.170
-408.325	-106.497	-0.279	-0.063
-407.311	544.044	-0.038	0.091
-406.296	-142.288	-0.268	-0.027
-405.282	-76.208	-0.156	0.055
-404.267	-37.019	-0.027	0.015
-403.252	302.028	0.090	0.167
-402.238	-200.000	0.015	-0.204
-401.223	36.278	0.208	-0.184
-400.209	-62.682	0.142	-0.059
-399.194	131.793	0.197	0.254
-398.179	322.957	0.121	0.231
-397.165	415.392	-0.088	-0.189
-396.150	-66.295	0.289	0.115
-395.136	-69.911	-0.117	-0.045
-394.121	83.683	0.179	0.196
-393.106	1.980	0.097	-0.070
-392.092	-13.931	0.071	-0.046
-391.077	-115.357	-0.385	-0.073
-390.063	-101.681	0.078	-0.019
-389.048	-61.661	0.196	-0.083
-388.033	52.017	-0.192	0.184
-387.019	99.626	0.170	0.198
-386.004	76.387	-0.101	-0.107
-384.990	-200.000	0.016	0.157
-383.975	330.295	-0.085	0.164
-382.960	800.000	-0.071	0.245
-381.946	787.322	0.033	0.091
-380.931	315.468	-0.130	0.247
-379.917	232.771	-0.211	-0.348
-378.902	-1.010	0.106	0.075
-377.888	13.456	0.250	-0.195
-376.873	-200.000	0.044	0.271
-375.858	385.549	-0.170	-0.352
-374.844	-186.202	-0.042	-0.001
-373.829	-118.004	-0.071	0.013
-372.815	800.000	-0.066	-0.197
-371.800	-200.000	0.073	-0.337
-370.785	81.003	-0.086	0.093
-369.771	-200.000	0.011	0.071
-368.756	-200.000	0.049	0.293
-367.742	218.474	0.156	-0.249
-366.727	800.000	0.087	-0.308
-365.712	-7.920	-0.199	-0.135
-364.698	89.674	0.135	-0.151
-363.683	-200.000	-0.028	0.175
-362.669	-112.334	-0.433	0.087
-361.654	95.964	0.145	0.166
-360.639	348.483	-0.064	-0.126
-359.625	-51.828	0.085	0.040
-358.610	-132.634	0.339	-0.044
-357.596	104.212	0.036	0.042
-356.581	-94.433	0.215	-0.059
-355.566	-172.498	0.311	0.010
-354.552	89.657	0.049	0.055
-353.537	81.804	-0.144	0.157
-352.523	-200.000	-0.043	0.230
-351.508	-107.014	0.176	-0.039
-350.493	-200.000	-0.020	-0.724
-349.479	-47.598	-0.255	0.124
-348.464	37.345	-0.411	0.365
-347.450	-73.071	-0.161	0.059
-346.435	-136.497	-0.106	-0.012
-345.420	-58.913	0.363	0.157
-344.406	-130.396	0.259	-0.035
-343.391	-111.731	-0.209	0.042
-342.377	-200.000	-0.061	0.303
-341.362	-80.123	-0.097	0.033
-340.348	28.901	0.081	0.069
-339.333	-200.000	-0.026	0.161
-338.318	-200.000	0.029	0.151
-337.304	145.128	0.163	0.219
-336.289	800.000	0.022	-0.089
-335.275	-200.000	-0.037	-0.201
-334.260	-58.280	-0.086	0.037
-333.245	800.000	0.049	0.207
-332.231	1.251	0.333	0.239
-331.216	112.369	0.165	0.200
-330.202	-108.780	0.107	-0.023
-329.187	-42.485	-0.349	-0.178
-328.172	-72.973	0.265	-0.098
-327.158	-24.863	0.203	-0.121
-326.143	299.785	-0.032	-0.060
-325.129	-108.657	0.036	-0.008
-324.114	-143.586	0.065	0.006
-323.099	-2.972	0.231	0.162
-322.085	-11.306	-0.231	0.152
-321.070	800.000	0.048	0.175
-320.056	58.434	-0.194	-0.191
-319.041	197.834	0.061	-0.094
-318.026	109.911	0.100	0.120
-317.012	-4.498	0.110	0.076
-315.997	-200.000	0.008	-0.191
-314.983	-200.000	0.020	0.168
-313.968	-117.748	-0.063	-0.011
-312.953	800.000	0.107	0.396
-311.939	800.000	-0.089	0.263
-310.924	-87.804	-0.243	0.073
-309.910	176.902	0.045	-0.066
-308.895	-200.000	0.022	-0.189
-307.880	-130.785	0.068	0.009
-306.866	-25.736	0.252	0.149
-305.851	-200.000	-0.007	0.058
-304.837	-22.724	0.318	0.192
-303.822	-145.402	0.487	-0.044
-302.807	-200.000	-0.019	-0.083
-301.793	163.917	0.108	-0.152
-300.778	-173.872	0.188	0.006
-299.764	-200.000	0.012	-0.100
-298.749	-112.818	-0.073	-0.014
-297.735	-148.238	-0.207	0.017
-296.720	467.234	-0.097	-0.218
-295.705	59.315	0.114	-0.112
-294.691	333.607	0.115	0.223
-293.676	-21.019	-0.174	-0.107
-292.662	-125.149	-0.027	-0.004
-291.647	-200.000	-0.014	0.062
-290.632	366.647	0.166	-0.334
-289.618	800.000	-0.058	-0.219
-288.603	-0.964	0.114	0.081
-287.589	13.588	-0.221	0.172
-286.574	636.738	0.065	0.165
-285.559	-12.523	0.135	0.088
-284.545	-14.304	-0.128	0.083
-283.530	-112.532	-0.199	-0.040
-282.516	112.278	-0.082	-0.099
-281.501	-2.455	0.123	0.086
-280.486	-200.000	-0.079	0.424
-279.472	-125.323	-0.076	-0.012
-278.457	37.254	0.392	0.346
-277.443	-98.820	0.114	-0.029
-276.428	498.266	0.095	-0.218
-275.413	-31.347	0.209	-0.117
-274.399	800.000	0.055	0.222
-273.384	-61.215	0.360	-0.152
-272.370	-68.909	-0.321	-0.124
-271.355	-80.215	-0.187	0.063
-270.340	-99.051	-0.174	-0.044
-269.326	601.771	0.074	-0.183
-268.311	-55.435	0.298	0.133
-267.297	800.000	0.058	-0.168
-266.282	-200.000	0.053	0.236
-265.267	-200.000	-0.009	0.048
-264.253	-71.192	0.410	0.154
-263.238	-200.000	0.001	0.312
-262.224	-200.000	-0.006	0.260
-261.209	-200.000	0.034	0.249
-260.195	-128.154	0.044	-0.006
-259.180	-74.571	-0.290	-0.104
-258.165	-122.061	0.102	0.017
-257.151	800.000	-0.050	0.161
-256.136	-16.423	0.032	0.020
-255.122	149.069	-0.067	-0.091
-254.107	-190.115	-0.275	-0.003
-253.092	86.788	-0.073	-0.080
-252.078	-179.899	-0.052	-0.001
-251.063	-111.295	-0.405	0.083
-250.049	-82.067	0.352	0.115
-249.034	-4.411	0.174	0.120
-248.019	47.018	0.119	0.110
-247.005	617.351	0.147	0.368
-245.990	800.000	0.036	0.100
-244.976	800.000	-0.044	-0.132
-243.961	-200.000	0.012	0.114
-242.946	-200.000	-0.002	0.414
-241.932	800.000	-0.039	-0.158
-240.917	-136.889	0.264	-0.030
-239.903	40.721	0.115	0.103
-238.888	98.049	0.256	0.294
-237.873	486.689	-0.174	-0.397
-236.859	71.507	0.101	-0.104
-235.844	26.141	0.173	-0.144
-234.830	-32.415	-0.275	0.153
-233.815	241.686	0.079	-0.132
-232.800	128.638	0.207	-0.263
-231.786	154.788	0.091	0.124
-230.771	-91.483	-0.286	0.081
-229.757	681.253	0.011	-0.029
-228.742	-151.238	-0.330	0.025
-227.727	-84.382	-0.229	0.072
-226.713	457.063	0.130	-0.287
-225.698	187.846	0.154	-0.229
-224.684	411.123	-0.066	-0.139
-223.669	-140.896	0.420	0.043
-222.655	800.000	-0.116	0.360
-221.640	800.000	-0.025	0.100
-220.625	151.929	-0.213	-0.290
-219.611	-60.809	0.088	-0.037
-218.596	800.000	0.113	0.311
-217.582	800.000	-0.067	0.192
-216.567	-20.971	0.174	0.106
-215.552	251.786	0.012	-0.020
-214.538	-118.115	0.102	0.018
-213.523	54.405	0.121	0.116
-212.509	25.428	0.145	0.120
-211.494	-6.961	-0.037	0.025
-210.479	119.037	0.065	-0.081
-209.465	-200.000	0.038	-0.210
-208.450	203.836	-0.214	0.330
-207.436	-32.418	0.065	0.036
-206.421	-141.937	-0.194	0.019
-205.406	553.945	-0.151	-0.361
-204.392	0.474	0.277	-0.197
-203.377	-200.000	-0.019	-0.165
-202.363	-119.622	-0.182	0.031
-201.348	58.609	-0.042	-0.041
-200.333	124.683	0.132	0.166
-199.319	-200.000	0.010	0.193
-198.304	-49.727	0.237	-0.112
-197.290	-96.020	-0.284	-0.075
-196.275	-200.000	0.010	-0.073
-195.260	248.557	0.065	0.110
-194.246	201.929	-0.112	-0.171
-193.231	-12.951	-0.050	-0.033
-192.217	207.260	-0.196	-0.304
-191.202	-75.406	0.179	-0.064
-190.187	614.601	-0.061	0.153
-189.173	-99.232	0.198	-0.050
-188.158	21.181	0.182	0.147
-187.144	-134.025	0.349	-0.043
-186.129	662.757	-0.089	-0.228
-185.114	128.277	-0.190	-0.240
-184.100	669.910	-0.170	-0.437
-183.085	-1.512	0.151	0.106
-182.071	-62.404	0.184	0.076
-181.056	-38.455	0.100	0.053
-180.042	-66.131	-0.244	-0.097
-179.027	800.000	0.067	-0.283
-178.012	-33.112	0.181	-0.100
-176.998	800.000	-0.121	-0.411
-175.983	800.000	0.098	0.349
-174.969	63.987	0.090	0.090
-173.954	94.115	0.177	0.200
-172.939	51.756	0.398	0.377
-171.925	-200.000	0.046	0.309
-170.910	-75.474	0.274	0.097
-169.896	-200.000	0.000	0.179
-168.881	17.059	0.144	0.114
-167.866	-104.138	0.362	-0.084
-166.852	772.122	-0.114	-0.310
-165.837	73.153	0.131	-0.136
-164.823	346.600	-0.069	-0.135
-163.808	382.298	0.145	0.297
-162.793	-200.000	0.038	0.283
-161.779	-78.362	-0.393	0.134
-160.764	800.000	-0.074	-0.279
-159.750	-81.580	-0.071	0.023
-158.735	283.171	-0.204	0.364
-157.720	516.631	-0.056	-0.131
-156.706	800.000	-0.064	-0.251
-155.691	800.000	-0.035	0.135
-154.677	-5.240	0.225	-0.154
-153.662	-112.157	0.154	-0.031
-152.647	-144.498	0.212	0.019
-151.633	-119.484	-0.310	0.053
-150.618	-200.000	-0.064	0.289
-149.604	-37.429	0.152	0.081
-148.589	-200.000	0.010	0.158
-147.574	103.696	-0.145	0.170
-146.560	183.615	-0.101	0.149
-145.545	126.138	0.211	0.266
-144.531	-101.789	-0.212	-0.051
-143.516	-85.692	-0.125	-0.039
-142.502	-66.002	-0.254	0.101
-141.487	800.000	-0.025	-0.077
-140.472	-110.807	0.050	0.010
-139.458	800.000	-0.081	-0.223
-138.443	-200.000	-0.003	0.364
-137.429	800.000	-0.047	0.168
-136.414	38.481	0.031	0.027
-135.399	-118.437	0.172	-0.030
-134.385	-200.000	0.022	-0.356
-133.370	-63.255	-0.065	-0.027
-132.356	-78.034	0.236	0.081
-131.341	193.967	-0.144	0.217
-130.326	800.000	0.066	0.222
-129.312	-30.267	-0.131	0.074
-128.297	-200.000	-0.007	-0.237
-127.283	-200.000	0.005	-0.215
-126.268	42.228	0.178	0.161
-125.253	-45.746	-0.253	0.124
-124.239	-85.544	-0.011	0.003
-123.224	-37.484	-0.092	-0.049
-122.210	-200.000	0.044	-0.331
-121.195	-200.000	-0.013	-0.092
