DTS Sentinel unit serial number:	SN413079Multiplexer serial number:	ORYXHardware model number:	OX4-SRSoftware version number:	ORYX F/W v4.00 Oryx Data Collector v3.7.2.0data status	okinstallation	princeton_trtdifferential loss correction	single-endedforward channel	channel 2reverse channel	N/Adate	2019/09/14time	21:31:34forward acquisition time	60.00reverse acquisition time	0.00gamma	496.2192k internal	0.2324k external	0.2324temperature offset calibration	1.0073default loss term (dB/km)	0.3790temperature slope calibration	1.0000multiplexer offset coefficient	1.0000multiplexer slope coefficient	1.0000fibre end	0.00T internal ref (°C)	32.87T ext. ref 1 (°C)	4.76T ext. ref 2 (°C)	27.75length (m)	temperature (°C)	Stokes	anti-Stokes-747.200	-67.958	0.257	-0.101
-746.185	49.847	-0.237	-0.225
-745.171	30.241	-0.196	-0.169
-744.156	436.174	0.135	0.297
-743.142	102.421	-0.082	0.097
-742.127	-136.270	-0.234	0.028
-741.112	290.459	-0.044	0.081
-740.098	-200.000	0.014	0.488
-739.083	800.000	-0.086	0.333
-738.069	173.348	0.104	0.151
-737.054	-200.000	-0.033	0.197
-736.039	800.000	0.058	0.192
-735.025	-25.331	-0.332	-0.198
-734.010	-200.000	-0.004	0.082
-732.996	-53.842	0.257	-0.118
-731.981	364.293	-0.112	-0.228
-730.966	-200.000	-0.049	-0.230
-729.952	59.388	-0.143	0.142
-728.937	-200.000	-0.006	0.124
-727.923	-99.892	-0.021	-0.005
-726.908	-200.000	0.029	-0.157
-725.894	409.820	-0.119	-0.255
-724.879	-129.957	-0.291	-0.040
-723.864	-200.000	0.263	0.000
-722.850	115.593	0.135	0.166
-721.835	-14.807	0.229	0.148
-720.821	392.200	-0.044	-0.092
-719.806	-69.531	-0.549	-0.212
-718.791	-200.000	-0.012	-0.204
-717.777	-99.951	-0.148	-0.037
-716.762	387.093	0.112	0.233
-715.748	-200.000	-0.013	0.282
-714.733	616.565	0.075	0.191
-713.718	-200.000	0.002	-0.138
-712.704	800.000	-0.029	-0.104
-711.689	-148.508	-0.115	-0.009
-710.675	61.289	0.094	0.094
-709.660	31.252	0.193	0.167
-708.645	637.828	-0.041	0.106
-707.631	-92.988	0.085	-0.024
-706.616	154.072	0.118	-0.164
-705.602	-200.000	-0.007	0.290
-704.587	-14.582	0.148	-0.096
-703.572	-200.000	-0.006	-0.385
-702.558	-29.765	-0.109	-0.062
-701.543	193.877	-0.286	-0.436
-700.529	-90.576	0.254	-0.074
-699.514	299.291	0.137	-0.254
-698.499	-200.000	0.031	0.143
-697.485	-51.322	-0.150	0.071
-696.470	172.976	-0.211	-0.306
-695.456	-33.109	-0.170	0.095
-694.441	-200.000	-0.014	-0.319
-693.426	800.000	-0.033	-0.131
-692.412	-144.672	-0.275	0.026
-691.397	-180.408	-0.333	0.007
-690.383	800.000	-0.061	0.221
-689.368	-200.000	-0.060	-0.448
-688.354	-117.719	0.267	0.048
-687.339	-64.216	-0.466	0.191
-686.324	370.495	0.055	0.113
-685.310	-44.694	0.247	0.124
-684.295	-200.000	-0.003	-0.187
-683.281	-200.000	0.033	-0.275
-682.266	47.186	-0.255	-0.239
-681.251	-92.070	-0.281	-0.080
-680.237	-80.183	0.335	-0.113
-679.222	125.595	-0.080	-0.102
-678.208	-113.584	0.083	0.016
-677.193	360.360	-0.072	-0.146
-676.178	-22.381	0.263	0.160
-675.164	-125.269	0.227	0.035
-674.149	-200.000	0.027	0.123
-673.135	800.000	0.070	0.246
-672.120	71.286	0.051	0.053
-671.105	-108.064	0.176	0.038
-670.091	-200.000	-0.024	0.215
-669.076	-45.295	0.082	0.041
-668.062	125.443	-0.125	-0.159
-667.047	-7.251	0.202	-0.138
-666.032	141.817	0.080	0.107
-665.018	-200.000	0.023	-0.130
-664.003	-98.536	0.368	-0.095
-662.989	414.520	-0.099	-0.213
-661.974	-67.350	0.407	0.161
-660.959	248.610	0.231	-0.393
-659.945	-200.000	0.016	0.316
-658.930	-137.542	0.298	0.034
-657.916	-132.999	-0.239	0.031
-656.901	-200.000	-0.049	0.334
-655.886	43.712	0.018	-0.017
-654.872	800.000	-0.073	-0.249
-653.857	-200.000	-0.006	0.205
-652.843	60.857	-0.042	-0.042
-651.828	-18.509	-0.220	-0.138
-650.814	-182.445	0.016	-0.000
-649.799	-89.361	-0.204	0.061
-648.784	111.525	0.077	-0.093
-647.770	66.965	0.110	-0.113
-646.755	-148.421	-0.174	0.014
-645.741	-193.145	-0.216	-0.002
-644.726	32.834	0.101	-0.088
-643.711	157.300	0.113	-0.158
-642.697	126.317	0.102	0.129
-641.682	-48.387	-0.306	0.148
-640.668	-41.122	-0.273	-0.142
-639.653	800.000	-0.106	-0.315
-638.638	82.116	-0.241	-0.263
-637.624	12.974	-0.152	0.118
-636.609	-200.000	-0.007	-0.049
-635.595	-200.000	-0.028	0.380
-634.580	-105.719	0.203	-0.046
-633.565	800.000	-0.012	0.043
-632.551	800.000	0.110	0.314
-631.536	-99.494	-0.192	-0.048
-630.522	-68.271	-0.197	0.077
-629.507	83.346	0.072	0.079
-628.492	-44.165	0.115	0.058
-627.478	-178.032	-0.317	0.008
-626.463	-110.332	-0.303	-0.063
-625.449	-36.829	-0.130	0.070
-624.434	-97.161	-0.166	-0.044
-623.419	-41.171	-0.087	0.045
-622.405	-63.171	-0.062	0.026
-621.390	-83.993	0.071	0.023
-620.376	800.000	0.034	-0.118
-619.361	800.000	-0.061	0.185
-618.346	175.513	-0.141	0.206
-617.332	-50.229	0.286	-0.136
-616.317	131.562	-0.234	0.302
-615.303	-131.239	-0.355	-0.047
-614.288	-17.647	0.159	-0.100
-613.273	800.000	-0.127	0.459
-612.259	-129.782	-0.185	-0.026
-611.244	-62.915	-0.040	-0.016
-610.230	-200.000	0.025	-0.178
-609.215	76.739	0.304	0.324
-608.201	-181.413	0.248	-0.005
-607.186	-93.865	0.532	0.147
-606.171	383.569	0.083	0.171
-605.157	335.044	-0.100	-0.194
-604.142	635.647	0.009	-0.023
-603.128	297.416	0.119	-0.219
-602.113	-16.837	0.309	0.196
-601.098	354.822	-0.097	0.194
-600.084	-50.818	0.254	0.120
-599.069	76.951	-0.087	0.093
-598.055	-99.816	-0.131	-0.033
-597.040	800.000	-0.059	0.165
-596.025	-200.000	0.071	0.358
-595.011	388.130	-0.150	0.311
-593.996	-150.409	-0.137	0.011
-592.982	-107.831	-0.288	-0.063
-591.967	-200.000	-0.201	-0.001
-590.952	299.874	0.158	-0.293
-589.938	-87.889	0.315	0.095
-588.923	-100.327	-0.117	-0.029
-587.909	-32.060	-0.282	-0.158
-586.894	204.813	-0.216	-0.336
-585.879	800.000	-0.027	0.075
-584.865	-200.000	0.012	0.088
-583.850	-75.622	-0.104	0.037
-582.836	-100.034	0.306	0.077
-581.821	-64.094	0.302	-0.124
-580.806	-168.667	0.101	-0.004
-579.792	-200.000	-0.031	0.283
-578.777	-200.000	-0.002	-0.023
-577.763	-41.746	-0.221	-0.114
-576.748	-135.427	0.295	0.035
-575.733	-140.677	-0.180	-0.019
-574.719	-9.683	-0.105	0.070
-573.704	-44.707	0.057	-0.029
-572.690	394.459	0.057	0.119
-571.675	454.660	0.100	0.223
-570.661	181.154	0.168	-0.248
-569.646	-6.831	0.230	0.157
-568.631	-40.964	-0.169	-0.087
-567.617	800.000	0.052	-0.183
-566.602	-130.876	-0.317	-0.043
-565.588	-200.000	0.009	0.241
-564.573	-129.767	-0.329	-0.045
-563.558	130.736	0.226	-0.291
-562.544	-74.247	0.194	0.070
-561.529	272.873	-0.138	0.245
-560.515	21.587	0.068	0.056
-559.500	38.311	0.201	-0.180
-558.485	-93.984	0.134	0.037
-557.471	-173.897	-0.271	0.008
-556.456	0.432	-0.125	-0.089
-555.442	-78.954	0.075	0.026
-554.427	-157.989	0.188	0.011
-553.412	126.999	-0.054	-0.069
-552.398	-200.000	0.025	0.301
-551.383	76.539	0.242	-0.257
-550.369	-61.703	0.128	0.054
-549.354	-133.856	-0.373	-0.046
-548.339	-62.013	-0.232	-0.097
-547.325	-105.586	0.066	-0.015
-546.310	-84.605	-0.204	-0.064
-545.296	-33.230	-0.102	-0.056
-544.281	14.088	0.238	-0.186
-543.266	-200.000	-0.013	0.112
-542.252	-42.121	-0.137	-0.070
-541.237	-19.992	-0.029	0.018
-540.223	34.670	0.238	0.208
-539.208	-96.929	0.168	-0.044
-538.193	800.000	0.118	-0.381
-537.179	-154.710	0.060	-0.004
-536.164	-170.269	-0.218	0.008
-535.150	-128.278	-0.268	-0.038
-534.135	-7.297	-0.143	0.097
-533.121	52.881	-0.216	0.206
-532.106	47.924	0.190	0.178
-531.091	16.741	-0.276	-0.218
-530.077	35.013	-0.048	-0.042
-529.062	200.351	-0.168	0.258
-528.048	-200.000	0.003	-0.238
-527.033	96.273	0.192	0.220
-526.018	72.532	-0.107	0.112
-525.004	-120.885	0.365	0.062
-523.989	-200.000	0.017	0.213
-522.975	30.762	-0.249	-0.214
-521.960	69.292	-0.139	0.143
-520.945	-79.897	0.028	0.009
-519.931	800.000	0.051	-0.199
-518.916	-18.224	0.095	0.059
-517.902	16.078	-0.265	-0.209
-516.887	-180.121	0.091	-0.002
-515.872	282.578	0.091	-0.163
-514.858	231.269	-0.123	-0.202
-513.843	-200.000	-0.037	0.367
-512.829	-115.465	0.162	0.031
-511.814	-36.072	0.289	-0.156
-510.799	-200.000	0.070	-0.356
-509.785	227.436	0.211	0.343
-508.770	-99.188	0.107	-0.027
-507.756	484.122	-0.045	0.102
-506.741	800.000	-0.094	0.274
-505.726	18.703	-0.121	0.097
-504.712	800.000	0.082	0.280
-503.697	-200.000	-0.025	0.163
-502.683	-35.880	0.306	-0.166
-501.668	800.000	-0.047	-0.179
-500.653	-200.000	-0.015	-0.294
-499.639	268.638	0.098	-0.172
-498.624	-57.852	0.045	-0.020
-497.610	-72.436	-0.063	0.023
-496.595	431.103	0.061	-0.132
-495.581	123.213	0.071	0.088
-494.566	195.404	0.153	-0.233
-493.551	-37.107	-0.336	0.180
-492.537	-200.000	-0.060	0.279
-491.522	800.000	-0.014	-0.058
-490.508	-9.448	-0.252	-0.168
-489.493	107.643	0.028	-0.033
-488.478	221.153	-0.078	-0.125
-487.464	-200.000	0.026	0.156
-486.449	37.682	-0.078	0.070
-485.435	-116.469	0.229	0.042
-484.420	-131.149	0.274	0.036
-483.405	354.329	0.099	0.196
-482.391	-150.469	-0.104	-0.008
-481.376	-200.000	-0.053	0.239
-480.362	66.122	0.205	0.208
-479.347	800.000	0.030	-0.086
-478.332	63.838	-0.089	0.089
-477.318	121.437	-0.031	0.039
-476.303	145.794	0.190	0.254
-475.289	800.000	0.097	-0.324
-474.274	166.602	0.168	0.238
-473.259	-107.301	0.406	0.089
-472.245	39.809	0.112	0.101
-471.230	3.456	-0.222	0.162
-470.216	246.592	0.152	0.256
-469.201	120.003	-0.086	-0.107
-468.186	-200.000	0.019	-0.133
-467.172	-200.000	-0.017	-0.153
-466.157	-22.260	0.092	0.056
-465.143	176.445	-0.012	-0.017
-464.128	800.000	-0.134	0.462
-463.113	-32.746	0.231	-0.128
-462.099	-107.052	-0.483	-0.107
-461.084	-34.643	-0.317	-0.173
-460.070	800.000	0.063	0.181
-459.055	304.078	-0.186	0.344
-458.040	74.918	-0.163	0.171
-457.026	-86.669	0.393	0.120
-456.011	3.128	-0.118	-0.086
-454.997	-200.000	-0.038	-0.338
-453.982	517.815	0.065	-0.151
-452.968	-83.011	-0.230	-0.074
-451.953	-117.703	-0.236	-0.042
-450.938	800.000	0.101	0.365
-449.924	80.457	0.067	0.072
-448.909	-109.959	-0.206	-0.043
-447.895	-67.171	-0.228	0.090
-446.880	-200.000	-0.025	-0.223
-445.865	-25.033	0.059	-0.035
-444.851	-53.635	0.047	0.021
-443.836	47.195	0.205	-0.191
-442.822	82.059	-0.111	0.120
-441.807	-200.000	0.009	0.121
-440.792	-141.061	0.122	-0.012
-439.778	303.355	-0.057	0.105
-438.763	-200.000	0.006	-0.123
-437.749	-54.021	0.243	-0.110
-436.734	-111.365	-0.074	0.015
-435.719	130.616	-0.091	-0.117
-434.705	26.545	0.253	-0.211
-433.690	-16.301	-0.019	0.012
-432.676	-73.704	-0.183	-0.066
-431.661	96.746	-0.202	-0.231
-430.646	-110.520	0.288	0.060
-429.632	84.845	0.147	-0.160
-428.617	-200.000	-0.011	-0.420
-427.603	-5.538	-0.112	-0.077
-426.588	-17.452	0.167	0.105
-425.573	-39.926	-0.088	-0.046
-424.559	-200.000	0.021	0.122
-423.544	-200.000	-0.055	0.335
-422.530	800.000	0.040	-0.144
-421.515	-91.934	0.175	-0.049
-420.500	-13.593	-0.192	-0.124
-419.486	-107.990	-0.071	0.015
-418.471	309.528	0.148	-0.275
-417.457	-200.000	0.004	0.130
-416.442	-106.499	0.495	0.110
-415.428	177.432	-0.080	-0.116
-414.413	-81.297	-0.177	0.058
-413.398	-99.322	-0.448	-0.113
-412.384	-106.662	-0.266	0.059
-411.369	-200.000	-0.026	-0.183
-410.355	88.633	0.160	0.177
-409.340	-200.000	-0.031	0.222
-408.325	-123.917	-0.319	0.050
-407.311	-103.642	0.136	-0.032
-406.296	10.481	0.045	-0.034
-405.282	800.000	-0.079	0.246
-404.267	-76.751	-0.161	0.056
-403.252	45.461	-0.243	0.223
-402.238	-96.208	0.315	-0.083
-401.223	35.164	0.149	0.130
-400.209	-200.000	0.052	0.353
-399.194	133.697	-0.048	-0.062
-398.179	-96.552	-0.118	0.031
-397.165	-200.000	0.320	-0.001
-396.150	50.633	0.327	-0.308
-395.136	-0.553	0.411	-0.291
-394.121	-200.000	0.001	-0.076
-393.106	409.737	-0.136	-0.287
-392.092	800.000	0.131	-0.384
-391.077	-94.729	0.249	0.067
-390.063	95.697	-0.248	0.281
-389.048	-143.564	0.387	0.037
-388.033	524.253	-0.130	-0.304
-387.019	-21.832	-0.322	0.195
-386.004	13.684	-0.172	0.133
-384.990	108.544	-0.056	0.067
-383.975	-3.047	-0.260	-0.181
-382.960	460.333	0.098	0.218
-381.946	-118.346	-0.199	0.035
-380.931	800.000	-0.074	-0.247
-379.917	-133.787	-0.354	-0.044
-378.902	800.000	0.075	-0.217
-377.888	-34.539	0.111	0.060
-376.873	312.086	0.073	-0.136
-375.858	-200.000	0.023	-0.163
-374.844	-63.380	-0.257	-0.105
-373.829	-73.211	0.145	0.053
-372.815	229.879	-0.046	-0.075
-371.800	-200.000	0.022	0.156
-370.785	-200.000	0.031	0.282
-369.771	-76.570	0.177	0.062
-368.756	268.434	0.070	0.122
-367.742	-142.698	-0.215	0.021
-366.727	-115.702	0.505	0.094
-365.712	-0.940	-0.114	0.080
-364.698	-62.091	-0.191	0.079
-363.683	58.479	0.085	-0.083
-362.669	-109.831	0.228	0.048
-361.654	-153.896	0.135	-0.009
-360.639	-76.928	-0.239	0.083
-359.625	196.394	0.096	-0.145
-358.610	-119.653	-0.072	-0.012
-357.596	-128.290	-0.258	0.037
-356.581	-200.000	0.011	0.113
-355.566	269.678	-0.085	0.149
-354.552	-200.000	-0.012	-0.054
-353.537	186.321	0.189	-0.280
-352.523	111.332	0.180	0.215
-351.508	-176.481	-0.294	0.008
-350.493	-159.248	-0.289	-0.016
-349.479	24.390	-0.068	0.056
-348.464	-46.045	0.041	-0.020
-347.450	-20.789	0.193	-0.118
-346.435	-200.000	0.037	-0.243
-345.420	50.427	0.110	0.104
-344.406	-6.625	0.064	-0.043
-343.391	800.000	0.057	-0.232
-342.377	157.024	-0.148	-0.203
-341.362	800.000	0.036	-0.099
-340.348	49.650	-0.240	-0.225
-339.333	21.734	0.348	0.282
-338.318	-200.000	-0.021	-0.431
-337.304	229.361	0.118	0.191
-336.289	191.934	-0.031	-0.046
-335.275	-136.197	-0.306	-0.036
-334.260	15.186	0.337	0.263
-333.245	274.529	0.099	0.175
-332.231	-200.000	0.052	0.397
-331.216	554.254	0.045	-0.107
-330.202	-79.305	-0.101	0.034
-329.187	188.040	0.118	0.175
-328.172	-87.250	-0.445	-0.134
-327.158	-6.923	0.117	0.079
-326.143	-200.000	-0.054	0.323
-325.129	800.000	-0.086	-0.311
-324.114	-200.000	-0.024	-0.105
-323.099	-147.140	-0.345	-0.029
-322.085	-33.494	0.142	0.078
-321.070	-67.853	0.200	0.078
-320.056	800.000	-0.119	0.393
-319.041	-200.000	-0.025	0.153
-318.026	249.164	-0.132	0.222
-317.012	167.717	-0.031	0.044
-315.997	405.463	0.078	0.163
-314.983	337.171	0.108	-0.208
-313.968	-120.587	0.045	0.008
-312.953	372.113	0.033	-0.066
-311.939	-73.319	0.346	-0.126
-310.924	57.739	-0.164	0.159
-309.910	800.000	0.082	0.300
-308.895	-200.000	-0.014	-0.255
-307.880	-200.000	0.028	0.194
-306.866	63.658	-0.141	-0.140
-305.851	172.704	-0.031	0.044
-304.837	-103.542	0.231	-0.054
-303.822	800.000	0.069	-0.255
-302.807	-1.415	0.153	-0.107
-301.793	-70.243	0.481	-0.181
-300.778	493.224	0.176	-0.400
-299.764	-64.388	-0.096	-0.039
-298.749	800.000	-0.012	0.043
-297.735	-4.271	0.367	-0.252
-296.720	57.368	0.150	-0.145
-295.705	-77.762	0.414	-0.142
-294.691	-61.197	0.117	-0.049
-293.676	377.779	-0.131	-0.266
-292.662	-33.914	0.267	-0.146
-291.647	800.000	-0.030	-0.130
-290.632	-24.835	-0.243	0.143
-289.618	-71.673	0.439	-0.163
-288.603	180.110	0.214	0.311
-287.589	-200.000	-0.046	-0.227
-286.574	-200.000	-0.003	-0.053
-285.559	35.319	0.134	-0.116
-284.545	-130.286	0.041	-0.005
-283.530	-3.629	0.276	0.191
-282.516	-60.918	0.167	-0.070
-281.501	37.882	-0.137	-0.121
-280.486	-5.436	0.026	0.018
-279.472	269.191	-0.163	-0.284
-278.457	-67.113	-0.143	0.056
-277.443	-41.843	-0.093	0.047
-276.428	-67.357	0.047	-0.018
-275.413	273.177	0.027	-0.047
-274.399	-27.299	0.224	0.129
-273.384	-26.293	-0.193	0.113
-272.370	-187.253	0.352	0.005
-271.355	137.425	0.027	-0.035
-270.340	800.000	0.029	0.102
-269.326	-68.631	0.324	-0.124
-268.311	-110.402	0.301	-0.062
-267.297	-200.000	-0.062	-0.441
-266.282	103.019	-0.160	-0.186
-265.267	334.745	-0.103	0.198
-264.253	41.049	-0.354	-0.317
-263.238	75.737	-0.052	-0.054
-262.224	-30.003	-0.037	-0.021
-261.209	800.000	0.038	0.129
-260.195	51.813	0.191	-0.180
-259.180	-200.000	0.008	-0.093
-258.165	-100.632	-0.240	0.059
-257.151	47.528	0.119	-0.110
-256.136	-43.966	0.133	-0.066
-255.122	79.130	-0.049	-0.052
-254.107	11.871	0.188	0.143
-253.092	-53.093	0.197	-0.090
-252.078	-41.280	-0.132	-0.068
-251.063	-164.655	-0.116	0.005
-250.049	86.793	0.042	0.046
-249.034	-129.997	0.230	-0.031
-248.019	-98.164	-0.151	0.039
-247.005	-38.010	0.177	-0.093
-245.990	-153.677	-0.553	0.038
-244.976	-200.000	0.021	-0.251
-243.961	58.680	0.203	-0.197
-242.946	800.000	0.036	-0.144
-241.932	302.689	-0.101	0.186
-240.917	-94.315	0.218	-0.059
-239.903	-91.835	0.217	0.061
-238.888	3.487	0.221	0.159
-237.873	253.385	0.161	-0.273
-236.859	229.860	0.033	0.053
-235.844	557.254	0.190	0.453
-234.830	347.378	-0.181	0.353
-233.815	800.000	0.043	-0.141
-232.800	-200.000	0.029	-0.202
-231.786	-109.389	-0.159	-0.033
-230.771	-200.000	0.013	0.191
-229.757	-39.696	0.149	0.077
-228.742	-39.004	0.112	-0.059
-227.727	-34.650	-0.326	0.177
-226.713	115.061	-0.136	-0.164
-225.698	-145.685	0.206	0.018
-224.684	775.570	0.078	-0.210
-223.669	-113.360	0.218	-0.042
-222.655	115.949	-0.218	-0.264
-221.640	-75.633	-0.174	-0.061
-220.625	375.525	-0.122	0.246
-219.611	189.960	0.067	-0.100
-218.596	64.088	0.132	-0.132
-217.582	331.776	0.049	0.094
-216.567	38.140	-0.135	0.119
-215.552	-119.242	-0.114	0.020
-214.538	42.877	0.089	-0.081
-213.523	78.567	0.055	-0.059
-212.509	-76.534	-0.483	-0.168
-211.494	-85.342	0.081	0.025
-210.479	-200.000	0.003	0.111
-209.465	603.261	-0.104	0.257
-208.450	230.859	0.195	-0.316
-207.436	463.325	0.074	0.164
-206.421	469.383	-0.019	-0.043
-205.406	169.143	-0.209	-0.294
-204.392	-51.991	-0.079	0.036
-203.377	-67.829	0.212	-0.082
-202.363	800.000	-0.140	0.483
-201.348	-50.446	0.225	-0.105
-200.333	1.072	0.132	0.094
-199.319	121.030	0.029	-0.035
-198.304	-87.391	-0.296	-0.089
-197.290	-54.451	0.045	-0.020
-196.275	34.466	-0.214	-0.184
-195.260	30.873	-0.152	-0.129
-194.246	-71.937	0.198	0.073
-193.231	800.000	-0.056	0.193
-192.217	800.000	0.141	0.557
-191.202	-33.437	0.265	0.145
-190.187	30.810	-0.278	-0.235
-189.173	800.000	0.114	0.349
-188.158	-200.000	-0.008	0.233
-187.144	-200.000	-0.043	-0.252
-186.129	-77.895	-0.402	-0.137
-185.114	-133.635	-0.311	0.038
-184.100	-156.854	-0.110	-0.007
-183.085	800.000	-0.086	-0.350
-182.071	-115.306	-0.136	0.025
-181.056	-200.000	0.025	0.133
-180.042	800.000	0.087	-0.271
-179.027	29.104	0.110	-0.093
-178.012	-37.007	-0.080	0.042
-176.998	-76.230	-0.226	0.079
-175.983	800.000	-0.022	0.062
-174.969	66.192	0.324	-0.324
-173.954	196.897	-0.225	-0.339
-172.939	-169.508	-0.119	-0.004
-171.925	47.080	0.119	0.109
-170.910	-134.996	-0.166	-0.020
-169.896	-10.045	0.126	-0.082
-168.881	156.920	-0.113	0.154
-167.866	-90.007	-0.230	0.066
-166.852	-74.819	-0.159	0.056
-165.837	-200.000	-0.002	0.098
-164.823	-200.000	0.013	0.170
-163.808	29.635	-0.074	0.062
-162.793	800.000	0.061	0.182
-161.779	138.334	0.215	-0.278
-160.764	33.818	-0.142	0.122
-159.750	-36.678	-0.317	0.168
-158.735	197.696	0.102	-0.154
-157.720	163.868	-0.039	-0.054
-156.706	-200.000	-0.010	0.250
-155.691	-74.655	0.171	0.061
-154.677	85.522	-0.187	0.203
-153.662	-55.413	-0.338	0.149
-152.647	-200.000	0.032	-0.277
-151.633	-29.086	0.073	-0.041
-150.618	-117.334	-0.177	-0.032
-149.604	-200.000	-0.008	0.119
-148.589	-64.206	0.195	0.078
-147.574	-166.592	-0.115	-0.005
-146.560	-138.552	0.114	-0.012
-145.545	436.140	-0.084	0.180
-144.531	-12.955	0.344	-0.221
-143.516	-109.960	0.217	0.045
-142.502	-200.000	-0.003	0.163
-141.487	-38.301	0.291	-0.152
-140.472	92.480	0.207	-0.230
-139.458	109.727	0.195	-0.231
-138.443	15.453	-0.171	-0.133
-137.429	16.115	-0.227	-0.177
-136.414	-131.099	-0.134	-0.018
-135.399	231.257	-0.032	0.052
-134.385	51.025	0.067	-0.063
-133.370	-82.145	0.265	-0.085
-132.356	-47.667	0.183	-0.087
-131.341	-109.478	0.167	0.035
-130.326	24.997	0.278	0.227
-129.312	316.739	0.044	-0.082
-128.297	389.381	0.005	0.011
-127.283	70.311	0.208	0.212
-126.268	259.193	-0.081	0.137
-125.253	-200.000	-0.042	-0.232
-124.239	19.486	0.254	-0.201
-123.224	800.000	0.076	0.280
-122.210	44.194	0.231	0.209
-121.195	4.806	-0.268	-0.194
