DTS Sentinel unit serial number:	SN413079Multiplexer serial number:	ORYXHardware model number:	OX4-SRSoftware version number:	ORYX F/W v4.00 Oryx Data Collector v3.7.2.0data status	okinstallation	princeton_trtdifferential loss correction	single-endedforward channel	channel 2reverse channel	N/Adate	2019/09/15time	20:07:35forward acquisition time	60.00reverse acquisition time	0.00gamma	496.2192k internal	0.2324k external	0.2324temperature offset calibration	0.9931default loss term (dB/km)	0.3790temperature slope calibration	1.0000multiplexer offset coefficient	1.0000multiplexer slope coefficient	1.0000fibre end	0.00T internal ref (°C)	35.11T ext. ref 1 (°C)	7.61T ext. ref 2 (°C)	26.05length (m)	temperature (°C)	Stokes	anti-Stokes-747.200	254.658	-0.149	0.257
-746.185	-122.390	0.339	0.056
-745.171	11.366	-0.030	-0.023
-744.156	129.188	-0.257	0.331
-743.142	16.969	0.183	0.146
-742.127	414.080	0.017	0.037
-741.112	83.463	-0.232	0.255
-740.098	37.736	-0.125	0.112
-739.083	322.906	0.244	-0.469
-738.069	-59.344	0.103	-0.045
-737.054	152.766	0.078	0.108
-736.039	-200.000	-0.004	0.020
-735.025	800.000	0.122	0.377
-734.010	464.818	-0.127	-0.287
-732.996	-104.703	0.187	-0.043
-731.981	800.000	0.041	-0.165
-730.966	-77.792	-0.128	0.045
-729.952	800.000	-0.072	0.300
-728.937	-200.000	-0.000	-0.073
-727.923	-154.518	-0.283	0.019
-726.908	-200.000	-0.048	0.267
-725.894	233.111	-0.029	-0.048
-724.879	-200.000	-0.049	-0.283
-723.864	55.972	-0.189	0.185
-722.850	275.329	-0.064	-0.114
-721.835	464.251	-0.059	-0.134
-720.821	49.800	0.276	0.262
-719.806	348.063	-0.051	0.102
-718.791	75.161	-0.162	0.172
-717.777	22.119	0.150	-0.123
-716.762	703.679	-0.105	-0.279
-715.748	800.000	-0.048	-0.200
-714.733	-34.121	0.312	0.173
-713.718	40.276	0.140	0.127
-712.704	-156.349	-0.093	0.006
-711.689	-84.067	0.104	-0.033
-710.675	-180.367	-0.173	0.004
-709.660	47.596	0.106	-0.100
-708.645	-165.982	-0.077	0.003
-707.631	226.428	-0.075	0.122
-706.616	118.015	-0.096	-0.119
-705.602	-200.000	-0.059	-0.380
-704.587	130.629	-0.139	-0.179
-703.572	800.000	0.052	-0.146
-702.558	18.077	-0.185	0.149
-701.543	-86.761	0.072	-0.022
-700.529	-34.395	-0.296	-0.164
-699.514	148.743	0.239	-0.326
-698.499	709.870	0.112	-0.298
-697.485	78.003	0.132	0.142
-696.470	149.184	0.060	0.082
-695.456	154.857	-0.026	0.036
-694.441	-200.000	-0.038	-0.182
-693.426	-200.000	-0.035	-0.186
-692.412	-19.619	-0.138	0.086
-691.397	800.000	-0.105	0.334
-690.383	-200.000	-0.002	0.198
-689.368	800.000	0.067	-0.259
-688.354	305.115	0.071	-0.133
-687.339	-124.599	-0.198	0.031
-686.324	-132.899	-0.378	0.048
-685.310	800.000	-0.063	-0.203
-684.295	-171.527	-0.180	-0.006
-683.281	-85.536	0.442	-0.138
-682.266	-200.000	0.039	0.346
-681.251	269.518	-0.210	-0.370
-680.237	46.499	-0.003	0.003
-679.222	214.788	0.112	0.179
-678.208	-200.000	0.024	-0.124
-677.193	-55.115	0.266	-0.121
-676.178	-111.001	-0.360	-0.074
-675.164	-175.207	-0.125	-0.003
-674.149	160.236	0.048	0.067
-673.135	-200.000	-0.051	0.273
-672.120	-34.329	-0.158	0.087
-671.105	-127.942	-0.149	0.022
-670.091	-79.127	0.124	0.042
-669.076	-27.095	-0.145	0.085
-668.062	-119.804	-0.455	0.079
-667.047	375.820	0.080	0.163
-666.032	-200.000	-0.037	0.284
-665.018	-97.226	-0.221	0.058
-664.003	800.000	-0.065	-0.216
-662.989	-116.201	-0.054	0.010
-661.974	-130.274	0.067	-0.009
-660.959	407.468	-0.204	-0.434
-659.945	800.000	0.084	-0.254
-658.930	360.711	0.062	-0.125
-657.916	-164.898	0.011	0.001
-656.901	-50.146	0.344	-0.164
-655.886	34.775	0.060	-0.053
-654.872	-7.039	0.172	0.117
-653.857	144.753	0.054	-0.073
-652.843	-200.000	-0.018	0.311
-651.828	-70.322	-0.124	-0.047
-650.814	9.560	0.191	0.146
-649.799	-200.000	-0.005	-0.111
-648.784	146.022	-0.125	-0.169
-647.770	79.388	-0.098	-0.106
-646.755	-200.000	-0.011	-0.230
-645.741	369.504	0.080	-0.163
-644.726	25.797	-0.043	0.036
-643.711	-127.015	0.414	0.061
-642.697	-99.068	0.022	-0.006
-641.682	800.000	-0.074	-0.239
-640.668	-169.615	0.376	-0.014
-639.653	41.153	0.060	0.054
-638.638	-112.234	-0.189	0.038
-637.624	-134.292	-0.068	-0.008
-636.609	-117.617	0.231	0.042
-635.595	281.519	-0.152	0.275
-634.580	-58.606	0.125	-0.055
-633.565	-200.000	-0.007	0.053
-632.551	-200.000	-0.011	-0.255
-631.536	-34.834	0.139	0.076
-630.522	-28.106	-0.103	0.060
-629.507	177.617	-0.153	-0.224
-628.492	-46.177	-0.080	0.040
-627.478	-125.847	0.065	0.010
-626.463	-200.000	-0.010	0.294
-625.449	800.000	0.060	0.237
-624.434	99.131	-0.145	0.168
-623.419	-62.182	-0.034	0.014
-622.405	6.504	-0.237	-0.177
-621.390	-200.000	-0.007	-0.140
-620.376	-49.403	0.160	-0.077
-619.361	187.355	0.107	-0.160
-618.346	348.851	0.121	0.241
-617.332	-80.627	-0.125	0.042
-616.317	33.704	0.093	-0.082
-615.303	167.127	-0.081	-0.116
-614.288	36.769	-0.295	-0.261
-613.273	42.086	0.122	-0.111
-612.259	49.087	0.319	0.301
-611.244	428.564	0.094	0.204
-610.230	-85.693	0.144	-0.045
-609.215	-42.750	-0.256	-0.130
-608.201	32.773	0.145	0.126
-607.186	-51.509	-0.130	-0.061
-606.171	130.869	-0.160	-0.206
-605.157	-200.000	0.004	-0.261
-604.142	-111.033	-0.072	-0.015
-603.128	-200.000	-0.042	-0.187
-602.113	600.798	-0.075	0.187
-601.098	15.865	0.100	0.079
-600.084	-96.586	0.119	0.031
-599.069	407.034	-0.126	-0.267
-598.055	-66.186	0.202	0.081
-597.040	-38.807	-0.128	0.067
-596.025	-149.523	-0.240	0.019
-595.011	454.731	0.088	-0.197
-593.996	-74.560	0.246	-0.089
-592.982	290.396	0.071	0.130
-591.967	-54.210	0.220	0.100
-590.952	-200.000	-0.035	-0.182
-589.938	-114.229	-0.310	0.060
-588.923	129.346	0.170	0.217
-587.909	-82.953	0.125	-0.040
-586.894	-137.842	0.097	-0.011
-585.879	-200.000	-0.008	-0.331
-584.865	-87.138	-0.091	-0.028
-583.850	800.000	0.052	-0.184
-582.836	276.497	-0.118	0.210
-581.821	275.467	0.155	0.276
-580.806	-200.000	0.023	0.254
-579.792	-66.254	-0.218	-0.087
-578.777	20.346	-0.222	-0.180
-577.763	184.224	0.184	-0.273
-576.748	-119.667	0.234	0.040
-575.733	800.000	-0.055	-0.214
-574.719	-92.541	-0.208	0.059
-573.704	90.320	-0.072	0.080
-572.690	136.583	-0.136	0.178
-571.675	800.000	-0.051	0.207
-570.661	198.873	0.030	0.046
-569.646	648.731	0.048	-0.122
-568.631	800.000	0.123	0.357
-567.617	-200.000	0.005	-0.176
-566.602	8.084	-0.280	0.211
-565.588	49.645	0.068	-0.064
-564.573	800.000	-0.086	0.345
-563.558	-22.925	0.107	-0.064
-562.544	-12.405	0.045	-0.029
-561.529	-34.266	-0.503	0.276
-560.515	314.090	0.186	-0.352
-559.500	-179.290	0.117	0.003
-558.485	143.534	0.314	-0.420
-557.471	42.171	0.265	0.241
-556.456	77.136	-0.387	-0.412
-555.442	-200.000	-0.043	-0.212
-554.427	-200.000	0.003	0.040
-553.412	800.000	0.018	-0.067
-552.398	-200.000	0.032	0.451
-551.383	219.835	-0.270	-0.434
-550.369	100.573	-0.079	-0.092
-549.354	287.830	0.131	-0.238
-548.339	669.790	-0.037	-0.095
-547.325	-111.698	0.200	0.041
-546.310	-71.504	0.250	-0.094
-545.296	69.016	0.216	-0.222
-544.281	-200.000	0.022	-0.106
-543.266	-76.269	0.243	-0.086
-542.252	-63.789	0.221	-0.091
-541.237	64.497	0.151	-0.152
-540.223	-200.000	0.052	-0.325
-539.208	157.107	-0.215	0.298
-538.193	20.188	0.062	-0.050
-537.179	13.699	-0.153	0.119
-536.164	-106.682	-0.265	-0.059
-535.150	-200.000	-0.003	-0.140
-534.135	-108.393	0.058	0.013
-533.121	249.237	0.217	0.368
-532.106	-145.315	-0.336	0.030
-531.091	-54.549	0.089	-0.040
-530.077	-119.033	-0.155	0.027
-529.062	-116.297	0.125	0.023
-528.048	-99.131	0.227	-0.057
-527.033	-200.000	-0.040	0.294
-526.018	-200.000	-0.034	0.262
-525.004	-200.000	0.008	-0.159
-523.989	-135.734	-0.312	-0.037
-522.975	112.378	-0.098	0.118
-521.960	-200.000	0.033	-0.290
-520.945	84.601	0.186	-0.204
-519.931	-10.558	-0.011	-0.007
-518.916	-29.164	-0.090	0.052
-517.902	-154.927	-0.123	0.008
-516.887	-115.283	0.198	-0.038
-515.872	800.000	-0.060	0.195
-514.858	800.000	-0.026	-0.090
-513.843	-68.248	-0.393	-0.153
-512.829	47.617	-0.134	-0.125
-511.814	-14.447	-0.387	-0.249
-510.799	71.363	0.048	-0.050
-509.785	800.000	0.039	0.137
-508.770	-169.988	-0.418	-0.015
-507.756	288.502	-0.259	0.469
-506.741	273.201	-0.084	0.148
-505.726	42.053	-0.123	-0.111
-504.712	-105.854	0.443	0.100
-503.697	301.070	0.138	0.255
-502.683	-92.983	0.062	0.017
-501.668	-34.038	-0.128	-0.071
-500.653	87.065	0.178	0.196
-499.639	-200.000	0.008	-0.111
-498.624	800.000	-0.038	-0.136
-497.610	-200.000	-0.002	0.076
-496.595	-187.815	-0.233	-0.003
-495.581	-136.607	0.307	0.036
-494.566	-200.000	-0.016	-0.122
-493.551	74.173	0.100	0.105
-492.537	-103.972	0.137	0.032
-491.522	539.188	0.044	-0.105
-490.508	469.659	-0.036	0.081
-489.493	-32.869	0.262	0.145
-488.478	800.000	-0.061	0.221
-487.464	-5.425	0.199	0.136
-486.449	135.192	0.075	0.097
-485.435	-200.000	0.006	0.109
-484.420	337.140	0.119	-0.231
-483.405	711.695	0.146	-0.387
-482.391	-200.000	0.037	0.257
-481.376	-168.542	-0.142	0.005
-480.362	-3.702	-0.180	0.125
-479.347	470.305	0.200	0.450
-478.332	-200.000	-0.002	0.032
-477.318	-184.299	-0.123	-0.002
-476.303	604.870	0.027	0.068
-475.289	245.387	-0.082	0.137
-474.274	206.213	0.154	-0.239
-473.259	255.613	0.186	0.318
-472.245	-200.000	-0.032	-0.143
-471.230	8.689	-0.077	-0.058
-470.216	60.916	0.393	0.389
-469.201	277.426	0.077	0.137
-468.186	-126.401	-0.063	-0.009
-467.172	-200.000	-0.023	-0.107
-466.157	800.000	0.108	-0.446
-465.143	-200.000	-0.057	-0.278
-464.128	-160.430	0.395	-0.021
-463.113	-135.419	-0.426	-0.051
-462.099	123.032	0.102	-0.128
-461.084	-200.000	-0.008	0.201
-460.070	-145.790	-0.221	-0.020
-459.055	-100.866	0.204	-0.050
-458.040	79.651	-0.024	-0.026
-457.026	-86.426	-0.154	-0.047
-456.011	-200.000	-0.013	-0.147
-454.997	800.000	-0.027	0.088
-453.982	-200.000	-0.039	-0.203
-452.968	-31.024	0.220	-0.124
-451.953	-90.583	-0.087	0.025
-450.938	-182.533	-0.312	0.006
-449.924	161.982	-0.098	-0.138
-448.909	-83.397	0.435	-0.139
-447.895	-200.000	-0.039	0.273
-446.880	-200.000	-0.032	-0.249
-445.865	-74.897	-0.216	-0.077
-444.851	800.000	-0.067	0.237
-443.836	168.927	-0.079	-0.113
-442.822	-91.253	0.095	0.027
-441.807	-200.000	0.070	0.389
-440.792	-173.486	-0.131	0.004
-439.778	68.157	0.157	0.160
-438.763	301.515	0.170	0.313
-437.749	-30.560	-0.204	0.115
-436.734	398.474	0.223	0.465
-435.719	197.634	-0.108	-0.165
-434.705	-200.000	-0.013	0.172
-433.690	-200.000	0.001	0.086
-432.676	-200.000	0.005	0.071
-431.661	-22.651	0.124	0.074
-430.646	-156.631	0.107	0.007
-429.632	249.903	-0.044	0.074
-428.617	292.364	0.135	0.246
-427.603	-200.000	0.048	-0.232
-426.588	400.167	-0.097	0.202
-425.573	344.719	-0.076	0.148
-424.559	-59.226	0.265	0.114
-423.544	800.000	0.072	0.312
-422.530	86.487	-0.031	-0.034
-421.515	-200.000	-0.004	0.264
-420.500	800.000	0.163	0.482
-419.486	111.309	-0.200	0.241
-418.471	-200.000	0.006	0.138
-417.457	-26.962	-0.176	0.103
-416.442	800.000	-0.095	0.297
-415.428	-200.000	-0.061	-0.414
-414.413	800.000	0.087	-0.293
-413.398	-26.988	-0.190	-0.111
-412.384	-75.400	-0.140	0.050
-411.369	393.150	0.066	-0.136
-410.355	-200.000	0.015	-0.138
-409.340	-200.000	-0.004	-0.029
-408.325	-127.919	0.042	-0.006
-407.311	128.559	-0.217	0.276
-406.296	-59.305	-0.217	0.093
-405.282	-57.763	0.296	-0.129
-404.267	-99.292	0.214	-0.054
-403.252	84.057	-0.124	0.135
-402.238	17.258	0.377	-0.298
-401.223	-17.234	-0.127	-0.080
-400.209	-140.220	-0.061	-0.006
-399.194	800.000	0.092	0.293
-398.179	309.418	0.135	-0.251
-397.165	19.974	-0.151	-0.121
-396.150	-149.997	-0.145	-0.011
-395.136	-49.123	-0.321	-0.153
-394.121	-76.526	-0.238	-0.083
-393.106	-170.104	-0.116	-0.004
-392.092	-5.252	0.127	-0.087
-391.077	-177.949	-0.147	0.003
-390.063	5.820	0.192	0.141
-389.048	800.000	-0.067	0.284
-388.033	-200.000	0.014	-0.139
-387.019	800.000	0.070	-0.243
-386.004	531.794	0.041	-0.096
-384.990	-136.685	0.041	0.005
-383.975	-93.469	0.291	-0.080
-382.960	-39.354	-0.054	0.028
-381.946	800.000	0.042	0.165
-380.931	106.922	0.259	0.306
-379.917	56.483	-0.241	0.233
-378.902	191.505	0.077	-0.115
-377.888	437.340	0.112	0.243
-376.873	-16.470	0.136	-0.086
-375.858	-169.443	0.446	0.016
-374.844	-21.918	0.149	0.090
-373.829	-102.644	-0.122	-0.029
-372.815	153.117	0.237	0.323
-371.800	97.510	-0.292	-0.334
-370.785	386.882	-0.123	0.254
-369.771	-39.930	-0.063	-0.033
-368.756	21.879	0.103	-0.083
-367.742	800.000	-0.116	-0.413
-366.727	-200.000	0.020	-0.484
-365.712	155.784	0.019	-0.025
-364.698	-2.018	-0.026	0.018
-363.683	-34.457	-0.084	0.046
-362.669	661.219	-0.080	-0.205
-361.654	106.901	-0.254	0.299
-360.639	800.000	0.029	-0.093
-359.625	463.501	-0.088	-0.195
-358.610	-63.004	0.377	0.155
-357.596	89.989	-0.139	-0.154
-356.581	692.267	0.058	-0.151
-355.566	-96.517	0.099	-0.026
-354.552	294.169	0.107	-0.195
-353.537	170.133	0.113	-0.160
-352.523	231.107	-0.110	0.179
-351.508	-124.666	0.070	0.011
-350.493	-101.411	-0.337	-0.082
-349.479	-91.815	-0.257	-0.072
-348.464	-45.333	0.198	-0.098
-347.450	-165.778	0.196	0.008
-346.435	-4.348	-0.040	-0.028
-345.420	-62.968	-0.159	0.065
-344.406	800.000	0.090	0.296
-343.391	-180.215	0.267	-0.006
-342.377	-111.211	-0.296	0.060
-341.362	-160.733	0.221	0.012
-340.348	-104.647	-0.026	0.006
-339.333	-92.036	-0.430	-0.121
-338.318	800.000	-0.085	-0.256
-337.304	-36.765	0.224	-0.119
-336.289	18.022	-0.189	-0.149
-335.275	-10.693	-0.147	0.096
-334.260	258.308	-0.231	-0.395
-333.245	9.972	0.318	-0.240
-332.231	7.507	0.344	-0.256
-331.216	-200.000	-0.094	-0.000
-330.202	-76.065	-0.140	0.049
-329.187	39.170	-0.379	0.336
-328.172	-41.693	0.297	-0.151
-327.158	7.262	-0.074	-0.055
-326.143	103.193	0.094	-0.109
-325.129	285.500	0.124	0.223
-324.114	-116.795	-0.365	0.066
-323.099	-79.734	-0.129	-0.043
-322.085	-146.634	0.092	-0.008
-321.070	800.000	-0.046	0.180
-320.056	304.688	0.106	0.195
-319.041	13.108	-0.324	0.249
-318.026	-200.000	0.015	0.175
-317.012	-97.397	0.156	-0.040
-315.997	-177.402	-0.216	-0.005
-314.983	-200.000	0.028	0.189
-313.968	-47.475	0.170	-0.082
-312.953	-93.544	0.374	0.103
-311.939	30.394	-0.145	-0.123
-310.924	75.724	-0.256	0.268
-309.910	-1.241	-0.113	-0.080
-308.895	10.309	-0.162	0.122
-307.880	59.972	-0.138	-0.136
-306.866	186.210	0.095	-0.140
-305.851	137.038	-0.221	-0.286
-304.837	-151.559	-0.203	0.015
-303.822	-20.267	-0.344	0.210
-302.807	-98.542	0.224	-0.057
-301.793	261.556	0.111	-0.190
-300.778	-200.000	-0.011	0.299
-299.764	75.236	0.120	0.126
-298.749	281.058	-0.223	-0.395
-297.735	-85.488	-0.280	0.086
-296.720	-86.756	-0.402	0.122
-295.705	-58.387	-0.074	0.032
-294.691	800.000	0.007	0.024
-293.676	11.462	-0.131	-0.099
-292.662	69.420	-0.147	0.151
-291.647	800.000	0.062	-0.189
-290.632	-200.000	0.015	-0.189
-289.618	-92.358	0.150	0.042
-288.603	-117.084	-0.131	-0.024
-287.589	214.279	-0.071	-0.111
-286.574	578.315	0.088	-0.213
-285.559	384.102	0.218	-0.444
-284.545	171.104	-0.333	-0.473
-283.530	39.917	-0.171	0.152
-282.516	-200.000	0.006	0.172
-281.501	-182.110	0.139	-0.003
-280.486	27.743	0.124	-0.103
-279.472	800.000	0.022	0.079
-278.457	46.472	-0.098	-0.090
-277.443	-200.000	-0.002	0.295
-276.428	105.999	-0.164	0.193
-275.413	-104.198	-0.111	-0.025
-274.399	41.508	0.167	-0.150
-273.384	-139.581	0.217	0.023
-272.370	-105.427	-0.184	-0.042
-271.355	-29.777	-0.222	0.126
-270.340	7.968	0.109	-0.081
-269.326	154.424	-0.072	-0.098
-268.311	5.482	0.164	0.120
-267.297	321.039	0.131	-0.246
-266.282	436.713	0.108	-0.232
-265.267	-147.459	-0.568	-0.048
-264.253	82.898	0.153	-0.165
-263.238	-43.726	-0.399	0.199
-262.224	-105.906	-0.443	-0.099
-261.209	-53.409	0.225	-0.102
-260.195	34.669	0.183	0.159
-259.180	-136.244	0.102	0.012
-258.165	605.006	-0.084	0.207
-257.151	-161.696	0.316	0.016
-256.136	-169.498	0.150	-0.005
-255.122	-36.421	0.320	-0.171
-254.107	-24.526	-0.188	-0.111
-253.092	-112.622	-0.098	0.019
-252.078	-128.941	-0.168	-0.023
-251.063	-200.000	0.027	0.326
-250.049	-200.000	-0.015	-0.196
-249.034	-148.252	0.125	-0.010
-248.019	-72.778	0.098	-0.036
-247.005	-119.020	0.062	0.011
-245.990	25.112	0.154	-0.126
-244.976	-44.766	0.098	-0.049
-243.961	-59.565	0.291	-0.124
-242.946	-97.333	0.268	-0.069
-241.932	-168.859	0.345	0.013
-240.917	800.000	0.055	0.174
-239.903	-5.987	-0.098	-0.066
-238.888	-200.000	0.055	0.611
-237.873	-187.165	-0.367	0.005
-236.859	14.731	0.165	0.128
-235.844	207.663	-0.129	-0.200
-234.830	-200.000	0.033	-0.170
-233.815	203.205	-0.109	-0.167
-232.800	101.326	0.160	0.185
-231.786	800.000	-0.075	0.204
-230.771	154.820	-0.081	0.110
-229.757	800.000	-0.047	-0.157
-228.742	110.269	0.161	-0.192
-227.727	-63.541	0.193	-0.078
-226.713	132.824	0.081	-0.104
-225.698	139.661	0.312	-0.406
-224.684	-18.052	-0.239	0.148
-223.669	-149.426	0.281	0.022
-222.655	800.000	-0.035	-0.121
-221.640	800.000	-0.099	-0.282
-220.625	-14.750	0.117	-0.074
-219.611	-91.319	0.293	0.083
-218.596	37.146	0.198	0.173
-217.582	-139.095	-0.252	-0.027
-216.567	131.605	-0.067	-0.085
-215.552	6.968	-0.277	-0.204
-214.538	472.010	0.077	0.172
-213.523	-87.612	0.047	0.014
-212.509	-200.000	0.005	0.314
-211.494	-200.000	0.111	0.571
-210.479	-112.638	-0.337	-0.066
-209.465	80.863	-0.237	0.253
-208.450	542.787	-0.093	-0.219
-207.436	98.646	-0.110	0.125
-206.421	-0.324	-0.201	-0.141
-205.406	439.296	-0.034	0.073
-204.392	-106.361	-0.209	0.046
-203.377	256.559	0.220	-0.374
-202.363	123.686	-0.164	0.204
-201.348	-143.735	0.053	0.005
-200.333	800.000	-0.099	0.280
-199.319	-72.071	-0.160	-0.059
-198.304	-200.000	0.031	0.184
-197.290	-123.598	-0.146	0.023
-196.275	-166.899	-0.167	0.007
-195.260	-200.000	0.036	0.310
-194.246	-39.553	-0.206	0.107
-193.231	-109.375	-0.176	0.037
-192.217	62.165	0.230	0.227
-191.202	138.123	0.021	-0.027
-190.187	-25.556	0.245	-0.143
-189.173	34.366	0.213	0.183
-188.158	-138.322	0.112	0.012
-187.144	56.239	-0.114	-0.109
-186.129	0.205	-0.148	0.104
-185.114	28.706	0.203	0.170
-184.100	-200.000	-0.007	-0.183
-183.085	-55.414	-0.083	0.037
-182.071	23.583	-0.259	-0.211
-181.056	-5.663	0.354	-0.239
-180.042	-200.000	0.003	0.129
-179.027	-141.784	-0.037	0.004
-178.012	60.508	-0.056	-0.054
-176.998	195.715	-0.245	-0.368
-175.983	761.958	-0.119	-0.319
-174.969	149.397	-0.114	-0.152
-173.954	23.657	0.110	0.089
-172.939	-65.232	0.229	0.091
-171.925	241.032	-0.220	0.362
-170.910	-22.839	0.229	0.136
-169.896	189.544	0.108	0.159
-168.881	64.716	0.026	0.026
-167.866	-145.291	-0.257	-0.023
-166.852	180.136	0.221	0.319
-165.837	250.685	-0.060	0.101
-164.823	-129.974	0.258	-0.035
-163.808	-200.000	0.047	-0.278
-162.793	-124.448	0.298	0.046
-161.779	-138.317	0.076	0.008
-160.764	-200.000	0.015	-0.133
-159.750	800.000	-0.054	0.222
-158.735	-200.000	0.013	-0.199
-157.720	-49.084	0.234	0.110
-156.706	499.202	-0.091	0.207
-155.691	15.970	0.142	0.110
-154.677	213.715	0.161	0.251
-153.662	162.369	0.202	-0.280
-152.647	-93.506	0.163	0.044
-151.633	-111.152	-0.100	0.020
-150.618	183.027	0.137	0.199
-149.604	-129.994	0.300	-0.040
-148.589	169.559	0.165	0.233
-147.574	295.829	0.053	0.095
-146.560	800.000	0.144	0.477
-145.545	-200.000	-0.085	0.428
-144.531	356.222	-0.128	0.251
-143.516	7.572	0.440	0.325
-142.502	-6.577	-0.166	-0.111
-141.487	416.065	-0.085	0.179
-140.472	12.512	0.291	0.221
-139.458	-200.000	0.006	0.162
-138.443	-106.545	0.116	0.025
-137.429	-200.000	-0.044	-0.260
-136.414	-21.157	0.259	-0.156
-135.399	452.563	-0.049	0.108
-134.385	-200.000	0.076	-0.452
-133.370	-43.151	0.214	0.107
-132.356	-1.083	-0.127	0.089
-131.341	-108.108	0.123	-0.026
-130.326	-127.102	-0.137	0.020
-129.312	188.177	-0.094	-0.138
-128.297	-62.483	-0.220	-0.090
-127.283	-200.000	0.006	-0.078
-126.268	-200.000	0.033	-0.278
-125.253	800.000	-0.019	0.073
-124.239	56.801	0.057	-0.055
-123.224	228.768	0.099	0.159
-122.210	-200.000	-0.036	0.343
-121.195	-200.000	-0.024	0.215
